DTS Sentinel unit serial number:	SN413079Multiplexer serial number:	ORYXHardware model number:	OX4-SRSoftware version number:	ORYX F/W v4.00 Oryx Data Collector v3.7.2.0data status	okinstallation	princeton_trtdifferential loss correction	single-endedforward channel	channel 3reverse channel	N/Adate	2019/09/11time	02:26:10forward acquisition time	60.00reverse acquisition time	0.00gamma	496.2192k internal	0.2332k external	0.2332temperature offset calibration	0.9906default loss term (dB/km)	0.3790temperature slope calibration	1.0000multiplexer offset coefficient	1.0000multiplexer slope coefficient	1.0000fibre end	0.00T internal ref (°C)	29.25T ext. ref 1 (°C)	-0.32T ext. ref 2 (°C)	23.52length (m)	temperature (°C)	Stokes	anti-Stokes-747.200	323.583	0.043	0.082
-746.185	-68.956	0.178	-0.069
-745.171	-137.268	0.167	-0.019
-744.156	333.522	-0.113	0.219
-743.142	800.000	0.008	0.030
-742.127	211.437	-0.141	-0.223
-741.112	800.000	-0.056	-0.221
-740.098	-172.604	-0.309	-0.010
-739.083	-200.000	0.024	-0.140
-738.069	165.015	0.120	0.170
-737.054	-89.061	-0.424	-0.126
-736.039	-200.000	0.038	-0.197
-735.025	4.203	0.123	0.091
-734.010	-58.826	-0.401	-0.174
-732.996	-200.000	-0.023	-0.349
-731.981	-56.831	0.294	0.131
-730.966	-87.313	0.247	-0.075
-729.952	186.057	-0.128	0.191
-728.937	25.790	-0.265	-0.222
-727.923	36.262	0.039	-0.035
-726.908	164.650	-0.163	0.230
-725.894	7.819	-0.189	-0.142
-724.879	31.746	-0.164	-0.142
-723.864	28.313	0.113	-0.096
-722.850	-52.400	-0.238	0.111
-721.835	107.505	-0.114	0.136
-720.821	-200.000	0.004	0.046
-719.806	297.936	0.205	-0.379
-718.791	-200.000	-0.013	-0.191
-717.777	204.517	-0.144	0.224
-716.762	31.716	0.073	-0.063
-715.748	-200.000	-0.011	0.063
-714.733	800.000	0.061	0.192
-713.718	-200.000	0.060	-0.280
-712.704	81.753	-0.311	-0.339
-711.689	-70.965	-0.186	0.070
-710.675	-63.269	-0.296	-0.123
-709.660	-19.057	-0.207	0.129
-708.645	50.510	0.090	-0.086
-707.631	-167.074	0.145	0.006
-706.616	-182.147	0.157	-0.003
-705.602	33.263	0.104	-0.091
-704.587	343.915	-0.183	0.360
-703.572	-200.000	0.032	-0.341
-702.558	800.000	-0.096	-0.275
-701.543	492.603	0.057	0.131
-700.529	-200.000	-0.024	-0.220
-699.514	594.139	0.087	-0.215
-698.499	-200.000	0.091	-0.477
-697.485	-18.146	0.180	0.113
-696.470	-56.350	-0.348	-0.155
-695.456	-11.886	-0.057	0.037
-694.441	70.029	0.064	-0.067
-693.426	-94.494	0.144	0.039
-692.412	-200.000	0.028	0.357
-691.397	-200.000	-0.078	-0.458
-690.383	471.994	0.035	0.079
-689.368	-14.183	-0.166	-0.107
-688.354	-62.600	0.246	0.102
-687.339	-6.373	0.138	-0.094
-686.324	432.703	-0.072	-0.157
-685.310	-88.599	0.031	-0.009
-684.295	61.986	-0.078	0.078
-683.281	-27.371	0.343	-0.200
-682.266	268.486	-0.199	-0.350
-681.251	104.062	0.220	-0.259
-680.237	-87.694	0.023	0.007
-679.222	68.130	0.253	-0.260
-678.208	-33.786	-0.413	-0.229
-677.193	800.000	-0.045	-0.126
-676.178	141.504	-0.214	-0.285
-675.164	800.000	-0.019	-0.064
-674.149	-200.000	-0.006	-0.335
-673.135	-67.907	-0.111	-0.043
-672.120	383.979	-0.104	-0.215
-671.105	-200.000	0.026	-0.136
-670.091	420.129	-0.048	-0.104
-669.076	287.660	-0.052	-0.095
-668.062	768.271	0.057	0.155
-667.047	800.000	0.071	-0.217
-666.032	-88.482	0.247	-0.074
-665.018	60.207	0.207	-0.205
-664.003	-88.806	0.069	-0.020
-662.989	79.478	0.111	0.119
-661.974	800.000	-0.093	-0.341
-660.959	14.701	0.227	-0.178
-659.945	-71.413	0.182	-0.069
-658.930	-187.246	-0.403	0.005
-657.916	-200.000	-0.027	-0.256
-656.901	186.105	-0.137	-0.204
-655.886	-16.834	0.094	0.059
-654.872	217.198	-0.080	0.128
-653.857	800.000	0.040	-0.116
-652.843	17.027	-0.298	-0.237
-651.828	219.538	0.192	-0.308
-650.814	-142.032	0.333	-0.033
-649.799	74.042	0.154	0.162
-648.784	-70.929	0.189	-0.071
-647.770	-200.000	0.002	-0.327
-646.755	53.149	0.145	-0.139
-645.741	194.528	0.165	-0.251
-644.726	-121.226	-0.145	-0.024
-643.711	-200.000	-0.013	-0.301
-642.697	506.092	0.088	0.203
-641.682	32.453	0.065	-0.057
-640.668	-51.990	-0.274	0.127
-639.653	-200.000	0.046	0.274
-638.638	-68.220	-0.151	-0.059
-637.624	-140.727	0.301	0.031
-636.609	215.266	0.089	0.141
-635.595	500.189	-0.065	0.149
-634.580	-47.749	0.177	-0.086
-633.565	53.406	0.065	-0.062
-632.551	177.219	-0.119	0.174
-631.536	-200.000	-0.039	0.213
-630.522	-156.723	-0.134	-0.008
-629.507	-200.000	0.003	-0.044
-628.492	-200.000	-0.028	0.323
-627.478	-52.952	-0.389	-0.179
-626.463	29.690	-0.081	0.069
-625.449	101.319	-0.109	-0.127
-624.434	-114.461	-0.092	0.018
-623.419	-46.671	0.112	-0.055
-622.405	413.021	0.047	0.099
-621.390	-41.184	-0.076	-0.039
-620.376	-200.000	-0.010	-0.132
-619.361	25.086	0.055	0.046
-618.346	-25.076	-0.262	-0.155
-617.332	-200.000	-0.004	0.120
-616.317	-102.594	-0.288	-0.069
-615.303	734.369	-0.042	0.114
-614.288	-40.072	-0.434	-0.226
-613.273	-74.171	0.141	-0.051
-612.259	276.824	-0.093	-0.165
-611.244	2.764	0.115	0.083
-610.230	800.000	-0.144	-0.483
-609.215	-93.729	-0.098	-0.027
-608.201	-69.273	-0.265	0.102
-607.186	-80.761	0.263	-0.087
-606.171	77.855	0.066	-0.071
-605.157	40.093	-0.233	-0.209
-604.142	-88.047	-0.173	0.052
-603.128	-56.460	-0.223	0.099
-602.113	-64.595	-0.325	0.132
-601.098	138.019	0.116	0.152
-600.084	-144.892	-0.102	0.009
-599.069	-200.000	0.011	0.410
-598.055	617.171	0.047	-0.117
-597.040	800.000	0.032	0.098
-596.025	-20.627	-0.478	-0.293
-595.011	93.777	-0.088	0.100
-593.996	26.839	0.236	-0.198
-592.982	-200.000	0.029	-0.506
-591.967	42.145	0.036	0.033
-590.952	-200.000	0.024	-0.241
-589.938	216.161	-0.155	0.246
-588.923	89.783	-0.149	0.167
-587.909	332.340	-0.082	-0.159
-586.894	233.740	0.164	-0.269
-585.879	53.199	-0.202	0.194
-584.865	10.705	0.174	0.133
-583.850	-104.291	-0.215	-0.050
-582.836	-200.000	-0.011	-0.054
-581.821	44.668	-0.108	0.099
-580.806	-41.434	0.380	-0.195
-579.792	-60.685	0.147	-0.062
-578.777	-200.000	-0.019	0.168
-577.763	-31.660	0.273	0.153
-576.748	194.482	-0.135	-0.204
-575.733	-27.697	0.053	-0.031
-574.719	-30.308	0.217	-0.123
-573.704	-20.749	-0.376	-0.231
-572.690	-200.000	-0.011	0.088
-571.675	21.223	-0.050	0.041
-570.661	-65.367	0.187	-0.075
-569.646	424.913	-0.072	-0.156
-568.631	-9.597	-0.091	-0.060
-567.617	581.869	0.068	0.166
-566.602	108.275	-0.098	0.116
-565.588	-200.000	0.004	-0.126
-564.573	636.002	0.031	-0.078
-563.558	80.538	0.087	-0.094
-562.544	-66.464	-0.294	0.117
-561.529	18.741	0.234	-0.187
-560.515	-70.718	-0.294	-0.111
-559.500	800.000	0.077	0.306
-558.485	-45.923	0.166	0.082
-557.471	337.796	-0.063	-0.123
-556.456	-200.000	-0.012	0.089
-555.442	157.936	-0.133	-0.183
-554.427	-53.062	-0.221	-0.101
-553.412	-137.449	-0.097	-0.011
-552.398	-3.758	-0.054	-0.037
-551.383	-200.000	-0.020	0.262
-550.369	-91.417	-0.329	0.094
-549.354	367.247	0.032	-0.064
-548.339	-22.140	0.272	-0.165
-547.325	-200.000	-0.019	0.280
-546.310	129.481	-0.289	-0.369
-545.296	-129.573	0.127	0.018
-544.281	800.000	-0.027	-0.099
-543.266	800.000	0.023	-0.083
-542.252	-200.000	0.037	-0.312
-541.237	46.554	0.107	0.099
-540.223	-63.629	0.194	-0.080
-539.208	-61.629	-0.545	0.228
-538.193	-67.222	0.254	0.100
-537.179	607.268	0.035	0.087
-536.164	154.997	-0.138	0.189
-535.150	6.153	0.175	-0.130
-534.135	-195.984	-0.191	0.001
-533.121	-45.309	0.159	0.079
-532.106	-126.628	-0.261	-0.039
-531.091	115.834	-0.195	-0.238
-530.077	329.968	-0.066	-0.127
-529.062	190.333	0.093	-0.140
-528.048	343.571	-0.141	-0.276
-527.033	244.267	0.037	-0.062
-526.018	465.205	0.154	-0.345
-525.004	-57.076	0.195	0.086
-523.989	167.177	-0.093	-0.132
-522.975	219.947	-0.044	0.070
-521.960	-200.000	-0.013	0.227
-520.945	7.268	-0.111	0.083
-519.931	11.982	0.137	-0.105
-518.916	-81.180	-0.072	0.024
-517.902	-101.723	-0.163	0.039
-516.887	-66.543	0.026	-0.010
-515.872	77.245	-0.294	-0.311
-514.858	394.771	0.039	0.081
-513.843	-200.000	0.017	0.266
-512.829	-200.000	0.063	-0.311
-511.814	399.928	0.049	0.102
-510.799	672.703	0.079	-0.204
-509.785	-17.038	-0.041	0.026
-508.770	-125.921	-0.324	0.049
-507.756	36.982	0.082	-0.072
-506.741	-85.225	0.213	0.066
-505.726	-200.000	-0.022	0.265
-504.712	159.042	-0.082	-0.113
-503.697	-162.711	0.179	-0.009
-502.683	7.099	-0.223	0.166
-501.668	-19.274	-0.399	0.247
-500.653	-110.510	-0.460	-0.095
-499.639	704.104	0.091	0.238
-498.624	-200.000	0.004	-0.170
-497.610	-121.214	-0.134	0.022
-496.595	93.098	0.155	0.174
-495.581	-95.731	-0.204	-0.054
-494.566	590.831	-0.038	0.094
-493.551	387.608	-0.036	0.074
-492.537	108.534	0.206	0.245
-491.522	-200.000	0.028	-0.195
-490.508	-200.000	-0.044	0.237
-489.493	458.371	0.083	0.183
-488.478	-109.379	0.269	-0.057
-487.464	-105.949	-0.096	-0.021
-486.449	-200.000	0.006	-0.081
-485.435	90.449	0.163	0.181
-484.420	-35.441	-0.163	-0.088
-483.405	-106.428	0.097	0.022
-482.391	800.000	-0.042	-0.140
-481.376	-172.484	-0.212	0.007
-480.362	204.186	0.078	0.121
-479.347	358.337	0.031	-0.062
-478.332	-130.889	-0.038	-0.005
-477.318	800.000	-0.052	-0.149
-476.303	-61.999	0.091	-0.038
-475.289	332.580	0.164	0.315
-474.274	293.689	0.140	-0.255
-473.259	800.000	-0.032	-0.130
-472.245	-44.545	0.263	0.131
-471.230	-111.952	-0.142	-0.029
-470.216	108.001	0.110	0.130
-469.201	688.320	-0.130	0.340
-468.186	-200.000	-0.087	-0.506
-467.172	-82.423	-0.287	-0.093
-466.157	-200.000	-0.036	-0.279
-465.143	-5.779	0.296	-0.202
-464.128	-17.114	-0.186	-0.117
-463.113	-92.210	-0.240	-0.067
-462.099	435.645	-0.196	0.424
-461.084	-200.000	0.024	0.375
-460.070	82.356	0.063	0.068
-459.055	-18.588	-0.066	0.041
-458.040	31.981	-0.120	0.103
-457.026	-200.000	0.045	0.310
-456.011	513.116	-0.082	0.190
-454.997	-200.000	-0.006	-0.101
-453.982	-200.000	0.035	-0.220
-452.968	164.209	-0.075	0.105
-451.953	-116.912	0.293	-0.053
-450.938	800.000	0.075	-0.251
-449.924	7.690	-0.205	0.153
-448.909	-117.657	-0.096	0.017
-447.895	-200.000	-0.010	0.278
-446.880	-200.000	0.017	0.128
-445.865	79.418	-0.123	-0.131
-444.851	800.000	0.076	-0.238
-443.836	-83.713	0.149	0.047
-442.822	-200.000	0.001	-0.056
-441.807	-200.000	0.014	-0.247
-440.792	-95.674	0.307	0.082
-439.778	-133.699	0.113	-0.014
-438.763	61.266	-0.179	0.177
-437.749	46.808	-0.130	0.120
-436.734	-110.921	-0.090	0.018
-435.719	-112.837	-0.439	0.087
-434.705	-200.000	-0.021	0.104
-433.690	-69.425	0.258	0.098
-432.676	-68.386	0.173	0.067
-431.661	47.655	0.009	0.008
-430.646	-200.000	-0.052	0.341
-429.632	-136.779	0.257	0.029
-428.617	-200.000	-0.031	-0.202
-427.603	800.000	-0.168	0.498
-426.588	-103.543	0.271	-0.063
-425.573	473.308	-0.114	0.256
-424.559	-35.187	-0.179	-0.097
-423.544	-164.999	0.271	0.012
-422.530	-200.000	-0.018	-0.196
-421.515	-24.815	0.147	0.087
-420.500	-200.000	-0.017	0.398
-419.486	450.865	-0.181	0.396
-418.471	800.000	-0.033	-0.138
-417.457	51.976	0.264	-0.250
-416.442	341.294	0.158	0.307
-415.428	800.000	0.059	0.220
-414.413	-138.724	-0.376	0.041
-413.398	-42.284	-0.189	0.096
-412.384	-52.882	0.044	-0.020
-411.369	87.368	0.124	-0.137
-410.355	-200.000	-0.022	0.170
-409.340	-132.483	-0.231	-0.030
-408.325	800.000	0.057	0.219
-407.311	100.021	0.077	-0.089
-406.296	-40.052	0.276	-0.143
-405.282	-84.366	0.352	-0.110
-404.267	-107.798	0.481	-0.104
-403.252	-200.000	-0.023	-0.109
-402.238	-165.162	0.506	-0.022
-401.223	-200.000	0.024	-0.366
-400.209	101.917	-0.171	-0.198
-399.194	-200.000	-0.017	-0.218
-398.179	205.111	0.112	0.172
-397.165	-83.984	0.363	0.114
-396.150	18.929	-0.187	-0.149
-395.136	441.877	0.135	0.294
-394.121	-64.753	-0.297	-0.120
-393.106	-9.780	0.213	0.141
-392.092	800.000	-0.093	0.340
-391.077	76.039	0.187	-0.196
-390.063	800.000	0.073	0.255
-389.048	-71.665	-0.291	-0.108
-388.033	-200.000	0.065	0.415
-387.019	-22.123	-0.229	-0.138
-386.004	-96.708	0.323	-0.084
-384.990	-69.183	0.150	0.057
-383.975	175.539	-0.075	0.108
-382.960	3.680	-0.262	0.190
-381.946	349.543	-0.157	0.308
-380.931	-142.540	0.323	0.031
-379.917	259.017	-0.036	-0.061
-378.902	-147.104	0.138	-0.012
-377.888	-200.000	-0.006	0.099
-376.873	327.854	0.102	0.194
-375.858	800.000	-0.084	-0.269
-374.844	-107.685	0.073	0.016
-373.829	-200.000	0.006	0.024
-372.815	-41.425	0.204	0.104
-371.800	-66.607	0.124	-0.049
-370.785	-200.000	-0.044	-0.322
-369.771	-37.373	-0.324	-0.172
-368.756	-18.659	-0.074	0.046
-367.742	8.620	0.223	-0.167
-366.727	-29.642	-0.121	0.068
-365.712	0.761	0.191	0.135
-364.698	248.126	0.049	0.082
-363.683	800.000	-0.048	0.143
-362.669	-200.000	-0.024	-0.278
-361.654	22.737	-0.094	0.076
-360.639	427.901	-0.154	-0.331
-359.625	621.527	-0.051	-0.127
-358.610	-106.662	0.046	-0.010
-357.596	800.000	0.121	-0.343
-356.581	-78.840	0.174	-0.059
-355.566	11.049	-0.006	-0.005
-354.552	-103.985	-0.053	-0.012
-353.537	800.000	0.045	0.166
-352.523	-200.000	-0.106	-0.462
-351.508	523.537	-0.225	0.524
-350.493	-200.000	-0.024	0.444
-349.479	-26.348	-0.184	0.107
-348.464	-200.000	0.016	0.346
-347.450	33.410	-0.055	0.047
-346.435	47.404	-0.061	-0.056
-345.420	-200.000	-0.001	0.125
-344.406	510.241	0.059	0.137
-343.391	-43.787	-0.353	-0.176
-342.377	54.982	0.239	0.229
-341.362	-85.193	0.276	-0.086
-340.348	57.381	-0.138	0.133
-339.333	-52.371	0.063	-0.029
-338.318	127.626	0.265	0.334
-337.304	-119.456	0.235	-0.040
-336.289	-95.867	0.626	0.165
-335.275	-101.066	0.381	-0.093
-334.260	-81.771	-0.162	-0.052
-333.245	178.242	0.087	-0.126
-332.231	-77.597	-0.115	0.039
-331.216	-165.775	0.212	0.009
-330.202	-51.001	-0.063	-0.029
-329.187	-147.751	-0.175	0.015
-328.172	-200.000	0.009	0.072
-327.158	219.995	0.136	0.215
-326.143	-200.000	-0.013	0.083
-325.129	-119.968	-0.375	-0.064
-324.114	-90.340	0.105	0.030
-323.099	800.000	-0.063	0.195
-322.085	-200.000	-0.028	0.170
-321.070	534.846	-0.140	0.329
-320.056	-200.000	-0.012	0.103
-319.041	800.000	0.026	-0.088
-318.026	37.494	-0.145	0.127
-317.012	-58.400	0.057	-0.024
-315.997	-40.285	-0.112	-0.058
-314.983	800.000	-0.099	-0.342
-313.968	77.107	-0.311	-0.327
-312.953	-134.573	0.190	-0.023
-311.939	-174.429	0.224	0.006
-310.924	-200.000	0.033	-0.199
-309.910	800.000	0.118	-0.382
-308.895	-38.201	-0.463	-0.243
-307.880	94.710	-0.044	-0.050
-306.866	40.367	-0.160	0.143
-305.851	-92.042	-0.215	-0.060
-304.837	19.767	0.122	-0.097
-303.822	-78.337	0.154	-0.052
-302.807	-200.000	-0.011	-0.171
-301.793	84.010	-0.316	0.342
-300.778	-74.951	-0.234	0.083
-299.764	-148.462	-0.216	0.018
-298.749	-69.356	-0.016	-0.006
-297.735	-94.091	0.444	0.120
-296.720	630.558	0.046	-0.114
-295.705	22.093	0.153	-0.123
-294.691	734.136	0.142	-0.376
-293.676	-40.225	0.060	0.031
-292.662	167.324	-0.149	0.209
-291.647	-63.782	0.137	-0.055
-290.632	248.114	-0.246	-0.412
-289.618	-179.762	0.362	0.008
-288.603	-200.000	-0.062	-0.317
-287.589	-200.000	0.091	0.493
-286.574	195.180	0.140	0.211
-285.559	281.598	0.051	-0.091
-284.545	257.284	0.046	0.079
-283.530	800.000	0.025	0.099
-282.516	-93.846	-0.242	0.066
-281.501	72.363	0.264	0.272
-280.486	-139.779	0.242	-0.025
-279.472	-83.568	-0.355	-0.112
-278.457	405.172	-0.085	0.177
-277.443	2.950	-0.207	-0.148
-276.428	-63.323	0.213	0.087
-275.413	2.574	-0.109	-0.078
-274.399	-200.000	0.002	0.052
-273.384	-138.285	0.341	0.037
-272.370	-54.755	-0.154	-0.069
-271.355	250.337	-0.011	-0.018
-270.340	-47.837	0.264	0.126
-269.326	-101.187	-0.160	0.039
-268.311	-17.445	0.288	0.179
-267.297	-128.308	0.114	-0.016
-266.282	-46.076	-0.180	0.087
-265.267	-123.170	0.097	0.015
-264.253	-43.754	-0.168	-0.083
-263.238	428.824	-0.116	-0.248
-262.224	800.000	-0.125	-0.374
-261.209	-163.314	0.311	-0.015
-260.195	-72.858	0.046	-0.017
-259.180	-135.028	0.436	-0.052
-258.165	744.301	-0.058	-0.155
-257.151	199.058	0.104	-0.157
-256.136	-200.000	-0.019	0.120
-255.122	-18.633	-0.247	0.152
-254.107	-200.000	-0.018	-0.264
-253.092	41.842	-0.084	0.075
-252.078	-51.745	-0.540	0.248
-251.063	-200.000	-0.027	-0.285
-250.049	22.507	-0.171	-0.138
-249.034	226.858	-0.066	-0.106
-248.019	800.000	0.035	0.106
-247.005	20.789	-0.212	0.169
-245.990	17.545	0.307	-0.241
-244.976	393.270	0.113	0.232
-243.961	46.687	0.174	0.159
-242.946	110.739	-0.214	0.254
-241.932	-200.000	0.064	0.285
-240.917	-200.000	0.014	0.254
-239.903	-99.220	-0.109	-0.027
-238.888	388.430	0.263	-0.536
-237.873	-193.326	0.067	-0.001
-236.859	7.749	-0.269	-0.199
-235.844	-200.000	0.013	-0.337
-234.830	-171.986	-0.167	0.005
-233.815	800.000	0.035	0.127
-232.800	-96.692	0.262	0.068
-231.786	9.437	0.182	-0.136
-230.771	-18.185	-0.199	0.123
-229.757	-65.899	-0.220	0.087
-228.742	-200.000	-0.017	0.119
-227.727	-184.104	0.568	-0.009
-226.713	-89.620	0.290	-0.084
-225.698	-200.000	0.022	0.261
-224.684	287.683	0.142	-0.253
-223.669	-122.994	0.173	-0.027
-222.655	161.006	-0.151	-0.207
-221.640	-56.362	0.318	-0.139
-220.625	-26.508	-0.304	0.176
-219.611	-72.109	0.317	0.116
-218.596	-169.733	0.308	-0.011
-217.582	-23.764	0.177	-0.104
-216.567	-103.773	-0.164	0.038
-215.552	800.000	-0.071	0.221
-214.538	-96.033	-0.248	-0.065
-213.523	9.983	0.186	0.139
-212.509	-200.000	0.007	0.135
-211.494	243.680	0.137	-0.226
-210.479	-2.020	0.108	-0.075
-209.465	-66.270	0.231	-0.090
-208.450	-200.000	-0.026	-0.137
-207.436	137.574	-0.028	-0.036
-206.421	-107.436	0.423	-0.091
-205.406	-22.524	0.148	-0.088
-204.392	800.000	0.038	-0.125
-203.377	32.495	0.023	0.020
-202.363	134.656	-0.074	0.095
-201.348	-51.011	0.106	0.049
-200.333	-7.822	0.393	0.261
-199.319	-200.000	0.059	0.414
-198.304	421.672	0.160	-0.338
-197.290	-200.000	0.035	-0.158
-196.275	-98.815	0.289	0.072
-195.260	17.480	0.100	-0.078
-194.246	155.758	0.085	0.115
-193.231	352.839	-0.121	0.236
-192.217	-142.753	-0.363	0.035
-191.202	-200.000	0.010	0.256
-190.187	-200.000	-0.045	-0.194
-189.173	-153.670	-0.118	0.008
-188.158	44.577	0.105	0.095
-187.144	-83.624	0.171	0.054
-186.129	119.623	-0.081	-0.098
-185.114	-103.898	-0.402	-0.092
-184.100	800.000	-0.066	-0.211
-183.085	106.071	-0.190	0.222
-182.071	800.000	0.037	0.141
-181.056	-50.220	-0.110	-0.051
-180.042	184.741	-0.172	-0.251
-179.027	187.838	-0.142	0.209
-178.012	137.505	-0.038	0.049
-176.998	79.472	0.237	-0.250
-175.983	503.161	-0.042	-0.095
-174.969	-107.979	0.221	-0.047
-173.954	-30.268	0.331	-0.185
-172.939	51.824	0.089	0.083
-171.925	124.821	0.128	0.158
-170.910	-32.930	-0.246	0.134
-169.896	-200.000	-0.028	-0.253
-168.881	-13.402	-0.176	-0.112
-167.866	-17.610	0.307	0.190
-166.852	341.600	0.096	0.185
-165.837	181.424	-0.092	-0.133
-164.823	146.219	-0.206	0.272
-163.808	-200.000	0.070	0.303
-162.793	-200.000	0.034	-0.165
-161.779	396.259	-0.105	-0.215
-160.764	800.000	0.036	-0.103
-159.750	201.266	0.044	0.067
-158.735	639.385	0.112	-0.280
-157.720	52.885	0.123	0.115
-156.706	-84.475	0.090	-0.028
-155.691	-200.000	0.042	0.258
-154.677	-200.000	-0.036	-0.159
-153.662	800.000	-0.111	-0.349
-152.647	83.980	-0.317	-0.340
-151.633	-35.667	-0.328	-0.175
-150.618	783.615	-0.063	0.170
-149.604	-95.634	-0.185	0.049
-148.589	-1.104	0.166	-0.116
-147.574	-200.000	0.020	0.204
-146.560	57.053	0.139	0.133
-145.545	-22.998	0.171	-0.102
-144.531	-89.939	0.343	-0.098
-143.516	-39.704	0.179	-0.092
-142.502	-200.000	0.016	0.251
-141.487	-67.016	0.261	-0.101
-140.472	1.692	0.311	0.220
-139.458	-179.348	0.567	-0.012
-138.443	-80.597	-0.061	0.020
-137.429	-6.831	-0.054	-0.036
-136.414	320.285	-0.157	0.293
-135.399	303.242	-0.098	-0.178
-134.385	-28.649	0.273	-0.155
-133.370	63.769	-0.256	0.253
-132.356	-40.391	-0.278	0.142
-131.341	268.803	0.103	0.177
-130.326	130.305	0.196	0.246
-129.312	158.100	0.056	0.076
-128.297	-115.007	-0.203	0.038
-127.283	21.973	0.240	0.192
-126.268	29.146	0.360	0.300
-125.253	328.469	0.173	-0.325
-124.239	-118.061	-0.162	-0.028
-123.224	-172.026	-0.377	-0.012
-122.210	-7.307	0.174	-0.116
-121.195	-35.945	0.183	0.097
