DTS Sentinel unit serial number:	SN413079Multiplexer serial number:	ORYXHardware model number:	OX4-SRSoftware version number:	ORYX F/W v4.00 Oryx Data Collector v3.7.2.0data status	okinstallation	princeton_trtdifferential loss correction	single-endedforward channel	channel 3reverse channel	N/Adate	2019/09/10time	23:58:10forward acquisition time	60.00reverse acquisition time	0.00gamma	496.2192k internal	0.2331k external	0.2331temperature offset calibration	0.9922default loss term (dB/km)	0.3790temperature slope calibration	1.0000multiplexer offset coefficient	1.0000multiplexer slope coefficient	1.0000fibre end	0.00T internal ref (°C)	29.44T ext. ref 1 (°C)	-0.29T ext. ref 2 (°C)	23.05length (m)	temperature (°C)	Stokes	anti-Stokes-747.200	-200.000	-0.021	0.354
-746.185	800.000	0.034	0.104
-745.171	505.889	0.139	-0.324
-744.156	166.597	0.082	0.116
-743.142	388.319	0.052	-0.109
-742.127	143.299	0.129	-0.172
-741.112	-22.993	0.090	-0.054
-740.098	-32.404	-0.315	0.177
-739.083	-111.288	-0.158	-0.033
-738.069	116.512	-0.159	0.196
-737.054	225.513	0.066	-0.108
-736.039	-180.175	-0.505	0.011
-735.025	267.949	0.136	0.239
-734.010	116.206	-0.064	-0.079
-732.996	151.193	-0.162	0.221
-731.981	-88.465	-0.285	-0.086
-730.966	590.596	-0.058	0.143
-729.952	-70.518	0.127	-0.048
-728.937	-36.964	-0.263	-0.142
-727.923	210.240	-0.189	-0.298
-726.908	39.380	0.176	-0.158
-725.894	-133.661	0.331	-0.042
-724.879	585.963	-0.045	-0.111
-723.864	-27.994	-0.249	-0.145
-722.850	800.000	-0.114	-0.448
-721.835	721.794	-0.042	0.112
-720.821	527.453	-0.097	-0.230
-719.806	358.257	-0.128	-0.257
-718.791	-200.000	-0.008	-0.102
-717.777	567.375	-0.053	-0.129
-716.762	96.612	0.205	0.236
-715.748	256.420	0.115	0.198
-714.733	137.412	0.125	-0.164
-713.718	9.946	-0.068	0.052
-712.704	4.916	0.273	-0.202
-711.689	-45.140	0.308	-0.154
-710.675	-200.000	-0.043	-0.368
-709.660	-68.743	-0.152	0.059
-708.645	-37.759	0.258	0.138
-707.631	800.000	0.120	-0.487
-706.616	340.921	0.163	-0.320
-705.602	142.583	-0.113	-0.150
-704.587	-79.351	0.287	0.098
-703.572	82.855	-0.014	0.015
-702.558	-118.588	-0.240	-0.043
-701.543	-151.946	-0.476	-0.035
-700.529	-77.567	-0.406	0.142
-699.514	226.505	0.127	-0.208
-698.499	83.525	-0.113	0.124
-697.485	-57.984	0.075	0.033
-696.470	-200.000	-0.055	0.262
-695.456	-109.666	-0.184	-0.039
-694.441	-5.433	0.129	0.089
-693.426	-17.587	-0.181	-0.114
-692.412	-100.027	-0.097	-0.024
-691.397	-200.000	-0.017	-0.121
-690.383	-59.106	-0.250	-0.108
-689.368	-200.000	-0.053	-0.248
-688.354	-24.191	0.077	-0.046
-687.339	-135.301	0.118	-0.014
-686.324	37.981	0.040	0.036
-685.310	800.000	-0.064	-0.241
-684.295	122.566	0.094	-0.118
-683.281	-139.462	0.056	-0.006
-682.266	-30.426	-0.024	0.013
-681.251	89.075	0.124	0.139
-680.237	-200.000	-0.012	0.056
-679.222	10.103	0.172	-0.131
-678.208	-200.000	0.014	0.186
-677.193	127.112	0.096	-0.122
-676.178	-6.148	0.215	0.147
-675.164	-146.100	0.342	0.030
-674.149	-200.000	-0.017	-0.122
-673.135	-62.791	-0.206	-0.086
-672.120	23.463	0.120	0.099
-671.105	-89.464	-0.242	0.071
-670.091	338.803	-0.138	-0.269
-669.076	-111.109	-0.200	-0.041
-668.062	-99.117	0.144	0.037
-667.047	-200.000	-0.043	0.228
-666.032	49.027	-0.101	0.096
-665.018	115.613	-0.084	0.103
-664.003	-130.688	0.221	0.030
-662.989	-146.840	-0.197	-0.017
-661.974	159.230	0.206	-0.287
-660.959	800.000	0.015	0.047
-659.945	315.180	0.148	0.281
-658.930	14.861	0.265	-0.208
-657.916	-21.337	-0.202	0.123
-656.901	314.588	0.134	0.253
-655.886	-121.159	0.230	0.039
-654.872	98.291	0.253	-0.292
-653.857	800.000	0.084	-0.322
-652.843	202.434	0.100	-0.155
-651.828	-200.000	0.003	-0.069
-650.814	-86.727	-0.097	-0.030
-649.799	-140.964	-0.237	0.024
-648.784	247.254	-0.060	-0.101
-647.770	-39.801	0.213	0.111
-646.755	-113.425	0.294	0.058
-645.741	800.000	0.053	-0.164
-644.726	-86.114	-0.135	-0.042
-643.711	-11.303	-0.008	-0.006
-642.697	255.237	0.038	0.065
-641.682	1.328	0.303	-0.218
-640.668	-71.137	-0.149	0.056
-639.653	576.673	0.268	-0.657
-638.638	-116.254	0.198	0.037
-637.624	345.846	-0.175	0.346
-636.609	524.890	-0.145	0.342
-635.595	-53.741	-0.171	0.078
-634.580	136.696	-0.113	-0.147
-633.565	800.000	-0.097	-0.336
-632.551	-73.167	0.178	-0.065
-631.536	800.000	0.073	0.285
-630.522	-200.000	-0.000	-0.004
-629.507	-2.565	-0.245	-0.172
-628.492	-60.062	0.310	0.133
-627.478	-64.553	0.201	0.082
-626.463	-81.902	-0.134	0.044
-625.449	-200.000	0.051	-0.315
-624.434	-200.000	-0.032	0.279
-623.419	-200.000	-0.017	0.414
-622.405	-200.000	-0.034	0.236
-621.390	3.088	0.252	-0.184
-620.376	-0.510	-0.479	-0.340
-619.361	-109.100	0.140	0.030
-618.346	-59.117	0.304	-0.131
-617.332	152.220	0.149	0.204
-616.317	-45.304	0.180	-0.089
-615.303	-81.251	0.265	0.088
-614.288	-189.234	-0.415	0.005
-613.273	127.326	-0.150	0.190
-612.259	-33.329	-0.171	0.095
-611.244	-200.000	-0.063	-0.284
-610.230	-76.064	-0.266	-0.094
-609.215	276.208	0.161	-0.286
-608.201	-74.138	-0.114	0.041
-607.186	170.691	0.181	-0.259
-606.171	-200.000	0.012	-0.192
-605.157	142.607	0.112	-0.149
-604.142	-104.258	-0.242	-0.056
-603.128	-151.996	-0.235	0.017
-602.113	352.094	0.100	-0.199
-601.098	211.585	0.074	-0.117
-600.084	654.455	-0.044	0.114
-599.069	-106.446	0.179	0.040
-598.055	8.924	-0.032	0.024
-597.040	-132.876	0.441	0.056
-596.025	-90.654	-0.185	-0.053
-595.011	-124.094	0.276	-0.043
-593.996	-167.023	-0.322	-0.013
-592.982	800.000	0.127	0.350
-591.967	95.558	0.121	-0.138
-590.952	-117.899	-0.043	-0.008
-589.938	144.713	-0.022	-0.029
-588.923	23.336	-0.182	-0.150
-587.909	-47.755	-0.497	-0.241
-586.894	127.802	-0.122	-0.155
-585.879	61.524	-0.038	0.038
-584.865	-36.041	0.058	0.031
-583.850	-96.827	-0.068	0.018
-582.836	800.000	-0.080	0.269
-581.821	-200.000	-0.024	-0.162
-580.806	634.530	0.099	-0.252
-579.792	-200.000	0.001	-0.039
-578.777	407.207	0.017	0.036
-577.763	-172.704	-0.113	-0.004
-576.748	-200.000	0.032	0.218
-575.733	-200.000	0.017	0.149
-574.719	800.000	0.031	-0.125
-573.704	-108.017	-0.309	0.067
-572.690	-148.798	-0.561	-0.045
-571.675	-200.000	0.015	-0.117
-570.661	3.424	-0.157	0.114
-569.646	35.687	0.073	-0.064
-568.631	328.096	-0.103	-0.197
-567.617	709.587	0.021	0.055
-566.602	-43.852	0.092	0.046
-565.588	-80.933	-0.221	0.073
-564.573	139.123	0.151	-0.199
-563.558	191.642	-0.171	-0.257
-562.544	-200.000	-0.039	-0.450
-561.529	-162.948	-0.426	0.021
-560.515	-61.073	0.267	0.113
-559.500	-200.000	0.022	0.248
-558.485	271.744	0.204	-0.359
-557.471	315.754	0.229	0.431
-556.456	10.046	0.030	0.023
-555.442	389.426	-0.138	0.285
-554.427	11.731	-0.215	-0.165
-553.412	-129.779	0.238	-0.033
-552.398	-90.964	0.066	0.019
-551.383	-73.911	-0.175	-0.063
-550.369	-3.839	-0.109	-0.076
-549.354	-19.589	-0.148	-0.091
-548.339	-43.306	0.125	-0.063
-547.325	-126.542	-0.160	-0.024
-546.310	-200.000	0.002	0.083
-545.296	6.113	-0.280	-0.207
-544.281	-71.462	-0.292	0.109
-543.266	-127.312	0.227	-0.033
-542.252	29.740	0.189	-0.161
-541.237	188.638	-0.096	-0.144
-540.223	-64.367	-0.221	0.090
-539.208	-200.000	-0.010	0.132
-538.193	-76.179	-0.159	-0.056
-537.179	252.268	0.061	-0.103
-536.164	-120.499	-0.359	-0.061
-535.150	-40.047	0.152	-0.079
-534.135	60.953	0.247	0.245
-533.121	-200.000	0.030	-0.433
-532.106	790.846	0.028	-0.076
-531.091	563.547	0.049	-0.119
-530.077	-126.537	0.194	0.029
-529.062	-168.159	-0.110	-0.004
-528.048	80.817	-0.238	0.256
-527.033	339.590	0.084	0.164
-526.018	506.011	-0.091	-0.210
-525.004	800.000	0.035	0.145
-523.989	0.103	-0.075	-0.053
-522.975	-200.000	0.039	-0.174
-521.960	104.425	0.174	-0.205
-520.945	800.000	-0.017	0.073
-519.931	800.000	-0.075	-0.241
-518.916	130.698	-0.050	0.064
-517.902	5.587	-0.093	0.069
-516.887	-11.565	-0.239	-0.157
-515.872	-200.000	0.007	0.258
-514.858	96.400	-0.186	-0.212
-513.843	195.786	-0.072	-0.109
-512.829	-175.623	0.120	-0.003
-511.814	296.223	-0.163	0.297
-510.799	534.703	-0.102	-0.240
-509.785	-46.893	0.115	0.056
-508.770	800.000	-0.017	0.059
-507.756	170.253	0.055	-0.079
-506.741	800.000	-0.038	-0.121
-505.726	800.000	0.093	-0.306
-504.712	-174.727	0.094	-0.003
-503.697	61.865	-0.142	-0.141
-502.683	257.472	-0.066	0.113
-501.668	-188.461	-0.113	0.001
-500.653	-197.002	0.073	0.000
-499.639	429.588	-0.112	0.241
-498.624	95.206	0.065	0.074
-497.610	-28.481	-0.174	-0.100
-496.595	-53.788	-0.256	-0.116
-495.581	19.646	-0.173	-0.139
-494.566	-139.608	-0.166	0.018
-493.551	-110.589	0.200	-0.041
-492.537	800.000	-0.070	-0.253
-491.522	-110.342	-0.089	-0.018
-490.508	-139.768	0.068	0.007
-489.493	-200.000	-0.010	0.069
-488.478	-131.433	-0.200	-0.026
-487.464	252.326	0.146	0.249
-486.449	501.318	-0.116	-0.267
-485.435	-200.000	-0.025	0.120
-484.420	140.610	0.181	-0.238
-483.405	108.685	-0.359	-0.427
-482.391	164.979	0.340	0.478
-481.376	77.311	0.026	-0.027
-480.362	-167.738	-0.244	-0.010
-479.347	370.102	-0.121	0.244
-478.332	104.144	-0.211	0.247
-477.318	197.214	0.204	0.310
-476.303	-129.938	-0.497	0.068
-475.289	-77.195	0.385	-0.134
-474.274	102.294	0.210	-0.245
-473.259	-101.798	-0.187	0.045
-472.245	-94.983	-0.419	-0.113
-471.230	-148.236	0.218	-0.018
-470.216	584.670	0.147	-0.359
-469.201	-61.120	-0.384	0.161
-468.186	553.934	-0.156	0.374
-467.172	383.709	0.060	0.123
-466.157	32.090	-0.104	0.089
-465.143	-200.000	-0.017	-0.091
-464.128	-200.000	-0.008	0.178
-463.113	-95.697	-0.075	0.020
-462.099	-95.900	0.362	0.096
-461.084	-200.000	-0.098	0.451
-460.070	96.778	-0.063	-0.071
-459.055	-155.887	0.100	-0.006
-458.040	205.891	-0.039	-0.060
-457.026	-14.498	-0.093	0.059
-456.011	-64.602	0.215	0.087
-454.997	245.807	0.151	-0.252
-453.982	429.242	0.038	-0.082
-452.968	122.344	-0.261	-0.325
-451.953	800.000	-0.115	-0.375
-450.938	333.088	-0.004	-0.008
-449.924	345.866	0.141	0.275
-448.909	401.461	0.136	0.285
-447.895	-87.420	-0.252	-0.076
-446.880	-200.000	0.000	-0.133
-445.865	-65.741	0.079	0.031
-444.851	-196.903	-0.102	0.001
-443.836	52.088	0.176	-0.167
-442.822	-21.366	0.225	0.137
-441.807	221.077	-0.084	-0.135
-440.792	800.000	0.149	0.518
-439.778	92.649	0.222	0.250
-438.763	358.293	-0.087	0.174
-437.749	110.852	0.022	0.027
-436.734	-142.812	-0.284	-0.028
-435.719	70.802	-0.189	0.194
-434.705	-69.795	-0.026	-0.010
-433.690	-22.886	0.233	-0.140
-432.676	-145.726	-0.145	0.013
-431.661	-16.846	-0.220	0.138
-430.646	149.578	0.083	-0.112
-429.632	512.411	0.036	0.083
-428.617	-200.000	0.010	-0.174
-427.603	221.447	-0.094	-0.150
-426.588	-74.357	0.093	0.033
-425.573	800.000	-0.062	0.242
-424.559	-200.000	0.009	0.150
-423.544	-200.000	-0.012	0.073
-422.530	-44.746	0.190	0.094
-421.515	800.000	-0.085	-0.286
-420.500	314.659	0.129	-0.241
-419.486	-12.099	0.369	-0.240
-418.471	-114.961	-0.313	0.059
-417.457	-87.992	-0.169	0.050
-416.442	-20.668	0.088	0.054
-415.428	32.390	-0.159	0.137
-414.413	-200.000	-0.035	-0.465
-413.398	-91.832	0.154	0.043
-412.384	-152.804	0.144	-0.010
-411.369	-168.362	-0.267	-0.010
-410.355	800.000	0.073	0.215
-409.340	760.119	0.061	0.163
-408.325	-144.153	-0.076	0.007
-407.311	92.129	0.207	-0.232
-406.296	205.142	0.276	0.426
-405.282	-200.000	0.013	0.410
-404.267	80.353	-0.136	-0.146
-403.252	-54.673	0.342	0.154
-402.238	79.656	-0.176	0.188
-401.223	-94.216	-0.214	-0.058
-400.209	22.822	-0.091	-0.074
-399.194	726.398	0.090	-0.239
-398.179	323.905	-0.167	0.317
-397.165	-7.414	-0.178	-0.120
-396.150	0.379	0.286	-0.203
-395.136	-143.712	-0.167	0.016
-394.121	44.355	-0.084	-0.077
-393.106	-200.000	-0.023	-0.406
-392.092	88.220	-0.129	0.142
-391.077	-200.000	-0.009	0.090
-390.063	-111.186	0.421	0.085
-389.048	90.434	-0.140	0.155
-388.033	-200.000	-0.036	0.292
-387.019	-125.610	0.264	-0.040
-386.004	-200.000	-0.070	0.433
-384.990	-200.000	0.007	-0.231
-383.975	-141.655	-0.137	0.014
-382.960	163.217	-0.146	-0.204
-381.946	91.326	0.120	-0.133
-380.931	-44.431	0.424	-0.210
-379.917	160.499	0.094	0.130
-378.902	52.519	0.266	0.252
-377.888	800.000	0.027	-0.111
-376.873	23.226	-0.341	0.278
-375.858	-80.382	-0.283	0.094
-374.844	43.746	0.133	0.121
-373.829	-4.602	-0.126	0.086
-372.815	26.255	0.255	-0.211
-371.800	-200.000	-0.094	-0.434
-370.785	-65.076	0.432	0.173
-369.771	-106.586	0.453	0.100
-368.756	278.334	0.068	0.120
-367.742	-52.497	-0.089	-0.041
-366.727	-131.270	0.051	-0.007
-365.712	16.624	-0.208	0.163
-364.698	261.377	0.198	0.340
-363.683	800.000	0.084	-0.298
-362.669	-39.833	-0.256	-0.133
-361.654	55.167	0.313	-0.300
-360.639	-83.232	-0.134	0.043
-359.625	-93.158	0.285	0.079
-358.610	-139.383	0.182	-0.019
-357.596	340.655	0.057	-0.111
-356.581	-200.000	0.019	-0.132
-355.566	-200.000	0.053	-0.265
-354.552	-25.024	0.225	-0.132
-353.537	224.317	0.098	-0.157
-352.523	162.682	-0.124	0.172
-351.508	-68.334	-0.168	-0.065
-350.493	800.000	-0.019	0.054
-349.479	-71.375	-0.247	-0.092
-348.464	-41.049	-0.199	-0.102
-347.450	-124.935	-0.287	-0.044
-346.435	-138.182	-0.344	-0.038
-345.420	94.796	0.161	0.182
-344.406	50.729	0.260	0.244
-343.391	-200.000	-0.052	0.259
-342.377	-62.389	0.145	-0.060
-341.362	134.385	0.166	0.214
-340.348	-149.125	-0.232	0.018
-339.333	800.000	0.092	-0.254
-338.318	-81.803	-0.316	0.103
-337.304	800.000	-0.100	0.312
-336.289	91.240	-0.131	-0.146
-335.275	75.603	0.043	0.045
-334.260	-162.054	0.279	-0.014
-333.245	133.842	-0.223	-0.285
-332.231	-150.337	-0.057	0.004
-331.216	-109.481	0.061	0.013
-330.202	-138.310	0.142	-0.016
-329.187	-123.223	0.330	-0.052
-328.172	800.000	0.032	-0.118
-327.158	-27.592	-0.270	-0.155
-326.143	29.172	0.108	0.091
-325.129	540.515	0.102	0.240
-324.114	-167.922	-0.259	-0.010
-323.099	-7.273	-0.232	0.156
-322.085	800.000	-0.057	0.215
-321.070	45.044	-0.176	-0.160
-320.056	551.585	-0.042	-0.101
-319.041	-37.767	-0.331	0.175
-318.026	202.545	0.070	0.107
-317.012	-170.162	-0.125	0.004
-315.997	-200.000	0.003	-0.264
-314.983	84.331	0.258	-0.280
-313.968	-200.000	0.017	0.090
-312.953	-200.000	-0.008	0.223
-311.939	-103.057	0.259	-0.061
-310.924	800.000	-0.090	0.253
-309.910	-78.594	0.272	-0.092
-308.895	360.635	-0.131	-0.260
-307.880	-200.000	-0.052	0.339
-306.866	-12.257	-0.290	0.188
-305.851	-106.080	-0.081	0.018
-304.837	-176.280	-0.181	0.005
-303.822	-54.763	0.311	-0.139
-302.807	67.216	-0.079	-0.079
-301.793	-26.232	0.199	0.116
-300.778	800.000	0.092	0.369
-299.764	72.596	0.031	0.032
-298.749	132.940	0.128	-0.163
-297.735	-16.289	-0.110	0.069
-296.720	-151.206	0.065	-0.005
-295.705	219.177	0.093	0.147
-294.691	680.905	0.047	0.121
-293.676	-128.667	-0.404	-0.056
-292.662	55.201	-0.227	0.217
-291.647	-152.203	-0.133	0.010
-290.632	-63.194	-0.150	-0.061
-289.618	-74.403	0.255	0.091
-288.603	285.794	-0.046	0.082
-287.589	-36.809	0.193	0.102
-286.574	141.955	0.066	0.087
-285.559	66.186	-0.214	-0.215
-284.545	800.000	-0.045	0.139
-283.530	-159.941	0.397	-0.021
-282.516	800.000	0.084	-0.292
-281.501	460.719	0.065	-0.143
-280.486	38.943	0.227	-0.200
-279.472	-200.000	-0.017	0.304
-278.457	-200.000	0.022	0.178
-277.443	-52.127	0.375	-0.172
-276.428	176.514	-0.181	0.261
-275.413	-128.223	0.135	0.019
-274.399	-200.000	-0.042	-0.229
-273.384	-60.384	-0.203	-0.085
-272.370	461.012	-0.122	-0.269
-271.355	223.373	-0.154	-0.246
-270.340	249.368	-0.043	0.073
-269.326	-46.661	0.308	0.149
-268.311	800.000	-0.042	-0.140
-267.297	-93.388	0.062	-0.017
-266.282	-8.901	-0.055	0.036
-265.267	161.752	0.115	-0.159
-264.253	-86.301	-0.268	0.081
-263.238	84.029	-0.109	0.117
-262.224	22.593	0.149	-0.121
-261.209	-190.589	0.240	0.003
-260.195	-183.415	-0.385	-0.007
-259.180	-200.000	-0.011	-0.146
-258.165	648.976	-0.092	-0.233
-257.151	-51.247	0.223	-0.103
-256.136	59.587	0.254	-0.247
-255.122	43.237	0.055	0.049
-254.107	-43.407	0.085	-0.042
-253.092	-131.692	-0.253	0.033
-252.078	-3.010	-0.173	-0.119
-251.063	-200.000	0.028	0.233
-250.049	-12.250	-0.244	0.158
-249.034	-42.761	0.380	-0.191
-248.019	116.814	-0.061	0.074
-247.005	-10.292	0.053	0.034
-245.990	180.695	-0.097	-0.141
-244.976	-200.000	-0.003	0.037
-243.961	350.940	-0.089	-0.173
-242.946	800.000	-0.149	0.504
-241.932	2.831	0.186	0.134
-240.917	-35.852	0.448	-0.239
-239.903	16.340	-0.116	-0.091
-238.888	-200.000	-0.009	0.056
-237.873	-161.084	-0.355	-0.018
-236.859	96.131	-0.206	0.232
-235.844	78.926	0.133	0.140
-234.830	800.000	-0.096	0.264
-233.815	800.000	-0.077	0.257
-232.800	800.000	0.038	0.158
-231.786	208.142	-0.134	0.207
-230.771	-117.033	0.326	-0.059
-229.757	-86.367	0.158	-0.048
-228.742	83.780	-0.112	0.121
-227.727	-138.478	0.215	0.023
-226.713	-200.000	-0.027	0.202
-225.698	368.148	0.158	0.314
-224.684	779.442	-0.097	0.262
-223.669	800.000	-0.086	-0.247
-222.655	-200.000	-0.003	0.169
-221.640	800.000	0.093	0.346
-220.625	-200.000	0.045	0.271
-219.611	22.576	-0.069	0.055
-218.596	93.162	0.249	0.277
-217.582	558.395	-0.067	0.159
-216.567	463.444	-0.079	0.173
-215.552	-106.270	0.195	0.043
-214.538	800.000	0.062	0.242
-213.523	193.895	0.289	0.432
-212.509	92.636	-0.130	-0.144
-211.494	-26.658	-0.051	-0.030
-210.479	39.747	0.123	-0.109
-209.465	-200.000	0.131	0.000
-208.450	115.241	-0.091	-0.110
-207.436	19.751	0.162	-0.129
-206.421	285.348	0.091	0.161
-205.406	66.729	-0.188	-0.189
-204.392	320.461	-0.148	-0.277
-203.377	-97.287	-0.262	-0.067
-202.363	194.116	-0.085	0.127
-201.348	597.691	-0.057	-0.138
-200.333	-1.571	0.114	0.079
-199.319	-200.000	0.004	0.056
-198.304	-102.291	-0.382	0.090
-197.290	-200.000	-0.006	-0.253
-196.275	-135.598	0.339	-0.040
-195.260	-200.000	0.036	0.189
-194.246	-200.000	-0.023	-0.153
-193.231	725.625	0.164	-0.430
-192.217	-200.000	-0.003	-0.329
-191.202	-159.239	0.240	-0.013
-190.187	-68.797	0.372	-0.142
-189.173	185.321	0.234	0.343
-188.158	-200.000	0.063	-0.273
-187.144	-200.000	-0.005	0.071
-186.129	-91.861	0.510	-0.142
-185.114	-114.208	0.255	-0.048
-184.100	551.787	-0.105	-0.249
-183.085	800.000	0.091	0.313
-182.071	-59.130	0.376	0.160
-181.056	93.111	-0.118	0.131
-180.042	-200.000	0.063	0.312
-179.027	-36.593	-0.332	0.176
-178.012	18.507	0.183	0.144
-176.998	-14.963	0.475	-0.300
-175.983	92.459	-0.082	0.091
-174.969	-107.157	0.138	-0.030
-173.954	-90.413	0.191	0.054
-172.939	-32.650	0.093	-0.051
-171.925	163.923	0.016	0.023
-170.910	125.952	0.228	0.284
-169.896	-200.000	0.001	-0.263
-168.881	-143.559	-0.338	-0.032
-167.866	-200.000	-0.005	-0.231
-166.852	-200.000	-0.043	-0.217
-165.837	83.662	-0.303	-0.325
-164.823	-104.414	0.205	0.047
-163.808	800.000	-0.044	0.124
-162.793	-13.981	0.093	-0.059
-161.779	46.185	0.125	0.113
-160.764	800.000	0.072	0.263
-159.750	800.000	-0.062	-0.208
-158.735	605.473	0.152	-0.374
-157.720	-146.583	-0.427	0.037
-156.706	94.820	-0.116	-0.129
-155.691	27.543	0.076	-0.063
-154.677	11.102	0.195	0.147
-153.662	26.049	0.163	0.134
-152.647	-30.695	-0.054	-0.030
-151.633	27.880	0.157	-0.130
-150.618	-104.133	-0.245	-0.056
-149.604	-200.000	-0.026	0.143
-148.589	-59.770	-0.160	0.067
-147.574	93.664	0.189	-0.211
-146.560	106.497	-0.331	-0.386
-145.545	199.155	0.122	-0.183
-144.531	-200.000	-0.045	0.281
-143.516	800.000	0.055	-0.219
-142.502	-11.995	-0.084	0.054
-141.487	-72.504	0.200	0.073
-140.472	44.267	-0.190	-0.171
-139.458	352.679	0.114	0.221
-138.443	-96.591	-0.252	-0.065
-137.429	-200.000	0.032	0.234
-136.414	1.761	-0.092	0.065
-135.399	-91.551	0.147	-0.041
-134.385	92.754	-0.150	0.166
-133.370	35.713	-0.277	0.239
-132.356	-105.627	-0.354	0.079
-131.341	-200.000	0.002	-0.058
-130.326	210.334	0.056	-0.087
-129.312	62.127	0.117	-0.115
-128.297	-80.811	-0.353	0.115
-127.283	-95.872	0.316	-0.083
-126.268	-127.302	-0.081	-0.012
-125.253	103.380	0.184	-0.212
-124.239	85.482	0.177	0.191
-123.224	-168.220	0.432	-0.016
-122.210	-86.738	-0.095	0.029
-121.195	-86.689	0.220	0.066
