DTS Sentinel unit serial number:	SN413079Multiplexer serial number:	ORYXHardware model number:	OX4-SRSoftware version number:	ORYX F/W v4.00 Oryx Data Collector v3.7.2.0data status	okinstallation	princeton_trtdifferential loss correction	single-endedforward channel	channel 3reverse channel	N/Adate	2019/09/12time	01:02:11forward acquisition time	60.00reverse acquisition time	0.00gamma	496.2192k internal	0.2319k external	0.2319temperature offset calibration	1.0068default loss term (dB/km)	0.3790temperature slope calibration	1.0000multiplexer offset coefficient	1.0000multiplexer slope coefficient	1.0000fibre end	0.00T internal ref (°C)	33.17T ext. ref 1 (°C)	2.06T ext. ref 2 (°C)	26.91length (m)	temperature (°C)	Stokes	anti-Stokes-747.200	-156.232	-0.027	0.002
-746.185	-17.704	0.335	0.213
-745.171	62.090	-0.229	0.231
-744.156	376.641	-0.075	0.155
-743.142	-139.369	0.177	-0.019
-742.127	-200.000	-0.063	0.363
-741.112	-27.383	-0.044	0.026
-740.098	86.975	-0.365	0.408
-739.083	800.000	0.036	0.103
-738.069	-174.950	-0.262	0.007
-737.054	9.193	-0.278	-0.212
-736.039	-72.798	-0.268	0.100
-735.025	-76.655	0.583	0.207
-734.010	124.346	-0.195	-0.248
-732.996	-111.847	0.225	-0.046
-731.981	-161.751	0.081	0.004
-730.966	279.563	0.026	0.047
-729.952	-200.000	-0.005	0.069
-728.937	2.570	-0.123	-0.090
-727.923	27.350	-0.078	0.067
-726.908	-15.984	-0.199	-0.128
-725.894	-20.383	-0.152	-0.094
-724.879	109.618	-0.086	0.104
-723.864	268.176	0.085	0.151
-722.850	800.000	-0.086	0.264
-721.835	19.314	0.332	-0.270
-720.821	643.062	-0.083	-0.213
-719.806	-149.264	-0.125	0.010
-718.791	-200.000	-0.021	-0.219
-717.777	609.775	-0.093	0.236
-716.762	-32.093	-0.243	0.137
-715.748	800.000	0.052	0.198
-714.733	272.660	-0.182	-0.325
-713.718	-10.831	0.046	-0.031
-712.704	-200.000	0.014	0.155
-711.689	-168.918	0.153	0.006
-710.675	596.181	0.038	-0.094
-709.660	206.981	0.022	0.034
-708.645	38.301	-0.141	0.127
-707.631	-200.000	-0.010	-0.065
-706.616	-84.629	0.469	0.149
-705.602	74.171	-0.205	0.217
-704.587	800.000	-0.022	-0.071
-703.572	-76.608	0.201	0.071
-702.558	-50.978	0.218	0.103
-701.543	-32.071	0.330	-0.186
-700.529	-22.916	0.252	-0.153
-699.514	-67.610	-0.318	0.126
-698.499	-200.000	0.009	0.269
-697.485	-27.302	0.141	-0.083
-696.470	44.054	-0.156	0.145
-695.456	-200.000	-0.065	0.368
-694.441	-200.000	-0.022	0.221
-693.426	800.000	-0.068	-0.232
-692.412	-84.256	-0.353	-0.113
-691.397	800.000	0.089	0.334
-690.383	66.216	-0.092	-0.094
-689.368	145.313	-0.133	0.180
-688.354	-76.012	0.167	-0.059
-687.339	-61.052	0.282	-0.120
-686.324	-97.721	-0.042	-0.011
-685.310	137.522	-0.267	0.353
-684.295	-88.418	0.085	0.026
-683.281	42.516	-0.131	0.121
-682.266	-200.000	0.206	-0.001
-681.251	129.178	0.125	-0.162
-680.237	800.000	-0.012	-0.048
-679.222	800.000	0.167	0.540
-678.208	106.698	0.192	-0.230
-677.193	52.621	0.112	0.108
-676.178	-30.025	-0.039	-0.022
-675.164	800.000	0.108	0.393
-674.149	-200.000	-0.010	-0.068
-673.135	293.610	0.155	-0.286
-672.120	-200.000	-0.009	-0.405
-671.105	-200.000	0.013	-0.105
-670.091	-82.976	0.295	0.096
-669.076	-50.438	-0.151	-0.072
-668.062	-200.000	-0.044	-0.301
-667.047	800.000	-0.041	-0.115
-666.032	-200.000	-0.105	-0.477
-665.018	-200.000	0.019	0.172
-664.003	336.592	0.151	-0.296
-662.989	-53.186	0.095	-0.044
-661.974	-102.772	-0.295	0.071
-660.959	316.927	-0.127	-0.243
-659.945	-200.000	0.000	-0.102
-658.930	-200.000	0.069	-0.357
-657.916	-200.000	0.043	0.238
-656.901	227.551	-0.122	-0.201
-655.886	-37.770	-0.158	-0.085
-654.872	-84.640	0.209	0.066
-653.857	800.000	0.054	0.197
-652.843	-94.922	0.336	0.092
-651.828	310.634	-0.150	-0.283
-650.814	-102.842	-0.398	0.095
-649.799	-195.714	0.233	-0.002
-648.784	-99.834	0.270	-0.068
-647.770	157.250	0.266	-0.371
-646.755	800.000	-0.039	-0.122
-645.741	-33.538	-0.173	0.096
-644.726	-52.582	-0.201	0.093
-643.711	7.585	0.141	-0.106
-642.697	-56.571	0.634	-0.283
-641.682	73.695	-0.097	-0.102
-640.668	-97.645	-0.491	-0.128
-639.653	-60.713	-0.186	-0.079
-638.638	800.000	-0.044	-0.136
-637.624	285.191	0.121	0.219
-636.609	119.203	0.127	-0.158
-635.595	372.684	-0.087	0.179
-634.580	-129.467	0.151	0.021
-633.565	-200.000	0.001	-0.083
-632.551	274.268	-0.121	0.215
-631.536	-74.374	0.220	-0.080
-630.522	-200.000	-0.018	0.137
-629.507	-200.000	0.028	0.243
-628.492	-86.506	-0.136	-0.042
-627.478	171.213	-0.143	-0.206
-626.463	-163.654	0.075	0.004
-625.449	31.032	0.127	0.110
-624.434	800.000	-0.105	0.298
-623.419	-3.899	0.112	-0.078
-622.405	-200.000	0.030	-0.352
-621.390	104.933	-0.149	-0.176
-620.376	46.592	0.388	-0.363
-619.361	754.961	-0.032	-0.086
-618.346	-109.027	-0.198	0.042
-617.332	-167.416	-0.193	-0.008
-616.317	-132.647	-0.185	-0.024
-615.303	330.386	-0.161	0.313
-614.288	151.484	0.138	0.190
-613.273	37.293	-0.394	0.351
-612.259	-131.344	-0.173	0.023
-611.244	-123.916	-0.100	0.016
-610.230	-200.000	-0.038	-0.313
-609.215	-200.000	-0.042	0.330
-608.201	22.426	-0.297	-0.244
-607.186	-43.151	0.129	-0.066
-606.171	-77.804	-0.223	-0.077
-605.157	-52.647	-0.274	-0.127
-604.142	-123.773	0.341	-0.054
-603.128	3.317	0.220	-0.161
-602.113	37.817	-0.195	-0.174
-601.098	206.487	0.211	0.331
-600.084	71.948	-0.078	0.082
-599.069	-200.000	-0.019	-0.538
-598.055	618.094	-0.024	0.061
-597.040	-108.083	0.174	0.038
-596.025	-42.151	0.174	-0.089
-595.011	-43.286	0.085	0.043
-593.996	-165.240	0.311	-0.014
-592.982	-83.760	0.207	-0.067
-591.967	-143.014	-0.262	-0.026
-590.952	53.976	0.252	-0.243
-589.938	-200.000	-0.029	0.211
-588.923	19.510	-0.326	-0.263
-587.909	-111.263	-0.069	0.014
-586.894	800.000	-0.033	0.133
-585.879	-52.623	-0.175	-0.081
-584.865	-70.716	-0.195	0.074
-583.850	-38.022	-0.313	0.167
-582.836	-26.192	0.320	-0.189
-581.821	74.584	-0.118	-0.125
-580.806	-21.821	-0.318	-0.194
-579.792	800.000	-0.065	-0.243
-578.777	-200.000	-0.040	-0.258
-577.763	157.583	0.178	0.248
-576.748	213.699	-0.029	0.047
-575.733	800.000	-0.046	0.134
-574.719	536.384	-0.074	0.177
-573.704	136.172	0.107	0.140
-572.690	-39.771	-0.120	-0.063
-571.675	421.343	0.148	-0.318
-570.661	-200.000	0.020	-0.113
-569.646	-42.296	0.197	0.101
-568.631	155.065	0.221	-0.306
-567.617	-200.000	-0.010	-0.181
-566.602	-200.000	-0.035	0.280
-565.588	-82.364	0.326	0.107
-564.573	800.000	0.053	0.156
-563.558	800.000	-0.149	0.415
-562.544	367.985	-0.138	-0.280
-561.529	-200.000	0.031	-0.254
-560.515	-89.582	0.033	0.010
-559.500	-200.000	-0.017	-0.247
-558.485	-151.712	-0.385	0.028
-557.471	210.431	-0.075	-0.119
-556.456	303.663	-0.083	0.154
-555.442	190.126	0.065	-0.098
-554.427	-55.509	0.077	0.035
-553.412	800.000	0.046	0.135
-552.398	-35.564	0.263	0.143
-551.383	800.000	0.068	-0.207
-550.369	130.468	-0.172	0.222
-549.354	85.666	0.147	0.163
-548.339	-200.000	0.007	0.152
-547.325	159.265	-0.149	0.208
-546.310	-46.716	-0.033	0.016
-545.296	758.553	0.071	-0.194
-544.281	12.061	0.098	0.076
-543.266	-50.810	0.150	-0.071
-542.252	-114.532	0.271	-0.052
-541.237	-200.000	0.005	-0.229
-540.223	-200.000	-0.013	0.254
-539.208	138.555	-0.106	-0.140
-538.193	295.116	-0.087	0.160
-537.179	271.825	0.099	0.175
-536.164	186.037	-0.054	0.080
-535.150	-40.842	-0.086	-0.045
-534.135	-141.651	-0.330	0.033
-533.121	730.585	0.164	0.440
-532.106	648.077	0.142	-0.365
-531.091	-33.972	-0.143	0.079
-530.077	-128.097	0.456	0.066
-529.062	-159.780	0.201	-0.011
-528.048	36.435	-0.079	0.070
-527.033	43.664	-0.201	-0.185
-526.018	244.062	0.224	-0.377
-525.004	-200.000	-0.036	-0.179
-523.989	-119.651	0.213	-0.037
-522.975	800.000	-0.097	0.293
-521.960	59.105	0.310	0.305
-520.945	368.906	0.146	-0.295
-519.931	-200.000	-0.066	-0.379
-518.916	363.979	0.319	0.644
-517.902	-38.283	-0.215	0.114
-516.887	29.657	0.281	0.239
-515.872	-84.518	-0.315	-0.100
-514.858	296.303	0.240	0.442
-513.843	-150.594	0.239	-0.018
-512.829	-200.000	-0.033	-0.156
-511.814	-35.292	0.100	0.055
-510.799	-23.075	0.073	-0.044
-509.785	-144.912	-0.297	0.027
-508.770	-29.225	0.375	-0.215
-507.756	-28.144	0.068	0.040
-506.741	483.862	0.135	0.308
-505.726	151.625	-0.275	0.375
-504.712	-92.804	0.221	0.062
-503.697	-200.000	0.021	0.091
-502.683	-135.663	-0.255	0.030
-501.668	132.702	-0.109	-0.141
-500.653	13.309	-0.144	0.112
-499.639	-101.170	-0.109	-0.027
-498.624	800.000	0.033	-0.133
-497.610	86.653	0.015	0.016
-496.595	-200.000	0.022	0.132
-495.581	6.877	-0.310	-0.231
-494.566	-12.824	-0.123	-0.080
-493.551	65.946	-0.163	-0.166
-492.537	-200.000	-0.005	0.135
-491.522	-200.000	0.018	0.117
-490.508	39.921	0.094	0.084
-489.493	119.113	0.076	-0.094
-488.478	-78.045	0.313	-0.108
-487.464	-13.937	-0.202	0.130
-486.449	17.779	-0.173	0.138
-485.435	800.000	0.016	0.047
-484.420	-97.111	0.095	-0.025
-483.405	-93.875	0.096	-0.026
-482.391	-105.582	0.186	0.042
-481.376	-37.321	0.121	0.065
-480.362	-77.194	0.363	-0.127
-479.347	90.884	-0.093	0.104
-478.332	-200.000	-0.044	-0.296
-477.318	-200.000	-0.024	0.197
-476.303	-28.332	-0.080	0.046
-475.289	-135.817	0.172	-0.020
-474.274	-22.032	0.037	0.022
-473.259	86.808	-0.333	-0.368
-472.245	140.734	0.237	-0.313
-471.230	-200.000	-0.065	-0.356
-470.216	800.000	-0.041	0.163
-469.201	-200.000	0.080	0.368
-468.186	537.884	0.060	-0.144
-467.172	800.000	-0.033	-0.146
-466.157	249.421	0.115	0.195
-465.143	-200.000	0.024	0.136
-464.128	161.689	-0.085	0.119
-463.113	-123.207	-0.181	0.029
-462.099	-43.869	-0.095	-0.048
-461.084	-30.365	-0.028	-0.016
-460.070	-34.434	-0.137	-0.075
-459.055	535.618	0.053	-0.127
-458.040	-22.158	-0.188	-0.114
-457.026	-40.270	-0.112	-0.058
-456.011	244.589	-0.125	0.209
-454.997	94.039	-0.116	-0.132
-453.982	36.394	0.198	-0.175
-452.968	-102.161	-0.417	-0.100
-451.953	28.067	-0.255	0.215
-450.938	-22.521	-0.225	-0.136
-449.924	299.214	0.080	-0.148
-448.909	-188.018	0.271	0.003
-447.895	19.305	0.162	0.130
-446.880	681.581	-0.035	0.092
-445.865	-200.000	-0.002	0.036
-444.851	-0.808	-0.421	-0.298
-443.836	-200.000	-0.002	0.025
-442.822	-200.000	-0.014	-0.077
-441.807	-37.161	-0.324	0.173
-440.792	75.756	-0.214	-0.227
-439.778	-39.772	0.259	-0.135
-438.763	94.743	0.223	-0.253
-437.749	-102.840	-0.346	-0.082
-436.734	-58.858	-0.098	0.043
-435.719	28.436	-0.200	0.169
-434.705	129.501	-0.204	-0.260
-433.690	-127.816	0.305	-0.044
-432.676	308.154	-0.211	-0.394
-431.661	14.160	-0.184	-0.143
-430.646	800.000	-0.082	-0.328
-429.632	-43.349	-0.149	0.075
-428.617	-44.549	0.186	-0.093
-427.603	351.444	-0.116	-0.229
-426.588	330.077	0.071	-0.136
-425.573	5.697	0.172	0.127
-424.559	228.026	-0.114	0.186
-423.544	78.228	-0.243	-0.259
-422.530	86.965	0.172	0.189
-421.515	-200.000	0.013	-0.060
-420.500	180.054	0.112	0.164
-419.486	-126.876	-0.340	-0.050
-418.471	800.000	0.056	-0.174
-417.457	23.028	0.309	0.253
-416.442	-145.809	-0.248	0.022
-415.428	-200.000	0.048	-0.482
-414.413	73.131	0.083	0.086
-413.398	210.969	-0.146	0.229
-412.384	-200.000	-0.024	-0.173
-411.369	-58.866	0.258	-0.112
-410.355	-200.000	-0.059	-0.350
-409.340	157.369	0.250	-0.346
-408.325	-135.241	-0.037	0.004
-407.311	-200.000	-0.008	0.260
-406.296	347.220	0.076	-0.150
-405.282	36.620	0.079	-0.070
-404.267	-200.000	0.010	-0.078
-403.252	800.000	-0.136	0.559
-402.238	-200.000	-0.012	0.283
-401.223	-200.000	0.022	0.100
-400.209	-43.101	0.010	-0.005
-399.194	94.732	-0.089	0.100
-398.179	687.417	-0.051	-0.132
-397.165	472.906	0.044	0.100
-396.150	-200.000	0.029	0.384
-395.136	565.067	0.049	0.118
-394.121	800.000	-0.059	0.188
-393.106	-118.365	0.181	0.032
-392.092	-125.552	-0.266	-0.040
-391.077	52.477	-0.036	-0.034
-390.063	-59.818	0.217	0.093
-389.048	-64.865	0.206	-0.083
-388.033	800.000	-0.080	0.262
-387.019	103.645	0.135	-0.158
-386.004	694.713	0.023	0.059
-384.990	-66.769	0.165	-0.065
-383.975	1.360	-0.034	-0.024
-382.960	-200.000	0.000	0.129
-381.946	25.195	0.095	0.079
-380.931	15.847	0.388	0.304
-379.917	549.109	-0.074	0.178
-378.902	-200.000	0.164	-0.000
-377.888	-200.000	0.003	-0.351
-376.873	-81.140	-0.183	-0.060
-375.858	247.750	-0.095	-0.159
-374.844	800.000	0.055	0.219
-373.829	-200.000	0.059	0.459
-372.815	493.937	0.079	0.181
-371.800	28.153	-0.165	0.139
-370.785	-184.009	0.240	0.004
-369.771	-98.992	0.230	-0.058
-368.756	-117.846	-0.248	0.044
-367.742	124.123	0.091	0.114
-366.727	781.072	-0.032	-0.087
-365.712	81.916	-0.266	-0.287
-364.698	-82.642	-0.308	0.099
-363.683	-42.054	0.089	0.045
-362.669	199.506	-0.020	0.030
-361.654	-22.029	-0.118	0.071
-360.639	800.000	-0.096	0.407
-359.625	-127.728	0.176	-0.025
-358.610	-200.000	-0.164	0.000
-357.596	48.285	0.142	0.132
-356.581	151.740	-0.127	0.173
-355.566	-176.974	-0.340	-0.009
-354.552	-33.538	0.044	0.024
-353.537	-175.277	0.089	-0.002
-352.523	-200.000	-0.013	0.317
-351.508	-160.165	-0.018	-0.001
-350.493	511.536	-0.144	0.334
-349.479	800.000	0.017	0.056
-348.464	265.640	0.072	-0.126
-347.450	-98.677	0.352	0.089
-346.435	6.102	0.111	-0.082
-345.420	191.867	0.132	0.198
-344.406	-113.017	-0.189	0.037
-343.391	-149.035	-0.114	0.009
-342.377	4.373	-0.118	-0.086
-341.362	-200.000	0.019	0.139
-340.348	-63.161	0.204	0.084
-339.333	626.314	-0.118	0.296
-338.318	101.130	-0.144	0.166
-337.304	800.000	-0.113	-0.372
-336.289	-124.942	0.077	-0.012
-335.275	204.886	-0.022	0.034
-334.260	-53.504	0.113	-0.051
-333.245	189.049	-0.173	0.259
-332.231	126.725	0.202	-0.254
-331.216	-57.190	0.019	-0.009
-330.202	201.719	0.098	-0.150
-329.187	800.000	-0.042	0.133
-328.172	-200.000	-0.003	-0.161
-327.158	239.663	0.066	-0.109
-326.143	-43.481	-0.126	-0.063
-325.129	303.437	0.054	-0.099
-324.114	119.687	0.122	-0.150
-323.099	-161.709	0.215	-0.011
-322.085	-37.234	-0.179	0.095
-321.070	-200.000	0.037	-0.307
-320.056	-44.671	-0.109	-0.054
-319.041	12.301	0.296	-0.227
-318.026	212.893	-0.209	-0.328
-317.012	-200.000	0.002	0.223
-315.997	-136.088	-0.263	-0.031
-314.983	122.706	0.215	0.268
-313.968	-106.577	-0.177	0.039
-312.953	116.491	0.142	-0.173
-311.939	-37.297	-0.292	-0.155
-310.924	307.656	0.180	0.334
-309.910	540.295	-0.137	0.325
-308.895	38.479	0.161	0.143
-307.880	-48.930	0.219	0.104
-306.866	171.778	-0.282	0.402
-305.851	-94.243	0.113	-0.031
-304.837	-200.000	-0.037	0.387
-303.822	564.332	-0.133	-0.322
-302.807	-146.672	-0.128	-0.011
-301.793	192.631	0.095	-0.143
-300.778	-88.269	0.252	-0.075
-299.764	109.071	-0.043	-0.051
-298.749	-200.000	-0.013	0.303
-297.735	800.000	0.152	-0.448
-296.720	-200.000	-0.001	0.073
-295.705	-59.827	0.331	-0.141
-294.691	-200.000	0.047	-0.310
-293.676	157.831	0.079	-0.109
-292.662	-74.829	0.248	-0.089
-291.647	123.673	0.080	-0.099
-290.632	411.677	-0.102	0.216
-289.618	5.912	0.055	0.040
-288.603	-198.685	-0.122	0.001
-287.589	-30.903	0.162	0.091
-286.574	800.000	0.047	0.170
-285.559	124.953	-0.203	0.253
-284.545	-47.516	0.306	-0.148
-283.530	-51.684	0.254	0.118
-282.516	3.281	0.260	-0.188
-281.501	1.005	0.385	0.274
-280.486	-200.000	-0.025	0.201
-279.472	553.533	-0.107	-0.255
-278.457	-200.000	-0.104	0.487
-277.443	800.000	0.043	0.127
-276.428	436.092	0.087	-0.189
-275.413	-127.232	-0.327	-0.047
-274.399	800.000	0.054	-0.157
-273.384	-44.330	0.071	0.035
-272.370	177.921	0.149	0.216
-271.355	109.658	-0.089	0.105
-270.340	-110.192	0.247	0.051
-269.326	46.406	-0.142	0.130
-268.311	-76.524	0.268	0.094
-267.297	-200.000	-0.019	0.196
-266.282	51.679	0.105	-0.099
-265.267	-108.617	0.215	-0.046
-264.253	30.067	0.119	0.100
-263.238	177.716	0.100	-0.145
-262.224	283.437	-0.194	-0.346
-261.209	800.000	0.070	-0.262
-260.195	108.133	0.040	-0.047
-259.180	288.782	-0.105	0.189
-258.165	-200.000	-0.014	0.213
-257.151	110.592	-0.114	-0.136
-256.136	21.630	0.192	-0.155
-255.122	-164.030	-0.357	-0.016
-254.107	10.764	0.207	-0.157
-253.092	-104.471	-0.277	0.064
-252.078	-74.239	0.274	-0.098
-251.063	61.207	0.056	0.055
-250.049	118.817	0.153	-0.187
-249.034	-89.299	-0.436	-0.128
-248.019	-26.954	-0.060	0.035
-247.005	-200.000	-0.033	0.329
-245.990	-89.021	0.110	0.032
-244.976	149.446	0.202	-0.272
-243.961	24.401	0.192	-0.157
-242.946	433.129	0.102	0.220
-241.932	800.000	0.098	0.306
-240.917	-55.287	0.412	-0.184
-239.903	-200.000	0.008	-0.250
-238.888	-145.868	-0.062	0.005
-237.873	-106.202	0.147	-0.033
-236.859	-200.000	0.014	0.228
-235.844	800.000	-0.106	0.365
-234.830	-120.096	0.136	-0.023
-233.815	800.000	0.015	0.053
-232.800	-110.274	0.310	-0.064
-231.786	23.387	-0.122	0.100
-230.771	-126.602	-0.240	-0.035
-229.757	46.783	0.080	0.074
-228.742	-200.000	0.010	-0.164
-227.727	-1.082	0.329	0.231
-226.713	85.660	-0.049	0.053
-225.698	-200.000	-0.024	-0.293
-224.684	-13.585	-0.235	-0.151
-223.669	800.000	-0.036	0.158
-222.655	263.589	0.130	0.224
-221.640	-143.551	0.281	0.027
-220.625	800.000	0.037	-0.142
-219.611	-46.033	-0.329	-0.161
-218.596	115.046	-0.139	0.168
-217.582	-12.328	-0.020	-0.013
-216.567	261.979	-0.137	-0.235
-215.552	91.919	0.179	0.199
-214.538	460.436	0.072	-0.160
-213.523	800.000	0.107	-0.363
-212.509	-160.362	-0.075	-0.004
-211.494	197.646	-0.059	0.089
-210.479	-200.000	-0.018	0.137
-209.465	-200.000	-0.049	0.226
-208.450	-110.936	-0.382	0.078
-207.436	-140.636	-0.242	0.025
-206.421	11.918	0.190	-0.145
-205.406	213.512	0.102	-0.159
-204.392	-54.162	0.273	0.123
-203.377	-82.172	-0.209	0.067
-202.363	271.411	0.048	0.083
-201.348	72.210	-0.177	-0.183
-200.333	238.788	-0.104	0.172
-199.319	-173.325	0.200	0.006
-198.304	408.925	-0.113	-0.236
-197.290	800.000	0.053	0.193
-196.275	-115.628	0.092	-0.017
-195.260	-91.764	0.087	-0.025
-194.246	800.000	-0.059	0.199
-193.231	-29.017	-0.119	0.067
-192.217	-21.902	0.187	0.112
-191.202	77.044	0.148	-0.155
-190.187	125.011	0.102	-0.127
-189.173	800.000	-0.101	0.339
-188.158	18.709	-0.049	0.039
-187.144	240.870	0.097	0.160
-186.129	800.000	0.067	0.198
-185.114	800.000	0.062	0.219
-184.100	-36.926	-0.141	-0.075
-183.085	503.520	-0.184	-0.422
-182.071	-200.000	0.055	0.251
-181.056	-53.975	-0.059	-0.026
-180.042	26.112	-0.244	0.202
-179.027	89.309	-0.170	0.187
-178.012	136.402	-0.062	0.079
-176.998	-200.000	0.004	-0.083
-175.983	800.000	0.083	0.280
-174.969	21.195	-0.028	0.023
-173.954	697.947	-0.163	-0.424
-172.939	49.871	-0.209	-0.195
-171.925	-22.961	-0.329	-0.196
-170.910	495.593	-0.063	0.143
-169.896	800.000	0.043	0.138
-168.881	800.000	-0.012	-0.041
-167.866	-56.210	-0.304	0.134
-166.852	467.874	-0.125	-0.277
-165.837	-200.000	-0.136	-0.677
-164.823	717.753	-0.074	-0.193
-163.808	-31.786	-0.143	-0.080
-162.793	9.898	-0.055	-0.041
-161.779	350.134	-0.124	-0.242
-160.764	-200.000	0.035	-0.242
-159.750	-94.972	-0.214	0.057
-158.735	501.171	-0.077	0.175
-157.720	33.002	-0.199	-0.171
-156.706	60.741	-0.062	0.061
-155.691	-85.335	0.146	0.045
-154.677	68.069	-0.069	-0.070
-153.662	-60.589	0.283	0.119
-152.647	-61.951	-0.074	-0.031
-151.633	-166.714	-0.167	0.007
-150.618	-88.884	0.141	0.041
-149.604	58.876	-0.160	-0.155
-148.589	-81.259	0.548	0.179
-147.574	-158.989	-0.138	-0.008
-146.560	-52.736	0.100	0.046
-145.545	800.000	0.035	0.101
-144.531	-200.000	0.041	0.276
-143.516	28.846	0.045	0.038
-142.502	19.715	0.261	-0.208
-141.487	31.201	0.316	-0.268
-140.472	-67.448	0.262	-0.102
-139.458	-79.496	0.269	0.090
-138.443	-139.551	-0.236	-0.025
-137.429	9.408	0.318	0.237
-136.414	-59.507	0.079	-0.033
-135.399	-79.835	0.109	0.036
-134.385	-200.000	-0.005	-0.322
-133.370	-140.365	0.091	0.009
-132.356	800.000	0.066	0.254
-131.341	-144.341	0.212	0.019
-130.326	225.775	-0.066	0.105
-129.312	-126.218	0.040	-0.006
-128.297	64.993	-0.357	0.357
-127.283	-83.137	0.150	0.047
-126.268	-58.285	-0.249	0.107
-125.253	242.497	0.025	0.042
-124.239	-200.000	-0.054	0.245
-123.224	-77.276	0.159	-0.054
-122.210	80.467	0.053	-0.056
-121.195	-14.414	-0.310	0.197
