DTS Sentinel unit serial number:	SN413079Multiplexer serial number:	ORYXHardware model number:	OX4-SRSoftware version number:	ORYX F/W v4.00 Oryx Data Collector v3.7.2.0data status	okinstallation	princeton_trtdifferential loss correction	single-endedforward channel	channel 3reverse channel	N/Adate	2019/09/11time	01:26:11forward acquisition time	60.00reverse acquisition time	0.00gamma	496.2192k internal	0.2332k external	0.2332temperature offset calibration	0.9910default loss term (dB/km)	0.3790temperature slope calibration	1.0000multiplexer offset coefficient	1.0000multiplexer slope coefficient	1.0000fibre end	0.00T internal ref (°C)	29.12T ext. ref 1 (°C)	-0.31T ext. ref 2 (°C)	23.42length (m)	temperature (°C)	Stokes	anti-Stokes-747.200	437.044	-0.112	0.247
-746.185	-42.523	-0.257	-0.132
-745.171	0.380	-0.221	-0.159
-744.156	800.000	-0.108	0.408
-743.142	-108.347	0.074	-0.016
-742.127	442.610	-0.032	0.070
-741.112	-142.703	0.194	-0.019
-740.098	127.848	0.073	-0.094
-739.083	96.039	-0.051	0.059
-738.069	-163.331	-0.136	-0.007
-737.054	-133.845	-0.336	-0.042
-736.039	-200.000	-0.073	0.445
-735.025	-143.920	0.274	-0.026
-734.010	800.000	0.071	-0.197
-732.996	50.918	-0.329	-0.314
-731.981	-200.000	-0.009	-0.057
-730.966	455.320	-0.051	0.114
-729.952	44.032	-0.039	0.036
-728.937	355.768	-0.123	-0.245
-727.923	491.995	0.072	-0.165
-726.908	394.304	-0.092	0.193
-725.894	-200.000	-0.057	-0.315
-724.879	800.000	0.086	-0.258
-723.864	-200.000	0.026	-0.347
-722.850	144.262	-0.163	0.219
-721.835	-106.908	0.136	-0.030
-720.821	-150.343	-0.245	-0.019
-719.806	-59.946	-0.075	0.032
-718.791	-66.614	0.026	0.010
-717.777	-143.363	0.308	0.030
-716.762	-200.000	0.007	-0.099
-715.748	-200.000	-0.011	-0.191
-714.733	64.199	-0.151	-0.153
-713.718	-131.318	-0.275	-0.037
-712.704	28.042	-0.217	0.184
-711.689	-188.094	0.287	-0.004
-710.675	-12.322	-0.180	0.118
-709.660	-51.688	0.047	-0.022
-708.645	220.277	-0.209	-0.336
-707.631	309.304	-0.203	-0.380
-706.616	-135.900	-0.714	-0.085
-705.602	213.144	0.081	0.128
-704.587	-167.118	-0.331	-0.014
-703.572	-31.090	-0.480	0.272
-702.558	586.927	-0.181	-0.448
-701.543	-200.000	-0.004	-0.267
-700.529	255.026	0.186	0.319
-699.514	17.109	-0.148	-0.118
-698.499	99.614	0.128	-0.149
-697.485	-156.137	0.208	0.013
-696.470	226.676	0.129	-0.210
-695.456	139.850	-0.022	-0.029
-694.441	300.357	0.025	0.047
-693.426	-15.177	-0.109	-0.070
-692.412	-185.647	-0.115	0.002
-691.397	800.000	0.039	0.130
-690.383	-158.209	0.157	-0.009
-689.368	-115.136	0.058	0.011
-688.354	2.825	0.115	-0.084
-687.339	135.057	-0.260	-0.339
-686.324	302.970	-0.080	0.149
-685.310	121.076	-0.247	0.309
-684.295	-142.964	-0.276	-0.027
-683.281	-86.862	-0.083	-0.025
-682.266	-35.858	-0.229	-0.125
-681.251	-200.000	0.000	0.120
-680.237	23.890	-0.124	-0.103
-679.222	145.140	0.138	0.186
-678.208	457.847	-0.075	0.168
-677.193	-112.359	-0.219	0.044
-676.178	-26.435	0.213	-0.125
-675.164	28.112	0.162	0.137
-674.149	157.606	-0.031	0.044
-673.135	-52.029	0.281	-0.131
-672.120	200.795	0.184	0.284
-671.105	100.871	-0.078	0.091
-670.091	-200.000	0.008	-0.116
-669.076	-173.254	0.315	-0.010
-668.062	-48.080	-0.276	0.134
-667.047	-164.347	-0.252	-0.012
-666.032	-114.021	-0.136	0.026
-665.018	113.338	0.045	0.055
-664.003	357.777	0.198	-0.396
-662.989	118.937	-0.065	-0.081
-661.974	247.160	0.117	-0.198
-660.959	800.000	-0.145	-0.417
-659.945	-9.130	-0.222	-0.149
-658.930	33.791	-0.260	0.227
-657.916	17.984	-0.098	0.078
-656.901	262.655	0.081	-0.141
-655.886	362.501	-0.191	-0.385
-654.872	76.425	0.292	-0.310
-653.857	-136.022	-0.321	0.038
-652.843	800.000	-0.027	-0.106
-651.828	-16.700	0.326	-0.207
-650.814	17.424	-0.115	-0.091
-649.799	800.000	0.041	0.138
-648.784	34.523	0.250	-0.219
-647.770	235.823	-0.268	0.445
-646.755	-106.113	-0.152	-0.034
-645.741	430.935	0.033	-0.072
-644.726	-73.414	0.126	0.046
-643.711	238.231	-0.094	0.157
-642.697	-190.078	-0.067	0.001
-641.682	44.214	0.130	0.120
-640.668	2.643	0.098	-0.071
-639.653	49.897	-0.162	-0.153
-638.638	-21.261	0.165	-0.101
-637.624	-200.000	0.012	-0.239
-636.609	800.000	-0.064	-0.277
-635.595	-143.920	-0.261	-0.025
-634.580	-116.555	0.214	-0.040
-633.565	127.910	0.049	-0.062
-632.551	142.589	-0.129	0.172
-631.536	-188.382	0.139	0.002
-630.522	-85.549	-0.207	-0.065
-629.507	800.000	-0.043	-0.166
-628.492	47.742	0.096	-0.090
-627.478	70.306	0.163	0.168
-626.463	-159.304	0.074	0.004
-625.449	39.182	-0.150	-0.134
-624.434	248.881	-0.128	0.217
-623.419	31.147	-0.127	0.109
-622.405	-200.000	-0.035	-0.165
-621.390	283.627	-0.050	-0.090
-620.376	373.074	0.057	-0.115
-619.361	-71.351	-0.451	0.169
-618.346	-36.549	0.283	-0.153
-617.332	800.000	0.064	-0.231
-616.317	800.000	-0.099	-0.371
-615.303	-200.000	-0.017	-0.274
-614.288	25.068	-0.352	-0.292
-613.273	-178.134	-0.484	-0.011
-612.259	37.774	0.103	-0.092
-611.244	188.026	0.116	-0.173
-610.230	-86.090	-0.166	0.051
-609.215	119.498	-0.356	-0.442
-608.201	58.076	-0.059	0.058
-607.186	-96.695	-0.239	0.063
-606.171	-33.637	-0.247	-0.136
-605.157	4.204	-0.037	0.027
-604.142	-106.278	-0.218	-0.049
-603.128	-1.953	-0.082	-0.057
-602.113	-200.000	-0.002	-0.281
-601.098	-200.000	-0.026	0.195
-600.084	101.562	-0.240	0.280
-599.069	-80.939	-0.091	0.030
-598.055	37.766	0.266	0.237
-597.040	-90.739	-0.169	0.049
-596.025	-155.363	0.126	-0.008
-595.011	-136.058	-0.202	-0.024
-593.996	21.441	-0.150	0.122
-592.982	145.687	0.088	-0.118
-591.967	102.155	0.224	-0.261
-590.952	-91.115	-0.249	-0.072
-589.938	90.036	0.069	0.077
-588.923	800.000	-0.071	-0.241
-587.909	63.071	0.168	-0.168
-586.894	255.342	0.122	-0.208
-585.879	598.043	0.154	0.381
-584.865	-200.000	0.052	-0.446
-583.850	20.944	0.116	0.094
-582.836	-26.909	0.144	0.084
-581.821	-126.009	0.201	-0.030
-580.806	69.742	0.125	-0.129
-579.792	107.709	-0.048	0.058
-578.777	85.514	-0.237	-0.260
-577.763	49.118	-0.202	-0.190
-576.748	800.000	0.056	0.215
-575.733	800.000	0.040	-0.113
-574.719	-200.000	0.006	0.348
-573.704	-30.057	-0.157	0.089
-572.690	261.382	-0.068	-0.117
-571.675	-200.000	-0.025	0.261
-570.661	-130.161	-0.143	-0.019
-569.646	-106.155	-0.190	-0.043
-568.631	109.637	0.209	0.250
-567.617	-200.000	0.061	0.351
-566.602	15.649	0.304	-0.239
-565.588	14.897	-0.116	0.091
-564.573	-19.036	-0.021	-0.013
-563.558	147.487	-0.222	0.298
-562.544	87.784	0.063	0.069
-561.529	84.341	-0.127	-0.139
-560.515	-66.852	0.084	0.033
-559.500	-6.581	0.302	-0.206
-558.485	479.018	-0.082	0.185
-557.471	-49.593	-0.151	-0.072
-556.456	22.475	-0.214	-0.175
-555.442	-200.000	0.074	-0.465
-554.427	12.819	0.268	-0.207
-553.412	-145.045	-0.157	0.014
-552.398	-162.887	-0.143	0.007
-551.383	-27.390	-0.162	0.094
-550.369	800.000	0.040	0.167
-549.354	-38.244	0.071	-0.037
-548.339	693.995	0.052	0.137
-547.325	417.909	0.148	-0.316
-546.310	800.000	-0.070	-0.231
-545.296	-200.000	0.059	-0.394
-544.281	62.017	0.197	-0.196
-543.266	-41.030	0.427	0.220
-542.252	-116.521	0.020	0.004
-541.237	-131.964	0.435	0.057
-540.223	175.764	0.251	-0.364
-539.208	638.364	0.103	-0.262
-538.193	800.000	-0.088	-0.322
-537.179	-200.000	-0.075	-0.385
-536.164	161.981	-0.131	-0.184
-535.150	-200.000	0.021	0.099
-534.135	-74.349	-0.181	0.065
-533.121	-85.576	-0.326	0.101
-532.106	102.058	-0.162	-0.188
-531.091	424.162	-0.124	-0.267
-530.077	-200.000	0.003	0.104
-529.062	800.000	-0.055	0.155
-528.048	-77.063	-0.171	0.060
-527.033	-144.264	-0.185	-0.017
-526.018	-107.284	0.517	0.114
-525.004	8.271	0.119	0.089
-523.989	631.947	-0.072	0.181
-522.975	-37.753	0.062	0.033
-521.960	183.615	0.036	0.053
-520.945	-200.000	-0.035	0.378
-519.931	146.566	0.072	-0.097
-518.916	-152.086	0.151	-0.011
-517.902	-108.212	-0.341	-0.074
-516.887	-70.359	-0.318	-0.120
-515.872	60.481	0.139	0.137
-514.858	-200.000	0.020	-0.161
-513.843	-200.000	-0.004	-0.026
-512.829	-200.000	-0.056	0.261
-511.814	267.696	0.056	-0.099
-510.799	146.195	0.056	-0.075
-509.785	-166.450	0.161	-0.007
-508.770	-183.207	0.076	-0.001
-507.756	-142.100	-0.126	-0.012
-506.741	211.098	0.065	0.102
-505.726	-23.296	0.127	-0.076
-504.712	114.842	-0.188	-0.228
-503.697	215.989	-0.183	-0.290
-502.683	-200.000	-0.016	-0.086
-501.668	165.061	0.202	0.284
-500.653	-78.885	-0.218	-0.074
-499.639	32.500	-0.201	-0.173
-498.624	404.538	-0.102	0.214
-497.610	-18.613	0.293	-0.182
-496.595	396.303	0.045	0.094
-495.581	93.278	-0.055	0.062
-494.566	-64.475	-0.264	0.107
-493.551	33.655	0.215	-0.187
-492.537	-133.234	-0.277	0.035
-491.522	-130.629	0.273	-0.037
-490.508	-133.501	0.241	-0.030
-489.493	64.771	-0.211	0.212
-488.478	-48.904	-0.108	0.051
-487.464	-28.778	-0.143	-0.082
-486.449	-109.193	-0.111	0.023
-485.435	-48.270	-0.329	-0.158
-484.420	-129.283	-0.091	-0.013
-483.405	-118.517	0.082	-0.014
-482.391	65.396	-0.120	-0.121
-481.376	-37.181	0.147	-0.078
-480.362	-200.000	-0.010	0.090
-479.347	-151.009	-0.211	0.016
-478.332	636.203	-0.087	0.220
-477.318	-158.132	-0.101	0.006
-476.303	-9.595	-0.188	-0.125
-475.289	-47.750	0.073	0.035
-474.274	521.608	0.026	-0.061
-473.259	754.720	-0.029	0.078
-472.245	-73.427	0.075	-0.027
-471.230	-100.742	0.226	-0.055
-470.216	643.132	-0.045	0.114
-469.201	-200.000	0.013	-0.123
-468.186	-149.465	0.109	0.009
-467.172	21.523	-0.175	-0.141
-466.157	-47.123	-0.045	0.022
-465.143	-200.000	-0.014	-0.084
-464.128	-58.933	0.160	-0.069
-463.113	-129.807	-0.164	-0.022
-462.099	68.235	-0.040	-0.041
-461.084	112.290	0.210	0.253
-460.070	-146.906	-0.016	-0.001
-459.055	42.637	-0.089	0.081
-458.040	87.452	0.371	-0.408
-457.026	-200.000	0.000	-0.061
-456.011	800.000	0.016	-0.052
-454.997	126.601	0.050	0.063
-453.982	800.000	-0.044	0.129
-452.968	481.115	0.039	-0.087
-451.953	-88.145	0.064	-0.019
-450.938	130.985	0.160	0.205
-449.924	-2.178	0.209	0.146
-448.909	-22.690	-0.201	0.121
-447.895	79.428	0.229	-0.244
-446.880	-49.711	-0.172	-0.081
-445.865	-39.175	-0.184	0.096
-444.851	14.072	-0.337	0.261
-443.836	151.925	-0.118	0.160
-442.822	800.000	0.040	-0.128
-441.807	-57.026	-0.137	0.060
-440.792	283.436	0.093	-0.166
-439.778	-95.796	0.133	-0.035
-438.763	-25.773	0.317	0.186
-437.749	11.087	-0.185	0.140
-436.734	-81.027	-0.174	-0.057
-435.719	26.836	0.276	-0.230
-434.705	631.392	-0.190	0.479
-433.690	800.000	-0.036	0.139
-432.676	-200.000	0.037	-0.162
-431.661	-8.862	-0.070	-0.047
-430.646	82.154	0.220	0.237
-429.632	800.000	0.097	-0.305
-428.617	-87.777	0.245	-0.073
-427.603	-33.056	0.178	0.098
-426.588	-69.514	0.044	0.017
-425.573	166.765	-0.240	0.338
-424.559	800.000	-0.055	0.186
-423.544	29.427	-0.203	0.171
-422.530	-200.000	-0.023	-0.428
-421.515	-200.000	-0.012	-0.201
-420.500	45.285	-0.021	0.019
-419.486	168.258	-0.190	-0.269
-418.471	-189.185	0.129	-0.002
-417.457	-159.418	-0.334	0.019
-416.442	-120.480	0.239	-0.040
-415.428	140.845	-0.056	0.073
-414.413	321.480	-0.135	-0.255
-413.398	-200.000	0.026	0.306
-412.384	-200.000	-0.015	0.126
-411.369	-200.000	-0.113	0.497
-410.355	-161.511	0.323	-0.016
-409.340	-73.099	-0.079	-0.029
-408.325	-200.000	0.030	0.489
-407.311	-23.238	0.243	0.145
-406.296	-49.267	0.066	0.031
-405.282	62.448	0.219	-0.217
-404.267	-131.257	0.079	0.010
-403.252	30.683	-0.219	0.186
-402.238	-49.218	-0.301	0.143
-401.223	800.000	0.058	0.179
-400.209	800.000	0.038	0.139
-399.194	683.304	-0.114	0.296
-398.179	416.574	0.059	0.124
-397.165	418.521	0.042	0.089
-396.150	15.770	0.287	0.224
-395.136	45.577	0.141	0.129
-394.121	-200.000	0.070	-0.538
-393.106	28.649	0.123	-0.103
-392.092	-73.850	-0.262	-0.094
-391.077	215.574	-0.093	-0.147
-390.063	87.305	0.285	0.312
-389.048	-200.000	0.041	0.289
-388.033	-200.000	-0.014	0.569
-387.019	-200.000	0.042	0.279
-386.004	420.625	-0.072	-0.153
-384.990	8.630	-0.383	-0.286
-383.975	-200.000	0.013	-0.088
-382.960	-190.670	0.335	-0.004
-381.946	800.000	-0.054	0.215
-380.931	42.211	0.083	-0.075
-379.917	261.603	0.144	0.247
-378.902	-4.962	0.097	-0.067
-377.888	800.000	0.108	0.300
-376.873	-180.220	0.463	0.010
-375.858	-200.000	0.021	0.108
-374.844	800.000	-0.035	0.139
-373.829	133.233	-0.176	-0.226
-372.815	-102.226	-0.263	0.063
-371.800	370.502	0.183	-0.367
-370.785	-200.000	0.034	-0.250
-369.771	-200.000	-0.052	0.247
-368.756	-200.000	0.011	0.055
-367.742	-149.589	-0.244	0.019
-366.727	-101.208	-0.092	-0.022
-365.712	-200.000	0.034	0.169
-364.698	2.159	-0.161	0.115
-363.683	-107.021	0.159	0.035
-362.669	-109.706	-0.414	-0.086
-361.654	-200.000	0.044	-0.485
-360.639	54.864	0.055	0.053
-359.625	-144.126	-0.453	-0.042
-358.610	-123.063	-0.115	-0.018
-357.596	-124.353	-0.223	-0.034
-356.581	70.248	-0.108	0.110
-355.566	9.232	-0.171	0.128
-354.552	-147.233	0.232	-0.020
-353.537	-200.000	-0.007	0.133
-352.523	-200.000	0.025	0.235
-351.508	-43.408	-0.411	-0.206
-350.493	513.992	0.070	-0.161
-349.479	331.410	0.108	0.207
-348.464	8.353	-0.160	-0.119
-347.450	49.435	-0.084	-0.078
-346.435	800.000	0.075	0.307
-345.420	36.276	-0.244	-0.213
-344.406	36.467	0.360	0.315
-343.391	-178.447	-0.160	0.004
-342.377	1.101	0.124	-0.088
-341.362	-109.007	0.132	-0.028
-340.348	800.000	0.055	0.162
-339.333	131.428	-0.092	-0.117
-338.318	-121.971	0.218	-0.036
-337.304	-37.043	-0.227	-0.120
-336.289	-200.000	0.019	-0.349
-335.275	38.140	-0.093	-0.082
-334.260	476.301	-0.163	0.364
-333.245	84.417	0.177	0.192
-332.231	143.330	0.142	0.187
-331.216	800.000	-0.037	0.158
-330.202	-36.700	-0.077	-0.041
-329.187	-42.667	0.195	-0.098
-328.172	295.951	-0.093	0.168
-327.158	-200.000	0.057	-0.311
-326.143	-148.154	0.437	0.036
-325.129	800.000	0.028	-0.096
-324.114	769.677	0.144	0.388
-323.099	-59.765	0.302	0.128
-322.085	-200.000	0.048	0.228
-321.070	-90.634	-0.185	0.053
-320.056	-165.147	0.102	0.004
-319.041	475.438	-0.058	-0.129
-318.026	203.314	0.114	0.175
-317.012	-200.000	-0.003	-0.087
-315.997	136.705	-0.118	-0.153
-314.983	14.998	0.106	0.082
-313.968	800.000	-0.072	-0.241
-312.953	-9.795	-0.236	-0.155
-311.939	-66.128	0.440	-0.174
-310.924	314.323	-0.050	0.093
-309.910	-118.682	-0.313	-0.055
-308.895	-200.000	0.029	0.400
-307.880	395.427	0.116	0.240
-306.866	-17.197	0.193	0.120
-305.851	767.758	-0.080	0.216
-304.837	151.978	0.119	0.161
-303.822	-39.763	0.025	-0.013
-302.807	-200.000	-0.003	0.054
-301.793	-40.083	-0.078	-0.040
-300.778	653.028	-0.159	-0.403
-299.764	-200.000	0.010	0.226
-298.749	-200.000	-0.042	0.287
-297.735	-9.649	-0.068	0.045
-296.720	-141.017	-0.177	-0.018
-295.705	98.724	0.159	0.181
-294.691	322.271	0.089	0.167
-293.676	128.064	-0.089	0.112
-292.662	250.012	-0.070	-0.117
-291.647	-200.000	0.037	-0.173
-290.632	-61.779	0.192	-0.080
-289.618	771.386	-0.120	-0.323
-288.603	800.000	0.083	0.246
-287.589	79.846	-0.020	0.021
-286.574	-26.049	0.098	-0.057
-285.559	343.942	-0.109	-0.211
-284.545	800.000	-0.027	-0.112
-283.530	-13.527	-0.075	-0.048
-282.516	-95.336	0.389	0.103
-281.501	28.824	-0.207	-0.174
-280.486	800.000	0.106	-0.419
-279.472	-92.731	0.325	0.090
-278.457	-200.000	0.042	0.204
-277.443	-200.000	0.001	-0.219
-276.428	82.783	0.159	0.171
-275.413	121.935	0.120	-0.148
-274.399	32.933	0.319	0.273
-273.384	800.000	-0.072	0.204
-272.370	132.706	0.087	0.111
-271.355	548.693	-0.064	0.151
-270.340	-200.000	0.033	0.313
-269.326	-12.223	0.236	0.153
-268.311	800.000	-0.080	-0.281
-267.297	153.504	-0.127	0.171
-266.282	-200.000	-0.002	0.198
-265.267	-116.578	-0.263	-0.048
-264.253	-51.239	0.142	-0.066
-263.238	-8.791	-0.114	0.076
-262.224	-119.047	0.088	0.015
-261.209	-41.366	-0.184	0.094
-260.195	160.142	0.129	0.177
-259.180	-200.000	0.016	-0.560
-258.165	-134.046	0.325	0.040
-257.151	-97.512	0.067	-0.017
-256.136	760.939	-0.030	-0.081
-255.122	800.000	0.070	-0.226
-254.107	800.000	0.026	-0.112
-253.092	-43.618	-0.233	-0.116
-252.078	-76.579	-0.126	-0.043
-251.063	-200.000	0.055	0.242
-250.049	116.885	0.094	-0.113
-249.034	-180.318	-0.022	0.000
-248.019	800.000	-0.031	-0.116
-247.005	-200.000	-0.082	-0.410
-245.990	10.107	-0.141	0.106
-244.976	-200.000	-0.129	0.560
-243.961	-170.317	0.334	-0.012
-242.946	-138.638	0.135	0.015
-241.932	-200.000	-0.006	-0.125
-240.917	201.917	0.132	-0.201
-239.903	-105.447	0.115	-0.026
-238.888	16.897	0.116	-0.091
-237.873	-70.866	-0.217	0.081
-236.859	742.538	0.132	0.350
-235.844	800.000	0.076	-0.285
-234.830	-79.677	-0.159	0.053
-233.815	-80.389	-0.521	0.172
-232.800	-200.000	0.029	-0.185
-231.786	-74.055	-0.354	-0.126
-230.771	-43.312	-0.297	0.148
-229.757	-117.680	0.356	0.063
-228.742	110.336	0.189	-0.224
-227.727	-127.115	0.157	-0.023
-226.713	-65.528	-0.127	-0.050
-225.698	-200.000	-0.005	0.100
-224.684	800.000	-0.111	-0.402
-223.669	-60.629	0.304	0.127
-222.655	-30.898	0.222	0.124
-221.640	145.709	-0.161	-0.213
-220.625	-154.193	0.296	-0.020
-219.611	86.126	0.143	0.155
-218.596	177.377	-0.085	0.121
-217.582	220.553	-0.082	-0.129
-216.567	-96.647	-0.300	-0.078
-215.552	337.998	0.073	-0.141
-214.538	53.517	-0.105	0.100
-213.523	-7.908	0.082	0.054
-212.509	-142.173	0.219	0.021
-211.494	-76.412	-0.427	0.148
-210.479	-37.436	0.191	-0.100
-209.465	800.000	0.061	0.187
-208.450	175.460	0.043	0.061
-207.436	123.581	-0.161	0.198
-206.421	-200.000	-0.032	0.233
-205.406	-40.022	0.124	0.064
-204.392	60.247	-0.184	0.179
-203.377	-149.963	0.276	-0.021
-202.363	-200.000	-0.076	-0.379
-201.348	91.078	-0.179	-0.198
-200.333	-200.000	0.030	-0.343
-199.319	-200.000	0.050	-0.258
-198.304	-76.668	-0.294	0.102
-197.290	61.215	-0.131	-0.129
-196.275	-0.953	-0.320	0.223
-195.260	91.165	0.133	0.147
-194.246	-196.693	0.226	-0.001
-193.231	-86.073	0.250	-0.076
-192.217	28.448	0.206	-0.172
-191.202	284.368	-0.019	0.033
-190.187	-32.887	-0.180	-0.099
-189.173	-75.500	0.147	0.052
-188.158	800.000	-0.115	-0.427
-187.144	-200.000	-0.019	0.126
-186.129	-39.351	-0.198	-0.102
-185.114	-69.179	0.067	-0.025
-184.100	-53.189	0.195	-0.088
-183.085	800.000	0.141	-0.397
-182.071	-26.971	-0.131	-0.075
-181.056	800.000	-0.065	-0.217
-180.042	639.144	-0.020	-0.049
-179.027	-63.232	-0.288	-0.117
-178.012	-23.997	-0.156	-0.092
-176.998	-42.094	0.235	0.118
-175.983	800.000	-0.040	0.120
-174.969	-67.195	-0.011	-0.004
-173.954	-146.365	0.305	-0.026
-172.939	592.313	-0.082	-0.200
-171.925	-25.343	0.257	-0.149
-170.910	186.192	-0.176	0.258
-169.896	-83.371	0.194	0.061
-168.881	277.590	0.106	0.186
-167.866	-63.555	0.124	-0.050
-166.852	242.986	0.060	0.098
-165.837	86.752	-0.064	-0.070
-164.823	67.950	0.367	0.369
-163.808	99.721	0.097	0.110
-162.793	-102.422	0.204	0.048
-161.779	-119.132	-0.040	0.007
-160.764	800.000	0.080	0.308
-159.750	-106.927	0.234	0.051
-158.735	134.264	0.053	0.068
-157.720	297.052	0.061	0.110
-156.706	41.973	-0.314	0.281
-155.691	51.505	0.206	0.192
-154.677	39.012	0.264	-0.232
-153.662	12.030	0.099	-0.075
-152.647	80.792	-0.208	0.220
-151.633	-200.000	0.031	0.280
-150.618	88.735	0.011	-0.012
-149.604	93.804	0.330	0.368
-148.589	-140.323	0.125	0.013
-147.574	488.916	-0.031	-0.070
-146.560	800.000	-0.063	-0.190
-145.545	-200.000	0.030	0.222
-144.531	-81.848	0.077	-0.025
-143.516	237.355	-0.133	0.217
-142.502	110.702	0.059	0.070
-141.487	800.000	-0.101	-0.361
-140.472	323.606	0.112	0.209
-139.458	423.778	-0.089	0.188
-138.443	-101.194	0.209	-0.050
-137.429	532.033	-0.151	-0.352
-136.414	33.701	0.230	-0.196
-135.399	541.589	-0.096	0.224
-134.385	800.000	0.095	-0.316
-133.370	234.716	-0.021	0.035
-132.356	243.544	-0.076	-0.125
-131.341	-61.433	0.090	0.037
-130.326	-200.000	0.039	0.267
-129.312	-200.000	0.030	-0.191
-128.297	-186.478	0.473	0.007
-127.283	4.180	0.183	-0.131
-126.268	-110.162	0.190	-0.039
-125.253	-79.447	0.277	0.092
-124.239	-200.000	0.018	0.129
-123.224	-200.000	0.038	0.221
-122.210	31.003	0.146	0.123
-121.195	-200.000	-0.002	0.208
