DTS Sentinel unit serial number:	SN413079Multiplexer serial number:	ORYXHardware model number:	OX4-SRSoftware version number:	ORYX F/W v4.00 Oryx Data Collector v3.7.2.0data status	okinstallation	princeton_trtdifferential loss correction	single-endedforward channel	channel 3reverse channel	N/Adate	2019/09/11time	05:46:11forward acquisition time	60.00reverse acquisition time	0.00gamma	496.2192k internal	0.2331k external	0.2331temperature offset calibration	0.9909default loss term (dB/km)	0.3790temperature slope calibration	1.0000multiplexer offset coefficient	1.0000multiplexer slope coefficient	1.0000fibre end	0.00T internal ref (°C)	29.42T ext. ref 1 (°C)	-0.21T ext. ref 2 (°C)	23.43length (m)	temperature (°C)	Stokes	anti-Stokes-747.200	53.984	-0.198	-0.192
-746.185	-148.255	-0.137	-0.011
-745.171	-127.806	0.320	-0.046
-744.156	800.000	0.076	0.235
-743.142	-69.942	-0.295	0.113
-742.127	-91.328	-0.064	0.018
-741.112	-21.710	-0.160	0.098
-740.098	-11.337	0.196	0.130
-739.083	-56.470	-0.305	0.136
-738.069	116.988	-0.163	0.201
-737.054	228.012	0.075	-0.122
-736.039	-189.176	0.143	-0.002
-735.025	39.664	-0.116	-0.104
-734.010	-38.431	-0.188	-0.100
-732.996	300.472	-0.199	-0.369
-731.981	292.911	0.076	-0.139
-730.966	746.557	0.034	0.092
-729.952	375.804	0.135	-0.277
-728.937	-22.810	0.043	-0.026
-727.923	800.000	0.018	-0.057
-726.908	86.629	-0.218	-0.241
-725.894	-200.000	-0.011	0.106
-724.879	533.076	-0.043	0.103
-723.864	-164.939	0.242	0.011
-722.850	800.000	-0.033	-0.091
-721.835	414.166	-0.196	-0.419
-720.821	629.888	-0.112	-0.284
-719.806	53.554	-0.202	0.194
-718.791	-42.377	-0.265	-0.136
-717.777	242.534	0.085	-0.143
-716.762	-88.179	-0.306	0.092
-715.748	-200.000	0.015	-0.086
-714.733	420.410	0.055	-0.118
-713.718	800.000	-0.075	-0.231
-712.704	800.000	0.035	0.121
-711.689	186.168	0.302	0.452
-710.675	-2.257	0.121	-0.086
-709.660	563.498	-0.087	-0.212
-708.645	29.499	0.069	0.059
-707.631	-200.000	-0.001	-0.212
-706.616	800.000	-0.081	-0.273
-705.602	123.462	-0.076	0.096
-704.587	-113.706	0.269	-0.053
-703.572	-46.976	-0.214	0.105
-702.558	-8.526	-0.150	-0.101
-701.543	800.000	-0.033	0.129
-700.529	800.000	-0.096	0.293
-699.514	-49.995	0.118	-0.056
-698.499	666.914	-0.114	0.296
-697.485	800.000	-0.080	-0.304
-696.470	31.964	-0.060	-0.052
-695.456	-200.000	0.000	0.040
-694.441	-200.000	-0.038	0.302
-693.426	21.514	0.238	0.194
-692.412	163.201	0.094	-0.133
-691.397	-119.133	0.247	-0.043
-690.383	-200.000	-0.026	-0.113
-689.368	800.000	0.053	-0.227
-688.354	72.643	-0.235	-0.246
-687.339	32.225	0.160	0.139
-686.324	-110.756	0.285	-0.059
-685.310	-200.000	-0.014	-0.267
-684.295	-200.000	-0.027	-0.323
-683.281	656.540	0.132	-0.341
-682.266	16.412	-0.052	-0.042
-681.251	-200.000	-0.015	-0.072
-680.237	190.119	0.145	0.219
-679.222	-38.709	0.185	0.098
-678.208	74.743	0.254	-0.269
-677.193	-88.911	0.169	0.050
-676.178	800.000	0.046	-0.155
-675.164	-14.412	-0.218	-0.141
-674.149	-51.224	-0.209	-0.098
-673.135	-24.075	0.048	-0.029
-672.120	38.323	-0.098	0.088
-671.105	-99.780	0.129	-0.032
-670.091	800.000	0.023	0.085
-669.076	-121.602	-0.154	0.026
-668.062	-138.298	-0.381	-0.042
-667.047	80.405	0.083	-0.089
-666.032	-122.613	-0.245	-0.040
-665.018	-200.000	-0.032	-0.352
-664.003	800.000	-0.124	-0.347
-662.989	9.839	-0.153	0.117
-661.974	-121.661	-0.174	-0.029
-660.959	40.125	0.115	-0.104
-659.945	-101.687	-0.126	0.031
-658.930	79.373	-0.102	-0.110
-657.916	8.879	0.144	-0.109
-656.901	68.661	-0.082	0.084
-655.886	-200.000	-0.015	-0.150
-654.872	-101.249	0.327	-0.080
-653.857	-18.959	0.120	0.075
-652.843	75.074	0.127	-0.135
-651.828	800.000	-0.112	-0.373
-650.814	-7.471	0.176	0.119
-649.799	-10.605	-0.179	-0.119
-648.784	21.571	0.223	0.182
-647.770	-117.474	-0.114	0.021
-646.755	800.000	0.046	-0.150
-645.741	800.000	0.039	0.125
-644.726	115.258	0.109	-0.133
-643.711	-88.340	-0.340	0.102
-642.697	171.054	0.103	-0.148
-641.682	527.655	0.060	-0.142
-640.668	-200.000	-0.029	0.181
-639.653	-116.888	0.114	-0.021
-638.638	248.154	-0.030	0.051
-637.624	-123.622	0.175	0.028
-636.609	-148.413	-0.131	-0.011
-635.595	-92.111	-0.060	-0.017
-634.580	-132.561	-0.021	0.003
-633.565	800.000	-0.042	-0.119
-632.551	-123.224	0.196	0.032
-631.536	-146.493	-0.277	0.024
-630.522	308.514	0.086	0.161
-629.507	-113.200	-0.117	-0.023
-628.492	-165.089	-0.385	-0.017
-627.478	-200.000	0.002	-0.101
-626.463	17.036	-0.075	0.059
-625.449	-37.724	-0.136	0.072
-624.434	-138.060	0.194	-0.022
-623.419	16.595	-0.159	-0.126
-622.405	800.000	0.036	-0.116
-621.390	-200.000	-0.030	0.135
-620.376	96.761	-0.186	0.213
-619.361	-200.000	-0.010	-0.253
-618.346	628.057	-0.052	-0.131
-617.332	90.714	0.057	0.064
-616.317	278.111	0.139	0.248
-615.303	32.891	0.078	0.068
-614.288	-200.000	-0.003	0.233
-613.273	52.115	0.312	-0.298
-612.259	800.000	0.195	0.574
-611.244	800.000	-0.095	0.359
-610.230	-185.123	-0.166	-0.003
-609.215	4.423	0.120	0.088
-608.201	-200.000	-0.019	-0.286
-607.186	-200.000	-0.020	0.258
-606.171	93.378	-0.053	-0.060
-605.157	115.937	-0.106	-0.130
-604.142	800.000	0.171	0.506
-603.128	-34.221	-0.079	0.044
-602.113	103.437	-0.135	-0.158
-601.098	239.599	-0.189	-0.316
-600.084	91.286	0.096	0.107
-599.069	-50.721	0.124	-0.058
-598.055	20.744	0.026	-0.021
-597.040	-200.000	0.004	-0.096
-596.025	-16.255	0.081	0.051
-595.011	31.304	0.098	-0.084
-593.996	133.527	-0.120	0.155
-592.982	-108.908	-0.187	-0.040
-591.967	-21.325	0.283	-0.173
-590.952	-23.994	-0.063	0.038
-589.938	48.987	0.209	0.196
-588.923	800.000	-0.064	-0.226
-587.909	-95.236	-0.191	0.052
-586.894	65.697	0.046	0.046
-585.879	800.000	-0.065	0.194
-584.865	149.898	-0.227	-0.308
-583.850	91.869	-0.294	-0.331
-582.836	348.866	-0.074	-0.146
-581.821	95.048	0.154	0.175
-580.806	108.833	-0.206	-0.246
-579.792	431.863	-0.065	-0.142
-578.777	-200.000	-0.028	0.375
-577.763	-135.802	-0.152	-0.018
-576.748	-200.000	0.018	0.265
-575.733	85.728	0.118	0.129
-574.719	476.515	0.059	-0.133
-573.704	-121.890	-0.053	-0.009
-572.690	24.458	0.070	-0.058
-571.675	-200.000	-0.048	-0.236
-570.661	800.000	-0.063	-0.235
-569.646	-200.000	0.032	-0.146
-568.631	-32.503	0.417	0.232
-567.617	-7.764	-0.213	0.144
-566.602	58.790	0.116	0.114
-565.588	304.969	-0.074	-0.138
-564.573	311.330	-0.157	0.295
-563.558	-200.000	0.048	0.274
-562.544	-94.854	-0.158	-0.043
-561.529	-31.683	-0.155	0.087
-560.515	-28.755	0.154	0.088
-559.500	39.330	0.130	-0.116
-558.485	102.589	0.336	0.392
-557.471	-133.717	-0.270	-0.034
-556.456	-6.057	-0.295	-0.202
-555.442	-200.000	0.040	0.319
-554.427	-66.568	0.213	-0.085
-553.412	476.070	0.137	0.309
-552.398	-82.494	-0.323	-0.105
-551.383	-111.696	-0.130	0.026
-550.369	-56.587	0.284	0.126
-549.354	-200.000	-0.018	0.112
-548.339	355.726	0.088	-0.175
-547.325	18.560	-0.125	-0.100
-546.310	-200.000	-0.049	0.341
-545.296	-90.780	-0.153	0.044
-544.281	-37.645	-0.087	-0.046
-543.266	330.967	0.043	0.083
-542.252	148.935	0.289	-0.390
-541.237	630.225	-0.080	-0.203
-540.223	-61.695	-0.281	0.117
-539.208	-145.392	-0.398	-0.036
-538.193	199.063	0.161	0.246
-537.179	-74.749	0.136	0.049
-536.164	-111.938	0.401	-0.081
-535.150	112.673	0.116	0.140
-534.135	39.528	-0.367	0.329
-533.121	-135.542	0.174	-0.021
-532.106	191.543	0.154	0.232
-531.091	-4.597	-0.079	-0.054
-530.077	1.765	0.233	-0.167
-529.062	-181.839	0.300	-0.006
-528.048	-6.982	-0.087	-0.059
-527.033	-200.000	-0.010	-0.069
-526.018	-142.170	-0.228	-0.023
-525.004	11.978	0.066	0.051
-523.989	94.814	-0.134	0.152
-522.975	554.464	-0.079	-0.189
-521.960	552.279	-0.063	-0.150
-520.945	222.431	-0.191	0.307
-519.931	153.558	-0.062	-0.085
-518.916	-65.790	0.073	-0.029
-517.902	-40.274	0.069	-0.036
-516.887	-103.021	0.134	0.032
-515.872	-15.993	-0.277	-0.176
-514.858	800.000	-0.042	-0.130
-513.843	195.066	-0.082	0.124
-512.829	55.506	-0.263	-0.254
-511.814	95.872	-0.332	-0.378
-510.799	92.163	-0.107	0.120
-509.785	-200.000	0.003	0.075
-508.770	129.949	-0.153	-0.196
-507.756	577.658	-0.014	-0.034
-506.741	51.271	0.214	-0.203
-505.726	179.882	0.178	-0.260
-504.712	800.000	-0.065	-0.256
-503.697	-72.257	0.220	0.081
-502.683	9.839	-0.312	-0.236
-501.668	-44.834	-0.433	0.215
-500.653	12.820	0.269	-0.207
-499.639	82.973	-0.250	0.271
-498.624	240.918	0.162	-0.270
-497.610	-112.715	-0.348	-0.069
-496.595	-14.387	0.121	0.078
-495.581	-98.671	0.013	0.003
-494.566	-125.848	0.228	-0.034
-493.551	-111.865	-0.287	0.058
-492.537	275.128	0.070	0.123
-491.522	130.037	0.086	-0.109
-490.508	24.915	0.086	0.071
-489.493	-20.407	-0.003	-0.002
-488.478	-24.440	0.123	0.073
-487.464	34.610	-0.382	0.332
-486.449	-9.689	0.089	0.059
-485.435	-23.524	-0.195	0.117
-484.420	81.419	0.113	-0.122
-483.405	704.381	-0.097	-0.256
-482.391	-200.000	-0.029	-0.221
-481.376	-108.532	0.462	0.099
-480.362	-23.014	0.282	-0.170
-479.347	-200.000	-0.008	-0.325
-478.332	-80.149	0.269	-0.090
-477.318	-200.000	0.068	-0.340
-476.303	144.623	0.224	-0.298
-475.289	800.000	0.103	0.355
-474.274	-131.345	0.254	0.033
-473.259	-139.385	-0.128	-0.014
-472.245	-140.951	-0.304	0.031
-471.230	128.662	0.094	0.120
-470.216	4.680	-0.342	-0.250
-469.201	545.535	0.047	0.113
-468.186	-200.000	0.024	0.128
-467.172	89.909	0.174	-0.194
-466.157	123.361	-0.107	-0.134
-465.143	531.056	-0.074	-0.173
-464.128	334.328	-0.060	0.115
-463.113	2.140	0.212	-0.153
-462.099	-200.000	-0.007	0.110
-461.084	75.444	-0.252	0.265
-460.070	-200.000	0.006	0.167
-459.055	-11.724	0.032	0.021
-458.040	-145.998	0.107	0.009
-457.026	340.725	0.186	-0.361
-456.011	-138.231	-0.116	0.013
-454.997	-129.084	-0.167	-0.023
-453.982	800.000	0.116	0.336
-452.968	-77.852	0.223	0.077
-451.953	800.000	-0.009	-0.030
-450.938	19.902	0.153	0.123
-449.924	-200.000	0.012	-0.170
-448.909	247.894	-0.104	-0.175
-447.895	-26.157	0.265	0.155
-446.880	-125.417	-0.321	-0.049
-445.865	-135.478	0.356	0.042
-444.851	-5.200	-0.290	0.198
-443.836	-73.276	0.143	0.052
-442.822	228.994	0.020	0.032
-441.807	453.141	0.033	0.073
-440.792	-181.643	0.086	0.002
-439.778	-165.380	0.229	0.010
-438.763	127.912	-0.105	-0.133
-437.749	-200.000	0.080	0.399
-436.734	-130.229	0.147	0.020
-435.719	-98.684	0.037	-0.009
-434.705	324.251	-0.179	-0.340
-433.690	-200.000	0.009	-0.150
-432.676	-120.177	-0.116	0.020
-431.661	-101.848	0.127	-0.030
-430.646	338.558	0.073	0.142
-429.632	79.121	-0.178	-0.190
-428.617	800.000	-0.037	-0.104
-427.603	166.730	0.104	0.147
-426.588	396.914	0.029	0.061
-425.573	-200.000	-0.018	-0.092
-424.559	-110.747	0.061	0.012
-423.544	45.169	0.137	-0.125
-422.530	187.199	-0.066	0.098
-421.515	-160.984	0.078	-0.004
-420.500	376.504	-0.139	0.282
-419.486	-200.000	0.037	-0.295
-418.471	-95.338	0.222	-0.059
-417.457	14.589	-0.229	0.178
-416.442	-42.952	0.100	-0.050
-415.428	-188.282	-0.241	0.003
-414.413	-200.000	0.015	0.281
-413.398	432.810	0.053	0.115
-412.384	-148.835	-0.139	0.011
-411.369	343.847	0.144	-0.281
-410.355	716.373	0.123	0.324
-409.340	185.409	0.089	-0.131
-408.325	76.025	-0.119	-0.125
-407.311	5.234	-0.177	-0.129
-406.296	297.019	-0.158	0.288
-405.282	-126.120	0.166	0.025
-404.267	-9.649	0.280	0.186
-403.252	298.485	-0.107	-0.196
-402.238	63.830	-0.220	0.220
-401.223	-200.000	-0.029	0.263
-400.209	23.413	-0.217	0.177
-399.194	70.252	-0.134	-0.137
-398.179	-45.495	0.270	-0.133
-397.165	146.225	0.085	0.113
-396.150	-156.506	-0.125	0.008
-395.136	-72.853	-0.030	-0.011
-394.121	-193.555	0.068	-0.001
-393.106	98.628	0.122	0.140
-392.092	586.992	0.086	-0.210
-391.077	-26.500	-0.297	0.173
-390.063	556.621	-0.117	0.279
-389.048	199.892	-0.132	0.201
-388.033	-200.000	-0.052	-0.237
-387.019	133.063	0.185	0.237
-386.004	18.342	-0.200	-0.158
-384.990	324.389	0.166	0.314
-383.975	-123.125	0.457	0.073
-382.960	-200.000	-0.014	0.095
-381.946	800.000	-0.118	0.351
-380.931	-200.000	0.003	-0.034
-379.917	222.836	0.147	-0.235
-378.902	-200.000	0.043	-0.200
-377.888	61.322	0.244	0.241
-376.873	11.427	-0.156	-0.119
-375.858	315.153	-0.126	-0.235
-374.844	281.980	0.243	0.433
-373.829	-200.000	-0.014	-0.150
-372.815	-21.810	0.243	0.147
-371.800	218.829	0.182	-0.288
-370.785	125.201	0.169	-0.211
-369.771	199.582	0.069	-0.105
-368.756	-3.167	0.252	0.174
-367.742	282.142	0.068	-0.121
-366.727	800.000	0.017	0.064
-365.712	-55.231	0.238	-0.106
-364.698	-62.907	-0.329	-0.135
-363.683	188.522	-0.066	0.098
-362.669	-62.847	-0.169	0.069
-361.654	-200.000	-0.058	-0.289
-360.639	-200.000	-0.154	0.000
-359.625	-200.000	0.037	-0.176
-358.610	-200.000	-0.015	-0.239
-357.596	47.370	0.227	0.210
-356.581	-200.000	0.003	-0.173
-355.566	71.941	0.142	-0.146
-354.552	-200.000	0.006	-0.155
-353.537	6.021	-0.101	0.074
-352.523	169.662	0.077	-0.109
-351.508	296.727	0.196	0.356
-350.493	-76.850	-0.229	0.080
-349.479	-27.570	0.410	-0.236
-348.464	-25.588	0.411	-0.240
-347.450	-28.595	0.200	-0.114
-346.435	-141.112	-0.175	0.018
-345.420	15.611	0.145	-0.113
-344.406	-40.697	-0.140	0.072
-343.391	40.458	-0.255	-0.227
-342.377	345.853	-0.099	-0.194
-341.362	361.476	0.106	0.211
-340.348	-119.587	0.139	0.024
-339.333	-200.000	-0.023	-0.274
-338.318	-44.305	0.120	0.059
-337.304	573.284	-0.033	0.080
-336.289	222.566	-0.055	-0.088
-335.275	284.481	-0.029	-0.051
-334.260	5.183	0.318	-0.232
-333.245	28.308	0.113	0.095
-332.231	59.124	-0.216	-0.211
-331.216	-48.444	0.055	-0.026
-330.202	19.554	-0.402	-0.320
-329.187	-200.000	0.071	-0.401
-328.172	67.927	-0.083	-0.084
-327.158	738.122	0.081	-0.215
-326.143	228.932	-0.031	0.050
-325.129	116.547	-0.344	-0.417
-324.114	-70.147	-0.179	-0.067
-323.099	800.000	0.056	0.173
-322.085	449.212	0.117	0.256
-321.070	-121.697	0.368	0.060
-320.056	311.068	-0.046	0.086
-319.041	-200.000	0.093	0.467
-318.026	-93.348	-0.365	-0.100
-317.012	117.330	-0.426	0.519
-315.997	-200.000	-0.004	-0.122
-314.983	-36.147	-0.346	-0.185
-313.968	-117.310	-0.168	-0.030
-312.953	-0.399	0.120	-0.085
-311.939	-73.973	-0.189	-0.068
-310.924	-200.000	0.003	-0.154
-309.910	447.188	0.148	-0.323
-308.895	800.000	0.027	0.097
-307.880	65.525	0.157	0.158
-306.866	1.592	0.159	0.113
-305.851	79.638	-0.270	-0.287
-304.837	-200.000	0.042	0.184
-303.822	-168.840	-0.313	-0.012
-302.807	-200.000	-0.018	-0.284
-301.793	-200.000	-0.002	-0.159
-300.778	800.000	0.034	0.143
-299.764	-88.062	-0.141	-0.042
-298.749	-160.907	-0.091	0.005
-297.735	683.365	0.034	0.088
-296.720	299.303	0.166	-0.303
-295.705	-132.063	0.095	-0.012
-294.691	-76.848	0.117	-0.040
-293.676	-36.871	0.079	-0.042
-292.662	-75.627	0.273	-0.096
-291.647	25.054	-0.022	-0.018
-290.632	800.000	-0.016	0.045
-289.618	50.711	0.274	0.257
-288.603	800.000	-0.050	0.146
-287.589	-37.151	-0.129	0.068
-286.574	-200.000	-0.010	0.131
-285.559	-117.892	-0.041	0.007
-284.545	-23.028	0.128	0.076
-283.530	422.661	-0.092	-0.194
-282.516	-118.182	0.175	-0.031
-281.501	-90.550	-0.282	-0.081
-280.486	80.506	0.110	-0.117
-279.472	800.000	-0.086	-0.258
-278.457	-104.103	0.157	0.036
-277.443	800.000	-0.026	0.082
-276.428	-55.873	-0.062	-0.027
-275.413	45.335	0.210	0.192
-274.399	-39.451	0.330	0.171
-273.384	-148.059	-0.171	-0.014
-272.370	35.170	0.094	0.081
-271.355	139.376	0.111	-0.144
-270.340	-53.931	0.211	-0.095
-269.326	242.886	0.139	0.230
-268.311	23.149	-0.046	-0.038
-267.297	-200.000	0.015	0.148
-266.282	-4.639	-0.282	0.192
-265.267	-45.362	-0.196	-0.096
-264.253	143.270	0.124	-0.164
-263.238	43.185	0.311	0.280
-262.224	-200.000	0.029	-0.378
-261.209	-114.348	-0.198	-0.038
-260.195	-191.376	-0.386	0.004
-259.180	-156.012	-0.103	0.006
-258.165	235.521	-0.182	0.297
-257.151	583.353	0.076	-0.183
-256.136	-146.187	0.206	-0.018
-255.122	31.380	-0.315	-0.267
-254.107	-81.716	0.349	0.113
-253.092	-108.056	-0.239	-0.051
-252.078	-145.853	0.152	0.013
-251.063	608.726	0.071	-0.176
-250.049	26.253	-0.434	-0.358
-249.034	-200.000	0.014	0.282
-248.019	800.000	0.063	0.258
-247.005	-1.136	0.270	0.188
-245.990	146.236	-0.072	-0.095
-244.976	-115.635	0.291	0.054
-243.961	126.032	-0.074	-0.092
-242.946	-200.000	-0.017	0.128
-241.932	24.147	-0.289	-0.236
-240.917	161.762	0.084	-0.116
-239.903	-200.000	0.017	0.179
-238.888	800.000	-0.048	0.186
-237.873	-14.052	-0.104	-0.066
-236.859	800.000	-0.054	0.151
-235.844	800.000	-0.023	0.065
-234.830	-101.946	0.142	0.034
-233.815	-131.106	-0.070	-0.009
-232.800	38.099	0.211	-0.185
-231.786	-39.808	-0.028	-0.014
-230.771	152.956	-0.168	0.227
-229.757	-59.085	0.190	-0.081
-228.742	-50.769	-0.278	0.129
-227.727	87.039	0.084	0.092
-226.713	-87.668	0.094	-0.028
-225.698	-90.446	0.132	0.038
-224.684	800.000	-0.046	-0.199
-223.669	-130.817	0.090	-0.012
-222.655	-82.937	-0.101	0.032
-221.640	-121.258	-0.405	-0.067
-220.625	128.584	0.075	-0.094
-219.611	-127.340	-0.281	0.040
-218.596	800.000	0.142	0.392
-217.582	37.543	-0.088	-0.077
-216.567	800.000	0.124	-0.388
-215.552	131.249	0.074	0.093
-214.538	800.000	-0.120	0.331
-213.523	-88.348	-0.197	-0.058
-212.509	-93.222	-0.151	-0.041
-211.494	-117.527	0.181	-0.032
-210.479	251.907	0.183	-0.307
-209.465	126.314	-0.214	0.267
-208.450	-169.317	-0.186	0.007
-207.436	9.428	0.186	-0.138
-206.421	432.340	-0.013	-0.027
-205.406	-200.000	0.028	0.127
-204.392	150.273	0.216	0.288
-203.377	94.513	-0.147	0.165
-202.363	104.844	0.182	0.212
-201.348	-200.000	-0.003	0.078
-200.333	-105.433	-0.178	0.040
-199.319	223.412	0.106	-0.169
-198.304	200.556	0.201	-0.304
-197.290	800.000	0.053	0.176
-196.275	524.532	0.094	0.217
-195.260	-200.000	0.000	0.408
-194.246	554.542	0.141	0.334
-193.231	126.922	-0.187	0.233
-192.217	-200.000	0.004	0.109
-191.202	179.746	0.121	-0.174
-190.187	-157.442	-0.094	0.006
-189.173	-200.000	-0.032	-0.269
-188.158	-6.208	0.070	-0.047
-187.144	-200.000	0.010	0.213
-186.129	-128.796	0.110	0.015
-185.114	-99.348	0.385	-0.095
-184.100	233.548	-0.179	0.290
-183.085	751.616	-0.064	-0.171
-182.071	-12.252	0.185	0.119
-181.056	315.592	-0.083	0.154
-180.042	161.869	-0.047	-0.065
-179.027	-99.267	-0.175	0.044
-178.012	-200.000	-0.253	-0.000
-176.998	-200.000	0.003	-0.193
-175.983	-119.801	-0.120	0.020
-174.969	-14.639	0.386	0.244
-173.954	135.153	-0.191	0.245
-172.939	-43.737	0.266	0.132
-171.925	-132.469	-0.097	-0.012
-170.910	265.924	-0.124	0.213
-169.896	800.000	-0.081	-0.246
-168.881	95.861	0.104	0.117
-167.866	-84.670	0.169	-0.052
-166.852	96.026	0.084	0.094
-165.837	-200.000	-0.061	-0.275
-164.823	-200.000	-0.005	0.057
-163.808	-184.273	-0.243	-0.004
-162.793	-85.880	-0.105	0.032
-161.779	-200.000	0.035	-0.208
-160.764	-200.000	-0.045	0.213
-159.750	93.340	-0.125	0.139
-158.735	243.880	0.082	-0.135
-157.720	66.913	0.238	-0.239
-156.706	13.663	-0.125	0.096
-155.691	42.716	-0.094	-0.084
-154.677	-200.000	-0.039	-0.379
-153.662	-45.788	-0.150	0.073
-152.647	-37.700	0.202	-0.106
-151.633	14.606	0.218	-0.168
-150.618	153.970	0.160	-0.216
-149.604	-74.455	0.423	-0.150
-148.589	131.158	0.124	0.156
-147.574	800.000	0.093	0.360
-146.560	265.218	-0.102	-0.174
-145.545	-200.000	-0.017	0.126
-144.531	800.000	0.014	-0.055
-143.516	140.859	0.163	-0.212
-142.502	800.000	-0.106	-0.294
-141.487	55.826	-0.129	-0.123
-140.472	-70.734	0.207	0.077
-139.458	189.076	0.112	0.165
-138.443	8.675	-0.088	-0.065
-137.429	-36.731	0.221	0.116
-136.414	85.232	-0.057	0.061
-135.399	-200.000	-0.026	0.135
-134.385	-54.933	0.263	0.117
-133.370	273.501	0.053	-0.093
-132.356	-89.220	0.172	0.050
-131.341	-42.255	-0.243	0.122
-130.326	152.433	-0.113	0.151
-129.312	-200.000	-0.024	0.306
-128.297	-70.839	-0.145	0.054
-127.283	-79.296	0.143	0.048
-126.268	11.190	0.206	0.155
-125.253	-142.588	-0.118	-0.011
-124.239	178.946	-0.060	-0.086
-123.224	-134.249	-0.361	-0.044
-122.210	-200.000	-0.030	-0.147
-121.195	349.784	0.149	-0.289
