DTS Sentinel unit serial number:	SN413079Multiplexer serial number:	ORYXHardware model number:	OX4-SRSoftware version number:	ORYX F/W v4.00 Oryx Data Collector v3.7.2.0data status	okinstallation	princeton_trtdifferential loss correction	single-endedforward channel	channel 3reverse channel	N/Adate	2019/09/11time	07:46:11forward acquisition time	60.00reverse acquisition time	0.00gamma	496.2192k internal	0.2323k external	0.2323temperature offset calibration	0.9905default loss term (dB/km)	0.3790temperature slope calibration	1.0000multiplexer offset coefficient	1.0000multiplexer slope coefficient	1.0000fibre end	0.00T internal ref (°C)	31.62T ext. ref 1 (°C)	0.09T ext. ref 2 (°C)	28.05length (m)	temperature (°C)	Stokes	anti-Stokes-747.200	-141.138	-0.247	0.025
-746.185	291.214	-0.089	0.163
-745.171	468.355	0.022	0.050
-744.156	-94.414	-0.156	-0.043
-743.142	147.302	-0.131	-0.178
-742.127	120.950	-0.173	0.217
-741.112	28.531	-0.157	0.134
-740.098	-8.398	-0.348	-0.236
-739.083	-200.000	-0.040	0.282
-738.069	-200.000	-0.022	0.246
-737.054	-84.945	-0.221	-0.070
-736.039	-49.802	-0.258	0.124
-735.025	800.000	0.041	0.124
-734.010	738.367	-0.140	-0.379
-732.996	363.849	-0.102	0.207
-731.981	123.972	0.152	-0.193
-730.966	-50.277	-0.056	0.027
-729.952	-168.347	-0.339	-0.013
-728.937	-103.318	-0.111	-0.026
-727.923	490.668	-0.072	-0.167
-726.908	-107.610	-0.404	0.089
-725.894	4.998	-0.122	0.091
-724.879	-200.000	-0.024	-0.472
-723.864	354.374	-0.076	0.152
-722.850	47.021	-0.176	0.165
-721.835	210.966	0.037	-0.059
-720.821	68.490	-0.191	-0.198
-719.806	-17.380	-0.407	0.258
-718.791	-200.000	0.013	0.273
-717.777	800.000	-0.029	-0.096
-716.762	-131.532	0.145	-0.019
-715.748	-48.661	0.196	0.095
-714.733	-109.970	-0.240	0.051
-713.718	-25.500	-0.361	-0.215
-712.704	137.911	0.191	-0.252
-711.689	-107.524	-0.142	-0.031
-710.675	177.091	-0.182	-0.268
-709.660	-112.653	0.110	-0.022
-708.645	-148.849	0.202	-0.016
-707.631	-200.000	0.031	0.138
-706.616	-61.479	-0.332	0.141
-705.602	389.320	-0.086	0.179
-704.587	-79.432	-0.358	-0.122
-703.572	-74.456	0.341	-0.124
-702.558	-111.078	0.247	-0.051
-701.543	-102.192	-0.159	0.038
-700.529	-71.050	0.251	-0.095
-699.514	-70.571	0.409	-0.156
-698.499	92.223	0.085	0.097
-697.485	119.810	-0.137	-0.171
-696.470	-93.779	0.083	-0.023
-695.456	3.462	-0.110	0.081
-694.441	-61.888	0.181	0.076
-693.426	800.000	-0.063	0.215
-692.412	-200.000	0.034	-0.207
-691.397	23.669	-0.130	-0.108
-690.383	-83.549	-0.347	0.112
-689.368	207.997	0.162	0.255
-688.354	-200.000	0.011	-0.137
-687.339	-118.301	0.265	-0.048
-686.324	753.866	-0.098	-0.267
-685.310	800.000	0.091	-0.353
-684.295	86.840	0.174	-0.193
-683.281	-189.073	0.556	0.007
-682.266	-200.000	0.004	0.052
-681.251	-41.956	0.137	0.070
-680.237	164.949	0.292	-0.415
-679.222	-171.549	0.183	0.006
-678.208	-181.556	0.100	-0.002
-677.193	-200.000	-0.074	-0.380
-676.178	265.482	0.235	-0.413
-675.164	-200.000	0.006	-0.109
-674.149	-200.000	-0.026	-0.204
-673.135	237.793	-0.008	0.014
-672.120	-41.893	0.182	0.094
-671.105	158.611	-0.036	-0.050
-670.091	100.143	-0.313	-0.366
-669.076	50.362	-0.190	-0.180
-668.062	460.227	0.097	0.219
-667.047	800.000	-0.019	0.073
-666.032	-40.994	0.207	-0.108
-665.018	28.488	-0.153	0.130
-664.003	800.000	-0.047	-0.181
-662.989	-200.000	-0.047	0.275
-661.974	206.738	0.132	-0.207
-660.959	12.998	-0.196	0.152
-659.945	-78.995	-0.069	0.024
-658.930	355.998	0.153	0.307
-657.916	-64.794	0.339	0.138
-656.901	-200.000	-0.007	0.093
-655.886	199.698	0.077	0.119
-654.872	262.569	-0.030	-0.052
-653.857	168.063	0.178	-0.255
-652.843	404.842	-0.087	0.184
-651.828	-90.215	0.030	-0.009
-650.814	-200.000	0.014	-0.304
-649.799	49.783	0.156	-0.148
-648.784	-200.000	-0.033	0.172
-647.770	188.984	-0.174	0.262
-646.755	800.000	0.088	-0.254
-645.741	-56.521	-0.284	-0.127
-644.726	-127.885	-0.183	-0.027
-643.711	-21.432	-0.038	0.024
-642.697	56.952	0.137	-0.134
-641.682	206.653	0.077	0.121
-640.668	-200.000	-0.069	-0.399
-639.653	146.207	0.083	-0.112
-638.638	284.227	0.182	-0.329
-637.624	289.979	0.042	0.076
-636.609	-100.744	0.205	-0.051
-635.595	274.068	-0.043	0.076
-634.580	-37.433	-0.161	-0.087
-633.565	109.862	-0.185	0.223
-632.551	-190.301	0.219	0.002
-631.536	-115.027	0.197	-0.038
-630.522	800.000	0.080	0.303
-629.507	269.646	-0.083	-0.147
-628.492	800.000	-0.032	0.095
-627.478	162.911	0.030	-0.043
-626.463	-105.131	0.347	-0.080
-625.449	800.000	-0.116	0.387
-624.434	144.080	0.051	-0.069
-623.419	658.041	0.153	-0.396
-622.405	-200.000	0.027	-0.166
-621.390	-36.241	0.123	0.067
-620.376	-200.000	-0.011	0.112
-619.361	-200.000	0.013	-0.181
-618.346	-46.121	-0.220	-0.109
-617.332	-200.000	0.057	0.281
-616.317	-19.233	0.345	0.215
-615.303	-116.263	0.178	-0.033
-614.288	-160.193	-0.112	0.006
-613.273	800.000	0.015	0.051
-612.259	-14.869	0.277	0.178
-611.244	-144.591	-0.070	0.006
-610.230	-143.625	0.133	-0.013
-609.215	-135.906	0.636	-0.075
-608.201	164.385	0.212	-0.300
-607.186	-170.734	-0.095	-0.003
-606.171	-200.000	0.035	0.155
-605.157	-200.000	-0.052	0.227
-604.142	800.000	-0.032	-0.139
-603.128	-200.000	-0.020	0.159
-602.113	-200.000	-0.236	-0.001
-601.098	-124.931	-0.180	-0.028
-600.084	-40.604	0.172	0.090
-599.069	28.422	-0.151	-0.128
-598.055	-153.165	-0.313	-0.022
-597.040	-200.000	-0.094	-0.473
-596.025	-200.000	0.017	-0.170
-595.011	-131.898	-0.260	-0.034
-593.996	-200.000	0.018	-0.112
-592.982	-52.192	-0.141	0.066
-591.967	-118.008	0.076	0.014
-590.952	-134.717	-0.099	-0.012
-589.938	13.901	0.275	0.215
-588.923	123.627	-0.121	-0.152
-587.909	-78.238	-0.260	-0.090
-586.894	800.000	0.019	0.063
-585.879	-152.374	0.205	-0.015
-584.865	-111.311	-0.088	-0.018
-583.850	40.033	-0.184	0.166
-582.836	218.521	-0.183	-0.293
-581.821	800.000	0.063	-0.195
-580.806	225.717	-0.178	-0.290
-579.792	800.000	-0.043	-0.182
-578.777	6.712	0.353	-0.264
-577.763	70.355	-0.364	0.378
-576.748	15.184	0.117	0.092
-575.733	113.381	-0.269	-0.328
-574.719	-65.681	-0.326	0.131
-573.704	800.000	0.045	-0.161
-572.690	-4.109	0.246	-0.171
-571.675	800.000	0.082	-0.285
-570.661	-200.000	-0.115	-0.595
-569.646	-108.913	0.074	0.016
-568.631	-100.520	-0.208	-0.051
-567.617	-73.223	0.101	-0.037
-566.602	6.301	-0.177	0.132
-565.588	-190.476	0.337	-0.004
-564.573	-23.613	0.171	0.103
-563.558	-76.120	-0.282	0.100
-562.544	-68.920	-0.163	0.063
-561.529	-200.000	-0.004	0.019
-560.515	607.105	-0.078	0.195
-559.500	-200.000	0.066	0.357
-558.485	-102.925	0.195	0.047
-557.471	-138.712	0.178	0.019
-556.456	120.857	-0.156	-0.194
-555.442	172.865	-0.195	0.282
-554.427	66.155	0.132	-0.134
-553.412	-200.000	0.030	-0.238
-552.398	-22.705	0.163	0.099
-551.383	111.609	-0.038	0.045
-550.369	135.201	0.066	0.086
-549.354	-13.466	0.231	0.150
-548.339	520.120	0.183	-0.431
-547.325	239.685	0.094	-0.156
-546.310	139.088	-0.203	-0.267
-545.296	764.736	-0.112	-0.304
-544.281	-87.544	0.044	0.013
-543.266	245.808	0.073	-0.123
-542.252	70.515	0.036	-0.037
-541.237	-95.023	0.180	0.049
-540.223	-200.000	0.024	0.246
-539.208	-200.000	-0.021	0.110
-538.193	12.732	-0.111	0.086
-537.179	-38.524	0.239	-0.127
-536.164	444.862	-0.050	-0.110
-535.150	-200.000	-0.029	-0.231
-534.135	-7.084	0.165	0.112
-533.121	-141.059	-0.180	-0.018
-532.106	-34.906	0.100	-0.055
-531.091	523.628	0.064	-0.152
-530.077	131.364	-0.019	0.025
-529.062	-154.925	0.023	0.002
-528.048	-73.304	-0.112	0.041
-527.033	40.347	0.278	-0.251
-526.018	-200.000	-0.002	0.048
-525.004	595.474	0.070	0.173
-523.989	-23.941	0.186	0.111
-522.975	637.712	-0.080	0.204
-521.960	-53.802	-0.299	0.137
-520.945	-200.000	0.019	-0.210
-519.931	-114.661	-0.268	0.051
-518.916	215.844	-0.049	-0.078
-517.902	-170.326	0.182	-0.006
-516.887	-200.000	0.022	-0.353
-515.872	800.000	0.092	0.255
-514.858	144.212	0.093	0.124
-513.843	800.000	0.024	0.091
-512.829	-101.483	-0.221	0.054
-511.814	800.000	-0.045	-0.148
-510.799	66.562	-0.054	-0.055
-509.785	-200.000	-0.025	-0.422
-508.770	-187.940	-0.191	-0.002
-507.756	-96.415	-0.120	0.032
-506.741	-20.797	0.136	0.084
-505.726	-94.369	-0.468	0.128
-504.712	-93.097	-0.028	0.008
-503.697	-80.319	-0.098	-0.033
-502.683	6.116	0.216	-0.160
-501.668	1.847	-0.139	-0.100
-500.653	383.961	-0.039	0.080
-499.639	-132.623	0.031	0.004
-498.624	-85.517	-0.079	-0.025
-497.610	800.000	0.039	0.164
-496.595	-200.000	-0.038	-0.178
-495.581	107.422	-0.199	0.236
-494.566	-152.380	0.318	0.023
-493.551	77.666	0.242	0.257
-492.537	-35.735	0.312	0.169
-491.522	40.395	0.168	-0.152
-490.508	32.576	0.126	0.109
-489.493	295.451	-0.097	-0.178
-488.478	117.377	-0.205	0.252
-487.464	-47.799	0.144	-0.070
-486.449	167.180	0.081	0.115
-485.435	80.361	0.084	0.090
-484.420	207.093	-0.045	-0.070
-483.405	-121.728	0.259	0.043
-482.391	-200.000	-0.001	0.370
-481.376	34.577	0.236	0.206
-480.362	209.383	-0.230	-0.360
-479.347	-0.807	-0.035	-0.025
-478.332	-85.226	-0.154	-0.048
-477.318	316.492	0.201	0.380
-476.303	109.985	-0.303	0.364
-475.289	453.523	0.025	-0.055
-474.274	375.084	0.156	0.317
-473.259	659.609	-0.103	0.265
-472.245	-200.000	0.024	0.236
-471.230	294.822	-0.043	-0.078
-470.216	-173.741	0.126	0.004
-469.201	-84.690	0.167	0.053
-468.186	111.436	0.101	0.122
-467.172	-200.000	0.015	-0.165
-466.157	20.037	0.181	-0.146
-465.143	-12.937	-0.147	0.096
-464.128	756.869	0.097	0.263
-463.113	752.689	0.073	-0.197
-462.099	-68.707	0.090	-0.035
-461.084	-23.303	0.171	-0.103
-460.070	-200.000	0.022	-0.186
-459.055	-122.329	0.224	-0.037
-458.040	77.174	-0.013	-0.014
-457.026	-127.151	-0.123	0.018
-456.011	283.835	-0.109	-0.195
-454.997	556.436	0.136	-0.326
-453.982	153.324	-0.202	-0.276
-452.968	-200.000	-0.005	0.190
-451.953	533.651	0.013	0.030
-450.938	46.559	0.168	-0.156
-449.924	-102.150	-0.055	-0.013
-448.909	403.046	0.053	0.111
-447.895	101.864	0.190	-0.221
-446.880	157.444	0.049	-0.068
-445.865	-200.000	-0.026	-0.144
-444.851	800.000	-0.021	-0.059
-443.836	-90.599	-0.076	-0.022
-442.822	32.579	0.150	-0.129
-441.807	-200.000	0.016	0.166
-440.792	365.944	-0.069	0.140
-439.778	568.869	-0.015	0.035
-438.763	721.593	-0.075	-0.198
-437.749	-81.982	0.228	0.074
-436.734	773.494	0.096	0.262
-435.719	-83.508	-0.238	-0.076
-434.705	-60.831	0.124	0.052
-433.690	-112.200	-0.296	-0.059
-432.676	427.529	-0.166	-0.358
-431.661	238.278	0.010	0.017
-430.646	708.498	0.120	0.315
-429.632	150.545	0.264	-0.358
-428.617	-200.000	-0.092	-0.494
-427.603	61.666	-0.203	-0.201
-426.588	-200.000	0.023	-0.143
-425.573	-200.000	0.040	-0.339
-424.559	88.359	-0.137	0.151
-423.544	123.022	-0.118	0.147
-422.530	-60.985	0.365	0.154
-421.515	32.799	-0.280	0.241
-420.500	100.490	0.163	0.188
-419.486	113.595	-0.056	-0.068
-418.471	-200.000	-0.024	-0.232
-417.457	16.387	-0.225	-0.177
-416.442	153.240	0.055	-0.075
-415.428	-55.595	-0.084	-0.038
-414.413	222.373	0.118	0.189
-413.398	-200.000	-0.125	-0.557
-412.384	127.411	-0.196	-0.248
-411.369	-89.662	-0.258	0.076
-410.355	-90.425	-0.135	0.039
-409.340	800.000	0.032	-0.118
-408.325	-200.000	-0.029	0.354
-407.311	-67.511	0.117	0.046
-406.296	762.677	-0.058	-0.157
-405.282	800.000	0.031	-0.100
-404.267	376.059	-0.203	-0.414
-403.252	-20.498	0.054	-0.033
-402.238	-200.000	-0.043	0.229
-401.223	-40.059	0.287	-0.149
-400.209	182.029	0.141	-0.206
-399.194	-82.220	-0.456	-0.148
-398.179	-169.797	-0.222	0.008
-397.165	-68.105	-0.182	0.070
-396.150	800.000	0.005	-0.013
-395.136	129.412	-0.162	0.206
-394.121	230.290	0.079	0.129
-393.106	96.839	0.370	0.422
-392.092	52.952	-0.069	0.066
-391.077	674.624	0.152	0.392
-390.063	224.993	0.051	-0.082
-389.048	-200.000	-0.003	-0.045
-388.033	-50.142	0.141	-0.066
-387.019	-35.132	-0.160	-0.087
-386.004	-200.000	0.007	-0.034
-384.990	-13.486	-0.310	-0.200
-383.975	18.982	-0.062	0.049
-382.960	-64.388	-0.152	-0.062
-381.946	800.000	-0.034	0.121
-380.931	-75.944	0.306	0.108
-379.917	-19.884	0.211	-0.130
-378.902	-200.000	0.013	-0.238
-377.888	6.497	0.180	-0.133
-376.873	332.895	-0.244	0.469
-375.858	-10.709	0.092	-0.061
-374.844	380.061	-0.041	-0.084
-373.829	639.847	-0.015	-0.038
-372.815	-49.739	0.145	-0.069
-371.800	278.108	0.170	-0.301
-370.785	-101.490	0.189	0.046
-369.771	145.787	-0.196	-0.261
-368.756	-200.000	0.033	-0.214
-367.742	-200.000	0.025	-0.164
-366.727	44.072	0.179	0.163
-365.712	-131.344	-0.266	0.035
-364.698	-200.000	0.016	-0.111
-363.683	89.896	0.066	-0.074
-362.669	-65.029	0.289	0.116
-361.654	398.505	0.139	-0.289
-360.639	519.903	0.091	-0.212
-359.625	40.340	0.167	0.149
-358.610	7.236	-0.167	0.124
-357.596	45.267	-0.138	0.127
-356.581	70.372	-0.097	-0.100
-355.566	-94.192	-0.461	-0.126
-354.552	557.106	-0.139	0.333
-353.537	260.632	-0.116	0.200
-352.523	-200.000	-0.012	-0.067
-351.508	-17.861	0.528	-0.330
-350.493	-68.771	-0.313	-0.120
-349.479	228.689	-0.156	0.254
-348.464	-200.000	0.014	-0.125
-347.450	22.774	0.337	-0.275
-346.435	23.336	0.409	0.334
-345.420	749.720	-0.079	-0.212
-344.406	-98.197	0.191	0.049
-343.391	800.000	0.080	0.233
-342.377	596.084	0.115	-0.284
-341.362	149.259	-0.197	-0.265
-340.348	-185.688	0.126	-0.002
-339.333	510.866	-0.090	-0.207
-338.318	198.030	-0.230	0.350
-337.304	-200.000	0.016	0.217
-336.289	443.927	-0.183	0.399
-335.275	655.312	0.029	0.073
-334.260	46.707	-0.219	-0.202
-333.245	-30.842	-0.190	0.107
-332.231	800.000	-0.019	-0.059
-331.216	-155.731	0.178	-0.011
-330.202	82.461	0.076	0.082
-329.187	586.123	0.010	0.025
-328.172	207.213	0.057	-0.088
-327.158	-162.502	-0.333	-0.016
-326.143	800.000	0.091	0.279
-325.129	92.368	-0.131	0.147
-324.114	163.528	-0.237	-0.331
-323.099	-39.028	-0.162	0.085
-322.085	69.498	-0.116	0.119
-321.070	-6.458	-0.253	0.171
-320.056	-102.452	-0.227	-0.054
-319.041	110.777	-0.016	0.019
-318.026	237.436	0.203	0.335
-317.012	800.000	0.041	0.163
-315.997	32.345	-0.388	-0.333
-314.983	-141.857	0.262	0.026
-313.968	-123.010	-0.425	0.068
-312.953	-78.380	0.309	-0.105
-311.939	-200.000	0.008	-0.109
-310.924	-174.350	-0.012	-0.000
-309.910	115.556	0.202	-0.245
-308.895	800.000	-0.120	0.350
-307.880	-94.008	0.247	-0.067
-306.866	-200.000	-0.002	-0.146
-305.851	-5.219	-0.162	0.110
-304.837	-156.016	0.036	-0.002
-303.822	-21.315	-0.004	-0.003
-302.807	-30.458	-0.288	-0.162
-301.793	-200.000	0.027	0.169
-300.778	147.389	0.022	0.029
-299.764	-200.000	0.095	0.455
-298.749	-51.584	0.187	-0.087
-297.735	-68.242	-0.379	-0.146
-296.720	96.721	-0.143	-0.162
-295.705	-161.107	0.394	-0.020
-294.691	-22.899	-0.112	0.067
-293.676	308.654	0.099	-0.183
-292.662	192.481	0.067	-0.101
-291.647	-107.906	-0.295	-0.064
-290.632	798.449	0.041	0.112
-289.618	484.112	0.123	0.279
-288.603	-83.128	0.059	-0.019
-287.589	113.429	0.126	0.152
-286.574	-133.071	-0.168	-0.021
-285.559	-107.424	0.229	0.050
-284.545	196.753	-0.183	-0.277
-283.530	410.008	-0.130	0.274
-282.516	686.895	0.019	0.051
-281.501	507.279	0.084	-0.194
-280.486	626.482	-0.116	0.292
-279.472	-92.910	0.319	-0.088
-278.457	725.830	0.042	-0.112
-277.443	-137.692	0.362	0.040
-276.428	-145.314	-0.106	0.009
-275.413	-146.967	0.257	0.022
-274.399	-121.480	0.068	0.011
-273.384	-200.000	-0.055	-0.401
-272.370	54.587	0.044	-0.042
-271.355	91.417	-0.186	0.208
-270.340	-187.287	-0.317	0.004
-269.326	-200.000	0.011	0.104
-268.311	-56.205	0.151	-0.067
-267.297	21.781	-0.268	-0.216
-266.282	41.569	0.138	-0.124
-265.267	168.140	0.116	0.164
-264.253	-76.963	0.373	-0.129
-263.238	-200.000	-0.010	-0.246
-262.224	-200.000	0.028	0.180
-261.209	261.334	-0.089	-0.152
-260.195	417.928	-0.124	0.262
-259.180	4.953	0.013	0.009
-258.165	220.303	0.137	0.218
-257.151	771.103	0.056	0.151
-256.136	502.016	0.102	0.233
-255.122	-200.000	0.031	0.459
-254.107	119.593	0.082	-0.101
-253.092	-200.000	-0.014	-0.211
-252.078	800.000	-0.063	-0.261
-251.063	-200.000	0.010	-0.130
-250.049	-100.451	-0.226	-0.056
-249.034	800.000	0.126	0.392
-248.019	-61.715	0.116	0.048
-247.005	-17.966	-0.004	0.002
-245.990	-200.000	0.009	0.235
-244.976	500.843	-0.156	0.358
-243.961	17.416	0.172	0.136
-242.946	-192.690	-0.526	0.005
-241.932	129.272	0.160	-0.202
-240.917	-60.958	-0.242	-0.101
-239.903	8.636	-0.086	0.064
-238.888	-200.000	0.021	0.232
-237.873	-121.939	-0.196	0.032
-236.859	-200.000	-0.049	0.253
-235.844	-200.000	0.022	-0.288
-234.830	-98.154	0.130	-0.033
-233.815	161.886	-0.193	0.268
-232.800	756.218	-0.062	-0.167
-231.786	-21.704	-0.264	-0.159
-230.771	-200.000	-0.053	-0.343
-229.757	-200.000	-0.042	0.187
-228.742	76.020	0.253	0.265
-227.727	74.054	0.104	0.108
-226.713	-28.506	-0.322	0.184
-225.698	115.561	0.131	0.158
-224.684	-200.000	-0.016	0.176
-223.669	-200.000	-0.027	-0.244
-222.655	-200.000	0.030	-0.134
-221.640	-200.000	0.046	0.373
-220.625	-36.451	0.137	0.073
-219.611	315.107	-0.164	0.307
-218.596	-114.853	0.106	0.020
-217.582	-200.000	0.006	-0.120
-216.567	-13.335	-0.159	-0.102
-215.552	-200.000	-0.007	0.042
-214.538	25.765	-0.261	0.216
-213.523	-200.000	0.024	-0.298
-212.509	-200.000	-0.005	0.143
-211.494	201.624	-0.095	0.144
-210.479	49.801	-0.112	0.104
-209.465	66.173	-0.202	-0.203
-208.450	-98.896	-0.105	-0.027
-207.436	290.793	0.158	-0.284
-206.421	-40.988	-0.227	0.116
-205.406	336.969	0.038	0.073
-204.392	317.456	-0.105	0.197
-203.377	-138.398	0.322	0.035
-202.363	72.950	0.195	0.202
-201.348	800.000	-0.025	0.099
-200.333	-7.889	0.249	0.166
-199.319	-147.283	-0.025	-0.002
-198.304	567.030	0.086	-0.207
-197.290	54.775	-0.276	0.264
-196.275	-200.000	-0.010	0.394
-195.260	-111.167	0.236	0.048
-194.246	-200.000	0.012	-0.060
-193.231	800.000	0.034	-0.100
-192.217	-32.964	-0.137	-0.075
-191.202	378.197	-0.154	0.311
-190.187	-102.825	0.219	-0.052
-189.173	216.375	-0.165	0.259
-188.158	-103.693	0.315	-0.073
-187.144	36.986	0.190	0.166
-186.129	10.707	0.255	0.192
-185.114	800.000	-0.061	0.178
-184.100	171.007	0.093	-0.131
-183.085	51.913	0.177	0.167
-182.071	-51.021	0.099	0.046
-181.056	184.211	-0.112	0.165
-180.042	-177.572	0.353	0.008
-179.027	-71.003	-0.068	0.025
-178.012	-57.846	-0.177	-0.077
-176.998	-149.188	-0.273	-0.022
-175.983	158.918	-0.089	0.122
-174.969	298.538	-0.057	0.104
-173.954	-200.000	-0.002	-0.089
-172.939	253.619	-0.040	0.067
-171.925	19.781	-0.236	0.187
-170.910	-200.000	-0.007	-0.276
-169.896	-143.273	-0.199	0.019
-168.881	-200.000	-0.055	0.248
-167.866	2.549	0.118	-0.085
-166.852	168.024	0.105	-0.148
-165.837	-63.313	-0.355	0.144
-164.823	-54.472	-0.127	0.057
-163.808	38.591	-0.172	-0.152
-162.793	-34.677	0.443	0.239
-161.779	528.635	0.079	0.184
-160.764	-6.798	0.275	0.184
-159.750	-200.000	-0.043	-0.400
-158.735	800.000	0.034	-0.098
-157.720	213.710	0.096	-0.150
-156.706	-22.329	-0.071	-0.042
-155.691	32.684	0.087	0.074
-154.677	200.413	-0.061	-0.093
-153.662	277.761	-0.165	-0.289
-152.647	-62.086	0.234	0.097
-151.633	100.869	-0.116	0.133
-150.618	-98.155	0.449	0.114
-149.604	217.013	0.055	-0.087
-148.589	236.329	-0.082	0.134
-147.574	-142.003	-0.300	-0.029
-146.560	-200.000	0.003	-0.078
-145.545	-200.000	0.004	-0.171
-144.531	800.000	0.060	-0.187
-143.516	482.513	0.078	-0.175
-142.502	-200.000	-0.005	0.038
-141.487	-195.456	0.361	-0.003
-140.472	174.597	0.106	-0.151
-139.458	60.618	-0.187	-0.182
-138.443	341.904	-0.154	-0.297
-137.429	-200.000	0.035	0.196
-136.414	800.000	-0.079	0.252
-135.399	-84.375	-0.091	0.028
-134.385	-72.579	-0.081	-0.029
-133.370	-82.154	0.242	-0.078
-132.356	441.757	0.153	-0.330
-131.341	11.365	0.249	0.188
-130.326	273.323	0.031	-0.054
-129.312	746.873	0.067	-0.178
-128.297	409.021	0.199	-0.415
-127.283	800.000	-0.087	-0.275
-126.268	88.743	0.188	0.206
-125.253	184.957	-0.044	-0.064
-124.239	-14.714	0.267	-0.169
-123.224	-103.700	0.103	0.024
-122.210	-145.786	-0.212	0.019
