DTS Sentinel unit serial number:	SN413079Multiplexer serial number:	ORYXHardware model number:	OX4-SRSoftware version number:	ORYX F/W v4.00 Oryx Data Collector v3.7.2.0data status	okinstallation	princeton_trtdifferential loss correction	single-endedforward channel	channel 3reverse channel	N/Adate	2019/09/10time	19:46:10forward acquisition time	60.00reverse acquisition time	0.00gamma	496.2192k internal	0.2321k external	0.2321temperature offset calibration	0.9919default loss term (dB/km)	0.3790temperature slope calibration	1.0000multiplexer offset coefficient	1.0000multiplexer slope coefficient	1.0000fibre end	0.00T internal ref (°C)	33.02T ext. ref 1 (°C)	-0.32T ext. ref 2 (°C)	25.75length (m)	temperature (°C)	Stokes	anti-Stokes-747.200	-119.504	0.420	-0.074
-746.185	800.000	-0.049	0.143
-745.171	-200.000	-0.001	0.183
-744.156	-103.744	0.171	-0.040
-743.142	-41.004	-0.070	-0.036
-742.127	800.000	-0.050	0.139
-741.112	-38.343	0.189	-0.101
-740.098	-200.000	-0.066	0.367
-739.083	-114.610	0.342	-0.066
-738.069	23.244	0.125	0.104
-737.054	-16.518	-0.181	-0.116
-736.039	-1.476	-0.159	0.113
-735.025	-61.003	0.468	-0.200
-734.010	-81.922	-0.021	0.007
-732.996	382.594	-0.085	0.176
-731.981	65.676	0.180	0.184
-730.966	-200.000	-0.010	-0.154
-729.952	110.926	-0.054	-0.066
-728.937	-2.031	-0.244	-0.173
-727.923	1.901	-0.074	-0.054
-726.908	-151.619	-0.187	0.014
-725.894	190.942	-0.224	0.340
-724.879	243.192	0.213	-0.360
-723.864	728.528	-0.149	-0.402
-722.850	-101.502	-0.106	-0.026
-721.835	119.440	-0.136	0.170
-720.821	438.445	0.031	-0.068
-719.806	-200.000	-0.013	-0.206
-718.791	-119.475	-0.161	-0.028
-717.777	-161.478	0.156	0.008
-716.762	800.000	0.058	0.183
-715.748	-98.890	-0.077	0.020
-714.733	-200.000	0.030	-0.198
-713.718	146.093	-0.210	-0.284
-712.704	126.773	0.144	-0.184
-711.689	800.000	0.040	-0.172
-710.675	-123.722	-0.124	-0.020
-709.660	-54.272	0.115	0.053
-708.645	800.000	0.050	0.180
-707.631	800.000	0.086	-0.298
-706.616	-142.898	-0.454	-0.044
-705.602	9.707	0.112	0.085
-704.587	-200.000	-0.037	-0.238
-703.572	-200.000	0.036	-0.349
-702.558	-195.115	0.307	-0.002
-701.543	418.980	-0.107	0.230
-700.529	-24.923	0.124	0.074
-699.514	-74.180	-0.224	0.082
-698.499	78.566	-0.264	-0.284
-697.485	401.671	-0.021	0.045
-696.470	-57.962	0.190	-0.084
-695.456	36.897	-0.172	-0.153
-694.441	145.352	0.220	0.297
-693.426	-200.000	-0.032	0.279
-692.412	-200.000	-0.016	0.079
-691.397	128.241	0.256	0.329
-690.383	-83.406	-0.040	0.013
-689.368	252.387	0.114	-0.196
-688.354	-140.367	-0.096	0.010
-687.339	-19.753	-0.279	-0.174
-686.324	-39.990	-0.220	-0.116
-685.310	-10.525	0.345	-0.230
-684.295	181.243	0.039	-0.057
-683.281	590.038	-0.019	-0.047
-682.266	-112.343	-0.378	-0.076
-681.251	800.000	-0.073	-0.225
-680.237	-18.305	0.235	0.148
-679.222	72.721	-0.069	0.073
-678.208	-105.503	0.086	-0.020
-677.193	800.000	-0.015	0.054
-676.178	96.788	0.159	-0.183
-675.164	-118.657	-0.102	-0.018
-674.149	800.000	-0.038	0.116
-673.135	407.831	-0.097	-0.206
-672.120	800.000	-0.050	0.201
-671.105	28.623	0.264	0.225
-670.091	268.266	0.147	-0.260
-669.076	31.377	0.288	-0.249
-668.062	-171.070	0.187	0.006
-667.047	-126.433	-0.358	-0.054
-666.032	-76.769	-0.111	0.039
-665.018	-95.827	0.093	-0.025
-664.003	416.007	0.104	0.224
-662.989	-76.918	-0.197	0.070
-661.974	79.755	-0.226	0.244
-660.959	232.901	-0.106	0.175
-659.945	-0.611	-0.131	0.094
-658.930	59.091	-0.128	0.127
-657.916	-77.339	0.319	-0.112
-656.901	-200.000	-0.015	0.321
-655.886	-127.360	-0.219	-0.032
-654.872	-161.476	-0.290	-0.015
-653.857	78.278	0.191	0.206
-652.843	800.000	0.080	0.261
-651.828	61.023	-0.223	-0.223
-650.814	165.011	-0.113	-0.161
-649.799	17.736	0.190	0.152
-648.784	604.132	0.098	0.244
-647.770	-38.032	0.228	-0.122
-646.755	800.000	-0.068	0.209
-645.741	148.893	-0.177	0.241
-644.726	186.439	0.187	-0.280
-643.711	80.919	0.137	-0.149
-642.697	-147.795	0.244	0.021
-641.682	50.757	0.377	0.359
-640.668	80.221	0.039	-0.042
-639.653	112.093	0.083	-0.101
-638.638	46.387	0.178	-0.166
-637.624	76.865	-0.122	-0.130
-636.609	-133.635	0.197	-0.025
-635.595	-3.576	-0.338	0.237
-634.580	43.966	-0.175	-0.162
-633.565	-200.000	0.003	-0.196
-632.551	199.500	0.032	0.050
-631.536	206.577	-0.239	-0.374
-630.522	123.980	0.221	-0.279
-629.507	-200.000	-0.071	0.370
-628.492	159.945	0.165	-0.231
-627.478	-200.000	-0.011	-0.053
-626.463	-79.410	0.243	-0.083
-625.449	120.194	0.090	-0.112
-624.434	466.510	-0.047	0.107
-623.419	-110.805	0.095	0.020
-622.405	148.777	0.103	-0.140
-621.390	-68.176	0.142	0.056
-620.376	-200.000	0.026	-0.207
-619.361	-200.000	-0.042	-0.238
-618.346	-126.811	0.177	-0.026
-617.332	66.315	0.082	0.084
-616.317	174.777	-0.221	0.322
-615.303	-200.000	-0.023	-0.105
-614.288	-61.441	0.188	-0.080
-613.273	800.000	-0.040	0.173
-612.259	-85.938	0.055	-0.017
-611.244	800.000	-0.072	0.288
-610.230	-47.596	-0.148	-0.072
-609.215	-12.044	-0.133	-0.087
-608.201	45.763	0.198	-0.184
-607.186	50.229	-0.243	-0.231
-606.171	-26.264	-0.102	-0.060
-605.157	-35.489	0.148	-0.081
-604.142	-93.386	0.275	-0.077
-603.128	779.123	-0.044	-0.122
-602.113	-200.000	0.070	-0.516
-601.098	-200.000	0.005	-0.141
-600.084	-95.073	0.127	-0.035
-599.069	5.826	0.071	-0.053
-598.055	118.036	-0.073	-0.090
-597.040	56.654	0.090	-0.088
-596.025	-120.562	-0.055	-0.009
-595.011	-120.860	-0.287	-0.049
-593.996	-200.000	0.020	0.111
-592.982	-31.990	0.036	-0.020
-591.967	-3.194	0.108	-0.076
-590.952	-113.864	-0.062	0.012
-589.938	359.724	-0.054	-0.109
-588.923	84.831	0.202	-0.222
-587.909	800.000	0.082	0.250
-586.894	99.644	-0.228	-0.265
-585.879	-200.000	0.032	-0.458
-584.865	-200.000	0.052	-0.359
-583.850	727.114	0.056	0.151
-582.836	232.657	0.052	0.086
-581.821	-25.629	-0.111	0.066
-580.806	-165.157	-0.361	0.016
-579.792	474.163	-0.250	0.567
-578.777	47.627	-0.166	-0.155
-577.763	-200.000	-0.019	-0.210
-576.748	2.644	-0.043	-0.031
-575.733	-199.800	0.242	-0.001
-574.719	-80.361	-0.413	0.139
-573.704	-29.014	0.166	-0.096
-572.690	-72.250	0.159	-0.059
-571.675	297.235	0.064	-0.118
-570.661	-92.011	-0.312	0.089
-569.646	35.321	-0.237	-0.208
-568.631	-22.188	0.118	-0.072
-567.617	209.743	-0.098	0.154
-566.602	-154.605	0.283	-0.019
-565.588	81.694	-0.219	-0.237
-564.573	-26.432	-0.228	0.134
-563.558	40.023	-0.128	0.115
-562.544	275.465	-0.174	0.310
-561.529	-135.596	0.292	0.035
-560.515	-200.000	-0.039	-0.312
-559.500	24.422	0.074	-0.062
-558.485	-120.373	0.143	0.024
-557.471	-200.000	-0.027	-0.182
-556.456	54.184	-0.156	0.151
-555.442	-100.271	-0.193	0.048
-554.427	-129.501	-0.261	0.036
-553.412	221.610	0.186	-0.299
-552.398	-27.635	-0.110	0.064
-551.383	441.639	-0.071	0.155
-550.369	-200.000	0.018	0.095
-549.354	16.364	0.117	-0.093
-548.339	-200.000	-0.019	-0.237
-547.325	50.983	-0.184	-0.174
-546.310	-200.000	0.049	0.234
-545.296	-14.568	0.065	0.042
-544.281	-200.000	-0.028	0.206
-543.266	185.356	-0.115	-0.171
-542.252	-47.207	0.175	0.086
-541.237	-158.194	0.141	0.008
-540.223	-1.419	-0.177	-0.125
-539.208	-25.554	0.186	0.110
-538.193	-200.000	0.019	-0.110
-537.179	800.000	0.012	-0.050
-536.164	-124.114	-0.136	0.021
-535.150	130.372	-0.267	0.343
-534.135	202.329	0.122	-0.189
-533.121	-6.668	0.091	-0.062
-532.106	-200.000	0.033	-0.219
-531.091	122.496	0.209	0.262
-530.077	271.636	0.164	0.289
-529.062	-200.000	-0.032	-0.165
-528.048	477.544	0.098	0.222
-527.033	-83.923	-0.153	-0.049
-526.018	-200.000	-0.009	-0.105
-525.004	89.035	-0.219	-0.245
-523.989	-200.000	0.010	-0.055
-522.975	-200.000	0.031	-0.279
-521.960	800.000	-0.028	-0.109
-520.945	671.993	-0.084	0.218
-519.931	329.712	0.050	0.096
-518.916	-44.092	0.099	-0.050
-517.902	131.513	-0.064	0.083
-516.887	-38.825	-0.103	0.055
-515.872	58.115	-0.189	-0.185
-514.858	-103.331	-0.055	0.013
-513.843	114.290	-0.088	-0.107
-512.829	113.826	-0.169	0.205
-511.814	16.677	-0.044	0.035
-510.799	-152.796	-0.093	0.007
-509.785	-17.579	0.153	-0.096
-508.770	52.222	-0.181	-0.172
-507.756	4.820	-0.317	0.233
-506.741	32.715	0.147	0.127
-505.726	42.578	0.092	0.084
-504.712	-182.775	-0.387	-0.007
-503.697	800.000	0.076	0.261
-502.683	-8.412	0.123	0.083
-501.668	-21.657	0.106	0.065
-500.653	800.000	-0.131	0.381
-499.639	-200.000	-0.007	0.295
-498.624	-200.000	-0.058	0.393
-497.610	-200.000	0.003	0.197
-496.595	-200.000	0.009	-0.095
-495.581	-200.000	0.003	0.071
-494.566	-120.073	-0.378	-0.065
-493.551	-200.000	0.024	0.235
-492.537	612.053	-0.180	-0.450
-491.522	78.918	0.156	-0.167
-490.508	114.469	-0.134	-0.163
-489.493	-107.014	-0.031	-0.007
-488.478	-200.000	0.024	-0.265
-487.464	194.650	-0.065	-0.099
-486.449	-99.536	-0.037	0.009
-485.435	89.326	0.100	0.112
-484.420	-69.275	0.110	-0.042
-483.405	-97.855	-0.108	-0.028
-482.391	134.021	-0.065	0.084
-481.376	67.044	-0.063	-0.064
-480.362	-82.116	-0.124	-0.040
-479.347	-90.241	0.383	0.111
-478.332	-200.000	0.006	0.195
-477.318	800.000	-0.032	0.130
-476.303	198.607	0.135	0.207
-475.289	493.698	-0.079	0.180
-474.274	97.381	0.129	0.148
-473.259	647.766	0.151	-0.385
-472.245	-200.000	-0.001	-0.169
-471.230	781.668	0.112	0.307
-470.216	56.028	0.114	0.110
-469.201	-8.785	0.182	-0.122
-468.186	18.899	0.196	0.157
-467.172	-99.053	-0.477	-0.121
-466.157	-98.773	0.170	-0.043
-465.143	0.538	-0.053	0.038
-464.128	800.000	0.030	-0.089
-463.113	290.761	-0.122	0.222
-462.099	-88.894	-0.271	-0.080
-461.084	108.691	-0.139	-0.166
-460.070	285.511	0.022	-0.040
-459.055	227.952	-0.049	-0.080
-458.040	-67.897	0.262	-0.102
-457.026	-65.941	-0.147	0.059
-456.011	-154.254	0.298	-0.020
-454.997	-11.221	0.169	0.111
-453.982	-46.664	-0.225	-0.110
-452.968	-20.324	-0.318	-0.196
-451.953	252.096	0.094	0.160
-450.938	20.164	-0.350	-0.282
-449.924	-112.655	-0.244	0.049
-448.909	-200.000	-0.001	0.281
-447.895	-117.263	0.147	0.027
-446.880	-164.595	0.127	-0.006
-445.865	132.515	0.122	0.157
-444.851	-200.000	0.009	-0.313
-443.836	-200.000	0.039	-0.207
-442.822	-200.000	-0.022	0.221
-441.807	-82.594	0.230	-0.074
-440.792	-143.018	-0.100	0.010
-439.778	-30.164	-0.067	-0.038
-438.763	456.642	0.023	-0.050
-437.749	787.242	-0.051	0.140
-436.734	-145.345	-0.146	-0.013
-435.719	39.685	-0.176	-0.158
-434.705	800.000	0.063	-0.217
-433.690	-11.924	-0.150	0.098
-432.676	52.975	-0.072	-0.069
-431.661	-13.835	-0.043	0.028
-430.646	800.000	0.075	-0.279
-429.632	94.272	0.120	0.136
-428.617	800.000	-0.034	-0.114
-427.603	75.662	0.212	-0.223
-426.588	800.000	0.056	0.227
-425.573	237.215	-0.169	-0.279
-424.559	-122.129	-0.263	0.043
-423.544	260.111	0.042	0.073
-422.530	-200.000	-0.002	-0.177
-421.515	-33.877	-0.135	-0.074
-420.500	-200.000	-0.022	-0.121
-419.486	640.373	0.057	0.145
-418.471	-200.000	0.010	-0.207
-417.457	199.009	0.047	-0.071
-416.442	83.139	-0.145	-0.158
-415.428	800.000	0.027	-0.076
-414.413	-174.474	0.041	-0.001
-413.398	-200.000	-0.018	-0.218
-412.384	-97.708	-0.247	-0.064
-411.369	238.332	-0.163	-0.270
-410.355	-40.003	0.370	0.193
-409.340	-176.401	-0.191	-0.005
-408.325	58.506	0.165	-0.161
-407.311	-183.734	-0.090	-0.002
-406.296	211.187	-0.045	-0.070
-405.282	-200.000	-0.006	-0.028
-404.267	800.000	0.052	-0.151
-403.252	-200.000	0.021	-0.163
-402.238	-140.184	-0.061	0.006
-401.223	20.719	-0.174	0.141
-400.209	260.151	0.079	-0.136
-399.194	800.000	0.068	0.245
-398.179	-200.000	0.050	0.309
-397.165	-200.000	0.052	0.247
-396.150	-101.021	0.310	-0.076
-395.136	293.647	-0.113	0.205
-394.121	800.000	0.023	0.078
-393.106	167.656	-0.104	-0.148
-392.092	-200.000	0.017	0.257
-391.077	-104.873	-0.201	0.046
-390.063	-200.000	-0.033	0.149
-389.048	-200.000	0.033	-0.164
-388.033	-58.531	0.144	-0.062
-387.019	352.283	0.050	0.099
-386.004	-67.937	-0.330	-0.128
-384.990	-81.599	0.172	-0.056
-383.975	-73.514	0.255	0.093
-382.960	217.855	-0.119	0.189
-381.946	59.282	-0.281	0.276
-380.931	497.079	-0.037	-0.085
-379.917	-200.000	0.021	-0.115
-378.902	-42.718	0.076	0.038
-377.888	555.361	-0.055	0.133
-376.873	-35.675	-0.268	0.145
-375.858	-135.504	-0.263	-0.031
-374.844	800.000	0.063	-0.175
-373.829	800.000	0.059	-0.191
-372.815	62.347	0.219	-0.218
-371.800	73.978	0.296	-0.309
-370.785	-200.000	0.064	-0.380
-369.771	-68.756	0.280	0.108
-368.756	800.000	0.039	-0.121
-367.742	-57.855	0.267	0.116
-366.727	115.598	-0.133	0.162
-365.712	19.480	0.196	-0.157
-364.698	249.709	0.047	0.080
-363.683	-58.335	-0.328	0.142
-362.669	-163.609	0.250	-0.012
-361.654	-102.355	0.227	-0.054
-360.639	-1.418	-0.175	-0.123
-359.625	-39.917	-0.162	-0.084
-358.610	103.103	-0.040	-0.047
-357.596	131.417	0.047	0.060
-356.581	-14.789	-0.309	-0.197
-355.566	76.911	-0.215	-0.227
-354.552	322.095	0.146	-0.277
-353.537	-200.000	0.041	0.466
-352.523	30.514	0.235	0.200
-351.508	3.697	-0.198	-0.144
-350.493	100.170	-0.229	0.265
-349.479	-77.192	-0.273	-0.094
-348.464	-98.187	0.359	0.092
-347.450	-110.291	0.107	0.022
-346.435	86.680	0.179	0.197
-345.420	800.000	0.031	-0.105
-344.406	254.695	-0.084	0.143
-343.391	69.378	0.215	-0.220
-342.377	74.778	0.172	-0.180
-341.362	-3.466	0.160	-0.111
-340.348	42.889	0.166	-0.150
-339.333	76.253	0.103	0.108
-338.318	800.000	-0.062	0.256
-337.304	196.657	0.126	0.191
-336.289	-0.601	0.154	0.108
-335.275	-200.000	-0.045	-0.209
-334.260	-95.606	-0.287	0.076
-333.245	-31.264	-0.328	-0.184
-332.231	-200.000	0.030	-0.211
-331.216	137.707	-0.205	0.267
-330.202	-91.235	0.235	-0.067
-329.187	-82.463	-0.293	0.095
-328.172	177.771	-0.135	0.195
-327.158	-19.040	-0.198	0.123
-326.143	228.014	0.103	-0.166
-325.129	46.863	0.104	-0.096
-324.114	52.323	0.037	0.035
-323.099	-98.635	0.271	0.069
-322.085	-200.000	-0.003	0.203
-321.070	-89.937	0.305	-0.089
-320.056	0.831	0.070	0.050
-319.041	-142.026	-0.150	-0.015
-318.026	-45.216	0.309	0.153
-317.012	-200.000	0.047	0.244
-315.997	-12.297	-0.239	0.155
-314.983	-24.930	-0.055	-0.033
-313.968	-45.425	0.284	0.140
-312.953	233.852	-0.036	-0.058
-311.939	184.225	-0.017	-0.025
-310.924	-143.402	0.326	-0.031
-309.910	800.000	-0.066	-0.230
-308.895	233.352	-0.115	-0.187
-307.880	-102.004	-0.217	0.052
-306.866	-200.000	-0.034	0.179
-305.851	101.817	-0.149	-0.173
-304.837	255.381	-0.110	0.187
-303.822	-200.000	-0.005	0.073
-302.807	-200.000	0.043	0.323
-301.793	-94.094	0.240	-0.065
-300.778	800.000	0.033	-0.119
-299.764	-59.636	-0.464	0.198
-298.749	-126.049	0.126	-0.019
-297.735	-87.122	0.180	0.054
-296.720	287.150	0.060	0.107
-295.705	133.923	-0.035	-0.045
-294.691	-124.410	0.219	0.034
-293.676	-141.824	-0.388	-0.039
-292.662	-52.604	-0.345	-0.158
-291.647	535.410	-0.126	-0.296
-290.632	800.000	-0.052	0.145
-289.618	-75.083	0.074	0.026
-288.603	-68.977	0.132	0.051
-287.589	-200.000	-0.024	0.196
-286.574	-200.000	-0.008	0.088
-285.559	32.177	-0.079	0.068
-284.545	3.464	-0.117	0.085
-283.530	571.265	0.111	-0.269
-282.516	34.528	0.028	-0.025
-281.501	547.624	0.121	-0.288
-280.486	-100.687	-0.350	-0.086
-279.472	-48.430	0.077	0.037
-278.457	170.836	-0.061	0.086
-277.443	484.496	-0.044	0.100
-276.428	-111.099	0.161	0.033
-275.413	-99.962	-0.181	-0.045
-274.399	79.902	0.270	-0.288
-273.384	101.523	0.190	0.220
-272.370	-200.000	0.054	0.311
-271.355	-18.732	-0.188	0.116
-270.340	800.000	0.046	-0.164
-269.326	148.676	-0.247	0.331
-268.311	-200.000	0.017	0.077
-267.297	276.117	-0.109	-0.192
-266.282	-102.553	0.103	-0.024
-265.267	-9.965	-0.094	0.062
-264.253	-200.000	-0.078	0.368
-263.238	-200.000	-0.019	0.203
-262.224	-200.000	-0.024	0.175
-261.209	-125.840	0.170	0.025
-260.195	29.818	-0.202	-0.171
-259.180	-80.460	-0.128	-0.042
-258.165	-82.896	0.360	-0.115
-257.151	-200.000	-0.023	0.154
-256.136	-60.131	0.148	0.063
-255.122	160.807	0.084	-0.116
-254.107	68.668	-0.182	-0.185
-253.092	-46.292	-0.141	-0.069
-252.078	51.865	0.088	-0.083
-251.063	249.982	0.025	-0.042
-250.049	-73.245	0.236	-0.086
-249.034	91.691	-0.154	0.172
-248.019	98.104	0.099	-0.113
-247.005	103.211	0.079	-0.092
-245.990	28.993	0.202	0.170
-244.976	-48.702	0.105	0.050
-243.961	-200.000	0.046	-0.259
-242.946	-200.000	-0.008	0.176
-241.932	78.272	-0.060	0.064
-240.917	158.514	-0.034	-0.047
-239.903	-200.000	0.025	0.363
-238.888	-186.816	-0.158	0.002
-237.873	449.037	0.128	0.280
-236.859	102.282	0.084	0.097
-235.844	-200.000	-0.036	-0.320
-234.830	-15.125	-0.188	0.119
-233.815	-79.801	0.258	0.086
-232.800	-200.000	0.024	-0.174
-231.786	78.727	-0.258	0.274
-230.771	174.808	-0.095	0.136
-229.757	-200.000	-0.025	-0.226
-228.742	-200.000	-0.003	0.150
-227.727	-77.271	0.239	0.082
-226.713	-172.692	0.080	0.002
-225.698	773.245	0.037	-0.099
-224.684	-111.992	0.307	-0.061
-223.669	-62.182	-0.222	-0.092
-222.655	-30.452	-0.059	0.033
-221.640	-92.611	-0.193	-0.054
-220.625	-53.098	0.199	0.091
-219.611	-4.759	-0.119	-0.081
-218.596	-112.121	-0.127	-0.025
-217.582	-68.797	0.346	-0.132
-216.567	277.807	0.066	-0.116
-215.552	448.767	0.139	-0.304
-214.538	36.840	-0.103	0.090
-213.523	-200.000	-0.005	0.055
-212.509	-42.423	0.275	0.139
-211.494	-17.510	-0.037	-0.023
-210.479	-200.000	0.011	0.202
-209.465	-200.000	0.139	0.000
-208.450	-108.800	0.151	-0.032
-207.436	-200.000	0.059	-0.262
-206.421	186.578	-0.038	0.056
-205.406	-122.858	-0.417	0.067
-204.392	57.463	0.130	-0.125
-203.377	434.324	0.243	0.523
-202.363	197.755	0.096	0.146
-201.348	773.198	-0.033	-0.089
-200.333	-133.969	-0.192	0.024
-199.319	-128.718	0.406	-0.057
-198.304	420.115	-0.127	0.270
-197.290	800.000	0.046	-0.148
-196.275	-35.118	-0.088	0.047
-195.260	339.610	0.063	0.121
-194.246	800.000	0.015	0.059
-193.231	-131.632	0.189	-0.025
-192.217	800.000	0.094	0.328
-191.202	-9.262	0.138	0.091
-190.187	-200.000	-0.034	0.430
-189.173	223.315	-0.213	0.340
-188.158	-48.318	0.217	0.103
-187.144	-95.753	-0.044	0.012
-186.129	-80.402	-0.126	0.042
-185.114	-200.000	0.015	0.123
-184.100	-80.842	0.185	0.061
-183.085	-185.928	0.221	-0.003
-182.071	23.375	0.151	-0.122
-181.056	41.536	-0.184	0.165
-180.042	-50.095	0.126	-0.059
-179.027	589.576	-0.100	0.243
-178.012	33.765	-0.044	0.038
-176.998	72.562	-0.164	-0.169
-175.983	506.525	-0.037	-0.084
-174.969	-17.835	-0.041	-0.026
-173.954	149.556	0.136	0.182
-172.939	70.944	0.091	-0.093
-171.925	-200.000	0.032	-0.240
-170.910	-126.818	0.129	0.019
-169.896	137.458	-0.082	-0.106
-168.881	-200.000	0.000	0.071
-167.866	56.803	0.121	0.117
-166.852	800.000	-0.122	-0.382
-165.837	-71.179	-0.340	0.126
-164.823	-7.451	-0.143	-0.096
-163.808	-31.267	0.068	-0.038
-162.793	-139.685	0.158	0.017
-161.779	-65.110	-0.319	0.127
-160.764	442.001	-0.072	-0.155
-159.750	207.570	-0.095	0.146
-158.735	232.236	0.109	-0.176
-157.720	37.197	0.068	0.060
-156.706	-200.000	0.039	0.284
-155.691	-16.377	-0.187	-0.117
-154.677	-30.234	0.221	0.124
-153.662	31.711	-0.196	-0.166
-152.647	417.213	0.065	0.137
-151.633	-200.000	0.002	-0.042
-150.618	800.000	0.038	0.111
-149.604	-30.732	-0.034	-0.019
-148.589	-200.000	-0.030	0.310
-147.574	-17.082	0.330	0.206
-146.560	68.054	0.310	-0.313
-145.545	-82.133	-0.037	-0.012
-144.531	-131.953	-0.158	-0.020
-143.516	-114.298	0.381	-0.073
-142.502	800.000	0.113	0.346
-141.487	-148.038	0.162	-0.013
-140.472	-200.000	-0.013	0.533
-139.458	-24.280	0.099	-0.058
-138.443	284.816	-0.196	-0.348
-137.429	-200.000	-0.016	0.174
-136.414	-150.461	-0.397	-0.030
-135.399	348.625	-0.057	-0.111
-134.385	-10.196	-0.213	-0.139
-133.370	-18.294	0.236	0.146
-132.356	-141.971	0.152	0.015
-131.341	-200.000	-0.049	0.419
-130.326	-200.000	-0.008	0.144
-129.312	-104.737	-0.095	0.021
-128.297	-28.719	-0.084	-0.048
-127.283	33.789	-0.147	0.126
-126.268	128.594	-0.267	0.336
-125.253	-200.000	0.008	-0.043
-124.239	-200.000	0.046	-0.359
-123.224	-27.462	0.102	0.058
-122.210	-200.000	-0.050	0.394
-121.195	-7.164	0.345	0.231
