DTS Sentinel unit serial number:	SN413079Multiplexer serial number:	ORYXHardware model number:	OX4-SRSoftware version number:	ORYX F/W v4.00 Oryx Data Collector v3.7.2.0data status	okinstallation	princeton_trtdifferential loss correction	single-endedforward channel	channel 3reverse channel	N/Adate	2019/09/10time	18:54:11forward acquisition time	60.00reverse acquisition time	0.00gamma	496.2192k internal	0.2312k external	0.2312temperature offset calibration	0.9914default loss term (dB/km)	0.3790temperature slope calibration	1.0000multiplexer offset coefficient	1.0000multiplexer slope coefficient	1.0000fibre end	0.00T internal ref (°C)	34.83T ext. ref 1 (°C)	-0.38T ext. ref 2 (°C)	27.02length (m)	temperature (°C)	Stokes	anti-Stokes-747.200	295.436	-0.082	0.152
-746.185	147.551	-0.212	0.291
-745.171	-39.418	-0.110	-0.058
-744.156	170.678	0.126	0.183
-743.142	-80.332	-0.154	-0.052
-742.127	103.747	0.091	-0.109
-741.112	36.221	-0.081	0.072
-740.098	-200.000	-0.024	0.659
-739.083	800.000	-0.029	-0.095
-738.069	43.189	-0.127	0.118
-737.054	-9.834	-0.125	0.085
-736.039	-91.018	-0.163	0.047
-735.025	-97.627	-0.112	-0.029
-734.010	-200.000	-0.019	0.236
-732.996	-174.597	-0.110	-0.003
-731.981	-139.799	0.336	0.036
-730.966	-2.682	0.148	0.105
-729.952	647.650	-0.020	0.051
-728.937	-86.873	0.120	-0.037
-727.923	-50.036	-0.383	-0.184
-726.908	374.988	-0.080	-0.164
-725.894	-90.015	0.039	0.012
-724.879	-94.002	0.233	0.065
-723.864	-80.160	-0.551	0.187
-722.850	28.735	-0.154	-0.132
-721.835	18.779	-0.387	-0.314
-720.821	19.653	-0.282	0.230
-719.806	-33.439	0.159	0.089
-718.791	-160.412	-0.075	-0.004
-717.777	-19.024	0.071	-0.045
-716.762	-1.469	0.165	-0.118
-715.748	-65.508	-0.163	0.066
-714.733	-198.760	-0.118	-0.001
-713.718	-71.841	0.211	0.080
-712.704	-200.000	-0.032	-0.202
-711.689	-25.122	-0.232	-0.139
-710.675	-44.480	0.182	-0.092
-709.660	-125.495	0.087	0.013
-708.645	-83.269	-0.206	0.067
-707.631	-138.988	0.254	-0.028
-706.616	257.056	-0.056	-0.098
-705.602	-77.363	-0.162	0.057
-704.587	110.935	-0.091	0.110
-703.572	-0.202	-0.233	0.168
-702.558	-78.055	0.158	-0.055
-701.543	-180.473	-0.324	0.007
-700.529	35.035	0.240	0.213
-699.514	-6.377	0.084	0.058
-698.499	800.000	0.092	-0.280
-697.485	221.346	0.112	-0.183
-696.470	-70.238	-0.279	-0.107
-695.456	170.364	0.064	0.093
-694.441	800.000	0.104	0.441
-693.426	-22.716	0.222	-0.136
-692.412	-13.307	0.205	0.135
-691.397	-93.095	-0.369	-0.104
-690.383	-200.000	0.006	0.028
-689.368	-157.835	0.361	-0.022
-688.354	171.690	-0.137	-0.199
-687.339	28.150	0.252	-0.215
-686.324	-157.986	0.322	-0.019
-685.310	112.407	-0.242	0.296
-684.295	-63.395	-0.395	-0.164
-683.281	-68.732	0.235	-0.092
-682.266	-113.420	-0.524	-0.104
-681.251	42.132	0.201	0.185
-680.237	616.722	-0.043	-0.109
-679.222	-172.828	0.137	-0.004
-678.208	-30.431	-0.207	-0.119
-677.193	-50.223	0.234	-0.112
-676.178	112.755	0.225	0.275
-675.164	-11.317	0.138	-0.092
-674.149	-200.000	0.029	-0.296
-673.135	93.564	-0.182	0.208
-672.120	-3.980	-0.232	0.163
-671.105	240.827	-0.098	0.166
-670.091	-42.034	0.216	-0.112
-669.076	88.527	0.171	-0.192
-668.062	800.000	-0.041	-0.144
-667.047	-151.428	0.515	-0.039
-666.032	800.000	-0.079	-0.302
-665.018	136.604	-0.160	-0.212
-664.003	166.104	0.171	-0.245
-662.989	278.097	-0.097	-0.175
-661.974	-200.000	-0.055	-0.286
-660.959	-111.571	0.091	-0.019
-659.945	-107.698	0.245	0.054
-658.930	-62.603	-0.073	0.031
-657.916	-200.000	0.002	-0.188
-656.901	385.808	0.108	-0.225
-655.886	62.347	-0.231	0.234
-654.872	800.000	0.051	0.148
-653.857	-177.152	0.203	0.005
-652.843	-200.000	-0.002	0.158
-651.828	-200.000	-0.012	-0.271
-650.814	2.516	0.352	0.258
-649.799	227.162	-0.106	0.174
-648.784	-200.000	-0.018	0.119
-647.770	-200.000	-0.009	0.074
-646.755	-94.469	-0.265	0.073
-645.741	-135.615	0.139	-0.017
-644.726	-151.965	-0.247	0.018
-643.711	-200.000	-0.020	-0.627
-642.697	800.000	-0.038	-0.112
-641.682	800.000	0.120	-0.399
-640.668	-72.718	-0.209	0.078
-639.653	59.602	-0.136	-0.136
-638.638	7.535	-0.359	0.272
-637.624	-166.826	-0.173	-0.007
-636.609	-31.916	0.094	-0.053
-635.595	-200.000	0.008	0.305
-634.580	-118.649	0.185	0.033
-633.565	-182.944	0.127	-0.002
-632.551	-144.653	0.209	-0.019
-631.536	45.577	0.267	-0.249
-630.522	-53.620	-0.122	-0.056
-629.507	-69.812	0.093	-0.036
-628.492	-9.021	-0.166	0.112
-627.478	9.354	0.261	-0.199
-626.463	-200.000	-0.045	-0.206
-625.449	-41.636	0.165	-0.086
-624.434	250.195	-0.134	-0.230
-623.419	800.000	-0.162	-0.488
-622.405	90.966	0.083	-0.094
-621.390	-36.628	-0.317	-0.172
-620.376	-18.817	-0.145	-0.091
-619.361	166.856	-0.031	0.044
-618.346	800.000	-0.032	-0.136
-617.332	95.007	-0.153	-0.176
-616.317	65.615	0.073	-0.075
-615.303	120.038	0.136	0.171
-614.288	252.588	0.102	-0.176
-613.273	-37.533	-0.176	-0.095
-612.259	-24.963	0.163	-0.098
-611.244	386.376	-0.078	-0.163
-610.230	-3.781	0.274	-0.192
-609.215	9.442	0.363	-0.277
-608.201	329.795	-0.196	0.380
-607.186	-200.000	-0.043	0.441
-606.171	-94.544	-0.249	-0.068
-605.157	259.486	0.133	0.232
-604.142	800.000	0.093	-0.348
-603.128	-51.706	-0.043	0.020
-602.113	-141.295	-0.425	-0.044
-601.098	800.000	-0.016	0.047
-600.084	800.000	-0.008	-0.036
-599.069	-200.000	-0.001	-0.254
-598.055	326.266	0.070	0.136
-597.040	26.035	-0.187	0.157
-596.025	-190.904	-0.157	-0.002
-595.011	-72.313	-0.289	0.108
-593.996	-180.376	-0.239	0.005
-592.982	103.554	-0.224	-0.265
-591.967	308.869	-0.149	-0.280
-590.952	-200.000	0.013	-0.231
-589.938	69.953	0.066	-0.069
-588.923	15.480	-0.104	0.082
-587.909	37.463	0.109	0.097
-586.894	-144.560	0.248	0.023
-585.879	800.000	-0.104	-0.367
-584.865	-7.122	0.056	-0.039
-583.850	-40.356	-0.423	0.222
-582.836	164.487	-0.054	0.077
-581.821	176.091	0.099	-0.144
-580.806	-69.369	-0.527	-0.204
-579.792	284.913	0.159	-0.288
-578.777	620.063	-0.098	-0.248
-577.763	171.893	0.014	-0.020
-576.748	-27.509	-0.181	0.106
-575.733	330.962	-0.090	-0.176
-574.719	-85.646	-0.258	-0.081
-573.704	-72.414	-0.170	-0.063
-572.690	-200.000	-0.021	0.229
-571.675	-20.581	-0.159	-0.098
-570.661	127.615	0.201	0.257
-569.646	58.899	-0.168	0.166
-568.631	-11.722	0.139	0.092
-567.617	99.192	0.166	0.194
-566.602	-56.668	0.249	-0.111
-565.588	-93.927	-0.189	0.053
-564.573	737.607	0.096	-0.258
-563.558	-13.534	-0.071	0.046
-562.544	366.956	0.116	0.235
-561.529	-98.742	-0.436	-0.112
-560.515	-153.835	0.087	-0.006
-559.500	205.845	0.089	-0.140
-558.485	317.453	-0.093	0.177
-557.471	27.620	0.080	-0.068
-556.456	800.000	0.059	-0.252
-555.442	-200.000	0.005	-0.178
-554.427	-143.857	0.141	-0.013
-553.412	-200.000	0.012	0.145
-552.398	100.445	0.265	0.310
-551.383	-16.619	0.118	0.075
-550.369	800.000	-0.085	0.268
-549.354	-200.000	0.051	-0.409
-548.339	399.064	-0.083	0.174
-547.325	800.000	0.063	0.191
-546.310	-17.723	0.113	0.072
-545.296	-84.096	0.166	0.053
-544.281	81.283	-0.204	-0.222
-543.266	246.021	-0.066	0.111
-542.252	178.472	-0.105	0.155
-541.237	69.858	-0.224	0.233
-540.223	-30.400	-0.134	-0.076
-539.208	5.165	0.270	-0.200
-538.193	-42.772	0.184	-0.094
-537.179	557.078	-0.089	-0.216
-536.164	-200.000	0.027	0.416
-535.150	-158.719	0.114	-0.007
-534.135	40.816	-0.121	0.110
-533.121	-25.174	-0.274	-0.163
-532.106	98.774	-0.213	-0.248
-531.091	160.375	-0.108	-0.152
-530.077	-200.000	-0.026	-0.180
-529.062	-139.290	0.172	0.019
-528.048	-50.167	-0.271	0.129
-527.033	21.094	0.243	0.198
-526.018	116.521	0.104	0.128
-525.004	-132.497	0.417	0.054
-523.989	80.511	-0.073	-0.079
-522.975	-10.845	-0.385	-0.256
-521.960	-200.000	0.007	0.055
-520.945	-145.756	-0.095	-0.008
-519.931	228.338	0.171	-0.281
-518.916	89.185	0.065	-0.073
-517.902	800.000	0.026	0.092
-516.887	540.561	0.112	-0.269
-515.872	-127.764	-0.284	-0.041
-514.858	-200.000	-0.070	-0.432
-513.843	-200.000	-0.036	0.331
-512.829	-2.544	0.208	0.147
-511.814	764.237	-0.077	0.211
-510.799	6.405	0.199	-0.148
-509.785	106.226	0.117	-0.139
-508.770	438.315	-0.114	-0.249
-507.756	333.843	0.165	-0.321
-506.741	-131.104	-0.353	-0.047
-505.726	152.858	0.086	0.118
-504.712	0.793	-0.171	-0.123
-503.697	800.000	0.043	0.151
-502.683	-37.658	-0.289	-0.155
-501.668	-17.443	-0.160	-0.101
-500.653	-107.036	0.279	0.062
-499.639	-200.000	-0.007	0.150
-498.624	-186.221	-0.459	-0.007
-497.610	-200.000	-0.055	-0.347
-496.595	175.025	-0.162	-0.236
-495.581	51.071	-0.133	-0.126
-494.566	166.485	0.044	-0.062
-493.551	-200.000	-0.004	0.255
-492.537	-148.203	-0.126	-0.010
-491.522	0.356	0.156	0.112
-490.508	-93.049	0.114	-0.032
-489.493	-96.284	0.236	-0.063
-488.478	-114.051	-0.369	0.072
-487.464	-200.000	-0.006	-0.177
-486.449	74.221	-0.072	0.076
-485.435	278.148	-0.042	0.075
-484.420	-200.000	-0.032	0.225
-483.405	136.707	0.091	-0.120
-482.391	-1.844	0.331	-0.234
-481.376	-200.000	0.067	-0.384
-480.362	570.752	0.092	-0.225
-479.347	-145.707	0.158	0.014
-478.332	13.753	-0.230	0.180
-477.318	-78.068	-0.088	0.030
-476.303	106.670	-0.094	0.112
-475.289	-200.000	0.001	-0.181
-474.274	17.246	0.214	-0.170
-473.259	800.000	0.068	0.295
-472.245	47.812	0.244	-0.229
-471.230	10.352	-0.389	-0.297
-470.216	800.000	0.121	0.438
-469.201	800.000	-0.070	-0.273
-468.186	-10.953	-0.086	0.057
-467.172	213.882	0.070	0.111
-466.157	-115.762	-0.047	-0.009
-465.143	-49.533	-0.059	0.028
-464.128	-60.996	-0.092	0.039
-463.113	84.575	-0.110	-0.121
-462.099	-149.965	0.088	-0.007
-461.084	444.931	-0.127	-0.281
-460.070	-108.303	0.105	0.023
-459.055	-200.000	-0.019	0.234
-458.040	107.417	0.143	-0.170
-457.026	260.634	0.035	-0.060
-456.011	49.432	-0.181	0.171
-454.997	-67.348	-0.077	-0.030
-453.982	-119.378	0.235	0.041
-452.968	706.805	-0.126	-0.335
-451.953	-151.215	-0.130	0.010
-450.938	-23.417	-0.344	0.207
-449.924	-12.542	0.282	0.185
-448.909	-173.800	0.137	0.004
-447.895	-134.111	0.145	0.018
-446.880	-200.000	-0.002	0.155
-445.865	-200.000	-0.006	0.039
-444.851	251.042	-0.057	0.097
-443.836	-81.284	-0.214	-0.071
-442.822	-139.804	0.345	-0.037
-441.807	207.100	0.112	0.176
-440.792	114.180	0.092	0.112
-439.778	-31.017	-0.225	0.128
-438.763	-35.088	-0.239	-0.130
-437.749	-57.701	0.263	0.115
-436.734	-200.000	0.016	0.164
-435.719	-200.000	-0.075	-0.353
-434.705	-134.157	0.167	-0.021
-433.690	185.062	0.127	0.189
-432.676	201.992	-0.069	0.107
-431.661	-89.489	0.271	0.080
-430.646	-87.723	0.289	-0.087
-429.632	-132.387	0.114	-0.015
-428.617	490.753	-0.212	0.486
-427.603	-110.379	0.397	-0.083
-426.588	252.619	0.038	-0.064
-425.573	-200.000	-0.002	0.277
-424.559	-149.642	0.230	0.018
-423.544	-46.914	-0.252	-0.123
-422.530	115.150	-0.042	-0.051
-421.515	-139.678	-0.270	-0.029
-420.500	-18.797	0.061	0.038
-419.486	800.000	0.034	-0.145
-418.471	-80.092	-0.329	0.111
-417.457	-90.669	0.231	-0.067
-416.442	133.256	0.116	-0.150
-415.428	800.000	0.022	-0.064
-414.413	164.215	0.239	0.337
-413.398	17.167	0.120	-0.095
-412.384	132.995	0.128	-0.166
-411.369	432.770	0.100	0.217
-410.355	800.000	-0.106	-0.395
-409.340	-14.713	-0.422	0.272
-408.325	800.000	0.046	0.188
-407.311	-132.039	-0.099	-0.013
-406.296	172.879	0.088	-0.127
-405.282	26.004	-0.153	0.127
-404.267	93.362	-0.066	0.075
-403.252	-99.567	0.248	-0.062
-402.238	33.290	-0.338	-0.294
-401.223	-62.046	-0.095	0.040
-400.209	153.388	0.079	-0.109
-399.194	-128.241	-0.380	0.054
-398.179	-30.485	0.181	-0.103
-397.165	56.901	0.229	-0.223
-396.150	-121.774	-0.146	-0.024
-395.136	-121.582	-0.624	0.104
-394.121	-200.000	-0.020	-0.273
-393.106	800.000	-0.051	0.214
-392.092	-68.799	-0.173	0.067
-391.077	800.000	-0.078	0.226
-390.063	-26.205	0.193	0.113
-389.048	510.149	0.023	0.054
-388.033	-111.025	0.036	-0.007
-387.019	173.723	0.128	-0.185
-386.004	144.571	0.160	0.214
-384.990	-200.000	0.043	0.456
-383.975	496.949	0.118	0.271
-382.960	187.327	-0.171	0.255
-381.946	-59.087	0.167	-0.072
-380.931	-21.412	-0.114	-0.070
-379.917	-200.000	-0.008	0.090
-378.902	-200.000	0.015	0.315
-377.888	800.000	0.051	0.160
-376.873	-121.650	-0.225	-0.037
-375.858	-200.000	0.028	-0.181
-374.844	-200.000	0.015	0.178
-373.829	-62.072	0.398	-0.166
-372.815	-200.000	0.057	-0.493
-371.800	53.348	0.166	-0.159
-370.785	-142.088	0.374	0.037
-369.771	94.190	0.031	0.035
-368.756	12.632	0.074	-0.057
-367.742	-158.664	-0.110	0.006
-366.727	75.906	-0.160	0.169
-365.712	-51.898	0.197	-0.092
-364.698	509.052	-0.167	-0.389
-363.683	-200.000	-0.021	-0.114
-362.669	242.933	0.158	0.265
-361.654	506.802	-0.064	0.149
-360.639	-134.438	-0.256	-0.031
-359.625	10.126	0.031	0.024
-358.610	20.926	0.244	0.197
-357.596	303.935	-0.247	0.457
-356.581	-200.000	0.034	0.261
-355.566	-200.000	-0.001	0.116
-354.552	-117.550	-0.058	-0.010
-353.537	-76.551	-0.149	0.052
-352.523	-49.595	0.041	0.020
-351.508	-172.665	-0.191	-0.006
-350.493	-5.617	0.122	-0.083
-349.479	800.000	0.039	0.139
-348.464	91.513	-0.102	0.115
-347.450	81.373	0.308	-0.332
-346.435	-44.304	-0.150	-0.075
-345.420	-69.661	-0.280	-0.107
-344.406	800.000	-0.024	-0.069
-343.391	711.332	-0.125	0.332
-342.377	-200.000	-0.043	0.242
-341.362	30.389	-0.191	0.163
-340.348	-200.000	-0.031	-0.197
-339.333	359.147	0.126	0.252
-338.318	-200.000	-0.047	-0.217
-337.304	570.921	-0.003	0.007
-336.289	-54.933	0.126	0.057
-335.275	24.207	0.210	-0.173
-334.260	-35.970	0.318	0.172
-333.245	-128.029	-0.075	0.011
-332.231	97.818	0.069	-0.079
-331.216	55.253	0.156	-0.151
-330.202	-145.825	-0.191	-0.017
-329.187	-200.000	0.002	0.012
-328.172	-132.281	-0.261	-0.034
-327.158	245.169	0.179	0.301
-326.143	-25.301	-0.138	-0.082
-325.129	-79.920	-0.233	-0.078
-324.114	-44.100	0.203	-0.102
-323.099	-200.000	-0.017	-0.078
-322.085	117.946	-0.074	-0.091
-321.070	-68.392	-0.235	-0.091
-320.056	34.230	0.246	0.215
-319.041	-79.050	-0.044	0.015
-318.026	-200.000	0.031	-0.157
-317.012	-183.801	0.250	0.004
-315.997	-174.364	-0.231	0.007
-314.983	-200.000	-0.017	0.101
-313.968	-200.000	0.003	-0.050
-312.953	279.554	0.047	0.083
-311.939	-200.000	-0.005	0.070
-310.924	-200.000	-0.032	-0.418
-309.910	-147.732	0.397	0.033
-308.895	626.319	-0.243	-0.613
-307.880	-107.213	0.165	0.036
-306.866	66.090	-0.014	0.014
-305.851	10.872	0.059	-0.045
-304.837	45.716	0.270	0.249
-303.822	320.882	0.119	-0.226
-302.807	-110.486	-0.125	-0.026
-301.793	-96.585	-0.154	0.041
-300.778	1.215	-0.472	0.338
-299.764	63.002	0.131	0.130
-298.749	257.162	-0.071	0.122
-297.735	29.551	0.321	-0.272
-296.720	-47.888	-0.256	-0.124
-295.705	218.702	0.114	0.182
-294.691	-117.634	0.166	0.030
-293.676	378.974	0.057	0.115
-292.662	800.000	-0.097	-0.400
-291.647	-3.887	-0.182	0.126
-290.632	62.891	0.144	-0.143
-289.618	238.022	-0.204	-0.338
-288.603	194.828	0.116	-0.175
-287.589	292.252	-0.133	0.242
-286.574	4.186	0.160	-0.117
-285.559	-42.730	0.143	-0.072
-284.545	104.778	-0.037	-0.043
-283.530	-113.567	-0.244	-0.048
-282.516	-200.000	0.014	-0.106
-281.501	78.681	0.165	-0.176
-280.486	-1.085	-0.099	-0.070
-279.472	58.405	0.074	0.073
-278.457	589.564	0.198	0.487
-277.443	-155.154	-0.282	0.018
-276.428	-11.898	0.025	0.016
-275.413	-110.372	-0.327	0.068
-274.399	194.275	0.170	0.257
-273.384	-105.972	0.615	0.138
-272.370	25.116	0.074	0.061
-271.355	405.839	0.074	-0.157
-270.340	68.962	-0.083	-0.085
-269.326	215.870	-0.109	0.172
-268.311	-165.419	0.206	-0.009
-267.297	-71.419	-0.142	0.053
-266.282	800.000	-0.068	0.212
-265.267	41.317	-0.103	-0.093
-264.253	-100.091	-0.146	-0.036
-263.238	-134.108	0.199	-0.025
-262.224	55.462	0.276	0.266
-261.209	-13.247	0.389	-0.251
-260.195	-163.105	-0.101	0.005
-259.180	-200.000	0.017	-0.131
-258.165	285.076	0.116	0.209
-257.151	20.542	-0.100	0.081
-256.136	-149.939	0.117	-0.009
-255.122	-200.000	0.014	-0.068
-254.107	-200.000	-0.035	-0.298
-253.092	-41.268	0.401	0.206
-252.078	-104.842	0.088	0.020
-251.063	-33.315	-0.355	-0.195
-250.049	146.821	0.153	-0.205
-249.034	-169.913	0.217	-0.008
-248.019	-115.488	-0.132	-0.025
-247.005	-61.131	0.265	0.111
-245.990	85.724	-0.093	0.102
-244.976	-89.556	0.147	-0.043
-243.961	-200.000	0.049	0.378
-242.946	-52.728	0.089	0.041
-241.932	800.000	0.030	-0.117
-240.917	50.768	0.332	0.313
-239.903	36.633	-0.217	0.191
-238.888	-120.002	-0.090	0.015
-237.873	800.000	-0.071	-0.198
-236.859	96.249	-0.191	-0.217
-235.844	-91.615	-0.279	-0.079
-234.830	297.576	0.066	0.121
-233.815	-0.348	0.077	0.054
-232.800	-64.626	-0.110	0.044
-231.786	47.385	-0.193	-0.178
-230.771	-24.527	0.204	0.121
-229.757	-200.000	-0.043	-0.198
-228.742	211.707	-0.254	0.399
-227.727	-92.166	-0.092	0.026
-226.713	-200.000	-0.018	-0.134
-225.698	800.000	0.027	0.106
-224.684	-94.875	0.149	-0.040
-223.669	-173.929	0.235	-0.007
-222.655	-125.624	0.036	0.005
-221.640	-200.000	-0.007	0.351
-220.625	8.193	0.066	0.050
-219.611	-126.390	-0.180	-0.027
-218.596	-133.438	0.307	-0.038
-217.582	331.790	0.157	-0.301
-216.567	-200.000	-0.017	0.113
-215.552	-104.549	0.128	-0.029
-214.538	-87.976	-0.011	-0.003
-213.523	-129.653	0.126	0.017
-212.509	-28.970	0.144	-0.082
-211.494	229.791	-0.277	0.449
-210.479	800.000	0.058	0.176
-209.465	565.655	0.099	-0.239
-208.450	-56.342	-0.106	0.047
-207.436	-31.572	-0.175	0.098
-206.421	-35.987	0.166	0.089
-205.406	-200.000	-0.095	0.425
-204.392	25.985	0.288	-0.238
-203.377	800.000	-0.036	-0.133
-202.363	200.750	-0.172	-0.262
-201.348	438.762	0.096	0.207
-200.333	-59.854	-0.141	0.060
-199.319	-133.316	-0.210	-0.026
-198.304	154.845	-0.039	0.054
-197.290	45.745	0.245	0.225
-196.275	-135.608	-0.232	-0.027
-195.260	179.883	-0.135	0.197
-194.246	-108.834	0.175	0.037
-193.231	58.770	-0.104	0.101
-192.217	800.000	-0.023	0.091
-191.202	-87.308	0.218	0.066
-190.187	50.336	0.051	0.048
-189.173	351.861	-0.136	0.267
-188.158	-103.184	-0.126	0.030
-187.144	-69.373	0.198	-0.075
-186.129	528.819	-0.076	0.179
-185.114	-19.030	0.089	0.055
-184.100	-200.000	-0.021	0.353
-183.085	-200.000	-0.001	0.157
-182.071	-90.739	-0.297	-0.085
-181.056	7.665	0.247	-0.184
-180.042	-74.427	0.232	0.083
-179.027	61.276	0.100	-0.098
-178.012	-156.486	0.045	0.003
-176.998	102.190	0.381	-0.442
-175.983	2.516	0.240	0.173
-174.969	157.306	-0.045	-0.061
-173.954	128.781	0.122	0.154
-172.939	27.468	-0.079	-0.066
-171.925	-200.000	0.015	0.141
-170.910	-74.460	0.176	0.063
-169.896	-36.054	0.259	0.139
-168.881	216.612	0.065	0.103
-167.866	-124.280	0.120	0.019
-166.852	-63.696	0.079	-0.032
-165.837	7.912	-0.130	0.097
-164.823	110.663	-0.212	0.253
-163.808	800.000	0.057	0.227
-162.793	47.391	-0.172	-0.159
-161.779	-95.260	-0.136	-0.036
-160.764	-21.087	-0.134	0.082
-159.750	-58.561	0.101	0.043
-158.735	163.903	-0.068	-0.095
-157.720	-69.775	0.303	0.115
-156.706	800.000	-0.098	0.331
-155.691	423.271	0.081	-0.172
-154.677	-200.000	0.010	0.117
-153.662	-113.152	-0.111	0.022
-152.647	-89.042	0.327	0.096
-151.633	-152.741	0.196	-0.014
-150.618	-61.057	0.088	0.037
-149.604	800.000	-0.058	-0.187
-148.589	-141.556	0.251	-0.025
-147.574	-139.033	-0.378	0.041
-146.560	800.000	0.109	0.314
-145.545	181.857	-0.133	0.194
-144.531	29.626	-0.155	-0.131
-143.516	419.768	-0.122	-0.258
-142.502	800.000	-0.051	-0.194
-141.487	2.369	0.120	-0.086
-140.472	58.087	0.210	-0.204
-139.458	-57.128	0.213	-0.093
-138.443	-73.363	0.159	0.058
-137.429	-200.000	0.030	0.167
-136.414	-12.598	-0.107	-0.069
-135.399	121.724	0.092	-0.114
-134.385	104.784	0.097	-0.113
-133.370	-200.000	-0.077	-0.418
-132.356	512.377	-0.151	0.347
-131.341	76.571	-0.103	-0.109
-130.326	28.360	0.263	-0.220
-129.312	-33.146	0.197	0.108
-128.297	-152.077	0.203	0.015
-127.283	-128.801	0.282	0.039
-126.268	12.606	0.235	-0.180
-125.253	-200.000	-0.019	0.101
-124.239	-200.000	-0.011	0.144
-123.224	274.755	0.172	0.302
-122.210	-200.000	-0.018	-0.401
-121.195	-95.645	-0.361	-0.096
