DTS Sentinel unit serial number:	SN413079Multiplexer serial number:	ORYXHardware model number:	OX4-SRSoftware version number:	ORYX F/W v4.00 Oryx Data Collector v3.7.2.0data status	okinstallation	princeton_trtdifferential loss correction	single-endedforward channel	channel 3reverse channel	N/Adate	2019/09/10time	23:38:10forward acquisition time	60.00reverse acquisition time	0.00gamma	496.2192k internal	0.2331k external	0.2331temperature offset calibration	0.9921default loss term (dB/km)	0.3790temperature slope calibration	1.0000multiplexer offset coefficient	1.0000multiplexer slope coefficient	1.0000fibre end	0.00T internal ref (°C)	29.62T ext. ref 1 (°C)	-0.31T ext. ref 2 (°C)	23.01length (m)	temperature (°C)	Stokes	anti-Stokes-747.200	-200.000	-0.029	0.298
-746.185	-89.182	-0.034	0.010
-745.171	-119.465	0.040	-0.007
-744.156	-35.923	-0.148	0.080
-743.142	-145.959	-0.049	0.004
-742.127	-200.000	-0.073	0.359
-741.112	83.193	0.146	-0.160
-740.098	-185.652	0.094	-0.001
-739.083	447.990	0.022	-0.049
-738.069	-200.000	-0.001	0.037
-737.054	-78.367	0.333	0.115
-736.039	31.118	0.137	-0.118
-735.025	-107.849	0.437	0.096
-734.010	-134.668	-0.112	-0.014
-732.996	100.097	-0.099	-0.116
-731.981	-200.000	0.101	-0.485
-730.966	-200.000	0.023	0.150
-729.952	204.358	-0.105	-0.164
-728.937	-39.063	-0.251	0.133
-727.923	90.306	0.183	-0.206
-726.908	-112.724	-0.236	-0.047
-725.894	-41.853	-0.088	0.045
-724.879	115.569	0.194	-0.239
-723.864	137.413	0.235	0.309
-722.850	217.154	0.120	-0.191
-721.835	8.869	0.167	-0.126
-720.821	-62.116	0.145	0.061
-719.806	265.371	-0.111	0.195
-718.791	-185.448	-0.199	-0.003
-717.777	-27.555	0.190	-0.111
-716.762	-84.051	0.212	0.068
-715.748	-61.425	0.071	-0.030
-714.733	28.841	-0.509	-0.433
-713.718	76.060	0.249	-0.265
-712.704	-38.990	-0.264	0.139
-711.689	315.770	-0.107	0.203
-710.675	-73.995	0.640	-0.233
-709.660	800.000	-0.079	-0.295
-708.645	-200.000	0.009	-0.106
-707.631	396.307	-0.121	-0.254
-706.616	185.521	0.174	-0.260
-705.602	-200.000	-0.050	0.229
-704.587	-29.243	0.223	-0.128
-703.572	800.000	0.028	-0.100
-702.558	111.156	0.201	-0.243
-701.543	-13.718	-0.154	-0.100
-700.529	-118.498	0.257	-0.046
-699.514	-115.693	-0.153	-0.029
-698.499	-124.304	0.237	-0.037
-697.485	-0.185	0.228	-0.163
-696.470	39.160	0.135	-0.121
-695.456	55.894	0.180	-0.175
-694.441	252.563	0.076	-0.130
-693.426	800.000	-0.054	0.162
-692.412	154.145	0.084	0.115
-691.397	510.749	-0.161	0.376
-690.383	432.767	0.217	-0.473
-689.368	-37.504	0.187	-0.100
-688.354	102.413	0.067	0.078
-687.339	102.459	0.117	-0.138
-686.324	800.000	-0.105	-0.320
-685.310	11.864	-0.142	-0.109
-684.295	-200.000	-0.011	-0.268
-683.281	-10.952	0.159	-0.105
-682.266	740.969	-0.067	-0.180
-681.251	-72.162	-0.106	0.040
-680.237	800.000	-0.096	-0.315
-679.222	-87.676	0.241	-0.073
-678.208	-89.571	-0.177	0.052
-677.193	194.441	-0.296	-0.451
-676.178	-92.853	0.329	0.092
-675.164	-200.000	-0.006	-0.248
-674.149	-108.658	-0.130	-0.028
-673.135	708.425	-0.147	0.391
-672.120	800.000	0.020	0.079
-671.105	-11.786	0.166	-0.109
-670.091	-200.000	0.022	0.212
-669.076	-200.000	0.013	-0.069
-668.062	-74.381	0.237	-0.086
-667.047	-200.000	0.006	-0.359
-666.032	800.000	0.056	-0.175
-665.018	236.107	-0.050	0.082
-664.003	89.065	-0.043	0.048
-662.989	241.258	-0.069	-0.116
-661.974	201.249	0.208	-0.321
-660.959	305.381	-0.106	-0.197
-659.945	406.856	-0.102	0.217
-658.930	42.815	-0.142	-0.130
-657.916	97.053	-0.010	-0.012
-656.901	293.269	0.186	-0.341
-655.886	-126.776	-0.117	0.017
-654.872	-110.075	0.009	0.002
-653.857	-33.504	-0.077	0.043
-652.843	8.664	-0.221	0.167
-651.828	-200.000	0.021	-0.184
-650.814	235.642	0.058	-0.097
-649.799	-58.426	0.241	-0.105
-648.784	-85.873	0.071	0.022
-647.770	-39.940	0.138	-0.072
-646.755	-138.390	0.162	-0.018
-645.741	72.633	-0.228	-0.238
-644.726	460.559	-0.045	-0.100
-643.711	-160.506	0.142	0.008
-642.697	-125.282	-0.240	-0.037
-641.682	-38.616	-0.242	-0.128
-640.668	187.858	0.108	-0.162
-639.653	-8.277	0.076	0.052
-638.638	-81.254	-0.124	-0.041
-637.624	-14.215	0.113	-0.073
-636.609	-44.214	-0.213	0.107
-635.595	-174.786	0.239	-0.007
-634.580	-200.000	-0.008	-0.084
-633.565	-108.630	-0.341	0.073
-632.551	-101.421	0.066	-0.016
-631.536	-61.554	0.041	-0.017
-630.522	-34.285	-0.138	0.076
-629.507	91.827	-0.264	-0.298
-628.492	-6.761	0.201	0.137
-627.478	-129.955	0.453	-0.062
-626.463	-43.541	0.096	-0.049
-625.449	-200.000	0.041	0.208
-624.434	-26.391	-0.141	-0.083
-623.419	150.098	0.043	-0.059
-622.405	800.000	-0.035	-0.129
-621.390	-200.000	0.027	-0.207
-620.376	16.086	-0.151	-0.119
-619.361	294.428	0.148	0.272
-618.346	-59.858	-0.228	-0.098
-617.332	-184.700	0.215	0.003
-616.317	90.697	-0.084	0.095
-615.303	91.695	-0.165	0.186
-614.288	180.512	0.328	-0.482
-613.273	800.000	0.077	-0.228
-612.259	-200.000	0.014	-0.420
-611.244	800.000	0.042	-0.126
-610.230	-12.225	-0.026	0.017
-609.215	2.347	0.259	-0.188
-608.201	-200.000	0.045	-0.371
-607.186	586.093	0.025	0.061
-606.171	-64.353	0.187	0.076
-605.157	-113.640	-0.025	-0.005
-604.142	-67.999	-0.132	0.051
-603.128	108.581	-0.083	0.099
-602.113	376.862	0.080	0.163
-601.098	-144.967	-0.478	-0.044
-600.084	-72.197	-0.195	0.072
-599.069	-104.823	0.363	-0.084
-598.055	-154.859	0.394	0.026
-597.040	-31.116	0.039	-0.022
-596.025	800.000	0.023	0.074
-595.011	-68.770	-0.105	-0.041
-593.996	317.028	0.069	0.130
-592.982	-17.016	-0.084	0.053
-591.967	-24.262	-0.409	-0.244
-590.952	-200.000	0.023	0.165
-589.938	-10.077	-0.338	-0.225
-588.923	482.952	0.048	-0.108
-587.909	-83.255	0.037	-0.012
-586.894	-200.000	0.018	-0.325
-585.879	92.392	0.227	0.256
-584.865	240.705	0.199	0.333
-583.850	-58.415	0.299	-0.130
-582.836	-121.511	0.335	-0.056
-581.821	98.814	0.208	-0.240
-580.806	-134.119	-0.298	0.037
-579.792	-50.117	-0.270	0.128
-578.777	-148.773	-0.088	0.007
-577.763	-200.000	-0.003	0.229
-576.748	-200.000	-0.002	-0.187
-575.733	-104.252	-0.320	-0.074
-574.719	-127.184	0.220	0.032
-573.704	11.568	-0.218	0.167
-572.690	64.527	0.067	0.067
-571.675	223.717	-0.132	0.212
-570.661	-97.542	0.280	0.073
-569.646	-177.736	0.131	0.003
-568.631	-32.361	-0.256	0.143
-567.617	-171.132	-0.225	0.008
-566.602	26.690	0.170	0.142
-565.588	-200.000	0.043	-0.307
-564.573	-68.317	-0.455	-0.177
-563.558	-27.647	-0.211	0.123
-562.544	-200.000	0.000	0.287
-561.529	-200.000	0.005	-0.107
-560.515	184.451	0.045	0.067
-559.500	-34.870	-0.323	0.176
-558.485	76.867	-0.135	0.143
-557.471	126.278	-0.085	0.107
-556.456	184.165	0.266	0.394
-555.442	-17.297	0.326	-0.205
-554.427	262.163	-0.181	-0.313
-553.412	523.386	0.126	-0.296
-552.398	800.000	0.034	-0.126
-551.383	2.947	-0.032	-0.023
-550.369	120.740	-0.176	0.218
-549.354	177.397	-0.224	0.326
-548.339	694.597	-0.044	-0.115
-547.325	245.156	0.077	0.130
-546.310	800.000	0.032	0.133
-545.296	-101.929	0.243	-0.059
-544.281	67.953	0.182	0.186
-543.266	280.096	0.118	0.210
-542.252	-200.000	-0.003	-0.216
-541.237	-153.717	0.165	0.011
-540.223	32.331	-0.135	-0.116
-539.208	800.000	0.049	-0.209
-538.193	-200.000	0.011	-0.193
-537.179	-200.000	0.001	-0.131
-536.164	-69.179	0.168	-0.064
-535.150	241.789	0.229	-0.383
-534.135	-200.000	-0.008	0.212
-533.121	784.258	-0.022	0.061
-532.106	620.039	-0.014	-0.035
-531.091	21.686	-0.142	0.116
-530.077	-169.986	0.215	-0.008
-529.062	800.000	0.088	-0.264
-528.048	-46.387	-0.059	-0.029
-527.033	-102.632	0.259	-0.062
-526.018	-147.054	-0.428	0.037
-525.004	551.004	-0.041	0.097
-523.989	-200.000	-0.025	0.231
-522.975	584.872	0.086	0.210
-521.960	800.000	0.111	-0.395
-520.945	800.000	0.117	0.334
-519.931	-173.110	0.168	-0.005
-518.916	-146.527	0.139	-0.012
-517.902	293.066	-0.170	0.310
-516.887	-50.904	-0.249	-0.117
-515.872	-18.779	-0.287	-0.179
-514.858	217.881	-0.232	-0.369
-513.843	6.421	0.118	0.087
-512.829	125.792	-0.034	0.043
-511.814	-16.828	0.100	-0.063
-510.799	-106.919	0.215	0.048
-509.785	-200.000	0.042	-0.187
-508.770	157.227	0.147	-0.203
-507.756	-169.902	-0.271	0.010
-506.741	-5.217	-0.380	-0.261
-505.726	-200.000	-0.009	-0.112
-504.712	137.848	0.149	-0.195
-503.697	81.625	-0.146	-0.158
-502.683	-94.524	-0.135	-0.037
-501.668	-94.737	0.249	-0.067
-500.653	285.470	0.141	-0.253
-499.639	282.958	0.212	0.379
-498.624	-200.000	0.015	0.114
-497.610	-161.716	-0.249	0.013
-496.595	76.973	-0.115	0.121
-495.581	-189.882	-0.416	-0.005
-494.566	304.523	0.218	-0.404
-493.551	-200.000	0.053	0.242
-492.537	173.822	0.206	0.296
-491.522	81.418	-0.363	0.391
-490.508	-200.000	0.069	0.313
-489.493	800.000	-0.105	-0.343
-488.478	-200.000	-0.031	-0.201
-487.464	100.537	0.285	-0.330
-486.449	203.980	-0.098	-0.151
-485.435	160.597	0.176	-0.244
-484.420	419.533	0.083	0.178
-483.405	800.000	0.099	0.314
-482.391	-26.019	0.070	0.041
-481.376	-177.264	0.170	0.004
-480.362	-58.481	0.239	0.103
-479.347	-22.398	0.174	0.105
-478.332	262.100	-0.026	-0.046
-477.318	-200.000	-0.051	-0.270
-476.303	23.488	0.103	-0.084
-475.289	-103.093	0.179	0.042
-474.274	258.452	-0.019	0.032
-473.259	-91.320	0.325	-0.093
-472.245	-121.915	-0.255	-0.042
-471.230	-83.603	-0.148	-0.047
-470.216	-63.244	-0.247	-0.101
-469.201	-200.000	-0.018	0.107
-468.186	-200.000	-0.008	-0.175
-467.172	549.665	-0.068	-0.161
-466.157	415.805	0.060	-0.128
-465.143	-160.321	0.270	-0.014
-464.128	482.338	-0.158	0.357
-463.113	800.000	0.093	0.263
-462.099	51.823	0.069	0.065
-461.084	26.714	-0.039	-0.032
-460.070	184.348	0.211	-0.311
-459.055	132.152	0.098	-0.125
-458.040	-95.368	-0.246	-0.066
-457.026	107.541	-0.150	-0.178
-456.011	18.694	0.314	-0.250
-454.997	63.187	0.240	0.240
-453.982	-200.000	-0.235	-0.001
-452.968	-118.448	-0.297	-0.052
-451.953	-91.322	0.106	-0.030
-450.938	95.917	0.248	-0.281
-449.924	-200.000	-0.004	0.143
-448.909	-57.980	-0.030	-0.013
-447.895	12.777	-0.375	0.288
-446.880	-116.116	-0.130	-0.024
-445.865	-200.000	-0.040	-0.307
-444.851	-96.085	0.272	-0.072
-443.836	111.948	-0.146	-0.176
-442.822	-81.609	0.179	0.058
-441.807	598.661	-0.063	-0.156
-440.792	100.754	0.069	-0.080
-439.778	25.920	0.113	-0.094
-438.763	-83.780	-0.284	0.090
-437.749	1.607	-0.359	0.257
-436.734	-200.000	0.058	-0.254
-435.719	295.234	-0.071	0.130
-434.705	-140.437	0.197	-0.020
-433.690	6.518	0.441	0.326
-432.676	216.881	0.157	0.249
-431.661	-27.535	-0.239	-0.138
-430.646	-6.113	-0.175	0.119
-429.632	610.746	-0.062	0.154
-428.617	-200.000	-0.006	0.147
-427.603	-111.679	0.117	-0.024
-426.588	19.130	-0.084	-0.067
-425.573	-145.556	0.107	-0.010
-424.559	-200.000	0.002	0.228
-423.544	503.503	-0.135	-0.310
-422.530	-57.998	0.141	-0.061
-421.515	-200.000	0.029	0.290
-420.500	800.000	0.025	-0.078
-419.486	-104.469	0.287	-0.066
-418.471	-200.000	-0.001	0.064
-417.457	181.031	0.232	0.339
-416.442	800.000	-0.105	0.457
-415.428	-2.443	-0.347	-0.242
-414.413	26.377	-0.136	0.113
-413.398	-200.000	-0.012	0.265
-412.384	-200.000	0.043	0.290
-411.369	-109.121	-0.196	-0.041
-410.355	-1.668	0.035	-0.024
-409.340	-114.180	-0.195	0.037
-408.325	-47.988	-0.157	0.075
-407.311	-77.319	0.029	-0.010
-406.296	-19.243	-0.149	-0.092
-405.282	800.000	0.042	-0.135
-404.267	112.441	-0.122	-0.146
-403.252	46.011	-0.196	0.180
-402.238	213.479	-0.223	0.350
-401.223	-200.000	-0.080	0.368
-400.209	800.000	-0.030	0.118
-399.194	253.263	0.094	0.159
-398.179	-200.000	0.010	0.108
-397.165	-36.509	0.440	0.235
-396.150	-200.000	0.035	-0.306
-395.136	-129.582	-0.071	-0.010
-394.121	247.778	-0.242	0.406
-393.106	-35.032	-0.165	-0.090
-392.092	392.075	-0.171	-0.352
-391.077	64.649	0.070	0.070
-390.063	44.685	0.341	0.311
-389.048	800.000	-0.029	-0.088
-388.033	58.657	0.132	0.129
-387.019	-35.087	-0.155	0.084
-386.004	-5.134	0.124	-0.084
-384.990	-147.701	-0.254	0.021
-383.975	386.488	-0.112	0.229
-382.960	19.338	0.238	-0.189
-381.946	-45.005	-0.054	0.027
-380.931	800.000	0.021	0.087
-379.917	73.463	0.327	0.340
-378.902	-69.671	-0.276	0.105
-377.888	800.000	0.039	0.108
-376.873	-177.261	0.039	0.001
-375.858	800.000	0.079	-0.222
-374.844	418.494	0.160	-0.340
-373.829	74.442	-0.172	-0.180
-372.815	-104.061	-0.126	-0.029
-371.800	-25.776	-0.118	-0.069
-370.785	411.072	0.086	-0.182
-369.771	-11.928	0.183	0.119
-368.756	185.763	0.076	0.112
-367.742	-52.425	-0.367	-0.169
-366.727	-146.982	0.159	0.014
-365.712	-169.253	-0.414	0.015
-364.698	800.000	0.006	0.017
-363.683	-48.241	0.203	0.097
-362.669	800.000	0.044	0.131
-361.654	-92.251	-0.199	0.056
-360.639	-53.879	-0.103	-0.047
-359.625	-200.000	-0.027	-0.186
-358.610	-125.426	0.185	-0.028
-357.596	800.000	0.109	0.392
-356.581	800.000	0.087	-0.294
-355.566	127.452	0.248	-0.312
-354.552	-69.576	0.166	-0.063
-353.537	-200.000	0.084	-0.395
-352.523	547.685	-0.017	0.040
-351.508	596.808	-0.037	-0.090
-350.493	-124.297	0.370	0.057
-349.479	-44.566	0.282	-0.140
-348.464	246.237	-0.072	-0.120
-347.450	-10.854	-0.155	0.101
-346.435	64.745	0.156	-0.156
-345.420	72.735	-0.157	0.162
-344.406	-200.000	0.017	-0.129
-343.391	-200.000	0.043	-0.353
-342.377	598.471	0.048	-0.119
-341.362	74.110	-0.039	-0.041
-340.348	-200.000	0.082	0.365
-339.333	-113.653	0.216	0.042
-338.318	-9.109	0.100	-0.067
-337.304	-48.187	-0.060	-0.029
-336.289	-200.000	0.184	0.000
-335.275	195.437	-0.129	-0.194
-334.260	184.592	0.171	-0.252
-333.245	-200.000	-0.029	0.361
-332.231	44.099	0.132	0.119
-331.216	800.000	-0.035	0.135
-330.202	202.159	-0.263	-0.402
-329.187	452.613	0.068	0.150
-328.172	80.067	0.320	0.340
-327.158	-71.142	-0.148	-0.055
-326.143	-147.858	-0.266	0.022
-325.129	56.509	0.262	0.252
-324.114	800.000	-0.086	-0.271
-323.099	-131.636	-0.091	-0.012
-322.085	-200.000	0.029	-0.249
-321.070	-200.000	-0.008	-0.078
-320.056	-200.000	0.029	-0.328
-319.041	281.083	-0.180	-0.318
-318.026	68.668	-0.193	0.196
-317.012	800.000	-0.093	-0.340
-315.997	-88.675	0.118	-0.035
-314.983	370.191	0.082	-0.165
-313.968	32.532	-0.214	-0.183
-312.953	-84.173	0.193	-0.060
-311.939	-200.000	0.059	0.487
-310.924	-200.000	-0.024	0.000
-309.910	-135.483	0.178	0.021
-308.895	417.126	-0.049	-0.104
-307.880	22.735	-0.162	0.131
-306.866	99.842	0.101	-0.116
-305.851	800.000	-0.070	0.268
-304.837	-102.573	-0.227	-0.054
-303.822	-73.789	-0.545	0.196
-302.807	-200.000	-0.019	0.116
-301.793	141.882	0.133	-0.175
-300.778	663.968	0.078	-0.199
-299.764	-100.711	-0.317	0.077
-298.749	-53.153	-0.519	0.236
-297.735	21.195	0.085	-0.068
-296.720	-21.610	0.111	0.067
-295.705	-200.000	-0.008	0.343
-294.691	1.297	-0.286	0.203
-293.676	-47.385	-0.239	-0.115
-292.662	-200.000	0.341	0.001
-291.647	317.131	0.087	0.162
-290.632	206.094	0.175	-0.270
-289.618	621.282	0.013	-0.032
-288.603	2.622	-0.076	-0.055
-287.589	-200.000	-0.008	0.192
-286.574	800.000	0.028	-0.100
-285.559	685.685	0.138	0.355
-284.545	-200.000	0.049	0.345
-283.530	22.001	-0.289	-0.233
-282.516	-68.614	-0.250	-0.096
-281.501	-132.639	0.237	-0.030
-280.486	-200.000	-0.018	0.183
-279.472	17.848	0.341	0.268
-278.457	-155.729	0.262	-0.017
-277.443	134.007	0.188	-0.240
-276.428	605.170	-0.059	0.145
-275.413	-200.000	-0.032	0.382
-274.399	800.000	0.124	-0.513
-273.384	-200.000	0.097	0.431
-272.370	-137.630	-0.264	-0.029
-271.355	-200.000	-0.010	0.247
-270.340	277.236	0.027	0.047
-269.326	-96.077	0.084	-0.022
-268.311	800.000	-0.071	0.235
-267.297	-93.479	0.363	0.099
-266.282	-111.701	-0.167	-0.033
-265.267	-143.246	-0.593	0.056
-264.253	-100.567	0.179	0.044
-263.238	-59.112	0.143	-0.061
-262.224	11.685	0.102	-0.078
-261.209	-200.000	-0.017	-0.136
-260.195	-146.995	-0.053	0.004
-259.180	158.659	-0.150	-0.206
-258.165	87.355	0.051	-0.056
-257.151	-200.000	-0.021	0.268
-256.136	800.000	0.017	-0.056
-255.122	-93.214	-0.184	-0.051
-254.107	-22.121	0.039	0.023
-253.092	800.000	0.100	-0.354
-252.078	-73.110	-0.201	0.073
-251.063	-200.000	0.021	0.144
-250.049	382.627	-0.076	0.154
-249.034	-89.526	-0.297	-0.086
-248.019	68.026	0.110	0.111
-247.005	563.833	-0.096	0.230
-245.990	-6.890	0.147	0.098
-244.976	69.960	0.110	0.112
-243.961	-139.318	0.292	-0.031
-242.946	800.000	0.047	-0.173
-241.932	90.461	-0.222	-0.245
-240.917	-120.419	0.293	-0.049
-239.903	59.387	-0.106	0.103
-238.888	416.444	-0.141	0.297
-237.873	-100.087	-0.234	-0.057
-236.859	-200.000	-0.008	-0.067
-235.844	-87.407	0.266	0.079
-234.830	16.302	0.101	0.079
-233.815	-68.496	0.163	-0.062
-232.800	670.160	-0.116	0.297
-231.786	36.700	0.382	0.333
-230.771	-200.000	0.028	-0.232
-229.757	800.000	0.022	0.087
-228.742	725.682	0.032	-0.085
-227.727	-101.066	-0.298	-0.072
-226.713	800.000	0.022	-0.073
-225.698	-169.248	-0.128	0.005
-224.684	-98.692	-0.120	0.030
-223.669	59.236	-0.096	0.093
-222.655	-106.529	-0.068	0.015
-221.640	800.000	0.017	0.051
-220.625	148.109	-0.110	-0.146
-219.611	-45.370	0.233	0.114
-218.596	-157.073	0.216	0.013
-217.582	309.975	-0.124	-0.228
-216.567	98.478	0.203	-0.231
-215.552	-6.377	-0.007	0.004
-214.538	35.398	-0.267	0.231
-213.523	-78.432	0.156	-0.053
-212.509	136.660	0.190	-0.245
-211.494	-22.339	0.193	0.115
-210.479	-132.566	-0.440	0.056
-209.465	131.505	-0.052	0.066
-208.450	13.862	0.117	0.090
-207.436	-40.034	0.264	-0.136
-206.421	609.399	-0.039	-0.095
-205.406	-79.453	-0.380	0.127
-204.392	-59.350	0.170	-0.072
-203.377	-24.430	-0.176	-0.103
-202.363	73.570	-0.067	-0.069
-201.348	-55.613	-0.086	0.038
-200.333	-53.068	-0.396	-0.180
-199.319	800.000	0.058	0.166
-198.304	12.445	-0.121	0.092
-197.290	4.358	-0.270	-0.195
-196.275	94.345	-0.086	-0.096
-195.260	800.000	-0.055	0.228
-194.246	13.284	0.255	-0.195
-193.231	-95.771	0.434	0.114
-192.217	-200.000	0.012	0.128
-191.202	572.586	0.047	0.112
-190.187	-15.849	0.085	-0.053
-189.173	36.837	0.187	-0.163
-188.158	101.053	0.138	0.158
-187.144	-200.000	0.027	-0.155
-186.129	53.786	0.212	0.200
-185.114	-200.000	0.003	0.108
-184.100	800.000	0.068	0.229
-183.085	800.000	-0.104	-0.288
-182.071	-55.538	0.129	-0.057
-181.056	-98.911	-0.169	0.042
-180.042	85.875	0.173	0.187
-179.027	136.000	-0.130	0.167
-178.012	68.099	-0.181	0.182
-176.998	-191.919	-0.113	0.001
-175.983	-200.000	-0.006	0.041
-174.969	41.981	0.293	-0.262
-173.954	297.000	-0.086	-0.156
-172.939	-65.676	-0.191	0.075
-171.925	19.659	0.109	0.087
-170.910	198.758	-0.299	-0.450
-169.896	14.777	-0.164	-0.126
-168.881	65.051	0.233	-0.232
-167.866	800.000	0.088	0.271
-166.852	-52.735	-0.082	-0.037
-165.837	61.482	0.232	0.227
-164.823	24.334	-0.045	-0.036
-163.808	-117.340	-0.371	-0.066
-162.793	36.395	-0.113	-0.098
-161.779	148.845	0.234	-0.311
-160.764	-115.488	-0.116	-0.021
-159.750	166.986	-0.050	0.070
-158.735	23.066	-0.146	0.118
-157.720	294.338	0.064	0.115
-156.706	-86.811	-0.240	0.072
-155.691	-47.911	0.177	0.084
-154.677	148.434	0.100	0.132
-153.662	64.257	0.082	0.082
-152.647	331.884	0.124	0.235
-151.633	98.217	-0.206	0.233
-150.618	-95.022	-0.193	0.051
-149.604	64.349	0.377	0.373
-148.589	-122.360	-0.110	0.018
-147.574	-95.666	-0.103	0.027
-146.560	-200.000	-0.012	-0.062
-145.545	-111.167	0.276	0.056
-144.531	41.147	0.261	0.232
-143.516	800.000	0.084	-0.257
-142.502	-67.509	-0.425	-0.164
-141.487	-200.000	0.032	-0.216
-140.472	414.705	-0.135	0.283
-139.458	-91.623	0.354	-0.099
-138.443	113.524	0.063	-0.076
-137.429	51.601	-0.135	0.126
-136.414	-41.617	0.095	-0.048
-135.399	30.445	0.023	-0.020
-134.385	39.063	0.198	-0.174
-133.370	320.480	0.138	-0.257
-132.356	-85.608	-0.006	0.002
-131.341	-200.000	-0.003	0.165
-130.326	132.611	-0.116	-0.147
-129.312	-71.921	0.242	0.089
-128.297	-33.289	-0.201	-0.110
-127.283	26.162	0.295	0.242
-126.268	-200.000	-0.023	0.192
-125.253	-200.000	0.012	-0.174
-124.239	-25.861	-0.219	0.127
-123.224	-144.285	0.280	-0.026
-122.210	325.316	-0.134	0.252
-121.195	111.948	0.234	0.278
