DTS Sentinel unit serial number:	SN413079Multiplexer serial number:	ORYXHardware model number:	OX4-SRSoftware version number:	ORYX F/W v4.00 Oryx Data Collector v3.7.2.0data status	okinstallation	princeton_trtdifferential loss correction	single-endedforward channel	channel 3reverse channel	N/Adate	2019/09/11time	06:14:11forward acquisition time	60.00reverse acquisition time	0.00gamma	496.2192k internal	0.2331k external	0.2331temperature offset calibration	0.9902default loss term (dB/km)	0.3790temperature slope calibration	1.0000multiplexer offset coefficient	1.0000multiplexer slope coefficient	1.0000fibre end	0.00T internal ref (°C)	29.50T ext. ref 1 (°C)	-0.22T ext. ref 2 (°C)	23.77length (m)	temperature (°C)	Stokes	anti-Stokes-747.200	80.326	0.024	0.026
-746.185	800.000	-0.112	0.462
-745.171	-200.000	-0.001	-0.329
-744.156	45.056	-0.035	0.032
-743.142	800.000	-0.078	0.287
-742.127	41.744	-0.109	-0.100
-741.112	-94.261	0.452	-0.124
-740.098	-61.597	-0.258	0.109
-739.083	19.802	0.174	0.141
-738.069	-172.911	0.184	-0.006
-737.054	-146.912	0.183	0.016
-736.039	-200.000	-0.047	0.276
-735.025	-200.000	-0.018	-0.113
-734.010	-59.370	-0.210	-0.091
-732.996	66.225	-0.291	0.297
-731.981	12.067	0.081	-0.062
-730.966	89.370	0.086	-0.097
-729.952	-200.000	0.056	-0.267
-728.937	-72.688	0.545	-0.202
-727.923	166.938	0.185	-0.264
-726.908	-12.343	-0.340	-0.224
-725.894	-200.000	-0.035	-0.244
-724.879	476.707	0.128	-0.290
-723.864	-70.954	-0.055	-0.021
-722.850	-84.642	-0.145	0.046
-721.835	170.012	0.119	-0.171
-720.821	-49.229	-0.213	0.102
-719.806	800.000	-0.084	0.254
-718.791	774.832	0.048	-0.132
-717.777	-76.638	0.134	-0.047
-716.762	550.857	0.045	0.108
-715.748	666.297	-0.072	-0.187
-714.733	699.909	-0.036	0.096
-713.718	-200.000	-0.057	-0.286
-712.704	-200.000	0.061	-0.290
-711.689	312.471	0.092	-0.173
-710.675	-200.000	-0.148	-0.001
-709.660	359.449	-0.172	-0.346
-708.645	800.000	-0.028	-0.085
-707.631	-190.846	-0.247	-0.003
-706.616	-200.000	-0.064	0.295
-705.602	-107.875	-0.122	0.027
-704.587	-150.895	0.360	-0.027
-703.572	193.814	-0.180	0.274
-702.558	22.823	0.051	0.042
-701.543	-161.049	-0.227	-0.012
-700.529	248.714	0.055	0.094
-699.514	568.108	-0.064	-0.156
-698.499	-108.075	-0.109	-0.024
-697.485	-0.519	-0.428	-0.305
-696.470	106.339	0.073	0.087
-695.456	-76.585	0.132	-0.047
-694.441	-7.856	-0.123	0.083
-693.426	-200.000	-0.003	0.022
-692.412	-200.000	-0.053	-0.422
-691.397	-200.000	0.022	-0.333
-690.383	-123.692	-0.299	0.048
-689.368	-123.760	-0.106	0.017
-688.354	-119.648	0.323	0.056
-687.339	408.382	0.093	-0.198
-686.324	380.696	0.088	-0.181
-685.310	38.864	-0.298	-0.267
-684.295	107.502	0.035	-0.041
-683.281	89.176	-0.096	0.108
-682.266	-67.862	0.309	-0.121
-681.251	-143.708	0.233	-0.022
-680.237	-131.854	-0.141	0.018
-679.222	86.752	-0.135	-0.149
-678.208	-85.957	0.051	-0.016
-677.193	7.704	0.067	-0.050
-676.178	461.334	0.130	0.291
-675.164	-50.917	0.052	0.025
-674.149	-76.808	0.119	-0.042
-673.135	9.752	-0.228	0.174
-672.120	126.643	0.053	0.067
-671.105	-34.360	0.123	-0.068
-670.091	455.235	0.130	-0.288
-669.076	515.621	0.101	-0.236
-668.062	49.520	0.114	-0.108
-667.047	373.473	0.167	-0.342
-666.032	60.373	-0.125	-0.124
-665.018	593.856	-0.025	0.062
-664.003	800.000	0.034	-0.130
-662.989	-200.000	-0.072	-0.357
-661.974	-17.378	0.146	-0.092
-660.959	-20.841	-0.319	0.196
-659.945	181.973	0.138	-0.204
-658.930	-71.092	0.305	0.115
-657.916	485.558	-0.043	0.098
-656.901	-200.000	0.000	0.220
-655.886	-65.382	0.116	0.047
-654.872	36.967	0.368	-0.327
-653.857	254.679	-0.081	-0.138
-652.843	14.191	0.168	-0.131
-651.828	-115.013	0.107	-0.020
-650.814	159.693	-0.177	0.248
-649.799	560.018	0.092	-0.223
-648.784	100.549	0.048	0.055
-647.770	-200.000	0.002	0.267
-646.755	-144.530	-0.133	0.012
-645.741	-130.558	-0.433	-0.059
-644.726	127.117	0.140	-0.178
-643.711	-200.000	-0.027	0.192
-642.697	-200.000	0.023	0.150
-641.682	17.987	0.124	-0.099
-640.668	40.467	-0.253	-0.228
-639.653	123.145	-0.081	0.102
-638.638	-92.227	-0.144	0.041
-637.624	321.641	-0.122	0.233
-636.609	436.043	-0.141	0.307
-635.595	-73.072	-0.280	0.103
-634.580	-200.000	0.014	0.062
-633.565	-165.976	-0.314	0.013
-632.551	78.098	0.107	0.114
-631.536	-61.817	0.161	0.068
-630.522	781.283	-0.078	0.215
-629.507	800.000	-0.016	0.059
-628.492	-75.091	-0.204	-0.073
-627.478	-167.355	-0.186	0.008
-626.463	-171.435	0.256	-0.009
-625.449	228.210	0.224	-0.366
-624.434	6.324	0.216	0.161
-623.419	-83.338	-0.238	0.076
-622.405	101.752	-0.187	-0.218
-621.390	-140.461	-0.386	-0.040
-620.376	-74.978	0.084	-0.030
-619.361	189.278	0.116	-0.174
-618.346	800.000	-0.027	0.082
-617.332	308.033	0.094	-0.176
-616.317	171.744	0.181	-0.261
-615.303	-49.956	-0.319	-0.152
-614.288	38.103	0.157	0.140
-613.273	739.875	0.034	0.092
-612.259	188.561	-0.095	0.142
-611.244	70.228	0.090	0.093
-610.230	-167.585	-0.181	-0.007
-609.215	247.830	-0.057	0.097
-608.201	-56.677	-0.024	-0.010
-607.186	-64.214	-0.083	-0.034
-606.171	196.146	0.040	0.062
-605.157	-83.771	-0.225	-0.072
-604.142	130.113	-0.319	-0.409
-603.128	116.810	0.118	-0.145
-602.113	-200.000	0.000	-0.069
-601.098	-200.000	0.029	0.250
-600.084	344.352	-0.092	0.180
-599.069	34.494	0.199	-0.174
-598.055	800.000	0.088	0.273
-597.040	352.774	-0.106	-0.210
-596.025	51.036	0.125	0.119
-595.011	-22.184	-0.073	-0.044
-593.996	-53.560	0.129	0.059
-592.982	-200.000	0.052	0.317
-591.967	176.542	0.041	-0.060
-590.952	-200.000	0.029	0.320
-589.938	-67.994	-0.225	-0.088
-588.923	-68.492	0.046	0.018
-587.909	255.305	-0.089	0.153
-586.894	45.802	0.114	-0.105
-585.879	-200.000	0.016	0.116
-584.865	103.196	0.091	0.107
-583.850	-162.828	-0.220	0.011
-582.836	51.209	0.164	0.156
-581.821	67.417	0.222	-0.226
-580.806	-200.000	0.032	0.158
-579.792	793.529	0.118	-0.324
-578.777	-118.787	0.102	0.018
-577.763	-111.541	-0.277	-0.056
-576.748	-18.396	-0.197	-0.123
-575.733	-200.000	-0.015	0.194
-574.719	44.860	-0.074	-0.068
-573.704	647.408	-0.103	-0.263
-572.690	-42.443	-0.060	0.031
-571.675	-18.184	-0.247	0.154
-570.661	272.405	0.071	-0.124
-569.646	367.280	-0.076	0.153
-568.631	430.832	0.097	0.211
-567.617	-19.648	-0.134	-0.083
-566.602	163.674	0.125	0.176
-565.588	-145.961	-0.163	0.014
-564.573	800.000	-0.063	0.218
-563.558	-185.558	-0.397	-0.006
-562.544	191.033	0.139	0.209
-561.529	592.796	-0.111	0.274
-560.515	-71.746	0.091	-0.034
-559.500	-71.340	-0.302	0.113
-558.485	280.778	0.054	0.096
-557.471	126.401	-0.209	0.264
-556.456	-101.998	0.189	0.045
-555.442	800.000	0.050	-0.205
-554.427	-82.221	-0.128	0.042
-553.412	154.436	0.241	-0.331
-552.398	19.558	0.193	-0.155
-551.383	800.000	0.023	0.080
-550.369	248.070	-0.127	-0.214
-549.354	-156.057	0.301	0.019
-548.339	-42.045	-0.066	0.034
-547.325	112.192	-0.114	-0.137
-546.310	-51.703	-0.211	0.098
-545.296	-200.000	-0.063	-0.430
-544.281	225.935	-0.137	0.222
-543.266	-144.658	0.110	0.010
-542.252	-113.631	-0.197	0.038
-541.237	10.205	-0.265	-0.201
-540.223	800.000	-0.074	0.319
-539.208	225.640	0.085	0.137
-538.193	116.686	0.111	-0.136
-537.179	-200.000	0.019	0.149
-536.164	311.935	0.096	0.180
-535.150	534.718	0.033	-0.077
-534.135	-200.000	0.043	0.213
-533.121	-89.369	0.181	-0.053
-532.106	-87.455	-0.309	0.093
-531.091	-200.000	0.012	0.082
-530.077	-41.104	-0.042	-0.021
-529.062	-11.815	0.152	-0.100
-528.048	325.228	0.057	-0.109
-527.033	-91.192	0.209	0.060
-526.018	203.096	-0.152	-0.234
-525.004	-200.000	0.028	-0.195
-523.989	-188.057	0.236	-0.003
-522.975	-67.182	-0.235	0.092
-521.960	800.000	-0.113	0.318
-520.945	-24.222	0.365	0.217
-519.931	157.140	0.125	0.172
-518.916	-200.000	0.372	-0.001
-517.902	-84.683	0.152	0.048
-516.887	124.968	-0.076	0.095
-515.872	325.921	0.133	-0.254
-514.858	800.000	0.022	-0.087
-513.843	230.004	-0.053	-0.086
-512.829	-133.606	-0.276	-0.035
-511.814	-151.897	-0.350	-0.026
-510.799	57.698	0.246	-0.240
-509.785	-76.945	0.170	0.059
-508.770	-149.751	-0.098	-0.008
-507.756	558.720	-0.098	-0.237
-506.741	327.802	-0.064	-0.122
-505.726	-109.118	0.035	0.007
-504.712	800.000	-0.095	-0.275
-503.697	-28.884	-0.158	0.090
-502.683	102.443	0.053	0.061
-501.668	-23.130	-0.210	0.126
-500.653	-200.000	-0.028	0.431
-499.639	378.828	-0.052	0.106
-498.624	9.745	-0.161	0.121
-497.610	45.821	-0.274	0.253
-496.595	-200.000	0.051	0.474
-495.581	800.000	-0.087	0.345
-494.566	-200.000	-0.013	-0.073
-493.551	-200.000	0.008	0.076
-492.537	9.154	0.158	-0.119
-491.522	800.000	0.015	-0.050
-490.508	27.001	-0.139	0.116
-489.493	-104.725	0.222	-0.051
-488.478	287.501	-0.129	0.233
-487.464	340.379	0.102	0.199
-486.449	479.610	0.029	-0.065
-485.435	146.922	0.057	0.076
-484.420	10.599	0.049	0.037
-483.405	-44.516	0.113	0.056
-482.391	-96.442	0.119	0.031
-481.376	-166.109	0.163	0.007
-480.362	257.533	0.075	0.128
-479.347	800.000	-0.051	-0.169
-478.332	-119.384	0.306	0.053
-477.318	-104.464	0.174	-0.040
-476.303	245.779	0.111	0.186
-475.289	422.656	0.057	-0.123
-474.274	-97.892	-0.329	0.085
-473.259	-127.548	-0.263	0.038
-472.245	-39.158	0.135	-0.071
-471.230	-147.641	0.176	0.015
-470.216	236.896	0.065	0.107
-469.201	217.745	0.111	0.177
-468.186	-200.000	0.002	0.274
-467.172	-200.000	0.022	0.133
-466.157	-200.000	0.023	0.141
-465.143	-200.000	0.025	0.237
-464.128	-103.902	-0.082	-0.019
-463.113	23.786	-0.129	-0.106
-462.099	-75.155	-0.072	-0.025
-461.084	19.531	0.220	-0.176
-460.070	157.670	0.126	0.174
-459.055	-200.000	-0.048	-0.374
-458.040	800.000	0.068	-0.195
-457.026	35.706	-0.137	0.120
-456.011	-61.578	-0.274	0.115
-454.997	-125.305	-0.185	0.028
-453.982	-200.000	-0.028	0.191
-452.968	-107.582	0.151	-0.033
-451.953	-22.024	0.184	-0.111
-450.938	800.000	-0.019	-0.070
-449.924	19.839	0.210	-0.168
-448.909	-200.000	0.056	-0.290
-447.895	17.531	0.234	0.185
-446.880	16.587	-0.200	-0.157
-445.865	121.560	0.104	-0.130
-444.851	-200.000	0.000	0.206
-443.836	-3.113	0.333	-0.231
-442.822	122.996	-0.227	-0.282
-441.807	-63.979	0.299	0.122
-440.792	242.718	-0.049	0.081
-439.778	299.153	-0.225	0.413
-438.763	414.107	0.055	-0.117
-437.749	-86.082	-0.366	0.112
-436.734	-98.925	-0.252	0.064
-435.719	-200.000	-0.004	0.218
-434.705	-160.167	0.191	-0.010
-433.690	800.000	0.036	-0.147
-432.676	712.435	-0.073	-0.193
-431.661	-24.875	-0.220	-0.130
-430.646	81.530	0.208	0.224
-429.632	-88.118	0.153	-0.045
-428.617	0.863	-0.158	-0.113
-427.603	-200.000	0.058	-0.327
-426.588	151.084	0.192	-0.259
-425.573	654.677	0.126	0.323
-424.559	-135.623	-0.272	-0.032
-423.544	166.540	-0.110	-0.155
-422.530	-133.812	0.200	0.025
-421.515	800.000	0.108	-0.355
-420.500	66.980	-0.193	-0.195
-419.486	-200.000	0.028	-0.338
-418.471	-23.021	-0.207	-0.124
-417.457	-124.178	-0.066	-0.010
-416.442	60.563	-0.072	0.070
-415.428	-200.000	0.032	0.156
-414.413	-200.000	0.070	-0.392
-413.398	8.172	0.249	-0.186
-412.384	-146.318	0.033	-0.003
-411.369	-23.996	-0.200	0.119
-410.355	89.395	-0.292	-0.324
-409.340	74.421	0.145	-0.151
-408.325	-26.569	0.274	-0.159
-407.311	499.897	0.077	0.175
-406.296	77.296	0.250	0.264
-405.282	800.000	0.088	0.311
-404.267	-85.386	-0.097	0.030
-403.252	565.769	-0.075	0.181
-402.238	-93.297	0.330	-0.091
-401.223	-152.936	0.075	-0.005
-400.209	-189.868	-0.163	-0.002
-399.194	-26.480	-0.126	-0.073
-398.179	-151.987	0.196	0.014
-397.165	-160.487	0.258	-0.014
-396.150	-73.725	0.343	-0.124
-395.136	-56.276	0.110	-0.049
-394.121	-9.159	-0.286	-0.190
-393.106	-200.000	0.023	-0.172
-392.092	-44.132	0.309	-0.154
-391.077	-138.804	-0.157	-0.017
-390.063	-47.563	-0.304	-0.147
-389.048	-151.317	0.093	0.007
-388.033	-11.480	0.057	0.037
-387.019	-94.948	-0.269	0.072
-386.004	-117.058	-0.104	-0.019
-384.990	-200.000	0.003	0.078
-383.975	251.967	0.218	-0.368
-382.960	227.522	-0.088	-0.143
-381.946	404.602	0.080	0.167
-380.931	463.121	0.160	-0.353
-379.917	-200.000	-0.046	0.262
-378.902	800.000	-0.064	0.238
-377.888	-54.187	0.288	0.130
-376.873	40.092	-0.168	-0.150
-375.858	-132.218	-0.203	-0.026
-374.844	101.934	0.115	-0.133
-373.829	-200.000	-0.030	-0.291
-372.815	101.876	-0.263	0.304
-371.800	800.000	-0.013	0.040
-370.785	96.997	-0.161	0.183
-369.771	-195.610	0.172	-0.001
-368.756	-200.000	0.045	0.325
-367.742	186.999	0.057	-0.084
-366.727	57.519	0.097	0.094
-365.712	-8.831	-0.004	-0.003
-364.698	-116.490	0.388	0.071
-363.683	-41.555	-0.292	0.149
-362.669	-200.000	-0.026	-0.380
-361.654	-155.960	0.119	0.008
-360.639	-200.000	0.006	-0.116
-359.625	-187.591	-0.221	0.003
-358.610	20.913	0.230	0.185
-357.596	-7.750	-0.168	0.113
-356.581	-200.000	-0.014	-0.154
-355.566	33.678	-0.158	0.136
-354.552	-120.204	0.104	0.018
-353.537	43.415	0.142	0.129
-352.523	33.813	-0.188	0.162
-351.508	551.200	-0.087	0.208
-350.493	-200.000	0.005	-0.136
-349.479	442.856	-0.131	0.284
-348.464	800.000	0.030	0.101
-347.450	-12.442	0.232	0.150
-346.435	15.740	0.083	0.065
-345.420	361.296	0.046	-0.091
-344.406	-200.000	0.035	-0.278
-343.391	533.705	0.039	0.091
-342.377	-99.450	0.126	-0.031
-341.362	-114.853	-0.177	-0.033
-340.348	-200.000	-0.001	0.091
-339.333	14.868	0.176	0.136
-338.318	800.000	-0.070	0.235
-337.304	-200.000	0.060	0.370
-336.289	-57.669	-0.309	-0.134
-335.275	-65.888	0.276	0.109
-334.260	710.222	-0.068	-0.178
-333.245	-200.000	0.009	-0.053
-332.231	540.494	-0.043	0.102
-331.216	-11.203	0.092	0.060
-330.202	571.533	-0.113	0.272
-329.187	-70.892	-0.301	-0.112
-328.172	-200.000	0.030	-0.329
-327.158	800.000	0.070	-0.214
-326.143	-200.000	0.031	-0.165
-325.129	-111.514	0.151	0.030
-324.114	90.476	-0.153	0.170
-323.099	123.822	0.051	0.064
-322.085	534.834	-0.049	0.115
-321.070	35.351	0.198	0.172
-320.056	117.398	-0.237	0.289
-319.041	800.000	-0.053	0.165
-318.026	248.928	-0.078	0.130
-317.012	-44.512	-0.111	-0.055
-315.997	-11.268	-0.074	-0.048
-314.983	-124.381	0.436	-0.067
-313.968	-88.154	0.405	0.120
-312.953	108.264	-0.223	0.263
-311.939	342.917	0.056	-0.109
-310.924	-86.355	-0.323	0.098
-309.910	7.284	-0.209	0.154
-308.895	-200.000	-0.038	-0.260
-307.880	622.605	-0.052	-0.129
-306.866	122.835	-0.134	-0.166
-305.851	-120.762	0.220	0.037
-304.837	305.545	-0.147	-0.270
-303.822	-41.875	0.327	-0.166
-302.807	12.620	0.063	-0.048
-301.793	-43.710	-0.157	-0.078
-300.778	55.040	-0.287	-0.274
-299.764	-166.744	-0.162	-0.007
-298.749	5.348	-0.317	0.231
-297.735	-87.628	-0.292	0.087
-296.720	488.609	0.160	-0.361
-295.705	-48.822	0.360	0.171
-294.691	50.134	-0.060	-0.056
-293.676	-158.226	0.092	-0.005
-292.662	-66.254	0.103	-0.040
-291.647	-76.151	0.291	-0.102
-290.632	-94.999	0.168	0.045
-289.618	800.000	0.042	0.173
-288.603	-98.358	0.106	-0.027
-287.589	-149.120	-0.337	0.027
-286.574	145.592	0.191	-0.253
-285.559	-41.035	-0.118	0.060
-284.545	-200.000	-0.059	0.353
-283.530	42.350	-0.195	0.175
-282.516	285.866	-0.067	-0.119
-281.501	231.588	-0.006	-0.009
-280.486	-58.421	0.372	0.160
-279.472	-200.000	0.003	0.189
-278.457	117.904	-0.061	-0.074
-277.443	-28.714	-0.310	0.176
-276.428	-77.884	0.193	-0.066
-275.413	31.598	0.239	0.203
-274.399	800.000	-0.045	-0.159
-273.384	800.000	0.052	-0.194
-272.370	-112.805	-0.108	-0.021
-271.355	-175.350	-0.195	-0.005
-270.340	16.808	0.206	-0.161
-269.326	345.703	-0.153	-0.297
-268.311	38.459	0.286	-0.252
-267.297	-65.962	-0.242	-0.096
-266.282	-64.577	0.100	-0.040
-265.267	800.000	0.104	-0.333
-264.253	-80.914	-0.166	0.054
-263.238	615.725	-0.049	0.122
-262.224	150.648	-0.170	0.228
-261.209	-116.035	0.221	0.041
-260.195	800.000	-0.052	-0.150
-259.180	45.471	0.111	-0.101
-258.165	72.235	0.055	-0.056
-257.151	-79.561	-0.317	-0.106
-256.136	-118.619	-0.093	-0.016
-255.122	800.000	-0.041	-0.149
-254.107	58.506	-0.071	-0.069
-253.092	800.000	-0.038	-0.106
-252.078	-54.881	-0.147	0.065
-251.063	-200.000	-0.042	-0.255
-250.049	40.938	0.246	0.219
-249.034	23.647	0.121	-0.098
-248.019	4.020	0.128	-0.093
-247.005	800.000	-0.070	-0.257
-245.990	-81.007	0.377	0.123
-244.976	-66.082	-0.374	-0.147
-243.961	-108.651	0.340	0.072
-242.946	-179.588	0.257	0.006
-241.932	-109.571	-0.173	-0.036
-240.917	192.628	0.122	0.181
-239.903	-200.000	0.003	0.033
-238.888	-61.213	0.084	-0.035
-237.873	402.108	0.185	-0.383
-236.859	-143.333	0.257	-0.024
-235.844	-98.259	0.108	0.027
-234.830	-59.156	0.260	0.111
-233.815	2.161	0.037	-0.026
-232.800	800.000	-0.096	0.356
-231.786	783.497	-0.091	0.245
-230.771	-64.272	0.036	-0.015
-229.757	-200.000	-0.025	-0.168
-228.742	8.039	0.077	0.057
-227.727	-124.617	0.097	0.015
-226.713	-52.197	-0.173	-0.079
-225.698	-200.000	0.061	-0.325
-224.684	-200.000	-0.019	-0.112
-223.669	-53.636	0.184	0.083
-222.655	-25.329	0.185	0.108
-221.640	-152.930	0.152	-0.011
-220.625	800.000	0.106	-0.301
-219.611	21.551	0.315	0.253
-218.596	800.000	-0.046	-0.151
-217.582	11.941	-0.309	0.234
-216.567	-200.000	-0.012	0.191
-215.552	108.511	-0.168	0.197
-214.538	-200.000	-0.038	0.263
-213.523	-112.122	-0.154	-0.030
-212.509	-22.826	0.263	0.157
-211.494	-104.402	-0.132	0.030
-210.479	221.839	0.054	-0.085
-209.465	-88.198	0.127	-0.037
-208.450	43.089	0.160	-0.144
-207.436	-200.000	0.019	0.088
-206.421	91.807	0.117	-0.130
-205.406	-72.272	0.157	-0.057
-204.392	-31.661	0.076	-0.042
-203.377	324.338	-0.079	-0.149
-202.363	-141.052	-0.180	0.018
-201.348	33.363	0.100	-0.085
-200.333	-101.392	-0.071	-0.017
-199.319	800.000	0.012	-0.040
-198.304	-108.454	0.156	0.033
-197.290	655.536	0.035	0.088
-196.275	232.550	-0.014	-0.023
-195.260	-6.817	0.110	0.074
-194.246	115.456	0.084	-0.102
-193.231	-28.435	-0.191	0.109
-192.217	-57.404	-0.163	0.070
-191.202	108.264	-0.080	-0.094
-190.187	-120.286	-0.048	-0.008
-189.173	302.545	-0.031	0.056
-188.158	202.205	-0.191	-0.290
-187.144	314.463	-0.060	0.111
-186.129	550.149	-0.153	-0.361
-185.114	-200.000	-0.007	0.122
-184.100	-200.000	-0.009	0.173
-183.085	-34.376	0.165	-0.089
-182.071	222.104	0.194	-0.308
-181.056	-72.954	-0.189	0.068
-180.042	-71.198	0.194	0.072
-179.027	309.903	-0.121	0.222
-178.012	38.483	-0.150	0.132
-176.998	-200.000	-0.005	-0.091
-175.983	-46.835	-0.201	-0.097
-174.969	-73.947	-0.459	-0.164
-173.954	-166.928	0.339	0.014
-172.939	35.515	0.258	0.223
-171.925	224.691	0.144	-0.230
-170.910	184.071	0.233	-0.339
-169.896	-200.000	0.002	-0.031
-168.881	141.081	-0.242	0.315
-167.866	-13.722	-0.145	0.093
-166.852	110.630	-0.077	-0.091
-165.837	102.056	-0.182	-0.210
-164.823	71.171	-0.125	-0.128
-163.808	-64.204	-0.151	-0.060
-162.793	35.465	0.262	-0.227
-161.779	-59.534	0.282	-0.119
-160.764	-93.132	-0.203	0.056
-159.750	142.571	-0.107	-0.140
-158.735	724.610	-0.123	-0.322
-157.720	-25.717	0.168	0.097
-156.706	68.277	0.205	-0.206
-155.691	-200.000	0.009	-0.167
-154.677	151.686	-0.072	0.097
-153.662	103.355	-0.214	0.247
-152.647	16.446	0.397	-0.308
-151.633	-100.094	0.088	-0.021
-150.618	14.505	-0.144	0.111
-149.604	741.063	-0.035	0.092
-148.589	65.738	0.258	0.257
-147.574	336.746	-0.026	0.049
-146.560	596.046	0.121	0.294
-145.545	-200.000	-0.081	0.419
-144.531	37.386	0.179	0.156
-143.516	38.246	-0.070	0.062
-142.502	-132.881	0.464	0.058
-141.487	231.864	0.126	0.203
-140.472	744.121	-0.012	0.033
-139.458	-39.623	0.234	-0.121
-138.443	-200.000	0.004	0.078
-137.429	-32.236	0.201	-0.110
-136.414	-6.874	0.159	-0.106
-135.399	384.251	-0.087	0.177
-134.385	29.501	0.148	-0.123
-133.370	153.502	-0.123	0.166
-132.356	14.508	0.019	0.015
-131.341	-200.000	-0.004	-0.194
-130.326	-200.000	-0.038	-0.252
-129.312	-98.940	0.490	0.122
-128.297	-87.266	0.152	0.045
-127.283	-18.537	0.178	0.109
-126.268	339.037	-0.067	-0.129
-125.253	-12.238	0.260	0.167
-124.239	-37.443	0.149	-0.078
-123.224	-61.363	-0.152	0.063
-122.210	-42.543	-0.093	-0.047
-121.195	-178.759	-0.157	-0.004
-120.180	40.562	-0.113	0.100
