DTS Sentinel unit serial number:	SN413079Multiplexer serial number:	ORYXHardware model number:	OX4-SRSoftware version number:	ORYX F/W v4.00 Oryx Data Collector v3.7.2.0data status	okinstallation	princeton_trtdifferential loss correction	single-endedforward channel	channel 3reverse channel	N/Adate	2019/09/11time	13:02:11forward acquisition time	60.00reverse acquisition time	0.00gamma	496.2192k internal	0.2293k external	0.2293temperature offset calibration	0.9932default loss term (dB/km)	0.3790temperature slope calibration	1.0000multiplexer offset coefficient	1.0000multiplexer slope coefficient	1.0000fibre end	0.00T internal ref (°C)	41.62T ext. ref 1 (°C)	0.25T ext. ref 2 (°C)	38.94length (m)	temperature (°C)	Stokes	anti-Stokes-747.200	800.000	0.070	-0.275
-746.185	169.352	0.232	0.339
-745.171	-200.000	-0.076	0.346
-744.156	-200.000	0.029	0.167
-743.142	269.616	-0.083	-0.150
-742.127	-200.000	0.013	0.063
-741.112	-40.285	0.196	-0.104
-740.098	-200.000	0.043	-0.287
-739.083	86.753	0.351	-0.396
-738.069	-1.923	-0.063	-0.045
-737.054	108.590	-0.130	-0.158
-736.039	-99.782	-0.225	0.058
-735.025	28.018	-0.060	0.052
-734.010	347.315	-0.216	-0.435
-732.996	-132.606	0.251	-0.033
-731.981	-115.464	-0.361	0.069
-730.966	-57.749	-0.105	0.047
-729.952	-200.000	0.191	-0.000
-728.937	-200.000	-0.006	0.231
-727.923	94.582	0.038	-0.044
-726.908	-31.576	-0.253	-0.145
-725.894	23.698	-0.133	0.112
-724.879	-200.000	-0.032	-0.265
-723.864	19.260	-0.194	0.159
-722.850	800.000	-0.032	-0.111
-721.835	-200.000	-0.044	-0.333
-720.821	-41.936	-0.343	-0.180
-719.806	-54.166	-0.103	-0.048
-718.791	-50.844	-0.312	0.150
-717.777	-200.000	0.046	0.241
-716.762	-82.970	-0.289	0.095
-715.748	-122.653	-0.253	-0.042
-714.733	-76.873	-0.230	0.082
-713.718	-55.455	-0.168	0.077
-712.704	-134.329	0.157	-0.020
-711.689	275.345	0.067	0.122
-710.675	-136.816	0.248	0.029
-709.660	-97.912	-0.242	-0.064
-708.645	-200.000	0.030	0.319
-707.631	-76.167	0.196	0.070
-706.616	-113.063	-0.422	-0.085
-705.602	-200.000	-0.013	0.122
-704.587	579.505	-0.064	-0.160
-703.572	116.272	0.142	0.177
-702.558	-200.000	0.030	-0.248
-701.543	-48.076	-0.163	-0.080
-700.529	-108.859	-0.365	-0.080
-699.514	-32.893	0.099	0.056
-698.499	-200.000	0.033	0.498
-697.485	-200.000	-0.001	0.116
-696.470	-73.805	-0.107	-0.040
-695.456	800.000	-0.007	-0.023
-694.441	800.000	-0.071	-0.223
-693.426	800.000	-0.075	-0.230
-692.412	800.000	0.095	0.387
-691.397	800.000	0.087	0.252
-690.383	-94.269	-0.261	0.073
-689.368	-89.716	-0.113	-0.034
-688.354	-156.097	-0.165	0.011
-687.339	800.000	-0.091	0.269
-686.324	59.533	0.268	0.269
-685.310	-200.000	-0.021	0.153
-684.295	135.016	-0.257	0.340
-683.281	800.000	-0.048	0.179
-682.266	-200.000	-0.011	-0.091
-681.251	525.704	-0.102	-0.246
-680.237	796.200	0.057	0.162
-679.222	-75.848	0.293	-0.106
-678.208	-156.328	-0.242	-0.015
-677.193	76.960	0.207	-0.224
-676.178	63.012	0.280	-0.286
-675.164	800.000	0.041	0.164
-674.149	-58.838	0.201	0.089
-673.135	-200.000	-0.077	-0.431
-672.120	-29.006	-0.425	-0.249
-671.105	-100.195	0.349	0.088
-670.091	-200.000	0.000	-0.035
-669.076	140.748	0.051	0.069
-668.062	111.418	-0.144	0.177
-667.047	800.000	-0.055	0.175
-666.032	800.000	0.084	-0.359
-665.018	800.000	-0.076	0.313
-664.003	-200.000	0.006	-0.248
-662.989	6.214	0.088	0.067
-661.974	-54.893	-0.019	0.009
-660.959	-151.832	0.166	-0.012
-659.945	-128.074	0.350	0.051
-658.930	-200.000	0.034	0.246
-657.916	-37.788	-0.334	-0.181
-656.901	76.944	-0.103	0.111
-655.886	800.000	0.143	-0.435
-654.872	308.449	0.114	-0.217
-653.857	-200.000	0.004	-0.301
-652.843	-69.084	0.114	0.045
-651.828	-180.999	-0.588	-0.012
-650.814	68.886	-0.124	-0.129
-649.799	-18.677	0.086	0.054
-648.784	31.651	0.194	0.170
-647.770	800.000	-0.039	-0.138
-646.755	195.677	0.046	0.072
-645.741	210.406	-0.150	-0.241
-644.726	-169.695	0.160	-0.006
-643.711	383.695	0.040	-0.085
-642.697	160.373	-0.087	-0.123
-641.682	-113.425	0.164	0.033
-640.668	-45.647	-0.215	-0.108
-639.653	10.678	0.184	0.143
-638.638	800.000	-0.037	0.160
-637.624	242.870	0.086	0.146
-636.609	800.000	0.130	-0.427
-635.595	-87.009	0.388	-0.120
-634.580	800.000	-0.039	-0.115
-633.565	-200.000	0.053	0.318
-632.551	-95.451	-0.236	-0.065
-631.536	-200.000	0.052	0.327
-630.522	-200.000	-0.053	-0.250
-629.507	17.112	-0.220	0.177
-628.492	7.972	0.183	0.140
-627.478	-200.000	-0.037	-0.252
-626.463	800.000	0.005	0.019
-625.449	-134.188	-0.170	-0.021
-624.434	-200.000	0.028	-0.278
-623.419	800.000	-0.030	0.116
-622.405	69.632	-0.152	0.160
-621.390	-88.960	-0.323	-0.097
-620.376	451.569	0.108	0.242
-619.361	-48.856	0.088	-0.043
-618.346	-109.318	0.201	-0.043
-617.332	-82.522	-0.196	-0.065
-616.317	82.901	0.070	-0.078
-615.303	800.000	-0.069	-0.230
-614.288	-127.572	-0.074	0.011
-613.273	-5.990	0.099	-0.069
-612.259	-98.701	-0.121	-0.031
-611.244	-200.000	-0.022	-0.331
-610.230	-200.000	-0.022	-0.293
-609.215	-200.000	-0.045	-0.328
-608.201	-114.903	-0.110	0.021
-607.186	150.423	-0.035	0.049
-606.171	-134.602	-0.227	-0.028
-605.157	-44.415	0.273	0.139
-604.142	-200.000	0.034	-0.295
-603.128	-68.619	-0.086	-0.034
-602.113	18.995	-0.212	-0.173
-601.098	800.000	0.098	0.310
-600.084	-66.349	-0.458	-0.185
-599.069	341.531	-0.104	-0.206
-598.055	-152.580	-0.078	0.006
-597.040	800.000	-0.097	0.362
-596.025	96.408	0.070	0.081
-595.011	406.884	-0.046	-0.098
-593.996	-82.922	-0.195	-0.064
-592.982	-45.590	-0.187	-0.094
-591.967	69.657	0.127	0.133
-590.952	98.443	-0.281	-0.330
-589.938	492.804	0.036	-0.084
-588.923	244.955	-0.102	0.174
-587.909	753.191	-0.061	0.167
-586.894	-45.293	0.142	-0.072
-585.879	1.170	0.081	0.059
-584.865	409.304	0.101	0.218
-583.850	52.479	0.216	0.210
-582.836	800.000	0.057	-0.238
-581.821	-121.170	0.277	-0.047
-580.806	-78.455	0.120	0.042
-579.792	-70.945	0.393	-0.151
-578.777	-54.457	0.095	0.044
-577.763	19.167	0.092	0.075
-576.748	-200.000	0.018	-0.139
-575.733	-67.676	-0.284	-0.113
-574.719	361.512	-0.015	-0.030
-573.704	193.212	-0.113	0.174
-572.690	120.141	-0.105	0.133
-571.675	74.983	0.185	0.198
-570.661	-110.953	-0.125	0.026
-569.646	47.450	-0.162	0.153
-568.631	80.293	-0.165	0.181
-567.617	110.407	0.210	0.257
-566.602	47.922	0.146	-0.139
-565.588	0.358	0.300	-0.218
-564.573	500.106	-0.115	-0.270
-563.558	-73.101	-0.153	0.057
-562.544	-68.529	-0.302	0.119
-561.529	51.692	-0.026	-0.025
-560.515	-2.549	0.286	-0.204
-559.500	20.782	0.210	0.173
-558.485	11.602	-0.075	-0.058
-557.471	-47.233	-0.203	-0.100
-556.456	96.148	-0.021	0.025
-555.442	-19.876	0.229	-0.144
-554.427	-0.372	-0.230	-0.166
-553.412	-127.875	-0.297	0.043
-552.398	303.855	0.092	-0.172
-551.383	-50.971	-0.078	0.037
-550.369	131.799	-0.171	0.223
-549.354	-152.201	0.058	-0.004
-548.339	459.508	-0.129	0.292
-547.325	-144.909	0.217	-0.020
-546.310	-72.122	0.349	-0.132
-545.296	-82.773	-0.476	-0.156
-544.281	-123.080	-0.251	-0.041
-543.266	59.219	-0.154	0.154
-542.252	-77.820	0.141	0.049
-541.237	-158.253	0.171	0.010
-540.223	137.376	-0.259	0.344
-539.208	-200.000	-0.020	-0.346
-538.193	-9.824	-0.118	-0.080
-537.179	146.309	-0.304	-0.413
-536.164	-44.324	-0.297	-0.151
-535.150	204.746	-0.029	-0.046
-534.135	37.915	0.227	-0.205
-533.121	-75.109	0.032	0.012
-532.106	-149.513	0.359	-0.029
-531.091	1.156	-0.063	-0.046
-530.077	-163.051	-0.240	-0.012
-529.062	-184.387	0.145	0.002
-528.048	-15.592	0.210	0.136
-527.033	-37.011	0.083	-0.045
-526.018	-66.063	-0.293	0.119
-525.004	-78.790	-0.308	0.107
-523.989	89.062	-0.151	-0.170
-522.975	-200.000	-0.026	0.155
-521.960	-82.282	0.275	0.091
-520.945	145.975	-0.100	0.136
-519.931	20.441	0.268	-0.220
-518.916	73.401	-0.232	-0.247
-517.902	-138.470	-0.239	0.027
-516.887	-65.344	0.106	0.043
-515.872	-200.000	0.053	-0.248
-514.858	-200.000	0.007	0.062
-513.843	-118.532	0.182	-0.033
-512.829	-114.829	-0.115	-0.022
-511.814	-180.667	-0.373	-0.008
-510.799	-200.000	0.056	0.262
-509.785	79.262	-0.151	0.164
-508.770	147.958	0.106	0.144
-507.756	92.117	-0.100	0.114
-506.741	-200.000	-0.033	-0.231
-505.726	-123.155	0.218	-0.035
-504.712	174.633	-0.037	-0.054
-503.697	-195.177	0.094	0.001
-502.683	215.253	-0.217	-0.348
-501.668	358.857	-0.141	-0.286
-500.653	-200.000	-0.009	0.127
-499.639	50.061	-0.080	-0.076
-498.624	-115.285	-0.270	0.052
-497.610	232.334	-0.123	0.204
-496.595	193.762	-0.094	0.144
-495.581	257.978	0.077	-0.134
-494.566	-153.572	0.161	0.011
-493.551	-87.073	0.137	0.042
-492.537	-47.081	0.448	-0.221
-491.522	1.792	0.289	0.211
-490.508	800.000	0.075	0.331
-489.493	146.206	0.174	-0.237
-488.478	10.315	-0.154	0.119
-487.464	-163.476	0.376	0.018
-486.449	86.821	-0.187	-0.209
-485.435	-122.870	0.091	-0.015
-484.420	-200.000	0.033	0.260
-483.405	-185.907	0.100	-0.002
-482.391	-200.000	0.000	-0.154
-481.376	-4.584	0.294	0.206
-480.362	-117.582	0.179	-0.033
-479.347	771.840	0.068	0.187
-478.332	-200.000	-0.015	0.127
-477.318	-174.638	0.231	0.007
-476.303	-98.988	0.243	0.062
-475.289	733.238	-0.084	0.227
-474.274	-29.251	-0.389	-0.225
-473.259	800.000	-0.029	0.098
-472.245	202.855	0.127	-0.199
-471.230	54.081	0.107	-0.104
-470.216	-55.053	-0.095	0.043
-469.201	-42.325	-0.355	0.184
-468.186	-81.579	-0.352	0.117
-467.172	-9.004	-0.109	-0.074
-466.157	-61.200	-0.144	0.061
-465.143	363.847	0.174	-0.354
-464.128	-200.000	-0.014	0.143
-463.113	-56.782	-0.174	0.078
-462.099	24.595	0.195	-0.163
-461.084	-182.827	0.104	0.002
-460.070	90.039	-0.132	-0.149
-459.055	-200.000	0.002	-0.030
-458.040	-131.806	0.228	0.030
-457.026	46.117	-0.218	0.204
-456.011	-200.000	-0.001	0.069
-454.997	275.916	0.165	0.296
-453.982	-200.000	-0.008	-0.100
-452.968	800.000	0.016	-0.062
-451.953	55.953	-0.134	-0.131
-450.938	91.567	-0.190	0.216
-449.924	-200.000	-0.017	-0.157
-448.909	-119.922	0.131	-0.023
-447.895	-90.487	0.233	0.068
-446.880	89.977	-0.135	-0.153
-445.865	-67.548	-0.202	-0.080
-444.851	212.447	-0.223	-0.356
-443.836	-200.000	0.006	0.083
-442.822	-48.857	-0.220	0.107
-441.807	800.000	-0.096	0.388
-440.792	566.331	-0.054	-0.132
-439.778	-134.435	0.117	-0.015
-438.763	800.000	-0.009	0.034
-437.749	-75.879	0.109	-0.039
-436.734	-200.000	0.040	0.200
-435.719	-73.392	0.246	-0.091
-434.705	-64.912	-0.273	0.112
-433.690	-53.091	-0.359	-0.167
-432.676	-55.514	-0.262	-0.119
-431.661	126.479	0.119	0.152
-430.646	-67.832	-0.269	-0.106
-429.632	7.687	0.121	0.091
-428.617	-12.940	0.154	0.101
-427.603	-15.164	-0.188	0.121
-426.588	105.810	-0.307	-0.367
-425.573	800.000	-0.075	0.250
-424.559	423.885	-0.101	-0.218
-423.544	228.402	-0.009	-0.014
-422.530	-1.322	0.332	0.237
-421.515	-34.328	-0.119	-0.066
-420.500	-58.788	0.072	-0.031
-419.486	137.253	0.105	0.139
-418.471	-157.993	-0.194	0.012
-417.457	83.031	0.192	0.211
-416.442	-158.724	-0.277	-0.016
-415.428	-174.032	0.291	0.009
-414.413	143.840	0.028	-0.038
-413.398	-200.000	-0.033	-0.237
-412.384	-161.203	-0.166	0.009
-411.369	77.498	0.150	-0.162
-410.355	151.055	-0.290	-0.399
-409.340	-200.000	0.065	-0.320
-408.325	-200.000	0.017	-0.119
-407.311	-200.000	0.026	-0.135
-406.296	230.050	0.039	0.064
-405.282	-60.381	-0.161	0.069
-404.267	-39.165	0.049	-0.026
-403.252	5.192	-0.180	0.134
-402.238	223.408	-0.043	0.069
-401.223	-200.000	-0.019	-0.246
-400.209	592.031	-0.126	-0.315
-399.194	-82.768	-0.222	0.073
-398.179	157.356	0.244	-0.340
-397.165	162.312	0.128	0.182
-396.150	18.904	0.113	-0.092
-395.136	-200.000	0.004	-0.092
-394.121	63.220	-0.163	-0.165
-393.106	-56.110	-0.220	-0.099
-392.092	157.640	-0.250	0.350
-391.077	209.858	0.111	-0.175
-390.063	-198.417	-0.441	-0.003
-389.048	721.378	-0.053	-0.143
-388.033	-145.205	0.095	0.009
-387.019	-85.512	0.091	0.029
-386.004	45.723	-0.023	-0.022
-384.990	23.041	0.151	-0.125
-383.975	196.994	0.116	0.178
-382.960	3.419	0.305	0.224
-381.946	-200.000	0.036	0.221
-380.931	-200.000	0.000	-0.186
-379.917	-47.801	-0.236	0.115
-378.902	189.676	0.049	-0.073
-377.888	666.684	0.073	0.192
-376.873	-54.022	0.213	-0.098
-375.858	-50.991	0.295	0.139
-374.844	-200.000	-0.030	0.203
-373.829	123.353	-0.090	0.114
-372.815	-200.000	0.041	-0.214
-371.800	-200.000	0.015	-0.108
-370.785	-40.782	0.294	-0.153
-369.771	293.904	0.161	-0.297
-368.756	667.160	-0.070	0.183
-367.742	-25.067	-0.038	0.023
-366.727	-67.110	-0.084	-0.033
-365.712	-16.670	-0.377	-0.240
-364.698	-156.570	0.426	-0.027
-363.683	12.451	0.144	0.112
-362.669	-15.716	-0.150	0.096
-361.654	256.998	-0.083	0.144
-360.639	510.423	-0.086	0.201
-359.625	-200.000	0.024	0.117
-358.610	11.073	-0.089	-0.068
-357.596	-144.105	0.192	-0.018
-356.581	-43.343	0.266	0.135
-355.566	-180.952	-0.111	-0.002
-354.552	-128.158	-0.035	-0.005
-353.537	-119.327	0.170	0.030
-352.523	-17.571	-0.121	-0.076
-351.508	5.865	-0.182	0.136
-350.493	-26.927	-0.133	-0.078
-349.479	-200.000	0.003	-0.243
-348.464	-79.329	-0.321	-0.110
-347.450	-200.000	-0.013	-0.098
-346.435	-54.906	-0.198	-0.090
-345.420	-123.262	0.204	0.033
-344.406	106.316	-0.072	-0.086
-343.391	132.244	-0.129	-0.167
-342.377	-137.704	-0.176	0.020
-341.362	-99.446	0.178	0.045
-340.348	41.926	-0.116	0.106
-339.333	58.434	0.104	0.103
-338.318	267.546	-0.038	-0.067
-337.304	176.195	-0.223	0.326
-336.289	48.619	-0.047	-0.045
-335.275	-200.000	-0.035	-0.234
-334.260	-127.432	0.190	0.028
-333.245	69.333	-0.060	-0.062
-332.231	179.474	-0.127	0.188
-331.216	589.886	0.140	0.346
-330.202	-151.791	-0.349	-0.026
-329.187	-107.981	-0.403	-0.088
-328.172	-166.691	0.149	-0.006
-327.158	800.000	0.058	0.171
-326.143	-200.000	0.006	-0.136
-325.129	-0.416	0.097	-0.070
-324.114	-58.762	-0.196	0.085
-323.099	-200.000	0.016	-0.328
-322.085	-86.481	-0.218	0.067
-321.070	-200.000	0.009	-0.133
-320.056	-6.218	-0.128	0.088
-319.041	-19.901	0.127	0.079
-318.026	299.762	0.221	0.409
-317.012	-42.895	0.057	0.029
-315.997	-200.000	0.010	-0.173
-314.983	-51.388	0.516	-0.243
-313.968	-55.074	-0.238	-0.108
-312.953	-131.146	0.099	-0.013
-311.939	254.013	0.264	-0.454
-310.924	-200.000	-0.026	0.121
-309.910	-200.000	-0.028	0.159
-308.895	800.000	-0.027	0.109
-307.880	800.000	-0.027	0.104
-306.866	800.000	-0.030	0.114
-305.851	205.155	0.220	-0.344
-304.837	-172.240	-0.383	-0.012
-303.822	390.850	0.159	0.331
-302.807	-102.651	-0.257	-0.062
-301.793	-56.357	0.262	0.117
-300.778	-120.682	-0.076	-0.013
-299.764	-36.545	0.206	-0.111
-298.749	-78.886	0.342	0.117
-297.735	-3.123	-0.091	-0.064
-296.720	-102.854	0.093	-0.022
-295.705	-200.000	-0.046	-0.252
-294.691	285.780	0.171	-0.311
-293.676	322.301	-0.081	-0.155
-292.662	800.000	0.005	0.017
-291.647	183.478	-0.081	-0.121
-290.632	-92.415	-0.170	0.048
-289.618	800.000	-0.022	-0.068
-288.603	-133.626	-0.192	0.024
-287.589	-26.259	0.193	0.114
-286.574	286.684	0.128	-0.232
-285.559	-200.000	-0.004	0.033
-284.545	-200.000	0.006	0.097
-283.530	478.524	0.067	0.152
-282.516	-42.819	-0.252	0.129
-281.501	-109.348	0.028	-0.006
-280.486	234.736	-0.072	0.119
-279.472	165.808	0.177	-0.252
-278.457	-200.000	0.010	-0.229
-277.443	800.000	-0.051	0.224
-276.428	800.000	0.068	0.232
-275.413	-26.391	0.166	0.098
-274.399	-103.271	-0.150	-0.035
-273.384	800.000	0.038	-0.164
-272.370	-200.000	-0.003	0.231
-271.355	800.000	0.047	-0.137
-270.340	-30.930	0.081	-0.046
-269.326	83.990	0.226	0.248
-268.311	82.145	0.129	-0.140
-267.297	388.408	0.064	0.134
-266.282	-121.949	-0.065	0.011
-265.267	-153.210	-0.157	0.011
-264.253	0.694	0.108	0.077
-263.238	-97.910	-0.318	-0.082
-262.224	800.000	0.087	-0.307
-261.209	-200.000	0.059	-0.497
-260.195	33.723	0.063	-0.055
-259.180	351.392	0.083	0.164
-258.165	-100.563	-0.182	0.045
-257.151	-112.882	0.265	-0.053
-256.136	-24.356	-0.231	0.138
-255.122	800.000	-0.095	-0.355
-254.107	22.679	0.135	0.111
-253.092	-6.422	0.152	0.104
-252.078	-200.000	0.008	0.284
-251.063	-200.000	-0.027	0.153
-250.049	-114.932	-0.013	-0.002
-249.034	75.778	0.183	-0.194
-248.019	291.739	0.051	0.093
-247.005	-200.000	0.022	-0.106
-245.990	-66.473	0.347	0.138
-244.976	-200.000	-0.030	-0.187
-243.961	-40.903	0.307	0.159
-242.946	-200.000	0.014	0.228
-241.932	-45.666	0.285	0.142
-240.917	90.511	-0.075	0.084
-239.903	33.935	-0.117	-0.102
-238.888	688.730	-0.093	0.244
-237.873	-52.491	-0.158	0.073
-236.859	-155.256	-0.177	-0.012
-235.844	-200.000	-0.021	0.344
-234.830	-37.020	0.275	0.148
-233.815	-88.942	-0.100	-0.030
-232.800	260.209	-0.129	0.223
-231.786	-144.038	-0.245	-0.023
-230.771	-111.918	0.033	0.007
-229.757	-109.534	0.284	0.060
-228.742	40.054	-0.175	0.157
-227.727	50.834	-0.091	0.086
-226.713	-141.245	-0.054	-0.005
-225.698	421.830	0.070	-0.151
-224.684	165.250	-0.031	0.044
-223.669	111.709	0.248	-0.300
-222.655	800.000	-0.072	0.276
-221.640	-13.330	0.333	0.216
-220.625	-109.280	0.256	0.054
-219.611	800.000	-0.080	-0.246
-218.596	425.384	0.030	-0.064
-217.582	106.595	0.073	0.086
-216.567	8.332	-0.138	0.104
-215.552	13.923	0.273	0.213
-214.538	249.015	0.120	0.203
-213.523	236.599	0.196	-0.325
-212.509	-200.000	-0.056	-0.000
-211.494	77.579	0.058	-0.061
-210.479	-118.825	-0.275	-0.048
-209.465	-15.224	0.203	-0.130
-208.450	-31.302	0.229	0.129
-207.436	-70.865	0.303	0.114
-206.421	71.580	-0.159	0.165
-205.406	-200.000	0.017	-0.153
-204.392	800.000	0.028	0.110
-203.377	261.423	0.199	0.346
-202.363	-200.000	0.014	0.465
-201.348	136.486	-0.021	-0.027
-200.333	127.131	0.157	0.199
-199.319	-41.592	0.133	0.068
-198.304	20.515	0.103	0.083
-197.290	-166.854	0.483	-0.020
-196.275	-78.833	0.336	-0.115
-195.260	-37.056	0.225	-0.121
-194.246	-124.535	0.280	0.044
-193.231	800.000	0.111	-0.350
-192.217	186.834	0.297	-0.443
-191.202	-155.364	-0.183	-0.012
-190.187	800.000	-0.029	-0.110
-189.173	-155.492	0.198	-0.013
-188.158	296.212	0.109	0.200
-187.144	-180.714	0.110	-0.002
-186.129	-200.000	-0.019	0.103
-185.114	-200.000	0.000	-0.165
-184.100	800.000	-0.074	0.278
-183.085	-145.695	0.221	0.020
-182.071	-200.000	0.005	-0.150
-181.056	143.269	-0.107	0.143
-180.042	1.444	-0.192	-0.138
-179.027	-116.117	-0.127	-0.024
-178.012	-60.061	0.093	0.040
-176.998	26.521	-0.376	0.315
-175.983	279.977	-0.063	-0.112
-174.969	234.367	0.350	0.578
-173.954	-81.881	-0.053	0.017
-172.939	-48.277	0.384	0.185
-171.925	-115.967	-0.136	-0.025
-170.910	-200.000	0.023	-0.300
-169.896	800.000	0.064	0.207
-168.881	-157.538	-0.440	0.026
-167.866	-109.569	-0.313	-0.066
-166.852	122.259	-0.169	-0.211
-165.837	-11.826	-0.171	0.112
-164.823	486.952	0.023	0.053
-163.808	97.949	0.144	0.165
-162.793	158.406	-0.187	-0.260
-161.779	-69.304	-0.216	0.083
-160.764	192.385	-0.136	0.205
-159.750	375.270	0.163	0.331
-158.735	170.526	-0.270	0.386
-157.720	-181.521	-0.146	0.003
-156.706	-127.458	0.034	-0.005
-155.691	-146.966	0.375	-0.032
-154.677	-84.154	-0.129	-0.041
-153.662	-173.251	-0.015	0.000
-152.647	268.138	-0.011	0.019
-151.633	-200.000	0.003	-0.134
-150.618	-38.271	0.301	-0.160
-149.604	-29.577	0.183	0.104
-148.589	-125.975	-0.507	-0.076
-147.574	134.765	-0.184	0.239
-146.560	46.448	-0.270	0.250
-145.545	25.193	0.085	0.070
-144.531	-38.787	-0.357	0.188
-143.516	-14.947	0.210	-0.134
-142.502	-131.681	0.150	0.020
-141.487	-75.762	-0.232	0.082
-140.472	46.402	0.033	0.031
-139.458	39.334	0.257	0.230
-138.443	-31.862	-0.150	-0.084
-137.429	1.628	-0.423	-0.305
-136.414	221.512	-0.109	-0.176
-135.399	-105.568	-0.056	-0.013
-134.385	-55.623	0.130	-0.058
-133.370	13.332	0.211	-0.163
-132.356	-14.916	0.222	-0.142
-131.341	-160.276	0.250	-0.013
-130.326	23.355	-0.144	-0.118
-129.312	-149.284	-0.201	0.016
-128.297	800.000	0.068	-0.295
-127.283	32.613	0.085	0.073
-126.268	-200.000	-0.002	-0.038
-125.253	373.160	0.046	-0.094
-124.239	259.585	0.056	-0.096
-123.224	-200.000	0.010	-0.185
-122.210	-115.296	0.203	-0.038
