DTS Sentinel unit serial number:	SN413079Multiplexer serial number:	ORYXHardware model number:	OX4-SRSoftware version number:	ORYX F/W v4.00 Oryx Data Collector v3.7.2.0data status	okinstallation	princeton_trtdifferential loss correction	single-endedforward channel	channel 3reverse channel	N/Adate	2019/09/10time	20:30:10forward acquisition time	60.00reverse acquisition time	0.00gamma	496.2192k internal	0.2326k external	0.2326temperature offset calibration	0.9914default loss term (dB/km)	0.3790temperature slope calibration	1.0000multiplexer offset coefficient	1.0000multiplexer slope coefficient	1.0000fibre end	0.00T internal ref (°C)	32.00T ext. ref 1 (°C)	-0.31T ext. ref 2 (°C)	25.23length (m)	temperature (°C)	Stokes	anti-Stokes-747.200	628.110	-0.036	0.091
-746.185	-0.757	-0.352	0.252
-745.171	-93.023	0.202	0.057
-744.156	-200.000	-0.301	-0.001
-743.142	381.301	-0.093	0.193
-742.127	-200.000	0.030	0.322
-741.112	-89.928	-0.294	0.086
-740.098	304.864	0.113	0.211
-739.083	647.641	-0.081	-0.210
-738.069	-200.000	-0.027	0.370
-737.054	-200.000	0.003	0.199
-736.039	96.382	-0.309	-0.356
-735.025	136.737	0.125	0.165
-734.010	193.831	-0.100	-0.152
-732.996	17.734	-0.286	-0.229
-731.981	-200.000	0.060	-0.330
-730.966	-9.996	-0.212	-0.142
-729.952	243.214	-0.051	-0.086
-728.937	7.879	-0.295	0.223
-727.923	-200.000	-0.000	-0.341
-726.908	15.192	0.121	0.095
-725.894	6.210	-0.152	-0.114
-724.879	-113.526	-0.070	0.014
-723.864	-145.446	0.024	-0.002
-722.850	790.104	0.074	0.204
-721.835	800.000	0.051	-0.208
-720.821	756.346	0.058	0.158
-719.806	800.000	0.024	0.106
-718.791	-56.717	0.158	-0.070
-717.777	-26.642	-0.054	-0.032
-716.762	-200.000	0.001	-0.006
-715.748	285.777	-0.067	-0.122
-714.733	-200.000	0.007	-0.341
-713.718	-200.000	-0.004	0.095
-712.704	26.743	0.362	-0.306
-711.689	258.949	-0.085	0.147
-710.675	-137.296	-0.204	0.023
-709.660	74.322	-0.074	0.079
-708.645	-98.234	0.122	0.031
-707.631	-89.455	0.056	-0.017
-706.616	-200.000	-0.005	0.263
-705.602	246.832	-0.128	0.218
-704.587	436.214	-0.083	0.181
-703.572	-97.573	0.278	0.073
-702.558	-101.143	-0.107	-0.026
-701.543	204.698	0.122	0.191
-700.529	-151.665	0.358	0.027
-699.514	-37.621	-0.135	0.073
-698.499	-14.272	0.266	-0.172
-697.485	-1.392	-0.078	-0.056
-696.470	-200.000	0.033	-0.220
-695.456	511.856	0.061	0.142
-694.441	-200.000	-0.009	0.202
-693.426	483.094	-0.104	-0.238
-692.412	-139.144	-0.160	0.017
-691.397	-200.000	-0.002	-0.264
-690.383	-200.000	-0.072	0.410
-689.368	-58.817	-0.208	-0.091
-688.354	-6.294	0.223	-0.153
-687.339	-200.000	-0.018	-0.234
-686.324	317.156	-0.059	-0.113
-685.310	800.000	0.066	-0.215
-684.295	24.810	0.216	-0.180
-683.281	-50.533	-0.337	-0.160
-682.266	-70.549	0.311	-0.118
-681.251	274.889	0.089	0.158
-680.237	-84.688	-0.159	-0.050
-679.222	800.000	-0.037	-0.150
-678.208	-89.242	-0.347	0.103
-677.193	800.000	0.061	-0.238
-676.178	800.000	0.094	-0.346
-675.164	-95.291	-0.279	0.075
-674.149	-166.131	0.441	0.019
-673.135	-54.236	-0.278	0.127
-672.120	-157.638	0.170	-0.010
-671.105	-200.000	-0.016	-0.230
-670.091	19.575	-0.319	-0.258
-669.076	61.875	0.221	0.221
-668.062	800.000	-0.091	0.266
-667.047	-200.000	0.030	-0.161
-666.032	-30.966	0.044	-0.025
-665.018	116.116	0.133	-0.164
-664.003	-89.961	0.064	0.019
-662.989	-8.491	0.040	-0.027
-661.974	-88.307	0.251	0.075
-660.959	149.894	0.075	-0.102
-659.945	-200.000	0.033	0.203
-658.930	800.000	0.073	-0.202
-657.916	-115.510	-0.113	-0.021
-656.901	171.850	-0.145	0.210
-655.886	-107.713	-0.165	-0.036
-654.872	-87.452	-0.166	-0.051
-653.857	203.692	-0.174	0.271
-652.843	-10.866	-0.148	0.098
-651.828	98.772	0.230	0.266
-650.814	161.769	-0.330	-0.464
-649.799	302.342	-0.048	-0.090
-648.784	158.328	0.214	0.298
-647.770	-200.000	0.018	0.180
-646.755	93.600	0.385	-0.438
-645.741	800.000	0.054	-0.199
-644.726	-200.000	-0.075	-0.388
-643.711	-200.000	0.015	-0.177
-642.697	653.965	0.014	0.035
-641.682	-200.000	-0.038	-0.177
-640.668	-70.756	-0.112	-0.042
-639.653	590.271	-0.062	-0.152
-638.638	268.662	-0.070	0.124
-637.624	-157.576	0.235	0.014
-636.609	-31.378	0.134	-0.076
-635.595	-156.088	-0.175	0.011
-634.580	232.336	-0.133	-0.219
-633.565	-200.000	0.016	-0.231
-632.551	440.183	-0.073	-0.161
-631.536	800.000	0.016	-0.050
-630.522	92.980	-0.136	0.154
-629.507	-200.000	0.004	0.336
-628.492	-200.000	0.009	-0.135
-627.478	-82.377	-0.426	-0.139
-626.463	800.000	-0.021	-0.062
-625.449	-109.662	0.067	-0.014
-624.434	-40.538	-0.109	-0.057
-623.419	800.000	-0.058	-0.212
-622.405	-200.000	0.005	-0.238
-621.390	255.833	0.258	0.445
-620.376	-200.000	-0.056	-0.265
-619.361	64.606	0.248	-0.251
-618.346	454.632	-0.011	-0.025
-617.332	800.000	-0.075	0.295
-616.317	-200.000	-0.031	-0.280
-615.303	-126.274	0.142	-0.021
-614.288	526.780	-0.125	0.296
-613.273	-105.601	0.093	-0.021
-612.259	-200.000	-0.005	0.132
-611.244	-137.483	-0.266	0.030
-610.230	-73.642	-0.182	0.066
-609.215	800.000	-0.095	-0.325
-608.201	-32.253	-0.215	0.120
-607.186	-29.684	-0.104	0.060
-606.171	-200.000	0.019	-0.171
-605.157	-1.587	-0.105	0.074
-604.142	50.695	-0.061	-0.058
-603.128	-55.018	-0.319	-0.144
-602.113	-200.000	-0.075	0.338
-601.098	-11.813	-0.075	-0.050
-600.084	371.174	-0.195	-0.397
-599.069	-79.780	0.253	-0.086
-598.055	-131.175	0.142	0.019
-597.040	-108.618	-0.289	-0.062
-596.025	46.475	-0.220	-0.205
-595.011	62.275	0.200	-0.200
-593.996	-200.000	-0.025	-0.218
-592.982	-88.286	-0.108	-0.032
-591.967	-200.000	0.026	-0.216
-590.952	-80.936	0.155	-0.052
-589.938	-168.063	0.241	-0.009
-588.923	-64.714	-0.132	-0.054
-587.909	-23.169	-0.302	-0.182
-586.894	41.824	0.167	0.152
-585.879	-200.000	-0.068	-0.347
-584.865	800.000	-0.074	-0.214
-583.850	-200.000	0.022	0.106
-582.836	157.625	0.117	-0.162
-581.821	-65.477	0.250	0.101
-580.806	19.772	-0.338	-0.273
-579.792	-133.883	-0.166	-0.021
-578.777	800.000	0.061	0.170
-577.763	248.651	0.050	-0.085
-576.748	-65.857	-0.478	-0.192
-575.733	-200.000	-0.031	0.165
-574.719	800.000	-0.053	0.163
-573.704	-29.978	0.124	0.071
-572.690	-162.963	-0.135	0.007
-571.675	-43.169	-0.361	-0.183
-570.661	-200.000	-0.011	-0.251
-569.646	93.113	-0.092	-0.104
-568.631	-162.989	0.235	0.011
-567.617	-141.115	-0.367	-0.038
-566.602	-87.537	-0.170	0.051
-565.588	-200.000	0.034	0.150
-564.573	2.173	-0.126	0.091
-563.558	-4.888	-0.122	0.084
-562.544	-200.000	-0.066	-0.384
-561.529	800.000	0.065	-0.217
-560.515	800.000	-0.037	0.141
-559.500	-200.000	0.005	0.154
-558.485	361.049	-0.121	-0.244
-557.471	212.421	0.268	0.423
-556.456	272.351	-0.063	-0.112
-555.442	319.017	-0.039	0.074
-554.427	-92.006	0.197	0.056
-553.412	800.000	-0.048	-0.205
-552.398	-95.810	0.217	-0.058
-551.383	83.945	0.156	0.171
-550.369	-144.030	-0.164	-0.015
-549.354	-172.440	0.339	-0.011
-548.339	84.132	0.198	0.217
-547.325	-200.000	0.029	0.200
-546.310	-200.000	0.058	0.276
-545.296	-81.064	-0.125	-0.041
-544.281	800.000	-0.068	0.278
-543.266	-61.180	0.182	-0.077
-542.252	213.937	-0.089	-0.140
-541.237	104.666	0.157	-0.185
-540.223	483.394	-0.107	0.244
-539.208	104.801	0.110	-0.130
-538.193	-57.047	0.223	-0.098
-537.179	-200.000	-0.001	0.100
-536.164	-27.767	-0.274	-0.159
-535.150	59.194	-0.280	0.276
-534.135	2.787	0.263	-0.191
-533.121	-126.887	0.091	0.013
-532.106	43.585	-0.134	-0.123
-531.091	-69.834	0.076	-0.029
-530.077	35.120	0.193	-0.169
-529.062	-200.000	0.023	0.184
-528.048	-85.530	0.114	-0.036
-527.033	67.892	-0.153	-0.156
-526.018	-71.927	0.080	-0.030
-525.004	-200.000	-0.089	0.472
-523.989	-200.000	0.032	0.281
-522.975	454.440	-0.081	-0.180
-521.960	800.000	0.063	-0.215
-520.945	-124.845	-0.173	0.027
-519.931	-149.333	0.080	0.006
-518.916	-200.000	-0.042	-0.489
-517.902	-200.000	-0.007	-0.079
-516.887	182.156	0.080	0.118
-515.872	-128.158	0.144	-0.021
-514.858	1.267	0.141	0.101
-513.843	145.102	-0.025	-0.034
-512.829	-11.735	0.229	-0.150
-511.814	-200.000	-0.031	-0.198
-510.799	-63.612	-0.158	0.065
-509.785	262.786	-0.161	0.279
-508.770	-164.002	-0.181	-0.008
-507.756	91.404	0.148	-0.166
-506.741	290.172	0.063	0.115
-505.726	-98.341	-0.305	0.078
-504.712	259.002	-0.144	0.248
-503.697	201.022	-0.060	0.093
-502.683	-200.000	-0.012	-0.203
-501.668	-98.079	0.029	-0.008
-500.653	-200.000	-0.019	0.193
-499.639	-200.000	0.003	0.248
-498.624	-71.375	0.243	-0.091
-497.610	-8.102	-0.301	-0.203
-496.595	284.871	0.186	0.335
-495.581	-72.338	-0.051	-0.019
-494.566	657.522	-0.079	-0.203
-493.551	-200.000	0.019	0.141
-492.537	240.952	-0.085	0.141
-491.522	75.430	0.063	0.067
-490.508	-107.721	-0.047	-0.010
-489.493	-44.137	0.183	-0.092
-488.478	176.715	0.061	0.088
-487.464	96.734	0.280	0.320
-486.449	-61.070	-0.256	0.108
-485.435	41.783	0.153	-0.138
-484.420	142.132	-0.056	-0.074
-483.405	-200.000	-0.015	0.066
-482.391	800.000	-0.089	0.351
-481.376	428.178	-0.170	0.366
-480.362	-32.843	-0.207	-0.115
-479.347	800.000	-0.036	0.153
-478.332	9.578	-0.052	-0.039
-477.318	800.000	0.026	0.080
-476.303	572.590	-0.086	0.210
-475.289	-108.128	-0.140	0.030
-474.274	-140.258	-0.165	0.017
-473.259	130.313	-0.182	-0.232
-472.245	-200.000	0.017	-0.191
-471.230	160.668	-0.255	0.355
-470.216	222.394	-0.064	0.102
-469.201	11.332	-0.258	0.197
-468.186	11.635	0.089	-0.068
-467.172	774.287	0.057	0.154
-466.157	-200.000	0.012	0.303
-465.143	478.582	0.076	0.171
-464.128	-19.450	0.076	-0.047
-463.113	209.374	0.174	-0.273
-462.099	472.077	-0.107	0.240
-461.084	-200.000	-0.046	0.284
-460.070	-105.947	-0.015	0.003
-459.055	-16.993	-0.268	-0.169
-458.040	800.000	-0.070	-0.255
-457.026	800.000	0.027	-0.109
-456.011	293.598	0.095	-0.173
-454.997	61.382	0.288	0.286
-453.982	-45.900	0.337	0.166
-452.968	-98.734	0.156	-0.040
-451.953	90.653	-0.259	-0.290
-450.938	-88.559	0.206	-0.061
-449.924	32.395	-0.118	0.102
-448.909	241.225	0.107	-0.178
-447.895	-131.944	0.388	0.050
-446.880	120.081	-0.278	0.343
-445.865	800.000	0.036	-0.129
-444.851	-102.342	-0.126	-0.030
-443.836	-76.143	0.136	-0.048
-442.822	-172.367	-0.276	0.009
-441.807	-61.688	0.022	-0.009
-440.792	800.000	-0.057	-0.245
-439.778	-25.284	-0.252	0.148
-438.763	-69.328	-0.249	0.095
-437.749	56.600	-0.247	0.240
-436.734	800.000	0.029	-0.091
-435.719	-17.694	-0.207	-0.129
-434.705	800.000	0.040	0.145
-433.690	-200.000	-0.008	0.097
-432.676	-34.979	0.288	0.157
-431.661	422.564	0.063	-0.135
-430.646	215.082	0.190	-0.299
-429.632	63.760	-0.241	0.241
-428.617	45.921	0.170	0.157
-427.603	-21.457	-0.205	0.124
-426.588	-55.578	-0.169	0.075
-425.573	-30.512	0.238	0.134
-424.559	-69.116	-0.328	0.126
-423.544	-11.839	0.417	0.272
-422.530	-142.884	0.232	0.022
-421.515	62.497	-0.169	0.168
-420.500	-200.000	-0.004	-0.281
-419.486	-62.360	0.157	-0.065
-418.471	139.146	-0.154	0.202
-417.457	70.109	-0.188	-0.193
-416.442	800.000	0.026	-0.105
-415.428	-200.000	0.003	-0.052
-414.413	800.000	-0.048	-0.156
-413.398	-200.000	-0.000	-0.346
-412.384	-33.905	-0.157	-0.086
-411.369	353.382	-0.097	-0.191
-410.355	69.569	-0.106	0.109
-409.340	749.185	0.094	0.252
-408.325	83.795	0.107	0.116
-407.311	19.532	0.369	0.296
-406.296	452.307	-0.064	-0.140
-405.282	-91.893	-0.252	0.071
-404.267	800.000	0.039	0.124
-403.252	-125.921	0.112	0.017
-402.238	-99.110	-0.181	0.046
-401.223	-147.005	0.286	-0.024
-400.209	-200.000	-0.006	-0.241
-399.194	706.742	0.164	0.432
-398.179	178.260	-0.180	-0.261
-397.165	-110.535	0.324	-0.067
-396.150	272.066	0.127	0.223
-395.136	227.677	0.065	0.105
-394.121	680.583	0.148	0.384
-393.106	-159.893	-0.132	0.007
-392.092	-200.000	0.015	0.120
-391.077	205.426	-0.195	0.301
-390.063	-18.478	-0.182	0.113
-389.048	-96.146	0.628	-0.166
-388.033	-86.435	-0.280	-0.085
-387.019	-74.250	-0.400	0.144
-386.004	-200.000	-0.008	-0.057
-384.990	-38.033	0.149	0.079
-383.975	800.000	0.074	0.217
-382.960	416.452	-0.043	-0.091
-381.946	800.000	-0.077	0.250
-380.931	800.000	0.040	-0.114
-379.917	-33.403	0.259	-0.142
-378.902	-200.000	0.003	-0.306
-377.888	800.000	0.106	-0.342
-376.873	800.000	-0.029	-0.088
-375.858	-9.596	-0.085	0.057
-374.844	-200.000	-0.011	0.153
-373.829	-76.414	0.116	0.040
-372.815	102.542	-0.201	0.234
-371.800	-73.585	0.065	0.024
-370.785	649.813	-0.184	0.468
-369.771	800.000	0.050	0.181
-368.756	-4.352	-0.125	-0.086
-367.742	-117.321	-0.168	0.030
-366.727	-79.763	0.312	-0.104
-365.712	303.488	-0.107	-0.196
-364.698	0.986	0.178	0.127
-363.683	-200.000	-0.012	0.160
-362.669	800.000	-0.060	0.176
-361.654	-20.863	0.226	-0.138
-360.639	-72.365	-0.137	-0.051
-359.625	255.173	0.062	-0.105
-358.610	699.432	0.035	0.091
-357.596	87.102	0.177	-0.195
-356.581	637.115	0.103	-0.260
-355.566	19.265	-0.053	0.043
-354.552	-200.000	0.002	-0.090
-353.537	-187.517	-0.393	0.005
-352.523	-22.821	0.283	0.170
-351.508	800.000	0.083	0.354
-350.493	338.931	-0.158	-0.306
-349.479	-43.902	0.134	0.067
-348.464	47.519	-0.187	-0.173
-347.450	-200.000	-0.021	0.131
-346.435	3.310	0.152	0.110
-345.420	218.416	0.229	0.362
-344.406	800.000	0.014	-0.059
-343.391	-85.863	-0.496	-0.152
-342.377	800.000	0.040	-0.131
-341.362	-200.000	-0.059	-0.258
-340.348	-136.048	0.379	-0.044
-339.333	-200.000	0.029	0.168
-338.318	-200.000	0.017	0.333
-337.304	425.784	0.069	-0.147
-336.289	-200.000	0.041	0.201
-335.275	345.969	0.106	0.207
-334.260	-95.632	-0.266	0.071
-333.245	205.336	0.036	0.055
-332.231	117.645	0.277	-0.338
-331.216	224.832	-0.192	-0.309
-330.202	580.307	0.132	0.320
-329.187	-42.858	0.076	0.038
-328.172	21.566	-0.187	-0.151
-327.158	-200.000	0.023	0.326
-326.143	-7.921	0.023	-0.015
-325.129	728.496	0.051	-0.134
-324.114	-200.000	-0.011	0.272
-323.099	28.854	-0.173	0.145
-322.085	-200.000	0.002	-0.195
-321.070	-200.000	0.024	-0.132
-320.056	26.104	-0.112	0.093
-319.041	681.818	0.107	0.276
-318.026	-23.499	0.111	0.066
-317.012	800.000	0.064	0.259
-315.997	-200.000	-0.011	-0.090
-314.983	-57.809	-0.121	0.052
-313.968	-39.358	0.187	0.097
-312.953	173.390	0.252	-0.360
-311.939	-200.000	0.015	0.153
-310.924	-119.974	0.246	-0.042
-309.910	117.023	-0.040	-0.049
-308.895	-81.990	0.248	0.080
-307.880	637.601	0.055	0.137
-306.866	48.609	0.235	-0.218
-305.851	-200.000	0.012	-0.218
-304.837	-200.000	-0.003	0.107
-303.822	12.106	-0.162	-0.124
-302.807	-108.211	0.085	0.018
-301.793	-200.000	-0.044	0.457
-300.778	-200.000	-0.003	-0.282
-299.764	-148.351	0.085	-0.007
-298.749	800.000	0.047	0.132
-297.735	91.428	0.206	0.230
-296.720	517.922	-0.100	-0.231
-295.705	186.985	0.065	0.096
-294.691	-8.021	-0.271	-0.181
-293.676	202.978	-0.039	-0.060
-292.662	242.553	0.131	-0.218
-291.647	800.000	0.050	0.179
-290.632	511.239	-0.110	0.253
-289.618	97.569	-0.127	0.144
-288.603	-29.751	-0.103	0.058
-287.589	92.135	0.006	-0.007
-286.574	800.000	-0.121	-0.372
-285.559	-66.817	-0.215	0.084
-284.545	-60.139	-0.230	0.097
-283.530	-174.724	-0.230	-0.006
-282.516	-62.089	0.421	-0.174
-281.501	402.771	-0.189	-0.393
-280.486	-71.203	-0.187	-0.070
-279.472	-29.492	-0.299	0.169
-278.457	-53.118	-0.097	0.044
-277.443	-47.674	0.112	-0.054
-276.428	132.420	0.221	0.281
-275.413	-125.431	0.166	0.025
-274.399	13.993	-0.122	-0.094
-273.384	133.501	0.147	-0.188
-272.370	63.667	-0.201	0.200
-271.355	-93.166	0.359	0.099
-270.340	-19.309	0.318	-0.195
-269.326	82.434	-0.060	-0.065
-268.311	-200.000	-0.055	0.311
-267.297	-144.043	0.156	0.014
-266.282	190.240	-0.044	-0.065
-265.267	-113.210	-0.140	0.027
-264.253	120.835	-0.170	-0.209
-263.238	488.544	0.059	-0.133
-262.224	-200.000	-0.007	-0.270
-261.209	-200.000	0.060	-0.405
-260.195	15.903	0.321	0.250
-259.180	31.474	0.036	-0.030
-258.165	-200.000	0.034	0.201
-257.151	152.058	0.122	0.165
-256.136	-200.000	-0.005	0.023
-255.122	44.015	-0.305	-0.277
-254.107	-70.038	-0.296	0.111
-253.092	-200.000	0.086	0.394
-252.078	45.213	0.238	0.217
-251.063	38.396	-0.108	-0.096
-250.049	-120.244	0.264	0.045
-249.034	77.289	0.320	-0.337
-248.019	-200.000	0.015	-0.217
-247.005	-200.000	-0.002	-0.391
-245.990	-182.371	-0.178	-0.003
-244.976	-90.432	0.411	-0.118
-243.961	95.601	-0.172	0.195
-242.946	-157.115	-0.137	-0.008
-241.932	-62.647	0.199	-0.082
-240.917	-89.989	-0.564	-0.163
-239.903	169.338	-0.179	-0.252
-238.888	-22.291	0.133	0.080
-237.873	-82.190	-0.028	-0.009
-236.859	-200.000	0.012	0.252
-235.844	193.308	0.195	0.292
-234.830	-86.006	-0.272	-0.083
-233.815	-92.129	0.198	-0.055
-232.800	-119.484	-0.361	-0.062
-231.786	107.899	-0.169	-0.199
-230.771	414.692	0.080	0.169
-229.757	-160.210	0.333	0.018
-228.742	-121.406	-0.044	0.007
-227.727	144.017	-0.175	-0.231
-226.713	197.502	0.149	0.225
-225.698	-97.330	0.038	-0.010
-224.684	-200.000	0.017	-0.185
-223.669	3.430	0.171	-0.123
-222.655	677.879	0.036	-0.092
-221.640	-200.000	-0.012	-0.331
-220.625	569.500	0.154	-0.370
-219.611	59.214	0.266	0.259
-218.596	226.259	0.101	0.162
-217.582	-200.000	-0.046	0.218
-216.567	14.621	-0.169	0.130
-215.552	27.879	0.155	0.129
-214.538	81.575	0.229	-0.245
-213.523	-188.908	-0.185	-0.002
-212.509	-67.379	-0.183	0.071
-211.494	-34.868	0.226	-0.122
-210.479	-111.987	-0.330	0.066
-209.465	165.922	0.133	-0.187
-208.450	77.017	-0.167	-0.176
-207.436	51.544	0.324	-0.304
-206.421	-106.202	0.205	-0.045
-205.406	23.011	-0.144	-0.117
-204.392	157.411	0.144	0.196
-203.377	626.314	-0.007	0.017
-202.363	256.584	-0.181	-0.307
-201.348	-32.891	-0.109	0.060
-200.333	-63.584	0.320	0.130
-199.319	143.943	0.026	0.034
-198.304	-69.408	-0.119	-0.045
-197.290	800.000	0.079	-0.329
-196.275	-108.812	0.144	-0.030
-195.260	-88.961	0.125	0.037
-194.246	-84.583	-0.200	-0.062
-193.231	0.335	0.106	-0.075
-192.217	57.923	0.180	0.174
-191.202	90.896	0.084	0.093
-190.187	-200.000	0.059	0.279
-189.173	-2.913	-0.211	-0.146
-188.158	-44.122	0.248	-0.123
-187.144	-117.859	-0.156	0.028
-186.129	615.831	0.136	-0.336
-185.114	-200.000	0.025	0.187
-184.100	6.688	-0.027	-0.020
-183.085	-200.000	-0.017	0.327
-182.071	800.000	-0.027	-0.077
-181.056	-131.632	0.527	0.068
-180.042	66.553	-0.057	0.057
-179.027	-168.744	-0.131	-0.005
-178.012	-200.000	0.028	0.178
-176.998	-200.000	0.049	0.398
-175.983	19.479	-0.076	-0.060
-174.969	290.384	0.030	-0.054
-173.954	391.677	0.168	0.343
-172.939	394.788	-0.075	0.154
-171.925	-98.255	0.253	-0.064
-170.910	800.000	-0.099	0.330
-169.896	-135.267	0.052	-0.006
-168.881	-200.000	0.007	-0.184
-167.866	-35.930	-0.228	-0.122
-166.852	30.748	0.066	-0.055
-165.837	154.361	-0.175	-0.237
-164.823	-33.728	0.385	0.210
-163.808	-54.980	0.183	-0.081
-162.793	61.014	0.282	-0.276
-161.779	776.688	-0.075	0.203
-160.764	-174.389	-0.157	0.004
-159.750	-177.821	0.085	-0.002
-158.735	-200.000	0.242	-0.000
-157.720	-200.000	0.027	0.269
-156.706	-142.637	-0.408	-0.039
-155.691	217.639	-0.057	-0.089
-154.677	-174.960	-0.312	0.009
-153.662	-200.000	0.021	-0.105
-152.647	319.735	-0.039	0.072
-151.633	-200.000	-0.007	-0.232
-150.618	298.033	0.087	-0.158
-149.604	230.376	-0.098	-0.158
-148.589	-130.764	-0.069	-0.009
-147.574	535.931	-0.148	0.347
-146.560	-74.550	0.240	0.085
-145.545	49.940	0.201	-0.187
-144.531	244.728	-0.104	-0.173
-143.516	800.000	0.067	0.217
-142.502	293.278	-0.122	-0.220
-141.487	67.659	0.181	0.182
-140.472	66.746	-0.124	-0.124
-139.458	-200.000	0.016	-0.242
-138.443	-9.250	-0.289	-0.190
-137.429	-23.925	0.211	-0.124
-136.414	104.259	0.079	-0.092
-135.399	-126.410	0.418	0.061
-134.385	358.584	-0.116	0.229
-133.370	-200.000	0.044	0.254
-132.356	-88.291	-0.419	-0.124
-131.341	-43.709	0.089	-0.044
-130.326	-88.730	-0.314	0.092
-129.312	38.304	0.435	-0.381
-128.297	-76.302	0.216	-0.075
-127.283	25.306	0.307	0.251
-126.268	109.724	0.127	0.150
-125.253	-114.513	-0.197	-0.037
-124.239	-200.000	0.001	-0.336
-123.224	31.184	0.191	0.161
-122.210	356.390	-0.061	-0.119
