DTS Sentinel unit serial number:	SN413079Multiplexer serial number:	ORYXHardware model number:	OX4-SRSoftware version number:	ORYX F/W v4.00 Oryx Data Collector v3.7.2.0data status	okinstallation	princeton_trtdifferential loss correction	single-endedforward channel	channel 3reverse channel	N/Adate	2019/09/11time	03:34:10forward acquisition time	60.00reverse acquisition time	0.00gamma	496.2192k internal	0.2331k external	0.2331temperature offset calibration	0.9908default loss term (dB/km)	0.3790temperature slope calibration	1.0000multiplexer offset coefficient	1.0000multiplexer slope coefficient	1.0000fibre end	0.00T internal ref (°C)	29.48T ext. ref 1 (°C)	-0.28T ext. ref 2 (°C)	23.98length (m)	temperature (°C)	Stokes	anti-Stokes-747.200	207.572	0.040	0.062
-746.185	-168.018	-0.214	0.008
-745.171	-95.078	0.134	-0.037
-744.156	-200.000	-0.057	0.254
-743.142	158.050	-0.211	0.295
-742.127	66.478	0.086	0.088
-741.112	250.188	0.095	-0.163
-740.098	800.000	-0.071	0.218
-739.083	-191.870	0.127	-0.001
-738.069	-191.226	-0.392	-0.004
-737.054	266.642	0.172	-0.303
-736.039	11.200	-0.266	0.205
-735.025	494.727	0.080	0.185
-734.010	-92.716	-0.139	-0.039
-732.996	4.514	-0.382	-0.282
-731.981	-127.442	-0.400	-0.058
-730.966	-1.237	0.007	-0.005
-729.952	687.048	0.120	0.314
-728.937	-102.163	-0.317	-0.077
-727.923	42.588	-0.210	-0.192
-726.908	384.253	-0.171	-0.354
-725.894	350.651	0.114	-0.226
-724.879	-129.031	0.221	-0.031
-723.864	279.213	0.058	0.105
-722.850	-93.765	-0.132	0.037
-721.835	800.000	-0.036	-0.130
-720.821	800.000	-0.057	-0.181
-719.806	-121.258	-0.297	-0.050
-718.791	-27.515	0.182	0.106
-717.777	618.970	0.105	0.266
-716.762	-7.231	-0.113	0.077
-715.748	-200.000	-0.010	0.049
-714.733	520.645	-0.019	0.045
-713.718	-68.411	0.238	0.093
-712.704	-11.348	-0.151	0.100
-711.689	-7.507	0.140	0.095
-710.675	349.276	-0.152	0.302
-709.660	4.855	-0.191	0.141
-708.645	800.000	0.033	-0.131
-707.631	800.000	-0.030	-0.126
-706.616	-80.342	0.301	0.101
-705.602	-122.458	0.196	-0.032
-704.587	117.556	-0.133	0.164
-703.572	157.907	0.139	-0.194
-702.558	56.283	0.082	-0.080
-701.543	189.741	-0.120	0.181
-700.529	642.014	-0.040	-0.103
-699.514	800.000	-0.024	0.093
-698.499	-129.832	0.076	0.010
-697.485	-200.000	-0.019	-0.117
-696.470	-196.706	-0.298	-0.002
-695.456	-124.115	-0.121	-0.019
-694.441	140.053	0.079	0.105
-693.426	34.190	-0.095	-0.083
-692.412	-42.531	-0.060	0.031
-691.397	226.597	-0.054	-0.088
-690.383	590.310	0.093	-0.231
-689.368	-52.882	-0.171	-0.079
-688.354	-143.378	0.090	-0.009
-687.339	111.705	-0.123	-0.149
-686.324	-144.569	0.295	0.027
-685.310	87.272	-0.136	-0.151
-684.295	172.506	0.159	-0.230
-683.281	-130.290	-0.241	-0.033
-682.266	-44.515	0.194	0.097
-681.251	-14.278	0.198	0.128
-680.237	-140.052	-0.228	0.024
-679.222	-114.593	-0.236	-0.045
-678.208	800.000	-0.003	0.012
-677.193	-80.438	-0.297	0.100
-676.178	-124.840	-0.320	-0.050
-675.164	-89.439	-0.226	0.067
-674.149	800.000	0.009	0.034
-673.135	159.420	-0.075	-0.104
-672.120	-200.000	0.050	-0.275
-671.105	-200.000	-0.041	-0.250
-670.091	8.306	0.241	-0.182
-669.076	36.153	-0.179	0.158
-668.062	-200.000	-0.009	0.045
-667.047	84.623	-0.185	0.203
-666.032	711.510	0.054	-0.143
-665.018	-70.170	0.261	0.099
-664.003	-27.326	0.112	-0.066
-662.989	221.526	0.148	0.238
-661.974	-84.427	-0.461	-0.146
-660.959	142.205	-0.222	-0.295
-659.945	516.941	-0.084	0.197
-658.930	-98.886	0.178	0.045
-657.916	-200.000	0.003	-0.164
-656.901	-78.386	-0.168	0.058
-655.886	61.176	-0.164	0.163
-654.872	-20.547	-0.063	0.039
-653.857	800.000	0.051	0.181
-652.843	-95.922	-0.225	0.060
-651.828	-94.728	-0.154	-0.042
-650.814	-69.169	-0.074	0.028
-649.799	83.513	0.148	0.162
-648.784	-123.447	-0.244	0.039
-647.770	-119.446	-0.219	0.038
-646.755	40.971	0.221	-0.200
-645.741	-161.822	-0.153	-0.008
-644.726	187.131	0.102	-0.153
-643.711	-13.985	0.061	-0.040
-642.697	-117.261	-0.161	-0.029
-641.682	161.568	-0.199	-0.279
-640.668	800.000	0.108	0.316
-639.653	-100.567	-0.053	0.013
-638.638	-121.681	-0.054	0.009
-637.624	191.334	0.158	-0.239
-636.609	21.320	0.156	-0.127
-635.595	-31.015	0.133	0.075
-634.580	-165.078	-0.371	-0.017
-633.565	524.142	-0.070	0.166
-632.551	119.558	0.185	-0.230
-631.536	149.666	0.034	0.047
-630.522	800.000	-0.058	-0.222
-629.507	324.361	-0.148	-0.283
-628.492	48.750	0.128	-0.120
-627.478	456.703	0.045	-0.101
-626.463	-200.000	-0.030	-0.261
-625.449	669.993	-0.066	-0.171
-624.434	800.000	0.049	-0.138
-623.419	-64.477	-0.211	-0.086
-622.405	135.369	0.216	0.281
-621.390	644.249	-0.122	-0.312
-620.376	246.507	0.114	0.192
-619.361	-65.347	-0.302	-0.122
-618.346	800.000	0.040	-0.114
-617.332	-196.875	0.443	0.003
-616.317	-116.946	0.108	0.020
-615.303	-200.000	0.015	-0.218
-614.288	70.329	-0.114	0.118
-613.273	77.437	0.142	-0.152
-612.259	-120.041	0.266	0.046
-611.244	-8.210	0.249	-0.168
-610.230	458.477	-0.155	-0.346
-609.215	-22.139	-0.244	-0.148
-608.201	5.999	-0.371	0.275
-607.186	-86.632	0.178	0.055
-606.171	-200.000	-0.007	-0.074
-605.157	-200.000	-0.015	0.080
-604.142	27.851	0.098	-0.082
-603.128	-42.749	0.126	-0.064
-602.113	-200.000	0.000	0.048
-601.098	323.053	-0.111	-0.212
-600.084	64.195	0.188	0.190
-599.069	-52.565	0.317	-0.147
-598.055	83.015	-0.101	-0.110
-597.040	413.942	-0.185	0.395
-596.025	-200.000	0.012	0.233
-595.011	800.000	0.038	-0.135
-593.996	-53.176	0.202	-0.093
-592.982	-44.102	0.177	0.089
-591.967	-115.480	0.194	-0.037
-590.952	-99.135	-0.173	-0.044
-589.938	-97.890	0.109	0.028
-588.923	72.440	-0.138	0.144
-587.909	800.000	-0.095	0.398
-586.894	669.363	0.151	0.391
-585.879	-113.592	-0.313	0.061
-584.865	-84.252	-0.177	0.056
-583.850	89.731	0.207	-0.232
-582.836	-10.115	-0.391	0.260
-581.821	-200.000	-0.034	0.249
-580.806	-50.970	0.182	-0.086
-579.792	-200.000	0.025	0.172
-578.777	-63.870	-0.292	0.119
-577.763	-200.000	-0.006	0.241
-576.748	-200.000	0.002	0.054
-575.733	32.844	0.103	0.089
-574.719	120.719	0.071	-0.089
-573.704	14.373	-0.103	-0.081
-572.690	472.915	0.087	0.195
-571.675	-200.000	0.014	-0.089
-570.661	-130.068	0.153	0.021
-569.646	-173.777	-0.106	-0.003
-568.631	103.006	-0.264	-0.309
-567.617	800.000	0.049	0.146
-566.602	-42.108	0.107	-0.055
-565.588	93.083	-0.186	0.210
-564.573	-24.733	-0.318	0.189
-563.558	-200.000	-0.072	0.386
-562.544	347.608	-0.041	0.081
-561.529	-141.825	0.280	-0.028
-560.515	178.982	-0.144	-0.210
-559.500	-51.179	0.173	0.081
-558.485	-162.209	-0.290	0.014
-557.471	11.271	-0.210	-0.161
-556.456	105.956	-0.131	-0.155
-555.442	-188.353	0.098	-0.001
-554.427	800.000	0.046	-0.149
-553.412	86.412	0.154	0.170
-552.398	-63.375	0.137	0.056
-551.383	-98.179	0.087	-0.022
-550.369	-153.464	-0.311	-0.022
-549.354	-135.814	0.057	0.007
-548.339	-200.000	0.000	0.082
-547.325	-18.095	0.279	0.175
-546.310	-11.860	0.262	-0.171
-545.296	41.830	-0.247	0.224
-544.281	45.144	0.185	-0.170
-543.266	800.000	0.048	0.145
-542.252	375.374	0.110	-0.223
-541.237	267.845	0.061	-0.107
-540.223	-200.000	0.043	-0.218
-539.208	800.000	-0.110	0.308
-538.193	-23.690	0.194	-0.116
-537.179	-135.664	-0.363	0.043
-536.164	188.131	-0.174	0.260
-535.150	-83.705	0.027	0.009
-534.135	575.621	-0.049	0.119
-533.121	640.584	0.091	-0.230
-532.106	-47.555	0.300	0.146
-531.091	140.547	-0.056	0.074
-530.077	5.013	-0.227	0.167
-529.062	-11.399	-0.055	-0.036
-528.048	800.000	-0.056	-0.245
-527.033	276.557	-0.064	-0.114
-526.018	-126.732	0.241	-0.036
-525.004	226.750	-0.262	-0.425
-523.989	59.646	-0.115	0.113
-522.975	-36.388	-0.113	0.061
-521.960	158.147	0.238	-0.329
-520.945	-10.738	-0.144	-0.095
-519.931	-128.123	0.245	-0.035
-518.916	451.813	0.049	-0.108
-517.902	-150.144	-0.128	0.010
-516.887	-72.117	-0.196	0.073
-515.872	262.655	0.149	0.258
-514.858	-200.000	0.039	-0.216
-513.843	-68.794	-0.174	0.067
-512.829	800.000	-0.045	-0.163
-511.814	-200.000	-0.010	0.255
-510.799	-58.530	-0.372	-0.161
-509.785	-86.629	-0.077	-0.024
-508.770	-200.000	0.011	0.311
-507.756	53.628	0.266	0.255
-506.741	533.569	0.059	-0.139
-505.726	-200.000	0.026	-0.252
-504.712	-120.122	0.078	-0.013
-503.697	217.893	-0.085	0.135
-502.683	-200.000	0.011	-0.057
-501.668	-200.000	0.005	-0.322
-500.653	48.244	-0.093	0.087
-499.639	800.000	0.057	0.189
-498.624	379.519	-0.070	0.143
-497.610	-200.000	-0.011	-0.127
-496.595	-200.000	0.010	-0.214
-495.581	308.422	-0.080	0.148
-494.566	357.660	0.063	0.126
-493.551	800.000	0.034	0.095
-492.537	88.941	-0.111	0.123
-491.522	-200.000	0.000	0.025
-490.508	-37.507	-0.194	-0.103
-489.493	281.654	-0.070	-0.126
-488.478	436.485	-0.130	-0.281
-487.464	53.596	-0.309	0.296
-486.449	-21.127	-0.251	0.153
-485.435	-200.000	-0.045	-0.273
-484.420	-52.944	0.148	0.068
-483.405	-31.969	0.273	-0.153
-482.391	-200.000	-0.019	0.217
-481.376	-126.423	-0.395	0.059
-480.362	157.759	-0.126	0.173
-479.347	-84.304	-0.063	0.020
-478.332	-10.054	-0.134	0.089
-477.318	-131.668	0.103	0.013
-476.303	-127.195	-0.157	0.023
-475.289	-101.479	-0.266	0.064
-474.274	20.217	-0.245	0.197
-473.259	360.634	0.174	0.347
-472.245	-95.813	0.264	-0.070
-471.230	251.308	-0.047	-0.080
-470.216	-200.000	0.010	0.053
-469.201	-84.158	0.151	-0.048
-468.186	116.427	0.137	0.168
-467.172	26.064	-0.172	-0.143
-466.157	110.751	-0.207	0.249
-465.143	-17.677	0.271	-0.169
-464.128	-16.040	-0.203	0.129
-463.113	-138.394	-0.237	0.026
-462.099	107.675	-0.215	-0.255
-461.084	23.424	-0.006	0.005
-460.070	800.000	0.019	-0.083
-459.055	-125.393	0.222	-0.034
-458.040	-32.912	0.184	-0.102
-457.026	-6.440	0.316	-0.215
-456.011	21.396	-0.234	0.189
-454.997	431.024	0.100	-0.215
-453.982	800.000	-0.025	-0.099
-452.968	-105.884	0.167	-0.037
-451.953	-149.613	0.056	0.004
-450.938	-50.120	-0.203	-0.096
-449.924	-107.052	-0.221	0.049
-448.909	612.821	-0.098	0.245
-447.895	-200.000	0.023	0.239
-446.880	800.000	0.114	-0.328
-445.865	-101.642	-0.331	0.080
-444.851	127.025	0.262	0.330
-443.836	-34.261	-0.375	0.205
-442.822	154.205	-0.136	-0.185
-441.807	74.971	0.075	-0.078
-440.792	-109.795	0.335	0.070
-439.778	-200.000	-0.074	-0.369
-438.763	-200.000	0.022	0.127
-437.749	264.443	0.063	0.110
-436.734	219.621	0.146	-0.233
-435.719	-200.000	0.037	0.327
-434.705	-200.000	0.027	0.166
-433.690	712.723	0.048	0.126
-432.676	800.000	0.023	-0.088
-431.661	30.912	0.022	0.018
-430.646	-77.112	-0.184	-0.064
-429.632	-158.116	0.055	0.003
-428.617	252.174	-0.217	-0.368
-427.603	249.485	-0.184	0.310
-426.588	-200.000	-0.021	0.226
-425.573	31.797	0.167	-0.143
-424.559	81.647	0.104	-0.112
-423.544	400.483	0.096	0.201
-422.530	113.608	0.071	0.086
-421.515	-120.862	0.280	0.047
-420.500	-86.985	-0.260	-0.079
-419.486	800.000	-0.060	0.188
-418.471	70.376	0.208	0.214
-417.457	800.000	-0.040	0.151
-416.442	-200.000	-0.007	0.150
-415.428	77.350	-0.186	-0.197
-414.413	-200.000	0.000	-0.011
-413.398	326.445	-0.106	0.201
-412.384	-58.506	-0.248	-0.107
-411.369	24.858	0.050	0.041
-410.355	800.000	0.021	0.084
-409.340	-7.323	0.361	-0.243
-408.325	-12.153	-0.131	0.085
-407.311	-126.518	0.098	-0.014
-406.296	-112.038	-0.186	-0.037
-405.282	319.461	-0.135	-0.254
-404.267	-161.567	-0.261	0.013
-403.252	102.456	0.182	0.212
-402.238	-117.884	0.319	-0.057
-401.223	-200.000	-0.015	-0.117
-400.209	300.827	-0.055	-0.101
-399.194	-139.016	-0.107	0.012
-398.179	-200.000	0.053	-0.375
-397.165	800.000	-0.046	0.148
-396.150	800.000	-0.037	0.104
-395.136	346.138	0.075	-0.147
-394.121	392.576	-0.159	-0.328
-393.106	364.692	0.063	0.125
-392.092	16.990	0.177	-0.139
-391.077	67.019	-0.109	-0.110
-390.063	237.680	-0.089	-0.146
-389.048	-109.073	0.332	-0.070
-388.033	-118.589	-0.048	0.008
-387.019	334.459	-0.116	0.223
-386.004	388.717	-0.235	0.484
-384.990	-61.827	-0.183	-0.076
-383.975	-200.000	-0.024	0.121
-382.960	-200.000	-0.042	0.226
-381.946	470.524	0.050	-0.111
-380.931	800.000	-0.018	-0.059
-379.917	140.953	0.179	-0.235
-378.902	38.498	-0.209	-0.185
-377.888	179.671	0.008	0.012
-376.873	632.107	-0.070	0.175
-375.858	242.557	-0.095	-0.158
-374.844	800.000	0.046	-0.144
-373.829	800.000	0.066	0.220
-372.815	-200.000	0.047	-0.359
-371.800	50.821	0.175	-0.164
-370.785	627.222	-0.063	0.159
-369.771	204.691	-0.171	0.263
-368.756	119.242	0.094	-0.115
-367.742	64.109	-0.015	-0.015
-366.727	210.413	-0.209	-0.325
-365.712	-85.780	0.292	-0.090
-364.698	346.471	-0.059	-0.114
-363.683	-200.000	-0.036	-0.208
-362.669	-15.120	-0.265	0.169
-361.654	-122.137	0.228	-0.037
-360.639	-51.661	-0.163	0.075
-359.625	-163.143	-0.542	0.026
-358.610	248.164	-0.066	0.111
-357.596	10.303	0.168	-0.127
-356.581	698.112	-0.073	0.191
-355.566	364.178	-0.144	0.287
-354.552	-200.000	-0.020	0.204
-353.537	273.816	0.020	-0.035
-352.523	-200.000	-0.006	-0.171
-351.508	-80.818	-0.181	-0.060
-350.493	-127.574	0.097	-0.014
-349.479	-175.826	-0.187	-0.005
-348.464	-88.655	0.066	-0.019
-347.450	-1.158	0.344	0.241
-346.435	-58.789	-0.188	0.081
-345.420	-113.579	0.333	-0.065
-344.406	399.949	0.090	0.188
-343.391	-8.292	-0.235	-0.157
-342.377	59.489	-0.131	-0.128
-341.362	-141.148	-0.156	-0.016
-340.348	-134.221	0.041	0.005
-339.333	800.000	-0.058	0.177
-338.318	-200.000	-0.046	-0.248
-337.304	-200.000	0.010	0.109
-336.289	-200.000	-0.031	-0.286
-335.275	-31.311	0.174	0.097
-334.260	-100.868	0.417	-0.101
-333.245	-19.546	0.245	-0.150
-332.231	328.697	-0.111	-0.210
-331.216	345.179	0.099	-0.192
-330.202	-121.158	0.041	-0.007
-329.187	-34.125	-0.240	0.131
-328.172	-200.000	-0.039	0.330
-327.158	-129.403	-0.214	0.029
-326.143	188.249	-0.240	-0.355
-325.129	291.029	-0.078	0.140
-324.114	5.822	-0.035	-0.025
-323.099	-133.399	0.409	-0.051
-322.085	44.938	0.284	-0.259
-321.070	106.591	-0.161	0.189
-320.056	800.000	0.072	0.221
-319.041	-97.246	-0.351	0.091
-318.026	405.973	-0.072	0.150
-317.012	117.370	0.034	0.041
-315.997	359.411	0.167	-0.330
-314.983	-120.080	-0.503	0.085
-313.968	-56.780	0.163	0.071
-312.953	-200.000	-0.002	0.116
-311.939	40.740	0.104	0.093
-310.924	-200.000	0.002	0.271
-309.910	-45.032	0.206	0.102
-308.895	-58.793	0.115	-0.049
-307.880	-86.958	-0.214	-0.065
-306.866	54.258	0.081	-0.077
-305.851	-100.986	-0.153	-0.037
-304.837	253.761	0.130	0.219
-303.822	-200.000	-0.018	0.097
-302.807	-200.000	0.084	0.419
-301.793	-71.199	0.109	0.040
-300.778	-58.676	0.145	0.062
-299.764	273.795	-0.090	0.157
-298.749	291.024	0.290	0.522
-297.735	156.413	0.156	0.214
-296.720	0.105	-0.095	-0.067
-295.705	800.000	-0.021	0.083
-294.691	-60.759	0.128	0.054
-293.676	-41.043	-0.161	-0.082
-292.662	77.336	0.129	-0.135
-291.647	-200.000	0.039	-0.241
-290.632	481.787	-0.069	0.155
-289.618	-44.630	-0.214	-0.105
-288.603	-200.000	-0.209	-0.000
-287.589	-124.338	0.117	-0.018
-286.574	80.466	0.080	-0.085
-285.559	57.540	0.061	-0.059
-284.545	800.000	0.043	0.174
-283.530	49.146	0.283	0.263
-282.516	-70.718	0.044	-0.017
-281.501	-29.991	0.182	0.102
-280.486	-173.753	-0.400	-0.012
-279.472	341.355	-0.018	-0.035
-278.457	-200.000	-0.003	-0.100
-277.443	-200.000	-0.014	-0.159
-276.428	-154.202	0.114	-0.008
-275.413	800.000	-0.043	-0.157
-274.399	-56.280	-0.184	-0.081
-273.384	-37.280	-0.125	0.066
-272.370	-27.667	-0.120	-0.069
-271.355	-68.532	-0.400	-0.153
-270.340	0.697	0.079	0.056
-269.326	-145.791	0.124	-0.011
-268.311	106.746	-0.204	-0.240
-267.297	-200.000	-0.028	-0.187
-266.282	-32.752	-0.232	0.127
-265.267	-24.455	-0.156	0.092
-264.253	-200.000	-0.001	0.114
-263.238	-86.767	0.493	0.149
-262.224	-66.052	-0.201	-0.079
-261.209	659.453	0.071	0.180
-260.195	102.769	-0.152	0.176
-259.180	-27.895	-0.257	-0.147
-258.165	58.938	0.169	0.164
-257.151	13.167	0.041	0.031
-256.136	-52.204	0.119	-0.055
-255.122	136.002	-0.196	0.253
-254.107	2.034	-0.139	0.099
-253.092	200.157	0.251	-0.381
-252.078	-95.213	0.095	0.025
-251.063	-80.629	0.247	-0.081
-250.049	800.000	0.096	0.264
-249.034	-75.841	0.164	-0.057
-248.019	-154.223	-0.259	-0.017
-247.005	-200.000	0.058	0.282
-245.990	553.680	0.183	0.434
-244.976	-64.227	0.223	0.090
-243.961	800.000	0.034	0.136
-242.946	2.131	0.159	0.114
-241.932	-55.028	0.103	-0.046
-240.917	-200.000	0.048	-0.509
-239.903	79.505	0.016	0.017
-238.888	-200.000	-0.019	-0.300
-237.873	655.615	-0.155	-0.392
-236.859	-40.164	-0.195	-0.100
-235.844	263.580	0.067	0.115
-234.830	-28.049	-0.290	0.166
-233.815	-200.000	-0.033	0.148
-232.800	296.107	0.133	0.240
-231.786	-25.577	-0.175	0.102
-230.771	617.707	0.081	-0.200
-229.757	-200.000	0.018	-0.171
-228.742	-200.000	0.100	-0.556
-227.727	154.502	0.121	0.164
-226.713	-67.647	-0.360	-0.139
-225.698	98.014	-0.280	0.317
-224.684	-148.965	0.080	0.006
-223.669	-16.228	0.114	0.072
-222.655	-200.000	-0.005	-0.216
-221.640	184.596	-0.036	0.053
-220.625	116.173	-0.098	0.119
-219.611	62.009	0.202	-0.199
-218.596	132.639	-0.074	0.094
-217.582	-25.485	0.195	0.114
-216.567	90.883	-0.086	-0.096
-215.552	-40.847	0.147	-0.075
-214.538	129.327	-0.186	0.234
-213.523	-77.105	0.083	0.028
-212.509	46.698	-0.062	-0.057
-211.494	800.000	-0.066	-0.248
-210.479	23.676	-0.185	0.150
-209.465	-200.000	0.033	0.184
-208.450	51.321	-0.134	0.126
-207.436	277.607	-0.192	-0.338
-206.421	59.017	0.234	-0.226
-205.406	-61.923	0.351	0.145
-204.392	146.326	0.211	0.279
-203.377	-21.650	-0.085	-0.051
-202.363	-200.000	-0.049	0.309
-201.348	-40.964	0.128	-0.065
-200.333	390.422	0.198	-0.405
-199.319	800.000	-0.075	-0.322
-198.304	-39.984	0.208	-0.107
-197.290	800.000	0.041	-0.177
-196.275	53.301	0.319	-0.301
-195.260	572.543	0.117	-0.280
-194.246	-99.901	0.341	-0.084
-193.231	-20.398	-0.192	-0.116
-192.217	-93.740	0.203	0.055
-191.202	800.000	-0.020	0.080
-190.187	-40.033	0.224	0.115
-189.173	72.436	0.366	0.376
-188.158	319.811	-0.068	-0.128
-187.144	257.039	-0.082	-0.139
-186.129	191.994	0.113	-0.169
-185.114	-80.299	0.116	0.038
-184.100	219.038	-0.336	0.530
-183.085	711.181	0.073	0.191
-182.071	-200.000	-0.021	0.124
-181.056	-134.304	0.151	0.018
-180.042	-46.544	0.265	0.128
-179.027	46.547	-0.141	0.129
-178.012	-24.572	0.272	0.160
-176.998	800.000	-0.053	0.153
-175.983	171.802	-0.104	-0.147
-174.969	64.640	0.185	-0.184
-173.954	-65.122	-0.072	0.029
-172.939	-111.477	0.523	-0.105
-171.925	-91.760	0.266	-0.074
-170.910	-38.635	0.239	0.124
-169.896	-80.554	0.251	-0.082
-168.881	-63.591	0.091	-0.037
-167.866	11.434	0.300	-0.226
-166.852	-40.286	0.110	0.056
-165.837	139.219	-0.186	0.240
-164.823	-29.231	-0.188	0.106
-163.808	22.601	0.209	-0.169
-162.793	800.000	-0.043	-0.159
-161.779	111.902	-0.103	-0.122
-160.764	27.515	-0.306	-0.254
-159.750	-200.000	-0.028	0.124
-158.735	20.241	-0.050	0.040
-157.720	-200.000	-0.080	-0.384
-156.706	-61.679	0.183	-0.075
-155.691	-18.414	0.137	-0.084
-154.677	-56.272	0.070	0.031
-153.662	-200.000	0.042	-0.198
-152.647	175.138	-0.076	0.109
-151.633	191.834	0.169	-0.250
-150.618	170.743	0.020	0.029
-149.604	145.475	0.298	-0.392
-148.589	169.765	-0.150	0.210
-147.574	123.695	0.257	-0.318
-146.560	800.000	0.037	0.130
-145.545	170.726	-0.094	0.133
-144.531	800.000	0.052	0.168
-143.516	43.690	0.180	0.162
-142.502	-62.916	0.130	0.053
-141.487	0.887	0.417	0.294
-140.472	58.593	0.187	0.180
-139.458	-119.895	-0.463	-0.078
-138.443	-50.625	-0.180	0.083
-137.429	-0.756	-0.170	-0.118
-136.414	800.000	0.151	0.514
-135.399	532.210	-0.032	-0.074
-134.385	218.585	-0.087	-0.136
-133.370	70.076	-0.111	0.113
-132.356	244.797	0.105	-0.173
-131.341	-198.809	0.265	0.001
-130.326	-50.060	-0.122	0.057
-129.312	-200.000	-0.014	0.146
-128.297	-200.000	0.010	0.073
-127.283	-137.244	0.336	-0.038
-126.268	124.576	0.187	-0.231
-125.253	203.683	0.329	0.500
-124.239	698.751	0.097	0.250
-123.224	29.407	-0.219	-0.183
-122.210	76.983	0.267	-0.278
-121.195	-0.165	0.397	0.277
-120.180	-106.996	0.251	-0.054
