DTS Sentinel unit serial number:	SN413079Multiplexer serial number:	ORYXHardware model number:	OX4-SRSoftware version number:	ORYX F/W v4.00 Oryx Data Collector v3.7.2.0data status	okinstallation	princeton_trtdifferential loss correction	single-endedforward channel	channel 3reverse channel	N/Adate	2019/09/10time	19:42:10forward acquisition time	60.00reverse acquisition time	0.00gamma	496.2192k internal	0.2321k external	0.2321temperature offset calibration	0.9915default loss term (dB/km)	0.3790temperature slope calibration	1.0000multiplexer offset coefficient	1.0000multiplexer slope coefficient	1.0000fibre end	0.00T internal ref (°C)	33.12T ext. ref 1 (°C)	-0.31T ext. ref 2 (°C)	25.91length (m)	temperature (°C)	Stokes	anti-Stokes-747.200	-54.292	0.485	-0.222
-746.185	-118.739	0.281	0.050
-745.171	-98.888	0.119	0.030
-744.156	800.000	-0.026	-0.087
-743.142	-200.000	0.028	-0.234
-742.127	-200.000	0.000	0.116
-741.112	50.904	-0.091	-0.087
-740.098	-27.332	0.242	-0.142
-739.083	9.415	-0.215	-0.164
-738.069	-200.000	0.032	0.318
-737.054	-35.754	-0.234	-0.128
-736.039	454.605	-0.076	-0.171
-735.025	800.000	-0.044	0.177
-734.010	43.795	-0.260	0.241
-732.996	222.368	-0.125	-0.204
-731.981	800.000	0.077	-0.254
-730.966	164.345	0.093	0.132
-729.952	800.000	-0.023	-0.089
-728.937	0.762	0.048	0.035
-727.923	-200.000	0.019	0.121
-726.908	-88.172	0.144	-0.044
-725.894	522.649	-0.065	0.155
-724.879	499.469	0.082	-0.191
-723.864	85.801	-0.260	0.288
-722.850	-200.000	-0.046	-0.292
-721.835	263.878	0.134	0.236
-720.821	-52.387	-0.317	-0.148
-719.806	-200.000	0.008	0.139
-718.791	107.272	0.129	0.154
-717.777	800.000	-0.104	0.310
-716.762	-166.666	-0.208	-0.009
-715.748	-200.000	0.029	-0.286
-714.733	-67.915	0.109	0.043
-713.718	800.000	0.075	0.290
-712.704	-164.348	-0.383	0.018
-711.689	601.447	-0.073	0.182
-710.675	119.003	0.016	-0.020
-709.660	-131.954	0.147	0.019
-708.645	264.554	0.097	0.170
-707.631	-154.513	-0.164	0.011
-706.616	-200.000	-0.002	0.093
-705.602	-102.663	-0.180	0.043
-704.587	-200.000	-0.025	-0.134
-703.572	-166.512	-0.215	-0.009
-702.558	-200.000	-0.027	0.252
-701.543	-112.140	-0.137	0.028
-700.529	70.482	0.061	0.064
-699.514	677.496	-0.110	-0.289
-698.499	-41.069	-0.291	0.152
-697.485	248.792	-0.176	-0.300
-696.470	-40.158	0.100	0.052
-695.456	444.691	-0.101	-0.223
-694.441	-48.462	-0.281	-0.136
-693.426	423.694	0.086	-0.186
-692.412	47.482	-0.040	-0.037
-691.397	-0.559	-0.217	0.156
-690.383	185.874	0.188	-0.282
-689.368	16.484	-0.335	-0.267
-688.354	-89.174	-0.344	0.102
-687.339	387.028	-0.107	-0.224
-686.324	-38.452	0.136	0.072
-685.310	75.013	-0.130	0.138
-684.295	800.000	0.085	0.357
-683.281	6.799	-0.481	-0.361
-682.266	-92.195	-0.206	0.059
-681.251	-200.000	-0.006	0.056
-680.237	-127.557	0.324	-0.047
-679.222	-127.960	-0.030	0.004
-678.208	356.158	-0.120	-0.241
-677.193	800.000	0.074	0.242
-676.178	572.974	0.047	-0.116
-675.164	422.760	0.060	0.131
-674.149	-6.151	-0.344	0.237
-673.135	127.448	-0.134	0.171
-672.120	-129.113	0.350	-0.049
-671.105	-91.062	-0.300	0.087
-670.091	-61.023	0.260	-0.111
-669.076	-111.177	-0.083	-0.017
-668.062	800.000	-0.066	-0.277
-667.047	147.712	0.028	0.038
-666.032	-200.000	-0.036	-0.191
-665.018	-98.054	0.170	-0.044
-664.003	162.487	-0.250	-0.354
-662.989	429.079	-0.086	-0.187
-661.974	800.000	-0.166	-0.474
-660.959	19.352	0.142	0.115
-659.945	800.000	-0.041	0.181
-658.930	49.588	0.051	-0.049
-657.916	-53.247	-0.240	-0.111
-656.901	-200.000	0.023	-0.227
-655.886	-49.524	0.335	-0.161
-654.872	800.000	-0.092	-0.402
-653.857	-136.184	0.261	-0.031
-652.843	-0.443	0.154	0.110
-651.828	338.466	0.080	0.158
-650.814	-48.832	-0.223	-0.108
-649.799	-107.501	0.233	0.051
-648.784	800.000	-0.032	-0.100
-647.770	-200.000	-0.010	-0.058
-646.755	-33.765	0.276	-0.153
-645.741	43.051	0.278	-0.255
-644.726	576.665	-0.041	0.102
-643.711	-82.023	0.372	0.122
-642.697	15.079	-0.108	0.085
-641.682	-23.528	0.336	0.203
-640.668	-147.862	-0.088	0.007
-639.653	-45.856	0.169	0.084
-638.638	800.000	-0.098	-0.302
-637.624	-93.621	-0.327	-0.091
-636.609	-178.824	-0.072	-0.002
-635.595	-156.207	-0.362	-0.023
-634.580	-154.569	-0.132	0.009
-633.565	599.194	0.100	-0.249
-632.551	-99.832	0.158	0.040
-631.536	330.446	-0.138	-0.267
-630.522	422.217	0.135	-0.291
-629.507	76.931	0.022	-0.024
-628.492	22.975	-0.134	-0.111
-627.478	800.000	0.076	-0.246
-626.463	-176.755	0.198	-0.005
-625.449	-71.170	0.367	-0.139
-624.434	-63.733	0.308	0.127
-623.419	-84.125	-0.343	-0.110
-622.405	-10.189	0.033	0.022
-621.390	-200.000	-0.017	0.240
-620.376	-58.282	-0.156	-0.068
-619.361	-90.679	-0.167	0.049
-618.346	389.456	0.098	-0.204
-617.332	-113.297	-0.221	-0.044
-616.317	458.885	-0.087	-0.195
-615.303	100.068	-0.197	-0.229
-614.288	-17.702	0.098	-0.062
-613.273	800.000	0.104	-0.363
-612.259	800.000	0.056	0.224
-611.244	-57.588	0.088	-0.039
-610.230	4.788	0.065	0.048
-609.215	322.483	-0.064	-0.123
-608.201	-200.000	0.020	-0.294
-607.186	324.214	-0.055	0.106
-606.171	800.000	-0.047	0.157
-605.157	-200.000	0.185	-0.001
-604.142	800.000	0.064	0.195
-603.128	-59.972	-0.135	0.058
-602.113	-66.821	0.263	0.105
-601.098	800.000	0.045	-0.151
-600.084	-200.000	0.014	0.292
-599.069	800.000	-0.100	-0.290
-598.055	-169.662	0.294	-0.011
-597.040	-95.010	-0.215	0.058
-596.025	-200.000	-0.043	0.223
-595.011	-39.164	-0.255	-0.135
-593.996	332.846	-0.100	0.194
-592.982	-121.071	-0.220	-0.037
-591.967	84.579	0.231	-0.254
-590.952	122.990	-0.289	-0.363
-589.938	147.999	0.252	-0.341
-588.923	41.706	-0.278	-0.253
-587.909	284.910	-0.153	-0.277
-586.894	-67.283	-0.129	0.051
-585.879	-58.265	-0.207	-0.090
-584.865	678.197	-0.040	0.104
-583.850	-75.280	-0.099	-0.035
-582.836	-43.923	-0.255	-0.129
-581.821	-86.673	-0.314	-0.096
-580.806	-75.677	0.196	0.070
-579.792	76.250	-0.152	-0.162
-578.777	-43.461	0.104	0.053
-577.763	-150.697	0.204	-0.016
-576.748	22.929	-0.356	0.293
-575.733	-198.867	-0.318	0.002
-574.719	-29.305	0.118	0.068
-573.704	-74.718	0.342	-0.123
-572.690	0.982	0.123	0.088
-571.675	-50.796	-0.139	-0.065
-570.661	-55.036	0.143	-0.064
-569.646	800.000	0.063	-0.238
-568.631	-120.129	0.374	0.064
-567.617	-4.746	0.176	-0.122
-566.602	85.259	0.260	-0.287
-565.588	242.588	-0.244	-0.409
-564.573	514.066	0.100	0.233
-563.558	-76.664	-0.081	0.028
-562.544	800.000	0.027	0.093
-561.529	-76.243	-0.059	-0.021
-560.515	-20.901	-0.175	0.108
-559.500	-5.657	-0.280	0.193
-558.485	-61.577	-0.250	-0.105
-557.471	-89.290	0.213	-0.063
-556.456	-200.000	0.004	-0.042
-555.442	188.361	0.052	0.079
-554.427	408.467	-0.084	0.179
-553.412	-88.820	-0.548	0.163
-552.398	8.200	0.263	-0.198
-551.383	256.403	-0.243	-0.418
-550.369	-141.762	-0.123	-0.012
-549.354	23.221	-0.070	-0.058
-548.339	206.751	0.219	0.342
-547.325	-8.367	-0.082	0.055
-546.310	135.427	0.197	-0.257
-545.296	800.000	0.080	0.267
-544.281	-30.268	-0.055	0.031
-543.266	-79.404	-0.277	0.094
-542.252	162.214	-0.110	-0.154
-541.237	15.646	-0.419	-0.331
-540.223	-200.000	-0.025	0.139
-539.208	-200.000	-0.036	-0.364
-538.193	-37.864	-0.314	-0.168
-537.179	761.674	-0.112	0.305
-536.164	800.000	0.020	-0.071
-535.150	-200.000	-0.179	0.001
-534.135	-200.000	0.013	-0.107
-533.121	-200.000	0.022	0.260
-532.106	-49.813	0.089	0.043
-531.091	-16.736	-0.123	0.078
-530.077	-60.604	0.236	0.100
-529.062	-2.545	0.098	0.069
-528.048	-200.000	0.013	0.059
-527.033	-0.730	-0.293	0.208
-526.018	334.115	0.029	-0.057
-525.004	-110.280	-0.110	0.023
-523.989	-27.393	0.105	-0.061
-522.975	328.854	-0.060	-0.116
-521.960	-138.981	-0.172	0.019
-520.945	515.808	0.142	-0.334
-519.931	-38.071	-0.149	0.079
-518.916	11.818	0.125	0.096
-517.902	-120.875	0.070	-0.012
-516.887	-120.768	-0.440	-0.074
-515.872	800.000	0.030	-0.107
-514.858	-200.000	-0.009	-0.073
-513.843	-200.000	0.048	0.219
-512.829	-200.000	0.011	0.254
-511.814	-200.000	-0.041	0.209
-510.799	438.460	-0.019	0.041
-509.785	321.344	0.062	-0.118
-508.770	-22.414	0.095	0.057
-507.756	-44.204	-0.214	-0.107
-506.741	-52.091	-0.242	0.113
-505.726	-35.585	-0.191	-0.104
-504.712	362.536	-0.067	0.134
-503.697	56.731	-0.118	-0.115
-502.683	20.760	-0.130	0.105
-501.668	800.000	0.092	0.272
-500.653	186.795	0.121	0.180
-499.639	-26.804	-0.327	-0.191
-498.624	-200.000	-0.017	0.201
-497.610	272.071	0.092	-0.163
-496.595	-38.737	0.113	0.060
-495.581	44.460	0.103	0.095
-494.566	691.696	0.158	-0.415
-493.551	69.903	0.066	-0.068
-492.537	24.024	-0.198	0.163
-491.522	52.923	-0.191	-0.183
-490.508	89.725	-0.109	-0.122
-489.493	14.860	0.356	0.279
-488.478	94.222	0.121	-0.138
-487.464	-172.841	0.284	-0.009
-486.449	577.896	0.128	0.312
-485.435	-200.000	0.021	-0.220
-484.420	-10.194	-0.244	-0.162
-483.405	800.000	0.032	-0.120
-482.391	133.329	0.403	-0.521
-481.376	-118.595	0.105	-0.018
-480.362	39.401	0.143	0.128
-479.347	18.052	0.275	0.220
-478.332	-30.488	-0.042	-0.024
-477.318	-84.815	0.385	-0.121
-476.303	-87.690	0.170	0.051
-475.289	800.000	-0.094	-0.361
-474.274	33.713	-0.037	0.032
-473.259	164.943	0.208	-0.294
-472.245	212.343	-0.111	-0.175
-471.230	-185.331	-0.272	0.004
-470.216	72.486	0.208	0.217
-469.201	-200.000	-0.013	0.192
-468.186	31.018	0.154	0.132
-467.172	-82.738	-0.129	0.042
-466.157	314.138	0.087	0.163
-465.143	-141.042	-0.318	0.033
-464.128	611.748	-0.105	-0.261
-463.113	-48.675	-0.139	0.067
-462.099	-62.330	-0.170	0.071
-461.084	-57.244	-0.170	0.075
-460.070	-131.978	0.385	0.050
-459.055	188.070	-0.133	-0.198
-458.040	669.726	0.123	0.319
-457.026	83.173	-0.095	0.104
-456.011	-120.419	0.136	0.023
-454.997	-140.591	-0.191	-0.020
-453.982	-100.923	-0.354	0.087
-452.968	800.000	0.055	-0.230
-451.953	267.129	0.122	0.212
-450.938	131.541	-0.106	-0.137
-449.924	-33.027	-0.191	-0.106
-448.909	123.432	0.073	0.091
-447.895	-200.000	-0.012	-0.231
-446.880	-86.098	0.342	-0.105
-445.865	245.363	-0.200	0.337
-444.851	278.016	-0.090	-0.161
-443.836	405.884	0.168	0.354
-442.822	-88.920	0.152	0.045
-441.807	-77.440	-0.082	0.029
-440.792	-75.979	0.091	-0.032
-439.778	-176.506	-0.246	0.006
-438.763	-200.000	0.018	-0.159
-437.749	216.994	-0.054	0.085
-436.734	-83.120	-0.074	0.024
-435.719	800.000	0.076	-0.240
-434.705	237.538	-0.029	-0.048
-433.690	-95.291	0.242	0.065
-432.676	-102.911	0.035	0.008
-431.661	103.952	0.032	0.038
-430.646	-51.565	-0.299	0.139
-429.632	440.919	-0.030	0.064
-428.617	-96.467	-0.297	-0.078
-427.603	-2.098	-0.357	0.250
-426.588	12.328	0.242	0.186
-425.573	800.000	0.064	0.184
-424.559	-58.891	0.316	-0.137
-423.544	474.835	0.060	0.135
-422.530	-200.000	-0.055	0.311
-421.515	-200.000	-0.055	0.275
-420.500	192.342	-0.081	0.122
-419.486	800.000	0.092	0.281
-418.471	108.724	0.100	0.119
-417.457	-200.000	-0.032	0.172
-416.442	563.017	-0.102	0.247
-415.428	20.309	-0.204	0.165
-414.413	800.000	-0.070	-0.196
-413.398	-200.000	0.035	-0.215
-412.384	-85.302	-0.124	0.039
-411.369	-138.294	-0.196	0.022
-410.355	-30.583	0.063	-0.035
-409.340	-68.125	0.034	-0.013
-408.325	-200.000	0.035	0.188
-407.311	560.879	-0.135	-0.326
-406.296	166.048	-0.175	-0.247
-405.282	-33.970	-0.040	0.022
-404.267	272.338	0.041	0.072
-403.252	659.651	0.110	-0.283
-402.238	-200.000	0.000	-0.187
-401.223	-42.723	-0.287	-0.146
-400.209	800.000	-0.093	0.324
-399.194	101.140	-0.061	0.070
-398.179	-200.000	-0.029	-0.133
-397.165	-26.005	-0.300	0.176
-396.150	1.842	0.137	0.099
-395.136	86.513	0.027	0.029
-394.121	361.911	-0.050	0.100
-393.106	-34.637	0.042	0.023
-392.092	-166.818	-0.037	0.002
-391.077	-20.406	-0.081	-0.050
-390.063	-74.928	-0.546	0.195
-389.048	-196.419	0.331	-0.002
-388.033	-24.719	-0.284	0.168
-387.019	-129.334	-0.230	0.032
-386.004	800.000	-0.079	0.322
-384.990	-200.000	-0.007	-0.063
-383.975	-200.000	-0.017	-0.336
-382.960	-200.000	0.004	-0.029
-381.946	-183.245	-0.240	0.004
-380.931	77.549	-0.402	-0.427
-379.917	-15.631	0.118	-0.075
-378.902	800.000	-0.029	-0.126
-377.888	100.966	0.104	0.120
-376.873	-200.000	0.032	-0.274
-375.858	-200.000	0.036	0.357
-374.844	-97.315	0.245	-0.063
-373.829	237.117	0.194	-0.320
-372.815	51.900	0.085	-0.081
-371.800	52.272	-0.234	-0.223
-370.785	204.782	0.110	0.169
-369.771	-46.399	0.116	0.057
-368.756	-200.000	-0.011	0.179
-367.742	-13.091	-0.196	-0.127
-366.727	800.000	0.050	0.214
-365.712	-200.000	0.016	0.259
-364.698	111.995	0.086	0.104
-363.683	-11.652	-0.402	-0.263
-362.669	800.000	-0.076	0.318
-361.654	360.644	0.061	0.123
-360.639	800.000	0.027	0.110
-359.625	800.000	-0.092	0.335
-358.610	-95.672	0.194	0.052
-357.596	-200.000	-0.004	-0.125
-356.581	800.000	0.013	-0.048
-355.566	-113.488	0.187	0.037
-354.552	56.972	0.269	0.261
-353.537	409.157	-0.019	0.041
-352.523	19.468	-0.119	0.095
-351.508	-59.364	0.244	0.105
-350.493	-86.488	0.130	0.040
-349.479	-200.000	0.039	0.292
-348.464	-200.000	0.026	0.316
-347.450	-200.000	0.009	-0.192
-346.435	-200.000	0.045	-0.214
-345.420	-78.676	0.282	0.096
-344.406	12.292	0.179	0.137
-343.391	226.607	-0.201	0.325
-342.377	-118.129	-0.472	-0.084
-341.362	556.594	0.029	0.069
-340.348	800.000	0.023	-0.077
-339.333	-200.000	0.009	0.287
-338.318	471.763	-0.116	-0.261
-337.304	-49.527	0.340	0.161
-336.289	-29.392	0.252	-0.144
-335.275	64.842	0.035	0.035
-334.260	800.000	-0.056	-0.210
-333.245	-21.877	-0.107	-0.064
-332.231	99.808	-0.117	0.134
-331.216	137.546	0.110	-0.144
-330.202	-200.000	0.004	-0.271
-329.187	44.834	-0.222	-0.203
-328.172	-185.286	0.442	0.007
-327.158	168.874	0.211	0.299
-326.143	-30.411	0.415	0.234
-325.129	-186.187	-0.136	0.002
-324.114	-100.940	-0.242	0.059
-323.099	58.637	-0.203	0.198
-322.085	72.555	0.120	0.125
-321.070	-200.000	0.020	-0.221
-320.056	-44.598	-0.266	0.132
-319.041	785.218	-0.029	0.079
-318.026	215.253	-0.178	-0.281
-317.012	-200.000	-0.044	0.444
-315.997	-200.000	-0.064	-0.293
-314.983	-200.000	0.004	-0.245
-313.968	105.238	-0.373	0.437
-312.953	274.064	0.121	0.212
-311.939	800.000	-0.022	0.084
-310.924	800.000	-0.064	0.182
-309.910	-56.310	0.142	-0.063
-308.895	-101.127	-0.077	-0.019
-307.880	-200.000	-0.051	-0.225
-306.866	-200.000	0.006	-0.194
-305.851	-200.000	-0.000	-0.179
-304.837	340.084	-0.002	0.005
-303.822	33.246	0.275	-0.237
-302.807	160.942	-0.167	0.232
-301.793	-74.631	-0.083	-0.030
-300.778	-142.716	-0.305	0.030
-299.764	482.926	0.036	0.081
-298.749	-106.247	-0.144	0.032
-297.735	-99.449	-0.139	0.035
-296.720	3.720	0.145	0.105
-295.705	-44.147	0.152	0.076
-294.691	196.009	-0.117	0.176
-293.676	-38.027	-0.180	0.095
-292.662	-132.256	0.184	-0.024
-291.647	-200.000	-0.066	-0.377
-290.632	727.183	-0.136	-0.360
-289.618	-139.531	0.373	0.040
-288.603	800.000	0.017	0.067
-287.589	-200.000	0.016	0.192
-286.574	-97.144	0.064	-0.017
-285.559	-148.753	-0.147	0.012
-284.545	-200.000	-0.038	0.321
-283.530	-200.000	-0.088	-0.480
-282.516	368.154	-0.138	0.278
-281.501	-33.035	0.108	0.059
-280.486	-200.000	0.010	0.456
-279.472	-200.000	0.019	-0.235
-278.457	-200.000	0.014	-0.075
-277.443	-35.977	-0.511	-0.275
-276.428	-200.000	0.003	-0.032
-275.413	-200.000	-0.022	0.268
-274.399	83.896	0.221	0.239
-273.384	264.552	0.032	-0.056
-272.370	297.291	0.078	-0.142
-271.355	-200.000	-0.026	0.203
-270.340	-116.637	0.152	-0.028
-269.326	-56.626	-0.260	-0.114
-268.311	76.699	0.267	-0.281
-267.297	106.372	0.177	0.208
-266.282	703.012	0.105	0.275
-265.267	522.742	-0.136	-0.316
-264.253	-33.992	0.100	-0.055
-263.238	-53.764	0.291	-0.132
-262.224	-200.000	-0.042	0.186
-261.209	-106.002	0.332	-0.074
-260.195	-200.000	-0.049	-0.423
-259.180	-46.721	-0.198	0.096
-258.165	209.297	0.165	0.257
-257.151	118.621	0.375	0.459
-256.136	-200.000	0.013	0.067
-255.122	-2.117	-0.271	-0.189
-254.107	-97.788	0.317	-0.081
-253.092	-123.155	0.207	0.033
-252.078	-32.556	0.290	-0.160
-251.063	-200.000	0.021	0.230
-250.049	222.693	0.243	-0.388
-249.034	53.942	0.349	0.333
-248.019	486.932	0.029	-0.066
-247.005	10.049	0.103	0.078
-245.990	-108.299	-0.463	-0.099
-244.976	640.193	-0.098	0.247
-243.961	-200.000	-0.065	0.309
-242.946	-200.000	-0.044	0.381
-241.932	50.909	0.251	0.236
-240.917	133.750	-0.214	0.274
-239.903	569.646	-0.016	0.039
-238.888	381.164	0.157	0.320
-237.873	-13.874	0.260	0.167
-236.859	-126.776	0.249	0.036
-235.844	48.023	-0.197	0.183
-234.830	211.831	0.038	0.059
-233.815	-90.708	0.085	-0.024
-232.800	311.805	-0.014	0.026
-231.786	-38.789	-0.270	-0.141
-230.771	-149.739	-0.132	-0.010
-229.757	-71.139	0.135	-0.050
-228.742	-159.093	0.312	0.017
-227.727	-126.785	0.141	0.021
-226.713	53.603	-0.165	-0.157
-225.698	384.855	-0.128	0.261
-224.684	-89.900	0.169	0.049
-223.669	-61.920	0.238	-0.098
-222.655	60.249	-0.060	0.059
-221.640	800.000	0.034	0.126
-220.625	-200.000	0.003	-0.160
-219.611	129.635	-0.022	-0.028
-218.596	-160.741	-0.263	-0.014
-217.582	350.313	-0.096	-0.189
-216.567	208.667	0.181	-0.280
-215.552	94.278	0.109	-0.123
-214.538	-86.864	-0.065	-0.020
-213.523	9.834	0.372	-0.279
-212.509	-186.950	0.344	0.005
-211.494	-126.833	0.274	0.040
-210.479	-200.000	-0.021	-0.162
-209.465	-200.000	-0.028	0.146
-208.450	-100.678	-0.213	-0.052
-207.436	-119.828	0.068	0.012
-206.421	44.595	-0.143	-0.130
-205.406	-200.000	0.049	-0.287
-204.392	-18.205	0.332	-0.206
-203.377	-124.222	0.070	-0.011
-202.363	23.097	0.129	0.105
-201.348	-80.331	0.060	-0.020
-200.333	86.694	-0.159	0.174
-199.319	10.049	-0.165	-0.124
-198.304	-84.936	0.498	-0.155
-197.290	-133.969	-0.089	0.011
-196.275	85.043	0.152	0.165
-195.260	-94.120	0.119	0.032
-194.246	-8.344	0.219	-0.146
-193.231	4.433	0.176	0.128
-192.217	-200.000	0.017	0.240
-191.202	103.940	-0.345	-0.401
-190.187	35.388	-0.213	-0.185
-189.173	-111.388	-0.246	-0.050
-188.158	556.414	0.094	-0.223
-187.144	-200.000	-0.016	-0.112
-186.129	21.510	-0.086	0.069
-185.114	-98.503	0.084	-0.021
-184.100	84.674	0.143	0.155
-183.085	108.109	0.107	0.126
-182.071	-200.000	-0.017	-0.273
-181.056	-200.000	0.052	-0.366
-180.042	-178.890	0.160	-0.004
-179.027	-79.368	0.104	-0.035
-178.012	-70.577	0.242	-0.090
-176.998	244.520	-0.047	0.078
-175.983	117.037	-0.086	0.104
-174.969	30.413	-0.170	0.144
-173.954	-200.000	-0.051	0.242
-172.939	128.849	0.226	0.285
-171.925	-106.682	-0.438	0.096
-170.910	800.000	-0.061	0.257
-169.896	-151.210	0.218	0.016
-168.881	-112.708	-0.111	0.022
-167.866	-200.000	-0.018	0.153
-166.852	-1.531	-0.236	-0.165
-165.837	552.888	-0.112	-0.266
-164.823	-106.518	0.009	0.002
-163.808	-106.073	0.374	-0.083
-162.793	800.000	-0.036	-0.111
-161.779	-154.440	0.146	-0.010
-160.764	-107.543	0.338	-0.073
-159.750	14.978	0.218	-0.169
-158.735	-95.132	-0.183	0.049
-157.720	320.114	0.022	-0.041
-156.706	551.610	0.073	-0.174
-155.691	-200.000	-0.078	-0.371
-154.677	-1.552	0.187	-0.130
-153.662	149.199	-0.118	-0.157
-152.647	-200.000	0.034	0.288
-151.633	417.517	0.108	0.229
-150.618	749.579	-0.076	0.203
-149.604	81.677	-0.127	-0.136
-148.589	800.000	0.088	0.334
-147.574	-42.080	-0.219	0.110
-146.560	800.000	0.046	0.198
-145.545	16.990	0.344	-0.269
-144.531	800.000	0.042	0.173
-143.516	-200.000	0.027	0.268
-142.502	245.092	-0.052	0.086
-141.487	-151.879	-0.121	0.009
-140.472	-130.219	-0.069	-0.009
-139.458	88.711	-0.316	-0.347
-138.443	172.456	0.083	-0.118
-137.429	800.000	-0.040	0.144
-136.414	-46.665	-0.096	-0.046
-135.399	-95.429	-0.222	0.059
-134.385	800.000	0.091	0.250
-133.370	280.230	0.168	0.297
-132.356	278.008	0.037	-0.064
-131.341	75.007	-0.150	-0.155
-130.326	155.764	-0.192	0.261
-129.312	143.287	-0.136	0.178
-128.297	-94.254	-0.168	-0.045
-127.283	-40.295	0.159	-0.082
-126.268	94.499	-0.243	0.273
-125.253	44.102	-0.051	-0.046
-124.239	-88.783	0.210	-0.061
-123.224	-0.985	0.138	-0.096
-122.210	-73.037	0.075	-0.027
-121.195	-121.160	0.189	0.031
