DTS Sentinel unit serial number:	SN413079Multiplexer serial number:	ORYXHardware model number:	OX4-SRSoftware version number:	ORYX F/W v4.00 Oryx Data Collector v3.7.2.0data status	okinstallation	princeton_trtdifferential loss correction	single-endedforward channel	channel 3reverse channel	N/Adate	2019/09/12time	07:02:11forward acquisition time	60.00reverse acquisition time	0.00gamma	496.2192k internal	0.2319k external	0.2319temperature offset calibration	1.0032default loss term (dB/km)	0.3790temperature slope calibration	1.0000multiplexer offset coefficient	1.0000multiplexer slope coefficient	1.0000fibre end	0.00T internal ref (°C)	32.12T ext. ref 1 (°C)	1.60T ext. ref 2 (°C)	27.41length (m)	temperature (°C)	Stokes	anti-Stokes-747.200	292.849	-0.135	0.250
-746.185	800.000	0.059	0.212
-745.171	612.107	-0.109	0.277
-744.156	571.206	-0.121	0.297
-743.142	1.209	0.087	0.063
-742.127	-200.000	-0.020	0.211
-741.112	-153.074	-0.197	0.014
-740.098	243.577	0.145	0.247
-739.083	-200.000	-0.061	0.312
-738.069	-49.507	-0.244	-0.118
-737.054	22.771	-0.215	-0.178
-736.039	106.070	0.025	-0.030
-735.025	367.998	-0.121	0.247
-734.010	64.927	0.197	0.201
-732.996	-200.000	-0.024	-0.229
-731.981	-118.249	0.142	-0.026
-730.966	-200.000	0.043	0.207
-729.952	-119.434	0.175	0.031
-728.937	-49.890	0.039	-0.019
-727.923	363.518	-0.208	-0.422
-726.908	-102.873	-0.415	0.100
-725.894	-27.715	0.050	0.029
-724.879	-161.645	-0.346	0.018
-723.864	-200.000	0.026	-0.280
-722.850	-178.735	-0.221	-0.005
-721.835	722.193	-0.037	-0.099
-720.821	131.713	-0.080	-0.104
-719.806	-98.948	0.158	-0.040
-718.791	421.117	-0.094	-0.203
-717.777	-171.841	-0.102	0.003
-716.762	249.619	-0.147	-0.251
-715.748	41.368	0.128	0.117
-714.733	326.840	-0.053	-0.102
-713.718	-34.648	0.009	0.005
-712.704	149.735	-0.105	0.144
-711.689	-44.799	-0.310	-0.156
-710.675	105.138	0.078	0.093
-709.660	23.330	0.169	-0.140
-708.645	-103.649	-0.237	0.056
-707.631	-161.184	0.136	-0.007
-706.616	-200.000	-0.011	0.143
-705.602	-52.017	-0.319	0.150
-704.587	-200.000	0.008	-0.191
-703.572	195.838	0.237	-0.364
-702.558	800.000	0.077	0.223
-701.543	-125.562	0.407	-0.062
-700.529	64.211	-0.072	0.073
-699.514	-200.000	0.013	-0.150
-698.499	165.116	0.191	0.273
-697.485	686.630	-0.036	0.096
-696.470	212.236	0.082	0.131
-695.456	119.510	-0.124	0.155
-694.441	52.581	-0.021	0.020
-693.426	44.513	0.126	-0.117
-692.412	-90.649	-0.241	-0.070
-691.397	-97.289	-0.057	0.015
-690.383	279.928	0.140	-0.252
-689.368	800.000	0.062	0.194
-688.354	171.602	0.140	-0.202
-687.339	62.199	-0.084	-0.085
-686.324	88.898	-0.244	-0.275
-685.310	88.779	-0.077	0.086
-684.295	-85.289	-0.136	-0.043
-683.281	702.815	-0.179	-0.477
-682.266	800.000	-0.053	-0.186
-681.251	16.043	-0.217	0.172
-680.237	352.545	0.147	-0.295
-679.222	-167.321	0.156	0.006
-678.208	-200.000	0.003	0.043
-677.193	-200.000	0.028	0.166
-676.178	25.338	-0.130	0.109
-675.164	-123.182	0.200	0.032
-674.149	-200.000	-0.004	-0.382
-673.135	164.954	0.250	-0.356
-672.120	-9.835	0.202	-0.136
-671.105	800.000	0.039	-0.145
-670.091	375.701	-0.123	0.253
-669.076	-200.000	-0.034	0.345
-668.062	353.637	-0.089	0.179
-667.047	800.000	0.039	0.118
-666.032	-11.511	0.151	-0.100
-665.018	-200.000	-0.026	0.261
-664.003	234.663	-0.128	0.212
-662.989	120.717	0.129	0.161
-661.974	-159.259	0.344	-0.020
-660.959	133.544	0.244	0.319
-659.945	-200.000	0.010	0.052
-658.930	123.279	-0.079	0.100
-657.916	-133.782	0.349	0.044
-656.901	-141.808	-0.455	0.046
-655.886	96.097	0.060	-0.070
-654.872	-115.651	0.298	-0.056
-653.857	-40.033	0.143	-0.075
-652.843	20.315	-0.186	-0.152
-651.828	-33.337	-0.152	-0.085
-650.814	800.000	0.052	0.191
-649.799	106.653	-0.145	0.173
-648.784	418.185	-0.029	-0.061
-647.770	233.897	0.068	0.112
-646.755	1.582	0.038	0.028
-645.741	794.897	-0.003	-0.008
-644.726	-200.000	0.012	-0.074
-643.711	361.724	-0.025	0.050
-642.697	-36.576	0.476	0.258
-641.682	114.659	-0.172	-0.212
-640.668	44.260	-0.057	-0.053
-639.653	35.187	-0.105	0.093
-638.638	-59.778	-0.139	-0.060
-637.624	-45.739	0.386	-0.192
-636.609	800.000	0.118	0.366
-635.595	-200.000	0.068	-0.312
-634.580	175.217	0.063	-0.091
-633.565	-55.412	-0.431	-0.195
-632.551	320.707	0.091	0.173
-631.536	-87.727	0.274	-0.083
-630.522	287.506	-0.065	0.118
-629.507	-110.838	0.475	-0.099
-628.492	198.174	0.094	0.144
-627.478	418.061	-0.107	0.229
-626.463	-122.821	-0.294	0.048
-625.449	-200.000	-0.006	0.130
-624.434	-200.000	0.003	-0.044
-623.419	-71.499	-0.224	0.084
-622.405	-31.506	0.109	0.062
-621.390	413.332	0.132	-0.283
-620.376	463.224	-0.140	0.314
-619.361	115.918	-0.089	-0.109
-618.346	380.918	-0.061	0.126
-617.332	-3.279	-0.190	-0.133
-616.317	-200.000	-0.017	-0.180
-615.303	478.316	-0.102	-0.232
-614.288	-66.741	-0.249	-0.099
-613.273	-11.524	-0.068	-0.045
-612.259	373.041	-0.063	-0.130
-611.244	-99.336	0.324	-0.082
-610.230	646.317	-0.075	0.194
-609.215	-200.000	-0.026	-0.214
-608.201	509.441	0.169	-0.394
-607.186	266.304	0.182	0.321
-606.171	-18.185	-0.141	-0.089
-605.157	-177.137	-0.204	0.005
-604.142	68.327	0.162	-0.167
-603.128	-200.000	0.001	0.048
-602.113	-39.756	-0.379	-0.199
-601.098	353.554	-0.127	-0.254
-600.084	800.000	-0.052	-0.229
-599.069	20.541	-0.195	0.159
-598.055	-200.000	0.031	-0.138
-597.040	-113.514	-0.388	0.076
-596.025	-200.000	-0.014	0.068
-595.011	225.777	-0.191	-0.311
-593.996	-200.000	-0.001	-0.330
-592.982	-88.107	-0.179	0.054
-591.967	262.352	0.133	0.232
-590.952	-125.172	0.160	-0.025
-589.938	-8.474	-0.137	0.092
-588.923	13.722	-0.075	0.059
-587.909	357.376	-0.046	-0.091
-586.894	-77.675	0.281	0.098
-585.879	40.303	0.179	-0.162
-584.865	238.154	-0.075	-0.125
-583.850	-200.000	-0.022	-0.112
-582.836	-110.372	-0.388	-0.081
-581.821	58.136	0.275	0.271
-580.806	-11.591	-0.185	0.122
-579.792	-126.817	-0.207	0.031
-578.777	-103.160	0.268	-0.064
-577.763	104.514	-0.096	0.113
-576.748	56.121	0.152	0.149
-575.733	364.090	-0.145	-0.292
-574.719	800.000	0.070	0.274
-573.704	487.951	0.047	-0.109
-572.690	97.608	0.152	-0.176
-571.675	-73.378	0.235	-0.086
-570.661	-200.000	0.027	-0.179
-569.646	-200.000	-0.019	0.183
-568.631	-82.231	-0.342	0.112
-567.617	-69.321	-0.295	-0.114
-566.602	-74.800	-0.246	0.089
-565.588	-200.000	-0.003	0.064
-564.573	800.000	0.062	0.174
-563.558	-83.391	-0.172	-0.055
-562.544	322.068	-0.077	0.147
-561.529	12.465	0.164	-0.127
-560.515	313.974	0.175	0.330
-559.500	233.006	0.049	0.081
-558.485	-68.348	0.293	0.114
-557.471	305.613	-0.141	0.262
-556.456	83.889	-0.034	0.037
-555.442	-162.730	-0.236	-0.012
-554.427	-200.000	0.011	-0.313
-553.412	800.000	0.039	0.160
-552.398	-49.508	0.297	0.142
-551.383	18.797	-0.180	0.145
-550.369	123.211	-0.155	-0.195
-549.354	61.662	0.065	-0.065
-548.339	332.227	0.180	0.349
-547.325	-105.861	0.482	0.109
-546.310	107.635	-0.110	0.131
-545.296	-91.716	0.136	-0.039
-544.281	244.157	-0.140	0.236
-543.266	217.317	-0.140	0.223
-542.252	154.546	-0.156	0.216
-541.237	20.444	-0.196	0.159
-540.223	391.083	-0.122	-0.254
-539.208	-200.000	-0.032	-0.183
-538.193	-148.082	0.243	-0.020
-537.179	-136.998	-0.533	0.061
-536.164	-95.248	0.139	0.037
-535.150	-43.716	0.225	-0.114
-534.135	39.603	-0.056	0.051
-533.121	800.000	-0.073	-0.276
-532.106	96.608	0.121	-0.139
-531.091	-17.810	0.520	-0.328
-530.077	-95.849	-0.171	-0.046
-529.062	-82.708	0.168	-0.055
-528.048	76.732	-0.194	0.206
-527.033	-200.000	0.018	-0.098
-526.018	800.000	-0.026	-0.075
-525.004	17.715	-0.160	-0.128
-523.989	95.880	0.221	0.253
-522.975	-131.174	-0.343	-0.046
-521.960	152.130	-0.185	0.253
-520.945	-52.329	0.296	-0.138
-519.931	-3.749	0.074	-0.051
-518.916	59.765	0.101	0.100
-517.902	-130.360	-0.133	0.018
-516.887	199.083	0.210	-0.323
-515.872	179.199	0.155	-0.228
-514.858	-71.770	-0.094	-0.035
-513.843	-200.000	-0.039	-0.203
-512.829	-200.000	0.052	0.235
-511.814	800.000	0.018	0.059
-510.799	800.000	0.029	-0.126
-509.785	-200.000	0.025	-0.307
-508.770	-200.000	-0.013	0.299
-507.756	95.660	0.310	-0.354
-506.741	-164.745	0.301	0.014
-505.726	-200.000	-0.005	-0.021
-504.712	120.177	-0.124	-0.154
-503.697	345.047	0.149	0.293
-502.683	205.919	-0.086	-0.134
-501.668	399.887	0.142	0.299
-500.653	-51.812	-0.195	0.091
-499.639	-68.958	-0.075	0.029
-498.624	800.000	-0.032	0.112
-497.610	-105.194	-0.298	-0.068
-496.595	284.261	0.066	0.119
-495.581	-48.179	-0.216	-0.104
-494.566	-200.000	0.025	-0.279
-493.551	-92.240	0.165	0.047
-492.537	-10.325	-0.082	0.054
-491.522	71.315	0.260	-0.271
-490.508	-11.115	0.189	-0.125
-489.493	-200.000	0.016	-0.093
-488.478	-0.013	-0.097	-0.069
-487.464	800.000	0.051	-0.159
-486.449	355.903	-0.122	0.243
-485.435	-19.583	-0.389	0.241
-484.420	800.000	-0.083	0.309
-483.405	-200.000	-0.071	-0.327
-482.391	84.897	-0.215	0.236
-481.376	-59.355	0.157	-0.068
-480.362	-84.752	0.217	-0.068
-479.347	29.936	-0.087	0.074
-478.332	-51.772	-0.054	-0.025
-477.318	-200.000	-0.027	0.214
-476.303	-51.128	-0.136	0.064
-475.289	91.963	-0.049	-0.055
-474.274	800.000	-0.011	0.030
-473.259	-94.243	0.140	0.038
-472.245	13.214	-0.185	0.144
-471.230	79.579	0.046	-0.049
-470.216	-23.027	0.049	0.030
-469.201	-136.451	0.235	-0.027
-468.186	-51.209	-0.221	0.104
-467.172	-15.337	-0.016	0.010
-466.157	-66.189	0.059	-0.023
-465.143	528.865	0.081	0.191
-464.128	315.062	0.237	-0.446
-463.113	-45.811	0.123	-0.061
-462.099	-73.360	0.249	0.091
-461.084	-77.823	0.122	0.042
-460.070	235.379	0.185	-0.306
-459.055	-21.771	-0.297	-0.181
-458.040	105.885	-0.200	0.236
-457.026	-0.169	0.323	0.230
-456.011	379.511	-0.056	-0.116
-454.997	-99.656	-0.139	0.035
-453.982	-124.590	-0.325	0.050
-452.968	-141.503	0.560	-0.057
-451.953	-40.255	-0.243	0.127
-450.938	-65.739	-0.085	0.034
-449.924	-131.393	-0.212	0.028
-448.909	-40.167	0.216	-0.112
-447.895	20.238	0.163	0.131
-446.880	-200.000	-0.010	0.175
-445.865	-200.000	0.007	-0.155
-444.851	-121.007	0.172	0.029
-443.836	-200.000	0.005	0.037
-442.822	-151.080	-0.194	0.015
-441.807	800.000	0.032	-0.114
-440.792	-141.328	-0.122	0.012
-439.778	800.000	0.094	0.371
-438.763	-14.670	-0.251	-0.161
-437.749	35.986	0.191	0.168
-436.734	-64.190	0.239	-0.098
-435.719	-200.000	0.021	-0.096
-434.705	67.415	0.193	0.197
-433.690	67.178	0.117	0.119
-432.676	-168.315	0.160	-0.006
-431.661	-48.566	0.050	-0.024
-430.646	-98.265	-0.158	0.040
-429.632	124.683	-0.260	-0.326
-428.617	-122.799	-0.065	-0.010
-427.603	55.674	0.283	0.274
-426.588	66.051	-0.043	0.044
-425.573	98.984	0.342	-0.395
-424.559	-117.073	-0.273	-0.050
-423.544	-123.066	0.058	-0.009
-422.530	-193.168	-0.343	-0.003
-421.515	-57.598	-0.239	0.105
-420.500	-88.355	0.178	-0.053
-419.486	-200.000	-0.045	-0.324
-418.471	-200.000	-0.008	0.588
-417.457	58.324	-0.135	0.132
-416.442	88.950	0.060	-0.067
-415.428	1.671	0.068	-0.049
-414.413	66.987	-0.137	0.139
-413.398	800.000	0.015	-0.049
-412.384	-81.910	-0.187	-0.061
-411.369	100.036	-0.076	-0.088
-410.355	407.944	-0.087	-0.184
-409.340	-200.000	0.031	0.208
-408.325	118.817	0.057	-0.071
-407.311	-109.210	-0.127	-0.027
-406.296	-108.707	-0.114	-0.024
-405.282	800.000	0.052	0.151
-404.267	279.936	-0.060	-0.107
-403.252	151.918	-0.215	0.293
-402.238	506.560	0.086	-0.199
-401.223	-118.408	0.203	-0.036
-400.209	147.745	0.061	-0.082
-399.194	89.975	0.183	-0.204
-398.179	-198.921	-0.311	-0.002
-397.165	-67.353	-0.125	0.049
-396.150	-88.611	-0.160	-0.048
-395.136	53.669	0.132	-0.126
-394.121	414.405	-0.074	-0.158
-393.106	-8.783	-0.247	-0.165
-392.092	-200.000	0.025	0.348
-391.077	-200.000	-0.011	0.171
-390.063	-200.000	-0.039	-0.199
-389.048	28.028	0.137	0.115
-388.033	-62.363	0.105	-0.043
-387.019	33.432	0.115	-0.099
-386.004	27.315	-0.206	0.173
-384.990	-62.992	-0.130	0.054
-383.975	-104.875	0.537	-0.123
-382.960	-47.159	-0.006	0.003
-381.946	-170.260	-0.487	-0.017
-380.931	254.270	-0.136	0.232
-379.917	-175.935	-0.271	0.007
-378.902	-133.762	0.225	-0.028
-377.888	126.983	-0.052	-0.066
-376.873	297.236	0.132	0.242
-375.858	-118.500	-0.132	0.023
-374.844	-48.007	0.145	-0.070
-373.829	-200.000	0.033	-0.206
-372.815	-200.000	-0.042	-0.370
-371.800	40.427	-0.301	0.271
-370.785	-113.737	0.290	-0.056
-369.771	219.748	0.126	-0.201
-368.756	178.854	0.131	0.191
-367.742	800.000	-0.105	0.360
-366.727	-200.000	0.039	0.192
-365.712	-104.847	0.225	0.051
-364.698	-43.579	0.271	0.136
-363.683	186.446	0.186	0.276
-362.669	-50.646	-0.238	0.112
-361.654	-200.000	-0.048	-0.264
-360.639	422.118	0.146	-0.313
-359.625	-80.414	0.134	0.045
-358.610	151.490	0.149	-0.202
-357.596	800.000	0.074	0.265
-356.581	22.922	0.121	-0.099
-355.566	-200.000	-0.016	0.239
-354.552	800.000	-0.088	0.380
-353.537	-195.709	-0.133	-0.001
-352.523	-200.000	-0.005	-0.332
-351.508	45.928	0.286	0.264
-350.493	-15.310	0.166	-0.106
-349.479	-200.000	-0.026	-0.174
-348.464	-200.000	0.035	0.403
-347.450	-0.721	0.102	0.072
-346.435	-98.528	-0.359	-0.091
-345.420	-108.096	-0.086	-0.018
-344.406	153.332	-0.029	0.040
-343.391	-30.348	0.114	0.065
-342.377	-153.020	-0.215	0.015
-341.362	-88.130	-0.208	-0.062
-340.348	42.388	0.010	-0.009
-339.333	-60.540	0.019	-0.008
-338.318	380.565	0.021	-0.043
-337.304	210.270	0.213	-0.332
-336.289	19.970	-0.275	-0.221
-335.275	-150.115	0.204	-0.016
-334.260	800.000	0.053	0.147
-333.245	-200.000	-0.065	0.433
-332.231	792.013	0.061	0.168
-331.216	-72.000	0.128	0.047
-330.202	1.771	-0.109	0.078
-329.187	800.000	0.028	0.107
-328.172	800.000	-0.046	0.128
-327.158	-32.477	-0.221	0.123
-326.143	153.275	0.251	-0.341
-325.129	-192.950	-0.422	-0.004
-324.114	344.308	0.074	-0.145
-323.099	-200.000	-0.009	-0.333
-322.085	-200.000	-0.000	0.265
-321.070	800.000	0.089	-0.276
-320.056	-89.226	0.237	-0.070
-319.041	44.557	0.142	-0.130
-318.026	-105.481	-0.301	0.068
-317.012	211.165	-0.070	0.110
-315.997	-118.793	0.119	-0.021
-314.983	-79.034	0.235	0.079
-313.968	-133.212	-0.258	0.032
-312.953	430.222	0.168	-0.361
-311.939	-200.000	0.009	0.249
-310.924	-72.206	-0.061	0.023
-309.910	800.000	-0.062	0.258
-308.895	35.035	-0.087	-0.076
-307.880	-7.976	-0.308	-0.207
-306.866	5.373	0.125	0.092
-305.851	189.866	-0.179	-0.268
-304.837	-93.668	0.525	-0.144
-303.822	800.000	-0.093	-0.282
-302.807	126.749	-0.047	0.060
-301.793	-85.899	0.197	0.061
-300.778	359.219	0.184	0.367
-299.764	-139.174	-0.175	0.019
-298.749	-195.864	-0.283	0.002
-297.735	16.775	-0.074	-0.059
-296.720	800.000	-0.017	0.052
-295.705	-200.000	-0.015	0.284
-294.691	800.000	-0.098	-0.287
-293.676	800.000	-0.027	0.078
-292.662	-200.000	0.015	0.297
-291.647	303.565	0.150	-0.277
-290.632	196.540	0.120	-0.181
-289.618	800.000	-0.022	-0.065
-288.603	50.039	0.145	0.136
-287.589	-25.113	0.132	-0.078
-286.574	44.078	-0.032	-0.029
-285.559	173.764	-0.107	-0.153
-284.545	-177.685	-0.441	-0.011
-283.530	-200.000	-0.021	0.417
-282.516	-64.833	0.211	0.085
-281.501	402.320	0.132	0.275
-280.486	198.212	-0.122	0.185
-279.472	-51.533	0.142	0.066
-278.457	-200.000	0.013	0.272
-277.443	-200.000	-0.028	-0.429
-276.428	80.997	-0.117	-0.126
-275.413	-53.929	0.055	0.025
-274.399	800.000	0.071	-0.289
-273.384	-181.459	-0.301	-0.006
-272.370	-200.000	0.007	0.183
-271.355	172.207	-0.148	-0.211
-270.340	-173.806	0.214	0.006
-269.326	-54.623	0.225	-0.101
-268.311	800.000	0.093	0.361
-267.297	-200.000	-0.030	0.454
-266.282	-87.381	-0.144	-0.043
-265.267	800.000	-0.079	-0.232
-264.253	-17.981	0.211	-0.131
-263.238	-147.262	-0.203	0.017
-262.224	-88.291	-0.336	-0.100
-261.209	-200.000	0.014	0.182
-260.195	800.000	-0.072	0.265
-259.180	24.419	0.063	-0.052
-258.165	-126.853	0.200	-0.029
-257.151	-4.675	0.272	-0.186
-256.136	167.988	0.038	0.054
-255.122	800.000	0.039	-0.140
-254.107	-189.246	0.196	0.002
-253.092	-200.000	0.042	0.283
-252.078	-200.000	0.041	-0.275
-251.063	-129.605	-0.319	-0.044
-250.049	800.000	0.056	0.198
-249.034	-70.993	-0.129	0.048
-248.019	-111.217	-0.329	-0.067
-247.005	-139.131	0.379	0.041
-245.990	-200.000	-0.012	-0.138
-244.976	-99.458	0.144	0.036
-243.961	-18.429	-0.253	0.157
-242.946	-124.492	-0.202	0.031
-241.932	-126.526	-0.244	-0.036
-240.917	380.886	0.042	-0.086
-239.903	120.103	0.096	-0.118
-238.888	-114.925	-0.012	-0.002
-237.873	-200.000	0.023	0.141
-236.859	349.963	0.227	0.445
-235.844	46.148	0.324	-0.298
-234.830	19.613	0.142	0.113
-233.815	759.955	0.075	-0.200
-232.800	-61.044	0.139	0.058
-231.786	-128.902	-0.243	0.034
-230.771	-76.701	0.323	-0.112
-229.757	34.139	0.099	0.086
-228.742	-9.625	0.209	0.138
-227.727	-200.000	0.006	-0.063
-226.713	40.436	-0.189	0.168
-225.698	800.000	-0.036	0.155
-224.684	-200.000	-0.038	0.229
-223.669	-8.956	0.117	-0.077
-222.655	251.442	-0.242	-0.409
-221.640	-71.233	0.320	-0.119
-220.625	356.366	-0.054	-0.106
-219.611	-200.000	-0.063	-0.334
-218.596	237.716	0.016	0.027
-217.582	-108.641	0.302	-0.064
-216.567	-200.000	-0.023	0.110
-215.552	547.823	0.051	0.122
-214.538	3.184	-0.275	0.198
-213.523	-172.663	0.298	0.009
-212.509	42.597	0.204	-0.184
-211.494	-5.158	0.252	0.172
-210.479	232.358	0.282	-0.458
-209.465	12.431	0.183	0.140
-208.450	96.979	0.150	-0.171
-207.436	-32.740	-0.200	-0.110
-206.421	-200.000	0.008	0.095
-205.406	-200.000	-0.014	0.615
-204.392	-200.000	0.023	-0.111
-203.377	800.000	-0.024	-0.067
-202.363	50.158	0.065	-0.061
-201.348	50.635	-0.251	-0.235
-200.333	795.936	0.189	-0.514
-199.319	15.098	-0.203	0.158
-198.304	-138.930	-0.307	0.033
-197.290	138.528	0.198	-0.258
-196.275	212.543	0.117	-0.183
-195.260	-65.005	0.090	0.036
-194.246	-143.880	-0.326	-0.030
-193.231	-87.960	-0.167	0.050
-192.217	778.772	-0.008	0.021
-191.202	800.000	0.045	-0.173
-190.187	-200.000	0.009	0.055
-189.173	49.799	-0.111	-0.104
-188.158	98.943	-0.131	0.150
-187.144	-103.659	-0.154	0.036
-186.129	205.780	0.134	0.206
-185.114	143.519	0.134	0.176
-184.100	-75.583	0.364	-0.128
-183.085	-169.319	-0.251	0.009
-182.071	130.324	0.164	-0.209
-181.056	-107.787	0.150	0.032
-180.042	-136.238	-0.309	0.036
-179.027	-8.641	-0.095	-0.063
-178.012	-62.396	0.107	0.044
-176.998	800.000	-0.091	0.264
-175.983	-159.005	-0.213	0.012
-174.969	-37.146	0.117	-0.062
-173.954	-3.159	0.295	0.204
-172.939	-86.942	-0.163	-0.049
-171.925	132.974	-0.271	-0.346
-170.910	800.000	0.063	-0.233
-169.896	800.000	-0.038	0.110
-168.881	-103.269	-0.276	-0.064
-167.866	435.570	-0.125	0.269
-166.852	-103.314	0.065	0.015
-165.837	800.000	-0.041	0.131
-164.823	495.653	-0.035	-0.078
-163.808	-93.211	-0.276	0.076
-162.793	-148.669	-0.211	0.017
-161.779	115.404	0.157	0.189
-160.764	165.777	-0.140	-0.196
-159.750	800.000	0.050	-0.169
-158.735	50.006	-0.084	-0.079
-157.720	-43.249	-0.072	-0.036
-156.706	-31.571	0.222	-0.123
-155.691	-200.000	-0.015	-0.180
-154.677	-59.600	0.213	0.090
-153.662	-200.000	-0.055	0.270
-152.647	-35.452	0.228	-0.122
-151.633	-96.474	0.240	0.063
-150.618	800.000	0.037	-0.150
-149.604	363.494	0.127	0.252
-148.589	-200.000	-0.001	-0.096
-147.574	800.000	0.131	-0.396
-146.560	48.794	0.209	0.194
-145.545	-40.589	-0.205	0.105
-144.531	-152.800	-0.348	0.024
-143.516	-121.872	-0.082	0.013
-142.502	-200.000	-0.037	0.168
-141.487	87.121	0.046	-0.050
-140.472	-200.000	0.317	0.001
-139.458	-84.500	0.135	-0.042
-138.443	-87.094	-0.335	-0.101
-137.429	-162.367	-0.259	0.013
-136.414	733.712	-0.063	0.168
-135.399	-10.110	-0.196	-0.129
-134.385	358.708	-0.143	-0.283
-133.370	57.875	0.201	-0.195
-132.356	-144.811	-0.114	0.010
-131.341	-200.000	0.053	-0.500
-130.326	-142.820	0.168	0.016
-129.312	-200.000	-0.030	0.328
-128.297	-200.000	-0.011	-0.328
-127.283	795.754	0.107	-0.292
-126.268	-200.000	0.010	-0.107
-125.253	-200.000	-0.001	0.019
-124.239	-200.000	0.030	0.282
-123.224	-200.000	0.018	-0.108
-122.210	-96.528	0.268	-0.070
