DTS Sentinel unit serial number:	SN413079Multiplexer serial number:	ORYXHardware model number:	OX4-SRSoftware version number:	ORYX F/W v4.00 Oryx Data Collector v3.7.2.0data status	okinstallation	princeton_trtdifferential loss correction	single-endedforward channel	channel 3reverse channel	N/Adate	2019/09/11time	01:10:10forward acquisition time	60.00reverse acquisition time	0.00gamma	496.2192k internal	0.2332k external	0.2332temperature offset calibration	0.9916default loss term (dB/km)	0.3790temperature slope calibration	1.0000multiplexer offset coefficient	1.0000multiplexer slope coefficient	1.0000fibre end	0.00T internal ref (°C)	29.14T ext. ref 1 (°C)	-0.29T ext. ref 2 (°C)	23.26length (m)	temperature (°C)	Stokes	anti-Stokes-747.200	800.000	0.032	-0.126
-746.185	800.000	0.103	0.364
-745.171	401.522	0.109	0.231
-744.156	70.392	-0.105	-0.109
-743.142	569.017	-0.107	-0.261
-742.127	97.131	0.105	0.121
-741.112	-200.000	0.013	-0.148
-740.098	144.399	-0.154	0.207
-739.083	27.458	-0.113	0.095
-738.069	-200.000	-0.020	0.183
-737.054	-100.536	-0.246	0.061
-736.039	109.625	-0.242	-0.292
-735.025	146.048	0.102	0.137
-734.010	-57.799	0.158	-0.070
-732.996	183.270	-0.160	-0.238
-731.981	-113.170	-0.241	0.048
-730.966	800.000	-0.021	0.081
-729.952	-200.000	-0.022	-0.155
-728.937	-86.347	0.170	-0.053
-727.923	-148.638	0.089	0.007
-726.908	198.481	-0.257	-0.395
-725.894	279.322	-0.135	-0.243
-724.879	-88.315	-0.471	-0.141
-723.864	-25.196	0.175	0.104
-722.850	176.887	0.040	-0.059
-721.835	-90.028	0.232	0.068
-720.821	-27.795	-0.059	0.034
-719.806	-25.391	0.163	-0.097
-718.791	800.000	0.096	-0.310
-717.777	-64.824	0.128	-0.052
-716.762	-65.710	0.101	0.040
-715.748	48.032	-0.181	0.170
-714.733	25.479	-0.082	0.068
-713.718	-148.326	-0.165	0.014
-712.704	800.000	0.049	-0.151
-711.689	-145.557	-0.150	0.013
-710.675	56.332	-0.045	-0.044
-709.660	126.474	0.250	-0.318
-708.645	-16.231	-0.174	-0.111
-707.631	303.337	0.063	-0.117
-706.616	110.973	0.066	-0.080
-705.602	800.000	0.058	-0.245
-704.587	-200.000	-0.036	-0.303
-703.572	-57.427	-0.108	0.048
-702.558	286.190	-0.026	-0.048
-701.543	-76.729	-0.213	0.075
-700.529	-116.810	-0.076	0.014
-699.514	51.177	0.070	0.067
-698.499	101.911	0.321	-0.376
-697.485	-123.883	-0.068	0.011
-696.470	769.457	0.021	0.057
-695.456	-200.000	0.025	-0.252
-694.441	38.059	-0.103	-0.092
-693.426	188.582	0.144	-0.216
-692.412	800.000	-0.021	-0.090
-691.397	-200.000	-0.001	-0.308
-690.383	162.512	0.156	-0.219
-689.368	-200.000	0.003	0.157
-688.354	-200.000	0.012	-0.428
-687.339	-7.336	-0.214	-0.145
-686.324	-26.006	0.173	-0.102
-685.310	-200.000	-0.028	0.138
-684.295	-125.893	-0.224	-0.034
-683.281	800.000	-0.058	0.199
-682.266	-61.084	-0.363	-0.154
-681.251	316.058	-0.060	0.113
-680.237	-107.624	0.101	-0.022
-679.222	707.872	0.106	0.282
-678.208	223.463	0.012	0.019
-677.193	-144.649	-0.436	-0.040
-676.178	64.103	0.142	-0.143
-675.164	-200.000	-0.023	-0.346
-674.149	83.033	0.188	-0.205
-673.135	27.501	0.169	-0.143
-672.120	800.000	0.028	0.113
-671.105	25.532	0.015	0.012
-670.091	-104.365	0.119	-0.028
-669.076	-200.000	-0.040	-0.230
-668.062	800.000	-0.072	-0.228
-667.047	15.899	-0.158	-0.125
-666.032	-200.000	-0.005	0.110
-665.018	601.043	0.106	-0.264
-664.003	-136.834	-0.078	-0.009
-662.989	-39.338	-0.068	0.036
-661.974	10.682	-0.042	0.032
-660.959	-200.000	0.000	-0.109
-659.945	-156.995	0.399	-0.024
-658.930	495.756	-0.047	0.109
-657.916	-132.414	-0.351	0.045
-656.901	-200.000	-0.006	0.325
-655.886	-200.000	0.038	0.180
-654.872	67.210	-0.074	-0.076
-653.857	162.122	-0.139	-0.196
-652.843	-94.239	-0.107	0.029
-651.828	607.637	0.011	-0.028
-650.814	800.000	-0.090	-0.318
-649.799	-200.000	0.007	0.039
-648.784	144.978	-0.148	0.199
-647.770	-200.000	0.068	-0.341
-646.755	394.594	0.101	0.211
-645.741	-200.000	0.033	-0.176
-644.726	-73.685	-0.268	-0.098
-643.711	320.016	0.045	-0.085
-642.697	293.851	0.177	0.324
-641.682	-200.000	0.037	-0.352
-640.668	-82.061	-0.151	-0.049
-639.653	-84.791	-0.317	-0.100
-638.638	469.487	0.045	-0.101
-637.624	-161.462	0.078	-0.004
-636.609	-37.914	0.100	-0.053
-635.595	32.137	-0.232	0.200
-634.580	531.705	-0.067	-0.159
-633.565	-40.338	0.376	-0.196
-632.551	222.106	0.049	-0.078
-631.536	-63.619	-0.244	-0.100
-630.522	239.472	-0.093	-0.154
-629.507	201.759	0.092	0.142
-628.492	-200.000	-0.030	-0.284
-627.478	-160.900	-0.298	-0.016
-626.463	-35.831	-0.188	0.102
-625.449	39.244	0.136	0.122
-624.434	-200.000	-0.027	0.189
-623.419	40.662	0.090	-0.081
-622.405	462.172	-0.122	-0.273
-621.390	800.000	0.015	0.059
-620.376	800.000	-0.057	-0.224
-619.361	11.313	-0.092	-0.071
-618.346	-77.902	-0.338	-0.117
-617.332	27.755	-0.127	-0.107
-616.317	-108.388	0.297	0.064
-615.303	-28.258	0.196	0.113
-614.288	-69.145	0.194	-0.075
-613.273	-200.000	-0.010	0.147
-612.259	23.065	0.112	0.092
-611.244	115.779	-0.059	0.072
-610.230	63.601	-0.129	-0.130
-609.215	100.059	-0.196	0.227
-608.201	163.740	0.163	-0.229
-607.186	-137.785	-0.157	0.018
-606.171	11.015	0.259	0.198
-605.157	-200.000	0.030	-0.327
-604.142	462.662	-0.148	0.331
-603.128	-18.648	-0.134	0.083
-602.113	250.028	-0.063	0.106
-601.098	-200.000	-0.027	-0.137
-600.084	-200.000	-0.004	-0.053
-599.069	102.232	-0.125	0.147
-598.055	-68.507	-0.230	-0.089
-597.040	593.693	-0.031	0.076
-596.025	-138.632	0.261	-0.029
-595.011	30.133	-0.346	-0.296
-593.996	-134.181	0.445	0.055
-592.982	250.181	-0.230	-0.390
-591.967	-200.000	0.032	0.151
-590.952	-200.000	-0.026	0.361
-589.938	-117.658	0.036	-0.007
-588.923	-200.000	0.013	0.126
-587.909	81.514	-0.035	-0.038
-586.894	-200.000	-0.008	-0.101
-585.879	50.246	-0.291	0.275
-584.865	-8.590	-0.199	0.133
-583.850	208.333	0.055	0.087
-582.836	16.989	0.165	0.130
-581.821	46.852	-0.176	-0.163
-580.806	800.000	0.097	0.275
-579.792	13.258	0.107	-0.083
-578.777	-109.493	0.443	-0.094
-577.763	78.580	-0.143	-0.153
-576.748	190.432	-0.093	0.139
-575.733	-159.414	0.120	0.007
-574.719	640.104	0.151	0.383
-573.704	-84.863	0.120	-0.038
-572.690	32.809	0.069	0.060
-571.675	100.487	-0.042	0.048
-570.661	17.087	0.235	0.187
-569.646	55.972	-0.096	-0.093
-568.631	-200.000	0.029	-0.260
-567.617	-122.746	0.221	-0.036
-566.602	49.248	-0.103	-0.097
-565.588	-31.505	-0.341	-0.191
-564.573	132.530	0.056	-0.072
-563.558	800.000	0.050	-0.215
-562.544	53.489	-0.239	0.229
-561.529	-176.133	0.192	-0.005
-560.515	212.101	0.108	0.170
-559.500	-136.640	0.146	-0.017
-558.485	-69.451	-0.076	0.029
-557.471	407.697	-0.139	0.293
-556.456	36.997	0.085	-0.075
-555.442	609.112	0.073	0.182
-554.427	-200.000	-0.244	0.000
-553.412	145.565	-0.130	0.173
-552.398	-41.420	-0.256	-0.132
-551.383	86.254	0.317	0.348
-550.369	-10.010	0.083	0.055
-549.354	52.493	-0.212	0.202
-548.339	31.487	0.092	-0.079
-547.325	501.513	-0.131	-0.303
-546.310	-45.433	-0.194	-0.096
-545.296	346.558	0.106	0.207
-544.281	-75.585	0.046	0.016
-543.266	-70.640	-0.092	-0.035
-542.252	106.852	-0.231	0.274
-541.237	800.000	-0.084	0.279
-540.223	70.757	0.375	0.387
-539.208	-41.241	0.215	0.111
-538.193	323.502	0.127	-0.242
-537.179	-97.603	0.381	-0.099
-536.164	-90.167	0.247	0.072
-535.150	169.114	-0.059	-0.084
-534.135	106.555	0.222	-0.262
-533.121	-93.825	-0.365	-0.100
-532.106	-57.874	-0.166	-0.073
-531.091	179.936	0.102	-0.149
-530.077	169.154	-0.060	0.086
-529.062	-17.412	0.108	0.068
-528.048	800.000	-0.008	0.030
-527.033	-200.000	0.014	0.092
-526.018	800.000	0.067	-0.235
-525.004	-200.000	-0.013	-0.121
-523.989	194.138	-0.119	-0.180
-522.975	-200.000	0.022	0.138
-521.960	800.000	-0.052	-0.196
-520.945	33.725	-0.321	-0.279
-519.931	-27.418	0.054	-0.031
-518.916	396.562	0.037	0.076
-517.902	-88.792	0.201	0.059
-516.887	8.275	-0.140	-0.105
-515.872	591.862	0.041	-0.101
-514.858	-61.440	-0.099	0.042
-513.843	-176.346	-0.120	0.003
-512.829	-200.000	0.069	0.309
-511.814	312.718	0.050	0.093
-510.799	-200.000	-0.020	0.255
-509.785	-50.153	0.336	-0.158
-508.770	-200.000	0.002	0.092
-507.756	64.129	-0.181	-0.182
-506.741	22.085	0.227	-0.184
-505.726	-200.000	0.040	-0.342
-504.712	365.509	-0.151	-0.303
-503.697	-200.000	0.042	-0.286
-502.683	-109.611	0.310	0.065
-501.668	-56.812	0.278	0.123
-500.653	-63.100	-0.165	0.068
-499.639	524.679	-0.050	0.118
-498.624	800.000	-0.016	0.070
-497.610	793.392	-0.082	0.225
-496.595	225.925	-0.129	-0.209
-495.581	-11.156	0.101	0.066
-494.566	212.237	-0.202	-0.317
-493.551	-200.000	-0.006	0.366
-492.537	691.173	-0.120	-0.313
-491.522	35.028	0.140	-0.123
-490.508	379.357	-0.067	-0.138
-489.493	800.000	0.091	-0.289
-488.478	-23.411	0.111	-0.067
-487.464	504.663	-0.099	-0.229
-486.449	800.000	0.110	0.392
-485.435	-200.000	0.025	0.193
-484.420	176.035	0.023	0.033
-483.405	99.700	0.152	0.175
-482.391	450.829	0.182	-0.399
-481.376	147.146	-0.208	-0.279
-480.362	-200.000	0.003	-0.068
-479.347	7.871	-0.251	-0.187
-478.332	73.377	-0.106	-0.111
-477.318	800.000	-0.070	0.208
-476.303	-87.302	-0.302	0.091
-475.289	-92.242	0.247	-0.069
-474.274	-18.110	0.150	-0.094
-473.259	55.043	-0.300	-0.288
-472.245	-4.961	0.113	0.077
-471.230	-200.000	-0.008	-0.092
-470.216	30.833	-0.091	-0.078
-469.201	-200.000	0.100	0.490
-468.186	-18.064	0.134	0.084
-467.172	81.678	0.027	-0.030
-466.157	-85.545	-0.167	0.052
-465.143	800.000	-0.091	-0.346
-464.128	57.900	-0.090	-0.088
-463.113	-104.597	-0.326	-0.075
-462.099	-157.629	-0.130	0.008
-461.084	114.091	-0.098	-0.118
-460.070	-48.232	0.381	0.183
-459.055	-200.000	-0.035	0.313
-458.040	157.051	-0.060	0.083
-457.026	800.000	-0.061	-0.173
-456.011	800.000	-0.039	0.129
-454.997	35.280	-0.078	-0.068
-453.982	-200.000	0.002	-0.233
-452.968	1.679	0.182	-0.130
-451.953	4.754	0.169	-0.123
-450.938	-150.761	0.096	-0.007
-449.924	82.979	0.141	0.152
-448.909	-173.116	-0.117	-0.004
-447.895	135.814	0.056	0.072
-446.880	133.499	0.205	-0.263
-445.865	-102.813	-0.244	0.058
-444.851	-138.047	-0.500	0.055
-443.836	-79.055	-0.183	-0.062
-442.822	-200.000	0.058	0.263
-441.807	800.000	-0.040	-0.172
-440.792	-200.000	-0.044	0.253
-439.778	-159.309	-0.418	0.023
-438.763	-185.943	-0.303	-0.004
-437.749	56.041	-0.126	-0.121
-436.734	534.881	-0.088	-0.208
-435.719	58.477	-0.338	0.330
-434.705	800.000	-0.091	0.273
-433.690	175.380	0.342	0.493
-432.676	44.208	-0.133	-0.122
-431.661	-98.222	0.201	0.051
-430.646	-200.000	0.079	-0.384
-429.632	256.812	-0.233	-0.398
-428.617	128.907	-0.076	-0.097
-427.603	-98.116	0.389	0.099
-426.588	-200.000	0.044	0.386
-425.573	478.434	-0.038	-0.086
-424.559	56.555	-0.228	-0.220
-423.544	-4.974	-0.152	-0.104
-422.530	800.000	0.042	0.163
-421.515	-106.743	0.200	0.044
-420.500	79.101	0.130	-0.138
-419.486	-77.010	-0.328	-0.114
-418.471	-95.346	0.113	-0.030
-417.457	-200.000	0.001	0.164
-416.442	105.903	-0.082	0.096
-415.428	48.442	0.075	-0.070
-414.413	-200.000	0.023	-0.266
-413.398	179.083	0.224	0.325
-412.384	-200.000	0.018	0.318
-411.369	217.107	0.022	-0.035
-410.355	-200.000	0.002	-0.069
-409.340	113.396	0.180	0.217
-408.325	376.483	0.090	-0.182
-407.311	-118.942	0.081	0.014
-406.296	152.515	0.105	0.143
-405.282	-76.418	-0.277	0.097
-404.267	65.141	0.138	-0.139
-403.252	117.171	-0.108	-0.132
-402.238	102.202	-0.121	0.141
-401.223	306.057	0.074	0.137
-400.209	800.000	-0.044	0.191
-399.194	-87.061	0.374	0.113
-398.179	239.136	-0.054	-0.089
-397.165	179.403	0.135	-0.196
-396.150	-99.049	-0.280	0.070
-395.136	177.779	0.145	0.210
-394.121	-53.781	0.241	0.109
-393.106	-112.136	0.129	-0.026
-392.092	144.294	0.178	0.236
-391.077	-77.533	0.234	-0.080
-390.063	-30.610	-0.232	-0.130
-389.048	530.690	0.121	0.285
-388.033	-97.492	-0.059	0.015
-387.019	744.739	-0.178	-0.476
-386.004	-200.000	-0.023	-0.355
-384.990	-92.894	-0.186	-0.052
-383.975	-2.781	0.233	0.162
-382.960	-92.924	0.229	0.063
-381.946	84.863	-0.107	0.116
-380.931	-128.402	-0.324	0.046
-379.917	-187.680	0.239	-0.003
-378.902	-200.000	-0.041	-0.201
-377.888	0.086	0.192	0.136
-376.873	-33.084	0.234	0.129
-375.858	-80.650	-0.306	0.101
-374.844	-10.140	0.263	0.173
-373.829	800.000	-0.075	0.276
-372.815	-92.370	-0.311	-0.087
-371.800	-28.204	0.210	-0.121
-370.785	-19.959	0.045	0.027
-369.771	-79.979	-0.165	0.055
-368.756	-200.000	0.055	-0.506
-367.742	35.104	0.087	0.075
-366.727	-128.991	-0.245	-0.034
-365.712	-124.128	0.192	-0.030
-364.698	251.991	-0.091	-0.153
-363.683	800.000	0.028	-0.114
-362.669	-170.686	-0.260	0.009
-361.654	114.640	0.159	-0.192
-360.639	-82.756	-0.290	-0.093
-359.625	-200.000	0.035	0.168
-358.610	81.277	0.008	0.008
-357.596	-180.201	-0.327	0.007
-356.581	-11.995	-0.421	0.273
-355.566	800.000	-0.073	0.233
-354.552	27.319	0.040	-0.033
-353.537	800.000	-0.058	0.176
-352.523	96.467	0.100	0.114
-351.508	160.197	0.138	-0.191
-350.493	321.899	-0.075	0.141
-349.479	-18.841	0.181	0.112
-348.464	170.784	0.255	-0.362
-347.450	-63.442	-0.275	-0.112
-346.435	-200.000	0.041	0.224
-345.420	-200.000	-0.051	0.253
-344.406	18.448	-0.131	0.104
-343.391	-31.218	-0.028	-0.016
-342.377	727.013	0.045	-0.118
-341.362	-128.870	-0.541	-0.075
-340.348	-107.635	0.260	0.056
-339.333	48.666	0.303	0.281
-338.318	-99.502	0.177	0.044
-337.304	-173.074	0.194	0.006
-336.289	-108.300	0.216	0.046
-335.275	506.031	-0.068	-0.155
-334.260	-78.962	0.187	0.063
-333.245	-200.000	-0.009	0.074
-332.231	-50.592	0.223	0.104
-331.216	-12.885	0.226	0.145
-330.202	800.000	-0.082	-0.261
-329.187	-46.907	0.206	-0.100
-328.172	-34.561	-0.396	0.214
-327.158	-142.674	-0.126	0.012
-326.143	-48.978	0.087	0.041
-325.129	69.694	0.083	-0.085
-324.114	-200.000	-0.020	-0.150
-323.099	167.267	-0.124	0.174
-322.085	117.786	-0.121	0.147
-321.070	-200.000	-0.028	-0.294
-320.056	-38.959	0.273	-0.143
-319.041	135.157	0.143	-0.183
-318.026	-128.957	0.254	-0.035
-317.012	-28.796	0.040	0.023
-315.997	-100.914	-0.285	0.069
-314.983	1.239	-0.091	-0.065
-313.968	25.315	-0.222	-0.182
-312.953	223.412	0.110	-0.175
-311.939	65.325	-0.047	0.047
-310.924	800.000	-0.077	0.228
-309.910	210.068	0.198	0.307
-308.895	-18.224	-0.121	0.075
-307.880	-104.289	-0.324	0.074
-306.866	112.442	-0.123	0.148
-305.851	-200.000	-0.005	0.200
-304.837	-83.356	-0.090	0.029
-303.822	105.014	-0.150	0.176
-302.807	115.552	0.328	0.397
-301.793	613.954	0.134	-0.332
-300.778	-167.464	-0.532	-0.021
-299.764	332.993	-0.086	-0.164
-298.749	-200.000	-0.034	-0.151
-297.735	800.000	0.083	0.291
-296.720	-8.402	-0.043	0.028
-295.705	-57.475	0.153	0.066
-294.691	30.685	-0.137	0.116
-293.676	-22.341	-0.129	-0.077
-292.662	22.540	0.159	-0.128
-291.647	-200.000	0.001	-0.005
-290.632	-126.918	0.358	0.052
-289.618	-88.724	0.148	-0.043
-288.603	-200.000	-0.008	0.385
-287.589	7.719	-0.158	-0.117
-286.574	305.051	0.045	-0.082
-285.559	250.276	0.125	-0.210
-284.545	-200.000	0.025	0.255
-283.530	-66.128	0.464	0.183
-282.516	116.424	0.141	-0.171
-281.501	-200.000	0.064	0.300
-280.486	-106.848	0.173	-0.038
-279.472	-59.052	0.155	-0.066
-278.457	318.287	0.068	0.128
-277.443	-105.795	-0.243	0.054
-276.428	-200.000	0.024	0.111
-275.413	376.707	-0.090	-0.182
-274.399	-200.000	-0.026	-0.363
-273.384	-152.266	0.297	0.021
-272.370	-50.571	-0.234	0.109
-271.355	108.620	-0.242	0.285
-270.340	1.262	0.175	-0.124
-269.326	-47.729	-0.207	-0.099
-268.311	75.518	-0.294	0.307
-267.297	-113.335	-0.206	-0.040
-266.282	-130.202	-0.472	-0.063
-265.267	-53.601	0.219	0.099
-264.253	32.321	-0.150	-0.128
-263.238	265.520	0.094	0.162
-262.224	800.000	-0.107	-0.334
-261.209	-64.286	0.150	-0.060
-260.195	-155.219	0.071	0.005
-259.180	-65.406	-0.160	-0.064
-258.165	-12.585	0.162	0.104
-257.151	-57.063	0.407	-0.177
-256.136	800.000	0.173	0.497
-255.122	-107.259	0.316	0.069
-254.107	10.020	-0.090	-0.068
-253.092	90.654	0.264	0.291
-252.078	800.000	0.052	0.158
-251.063	-91.302	-0.196	0.055
-250.049	718.892	0.081	-0.211
-249.034	-19.712	-0.237	-0.144
-248.019	263.244	-0.091	-0.156
-247.005	-12.074	-0.123	0.079
-245.990	151.439	0.065	0.088
-244.976	-200.000	0.035	-0.428
-243.961	13.033	-0.263	-0.201
-242.946	141.006	-0.217	0.283
-241.932	54.282	0.357	0.339
-240.917	766.902	-0.036	0.097
-239.903	106.741	0.226	-0.265
-238.888	62.914	0.238	0.235
-237.873	30.013	-0.093	-0.078
-236.859	800.000	0.115	-0.386
-235.844	-200.000	0.023	0.357
-234.830	-125.579	-0.127	0.019
-233.815	11.885	-0.034	0.026
-232.800	89.478	0.052	-0.057
-231.786	-200.000	-0.005	-0.246
-230.771	-200.000	-0.036	0.363
-229.757	242.771	-0.104	-0.172
-228.742	800.000	-0.050	-0.210
-227.727	800.000	0.060	-0.186
-226.713	-70.367	0.028	-0.010
-225.698	492.044	-0.031	-0.069
-224.684	41.575	0.035	-0.031
-223.669	610.948	0.016	-0.040
-222.655	800.000	-0.083	-0.249
-221.640	-187.410	0.403	0.005
-220.625	-115.271	0.105	-0.020
-219.611	567.393	0.226	0.542
-218.596	-127.430	-0.329	0.047
-217.582	-74.424	-0.046	0.016
-216.567	28.219	-0.092	-0.076
-215.552	22.013	0.268	0.215
-214.538	-89.910	-0.150	-0.043
-213.523	-200.000	0.043	0.374
-212.509	458.294	-0.076	0.166
-211.494	800.000	0.079	-0.276
-210.479	800.000	-0.022	0.090
-209.465	-200.000	0.015	0.171
-208.450	-12.669	-0.222	-0.143
-207.436	114.796	0.214	-0.257
-206.421	582.684	-0.095	0.230
-205.406	-107.717	0.090	-0.019
-204.392	0.960	-0.184	-0.130
-203.377	800.000	-0.104	-0.346
-202.363	40.554	-0.106	-0.094
-201.348	-200.000	0.023	0.334
-200.333	210.131	0.243	0.376
-199.319	-200.000	-0.010	0.338
-198.304	66.681	0.199	-0.200
-197.290	-62.348	-0.301	-0.123
-196.275	348.905	0.033	0.063
-195.260	-189.189	-0.291	0.003
-194.246	-200.000	-0.035	-0.324
-193.231	-8.955	0.256	0.169
-192.217	-200.000	-0.054	-0.265
-191.202	94.310	-0.084	-0.094
-190.187	800.000	-0.026	0.096
-189.173	76.542	-0.090	0.094
-188.158	-38.711	-0.206	-0.107
-187.144	157.243	-0.099	0.134
-186.129	800.000	-0.019	0.064
-185.114	35.998	0.154	-0.133
-184.100	-200.000	0.094	0.575
-183.085	-77.907	-0.131	0.044
-182.071	-60.365	-0.105	0.044
-181.056	-167.106	0.270	0.011
-180.042	398.605	0.082	0.170
-179.027	-200.000	0.024	-0.265
-178.012	546.471	0.042	-0.099
-176.998	-148.714	0.304	-0.024
-175.983	50.987	0.250	-0.233
-174.969	387.326	-0.155	-0.315
-173.954	46.992	0.221	-0.202
-172.939	-200.000	0.035	-0.158
-171.925	351.562	0.119	-0.231
-170.910	-28.381	0.028	-0.016
-169.896	760.191	0.034	0.091
-168.881	76.375	-0.174	0.182
-167.866	-200.000	0.023	0.105
-166.852	-97.120	-0.034	0.009
-165.837	119.350	-0.198	-0.241
-164.823	-79.086	0.118	0.039
-163.808	-200.000	0.064	-0.289
-162.793	-200.000	-0.045	-0.270
-161.779	158.892	-0.149	0.203
-160.764	547.691	0.106	0.251
-159.750	800.000	0.126	-0.384
-158.735	-200.000	-0.006	-0.091
-157.720	150.058	0.162	0.216
-156.706	-0.579	-0.033	-0.023
-155.691	-6.554	0.103	-0.069
-154.677	-102.314	0.284	-0.067
-153.662	800.000	-0.047	0.176
-152.647	210.386	0.147	-0.227
-151.633	-59.476	-0.172	-0.073
-150.618	690.199	0.118	-0.304
-149.604	328.072	0.096	0.182
-148.589	0.536	-0.287	-0.202
-147.574	20.676	-0.001	-0.000
-146.560	-200.000	-0.039	0.297
-145.545	271.790	-0.201	0.348
-144.531	800.000	-0.073	0.304
-143.516	172.393	0.076	-0.107
-142.502	156.105	-0.218	-0.296
-141.487	-106.181	0.557	-0.123
-140.472	-80.788	-0.067	0.022
-139.458	-0.987	0.218	0.151
-138.443	202.202	-0.123	-0.187
-137.429	65.492	-0.158	-0.157
-136.414	-25.284	-0.026	-0.015
-135.399	-200.000	-0.015	-0.182
-134.385	357.835	0.135	0.264
-133.370	354.069	-0.103	0.200
-132.356	427.198	-0.066	0.141
-131.341	81.578	0.257	-0.274
-130.326	-152.543	-0.209	0.015
-129.312	172.793	0.117	0.165
-128.297	-0.772	-0.186	0.129
-127.283	-18.721	-0.249	0.152
-126.268	-78.165	-0.321	0.108
-125.253	-200.000	-0.028	-0.242
-124.239	732.017	-0.026	0.067
-123.224	-141.804	-0.139	0.014
-122.210	-200.000	-0.040	-0.197
-121.195	-64.020	0.230	-0.092
