DTS Sentinel unit serial number:	SN413079Multiplexer serial number:	ORYXHardware model number:	OX4-SRSoftware version number:	ORYX F/W v4.00 Oryx Data Collector v3.7.2.0data status	okinstallation	princeton_trtdifferential loss correction	single-endedforward channel	channel 3reverse channel	N/Adate	2019/09/12time	01:06:11forward acquisition time	60.00reverse acquisition time	0.00gamma	496.2192k internal	0.2319k external	0.2319temperature offset calibration	1.0071default loss term (dB/km)	0.3790temperature slope calibration	1.0000multiplexer offset coefficient	1.0000multiplexer slope coefficient	1.0000fibre end	0.00T internal ref (°C)	33.12T ext. ref 1 (°C)	2.09T ext. ref 2 (°C)	27.20length (m)	temperature (°C)	Stokes	anti-Stokes-747.200	-67.825	0.301	-0.119
-746.185	423.999	0.127	0.276
-745.171	-151.931	0.015	-0.001
-744.156	-22.884	-0.153	0.093
-743.142	-4.141	0.032	-0.023
-742.127	328.509	0.228	0.443
-741.112	-108.212	-0.254	0.055
-740.098	-200.000	0.015	0.183
-739.083	-3.218	0.432	0.305
-738.069	-148.431	0.121	0.010
-737.054	310.947	-0.162	0.306
-736.039	-4.071	-0.367	0.257
-735.025	800.000	0.035	-0.101
-734.010	67.851	-0.107	-0.110
-732.996	-200.000	-0.002	-0.092
-731.981	470.817	0.108	-0.245
-730.966	-106.801	-0.042	-0.009
-729.952	-29.956	0.217	0.125
-728.937	-137.641	-0.118	0.013
-727.923	-200.000	0.039	-0.231
-726.908	544.015	0.069	0.167
-725.894	115.191	0.265	0.327
-724.879	45.639	-0.149	0.139
-723.864	-200.000	-0.014	0.352
-722.850	-59.352	0.112	-0.049
-721.835	-36.913	0.046	-0.025
-720.821	-119.790	-0.323	0.056
-719.806	-200.000	0.021	0.115
-718.791	230.580	-0.015	-0.025
-717.777	800.000	0.056	0.228
-716.762	41.508	-0.246	0.225
-715.748	31.217	0.077	0.067
-714.733	-139.773	-0.160	-0.017
-713.718	-200.000	-0.001	0.027
-712.704	-87.995	-0.125	-0.038
-711.689	-13.916	0.160	-0.104
-710.675	53.364	-0.166	0.161
-709.660	164.449	-0.124	0.177
-708.645	-125.333	-0.310	0.048
-707.631	387.127	-0.046	-0.096
-706.616	350.265	0.128	0.256
-705.602	105.908	-0.170	-0.203
-704.587	-142.202	0.072	-0.007
-703.572	721.683	0.150	0.402
-702.558	-196.635	-0.403	-0.003
-701.543	342.677	0.084	0.165
-700.529	121.170	0.175	-0.220
-699.514	-191.826	-0.292	0.003
-698.499	-129.395	-0.409	0.057
-697.485	105.161	0.148	0.177
-696.470	41.065	0.097	-0.088
-695.456	-78.556	-0.092	-0.032
-694.441	-8.815	-0.251	0.170
-693.426	127.563	-0.217	-0.278
-692.412	-35.822	-0.222	-0.121
-691.397	-45.788	0.226	0.113
-690.383	-200.000	-0.007	0.268
-689.368	800.000	-0.083	-0.258
-688.354	-34.709	-0.290	-0.160
-687.339	-167.712	0.232	0.009
-686.324	304.138	0.177	-0.331
-685.310	-9.031	-0.122	0.082
-684.295	-169.669	-0.208	-0.008
-683.281	-59.355	0.174	-0.076
-682.266	33.138	-0.178	-0.156
-681.251	-85.277	0.389	-0.123
-680.237	0.718	-0.141	-0.101
-679.222	-43.058	-0.229	0.117
-678.208	512.801	0.184	0.431
-677.193	-10.566	-0.082	-0.055
-676.178	-26.862	0.098	0.058
-675.164	-123.953	0.306	-0.049
-674.149	-200.000	-0.037	0.291
-673.135	132.103	0.142	-0.185
-672.120	243.144	-0.173	-0.293
-671.105	-22.885	0.064	-0.039
-670.091	333.462	0.036	0.069
-669.076	-2.776	-0.255	0.180
-668.062	448.826	0.083	0.184
-667.047	211.365	0.166	0.264
-666.032	800.000	-0.052	-0.192
-665.018	6.174	0.450	0.337
-664.003	212.216	0.110	-0.174
-662.989	2.574	-0.234	0.171
-661.974	-200.000	-0.046	0.301
-660.959	-23.747	-0.087	-0.052
-659.945	-147.616	-0.110	0.009
-658.930	-157.412	0.444	0.027
-657.916	10.622	-0.228	-0.176
-656.901	161.120	0.270	-0.381
-655.886	254.884	-0.085	-0.146
-654.872	120.750	0.189	0.237
-653.857	-138.117	-0.096	0.011
-652.843	800.000	0.093	-0.272
-651.828	-200.000	0.012	-0.439
-650.814	-31.970	0.259	-0.146
-649.799	-131.469	-0.287	-0.038
-648.784	-84.518	-0.262	0.083
-647.770	70.861	0.380	-0.396
-646.755	-101.522	-0.257	-0.063
-645.741	261.814	0.152	-0.266
-644.726	148.459	-0.090	-0.122
-643.711	-68.939	-0.118	-0.046
-642.697	-176.988	-0.190	0.005
-641.682	-70.869	-0.394	0.150
-640.668	-39.489	-0.029	0.015
-639.653	-200.000	0.030	-0.222
-638.638	43.509	0.085	0.078
-637.624	800.000	-0.067	-0.227
-636.609	87.615	-0.245	-0.273
-635.595	-25.736	-0.417	0.247
-634.580	42.842	0.125	-0.115
-633.565	-13.379	0.110	0.072
-632.551	377.019	0.117	0.240
-631.536	14.036	0.301	-0.236
-630.522	-200.000	0.006	-0.061
-629.507	-2.916	-0.187	0.132
-628.492	-25.255	-0.113	-0.068
-627.478	-70.318	0.113	-0.043
-626.463	-200.000	0.005	0.217
-625.449	-108.724	-0.161	0.035
-624.434	63.847	0.198	-0.200
-623.419	395.474	0.089	0.187
-622.405	-51.757	-0.063	-0.029
-621.390	-152.481	0.264	-0.019
-620.376	800.000	-0.030	0.119
-619.361	800.000	-0.019	-0.067
-618.346	-107.830	0.157	0.034
-617.332	-146.835	0.124	0.011
-616.317	-30.048	0.243	0.139
-615.303	240.182	0.177	0.297
-614.288	211.254	0.030	0.047
-613.273	-200.000	0.025	-0.223
-612.259	-48.801	-0.049	0.024
-611.244	-22.030	0.353	-0.216
-610.230	-63.474	-0.217	0.090
-609.215	-200.000	-0.061	-0.407
-608.201	-200.000	-0.028	0.226
-607.186	687.523	0.175	-0.460
-606.171	31.422	-0.241	0.208
-605.157	-154.726	-0.159	-0.011
-604.142	-30.310	0.286	0.163
-603.128	55.213	0.106	-0.103
-602.113	-116.366	0.271	-0.050
-601.098	800.000	-0.090	-0.324
-600.084	800.000	-0.022	0.070
-599.069	388.419	0.149	-0.309
-598.055	480.719	0.104	0.237
-597.040	-30.674	0.244	0.139
-596.025	-47.677	-0.191	-0.093
-595.011	107.058	-0.252	0.301
-593.996	-151.649	-0.281	0.021
-592.982	800.000	-0.060	-0.205
-591.967	16.904	0.170	-0.135
-590.952	491.267	0.034	-0.079
-589.938	240.775	0.016	0.026
-588.923	-191.358	0.164	-0.002
-587.909	-142.007	0.179	0.018
-586.894	791.579	-0.052	0.144
-585.879	-200.000	0.013	0.194
-584.865	-64.415	-0.312	-0.128
-583.850	-54.350	-0.198	0.090
-582.836	146.601	-0.073	-0.098
-581.821	-137.567	-0.244	0.028
-580.806	-113.167	-0.576	-0.114
-579.792	-137.138	0.252	-0.029
-578.777	-38.338	-0.358	0.191
-577.763	37.598	-0.239	0.213
-576.748	-103.347	-0.386	-0.092
-575.733	-127.639	-0.098	0.014
-574.719	-47.619	-0.241	0.118
-573.704	-41.053	0.149	-0.077
-572.690	-200.000	0.016	0.286
-571.675	517.041	0.150	0.353
-570.661	800.000	-0.047	-0.169
-569.646	-102.296	-0.118	-0.028
-568.631	560.169	0.056	0.137
-567.617	218.981	-0.061	-0.097
-566.602	-200.000	-0.006	0.045
-565.588	-5.684	0.018	-0.013
-564.573	-200.000	-0.377	0.002
-563.558	1.457	-0.248	-0.179
-562.544	282.528	0.153	-0.276
-561.529	43.458	0.222	0.203
-560.515	800.000	0.073	-0.203
-559.500	3.893	-0.073	0.054
-558.485	-174.038	-0.133	-0.004
-557.471	49.199	-0.396	0.374
-556.456	-91.148	-0.287	0.083
-555.442	-200.000	0.007	-0.100
-554.427	800.000	0.072	-0.252
-553.412	529.094	-0.099	-0.234
-552.398	-89.791	-0.164	0.048
-551.383	-200.000	0.069	-0.367
-550.369	-68.064	-0.474	-0.186
-549.354	-149.636	-0.474	0.037
-548.339	-135.306	-0.176	0.021
-547.325	800.000	-0.048	0.142
-546.310	260.271	0.282	-0.489
-545.296	39.285	0.148	-0.133
-544.281	158.618	-0.218	0.303
-543.266	-200.000	0.056	0.334
-542.252	-69.866	0.257	0.098
-541.237	-28.145	-0.318	0.185
-540.223	-200.000	0.095	-0.589
-539.208	424.791	-0.083	0.179
-538.193	-200.000	-0.026	0.265
-537.179	82.665	-0.020	0.022
-536.164	-111.283	0.237	0.049
-535.150	-200.000	0.034	0.305
-534.135	108.787	-0.103	-0.124
-533.121	-200.000	-0.094	-0.488
-532.106	-200.000	-0.010	-0.314
-531.091	-121.107	0.291	0.049
-530.077	15.183	0.116	0.091
-529.062	-121.303	-0.055	0.009
-528.048	-80.834	-0.411	-0.137
-527.033	-200.000	-0.002	-0.375
-526.018	339.136	-0.220	-0.430
-525.004	-200.000	-0.032	0.191
-523.989	800.000	-0.109	0.360
-522.975	132.883	-0.127	0.164
-521.960	200.011	0.075	0.116
-520.945	-56.983	-0.097	0.043
-519.931	-153.410	0.362	0.025
-518.916	368.227	0.133	-0.270
-517.902	-107.908	-0.334	0.073
-516.887	583.357	-0.050	0.123
-515.872	7.195	0.066	-0.050
-514.858	73.497	0.065	0.068
-513.843	-39.495	0.081	0.043
-512.829	-107.501	0.086	0.019
-511.814	-32.252	0.191	-0.107
-510.799	25.754	-0.185	-0.155
-509.785	-1.465	0.256	-0.181
-508.770	-98.109	0.221	0.057
-507.756	138.670	-0.253	-0.333
-506.741	-131.981	0.257	0.034
-505.726	-200.000	0.001	0.019
-504.712	-200.000	-0.005	0.165
-503.697	-115.872	0.258	0.048
-502.683	-200.000	0.007	0.058
-501.668	-200.000	0.005	-0.092
-500.653	151.898	0.067	-0.092
-499.639	24.848	-0.220	-0.182
-498.624	-146.049	0.383	0.034
-497.610	64.222	-0.185	0.186
-496.595	-200.000	-0.002	-0.199
-495.581	800.000	0.160	0.451
-494.566	800.000	-0.033	-0.113
-493.551	-13.626	-0.187	0.121
-492.537	-156.210	0.173	0.011
-491.522	699.233	0.044	-0.116
-490.508	-53.404	0.355	0.163
-489.493	-200.000	0.014	0.287
-488.478	692.459	-0.048	0.125
-487.464	-200.000	0.009	0.063
-486.449	100.984	0.163	0.190
-485.435	-200.000	-0.032	0.238
-484.420	-200.000	0.007	0.114
-483.405	800.000	-0.042	-0.129
-482.391	68.441	0.156	0.160
-481.376	-200.000	0.023	-0.155
-480.362	560.801	0.051	-0.122
-479.347	306.343	-0.102	0.189
-478.332	-35.975	0.205	0.111
-477.318	800.000	-0.100	-0.327
-476.303	55.484	-0.151	-0.147
-475.289	356.579	-0.018	0.037
-474.274	-78.756	0.058	0.020
-473.259	800.000	-0.119	-0.487
-472.245	800.000	0.024	0.092
-471.230	-200.000	0.026	0.161
-470.216	-45.168	0.219	-0.109
-469.201	533.922	-0.019	-0.045
-468.186	-17.753	0.200	0.126
-467.172	-107.627	-0.210	0.046
-466.157	-200.000	-0.010	0.127
-465.143	20.895	0.039	-0.032
-464.128	109.849	0.268	-0.321
-463.113	81.184	0.141	-0.152
-462.099	223.089	0.184	-0.296
-461.084	92.339	-0.196	0.221
-460.070	171.535	0.187	-0.269
-459.055	-49.077	0.397	-0.190
-458.040	204.700	-0.217	0.336
-457.026	-132.223	-0.102	-0.013
-456.011	-96.308	-0.229	-0.061
-454.997	530.887	0.063	-0.149
-453.982	-200.000	-0.016	-0.144
-452.968	-150.172	0.423	0.033
-451.953	-37.324	-0.398	-0.212
-450.938	800.000	0.061	0.193
-449.924	-63.660	0.103	-0.042
-448.909	-35.550	0.105	0.057
-447.895	-12.487	0.201	-0.131
-446.880	-91.439	0.164	0.047
-445.865	-10.294	0.291	-0.193
-444.851	800.000	0.075	-0.269
-443.836	800.000	0.083	-0.255
-442.822	-200.000	-0.012	-0.127
-441.807	49.930	-0.139	-0.131
-440.792	-25.443	0.262	0.155
-439.778	-200.000	0.013	0.151
-438.763	51.093	-0.154	-0.146
-437.749	5.657	0.264	0.195
-436.734	800.000	0.076	0.212
-435.719	103.788	0.072	0.085
-434.705	-107.662	0.137	0.030
-433.690	-200.000	0.041	0.263
-432.676	-32.083	-0.111	-0.062
-431.661	460.460	-0.135	-0.300
-430.646	800.000	-0.127	0.444
-429.632	800.000	-0.066	0.207
-428.617	800.000	0.032	0.109
-427.603	-73.745	0.186	0.068
-426.588	800.000	-0.064	0.219
-425.573	6.192	-0.334	-0.248
-424.559	-66.385	0.289	-0.115
-423.544	-200.000	0.014	-0.270
-422.530	316.931	0.091	0.172
-421.515	-44.860	0.065	0.033
-420.500	-200.000	-0.001	-0.015
-419.486	-136.789	-0.289	0.033
-418.471	153.951	0.103	-0.141
-417.457	45.698	-0.121	0.112
-416.442	-70.486	-0.158	-0.060
-415.428	20.721	-0.183	0.148
-414.413	75.828	-0.182	-0.192
-413.398	-110.957	-0.165	0.034
-412.384	-15.738	-0.130	-0.083
-411.369	-200.000	0.078	-0.349
-410.355	-200.000	0.025	-0.152
-409.340	-104.127	-0.527	-0.122
-408.325	800.000	-0.030	0.107
-407.311	-200.000	-0.032	-0.300
-406.296	-126.718	-0.164	-0.024
-405.282	723.452	0.071	0.189
-404.267	-152.575	0.288	-0.021
-403.252	193.830	0.077	-0.117
-402.238	-96.762	-0.237	0.062
-401.223	-160.611	0.280	0.015
-400.209	103.405	0.197	0.231
-399.194	-37.513	0.143	-0.076
-398.179	-179.404	-0.313	-0.007
-397.165	-200.000	-0.068	0.356
-396.150	179.711	-0.073	-0.107
-395.136	-200.000	-0.002	0.395
-394.121	284.963	0.153	-0.275
-393.106	-200.000	-0.021	0.121
-392.092	152.862	-0.051	0.069
-391.077	-144.157	-0.251	-0.023
-390.063	800.000	0.076	-0.216
-389.048	302.584	0.148	-0.273
-388.033	-200.000	0.016	0.096
-387.019	800.000	0.035	-0.143
-386.004	-52.051	0.399	0.185
-384.990	693.222	0.067	-0.175
-383.975	592.620	-0.135	-0.334
-382.960	-130.273	0.153	0.021
-381.946	-193.657	0.197	-0.002
-380.931	-110.891	0.150	0.031
-379.917	299.300	0.067	0.123
-378.902	-44.619	0.200	0.100
-377.888	161.623	-0.051	-0.071
-376.873	256.981	-0.125	0.215
-375.858	-158.600	0.203	-0.012
-374.844	659.545	-0.114	0.293
-373.829	7.035	-0.276	0.205
-372.815	46.988	0.145	0.135
-371.800	-94.238	-0.060	0.016
-370.785	181.274	0.180	-0.264
-369.771	-35.154	-0.400	0.217
-368.756	-200.000	0.015	0.308
-367.742	133.745	-0.101	-0.131
-366.727	-30.167	-0.139	0.079
-365.712	-73.384	-0.262	0.096
-364.698	800.000	0.037	-0.149
-363.683	-86.427	0.231	0.071
-362.669	-153.800	-0.475	0.032
-361.654	-200.000	0.081	0.453
-360.639	-33.109	0.237	-0.131
-359.625	49.628	-0.038	-0.036
-358.610	402.125	-0.092	0.193
-357.596	72.971	-0.276	-0.288
-356.581	157.771	-0.173	-0.239
-355.566	266.970	-0.199	0.346
-354.552	800.000	0.086	-0.297
-353.537	-192.272	-0.193	-0.002
-352.523	-118.904	0.114	0.020
-351.508	-98.273	0.382	0.098
-350.493	-81.558	0.378	-0.124
-349.479	-6.658	0.241	-0.164
-348.464	-84.415	0.175	0.055
-347.450	-0.316	-0.250	-0.177
-346.435	540.155	-0.083	0.198
-345.420	-200.000	-0.025	0.211
-344.406	800.000	-0.021	0.081
-343.391	-107.869	-0.364	0.079
-342.377	130.040	-0.075	-0.095
-341.362	41.033	-0.048	-0.044
-340.348	-145.662	0.216	0.019
-339.333	-74.388	0.294	0.106
-338.318	-118.870	0.105	0.018
-337.304	-32.383	-0.330	0.183
-336.289	-200.000	-0.006	0.114
-335.275	800.000	-0.086	0.350
-334.260	-99.713	0.050	-0.013
-333.245	138.253	0.204	-0.266
-332.231	-55.824	0.096	0.043
-331.216	306.695	0.091	0.169
-330.202	404.653	0.073	0.153
-329.187	175.650	-0.089	-0.129
-328.172	-178.360	-0.144	0.003
-327.158	735.374	-0.040	-0.106
-326.143	324.980	0.017	-0.032
-325.129	-128.412	-0.079	0.011
-324.114	800.000	-0.014	0.044
-323.099	432.954	0.056	0.121
-322.085	-117.476	0.332	0.060
-321.070	111.026	-0.176	-0.210
-320.056	-9.587	0.344	-0.228
-319.041	96.345	-0.117	0.133
-318.026	47.525	-0.106	-0.098
-317.012	-200.000	-0.036	0.268
-315.997	190.049	0.250	-0.374
-314.983	196.947	0.205	0.310
-313.968	-200.000	-0.024	0.128
-312.953	-65.337	0.293	-0.117
-311.939	166.389	-0.217	-0.306
-310.924	-44.862	0.369	-0.183
-309.910	-76.008	-0.228	-0.080
-308.895	-43.066	0.242	0.122
-307.880	176.082	0.169	-0.244
-306.866	-147.426	-0.289	0.024
-305.851	599.374	-0.036	0.089
-304.837	-1.552	0.054	-0.038
-303.822	800.000	0.038	-0.154
-302.807	-114.987	0.093	-0.018
-301.793	330.449	-0.128	0.246
-300.778	-147.229	0.333	0.028
-299.764	234.749	-0.067	0.110
-298.749	127.757	0.050	0.063
-297.735	167.496	0.082	-0.115
-296.720	-143.280	-0.441	-0.042
-295.705	-33.901	-0.259	-0.142
-294.691	-109.537	0.314	0.066
-293.676	-180.193	0.159	0.003
-292.662	-200.000	0.055	-0.466
-291.647	-78.410	-0.158	-0.054
-290.632	-167.108	0.291	-0.012
-289.618	318.227	-0.150	0.283
-288.603	-56.190	0.122	0.054
-287.589	-200.000	-0.015	0.158
-286.574	-200.000	0.011	0.175
-285.559	-200.000	0.031	-0.208
-284.545	36.219	-0.196	0.172
-283.530	-200.000	0.011	0.206
-282.516	67.768	0.144	0.146
-281.501	-105.383	0.139	-0.031
-280.486	-110.824	-0.040	0.008
-279.472	800.000	0.082	-0.228
-278.457	-149.368	0.182	0.014
-277.443	-63.057	-0.493	-0.202
-276.428	297.477	-0.044	0.081
-275.413	-180.030	0.144	0.003
-274.399	800.000	-0.023	0.084
-273.384	583.906	-0.138	-0.337
-272.370	-122.607	-0.155	0.025
-271.355	-64.205	0.213	-0.086
-270.340	-200.000	-0.037	0.337
-269.326	-200.000	-0.003	0.114
-268.311	149.816	0.105	-0.141
-267.297	106.768	0.118	-0.139
-266.282	-64.299	0.245	0.099
-265.267	480.004	-0.138	0.311
-264.253	-200.000	0.002	0.236
-263.238	-36.014	0.065	-0.035
-262.224	800.000	-0.071	-0.221
-261.209	-40.161	-0.135	-0.070
-260.195	-62.014	-0.164	0.068
-259.180	-119.544	0.038	0.006
-258.165	800.000	0.017	-0.052
-257.151	-119.830	0.228	0.039
-256.136	-156.473	-0.496	0.031
-255.122	88.117	0.045	0.050
-254.107	252.310	0.126	0.213
-253.092	459.730	0.094	-0.209
-252.078	-57.772	0.222	-0.097
-251.063	17.482	-0.213	0.168
-250.049	155.989	0.214	0.292
-249.034	212.533	0.154	0.241
-248.019	800.000	0.057	0.171
-247.005	113.681	-0.196	-0.237
-245.990	601.122	-0.085	-0.210
-244.976	247.551	0.025	-0.042
-243.961	2.174	0.186	0.133
-242.946	-18.836	-0.302	-0.187
-241.932	-79.626	0.170	0.057
-240.917	-9.440	-0.307	0.204
-239.903	-200.000	0.039	-0.186
-238.888	213.409	0.213	-0.334
-237.873	2.849	-0.198	-0.143
-236.859	538.491	0.140	0.331
-235.844	-35.818	-0.330	0.177
-234.830	800.000	0.096	-0.395
-233.815	4.523	-0.111	-0.081
-232.800	-94.226	-0.243	0.066
-231.786	292.973	0.146	0.264
-230.771	150.733	0.107	0.144
-229.757	-54.812	-0.111	-0.050
-228.742	143.842	-0.167	-0.221
-227.727	197.159	-0.309	0.467
-226.713	-200.000	0.007	-0.249
-225.698	-179.857	0.117	0.002
-224.684	800.000	0.101	0.422
-223.669	-62.159	-0.184	0.076
-222.655	26.555	-0.169	-0.140
-221.640	775.083	-0.039	-0.107
-220.625	-132.726	0.088	-0.011
-219.611	-54.916	0.232	-0.104
-218.596	-62.053	-0.289	-0.119
-217.582	344.944	-0.078	0.152
-216.567	3.936	-0.178	-0.129
-215.552	-14.293	0.197	0.126
-214.538	-200.000	-0.004	-0.018
-213.523	-26.191	0.225	0.131
-212.509	-67.519	0.207	-0.080
-211.494	-102.114	0.229	-0.055
-210.479	800.000	-0.064	0.195
-209.465	339.806	-0.061	-0.118
-208.450	559.815	-0.151	-0.361
-207.436	198.682	0.142	0.215
-206.421	-58.613	0.433	0.186
-205.406	-39.656	0.089	-0.046
-204.392	64.716	0.213	0.212
-203.377	399.451	-0.102	0.211
-202.363	-200.000	0.002	0.066
-201.348	800.000	0.051	-0.212
-200.333	-75.487	-0.309	-0.109
-199.319	-180.101	-0.137	-0.003
-198.304	-200.000	-0.003	-0.213
-197.290	-106.183	-0.391	0.087
-196.275	121.220	-0.245	0.302
-195.260	144.413	0.195	-0.258
-194.246	-200.000	0.020	0.104
-193.231	39.607	-0.166	0.147
-192.217	800.000	-0.085	-0.255
-191.202	767.059	-0.125	0.337
-190.187	-200.000	-0.004	0.097
-189.173	492.473	0.150	-0.340
-188.158	-75.761	0.166	0.058
-187.144	-165.701	0.209	-0.009
-186.129	468.356	0.085	0.190
-185.114	103.463	-0.092	-0.107
-184.100	-30.340	-0.155	0.087
-183.085	-33.790	0.120	0.066
-182.071	-139.301	0.104	0.011
-181.056	-200.000	0.026	0.452
-180.042	164.137	0.100	-0.140
-179.027	630.264	0.107	0.268
-178.012	-200.000	0.031	-0.148
-176.998	-2.641	-0.188	-0.130
-175.983	-200.000	-0.024	-0.379
-174.969	-40.836	0.399	0.204
-173.954	-200.000	-0.001	-0.151
-172.939	-107.857	0.028	-0.006
-171.925	104.907	-0.065	0.076
-170.910	-63.148	0.271	-0.110
-169.896	800.000	0.043	0.134
-168.881	78.909	0.086	0.091
-167.866	-91.618	0.098	-0.028
-166.852	-100.104	0.276	-0.068
-165.837	-200.000	0.032	-0.263
-164.823	172.694	-0.099	0.141
-163.808	340.902	0.039	0.075
-162.793	-130.652	0.299	-0.040
-161.779	-136.705	-0.119	-0.014
-160.764	800.000	-0.058	-0.207
-159.750	800.000	0.118	0.352
-158.735	69.222	-0.058	0.059
-157.720	-37.468	-0.266	0.140
-156.706	-75.052	-0.173	-0.061
-155.691	-200.000	-0.036	0.170
-154.677	156.598	0.153	-0.209
-153.662	66.265	0.068	-0.068
-152.647	-130.903	0.182	-0.024
-151.633	-29.642	-0.346	0.195
-150.618	165.181	-0.169	0.235
-149.604	800.000	0.132	0.393
-148.589	-48.759	-0.036	-0.017
-147.574	-200.000	-0.056	-0.304
-146.560	-200.000	-0.060	0.403
-145.545	99.569	-0.052	0.059
-144.531	800.000	-0.070	-0.199
-143.516	-49.457	-0.072	0.034
-142.502	-200.000	0.058	0.280
-141.487	-4.817	0.154	-0.105
-140.472	-68.167	0.043	0.016
-139.458	353.901	-0.070	-0.136
-138.443	74.850	-0.230	-0.240
-137.429	-90.913	0.367	-0.104
-136.414	-24.422	-0.147	0.086
-135.399	459.978	0.166	-0.365
-134.385	245.083	-0.115	0.191
-133.370	800.000	-0.037	0.133
-132.356	698.243	0.065	-0.169
-131.341	-72.134	-0.127	0.047
-130.326	146.347	-0.155	-0.206
-129.312	754.408	0.070	0.186
-128.297	42.608	0.159	-0.143
-127.283	-149.780	0.378	-0.029
-126.268	-200.000	0.029	-0.240
-125.253	-200.000	-0.005	-0.076
-124.239	-148.021	0.171	0.014
-123.224	-200.000	-0.007	0.385
-122.210	-67.412	-0.109	0.042
-121.195	-200.000	0.020	-0.210
