DTS Sentinel unit serial number:	SN413079Multiplexer serial number:	ORYXHardware model number:	OX4-SRSoftware version number:	ORYX F/W v4.00 Oryx Data Collector v3.7.2.0data status	okinstallation	princeton_trtdifferential loss correction	single-endedforward channel	channel 3reverse channel	N/Adate	2019/09/11time	11:30:11forward acquisition time	60.00reverse acquisition time	0.00gamma	496.2192k internal	0.2294k external	0.2294temperature offset calibration	0.9938default loss term (dB/km)	0.3790temperature slope calibration	1.0000multiplexer offset coefficient	1.0000multiplexer slope coefficient	1.0000fibre end	0.00T internal ref (°C)	38.03T ext. ref 1 (°C)	0.17T ext. ref 2 (°C)	36.00length (m)	temperature (°C)	Stokes	anti-Stokes-747.200	104.341	-0.126	0.151
-746.185	31.300	0.328	0.288
-745.171	-170.592	0.223	0.008
-744.156	234.197	0.182	0.307
-743.142	-101.627	0.263	0.065
-742.127	-200.000	-0.031	0.169
-741.112	-140.949	-0.205	0.022
-740.098	-162.111	-0.192	0.010
-739.083	-200.000	0.001	0.069
-738.069	76.790	-0.261	0.284
-737.054	12.652	0.241	-0.190
-736.039	800.000	-0.025	0.106
-735.025	-93.306	0.341	-0.097
-734.010	-41.357	0.209	0.110
-732.996	-106.314	0.183	-0.042
-731.981	-80.081	-0.078	0.027
-730.966	182.997	-0.097	0.147
-729.952	20.680	0.136	0.113
-728.937	-81.864	0.140	0.047
-727.923	-131.457	0.074	-0.010
-726.908	-68.727	-0.216	0.085
-725.894	226.336	0.067	0.112
-724.879	-200.000	0.100	0.483
-723.864	-18.486	-0.072	-0.046
-722.850	193.106	-0.122	-0.188
-721.835	800.000	0.053	-0.226
-720.821	-145.567	-0.172	0.016
-719.806	394.436	-0.035	0.075
-718.791	-138.394	-0.189	-0.021
-717.777	-35.082	-0.125	0.069
-716.762	184.676	-0.110	-0.167
-715.748	64.794	-0.298	-0.307
-714.733	800.000	0.026	0.114
-713.718	-104.961	0.183	0.043
-712.704	-200.000	-0.163	-0.001
-711.689	-94.571	0.388	-0.108
-710.675	88.974	-0.211	-0.240
-709.660	-54.184	-0.194	0.090
-708.645	98.746	0.194	0.229
-707.631	-22.339	-0.216	0.133
-706.616	-56.688	-0.061	-0.028
-705.602	-63.198	0.201	-0.085
-704.587	-83.754	0.179	0.058
-703.572	800.000	-0.118	0.362
-702.558	-58.548	0.222	-0.098
-701.543	-143.600	0.315	0.031
-700.529	-121.353	0.271	0.046
-699.514	171.351	0.049	-0.071
-698.499	-200.000	0.015	-0.312
-697.485	523.828	0.058	-0.138
-696.470	215.812	-0.029	0.047
-695.456	-61.386	0.042	0.018
-694.441	-98.055	-0.204	-0.054
-693.426	-7.715	-0.186	0.128
-692.412	-105.040	-0.114	-0.027
-691.397	37.615	-0.238	-0.215
-690.383	87.143	-0.151	0.171
-689.368	-37.560	-0.082	-0.045
-688.354	444.101	0.030	-0.068
-687.339	82.555	-0.163	0.181
-686.324	457.174	-0.099	-0.225
-685.310	-115.136	-0.429	-0.083
-684.295	-53.507	0.254	-0.119
-683.281	-84.178	-0.257	-0.083
-682.266	-143.179	0.156	-0.015
-681.251	399.758	-0.037	-0.080
-680.237	149.522	0.063	0.087
-679.222	86.885	-0.212	-0.239
-678.208	-67.501	0.187	0.075
-677.193	17.507	0.188	-0.153
-676.178	-10.039	-0.134	-0.091
-675.164	-170.443	0.156	0.006
-674.149	-200.000	0.000	0.250
-673.135	-200.000	0.006	0.357
-672.120	-1.249	0.139	-0.100
-671.105	-43.653	0.231	-0.119
-670.091	-89.238	0.275	0.083
-669.076	-21.033	0.130	-0.081
-668.062	-178.535	0.084	0.002
-667.047	-200.000	0.018	-0.103
-666.032	-98.459	0.442	-0.115
-665.018	76.964	0.141	0.153
-664.003	75.889	-0.175	-0.189
-662.989	184.431	0.078	-0.119
-661.974	-200.000	-0.003	0.180
-660.959	-142.382	0.015	0.002
-659.945	-200.000	-0.014	0.111
-658.930	248.649	0.102	0.176
-657.916	-198.310	-0.292	-0.002
-656.901	-4.832	0.255	0.179
-655.886	-123.749	0.457	0.074
-654.872	226.364	0.193	-0.319
-653.857	54.914	0.187	0.184
-652.843	282.208	-0.165	-0.302
-651.828	-78.835	0.233	-0.081
-650.814	-132.522	-0.406	-0.053
-649.799	-71.758	0.261	-0.099
-648.784	231.209	-0.059	-0.098
-647.770	800.000	0.066	0.237
-646.755	-61.561	0.093	0.040
-645.741	-73.785	0.078	-0.029
-644.726	515.468	0.041	0.098
-643.711	-64.788	-0.241	-0.100
-642.697	52.541	-0.158	0.154
-641.682	23.540	-0.172	0.144
-640.668	800.000	0.038	-0.143
-639.653	-92.561	0.177	-0.051
-638.638	169.900	0.187	0.273
-637.624	-123.246	0.273	0.044
-636.609	-200.000	0.037	-0.272
-635.595	-18.593	-0.287	0.183
-634.580	369.551	0.077	0.158
-633.565	-200.000	0.010	-0.060
-632.551	75.814	-0.198	-0.214
-631.536	710.845	-0.014	0.038
-630.522	-200.000	0.023	0.122
-629.507	-154.457	-0.195	-0.013
-628.492	-20.143	-0.397	0.249
-627.478	-14.190	0.156	0.102
-626.463	-98.187	-0.216	-0.057
-625.449	-200.000	-0.085	-0.424
-624.434	120.776	-0.050	0.063
-623.419	-200.000	0.026	-0.134
-622.405	130.831	0.043	0.056
-621.390	-14.392	-0.168	-0.110
-620.376	-23.083	-0.178	-0.109
-619.361	133.641	0.136	-0.179
-618.346	-200.000	-0.039	-0.321
-617.332	-200.000	-0.001	-0.053
-616.317	146.624	-0.235	0.321
-615.303	122.328	-0.057	0.072
-614.288	-16.950	-0.184	-0.119
-613.273	165.637	0.036	0.052
-612.259	246.035	-0.345	0.592
-611.244	-83.563	0.366	0.119
-610.230	101.869	0.084	0.099
-609.215	-74.291	-0.336	-0.124
-608.201	800.000	0.049	-0.173
-607.186	-60.833	-0.457	-0.197
-606.171	-41.751	0.144	0.075
-605.157	787.837	0.066	-0.183
-604.142	-13.216	0.328	-0.217
-603.128	-72.330	-0.374	-0.141
-602.113	-97.962	-0.163	0.043
-601.098	157.885	0.162	-0.228
-600.084	800.000	-0.026	0.112
-599.069	107.259	0.243	0.294
-598.055	27.870	-0.158	0.135
-597.040	88.791	0.155	0.175
-596.025	-112.426	0.085	0.017
-595.011	-69.487	0.081	-0.032
-593.996	66.282	0.181	-0.186
-592.982	101.331	-0.090	0.107
-591.967	-179.830	0.140	-0.003
-590.952	139.922	-0.158	-0.212
-589.938	-73.910	0.205	0.076
-588.923	742.972	0.081	0.221
-587.909	-200.000	-0.033	0.282
-586.894	-44.058	0.068	-0.035
-585.879	175.012	0.283	-0.417
-584.865	316.476	-0.088	-0.169
-583.850	117.607	-0.073	-0.091
-582.836	-13.961	-0.033	0.022
-581.821	-39.560	0.302	-0.161
-580.806	-18.729	0.348	0.221
-579.792	173.722	-0.092	0.135
-578.777	99.415	0.200	0.235
-577.763	-41.080	0.099	0.052
-576.748	315.138	-0.022	0.043
-575.733	-200.000	-0.020	-0.115
-574.719	-200.000	0.028	0.299
-573.704	22.276	-0.239	0.198
-572.690	-17.779	0.177	-0.113
-571.675	-154.018	-0.216	-0.015
-570.661	-2.778	-0.380	-0.270
-569.646	-128.986	-0.164	-0.023
-568.631	-200.000	-0.040	0.211
-567.617	657.409	0.084	0.218
-566.602	21.779	-0.026	0.021
-565.588	115.534	0.146	-0.181
-564.573	56.860	-0.083	-0.082
-563.558	242.366	0.039	-0.067
-562.544	757.288	0.042	0.116
-561.529	342.057	0.183	-0.363
-560.515	-137.405	-0.109	-0.013
-559.500	800.000	-0.069	-0.271
-558.485	-44.545	-0.247	-0.126
-557.471	-187.743	-0.105	0.001
-556.456	800.000	0.034	-0.106
-555.442	162.783	0.084	0.119
-554.427	50.124	-0.190	0.182
-553.412	102.455	-0.121	0.143
-552.398	-117.299	0.301	0.055
-551.383	-12.292	0.193	0.128
-550.369	-159.874	-0.151	-0.008
-549.354	-126.187	-0.086	-0.013
-548.339	59.374	-0.123	-0.123
-547.325	164.653	-0.106	-0.152
-546.310	271.620	0.027	-0.048
-545.296	-6.567	0.277	0.191
-544.281	109.249	-0.102	0.124
-543.266	175.335	0.054	0.079
-542.252	559.140	0.051	0.125
-541.237	-74.900	-0.062	-0.023
-540.223	-100.408	-0.259	0.065
-539.208	133.730	0.166	0.218
-538.193	-200.000	0.053	-0.466
-537.179	-96.010	-0.348	0.094
-536.164	81.635	0.055	-0.060
-535.150	-34.553	0.580	0.322
-534.135	-94.794	0.359	-0.099
-533.121	1.685	-0.401	0.293
-532.106	-14.961	-0.423	-0.275
-531.091	225.763	-0.156	-0.257
-530.077	172.969	-0.185	-0.270
-529.062	-74.059	0.177	0.065
-528.048	-53.699	0.243	0.113
-527.033	173.211	0.162	-0.237
-526.018	-15.983	-0.192	0.124
-525.004	145.887	0.107	-0.145
-523.989	297.662	-0.045	0.084
-522.975	-51.198	0.067	-0.032
-521.960	792.199	0.107	0.298
-520.945	-120.525	0.095	-0.016
-519.931	101.387	-0.106	0.126
-518.916	-200.000	0.006	-0.215
-517.902	-42.328	-0.349	-0.181
-516.887	-54.188	-0.291	-0.134
-515.872	173.784	0.140	0.204
-514.858	-200.000	0.007	-0.108
-513.843	800.000	0.082	0.276
-512.829	-66.969	-0.170	-0.068
-511.814	800.000	0.052	0.151
-510.799	240.223	0.179	0.302
-509.785	372.729	-0.083	0.171
-508.770	-56.602	-0.291	-0.131
-507.756	-8.425	0.131	-0.089
-506.741	107.234	-0.185	0.223
-505.726	51.070	-0.045	-0.044
-504.712	-26.806	0.032	-0.019
-503.697	-9.907	-0.045	-0.030
-502.683	-135.652	-0.218	0.026
-501.668	-127.438	0.167	0.025
-500.653	64.727	0.241	-0.246
-499.639	-139.292	0.125	-0.014
-498.624	-200.000	-0.039	-0.297
-497.610	800.000	0.082	-0.255
-496.595	-69.624	-0.190	0.074
-495.581	18.912	0.125	-0.102
-494.566	563.939	0.064	-0.158
-493.551	209.733	0.153	0.244
-492.537	11.901	0.209	0.163
-491.522	-180.808	0.336	-0.007
-490.508	58.969	0.159	0.159
-489.493	83.729	-0.213	-0.235
-488.478	53.257	-0.053	-0.052
-487.464	91.447	-0.176	-0.200
-486.449	-47.808	-0.372	-0.183
-485.435	-200.000	-0.013	-0.111
-484.420	-161.224	0.399	-0.021
-483.405	-87.084	-0.423	0.130
-482.391	43.630	0.284	0.263
-481.376	-126.034	-0.090	0.014
-480.362	-123.202	0.104	0.017
-479.347	161.305	0.169	0.240
-478.332	226.071	0.182	0.298
-477.318	-94.311	-0.210	0.058
-476.303	-171.031	0.115	-0.004
-475.289	9.498	-0.133	-0.102
-474.274	-45.583	-0.203	-0.102
-473.259	562.151	0.259	0.634
-472.245	800.000	0.060	0.183
-471.230	123.839	0.098	-0.124
-470.216	-84.707	0.211	-0.067
-469.201	78.329	0.286	-0.309
-468.186	-200.000	0.147	-0.001
-467.172	-62.185	0.187	0.079
-466.157	509.714	-0.042	0.100
-465.143	727.587	-0.030	0.080
-464.128	-147.731	-0.183	0.015
-463.113	-63.034	0.304	0.127
-462.099	800.000	-0.041	0.128
-461.084	37.652	0.186	-0.167
-460.070	800.000	0.053	-0.225
-459.055	-48.073	0.201	-0.098
-458.040	217.993	-0.231	-0.373
-457.026	128.249	0.154	-0.198
-456.011	-44.269	0.384	0.194
-454.997	800.000	-0.070	0.278
-453.982	-63.207	-0.398	0.166
-452.968	-37.826	0.220	0.118
-451.953	-144.365	-0.367	-0.035
-450.938	20.359	0.103	-0.084
-449.924	800.000	0.109	0.344
-448.909	85.341	-0.063	0.070
-447.895	118.565	0.196	0.245
-446.880	-200.000	0.015	-0.131
-445.865	359.351	-0.097	-0.195
-444.851	-200.000	0.040	-0.258
-443.836	-97.555	-0.242	0.064
-442.822	-200.000	0.028	-0.210
-441.807	2.578	-0.306	-0.224
-440.792	649.235	0.057	-0.146
-439.778	304.045	0.093	-0.175
-438.763	-186.691	-0.181	0.003
-437.749	800.000	0.074	0.287
-436.734	-92.502	0.400	-0.113
-435.719	-24.109	-0.126	-0.076
-434.705	-56.542	0.136	-0.061
-433.690	-82.550	-0.234	-0.077
-432.676	24.048	0.232	0.194
-431.661	-36.184	-0.106	-0.058
-430.646	-12.171	0.071	0.047
-429.632	-153.685	0.193	-0.013
-428.617	-104.618	-0.161	0.038
-427.603	-98.513	0.471	0.122
-426.588	167.218	0.102	-0.147
-425.573	-15.257	-0.275	0.178
-424.559	123.292	0.075	0.095
-423.544	-14.197	0.149	0.097
-422.530	102.707	0.148	0.175
-421.515	59.227	0.138	-0.137
-420.500	-105.375	-0.167	0.038
-419.486	-160.800	0.179	0.010
-418.471	-27.485	-0.098	-0.057
-417.457	-200.000	-0.007	-0.109
-416.442	-200.000	0.027	0.337
-415.428	-67.894	0.236	-0.093
-414.413	-200.000	-0.077	-0.461
-413.398	-113.022	-0.328	0.065
-412.384	531.175	-0.165	0.394
-411.369	94.147	0.368	0.422
-410.355	-59.975	-0.148	-0.064
-409.340	-33.243	-0.220	0.123
-408.325	-200.000	-0.058	0.399
-407.311	800.000	0.037	0.129
-406.296	-155.643	-0.427	0.028
-405.282	351.192	-0.269	0.538
-404.267	405.189	0.042	0.090
-403.252	-196.655	-0.211	-0.001
-402.238	248.842	-0.184	-0.314
-401.223	-200.000	0.043	0.200
-400.209	-200.000	0.063	0.290
-399.194	-79.654	0.114	-0.039
-398.179	800.000	0.039	-0.135
-397.165	-7.580	0.300	0.205
-396.150	221.260	0.175	0.284
-395.136	-109.117	-0.384	-0.082
-394.121	363.828	-0.101	0.204
-393.106	147.107	0.217	0.295
-392.092	-200.000	-0.010	-0.107
-391.077	-200.000	0.029	-0.172
-390.063	20.082	-0.077	0.063
-389.048	74.362	-0.196	-0.208
-388.033	-18.751	-0.153	0.096
-387.019	81.470	0.186	0.203
-386.004	-105.106	0.373	0.086
-384.990	544.872	0.075	0.181
-383.975	-125.723	-0.209	0.032
-382.960	-200.000	-0.030	0.160
-381.946	619.810	0.141	0.358
-380.931	-101.759	0.266	0.065
-379.917	446.018	-0.125	0.277
-378.902	-200.000	-0.000	0.024
-377.888	-200.000	-0.043	-0.251
-376.873	16.942	0.249	0.198
-375.858	-27.079	0.314	-0.185
-374.844	-200.000	-0.046	-0.445
-373.829	116.682	0.276	-0.341
-372.815	-168.010	0.326	-0.013
-371.800	-200.000	0.017	0.111
-370.785	-74.816	-0.239	0.087
-369.771	219.446	-0.225	-0.363
-368.756	800.000	0.080	0.228
-367.742	60.151	-0.132	0.132
-366.727	135.704	-0.095	0.125
-365.712	-80.034	0.213	0.072
-364.698	13.160	-0.313	0.245
-363.683	-31.074	-0.226	-0.128
-362.669	15.960	0.165	-0.131
-361.654	218.970	0.091	-0.146
-360.639	483.636	0.080	-0.183
-359.625	320.916	0.111	0.212
-358.610	700.536	0.043	-0.115
-357.596	-74.475	-0.021	0.008
-356.581	-200.000	-0.033	-0.285
-355.566	-177.825	-0.499	0.012
-354.552	-119.089	-0.314	0.055
-353.537	800.000	-0.011	-0.032
-352.523	-200.000	0.003	0.030
-351.508	-61.024	0.315	-0.134
-350.493	-200.000	0.039	-0.202
-349.479	159.030	0.155	-0.217
-348.464	208.440	-0.238	-0.375
-347.450	-200.000	-0.011	0.156
-346.435	125.150	-0.062	-0.079
-345.420	296.945	0.069	-0.127
-344.406	-200.000	0.036	-0.259
-343.391	56.475	-0.044	0.043
-342.377	-53.773	0.077	0.035
-341.362	-139.202	0.214	0.023
-340.348	-200.000	-0.052	-0.332
-339.333	-62.362	0.399	-0.167
-338.318	-63.573	0.182	0.075
-337.304	-175.658	-0.182	0.005
-336.289	-27.957	0.320	0.186
-335.275	-151.139	0.097	-0.007
-334.260	-140.943	-0.152	-0.016
-333.245	-93.220	0.056	-0.016
-332.231	-200.000	0.007	-0.349
-331.216	-140.659	0.076	0.008
-330.202	-109.970	0.216	0.046
-329.187	-105.594	-0.154	0.035
-328.172	-77.596	-0.289	-0.101
-327.158	800.000	-0.032	0.105
-326.143	-155.498	0.191	-0.012
-325.129	454.671	-0.064	-0.143
-324.114	-200.000	-0.002	-0.081
-323.099	-200.000	0.051	-0.331
-322.085	345.340	0.030	-0.059
-321.070	-200.000	-0.097	0.509
-320.056	-200.000	0.251	-0.000
-319.041	800.000	-0.048	-0.136
-318.026	93.716	0.313	-0.357
-317.012	25.245	0.144	0.120
-315.997	800.000	0.036	-0.152
-314.983	105.294	0.058	-0.069
-313.968	-97.321	-0.597	-0.156
-312.953	-59.388	-0.045	0.019
-311.939	-200.000	-0.049	0.307
-310.924	-22.147	0.059	0.036
-309.910	179.170	0.121	0.178
-308.895	217.835	-0.197	0.316
-307.880	800.000	0.018	0.057
-306.866	800.000	0.064	-0.210
-305.851	-200.000	0.004	-0.031
-304.837	167.865	0.109	-0.156
-303.822	187.346	0.194	-0.292
-302.807	460.956	-0.101	-0.227
-301.793	-200.000	-0.047	-0.317
-300.778	139.274	0.163	0.215
-299.764	800.000	0.050	0.197
-298.749	116.038	0.111	0.137
-297.735	118.231	0.163	-0.202
-296.720	-161.019	0.171	-0.009
-295.705	88.792	-0.096	0.107
-294.691	-42.301	0.128	-0.066
-293.676	800.000	0.075	-0.225
-292.662	800.000	0.047	0.162
-291.647	-112.603	0.032	-0.006
-290.632	72.408	-0.119	0.124
-289.618	207.343	-0.095	-0.148
-288.603	-0.288	0.201	-0.144
-287.589	-200.000	-0.059	-0.379
-286.574	-200.000	0.048	-0.235
-285.559	-44.109	0.194	-0.098
-284.545	89.114	-0.148	0.166
-283.530	-162.613	0.275	-0.014
-282.516	478.790	0.046	0.105
-281.501	167.128	-0.107	-0.153
-280.486	-43.343	0.166	-0.084
-279.472	-200.000	-0.056	0.276
-278.457	-23.507	-0.245	-0.148
-277.443	-200.000	-0.002	0.052
-276.428	-16.720	-0.138	-0.088
-275.413	-106.314	-0.226	0.051
-274.399	-165.596	-0.117	0.005
-273.384	800.000	-0.090	0.308
-272.370	-52.676	-0.285	0.132
-271.355	-77.725	0.186	0.065
-270.340	800.000	0.097	-0.269
-269.326	-200.000	0.001	0.071
-268.311	553.634	0.084	-0.202
-267.297	249.730	-0.164	-0.279
-266.282	110.318	-0.232	-0.280
-265.267	-72.639	0.214	-0.079
-264.253	18.528	-0.105	-0.084
-263.238	-101.482	0.111	0.027
-262.224	34.439	0.108	-0.094
-261.209	-11.259	0.381	-0.252
-260.195	-63.755	-0.223	-0.091
-259.180	56.560	0.259	0.253
-258.165	518.789	0.059	0.138
-257.151	-48.268	-0.100	0.048
-256.136	83.166	-0.272	-0.297
-255.122	59.775	-0.076	0.075
-254.107	24.846	-0.207	-0.172
-253.092	-8.862	0.346	0.233
-252.078	-35.979	-0.334	0.181
-251.063	113.319	-0.116	0.141
-250.049	-200.000	0.013	0.096
-249.034	-62.836	-0.321	-0.133
-248.019	428.395	-0.091	-0.198
-247.005	35.453	-0.012	-0.011
-245.990	-39.199	0.389	-0.205
-244.976	25.536	0.120	0.101
-243.961	85.484	0.121	-0.134
-242.946	-79.584	-0.099	-0.034
-241.932	-48.328	0.288	-0.139
-240.917	-200.000	0.050	0.245
-239.903	-53.684	0.088	0.040
-238.888	-55.253	-0.177	0.080
-237.873	85.786	-0.123	-0.136
-236.859	168.215	0.286	-0.409
-235.844	-15.033	-0.342	0.220
-234.830	-175.942	-0.052	0.001
-233.815	521.832	0.044	0.103
-232.800	-21.059	-0.115	-0.071
-231.786	-141.561	0.172	0.017
-230.771	-166.753	0.299	-0.012
-229.757	800.000	0.120	0.337
-228.742	800.000	-0.117	-0.381
-227.727	26.059	0.257	-0.215
-226.713	-67.407	-0.369	-0.145
-225.698	-34.523	-0.048	-0.026
-224.684	-14.740	-0.122	-0.079
-223.669	13.607	0.129	0.101
-222.655	70.272	0.138	0.142
-221.640	235.886	-0.102	-0.169
-220.625	145.487	0.166	0.223
-219.611	0.822	-0.190	-0.136
-218.596	-161.966	-0.283	-0.014
-217.582	589.124	-0.125	0.309
-216.567	131.588	-0.059	-0.076
-215.552	-117.693	0.259	0.047
-214.538	132.636	-0.171	-0.221
-213.523	-200.000	-0.038	0.268
-212.509	-64.225	0.020	-0.008
-211.494	35.428	-0.021	0.018
-210.479	2.511	0.208	0.151
-209.465	28.497	-0.275	-0.233
-208.450	104.188	0.243	0.286
-207.436	-144.964	-0.230	-0.021
-206.421	-200.000	0.056	-0.303
-205.406	-34.434	-0.082	0.045
-204.392	-2.858	-0.305	0.214
-203.377	197.790	0.078	0.119
-202.363	-200.000	0.041	0.369
-201.348	45.078	0.334	-0.308
-200.333	-18.223	-0.028	-0.018
-199.319	-200.000	-0.004	0.073
-198.304	-158.425	0.096	0.006
-197.290	75.152	-0.182	0.192
-196.275	-200.000	0.008	-0.119
-195.260	-200.000	-0.016	0.135
-194.246	800.000	-0.035	0.106
-193.231	62.467	0.237	0.237
-192.217	-171.323	0.431	0.014
-191.202	-194.791	-0.335	-0.003
-190.187	515.050	0.027	-0.062
-189.173	309.608	0.067	0.125
-188.158	-84.618	-0.349	0.110
-187.144	791.067	0.011	0.030
-186.129	800.000	-0.049	0.147
-185.114	48.832	0.007	0.007
-184.100	150.960	-0.251	-0.342
-183.085	800.000	-0.034	0.119
-182.071	0.877	-0.262	0.187
-181.056	-200.000	-0.027	0.125
-180.042	1.074	0.209	-0.150
-179.027	-10.383	-0.218	0.145
-178.012	122.901	-0.165	0.207
-176.998	-134.471	-0.117	0.014
-175.983	28.956	-0.059	0.050
-174.969	-8.560	-0.106	0.071
-173.954	-200.000	-0.029	0.321
-172.939	749.487	0.035	-0.094
-171.925	-31.327	-0.221	-0.124
-170.910	-47.112	-0.198	-0.097
-169.896	-60.980	-0.150	-0.063
-168.881	-137.677	-0.200	0.022
-167.866	-46.828	-0.037	0.018
-166.852	90.901	-0.121	-0.136
-165.837	-200.000	-0.108	-0.527
-164.823	800.000	0.067	-0.267
-163.808	-200.000	0.052	-0.263
-162.793	71.498	0.195	-0.202
-161.779	800.000	-0.079	0.296
-160.764	29.026	0.134	0.113
-159.750	800.000	-0.012	0.044
-158.735	-30.528	0.236	-0.134
-157.720	174.677	-0.213	-0.307
-156.706	800.000	0.032	-0.135
-155.691	-24.823	-0.110	-0.065
-154.677	-200.000	-0.099	0.440
-153.662	32.249	0.200	0.172
-152.647	165.027	-0.203	0.286
-151.633	-200.000	-0.004	-0.030
-150.618	364.749	0.198	0.398
-149.604	800.000	0.065	-0.197
-148.589	-70.290	0.326	0.124
-147.574	-4.365	0.121	0.084
-146.560	292.631	0.054	0.098
-145.545	121.194	0.239	-0.297
-144.531	32.986	0.114	-0.098
-143.516	-166.914	-0.342	0.014
-142.502	91.193	0.089	-0.100
-141.487	151.773	-0.226	0.307
-140.472	82.187	0.269	0.292
-139.458	-121.611	-0.135	0.022
-138.443	368.422	0.034	0.068
-137.429	72.380	-0.247	-0.257
-136.414	-200.000	-0.018	-0.165
-135.399	-169.859	0.242	0.009
-134.385	85.466	0.144	-0.158
-133.370	124.876	-0.239	-0.301
-132.356	247.016	0.027	-0.046
-131.341	220.818	-0.083	0.132
-130.326	657.864	0.072	-0.185
-129.312	-149.250	-0.159	-0.013
-128.297	-64.456	0.285	0.116
-127.283	170.001	0.276	-0.395
-126.268	800.000	-0.021	-0.081
-125.253	3.999	0.261	0.191
-124.239	136.656	-0.055	-0.071
-123.224	662.387	0.158	-0.406
-122.210	-141.681	0.172	-0.017
-121.195	99.450	-0.049	0.057
-120.180	43.731	0.332	0.303
