DTS Sentinel unit serial number:	SN413079Multiplexer serial number:	ORYXHardware model number:	OX4-SRSoftware version number:	ORYX F/W v4.00 Oryx Data Collector v3.7.2.0data status	okinstallation	princeton_trtdifferential loss correction	single-endedforward channel	channel 3reverse channel	N/Adate	2019/09/11time	12:46:11forward acquisition time	60.00reverse acquisition time	0.00gamma	496.2192k internal	0.2293k external	0.2293temperature offset calibration	0.9936default loss term (dB/km)	0.3790temperature slope calibration	1.0000multiplexer offset coefficient	1.0000multiplexer slope coefficient	1.0000fibre end	0.00T internal ref (°C)	41.06T ext. ref 1 (°C)	0.25T ext. ref 2 (°C)	38.78length (m)	temperature (°C)	Stokes	anti-Stokes-747.200	-200.000	-0.025	0.211
-746.185	-62.589	-0.446	0.189
-745.171	332.567	-0.136	0.269
-744.156	-70.993	-0.268	0.103
-743.142	-200.000	-0.017	-0.400
-742.127	-200.000	-0.029	0.142
-741.112	-200.000	0.012	0.470
-740.098	-200.000	-0.005	0.394
-739.083	72.063	0.154	-0.164
-738.069	2.524	0.132	-0.097
-737.054	-200.000	0.031	0.248
-736.039	17.796	0.181	0.148
-735.025	91.911	0.142	-0.163
-734.010	-179.740	0.146	0.003
-732.996	-82.309	-0.240	-0.080
-731.981	-53.328	-0.150	0.070
-730.966	251.760	-0.158	0.275
-729.952	-147.838	0.365	-0.031
-728.937	531.322	-0.111	0.269
-727.923	800.000	0.029	0.087
-726.908	15.944	-0.142	-0.114
-725.894	-119.331	0.065	0.012
-724.879	85.216	0.106	-0.119
-723.864	92.193	-0.086	-0.099
-722.850	-135.457	-0.047	-0.006
-721.835	-12.211	0.149	-0.099
-720.821	413.431	-0.090	-0.196
-719.806	21.271	0.175	-0.145
-718.791	-10.605	0.209	-0.142
-717.777	-4.282	-0.281	-0.199
-716.762	11.619	-0.165	-0.129
-715.748	-44.792	-0.336	-0.171
-714.733	-21.906	0.065	0.040
-713.718	59.368	0.065	-0.066
-712.704	-40.520	0.089	0.047
-711.689	542.971	0.128	0.313
-710.675	-131.604	0.270	0.036
-709.660	-170.093	0.257	0.009
-708.645	-122.269	0.158	0.026
-707.631	-36.184	-0.213	-0.118
-706.616	121.709	-0.147	0.187
-705.602	46.935	-0.217	0.207
-704.587	-200.000	-0.022	0.362
-703.572	77.278	0.248	-0.270
-702.558	319.199	-0.162	-0.313
-701.543	-147.376	-0.118	0.010
-700.529	95.572	-0.211	-0.246
-699.514	-10.063	0.128	0.087
-698.499	800.000	0.033	0.094
-697.485	266.480	0.311	-0.554
-696.470	-119.421	0.187	0.033
-695.456	116.830	0.140	-0.175
-694.441	-62.795	-0.181	-0.077
-693.426	480.281	-0.107	0.249
-692.412	-53.303	-0.155	-0.072
-691.397	-87.015	0.064	-0.020
-690.383	74.659	-0.122	-0.131
-689.368	800.000	-0.036	-0.138
-688.354	36.089	0.311	-0.279
-687.339	302.657	0.092	0.174
-686.324	333.754	0.073	-0.143
-685.310	-105.033	0.062	-0.015
-684.295	-62.445	-0.028	0.012
-683.281	176.707	-0.099	0.146
-682.266	-181.115	-0.332	0.007
-681.251	341.465	-0.092	0.184
-680.237	-200.000	-0.006	-0.031
-679.222	155.947	-0.261	-0.367
-678.208	-5.338	0.159	-0.112
-677.193	-199.101	0.129	0.001
-676.178	-96.296	0.248	0.067
-675.164	800.000	-0.178	-0.539
-674.149	674.093	0.093	-0.247
-673.135	-159.883	-0.121	0.007
-672.120	-141.828	0.415	0.042
-671.105	784.880	0.055	0.155
-670.091	-75.615	-0.418	0.151
-669.076	116.292	-0.052	0.065
-668.062	72.189	0.148	0.157
-667.047	-99.280	-0.072	0.019
-666.032	-22.273	-0.158	0.098
-665.018	-71.545	0.233	0.089
-664.003	67.427	0.334	-0.348
-662.989	-103.975	-0.325	-0.077
-661.974	-17.853	-0.360	-0.230
-660.959	-70.247	0.036	-0.014
-659.945	217.622	-0.080	0.130
-658.930	-131.635	-0.293	0.039
-657.916	-80.307	-0.205	-0.070
-656.901	26.013	0.117	0.100
-655.886	33.173	-0.268	-0.237
-654.872	-200.000	0.003	-0.081
-653.857	-200.000	0.000	0.125
-652.843	342.097	-0.028	-0.055
-651.828	-32.150	0.228	-0.130
-650.814	800.000	0.033	-0.098
-649.799	-91.796	-0.223	-0.065
-648.784	-200.000	0.012	0.062
-647.770	-84.693	0.112	-0.036
-646.755	800.000	-0.119	0.447
-645.741	-147.195	0.378	-0.033
-644.726	-115.326	0.206	0.040
-643.711	203.630	-0.091	-0.144
-642.697	228.906	0.162	-0.270
-641.682	146.101	-0.034	0.046
-640.668	410.983	-0.098	0.211
-639.653	27.979	0.033	-0.028
-638.638	-20.008	-0.129	0.081
-637.624	477.969	-0.086	0.199
-636.609	-116.430	0.214	-0.040
-635.595	299.555	0.044	0.082
-634.580	-142.879	-0.622	0.062
-633.565	305.837	0.051	0.097
-632.551	-182.719	-0.130	-0.002
-631.536	-200.000	-0.018	-0.240
-630.522	49.625	0.176	0.169
-629.507	33.710	0.157	0.139
-628.492	-200.000	-0.005	-0.098
-627.478	8.087	0.428	-0.327
-626.463	-83.318	-0.191	0.062
-625.449	800.000	0.055	0.159
-624.434	-200.000	0.014	0.171
-623.419	-200.000	-0.102	-0.555
-622.405	-143.077	0.248	-0.024
-621.390	-114.211	-0.131	-0.026
-620.376	53.078	-0.055	-0.054
-619.361	10.391	0.207	0.160
-618.346	43.618	0.132	0.123
-617.332	-80.243	-0.131	0.045
-616.317	788.089	-0.074	0.206
-615.303	-25.560	0.139	-0.084
-614.288	61.071	-0.259	0.262
-613.273	-35.107	0.061	0.034
-612.259	-135.654	-0.153	-0.018
-611.244	-11.734	0.055	0.036
-610.230	93.781	-0.237	-0.273
-609.215	-200.000	-0.025	0.254
-608.201	728.260	-0.103	0.279
-607.186	-107.247	-0.362	-0.081
-606.171	519.882	-0.103	-0.246
-605.157	49.208	-0.343	-0.328
-604.142	800.000	0.053	-0.181
-603.128	-200.000	0.019	-0.112
-602.113	108.351	0.210	0.255
-601.098	3.449	-0.156	0.116
-600.084	-182.936	-0.547	-0.010
-599.069	-9.479	0.084	0.057
-598.055	-139.065	0.249	-0.027
-597.040	-129.084	-0.367	-0.052
-596.025	-83.542	-0.256	0.083
-595.011	-109.360	-0.070	0.015
-593.996	-65.064	-0.050	0.020
-592.982	232.580	0.014	0.023
-591.967	-92.084	-0.397	-0.114
-590.952	800.000	-0.022	-0.094
-589.938	800.000	-0.100	0.310
-588.923	127.075	0.116	0.150
-587.909	-77.117	-0.141	-0.050
-586.894	376.795	0.079	-0.164
-585.879	800.000	0.080	0.317
-584.865	15.424	-0.052	-0.042
-583.850	-18.979	-0.080	-0.051
-582.836	-45.859	0.261	0.131
-581.821	-58.916	0.245	-0.108
-580.806	-200.000	0.004	0.201
-579.792	-134.854	0.195	-0.024
-578.777	-45.722	-0.074	-0.037
-577.763	-200.000	-0.016	0.125
-576.748	184.770	-0.052	0.079
-575.733	264.869	0.089	-0.157
-574.719	-200.000	-0.015	0.177
-573.704	-200.000	-0.001	0.020
-572.690	-159.376	-0.393	-0.022
-571.675	140.780	0.207	-0.278
-570.661	237.533	-0.082	-0.138
-569.646	-200.000	-0.017	0.131
-568.631	3.648	-0.115	0.085
-567.617	357.447	0.065	-0.132
-566.602	-130.957	0.113	0.015
-565.588	-146.019	-0.244	0.022
-564.573	-200.000	-0.023	-0.197
-563.558	62.893	-0.274	-0.279
-562.544	-121.621	0.062	-0.010
-561.529	-200.000	-0.071	-0.327
-560.515	-69.539	-0.155	-0.060
-559.500	174.360	0.129	-0.190
-558.485	800.000	0.046	0.137
-557.471	14.835	0.417	-0.331
-556.456	116.045	-0.025	-0.031
-555.442	277.168	-0.096	-0.174
-554.427	-114.983	-0.292	-0.056
-553.412	54.431	-0.105	-0.102
-552.398	-200.000	-0.032	-0.308
-551.383	-25.895	0.318	-0.190
-550.369	552.136	0.040	-0.099
-549.354	235.433	-0.125	-0.210
-548.339	-157.512	-0.081	-0.005
-547.325	-173.736	0.131	0.004
-546.310	143.405	0.054	0.072
-545.296	-89.110	-0.286	-0.086
-544.281	-200.000	-0.018	0.148
-543.266	-89.609	0.416	0.124
-542.252	31.288	0.112	0.097
-541.237	190.616	0.101	-0.155
-540.223	-95.746	0.567	0.154
-539.208	109.731	0.188	-0.229
-538.193	225.185	-0.129	-0.212
-537.179	-85.136	-0.319	0.101
-536.164	-140.991	0.160	0.017
-535.150	-31.753	-0.211	-0.120
-534.135	-122.485	-0.116	-0.019
-533.121	505.089	0.075	-0.176
-532.106	-79.708	0.197	-0.067
-531.091	-53.809	-0.251	-0.116
-530.077	-200.000	-0.023	0.141
-529.062	205.547	0.207	0.326
-528.048	6.321	-0.032	-0.024
-527.033	-95.380	0.058	-0.016
-526.018	-100.656	-0.230	0.058
-525.004	34.432	-0.202	-0.179
-523.989	238.885	-0.033	-0.056
-522.975	800.000	-0.102	0.402
-521.960	187.510	-0.082	-0.124
-520.945	-200.000	-0.002	-0.292
-519.931	305.918	-0.092	-0.173
-518.916	-200.000	-0.013	-0.145
-517.902	58.792	-0.162	-0.162
-516.887	-23.095	0.078	-0.048
-515.872	-16.945	0.121	0.078
-514.858	38.884	0.365	-0.330
-513.843	9.709	0.262	-0.201
-512.829	-43.515	-0.182	0.093
-511.814	-200.000	-0.010	0.485
-510.799	-65.666	0.237	-0.096
-509.785	385.243	0.037	-0.077
-508.770	-110.040	-0.132	-0.028
-507.756	7.059	-0.334	0.253
-506.741	-2.976	-0.336	0.238
-505.726	274.460	-0.116	0.209
-504.712	-55.365	0.079	-0.036
-503.697	-200.000	0.032	-0.209
-502.683	784.779	-0.039	-0.109
-501.668	800.000	0.074	0.209
-500.653	800.000	-0.072	0.239
-499.639	-158.114	0.273	0.016
-498.624	-31.332	0.318	0.181
-497.610	-72.714	-0.469	0.175
-496.595	-97.387	-0.678	-0.179
-495.581	-107.294	-0.324	-0.072
-494.566	-200.000	-0.073	-0.419
-493.551	-161.042	0.189	0.010
-492.537	-13.693	0.197	0.129
-491.522	-103.032	0.218	0.052
-490.508	40.962	-0.079	-0.072
-489.493	31.143	0.148	0.129
-488.478	-108.073	0.293	0.064
-487.464	-151.644	-0.241	0.018
-486.449	10.711	0.241	0.186
-485.435	-200.000	-0.021	0.365
-484.420	-132.451	0.298	-0.039
-483.405	-200.000	-0.025	-0.142
-482.391	-107.146	-0.244	-0.054
-481.376	-113.886	0.084	-0.017
-480.362	-111.033	0.041	-0.008
-479.347	136.924	-0.114	-0.150
-478.332	-106.265	-0.266	0.060
-477.318	-31.095	-0.129	-0.074
-476.303	-200.000	0.008	-0.055
-475.289	-44.363	0.070	0.036
-474.274	765.826	-0.153	0.420
-473.259	800.000	-0.020	-0.068
-472.245	-81.658	-0.060	0.020
-471.230	-200.000	0.022	0.126
-470.216	118.802	-0.105	0.131
-469.201	146.372	0.241	-0.327
-468.186	336.808	0.158	0.311
-467.172	-8.355	-0.318	0.216
-466.157	-39.342	-0.290	0.154
-465.143	-25.655	0.282	-0.168
-464.128	-200.000	0.019	0.088
-463.113	-122.872	-0.458	-0.075
-462.099	-70.806	-0.115	0.044
-461.084	8.864	-0.363	0.277
-460.070	39.991	-0.334	-0.303
-459.055	-200.000	-0.028	0.424
-458.040	-68.407	0.075	-0.030
-457.026	-11.277	0.181	0.120
-456.011	306.571	0.142	0.267
-454.997	135.822	-0.035	-0.046
-453.982	-200.000	-0.002	-0.214
-452.968	-123.292	0.245	0.040
-451.953	174.600	-0.065	-0.095
-450.938	-200.000	-0.028	-0.136
-449.924	-99.077	-0.551	-0.141
-448.909	-137.758	0.210	-0.024
-447.895	110.246	-0.192	-0.233
-446.880	-18.788	-0.203	-0.128
-445.865	634.370	-0.041	0.104
-444.851	-149.395	-0.108	-0.009
-443.836	800.000	-0.040	-0.157
-442.822	-4.026	-0.191	0.134
-441.807	800.000	0.055	-0.241
-440.792	225.831	-0.245	0.401
-439.778	-200.000	0.026	0.218
-438.763	-54.296	0.161	-0.074
-437.749	800.000	0.066	-0.202
-436.734	-200.000	0.001	0.020
-435.719	99.458	-0.219	0.256
-434.705	3.165	-0.124	0.091
-433.690	-21.509	-0.267	0.165
-432.676	-200.000	-0.017	0.150
-431.661	372.371	-0.249	0.511
-430.646	13.122	-0.109	0.085
-429.632	-83.319	0.151	-0.049
-428.617	84.879	0.100	-0.110
-427.603	-200.000	0.033	0.174
-426.588	183.505	0.208	-0.310
-425.573	-14.681	0.306	-0.199
-424.559	-60.895	-0.170	-0.073
-423.544	-88.559	-0.271	-0.081
-422.530	-155.353	-0.094	-0.006
-421.515	197.731	0.091	0.141
-420.500	-54.029	0.064	-0.029
-419.486	800.000	-0.022	-0.067
-418.471	-45.241	-0.112	-0.056
-417.457	24.212	-0.246	0.205
-416.442	6.438	-0.179	-0.134
-415.428	-138.106	0.098	-0.011
-414.413	153.012	0.152	-0.210
-413.398	800.000	-0.033	0.142
-412.384	-29.482	0.231	-0.133
-411.369	509.576	0.085	0.199
-410.355	153.029	0.229	-0.317
-409.340	8.572	-0.258	-0.196
-408.325	91.924	-0.082	-0.093
-407.311	-27.940	-0.242	0.141
-406.296	443.627	-0.198	-0.439
-405.282	88.878	0.091	-0.103
-404.267	800.000	-0.156	-0.507
-403.252	2.825	-0.021	0.015
-402.238	16.961	0.329	0.263
-401.223	-124.893	0.298	-0.046
-400.209	700.726	-0.075	0.200
-399.194	800.000	-0.075	0.217
-398.179	156.711	0.069	0.096
-397.165	-130.860	0.266	-0.036
-396.150	-200.000	-0.026	0.311
-395.136	310.636	0.101	0.190
-394.121	155.674	0.214	0.297
-393.106	-80.071	0.398	-0.135
-392.092	800.000	-0.054	0.175
-391.077	0.800	-0.303	-0.219
-390.063	-40.276	0.153	-0.080
-389.048	-38.036	0.342	0.183
-388.033	289.496	-0.062	0.114
-387.019	184.133	0.113	0.169
-386.004	5.921	-0.245	-0.183
-384.990	232.796	-0.052	-0.087
-383.975	9.924	-0.259	0.199
-382.960	53.566	-0.087	0.084
-381.946	-80.324	0.373	0.126
-380.931	-15.717	-0.093	-0.060
-379.917	800.000	-0.021	0.075
-378.902	199.354	0.227	-0.351
-377.888	74.057	0.171	0.181
-376.873	774.401	0.060	0.164
-375.858	89.029	0.427	0.480
-374.844	-192.414	0.160	-0.002
-373.829	-159.462	-0.128	-0.007
-372.815	790.327	-0.047	0.129
-371.800	472.454	-0.117	-0.266
-370.785	-43.395	0.135	0.069
-369.771	-81.398	0.046	-0.015
-368.756	800.000	0.040	-0.132
-367.742	-51.246	-0.221	-0.104
-366.727	44.851	-0.022	0.021
-365.712	19.315	-0.131	0.106
-364.698	-158.369	0.054	-0.003
-363.683	-200.000	-0.003	-0.124
-362.669	-87.629	0.065	0.020
-361.654	0.256	-0.091	0.066
-360.639	61.141	0.107	0.107
-359.625	77.100	0.032	0.034
-358.610	800.000	-0.119	-0.420
-357.596	-200.000	-0.014	-0.105
-356.581	64.201	0.290	0.294
-355.566	204.963	0.054	0.085
-354.552	-56.364	0.398	0.178
-353.537	-106.361	-0.151	-0.034
-352.523	-2.070	-0.231	-0.163
-351.508	-74.597	-0.322	-0.117
-350.493	24.284	-0.115	-0.096
-349.479	-200.000	0.000	-0.103
-348.464	800.000	0.131	-0.481
-347.450	-32.317	0.303	-0.170
-346.435	-200.000	0.059	0.282
-345.420	70.187	0.059	-0.061
-344.406	46.677	0.144	-0.135
-343.391	-8.799	-0.195	0.132
-342.377	131.551	-0.162	-0.210
-341.362	-138.711	0.041	0.005
-340.348	351.361	0.018	0.035
-339.333	67.186	0.128	-0.131
-338.318	126.119	0.120	0.153
-337.304	37.208	-0.187	0.167
-336.289	42.433	0.446	-0.408
-335.275	-191.448	0.196	-0.002
-334.260	500.342	0.123	0.286
-333.245	421.930	0.165	0.355
-332.231	510.637	-0.040	-0.094
-331.216	63.848	-0.078	0.079
-330.202	-32.057	-0.166	0.093
-329.187	262.891	0.169	-0.295
-328.172	-43.457	-0.318	0.162
-327.158	-50.367	0.228	-0.108
-326.143	186.548	0.097	0.145
-325.129	-104.760	-0.151	0.035
-324.114	-200.000	-0.017	-0.354
-323.099	-12.698	-0.094	0.062
-322.085	115.647	0.176	-0.217
-321.070	-157.292	0.094	0.006
-320.056	639.951	0.103	0.262
-319.041	26.220	0.157	0.132
-318.026	83.477	0.286	0.313
-317.012	-141.377	0.087	0.009
-315.997	800.000	0.099	0.305
-314.983	374.923	0.115	0.236
-313.968	-147.809	-0.110	-0.009
-312.953	131.290	-0.089	-0.115
-311.939	800.000	0.095	0.355
-310.924	-136.755	0.047	-0.005
-309.910	580.771	0.060	0.149
-308.895	146.994	-0.159	0.215
-307.880	-81.883	-0.144	0.047
-306.866	-0.519	-0.139	-0.099
-305.851	402.298	0.179	0.379
-304.837	-58.996	0.155	0.067
-303.822	800.000	0.057	-0.170
-302.807	-200.000	-0.005	0.133
-301.793	227.026	-0.134	-0.218
-300.778	68.411	-0.303	-0.312
-299.764	156.405	0.280	-0.388
-298.749	-127.723	-0.204	-0.030
-297.735	-1.132	0.070	-0.050
-296.720	-43.155	-0.181	-0.092
-295.705	-200.000	0.020	-0.174
-294.691	800.000	-0.096	-0.306
-293.676	-121.493	0.162	0.027
-292.662	800.000	-0.059	0.194
-291.647	-9.288	-0.071	0.048
-290.632	-95.149	-0.068	0.018
-289.618	-58.180	0.335	-0.147
-288.603	492.076	0.178	0.411
-287.589	-200.000	-0.001	0.125
-286.574	-200.000	-0.029	0.151
-285.559	-200.000	-0.015	0.124
-284.545	-42.673	0.088	-0.045
-283.530	-111.284	0.281	0.058
-282.516	327.726	0.110	-0.211
-281.501	199.572	0.148	-0.229
-280.486	190.819	-0.096	-0.144
-279.472	-56.958	0.323	-0.143
-278.457	60.632	-0.248	-0.247
-277.443	-105.750	0.167	-0.038
-276.428	-35.957	0.025	0.014
-275.413	800.000	0.119	-0.363
-274.399	547.479	0.007	-0.018
-273.384	57.252	0.104	-0.102
-272.370	36.374	-0.185	-0.164
-271.355	-91.909	0.169	-0.048
-270.340	-165.425	0.083	0.004
-269.326	-81.197	0.228	-0.076
-268.311	235.855	0.063	0.104
-267.297	-147.443	0.056	-0.005
-266.282	319.146	-0.079	0.150
-265.267	-157.425	-0.031	0.002
-264.253	-101.635	0.202	0.049
-263.238	800.000	-0.039	0.109
-262.224	-200.000	0.046	0.283
-261.209	357.225	-0.159	-0.319
-260.195	17.894	0.154	-0.123
-259.180	141.997	0.175	0.234
-258.165	-200.000	-0.063	-0.296
-257.151	800.000	0.070	-0.237
-256.136	188.986	-0.182	-0.274
-255.122	760.790	0.056	-0.151
-254.107	205.365	-0.044	-0.068
-253.092	205.289	-0.212	0.331
-252.078	800.000	0.056	0.155
-251.063	-13.578	-0.115	0.075
-250.049	1.233	0.042	-0.031
-249.034	-151.788	-0.223	0.016
-248.019	11.230	0.072	0.055
-247.005	-165.694	0.120	-0.005
-245.990	54.500	-0.165	-0.159
-244.976	800.000	-0.088	-0.274
-243.961	-39.484	0.244	0.129
-242.946	-65.294	0.230	-0.093
-241.932	2.338	0.183	0.133
-240.917	361.901	-0.043	0.086
-239.903	-27.145	-0.087	-0.051
-238.888	-22.427	-0.197	-0.120
-237.873	-134.631	-0.105	-0.013
-236.859	-200.000	-0.027	-0.494
-235.844	-200.000	0.015	-0.113
-234.830	-200.000	-0.027	-0.139
-233.815	-143.238	-0.122	-0.012
-232.800	212.909	0.070	0.110
-231.786	141.344	-0.048	0.064
-230.771	-47.034	0.131	0.064
-229.757	-72.927	-0.053	-0.020
-228.742	-28.110	-0.333	0.193
-227.727	-15.816	0.085	0.055
-226.713	-91.683	0.238	0.068
-225.698	800.000	0.053	0.196
-224.684	-200.000	-0.009	-0.274
-223.669	84.511	-0.124	-0.136
-222.655	-60.929	0.280	0.119
-221.640	-200.000	-0.027	-0.119
-220.625	-200.000	0.058	0.326
-219.611	-200.000	-0.023	-0.407
-218.596	-25.861	-0.392	0.231
-217.582	68.284	0.140	-0.143
-216.567	101.150	-0.006	0.007
-215.552	-82.935	0.393	-0.127
-214.538	800.000	-0.090	0.348
-213.523	224.210	0.323	0.523
-212.509	-200.000	0.026	-0.175
-211.494	-200.000	0.002	0.147
-210.479	800.000	0.031	0.114
-209.465	-106.198	0.220	0.049
-208.450	-29.864	-0.568	0.324
-207.436	-131.385	0.329	0.044
-206.421	-200.000	-0.037	0.207
-205.406	800.000	0.014	0.041
-204.392	-200.000	0.006	0.304
-203.377	14.963	0.124	-0.097
-202.363	81.202	-0.243	0.263
-201.348	143.976	0.085	0.113
-200.333	261.150	0.081	-0.140
-199.319	131.197	-0.068	-0.088
-198.304	27.820	-0.070	0.059
-197.290	74.777	0.050	0.052
-196.275	-136.452	0.046	-0.005
-195.260	-106.765	-0.037	-0.008
-194.246	-19.606	-0.096	-0.060
-193.231	-52.013	0.190	0.088
-192.217	800.000	0.101	0.281
-191.202	321.650	-0.129	0.246
-190.187	-26.761	0.107	0.063
-189.173	-107.984	-0.075	-0.016
-188.158	-116.189	-0.145	-0.027
-187.144	-36.388	0.250	-0.135
-186.129	-11.974	0.253	-0.166
-185.114	-5.671	-0.147	-0.101
-184.100	75.521	0.102	-0.108
-183.085	-200.000	0.015	-0.105
-182.071	800.000	0.060	-0.250
-181.056	104.385	0.243	0.286
-180.042	369.560	-0.187	0.378
-179.027	-100.142	-0.388	0.097
-178.012	-153.279	-0.210	0.015
-176.998	-200.000	0.009	0.098
-175.983	35.858	0.056	-0.049
-174.969	-200.000	0.010	0.052
-173.954	62.938	-0.124	0.125
-172.939	-153.821	0.196	0.013
-171.925	-88.860	-0.340	-0.101
-170.910	-200.000	-0.001	-0.227
-169.896	21.164	-0.035	0.029
-168.881	-128.343	-0.193	-0.028
-167.866	-98.904	-0.160	0.041
-166.852	-114.927	0.272	-0.052
-165.837	-132.782	0.115	0.015
-164.823	-139.774	0.131	-0.014
-163.808	-200.000	0.049	-0.269
-162.793	800.000	0.056	-0.216
-161.779	65.776	0.106	0.107
-160.764	-8.669	-0.167	0.112
-159.750	-200.000	-0.023	0.157
-158.735	518.333	0.077	-0.181
-157.720	187.949	0.082	-0.123
-156.706	55.258	0.084	0.082
-155.691	-200.000	-0.046	-0.217
-154.677	-177.939	0.121	0.003
-153.662	-200.000	-0.000	-0.087
-152.647	-200.000	-0.026	-0.212
-151.633	372.328	0.160	-0.325
-150.618	-200.000	-0.005	-0.186
-149.604	47.805	-0.035	0.033
-148.589	51.984	0.092	-0.088
-147.574	800.000	0.087	-0.298
-146.560	-41.217	-0.036	-0.018
-145.545	432.777	-0.102	0.221
-144.531	-150.602	0.419	0.032
-143.516	143.620	-0.073	0.097
-142.502	-31.348	0.207	-0.117
-141.487	-38.186	0.165	-0.087
-140.472	29.040	-0.301	0.255
-139.458	-26.431	-0.075	-0.044
-138.443	-73.390	-0.049	0.018
-137.429	-100.416	-0.141	0.035
-136.414	-35.161	-0.083	-0.045
-135.399	247.883	-0.093	-0.157
-134.385	-51.706	-0.098	-0.046
-133.370	-200.000	0.037	0.340
-132.356	145.225	0.055	0.073
-131.341	684.276	0.065	-0.169
-130.326	-200.000	-0.054	-0.401
-129.312	-200.000	0.001	0.147
-128.297	-29.487	-0.330	0.188
-127.283	-29.797	0.186	-0.106
-126.268	-89.294	0.254	-0.075
-125.253	-200.000	0.014	-0.100
-124.239	800.000	-0.090	-0.255
-123.224	-77.502	0.264	0.091
-122.210	275.945	-0.213	-0.377
-121.195	-200.000	-0.050	0.300
