DTS Sentinel unit serial number:	SN413079Multiplexer serial number:	ORYXHardware model number:	OX4-SRSoftware version number:	ORYX F/W v4.00 Oryx Data Collector v3.7.2.0data status	okinstallation	princeton_trtdifferential loss correction	single-endedforward channel	channel 3reverse channel	N/Adate	2019/09/11time	10:30:11forward acquisition time	60.00reverse acquisition time	0.00gamma	496.2192k internal	0.2298k external	0.2298temperature offset calibration	0.9941default loss term (dB/km)	0.3790temperature slope calibration	1.0000multiplexer offset coefficient	1.0000multiplexer slope coefficient	1.0000fibre end	0.00T internal ref (°C)	36.37T ext. ref 1 (°C)	0.17T ext. ref 2 (°C)	33.25length (m)	temperature (°C)	Stokes	anti-Stokes-747.200	3.196	0.198	0.147
-746.185	-123.294	-0.234	0.038
-745.171	800.000	-0.038	0.116
-744.156	6.981	-0.195	0.148
-743.142	-200.000	0.010	-0.254
-742.127	-200.000	-0.065	0.393
-741.112	552.981	-0.086	-0.210
-740.098	157.104	0.078	0.110
-739.083	134.012	0.201	-0.265
-738.069	-200.000	-0.034	-0.153
-737.054	90.371	-0.096	0.109
-736.039	-122.265	-0.324	0.054
-735.025	-200.000	-0.058	0.515
-734.010	-114.577	-0.253	-0.050
-732.996	-145.387	-0.161	-0.015
-731.981	157.847	-0.168	-0.237
-730.966	146.819	-0.061	0.084
-729.952	180.188	-0.141	-0.211
-728.937	-12.202	-0.263	0.175
-727.923	-63.600	-0.232	-0.097
-726.908	-43.249	-0.223	-0.115
-725.894	-58.653	-0.146	-0.065
-724.879	-120.880	-0.218	-0.037
-723.864	800.000	0.108	-0.354
-722.850	597.280	0.046	-0.117
-721.835	716.972	0.034	-0.092
-720.821	-164.127	-0.178	0.008
-719.806	20.440	-0.216	-0.178
-718.791	93.047	-0.267	-0.308
-717.777	154.153	0.063	0.089
-716.762	-102.930	0.333	-0.081
-715.748	76.131	-0.158	-0.170
-714.733	21.926	-0.125	0.104
-713.718	-149.958	0.157	0.012
-712.704	342.057	-0.117	-0.232
-711.689	800.000	0.048	-0.141
-710.675	8.632	-0.108	-0.083
-709.660	221.052	-0.064	-0.105
-708.645	-200.000	0.020	0.114
-707.631	-94.231	0.181	0.050
-706.616	108.675	0.136	-0.166
-705.602	-92.310	0.326	0.094
-704.587	121.329	0.123	0.156
-703.572	744.262	-0.064	-0.176
-702.558	393.390	0.091	0.192
-701.543	-200.000	-0.039	-0.181
-700.529	800.000	0.057	-0.234
-699.514	-99.756	-0.281	-0.072
-698.499	82.875	0.074	0.082
-697.485	-200.000	-0.043	-0.340
-696.470	64.686	0.057	0.059
-695.456	-200.000	0.011	-0.082
-694.441	-200.000	0.016	-0.148
-693.426	-72.103	0.241	-0.091
-692.412	-132.961	-0.240	0.031
-691.397	105.056	0.193	0.233
-690.383	800.000	-0.010	0.045
-689.368	789.570	-0.131	-0.367
-688.354	124.249	0.143	-0.184
-687.339	-37.373	0.171	0.093
-686.324	-128.949	-0.097	0.014
-685.310	11.562	0.079	0.062
-684.295	-6.605	-0.278	-0.193
-683.281	-200.000	0.004	-0.160
-682.266	-200.000	0.002	-0.130
-681.251	567.901	0.048	-0.119
-680.237	-25.411	0.029	0.018
-679.222	-184.608	0.173	0.003
-678.208	-2.369	0.267	0.190
-677.193	-58.535	-0.216	0.095
-676.178	-6.197	0.154	0.107
-675.164	-111.098	-0.270	0.056
-674.149	-22.954	0.276	0.169
-673.135	72.684	0.146	0.155
-672.120	18.756	0.091	-0.074
-671.105	172.884	-0.048	0.070
-670.091	-60.296	-0.339	0.147
-669.076	333.835	-0.049	0.097
-668.062	41.216	-0.055	0.051
-667.047	-99.561	0.081	0.021
-666.032	-9.908	0.153	0.104
-665.018	-200.000	0.003	0.055
-664.003	-107.574	0.104	0.023
-662.989	-200.000	-0.005	-0.161
-661.974	-200.000	0.040	-0.394
-660.959	-136.235	0.260	0.031
-659.945	-200.000	0.016	-0.115
-658.930	-49.998	0.116	-0.056
-657.916	116.970	-0.145	0.181
-656.901	-32.776	0.228	0.129
-655.886	-200.000	-0.044	0.225
-654.872	366.600	0.098	-0.202
-653.857	-136.227	-0.167	-0.020
-652.843	364.986	-0.054	-0.110
-651.828	800.000	0.029	-0.101
-650.814	-148.446	-0.222	-0.019
-649.799	-80.558	0.051	-0.017
-648.784	6.665	0.227	0.172
-647.770	-200.000	0.061	0.315
-646.755	14.427	0.126	0.100
-645.741	-8.276	-0.242	-0.166
-644.726	-26.893	0.082	0.048
-643.711	800.000	0.080	0.227
-642.697	405.302	-0.168	0.360
-641.682	800.000	0.076	-0.311
-640.668	800.000	0.032	-0.128
-639.653	43.394	-0.229	-0.213
-638.638	103.293	0.131	0.156
-637.624	-23.812	-0.235	-0.143
-636.609	48.265	0.208	-0.197
-635.595	-86.427	-0.192	-0.060
-634.580	274.173	-0.042	0.076
-633.565	-47.314	-0.243	0.120
-632.551	-200.000	0.015	-0.117
-631.536	168.100	-0.053	-0.077
-630.522	-130.019	0.393	0.055
-629.507	-9.654	0.103	-0.070
-628.492	800.000	0.061	-0.179
-627.478	188.994	-0.047	-0.072
-626.463	-200.000	0.036	-0.374
-625.449	800.000	0.055	0.191
-624.434	-12.382	-0.281	0.187
-623.419	-29.161	0.331	0.193
-622.405	6.876	-0.073	-0.055
-621.390	-154.319	-0.366	0.025
-620.376	-200.000	0.012	-0.074
-619.361	-76.692	-0.223	0.079
-618.346	1.827	0.174	0.127
-617.332	143.261	-0.051	-0.069
-616.317	-144.899	0.331	0.031
-615.303	-44.203	-0.141	-0.072
-614.288	-61.768	-0.188	0.080
-613.273	627.377	-0.150	-0.385
-612.259	-2.968	0.151	-0.107
-611.244	-200.000	0.004	-0.322
-610.230	-200.000	-0.013	-0.430
-609.215	-44.225	0.082	0.042
-608.201	-200.000	-0.021	-0.149
-607.186	29.307	0.233	0.201
-606.171	480.661	0.079	-0.181
-605.157	-46.583	-0.104	0.052
-604.142	-60.104	-0.126	0.055
-603.128	-82.874	0.091	-0.030
-602.113	-154.366	0.237	-0.016
-601.098	800.000	-0.109	-0.329
-600.084	800.000	0.045	-0.158
-599.069	131.063	-0.228	0.297
-598.055	-200.000	0.080	-0.414
-597.040	-115.453	-0.211	-0.040
-596.025	-104.426	-0.136	-0.032
-595.011	-73.795	0.149	0.055
-593.996	178.935	-0.071	-0.105
-592.982	800.000	-0.079	-0.275
-591.967	36.090	0.151	-0.135
-590.952	-200.000	0.040	0.193
-589.938	-28.972	-0.035	0.020
-588.923	18.686	0.272	-0.221
-587.909	-200.000	0.008	-0.143
-586.894	-105.180	0.253	0.059
-585.879	39.170	-0.156	-0.141
-584.865	-84.917	-0.092	0.029
-583.850	800.000	-0.073	0.268
-582.836	-26.721	0.355	0.211
-581.821	-123.510	0.315	-0.051
-580.806	186.290	0.037	0.055
-579.792	-91.537	0.314	0.091
-578.777	-150.632	0.091	-0.007
-577.763	-101.707	-0.260	0.064
-576.748	-145.979	-0.100	-0.009
-575.733	131.653	-0.156	0.204
-574.719	-200.000	-0.014	0.084
-573.704	314.689	0.141	-0.270
-572.690	80.398	0.204	-0.222
-571.675	1.788	0.106	0.077
-570.661	-4.794	0.113	0.079
-569.646	-27.525	0.212	0.125
-568.631	411.137	-0.106	-0.229
-567.617	-178.578	-0.122	0.003
-566.602	195.104	-0.136	0.209
-565.588	638.171	0.104	-0.269
-564.573	418.600	0.170	-0.369
-563.558	-137.715	-0.321	0.037
-562.544	-176.228	0.305	0.008
-561.529	800.000	-0.073	-0.244
-560.515	560.506	0.130	-0.318
-559.500	144.045	-0.297	-0.401
-558.485	45.885	-0.158	-0.148
-557.471	78.085	-0.273	-0.296
-556.456	-200.000	-0.041	-0.189
-555.442	0.449	-0.144	-0.104
-554.427	17.928	-0.195	0.158
-553.412	-4.853	-0.270	0.189
-552.398	-132.466	0.399	0.052
-551.383	3.652	0.088	0.065
-550.369	38.642	0.041	0.037
-549.354	-73.930	0.170	-0.063
-548.339	-101.875	0.260	-0.064
-547.325	22.430	-0.356	-0.295
-546.310	349.396	0.185	-0.370
-545.296	-67.592	-0.240	-0.095
-544.281	800.000	-0.082	-0.280
-543.266	106.923	-0.342	-0.411
-542.252	19.107	0.080	-0.065
-541.237	-25.570	0.209	0.125
-540.223	276.637	-0.148	-0.266
-539.208	-200.000	0.066	-0.351
-538.193	-129.426	-0.184	0.026
-537.179	-44.162	0.186	0.095
-536.164	77.849	0.347	-0.374
-535.150	-44.429	0.168	0.085
-534.135	-200.000	0.062	-0.473
-533.121	322.637	0.131	0.253
-532.106	-86.759	0.080	0.025
-531.091	-48.971	-0.154	0.075
-530.077	-27.331	0.101	-0.059
-529.062	-137.445	0.051	0.006
-528.048	-200.000	0.027	0.144
-527.033	-200.000	-0.022	0.187
-526.018	36.421	-0.094	-0.084
-525.004	244.844	0.072	0.123
-523.989	-51.977	0.285	-0.134
-522.975	800.000	0.093	-0.276
-521.960	-86.540	0.173	0.054
-520.945	-53.011	-0.077	-0.036
-519.931	152.887	-0.202	-0.280
-518.916	-65.713	0.131	0.053
-517.902	443.412	0.133	-0.296
-516.887	-84.902	0.031	-0.010
-515.872	800.000	-0.006	-0.024
-514.858	-154.880	-0.046	-0.003
-513.843	-113.500	-0.191	-0.038
-512.829	-34.948	-0.130	-0.072
-511.814	-192.096	-0.160	-0.002
-510.799	-200.000	0.019	-0.348
-509.785	-37.025	0.204	0.111
-508.770	-2.950	0.158	0.111
-507.756	-40.343	-0.106	-0.056
-506.741	7.803	-0.236	0.179
-505.726	-65.155	-0.435	0.177
-504.712	-105.475	-0.337	0.077
-503.697	285.595	0.187	0.341
-502.683	-88.314	-0.366	-0.111
-501.668	-200.000	-0.131	0.627
-500.653	76.970	0.255	-0.274
-499.639	-108.661	-0.173	0.037
-498.624	248.108	0.167	-0.286
-497.610	-12.849	-0.200	-0.132
-496.595	800.000	-0.046	0.180
-495.581	800.000	-0.073	0.256
-494.566	583.933	0.098	-0.244
-493.551	16.180	0.222	-0.177
-492.537	221.904	-0.143	-0.232
-491.522	800.000	0.071	0.295
-490.508	46.194	0.127	-0.119
-489.493	41.006	-0.108	-0.098
-488.478	-170.093	0.045	-0.002
-487.464	-102.413	-0.160	0.039
-486.449	800.000	-0.032	-0.097
-485.435	800.000	0.023	-0.085
-484.420	70.527	0.102	0.107
-483.405	305.142	0.081	0.152
-482.391	528.407	0.133	0.317
-481.376	165.403	0.162	0.231
-480.362	-200.000	0.111	-0.517
-479.347	-126.644	0.237	-0.035
-478.332	-36.393	0.169	-0.092
-477.318	-200.000	0.008	0.160
-476.303	-44.073	0.086	-0.044
-475.289	200.508	-0.035	0.054
-474.274	-67.484	-0.225	-0.089
-473.259	402.616	0.103	-0.219
-472.245	-200.000	0.005	0.099
-471.230	128.018	-0.205	-0.264
-470.216	-200.000	0.003	-0.061
-469.201	724.314	-0.122	0.328
-468.186	-89.131	0.059	-0.018
-467.172	28.560	0.175	0.150
-466.157	-79.201	-0.258	0.088
-465.143	-27.874	-0.160	0.094
-464.128	-200.000	0.072	-0.331
-463.113	-30.236	-0.148	-0.085
-462.099	129.828	-0.049	0.063
-461.084	-10.412	-0.125	0.084
-460.070	800.000	0.078	0.293
-459.055	-107.729	-0.175	0.039
-458.040	-52.656	0.134	-0.062
-457.026	-122.876	-0.153	-0.025
-456.011	128.046	0.175	-0.225
-454.997	-8.600	0.031	0.021
-453.982	179.977	-0.070	-0.104
-452.968	-103.414	-0.063	-0.015
-451.953	-200.000	0.051	-0.251
-450.938	-200.000	-0.024	-0.348
-449.924	540.765	-0.095	0.229
-448.909	91.682	0.166	0.189
-447.895	723.655	-0.102	-0.274
-446.880	506.266	-0.022	0.050
-445.865	-55.800	-0.085	0.038
-444.851	49.061	-0.095	0.090
-443.836	-200.000	-0.071	0.354
-442.822	118.368	0.048	-0.059
-441.807	-75.061	-0.182	0.066
-440.792	-101.124	-0.282	-0.070
-439.778	-118.768	-0.014	0.003
-438.763	8.129	0.387	-0.293
-437.749	-200.000	-0.060	0.354
-436.734	-159.218	-0.216	0.012
-435.719	120.671	-0.143	0.179
-434.705	-167.269	0.162	-0.007
-433.690	-200.000	-0.010	-0.230
-432.676	-23.928	-0.254	-0.153
-431.661	154.655	-0.087	0.120
-430.646	800.000	-0.084	0.247
-429.632	-147.671	0.236	-0.020
-428.617	800.000	0.065	0.204
-427.603	-22.328	0.216	0.132
-426.588	-158.901	0.296	0.017
-425.573	-24.850	-0.118	-0.071
-424.559	-133.741	-0.081	-0.010
-423.544	-31.666	-0.152	-0.086
-422.530	-200.000	-0.044	-0.265
-421.515	-108.846	-0.250	0.054
-420.500	-200.000	-0.026	0.282
-419.486	-200.000	-0.006	-0.045
-418.471	81.303	0.065	-0.070
-417.457	-115.295	-0.229	-0.044
-416.442	-141.344	-0.025	-0.003
-415.428	-200.000	-0.012	-0.430
-414.413	-47.280	0.127	0.062
-413.398	177.778	-0.105	0.154
-412.384	64.509	-0.080	0.081
-411.369	273.475	-0.141	0.251
-410.355	800.000	-0.068	0.243
-409.340	-200.000	-0.002	-0.077
-408.325	217.227	0.037	0.060
-407.311	-200.000	0.049	0.227
-406.296	306.774	0.109	-0.204
-405.282	-187.098	0.105	-0.001
-404.267	-143.357	-0.118	-0.011
-403.252	-71.465	-0.336	0.127
-402.238	82.059	0.170	0.185
-401.223	-94.219	0.353	0.097
-400.209	-32.329	0.145	-0.081
-399.194	-200.000	0.000	-0.202
-398.179	-200.000	-0.042	0.327
-397.165	-200.000	0.010	0.071
-396.150	441.583	0.081	-0.178
-395.136	-178.289	-0.064	0.002
-394.121	800.000	0.054	-0.167
-393.106	800.000	-0.020	0.061
-392.092	38.521	0.072	-0.064
-391.077	49.692	0.144	0.137
-390.063	-110.345	-0.129	-0.027
-389.048	800.000	-0.076	0.333
-388.033	800.000	0.103	0.352
-387.019	-156.098	0.289	-0.018
-386.004	114.351	-0.069	0.085
-384.990	-79.665	-0.253	-0.086
-383.975	-77.810	0.130	-0.045
-382.960	-122.960	-0.063	-0.010
-381.946	159.192	0.148	0.207
-380.931	800.000	0.084	-0.255
-379.917	-34.252	-0.395	0.218
-378.902	444.483	-0.075	-0.166
-377.888	141.101	0.221	-0.294
-376.873	763.615	0.099	-0.272
-375.858	-200.000	-0.052	0.351
-374.844	-74.767	-0.102	-0.037
-373.829	75.598	-0.170	-0.180
-372.815	-200.000	-0.028	-0.131
-371.800	88.986	-0.075	-0.084
-370.785	119.397	-0.197	0.245
-369.771	-200.000	-0.003	-0.023
-368.756	800.000	-0.160	0.464
-367.742	616.944	0.088	-0.221
-366.727	800.000	0.040	0.118
-365.712	800.000	0.055	0.213
-364.698	-200.000	-0.073	0.320
-363.683	-200.000	0.089	0.422
-362.669	-169.968	0.185	-0.007
-361.654	124.997	0.236	-0.299
-360.639	-40.974	0.188	0.098
-359.625	-200.000	-0.001	0.346
-358.610	800.000	-0.073	-0.267
-357.596	80.357	0.115	-0.124
-356.581	-200.000	0.000	0.194
-355.566	173.507	0.087	-0.127
-354.552	-41.337	-0.380	0.197
-353.537	-91.096	0.212	-0.061
-352.523	800.000	-0.024	0.076
-351.508	-200.000	0.006	0.241
-350.493	-41.782	-0.316	-0.163
-349.479	220.456	0.159	0.257
-348.464	-200.000	0.042	-0.413
-347.450	-21.880	-0.112	0.069
-346.435	76.905	0.157	0.168
-345.420	-136.585	-0.077	-0.009
-344.406	-88.414	0.075	0.023
-343.391	-108.001	0.107	0.023
-342.377	800.000	-0.071	-0.213
-341.362	73.134	-0.310	-0.326
-340.348	409.507	-0.191	0.406
-339.333	732.009	0.061	-0.163
-338.318	120.418	-0.223	-0.278
-337.304	-145.671	-0.277	-0.025
-336.289	53.014	-0.061	-0.059
-335.275	-200.000	0.031	0.165
-334.260	252.169	-0.028	0.049
-333.245	-61.210	-0.069	-0.029
-332.231	-114.564	0.233	-0.045
-331.216	127.655	-0.152	0.194
-330.202	286.044	-0.020	0.036
-329.187	-99.950	0.156	0.039
-328.172	-1.757	0.381	0.269
-327.158	162.788	0.076	0.107
-326.143	243.541	0.092	-0.156
-325.129	-200.000	0.012	0.298
-324.114	-154.238	0.495	0.034
-323.099	-183.797	-0.083	-0.001
-322.085	-200.000	0.042	-0.206
-321.070	-81.876	-0.185	0.061
-320.056	80.561	-0.174	0.188
-319.041	-47.404	0.252	-0.123
-318.026	136.877	-0.048	0.063
-317.012	-137.574	0.357	0.040
-315.997	212.191	-0.063	0.100
-314.983	133.886	0.213	-0.277
-313.968	-78.235	0.252	0.087
-312.953	-41.432	-0.240	0.124
-311.939	-200.000	0.020	-0.250
-310.924	34.017	0.213	0.186
-309.910	4.182	0.138	0.101
-308.895	231.895	-0.156	0.257
-307.880	-200.000	-0.013	0.220
-306.866	-200.000	-0.022	0.447
-305.851	76.265	-0.076	-0.081
-304.837	-124.871	-0.277	-0.043
-303.822	417.252	0.049	0.104
-302.807	-103.703	-0.217	0.051
-301.793	72.297	0.122	0.127
-300.778	84.655	-0.165	-0.181
-299.764	567.591	-0.164	0.399
-298.749	-200.000	0.007	-0.063
-297.735	705.292	-0.110	0.291
-296.720	800.000	0.041	-0.158
-295.705	-41.699	-0.069	-0.035
-294.691	800.000	0.038	0.107
-293.676	-40.904	-0.101	0.053
-292.662	800.000	-0.073	-0.228
-291.647	-152.036	0.202	0.015
-290.632	56.928	0.151	0.148
-289.618	72.518	0.212	0.221
-288.603	731.977	-0.014	0.037
-287.589	-141.739	-0.212	-0.021
-286.574	638.252	-0.116	0.297
-285.559	67.564	0.343	0.351
-284.545	-134.225	-0.206	0.025
-283.530	-115.626	0.217	-0.041
-282.516	-25.803	-0.183	-0.108
-281.501	77.295	-0.133	-0.142
-280.486	-147.677	0.345	0.029
-279.472	55.179	0.045	-0.043
-278.457	800.000	0.048	0.166
-277.443	-40.003	0.112	-0.059
-276.428	-106.938	0.210	-0.047
-275.413	-84.326	-0.419	0.133
-274.399	-146.711	0.162	-0.014
-273.384	800.000	0.069	-0.225
-272.370	225.431	0.052	0.084
-271.355	-146.821	-0.122	0.011
-270.340	-200.000	-0.017	-0.302
-269.326	-45.219	0.545	0.271
-268.311	660.645	-0.132	0.339
-267.297	-200.000	0.109	0.542
-266.282	800.000	0.040	0.130
-265.267	629.803	-0.072	0.182
-264.253	18.261	0.121	-0.097
-263.238	24.836	0.108	0.090
-262.224	-17.491	0.265	0.167
-261.209	135.509	0.174	-0.227
-260.195	142.854	-0.269	0.358
-259.180	381.493	0.215	0.443
-258.165	-130.653	0.064	-0.009
-257.151	-6.626	-0.277	0.189
-256.136	-129.065	-0.207	-0.029
-255.122	800.000	0.058	0.164
-254.107	-82.148	0.235	0.077
-253.092	-68.027	-0.359	-0.140
-252.078	-18.177	0.070	-0.044
-251.063	185.259	-0.052	-0.077
-250.049	42.580	0.243	-0.221
-249.034	800.000	0.172	-0.563
-248.019	29.769	-0.106	0.091
-247.005	-86.237	0.269	0.083
-245.990	-37.555	-0.129	-0.069
-244.976	310.469	0.118	0.222
-243.961	29.629	0.106	-0.091
-242.946	-138.799	-0.159	0.017
-241.932	99.551	-0.082	0.095
-240.917	-99.647	-0.148	-0.037
-239.903	-154.239	0.397	0.027
-238.888	-24.692	0.143	0.085
-237.873	40.446	0.140	0.126
-236.859	453.094	0.041	0.092
-235.844	52.509	-0.125	-0.119
-234.830	387.699	0.080	-0.166
-233.815	-133.514	-0.277	-0.035
-232.800	800.000	0.023	0.088
-231.786	96.011	0.093	0.106
-230.771	-200.000	-0.009	0.228
-229.757	-200.000	-0.013	-0.159
-228.742	800.000	0.038	0.110
-227.727	-41.420	-0.282	0.145
-226.713	12.178	-0.111	0.085
-225.698	-98.089	0.131	-0.034
-224.684	-132.626	-0.050	-0.006
-223.669	307.742	-0.105	0.197
-222.655	800.000	0.046	0.164
-221.640	598.736	-0.081	-0.202
-220.625	-111.847	0.110	-0.022
-219.611	-174.955	-0.146	0.004
-218.596	-106.426	-0.185	-0.041
-217.582	-45.821	0.082	-0.041
-216.567	-200.000	-0.023	-0.258
-215.552	77.446	0.139	0.148
-214.538	36.225	-0.410	0.361
-213.523	334.777	-0.063	-0.121
-212.509	-168.824	0.052	0.002
-211.494	-146.066	-0.040	0.003
-210.479	-133.173	0.287	-0.036
-209.465	-200.000	0.027	0.246
-208.450	-99.463	-0.224	-0.056
-207.436	-25.376	0.216	-0.128
-206.421	91.079	-0.162	0.182
-205.406	-118.102	-0.158	-0.028
-204.392	434.090	0.029	-0.063
-203.377	-200.000	0.005	0.025
-202.363	-28.735	0.070	0.040
-201.348	-200.000	0.010	-0.196
-200.333	-126.427	-0.133	-0.020
-199.319	55.446	-0.025	-0.025
-198.304	800.000	0.030	0.098
-197.290	-200.000	0.027	0.203
-196.275	-200.000	0.001	0.096
-195.260	-74.238	-0.304	0.110
-194.246	-45.675	0.233	-0.115
-193.231	-200.000	-0.033	-0.317
-192.217	185.083	0.084	0.124
-191.202	431.237	-0.058	0.126
-190.187	-84.312	0.241	0.076
-189.173	509.375	-0.087	-0.203
-188.158	800.000	0.069	-0.271
-187.144	-77.682	0.188	0.065
-186.129	677.405	-0.047	0.123
-185.114	49.223	0.204	-0.192
-184.100	-131.454	-0.267	0.035
-183.085	-116.897	0.269	-0.049
-182.071	-200.000	-0.058	0.334
-181.056	287.750	-0.171	-0.308
-180.042	800.000	-0.071	0.202
-179.027	52.646	-0.098	-0.094
-178.012	800.000	-0.064	-0.237
-176.998	-200.000	0.020	0.227
-175.983	-171.768	-0.063	-0.002
-174.969	-121.480	-0.175	-0.029
-173.954	-6.529	0.414	0.281
-172.939	-200.000	-0.008	-0.086
-171.925	188.347	-0.274	-0.409
-170.910	47.006	-0.262	0.243
-169.896	324.852	0.076	-0.145
-168.881	-30.607	-0.295	-0.166
-167.866	44.702	-0.070	-0.065
-166.852	-200.000	0.039	0.246
-165.837	594.304	-0.140	-0.346
-164.823	-162.765	-0.175	0.009
-163.808	-159.181	-0.036	-0.002
-162.793	-63.703	0.359	0.147
-161.779	-200.000	0.039	0.219
-160.764	-200.000	-0.020	-0.161
-159.750	-200.000	0.027	0.125
-158.735	-200.000	0.051	-0.236
-157.720	315.108	-0.204	-0.384
-156.706	-50.469	0.190	-0.089
-155.691	800.000	0.064	0.245
-154.677	153.992	-0.202	-0.276
-153.662	158.818	0.097	0.135
-152.647	-45.189	-0.037	0.018
-151.633	800.000	-0.074	-0.259
-150.618	232.643	0.126	0.207
-149.604	418.910	-0.232	-0.495
-148.589	-31.660	0.295	0.165
-147.574	15.996	0.454	0.357
-146.560	-59.853	-0.162	0.069
-145.545	-91.656	-0.227	-0.064
-144.531	-107.918	0.144	0.031
-143.516	414.333	0.122	-0.258
-142.502	118.248	0.159	-0.195
-141.487	25.707	-0.236	0.196
-140.472	-200.000	0.012	0.188
-139.458	315.754	0.053	-0.100
-138.443	800.000	0.035	-0.127
-137.429	-65.048	0.106	0.042
-136.414	-98.030	-0.163	-0.042
-135.399	-27.574	-0.092	-0.053
-134.385	107.114	0.204	-0.242
-133.370	185.730	0.124	-0.184
-132.356	-200.000	0.023	-0.239
-131.341	58.557	0.293	0.287
-130.326	-200.000	0.001	0.081
-129.312	224.977	0.123	0.199
-128.297	-200.000	0.034	0.190
-127.283	-137.063	0.215	-0.024
-126.268	-200.000	0.007	-0.095
-125.253	31.472	-0.116	0.099
-124.239	190.643	0.072	0.108
-123.224	-59.665	-0.200	0.085
-122.210	-72.672	0.193	-0.071
-121.195	95.949	0.173	-0.197
