DTS Sentinel unit serial number:	SN413079Multiplexer serial number:	ORYXHardware model number:	OX4-SRSoftware version number:	ORYX F/W v4.00 Oryx Data Collector v3.7.2.0data status	okinstallation	princeton_trtdifferential loss correction	single-endedforward channel	channel 3reverse channel	N/Adate	2019/09/10time	16:58:11forward acquisition time	60.00reverse acquisition time	0.00gamma	496.2192k internal	0.2299k external	0.2299temperature offset calibration	0.9911default loss term (dB/km)	0.3790temperature slope calibration	1.0000multiplexer offset coefficient	1.0000multiplexer slope coefficient	1.0000fibre end	0.00T internal ref (°C)	37.62T ext. ref 1 (°C)	-0.31T ext. ref 2 (°C)	32.21length (m)	temperature (°C)	Stokes	anti-Stokes-747.200	-102.298	-0.166	-0.041
-746.185	-200.000	0.017	-0.135
-745.171	-200.000	0.037	0.431
-744.156	-200.000	0.107	0.503
-743.142	-200.000	-0.039	0.247
-742.127	800.000	-0.057	0.244
-741.112	-120.198	0.637	0.111
-740.098	56.264	-0.051	-0.050
-739.083	-114.154	0.332	0.066
-738.069	37.782	-0.261	0.237
-737.054	800.000	0.073	-0.233
-736.039	-84.789	0.139	0.045
-735.025	517.005	0.087	0.207
-734.010	-84.078	-0.129	-0.042
-732.996	-52.983	0.054	0.025
-731.981	-107.797	0.367	0.081
-730.966	-67.072	0.124	0.050
-729.952	-200.000	0.041	0.381
-728.937	38.605	0.168	-0.153
-727.923	-131.903	-0.340	0.045
-726.908	-82.650	-0.186	-0.062
-725.894	76.197	0.164	0.177
-724.879	98.024	-0.153	-0.179
-723.864	30.013	-0.130	0.113
-722.850	-75.273	0.185	0.067
-721.835	-200.000	0.038	-0.198
-720.821	554.941	-0.070	-0.171
-719.806	-42.177	-0.360	-0.188
-718.791	-18.485	-0.293	0.186
-717.777	-76.348	-0.184	0.066
-716.762	69.434	-0.119	-0.125
-715.748	303.241	-0.070	0.133
-714.733	-193.135	-0.312	0.003
-713.718	-200.000	0.065	0.455
-712.704	188.700	-0.117	-0.178
-711.689	114.727	-0.157	0.195
-710.675	-200.000	-0.020	0.185
-709.660	317.104	-0.062	-0.119
-708.645	800.000	0.078	-0.320
-707.631	29.831	0.207	-0.180
-706.616	-140.298	-0.213	-0.023
-705.602	143.319	0.186	-0.253
-704.587	-84.981	-0.277	-0.089
-703.572	800.000	-0.050	0.179
-702.558	-6.576	0.107	-0.074
-701.543	-200.000	0.006	-0.115
-700.529	38.485	-0.187	-0.169
-699.514	37.972	-0.192	0.174
-698.499	-116.139	-0.173	-0.033
-697.485	-184.182	-0.284	0.005
-696.470	9.450	0.265	0.204
-695.456	117.988	0.097	0.121
-694.441	-200.000	-0.003	0.108
-693.426	-88.449	0.234	-0.071
-692.412	-90.009	-0.052	0.016
-691.397	-116.307	0.275	-0.052
-690.383	60.695	-0.137	0.138
-689.368	-107.600	0.088	-0.020
-688.354	167.016	-0.055	-0.079
-687.339	800.000	0.084	-0.309
-686.324	331.484	0.097	0.190
-685.310	-200.000	0.226	-0.001
-684.295	-200.000	0.006	0.132
-683.281	218.016	-0.055	-0.090
-682.266	-200.000	-0.008	-0.089
-681.251	88.704	0.065	-0.073
-680.237	-200.000	-0.036	-0.287
-679.222	800.000	0.099	-0.397
-678.208	26.557	0.259	-0.221
-677.193	-9.545	0.217	0.148
-676.178	112.864	-0.137	-0.169
-675.164	0.882	-0.049	0.036
-674.149	83.171	0.114	-0.126
-673.135	800.000	0.056	0.205
-672.120	-177.151	0.099	-0.003
-671.105	800.000	-0.033	-0.114
-670.091	50.243	0.288	-0.276
-669.076	-23.974	-0.253	0.154
-668.062	46.610	-0.106	-0.100
-667.047	-200.000	-0.076	-0.426
-666.032	-184.048	0.271	0.005
-665.018	800.000	0.082	0.261
-664.003	156.294	0.049	0.069
-662.989	641.112	-0.026	0.066
-661.974	94.837	0.115	-0.133
-660.959	-38.515	0.087	0.047
-659.945	-91.932	0.158	-0.046
-658.930	-121.390	0.215	-0.036
-657.916	-133.386	-0.122	-0.016
-656.901	-98.575	0.157	0.041
-655.886	-200.000	-0.028	0.328
-654.872	-200.000	-0.018	-0.332
-653.857	32.127	-0.052	0.046
-652.843	335.769	-0.107	0.211
-651.828	58.801	-0.092	0.092
-650.814	150.115	0.137	-0.190
-649.799	800.000	-0.045	-0.192
-648.784	-200.000	0.013	-0.230
-647.770	392.321	0.050	-0.105
-646.755	-140.227	-0.262	0.028
-645.741	-74.076	0.180	0.066
-644.726	290.344	-0.093	0.171
-643.711	-71.195	0.055	-0.021
-642.697	102.997	-0.078	0.092
-641.682	90.621	0.169	0.192
-640.668	-200.000	-0.040	-0.415
-639.653	-200.000	0.044	-0.369
-638.638	-171.185	-0.270	0.009
-637.624	323.909	-0.113	0.218
-636.609	81.708	0.023	-0.025
-635.595	73.087	-0.011	-0.011
-634.580	144.101	-0.137	0.186
-633.565	-55.328	-0.147	-0.067
-632.551	800.000	0.049	-0.153
-631.536	-19.449	-0.397	-0.250
-630.522	800.000	0.012	-0.035
-629.507	97.666	-0.113	0.132
-628.492	1.913	0.123	-0.090
-627.478	568.452	-0.074	-0.182
-626.463	-114.706	-0.221	0.043
-625.449	117.510	0.027	-0.034
-624.434	103.866	0.099	0.118
-623.419	140.866	-0.099	-0.132
-622.405	800.000	0.071	-0.243
-621.390	-200.000	0.028	-0.267
-620.376	-91.806	0.266	-0.077
-619.361	222.228	-0.107	0.175
-618.346	664.006	0.048	-0.126
-617.332	-90.667	-0.277	0.081
-616.317	-132.955	-0.273	0.035
-615.303	-200.000	0.029	-0.404
-614.288	33.594	-0.097	-0.086
-613.273	125.414	-0.111	0.142
-612.259	-120.713	0.195	0.033
-611.244	72.454	0.190	-0.201
-610.230	-179.248	-0.278	0.006
-609.215	-200.000	0.002	-0.182
-608.201	397.358	0.031	0.066
-607.186	-38.736	-0.218	-0.117
-606.171	-161.197	-0.044	-0.002
-605.157	800.000	-0.045	-0.156
-604.142	-23.764	-0.217	-0.132
-603.128	111.285	-0.202	-0.247
-602.113	-200.000	0.038	0.186
-601.098	-77.130	0.123	-0.043
-600.084	-178.003	0.127	-0.003
-599.069	800.000	0.042	0.132
-598.055	-47.277	-0.130	-0.064
-597.040	-200.000	0.068	-0.365
-596.025	290.072	-0.021	0.038
-595.011	-133.414	-0.265	-0.034
-593.996	800.000	-0.118	-0.362
-592.982	290.635	-0.136	-0.251
-591.967	-200.000	-0.045	-0.404
-590.952	-102.102	0.294	0.072
-589.938	226.884	0.096	0.159
-588.923	-200.000	-0.052	-0.299
-587.909	-155.166	-0.082	-0.005
-586.894	-143.526	0.223	0.022
-585.879	134.955	0.025	0.033
-584.865	350.155	-0.067	0.134
-583.850	687.323	0.068	0.181
-582.836	98.492	0.108	0.126
-581.821	800.000	0.068	-0.238
-580.806	-200.000	0.002	-0.088
-579.792	249.189	-0.111	0.191
-578.777	606.309	0.116	-0.292
-577.763	126.848	0.097	0.124
-576.748	16.641	-0.293	0.235
-575.733	149.342	0.082	0.113
-574.719	116.963	0.074	-0.092
-573.704	-65.699	-0.289	-0.118
-572.690	-43.830	-0.338	0.172
-571.675	-49.018	-0.136	0.066
-570.661	-58.941	-0.160	0.070
-569.646	-115.360	-0.368	0.070
-568.631	120.357	0.111	0.140
-567.617	-200.000	-0.009	0.072
-566.602	-200.000	-0.008	0.067
-565.588	145.815	0.235	-0.320
-564.573	-181.408	0.134	0.003
-563.558	150.394	-0.074	0.101
-562.544	340.703	0.176	0.347
-561.529	713.859	-0.044	-0.118
-560.515	-200.000	-0.047	-0.229
-559.500	-134.409	0.217	-0.027
-558.485	-24.232	-0.220	-0.133
-557.471	210.554	-0.074	0.117
-556.456	371.276	0.030	-0.061
-555.442	-0.891	-0.326	-0.234
-554.427	-29.066	0.181	-0.105
-553.412	9.905	-0.207	0.159
-552.398	23.066	0.088	0.073
-551.383	-35.492	0.226	-0.124
-550.369	-96.466	0.219	0.059
-549.354	-59.740	0.180	0.078
-548.339	446.144	0.064	-0.143
-547.325	800.000	-0.061	-0.184
-546.310	673.159	-0.074	-0.193
-545.296	31.805	0.042	-0.037
-544.281	-82.996	-0.209	0.068
-543.266	-200.000	-0.001	0.055
-542.252	-147.339	-0.214	0.018
-541.237	-136.665	0.140	0.016
-540.223	62.726	-0.114	-0.115
-539.208	-56.591	-0.242	0.109
-538.193	-68.445	0.164	-0.065
-537.179	559.675	-0.089	0.217
-536.164	169.205	0.086	-0.124
-535.150	-200.000	0.008	0.034
-534.135	153.375	-0.134	0.185
-533.121	-41.121	-0.072	0.038
-532.106	98.505	-0.173	-0.202
-531.091	-51.883	0.131	0.062
-530.077	-200.000	0.023	-0.144
-529.062	72.671	-0.165	-0.174
-528.048	613.498	0.073	-0.185
-527.033	66.502	-0.076	0.078
-526.018	310.618	-0.054	0.102
-525.004	784.523	0.133	0.369
-523.989	75.791	-0.091	0.097
-522.975	25.541	-0.247	0.208
-521.960	-200.000	0.005	0.069
-520.945	800.000	0.006	-0.027
-519.931	-123.847	-0.062	-0.010
-518.916	-24.873	0.186	0.112
-517.902	354.149	-0.128	0.257
-516.887	-123.252	-0.064	0.010
-515.872	-200.000	0.003	0.203
-514.858	128.736	0.092	0.118
-513.843	-200.000	-0.014	-0.211
-512.829	-95.460	-0.287	-0.078
-511.814	15.236	-0.166	-0.132
-510.799	-19.546	-0.243	-0.152
-509.785	367.320	-0.203	-0.415
-508.770	53.654	-0.131	-0.127
-507.756	-200.000	-0.059	-0.350
-506.741	-200.000	-0.083	-0.494
-505.726	-200.000	0.011	-0.076
-504.712	11.201	0.230	-0.178
-503.697	-138.006	0.536	0.060
-502.683	217.543	0.104	-0.168
-501.668	-124.497	0.025	0.004
-500.653	800.000	-0.075	0.230
-499.639	-178.868	-0.175	-0.004
-498.624	-200.000	-0.009	-0.265
-497.610	-200.000	-0.004	-0.082
-496.595	191.226	-0.188	-0.286
-495.581	13.599	-0.110	0.086
-494.566	-200.000	-0.004	0.047
-493.551	-98.206	-0.110	-0.028
-492.537	-200.000	-0.008	0.265
-491.522	-121.329	0.099	-0.017
-490.508	41.446	-0.108	0.099
-489.493	-87.663	-0.100	0.031
-488.478	34.294	-0.105	0.093
-487.464	-61.106	-0.185	-0.079
-486.449	28.789	0.070	-0.060
-485.435	417.088	-0.099	0.214
-484.420	-148.878	-0.289	0.024
-483.405	-148.154	0.325	-0.027
-482.391	420.682	-0.046	-0.100
-481.376	55.687	0.079	0.077
-480.362	-43.653	0.148	0.075
-479.347	800.000	-0.093	0.325
-478.332	-13.162	0.078	0.051
-477.318	19.526	-0.096	-0.078
-476.303	498.873	0.095	-0.221
-475.289	422.899	0.070	0.153
-474.274	349.996	0.121	-0.241
-473.259	-166.868	0.071	-0.003
-472.245	-13.066	-0.137	0.090
-471.230	519.028	-0.111	-0.264
-470.216	800.000	-0.112	0.327
-469.201	-102.367	-0.123	0.030
-468.186	36.810	0.338	0.302
-467.172	800.000	-0.065	0.253
-466.157	448.894	0.091	-0.203
-465.143	35.399	-0.402	0.356
-464.128	-87.513	0.327	0.100
-463.113	-14.715	-0.078	-0.051
-462.099	-132.989	0.184	-0.024
-461.084	206.412	-0.085	-0.133
-460.070	800.000	0.052	0.172
-459.055	-77.294	0.308	0.108
-458.040	160.671	-0.106	0.149
-457.026	677.971	0.041	0.108
-456.011	466.571	0.142	0.320
-454.997	-87.061	0.313	0.096
-453.982	-172.408	0.510	0.016
-452.968	800.000	0.015	0.051
-451.953	800.000	-0.050	-0.171
-450.938	-21.487	-0.200	0.123
-449.924	8.044	0.375	0.284
-448.909	-200.000	-0.004	0.107
-447.895	9.976	0.178	-0.137
-446.880	-31.809	0.252	-0.143
-445.865	-93.120	0.235	0.066
-444.851	-200.000	0.070	-0.330
-443.836	-99.569	-0.017	0.004
-442.822	-200.000	0.028	0.244
-441.807	-15.868	0.048	-0.031
-440.792	-200.000	-0.053	-0.245
-439.778	-48.743	-0.056	0.027
-438.763	308.178	-0.059	-0.111
-437.749	-60.664	0.118	0.051
-436.734	-54.894	-0.089	0.041
-435.719	-116.287	0.128	-0.024
-434.705	326.405	-0.084	0.161
-433.690	-86.753	0.107	-0.033
-432.676	800.000	0.084	0.259
-431.661	133.228	0.066	0.086
-430.646	148.660	0.161	0.219
-429.632	149.869	-0.149	0.204
-428.617	235.072	0.112	-0.187
-427.603	800.000	-0.020	0.061
-426.588	-200.000	0.002	-0.195
-425.573	588.196	-0.016	0.040
-424.559	-200.000	0.007	0.186
-423.544	20.454	0.266	0.217
-422.530	-37.497	0.167	0.090
-421.515	800.000	-0.086	0.318
-420.500	800.000	0.063	-0.185
-419.486	-1.608	-0.066	0.047
-418.471	-150.281	0.273	0.021
-417.457	800.000	0.043	-0.185
-416.442	-54.336	-0.094	0.043
-415.428	-188.630	-0.389	-0.005
-414.413	-159.626	0.141	0.008
-413.398	47.651	-0.059	-0.056
-412.384	-105.605	-0.350	0.080
-411.369	-91.953	-0.260	0.074
-410.355	-70.990	0.075	-0.028
-409.340	-200.000	0.019	-0.365
-408.325	234.945	-0.196	0.326
-407.311	596.929	-0.071	-0.176
-406.296	51.116	-0.144	0.137
-405.282	152.624	0.127	0.175
-404.267	-200.000	0.049	0.366
-403.252	-11.250	0.461	0.306
-402.238	-92.533	0.166	-0.047
-401.223	10.713	0.127	-0.098
-400.209	-32.102	0.277	-0.156
-399.194	-22.454	0.037	0.022
-398.179	-200.000	-0.015	0.104
-397.165	-92.414	0.139	0.039
-396.150	4.239	0.181	-0.133
-395.136	-33.723	0.127	-0.070
-394.121	199.202	-0.306	-0.472
-393.106	-114.790	0.165	0.032
-392.092	137.675	0.092	0.121
-391.077	-125.764	0.131	-0.020
-390.063	-66.125	0.286	0.115
-389.048	10.227	-0.223	-0.171
-388.033	-200.000	-0.027	-0.356
-387.019	170.553	-0.108	-0.155
-386.004	106.191	-0.066	0.079
-384.990	-32.081	0.168	-0.094
-383.975	229.288	0.069	-0.113
-382.960	78.100	0.117	0.126
-381.946	-200.000	-0.021	0.573
-380.931	-87.961	-0.105	-0.032
-379.917	-40.081	0.185	-0.097
-378.902	307.678	-0.076	0.143
-377.888	-177.248	0.368	-0.009
-376.873	67.990	-0.024	0.024
-375.858	-44.697	0.226	-0.113
-374.844	285.905	0.145	-0.263
-373.829	65.699	-0.137	0.140
-372.815	-87.442	0.406	0.124
-371.800	488.595	0.068	-0.157
-370.785	110.562	0.071	-0.086
-369.771	-72.655	0.238	-0.088
-368.756	-118.716	0.233	-0.041
-367.742	77.520	0.073	0.078
-366.727	-200.000	-0.052	0.357
-365.712	5.253	-0.342	-0.253
-364.698	-130.888	-0.264	0.035
-363.683	-51.408	0.223	-0.105
-362.669	492.245	0.092	-0.213
-361.654	503.091	-0.157	-0.365
-360.639	-11.571	0.389	0.257
-359.625	179.355	0.065	-0.096
-358.610	-87.079	0.185	0.057
-357.596	-1.864	0.296	0.210
-356.581	-80.879	0.419	0.140
-355.566	90.503	0.194	0.218
-354.552	800.000	-0.039	0.138
-353.537	580.571	-0.165	0.405
-352.523	800.000	0.081	-0.283
-351.508	-200.000	0.060	0.411
-350.493	63.006	-0.088	0.089
-349.479	-200.000	-0.008	0.321
-348.464	165.577	-0.197	0.279
-347.450	-40.614	-0.234	-0.122
-346.435	800.000	0.024	-0.104
-345.420	31.537	-0.117	0.101
-344.406	775.458	0.036	-0.098
-343.391	-93.802	-0.056	0.016
-342.377	-4.714	0.111	-0.077
-341.362	93.249	-0.060	-0.069
-340.348	-134.819	-0.279	0.034
-339.333	800.000	-0.053	0.160
-338.318	0.204	-0.226	-0.162
-337.304	-128.810	-0.257	-0.036
-336.289	28.955	-0.055	0.047
-335.275	-161.061	-0.505	0.027
-334.260	-200.000	0.002	0.124
-333.245	124.561	0.115	0.146
-332.231	-200.000	-0.006	0.785
-331.216	225.569	0.026	0.043
-330.202	-57.446	-0.078	0.034
-329.187	-77.274	-0.244	0.085
-328.172	-124.570	-0.179	-0.028
-327.158	-200.000	0.024	0.119
-326.143	-55.670	0.165	-0.074
-325.129	78.284	0.038	-0.041
-324.114	178.924	0.053	0.078
-323.099	317.929	-0.155	-0.295
-322.085	52.863	0.080	-0.077
-321.070	-200.000	-0.012	-0.122
-320.056	-65.714	0.141	-0.057
-319.041	-200.000	0.000	-0.161
-318.026	-130.376	0.134	0.018
-317.012	392.504	0.076	0.158
-315.997	328.237	0.266	-0.513
-314.983	800.000	-0.020	-0.074
-313.968	52.732	0.313	-0.300
-312.953	205.599	0.038	0.060
-311.939	-200.000	0.121	0.000
-310.924	-34.210	-0.459	-0.253
-309.910	220.687	0.205	0.329
-308.895	-200.000	0.246	0.001
-307.880	163.384	-0.220	-0.310
-306.866	-200.000	-0.013	0.065
-305.851	-200.000	0.026	0.120
-304.837	-78.976	0.066	0.023
-303.822	-200.000	-0.013	0.087
-302.807	-200.000	-0.013	-0.073
-301.793	-200.000	0.018	-0.114
-300.778	51.377	0.322	0.307
-299.764	32.197	-0.296	-0.256
-298.749	-125.334	0.159	0.024
-297.735	800.000	-0.008	-0.031
-296.720	195.986	0.187	-0.286
-295.705	-200.000	0.102	-0.450
-294.691	214.266	0.034	0.054
-293.676	-35.458	-0.076	0.042
-292.662	529.336	-0.159	0.377
-291.647	-4.370	-0.352	0.244
-290.632	384.448	0.148	-0.305
-289.618	296.833	-0.188	-0.345
-288.603	-200.000	0.004	-0.276
-287.589	239.653	0.037	-0.061
-286.574	-94.243	0.215	-0.059
-285.559	-200.000	0.018	-0.108
-284.545	-200.000	-0.004	-0.166
-283.530	-26.263	-0.391	0.230
-282.516	68.460	-0.062	-0.064
-281.501	-144.950	0.158	0.014
-280.486	-53.626	0.027	0.012
-279.472	-111.295	-0.190	0.039
-278.457	-200.000	-0.056	0.261
-277.443	31.929	-0.060	0.052
-276.428	56.025	0.093	-0.091
-275.413	-200.000	0.041	-0.203
-274.399	800.000	0.088	0.290
-273.384	-27.574	-0.145	-0.085
-272.370	-200.000	0.026	0.124
-271.355	201.286	0.031	0.048
-270.340	-23.162	0.307	0.185
-269.326	-69.824	-0.158	-0.060
-268.311	-60.412	-0.195	0.083
-267.297	-200.000	-0.023	-0.127
-266.282	800.000	0.063	0.196
-265.267	-59.090	-0.169	-0.073
-264.253	-83.713	-0.269	0.086
-263.238	-68.707	-0.148	0.057
-262.224	601.635	0.095	0.236
-261.209	-109.024	-0.323	0.069
-260.195	330.546	-0.154	-0.296
-259.180	-200.000	-0.022	-0.200
-258.165	-76.872	0.164	0.057
-257.151	-200.000	0.042	-0.239
-256.136	-126.920	0.294	-0.043
-255.122	-110.193	0.150	0.031
-254.107	-78.796	0.225	0.077
-253.092	-31.782	0.242	-0.136
-252.078	-200.000	-0.032	0.146
-251.063	121.902	0.203	0.254
-250.049	-132.703	0.225	0.029
-249.034	230.164	-0.069	-0.113
-248.019	800.000	0.088	-0.271
-247.005	-121.627	-0.054	0.009
-245.990	-121.577	0.059	-0.010
-244.976	-200.000	0.041	-0.235
-243.961	86.270	0.033	0.036
-242.946	295.738	-0.022	-0.040
-241.932	-200.000	-0.021	0.102
-240.917	-159.835	-0.212	-0.012
-239.903	-200.000	0.062	0.280
-238.888	-78.878	0.091	-0.031
-237.873	800.000	0.001	0.004
-236.859	-40.291	-0.272	-0.141
-235.844	-74.983	0.345	-0.124
-234.830	27.767	0.222	-0.187
-233.815	-73.784	0.336	0.122
-232.800	-8.526	-0.202	0.136
-231.786	187.673	0.077	0.115
-230.771	-95.779	0.080	0.021
-229.757	284.272	-0.131	-0.235
-228.742	105.338	-0.270	0.319
-227.727	-200.000	0.020	0.470
-226.713	-200.000	0.048	-0.280
-225.698	-65.494	0.352	-0.141
-224.684	156.409	0.130	0.179
-223.669	-200.000	-0.006	0.109
-222.655	-10.945	-0.087	0.057
-221.640	-84.289	0.149	0.047
-220.625	-45.912	-0.115	-0.057
-219.611	-200.000	-0.000	-0.392
-218.596	86.881	0.072	-0.079
-217.582	-200.000	-0.031	0.276
-216.567	-11.540	0.216	-0.142
-215.552	20.654	-0.181	-0.147
-214.538	-78.513	-0.164	0.056
-213.523	213.846	-0.107	0.169
-212.509	183.920	-0.086	-0.127
-211.494	21.497	-0.102	-0.083
-210.479	-200.000	-0.024	-0.138
-209.465	790.502	0.084	0.232
-208.450	800.000	-0.078	0.334
-207.436	-71.741	0.106	-0.040
-206.421	158.134	0.109	0.151
-205.406	135.631	0.039	-0.050
-204.392	349.373	-0.053	-0.104
-203.377	-71.481	0.321	0.120
-202.363	-200.000	-0.019	-0.122
-201.348	-132.292	0.228	0.030
-200.333	-183.465	0.126	-0.002
-199.319	800.000	0.036	-0.134
-198.304	800.000	0.087	-0.250
-197.290	-106.063	-0.139	-0.031
-196.275	145.588	-0.066	0.088
-195.260	-199.466	-0.257	0.001
-194.246	800.000	-0.147	0.515
-193.231	-200.000	0.048	-0.241
-192.217	-119.926	0.229	-0.039
-191.202	-27.721	-0.500	0.290
-190.187	-125.061	-0.109	-0.017
-189.173	24.585	-0.257	0.212
-188.158	60.994	0.162	0.160
-187.144	-98.380	-0.246	-0.063
-186.129	3.304	0.023	-0.016
-185.114	-117.958	0.175	0.031
-184.100	-24.284	0.123	0.073
-183.085	-118.632	0.158	-0.028
-182.071	-31.589	0.335	0.188
-181.056	-112.181	0.167	0.034
-180.042	109.136	-0.158	0.188
-179.027	-106.726	0.099	0.022
-178.012	-108.095	-0.239	0.052
-176.998	800.000	-0.144	-0.425
-175.983	-111.130	0.074	-0.015
-174.969	250.465	0.164	0.278
-173.954	197.112	-0.096	0.146
-172.939	-96.066	-0.386	-0.102
-171.925	-46.001	-0.047	0.023
-170.910	-73.952	-0.233	0.084
-169.896	280.500	0.164	0.292
-168.881	-81.477	0.271	-0.089
-167.866	-83.705	0.317	0.101
-166.852	85.728	-0.208	0.228
-165.837	-200.000	-0.011	-0.061
-164.823	800.000	0.022	0.060
-163.808	482.211	-0.067	0.153
-162.793	-200.000	-0.018	-0.133
-161.779	-150.762	-0.230	0.017
-160.764	-200.000	0.024	-0.188
-159.750	800.000	0.052	0.195
-158.735	-200.000	-0.031	0.184
-157.720	-108.363	-0.068	0.015
-156.706	-42.942	-0.150	0.076
-155.691	-200.000	-0.067	-0.361
-154.677	174.805	-0.099	0.142
-153.662	800.000	0.028	-0.083
-152.647	-4.712	-0.428	-0.294
-151.633	-167.970	-0.225	0.009
-150.618	-97.076	0.283	0.074
-149.604	-64.340	0.377	-0.153
-148.589	201.076	-0.201	-0.308
-147.574	-200.000	0.024	-0.306
-146.560	189.068	-0.120	0.179
-145.545	-107.579	0.282	0.062
-144.531	-89.333	0.222	0.065
-143.516	-64.267	0.416	-0.169
-142.502	-200.000	0.032	0.151
-141.487	34.172	-0.067	0.058
-140.472	304.226	-0.003	-0.006
-139.458	-9.973	-0.139	-0.092
-138.443	171.911	0.107	0.153
-137.429	-96.826	-0.169	0.044
-136.414	301.613	0.083	-0.153
-135.399	-46.427	0.082	-0.040
-134.385	800.000	-0.089	-0.260
-133.370	534.644	-0.094	-0.222
-132.356	-56.199	0.461	0.204
-131.341	-200.000	-0.017	0.221
-130.326	-20.787	0.105	0.064
-129.312	-31.081	0.079	-0.044
-128.297	235.279	0.102	-0.167
-127.283	100.202	-0.150	0.174
-126.268	800.000	0.083	0.257
-125.253	344.520	-0.058	-0.112
-124.239	-165.061	0.442	-0.020
-123.224	197.472	0.156	0.237
-122.210	-107.259	0.049	-0.011
-121.195	34.577	0.154	-0.134
