DTS Sentinel unit serial number:	SN413079Multiplexer serial number:	ORYXHardware model number:	OX4-SRSoftware version number:	ORYX F/W v4.00 Oryx Data Collector v3.7.2.0data status	okinstallation	princeton_trtdifferential loss correction	single-endedforward channel	channel 3reverse channel	N/Adate	2019/09/11time	20:46:11forward acquisition time	60.00reverse acquisition time	0.00gamma	496.2192k internal	0.2306k external	0.2306temperature offset calibration	1.0033default loss term (dB/km)	0.3790temperature slope calibration	1.0000multiplexer offset coefficient	1.0000multiplexer slope coefficient	1.0000fibre end	0.00T internal ref (°C)	37.08T ext. ref 1 (°C)	1.56T ext. ref 2 (°C)	30.79length (m)	temperature (°C)	Stokes	anti-Stokes-747.200	-143.047	0.272	-0.027
-746.185	800.000	-0.102	0.417
-745.171	-107.222	0.178	0.040
-744.156	502.930	0.090	0.212
-743.142	46.992	0.173	0.163
-742.127	-106.904	0.089	0.020
-741.112	-12.522	0.252	-0.168
-740.098	211.679	-0.078	0.124
-739.083	-6.093	0.105	-0.073
-738.069	617.707	0.069	-0.176
-737.054	-200.000	-0.002	0.043
-736.039	800.000	-0.071	-0.211
-735.025	-28.201	-0.140	0.082
-734.010	49.139	-0.416	-0.398
-732.996	-200.000	-0.036	-0.259
-731.981	-200.000	-0.002	0.232
-730.966	800.000	-0.065	-0.189
-729.952	260.436	0.158	-0.278
-728.937	-187.931	-0.185	0.002
-727.923	261.804	-0.155	0.273
-726.908	-94.479	-0.080	-0.022
-725.894	-149.112	0.155	-0.013
-724.879	44.761	-0.076	0.071
-723.864	-200.000	-0.003	-0.208
-722.850	318.471	-0.166	-0.320
-721.835	-200.000	-0.022	-0.159
-720.821	41.236	-0.031	-0.029
-719.806	129.521	-0.282	0.366
-718.791	-158.227	-0.279	-0.017
-717.777	-64.845	-0.200	-0.082
-716.762	-117.953	0.286	0.052
-715.748	-109.427	0.306	0.066
-714.733	-115.963	-0.205	0.039
-713.718	-71.664	0.194	0.074
-712.704	215.164	0.084	0.135
-711.689	800.000	-0.028	-0.084
-710.675	-149.969	0.280	-0.022
-709.660	-89.710	0.128	0.038
-708.645	152.765	-0.290	0.402
-707.631	-115.223	-0.356	0.068
-706.616	-200.000	-0.010	-0.065
-705.602	38.435	0.272	-0.246
-704.587	494.910	0.073	0.171
-703.572	-191.026	-0.418	0.004
-702.558	246.567	-0.202	0.346
-701.543	536.908	0.120	-0.289
-700.529	112.910	-0.233	0.287
-699.514	-69.183	0.166	0.065
-698.499	-99.167	-0.149	-0.038
-697.485	255.459	-0.049	0.085
-696.470	20.372	0.214	-0.176
-695.456	800.000	0.016	-0.053
-694.441	139.718	-0.191	-0.255
-693.426	481.655	-0.047	0.108
-692.412	-200.000	-0.491	0.000
-691.397	101.609	-0.144	0.171
-690.383	-200.000	0.031	-0.220
-689.368	-6.693	-0.297	0.205
-688.354	-11.482	0.318	-0.212
-687.339	-72.948	-0.091	0.034
-686.324	800.000	-0.060	0.265
-685.310	-42.699	0.140	0.072
-684.295	-1.037	-0.141	0.101
-683.281	-4.057	0.129	0.091
-682.266	161.948	-0.099	0.141
-681.251	800.000	0.081	0.312
-680.237	-200.000	0.298	-0.000
-679.222	115.141	0.272	0.336
-678.208	282.867	-0.066	-0.119
-677.193	-76.534	0.098	-0.035
-676.178	-200.000	0.008	-0.036
-675.164	-50.227	0.222	0.107
-674.149	-20.678	-0.272	-0.169
-673.135	-10.133	0.257	-0.173
-672.120	203.466	0.112	-0.176
-671.105	800.000	-0.021	-0.087
-670.091	82.983	0.028	-0.031
-669.076	-58.994	-0.177	-0.077
-668.062	-150.396	-0.218	0.017
-667.047	-133.869	-0.221	-0.028
-666.032	106.273	-0.133	-0.160
-665.018	-17.704	-0.237	0.151
-664.003	-79.106	-0.512	-0.176
-662.989	744.189	0.064	0.175
-661.974	-200.000	-0.043	0.209
-660.959	-200.000	0.000	0.094
-659.945	180.972	-0.132	0.197
-658.930	-200.000	0.054	-0.427
-657.916	800.000	-0.074	0.303
-656.901	-105.036	0.085	-0.020
-655.886	117.886	-0.131	-0.164
-654.872	531.498	0.122	0.292
-653.857	348.749	0.030	0.060
-652.843	800.000	0.068	-0.196
-651.828	-15.426	-0.346	0.224
-650.814	485.130	0.052	0.120
-649.799	138.952	-0.093	-0.124
-648.784	800.000	-0.022	0.071
-647.770	171.210	0.198	-0.287
-646.755	-200.000	0.042	-0.255
-645.741	-200.000	-0.025	-0.119
-644.726	-45.243	-0.346	-0.174
-643.711	-200.000	-0.009	-0.098
-642.697	-200.000	-0.022	0.164
-641.682	-152.670	0.172	-0.012
-640.668	800.000	-0.045	-0.157
-639.653	370.702	0.011	-0.023
-638.638	800.000	-0.042	0.140
-637.624	17.325	-0.050	0.040
-636.609	-125.567	0.078	-0.012
-635.595	140.741	-0.066	-0.088
-634.580	-136.715	0.099	0.012
-633.565	-84.258	-0.083	-0.027
-632.551	-12.174	-0.038	0.025
-631.536	-82.809	0.262	0.086
-630.522	244.176	0.124	-0.210
-629.507	195.077	-0.040	0.062
-628.492	136.069	0.159	-0.210
-627.478	161.221	0.141	0.200
-626.463	-5.899	0.327	-0.227
-625.449	-84.994	-0.047	-0.015
-624.434	-75.912	0.058	0.021
-623.419	17.611	-0.059	0.047
-622.405	-107.783	0.145	0.032
-621.390	-37.527	-0.136	-0.073
-620.376	-130.556	0.197	-0.027
-619.361	572.896	0.119	0.293
-618.346	149.968	-0.112	0.154
-617.332	-6.774	-0.100	-0.069
-616.317	-137.987	0.071	0.008
-615.303	-84.010	-0.481	-0.155
-614.288	2.459	0.231	-0.169
-613.273	28.399	0.265	-0.227
-612.259	5.897	0.134	0.101
-611.244	14.234	-0.311	-0.245
-610.230	-19.999	0.229	0.143
-609.215	-48.976	0.432	0.209
-608.201	35.737	0.143	-0.127
-607.186	286.894	-0.203	0.370
-606.171	-200.000	0.014	-0.100
-605.157	176.202	-0.225	-0.331
-604.142	108.191	-0.112	-0.135
-603.128	-185.842	-0.045	-0.001
-602.113	639.487	-0.058	0.150
-601.098	-200.000	0.010	0.081
-600.084	-38.017	0.229	0.123
-599.069	-103.596	-0.167	-0.040
-598.055	-200.000	-0.025	-0.174
-597.040	262.034	0.007	-0.013
-596.025	62.911	0.266	0.269
-595.011	39.259	0.162	0.147
-593.996	800.000	0.033	0.144
-592.982	-159.749	-0.326	0.018
-591.967	-171.799	0.156	0.005
-590.952	-73.611	-0.162	0.060
-589.938	-200.000	0.013	-0.091
-588.923	-4.982	0.166	0.116
-587.909	-200.000	0.015	0.116
-586.894	-200.000	0.015	-0.091
-585.879	-127.930	0.311	-0.045
-584.865	-200.000	-0.030	-0.362
-583.850	-49.262	-0.175	0.085
-582.836	120.281	0.071	-0.089
-581.821	-111.128	-0.454	0.094
-580.806	800.000	-0.046	0.155
-579.792	-143.902	-0.260	-0.025
-578.777	569.546	-0.154	0.379
-577.763	-147.787	-0.092	-0.008
-576.748	-200.000	0.085	-0.389
-575.733	294.311	-0.135	0.250
-574.719	800.000	0.016	0.047
-573.704	-63.179	0.057	-0.024
-572.690	293.590	0.118	-0.218
-571.675	-10.873	0.158	0.106
-570.661	800.000	0.047	-0.162
-569.646	-70.102	-0.156	-0.060
-568.631	800.000	0.046	-0.154
-567.617	-11.080	0.222	-0.148
-566.602	20.480	-0.187	0.153
-565.588	-6.453	0.180	0.124
-564.573	62.009	0.111	0.111
-563.558	-74.146	-0.089	-0.033
-562.544	337.529	-0.098	-0.193
-561.529	768.728	0.095	-0.262
-560.515	42.620	-0.256	-0.235
-559.500	-74.968	0.107	-0.039
-558.485	737.698	0.038	-0.102
-557.471	574.532	0.160	0.395
-556.456	57.739	0.176	-0.173
-555.442	656.896	0.161	0.418
-554.427	-38.093	-0.124	0.067
-553.412	-200.000	0.023	0.137
-552.398	-200.000	0.026	0.158
-551.383	55.889	-0.135	-0.132
-550.369	800.000	-0.089	0.299
-549.354	-117.633	-0.298	0.054
-548.339	800.000	-0.029	-0.102
-547.325	800.000	0.130	-0.392
-546.310	68.549	0.258	0.267
-545.296	-56.771	0.121	-0.054
-544.281	-24.044	-0.236	-0.142
-543.266	3.827	-0.257	-0.190
-542.252	53.722	-0.222	0.215
-541.237	119.185	-0.147	0.184
-540.223	40.786	-0.194	0.176
-539.208	-82.648	0.209	0.068
-538.193	-105.974	-0.248	0.056
-537.179	-200.000	-0.042	0.293
-536.164	-200.000	-0.053	0.334
-535.150	69.801	-0.136	-0.142
-534.135	116.680	-0.068	0.084
-533.121	800.000	0.043	-0.147
-532.106	-200.000	0.001	0.008
-531.091	89.910	0.150	0.169
-530.077	-58.090	-0.087	-0.038
-529.062	214.767	-0.070	-0.112
-528.048	87.333	0.105	-0.118
-527.033	99.009	-0.392	-0.457
-526.018	-200.000	-0.064	0.302
-525.004	-5.981	-0.227	-0.157
-523.989	-104.293	0.156	0.036
-522.975	350.080	0.125	0.250
-521.960	800.000	0.065	-0.242
-520.945	-143.980	0.162	0.015
-519.931	40.619	0.164	0.149
-518.916	-121.268	0.186	0.031
-517.902	-14.375	0.137	0.089
-516.887	-181.447	0.280	-0.006
-515.872	-74.397	-0.048	0.017
-514.858	-66.664	0.149	0.060
-513.843	-88.568	-0.396	-0.119
-512.829	-200.000	0.011	0.363
-511.814	234.001	0.244	-0.406
-510.799	204.179	0.153	-0.240
-509.785	-200.000	-0.016	-0.108
-508.770	-129.449	-0.334	-0.047
-507.756	-200.000	-0.027	0.252
-506.741	-200.000	0.063	0.279
-505.726	-103.790	0.369	0.087
-504.712	-25.364	-0.319	-0.190
-503.697	-92.160	-0.129	-0.037
-502.683	57.522	-0.163	-0.161
-501.668	-111.140	0.257	-0.053
-500.653	-183.665	0.067	0.001
-499.639	168.093	0.067	0.096
-498.624	-175.577	0.189	0.005
-497.610	52.612	-0.194	0.187
-496.595	-155.836	-0.079	-0.005
-495.581	-161.282	0.410	0.021
-494.566	68.187	0.157	-0.162
-493.551	-10.322	0.163	0.109
-492.537	-41.183	-0.170	-0.088
-491.522	-38.493	-0.262	-0.140
-490.508	-200.000	-0.004	0.183
-489.493	80.616	0.079	-0.086
-488.478	800.000	-0.087	0.290
-487.464	-200.000	0.020	0.278
-486.449	-200.000	-0.001	0.014
-485.435	-153.429	-0.224	-0.016
-484.420	-200.000	-0.020	-0.107
-483.405	-129.619	-0.143	0.020
-482.391	108.309	-0.284	-0.341
-481.376	642.649	-0.153	-0.392
-480.362	-200.000	-0.044	-0.260
-479.347	-73.227	0.331	-0.122
-478.332	-171.080	-0.127	-0.004
-477.318	395.811	0.127	-0.266
-476.303	-166.845	0.218	0.009
-475.289	68.924	0.237	0.245
-474.274	283.088	0.150	-0.272
-473.259	65.836	0.141	-0.144
-472.245	32.228	-0.232	0.201
-471.230	-200.000	-0.055	0.393
-470.216	-137.489	0.394	0.045
-469.201	-168.171	-0.446	0.017
-468.186	17.147	-0.220	0.175
-467.172	-65.804	-0.155	-0.063
-466.157	271.070	0.129	-0.228
-465.143	-110.337	-0.270	0.057
-464.128	800.000	0.051	0.196
-463.113	-200.000	-0.084	0.383
-462.099	-76.341	-0.124	-0.044
-461.084	-200.000	0.009	0.144
-460.070	-200.000	-0.022	0.110
-459.055	-0.443	0.108	0.077
-458.040	-124.310	-0.197	-0.031
-457.026	-47.686	-0.122	0.060
-456.011	-6.857	0.104	-0.071
-454.997	213.734	0.205	0.326
-453.982	289.052	-0.135	0.247
-452.968	-200.000	0.010	0.151
-451.953	-10.203	-0.109	0.073
-450.938	503.284	0.015	0.034
-449.924	-42.329	0.286	-0.147
-448.909	180.364	-0.186	-0.275
-447.895	215.527	-0.144	-0.230
-446.880	-200.000	-0.064	-0.344
-445.865	-58.506	0.165	-0.072
-444.851	-53.153	0.221	-0.102
-443.836	31.418	0.139	-0.120
-442.822	183.313	-0.184	0.274
-441.807	-45.426	-0.130	-0.065
-440.792	-200.000	0.030	0.134
-439.778	-16.828	0.064	0.041
-438.763	-108.898	-0.172	0.037
-437.749	-105.095	0.129	-0.030
-436.734	-200.000	-0.023	0.157
-435.719	37.437	0.109	-0.097
-434.705	-100.645	0.123	0.031
-433.690	-181.486	0.183	-0.004
-432.676	-13.934	-0.221	-0.143
-431.661	800.000	-0.119	0.332
-430.646	-152.042	-0.086	-0.006
-429.632	-58.396	-0.210	0.092
-428.617	-61.687	-0.129	0.054
-427.603	-42.880	0.141	-0.072
-426.588	182.031	-0.111	-0.165
-425.573	-37.553	-0.194	0.104
-424.559	-85.669	-0.166	0.052
-423.544	-84.562	0.055	-0.017
-422.530	800.000	-0.078	0.270
-421.515	-200.000	-0.012	0.128
-420.500	-116.925	0.163	-0.030
-419.486	-29.395	-0.181	0.104
-418.471	-200.000	-0.007	0.176
-417.457	800.000	0.038	-0.146
-416.442	144.888	0.057	-0.076
-415.428	401.692	0.047	-0.099
-414.413	21.218	-0.185	0.151
-413.398	373.519	-0.033	0.067
-412.384	-200.000	0.013	-0.425
-411.369	800.000	-0.093	0.281
-410.355	-200.000	-0.007	0.049
-409.340	265.617	-0.123	-0.215
-408.325	-124.070	-0.339	0.053
-407.311	-76.792	0.125	-0.044
-406.296	231.758	-0.182	-0.300
-405.282	-200.000	-0.040	0.399
-404.267	94.309	0.088	-0.101
-403.252	-127.923	0.381	-0.055
-402.238	-73.799	0.185	0.067
-401.223	-200.000	-0.020	-0.174
-400.209	-58.732	0.230	-0.100
-399.194	-34.887	-0.349	0.191
-398.179	317.288	0.035	-0.066
-397.165	216.400	-0.218	-0.348
-396.150	-169.681	0.243	-0.009
-395.136	-78.302	-0.069	-0.024
-394.121	508.375	-0.047	0.110
-393.106	-167.576	-0.274	0.011
-392.092	-197.472	-0.346	-0.002
-391.077	-200.000	-0.009	-0.198
-390.063	201.879	-0.262	0.405
-389.048	-150.807	0.365	-0.028
-388.033	149.886	0.086	-0.117
-387.019	787.231	-0.100	0.275
-386.004	-78.413	0.222	0.076
-384.990	-200.000	0.015	-0.084
-383.975	-140.769	-0.162	0.017
-382.960	149.483	-0.168	-0.228
-381.946	10.353	0.118	-0.090
-380.931	-200.000	-0.046	0.269
-379.917	-39.173	-0.272	0.143
-378.902	479.920	0.090	0.204
-377.888	-200.000	-0.001	-0.228
-376.873	-42.773	0.165	0.084
-375.858	50.294	0.258	-0.245
-374.844	800.000	0.041	-0.147
-373.829	-47.926	0.072	0.035
-372.815	-184.177	0.020	-0.000
-371.800	-69.966	-0.214	-0.082
-370.785	-121.123	-0.038	-0.006
-369.771	-83.751	-0.181	0.058
-368.756	800.000	-0.094	-0.313
-367.742	435.063	0.087	-0.189
-366.727	216.005	0.158	-0.251
-365.712	-102.520	0.235	0.056
-364.698	-200.000	-0.013	-0.091
-363.683	-200.000	-0.038	0.238
-362.669	-200.000	-0.330	-0.002
-361.654	-147.253	0.335	-0.029
-360.639	-42.793	0.244	0.124
-359.625	-142.257	0.248	0.025
-358.610	126.748	0.064	-0.081
-357.596	-88.694	-0.087	0.026
-356.581	-113.464	-0.274	-0.054
-355.566	1.394	-0.208	-0.150
-354.552	58.942	0.130	0.128
-353.537	-111.149	-0.349	-0.072
-352.523	259.889	-0.088	0.153
-351.508	250.029	-0.026	0.044
-350.493	-200.000	0.051	-0.315
-349.479	765.432	-0.043	0.117
-348.464	-200.000	0.048	0.286
-347.450	158.015	-0.136	0.189
-346.435	800.000	-0.057	0.248
-345.420	-153.934	0.079	0.005
-344.406	-24.462	-0.207	-0.124
-343.391	288.110	0.059	0.108
-342.377	304.147	-0.217	-0.403
-341.362	295.113	-0.136	0.250
-340.348	242.826	0.054	-0.091
-339.333	-67.921	0.233	0.091
-338.318	30.276	0.121	-0.104
-337.304	89.943	0.181	-0.202
-336.289	49.571	0.203	-0.192
-335.275	-26.569	0.182	-0.107
-334.260	149.882	0.107	0.146
-333.245	-95.617	-0.161	-0.043
-332.231	-8.660	0.056	-0.038
-331.216	99.013	0.098	0.113
-330.202	-115.143	0.297	0.056
-329.187	800.000	0.132	-0.502
-328.172	-200.000	-0.019	0.149
-327.158	-66.358	0.282	0.112
-326.143	-120.341	-0.408	-0.070
-325.129	-114.634	-0.037	0.007
-324.114	-200.000	0.025	0.157
-323.099	125.358	0.060	0.075
-322.085	-94.289	-0.110	-0.030
-321.070	-70.872	0.138	0.052
-320.056	-200.000	0.009	-0.200
-319.041	-0.938	-0.233	0.165
-318.026	289.922	-0.038	0.070
-317.012	92.117	0.253	-0.285
-315.997	-200.000	-0.004	0.056
-314.983	691.512	0.082	-0.216
-313.968	-13.533	0.174	0.113
-312.953	-104.001	0.175	0.041
-311.939	166.754	0.095	-0.134
-310.924	800.000	-0.034	0.095
-309.910	-62.973	0.029	-0.012
-308.895	-200.000	0.027	-0.235
-307.880	-90.112	0.228	-0.066
-306.866	-115.290	0.298	-0.056
-305.851	-115.492	-0.333	0.063
-304.837	517.760	0.030	0.069
-303.822	-1.505	0.143	-0.101
-302.807	395.427	0.100	0.209
-301.793	-103.706	-0.199	-0.047
-300.778	40.253	-0.224	0.202
-299.764	-200.000	-0.009	-0.052
-298.749	-162.159	0.108	0.005
-297.735	-104.936	0.144	0.033
-296.720	800.000	0.101	0.354
-295.705	-200.000	-0.008	0.243
-294.691	58.215	-0.074	-0.073
-293.676	-114.876	-0.421	-0.080
-292.662	78.632	-0.086	0.092
-291.647	174.091	0.043	0.063
-290.632	-8.547	0.052	0.035
-289.618	-129.141	-0.393	0.055
-288.603	-36.404	0.280	-0.151
-287.589	185.587	-0.203	0.301
-286.574	-200.000	0.001	0.072
-285.559	-200.000	0.011	0.530
-284.545	101.743	0.107	-0.125
-283.530	16.848	-0.360	-0.285
-282.516	-17.094	-0.234	-0.147
-281.501	-18.636	0.171	-0.107
-280.486	-12.628	0.197	0.129
-279.472	-141.883	-0.123	0.012
-278.457	58.955	0.115	-0.112
-277.443	-154.084	-0.422	0.029
-276.428	409.203	0.047	-0.099
-275.413	-109.126	0.208	0.044
-274.399	41.479	0.205	0.185
-273.384	123.345	0.022	0.027
-272.370	-102.555	-0.283	-0.068
-271.355	-123.298	0.229	0.037
-270.340	80.845	-0.076	0.082
-269.326	50.206	0.193	0.182
-268.311	757.496	0.070	0.188
-267.297	1.534	0.345	-0.248
-266.282	-56.034	0.093	-0.041
-265.267	-70.880	-0.103	-0.039
-264.253	8.327	0.286	0.214
-263.238	-200.000	0.003	0.134
-262.224	-200.000	0.011	0.171
-261.209	800.000	-0.063	0.271
-260.195	445.550	0.030	0.066
-259.180	-123.024	0.171	0.027
-258.165	-101.857	-0.118	-0.029
-257.151	-14.136	-0.173	0.111
-256.136	-76.595	0.115	-0.040
-255.122	472.603	0.049	-0.110
-254.107	-200.000	0.019	0.288
-253.092	-145.354	0.153	0.014
-252.078	134.493	-0.108	-0.140
-251.063	-96.481	-0.076	-0.020
-250.049	-200.000	-0.035	-0.258
-249.034	640.686	0.143	-0.364
-248.019	-200.000	-0.040	-0.191
-247.005	-30.223	0.387	-0.220
-245.990	-200.000	0.014	0.238
-244.976	326.043	-0.012	0.024
-243.961	-200.000	0.085	0.464
-242.946	62.645	0.159	0.159
-241.932	93.662	0.055	-0.062
-240.917	-200.000	-0.038	-0.274
-239.903	-53.038	-0.261	-0.120
-238.888	-48.476	0.310	-0.149
-237.873	-40.612	-0.219	0.114
-236.859	-173.359	0.122	0.004
-235.844	800.000	0.072	-0.222
-234.830	226.531	0.162	-0.262
-233.815	-139.246	0.281	0.030
-232.800	106.230	0.112	0.132
-231.786	-74.631	0.329	0.118
-230.771	-94.953	-0.085	0.023
-229.757	409.177	-0.109	0.231
-228.742	-163.154	-0.210	0.010
-227.727	32.823	0.238	0.205
-226.713	-166.563	-0.351	-0.015
-225.698	610.734	-0.058	-0.144
-224.684	-91.138	-0.259	0.074
-223.669	84.324	-0.077	-0.084
-222.655	-145.583	0.201	0.018
-221.640	800.000	0.082	-0.229
-220.625	76.279	-0.128	-0.136
-219.611	383.174	-0.086	-0.176
-218.596	185.684	-0.295	0.437
-217.582	40.229	0.117	-0.105
-216.567	-200.000	0.027	-0.270
-215.552	800.000	-0.005	0.022
-214.538	212.217	0.013	0.020
-213.523	-200.000	-0.004	-0.252
-212.509	-200.000	-0.038	0.299
-211.494	-151.184	0.392	-0.029
-210.479	-90.013	-0.355	0.103
-209.465	-80.891	0.196	-0.065
-208.450	380.842	-0.130	0.266
-207.436	-98.582	0.285	0.073
-206.421	-44.709	-0.262	-0.130
-205.406	210.638	-0.229	-0.358
-204.392	-32.176	0.316	0.176
-203.377	487.453	-0.056	-0.127
-202.363	538.298	-0.095	-0.224
-201.348	-83.617	-0.069	-0.022
-200.333	-138.714	0.349	-0.038
-199.319	-81.971	0.376	-0.122
-198.304	-144.451	-0.248	-0.023
-197.290	292.215	-0.025	-0.046
-196.275	-200.000	0.039	0.344
-195.260	248.622	-0.184	-0.310
-194.246	-200.000	-0.012	0.223
-193.231	63.430	-0.150	0.150
-192.217	800.000	0.132	0.503
-191.202	-200.000	0.037	-0.355
-190.187	-200.000	-0.013	0.099
-189.173	-200.000	0.016	0.234
-188.158	800.000	-0.073	0.306
-187.144	749.436	0.115	0.309
-186.129	-60.197	-0.204	0.087
-185.114	-200.000	0.029	-0.334
-184.100	634.782	0.160	-0.405
-183.085	338.577	-0.180	-0.349
-182.071	107.120	0.085	-0.100
-181.056	-200.000	-0.003	0.015
-180.042	14.687	-0.167	-0.130
-179.027	-148.916	0.370	-0.030
-178.012	527.331	-0.067	-0.157
-176.998	-46.519	-0.274	0.134
-175.983	-72.243	-0.277	0.102
-174.969	2.706	-0.171	0.123
-173.954	800.000	0.058	0.174
-172.939	-47.436	-0.186	0.090
-171.925	-108.012	0.097	-0.021
-170.910	132.872	0.061	0.078
-169.896	-141.612	-0.117	-0.012
-168.881	-106.312	0.187	-0.042
-167.866	-200.000	-0.045	-0.259
-166.852	-66.150	-0.106	-0.042
-165.837	93.726	-0.168	-0.190
-164.823	-200.000	0.034	0.245
-163.808	36.079	0.310	0.271
-162.793	95.331	-0.350	-0.397
-161.779	-200.000	-0.040	-0.205
-160.764	-200.000	-0.056	0.450
-159.750	6.579	0.132	-0.098
-158.735	-79.593	-0.224	-0.075
-157.720	3.988	-0.204	-0.148
-156.706	233.182	0.111	-0.181
-155.691	733.555	-0.064	-0.171
-154.677	78.958	-0.094	0.100
-153.662	-131.415	0.243	-0.032
-152.647	-200.000	-0.039	-0.260
-151.633	10.223	0.253	0.192
-150.618	-6.579	-0.155	-0.105
-149.604	-73.742	0.143	0.052
-148.589	49.830	0.185	0.174
-147.574	-200.000	0.011	-0.148
-146.560	180.823	0.067	-0.098
-145.545	-200.000	0.007	-0.053
-144.531	-66.416	0.183	-0.072
-143.516	-200.000	0.013	-0.256
-142.502	76.537	-0.150	-0.158
-141.487	-64.838	0.164	0.066
-140.472	-200.000	-0.026	0.291
-139.458	30.041	0.237	-0.200
-138.443	40.220	-0.346	0.309
-137.429	217.516	0.017	0.027
-136.414	395.488	0.195	0.404
-135.399	94.094	0.152	-0.172
-134.385	-200.000	0.001	-0.075
-133.370	-17.691	0.076	0.048
-132.356	-84.145	-0.199	0.063
-131.341	23.649	-0.184	0.150
-130.326	-200.000	0.073	0.403
-129.312	-101.003	0.196	0.048
-128.297	114.693	0.229	0.277
-127.283	-178.986	-0.045	0.001
-126.268	800.000	0.105	0.315
-125.253	159.459	0.029	-0.040
-124.239	346.792	0.093	-0.182
-123.224	800.000	-0.128	0.360
-122.210	-30.245	-0.304	0.171
