DTS Sentinel unit serial number:	SN413079Multiplexer serial number:	ORYXHardware model number:	OX4-SRSoftware version number:	ORYX F/W v4.00 Oryx Data Collector v3.7.2.0data status	okinstallation	princeton_trtdifferential loss correction	single-endedforward channel	channel 3reverse channel	N/Adate	2019/09/10time	21:10:11forward acquisition time	60.00reverse acquisition time	0.00gamma	496.2192k internal	0.2328k external	0.2328temperature offset calibration	0.9915default loss term (dB/km)	0.3790temperature slope calibration	1.0000multiplexer offset coefficient	1.0000multiplexer slope coefficient	1.0000fibre end	0.00T internal ref (°C)	31.44T ext. ref 1 (°C)	-0.32T ext. ref 2 (°C)	24.55length (m)	temperature (°C)	Stokes	anti-Stokes-747.200	96.163	0.161	0.186
-746.185	561.962	-0.132	0.322
-745.171	193.246	-0.225	0.343
-744.156	462.387	0.125	0.281
-743.142	-52.963	-0.244	0.113
-742.127	-200.000	0.038	0.170
-741.112	480.991	0.189	0.431
-740.098	712.973	0.085	0.228
-739.083	363.275	-0.059	-0.119
-738.069	800.000	0.090	0.308
-737.054	244.874	-0.114	0.194
-736.039	-8.998	-0.327	-0.220
-735.025	-36.877	0.252	0.136
-734.010	-82.996	0.042	0.014
-732.996	-32.476	0.150	0.084
-731.981	694.457	0.070	-0.186
-730.966	98.745	-0.269	-0.313
-729.952	411.313	0.157	-0.335
-728.937	-187.047	-0.254	-0.004
-727.923	-179.205	-0.241	-0.005
-726.908	167.312	0.119	-0.170
-725.894	800.000	0.034	-0.146
-724.879	-200.000	0.062	0.295
-723.864	580.132	0.052	-0.127
-722.850	291.240	-0.162	-0.297
-721.835	-165.028	0.379	-0.017
-720.821	-140.446	0.210	-0.022
-719.806	-82.774	-0.125	-0.041
-718.791	186.325	0.062	-0.093
-717.777	-200.000	-0.056	-0.334
-716.762	-62.766	-0.356	-0.148
-715.748	1.591	-0.239	-0.173
-714.733	425.454	-0.043	-0.093
-713.718	-9.479	-0.042	-0.028
-712.704	-200.000	0.042	-0.420
-711.689	92.524	0.161	0.182
-710.675	-200.000	0.021	0.093
-709.660	-95.917	-0.303	-0.081
-708.645	-200.000	0.017	-0.140
-707.631	-200.000	0.004	0.130
-706.616	68.505	-0.234	0.242
-705.602	448.299	-0.129	0.285
-704.587	-200.000	-0.038	-0.184
-703.572	-98.156	-0.235	0.061
-702.558	-45.947	-0.358	-0.178
-701.543	68.353	-0.314	-0.323
-700.529	-200.000	-0.075	-0.361
-699.514	-200.000	0.064	-0.345
-698.499	-200.000	0.008	-0.082
-697.485	-200.000	-0.015	-0.107
-696.470	-15.014	0.110	-0.071
-695.456	-129.098	-0.385	-0.054
-694.441	309.377	-0.085	0.160
-693.426	-89.626	-0.243	0.072
-692.412	159.049	-0.113	0.158
-691.397	-82.636	0.094	0.031
-690.383	-180.992	0.354	0.007
-689.368	800.000	-0.065	0.216
-688.354	57.781	-0.248	-0.244
-687.339	403.290	-0.079	-0.167
-686.324	-12.437	-0.341	0.224
-685.310	-63.747	-0.290	0.119
-684.295	-32.994	0.106	0.059
-683.281	664.932	-0.060	-0.155
-682.266	-163.309	0.155	0.007
-681.251	-200.000	0.069	-0.329
-680.237	-16.047	0.264	-0.169
-679.222	-19.232	0.232	0.145
-678.208	-112.278	-0.403	0.081
-677.193	-78.744	-0.307	-0.105
-676.178	-40.434	-0.293	0.153
-675.164	-1.955	-0.188	0.133
-674.149	711.049	0.078	-0.208
-673.135	249.401	0.102	0.174
-672.120	-200.000	0.011	0.096
-671.105	-84.878	0.043	0.013
-670.091	-26.972	0.364	-0.214
-669.076	-84.976	-0.378	0.119
-668.062	80.731	-0.160	-0.173
-667.047	-43.984	-0.131	-0.066
-666.032	-130.133	0.437	0.060
-665.018	102.575	0.127	-0.149
-664.003	-7.842	0.141	0.096
-662.989	-28.944	0.195	-0.112
-661.974	-102.063	0.239	0.058
-660.959	115.092	0.259	-0.318
-659.945	25.944	0.261	-0.218
-658.930	-200.000	0.055	-0.452
-657.916	-200.000	0.024	0.190
-656.901	800.000	0.081	0.252
-655.886	188.348	-0.026	0.039
-654.872	-31.423	0.140	0.079
-653.857	800.000	0.137	-0.433
-652.843	-174.499	0.208	-0.006
-651.828	-30.745	0.197	-0.112
-650.814	141.932	0.156	-0.208
-649.799	-162.393	-0.190	-0.009
-648.784	-200.000	0.036	0.249
-647.770	-22.455	0.113	0.068
-646.755	-10.051	-0.071	0.047
-645.741	396.621	0.066	0.139
-644.726	-183.663	-0.150	-0.003
-643.711	800.000	-0.055	-0.220
-642.697	402.417	-0.045	-0.095
-641.682	125.289	0.094	0.119
-640.668	800.000	0.048	0.169
-639.653	-12.383	-0.069	0.045
-638.638	-29.336	-0.218	0.125
-637.624	28.879	-0.221	-0.188
-636.609	-138.883	-0.152	0.017
-635.595	87.590	-0.145	-0.161
-634.580	542.438	-0.058	0.139
-633.565	-124.573	0.400	0.062
-632.551	314.382	0.054	-0.103
-631.536	-136.688	-0.217	-0.025
-630.522	131.851	0.176	-0.227
-629.507	-52.595	0.226	0.105
-628.492	-121.179	0.359	-0.060
-627.478	-197.055	-0.213	0.001
-626.463	98.565	-0.026	-0.030
-625.449	-200.000	0.002	-0.027
-624.434	800.000	0.106	-0.371
-623.419	95.634	0.027	-0.031
-622.405	800.000	0.100	0.317
-621.390	443.345	-0.057	0.125
-620.376	-63.239	0.172	-0.071
-619.361	-53.223	-0.109	0.050
-618.346	35.727	0.100	-0.088
-617.332	8.170	0.175	0.131
-616.317	-103.462	0.089	0.021
-615.303	166.793	0.110	-0.157
-614.288	-139.305	-0.101	-0.011
-613.273	-150.126	-0.151	0.012
-612.259	-8.657	-0.081	-0.055
-611.244	42.857	0.088	-0.081
-610.230	-27.240	0.237	0.138
-609.215	19.611	-0.262	-0.212
-608.201	33.216	-0.134	-0.116
-607.186	-19.702	-0.094	-0.058
-606.171	-46.267	0.276	-0.136
-605.157	59.863	-0.192	-0.190
-604.142	25.611	-0.229	-0.191
-603.128	38.472	-0.165	-0.147
-602.113	800.000	0.027	-0.112
-601.098	-3.272	0.264	0.184
-600.084	163.068	-0.122	0.172
-599.069	-73.653	-0.194	-0.071
-598.055	800.000	-0.017	0.062
-597.040	-79.877	-0.360	0.121
-596.025	269.892	0.122	-0.214
-595.011	-123.690	-0.294	-0.047
-593.996	-55.347	0.268	-0.120
-592.982	-123.413	-0.425	0.068
-591.967	389.789	-0.173	-0.360
-590.952	-200.000	-0.027	0.333
-589.938	596.769	-0.071	-0.177
-588.923	289.858	0.080	-0.146
-587.909	-167.125	-0.129	-0.005
-586.894	35.944	0.048	0.043
-585.879	-200.000	-0.032	-0.489
-584.865	224.538	0.033	0.054
-583.850	78.381	0.161	0.172
-582.836	115.214	0.158	0.193
-581.821	-100.766	-0.070	-0.017
-580.806	61.428	0.162	0.161
-579.792	-200.000	-0.003	-0.153
-578.777	-185.242	-0.318	0.005
-577.763	-109.207	0.202	-0.043
-576.748	-200.000	-0.005	0.052
-575.733	158.449	-0.090	0.125
-574.719	-200.000	-0.050	0.317
-573.704	-200.000	0.004	0.107
-572.690	68.238	0.201	0.207
-571.675	7.140	-0.096	-0.072
-570.661	101.995	0.138	0.161
-569.646	-39.539	0.297	0.156
-568.631	-200.000	-0.050	-0.290
-567.617	-76.979	0.128	0.045
-566.602	-139.500	-0.415	-0.044
-565.588	58.228	0.167	0.164
-564.573	800.000	0.045	0.160
-563.558	79.964	0.150	0.162
-562.544	-200.000	-0.013	0.075
-561.529	20.767	-0.206	-0.167
-560.515	-200.000	0.014	0.179
-559.500	100.070	-0.068	0.079
-558.485	26.477	-0.274	-0.229
-557.471	562.838	-0.131	-0.318
-556.456	-200.000	-0.007	0.134
-555.442	-200.000	0.001	0.025
-554.427	26.785	0.318	0.266
-553.412	42.348	-0.290	0.264
-552.398	105.324	-0.315	0.372
-551.383	260.657	-0.121	0.209
-550.369	-200.000	-0.043	0.360
-549.354	800.000	-0.094	0.263
-548.339	-131.380	-0.199	0.026
-547.325	44.761	-0.201	-0.185
-546.310	113.249	-0.134	0.162
-545.296	800.000	0.121	-0.340
-544.281	-137.105	0.203	0.023
-543.266	-51.906	-0.066	-0.031
-542.252	69.343	0.153	-0.157
-541.237	-167.656	-0.319	-0.013
-540.223	-200.000	-0.008	0.140
-539.208	-49.296	0.166	0.079
-538.193	398.995	0.099	0.207
-537.179	-72.615	-0.462	0.170
-536.164	-61.531	0.226	0.095
-535.150	47.273	-0.162	0.151
-534.135	-88.781	0.146	-0.043
-533.121	385.193	-0.077	0.158
-532.106	-131.841	-0.255	-0.033
-531.091	-63.847	-0.395	-0.161
-530.077	35.250	0.149	0.131
-529.062	-34.092	0.335	-0.184
-528.048	491.765	-0.055	0.125
-527.033	800.000	0.011	0.044
-526.018	800.000	-0.063	-0.178
-525.004	186.336	0.112	0.167
-523.989	95.979	-0.193	0.221
-522.975	-60.794	-0.220	0.093
-521.960	70.100	0.106	0.109
-520.945	-19.350	0.283	-0.176
-519.931	-126.276	0.328	0.049
-518.916	-200.000	0.030	0.200
-517.902	-162.744	0.260	-0.013
-516.887	-116.715	-0.145	-0.027
-515.872	-200.000	-0.062	-0.391
-514.858	707.132	0.025	0.065
-513.843	-153.883	0.425	-0.029
-512.829	77.032	0.072	-0.076
-511.814	-150.225	-0.131	0.010
-510.799	-90.029	-0.081	0.024
-509.785	232.904	-0.218	0.358
-508.770	-23.747	-0.155	-0.093
-507.756	-165.403	0.352	-0.015
-506.741	63.977	-0.090	-0.091
-505.726	-200.000	-0.000	0.099
-504.712	443.372	0.071	0.156
-503.697	198.504	0.066	0.101
-502.683	-58.016	-0.399	0.174
-501.668	56.811	-0.127	0.123
-500.653	-132.494	-0.040	-0.005
-499.639	-11.430	0.125	-0.082
-498.624	-144.678	-0.206	0.019
-497.610	181.948	0.196	-0.288
-496.595	-103.775	-0.035	-0.008
-495.581	-50.363	-0.223	-0.105
-494.566	-200.000	0.009	-0.127
-493.551	148.768	0.152	0.206
-492.537	-200.000	0.030	0.235
-491.522	-72.490	0.295	-0.109
-490.508	-200.000	-0.053	-0.269
-489.493	59.461	-0.290	-0.285
-488.478	-200.000	-0.074	-0.377
-487.464	800.000	-0.057	-0.196
-486.449	155.740	-0.142	-0.195
-485.435	99.898	0.127	0.147
-484.420	53.769	0.073	-0.070
-483.405	800.000	0.058	-0.220
-482.391	-200.000	-0.052	0.297
-481.376	-30.560	-0.299	0.169
-480.362	-200.000	0.027	0.193
-479.347	-121.812	0.385	-0.063
-478.332	319.248	-0.131	0.248
-477.318	-38.925	0.231	0.121
-476.303	-200.000	-0.011	0.057
-475.289	-157.074	0.177	-0.011
-474.274	108.440	0.252	0.300
-473.259	773.678	-0.053	0.144
-472.245	177.614	0.024	-0.035
-471.230	11.514	-0.061	-0.047
-470.216	-94.884	-0.498	0.135
-469.201	-200.000	-0.011	0.079
-468.186	-54.072	-0.511	0.232
-467.172	-132.264	0.381	-0.049
-466.157	-200.000	-0.022	-0.125
-465.143	-137.607	0.135	0.015
-464.128	-200.000	0.021	0.122
-463.113	800.000	-0.080	-0.241
-462.099	-100.021	0.018	0.005
-461.084	-52.142	0.124	-0.057
-460.070	23.461	0.227	-0.186
-459.055	800.000	-0.025	-0.085
-458.040	-98.096	0.255	-0.065
-457.026	-200.000	0.019	-0.232
-456.011	-94.256	-0.129	0.035
-454.997	473.372	-0.096	-0.216
-453.982	-17.899	0.360	0.225
-452.968	-141.419	-0.233	0.023
-451.953	-136.460	-0.001	0.000
-450.938	37.153	-0.119	-0.105
-449.924	-117.598	-0.323	-0.058
-448.909	-115.528	-0.032	0.006
-447.895	18.853	-0.267	-0.213
-446.880	147.526	0.154	-0.206
-445.865	-57.669	0.275	-0.120
-444.851	14.866	0.108	0.084
-443.836	-189.755	0.203	0.002
-442.822	513.799	-0.052	-0.121
-441.807	15.165	-0.035	-0.027
-440.792	195.661	-0.045	0.068
-439.778	-200.000	-0.057	0.000
-438.763	-200.000	0.019	-0.312
-437.749	-200.000	0.013	-0.109
-436.734	184.399	-0.079	-0.116
-435.719	-96.153	-0.363	-0.096
-434.705	97.558	-0.113	0.129
-433.690	-24.738	-0.461	-0.273
-432.676	-61.088	0.078	0.033
-431.661	298.405	-0.241	-0.441
-430.646	2.110	0.102	-0.073
-429.632	-200.000	-0.024	0.220
-428.617	773.274	-0.122	-0.331
-427.603	-74.033	0.094	-0.034
-426.588	62.351	0.040	0.040
-425.573	-77.236	-0.354	0.123
-424.559	328.085	0.014	0.027
-423.544	286.916	0.144	-0.260
-422.530	94.776	0.190	-0.215
-421.515	132.346	-0.145	0.186
-420.500	-200.000	-0.015	-0.178
-419.486	-200.000	-0.045	0.237
-418.471	57.339	0.040	0.039
-417.457	478.710	-0.086	-0.195
-416.442	263.913	-0.115	-0.198
-415.428	800.000	0.031	-0.101
-414.413	-200.000	0.052	0.304
-413.398	800.000	-0.059	0.170
-412.384	-200.000	0.018	0.113
-411.369	124.696	0.122	0.153
-410.355	-75.695	-0.190	0.067
-409.340	-70.844	0.160	-0.060
-408.325	-19.356	-0.265	0.164
-407.311	-137.638	-0.263	0.029
-406.296	319.169	-0.062	0.117
-405.282	-162.471	0.110	-0.005
-404.267	101.939	0.189	0.219
-403.252	50.042	0.097	0.091
-402.238	35.271	0.033	0.029
-401.223	28.799	-0.203	0.171
-400.209	-200.000	0.012	0.244
-399.194	-200.000	0.000	0.045
-398.179	-5.306	-0.278	0.190
-397.165	-143.987	0.040	-0.004
-396.150	32.862	0.166	-0.143
-395.136	497.147	-0.045	0.103
-394.121	-62.621	0.013	-0.005
-393.106	20.789	0.426	-0.343
-392.092	-123.042	-0.143	0.023
-391.077	-16.774	-0.226	0.142
-390.063	-128.932	-0.326	-0.046
-389.048	-200.000	-0.012	0.202
-388.033	-37.246	-0.244	-0.130
-387.019	-200.000	0.003	0.322
-386.004	-88.651	0.083	-0.024
-384.990	3.791	-0.123	0.089
-383.975	-91.272	-0.085	-0.024
-382.960	-132.412	0.158	0.020
-381.946	-200.000	0.019	-0.144
-380.931	-2.134	0.105	0.073
-379.917	-68.434	0.192	-0.074
-378.902	-120.521	0.225	-0.038
-377.888	-14.445	0.330	0.211
-376.873	-200.000	-0.004	-0.256
-375.858	-103.007	-0.120	0.028
-374.844	-80.759	0.419	-0.138
-373.829	-71.187	0.285	-0.106
-372.815	-91.133	-0.370	0.105
-371.800	-200.000	-0.024	-0.346
-370.785	-200.000	0.045	-0.321
-369.771	397.337	0.208	-0.432
-368.756	-200.000	0.045	-0.265
-367.742	-115.814	-0.118	0.022
-366.727	328.486	-0.094	-0.179
-365.712	124.446	0.260	-0.325
-364.698	-200.000	0.003	-0.311
-363.683	-200.000	-0.001	0.007
-362.669	73.674	0.101	0.106
-361.654	127.098	0.303	-0.382
-360.639	44.342	0.165	-0.151
-359.625	-135.759	0.196	0.023
-358.610	224.749	0.233	0.375
-357.596	485.623	-0.077	0.173
-356.581	-76.645	-0.258	-0.090
-355.566	-100.500	-0.166	0.041
-354.552	-17.789	-0.231	0.144
-353.537	-151.478	-0.400	-0.029
-352.523	236.629	0.149	-0.245
-351.508	800.000	-0.055	0.153
-350.493	-14.591	-0.177	-0.113
-349.479	-138.064	-0.125	0.014
-348.464	-37.195	-0.246	0.131
-347.450	29.076	0.188	-0.158
-346.435	-65.230	0.126	0.050
-345.420	179.177	-0.227	-0.329
-344.406	-160.586	0.416	0.022
-343.391	651.375	0.076	-0.193
-342.377	-55.284	-0.325	0.145
-341.362	-200.000	0.002	0.152
-340.348	34.323	0.073	-0.064
-339.333	128.174	0.045	-0.057
-338.318	43.101	0.069	0.063
-337.304	-18.822	0.283	-0.175
-336.289	-29.110	-0.073	0.042
-335.275	-200.000	-0.008	0.227
-334.260	51.371	-0.205	-0.194
-333.245	-69.068	-0.026	-0.010
-332.231	308.867	0.166	-0.308
-331.216	79.188	-0.222	-0.236
-330.202	-200.000	-0.044	0.283
-329.187	17.018	0.514	-0.404
-328.172	139.921	0.077	0.101
-327.158	-200.000	0.075	-0.382
-326.143	-85.969	0.090	-0.028
-325.129	-45.005	0.121	-0.060
-324.114	29.414	-0.253	0.213
-323.099	-177.508	-0.100	0.002
-322.085	-132.598	0.122	0.016
-321.070	-106.190	0.079	0.018
-320.056	-200.000	-0.159	-0.000
-319.041	-32.550	0.285	0.157
-318.026	54.875	0.170	-0.163
-317.012	-200.000	-0.053	-0.356
-315.997	-106.889	0.209	0.046
-314.983	-21.802	0.371	0.223
-313.968	43.927	0.043	0.039
-312.953	92.602	-0.139	0.155
-311.939	600.566	0.143	-0.352
-310.924	-200.000	-0.003	-0.200
-309.910	-75.715	-0.106	-0.037
-308.895	146.340	0.241	-0.321
-307.880	-89.218	0.359	-0.105
-306.866	-200.000	0.020	0.159
-305.851	-159.013	0.226	-0.013
-304.837	-125.291	0.162	0.025
-303.822	-200.000	-0.023	0.275
-302.807	-30.797	0.157	0.088
-301.793	265.450	0.141	-0.244
-300.778	-200.000	-0.062	0.439
-299.764	-29.509	-0.342	-0.194
-298.749	-94.382	-0.093	-0.025
-297.735	-111.826	0.012	-0.002
-296.720	99.806	0.092	0.106
-295.705	365.567	0.014	0.028
-294.691	800.000	-0.011	0.041
-293.676	-152.650	-0.222	0.016
-292.662	-200.000	-0.049	-0.372
-291.647	-95.484	0.252	0.067
-290.632	-33.861	0.025	-0.014
-289.618	39.065	0.165	0.146
-288.603	-155.381	-0.253	0.016
-287.589	-121.334	0.102	-0.017
-286.574	116.840	-0.011	0.013
-285.559	721.793	0.072	-0.191
-284.545	-158.707	-0.208	-0.012
-283.530	-106.524	0.293	0.065
-282.516	-126.281	0.280	0.041
-281.501	42.784	0.147	-0.133
-280.486	-200.000	0.009	-0.094
-279.472	-33.253	0.304	-0.167
-278.457	-200.000	0.010	-0.251
-277.443	-125.946	0.184	-0.027
-276.428	129.003	0.159	-0.200
-275.413	235.068	-0.202	0.330
-274.399	800.000	0.111	-0.405
-273.384	389.289	0.145	-0.296
-272.370	-104.166	-0.200	-0.046
-271.355	-34.552	-0.192	0.104
-270.340	2.650	-0.181	0.130
-269.326	-189.108	0.032	0.000
-268.311	136.755	-0.123	0.158
-267.297	-1.939	0.112	-0.078
-266.282	-5.396	0.134	-0.091
-265.267	-137.068	0.161	-0.018
-264.253	-84.590	-0.265	0.083
-263.238	-200.000	-0.022	0.160
-262.224	-200.000	-0.038	-0.221
-261.209	-27.879	-0.122	0.070
-260.195	-200.000	0.008	-0.135
-259.180	-140.633	-0.528	-0.054
-258.165	-59.457	-0.241	0.103
-257.151	284.152	0.075	0.133
-256.136	-63.826	0.122	0.049
-255.122	30.205	-0.235	0.198
-254.107	189.915	0.020	-0.030
-253.092	-40.391	-0.490	0.252
-252.078	-103.220	-0.250	0.059
-251.063	800.000	0.036	0.104
-250.049	-86.893	-0.148	-0.045
-249.034	-11.350	-0.180	-0.117
-248.019	214.890	-0.155	0.243
-247.005	-16.794	0.135	-0.084
-245.990	8.154	0.046	0.034
-244.976	55.561	0.039	0.038
-243.961	626.496	0.139	-0.347
-242.946	647.292	-0.015	0.038
-241.932	-55.185	0.161	-0.071
-240.917	-192.308	0.165	-0.002
-239.903	-34.223	-0.194	-0.105
-238.888	-0.151	-0.076	0.053
-237.873	-200.000	0.010	0.442
-236.859	-200.000	0.021	0.166
-235.844	125.861	-0.025	-0.031
-234.830	415.669	0.143	0.302
-233.815	-120.444	-0.242	-0.041
-232.800	-32.181	-0.282	0.156
-231.786	-200.000	0.016	-0.136
-230.771	-60.870	0.117	0.049
-229.757	298.155	-0.201	-0.364
-228.742	206.271	0.155	-0.238
-227.727	24.173	-0.129	0.105
-226.713	274.400	0.200	0.350
-225.698	104.739	0.050	-0.059
-224.684	44.259	0.105	-0.095
-223.669	-2.440	0.161	-0.111
-222.655	-200.000	-0.011	0.136
-221.640	-200.000	0.060	-0.287
-220.625	49.968	0.055	0.051
-219.611	118.451	0.011	-0.013
-218.596	177.787	0.094	0.135
-217.582	-200.000	-0.004	-0.088
-216.567	1.667	0.207	-0.147
-215.552	-200.000	0.003	-0.015
-214.538	472.608	0.164	-0.365
-213.523	800.000	0.027	0.085
-212.509	158.689	0.075	0.103
-211.494	-13.099	0.108	-0.069
-210.479	159.506	0.096	0.131
-209.465	37.899	-0.198	0.173
-208.450	104.945	0.114	-0.132
-207.436	56.575	-0.150	-0.144
-206.421	800.000	-0.015	-0.051
-205.406	139.698	0.283	0.368
-204.392	193.757	0.105	0.157
-203.377	-94.870	-0.328	0.088
-202.363	76.448	0.067	0.070
-201.348	602.439	0.049	0.121
-200.333	-93.829	0.033	0.009
-199.319	19.606	0.427	0.339
-198.304	21.552	0.173	0.139
-197.290	-134.463	-0.442	0.053
-196.275	-25.128	0.456	-0.267
-195.260	-79.893	-0.671	0.223
-194.246	-35.275	-0.130	0.070
-193.231	2.089	-0.344	0.245
-192.217	-200.000	-0.015	0.243
-191.202	276.997	-0.019	-0.033
-190.187	-67.880	0.026	0.010
-189.173	-3.491	0.318	0.218
-188.158	5.309	0.105	0.076
-187.144	96.741	0.216	0.244
-186.129	-179.686	0.039	0.001
-185.114	-200.000	0.004	0.093
-184.100	-83.197	-0.328	-0.104
-183.085	-20.884	-0.151	-0.091
-182.071	98.095	0.003	0.003
-181.056	800.000	0.058	-0.177
-180.042	-57.829	0.152	0.065
-179.027	78.815	-0.174	0.184
-178.012	-200.000	-0.032	0.436
-176.998	540.598	0.129	0.302
-175.983	80.500	0.254	-0.269
-174.969	144.788	0.201	0.265
-173.954	177.000	-0.116	0.166
-172.939	-90.699	0.162	-0.046
-171.925	-17.969	-0.247	0.152
-170.910	63.918	0.185	0.184
-169.896	231.186	-0.067	0.108
-168.881	114.821	0.157	0.189
-167.866	800.000	0.095	-0.294
-166.852	-200.000	0.042	0.296
-165.837	270.259	0.085	0.147
-164.823	44.604	-0.258	-0.234
-163.808	-200.000	0.005	-0.475
-162.793	-89.993	0.049	-0.014
-161.779	-89.624	0.253	0.073
-160.764	800.000	0.084	0.282
-159.750	800.000	0.021	-0.074
-158.735	275.692	-0.077	-0.134
-157.720	-129.288	-0.217	0.030
-156.706	800.000	0.070	0.209
-155.691	10.876	-0.157	-0.118
-154.677	-157.137	0.245	-0.015
-153.662	-50.034	0.303	0.141
-152.647	-200.000	0.000	-0.186
-151.633	-200.000	0.027	-0.218
-150.618	429.740	0.137	-0.292
-149.604	-110.793	0.097	0.020
-148.589	171.044	0.134	0.189
-147.574	800.000	-0.035	0.105
-146.560	-55.378	0.206	-0.091
-145.545	23.758	-0.352	-0.286
-144.531	-77.768	-0.122	-0.041
-143.516	-200.000	0.068	0.388
-142.502	-200.000	0.011	0.077
-141.487	-200.000	0.019	0.314
-140.472	-200.000	0.017	-0.110
-139.458	-1.292	0.276	-0.192
-138.443	-75.000	-0.132	-0.047
-137.429	414.674	0.152	0.319
-136.414	-23.115	0.175	0.104
-135.399	-78.462	0.313	0.105
-134.385	-200.000	-0.008	-0.131
-133.370	-25.260	-0.211	-0.123
-132.356	800.000	-0.079	0.295
-131.341	-156.709	0.169	-0.010
-130.326	-92.299	-0.118	0.033
-129.312	-92.904	-0.176	0.048
-128.297	-53.988	0.068	-0.030
-127.283	92.221	-0.055	-0.061
-126.268	-41.250	-0.150	0.076
-125.253	132.888	-0.269	-0.342
-124.239	800.000	0.074	-0.286
-123.224	-168.523	-0.133	0.005
-122.210	-200.000	0.011	0.195
-121.195	84.817	0.051	-0.055
-120.180	-138.660	-0.397	0.043
