DTS Sentinel unit serial number:	SN413079Multiplexer serial number:	ORYXHardware model number:	OX4-SRSoftware version number:	ORYX F/W v4.00 Oryx Data Collector v3.7.2.0data status	okinstallation	princeton_trtdifferential loss correction	single-endedforward channel	channel 3reverse channel	N/Adate	2019/09/12time	02:26:11forward acquisition time	60.00reverse acquisition time	0.00gamma	496.2192k internal	0.2321k external	0.2321temperature offset calibration	1.0067default loss term (dB/km)	0.3790temperature slope calibration	1.0000multiplexer offset coefficient	1.0000multiplexer slope coefficient	1.0000fibre end	0.00T internal ref (°C)	32.50T ext. ref 1 (°C)	2.08T ext. ref 2 (°C)	27.11length (m)	temperature (°C)	Stokes	anti-Stokes-747.200	400.140	0.022	0.047
-746.185	-200.000	-0.070	0.603
-745.171	789.544	-0.083	0.231
-744.156	-200.000	0.003	0.486
-743.142	-77.562	0.196	-0.069
-742.127	770.095	-0.044	-0.122
-741.112	213.299	-0.080	0.128
-740.098	-95.978	0.201	0.054
-739.083	-200.000	0.017	-0.332
-738.069	26.198	-0.394	0.333
-737.054	66.364	0.186	0.191
-736.039	-200.000	-0.003	-0.130
-735.025	-90.773	0.314	-0.091
-734.010	-4.364	-0.362	-0.253
-732.996	22.949	-0.264	0.219
-731.981	-200.000	0.016	0.154
-730.966	447.452	0.085	0.189
-729.952	262.303	-0.084	-0.146
-728.937	752.069	0.086	-0.233
-727.923	-200.000	0.005	0.091
-726.908	-34.568	-0.422	0.233
-725.894	800.000	-0.148	-0.422
-724.879	374.525	0.111	-0.229
-723.864	145.099	-0.081	-0.110
-722.850	-51.687	-0.294	-0.138
-721.835	-114.596	-0.257	-0.050
-720.821	-200.000	-0.012	0.071
-719.806	-200.000	-0.003	0.159
-718.791	-36.313	0.113	0.061
-717.777	-200.000	0.001	0.091
-716.762	14.181	-0.121	-0.095
-715.748	-116.572	-0.153	-0.028
-714.733	63.030	0.343	0.347
-713.718	74.624	0.108	0.115
-712.704	215.643	-0.088	-0.142
-711.689	27.978	0.113	0.096
-710.675	-75.898	0.377	0.135
-709.660	231.264	0.106	0.175
-708.645	201.897	-0.029	0.045
-707.631	-109.724	0.317	-0.067
-706.616	-156.703	0.142	-0.009
-705.602	364.926	-0.044	0.089
-704.587	-130.752	-0.184	-0.025
-703.572	-21.001	0.174	-0.107
-702.558	128.483	-0.133	-0.171
-701.543	23.485	-0.222	-0.184
-700.529	-78.414	0.239	0.083
-699.514	-200.000	-0.009	0.246
-698.499	395.683	-0.203	-0.427
-697.485	258.742	0.267	0.464
-696.470	274.289	0.156	-0.279
-695.456	26.860	-0.086	0.072
-694.441	-136.954	-0.250	-0.029
-693.426	800.000	-0.033	0.099
-692.412	69.403	0.032	-0.034
-691.397	-135.673	0.164	-0.020
-690.383	-200.000	-0.003	-0.197
-689.368	232.548	0.141	0.233
-688.354	-26.320	0.229	0.135
-687.339	-189.850	-0.240	0.003
-686.324	-200.000	-0.016	0.186
-685.310	121.737	0.164	0.206
-684.295	511.762	0.045	-0.107
-683.281	-200.000	-0.033	-0.229
-682.266	-200.000	0.005	-0.056
-681.251	-16.389	0.105	-0.067
-680.237	177.416	-0.044	-0.064
-679.222	67.415	-0.123	0.126
-678.208	223.246	0.097	-0.157
-677.193	-190.308	0.073	-0.001
-676.178	-200.000	-0.007	-0.330
-675.164	9.098	0.094	0.071
-674.149	800.000	-0.118	-0.366
-673.135	-200.000	-0.029	-0.243
-672.120	-27.118	-0.091	0.054
-671.105	-75.945	0.055	-0.020
-670.091	137.842	-0.022	-0.030
-669.076	-200.000	0.008	-0.151
-668.062	-113.358	0.139	-0.027
-667.047	-200.000	0.017	-0.241
-666.032	52.884	-0.133	-0.128
-665.018	-200.000	0.067	0.350
-664.003	102.330	-0.112	-0.132
-662.989	711.921	0.091	0.243
-661.974	-125.064	-0.344	0.053
-660.959	-108.662	-0.215	0.047
-659.945	-200.000	0.015	-0.077
-658.930	0.345	-0.089	0.064
-657.916	-200.000	0.007	-0.113
-656.901	50.800	-0.129	0.123
-655.886	-145.929	0.148	0.013
-654.872	110.315	0.121	-0.146
-653.857	800.000	-0.056	0.192
-652.843	-64.428	0.177	-0.072
-651.828	-24.044	-0.166	-0.100
-650.814	-200.000	0.000	-0.410
-649.799	46.006	0.205	-0.191
-648.784	800.000	-0.038	0.127
-647.770	-200.000	-0.001	0.224
-646.755	273.972	-0.131	0.234
-645.741	139.847	0.294	-0.390
-644.726	-176.198	0.216	0.006
-643.711	-48.290	-0.124	0.060
-642.697	800.000	-0.073	0.267
-641.682	366.514	-0.146	0.297
-640.668	-67.200	-0.386	-0.153
-639.653	25.357	-0.237	-0.198
-638.638	184.384	0.069	0.102
-637.624	-116.315	-0.146	-0.027
-636.609	-128.855	-0.201	-0.028
-635.595	-166.520	-0.187	-0.008
-634.580	-108.801	0.147	0.032
-633.565	800.000	0.086	-0.295
-632.551	466.540	0.049	-0.110
-631.536	-49.353	0.299	-0.144
-630.522	-200.000	-0.013	-0.171
-629.507	336.396	0.100	-0.195
-628.492	115.298	-0.107	-0.132
-627.478	791.763	0.035	0.098
-626.463	-34.513	-0.231	-0.127
-625.449	-145.715	0.210	-0.019
-624.434	-122.479	0.242	0.040
-623.419	214.903	-0.077	-0.123
-622.405	351.076	0.133	-0.265
-621.390	-200.000	-0.022	0.270
-620.376	-44.181	-0.294	0.148
-619.361	115.646	0.075	0.092
-618.346	-81.600	0.255	0.084
-617.332	-53.972	-0.073	0.033
-616.317	-25.441	0.047	0.028
-615.303	800.000	0.071	-0.298
-614.288	-46.720	-0.113	0.056
-613.273	-58.205	0.155	0.068
-612.259	702.506	-0.055	-0.146
-611.244	-200.000	-0.025	0.276
-610.230	-187.609	-0.150	0.002
-609.215	168.955	0.139	0.199
-608.201	-65.634	0.145	-0.059
-607.186	-200.000	-0.027	0.129
-606.171	-200.000	-0.028	-0.409
-605.157	-200.000	-0.024	-0.484
-604.142	107.737	0.104	-0.124
-603.128	35.937	-0.089	-0.079
-602.113	-200.000	-0.018	0.318
-601.098	110.952	0.204	-0.246
-600.084	-1.861	-0.140	-0.099
-599.069	800.000	-0.089	0.251
-598.055	-106.806	0.407	0.091
-597.040	-20.307	0.392	0.242
-596.025	-38.050	-0.417	-0.223
-595.011	105.091	-0.104	-0.124
-593.996	260.976	0.158	-0.274
-592.982	259.890	-0.150	0.261
-591.967	-200.000	-0.042	0.200
-590.952	-41.836	0.212	0.109
-589.938	-200.000	0.011	0.132
-588.923	-19.868	-0.225	0.140
-587.909	-10.580	-0.303	0.202
-586.894	62.117	0.101	-0.102
-585.879	41.925	-0.227	0.207
-584.865	32.201	-0.138	-0.120
-583.850	461.062	-0.135	0.302
-582.836	116.296	-0.072	-0.089
-581.821	-75.720	-0.304	-0.108
-580.806	463.696	-0.218	0.490
-579.792	-82.358	0.183	-0.060
-578.777	-200.000	-0.011	0.088
-577.763	193.099	0.069	0.105
-576.748	-200.000	-0.051	0.243
-575.733	-200.000	-0.057	-0.338
-574.719	141.263	-0.197	-0.262
-573.704	-136.299	0.135	0.016
-572.690	214.490	0.074	0.117
-571.675	-54.430	0.146	0.066
-570.661	-200.000	0.013	0.425
-569.646	-105.672	0.269	-0.061
-568.631	-74.960	0.187	0.067
-567.617	-137.144	0.063	-0.007
-566.602	-200.000	-0.005	-0.121
-565.588	-90.297	0.170	0.050
-564.573	522.908	0.036	0.086
-563.558	-36.759	0.165	0.089
-562.544	22.910	0.057	-0.047
-561.529	-99.229	0.381	0.096
-560.515	77.526	0.075	-0.080
-559.500	-98.349	0.127	0.033
-558.485	-47.265	0.313	0.153
-557.471	-102.104	-0.149	0.036
-556.456	44.825	-0.164	-0.151
-555.442	-200.000	0.025	0.349
-554.427	152.308	-0.030	0.041
-553.412	-146.982	0.216	-0.019
-552.398	-93.004	0.070	0.019
-551.383	-40.889	-0.197	-0.102
-550.369	800.000	0.050	-0.169
-549.354	-35.700	-0.125	0.068
-548.339	-71.215	-0.166	0.062
-547.325	55.334	-0.225	-0.218
-546.310	800.000	0.055	0.156
-545.296	-73.338	0.095	0.035
-544.281	-26.655	-0.109	0.064
-543.266	800.000	-0.056	-0.176
-542.252	185.665	-0.143	-0.213
-541.237	-95.738	-0.368	0.099
-540.223	283.541	0.133	-0.240
-539.208	28.410	-0.172	0.146
-538.193	-11.583	0.087	-0.057
-537.179	-101.424	-0.062	-0.015
-536.164	800.000	-0.048	0.183
-535.150	-200.000	0.018	0.090
-534.135	-65.169	-0.255	-0.103
-533.121	517.677	-0.076	-0.179
-532.106	-32.265	0.225	-0.126
-531.091	-200.000	0.017	-0.117
-530.077	-72.462	-0.120	-0.044
-529.062	800.000	-0.126	-0.352
-528.048	-40.957	-0.284	0.147
-527.033	537.463	0.033	-0.077
-526.018	90.554	-0.165	0.185
-525.004	-108.090	0.373	-0.081
-523.989	-29.138	0.307	0.176
-522.975	224.183	-0.146	0.237
-521.960	398.270	0.109	0.228
-520.945	-52.369	0.159	-0.074
-519.931	-32.110	0.244	-0.137
-518.916	-200.000	0.033	0.273
-517.902	-68.317	0.373	0.145
-516.887	-30.197	0.223	-0.127
-515.872	1.358	0.190	0.137
-514.858	318.822	0.056	-0.106
-513.843	-50.788	0.316	-0.149
-512.829	-32.251	0.047	-0.026
-511.814	-39.622	0.227	-0.119
-510.799	-85.898	-0.404	-0.125
-509.785	337.250	-0.080	0.155
-508.770	-34.562	-0.133	0.073
-507.756	-200.000	-0.035	-0.205
-506.741	-200.000	-0.043	-0.244
-505.726	69.580	0.111	0.114
-504.712	-37.696	-0.057	-0.030
-503.697	-23.577	-0.089	-0.053
-502.683	80.787	0.129	0.139
-501.668	191.652	-0.137	-0.207
-500.653	-112.024	0.391	0.079
-499.639	-40.360	0.168	-0.087
-498.624	-91.866	0.069	-0.020
-497.610	159.831	-0.023	-0.032
-496.595	800.000	0.109	-0.339
-495.581	-76.011	-0.329	0.116
-494.566	77.245	-0.157	0.167
-493.551	-141.036	0.101	0.010
-492.537	-104.149	0.383	-0.089
-491.522	542.026	0.045	0.108
-490.508	-200.000	0.029	0.148
-489.493	331.856	0.028	0.054
-488.478	-83.840	0.137	-0.044
-487.464	37.640	-0.202	-0.180
-486.449	25.416	-0.234	0.195
-485.435	-200.000	0.026	0.122
-484.420	-124.159	-0.263	-0.041
-483.405	161.243	0.014	-0.019
-482.391	-83.156	0.286	0.092
-481.376	-24.592	-0.088	-0.052
-480.362	-92.373	-0.227	0.064
-479.347	800.000	0.076	0.212
-478.332	-29.017	-0.093	-0.054
-477.318	-124.052	-0.190	0.030
-476.303	44.349	0.067	-0.062
-475.289	800.000	0.018	0.079
-474.274	-200.000	-0.015	0.140
-473.259	107.122	0.121	-0.143
-472.245	6.531	0.232	0.173
-471.230	-200.000	-0.015	-0.123
-470.216	-200.000	-0.018	-0.227
-469.201	409.535	-0.121	-0.256
-468.186	82.628	-0.102	0.110
-467.172	-79.751	0.322	-0.108
-466.157	36.082	0.052	0.046
-465.143	-19.195	0.118	-0.073
-464.128	-200.000	0.047	-0.238
-463.113	360.988	0.094	0.188
-462.099	252.343	0.096	-0.164
-461.084	-99.227	-0.243	0.061
-460.070	-78.257	0.148	-0.051
-459.055	205.199	0.177	0.275
-458.040	91.496	-0.119	0.134
-457.026	110.156	0.035	-0.042
-456.011	-150.738	-0.319	-0.024
-454.997	-0.430	0.093	0.066
-453.982	-75.676	0.211	-0.075
-452.968	-115.595	-0.174	-0.033
-451.953	92.940	0.113	-0.127
-450.938	297.350	-0.090	0.164
-449.924	-4.064	-0.249	-0.173
-448.909	-60.826	-0.301	0.127
-447.895	-40.169	-0.104	0.054
-446.880	-200.000	0.029	0.202
-445.865	-200.000	0.013	0.321
-444.851	45.994	-0.015	-0.014
-443.836	218.047	-0.117	-0.187
-442.822	800.000	-0.078	-0.309
-441.807	38.785	-0.215	-0.192
-440.792	-42.556	0.072	0.037
-439.778	-87.010	0.200	-0.061
-438.763	84.740	0.290	-0.317
-437.749	-200.000	0.071	-0.325
-436.734	-128.402	-0.390	-0.055
-435.719	255.536	0.046	0.080
-434.705	238.346	-0.172	-0.284
-433.690	-81.214	-0.125	0.041
-432.676	288.091	0.090	0.163
-431.661	800.000	-0.075	0.308
-430.646	-200.000	-0.003	0.048
-429.632	-85.374	0.268	-0.083
-428.617	-200.000	-0.021	0.235
-427.603	475.454	-0.074	-0.166
-426.588	220.812	0.123	0.198
-425.573	48.140	-0.277	0.258
-424.559	-93.288	0.200	-0.055
-423.544	-181.859	0.128	-0.002
-422.530	103.533	-0.060	-0.070
-421.515	-26.612	0.073	0.043
-420.500	-113.619	0.112	-0.022
-419.486	-200.000	-0.072	0.334
-418.471	800.000	-0.056	-0.180
-417.457	-200.000	-0.019	0.194
-416.442	-72.427	-0.143	-0.053
-415.428	10.289	-0.165	-0.125
-414.413	-82.485	-0.287	-0.093
-413.398	-200.000	0.025	0.135
-412.384	-80.061	0.367	0.123
-411.369	-63.689	-0.133	0.054
-410.355	-200.000	-0.036	-0.458
-409.340	-2.973	-0.057	-0.040
-408.325	-93.393	0.146	0.041
-407.311	39.096	-0.318	0.283
-406.296	-29.482	0.077	-0.044
-405.282	-137.740	-0.464	-0.052
-404.267	488.966	0.041	-0.094
-403.252	-200.000	-0.023	0.286
-402.238	-84.779	-0.309	0.097
-401.223	32.481	0.278	-0.239
-400.209	800.000	-0.056	-0.210
-399.194	253.238	0.048	-0.081
-398.179	135.700	-0.073	-0.095
-397.165	276.092	0.260	-0.460
-396.150	-88.901	0.477	-0.141
-395.136	-121.251	0.094	0.016
-394.121	-94.152	0.170	-0.046
-393.106	85.363	0.168	-0.184
-392.092	534.120	0.037	-0.087
-391.077	-191.443	0.037	0.000
-390.063	153.077	-0.167	-0.228
-389.048	-141.377	0.098	-0.010
-388.033	-200.000	-0.014	0.143
-387.019	-58.433	0.152	0.066
-386.004	-25.094	0.046	0.027
-384.990	132.735	-0.043	0.055
-383.975	11.050	-0.154	-0.117
-382.960	-112.156	0.114	-0.023
-381.946	-169.187	-0.309	-0.011
-380.931	-48.954	-0.130	-0.062
-379.917	-121.948	-0.166	0.027
-378.902	-200.000	0.019	-0.230
-377.888	-67.026	0.142	0.056
-376.873	112.729	0.111	-0.133
-375.858	-61.487	-0.012	0.005
-374.844	340.428	-0.036	-0.071
-373.829	45.996	0.289	-0.266
-372.815	-64.452	-0.080	-0.032
-371.800	-80.170	0.202	-0.067
-370.785	-83.224	-0.034	0.011
-369.771	-119.039	0.322	0.056
-368.756	86.891	-0.070	-0.077
-367.742	-40.482	-0.101	-0.052
-366.727	24.558	-0.075	-0.062
-365.712	97.194	0.032	0.036
-364.698	477.048	0.070	-0.158
-363.683	-200.000	-0.037	-0.216
-362.669	-185.974	0.519	0.008
-361.654	-106.549	-0.280	-0.062
-360.639	-200.000	0.070	-0.335
-359.625	800.000	-0.119	0.358
-358.610	-200.000	0.044	-0.278
-357.596	800.000	0.075	0.238
-356.581	62.715	0.131	0.130
-355.566	188.382	0.082	0.121
-354.552	-49.186	0.296	-0.141
-353.537	4.574	-0.152	-0.111
-352.523	-166.162	0.139	-0.006
-351.508	-200.000	-0.020	0.203
-350.493	73.257	0.213	0.222
-349.479	-81.876	0.100	0.033
-348.464	-37.271	0.256	-0.136
-347.450	15.662	0.099	-0.077
-346.435	-51.286	-0.162	0.075
-345.420	-88.473	0.200	0.059
-344.406	-127.125	-0.274	-0.040
-343.391	46.490	0.258	-0.238
-342.377	285.912	-0.070	0.125
-341.362	36.494	-0.184	-0.162
-340.348	-103.709	0.357	0.083
-339.333	75.635	0.077	-0.081
-338.318	-200.000	-0.003	-0.022
-337.304	800.000	0.032	-0.132
-336.289	-200.000	-0.004	0.099
-335.275	-25.883	-0.356	0.209
-334.260	-190.171	-0.142	0.002
-333.245	-1.049	0.214	0.151
-332.231	-186.807	0.464	0.006
-331.216	129.411	0.223	-0.283
-330.202	-27.425	-0.168	0.097
-329.187	8.510	0.071	-0.053
-328.172	-2.187	-0.136	0.095
-327.158	2.841	-0.326	0.236
-326.143	0.327	-0.218	-0.155
-325.129	800.000	0.072	0.289
-324.114	-90.332	0.259	0.075
-323.099	-161.049	-0.097	0.005
-322.085	-149.205	0.312	-0.025
-321.070	800.000	-0.055	0.232
-320.056	-29.302	0.506	-0.288
-319.041	-200.000	0.015	0.137
-318.026	101.460	0.087	0.101
-317.012	-109.652	0.429	0.090
-315.997	-200.000	0.047	-0.231
-314.983	143.087	-0.050	0.066
-313.968	-55.144	0.241	-0.108
-312.953	-61.678	0.128	0.053
-311.939	36.093	-0.033	0.029
-310.924	110.298	-0.418	0.500
-309.910	-60.301	0.188	0.080
-308.895	800.000	-0.061	-0.198
-307.880	-104.545	0.219	-0.050
-306.866	-114.322	-0.097	0.019
-305.851	-200.000	0.035	0.200
-304.837	-78.854	0.260	0.088
-303.822	-200.000	-0.026	-0.121
-302.807	150.237	0.087	-0.117
-301.793	800.000	0.095	-0.289
-300.778	-200.000	0.014	0.349
-299.764	199.543	0.128	-0.196
-298.749	87.234	0.156	-0.171
-297.735	427.304	-0.178	0.381
-296.720	-200.000	-0.037	-0.444
-295.705	78.714	0.165	0.175
-294.691	448.321	0.143	0.313
-293.676	143.731	-0.138	0.183
-292.662	800.000	0.029	0.097
-291.647	-151.213	0.490	0.036
-290.632	199.515	0.037	0.056
-289.618	800.000	-0.084	0.268
-288.603	-101.196	0.218	0.053
-287.589	-1.693	0.110	-0.077
-286.574	-181.953	-0.213	0.004
-285.559	77.234	-0.355	0.375
-284.545	-105.756	-0.033	-0.007
-283.530	-200.000	0.016	-0.108
-282.516	76.660	-0.153	0.161
-281.501	-37.734	0.129	0.068
-280.486	-32.354	0.361	-0.200
-279.472	77.322	-0.123	0.129
-278.457	17.762	-0.071	-0.056
-277.443	26.696	0.144	0.120
-276.428	244.296	0.180	0.301
-275.413	-57.460	-0.151	-0.066
-274.399	-100.621	0.375	0.092
-273.384	-25.789	-0.291	-0.170
-272.370	800.000	-0.202	0.637
-271.355	-136.515	0.436	0.050
-270.340	-200.000	0.019	0.112
-269.326	232.515	-0.060	-0.098
-268.311	-106.889	0.129	-0.028
-267.297	723.264	0.082	-0.216
-266.282	323.278	-0.093	0.175
-265.267	223.795	-0.295	-0.472
-264.253	5.562	-0.231	-0.169
-263.238	-200.000	-0.028	0.227
-262.224	4.009	0.267	-0.193
-261.209	36.670	-0.261	0.229
-260.195	-15.360	-0.149	-0.094
-259.180	177.846	0.064	-0.092
-258.165	175.559	-0.113	-0.162
-257.151	145.032	-0.206	-0.274
-256.136	-94.316	0.269	-0.073
-255.122	-200.000	0.018	0.271
-254.107	-80.455	-0.180	0.060
-253.092	-12.652	0.216	0.140
-252.078	-200.000	0.026	-0.256
-251.063	-84.402	-0.294	-0.092
-250.049	-68.671	-0.355	0.136
-249.034	27.354	-0.149	-0.125
-248.019	-143.036	-0.155	-0.015
-247.005	-70.032	-0.122	-0.046
-245.990	97.987	-0.018	-0.021
-244.976	449.627	0.087	0.191
-243.961	-45.604	0.184	0.090
-242.946	41.487	0.107	0.096
-241.932	-200.000	-0.043	-0.265
-240.917	55.757	-0.192	0.184
-239.903	35.760	-0.258	-0.225
-238.888	-181.988	0.162	-0.003
-237.873	-173.363	-0.567	-0.017
-236.859	800.000	0.081	0.283
-235.844	4.849	-0.166	0.121
-234.830	288.521	0.145	-0.260
-233.815	-63.597	-0.267	-0.108
-232.800	800.000	0.050	0.207
-231.786	-150.724	0.331	0.025
-230.771	134.779	-0.238	0.307
-229.757	130.022	0.252	-0.320
-228.742	49.702	-0.087	0.081
-227.727	-180.792	-0.191	-0.004
-226.713	-93.294	0.146	0.040
-225.698	297.267	0.155	-0.283
-224.684	-148.127	-0.283	-0.023
-223.669	-31.277	-0.260	-0.145
-222.655	20.092	-0.305	0.244
-221.640	800.000	-0.089	0.265
-220.625	-88.196	-0.368	0.109
-219.611	-71.766	0.215	0.079
-218.596	245.812	-0.139	0.231
-217.582	646.882	-0.111	-0.280
-216.567	71.743	-0.340	-0.350
-215.552	55.151	-0.105	-0.101
-214.538	-59.048	-0.286	0.122
-213.523	14.757	-0.302	-0.233
-212.509	-154.203	-0.351	-0.024
-211.494	-200.000	0.014	-0.406
-210.479	54.026	-0.283	0.270
-209.465	193.412	-0.084	0.126
-208.450	173.808	-0.133	-0.191
-207.436	800.000	-0.100	0.328
-206.421	17.470	0.155	0.122
-205.406	-200.000	-0.059	-0.261
-204.392	-30.666	-0.143	0.080
-203.377	-54.450	-0.122	-0.055
-202.363	145.736	-0.110	-0.146
-201.348	127.944	0.252	0.318
-200.333	112.747	0.205	0.246
-199.319	-10.814	-0.107	0.070
-198.304	800.000	0.057	-0.198
-197.290	-55.598	-0.131	-0.058
-196.275	-200.000	-0.017	0.077
-195.260	420.287	0.144	0.305
-194.246	-200.000	-0.029	0.295
-193.231	8.935	-0.235	0.175
-192.217	22.738	0.241	-0.195
-191.202	-104.117	0.208	0.048
-190.187	268.690	0.212	0.367
-189.173	-118.833	-0.242	-0.042
-188.158	48.769	0.226	0.209
-187.144	-45.238	-0.238	0.117
-186.129	-81.451	-0.172	-0.056
-185.114	709.693	0.054	-0.141
-184.100	587.570	-0.147	-0.358
-183.085	367.483	-0.133	0.266
-182.071	-125.533	0.177	-0.027
-181.056	77.983	0.203	0.214
-180.042	800.000	0.048	0.205
-179.027	-200.000	0.008	-0.280
-178.012	407.107	0.066	-0.138
-176.998	-78.360	0.246	0.084
-175.983	800.000	-0.100	-0.385
-174.969	-42.771	0.065	-0.033
-173.954	-51.329	0.149	0.069
-172.939	322.747	-0.095	-0.179
-171.925	-61.348	0.229	-0.095
-170.910	-162.542	-0.182	-0.009
-169.896	-114.490	-0.470	0.089
-168.881	-200.000	0.051	-0.240
-167.866	-200.000	-0.061	-0.273
-166.852	-200.000	0.017	0.076
-165.837	-200.000	0.072	0.335
-164.823	16.347	-0.053	0.042
-163.808	-200.000	-0.023	0.152
-162.793	-73.927	0.085	0.031
-161.779	-160.746	0.041	-0.002
-160.764	-96.763	0.086	0.022
-159.750	-200.000	0.007	-0.037
-158.735	87.275	-0.185	-0.202
-157.720	-166.187	-0.289	-0.012
-156.706	70.349	-0.182	-0.186
-155.691	-101.586	-0.102	0.024
-154.677	-188.703	-0.392	0.005
-153.662	60.648	-0.140	-0.137
-152.647	14.487	0.068	0.053
-151.633	167.190	0.190	-0.266
-150.618	-200.000	-0.036	0.368
-149.604	-42.178	0.069	-0.035
-148.589	78.059	0.107	-0.112
-147.574	36.014	-0.277	-0.241
-146.560	331.516	-0.041	0.079
-145.545	182.286	0.080	-0.117
-144.531	85.592	-0.069	0.075
-143.516	-200.000	-0.040	0.405
-142.502	-56.597	0.210	-0.092
-141.487	-72.176	0.353	0.129
-140.472	-17.078	-0.294	0.183
-139.458	-95.112	0.146	-0.039
-138.443	-16.504	-0.310	-0.194
-137.429	675.119	-0.069	-0.176
-136.414	-200.000	0.005	0.046
-135.399	224.658	0.188	-0.300
-134.385	-200.000	-0.073	-0.348
-133.370	800.000	0.059	-0.173
-132.356	-48.977	0.199	0.094
-131.341	-118.449	0.200	0.035
-130.326	-29.662	-0.221	0.124
-129.312	800.000	0.049	0.175
-128.297	-26.502	-0.077	-0.045
-127.283	-118.365	0.222	0.039
-126.268	-200.000	0.060	0.321
-125.253	112.445	-0.216	-0.258
-124.239	-154.966	-0.178	-0.012
-123.224	800.000	-0.060	-0.235
-122.210	189.871	-0.035	-0.052
-121.195	165.857	-0.166	-0.231
