DTS Sentinel unit serial number:	SN413079Multiplexer serial number:	ORYXHardware model number:	OX4-SRSoftware version number:	ORYX F/W v4.00 Oryx Data Collector v3.7.2.0data status	okinstallation	princeton_trtdifferential loss correction	single-endedforward channel	channel 3reverse channel	N/Adate	2019/09/11time	13:58:10forward acquisition time	60.00reverse acquisition time	0.00gamma	496.2192k internal	0.2293k external	0.2293temperature offset calibration	0.9978default loss term (dB/km)	0.3790temperature slope calibration	1.0000multiplexer offset coefficient	1.0000multiplexer slope coefficient	1.0000fibre end	0.00T internal ref (°C)	41.87T ext. ref 1 (°C)	0.85T ext. ref 2 (°C)	37.31length (m)	temperature (°C)	Stokes	anti-Stokes-747.200	273.399	0.073	0.132
-746.185	800.000	0.126	0.453
-745.171	800.000	-0.097	0.372
-744.156	-200.000	0.019	0.441
-743.142	13.819	-0.245	-0.195
-742.127	800.000	0.055	0.234
-741.112	-150.460	-0.271	0.021
-740.098	7.040	-0.132	-0.101
-739.083	-200.000	0.042	-0.265
-738.069	152.454	0.117	0.164
-737.054	-77.089	-0.247	-0.088
-736.039	456.605	-0.027	0.061
-735.025	-200.000	-0.048	-0.329
-734.010	95.263	-0.213	-0.248
-732.996	91.383	-0.121	0.139
-731.981	64.618	-0.185	0.191
-730.966	-140.133	0.322	-0.035
-729.952	345.741	0.122	0.245
-728.937	164.839	-0.175	-0.252
-727.923	36.056	-0.183	0.164
-726.908	800.000	-0.016	-0.065
-725.894	35.869	0.162	-0.146
-724.879	-101.562	-0.248	0.062
-723.864	-95.188	-0.273	0.075
-722.850	-200.000	-0.005	0.225
-721.835	153.174	0.062	-0.086
-720.821	116.357	0.149	0.186
-719.806	-10.290	-0.267	-0.181
-718.791	-45.616	0.067	0.034
-717.777	4.873	0.090	0.068
-716.762	44.221	-0.245	-0.230
-715.748	-137.446	0.125	-0.014
-714.733	-6.693	-0.174	-0.121
-713.718	-200.000	-0.068	-0.306
-712.704	-131.573	-0.310	-0.042
-711.689	-200.000	-0.015	-0.101
-710.675	-165.141	-0.374	-0.017
-709.660	-138.779	-0.157	-0.018
-708.645	12.512	0.038	-0.030
-707.631	340.241	-0.052	0.103
-706.616	-1.307	-0.172	-0.124
-705.602	-138.233	-0.206	0.023
-704.587	367.928	-0.104	0.214
-703.572	-200.000	-0.014	0.132
-702.558	-200.000	-0.023	-0.194
-701.543	104.179	0.137	0.164
-700.529	-52.093	0.120	0.057
-699.514	-200.000	-0.061	0.514
-698.499	-200.000	0.077	-0.403
-697.485	717.322	-0.140	-0.380
-696.470	429.625	-0.141	-0.312
-695.456	-177.470	-0.310	-0.008
-694.441	800.000	0.056	-0.181
-693.426	60.833	0.161	0.163
-692.412	800.000	-0.095	0.315
-691.397	488.429	-0.085	0.197
-690.383	-19.293	-0.175	-0.111
-689.368	-83.780	-0.314	-0.102
-688.354	-87.623	-0.126	0.039
-687.339	-200.000	0.008	-0.146
-686.324	192.229	0.068	0.104
-685.310	12.687	0.249	0.196
-684.295	250.072	-0.217	-0.377
-683.281	-200.000	0.006	-0.026
-682.266	-142.572	-0.285	-0.029
-681.251	800.000	-0.050	0.190
-680.237	-77.107	-0.348	0.124
-679.222	41.650	0.258	0.238
-678.208	150.882	-0.110	0.152
-677.193	371.441	-0.142	0.293
-676.178	800.000	-0.039	-0.148
-675.164	-200.000	-0.051	-0.367
-674.149	-107.510	-0.198	-0.044
-673.135	263.332	0.105	0.186
-672.120	-97.960	-0.166	0.044
-671.105	-200.000	0.046	0.000
-670.091	213.535	-0.075	0.120
-669.076	-124.418	-0.499	-0.079
-668.062	158.659	-0.134	0.190
-667.047	366.751	0.084	0.173
-666.032	-200.000	-0.034	0.188
-665.018	-62.936	-0.308	-0.130
-664.003	-200.000	0.051	0.361
-662.989	-189.107	-0.321	-0.004
-661.974	283.594	-0.062	0.114
-660.959	363.057	0.107	-0.218
-659.945	-200.000	-0.014	0.185
-658.930	-200.000	0.026	0.195
-657.916	-155.986	0.265	0.017
-656.901	41.800	-0.233	-0.216
-655.886	563.116	-0.104	-0.258
-654.872	800.000	0.037	-0.160
-653.857	82.572	0.065	0.072
-652.843	-42.526	0.096	0.050
-651.828	-72.674	0.283	0.106
-650.814	-200.000	0.026	0.141
-649.799	-69.647	0.147	0.057
-648.784	-162.075	-0.308	0.016
-647.770	14.328	0.197	0.157
-646.755	-192.492	0.460	0.004
-645.741	-200.000	0.120	-0.001
-644.726	800.000	-0.029	0.107
-643.711	-53.249	-0.261	0.122
-642.697	800.000	-0.091	0.405
-641.682	563.336	-0.034	0.084
-640.668	-101.245	-0.121	0.030
-639.653	360.014	0.191	-0.389
-638.638	696.186	-0.076	0.204
-637.624	-21.302	-0.360	0.224
-636.609	88.551	0.131	0.148
-635.595	-200.000	-0.067	0.326
-634.580	-121.423	-0.671	0.114
-633.565	353.633	-0.234	-0.474
-632.551	95.699	-0.163	-0.190
-631.536	42.667	-0.136	0.126
-630.522	253.965	-0.063	-0.109
-629.507	-154.980	-0.457	-0.031
-628.492	-200.000	0.047	-0.248
-627.478	800.000	-0.030	0.100
-626.463	-145.823	-0.272	0.025
-625.449	1.576	-0.080	0.058
-624.434	-126.999	0.192	-0.029
-623.419	-34.684	0.159	0.089
-622.405	-93.218	0.307	0.087
-621.390	84.716	0.117	0.130
-620.376	-28.615	-0.145	0.085
-619.361	-64.673	-0.169	0.070
-618.346	-84.442	-0.124	-0.040
-617.332	-46.021	-0.037	0.018
-616.317	24.063	-0.174	0.146
-615.303	70.545	-0.160	0.169
-614.288	-22.289	0.082	-0.050
-613.273	800.000	-0.018	0.065
-612.259	-37.175	-0.182	-0.099
-611.244	193.168	-0.044	-0.068
-610.230	-84.097	-0.115	0.037
-609.215	87.216	-0.205	-0.230
-608.201	347.429	-0.115	-0.231
-607.186	-162.740	-0.103	0.005
-606.171	-200.000	-0.393	-0.001
-605.157	640.491	0.106	-0.275
-604.142	800.000	-0.105	-0.366
-603.128	248.838	-0.259	-0.447
-602.113	-143.448	-0.519	0.050
-601.098	-38.072	0.185	-0.100
-600.084	-139.372	0.397	-0.043
-599.069	-92.731	0.099	-0.028
-598.055	800.000	0.043	-0.190
-597.040	-85.947	-0.113	0.036
-596.025	-92.260	0.101	-0.029
-595.011	800.000	-0.080	-0.235
-593.996	-9.723	0.217	0.147
-592.982	-113.571	-0.004	-0.001
-591.967	50.715	-0.296	0.285
-590.952	-199.439	0.295	0.002
-589.938	800.000	0.024	-0.083
-588.923	-44.875	0.239	0.121
-587.909	178.971	0.029	-0.043
-586.894	132.659	-0.160	0.210
-585.879	-142.961	0.307	-0.030
-584.865	800.000	-0.084	0.252
-583.850	25.585	-0.205	-0.174
-582.836	800.000	-0.127	0.388
-581.821	800.000	-0.076	0.275
-580.806	-120.489	-0.240	0.041
-579.792	-18.329	0.074	0.047
-578.777	137.103	0.254	-0.337
-577.763	173.162	0.086	-0.126
-576.748	-186.200	-0.156	0.002
-575.733	-200.000	-0.033	-0.227
-574.719	115.084	0.255	0.316
-573.704	800.000	0.014	-0.042
-572.690	1.572	0.282	-0.206
-571.675	-200.000	-0.018	0.118
-570.661	137.912	0.175	0.233
-569.646	89.703	0.181	-0.205
-568.631	-200.000	0.060	-0.311
-567.617	-49.702	-0.130	0.063
-566.602	-200.000	0.127	0.001
-565.588	282.258	0.033	0.060
-564.573	273.252	0.133	-0.240
-563.558	474.581	0.094	-0.216
-562.544	-200.000	-0.040	0.315
-561.529	800.000	-0.143	0.447
-560.515	-200.000	-0.008	0.107
-559.500	-151.378	-0.299	-0.023
-558.485	800.000	0.061	0.179
-557.471	-189.481	0.068	-0.001
-556.456	-1.874	0.155	0.111
-555.442	-148.161	-0.117	0.010
-554.427	-18.969	0.323	0.204
-553.412	800.000	-0.070	-0.229
-552.398	2.826	-0.169	-0.125
-551.383	155.721	0.163	-0.228
-550.369	-73.687	0.056	0.021
-549.354	124.121	-0.097	-0.123
-548.339	-176.457	0.139	0.004
-547.325	800.000	0.053	0.226
-546.310	-32.752	0.338	0.191
-545.296	-200.000	0.002	0.044
-544.281	-131.637	0.471	-0.063
-543.266	-200.000	-0.014	-0.195
-542.252	-132.965	-0.204	-0.026
-541.237	-40.542	0.251	-0.132
-540.223	100.586	-0.177	0.208
-539.208	-200.000	0.008	-0.217
-538.193	248.768	-0.220	0.379
-537.179	-170.994	-0.247	0.009
-536.164	22.759	-0.086	-0.071
-535.150	371.310	0.058	-0.119
-534.135	-16.821	0.148	0.095
-533.121	-48.337	-0.469	-0.229
-532.106	-121.085	0.344	0.059
-531.091	-32.705	0.089	-0.050
-530.077	-200.000	-0.074	-0.343
-529.062	-96.793	-0.299	0.080
-528.048	-200.000	-0.028	0.278
-527.033	-105.724	-0.125	0.029
-526.018	-200.000	-0.018	-0.219
-525.004	-200.000	-0.022	0.182
-523.989	800.000	0.020	-0.074
-522.975	659.301	-0.062	-0.163
-521.960	800.000	0.042	0.166
-520.945	-96.907	0.024	0.006
-519.931	-111.580	0.304	-0.063
-518.916	-200.000	-0.017	-0.222
-517.902	-81.174	-0.097	0.032
-516.887	335.912	-0.111	0.218
-515.872	-180.142	0.217	-0.005
-514.858	-132.153	0.378	-0.050
-513.843	-149.936	-0.141	-0.011
-512.829	-200.000	0.010	-0.059
-511.814	14.796	-0.148	0.117
-510.799	-20.259	-0.047	0.029
-509.785	-62.265	0.236	0.100
-508.770	-42.056	-0.190	-0.099
-507.756	399.832	-0.060	-0.128
-506.741	29.462	-0.160	-0.138
-505.726	-200.000	-0.047	-0.250
-504.712	-200.000	0.012	0.080
-503.697	270.445	-0.098	-0.175
-502.683	800.000	0.009	-0.033
-501.668	800.000	-0.174	-0.502
-500.653	-200.000	-0.005	-0.404
-499.639	-194.170	0.403	0.003
-498.624	120.611	0.106	0.133
-497.610	587.595	0.073	0.182
-496.595	-96.958	0.038	-0.010
-495.581	-200.000	-0.083	-0.443
-494.566	71.538	-0.131	0.137
-493.551	-70.811	-0.237	-0.091
-492.537	-200.000	0.031	-0.256
-491.522	100.503	-0.110	-0.130
-490.508	-88.397	-0.246	-0.074
-489.493	-200.000	-0.004	-0.190
-488.478	136.845	-0.035	-0.046
-487.464	-50.095	-0.418	-0.200
-486.449	-2.232	-0.131	0.093
-485.435	627.623	-0.067	0.172
-484.420	-200.000	-0.007	0.252
-483.405	800.000	-0.118	-0.365
-482.391	23.015	-0.143	-0.119
-481.376	-93.350	0.383	0.108
-480.362	39.116	-0.182	0.165
-479.347	-147.481	-0.342	-0.029
-478.332	6.832	0.156	0.118
-477.318	340.727	0.059	0.116
-476.303	-200.000	-0.040	-0.301
-475.289	-87.730	-0.315	0.096
-474.274	328.696	-0.139	0.270
-473.259	-35.601	-0.091	-0.050
-472.245	235.010	0.107	-0.178
-471.230	-66.664	0.261	0.105
-470.216	-72.783	0.344	-0.128
-469.201	800.000	0.061	-0.254
-468.186	-114.132	0.248	-0.049
-467.172	291.961	-0.070	-0.129
-466.157	-109.120	-0.265	-0.057
-465.143	-58.145	-0.307	0.136
-464.128	407.631	0.077	-0.164
-463.113	800.000	-0.055	-0.167
-462.099	645.844	0.051	0.131
-461.084	-74.680	0.298	-0.108
-460.070	-0.064	-0.177	-0.127
-459.055	182.783	-0.218	-0.325
-458.040	-157.391	0.271	0.017
-457.026	586.930	0.046	-0.114
-456.011	-39.459	-0.258	0.137
-454.997	0.216	0.090	-0.065
-453.982	311.829	0.039	-0.074
-452.968	-200.000	-0.039	0.278
-451.953	61.431	-0.154	0.155
-450.938	-54.713	-0.212	-0.097
-449.924	-28.611	-0.357	0.208
-448.909	-37.674	0.066	0.035
-447.895	26.001	-0.382	0.322
-446.880	-58.895	0.174	-0.076
-445.865	482.749	-0.051	0.117
-444.851	157.409	-0.145	-0.204
-443.836	800.000	-0.050	-0.146
-442.822	-200.000	-0.001	0.032
-441.807	800.000	-0.026	0.104
-440.792	-105.740	-0.202	-0.046
-439.778	-101.290	0.118	-0.029
-438.763	112.614	0.122	-0.149
-437.749	-14.220	-0.030	0.020
-436.734	-9.003	0.178	0.121
-435.719	9.579	0.037	-0.028
-434.705	-94.890	0.063	0.017
-433.690	49.500	0.151	-0.143
-432.676	-59.775	0.185	0.080
-431.661	205.172	0.086	0.136
-430.646	195.853	0.165	0.254
-429.632	800.000	-0.059	0.217
-428.617	58.575	-0.185	0.183
-427.603	-71.728	0.383	-0.144
-426.588	151.571	0.069	-0.096
-425.573	149.751	-0.221	0.303
-424.559	-200.000	-0.012	-0.056
-423.544	20.483	-0.075	0.061
-422.530	-53.668	0.174	-0.080
-421.515	800.000	0.011	0.033
-420.500	-43.842	-0.118	-0.060
-419.486	-74.666	0.365	0.133
-418.471	-1.687	0.301	0.214
-417.457	-27.890	-0.191	0.112
-416.442	594.576	-0.072	-0.180
-415.428	3.378	-0.111	0.082
-414.413	-200.000	-0.040	0.261
-413.398	531.579	0.033	0.078
-412.384	-67.826	-0.049	0.019
-411.369	72.852	-0.244	0.257
-410.355	-149.735	-0.085	0.007
-409.340	-200.000	0.021	0.124
-408.325	-93.688	-0.115	0.032
-407.311	359.867	0.059	0.120
-406.296	-93.025	0.431	-0.121
-405.282	460.470	-0.051	-0.114
-404.267	-10.525	0.213	0.142
-403.252	-200.000	0.006	-0.086
-402.238	77.253	-0.166	0.178
-401.223	-80.950	-0.152	-0.051
-400.209	-153.489	0.166	-0.012
-399.194	107.903	0.206	-0.248
-398.179	-61.414	-0.100	-0.042
-397.165	-200.000	-0.005	-0.311
-396.150	-109.598	0.293	-0.062
-395.136	19.304	0.159	0.129
-394.121	-61.118	-0.133	-0.057
-393.106	-94.103	0.168	0.047
-392.092	-200.000	-0.050	-0.272
-391.077	95.913	-0.269	-0.310
-390.063	-200.000	0.037	-0.377
-389.048	18.466	0.185	-0.149
-388.033	228.198	0.140	-0.230
-387.019	-60.451	0.244	-0.105
-386.004	-81.861	-0.288	0.095
-384.990	535.114	0.138	0.330
-383.975	800.000	-0.080	0.276
-382.960	800.000	0.088	-0.253
-381.946	422.483	-0.059	0.128
-380.931	-147.695	0.267	-0.023
-379.917	-102.671	-0.165	0.040
-378.902	800.000	0.105	0.400
-377.888	-140.964	0.085	-0.009
-376.873	-200.000	0.057	0.254
-375.858	-53.939	0.126	-0.058
-374.844	62.469	0.136	0.137
-373.829	73.341	0.099	0.104
-372.815	-123.485	0.044	-0.007
-371.800	-200.000	-0.030	0.336
-370.785	37.037	-0.133	0.119
-369.771	-200.000	-0.058	-0.373
-368.756	-122.950	-0.270	0.044
-367.742	-183.718	0.100	0.002
-366.727	-163.802	0.121	-0.006
-365.712	800.000	-0.079	-0.243
-364.698	-24.164	0.110	0.066
-363.683	-82.318	-0.311	0.102
-362.669	30.954	0.306	-0.265
-361.654	222.539	-0.193	0.313
-360.639	-7.802	-0.105	0.072
-359.625	-200.000	-0.017	-0.125
-358.610	70.475	0.298	-0.310
-357.596	-76.460	-0.453	0.160
-356.581	-111.829	-0.163	-0.033
-355.566	-90.200	-0.200	-0.059
-354.552	800.000	-0.018	0.077
-353.537	-200.000	-0.022	-0.214
-352.523	-131.779	0.206	-0.027
-351.508	-200.000	0.033	-0.251
-350.493	-50.931	0.235	0.111
-349.479	530.904	0.155	0.369
-348.464	64.316	-0.103	0.105
-347.450	488.769	-0.028	-0.066
-346.435	-63.820	-0.348	-0.144
-345.420	-200.000	-0.001	-0.019
-344.406	91.479	-0.124	-0.140
-343.391	800.000	-0.079	-0.273
-342.377	242.749	-0.116	-0.196
-341.362	-92.644	0.404	-0.114
-340.348	-48.197	0.154	-0.075
-339.333	800.000	-0.018	-0.072
-338.318	61.586	-0.210	-0.211
-337.304	65.248	-0.365	-0.372
-336.289	-200.000	-0.018	-0.177
-335.275	347.166	0.121	0.240
-334.260	-87.097	-0.272	0.083
-333.245	384.200	-0.124	0.258
-332.231	-75.020	-0.084	0.030
-331.216	800.000	-0.081	-0.263
-330.202	-200.000	-0.042	-0.205
-329.187	-200.000	0.021	-0.216
-328.172	12.015	0.035	-0.027
-327.158	-87.094	-0.397	0.122
-326.143	-28.748	0.095	-0.055
-325.129	-200.000	-0.020	-0.365
-324.114	81.410	0.122	0.133
-323.099	-97.939	-0.299	-0.078
-322.085	51.341	-0.120	-0.115
-321.070	-7.112	0.128	0.087
-320.056	429.180	0.090	0.195
-319.041	-116.970	-0.409	-0.075
-318.026	502.490	0.119	-0.277
-317.012	-200.000	0.042	0.250
-315.997	216.463	0.122	0.195
-314.983	-69.217	-0.107	0.042
-313.968	-28.541	-0.049	0.028
-312.953	-64.749	0.231	0.094
-311.939	-162.781	0.077	0.004
-310.924	91.317	0.155	-0.175
-309.910	-17.258	0.319	-0.202
-308.895	-131.507	-0.144	0.019
-307.880	-200.000	-0.023	0.171
-306.866	-200.000	-0.002	0.179
-305.851	26.407	0.307	0.258
-304.837	-103.673	0.030	0.007
-303.822	-44.513	-0.140	0.071
-302.807	-54.538	-0.090	0.041
-301.793	800.000	-0.033	-0.103
-300.778	357.006	0.234	0.468
-299.764	524.297	0.100	0.235
-298.749	236.276	-0.157	-0.262
-297.735	-200.000	0.055	0.254
-296.720	256.787	0.180	0.312
-295.705	-127.823	0.271	-0.039
-294.691	800.000	0.054	-0.160
-293.676	800.000	-0.115	-0.331
-292.662	-64.346	-0.122	0.050
-291.647	-130.361	-0.269	0.037
-290.632	800.000	-0.056	0.219
-289.618	-50.685	0.138	-0.066
-288.603	405.533	-0.061	0.129
-287.589	90.980	0.257	0.290
-286.574	-200.000	0.002	-0.085
-285.559	-200.000	0.040	-0.342
-284.545	800.000	-0.043	-0.129
-283.530	-156.540	-0.217	0.014
-282.516	-200.000	0.039	-0.173
-281.501	-200.000	0.031	0.169
-280.486	58.037	0.097	-0.096
-279.472	-34.921	0.212	0.116
-278.457	-200.000	-0.001	0.176
-277.443	37.739	-0.144	0.129
-276.428	-155.553	-0.424	-0.027
-275.413	-107.025	0.209	-0.046
-274.399	314.611	0.055	0.104
-273.384	-200.000	0.023	0.313
-272.370	-200.000	0.092	0.561
-271.355	117.731	0.218	0.270
-270.340	-40.010	0.144	0.075
-269.326	-118.514	-0.147	-0.026
-268.311	90.552	0.205	0.231
-267.297	-63.618	-0.117	0.048
-266.282	-60.899	-0.256	0.109
-265.267	-19.669	0.136	0.084
-264.253	226.737	0.146	0.238
-263.238	-200.000	-0.021	-0.205
-262.224	-43.892	0.200	-0.101
-261.209	-200.000	0.153	0.000
-260.195	182.410	0.099	0.146
-259.180	-43.284	-0.127	0.065
-258.165	-200.000	-0.031	-0.158
-257.151	69.410	-0.121	0.125
-256.136	-200.000	-0.043	-0.197
-255.122	69.396	0.129	0.133
-254.107	-38.660	-0.192	-0.102
-253.092	800.000	0.086	-0.364
-252.078	23.696	-0.178	0.147
-251.063	234.232	0.183	-0.302
-250.049	-2.332	0.246	0.173
-249.034	-88.047	-0.143	0.043
-248.019	-200.000	-0.003	-0.254
-247.005	-31.006	0.024	-0.013
-245.990	-107.757	0.419	0.092
-244.976	20.725	0.076	0.062
-243.961	800.000	0.119	0.341
-242.946	300.556	-0.098	0.181
-241.932	-110.015	-0.053	-0.011
-240.917	800.000	0.036	0.145
-239.903	-56.437	0.125	-0.055
-238.888	-116.312	-0.039	0.007
-237.873	-58.238	0.228	0.100
-236.859	-158.800	0.030	-0.002
-235.844	-102.086	-0.345	-0.083
-234.830	-17.843	-0.272	-0.171
-233.815	-200.000	0.015	-0.150
-232.800	38.578	-0.277	-0.248
-231.786	230.626	-0.083	-0.136
-230.771	-159.321	0.507	-0.029
-229.757	800.000	-0.062	0.212
-228.742	-17.042	0.014	0.009
-227.727	800.000	-0.080	-0.246
-226.713	-200.000	-0.009	0.297
-225.698	-47.355	0.037	-0.018
-224.684	800.000	-0.028	0.081
-223.669	35.748	0.087	-0.076
-222.655	-200.000	-0.052	-0.498
-221.640	-117.029	-0.117	0.021
-220.625	176.443	-0.107	-0.156
-219.611	-200.000	-0.018	0.247
-218.596	57.909	0.230	-0.226
-217.582	-176.277	-0.200	-0.005
-216.567	167.350	0.064	-0.091
-215.552	-200.000	-0.015	0.165
-214.538	-81.606	-0.337	0.111
-213.523	-51.010	0.080	-0.038
-212.509	800.000	-0.057	0.241
-211.494	-104.260	-0.305	-0.071
-210.479	614.482	0.089	0.223
-209.465	-127.717	0.231	-0.033
-208.450	-39.194	0.233	0.123
-207.436	-88.105	-0.227	-0.068
-206.421	-98.394	-0.228	0.058
-205.406	-95.117	-0.122	-0.033
-204.392	-200.000	-0.001	-0.435
-203.377	-185.931	0.285	0.004
-202.363	-200.000	-0.015	-0.283
-201.348	15.470	0.186	0.146
-200.333	13.675	-0.113	0.088
-199.319	-89.316	0.187	0.055
-198.304	-3.027	0.245	0.172
-197.290	144.354	0.098	0.131
-196.275	-200.000	-0.002	-0.104
-195.260	322.636	-0.137	0.261
-194.246	8.515	-0.118	-0.089
-193.231	-97.731	-0.112	0.029
-192.217	-37.138	0.427	0.229
-191.202	131.753	-0.068	0.088
-190.187	-76.074	-0.027	-0.009
-189.173	-200.000	0.017	-0.108
-188.158	-131.218	0.088	0.012
-187.144	800.000	-0.079	0.283
-186.129	158.601	-0.103	0.143
-185.114	-200.000	-0.006	-0.086
-184.100	87.897	-0.143	-0.159
-183.085	412.383	0.093	-0.198
-182.071	-103.766	0.450	0.105
-181.056	82.356	0.043	0.046
-180.042	43.685	0.099	0.091
-179.027	27.215	-0.364	0.306
-178.012	757.815	-0.018	-0.048
-176.998	-29.222	-0.136	0.078
-175.983	-141.143	0.086	-0.009
-174.969	-96.609	0.149	0.039
-173.954	-158.825	-0.076	-0.004
-172.939	-28.295	0.138	0.080
-171.925	156.348	-0.068	0.094
-170.910	42.221	0.416	-0.378
-169.896	-43.470	0.335	-0.169
-168.881	-126.241	0.199	0.030
-167.866	-33.050	0.038	0.021
-166.852	401.090	-0.084	-0.177
-165.837	-121.929	-0.051	0.008
-164.823	800.000	0.014	-0.060
-163.808	-53.080	0.206	-0.095
-162.793	43.338	0.171	-0.156
-161.779	108.324	0.247	0.295
-160.764	-171.952	0.458	0.015
-159.750	473.342	-0.111	0.249
-158.735	-134.638	-0.297	0.036
-157.720	659.270	0.130	0.336
-156.706	78.415	0.188	-0.201
-155.691	-200.000	0.010	-0.177
-154.677	-167.218	0.104	-0.004
-153.662	-39.634	0.093	-0.049
-152.647	8.802	0.109	-0.082
-151.633	57.355	0.045	-0.044
-150.618	509.350	0.083	-0.192
-149.604	-111.791	0.118	0.024
-148.589	56.279	0.306	0.297
-147.574	-118.665	0.222	0.039
-146.560	52.168	0.130	-0.124
-145.545	-66.064	-0.246	-0.098
-144.531	-200.000	-0.001	-0.233
-143.516	-76.409	-0.259	-0.091
-142.502	68.027	0.128	-0.131
-141.487	182.579	0.151	0.223
-140.472	-18.734	0.256	-0.159
-139.458	-200.000	0.027	0.253
-138.443	-68.807	-0.178	0.069
-137.429	-84.379	-0.014	-0.005
-136.414	-122.086	-0.189	0.031
-135.399	-59.672	0.284	-0.122
-134.385	13.687	-0.137	0.106
-133.370	-140.366	0.096	0.010
-132.356	-200.000	-0.311	0.000
-131.341	800.000	0.077	0.260
-130.326	-98.229	0.122	0.031
-129.312	-5.927	0.132	-0.090
-128.297	-200.000	-0.062	0.520
-127.283	43.369	-0.191	0.175
-126.268	274.912	0.061	0.108
-125.253	-200.000	-0.033	0.503
-124.239	-126.193	0.281	0.042
-123.224	-151.764	0.191	-0.014
-122.210	-76.612	0.185	0.065
