DTS Sentinel unit serial number:	SN413079Multiplexer serial number:	ORYXHardware model number:	OX4-SRSoftware version number:	ORYX F/W v4.00 Oryx Data Collector v3.7.2.0data status	okinstallation	princeton_trtdifferential loss correction	single-endedforward channel	channel 3reverse channel	N/Adate	2019/09/11time	14:06:11forward acquisition time	60.00reverse acquisition time	0.00gamma	496.2192k internal	0.2293k external	0.2293temperature offset calibration	0.9977default loss term (dB/km)	0.3790temperature slope calibration	1.0000multiplexer offset coefficient	1.0000multiplexer slope coefficient	1.0000fibre end	0.00T internal ref (°C)	41.89T ext. ref 1 (°C)	0.87T ext. ref 2 (°C)	36.04length (m)	temperature (°C)	Stokes	anti-Stokes-747.200	8.402	-0.164	0.126
-746.185	-200.000	-0.023	0.243
-745.171	-6.638	0.357	0.248
-744.156	704.431	0.110	0.298
-743.142	-200.000	-0.066	-0.463
-742.127	800.000	-0.092	0.266
-741.112	-94.050	0.310	0.087
-740.098	-23.954	-0.230	0.140
-739.083	229.706	0.060	-0.101
-738.069	-52.927	-0.216	0.102
-737.054	-69.717	0.140	0.055
-736.039	-122.495	-0.138	0.023
-735.025	-24.708	-0.141	0.086
-734.010	-200.000	-0.002	-0.189
-732.996	-63.138	-0.206	0.087
-731.981	-161.630	0.288	-0.015
-730.966	-200.000	-0.004	0.070
-729.952	395.931	-0.147	-0.315
-728.937	165.299	-0.168	-0.242
-727.923	-17.630	-0.119	0.076
-726.908	762.251	-0.070	-0.194
-725.894	639.661	-0.093	0.241
-724.879	161.840	-0.086	-0.124
-723.864	-200.000	0.035	-0.186
-722.850	-48.018	0.274	-0.136
-721.835	663.858	0.093	-0.246
-720.821	-19.449	0.120	0.076
-719.806	3.440	-0.052	-0.039
-718.791	-41.242	-0.128	0.067
-717.777	-158.568	-0.309	-0.018
-716.762	-14.582	-0.256	-0.169
-715.748	-118.753	-0.163	0.029
-714.733	-72.465	-0.290	-0.109
-713.718	-200.000	-0.066	0.299
-712.704	346.540	-0.094	-0.189
-711.689	-92.965	-0.165	-0.047
-710.675	-172.224	0.110	0.004
-709.660	57.666	-0.184	-0.184
-708.645	274.225	0.163	-0.295
-707.631	-200.000	-0.003	0.173
-706.616	-200.000	0.008	-0.234
-705.602	19.496	-0.043	0.035
-704.587	32.565	-0.178	-0.157
-703.572	800.000	0.063	-0.219
-702.558	-44.232	-0.116	-0.060
-701.543	47.670	0.235	-0.224
-700.529	-133.066	-0.158	0.021
-699.514	-43.691	0.135	0.070
-698.499	-200.000	0.028	0.324
-697.485	211.439	-0.138	-0.222
-696.470	64.183	-0.092	0.095
-695.456	17.283	-0.241	0.195
-694.441	110.041	0.034	0.041
-693.426	24.700	0.287	-0.243
-692.412	-66.676	0.296	-0.120
-691.397	143.955	0.171	0.233
-690.383	-200.000	0.000	-0.215
-689.368	224.944	-0.226	-0.373
-688.354	-149.057	0.064	0.005
-687.339	100.857	-0.027	0.032
-686.324	800.000	-0.073	0.282
-685.310	613.293	-0.072	0.183
-684.295	232.029	-0.096	-0.161
-683.281	800.000	0.042	-0.133
-682.266	-185.778	-0.171	-0.003
-681.251	57.013	-0.213	-0.212
-680.237	715.801	-0.090	-0.245
-679.222	56.454	0.257	-0.255
-678.208	-153.959	0.080	0.006
-677.193	-121.235	0.143	-0.024
-676.178	-90.682	-0.339	-0.100
-675.164	584.133	-0.132	-0.331
-674.149	-72.651	-0.341	0.128
-673.135	48.881	-0.108	0.104
-672.120	-35.183	-0.118	0.066
-671.105	-200.000	0.078	0.554
-670.091	555.760	-0.080	-0.196
-669.076	262.474	-0.150	-0.265
-668.062	-55.839	-0.170	-0.077
-667.047	185.798	-0.246	0.373
-666.032	194.636	-0.037	-0.057
-665.018	-197.089	-0.112	-0.001
-664.003	-43.491	0.096	0.050
-662.989	44.976	-0.093	-0.087
-661.974	23.063	0.164	-0.137
-660.959	50.615	-0.281	-0.271
-659.945	-30.946	-0.206	0.119
-658.930	8.865	0.103	0.079
-657.916	-123.688	0.074	-0.012
-656.901	195.676	0.065	0.100
-655.886	800.000	-0.057	-0.174
-654.872	113.712	0.301	-0.373
-653.857	288.616	-0.159	-0.294
-652.843	-18.681	0.274	-0.174
-651.828	-117.201	0.301	-0.056
-650.814	273.832	-0.015	-0.027
-649.799	442.617	0.115	-0.256
-648.784	-95.393	-0.512	-0.140
-647.770	800.000	0.042	0.130
-646.755	6.844	0.255	-0.193
-645.741	14.187	0.270	-0.215
-644.726	800.000	0.025	-0.105
-643.711	-200.000	-0.047	-0.249
-642.697	-200.000	-0.007	-0.048
-641.682	-200.000	-0.012	0.167
-640.668	8.509	0.098	-0.075
-639.653	800.000	-0.051	-0.197
-638.638	-62.344	-0.278	-0.118
-637.624	800.000	0.059	0.195
-636.609	-200.000	0.011	0.074
-635.595	-4.190	0.236	0.166
-634.580	-124.128	-0.290	-0.046
-633.565	-10.147	-0.084	-0.057
-632.551	-200.000	0.016	0.355
-631.536	137.220	0.105	0.140
-630.522	-78.840	0.242	0.084
-629.507	63.080	-0.020	-0.020
-628.492	-200.000	0.017	-0.125
-627.478	49.549	0.209	0.200
-626.463	-200.000	0.017	0.163
-625.449	800.000	0.083	0.297
-624.434	11.610	0.124	-0.097
-623.419	800.000	0.052	0.148
-622.405	-200.000	-0.031	0.185
-621.390	-39.493	0.411	0.219
-620.376	46.657	0.237	0.224
-619.361	23.946	-0.371	0.312
-618.346	-139.286	-0.365	0.040
-617.332	76.712	0.003	-0.003
-616.317	21.726	0.263	-0.218
-615.303	133.771	-0.162	-0.213
-614.288	188.695	-0.331	-0.505
-613.273	800.000	0.007	0.027
-612.259	8.878	0.130	-0.100
-611.244	-137.227	-0.109	0.013
-610.230	114.538	0.166	0.206
-609.215	18.314	0.261	0.212
-608.201	-200.000	-0.004	0.223
-607.186	-157.087	0.235	0.015
-606.171	-96.229	0.199	-0.054
-605.157	95.008	0.145	0.168
-604.142	-116.926	0.161	-0.030
-603.128	-120.928	-0.239	-0.041
-602.113	-42.720	0.131	0.068
-601.098	711.495	-0.082	0.221
-600.084	228.603	-0.229	-0.380
-599.069	122.575	0.080	0.101
-598.055	-11.772	-0.175	0.117
-597.040	-0.970	0.084	-0.060
-596.025	800.000	0.018	-0.078
-595.011	23.325	-0.207	0.173
-593.996	227.823	-0.167	0.277
-592.982	113.781	-0.151	0.187
-591.967	42.081	0.186	-0.172
-590.952	-37.860	-0.013	-0.007
-589.938	45.075	-0.054	-0.051
-588.923	-69.241	0.182	0.071
-587.909	-200.000	0.059	0.283
-586.894	31.310	0.072	0.063
-585.879	-115.531	0.188	-0.036
-584.865	176.727	0.131	0.194
-583.850	-200.000	-0.026	-0.211
-582.836	48.685	0.068	-0.065
-581.821	153.503	0.019	0.026
-580.806	5.099	-0.347	-0.260
-579.792	-200.000	0.036	-0.192
-578.777	73.470	0.114	-0.121
-577.763	800.000	-0.069	0.254
-576.748	-85.007	-0.138	-0.044
-575.733	-78.055	0.281	0.098
-574.719	-200.000	0.021	0.268
-573.704	800.000	0.055	0.203
-572.690	-200.000	-0.056	-0.412
-571.675	-200.000	-0.011	0.372
-570.661	800.000	-0.056	0.209
-569.646	98.744	-0.082	0.097
-568.631	38.789	0.169	0.154
-567.617	748.605	0.080	0.218
-566.602	22.429	-0.128	-0.106
-565.588	-67.079	0.468	0.187
-564.573	-114.155	0.085	0.017
-563.558	614.960	0.082	0.208
-562.544	-24.952	0.447	0.269
-561.529	-52.620	0.271	0.127
-560.515	-158.155	0.275	0.016
-559.500	-159.248	-0.259	-0.015
-558.485	-51.586	0.165	-0.078
-557.471	-200.000	-0.006	0.030
-556.456	693.708	-0.083	0.220
-555.442	82.578	0.348	0.384
-554.427	800.000	-0.078	-0.222
-553.412	588.380	-0.074	-0.185
-552.398	-27.512	-0.222	0.131
-551.383	-200.000	-0.018	-0.142
-550.369	341.726	0.128	-0.255
-549.354	-54.377	-0.216	-0.100
-548.339	162.171	-0.124	0.177
-547.325	-200.000	-0.007	-0.057
-546.310	-90.587	0.156	0.046
-545.296	-50.791	-0.162	0.077
-544.281	160.785	0.200	0.283
-543.266	-200.000	-0.015	0.269
-542.252	56.220	0.229	-0.226
-541.237	-39.973	-0.140	0.074
-540.223	-20.969	0.094	-0.058
-539.208	-200.000	-0.000	0.401
-538.193	118.652	-0.128	0.160
-537.179	73.850	-0.175	0.186
-536.164	-200.000	0.003	-0.082
-535.150	695.608	-0.022	0.058
-534.135	-120.485	0.137	-0.024
-533.121	217.846	0.138	-0.223
-532.106	800.000	-0.192	0.552
-531.091	-172.853	-0.019	-0.001
-530.077	-150.373	0.340	0.027
-529.062	103.742	0.124	-0.147
-528.048	-87.279	-0.234	0.072
-527.033	-7.796	-0.512	0.351
-526.018	-19.999	0.193	-0.121
-525.004	-200.000	0.025	-0.179
-523.989	-200.000	-0.063	-0.321
-522.975	215.322	0.165	0.266
-521.960	-156.701	-0.056	-0.004
-520.945	243.695	0.158	-0.268
-519.931	-15.404	-0.126	-0.081
-518.916	-200.000	-0.021	0.116
-517.902	-75.235	-0.173	-0.063
-516.887	-17.759	0.057	0.037
-515.872	-200.000	0.011	-0.167
-514.858	-46.268	0.126	-0.063
-513.843	-170.266	0.135	-0.005
-512.829	-2.771	0.094	-0.067
-511.814	800.000	0.016	0.053
-510.799	29.608	-0.241	-0.208
-509.785	11.225	0.237	-0.184
-508.770	800.000	-0.047	-0.132
-507.756	158.929	-0.055	0.078
-506.741	468.831	-0.129	-0.294
-505.726	46.448	-0.185	0.174
-504.712	1.424	0.131	-0.095
-503.697	-84.224	-0.016	-0.005
-502.683	31.480	-0.202	0.176
-501.668	-200.000	-0.007	0.084
-500.653	-70.413	-0.164	0.063
-499.639	-200.000	-0.063	-0.285
-498.624	-40.190	0.133	-0.070
-497.610	-127.642	0.178	-0.026
-496.595	111.067	-0.112	-0.137
-495.581	-145.823	-0.174	-0.016
-494.566	-200.000	-0.024	-0.152
-493.551	-14.534	0.202	0.132
-492.537	149.557	-0.091	0.124
-491.522	604.517	-0.128	-0.323
-490.508	800.000	0.044	0.166
-489.493	-24.472	-0.134	0.081
-488.478	-79.997	0.323	0.110
-487.464	800.000	-0.075	-0.285
-486.449	-200.000	-0.023	-0.140
-485.435	800.000	-0.108	0.318
-484.420	-80.996	0.140	0.047
-483.405	-200.000	0.036	-0.188
-482.391	-187.526	0.131	-0.002
-481.376	-38.191	0.255	-0.137
-480.362	97.864	-0.068	0.080
-479.347	532.050	-0.188	-0.452
-478.332	97.085	0.303	-0.353
-477.318	206.987	0.137	-0.216
-476.303	652.753	0.037	0.096
-475.289	299.129	0.034	0.063
-474.274	259.272	0.172	0.300
-473.259	146.370	-0.065	0.089
-472.245	2.433	0.047	0.035
-471.230	-13.252	-0.180	-0.119
-470.216	-85.589	0.085	0.027
-469.201	800.000	0.071	0.269
-468.186	542.199	0.041	-0.099
-467.172	-200.000	-0.017	-0.121
-466.157	-200.000	-0.015	-0.192
-465.143	39.039	0.164	-0.149
-464.128	-179.191	-0.230	0.005
-463.113	800.000	0.077	0.242
-462.099	-200.000	-0.037	0.410
-461.084	800.000	0.008	0.029
-460.070	-72.174	-0.189	0.071
-459.055	-64.022	-0.204	0.085
-458.040	-38.801	0.236	0.126
-457.026	115.600	-0.155	-0.192
-456.011	266.562	0.099	-0.175
-454.997	-200.000	-0.033	0.201
-453.982	-39.919	0.100	0.053
-452.968	154.195	0.021	-0.029
-451.953	-200.000	0.041	-0.286
-450.938	183.782	-0.121	0.181
-449.924	130.129	0.040	0.051
-448.909	-200.000	-0.025	-0.163
-447.895	-94.649	0.289	-0.079
-446.880	-16.786	-0.043	0.028
-445.865	-21.243	-0.309	0.191
-444.851	-200.000	-0.113	0.701
-443.836	-160.794	0.194	0.010
-442.822	-200.000	0.060	0.383
-441.807	-58.193	-0.153	0.067
-440.792	-89.749	-0.150	-0.044
-439.778	578.475	0.037	0.091
-438.763	-89.111	-0.202	-0.060
-437.749	-96.560	0.352	-0.094
-436.734	262.886	0.080	-0.141
-435.719	800.000	0.099	-0.295
-434.705	800.000	-0.043	0.135
-433.690	374.639	-0.090	0.186
-432.676	25.794	-0.218	-0.184
-431.661	168.316	-0.048	0.068
-430.646	110.566	-0.099	0.121
-429.632	-17.116	0.058	0.037
-428.617	-7.857	0.114	0.078
-427.603	208.802	-0.108	0.171
-426.588	80.282	-0.141	0.153
-425.573	-58.507	-0.065	0.029
-424.559	-15.425	0.031	0.020
-423.544	-17.374	0.088	-0.056
-422.530	16.724	0.103	-0.082
-421.515	-101.231	-0.540	-0.133
-420.500	-31.323	-0.223	-0.127
-419.486	-87.554	-0.421	-0.128
-418.471	-17.407	0.063	-0.040
-417.457	101.857	-0.091	-0.107
-416.442	443.058	-0.074	0.163
-415.428	9.283	0.213	-0.163
-414.413	136.458	-0.173	-0.228
-413.398	-22.207	-0.176	0.108
-412.384	9.700	0.057	0.043
-411.369	-200.000	0.064	-0.495
-410.355	-200.000	0.047	0.366
-409.340	-150.431	-0.325	-0.025
-408.325	-23.065	-0.250	0.152
-407.311	-124.926	0.031	0.005
-406.296	-130.859	0.111	0.015
-405.282	227.032	0.215	0.353
-404.267	82.121	-0.202	-0.221
-403.252	-200.000	-0.069	0.365
-402.238	-200.000	0.061	-0.280
-401.223	-27.129	0.233	-0.137
-400.209	-200.000	0.066	-0.373
-399.194	-89.772	-0.303	0.090
-398.179	-104.998	-0.032	-0.008
-397.165	-200.000	0.002	0.192
-396.150	242.795	-0.160	-0.270
-395.136	174.975	0.320	-0.468
-394.121	-200.000	-0.017	-0.152
-393.106	402.914	0.089	-0.189
-392.092	119.172	-0.024	0.030
-391.077	5.091	-0.149	-0.111
-390.063	378.208	0.019	0.039
-389.048	-200.000	-0.012	-0.215
-388.033	196.075	-0.106	0.162
-387.019	-57.413	0.354	0.157
-386.004	-200.000	0.040	-0.306
-384.990	141.923	0.181	-0.242
-383.975	-200.000	-0.067	-0.316
-382.960	432.854	0.071	-0.156
-381.946	627.951	-0.151	-0.386
-380.931	26.563	-0.048	0.041
-379.917	-200.000	0.029	0.205
-378.902	-49.887	-0.080	0.038
-377.888	-50.666	0.291	-0.138
-376.873	-200.000	-0.039	-0.261
-375.858	800.000	-0.060	0.266
-374.844	-200.000	-0.046	0.388
-373.829	-3.671	-0.140	0.098
-372.815	800.000	0.043	-0.152
-371.800	-76.622	0.062	-0.022
-370.785	-41.106	-0.437	-0.227
-369.771	-173.353	-0.283	0.009
-368.756	800.000	-0.064	-0.240
-367.742	43.537	-0.362	-0.333
-366.727	15.188	-0.078	-0.061
-365.712	-200.000	0.049	0.259
-364.698	800.000	-0.084	0.288
-363.683	-200.000	0.003	-0.025
-362.669	-105.618	-0.073	-0.017
-361.654	122.727	0.269	-0.339
-360.639	-162.691	0.135	-0.007
-359.625	-200.000	-0.011	-0.217
-358.610	800.000	-0.076	-0.279
-357.596	4.567	-0.073	-0.054
-356.581	800.000	0.076	0.243
-355.566	-15.275	0.156	-0.100
-354.552	105.333	0.178	0.212
-353.537	260.357	-0.055	-0.096
-352.523	110.647	0.137	0.166
-351.508	218.496	-0.145	0.233
-350.493	-130.159	-0.190	-0.026
-349.479	-130.686	0.342	0.046
-348.464	350.452	0.154	-0.306
-347.450	-145.392	0.145	-0.013
-346.435	47.647	0.158	0.148
-345.420	277.048	-0.083	0.149
-344.406	-200.000	0.042	-0.424
-343.391	-200.000	0.030	0.236
-342.377	-200.000	-0.011	-0.296
-341.362	800.000	-0.050	-0.184
-340.348	-86.939	-0.191	-0.059
-339.333	-35.675	0.112	0.061
-338.318	-131.509	-0.188	-0.025
-337.304	625.341	-0.050	0.127
-336.289	-68.560	0.155	0.060
-335.275	-200.000	0.041	-0.382
-334.260	-200.000	0.049	-0.400
-333.245	52.525	0.136	-0.131
-332.231	98.798	-0.127	-0.148
-331.216	-200.000	-0.007	0.132
-330.202	79.628	0.075	-0.081
-329.187	-62.002	-0.328	-0.138
-328.172	-111.473	-0.148	-0.030
-327.158	38.837	0.209	-0.188
-326.143	81.584	-0.090	-0.098
-325.129	-110.263	0.110	0.023
-324.114	-200.000	-0.003	0.423
-323.099	358.787	-0.113	0.226
-322.085	-13.206	-0.226	0.147
-321.070	-200.000	0.041	-0.200
-320.056	-52.373	0.198	-0.092
-319.041	393.870	0.055	-0.115
-318.026	11.969	-0.183	0.142
-317.012	30.643	-0.110	0.095
-315.997	263.262	-0.106	0.185
-314.983	112.701	0.202	-0.247
-313.968	102.569	0.109	0.128
-312.953	121.523	-0.028	0.035
-311.939	-126.046	-0.258	-0.039
-310.924	422.730	-0.127	0.274
-309.910	-35.744	-0.116	-0.063
-308.895	-200.000	0.007	0.100
-307.880	-47.666	0.267	0.130
-306.866	800.000	-0.067	-0.295
-305.851	-32.808	-0.276	0.154
-304.837	-200.000	0.026	-0.186
-303.822	-125.794	0.160	-0.024
-302.807	24.798	0.116	-0.097
-301.793	-130.030	0.180	-0.025
-300.778	-150.383	-0.273	-0.021
-299.764	800.000	0.055	0.188
-298.749	-117.318	-0.280	-0.051
-297.735	-170.999	-0.151	-0.005
-296.720	-87.923	0.087	-0.026
-295.705	-200.000	0.018	-0.247
-294.691	-127.519	-0.169	0.025
-293.676	57.888	0.101	0.100
-292.662	-172.535	0.086	0.003
-291.647	101.920	-0.194	-0.228
-290.632	-94.056	-0.341	0.094
-289.618	-10.868	0.075	0.050
-288.603	167.794	-0.205	0.293
-287.589	-161.844	-0.189	-0.010
-286.574	-98.701	0.243	0.062
-285.559	239.904	-0.086	0.144
-284.545	266.589	0.149	0.262
-283.530	-200.000	0.058	0.328
-282.516	-15.815	0.212	-0.136
-281.501	800.000	0.053	-0.209
-280.486	15.923	0.229	-0.181
-279.472	95.565	0.035	-0.041
-278.457	-33.673	0.243	-0.134
-277.443	-139.838	0.242	0.026
-276.428	2.742	-0.189	-0.137
-275.413	116.616	0.268	0.330
-274.399	800.000	0.164	-0.475
-273.384	-62.011	0.094	-0.040
-272.370	-179.440	0.258	0.006
-271.355	35.053	-0.215	-0.189
-270.340	30.666	0.175	-0.150
-269.326	56.895	0.159	0.156
-268.311	502.408	-0.062	-0.144
-267.297	-38.607	0.325	0.173
-266.282	59.550	-0.065	-0.065
-265.267	-200.000	-0.003	-0.274
-264.253	204.720	-0.051	-0.079
-263.238	800.000	0.025	0.103
-262.224	28.436	-0.119	-0.101
-261.209	-200.000	0.045	-0.243
-260.195	-58.253	0.187	0.082
-259.180	556.232	0.022	-0.053
-258.165	422.202	0.168	-0.361
-257.151	165.850	0.102	-0.145
-256.136	800.000	0.149	0.447
-255.122	46.328	-0.126	0.117
-254.107	58.774	0.071	-0.070
-253.092	-200.000	-0.024	-0.247
-252.078	800.000	-0.068	0.197
-251.063	-200.000	-0.036	0.237
-250.049	-72.832	-0.123	-0.046
-249.034	-15.340	-0.148	0.095
-248.019	54.928	-0.137	0.132
-247.005	-129.708	-0.257	-0.036
-245.990	268.476	-0.057	0.101
-244.976	-156.227	-0.265	-0.017
-243.961	123.185	-0.103	-0.129
-242.946	665.509	-0.148	0.384
-241.932	-35.958	0.095	0.051
-240.917	-131.213	0.156	-0.021
-239.903	-200.000	0.030	-0.309
-238.888	-28.674	-0.485	-0.280
-237.873	-112.419	-0.154	0.031
-236.859	-117.498	0.100	-0.018
-235.844	800.000	-0.063	0.227
-234.830	-51.285	0.253	-0.119
-233.815	-72.010	-0.268	0.100
-232.800	77.933	-0.143	-0.153
-231.786	-9.393	0.112	0.075
-230.771	-173.556	-0.236	-0.007
-229.757	-65.284	-0.243	0.098
-228.742	-117.073	0.289	-0.053
-227.727	23.362	0.168	-0.139
-226.713	-72.049	-0.342	0.128
-225.698	0.658	-0.271	0.194
-224.684	800.000	0.028	0.123
-223.669	238.630	0.057	-0.095
-222.655	-200.000	0.029	-0.144
-221.640	62.453	-0.048	0.048
-220.625	-65.066	0.193	0.078
-219.611	-25.595	-0.183	-0.109
-218.596	-200.000	0.075	-0.343
-217.582	186.136	0.042	-0.062
-216.567	-124.390	-0.227	-0.036
-215.552	17.975	0.149	-0.119
-214.538	-159.844	-0.143	-0.008
-213.523	67.187	-0.253	0.259
-212.509	157.086	-0.049	-0.068
-211.494	-200.000	0.021	0.101
-210.479	592.967	0.106	-0.261
-209.465	800.000	-0.051	0.191
-208.450	-103.712	0.408	0.096
-207.436	111.461	0.114	0.138
-206.421	-200.000	-0.001	-0.170
-205.406	20.458	-0.281	0.228
-204.392	-200.000	-0.028	-0.132
-203.377	437.015	-0.166	-0.363
-202.363	-13.617	0.221	-0.143
-201.348	44.040	0.055	-0.051
-200.333	800.000	0.080	0.230
-199.319	75.072	-0.148	0.156
-198.304	-153.403	0.130	0.009
-197.290	-200.000	-0.034	0.395
-196.275	-56.246	0.141	-0.063
-195.260	-200.000	-0.043	0.280
-194.246	-74.835	-0.287	-0.103
-193.231	368.066	0.219	-0.444
-192.217	800.000	-0.062	-0.186
-191.202	41.465	0.188	0.170
-190.187	-105.805	-0.056	-0.013
-189.173	-50.418	0.250	-0.118
-188.158	9.934	0.168	0.128
-187.144	800.000	-0.015	-0.049
-186.129	800.000	0.067	0.279
-185.114	-131.100	-0.242	0.032
-184.100	172.044	0.086	0.124
-183.085	118.359	0.052	0.064
-182.071	-28.745	-0.373	-0.215
-181.056	710.822	-0.048	-0.128
-180.042	94.987	-0.065	0.074
-179.027	-0.504	0.344	0.244
-178.012	-31.624	0.240	0.135
-176.998	-90.827	-0.272	-0.078
-175.983	283.716	-0.150	0.269
-174.969	-200.000	-0.041	-0.225
-173.954	-35.539	-0.331	0.180
-172.939	-69.275	-0.032	-0.012
-171.925	235.786	0.049	0.081
-170.910	-97.406	-0.265	0.069
-169.896	-200.000	-0.047	-0.246
-168.881	-3.041	0.287	-0.200
-167.866	-17.257	0.281	0.177
-166.852	-200.000	0.003	0.094
-165.837	-200.000	-0.009	0.151
-164.823	-140.371	-0.109	-0.011
-163.808	159.627	-0.157	-0.219
-162.793	40.216	0.240	0.216
-161.779	-102.540	0.256	-0.061
-160.764	800.000	-0.075	-0.211
-159.750	-200.000	0.062	0.311
-158.735	-200.000	0.048	0.500
-157.720	141.041	-0.090	0.119
-156.706	800.000	-0.104	-0.296
-155.691	134.422	-0.140	-0.181
-154.677	-129.559	0.634	-0.088
-153.662	-102.947	-0.159	-0.038
-152.647	242.251	-0.076	0.128
-151.633	-200.000	-0.001	0.083
-150.618	-93.573	-0.157	0.043
-149.604	202.343	-0.014	-0.021
-148.589	131.236	0.164	0.210
-147.574	579.062	0.017	-0.041
-146.560	-126.007	0.215	0.032
-145.545	209.810	0.081	-0.127
-144.531	-85.188	0.464	-0.145
-143.516	-200.000	-0.049	-0.238
-142.502	-200.000	0.077	-0.346
-141.487	-96.199	0.325	0.086
-140.472	-200.000	-0.001	-0.374
-139.458	-4.053	-0.240	0.166
-138.443	121.864	0.138	0.172
-137.429	-200.000	0.020	-0.142
-136.414	800.000	0.031	-0.103
-135.399	-59.290	-0.275	0.118
-134.385	-6.104	-0.230	-0.157
-133.370	-54.634	-0.140	0.063
-132.356	-200.000	0.017	0.361
-131.341	-29.811	-0.316	-0.180
-130.326	-123.041	-0.314	-0.050
-129.312	-200.000	-0.006	-0.079
-128.297	-131.602	-0.277	-0.036
-127.283	-157.325	-0.317	0.019
-126.268	-200.000	-0.001	0.301
-125.253	-144.104	0.033	0.003
-124.239	-116.150	-0.112	-0.021
-123.224	404.825	0.144	-0.303
-122.210	74.688	-0.133	0.139
