DTS Sentinel unit serial number:	SN413079Multiplexer serial number:	ORYXHardware model number:	OX4-SRSoftware version number:	ORYX F/W v4.00 Oryx Data Collector v3.7.2.0data status	okinstallation	princeton_trtdifferential loss correction	single-endedforward channel	channel 3reverse channel	N/Adate	2019/09/12time	06:34:11forward acquisition time	60.00reverse acquisition time	0.00gamma	496.2192k internal	0.2320k external	0.2320temperature offset calibration	1.0032default loss term (dB/km)	0.3790temperature slope calibration	1.0000multiplexer offset coefficient	1.0000multiplexer slope coefficient	1.0000fibre end	0.00T internal ref (°C)	32.19T ext. ref 1 (°C)	1.58T ext. ref 2 (°C)	27.27length (m)	temperature (°C)	Stokes	anti-Stokes-747.200	-200.000	-0.055	0.428
-746.185	-112.414	-0.137	0.028
-745.171	-200.000	0.068	0.324
-744.156	38.734	-0.123	0.111
-743.142	-56.118	-0.468	0.211
-742.127	67.822	-0.326	0.337
-741.112	-28.738	0.257	0.150
-740.098	-57.064	-0.296	-0.132
-739.083	-200.000	-0.016	-0.524
-738.069	19.258	0.035	0.028
-737.054	-109.882	0.225	0.048
-736.039	-64.206	-0.299	-0.123
-735.025	-94.993	0.358	-0.098
-734.010	93.605	0.215	0.246
-732.996	800.000	-0.033	0.122
-731.981	55.289	-0.249	0.243
-730.966	342.010	-0.076	0.150
-729.952	22.868	0.115	-0.096
-728.937	11.865	0.043	-0.034
-727.923	-93.871	-0.074	-0.021
-726.908	-123.858	-0.131	0.021
-725.894	437.221	0.164	0.361
-724.879	34.919	0.098	0.087
-723.864	-141.216	-0.222	-0.023
-722.850	800.000	0.090	-0.283
-721.835	-200.000	0.014	0.333
-720.821	-200.000	0.019	-0.201
-719.806	40.940	0.164	-0.150
-718.791	242.309	0.096	0.162
-717.777	-106.054	-0.073	-0.017
-716.762	56.518	-0.148	-0.145
-715.748	-146.922	0.192	0.017
-714.733	-84.734	-0.272	0.087
-713.718	-159.540	-0.321	-0.018
-712.704	112.733	-0.208	0.255
-711.689	5.509	0.213	0.159
-710.675	-130.589	0.192	-0.026
-709.660	202.595	-0.312	-0.486
-708.645	-159.279	0.379	-0.021
-707.631	-177.776	0.051	-0.001
-706.616	30.911	-0.193	0.167
-705.602	-144.489	0.054	-0.005
-704.587	124.056	0.053	0.068
-703.572	-67.749	-0.018	0.007
-702.558	-55.034	0.055	-0.025
-701.543	186.275	-0.295	-0.443
-700.529	14.758	0.106	-0.084
-699.514	-87.306	0.385	0.118
-698.499	-200.000	0.035	-0.272
-697.485	-55.055	-0.142	0.064
-696.470	-200.000	0.000	-0.111
-695.456	261.089	-0.075	-0.130
-694.441	311.262	-0.053	-0.100
-693.426	135.160	-0.103	0.136
-692.412	-113.365	-0.244	0.048
-691.397	44.906	-0.148	-0.138
-690.383	-33.434	-0.163	-0.091
-689.368	800.000	0.052	-0.215
-688.354	149.416	0.231	-0.315
-687.339	182.381	0.057	-0.084
-686.324	800.000	0.045	0.133
-685.310	6.878	-0.194	0.146
-684.295	213.228	0.133	0.212
-683.281	-102.623	-0.357	-0.086
-682.266	367.154	-0.104	-0.211
-681.251	-68.656	-0.122	0.048
-680.237	-76.930	-0.100	0.035
-679.222	800.000	0.042	-0.173
-678.208	-155.064	0.419	-0.028
-677.193	55.359	0.144	-0.140
-676.178	-200.000	-0.001	0.160
-675.164	80.653	-0.119	-0.130
-674.149	-13.436	0.143	-0.094
-673.135	9.230	-0.040	-0.030
-672.120	-12.955	0.321	-0.211
-671.105	-2.099	0.129	-0.091
-670.091	-81.139	0.281	-0.094
-669.076	-26.248	-0.197	-0.117
-668.062	-65.758	0.202	-0.082
-667.047	-164.414	-0.069	-0.003
-666.032	-200.000	-0.028	-0.180
-665.018	36.150	0.134	-0.119
-664.003	362.980	-0.043	0.087
-662.989	-13.553	0.388	0.253
-661.974	-200.000	-0.021	-0.163
-660.959	-119.912	0.222	0.039
-659.945	-200.000	0.005	-0.065
-658.930	-20.686	-0.117	0.072
-657.916	-106.125	0.145	-0.033
-656.901	-95.194	-0.034	-0.009
-655.886	-200.000	0.001	0.058
-654.872	34.941	0.126	-0.111
-653.857	-200.000	-0.026	-0.173
-652.843	87.290	0.192	0.214
-651.828	104.058	0.234	-0.277
-650.814	-200.000	0.040	-0.235
-649.799	543.822	-0.062	0.150
-648.784	154.892	0.139	-0.192
-647.770	257.398	0.038	-0.066
-646.755	36.144	-0.250	0.222
-645.741	73.673	-0.127	-0.134
-644.726	-15.951	-0.230	-0.147
-643.711	-110.535	0.219	-0.046
-642.697	703.347	0.076	0.201
-641.682	669.374	0.036	0.094
-640.668	48.835	-0.101	0.096
-639.653	-200.000	0.004	0.203
-638.638	-150.383	-0.057	0.004
-637.624	373.608	-0.079	0.163
-636.609	-103.461	-0.197	-0.047
-635.595	-200.000	0.006	-0.122
-634.580	800.000	-0.097	-0.270
-633.565	-63.600	0.145	0.060
-632.551	800.000	0.092	0.396
-631.536	-151.500	-0.313	-0.023
-630.522	-200.000	-0.007	-0.138
-629.507	49.262	0.087	-0.082
-628.492	35.475	-0.091	-0.080
-627.478	-200.000	-0.010	0.065
-626.463	-130.706	-0.449	-0.061
-625.449	-52.773	0.309	-0.143
-624.434	-21.441	0.174	-0.107
-623.419	-88.378	-0.288	-0.087
-622.405	-73.199	-0.328	-0.121
-621.390	356.490	0.023	-0.047
-620.376	800.000	-0.026	-0.086
-619.361	97.081	-0.201	0.232
-618.346	95.924	-0.034	0.039
-617.332	-24.200	0.144	0.087
-616.317	25.776	0.147	0.123
-615.303	-200.000	0.007	-0.441
-614.288	542.417	-0.081	0.194
-613.273	16.626	0.118	0.094
-612.259	-200.000	0.072	0.387
-611.244	117.389	-0.108	0.133
-610.230	10.510	-0.126	-0.097
-609.215	81.441	-0.148	-0.161
-608.201	-123.649	-0.067	-0.011
-607.186	-131.053	0.042	-0.006
-606.171	50.081	-0.150	-0.142
-605.157	11.872	-0.100	-0.077
-604.142	-142.005	-0.119	-0.012
-603.128	-200.000	-0.019	-0.327
-602.113	800.000	-0.017	-0.056
-601.098	-200.000	-0.035	0.295
-600.084	673.564	-0.029	0.076
-599.069	-200.000	-0.019	0.135
-598.055	-56.310	-0.461	0.206
-597.040	-120.897	0.237	0.040
-596.025	-200.000	-0.000	-0.448
-595.011	273.453	0.109	0.193
-593.996	24.922	-0.439	-0.366
-592.982	800.000	-0.130	-0.376
-591.967	-85.242	0.068	0.021
-590.952	-88.981	0.154	-0.046
-589.938	-125.080	-0.177	0.027
-588.923	204.274	-0.044	0.069
-587.909	-40.307	0.048	0.025
-586.894	-34.757	0.262	-0.144
-585.879	-87.674	-0.258	-0.078
-584.865	121.815	0.087	0.109
-583.850	800.000	0.122	0.350
-582.836	71.023	-0.108	0.113
-581.821	-54.116	0.160	-0.073
-580.806	-88.253	-0.078	0.023
-579.792	-24.620	-0.355	-0.212
-578.777	800.000	0.027	-0.094
-577.763	-107.825	0.303	-0.066
-576.748	103.186	-0.175	0.207
-575.733	-67.206	-0.128	-0.051
-574.719	-87.003	0.182	0.056
-573.704	-90.402	-0.273	0.080
-572.690	2.905	-0.340	0.248
-571.675	79.083	0.232	-0.249
-570.661	64.849	-0.334	0.339
-569.646	-66.524	0.415	-0.165
-568.631	-163.437	-0.237	0.011
-567.617	-92.556	-0.281	0.079
-566.602	-154.759	-0.258	-0.017
-565.588	-75.455	0.129	-0.046
-564.573	189.121	0.069	0.104
-563.558	637.169	-0.064	0.163
-562.544	-133.377	0.185	0.023
-561.529	-162.818	-0.322	-0.016
-560.515	-95.482	-0.101	-0.027
-559.500	-200.000	-0.016	0.234
-558.485	-109.814	-0.089	0.019
-557.471	-133.693	-0.193	0.024
-556.456	-200.000	0.034	-0.154
-555.442	194.503	0.061	-0.094
-554.427	-144.577	0.161	-0.015
-553.412	50.006	-0.309	-0.292
-552.398	2.215	0.161	-0.117
-551.383	87.476	0.177	0.196
-550.369	168.600	0.065	0.093
-549.354	71.776	0.219	0.228
-548.339	14.679	-0.215	-0.168
-547.325	800.000	-0.043	-0.160
-546.310	22.780	-0.137	-0.113
-545.296	-147.921	-0.144	-0.012
-544.281	-95.429	0.362	0.098
-543.266	-15.471	0.507	0.325
-542.252	800.000	-0.082	-0.289
-541.237	480.816	-0.038	0.087
-540.223	-66.212	0.194	-0.078
-539.208	118.020	-0.167	0.206
-538.193	-61.952	-0.183	0.077
-537.179	80.769	0.086	-0.093
-536.164	-200.000	0.063	0.360
-535.150	-139.720	0.166	0.018
-534.135	-200.000	-0.023	-0.159
-533.121	168.888	-0.050	0.072
-532.106	373.519	-0.119	0.242
-531.091	800.000	0.021	-0.081
-530.077	-122.569	-0.182	0.030
-529.062	685.668	-0.047	0.122
-528.048	-105.273	-0.161	0.037
-527.033	444.668	-0.099	-0.219
-526.018	-46.317	0.368	0.182
-525.004	31.118	-0.111	-0.096
-523.989	-88.107	0.089	0.027
-522.975	-173.670	0.301	0.009
-521.960	62.571	0.136	-0.137
-520.945	800.000	-0.054	0.223
-519.931	800.000	-0.083	-0.346
-518.916	222.297	-0.158	-0.255
-517.902	231.674	0.153	-0.252
-516.887	-116.955	-0.152	-0.028
-515.872	800.000	0.086	0.263
-514.858	-64.379	-0.456	-0.186
-513.843	-200.000	-0.012	-0.309
-512.829	286.571	0.137	-0.248
-511.814	-188.781	0.105	-0.001
-510.799	297.616	-0.206	-0.379
-509.785	-53.715	-0.130	0.060
-508.770	17.818	0.177	-0.141
-507.756	-200.000	0.000	-0.280
-506.741	-200.000	-0.003	0.342
-505.726	-146.709	-0.339	0.029
-504.712	-49.250	0.281	0.135
-503.697	800.000	0.025	-0.070
-502.683	-115.062	0.103	0.020
-501.668	-167.823	-0.309	0.012
-500.653	-200.000	0.021	0.456
-499.639	-130.762	0.089	0.012
-498.624	800.000	0.034	0.122
-497.610	36.395	0.213	0.188
-496.595	-200.000	0.012	-0.081
-495.581	116.490	0.024	0.030
-494.566	157.971	0.113	-0.157
-493.551	-132.803	-0.113	0.014
-492.537	-130.378	0.086	0.012
-491.522	-200.000	-0.001	-0.117
-490.508	-118.725	-0.178	-0.031
-489.493	800.000	-0.018	0.061
-488.478	4.031	0.231	0.169
-487.464	800.000	-0.065	-0.249
-486.449	-200.000	0.030	-0.136
-485.435	133.627	-0.111	0.143
-484.420	-84.335	0.534	-0.169
-483.405	259.047	-0.129	-0.222
-482.391	-84.507	-0.147	-0.046
-481.376	-60.035	0.375	0.160
-480.362	-200.000	0.022	-0.326
-479.347	-31.399	0.178	-0.100
-478.332	-52.373	-0.105	0.049
-477.318	800.000	0.065	0.248
-476.303	-200.000	0.003	0.267
-475.289	-130.828	0.142	-0.019
-474.274	189.792	0.031	-0.046
-473.259	-18.721	0.266	-0.166
-472.245	398.743	-0.024	0.049
-471.230	127.804	0.091	0.116
-470.216	215.107	-0.062	-0.099
-469.201	37.528	0.081	0.072
-468.186	800.000	-0.058	0.218
-467.172	-200.000	0.021	-0.420
-466.157	-174.936	0.097	-0.003
-465.143	-121.154	0.182	0.030
-464.128	-102.036	-0.295	-0.071
-463.113	-94.883	-0.036	0.010
-462.099	-200.000	-0.012	0.056
-461.084	-200.000	0.031	0.310
-460.070	92.653	-0.177	0.200
-459.055	800.000	-0.030	0.095
-458.040	772.711	-0.037	0.101
-457.026	-200.000	0.009	-0.088
-456.011	222.616	-0.092	0.148
-454.997	77.719	0.046	0.049
-453.982	618.783	-0.069	0.173
-452.968	-28.835	-0.164	0.094
-451.953	-19.337	0.232	0.144
-450.938	800.000	0.051	0.223
-449.924	800.000	0.036	-0.134
-448.909	44.110	0.128	0.117
-447.895	359.995	0.113	0.227
-446.880	-164.245	0.167	-0.008
-445.865	-109.742	-0.256	-0.054
-444.851	-182.841	0.088	-0.002
-443.836	-200.000	0.007	-0.054
-442.822	-31.545	-0.274	0.154
-441.807	122.092	0.111	0.139
-440.792	295.202	0.056	-0.103
-439.778	266.334	-0.074	0.129
-438.763	136.622	0.167	-0.218
-437.749	-200.000	0.005	-0.193
-436.734	274.559	0.031	-0.055
-435.719	-200.000	0.021	0.324
-434.705	800.000	0.048	-0.142
-433.690	-200.000	-0.009	-0.305
-432.676	-44.634	0.264	0.132
-431.661	-81.417	0.124	-0.041
-430.646	153.829	-0.158	-0.216
-429.632	-200.000	0.029	-0.204
-428.617	503.125	0.024	0.056
-427.603	227.099	-0.162	-0.263
-426.588	446.915	0.149	-0.327
-425.573	-56.441	0.520	-0.231
-424.559	800.000	0.019	0.062
-423.544	-21.770	0.247	-0.150
-422.530	86.460	-0.107	-0.117
-421.515	-43.936	0.332	0.167
-420.500	488.246	0.065	0.148
-419.486	-162.620	0.283	0.014
-418.471	-28.574	-0.231	-0.133
-417.457	-87.808	-0.098	-0.029
-416.442	-123.367	0.311	-0.049
-415.428	-158.580	-0.287	-0.017
-414.413	-178.314	-0.144	-0.003
-413.398	104.242	0.108	0.127
-412.384	-134.984	-0.073	0.009
-411.369	26.148	0.247	-0.206
-410.355	800.000	-0.045	0.154
-409.340	-71.583	0.059	0.022
-408.325	210.100	0.125	-0.196
-407.311	157.357	0.281	0.388
-406.296	-60.176	-0.175	-0.074
-405.282	800.000	-0.087	-0.255
-404.267	-191.471	-0.034	0.000
-403.252	-50.571	-0.268	0.126
-402.238	-79.292	0.197	0.067
-401.223	800.000	0.016	-0.044
-400.209	-200.000	-0.015	-0.096
-399.194	8.003	0.117	-0.088
-398.179	800.000	-0.034	-0.124
-397.165	-114.578	0.129	0.025
-396.150	-58.646	0.093	-0.040
-395.136	-200.000	0.024	0.398
-394.121	-38.075	0.074	-0.039
-393.106	-200.000	-0.023	0.304
-392.092	-200.000	-0.002	-0.275
-391.077	-71.785	0.282	-0.105
-390.063	284.916	0.114	0.205
-389.048	277.253	0.082	0.145
-388.033	800.000	0.118	-0.458
-387.019	-40.794	0.234	0.121
-386.004	3.279	-0.345	0.250
-384.990	-64.388	-0.258	0.105
-383.975	132.994	-0.102	-0.131
-382.960	15.563	0.191	0.150
-381.946	-156.141	0.168	0.011
-380.931	19.945	0.159	-0.128
-379.917	40.360	0.177	0.159
-378.902	-200.000	-0.046	0.336
-377.888	-4.353	0.240	0.166
-376.873	-200.000	0.039	0.217
-375.858	68.315	-0.192	-0.197
-374.844	-18.157	-0.319	-0.199
-373.829	192.609	0.083	-0.125
-372.815	350.193	0.098	0.192
-371.800	65.677	-0.327	0.330
-370.785	-200.000	0.022	-0.110
-369.771	399.229	0.045	0.093
-368.756	-32.127	0.068	0.038
-367.742	-76.995	-0.088	-0.031
-366.727	-17.869	0.261	-0.163
-365.712	287.218	0.061	-0.110
-364.698	-20.306	-0.307	0.188
-363.683	-200.000	0.013	0.318
-362.669	-106.860	-0.349	0.077
-361.654	800.000	-0.073	0.289
-360.639	285.502	-0.134	0.240
-359.625	208.233	0.154	-0.240
-358.610	-35.334	0.083	-0.045
-357.596	800.000	0.046	0.190
-356.581	-122.804	-0.174	-0.028
-355.566	800.000	-0.094	-0.272
-354.552	-51.771	-0.279	-0.129
-353.537	-146.078	-0.324	0.029
-352.523	34.843	0.108	-0.094
-351.508	700.293	0.037	-0.098
-350.493	-17.938	0.219	0.137
-349.479	-3.269	0.169	-0.117
-348.464	356.785	0.146	-0.290
-347.450	34.102	0.191	0.166
-346.435	191.987	-0.102	-0.153
-345.420	-102.114	-0.120	-0.029
-344.406	800.000	-0.070	-0.259
-343.391	-200.000	0.011	0.235
-342.377	-75.796	-0.158	0.056
-341.362	-91.218	-0.217	-0.062
-340.348	800.000	0.031	-0.125
-339.333	259.639	0.068	-0.117
-338.318	-96.793	-0.101	0.026
-337.304	296.625	-0.260	-0.475
-336.289	18.979	0.179	-0.142
-335.275	-95.540	0.105	-0.028
-334.260	-200.000	-0.019	0.168
-333.245	-200.000	0.001	0.442
-332.231	-103.591	0.062	-0.015
-331.216	57.492	0.086	-0.084
-330.202	-200.000	-0.006	0.106
-329.187	165.710	-0.044	0.063
-328.172	-200.000	0.048	-0.334
-327.158	-83.365	-0.070	0.022
-326.143	-200.000	-0.002	-0.291
-325.129	101.579	0.187	-0.216
-324.114	121.252	0.209	0.259
-323.099	61.545	-0.192	-0.190
-322.085	-190.294	0.159	0.002
-321.070	-63.158	-0.139	-0.057
-320.056	-30.823	0.177	0.099
-319.041	-20.089	-0.221	0.135
-318.026	-139.157	-0.194	0.021
-317.012	-102.007	0.368	-0.088
-315.997	-200.000	-0.034	0.298
-314.983	173.311	0.183	-0.263
-313.968	164.950	0.083	0.117
-312.953	669.043	-0.171	0.439
-311.939	112.236	0.204	-0.245
-310.924	-52.162	0.302	-0.139
-309.910	-34.311	-0.270	0.148
-308.895	82.899	-0.132	0.143
-307.880	234.023	0.178	-0.291
-306.866	800.000	0.002	-0.007
-305.851	-20.606	0.206	-0.126
-304.837	63.844	-0.057	-0.056
-303.822	284.609	0.104	0.186
-302.807	-141.466	-0.330	-0.033
-301.793	-19.599	0.127	0.078
-300.778	-163.702	0.261	0.012
-299.764	-103.147	-0.175	-0.041
-298.749	456.019	0.169	0.372
-297.735	-200.000	0.008	-0.056
-296.720	-200.000	0.027	0.391
-295.705	-55.722	-0.349	-0.155
-294.691	160.124	0.154	-0.213
-293.676	-200.000	-0.013	0.135
-292.662	676.407	0.030	0.077
-291.647	-127.909	0.102	0.015
-290.632	201.702	0.166	-0.255
-289.618	149.047	0.123	0.166
-288.603	257.782	0.037	-0.064
-287.589	800.000	0.085	0.278
-286.574	130.930	-0.130	0.166
-285.559	21.963	0.088	0.071
-284.545	-64.388	0.129	-0.052
-283.530	-200.000	0.034	-0.186
-282.516	26.038	-0.288	0.239
-281.501	-67.197	0.110	-0.043
-280.486	-200.000	-0.006	-0.100
-279.472	494.383	-0.047	-0.107
-278.457	800.000	0.023	-0.079
-277.443	6.081	0.157	-0.116
-276.428	372.851	-0.086	-0.173
-275.413	471.531	-0.052	0.116
-274.399	-200.000	0.002	0.176
-273.384	800.000	-0.128	-0.424
-272.370	-200.000	0.042	-0.185
-271.355	37.254	0.143	-0.126
-270.340	-133.039	-0.101	-0.013
-269.326	188.391	-0.228	-0.339
-268.311	-200.000	0.015	0.239
-267.297	104.830	-0.172	-0.201
-266.282	-200.000	-0.009	-0.265
-265.267	70.621	-0.088	-0.091
-264.253	800.000	-0.098	-0.289
-263.238	353.838	0.097	-0.191
-262.224	360.589	0.155	-0.307
-261.209	-151.367	0.189	-0.014
-260.195	800.000	-0.113	0.369
-259.180	-157.381	0.383	-0.023
-258.165	-200.000	-0.063	0.275
-257.151	649.569	0.146	0.370
-256.136	15.263	0.131	0.102
-255.122	-163.957	0.163	0.008
-254.107	-112.744	0.271	-0.053
-253.092	176.811	-0.314	0.452
-252.078	-53.247	0.217	0.099
-251.063	-99.529	0.241	0.060
-250.049	-51.966	-0.144	-0.067
-249.034	134.570	-0.078	-0.100
-248.019	-65.435	0.356	0.142
-247.005	-168.838	-0.307	-0.011
-245.990	127.095	-0.049	-0.062
-244.976	-117.350	0.216	-0.039
-243.961	-200.000	-0.063	-0.412
-242.946	-29.320	0.109	0.062
-241.932	-133.540	-0.293	-0.036
-240.917	-200.000	0.044	-0.229
-239.903	376.268	-0.121	0.245
-238.888	238.897	0.118	-0.195
-237.873	126.300	-0.196	0.246
-236.859	187.414	0.027	0.040
-235.844	-200.000	-0.005	-0.025
-234.830	-200.000	-0.005	-0.249
-233.815	238.951	0.114	-0.188
-232.800	64.730	0.017	0.017
-231.786	-128.825	-0.477	-0.067
-230.771	-78.631	-0.187	-0.063
-229.757	800.000	-0.066	0.241
-228.742	800.000	-0.058	0.160
-227.727	28.762	0.068	-0.057
-226.713	40.271	0.123	0.110
-225.698	-117.151	-0.369	-0.067
-224.684	-20.851	0.045	0.028
-223.669	153.693	-0.202	0.275
-222.655	-111.267	0.116	-0.023
-221.640	46.766	0.093	0.085
-220.625	-200.000	-0.003	-0.019
-219.611	31.322	-0.191	-0.163
-218.596	93.009	-0.062	-0.069
-217.582	20.427	0.066	-0.053
-216.567	-53.289	-0.225	0.102
-215.552	497.613	0.034	-0.077
-214.538	-200.000	-0.057	0.317
-213.523	-87.311	0.146	-0.044
-212.509	104.201	0.134	-0.156
-211.494	70.476	-0.168	0.172
-210.479	731.456	-0.039	-0.102
-209.465	-50.736	0.058	-0.027
-208.450	129.449	-0.160	0.203
-207.436	16.552	0.116	-0.091
-206.421	405.282	-0.040	-0.083
-205.406	26.136	0.043	0.036
-204.392	-200.000	0.050	0.366
-203.377	-200.000	0.011	0.409
-202.363	-109.418	-0.189	0.040
-201.348	-200.000	-0.016	-0.103
-200.333	-126.897	-0.113	-0.017
-199.319	-141.507	-0.234	-0.023
-198.304	-121.423	0.359	0.059
-197.290	-200.000	0.003	0.030
-196.275	-87.756	-0.128	0.038
-195.260	490.774	0.063	0.144
-194.246	-110.205	0.177	0.036
-193.231	-20.109	0.109	0.067
-192.217	209.862	-0.219	-0.341
-191.202	685.205	0.081	0.210
-190.187	-116.004	-0.127	0.023
-189.173	259.556	-0.016	0.028
-188.158	-200.000	0.013	-0.072
-187.144	409.861	-0.042	0.087
-186.129	40.275	-0.079	0.070
-185.114	64.803	-0.074	0.074
-184.100	-27.050	-0.172	-0.099
-183.085	263.845	-0.136	0.235
-182.071	437.481	-0.013	0.029
-181.056	-2.998	0.151	-0.104
-180.042	-136.704	-0.049	0.006
-179.027	456.339	0.074	0.162
-178.012	433.273	0.232	-0.498
-176.998	-19.188	0.120	-0.074
-175.983	98.615	-0.173	-0.197
-174.969	-200.000	0.024	-0.163
-173.954	162.688	0.180	0.250
-172.939	-65.289	0.198	-0.079
-171.925	-2.959	-0.226	-0.156
-170.910	34.845	-0.116	0.101
-169.896	-200.000	-0.017	-0.188
-168.881	63.217	-0.154	-0.153
-167.866	113.976	0.165	0.198
-166.852	3.394	-0.057	0.041
-165.837	-200.000	0.055	0.382
-164.823	655.194	-0.012	0.031
-163.808	-185.510	0.234	0.004
-162.793	12.205	0.130	-0.099
-161.779	-200.000	-0.012	0.094
-160.764	800.000	-0.019	-0.072
-159.750	-2.043	0.175	0.122
-158.735	-78.815	-0.119	0.040
-157.720	39.946	-0.158	-0.141
-156.706	-119.895	-0.180	-0.031
-155.691	462.147	-0.059	0.131
-154.677	-41.614	0.120	0.061
-153.662	22.076	0.111	-0.089
-152.647	-200.000	-0.054	-0.328
-151.633	-108.344	0.121	0.026
-150.618	-200.000	-0.016	-0.327
-149.604	-172.550	-0.469	0.015
-148.589	-107.069	0.182	-0.040
-147.574	616.230	0.174	-0.431
-146.560	-77.741	0.460	0.157
-145.545	-100.693	-0.212	0.052
-144.531	203.521	0.096	-0.146
-143.516	-30.492	0.161	0.090
-142.502	-200.000	-0.000	-0.021
-141.487	118.807	0.088	0.108
-140.472	-170.366	0.361	0.013
-139.458	312.213	-0.136	-0.253
-138.443	531.233	0.066	0.154
-137.429	-200.000	0.024	0.170
-136.414	-134.352	0.354	-0.043
-135.399	356.720	-0.046	0.090
-134.385	-200.000	-0.054	0.476
-133.370	184.959	0.091	-0.134
-132.356	-90.160	-0.103	0.030
-131.341	258.659	-0.177	0.302
-130.326	-200.000	0.011	0.276
-129.312	-132.260	0.118	-0.015
-128.297	800.000	0.046	-0.191
-127.283	324.492	-0.107	-0.201
-126.268	214.544	0.186	-0.291
-125.253	-75.161	0.079	-0.028
-124.239	-122.463	0.291	0.047
-123.224	466.322	0.074	-0.163
-122.210	-200.000	0.010	0.106
