DTS Sentinel unit serial number:	SN413079Multiplexer serial number:	ORYXHardware model number:	OX4-SRSoftware version number:	ORYX F/W v4.00 Oryx Data Collector v3.7.2.0data status	okinstallation	princeton_trtdifferential loss correction	single-endedforward channel	channel 3reverse channel	N/Adate	2019/09/12time	06:46:11forward acquisition time	60.00reverse acquisition time	0.00gamma	496.2192k internal	0.2320k external	0.2320temperature offset calibration	1.0035default loss term (dB/km)	0.3790temperature slope calibration	1.0000multiplexer offset coefficient	1.0000multiplexer slope coefficient	1.0000fibre end	0.00T internal ref (°C)	32.16T ext. ref 1 (°C)	1.60T ext. ref 2 (°C)	27.30length (m)	temperature (°C)	Stokes	anti-Stokes-747.200	-17.538	-0.381	0.242
-746.185	-149.043	-0.124	-0.010
-745.171	-200.000	-0.033	-0.233
-744.156	-108.460	-0.308	0.067
-743.142	65.360	0.104	0.106
-742.127	-67.686	0.137	-0.054
-741.112	-145.678	0.238	0.021
-740.098	800.000	-0.074	0.237
-739.083	-83.245	-0.434	-0.141
-738.069	-171.671	0.290	-0.010
-737.054	-128.508	-0.158	0.023
-736.039	-132.566	-0.222	-0.029
-735.025	-200.000	0.045	-0.256
-734.010	61.605	0.184	-0.185
-732.996	-131.930	-0.211	0.028
-731.981	-200.000	-0.053	0.258
-730.966	-92.295	0.234	0.067
-729.952	1.047	0.105	0.076
-728.937	75.202	-0.337	-0.359
-727.923	161.760	-0.143	-0.202
-726.908	-171.417	-0.123	-0.004
-725.894	-171.470	-0.392	0.013
-724.879	-25.123	0.170	-0.102
-723.864	6.546	0.144	0.108
-722.850	231.863	-0.048	-0.080
-721.835	23.400	-0.137	-0.114
-720.821	-37.960	0.214	-0.115
-719.806	-200.000	0.003	-0.260
-718.791	14.477	0.163	0.128
-717.777	-125.037	-0.290	0.045
-716.762	-40.175	-0.251	-0.132
-715.748	800.000	0.061	-0.240
-714.733	800.000	0.091	-0.327
-713.718	-200.000	0.000	0.034
-712.704	-118.674	-0.276	0.049
-711.689	-200.000	0.004	-0.198
-710.675	-6.249	-0.278	-0.192
-709.660	110.955	-0.100	0.122
-708.645	97.623	0.148	-0.172
-707.631	212.353	0.263	0.419
-706.616	-113.528	0.247	0.049
-705.602	-99.747	0.110	-0.028
-704.587	800.000	0.062	0.197
-703.572	80.122	0.017	0.019
-702.558	-128.040	0.376	0.054
-701.543	272.527	-0.094	-0.167
-700.529	800.000	-0.040	0.143
-699.514	800.000	0.023	-0.096
-698.499	-200.000	0.007	0.048
-697.485	11.179	0.127	-0.098
-696.470	474.956	-0.019	0.044
-695.456	-200.000	0.010	-0.162
-694.441	-10.249	-0.062	0.041
-693.426	89.944	-0.064	-0.072
-692.412	800.000	0.077	-0.271
-691.397	71.975	-0.097	0.102
-690.383	28.111	-0.051	0.043
-689.368	-81.220	0.110	0.037
-688.354	-140.091	0.189	-0.020
-687.339	737.923	-0.153	-0.415
-686.324	-19.052	-0.229	-0.144
-685.310	800.000	-0.127	0.386
-684.295	21.587	-0.251	-0.206
-683.281	128.260	-0.137	-0.176
-682.266	-200.000	0.010	0.070
-681.251	-200.000	-0.037	-0.209
-680.237	259.897	-0.106	-0.186
-679.222	-138.314	0.164	-0.018
-678.208	-200.000	0.015	-0.469
-677.193	-200.000	0.042	-0.200
-676.178	-75.716	-0.175	-0.063
-675.164	166.940	0.129	0.184
-674.149	-147.249	0.292	0.025
-673.135	97.226	0.123	0.142
-672.120	-53.410	0.111	-0.051
-671.105	37.682	-0.383	0.343
-670.091	156.240	0.042	-0.059
-669.076	-200.000	0.004	-0.140
-668.062	253.070	-0.151	-0.260
-667.047	125.215	-0.157	-0.199
-666.032	-108.262	-0.045	-0.010
-665.018	800.000	0.051	0.189
-664.003	41.607	-0.116	0.106
-662.989	-42.398	0.249	0.128
-661.974	-39.461	-0.167	0.088
-660.959	629.981	0.192	0.491
-659.945	-118.744	0.165	0.029
-658.930	39.609	-0.053	0.048
-657.916	-200.000	-0.058	0.288
-656.901	70.123	-0.241	0.251
-655.886	418.790	-0.058	-0.125
-654.872	-200.000	0.012	-0.080
-653.857	-83.805	-0.167	-0.054
-652.843	-152.107	-0.285	0.021
-651.828	-52.786	0.156	-0.073
-650.814	70.328	0.109	-0.114
-649.799	15.100	-0.281	-0.222
-648.784	523.684	0.097	-0.230
-647.770	35.559	0.208	-0.184
-646.755	20.292	-0.036	0.029
-645.741	488.750	0.075	0.173
-644.726	567.614	0.011	-0.026
-643.711	-200.000	-0.025	-0.136
-642.697	703.535	-0.105	-0.278
-641.682	-110.140	0.388	0.082
-640.668	-200.000	0.055	-0.259
-639.653	-114.619	-0.264	0.051
-638.638	-200.000	-0.043	-0.421
-637.624	800.000	0.118	0.395
-636.609	-200.000	0.025	0.252
-635.595	800.000	0.092	-0.364
-634.580	-200.000	0.018	-0.109
-633.565	-118.798	-0.239	0.042
-632.551	800.000	-0.068	-0.283
-631.536	800.000	0.027	-0.117
-630.522	800.000	0.059	-0.184
-629.507	44.637	-0.124	-0.114
-628.492	56.869	-0.064	0.063
-627.478	-99.229	0.273	0.069
-626.463	-54.206	-0.219	-0.100
-625.449	91.099	-0.202	0.228
-624.434	-5.478	0.110	-0.076
-623.419	-57.088	-0.141	-0.062
-622.405	-15.346	0.066	-0.043
-621.390	800.000	0.113	-0.353
-620.376	-184.024	-0.413	0.007
-619.361	255.237	0.118	-0.203
-618.346	-31.324	-0.171	-0.097
-617.332	242.226	-0.065	-0.109
-616.317	150.633	-0.054	0.074
-615.303	800.000	-0.088	-0.333
-614.288	-86.419	0.324	0.100
-613.273	-33.818	-0.200	-0.111
-612.259	300.246	-0.198	0.368
-611.244	-120.934	0.231	0.039
-610.230	-200.000	-0.006	-0.091
-609.215	31.585	-0.083	-0.072
-608.201	-200.000	0.022	-0.288
-607.186	-200.000	0.028	-0.128
-606.171	319.543	-0.068	0.130
-605.157	120.886	-0.200	0.251
-604.142	-200.000	-0.038	-0.299
-603.128	-200.000	-0.007	-0.112
-602.113	-81.061	-0.346	-0.115
-601.098	-65.708	0.184	0.074
-600.084	215.919	0.167	-0.267
-599.069	-30.084	-0.203	0.116
-598.055	800.000	0.018	-0.076
-597.040	-107.806	0.500	0.110
-596.025	-51.619	-0.143	-0.067
-595.011	-77.477	0.147	-0.051
-593.996	-132.896	0.121	0.016
-592.982	371.753	-0.106	-0.216
-591.967	-200.000	0.022	0.280
-590.952	77.977	-0.177	0.190
-589.938	-200.000	0.001	0.259
-588.923	-134.223	0.210	-0.026
-587.909	-62.932	0.233	0.097
-586.894	11.515	0.194	-0.149
-585.879	800.000	-0.095	-0.333
-584.865	667.639	0.068	-0.176
-583.850	-47.345	0.452	-0.221
-582.836	94.293	-0.143	-0.163
-581.821	-99.087	-0.126	0.032
-580.806	176.657	-0.161	-0.235
-579.792	55.753	0.083	-0.081
-578.777	-39.152	0.275	-0.145
-577.763	15.678	0.020	0.016
-576.748	59.832	0.109	0.108
-575.733	-102.778	-0.105	0.025
-574.719	4.487	-0.294	-0.217
-573.704	27.116	-0.030	-0.026
-572.690	9.599	-0.195	-0.148
-571.675	-116.030	-0.317	-0.059
-570.661	-94.798	-0.144	0.039
-569.646	-17.769	0.104	0.066
-568.631	-117.173	0.380	-0.069
-567.617	-127.661	-0.094	-0.014
-566.602	460.180	0.141	-0.315
-565.588	-200.000	-0.043	0.200
-564.573	115.258	-0.136	-0.167
-563.558	-162.704	0.431	-0.021
-562.544	230.104	-0.088	0.145
-561.529	-152.078	-0.179	-0.013
-560.515	-100.336	-0.199	-0.050
-559.500	-200.000	0.039	-0.303
-558.485	248.899	-0.119	-0.202
-557.471	-10.732	0.164	-0.109
-556.456	174.351	-0.046	-0.066
-555.442	226.075	-0.222	-0.361
-554.427	50.230	0.320	0.303
-553.412	-200.000	-0.003	0.057
-552.398	-69.156	-0.149	0.057
-551.383	-57.211	0.110	0.048
-550.369	-156.656	0.131	0.008
-549.354	269.679	0.162	0.286
-548.339	800.000	-0.110	0.452
-547.325	-200.000	-0.019	0.090
-546.310	64.526	-0.026	-0.026
-545.296	102.713	-0.222	0.261
-544.281	-133.816	-0.289	0.036
-543.266	-36.475	-0.078	-0.042
-542.252	109.985	0.094	-0.113
-541.237	-146.863	-0.155	-0.013
-540.223	-35.863	0.167	0.091
-539.208	-67.802	-0.102	-0.040
-538.193	147.847	-0.308	-0.417
-537.179	-200.000	-0.024	0.117
-536.164	136.740	0.111	0.145
-535.150	-15.615	0.311	0.199
-534.135	800.000	0.040	0.161
-533.121	15.130	-0.071	-0.056
-532.106	800.000	0.105	-0.322
-531.091	800.000	-0.111	0.387
-530.077	69.485	0.027	0.028
-529.062	-200.000	-0.025	0.179
-528.048	-1.115	-0.117	0.083
-527.033	-200.000	0.012	-0.164
-526.018	-154.722	0.129	-0.009
-525.004	-97.655	-0.241	-0.063
-523.989	391.789	-0.014	-0.030
-522.975	-200.000	0.046	-0.247
-521.960	-82.440	-0.071	0.023
-520.945	-34.654	0.181	0.099
-519.931	-116.656	-0.095	0.017
-518.916	-112.545	0.173	0.035
-517.902	800.000	-0.039	-0.138
-516.887	299.970	0.071	-0.130
-515.872	-134.036	0.456	0.056
-514.858	-88.281	0.181	-0.054
-513.843	307.091	0.077	0.144
-512.829	144.631	-0.151	0.203
-511.814	22.930	-0.041	0.034
-510.799	453.400	0.151	0.334
-509.785	800.000	0.088	-0.366
-508.770	-200.000	0.004	-0.050
-507.756	-178.625	0.200	-0.005
-506.741	6.271	0.319	0.237
-505.726	-200.000	0.046	0.369
-504.712	-91.561	-0.155	0.044
-503.697	-123.302	0.078	-0.012
-502.683	209.665	0.048	0.075
-501.668	-29.979	0.310	-0.177
-500.653	61.141	-0.113	-0.112
-499.639	-108.442	-0.249	-0.054
-498.624	800.000	-0.025	-0.096
-497.610	800.000	0.081	0.234
-496.595	-112.247	-0.186	-0.037
-495.581	-58.868	-0.301	-0.130
-494.566	72.249	-0.330	-0.344
-493.551	-97.190	0.116	-0.030
-492.537	-35.414	-0.226	0.123
-491.522	94.009	0.093	-0.106
-490.508	-200.000	0.008	0.079
-489.493	-142.096	-0.180	0.018
-488.478	291.779	0.081	-0.147
-487.464	53.079	-0.100	0.096
-486.449	-200.000	0.013	0.111
-485.435	5.989	0.082	0.061
-484.420	-89.267	0.182	0.054
-483.405	788.836	-0.098	-0.269
-482.391	71.323	-0.183	0.190
-481.376	143.279	-0.118	-0.158
-480.362	-91.144	0.180	-0.052
-479.347	-107.486	-0.225	0.049
-478.332	-200.000	-0.023	-0.189
-477.318	374.587	-0.031	-0.063
-476.303	-200.000	0.005	-0.073
-475.289	-25.346	-0.312	-0.185
-474.274	-56.597	-0.067	-0.030
-473.259	78.411	0.172	0.184
-472.245	-200.000	0.057	-0.270
-471.230	400.879	0.155	0.325
-470.216	-35.214	0.191	0.104
-469.201	800.000	0.090	-0.296
-468.186	-200.000	0.056	-0.420
-467.172	356.173	0.056	-0.111
-466.157	-200.000	0.013	0.100
-465.143	308.328	0.172	-0.320
-464.128	164.985	-0.109	-0.154
-463.113	800.000	0.086	0.300
-462.099	312.183	0.063	-0.119
-461.084	394.698	-0.021	0.044
-460.070	120.353	0.123	0.153
-459.055	-94.753	-0.431	-0.117
-458.040	-200.000	0.048	-0.330
-457.026	-124.704	0.073	-0.011
-456.011	116.650	-0.080	0.098
-454.997	-6.596	0.194	0.132
-453.982	-200.000	-0.010	-0.144
-452.968	-139.925	0.299	-0.032
-451.953	-200.000	0.007	-0.098
-450.938	349.867	-0.090	-0.178
-449.924	800.000	0.065	0.269
-448.909	-200.000	0.005	0.142
-447.895	21.449	-0.146	0.119
-446.880	385.267	-0.116	0.239
-445.865	50.899	-0.121	-0.114
-444.851	618.484	-0.224	-0.562
-443.836	-138.142	0.224	0.025
-442.822	-200.000	0.021	0.155
-441.807	6.868	0.176	0.131
-440.792	-139.934	-0.132	0.014
-439.778	-55.055	-0.179	0.080
-438.763	-184.855	0.177	0.003
-437.749	-9.712	-0.285	-0.190
-436.734	220.227	-0.201	-0.322
-435.719	-200.000	0.013	-0.187
-434.705	39.110	-0.106	0.095
-433.690	800.000	0.027	-0.101
-432.676	208.452	-0.113	0.177
-431.661	439.702	-0.117	0.255
-430.646	800.000	0.058	0.230
-429.632	-61.501	-0.288	0.121
-428.617	-200.000	0.006	0.223
-427.603	-45.078	0.143	0.071
-426.588	-114.261	0.194	0.037
-425.573	-102.795	-0.307	0.073
-424.559	-200.000	-0.037	-0.188
-423.544	226.883	0.129	-0.210
-422.530	-200.000	-0.051	0.248
-421.515	672.200	0.070	-0.180
-420.500	-200.000	0.016	0.208
-419.486	-113.161	0.415	-0.082
-418.471	-70.335	0.303	0.115
-417.457	-5.491	0.398	0.273
-416.442	800.000	0.098	0.357
-415.428	87.878	-0.100	-0.111
-414.413	-61.898	0.172	0.072
-413.398	98.368	-0.176	-0.202
-412.384	67.511	-0.224	-0.229
-411.369	-156.581	-0.307	-0.019
-410.355	-51.400	-0.329	-0.153
-409.340	62.829	0.279	-0.279
-408.325	45.128	-0.093	0.085
-407.311	26.470	0.294	-0.245
-406.296	126.747	-0.181	-0.229
-405.282	-64.977	-0.167	0.067
-404.267	800.000	0.091	0.252
-403.252	46.523	-0.029	0.027
-402.238	-200.000	-0.002	-0.033
-401.223	-200.000	-0.038	0.222
-400.209	-187.050	-0.281	-0.004
-399.194	-200.000	-0.046	-0.312
-398.179	-200.000	0.017	0.228
-397.165	224.938	0.147	-0.238
-396.150	88.268	-0.113	0.125
-395.136	-75.583	-0.100	-0.036
-394.121	-166.778	-0.094	0.004
-393.106	-44.344	0.320	-0.160
-392.092	-58.560	0.293	0.127
-391.077	248.504	0.181	-0.306
-390.063	9.135	0.065	0.049
-389.048	-84.974	-0.184	-0.058
-388.033	-200.000	0.067	-0.381
-387.019	29.334	-0.145	-0.123
-386.004	-200.000	-0.015	-0.148
-384.990	101.826	-0.167	0.194
-383.975	430.936	0.089	0.191
-382.960	-40.039	0.175	0.091
-381.946	10.353	-0.370	0.281
-380.931	-33.592	-0.117	0.064
-379.917	-200.000	0.000	0.113
-378.902	-4.830	0.288	0.198
-377.888	-200.000	0.028	-0.330
-376.873	800.000	-0.059	0.222
-375.858	-12.953	-0.200	-0.130
-374.844	27.267	-0.170	-0.142
-373.829	155.466	-0.056	0.077
-372.815	461.762	0.128	0.284
-371.800	217.316	-0.044	-0.070
-370.785	117.557	-0.043	-0.052
-369.771	130.208	-0.151	-0.193
-368.756	-133.222	0.152	-0.019
-367.742	170.669	0.117	0.167
-366.727	90.027	0.141	0.157
-365.712	-11.973	-0.098	0.064
-364.698	485.089	0.115	0.262
-363.683	-200.000	0.025	0.136
-362.669	267.380	0.179	0.312
-361.654	-82.018	-0.057	0.019
-360.639	-48.158	-0.103	0.050
-359.625	780.513	0.016	0.044
-358.610	439.689	0.108	-0.236
-357.596	-45.645	0.350	0.173
-356.581	-21.171	0.138	-0.084
-355.566	-127.666	0.264	-0.038
-354.552	-200.000	0.019	0.124
-353.537	763.049	0.111	-0.301
-352.523	457.188	0.086	-0.191
-351.508	104.196	-0.029	0.034
-350.493	-200.000	-0.078	0.363
-349.479	-148.056	0.047	-0.004
-348.464	187.471	-0.058	-0.086
-347.450	19.839	-0.140	0.112
-346.435	-104.935	0.323	0.074
-345.420	-3.218	0.177	0.123
-344.406	-49.721	-0.064	-0.030
-343.391	-174.745	-0.274	-0.008
-342.377	-69.609	0.182	-0.069
-341.362	800.000	0.085	0.362
-340.348	-111.360	-0.272	0.055
-339.333	-86.362	0.289	0.088
-338.318	-200.000	0.028	0.255
-337.304	-77.180	0.089	0.031
-336.289	-187.639	-0.249	-0.003
-335.275	479.223	0.079	0.177
-334.260	76.448	-0.129	0.137
-333.245	763.488	-0.110	0.297
-332.231	800.000	-0.110	0.338
-331.216	800.000	0.025	0.075
-330.202	-200.000	-0.040	0.360
-329.187	-70.850	-0.168	-0.063
-328.172	-164.836	0.323	-0.014
-327.158	800.000	-0.099	0.347
-326.143	-112.916	-0.310	-0.061
-325.129	-129.437	0.177	-0.024
-324.114	134.845	0.055	0.072
-323.099	441.719	-0.034	0.075
-322.085	-173.552	0.148	0.004
-321.070	-150.404	-0.271	0.021
-320.056	-67.078	-0.080	0.031
-319.041	39.158	-0.243	0.216
-318.026	-32.442	0.123	0.068
-317.012	-141.261	-0.253	0.026
-315.997	-89.626	0.082	-0.024
-314.983	56.694	-0.167	-0.161
-313.968	204.199	0.123	-0.190
-312.953	-155.994	0.332	0.021
-311.939	-69.165	-0.061	-0.023
-310.924	177.134	0.025	0.036
-309.910	-72.915	0.192	0.070
-308.895	-144.848	0.220	0.020
-307.880	125.243	0.087	0.109
-306.866	148.288	0.210	-0.282
-305.851	-16.631	0.167	0.105
-304.837	-78.386	0.067	-0.023
-303.822	-200.000	-0.028	0.189
-302.807	-5.636	-0.034	-0.023
-301.793	-2.182	0.040	0.028
-300.778	-96.891	-0.140	0.037
-299.764	-6.915	0.132	0.089
-298.749	-200.000	-0.014	-0.131
-297.735	134.329	-0.052	0.067
-296.720	-148.417	-0.346	0.028
-295.705	3.919	-0.126	-0.092
-294.691	-104.973	-0.568	-0.129
-293.676	-108.938	-0.165	0.035
-292.662	0.049	-0.448	-0.317
-291.647	106.142	-0.066	-0.078
-290.632	-189.724	0.182	0.002
-289.618	-51.041	0.234	0.109
-288.603	-136.284	0.312	-0.036
-287.589	314.679	0.089	-0.167
-286.574	25.024	-0.449	0.370
-285.559	1.557	0.224	-0.160
-284.545	675.543	0.081	-0.210
-283.530	-34.573	-0.137	0.074
-282.516	-42.616	-0.157	0.079
-281.501	-103.120	0.100	0.024
-280.486	320.261	-0.109	0.206
-279.472	12.343	0.235	0.180
-278.457	-60.003	0.340	0.144
-277.443	125.830	0.089	-0.111
-276.428	-200.000	-0.015	0.351
-275.413	-152.746	-0.214	0.015
-274.399	31.948	-0.161	0.138
-273.384	-82.798	0.092	0.030
-272.370	-200.000	0.049	0.243
-271.355	-7.343	-0.179	0.121
-270.340	-200.000	0.047	-0.237
-269.326	-131.697	-0.459	-0.060
-268.311	-1.717	0.386	0.270
-267.297	-108.808	0.123	0.026
-266.282	-184.491	-0.350	-0.006
-265.267	-99.327	-0.131	0.033
-264.253	95.821	-0.052	-0.059
-263.238	-200.000	0.041	0.220
-262.224	-78.824	0.060	-0.020
-261.209	-200.000	0.032	0.156
-260.195	-84.638	-0.294	-0.092
-259.180	118.403	0.043	-0.052
-258.165	99.158	0.092	0.106
-257.151	-84.032	-0.459	-0.145
-256.136	-130.944	0.181	0.024
-255.122	800.000	-0.059	0.225
-254.107	-107.919	-0.203	0.044
-253.092	-200.000	-0.072	-0.314
-252.078	241.935	-0.191	-0.316
-251.063	-56.002	0.166	-0.074
-250.049	-200.000	-0.032	-0.292
-249.034	-200.000	0.005	0.092
-248.019	-200.000	-0.008	0.171
-247.005	415.135	-0.035	0.073
-245.990	-200.000	0.016	-0.119
-244.976	800.000	0.210	0.587
-243.961	-47.245	-0.048	-0.023
-242.946	-200.000	-0.022	0.297
-241.932	-200.000	0.030	0.370
-240.917	-200.000	0.002	-0.037
-239.903	-103.538	0.484	-0.113
-238.888	58.364	0.166	0.162
-237.873	412.551	-0.151	-0.319
-236.859	80.518	0.136	-0.145
-235.844	-200.000	-0.027	0.234
-234.830	-200.000	-0.078	0.532
-233.815	226.153	-0.195	0.313
-232.800	800.000	-0.037	-0.158
-231.786	23.296	-0.239	0.195
-230.771	-76.250	-0.121	-0.042
-229.757	-50.125	0.360	-0.169
-228.742	-200.000	-0.038	0.182
-227.727	-113.062	0.268	0.052
-226.713	-72.392	0.063	0.023
-225.698	46.588	0.172	0.158
-224.684	-145.872	0.229	0.020
-223.669	73.756	0.216	-0.224
-222.655	121.204	0.134	-0.166
-221.640	800.000	-0.051	0.173
-220.625	323.717	-0.084	-0.159
-219.611	-200.000	0.038	-0.287
-218.596	-200.000	0.018	0.217
-217.582	-200.000	0.001	0.144
-216.567	487.247	0.145	-0.327
-215.552	-78.355	-0.061	0.021
-214.538	250.935	-0.063	0.105
-213.523	800.000	0.062	-0.234
-212.509	344.230	-0.058	0.113
-211.494	-84.059	-0.253	-0.080
-210.479	-200.000	-0.001	0.199
-209.465	27.804	0.126	0.105
-208.450	-200.000	-0.015	-0.110
-207.436	46.972	0.110	0.102
-206.421	-200.000	0.003	0.269
-205.406	-200.000	0.010	0.070
-204.392	-71.600	0.296	-0.109
-203.377	-109.477	0.266	0.056
-202.363	234.377	0.039	-0.064
-201.348	-200.000	-0.005	0.138
-200.333	-13.436	-0.095	0.061
-199.319	171.540	0.126	-0.179
-198.304	-5.738	-0.229	-0.155
-197.290	-200.000	-0.019	0.260
-196.275	-143.682	-0.159	0.015
-195.260	-165.158	-0.220	-0.010
-194.246	-63.349	-0.175	-0.071
-193.231	-45.228	0.220	-0.108
-192.217	-200.000	-0.108	-0.555
-191.202	113.630	0.074	0.089
-190.187	-200.000	0.026	-0.305
-189.173	800.000	-0.075	-0.267
-188.158	320.946	0.075	-0.141
-187.144	-42.377	-0.151	0.076
-186.129	162.419	0.001	0.002
-185.114	-46.525	-0.294	-0.143
-184.100	-89.775	0.282	-0.082
-183.085	-58.941	0.463	0.198
-182.071	79.105	0.062	0.066
-181.056	52.695	-0.011	0.010
-180.042	800.000	-0.063	0.189
-179.027	-200.000	0.016	0.164
-178.012	-25.192	-0.140	0.082
-176.998	800.000	0.063	-0.176
-175.983	28.694	-0.081	-0.068
-174.969	-12.969	0.285	-0.184
-173.954	-65.406	-0.136	0.054
-172.939	-86.156	0.270	-0.082
-171.925	46.284	0.154	-0.141
-170.910	110.137	-0.081	-0.096
-169.896	-200.000	-0.017	-0.086
-168.881	-130.766	-0.160	-0.021
-167.866	-125.283	-0.072	0.011
-166.852	2.460	0.077	-0.055
-165.837	-110.329	-0.182	-0.037
-164.823	48.934	-0.163	0.151
-163.808	-23.411	0.122	0.073
-162.793	12.499	0.132	-0.101
-161.779	198.228	-0.172	-0.260
-160.764	501.545	-0.043	0.098
-159.750	-200.000	0.033	0.453
-158.735	12.852	-0.237	-0.181
-157.720	-164.066	-0.414	0.019
-156.706	-110.222	0.173	0.036
-155.691	-48.668	-0.332	-0.158
-154.677	-176.416	0.278	-0.007
-153.662	-200.000	-0.032	0.216
-152.647	219.313	0.072	0.113
-151.633	-21.761	0.313	0.188
-150.618	-132.484	-0.104	-0.013
-149.604	-29.487	0.175	-0.099
-148.589	800.000	0.072	0.299
-147.574	-140.276	-0.211	-0.022
-146.560	-200.000	-0.058	0.375
-145.545	-200.000	-0.210	-0.001
-144.531	-200.000	-0.022	-0.270
-143.516	46.177	0.149	-0.137
-142.502	-200.000	-0.007	0.092
-141.487	154.298	-0.040	-0.054
-140.472	384.564	0.030	0.061
-139.458	277.983	-0.112	0.196
-138.443	165.653	0.102	-0.143
-137.429	432.167	-0.068	-0.146
-136.414	-188.350	0.143	0.002
-135.399	-200.000	-0.002	-0.037
-134.385	40.967	0.060	0.054
-133.370	722.161	-0.061	0.160
-132.356	229.816	-0.139	-0.224
-131.341	-58.480	0.457	-0.196
-130.326	-107.554	-0.344	-0.074
-129.312	37.030	-0.063	-0.055
-128.297	167.478	0.160	0.224
-127.283	-89.028	-0.098	-0.029
-126.268	64.153	-0.133	-0.132
-125.253	175.254	0.161	-0.231
-124.239	146.047	0.147	0.195
-123.224	-60.266	0.174	0.073
-122.210	-46.256	-0.142	-0.069
