DTS Sentinel unit serial number:	SN413079Multiplexer serial number:	ORYXHardware model number:	OX4-SRSoftware version number:	ORYX F/W v4.00 Oryx Data Collector v3.7.2.0data status	okinstallation	princeton_trtdifferential loss correction	single-endedforward channel	channel 3reverse channel	N/Adate	2019/09/10time	17:10:11forward acquisition time	60.00reverse acquisition time	0.00gamma	496.2192k internal	0.2298k external	0.2298temperature offset calibration	0.9905default loss term (dB/km)	0.3790temperature slope calibration	1.0000multiplexer offset coefficient	1.0000multiplexer slope coefficient	1.0000fibre end	0.00T internal ref (°C)	37.62T ext. ref 1 (°C)	-0.38T ext. ref 2 (°C)	31.91length (m)	temperature (°C)	Stokes	anti-Stokes-747.200	-60.905	0.272	-0.118
-746.185	-19.865	-0.208	0.131
-745.171	-200.000	0.033	0.198
-744.156	-200.000	-0.100	0.521
-743.142	-200.000	-0.039	0.183
-742.127	-13.521	-0.261	0.172
-741.112	-200.000	0.014	0.078
-740.098	800.000	-0.066	-0.231
-739.083	-74.119	0.202	-0.075
-738.069	280.216	0.021	-0.039
-737.054	-146.394	-0.223	-0.020
-736.039	83.121	-0.235	-0.261
-735.025	-98.364	0.184	-0.048
-734.010	-120.545	-0.354	-0.061
-732.996	-167.287	-0.346	0.014
-731.981	-14.794	0.106	-0.069
-730.966	-200.000	-0.344	-0.000
-729.952	800.000	0.036	-0.158
-728.937	800.000	0.060	-0.224
-727.923	800.000	-0.187	-0.709
-726.908	43.584	0.101	-0.094
-725.894	-5.791	-0.281	-0.196
-724.879	-200.000	-0.084	-0.440
-723.864	-200.000	-0.048	-0.268
-722.850	-200.000	0.014	-0.168
-721.835	191.074	-0.080	-0.123
-720.821	800.000	0.068	0.219
-719.806	-200.000	0.044	0.230
-718.791	104.541	0.005	-0.006
-717.777	800.000	-0.050	0.176
-716.762	-161.057	-0.133	-0.007
-715.748	-111.191	-0.449	0.094
-714.733	119.489	-0.157	0.199
-713.718	-47.521	-0.076	0.038
-712.704	800.000	0.032	0.105
-711.689	211.456	0.215	0.344
-710.675	-122.183	0.481	-0.080
-709.660	800.000	0.049	-0.163
-708.645	169.188	-0.094	0.137
-707.631	-118.206	0.372	-0.068
-706.616	-200.000	-0.020	-0.143
-705.602	-164.584	-0.259	-0.012
-704.587	-104.966	0.158	0.037
-703.572	-200.000	0.045	0.230
-702.558	425.946	-0.070	-0.154
-701.543	-154.955	0.105	0.007
-700.529	-198.696	0.187	0.001
-699.514	-152.276	0.312	-0.023
-698.499	20.240	0.199	-0.163
-697.485	75.253	0.115	0.124
-696.470	-200.000	-0.061	-0.380
-695.456	276.292	-0.051	0.092
-694.441	170.590	0.017	0.025
-693.426	536.509	0.133	0.321
-692.412	706.047	-0.022	-0.060
-691.397	800.000	0.099	0.324
-690.383	-117.423	-0.453	-0.084
-689.368	800.000	-0.125	-0.401
-688.354	-121.329	-0.011	0.002
-687.339	-124.351	0.371	0.059
-686.324	-106.835	0.369	0.083
-685.310	-80.025	0.363	0.124
-684.295	800.000	-0.038	-0.115
-683.281	-132.385	-0.247	-0.032
-682.266	380.008	-0.192	0.401
-681.251	-200.000	0.060	0.299
-680.237	-127.973	-0.211	0.031
-679.222	-100.168	0.031	0.008
-678.208	243.899	0.098	0.167
-677.193	-22.693	0.072	-0.044
-676.178	129.778	-0.160	0.208
-675.164	-200.000	-0.007	-0.110
-674.149	426.398	-0.146	0.321
-673.135	1.784	0.125	-0.091
-672.120	-80.486	0.107	-0.036
-671.105	-200.000	-0.013	0.111
-670.091	-111.540	0.032	0.007
-669.076	72.719	-0.182	-0.193
-668.062	-64.875	-0.131	0.054
-667.047	-98.994	-0.173	0.045
-666.032	-200.000	-0.024	-0.119
-665.018	443.677	-0.056	-0.124
-664.003	102.760	0.307	0.366
-662.989	-200.000	0.053	0.255
-661.974	-65.845	-0.067	-0.027
-660.959	356.353	0.031	-0.062
-659.945	-34.973	-0.205	-0.114
-658.930	-200.000	-0.015	-0.119
-657.916	642.212	-0.040	0.104
-656.901	-23.064	0.153	0.093
-655.886	800.000	0.014	0.061
-654.872	174.858	-0.077	0.113
-653.857	44.815	0.199	0.187
-652.843	31.618	-0.038	-0.033
-651.828	-54.286	-0.441	0.204
-650.814	168.952	0.035	-0.051
-649.799	-55.327	0.195	0.089
-648.784	-102.227	-0.487	-0.119
-647.770	-200.000	-0.028	-0.140
-646.755	252.702	-0.150	0.261
-645.741	-185.999	-0.328	0.005
-644.726	-200.000	-0.049	-0.400
-643.711	-78.500	0.309	-0.107
-642.697	-102.204	-0.364	-0.089
-641.682	78.884	-0.171	0.186
-640.668	800.000	-0.078	0.254
-639.653	800.000	0.064	0.180
-638.638	-44.570	-0.064	-0.032
-637.624	208.869	-0.063	-0.099
-636.609	108.082	-0.096	0.116
-635.595	-97.820	-0.174	0.046
-634.580	180.405	-0.067	-0.099
-633.565	-200.000	0.038	-0.200
-632.551	800.000	-0.070	-0.255
-631.536	5.350	-0.289	0.216
-630.522	754.901	0.059	-0.163
-629.507	54.845	0.047	0.046
-628.492	91.434	0.075	-0.085
-627.478	229.155	-0.043	0.072
-626.463	133.776	-0.048	0.063
-625.449	-200.000	0.009	-0.127
-624.434	9.880	-0.325	-0.251
-623.419	144.763	-0.304	-0.412
-622.405	259.483	0.059	0.103
-621.390	-40.255	0.359	-0.190
-620.376	6.629	0.145	-0.109
-619.361	-200.000	-0.036	-0.286
-618.346	113.110	0.133	-0.164
-617.332	-7.389	-0.405	0.278
-616.317	45.354	-0.215	0.201
-615.303	83.504	0.089	0.098
-614.288	-52.533	-0.133	-0.063
-613.273	184.295	-0.070	-0.105
-612.259	-68.705	-0.241	0.095
-611.244	800.000	-0.045	0.188
-610.230	180.339	0.043	0.064
-609.215	-56.953	-0.128	0.057
-608.201	98.743	-0.102	0.119
-607.186	800.000	-0.027	0.087
-606.171	800.000	-0.056	0.217
-605.157	-80.918	-0.164	-0.055
-604.142	-108.698	-0.096	-0.021
-603.128	-187.390	0.367	-0.005
-602.113	137.351	-0.052	0.068
-601.098	284.916	0.052	0.095
-600.084	800.000	0.049	0.201
-599.069	-200.000	0.052	0.237
-598.055	443.549	-0.092	0.204
-597.040	488.453	-0.023	0.053
-596.025	-200.000	-0.015	-0.143
-595.011	-200.000	-0.006	0.231
-593.996	-103.646	-0.240	-0.057
-592.982	-67.901	-0.250	0.099
-591.967	64.908	-0.109	0.111
-590.952	545.429	-0.014	-0.035
-589.938	800.000	-0.060	-0.211
-588.923	-56.450	0.129	-0.058
-587.909	395.430	0.036	0.076
-586.894	176.312	-0.064	0.094
-585.879	191.965	-0.079	-0.120
-584.865	444.679	-0.094	-0.209
-583.850	-200.000	0.088	0.422
-582.836	26.742	0.211	0.179
-581.821	-70.185	-0.147	0.057
-580.806	-196.879	-0.361	0.002
-579.792	21.760	-0.156	-0.129
-578.777	-86.459	0.162	-0.051
-577.763	-59.296	-0.259	0.113
-576.748	-178.640	0.222	-0.005
-575.733	303.880	-0.097	-0.182
-574.719	3.917	-0.123	-0.091
-573.704	-80.712	0.254	0.086
-572.690	150.173	0.171	-0.236
-571.675	639.394	-0.117	0.302
-570.661	120.306	-0.056	-0.071
-569.646	-200.000	0.022	0.137
-568.631	318.656	0.100	0.191
-567.617	-129.990	-0.335	0.046
-566.602	337.094	-0.098	0.194
-565.588	-137.400	-0.146	-0.017
-564.573	326.711	0.125	-0.242
-563.558	-35.540	-0.163	0.090
-562.544	-44.691	-0.259	-0.131
-561.529	99.121	-0.174	-0.203
-560.515	587.630	0.121	0.301
-559.500	-200.000	0.016	0.193
-558.485	79.512	-0.008	0.008
-557.471	-25.216	-0.375	-0.225
-556.456	800.000	0.123	-0.493
-555.442	356.278	-0.176	0.355
-554.427	800.000	0.039	0.149
-553.412	-8.384	0.128	0.087
-552.398	-137.201	0.450	0.052
-551.383	-74.160	-0.217	-0.080
-550.369	447.778	0.067	0.150
-549.354	-100.301	0.275	0.069
-548.339	-66.322	0.203	0.082
-547.325	168.078	-0.078	0.112
-546.310	-104.124	0.298	0.070
-545.296	-31.863	-0.276	0.157
-544.281	-72.278	-0.133	-0.050
-543.266	29.188	-0.217	0.186
-542.252	800.000	0.030	0.129
-541.237	267.593	-0.139	-0.246
-540.223	-88.054	0.099	-0.030
-539.208	-51.117	-0.158	0.075
-538.193	28.803	0.165	0.141
-537.179	800.000	-0.083	-0.326
-536.164	486.119	-0.079	-0.183
-535.150	34.355	-0.124	-0.110
-534.135	90.657	-0.123	-0.140
-533.121	502.312	-0.035	-0.082
-532.106	9.014	-0.180	0.138
-531.091	379.724	0.139	-0.289
-530.077	-142.766	-0.599	0.059
-529.062	-137.257	0.098	-0.011
-528.048	-107.390	0.101	0.022
-527.033	-150.586	-0.123	0.010
-526.018	-156.675	0.168	-0.011
-525.004	-43.032	-0.297	-0.152
-523.989	37.975	-0.081	0.073
-522.975	182.985	-0.117	0.174
-521.960	-115.621	-0.150	-0.028
-520.945	-119.012	0.096	0.017
-519.931	-99.617	-0.394	-0.100
-518.916	-200.000	0.014	0.121
-517.902	-42.782	-0.045	0.023
-516.887	-100.060	-0.294	0.074
-515.872	-155.006	-0.241	0.016
-514.858	-200.000	-0.003	-0.342
-513.843	-98.190	0.257	-0.067
-512.829	-28.430	0.117	0.068
-511.814	136.469	0.181	-0.238
-510.799	170.218	0.090	-0.131
-509.785	-79.054	-0.365	0.125
-508.770	-200.000	-0.037	0.180
-507.756	-72.817	0.129	-0.048
-506.741	-200.000	0.002	0.136
-505.726	391.557	0.079	-0.165
-504.712	-34.756	0.200	-0.110
-503.697	-110.102	0.243	-0.051
-502.683	-1.394	-0.054	0.038
-501.668	-152.831	0.505	-0.036
-500.653	-62.151	-0.280	-0.118
-499.639	-200.000	0.009	-0.227
-498.624	-120.349	0.249	-0.043
-497.610	28.773	-0.028	-0.024
-496.595	-74.537	-0.126	-0.046
-495.581	-13.957	0.069	-0.045
-494.566	-57.849	0.073	-0.032
-493.551	-190.257	-0.269	0.003
-492.537	-200.000	0.007	-0.094
-491.522	-200.000	0.039	0.411
-490.508	-200.000	-0.005	0.245
-489.493	-131.144	-0.035	-0.005
-488.478	-74.372	0.084	-0.031
-487.464	320.942	0.074	-0.143
-486.449	791.471	0.061	-0.171
-485.435	-146.649	-0.363	0.032
-484.420	356.727	-0.107	-0.215
-483.405	-200.000	0.014	-0.184
-482.391	-112.931	-0.145	-0.029
-481.376	40.927	-0.282	-0.257
-480.362	224.459	0.184	-0.301
-479.347	-200.000	0.002	0.140
-478.332	54.892	-0.198	0.193
-477.318	800.000	0.099	0.300
-476.303	449.066	0.107	-0.239
-475.289	-65.858	-0.146	0.059
-474.274	800.000	-0.031	0.127
-473.259	-37.028	-0.141	-0.076
-472.245	322.636	-0.092	-0.177
-471.230	-96.743	0.120	0.032
-470.216	-14.087	-0.194	-0.126
-469.201	-48.431	0.232	0.113
-468.186	241.066	0.113	0.190
-467.172	362.091	-0.066	-0.134
-466.157	-165.221	0.189	-0.008
-465.143	-160.222	-0.320	-0.017
-464.128	367.201	-0.069	-0.141
-463.113	-18.262	0.122	0.077
-462.099	88.654	-0.118	0.132
-461.084	-200.000	-0.015	-0.082
-460.070	-26.808	0.081	0.048
-459.055	-200.000	-0.010	0.094
-458.040	100.796	0.136	0.159
-457.026	-35.669	0.165	-0.090
-456.011	800.000	-0.053	0.214
-454.997	172.753	-0.105	-0.153
-453.982	800.000	-0.054	0.178
-452.968	-67.663	0.406	-0.160
-451.953	-97.122	0.357	-0.094
-450.938	-117.939	-0.143	-0.026
-449.924	193.115	0.216	-0.330
-448.909	85.892	0.137	-0.152
-447.895	1.052	0.171	-0.123
-446.880	-63.076	-0.179	0.074
-445.865	10.635	0.269	0.207
-444.851	-66.201	-0.264	-0.106
-443.836	-10.074	-0.139	-0.093
-442.822	-200.000	-0.023	-0.193
-441.807	-97.674	0.316	-0.083
-440.792	-101.973	-0.144	-0.035
-439.778	-65.433	0.289	0.117
-438.763	-165.785	0.137	0.006
-437.749	481.504	0.063	-0.145
-436.734	-148.837	0.232	-0.019
-435.719	800.000	-0.118	-0.514
-434.705	-200.000	0.046	-0.244
-433.690	100.515	0.129	-0.150
-432.676	-23.984	-0.195	0.117
-431.661	800.000	-0.056	0.159
-430.646	-151.420	-0.299	0.022
-429.632	-200.000	0.035	0.270
-428.617	630.524	-0.117	-0.298
-427.603	115.810	-0.080	0.099
-426.588	-65.973	0.195	-0.078
-425.573	-92.621	-0.171	-0.048
-424.559	53.998	0.113	-0.109
-423.544	-124.832	-0.335	0.052
-422.530	13.261	-0.138	-0.108
-421.515	800.000	-0.081	0.239
-420.500	116.550	-0.271	-0.335
-419.486	-108.908	0.392	0.084
-418.471	-171.508	-0.054	0.002
-417.457	-5.764	0.291	-0.201
-416.442	142.933	0.132	-0.177
-415.428	394.049	0.122	0.256
-414.413	-2.227	0.129	-0.091
-413.398	47.721	0.112	-0.105
-412.384	-200.000	0.033	-0.348
-411.369	-44.348	-0.254	-0.128
-410.355	-168.405	0.273	0.011
-409.340	-110.648	-0.215	0.045
-408.325	57.316	0.064	0.063
-407.311	-146.218	0.068	-0.006
-406.296	80.365	0.068	0.074
-405.282	-14.194	0.156	-0.101
-404.267	25.071	-0.115	-0.096
-403.252	72.409	-0.114	-0.120
-402.238	-155.386	0.504	-0.033
-401.223	-127.106	0.307	0.045
-400.209	-135.090	-0.180	0.022
-399.194	6.290	-0.358	-0.268
-398.179	577.871	-0.105	-0.258
-397.165	112.774	0.161	0.196
-396.150	-2.586	0.366	0.258
-395.136	124.422	0.231	-0.293
-394.121	35.228	-0.195	0.172
-393.106	-18.773	-0.124	0.078
-392.092	-0.406	-0.402	0.287
-391.077	281.474	-0.087	-0.158
-390.063	3.833	-0.085	-0.063
-389.048	375.241	-0.134	-0.275
-388.033	800.000	0.065	0.217
-387.019	24.516	0.144	-0.120
-386.004	-102.165	-0.250	0.061
-384.990	-139.876	-0.282	0.030
-383.975	-74.684	-0.318	-0.115
-382.960	-200.000	-0.048	-0.228
-381.946	-200.000	-0.012	-0.068
-380.931	74.896	0.226	0.239
-379.917	-200.000	-0.022	0.336
-378.902	-138.859	0.361	-0.040
-377.888	-135.506	-0.145	0.017
-376.873	-79.865	-0.254	-0.086
-375.858	800.000	0.014	0.046
-374.844	-79.293	0.311	-0.106
-373.829	110.380	0.292	-0.352
-372.815	474.919	0.106	0.242
-371.800	-6.299	-0.163	-0.112
-370.785	342.059	0.168	0.330
-369.771	-194.083	-0.104	-0.001
-368.756	-11.332	0.261	0.173
-367.742	97.565	0.041	0.047
-366.727	346.624	-0.053	0.104
-365.712	-84.271	-0.184	0.059
-364.698	-200.000	-0.009	-0.197
-363.683	142.549	0.116	-0.156
-362.669	270.375	-0.228	0.402
-361.654	-200.000	-0.010	0.167
-360.639	96.112	0.293	-0.337
-359.625	-200.000	-0.029	-0.343
-358.610	-162.311	-0.182	0.009
-357.596	104.592	0.217	0.257
-356.581	-82.909	0.098	0.032
-355.566	-133.426	0.400	0.051
-354.552	-200.000	0.008	0.067
-353.537	-200.000	-0.026	0.309
-352.523	371.906	0.140	-0.286
-351.508	518.682	0.033	0.077
-350.493	335.902	-0.237	-0.462
-349.479	-128.188	-0.268	0.038
-348.464	25.950	0.234	-0.196
-347.450	631.856	-0.043	0.109
-346.435	-200.000	0.076	0.533
-345.420	-98.077	-0.373	-0.097
-344.406	123.067	0.162	-0.204
-343.391	379.320	-0.073	-0.150
-342.377	800.000	0.020	-0.076
-341.362	-53.104	-0.211	0.098
-340.348	-79.809	0.430	0.145
-339.333	-200.000	0.024	0.152
-338.318	-139.209	0.110	0.012
-337.304	176.291	-0.116	0.169
-336.289	13.086	0.244	-0.190
-335.275	476.264	-0.077	-0.174
-334.260	-11.510	-0.378	0.250
-333.245	-88.653	0.193	-0.058
-332.231	-200.000	-0.006	-0.154
-331.216	16.166	-0.123	0.097
-330.202	-200.000	0.013	-0.152
-329.187	-117.261	-0.376	0.069
-328.172	-30.330	0.177	0.101
-327.158	-200.000	-0.002	0.287
-326.143	-47.205	-0.159	0.078
-325.129	-200.000	-0.022	-0.224
-324.114	-1.001	-0.203	0.144
-323.099	-17.718	-0.310	0.195
-322.085	-200.000	0.007	-0.223
-321.070	-101.497	-0.177	-0.043
-320.056	-122.980	-0.199	-0.032
-319.041	103.178	0.147	-0.173
-318.026	-152.931	0.265	-0.019
-317.012	-100.440	0.132	-0.033
-315.997	800.000	-0.021	-0.074
-314.983	54.957	0.227	0.220
-313.968	-97.797	0.030	0.008
-312.953	-174.741	-0.265	-0.008
-311.939	-137.708	-0.027	-0.003
-310.924	457.213	0.205	0.457
-309.910	-200.000	-0.005	-0.133
-308.895	-200.000	0.002	0.219
-307.880	150.458	0.150	0.204
-306.866	351.819	-0.217	-0.432
-305.851	310.800	0.136	-0.255
-304.837	58.157	0.189	-0.185
-303.822	37.880	0.179	-0.160
-302.807	341.990	-0.217	-0.425
-301.793	371.441	-0.162	-0.329
-300.778	-77.723	-0.105	0.036
-299.764	185.475	-0.064	-0.095
-298.749	134.797	-0.247	-0.321
-297.735	-200.000	-0.047	0.307
-296.720	-200.000	-0.031	0.193
-295.705	800.000	-0.093	-0.281
-294.691	-60.530	0.289	-0.123
-293.676	-200.000	-0.052	-0.345
-292.662	-85.479	0.274	-0.086
-291.647	142.982	-0.151	0.202
-290.632	39.080	0.157	-0.141
-289.618	-43.328	-0.302	-0.153
-288.603	800.000	0.132	0.467
-287.589	-115.901	0.294	0.055
-286.574	-14.360	0.175	0.113
-285.559	242.340	0.068	0.115
-284.545	-133.168	-0.180	0.023
-283.530	-111.093	0.268	0.055
-282.516	-200.000	0.011	-0.139
-281.501	-78.010	-0.019	0.006
-280.486	378.250	0.024	-0.049
-279.472	-6.234	0.325	0.222
-278.457	800.000	0.049	-0.157
-277.443	45.916	0.100	0.093
-276.428	-47.292	0.266	0.130
-275.413	-41.175	0.294	-0.152
-274.399	293.030	-0.099	-0.182
-273.384	155.568	0.252	-0.348
-272.370	12.931	-0.113	0.088
-271.355	38.045	-0.096	-0.086
-270.340	800.000	0.072	0.230
-269.326	-102.272	0.035	-0.008
-268.311	2.867	-0.122	-0.089
-267.297	800.000	0.052	0.153
-266.282	730.919	-0.156	0.418
-265.267	800.000	0.034	-0.132
-264.253	-161.824	0.262	-0.013
-263.238	800.000	-0.160	-0.530
-262.224	-190.821	-0.124	-0.001
-261.209	-49.955	0.077	0.037
-260.195	-156.245	0.296	-0.019
-259.180	-58.408	0.235	-0.102
-258.165	-0.728	0.111	-0.079
-257.151	56.617	-0.238	0.232
-256.136	800.000	-0.078	0.238
-255.122	44.826	0.161	0.148
-254.107	-71.792	0.252	-0.094
-253.092	-200.000	0.009	0.283
-252.078	36.489	-0.190	0.168
-251.063	-200.000	0.033	0.168
-250.049	-26.752	-0.278	-0.163
-249.034	-108.730	0.190	0.041
-248.019	-97.565	-0.064	0.017
-247.005	-130.109	0.201	0.027
-245.990	264.993	0.055	0.097
-244.976	-180.365	-0.303	-0.006
-243.961	-97.573	0.197	-0.051
-242.946	-200.000	0.073	0.340
-241.932	-200.000	-0.018	-0.145
-240.917	800.000	-0.011	0.039
-239.903	694.841	-0.080	0.211
-238.888	-200.000	0.020	0.359
-237.873	800.000	0.034	0.118
-236.859	202.759	-0.181	0.280
-235.844	417.542	0.078	-0.167
-234.830	-200.000	0.001	-0.064
-233.815	-43.990	0.182	0.092
-232.800	-55.647	-0.231	0.103
-231.786	-200.000	-0.002	0.593
-230.771	99.137	-0.102	0.118
-229.757	181.474	0.141	-0.208
-228.742	800.000	-0.056	0.227
-227.727	800.000	-0.057	0.162
-226.713	520.921	0.062	0.145
-225.698	-75.958	0.130	0.046
-224.684	-136.673	-0.059	-0.007
-223.669	-32.681	-0.317	-0.177
-222.655	-200.000	0.012	0.167
-221.640	-79.923	0.299	0.100
-220.625	336.220	0.130	0.252
-219.611	-95.517	0.112	-0.030
-218.596	-36.532	0.062	-0.033
-217.582	-136.689	0.500	-0.058
-216.567	-200.000	-0.215	-0.001
-215.552	800.000	-0.053	-0.205
-214.538	37.483	-0.183	0.163
-213.523	-92.385	-0.190	-0.053
-212.509	32.518	0.350	0.302
-211.494	-38.145	-0.107	0.057
-210.479	-53.699	-0.119	-0.055
-209.465	9.753	0.096	0.073
-208.450	-96.146	0.098	0.026
-207.436	24.557	0.160	-0.132
-206.421	5.022	0.357	-0.262
-205.406	396.669	0.140	0.292
-204.392	-120.800	0.290	-0.049
-203.377	800.000	-0.068	-0.239
-202.363	-94.753	0.163	-0.044
-201.348	-171.394	0.048	-0.002
-200.333	-62.562	-0.063	-0.026
-199.319	206.976	0.180	0.280
-198.304	-89.307	0.117	0.034
-197.290	55.249	0.202	0.195
-196.275	25.514	0.197	-0.164
-195.260	-118.870	0.325	-0.057
-194.246	-200.000	-0.021	0.184
-193.231	800.000	-0.068	0.197
-192.217	595.649	-0.115	-0.283
-191.202	74.088	-0.102	-0.107
-190.187	-136.270	-0.320	-0.037
-189.173	-167.959	-0.346	0.014
-188.158	800.000	0.052	0.180
-187.144	58.879	0.188	0.185
-186.129	-187.098	-0.285	0.004
-185.114	-0.876	-0.087	0.061
-184.100	36.789	-0.230	0.203
-183.085	-63.986	-0.188	-0.077
-182.071	133.169	0.156	-0.201
-181.056	-118.872	-0.193	-0.034
-180.042	53.145	0.125	-0.119
-179.027	-22.315	-0.394	0.239
-178.012	404.560	0.154	0.323
-176.998	-200.000	0.001	0.222
-175.983	-200.000	-0.094	0.576
-174.969	-140.597	0.460	0.048
-173.954	-92.232	0.465	0.131
-172.939	-155.820	0.302	-0.019
-171.925	-133.891	0.235	-0.029
-170.910	123.768	-0.123	-0.155
-169.896	-117.961	0.136	0.024
-168.881	-11.027	0.105	-0.069
-167.866	-82.928	-0.320	-0.103
-166.852	14.370	0.306	-0.238
-165.837	-46.265	-0.135	0.066
-164.823	293.444	0.044	-0.080
-163.808	800.000	0.112	-0.341
-162.793	-0.787	-0.047	0.033
-161.779	-79.834	0.161	-0.054
-160.764	-21.290	-0.079	-0.048
-159.750	732.844	0.086	0.229
-158.735	83.453	0.225	0.244
-157.720	-8.127	0.273	0.184
-156.706	233.692	0.046	-0.076
-155.691	-200.000	0.046	-0.270
-154.677	127.369	-0.085	-0.108
-153.662	761.250	-0.085	-0.229
-152.647	-101.288	0.269	-0.066
-151.633	-200.000	0.201	-0.000
-150.618	367.759	0.157	0.317
-149.604	564.321	0.090	0.218
-148.589	-1.345	-0.109	0.077
-147.574	47.144	0.347	0.322
-146.560	396.118	-0.086	-0.180
-145.545	-200.000	0.031	-0.222
-144.531	-200.000	0.002	-0.321
-143.516	-5.894	-0.155	0.106
-142.502	-200.000	0.040	-0.302
-141.487	-26.317	-0.355	0.208
-140.472	-200.000	-0.007	-0.104
-139.458	25.753	-0.227	0.188
-138.443	476.098	-0.038	-0.085
-137.429	800.000	0.060	0.264
-136.414	-12.349	-0.126	-0.082
-135.399	-200.000	-0.015	-0.189
-134.385	-167.111	0.457	-0.019
-133.370	359.507	-0.118	0.235
-132.356	370.368	0.034	0.069
-131.341	-169.223	0.420	0.015
-130.326	-150.203	0.156	0.012
-129.312	-200.000	0.001	0.158
-128.297	57.825	-0.192	0.187
-127.283	121.265	-0.131	0.162
-126.268	-73.270	-0.342	-0.125
-125.253	338.868	-0.085	-0.165
-124.239	155.441	0.161	-0.221
-123.224	97.855	-0.114	0.130
-122.210	-200.000	0.083	0.403
