DTS Sentinel unit serial number:	SN413079Multiplexer serial number:	ORYXHardware model number:	OX4-SRSoftware version number:	ORYX F/W v4.00 Oryx Data Collector v3.7.2.0data status	okinstallation	princeton_trtdifferential loss correction	single-endedforward channel	channel 3reverse channel	N/Adate	2019/09/10time	23:10:10forward acquisition time	60.00reverse acquisition time	0.00gamma	496.2192k internal	0.2331k external	0.2331temperature offset calibration	0.9919default loss term (dB/km)	0.3790temperature slope calibration	1.0000multiplexer offset coefficient	1.0000multiplexer slope coefficient	1.0000fibre end	0.00T internal ref (°C)	29.94T ext. ref 1 (°C)	-0.31T ext. ref 2 (°C)	23.25length (m)	temperature (°C)	Stokes	anti-Stokes-747.200	-143.724	-0.074	0.007
-746.185	-183.887	-0.096	-0.002
-745.171	-25.495	0.175	-0.104
-744.156	-108.643	-0.307	0.066
-743.142	-200.000	0.056	-0.320
-742.127	-44.920	0.158	-0.079
-741.112	-2.319	-0.300	-0.212
-740.098	187.306	0.118	-0.176
-739.083	126.054	0.046	-0.059
-738.069	251.525	-0.038	0.065
-737.054	-70.536	0.142	0.054
-736.039	21.250	-0.227	-0.185
-735.025	130.565	-0.071	-0.092
-734.010	800.000	0.095	-0.291
-732.996	-99.866	-0.154	-0.039
-731.981	-200.000	-0.036	0.413
-730.966	-200.000	0.065	0.325
-729.952	800.000	-0.111	-0.435
-728.937	-80.259	-0.190	-0.064
-727.923	-4.753	-0.208	-0.145
-726.908	800.000	-0.037	-0.107
-725.894	800.000	0.058	0.207
-724.879	147.230	0.155	-0.209
-723.864	-28.720	0.272	-0.158
-722.850	-111.078	-0.032	0.007
-721.835	-68.160	-0.347	-0.136
-720.821	233.987	0.061	0.102
-719.806	-200.000	-0.040	-0.269
-718.791	297.791	0.168	-0.310
-717.777	-200.000	-0.012	0.127
-716.762	-28.740	-0.376	-0.218
-715.748	49.342	0.303	0.286
-714.733	223.933	-0.126	-0.205
-713.718	-101.434	0.305	0.075
-712.704	-161.011	0.159	0.008
-711.689	101.928	-0.274	-0.321
-710.675	20.625	-0.102	0.083
-709.660	-85.794	-0.455	-0.142
-708.645	-82.812	0.344	0.112
-707.631	788.991	0.045	0.125
-706.616	-200.000	-0.036	-0.165
-705.602	-132.487	-0.236	0.031
-704.587	-200.000	0.066	-0.315
-703.572	800.000	0.054	-0.211
-702.558	-52.865	-0.326	-0.151
-701.543	-34.827	0.181	-0.099
-700.529	-150.143	0.256	-0.020
-699.514	344.026	-0.286	-0.564
-698.499	-91.926	0.108	0.031
-697.485	-200.000	0.012	0.095
-696.470	-71.708	-0.385	0.144
-695.456	156.831	0.193	0.267
-694.441	-15.772	0.141	-0.091
-693.426	329.566	0.136	-0.263
-692.412	800.000	-0.085	-0.264
-691.397	37.155	-0.090	-0.080
-690.383	615.245	0.028	-0.072
-689.368	-135.271	0.147	0.018
-688.354	781.957	0.095	-0.262
-687.339	724.864	-0.069	0.184
-686.324	-124.177	0.252	-0.040
-685.310	-32.101	-0.251	0.141
-684.295	800.000	0.026	-0.077
-683.281	-200.000	-0.011	-0.155
-682.266	-50.190	-0.109	-0.052
-681.251	-0.563	-0.097	-0.069
-680.237	-29.435	0.200	0.115
-679.222	233.362	0.080	0.132
-678.208	-170.807	-0.131	-0.005
-677.193	-145.100	-0.271	-0.025
-676.178	-121.576	-0.101	0.017
-675.164	-122.592	0.325	-0.053
-674.149	191.733	0.212	-0.320
-673.135	57.780	0.148	-0.145
-672.120	-2.522	-0.273	-0.192
-671.105	-10.629	0.107	-0.071
-670.091	-104.438	0.150	0.035
-669.076	-120.252	-0.160	-0.027
-668.062	440.246	0.161	-0.353
-667.047	-36.803	0.119	-0.064
-666.032	51.736	0.196	-0.187
-665.018	346.159	-0.175	0.345
-664.003	-60.522	-0.138	-0.059
-662.989	132.234	0.125	-0.161
-661.974	-39.943	-0.234	0.122
-660.959	-120.476	-0.160	0.027
-659.945	-129.347	0.246	-0.034
-658.930	62.255	-0.068	-0.069
-657.916	93.252	0.237	-0.269
-656.901	-26.545	-0.199	0.117
-655.886	-200.000	0.019	0.200
-654.872	114.709	-0.285	-0.348
-653.857	-42.671	-0.107	0.055
-652.843	-83.365	-0.302	0.097
-651.828	32.927	-0.293	0.254
-650.814	711.918	-0.090	-0.239
-649.799	51.397	-0.136	-0.130
-648.784	302.260	0.115	-0.213
-647.770	-62.819	0.153	-0.063
-646.755	-31.256	-0.120	-0.068
-645.741	60.434	0.117	0.116
-644.726	95.750	-0.041	0.047
-643.711	-200.000	-0.028	-0.249
-642.697	800.000	0.087	-0.249
-641.682	-116.268	-0.026	-0.005
-640.668	-87.534	-0.357	-0.108
-639.653	44.161	0.324	-0.298
-638.638	-72.652	0.149	0.055
-637.624	-34.418	-0.269	0.148
-636.609	-81.655	-0.292	0.096
-635.595	800.000	-0.020	0.082
-634.580	153.595	-0.018	-0.025
-633.565	-65.660	0.065	-0.026
-632.551	294.441	-0.072	-0.132
-631.536	21.046	-0.125	-0.102
-630.522	-150.979	0.343	0.026
-629.507	-84.097	-0.153	-0.049
-628.492	-12.218	0.131	0.086
-627.478	-200.000	0.032	-0.354
-626.463	800.000	-0.030	-0.127
-625.449	-94.280	-0.115	0.032
-624.434	-1.717	-0.132	-0.093
-623.419	-200.000	0.036	-0.222
-622.405	437.790	-0.185	0.403
-621.390	55.758	-0.090	0.087
-620.376	-200.000	0.007	0.094
-619.361	-200.000	0.023	0.284
-618.346	-200.000	0.000	0.017
-617.332	-20.179	-0.167	-0.103
-616.317	800.000	-0.077	-0.290
-615.303	-33.389	0.110	0.061
-614.288	20.025	0.041	0.033
-613.273	172.876	0.075	0.108
-612.259	679.567	0.083	0.216
-611.244	-200.000	0.006	0.244
-610.230	115.836	-0.232	0.284
-609.215	181.397	0.077	0.113
-608.201	-54.405	0.077	-0.035
-607.186	-63.516	-0.359	0.148
-606.171	-99.769	0.105	-0.026
-605.157	231.778	-0.045	0.073
-604.142	-137.587	-0.342	0.039
-603.128	102.275	0.278	0.326
-602.113	-200.000	0.024	-0.227
-601.098	1.133	0.345	-0.248
-600.084	23.291	0.277	-0.228
-599.069	-140.231	0.037	-0.004
-598.055	238.227	0.130	0.217
-597.040	289.584	0.116	0.211
-596.025	-19.400	-0.162	0.101
-595.011	215.016	0.111	-0.176
-593.996	56.713	0.116	0.113
-592.982	-200.000	-0.032	-0.274
-591.967	295.320	-0.091	-0.166
-590.952	-55.491	-0.101	0.045
-589.938	507.301	0.119	-0.276
-588.923	-200.000	-0.019	-0.189
-587.909	-36.692	-0.185	-0.100
-586.894	-141.249	0.400	-0.041
-585.879	800.000	0.073	0.217
-584.865	800.000	-0.041	-0.122
-583.850	227.572	-0.141	0.229
-582.836	800.000	0.097	0.369
-581.821	-136.811	0.313	0.036
-580.806	-93.912	0.187	0.051
-579.792	-128.192	0.495	-0.071
-578.777	40.396	0.110	-0.099
-577.763	-25.839	0.056	-0.033
-576.748	-128.845	-0.421	0.059
-575.733	-44.964	0.180	-0.089
-574.719	404.394	-0.150	-0.315
-573.704	-117.053	-0.370	-0.067
-572.690	50.173	-0.190	0.179
-571.675	-133.375	0.146	0.018
-570.661	-115.421	-0.032	-0.006
-569.646	182.859	-0.053	-0.078
-568.631	-200.000	0.070	-0.317
-567.617	-7.043	-0.258	0.175
-566.602	165.143	0.058	0.082
-565.588	-127.920	-0.221	-0.032
-564.573	8.031	0.174	-0.131
-563.558	46.199	0.218	-0.202
-562.544	-110.370	0.369	0.077
-561.529	-35.558	-0.082	-0.044
-560.515	171.795	0.256	0.367
-559.500	22.489	0.137	0.112
-558.485	-41.874	-0.131	-0.067
-557.471	800.000	0.176	0.502
-556.456	-13.839	0.117	-0.075
-555.442	-154.053	-0.367	0.025
-554.427	-87.482	-0.014	0.004
-553.412	137.173	-0.206	-0.269
-552.398	-37.344	-0.298	0.159
-551.383	-24.414	0.354	-0.211
-550.369	90.605	-0.177	0.198
-549.354	-111.957	-0.189	0.038
-548.339	46.463	0.322	0.298
-547.325	-58.101	0.277	0.121
-546.310	-191.476	0.127	0.001
-545.296	-93.980	0.350	0.096
-544.281	800.000	0.057	0.242
-543.266	-167.816	-0.400	-0.016
-542.252	-63.784	-0.231	-0.094
-541.237	-200.000	-0.042	0.287
-540.223	588.135	0.039	-0.095
-539.208	800.000	0.105	0.402
-538.193	800.000	0.051	-0.150
-537.179	132.406	-0.265	0.340
-536.164	62.118	0.108	-0.108
-535.150	-138.897	0.051	-0.005
-534.135	800.000	0.018	-0.059
-533.121	-161.189	0.103	0.005
-532.106	-118.401	-0.310	0.055
-531.091	-200.000	0.434	0.001
-530.077	-200.000	0.001	0.338
-529.062	-153.121	0.095	-0.007
-528.048	800.000	-0.029	-0.111
-527.033	-94.658	0.095	0.026
-526.018	-64.188	-0.115	-0.047
-525.004	39.421	-0.153	-0.137
-523.989	374.345	0.124	0.252
-522.975	38.604	0.351	-0.312
-521.960	800.000	0.088	-0.272
-520.945	-24.813	0.110	0.065
-519.931	-200.000	0.006	0.090
-518.916	162.766	0.036	0.050
-517.902	-200.000	-0.000	0.188
-516.887	800.000	-0.089	0.313
-515.872	464.891	-0.122	-0.272
-514.858	135.355	-0.246	-0.320
-513.843	370.997	-0.144	0.292
-512.829	-167.092	-0.037	-0.001
-511.814	800.000	-0.149	0.425
-510.799	-200.000	0.007	-0.313
-509.785	34.719	0.118	0.103
-508.770	-28.194	-0.204	0.117
-507.756	56.219	0.164	0.159
-506.741	-147.020	-0.099	-0.008
-505.726	34.479	-0.283	-0.246
-504.712	-42.123	0.155	-0.079
-503.697	30.447	0.093	0.079
-502.683	484.711	0.035	0.080
-501.668	182.492	0.238	0.350
-500.653	-200.000	-0.049	-0.300
-499.639	800.000	-0.054	-0.217
-498.624	-88.563	0.120	-0.036
-497.610	79.674	-0.108	-0.116
-496.595	-145.300	-0.163	0.015
-495.581	-66.552	0.189	-0.075
-494.566	38.519	0.204	-0.181
-493.551	-200.000	-0.004	0.244
-492.537	260.524	-0.061	0.105
-491.522	9.980	-0.224	-0.170
-490.508	686.311	-0.079	0.206
-489.493	193.721	-0.166	0.250
-488.478	768.565	-0.109	0.295
-487.464	-157.180	0.082	0.005
-486.449	-200.000	0.116	0.544
-485.435	-200.000	-0.016	0.135
-484.420	-15.881	0.183	0.116
-483.405	-68.276	0.148	-0.057
-482.391	-104.367	-0.157	0.036
-481.376	116.748	0.067	0.082
-480.362	800.000	0.037	0.161
-479.347	-87.725	-0.158	-0.047
-478.332	800.000	0.060	0.186
-477.318	-200.000	0.025	0.162
-476.303	-109.393	-0.112	-0.024
-475.289	-172.635	-0.343	-0.011
-474.274	800.000	0.019	-0.066
-473.259	-144.324	0.281	-0.026
-472.245	-200.000	-0.001	0.190
-471.230	-200.000	-0.032	0.327
-470.216	69.703	0.140	0.144
-469.201	380.399	-0.043	0.087
-468.186	18.614	-0.129	-0.102
-467.172	24.544	0.019	0.016
-466.157	-123.188	-0.072	0.011
-465.143	123.054	0.093	-0.116
-464.128	800.000	0.148	-0.467
-463.113	22.290	-0.311	-0.253
-462.099	147.984	0.213	-0.287
-461.084	-200.000	0.008	-0.114
-460.070	-57.653	0.383	0.167
-459.055	43.682	-0.109	0.099
-458.040	-49.423	0.053	-0.025
-457.026	800.000	-0.031	0.106
-456.011	413.159	-0.059	-0.124
-454.997	422.708	-0.107	0.229
-453.982	191.506	-0.085	-0.127
-452.968	-200.000	0.006	-0.323
-451.953	366.733	-0.077	-0.155
-450.938	111.436	-0.218	-0.261
-449.924	-200.000	-0.009	-0.174
-448.909	39.247	-0.193	0.172
-447.895	-88.231	0.078	-0.023
-446.880	131.680	0.075	0.096
-445.865	18.837	-0.189	0.151
-444.851	586.434	-0.037	0.090
-443.836	559.508	-0.062	-0.148
-442.822	72.135	-0.239	-0.247
-441.807	-200.000	0.056	0.279
-440.792	155.832	-0.161	0.220
-439.778	76.248	0.167	0.176
-438.763	-117.550	-0.095	0.017
-437.749	-95.820	-0.227	0.060
-436.734	-200.000	-0.089	0.472
-435.719	-200.000	0.022	0.274
-434.705	800.000	-0.111	-0.310
-433.690	-200.000	-0.069	-0.365
-432.676	269.691	-0.268	0.468
-431.661	-131.997	-0.270	-0.035
-430.646	172.237	-0.099	-0.142
-429.632	28.163	0.128	0.108
-428.617	193.257	-0.043	-0.065
-427.603	380.994	0.050	-0.102
-426.588	-128.364	-0.202	-0.029
-425.573	800.000	-0.058	0.203
-424.559	-15.801	0.061	-0.038
-423.544	-65.576	0.345	-0.138
-422.530	800.000	-0.048	-0.163
-421.515	-200.000	-0.055	-0.343
-420.500	-13.904	0.129	-0.083
-419.486	97.953	0.193	-0.221
-418.471	-67.124	-0.210	0.082
-417.457	-186.420	0.125	-0.002
-416.442	-27.398	-0.185	0.107
-415.428	-19.943	0.278	0.170
-414.413	800.000	0.060	-0.258
-413.398	-200.000	-0.021	-0.388
-412.384	-141.005	0.165	0.017
-411.369	101.271	-0.105	-0.121
-410.355	-81.362	-0.104	0.034
-409.340	-115.136	0.245	0.046
-408.325	1.484	-0.083	0.059
-407.311	-200.000	0.054	-0.341
-406.296	171.325	0.125	-0.177
-405.282	-33.475	0.045	-0.025
-404.267	-84.972	-0.139	0.043
-403.252	172.375	0.174	0.249
-402.238	-61.633	-0.339	0.141
-401.223	-28.571	0.212	-0.121
-400.209	-102.450	-0.409	-0.097
-399.194	18.715	-0.108	0.086
-398.179	-82.248	0.288	-0.093
-397.165	-200.000	0.006	-0.063
-396.150	526.737	-0.047	0.110
-395.136	21.370	-0.109	-0.088
-394.121	-188.434	0.076	-0.001
-393.106	-88.273	-0.179	-0.053
-392.092	604.340	0.159	0.392
-391.077	-200.000	0.066	-0.485
-390.063	-200.000	0.033	-0.149
-389.048	243.135	0.079	-0.131
-388.033	800.000	-0.032	0.140
-387.019	-98.977	-0.412	-0.104
-386.004	-151.716	0.287	0.021
-384.990	471.167	-0.101	-0.225
-383.975	63.490	-0.133	-0.132
-382.960	61.359	0.123	0.121
-381.946	157.443	0.155	0.213
-380.931	800.000	-0.082	0.241
-379.917	-200.000	0.012	-0.241
-378.902	5.258	0.186	-0.136
-377.888	-189.345	0.237	0.003
-376.873	-139.248	0.215	0.023
-375.858	-200.000	0.069	-0.388
-374.844	-102.114	-0.546	-0.130
-373.829	-180.988	-0.204	-0.004
-372.815	800.000	0.017	0.058
-371.800	779.363	-0.035	-0.096
-370.785	-45.926	-0.241	0.118
-369.771	-200.000	-0.033	0.431
-368.756	-35.068	0.081	0.044
-367.742	58.581	0.248	-0.241
-366.727	7.873	0.135	-0.101
-365.712	-200.000	-0.017	0.100
-364.698	-200.000	0.030	0.327
-363.683	328.882	-0.219	0.417
-362.669	-200.000	-0.037	-0.298
-361.654	-170.753	-0.241	-0.008
-360.639	-200.000	0.078	0.349
-359.625	41.953	-0.221	-0.199
-358.610	-52.180	-0.372	0.171
-357.596	-49.433	0.415	0.196
-356.581	-73.273	-0.211	0.076
-355.566	-200.000	0.049	-0.293
-354.552	-9.574	-0.123	0.081
-353.537	-18.782	-0.178	0.110
-352.523	-79.708	-0.210	-0.070
-351.508	243.124	-0.073	0.121
-350.493	-160.965	0.305	0.016
-349.479	-200.000	-0.016	0.095
-348.464	457.757	0.129	-0.284
-347.450	-1.757	-0.344	-0.240
-346.435	800.000	0.005	-0.018
-345.420	800.000	-0.066	-0.280
-344.406	60.912	-0.117	-0.115
-343.391	94.353	-0.203	-0.228
-342.377	-86.872	-0.217	-0.066
-341.362	16.329	-0.350	-0.274
-340.348	-72.538	0.173	0.063
-339.333	40.903	0.080	-0.072
-338.318	80.908	-0.161	-0.172
-337.304	321.828	0.180	-0.339
-336.289	-200.000	0.079	-0.385
-335.275	-200.000	0.005	-0.205
-334.260	-58.225	-0.126	0.054
-333.245	-23.101	0.213	0.127
-332.231	-200.000	0.030	-0.179
-331.216	163.613	0.141	-0.197
-330.202	-186.512	-0.337	-0.005
-329.187	47.966	-0.110	0.102
-328.172	-200.000	-0.019	0.087
-327.158	-135.257	0.202	-0.024
-326.143	-36.724	0.134	0.071
-325.129	-161.225	0.221	0.011
-324.114	-73.254	-0.086	0.031
-323.099	4.013	-0.112	0.081
-322.085	-200.000	0.014	-0.324
-321.070	436.099	0.096	0.208
-320.056	-61.028	-0.310	0.130
-319.041	-54.646	0.199	-0.089
-318.026	567.863	-0.038	-0.091
-317.012	486.134	-0.172	0.387
-315.997	-137.907	-0.335	0.037
-314.983	14.212	-0.141	-0.109
-313.968	1.426	0.078	0.056
-312.953	159.188	-0.154	0.212
-311.939	141.229	-0.064	0.084
-310.924	-200.000	-0.021	-0.163
-309.910	-91.039	0.197	0.056
-308.895	-200.000	-0.032	0.251
-307.880	252.535	0.041	-0.068
-306.866	80.296	0.119	0.127
-305.851	-200.000	0.004	0.282
-304.837	220.857	-0.083	0.132
-303.822	524.597	0.152	-0.354
-302.807	-74.186	0.104	-0.037
-301.793	18.825	-0.102	-0.081
-300.778	396.347	-0.182	-0.375
-299.764	104.097	-0.197	0.229
-298.749	-24.792	0.230	-0.135
-297.735	-200.000	-0.011	0.128
-296.720	-98.605	0.230	-0.058
-295.705	52.545	-0.058	0.054
-294.691	45.147	0.089	-0.081
-293.676	64.820	-0.116	0.116
-292.662	-17.046	-0.032	-0.020
-291.647	-134.672	-0.212	-0.026
-290.632	70.086	-0.102	-0.104
-289.618	-65.246	0.277	0.110
-288.603	-113.172	-0.183	0.036
-287.589	652.478	-0.041	0.104
-286.574	-125.652	0.269	-0.040
-285.559	-62.854	0.067	-0.027
-284.545	30.205	0.109	0.092
-283.530	-195.387	0.062	-0.000
-282.516	95.739	-0.048	0.054
-281.501	-200.000	0.011	0.264
-280.486	-200.000	-0.086	-0.418
-279.472	-76.803	-0.305	0.105
-278.457	190.889	0.209	-0.310
-277.443	-200.000	-0.037	0.166
-276.428	460.315	0.062	0.137
-275.413	-27.804	0.059	-0.034
-274.399	100.032	-0.114	-0.131
-273.384	-200.000	0.018	-0.265
-272.370	-148.217	0.250	0.020
-271.355	-113.969	0.045	0.009
-270.340	-83.302	0.172	-0.054
-269.326	-200.000	-0.033	-0.291
-268.311	-78.010	0.432	0.147
-267.297	451.259	0.072	-0.157
-266.282	70.412	-0.213	-0.218
-265.267	-143.995	-0.168	0.016
-264.253	-61.523	-0.136	-0.057
-263.238	512.754	0.111	0.255
-262.224	800.000	-0.026	0.088
-261.209	27.346	-0.126	-0.105
-260.195	150.978	-0.311	-0.417
-259.180	-4.578	0.060	-0.041
-258.165	15.332	0.135	0.104
-257.151	723.631	0.092	0.242
-256.136	-151.929	0.025	-0.002
-255.122	-200.000	0.025	-0.248
-254.107	-200.000	-0.036	-0.309
-253.092	800.000	0.038	0.127
-252.078	-200.000	-0.001	0.122
-251.063	-200.000	-0.002	-0.066
-250.049	12.931	-0.096	0.073
-249.034	-116.669	0.231	0.042
-248.019	-51.963	-0.159	0.073
-247.005	-200.000	0.014	-0.289
-245.990	-200.000	0.028	0.314
-244.976	146.227	-0.151	-0.200
-243.961	-2.226	0.128	-0.089
-242.946	-64.321	0.345	-0.139
-241.932	594.812	0.137	-0.335
-240.917	387.615	-0.106	-0.217
-239.903	-200.000	-0.050	-0.217
-238.888	194.447	-0.068	-0.102
-237.873	-167.233	0.222	0.009
-236.859	757.106	0.119	0.319
-235.844	765.396	0.152	0.407
-234.830	-200.000	0.056	0.258
-233.815	7.947	0.303	0.224
-232.800	47.145	-0.220	-0.202
-231.786	-178.055	-0.357	-0.008
-230.771	208.192	-0.104	-0.161
-229.757	-100.274	0.140	0.034
-228.742	-200.000	-0.022	0.426
-227.727	-114.857	-0.317	-0.060
-226.713	-200.000	0.000	-0.181
-225.698	-179.918	0.361	-0.008
-224.684	-16.157	0.091	0.057
-223.669	10.152	0.224	-0.168
-222.655	140.851	-0.308	0.401
-221.640	-200.000	-0.001	0.320
-220.625	-76.595	0.300	-0.104
-219.611	800.000	0.080	-0.226
-218.596	-200.000	0.054	0.374
-217.582	-102.539	-0.243	0.057
-216.567	145.071	-0.093	0.122
-215.552	121.451	-0.141	0.173
-214.538	519.017	-0.042	-0.097
-213.523	-109.093	0.137	-0.029
-212.509	800.000	-0.029	0.105
-211.494	95.674	-0.101	-0.114
-210.479	-22.117	-0.285	-0.171
-209.465	-200.000	0.006	0.141
-208.450	-200.000	-0.028	0.487
-207.436	343.193	-0.149	0.287
-206.421	-200.000	-0.048	-0.294
-205.406	264.485	0.109	-0.188
-204.392	586.966	-0.082	-0.198
-203.377	-75.472	-0.252	-0.088
-202.363	287.472	-0.107	-0.191
-201.348	48.707	0.292	-0.270
-200.333	-200.000	-0.032	0.163
-199.319	342.307	0.261	0.502
-198.304	-148.531	0.282	-0.023
-197.290	289.416	0.099	-0.176
-196.275	83.510	0.044	0.047
-195.260	43.222	0.337	-0.303
-194.246	-87.584	0.166	-0.050
-193.231	-124.212	0.123	-0.019
-192.217	-128.468	0.041	-0.006
-191.202	-126.796	0.414	-0.060
-190.187	-183.840	-0.133	0.002
-189.173	-40.758	-0.173	-0.088
-188.158	68.374	0.141	0.142
-187.144	84.678	0.110	-0.118
-186.129	-181.165	-0.227	0.004
-185.114	-150.154	-0.318	0.024
-184.100	8.097	0.033	-0.024
-183.085	619.373	-0.051	-0.126
-182.071	-87.773	0.052	0.015
-181.056	266.431	0.077	-0.132
-180.042	-200.000	-0.046	-0.495
-179.027	-12.629	0.131	0.084
-178.012	-200.000	-0.013	0.350
-176.998	65.987	-0.263	-0.262
-175.983	89.640	0.262	-0.288
-174.969	-23.174	-0.074	-0.044
-173.954	577.726	-0.095	0.230
-172.939	-200.000	-0.052	-0.259
-171.925	1.073	0.242	-0.171
-170.910	14.396	0.234	0.180
-169.896	-200.000	-0.007	0.111
-168.881	-7.944	0.261	0.173
-167.866	97.825	-0.108	-0.122
-166.852	26.570	0.149	0.122
-165.837	-79.595	-0.202	-0.067
-164.823	-200.000	-0.073	-0.709
-163.808	-127.125	0.106	0.015
-162.793	-200.000	0.006	0.144
-161.779	-141.170	0.247	-0.025
-160.764	800.000	-0.122	0.461
-159.750	3.242	0.234	-0.168
-158.735	505.541	0.158	0.359
-157.720	223.895	0.158	0.250
-156.706	-110.196	-0.103	-0.021
-155.691	-200.000	-0.009	0.475
-154.677	174.946	0.131	0.186
-153.662	-200.000	-0.052	0.391
-152.647	-59.340	-0.141	0.060
-151.633	56.036	0.018	0.017
-150.618	-25.410	0.231	0.134
-149.604	-47.249	-0.189	0.091
-148.589	-56.988	0.192	0.083
-147.574	-127.987	-0.358	0.051
-146.560	-200.000	-0.002	0.162
-145.545	-91.330	0.284	-0.080
-144.531	358.682	-0.140	-0.276
-143.516	74.440	-0.127	-0.131
-142.502	152.920	-0.115	0.155
-141.487	-133.708	-0.307	0.038
-140.472	-200.000	-0.026	0.429
-139.458	-3.283	0.134	0.092
-138.443	-200.000	-0.005	0.074
-137.429	140.125	-0.076	0.099
-136.414	135.984	-0.146	-0.186
-135.399	98.163	-0.060	0.068
-134.385	-121.040	0.299	-0.049
-133.370	117.893	-0.166	-0.201
-132.356	258.398	0.179	0.303
-131.341	-30.607	0.086	0.048
-130.326	-133.619	-0.247	0.030
-129.312	-200.000	0.064	0.404
-128.297	-60.547	0.207	-0.087
-127.283	-93.698	-0.299	-0.081
-126.268	-200.000	0.029	-0.170
-125.253	-154.242	-0.235	-0.016
-124.239	-126.915	-0.139	-0.020
-123.224	800.000	-0.027	-0.111
-122.210	-200.000	-0.078	-0.461
