DTS Sentinel unit serial number:	SN413079Multiplexer serial number:	ORYXHardware model number:	OX4-SRSoftware version number:	ORYX F/W v4.00 Oryx Data Collector v3.7.2.0data status	okinstallation	princeton_trtdifferential loss correction	single-endedforward channel	channel 3reverse channel	N/Adate	2019/09/10time	17:06:11forward acquisition time	60.00reverse acquisition time	0.00gamma	496.2192k internal	0.2298k external	0.2298temperature offset calibration	0.9906default loss term (dB/km)	0.3790temperature slope calibration	1.0000multiplexer offset coefficient	1.0000multiplexer slope coefficient	1.0000fibre end	0.00T internal ref (°C)	37.62T ext. ref 1 (°C)	-0.37T ext. ref 2 (°C)	31.94length (m)	temperature (°C)	Stokes	anti-Stokes-747.200	800.000	-0.006	-0.024
-746.185	561.315	-0.123	0.303
-745.171	182.162	-0.165	-0.248
-744.156	66.288	-0.317	0.328
-743.142	-110.736	0.370	-0.078
-742.127	-112.078	-0.046	0.009
-741.112	90.721	0.177	0.202
-740.098	-149.148	0.222	0.018
-739.083	199.915	-0.136	0.213
-738.069	-74.400	-0.219	0.081
-737.054	800.000	-0.046	-0.150
-736.039	217.232	-0.101	0.163
-735.025	-117.565	0.106	0.019
-734.010	43.315	0.039	0.036
-732.996	298.694	0.168	-0.316
-731.981	-49.738	0.567	-0.275
-730.966	800.000	-0.034	-0.110
-729.952	-10.991	-0.261	-0.175
-728.937	45.728	-0.202	0.191
-727.923	-179.308	0.136	-0.003
-726.908	122.551	-0.409	-0.522
-725.894	141.505	0.116	0.157
-724.879	-68.094	0.062	0.025
-723.864	-124.654	0.089	0.014
-722.850	40.647	0.106	0.098
-721.835	-51.801	-0.066	-0.031
-720.821	-150.217	-0.178	-0.014
-719.806	800.000	-0.045	-0.176
-718.791	-176.571	0.046	0.001
-717.777	-119.120	-0.352	-0.063
-716.762	526.329	0.065	0.156
-715.748	390.136	-0.038	-0.079
-714.733	-200.000	0.033	-0.365
-713.718	-200.000	0.031	-0.196
-712.704	358.146	0.050	0.102
-711.689	-200.000	-0.024	-0.111
-710.675	-93.686	-0.417	-0.117
-709.660	800.000	-0.075	-0.273
-708.645	-200.000	0.006	0.097
-707.631	20.850	0.245	0.203
-706.616	112.278	-0.022	-0.027
-705.602	4.406	-0.158	-0.118
-704.587	-100.546	0.238	0.060
-703.572	-111.026	0.167	-0.035
-702.558	-200.000	-0.060	-0.382
-701.543	175.782	0.050	-0.075
-700.529	-143.788	-0.218	0.021
-699.514	-70.379	-0.192	-0.074
-698.499	800.000	0.051	-0.211
-697.485	556.623	0.025	0.060
-696.470	-200.000	0.006	-0.161
-695.456	-19.229	0.097	-0.061
-694.441	144.739	0.099	-0.135
-693.426	82.857	-0.147	0.163
-692.412	32.073	-0.183	0.160
-691.397	800.000	0.042	0.139
-690.383	-29.075	-0.199	-0.116
-689.368	63.471	-0.094	-0.096
-688.354	-200.000	-0.006	-0.040
-687.339	29.541	-0.157	0.136
-686.324	174.338	-0.171	-0.252
-685.310	-168.524	0.075	-0.003
-684.295	800.000	-0.078	0.282
-683.281	-95.386	-0.298	-0.082
-682.266	94.293	-0.092	0.107
-681.251	286.748	0.091	-0.167
-680.237	-200.000	0.036	-0.290
-679.222	124.802	0.244	0.313
-678.208	-91.676	-0.118	-0.034
-677.193	800.000	-0.031	0.119
-676.178	800.000	0.060	-0.244
-675.164	-26.604	0.120	0.072
-674.149	800.000	-0.041	-0.150
-673.135	8.405	0.249	-0.191
-672.120	-118.771	0.067	-0.012
-671.105	111.269	-0.109	0.134
-670.091	-200.000	-0.069	-0.371
-669.076	-200.000	-0.012	0.216
-668.062	-55.344	0.151	0.069
-667.047	155.968	-0.028	0.039
-666.032	354.795	0.045	0.091
-665.018	800.000	-0.037	-0.151
-664.003	-122.272	0.324	-0.054
-662.989	800.000	0.050	-0.202
-661.974	-200.000	0.035	-0.199
-660.959	0.468	-0.142	-0.103
-659.945	407.485	-0.127	0.273
-658.930	-21.997	0.237	0.146
-657.916	800.000	0.050	-0.173
-656.901	-200.000	0.005	-0.061
-655.886	-44.156	0.310	-0.158
-654.872	-124.670	-0.149	0.023
-653.857	516.030	0.144	0.343
-652.843	-120.283	0.143	0.025
-651.828	33.502	-0.094	-0.083
-650.814	-4.151	0.377	0.266
-649.799	182.126	-0.149	0.223
-648.784	48.354	-0.197	0.187
-647.770	334.444	-0.153	-0.301
-646.755	800.000	0.114	0.360
-645.741	-115.770	-0.019	0.004
-644.726	-131.733	0.258	-0.034
-643.711	-59.263	-0.189	0.083
-642.697	186.692	0.049	0.074
-641.682	116.217	-0.090	0.112
-640.668	-200.000	0.021	-0.417
-639.653	-6.872	0.039	0.027
-638.638	-11.948	0.065	0.044
-637.624	305.181	0.143	-0.270
-636.609	-15.129	-0.160	0.104
-635.595	-200.000	-0.030	-0.155
-634.580	-49.741	0.289	-0.139
-633.565	769.184	-0.126	0.348
-632.551	-53.750	-0.120	0.056
-631.536	-5.823	0.131	-0.091
-630.522	135.886	-0.129	-0.171
-629.507	123.799	0.221	-0.282
-628.492	-200.000	-0.003	-0.023
-627.478	-200.000	0.060	-0.334
-626.463	-162.855	0.164	-0.008
-625.449	95.605	-0.155	0.180
-624.434	122.478	0.144	0.183
-623.419	89.960	-0.201	-0.228
-622.405	800.000	0.093	0.273
-621.390	-171.630	-0.145	-0.005
-620.376	14.876	0.116	-0.092
-619.361	-79.203	-0.152	-0.053
-618.346	553.209	0.057	-0.139
-617.332	69.628	-0.169	-0.177
-616.317	800.000	-0.045	0.175
-615.303	-200.000	-0.013	0.297
-614.288	-62.903	0.195	-0.082
-613.273	-177.953	-0.324	-0.008
-612.259	800.000	0.046	-0.193
-611.244	106.651	0.188	-0.227
-610.230	217.278	-0.057	0.093
-609.215	195.292	0.110	0.170
-608.201	-112.241	0.095	-0.019
-607.186	121.615	-0.047	-0.059
-606.171	-200.000	0.014	-0.091
-605.157	-109.434	-0.328	-0.070
-604.142	-140.551	-0.125	-0.013
-603.128	-45.391	-0.081	-0.041
-602.113	-157.069	0.353	0.022
-601.098	250.870	-0.029	-0.049
-600.084	200.429	0.056	0.088
-599.069	-159.477	0.245	0.014
-598.055	-169.430	-0.135	-0.005
-597.040	-102.137	-0.333	0.081
-596.025	-200.000	-0.011	-0.148
-595.011	7.920	0.241	0.184
-593.996	766.651	-0.099	0.273
-592.982	15.147	-0.237	-0.189
-591.967	176.405	0.083	0.122
-590.952	-16.606	-0.107	0.069
-589.938	27.416	0.123	-0.105
-588.923	-114.850	-0.148	-0.029
-587.909	-143.151	0.420	-0.041
-586.894	-106.436	0.385	-0.087
-585.879	800.000	-0.084	0.254
-584.865	155.326	-0.079	0.110
-583.850	73.366	-0.151	0.160
-582.836	237.736	-0.065	0.109
-581.821	-128.672	-0.191	0.027
-580.806	-200.000	0.002	-0.064
-579.792	258.980	0.053	0.092
-578.777	-200.000	0.008	0.418
-577.763	158.920	0.028	0.040
-576.748	427.610	-0.069	0.150
-575.733	-200.000	-0.025	0.123
-574.719	-63.512	-0.300	-0.125
-573.704	44.814	-0.192	0.179
-572.690	90.553	-0.015	-0.017
-571.675	800.000	-0.047	0.136
-570.661	68.935	0.143	-0.148
-569.646	157.967	-0.080	0.112
-568.631	257.780	-0.088	-0.153
-567.617	212.561	0.104	0.166
-566.602	750.504	-0.085	-0.233
-565.588	-67.641	0.080	0.032
-564.573	734.261	-0.015	0.040
-563.558	-17.233	-0.187	0.119
-562.544	-200.000	-0.088	0.398
-561.529	-169.863	0.132	0.005
-560.515	-200.000	0.004	-0.031
-559.500	-152.839	-0.265	0.019
-558.485	-23.252	-0.140	0.085
-557.471	-6.779	0.177	0.122
-556.456	28.229	-0.176	0.150
-555.442	-151.639	-0.308	0.023
-554.427	-19.669	0.121	0.076
-553.412	-179.516	-0.427	-0.009
-552.398	576.810	0.056	0.138
-551.383	223.321	0.308	0.503
-550.369	-200.000	0.011	0.251
-549.354	-17.725	0.264	-0.168
-548.339	800.000	-0.023	-0.085
-547.325	800.000	0.114	0.474
-546.310	-20.773	-0.218	-0.136
-545.296	-88.589	-0.546	-0.165
-544.281	-137.919	0.233	0.026
-543.266	800.000	0.071	-0.206
-542.252	-29.578	-0.242	-0.140
-541.237	562.494	-0.139	0.341
-540.223	-18.050	0.218	-0.138
-539.208	800.000	-0.066	-0.227
-538.193	161.703	-0.067	-0.094
-537.179	374.977	-0.141	-0.291
-536.164	178.486	-0.067	0.100
-535.150	-200.000	0.011	-0.364
-534.135	800.000	0.086	-0.329
-533.121	-2.089	0.037	0.027
-532.106	-173.407	-0.229	0.007
-531.091	800.000	-0.043	0.127
-530.077	-143.372	0.434	0.042
-529.062	40.703	0.176	0.161
-528.048	88.671	0.101	0.113
-527.033	-79.810	0.049	-0.017
-526.018	-6.046	-0.188	-0.130
-525.004	-27.675	0.198	0.116
-523.989	74.070	0.122	0.130
-522.975	-108.663	0.312	-0.068
-521.960	-112.411	-0.169	-0.034
-520.945	183.235	-0.018	0.027
-519.931	800.000	-0.035	0.114
-518.916	-55.129	0.252	0.115
-517.902	91.527	0.114	0.130
-516.887	189.843	0.101	-0.154
-515.872	-112.221	-0.111	-0.023
-514.858	-34.189	0.071	-0.040
-513.843	-200.000	0.050	-0.352
-512.829	636.803	-0.123	-0.317
-511.814	800.000	0.078	0.256
-510.799	-102.490	-0.120	-0.029
-509.785	-143.567	-0.208	0.020
-508.770	800.000	0.065	0.191
-507.756	-54.169	-0.224	0.103
-506.741	-30.926	-0.112	0.064
-505.726	-5.865	0.154	0.106
-504.712	-200.000	0.028	0.240
-503.697	-110.266	-0.228	-0.048
-502.683	555.827	0.032	0.077
-501.668	98.198	0.223	0.260
-500.653	-200.000	-0.061	0.364
-499.639	-15.226	-0.181	-0.117
-498.624	-200.000	-0.028	0.164
-497.610	264.129	0.054	0.095
-496.595	800.000	-0.059	0.243
-495.581	-158.603	-0.178	-0.010
-494.566	-153.477	0.106	0.007
-493.551	668.065	-0.003	-0.007
-492.537	119.584	-0.049	-0.061
-491.522	-198.343	0.080	0.000
-490.508	28.515	-0.119	-0.102
-489.493	145.814	0.227	0.308
-488.478	185.587	-0.046	0.069
-487.464	-200.000	-0.027	0.139
-486.449	-85.310	-0.252	0.079
-485.435	317.824	-0.088	-0.168
-484.420	-106.162	0.297	0.067
-483.405	23.611	0.166	0.138
-482.391	365.892	0.113	-0.229
-481.376	-105.998	0.306	0.070
-480.362	-200.000	0.058	0.409
-479.347	158.205	-0.097	0.136
-478.332	-102.638	-0.587	0.141
-477.318	800.000	0.084	0.271
-476.303	-164.438	-0.300	0.014
-475.289	105.108	-0.197	0.235
-474.274	-85.096	-0.216	-0.068
-473.259	9.433	0.151	0.115
-472.245	-26.409	-0.344	0.204
-471.230	-101.188	0.179	0.044
-470.216	593.120	-0.096	-0.240
-469.201	-103.973	0.386	-0.091
-468.186	-118.425	-0.119	0.021
-467.172	141.087	-0.167	0.223
-466.157	-42.365	-0.008	-0.004
-465.143	800.000	-0.036	-0.110
-464.128	800.000	0.069	0.288
-463.113	-200.000	-0.023	-0.273
-462.099	800.000	-0.049	-0.143
-461.084	52.294	0.261	-0.251
-460.070	-155.860	0.234	0.015
-459.055	-138.281	-0.359	0.040
-458.040	187.268	0.172	-0.260
-457.026	263.057	0.188	-0.330
-456.011	60.929	0.130	0.131
-454.997	-25.486	-0.064	0.038
-453.982	-200.000	0.044	-0.305
-452.968	-200.000	-0.029	0.354
-451.953	488.917	-0.042	0.098
-450.938	9.177	-0.198	-0.151
-449.924	-51.651	0.100	0.047
-448.909	-29.748	-0.198	-0.114
-447.895	-142.483	-0.196	-0.019
-446.880	5.586	0.221	-0.165
-445.865	257.225	-0.094	-0.163
-444.851	-25.686	-0.229	-0.136
-443.836	61.886	0.150	0.151
-442.822	27.433	0.046	-0.039
-441.807	2.356	-0.150	-0.110
-440.792	99.236	0.090	0.104
-439.778	-200.000	0.016	0.080
-438.763	-85.500	0.237	-0.074
-437.749	-200.000	-0.084	-0.000
-436.734	-31.873	0.212	0.120
-435.719	-177.358	-0.115	0.003
-434.705	497.417	0.063	-0.146
-433.690	-200.000	0.007	0.074
-432.676	229.823	-0.167	0.275
-431.661	-200.000	0.044	-0.201
-430.646	-21.261	-0.025	-0.015
-429.632	-200.000	0.029	0.165
-428.617	-200.000	-0.004	-0.060
-427.603	-200.000	-0.001	-0.177
-426.588	-134.827	0.173	0.021
-425.573	141.275	0.126	0.168
-424.559	219.004	-0.066	0.106
-423.544	-19.672	0.045	0.028
-422.530	-37.196	0.177	-0.096
-421.515	335.310	0.217	-0.423
-420.500	-200.000	-0.016	0.187
-419.486	-124.843	0.104	-0.016
-418.471	60.857	0.077	-0.077
-417.457	-106.226	-0.125	-0.028
-416.442	393.559	0.015	-0.031
-415.428	430.499	0.095	-0.207
-414.413	-179.423	-0.102	0.002
-413.398	-70.176	0.060	-0.023
-412.384	-125.199	0.232	-0.036
-411.369	-177.895	0.343	-0.008
-410.355	-97.103	-0.060	0.016
-409.340	-200.000	-0.012	-0.159
-408.325	-200.000	0.057	-0.328
-407.311	-21.066	-0.183	0.113
-406.296	800.000	-0.111	0.368
-405.282	-138.859	0.173	-0.019
-404.267	748.969	-0.045	0.123
-403.252	52.766	-0.196	-0.189
-402.238	245.884	-0.030	-0.051
-401.223	157.426	0.163	-0.227
-400.209	20.953	-0.211	0.172
-399.194	-114.927	0.055	-0.011
-398.179	-200.000	0.004	-0.098
-397.165	-97.882	0.336	-0.087
-396.150	262.231	-0.119	-0.208
-395.136	761.915	-0.071	-0.193
-394.121	12.167	0.082	-0.064
-393.106	76.213	-0.196	-0.208
-392.092	631.255	-0.130	0.331
-391.077	20.525	0.324	0.264
-390.063	-121.098	-0.036	0.006
-389.048	-73.498	-0.270	-0.099
-388.033	-107.128	0.055	-0.012
-387.019	-200.000	-0.047	-0.233
-386.004	-153.490	0.413	0.029
-384.990	-200.000	0.019	0.306
-383.975	424.558	0.062	-0.133
-382.960	53.740	0.147	-0.142
-381.946	16.439	-0.042	-0.033
-380.931	-161.766	0.312	-0.016
-379.917	118.389	0.139	0.173
-378.902	-13.597	0.158	-0.103
-377.888	-200.000	-0.025	-0.440
-376.873	415.493	0.053	0.115
-375.858	236.625	0.247	-0.412
-374.844	120.693	-0.177	-0.221
-373.829	-200.000	-0.013	0.234
-372.815	-120.962	0.237	-0.040
-371.800	29.849	-0.204	0.175
-370.785	-200.000	0.019	-0.236
-369.771	-200.000	0.055	0.298
-368.756	800.000	-0.105	-0.404
-367.742	800.000	-0.041	0.116
-366.727	347.343	0.084	0.166
-365.712	-200.000	-0.059	-0.264
-364.698	-200.000	0.018	-0.379
-363.683	-14.569	0.224	-0.145
-362.669	68.633	-0.253	-0.261
-361.654	-104.852	-0.298	-0.069
-360.639	-200.000	-0.007	-0.064
-359.625	-200.000	-0.012	-0.109
-358.610	149.238	0.035	0.048
-357.596	6.883	-0.079	-0.059
-356.581	-123.992	-0.153	-0.024
-355.566	27.727	-0.098	0.083
-354.552	-200.000	-0.073	0.601
-353.537	-25.293	0.157	-0.093
-352.523	800.000	0.071	-0.250
-351.508	21.244	-0.043	-0.035
-350.493	-200.000	-0.008	0.316
-349.479	-59.146	-0.392	-0.170
-348.464	218.061	0.199	-0.319
-347.450	139.891	0.117	-0.154
-346.435	-190.509	0.229	-0.002
-345.420	800.000	0.191	0.599
-344.406	271.258	0.108	0.192
-343.391	28.827	-0.151	0.128
-342.377	-86.229	-0.529	-0.164
-341.362	83.932	-0.081	-0.089
-340.348	206.646	-0.134	0.210
-339.333	-148.694	-0.178	-0.015
-338.318	332.976	0.120	-0.233
-337.304	-200.000	-0.022	-0.235
-336.289	225.151	-0.211	-0.344
-335.275	214.368	-0.112	0.178
-334.260	-136.036	0.345	-0.041
-333.245	94.187	-0.164	0.187
-332.231	-200.000	-0.016	0.127
-331.216	-44.900	0.202	0.101
-330.202	-200.000	-0.009	0.241
-329.187	-200.000	0.038	-0.176
-328.172	186.758	0.103	-0.154
-327.158	800.000	-0.133	0.421
-326.143	-200.000	0.013	-0.181
-325.129	160.402	0.146	-0.205
-324.114	-137.950	-0.225	-0.025
-323.099	-177.785	-0.275	-0.007
-322.085	8.330	0.125	-0.095
-321.070	518.881	0.070	-0.164
-320.056	-200.000	0.067	0.304
-319.041	293.125	-0.254	-0.466
-318.026	-124.478	-0.364	-0.057
-317.012	582.105	-0.110	0.272
-315.997	-85.030	-0.223	-0.070
-314.983	54.537	0.138	-0.133
-313.968	220.406	-0.200	0.323
-312.953	598.595	-0.069	0.171
-311.939	25.253	-0.131	-0.109
-310.924	230.774	0.107	0.175
-309.910	440.919	0.139	-0.306
-308.895	259.149	-0.183	0.317
-307.880	30.011	0.148	0.127
-306.866	-200.000	0.016	0.282
-305.851	800.000	-0.080	0.240
-304.837	205.306	-0.039	0.061
-303.822	-25.926	-0.172	-0.102
-302.807	9.641	0.131	0.100
-301.793	-140.922	0.146	0.015
-300.778	-57.163	0.256	-0.113
-299.764	144.273	0.121	0.163
-298.749	51.368	-0.215	0.205
-297.735	-141.581	0.197	0.020
-296.720	-51.700	0.351	0.164
-295.705	-22.228	0.107	-0.065
-294.691	4.970	0.219	-0.162
-293.676	800.000	0.103	0.338
-292.662	396.538	0.055	-0.114
-291.647	800.000	0.063	0.183
-290.632	49.224	0.080	0.075
-289.618	-48.733	-0.170	-0.082
-288.603	81.527	-0.171	0.185
-287.589	56.122	-0.314	-0.305
-286.574	235.268	-0.088	0.146
-285.559	-170.512	0.035	0.001
-284.545	180.977	0.045	-0.067
-283.530	-200.000	-0.052	0.233
-282.516	-47.710	-0.175	0.085
-281.501	-200.000	-0.017	0.182
-280.486	-200.000	0.009	-0.141
-279.472	578.098	0.075	0.185
-278.457	-119.627	-0.497	0.086
-277.443	120.789	0.262	-0.327
-276.428	365.930	-0.039	0.079
-275.413	800.000	0.101	-0.355
-274.399	-93.132	-0.313	0.087
-273.384	56.494	0.107	-0.104
-272.370	-45.104	0.375	-0.187
-271.355	-13.123	0.024	0.015
-270.340	-100.082	0.143	0.036
-269.326	-134.640	0.146	0.018
-268.311	450.725	0.106	-0.235
-267.297	641.479	-0.125	-0.319
-266.282	112.277	0.231	-0.280
-265.267	-200.000	0.016	0.088
-264.253	279.936	0.095	-0.171
-263.238	-168.174	-0.093	0.004
-262.224	56.705	0.233	-0.228
-261.209	391.386	0.126	-0.261
-260.195	45.724	-0.098	-0.091
-259.180	-46.354	-0.174	0.086
-258.165	313.765	-0.179	-0.338
-257.151	-183.815	-0.138	-0.002
-256.136	272.211	0.109	0.192
-255.122	25.754	-0.025	0.021
-254.107	648.514	-0.066	-0.169
-253.092	755.185	-0.074	-0.201
-252.078	-174.242	0.358	0.010
-251.063	-200.000	0.066	-0.305
-250.049	-5.178	0.198	-0.136
-249.034	-21.177	-0.193	-0.118
-248.019	539.561	-0.051	-0.121
-247.005	2.229	0.109	-0.079
-245.990	-124.826	0.092	0.014
-244.976	2.475	-0.038	-0.027
-243.961	88.717	-0.208	0.231
-242.946	-67.378	0.241	-0.095
-241.932	69.854	-0.041	-0.043
-240.917	-137.509	-0.119	-0.013
-239.903	63.874	0.306	0.307
-238.888	178.724	-0.032	-0.047
-237.873	-200.000	0.012	-0.310
-236.859	-23.001	0.147	-0.089
-235.844	-200.000	-0.081	-0.472
-234.830	-105.152	0.368	-0.084
-233.815	274.612	0.089	-0.158
-232.800	-3.506	-0.278	0.193
-231.786	672.673	-0.112	0.290
-230.771	-200.000	0.008	-0.108
-229.757	-200.000	0.025	0.171
-228.742	27.242	-0.216	0.182
-227.727	-72.716	0.493	-0.182
-226.713	-200.000	-0.003	-0.337
-225.698	-51.027	0.218	0.102
-224.684	-96.527	-0.133	0.035
-223.669	4.650	0.068	0.050
-222.655	800.000	0.165	0.475
-221.640	-21.236	0.311	0.190
-220.625	98.231	0.140	-0.161
-219.611	195.089	-0.063	0.095
-218.596	81.736	-0.064	0.069
-217.582	359.461	0.112	-0.224
-216.567	-60.802	0.077	-0.033
-215.552	800.000	-0.138	0.409
-214.538	-156.864	-0.282	-0.017
-213.523	-4.390	-0.188	-0.130
-212.509	-200.000	-0.090	-0.456
-211.494	-141.539	0.116	-0.012
-210.479	204.290	0.201	0.312
-209.465	-83.997	-0.326	0.104
-208.450	553.786	-0.040	-0.096
-207.436	-143.872	0.051	0.005
-206.421	-37.229	0.197	0.105
-205.406	298.304	0.074	0.136
-204.392	82.654	0.262	0.285
-203.377	46.458	0.251	-0.232
-202.363	237.797	-0.059	-0.097
-201.348	-118.011	0.098	0.018
-200.333	-200.000	0.015	-0.222
-199.319	-70.218	0.222	0.084
-198.304	-200.000	-0.003	0.067
-197.290	-200.000	-0.012	0.088
-196.275	800.000	-0.075	0.242
-195.260	800.000	-0.070	0.198
-194.246	18.309	-0.144	0.115
-193.231	-13.326	-0.232	-0.151
-192.217	-200.000	-0.023	0.377
-191.202	800.000	0.058	-0.187
-190.187	33.215	-0.081	0.070
-189.173	50.209	0.230	0.217
-188.158	122.976	-0.111	0.139
-187.144	-155.704	0.350	-0.022
-186.129	-31.181	-0.180	-0.101
-185.114	22.418	-0.232	-0.190
-184.100	-183.507	0.166	0.003
-183.085	-200.000	-0.027	0.165
-182.071	-85.427	-0.110	0.034
-181.056	715.954	-0.062	0.163
-180.042	-129.104	-0.277	-0.039
-179.027	557.798	-0.113	-0.273
-178.012	-58.784	-0.089	0.038
-176.998	-200.000	-0.018	0.099
-175.983	-109.807	-0.224	-0.047
-174.969	-200.000	0.018	-0.322
-173.954	800.000	-0.113	-0.372
-172.939	-49.383	-0.285	0.136
-171.925	28.758	0.209	0.177
-170.910	-34.201	0.228	-0.125
-169.896	70.105	-0.161	-0.166
-168.881	-97.297	0.159	0.041
-167.866	116.340	0.058	-0.071
-166.852	-200.000	0.028	-0.228
-165.837	-78.629	0.340	-0.116
-164.823	53.591	-0.126	-0.121
-163.808	231.129	-0.120	-0.196
-162.793	-43.494	0.264	-0.133
-161.779	-200.000	0.045	0.375
-160.764	93.500	-0.079	0.090
-159.750	-143.819	0.180	0.017
-158.735	165.365	0.233	-0.328
-157.720	-126.025	-0.433	0.065
-156.706	214.335	0.064	-0.101
-155.691	36.653	0.162	0.143
-154.677	-148.708	-0.216	-0.017
-153.662	614.974	0.135	-0.338
-152.647	800.000	-0.080	0.294
-151.633	38.659	-0.296	0.264
-150.618	191.424	0.063	-0.095
-149.604	216.561	0.150	0.238
-148.589	-138.418	-0.288	0.032
-147.574	-106.801	-0.200	0.044
-146.560	552.154	0.115	0.276
-145.545	-9.062	0.160	-0.107
-144.531	-59.354	-0.136	-0.058
-143.516	-125.966	-0.387	0.058
-142.502	800.000	0.072	0.204
-141.487	-164.038	0.245	0.011
-140.472	-200.000	-0.016	0.208
-139.458	800.000	-0.055	-0.201
-138.443	-48.847	-0.302	-0.144
-137.429	291.295	0.096	0.174
-136.414	68.746	-0.188	0.193
-135.399	94.369	0.006	-0.007
-134.385	274.676	0.122	0.215
-133.370	-52.477	-0.134	-0.062
-132.356	-120.448	-0.182	0.031
-131.341	-59.925	0.280	0.119
-130.326	189.453	0.270	0.403
-129.312	144.980	-0.064	0.086
-128.297	-72.479	0.176	0.065
-127.283	-200.000	0.049	-0.389
-126.268	-142.966	-0.284	-0.027
-125.253	10.918	0.110	0.084
-124.239	-57.370	0.149	-0.065
-123.224	-200.000	0.013	0.289
-122.210	53.702	0.116	0.111
