DTS Sentinel unit serial number:	SN413079Multiplexer serial number:	ORYXHardware model number:	OX4-SRSoftware version number:	ORYX F/W v4.00 Oryx Data Collector v3.7.2.0data status	okinstallation	princeton_trtdifferential loss correction	single-endedforward channel	channel 3reverse channel	N/Adate	2019/09/11time	15:18:11forward acquisition time	60.00reverse acquisition time	0.00gamma	496.2192k internal	0.2290k external	0.2290temperature offset calibration	0.9981default loss term (dB/km)	0.3790temperature slope calibration	1.0000multiplexer offset coefficient	1.0000multiplexer slope coefficient	1.0000fibre end	0.00T internal ref (°C)	42.94T ext. ref 1 (°C)	0.96T ext. ref 2 (°C)	35.62length (m)	temperature (°C)	Stokes	anti-Stokes-747.200	-200.000	-0.051	-0.229
-746.185	-7.039	0.434	0.302
-745.171	-200.000	-0.011	-0.130
-744.156	800.000	0.107	0.433
-743.142	-91.432	-0.112	0.033
-742.127	-3.602	-0.086	-0.061
-741.112	-21.391	-0.194	0.121
-740.098	-200.000	0.026	0.305
-739.083	-27.752	-0.123	0.073
-738.069	-200.000	-0.004	0.390
-737.054	-95.786	0.169	0.046
-736.039	0.689	-0.247	-0.181
-735.025	-200.000	0.029	0.340
-734.010	-22.721	-0.381	-0.235
-732.996	82.531	0.126	-0.140
-731.981	-132.671	-0.193	-0.025
-730.966	341.457	-0.137	-0.275
-729.952	-93.953	-0.246	-0.069
-728.937	163.424	-0.251	-0.362
-727.923	-200.000	0.038	-0.225
-726.908	-122.199	0.377	-0.063
-725.894	-200.000	0.009	0.096
-724.879	189.777	0.098	-0.151
-723.864	74.501	-0.044	0.048
-722.850	-91.614	0.181	0.053
-721.835	140.082	-0.183	-0.247
-720.821	-106.212	-0.237	-0.054
-719.806	40.194	0.147	0.135
-718.791	57.408	-0.398	-0.398
-717.777	-172.602	0.370	-0.012
-716.762	-79.615	-0.111	0.038
-715.748	-197.599	-0.389	-0.002
-714.733	349.641	-0.092	-0.186
-713.718	800.000	-0.066	-0.225
-712.704	800.000	-0.049	-0.206
-711.689	359.135	0.100	-0.205
-710.675	269.958	0.084	0.151
-709.660	19.932	0.056	-0.046
-708.645	-200.000	-0.012	-0.165
-707.631	-95.921	-0.233	0.063
-706.616	18.814	0.168	0.138
-705.602	-15.500	0.278	-0.182
-704.587	202.398	0.077	-0.122
-703.572	-120.741	0.012	-0.002
-702.558	76.534	0.197	-0.214
-701.543	506.916	-0.106	-0.252
-700.529	-73.353	0.126	-0.047
-699.514	-200.000	0.043	0.247
-698.499	-200.000	-0.006	0.308
-697.485	-44.057	-0.088	-0.045
-696.470	-10.161	-0.088	0.060
-695.456	-116.581	0.387	0.073
-694.441	-200.000	-0.021	-0.261
-693.426	722.796	-0.035	0.096
-692.412	54.205	-0.129	-0.127
-691.397	-74.249	-0.213	-0.079
-690.383	-94.144	-0.091	-0.026
-689.368	-164.383	0.036	0.002
-688.354	-58.625	0.225	-0.100
-687.339	-109.481	-0.147	0.032
-686.324	172.734	0.099	-0.146
-685.310	132.290	0.151	0.198
-684.295	-114.339	0.221	0.043
-683.281	-200.000	-0.007	-0.194
-682.266	-200.000	0.072	-0.412
-681.251	-32.061	-0.044	-0.025
-680.237	-137.630	0.212	0.024
-679.222	19.827	-0.181	0.149
-678.208	106.897	0.108	0.131
-677.193	-200.000	0.008	0.140
-676.178	800.000	-0.084	0.267
-675.164	277.475	0.126	0.229
-674.149	89.336	0.122	-0.139
-673.135	-80.353	-0.098	-0.033
-672.120	2.698	0.127	0.094
-671.105	-200.000	-0.047	-0.364
-670.091	140.982	-0.123	-0.167
-669.076	800.000	0.025	0.103
-668.062	96.007	0.099	-0.115
-667.047	-200.000	-0.068	0.397
-666.032	-133.922	-0.203	-0.026
-665.018	-69.673	-0.224	-0.088
-664.003	-200.000	0.019	-0.216
-662.989	800.000	-0.083	0.359
-661.974	-200.000	0.017	-0.276
-660.959	-200.000	-0.062	-0.398
-659.945	-112.619	0.135	-0.028
-658.930	-172.240	0.197	-0.006
-657.916	-3.822	-0.229	-0.163
-656.901	224.637	-0.116	0.192
-655.886	5.866	-0.390	-0.295
-654.872	-38.909	0.264	-0.142
-653.857	-200.000	-0.161	0.001
-652.843	-200.000	0.069	-0.311
-651.828	17.039	-0.118	0.096
-650.814	99.227	-0.055	0.065
-649.799	5.256	0.329	0.247
-648.784	-200.000	-0.013	-0.196
-647.770	-38.441	-0.061	-0.033
-646.755	-123.747	0.326	0.053
-645.741	125.734	-0.109	-0.140
-644.726	-21.933	-0.360	0.224
-643.711	-40.517	-0.203	-0.108
-642.697	-100.423	0.256	0.065
-641.682	-88.414	-0.273	0.083
-640.668	-85.228	-0.196	-0.063
-639.653	-81.001	0.382	-0.129
-638.638	-148.633	-0.079	-0.007
-637.624	533.267	0.054	0.131
-636.609	154.131	-0.135	-0.188
-635.595	675.163	0.054	0.143
-634.580	-165.170	0.100	-0.005
-633.565	-10.537	-0.077	-0.052
-632.551	-149.573	0.299	0.024
-631.536	-64.162	-0.140	-0.058
-630.522	-121.250	-0.213	-0.036
-629.507	-126.745	0.132	0.020
-628.492	-103.045	0.266	-0.064
-627.478	800.000	0.080	-0.232
-626.463	-122.332	-0.066	-0.011
-625.449	-27.665	0.294	-0.174
-624.434	-161.466	0.123	-0.006
-623.419	-49.429	-0.299	0.145
-622.405	-101.046	-0.302	0.076
-621.390	-200.000	-0.023	-0.127
-620.376	586.538	-0.081	-0.203
-619.361	-125.376	0.372	0.058
-618.346	-195.549	-0.070	-0.001
-617.332	-200.000	-0.020	0.353
-616.317	97.644	0.063	-0.074
-615.303	-200.000	-0.020	0.181
-614.288	278.697	0.185	0.336
-613.273	-200.000	0.031	-0.282
-612.259	792.251	-0.056	-0.156
-611.244	-115.549	0.204	0.039
-610.230	-93.602	-0.331	-0.093
-609.215	635.261	-0.104	0.269
-608.201	112.936	0.099	0.122
-607.186	100.765	-0.083	-0.098
-606.171	-200.000	0.013	-0.233
-605.157	-200.000	0.006	0.136
-604.142	149.097	0.278	0.383
-603.128	-200.000	0.028	-0.280
-602.113	-43.895	0.321	0.165
-601.098	-118.924	0.155	-0.028
-600.084	239.561	0.041	-0.069
-599.069	-101.983	-0.259	0.064
-598.055	-5.677	-0.184	0.129
-597.040	-200.000	-0.028	-0.370
-596.025	-36.882	0.272	-0.149
-595.011	795.054	-0.079	-0.220
-593.996	-3.641	0.116	0.082
-592.982	457.636	-0.089	-0.201
-591.967	62.166	0.066	0.067
-590.952	-200.000	0.009	0.211
-589.938	607.292	0.083	-0.210
-588.923	800.000	0.055	-0.181
-587.909	-12.464	-0.153	-0.102
-586.894	-200.000	-0.019	0.097
-585.879	222.215	0.122	0.200
-584.865	-175.327	0.320	0.009
-583.850	800.000	0.072	0.264
-582.836	-146.116	-0.270	0.024
-581.821	4.303	0.128	-0.095
-580.806	162.174	-0.079	0.112
-579.792	-200.000	-0.062	0.279
-578.777	800.000	-0.055	-0.178
-577.763	137.348	0.048	-0.064
-576.748	-83.934	0.245	0.079
-575.733	67.295	-0.243	-0.252
-574.719	800.000	-0.069	0.236
-573.704	-200.000	0.017	-0.122
-572.690	358.000	-0.138	-0.280
-571.675	33.102	-0.223	0.197
-570.661	-32.635	-0.194	-0.110
-569.646	-200.000	-0.012	-0.119
-568.631	800.000	-0.126	-0.474
-567.617	-112.682	-0.306	-0.062
-566.602	15.360	-0.324	-0.258
-565.588	800.000	-0.117	-0.370
-564.573	191.226	0.173	-0.266
-563.558	104.216	-0.172	-0.206
-562.544	166.438	0.108	-0.155
-561.529	450.878	-0.056	0.126
-560.515	30.409	0.191	0.166
-559.500	-200.000	0.006	-0.202
-558.485	-69.733	-0.077	0.030
-557.471	119.978	0.041	-0.052
-556.456	153.235	-0.150	-0.209
-555.442	800.000	0.055	-0.205
-554.427	-150.693	-0.214	-0.017
-553.412	741.903	0.078	0.213
-552.398	205.255	-0.165	0.260
-551.383	800.000	0.098	0.285
-550.369	434.396	-0.114	0.253
-549.354	242.690	0.111	-0.189
-548.339	-200.000	0.079	-0.359
-547.325	-102.600	-0.268	0.065
-546.310	-30.629	-0.251	-0.145
-545.296	454.650	-0.073	-0.164
-544.281	-66.948	-0.133	0.053
-543.266	47.862	-0.086	0.081
-542.252	-63.828	-0.233	0.097
-541.237	-177.004	-0.288	-0.007
-540.223	-140.090	-0.252	-0.027
-539.208	800.000	0.107	-0.399
-538.193	175.871	0.049	0.072
-537.179	-200.000	0.002	-0.191
-536.164	-200.000	-0.012	0.129
-535.150	-159.012	0.169	-0.010
-534.135	279.722	-0.041	-0.075
-533.121	-24.365	0.098	0.059
-532.106	98.222	-0.099	-0.116
-531.091	-116.033	-0.249	0.047
-530.077	-200.000	-0.015	0.152
-529.062	629.402	0.091	-0.233
-528.048	231.646	0.146	-0.242
-527.033	797.070	0.098	0.275
-526.018	-200.000	0.009	-0.146
-525.004	-104.389	-0.140	0.033
-523.989	-42.628	0.087	0.045
-522.975	-130.547	0.233	-0.032
-521.960	659.158	-0.078	0.203
-520.945	14.943	0.095	0.075
-519.931	-133.472	0.107	0.014
-518.916	-170.422	0.157	-0.006
-517.902	77.403	-0.187	0.202
-516.887	259.222	-0.121	0.212
-515.872	-200.000	-0.068	-0.358
-514.858	118.022	-0.066	-0.083
-513.843	-58.158	-0.312	0.138
-512.829	-34.997	0.079	0.044
-511.814	-200.000	-0.017	-0.087
-510.799	244.268	0.099	-0.169
-509.785	236.814	0.218	-0.366
-508.770	131.003	0.070	0.091
-507.756	-53.662	-0.095	0.044
-506.741	-84.436	-0.288	-0.092
-505.726	79.999	0.128	0.140
-504.712	139.764	-0.155	0.207
-503.697	-50.347	-0.081	0.039
-502.683	-85.325	0.098	-0.031
-501.668	-195.622	0.205	0.002
-500.653	-113.353	0.080	0.016
-499.639	341.381	0.159	-0.315
-498.624	89.925	-0.208	-0.236
-497.610	-47.107	-0.153	0.076
-496.595	182.966	0.149	-0.223
-495.581	-200.000	0.075	-0.473
-494.566	247.109	-0.196	-0.336
-493.551	-29.283	-0.098	-0.057
-492.537	126.810	-0.078	0.101
-491.522	-200.000	0.029	0.268
-490.508	-106.303	0.244	0.055
-489.493	800.000	0.135	0.541
-488.478	257.719	0.185	0.323
-487.464	-23.014	0.096	-0.059
-486.449	-200.000	-0.032	-0.204
-485.435	-112.474	0.079	0.016
-484.420	46.186	-0.195	-0.183
-483.405	230.194	-0.035	-0.059
-482.391	48.869	-0.198	-0.188
-481.376	-37.061	0.253	-0.137
-480.362	-197.479	0.248	-0.002
-479.347	142.047	0.026	-0.034
-478.332	-106.098	-0.209	-0.048
-477.318	800.000	-0.096	0.286
-476.303	800.000	0.105	-0.359
-475.289	172.253	-0.173	-0.252
-474.274	452.719	0.087	-0.196
-473.259	-170.737	-0.241	-0.008
-472.245	-200.000	-0.043	-0.219
-471.230	46.119	0.278	-0.261
-470.216	86.292	-0.184	-0.205
-469.201	-130.190	-0.111	0.015
-468.186	-27.076	0.201	-0.119
-467.172	349.879	0.060	-0.120
-466.157	-200.000	0.025	0.410
-465.143	245.280	-0.064	0.110
-464.128	672.268	0.099	0.261
-463.113	-200.000	-0.028	0.159
-462.099	313.408	-0.177	-0.338
-461.084	-168.739	0.293	-0.011
-460.070	-149.220	0.111	-0.009
-459.055	-8.674	-0.367	0.249
-458.040	56.819	0.122	-0.120
-457.026	52.114	0.067	-0.065
-456.011	800.000	-0.107	0.360
-454.997	-200.000	-0.014	0.329
-453.982	135.172	0.061	-0.081
-452.968	12.080	0.311	-0.242
-451.953	-66.021	-0.013	0.005
-450.938	800.000	-0.084	0.257
-449.924	-15.944	-0.110	0.071
-448.909	800.000	0.057	0.180
-447.895	-200.000	-0.006	0.105
-446.880	-200.000	-0.003	-0.058
-445.865	281.581	0.147	-0.266
-444.851	59.774	0.039	0.039
-443.836	-1.803	-0.112	0.080
-442.822	112.706	0.103	0.126
-441.807	56.280	-0.048	0.047
-440.792	800.000	-0.063	-0.259
-439.778	326.274	-0.153	0.296
-438.763	-71.630	-0.256	-0.097
-437.749	800.000	-0.064	0.244
-436.734	30.586	-0.057	0.049
-435.719	-46.147	0.114	0.057
-434.705	89.683	-0.076	0.086
-433.690	800.000	-0.122	0.444
-432.676	800.000	0.062	0.259
-431.661	-9.425	0.300	0.203
-430.646	-151.780	-0.274	0.020
-429.632	703.467	0.106	-0.283
-428.617	345.583	0.051	-0.102
-427.603	-42.825	0.212	-0.109
-426.588	-200.000	0.089	0.406
-425.573	-139.323	0.197	0.021
-424.559	-165.190	0.077	0.003
-423.544	149.869	-0.037	0.050
-422.530	-18.850	0.050	-0.032
-421.515	-200.000	-0.052	-0.441
-420.500	-136.147	0.155	0.018
-419.486	-200.000	-0.013	0.204
-418.471	-63.251	0.073	0.030
-417.457	114.354	-0.342	0.421
-416.442	-100.190	-0.197	-0.050
-415.428	629.728	-0.128	-0.327
-414.413	-142.645	0.271	-0.027
-413.398	-89.561	-0.210	0.062
-412.384	37.504	0.269	-0.241
-411.369	-200.000	-0.049	0.282
-410.355	55.234	-0.164	0.160
-409.340	-41.506	-0.037	0.019
-408.325	-96.349	0.188	0.050
-407.311	-34.945	0.213	0.117
-406.296	-200.000	0.017	0.094
-405.282	-200.000	-0.012	-0.302
-404.267	24.973	0.060	-0.051
-403.252	358.973	-0.115	0.232
-402.238	-84.291	0.190	0.061
-401.223	-200.000	-0.010	0.244
-400.209	318.095	0.051	0.097
-399.194	800.000	0.060	0.171
-398.179	86.152	-0.235	-0.261
-397.165	-32.804	-0.389	0.219
-396.150	-144.603	-0.158	0.015
-395.136	-163.608	0.197	0.009
-394.121	-200.000	-0.181	-0.001
-393.106	-112.518	-0.247	-0.050
-392.092	164.227	0.163	-0.233
-391.077	-200.000	0.026	0.234
-390.063	-95.304	0.092	0.025
-389.048	75.173	-0.170	0.181
-388.033	-200.000	-0.002	-0.044
-387.019	38.494	-0.235	0.212
-386.004	-120.853	-0.239	0.041
-384.990	-161.416	-0.078	-0.004
-383.975	178.607	0.097	0.143
-382.960	-18.575	0.170	-0.107
-381.946	29.209	-0.142	0.122
-380.931	117.393	0.206	0.256
-379.917	-200.000	-0.002	0.123
-378.902	-108.017	0.108	0.024
-377.888	-200.000	-0.010	-0.099
-376.873	800.000	0.029	-0.096
-375.858	-200.000	0.017	-0.197
-374.844	-200.000	0.016	0.260
-373.829	800.000	0.079	0.261
-372.815	-44.434	-0.168	-0.085
-371.800	14.213	0.170	-0.133
-370.785	30.807	0.085	0.074
-369.771	142.581	0.101	-0.135
-368.756	15.498	-0.023	0.018
-367.742	439.691	-0.083	-0.184
-366.727	-200.000	0.083	-0.379
-365.712	16.593	-0.148	-0.118
-364.698	-200.000	0.009	0.067
-363.683	-99.309	-0.183	-0.047
-362.669	67.542	0.121	-0.125
-361.654	269.413	0.103	-0.182
-360.639	121.126	0.103	-0.129
-359.625	-85.126	0.189	0.060
-358.610	-45.342	0.059	0.030
-357.596	135.051	-0.086	-0.113
-356.581	209.931	-0.076	0.121
-355.566	51.699	0.043	-0.041
-354.552	-19.580	-0.107	-0.067
-353.537	-200.000	-0.032	-0.252
-352.523	86.767	0.244	-0.272
-351.508	-50.797	0.169	0.080
-350.493	-200.000	-0.052	0.376
-349.479	-200.000	0.007	0.186
-348.464	800.000	-0.039	-0.160
-347.450	180.243	-0.203	0.300
-346.435	226.252	-0.117	-0.191
-345.420	9.712	0.165	-0.126
-344.406	800.000	-0.039	0.112
-343.391	70.257	0.363	0.379
-342.377	5.074	-0.153	-0.114
-341.362	-200.000	-0.002	0.232
-340.348	-143.628	-0.089	0.009
-339.333	800.000	-0.104	0.378
-338.318	-92.587	0.253	0.072
-337.304	-200.000	-0.046	-0.237
-336.289	-200.000	0.005	0.032
-335.275	280.170	-0.137	0.247
-334.260	730.173	0.041	-0.112
-333.245	-200.000	-0.014	-0.080
-332.231	138.487	0.038	-0.050
-331.216	54.948	-0.036	0.035
-330.202	-200.000	0.000	-0.251
-329.187	78.316	0.072	0.077
-328.172	-53.148	-0.336	-0.156
-327.158	800.000	-0.061	-0.200
-326.143	-85.115	0.227	0.072
-325.129	20.062	-0.215	0.174
-324.114	164.851	0.163	-0.231
-323.099	226.914	0.205	0.336
-322.085	-72.630	-0.180	-0.067
-321.070	508.102	-0.035	-0.082
-320.056	71.757	0.163	-0.170
-319.041	8.190	0.190	-0.144
-318.026	-200.000	-0.024	-0.461
-317.012	-91.913	0.034	0.010
-315.997	244.381	0.025	-0.042
-314.983	-10.114	0.161	-0.108
-313.968	-71.272	0.230	-0.087
-312.953	594.180	-0.032	-0.081
-311.939	510.960	-0.123	-0.288
-310.924	253.896	0.027	-0.046
-309.910	-57.085	-0.131	-0.058
-308.895	-200.000	0.002	-0.047
-307.880	-111.067	-0.173	0.036
-306.866	-60.248	0.142	0.061
-305.851	-200.000	-0.017	-0.311
-304.837	-96.390	0.315	0.084
-303.822	-87.790	-0.065	-0.020
-302.807	370.914	0.067	-0.137
-301.793	-77.451	0.285	-0.099
-300.778	55.228	-0.138	0.134
-299.764	-130.610	-0.300	0.041
-298.749	-200.000	-0.009	0.082
-297.735	-48.679	-0.153	-0.074
-296.720	12.588	-0.372	-0.289
-295.705	-118.700	0.099	0.018
-294.691	800.000	-0.106	0.447
-293.676	-146.442	0.241	-0.021
-292.662	207.592	0.015	0.024
-291.647	135.562	0.162	0.213
-290.632	147.476	0.257	0.348
-289.618	53.602	0.165	0.159
-288.603	205.939	-0.075	-0.118
-287.589	-63.833	0.106	-0.044
-286.574	-156.345	-0.198	0.012
-285.559	22.895	0.085	0.071
-284.545	-113.957	-0.242	0.047
-283.530	123.622	0.064	-0.081
-282.516	-94.184	0.474	-0.131
-281.501	800.000	-0.041	-0.141
-280.486	-117.085	-0.261	0.048
-279.472	202.519	0.149	0.231
-278.457	-98.658	-0.064	-0.016
-277.443	518.084	0.068	0.160
-276.428	800.000	0.016	-0.063
-275.413	-47.305	0.199	0.098
-274.399	444.725	-0.107	0.237
-273.384	-52.767	0.150	-0.070
-272.370	-73.472	-0.145	-0.053
-271.355	185.875	0.106	-0.158
-270.340	113.218	0.076	-0.093
-269.326	800.000	0.080	0.226
-268.311	-148.373	-0.219	0.018
-267.297	-38.512	0.189	0.100
-266.282	23.675	0.024	-0.020
-265.267	800.000	-0.060	0.262
-264.253	-132.345	0.144	-0.019
-263.238	185.235	0.068	0.102
-262.224	-68.996	0.028	0.011
-261.209	-155.002	-0.142	0.009
-260.195	800.000	-0.017	-0.051
-259.180	-130.994	-0.225	-0.030
-258.165	-200.000	0.020	0.114
-257.151	-200.000	0.050	-0.244
-256.136	800.000	0.139	-0.436
-255.122	-44.601	0.180	0.090
-254.107	-200.000	-0.019	-0.089
-253.092	12.097	-0.371	0.287
-252.078	-200.000	-0.013	0.065
-251.063	248.015	-0.048	0.081
-250.049	800.000	0.085	-0.247
-249.034	-102.095	0.076	-0.018
-248.019	328.573	0.149	-0.288
-247.005	-142.981	0.280	0.027
-245.990	-69.384	0.360	0.139
-244.976	16.045	0.249	0.197
-243.961	-12.867	-0.182	0.119
-242.946	3.719	0.130	0.095
-241.932	-200.000	-0.059	-0.359
-240.917	-27.768	-0.289	0.168
-239.903	-173.428	-0.348	0.011
-238.888	-200.000	0.015	-0.308
-237.873	800.000	-0.020	-0.085
-236.859	-97.769	0.078	-0.020
-235.844	725.263	-0.092	0.247
-234.830	-49.888	-0.194	-0.092
-233.815	697.331	0.122	-0.322
-232.800	-200.000	0.083	-0.485
-231.786	-124.044	0.310	-0.049
-230.771	-200.000	-0.007	-0.078
-229.757	-200.000	-0.060	0.267
-228.742	28.777	-0.127	-0.108
-227.727	10.461	-0.232	-0.177
-226.713	-35.837	-0.354	0.192
-225.698	-37.216	0.227	-0.122
-224.684	-200.000	0.012	0.251
-223.669	230.317	-0.146	-0.239
-222.655	-180.751	0.344	-0.007
-221.640	-112.147	-0.076	0.015
-220.625	-139.566	0.067	0.007
-219.611	6.221	-0.219	-0.163
-218.596	-85.635	-0.377	0.118
-217.582	-107.739	0.233	-0.051
-216.567	198.173	-0.083	-0.128
-215.552	160.057	-0.224	0.313
-214.538	100.307	-0.286	0.333
-213.523	-200.000	-0.001	-0.086
-212.509	-29.123	0.465	0.268
-211.494	-120.023	0.404	0.070
-210.479	-119.977	-0.372	-0.064
-209.465	-105.614	-0.170	-0.039
-208.450	-28.422	0.121	0.070
-207.436	-130.187	0.218	0.030
-206.421	148.350	-0.306	0.415
-205.406	-200.000	-0.017	0.095
-204.392	-21.244	-0.060	-0.037
-203.377	-200.000	0.031	0.512
-202.363	-200.000	0.021	-0.253
-201.348	-200.000	-0.185	-0.000
-200.333	-103.037	0.264	-0.063
-199.319	2.671	0.322	0.234
-198.304	85.127	-0.164	-0.181
-197.290	800.000	0.086	0.292
-196.275	750.222	0.106	0.286
-195.260	-30.941	0.228	0.129
-194.246	426.045	-0.151	0.327
-193.231	1.128	-0.119	0.085
-192.217	-173.315	-0.134	-0.004
-191.202	113.204	0.291	-0.354
-190.187	-200.000	0.011	0.346
-189.173	146.435	0.183	0.246
-188.158	-158.778	-0.330	0.019
-187.144	-48.030	-0.234	0.113
-186.129	-70.001	0.534	0.204
-185.114	-56.970	-0.309	-0.137
-184.100	192.893	-0.096	-0.146
-183.085	572.434	0.044	0.108
-182.071	498.549	-0.062	0.143
-181.056	-126.565	0.116	0.017
-180.042	57.239	-0.211	-0.206
-179.027	-42.661	-0.212	0.108
-178.012	800.000	0.018	-0.056
-176.998	-200.000	-0.016	-0.257
-175.983	164.282	-0.107	0.152
-174.969	308.741	0.021	-0.039
-173.954	5.005	-0.187	-0.138
-172.939	1.908	-0.196	-0.142
-171.925	-93.012	0.281	0.079
-170.910	257.569	0.072	-0.124
-169.896	57.418	0.005	-0.005
-168.881	18.082	0.169	-0.135
-167.866	328.523	0.188	0.362
-166.852	281.144	-0.143	0.256
-165.837	334.874	-0.142	-0.276
-164.823	-114.589	0.272	-0.052
-163.808	800.000	0.101	-0.305
-162.793	-200.000	-0.061	0.293
-161.779	-94.109	-0.209	-0.057
-160.764	628.126	0.056	-0.141
-159.750	62.011	0.076	0.076
-158.735	316.993	-0.147	0.278
-157.720	158.667	0.065	0.090
-156.706	800.000	-0.013	0.046
-155.691	95.208	0.179	0.205
-154.677	-200.000	0.013	0.209
-153.662	119.075	0.157	-0.194
-152.647	62.368	0.049	0.049
-151.633	78.646	-0.080	-0.085
-150.618	-17.162	-0.208	0.131
-149.604	-13.057	-0.088	-0.057
-148.589	-170.907	-0.224	-0.008
-147.574	108.477	0.126	-0.151
-146.560	220.889	0.121	-0.194
-145.545	425.112	-0.091	0.196
-144.531	97.140	0.129	0.148
-143.516	28.030	0.305	-0.257
-142.502	193.528	-0.086	-0.130
-141.487	-200.000	-0.024	-0.248
-140.472	-200.000	-0.026	-0.177
-139.458	800.000	0.186	-0.548
-138.443	-96.758	-0.413	-0.109
-137.429	-125.552	0.169	0.026
-136.414	-164.002	0.216	-0.010
-135.399	800.000	-0.055	-0.239
-134.385	-2.548	0.058	-0.040
-133.370	-131.436	0.142	-0.019
-132.356	12.942	0.166	-0.129
-131.341	-200.000	0.036	-0.175
-130.326	743.678	0.066	0.178
-129.312	136.134	0.065	0.085
-128.297	757.862	-0.060	-0.163
-127.283	-79.585	0.349	0.118
-126.268	26.734	-0.171	-0.143
-125.253	312.054	-0.063	-0.117
-124.239	-200.000	0.046	-0.342
-123.224	520.126	0.092	0.216
-122.210	192.283	-0.054	0.082
