DTS Sentinel unit serial number:	SN413079Multiplexer serial number:	ORYXHardware model number:	OX4-SRSoftware version number:	ORYX F/W v4.00 Oryx Data Collector v3.7.2.0data status	okinstallation	princeton_trtdifferential loss correction	single-endedforward channel	channel 3reverse channel	N/Adate	2019/09/12time	04:46:10forward acquisition time	60.00reverse acquisition time	0.00gamma	496.2192k internal	0.2324k external	0.2324temperature offset calibration	1.0076default loss term (dB/km)	0.3790temperature slope calibration	1.0000multiplexer offset coefficient	1.0000multiplexer slope coefficient	1.0000fibre end	0.00T internal ref (°C)	31.62T ext. ref 1 (°C)	2.19T ext. ref 2 (°C)	27.27length (m)	temperature (°C)	Stokes	anti-Stokes-747.200	-61.612	0.391	0.166
-746.185	800.000	-0.029	0.085
-745.171	-18.981	-0.069	0.043
-744.156	-200.000	0.000	0.422
-743.142	800.000	0.035	0.130
-742.127	104.781	-0.069	0.083
-741.112	-200.000	-0.001	-0.015
-740.098	-200.000	-0.068	0.398
-739.083	-45.718	-0.302	0.151
-738.069	44.834	0.315	0.293
-737.054	29.164	-0.161	-0.138
-736.039	53.723	-0.259	0.251
-735.025	-105.375	0.085	0.020
-734.010	179.731	0.200	-0.296
-732.996	118.813	0.248	-0.310
-731.981	659.506	-0.156	-0.406
-730.966	48.261	-0.168	0.159
-729.952	-200.000	0.018	-0.288
-728.937	-200.000	-0.011	-0.220
-727.923	800.000	-0.143	-0.451
-726.908	-58.616	-0.213	0.093
-725.894	107.786	-0.345	-0.415
-724.879	715.850	-0.034	-0.092
-723.864	-90.160	-0.334	-0.098
-722.850	-87.980	0.108	0.033
-721.835	800.000	0.053	-0.170
-720.821	-112.813	0.148	-0.030
-719.806	800.000	0.122	0.364
-718.791	-17.188	0.225	-0.143
-717.777	123.030	0.142	-0.179
-716.762	-122.733	-0.192	0.031
-715.748	-200.000	0.012	0.139
-714.733	-77.625	0.258	0.090
-713.718	-200.000	0.044	0.224
-712.704	157.026	-0.429	0.597
-711.689	-89.391	0.157	-0.047
-710.675	-111.040	0.281	-0.058
-709.660	800.000	-0.038	-0.139
-708.645	158.200	0.078	-0.109
-707.631	-90.899	0.146	-0.043
-706.616	-109.079	-0.114	0.025
-705.602	97.677	0.112	0.130
-704.587	101.296	0.062	-0.073
-703.572	-93.390	0.080	-0.022
-702.558	503.058	0.189	-0.440
-701.543	-136.498	-0.285	-0.033
-700.529	1.453	-0.105	0.076
-699.514	-200.000	0.011	-0.390
-698.499	248.150	0.119	-0.202
-697.485	-106.127	-0.095	0.022
-696.470	227.592	0.202	0.332
-695.456	176.622	-0.305	-0.446
-694.441	-200.000	-0.015	-0.082
-693.426	-156.905	0.172	-0.011
-692.412	800.000	-0.006	0.018
-691.397	-49.451	-0.168	0.081
-690.383	-102.507	-0.403	-0.097
-689.368	-200.000	-0.078	0.440
-688.354	-152.235	-0.264	-0.019
-687.339	70.190	0.250	0.260
-686.324	-200.000	0.000	-0.074
-685.310	93.000	-0.053	0.060
-684.295	-200.000	-0.017	-0.274
-683.281	-185.391	-0.157	0.002
-682.266	-48.208	0.059	-0.029
-681.251	-49.286	-0.249	-0.120
-680.237	-22.571	0.094	-0.057
-679.222	-114.210	-0.317	-0.062
-678.208	92.728	0.086	-0.098
-677.193	-68.106	-0.104	0.041
-676.178	391.782	-0.185	-0.386
-675.164	459.348	0.092	0.207
-674.149	-200.000	-0.013	-0.283
-673.135	-68.246	0.248	-0.097
-672.120	6.539	-0.241	0.180
-671.105	287.560	0.121	0.219
-670.091	-171.901	-0.251	-0.008
-669.076	1.870	-0.259	0.188
-668.062	-153.048	-0.229	0.016
-667.047	-161.798	-0.118	-0.006
-666.032	-120.351	-0.227	0.039
-665.018	-34.011	-0.228	-0.126
-664.003	-200.000	0.013	0.157
-662.989	-200.000	0.021	0.105
-661.974	12.954	-0.127	0.099
-660.959	-200.000	0.025	0.151
-659.945	-200.000	-0.040	-0.212
-658.930	149.147	-0.146	0.199
-657.916	16.681	-0.143	0.114
-656.901	-178.686	0.105	0.002
-655.886	-200.000	0.044	0.299
-654.872	512.052	-0.046	0.109
-653.857	-47.570	-0.165	-0.080
-652.843	-200.000	0.077	-0.357
-651.828	444.197	0.063	-0.139
-650.814	-200.000	0.024	-0.163
-649.799	-92.846	-0.426	0.120
-648.784	-200.000	-0.032	0.370
-647.770	-112.117	0.246	-0.050
-646.755	-134.389	0.249	0.031
-645.741	-200.000	0.029	-0.169
-644.726	408.110	-0.204	0.434
-643.711	-11.382	-0.214	-0.141
-642.697	-10.451	0.233	-0.155
-641.682	35.165	0.076	0.067
-640.668	-200.000	0.007	0.244
-639.653	-66.474	-0.139	0.056
-638.638	26.221	0.049	-0.041
-637.624	-57.849	-0.318	-0.140
-636.609	-136.713	0.330	0.038
-635.595	39.191	0.118	-0.106
-634.580	94.064	0.109	-0.124
-633.565	268.487	-0.089	-0.157
-632.551	-115.347	-0.149	-0.028
-631.536	-200.000	-0.042	-0.287
-630.522	-200.000	0.013	0.154
-629.507	106.404	-0.123	-0.147
-628.492	-200.000	0.049	0.244
-627.478	800.000	-0.086	0.293
-626.463	-118.330	0.123	-0.022
-625.449	-200.000	0.029	0.186
-624.434	-113.813	-0.289	-0.056
-623.419	-131.250	-0.214	0.029
-622.405	210.631	-0.159	-0.252
-621.390	217.554	-0.040	-0.065
-620.376	134.335	-0.122	0.158
-619.361	-200.000	-0.103	-0.480
-618.346	-200.000	0.046	-0.297
-617.332	-106.746	0.501	0.112
-616.317	181.440	-0.271	-0.401
-615.303	-61.906	-0.192	0.081
-614.288	800.000	0.040	-0.151
-613.273	-200.000	0.020	-0.335
-612.259	-200.000	-0.009	-0.181
-611.244	-200.000	-0.019	0.255
-610.230	61.743	0.080	-0.080
-609.215	248.552	0.069	0.117
-608.201	-177.297	0.283	0.007
-607.186	110.644	-0.178	0.215
-606.171	800.000	-0.027	-0.085
-605.157	94.756	-0.093	-0.106
-604.142	63.149	-0.049	0.049
-603.128	137.970	0.276	-0.363
-602.113	18.366	-0.007	-0.005
-601.098	-31.457	0.098	0.055
-600.084	-76.899	-0.086	0.030
-599.069	255.565	-0.053	0.091
-598.055	800.000	0.024	-0.073
-597.040	742.524	-0.102	-0.276
-596.025	-9.879	-0.202	-0.135
-595.011	-71.490	0.555	-0.208
-593.996	39.766	-0.130	-0.117
-592.982	-84.936	0.034	-0.011
-591.967	-10.688	-0.354	0.235
-590.952	216.977	0.116	-0.186
-589.938	-83.590	0.334	0.107
-588.923	-200.000	-0.008	-0.106
-587.909	46.803	-0.182	0.170
-586.894	-107.512	0.091	-0.020
-585.879	257.644	0.077	0.134
-584.865	-38.045	0.279	-0.149
-583.850	-132.873	-0.308	0.039
-582.836	-127.855	0.116	-0.017
-581.821	130.045	-0.183	-0.235
-580.806	67.157	0.150	0.154
-579.792	5.428	0.231	-0.171
-578.777	439.888	0.049	-0.108
-577.763	-73.838	0.289	0.105
-576.748	-28.341	0.167	0.096
-575.733	-200.000	-0.021	0.305
-574.719	211.093	-0.031	-0.049
-573.704	-115.641	-0.102	0.019
-572.690	262.503	-0.036	0.063
-571.675	-2.812	-0.283	-0.198
-570.661	-150.005	-0.286	-0.022
-569.646	-132.328	0.095	-0.012
-568.631	-23.427	-0.232	-0.139
-567.617	11.597	-0.356	-0.274
-566.602	800.000	-0.086	-0.256
-565.588	-160.190	0.230	0.013
-564.573	30.858	-0.252	0.217
-563.558	800.000	0.079	-0.247
-562.544	800.000	0.071	0.308
-561.529	221.081	-0.069	0.111
-560.515	75.061	-0.013	-0.014
-559.500	345.845	-0.072	0.141
-558.485	19.282	0.027	0.022
-557.471	66.145	-0.036	-0.037
-556.456	800.000	-0.092	0.288
-555.442	132.530	-0.132	0.170
-554.427	184.462	0.186	0.276
-553.412	323.969	-0.016	-0.030
-552.398	-86.758	-0.095	0.029
-551.383	59.331	0.069	-0.068
-550.369	-163.679	-0.407	0.019
-549.354	-37.722	0.546	-0.291
-548.339	23.099	-0.147	0.121
-547.325	-109.106	-0.170	0.036
-546.310	-200.000	0.020	0.169
-545.296	-21.615	-0.144	-0.088
-544.281	-105.956	0.239	0.054
-543.266	-200.000	0.022	0.138
-542.252	-79.955	-0.211	-0.071
-541.237	253.489	0.084	-0.144
-540.223	282.273	-0.095	-0.171
-539.208	-48.874	0.095	-0.046
-538.193	54.298	0.256	-0.247
-537.179	800.000	-0.032	0.089
-536.164	494.739	-0.059	0.135
-535.150	182.276	-0.104	-0.154
-534.135	171.577	-0.105	-0.152
-533.121	-86.089	-0.224	-0.069
-532.106	-97.426	0.075	0.019
-531.091	-200.000	-0.008	-0.055
-530.077	-92.485	-0.294	-0.083
-529.062	-90.735	-0.239	0.069
-528.048	-49.728	0.056	-0.027
-527.033	416.930	-0.072	-0.154
-526.018	800.000	0.135	-0.402
-525.004	421.185	0.030	0.064
-523.989	800.000	-0.026	-0.113
-522.975	474.385	-0.141	0.319
-521.960	-48.924	-0.141	0.068
-520.945	-200.000	0.025	0.149
-519.931	6.004	-0.210	-0.156
-518.916	-200.000	-0.014	-0.148
-517.902	-200.000	-0.049	-0.349
-516.887	-200.000	-0.005	-0.209
-515.872	190.404	-0.124	-0.187
-514.858	62.578	-0.133	0.133
-513.843	-79.763	-0.127	-0.043
-512.829	-120.659	0.123	-0.021
-511.814	384.006	0.083	-0.172
-510.799	-200.000	-0.044	0.211
-509.785	-132.066	-0.476	-0.062
-508.770	-165.362	0.053	-0.002
-507.756	-200.000	-0.004	0.155
-506.741	120.798	-0.127	-0.158
-505.726	176.208	-0.023	-0.033
-504.712	138.158	-0.224	-0.294
-503.697	-96.165	0.082	0.022
-502.683	56.288	0.263	0.256
-501.668	-21.664	-0.098	-0.059
-500.653	49.786	-0.178	-0.168
-499.639	-200.000	0.008	-0.099
-498.624	-73.201	0.463	0.170
-497.610	-98.189	0.213	-0.055
-496.595	-200.000	0.012	-0.111
-495.581	-68.947	-0.267	-0.103
-494.566	-41.662	0.173	-0.089
-493.551	487.726	0.136	0.310
-492.537	-135.798	-0.245	0.029
-491.522	189.156	0.200	-0.299
-490.508	9.459	-0.240	0.181
-489.493	800.000	-0.086	0.241
-488.478	17.108	0.277	-0.220
-487.464	48.468	-0.181	-0.170
-486.449	32.745	-0.223	0.193
-485.435	41.531	-0.131	-0.118
-484.420	-43.009	-0.009	-0.004
-483.405	48.549	-0.030	-0.028
-482.391	800.000	-0.018	-0.056
-481.376	-115.323	0.038	0.007
-480.362	-62.351	0.197	0.082
-479.347	-200.000	0.030	-0.279
-478.332	-151.291	-0.274	-0.020
-477.318	-200.000	-0.012	-0.125
-476.303	-37.589	0.243	-0.129
-475.289	222.568	0.203	0.326
-474.274	54.984	-0.207	0.199
-473.259	-200.000	0.004	-0.134
-472.245	-200.000	0.016	0.102
-471.230	-56.123	0.184	0.082
-470.216	-120.256	-0.227	0.039
-469.201	800.000	0.054	-0.196
-468.186	-108.222	0.364	-0.079
-467.172	406.070	0.046	0.098
-466.157	-132.146	-0.363	0.047
-465.143	-200.000	-0.015	-0.086
-464.128	-45.622	0.246	-0.122
-463.113	800.000	0.041	0.146
-462.099	306.067	-0.187	0.347
-461.084	-114.920	0.103	0.020
-460.070	-65.024	0.323	0.130
-459.055	154.876	-0.090	-0.124
-458.040	-149.623	0.170	0.013
-457.026	740.044	0.029	0.078
-456.011	-153.138	0.331	0.023
-454.997	106.958	-0.203	0.240
-453.982	-200.000	0.015	-0.084
-452.968	-37.736	-0.128	0.068
-451.953	117.250	-0.049	-0.060
-450.938	-167.979	-0.393	-0.015
-449.924	73.551	0.174	-0.182
-448.909	230.387	-0.127	-0.207
-447.895	-200.000	-0.054	0.239
-446.880	48.856	-0.268	-0.251
-445.865	569.727	-0.102	0.247
-444.851	283.211	0.035	-0.063
-443.836	-200.000	0.005	0.061
-442.822	19.109	0.272	0.218
-441.807	166.415	0.204	0.288
-440.792	-156.349	-0.187	-0.012
-439.778	164.373	-0.323	0.454
-438.763	-79.333	0.217	0.073
-437.749	85.889	-0.354	-0.388
-436.734	-34.890	0.213	-0.116
-435.719	358.895	-0.032	0.063
-434.705	41.845	0.132	0.119
-433.690	-86.672	0.141	-0.043
-432.676	-200.000	0.029	-0.167
-431.661	164.404	0.114	0.161
-430.646	349.275	-0.137	-0.269
-429.632	49.426	0.186	0.174
-428.617	-35.310	-0.109	0.059
-427.603	-200.000	0.020	-0.148
-426.588	330.120	0.095	0.181
-425.573	800.000	-0.062	0.238
-424.559	536.826	-0.057	-0.135
-423.544	786.969	0.062	0.169
-422.530	85.594	0.188	0.206
-421.515	185.223	-0.155	0.229
-420.500	64.898	-0.207	-0.208
-419.486	-200.000	0.029	-0.141
-418.471	800.000	0.081	0.285
-417.457	-200.000	0.011	-0.344
-416.442	-200.000	0.001	0.094
-415.428	159.570	-0.107	-0.149
-414.413	-21.471	-0.352	-0.214
-413.398	-30.408	0.069	0.039
-412.384	-200.000	-0.065	0.287
-411.369	317.230	-0.161	0.302
-410.355	-200.000	-0.048	0.232
-409.340	-117.454	-0.353	-0.064
-408.325	-168.717	0.147	0.006
-407.311	-200.000	-0.020	0.179
-406.296	-118.104	-0.297	0.053
-405.282	-200.000	-0.019	0.105
-404.267	-200.000	-0.037	0.193
-403.252	800.000	-0.111	0.315
-402.238	-200.000	-0.023	0.226
-401.223	491.655	-0.112	-0.256
-400.209	-132.504	0.552	-0.071
-399.194	19.268	-0.197	0.158
-398.179	31.499	0.163	-0.139
-397.165	-157.526	-0.324	-0.019
-396.150	75.029	-0.093	-0.098
-395.136	-200.000	-0.034	-0.529
-394.121	165.043	-0.094	0.132
-393.106	-122.738	-0.306	0.049
-392.092	696.772	-0.039	-0.102
-391.077	-74.607	0.191	0.068
-390.063	-200.000	-0.057	0.289
-389.048	137.520	0.219	-0.285
-388.033	358.933	0.190	-0.378
-387.019	-200.000	0.007	0.286
-386.004	800.000	0.026	-0.110
-384.990	-200.000	0.024	0.158
-383.975	-81.269	-0.035	0.012
-382.960	228.291	0.310	0.502
-381.946	-150.912	0.196	0.015
-380.931	18.661	0.141	-0.113
-379.917	-38.480	0.236	-0.124
-378.902	50.324	0.195	0.183
-377.888	-200.000	0.004	0.111
-376.873	-101.001	-0.145	0.036
-375.858	-51.854	-0.303	0.140
-374.844	-106.829	0.256	0.056
-373.829	-55.068	0.358	0.160
-372.815	-106.250	0.051	0.011
-371.800	-67.511	-0.164	-0.064
-370.785	-162.683	0.351	0.017
-369.771	104.444	0.166	0.195
-368.756	-77.174	0.084	0.029
-367.742	19.733	-0.047	0.038
-366.727	-102.061	0.106	-0.025
-365.712	225.870	-0.099	0.160
-364.698	800.000	-0.039	-0.133
-363.683	-200.000	-0.000	-0.115
-362.669	-11.179	-0.157	-0.103
-361.654	-71.670	0.109	0.041
-360.639	-153.057	-0.200	0.014
-359.625	67.116	0.216	0.219
-358.610	-101.750	0.418	-0.101
-357.596	423.379	0.081	0.173
-356.581	-116.339	-0.404	0.074
-355.566	94.272	0.113	0.127
-354.552	-16.429	0.021	0.013
-353.537	-64.838	0.215	0.087
-352.523	-200.000	-0.083	-0.405
-351.508	-21.290	0.233	-0.141
-350.493	281.775	0.152	-0.270
-349.479	-15.995	0.424	-0.268
-348.464	17.880	0.109	0.086
-347.450	800.000	-0.010	0.037
-346.435	571.417	0.069	-0.166
-345.420	-200.000	0.047	0.267
-344.406	-107.937	-0.156	0.034
-343.391	137.797	-0.101	0.132
-342.377	800.000	-0.041	0.153
-341.362	-134.824	0.155	-0.019
-340.348	800.000	0.052	0.155
-339.333	-51.790	0.230	0.107
-338.318	491.750	-0.069	0.156
-337.304	59.667	-0.098	-0.096
-336.289	-200.000	-0.000	0.033
-335.275	-123.801	0.110	0.017
-334.260	-5.568	-0.068	0.046
-333.245	154.078	0.108	-0.148
-332.231	170.741	-0.116	-0.165
-331.216	490.257	0.045	0.102
-330.202	-157.771	0.139	0.008
-329.187	-126.608	-0.164	0.024
-328.172	-14.267	-0.169	0.108
-327.158	-47.099	0.453	-0.219
-326.143	-47.544	-0.254	-0.123
-325.129	138.378	-0.135	0.176
-324.114	-88.680	-0.208	0.061
-323.099	-200.000	-0.047	0.307
-322.085	-137.975	0.005	-0.001
-321.070	-114.695	0.148	-0.028
-320.056	-200.000	-0.024	-0.230
-319.041	22.712	0.319	0.259
-318.026	152.816	0.176	0.239
-317.012	-200.000	0.012	0.385
-315.997	-52.083	-0.349	0.161
-314.983	5.633	0.165	-0.121
-313.968	-200.000	-0.007	-0.373
-312.953	800.000	0.094	-0.321
-311.939	-22.056	0.202	0.122
-310.924	-200.000	0.073	0.357
-309.910	-19.868	0.273	0.168
-308.895	642.122	-0.064	-0.163
-307.880	-161.219	-0.323	-0.017
-306.866	-182.531	0.231	0.004
-305.851	800.000	0.056	0.155
-304.837	-200.000	-0.002	-0.042
-303.822	-89.342	-0.109	0.032
-302.807	208.053	0.137	-0.212
-301.793	-58.494	0.415	-0.179
-300.778	116.120	0.166	-0.201
-299.764	57.137	0.115	-0.111
-298.749	800.000	-0.067	-0.200
-297.735	-200.000	-0.007	-0.266
-296.720	494.565	0.071	0.163
-295.705	-14.334	0.325	0.208
-294.691	-200.000	0.023	-0.316
-293.676	-23.701	0.135	-0.080
-292.662	-200.000	0.006	0.234
-291.647	-87.597	-0.346	-0.104
-290.632	-11.498	0.165	-0.108
-289.618	-179.359	-0.282	-0.006
-288.603	-200.000	0.002	-0.065
-287.589	-200.000	0.077	-0.418
-286.574	229.167	0.048	0.077
-285.559	-177.534	-0.009	0.000
-284.545	-46.131	0.166	-0.081
-283.530	-128.942	-0.102	0.014
-282.516	-200.000	-0.036	0.368
-281.501	800.000	-0.124	0.418
-280.486	226.395	-0.047	0.076
-279.472	237.766	0.112	0.185
-278.457	-5.044	0.180	0.123
-277.443	-200.000	-0.001	0.296
-276.428	-84.765	-0.052	0.016
-275.413	-77.841	-0.112	-0.038
-274.399	37.473	-0.112	-0.098
-273.384	-200.000	0.019	0.408
-272.370	357.008	0.058	0.114
-271.355	-43.794	0.186	-0.093
-270.340	-57.186	-0.084	0.037
-269.326	104.470	0.166	-0.194
-268.311	-51.687	0.232	-0.107
-267.297	42.567	-0.104	-0.094
-266.282	-104.355	-0.316	0.073
-265.267	-200.000	-0.001	-0.062
-264.253	-12.118	0.230	0.149
-263.238	-200.000	0.013	0.059
-262.224	-102.799	-0.207	-0.049
-261.209	50.188	0.090	0.084
-260.195	-50.870	-0.321	0.150
-259.180	69.636	-0.052	-0.053
-258.165	252.274	0.054	0.091
-257.151	-27.434	-0.319	-0.184
-256.136	62.623	-0.108	0.107
-255.122	-133.453	-0.078	-0.010
-254.107	-200.000	0.010	-0.194
-253.092	134.741	0.117	0.151
-252.078	375.914	0.158	0.320
-251.063	32.786	0.359	0.308
-250.049	800.000	0.052	0.159
-249.034	28.496	0.222	-0.186
-248.019	39.535	-0.295	-0.262
-247.005	-152.377	-0.272	-0.019
-245.990	-3.066	0.099	0.068
-244.976	49.796	-0.227	0.212
-243.961	192.906	-0.127	0.190
-242.946	-146.307	-0.026	0.002
-241.932	800.000	-0.021	0.078
-240.917	-133.272	-0.055	0.007
-239.903	-200.000	0.018	0.176
-238.888	800.000	-0.104	-0.308
-237.873	-73.183	-0.270	-0.098
-236.859	524.281	0.038	-0.088
-235.844	-200.000	0.003	-0.255
-234.830	158.964	0.032	0.043
-233.815	-55.248	-0.161	0.072
-232.800	127.553	0.127	-0.160
-231.786	-200.000	0.001	0.139
-230.771	-48.344	0.184	-0.088
-229.757	-115.510	0.085	0.016
-228.742	-153.953	-0.342	0.023
-227.727	-101.251	-0.234	-0.057
-226.713	-101.134	-0.028	0.007
-225.698	-79.584	-0.018	-0.006
-224.684	-119.733	0.194	0.033
-223.669	800.000	0.053	0.194
-222.655	761.184	-0.033	-0.087
-221.640	45.528	0.178	-0.162
-220.625	60.279	-0.178	-0.174
-219.611	800.000	-0.086	0.270
-218.596	800.000	0.046	0.163
-217.582	-151.362	0.293	0.022
-216.567	86.931	0.257	0.280
-215.552	-115.614	0.100	-0.019
-214.538	-61.759	0.238	0.099
-213.523	-66.609	-0.244	0.096
-212.509	-107.715	-0.436	-0.094
-211.494	14.864	-0.097	0.075
-210.479	800.000	-0.128	0.458
-209.465	288.878	0.101	-0.181
-208.450	-79.692	0.179	0.060
-207.436	-133.466	0.324	0.040
-206.421	-200.000	-0.007	-0.172
-205.406	420.769	-0.173	0.366
-204.392	86.270	-0.202	0.220
-203.377	52.396	-0.338	0.318
-202.363	23.712	-0.221	-0.180
-201.348	-118.179	0.172	-0.030
-200.333	-33.677	0.198	0.108
-199.319	548.016	0.033	-0.078
-198.304	-200.000	-0.032	-0.175
-197.290	306.596	-0.110	-0.202
-196.275	-200.000	0.026	-0.263
-195.260	-44.852	-0.044	-0.022
-194.246	103.531	0.383	-0.444
-193.231	-200.000	-0.040	0.230
-192.217	17.954	-0.257	-0.202
-191.202	-200.000	-0.020	0.110
-190.187	281.634	-0.089	-0.158
-189.173	-19.166	0.188	0.115
-188.158	-123.909	0.316	-0.049
-187.144	-1.318	-0.214	-0.149
-186.129	-200.000	0.017	-0.253
-185.114	-46.932	0.054	0.026
-184.100	-200.000	0.051	-0.362
-183.085	-49.126	-0.149	-0.070
-182.071	224.704	-0.282	-0.451
-181.056	800.000	-0.049	-0.199
-180.042	497.079	0.086	0.196
-179.027	101.345	-0.153	-0.176
-178.012	300.441	0.182	0.331
-176.998	-141.754	-0.240	0.024
-175.983	144.858	-0.076	0.100
-174.969	606.174	-0.046	0.113
-173.954	8.985	0.357	-0.266
-172.939	-98.442	0.222	-0.056
-171.925	-148.704	0.271	0.022
-170.910	-200.000	0.054	-0.489
-169.896	800.000	-0.036	-0.112
-168.881	-44.670	0.275	-0.136
-167.866	800.000	0.034	0.122
-166.852	-75.484	0.207	-0.073
-165.837	-55.871	0.302	-0.133
-164.823	8.323	-0.215	0.159
-163.808	-155.961	-0.080	-0.005
-162.793	16.052	-0.148	0.115
-161.779	-30.481	0.358	0.200
-160.764	30.632	-0.257	-0.217
-159.750	86.096	0.031	-0.034
-158.735	125.418	0.084	-0.104
-157.720	-156.807	0.294	-0.018
-156.706	-94.926	0.033	0.009
-155.691	-143.109	-0.088	0.008
-154.677	-147.848	-0.240	-0.020
-153.662	-18.683	-0.154	-0.095
-152.647	92.081	-0.248	0.276
-151.633	81.351	0.099	-0.105
-150.618	-128.056	0.059	-0.008
-149.604	-58.823	0.112	-0.048
-148.589	208.331	-0.063	0.098
-147.574	-41.903	-0.261	0.132
-146.560	-109.959	-0.038	0.008
-145.545	436.786	-0.093	-0.200
-144.531	800.000	0.094	-0.372
-143.516	-93.184	0.134	-0.037
-142.502	-59.395	0.067	0.028
-141.487	-200.000	-0.015	0.351
-140.472	206.095	-0.237	0.363
-139.458	560.265	-0.102	-0.242
-138.443	500.502	0.145	-0.330
-137.429	-129.535	0.588	-0.080
-136.414	-131.731	0.210	0.027
-135.399	-124.143	0.352	0.054
-134.385	20.085	-0.134	-0.107
-133.370	-200.000	-0.024	-0.218
-132.356	178.002	0.169	0.243
-131.341	-200.000	0.013	0.087
-130.326	73.870	-0.171	0.177
-129.312	20.783	0.458	-0.366
-128.297	25.864	0.093	0.076
-127.283	191.821	-0.063	0.093
-126.268	-200.000	0.026	-0.195
-125.253	-133.871	-0.279	0.034
-124.239	-76.595	-0.343	0.119
-123.224	-123.910	-0.211	0.033
-122.210	-82.648	0.197	-0.063
