DTS Sentinel unit serial number:	SN413079Multiplexer serial number:	ORYXHardware model number:	OX4-SRSoftware version number:	ORYX F/W v4.00 Oryx Data Collector v3.7.2.0data status	okinstallation	princeton_trtdifferential loss correction	single-endedforward channel	channel 3reverse channel	N/Adate	2019/09/11time	04:38:11forward acquisition time	60.00reverse acquisition time	0.00gamma	496.2192k internal	0.2330k external	0.2330temperature offset calibration	0.9906default loss term (dB/km)	0.3790temperature slope calibration	1.0000multiplexer offset coefficient	1.0000multiplexer slope coefficient	1.0000fibre end	0.00T internal ref (°C)	29.53T ext. ref 1 (°C)	-0.29T ext. ref 2 (°C)	23.26length (m)	temperature (°C)	Stokes	anti-Stokes-747.200	-82.749	0.084	-0.027
-746.185	110.271	0.093	-0.112
-745.171	800.000	0.107	0.453
-744.156	-43.514	-0.271	0.138
-743.142	-156.128	0.268	0.017
-742.127	-187.263	0.172	0.002
-741.112	50.792	0.212	0.202
-740.098	-125.590	-0.341	0.052
-739.083	-200.000	-0.017	-0.262
-738.069	779.558	0.087	0.239
-737.054	-200.000	0.003	0.174
-736.039	-4.364	-0.114	0.079
-735.025	-155.683	0.372	0.024
-734.010	-112.963	-0.175	0.035
-732.996	-159.136	-0.591	-0.034
-731.981	14.263	-0.302	-0.237
-730.966	-53.221	-0.140	-0.065
-729.952	-131.758	0.119	0.016
-728.937	192.859	-0.132	0.200
-727.923	78.617	-0.128	0.138
-726.908	43.591	-0.091	-0.084
-725.894	63.744	0.052	-0.052
-724.879	-48.793	-0.180	-0.087
-723.864	-169.823	-0.320	-0.012
-722.850	-200.000	0.059	-0.328
-721.835	800.000	0.067	-0.207
-720.821	-60.997	0.135	0.058
-719.806	800.000	-0.101	-0.347
-718.791	-200.000	-0.026	-0.122
-717.777	-51.516	0.108	-0.051
-716.762	-200.000	0.019	-0.181
-715.748	44.738	0.044	-0.041
-714.733	-77.729	0.267	-0.093
-713.718	-200.000	0.007	-0.063
-712.704	-43.640	0.293	-0.148
-711.689	-109.958	0.346	0.073
-710.675	32.917	-0.324	-0.282
-709.660	-106.898	0.084	0.019
-708.645	-200.000	0.026	-0.271
-707.631	-200.000	0.026	0.153
-706.616	-200.000	0.059	0.353
-705.602	-200.000	0.020	0.100
-704.587	112.649	0.054	-0.066
-703.572	327.097	0.145	-0.280
-702.558	-91.826	0.024	0.007
-701.543	800.000	0.041	-0.139
-700.529	-101.701	-0.368	-0.090
-699.514	800.000	0.199	-0.583
-698.499	-200.000	-0.047	-0.208
-697.485	-200.000	0.023	-0.432
-696.470	61.010	-0.229	-0.229
-695.456	-159.795	0.289	0.016
-694.441	-35.668	-0.132	-0.072
-693.426	129.691	-0.316	0.406
-692.412	-145.765	-0.351	0.031
-691.397	360.380	0.133	-0.268
-690.383	155.975	0.033	-0.045
-689.368	800.000	-0.010	0.043
-688.354	-200.000	0.026	-0.162
-687.339	-61.172	0.190	0.080
-686.324	-91.408	-0.112	-0.032
-685.310	82.875	0.181	0.198
-684.295	-200.000	-0.005	0.211
-683.281	112.918	-0.150	0.182
-682.266	375.527	-0.182	-0.372
-681.251	428.617	-0.054	-0.118
-680.237	-157.471	-0.114	-0.007
-679.222	-51.245	0.379	-0.178
-678.208	697.725	-0.055	-0.144
-677.193	-84.748	0.116	0.037
-676.178	-121.692	0.128	0.021
-675.164	418.175	0.098	-0.210
-674.149	-117.743	-0.257	-0.046
-673.135	-112.760	0.117	0.023
-672.120	-124.318	-0.384	-0.060
-671.105	-122.572	-0.117	-0.019
-670.091	-36.530	-0.217	0.117
-669.076	-49.678	-0.154	0.074
-668.062	-200.000	-0.013	-0.111
-667.047	-114.845	-0.271	-0.052
-666.032	-132.689	-0.269	-0.035
-665.018	-200.000	-0.076	0.341
-664.003	48.497	0.170	0.160
-662.989	237.254	0.170	0.284
-661.974	-143.303	0.174	-0.017
-660.959	52.255	-0.070	-0.067
-659.945	50.390	0.056	-0.053
-658.930	-200.000	-0.015	0.247
-657.916	75.510	0.082	-0.086
-656.901	-74.667	-0.307	-0.111
-655.886	-66.978	0.260	-0.103
-654.872	2.669	-0.040	0.029
-653.857	273.358	-0.233	-0.414
-652.843	123.196	0.007	-0.008
-651.828	-22.355	0.250	-0.152
-650.814	6.988	-0.298	0.223
-649.799	-58.648	-0.402	0.175
-648.784	397.449	0.134	-0.280
-647.770	-75.250	-0.288	0.103
-646.755	-61.840	-0.065	0.027
-645.741	-107.810	-0.343	0.075
-644.726	-66.472	0.234	0.093
-643.711	800.000	-0.041	0.140
-642.697	-200.000	0.005	-0.415
-641.682	-68.261	0.345	0.134
-640.668	-118.022	-0.193	0.035
-639.653	-200.000	-0.066	-0.442
-638.638	-82.408	0.150	-0.049
-637.624	-200.000	0.006	0.145
-636.609	-200.000	0.028	-0.166
-635.595	49.318	-0.143	-0.135
-634.580	-67.215	-0.256	-0.101
-633.565	409.460	0.125	-0.266
-632.551	800.000	0.153	0.607
-631.536	-88.061	-0.120	-0.036
-630.522	-59.269	0.266	0.115
-629.507	362.555	0.145	0.292
-628.492	613.017	0.090	0.226
-627.478	58.574	-0.158	-0.155
-626.463	800.000	-0.081	-0.262
-625.449	330.501	0.039	0.075
-624.434	-200.000	-0.010	0.268
-623.419	-117.104	0.522	-0.095
-622.405	11.496	-0.193	0.148
-621.390	33.811	0.183	-0.160
-620.376	800.000	-0.032	0.129
-619.361	142.329	-0.120	-0.160
-618.346	-76.416	-0.257	0.091
-617.332	22.428	-0.045	0.037
-616.317	100.383	-0.132	0.153
-615.303	-200.000	-0.017	0.355
-614.288	230.004	-0.070	-0.114
-613.273	-34.299	0.127	-0.070
-612.259	6.481	0.111	-0.083
-611.244	13.091	0.514	0.399
-610.230	-76.024	-0.217	-0.077
-609.215	-87.378	0.121	-0.037
-608.201	14.836	-0.126	-0.099
-607.186	10.466	-0.245	0.187
-606.171	800.000	0.062	0.188
-605.157	-1.906	-0.267	-0.188
-604.142	-118.254	-0.145	0.026
-603.128	-45.885	0.055	-0.027
-602.113	-200.000	-0.027	-0.124
-601.098	665.983	-0.038	0.098
-600.084	111.176	-0.211	-0.254
-599.069	-200.000	-0.088	0.683
-598.055	17.787	0.192	0.153
-597.040	382.168	0.013	-0.026
-596.025	-45.655	0.227	0.112
-595.011	-200.000	0.009	0.262
-593.996	364.664	0.064	-0.130
-592.982	25.013	-0.039	-0.032
-591.967	237.081	0.154	0.256
-590.952	800.000	-0.081	0.292
-589.938	16.503	-0.260	-0.206
-588.923	-200.000	-0.029	-0.178
-587.909	-39.886	0.255	0.133
-586.894	-144.608	0.252	0.023
-585.879	309.197	-0.132	-0.247
-584.865	16.490	-0.209	0.165
-583.850	125.302	0.149	-0.189
-582.836	-200.000	-0.050	-0.237
-581.821	-85.398	0.140	-0.044
-580.806	-200.000	-0.009	0.145
-579.792	-58.009	0.353	0.154
-578.777	-200.000	-0.029	-0.473
-577.763	42.589	0.080	0.073
-576.748	160.406	0.071	-0.099
-575.733	155.101	-0.076	0.104
-574.719	-17.507	-0.080	-0.051
-573.704	661.902	0.019	-0.049
-572.690	-200.000	-0.026	0.225
-571.675	189.856	-0.038	0.057
-570.661	-38.575	0.172	-0.091
-569.646	331.460	-0.154	-0.298
-568.631	-200.000	0.024	-0.132
-567.617	-148.100	0.181	-0.015
-566.602	-200.000	-0.050	0.309
-565.588	-179.013	0.265	-0.006
-564.573	-200.000	-0.013	0.239
-563.558	138.180	-0.047	0.062
-562.544	-200.000	0.019	0.168
-561.529	-129.192	-0.210	0.029
-560.515	-15.012	0.216	-0.138
-559.500	-200.000	0.022	-0.534
-558.485	247.314	-0.165	-0.279
-557.471	-200.000	-0.080	0.363
-556.456	136.315	-0.076	-0.099
-555.442	-200.000	0.021	0.106
-554.427	-123.596	-0.415	-0.066
-553.412	-157.995	0.093	0.005
-552.398	-130.571	-0.163	0.022
-551.383	-26.073	0.013	0.008
-550.369	-200.000	0.054	0.251
-549.354	800.000	-0.076	-0.250
-548.339	-200.000	-0.048	0.280
-547.325	105.607	-0.082	0.097
-546.310	-200.000	-0.039	0.255
-545.296	-200.000	0.026	-0.272
-544.281	-18.996	-0.201	-0.125
-543.266	580.348	0.094	0.229
-542.252	-92.124	0.101	0.028
-541.237	471.270	-0.114	0.256
-540.223	-130.693	0.203	-0.027
-539.208	-124.537	0.280	0.043
-538.193	12.382	0.095	0.073
-537.179	-200.000	-0.052	0.426
-536.164	-186.688	0.444	-0.006
-535.150	-115.916	-0.201	0.037
-534.135	-124.315	-0.216	0.034
-533.121	-65.521	0.332	-0.133
-532.106	-34.996	-0.394	-0.215
-531.091	362.875	0.116	0.233
-530.077	-60.849	0.244	0.103
-529.062	-200.000	0.035	0.385
-528.048	800.000	-0.107	-0.407
-527.033	-50.551	0.194	0.091
-526.018	-49.024	0.157	0.075
-525.004	203.406	0.113	-0.175
-523.989	-195.499	0.057	0.000
-522.975	40.239	-0.098	0.088
-521.960	-49.749	0.099	-0.047
-520.945	-109.511	-0.316	0.067
-519.931	363.472	-0.038	-0.077
-518.916	-71.262	-0.142	-0.053
-517.902	43.542	0.187	-0.171
-516.887	-200.000	0.046	-0.398
-515.872	164.465	0.100	0.141
-514.858	-77.336	0.176	-0.061
-513.843	-200.000	-0.029	-0.320
-512.829	274.634	-0.126	-0.222
-511.814	-25.350	-0.236	0.140
-510.799	-54.665	-0.071	-0.032
-509.785	239.708	0.299	-0.497
-508.770	-115.144	0.039	0.007
-507.756	-20.758	-0.306	-0.187
-506.741	390.454	0.078	-0.161
-505.726	120.884	0.158	0.196
-504.712	-71.063	0.041	0.016
-503.697	-200.000	0.027	-0.119
-502.683	-38.212	0.285	-0.150
-501.668	571.368	-0.075	-0.181
-500.653	51.601	0.096	0.091
-499.639	22.001	-0.227	-0.184
-498.624	-200.000	0.009	0.369
-497.610	72.000	0.219	0.227
-496.595	-132.748	-0.299	-0.038
-495.581	-200.000	0.022	-0.351
-494.566	495.317	-0.158	-0.362
-493.551	185.780	0.085	0.126
-492.537	-115.375	-0.241	-0.045
-491.522	28.615	-0.054	0.045
-490.508	-66.157	-0.165	-0.066
-489.493	-200.000	0.004	-0.307
-488.478	-22.971	0.047	-0.028
-487.464	-100.523	-0.075	0.018
-486.449	56.310	-0.100	-0.097
-485.435	349.334	-0.113	-0.222
-484.420	-200.000	0.003	0.090
-483.405	4.482	-0.106	-0.077
-482.391	800.000	0.052	0.149
-481.376	-19.476	-0.203	-0.125
-480.362	-67.808	-0.127	0.050
-479.347	184.636	-0.142	-0.210
-478.332	-56.077	-0.046	0.020
-477.318	726.086	-0.062	-0.164
-476.303	49.222	-0.121	0.113
-475.289	213.685	0.063	0.099
-474.274	-200.000	-0.029	-0.359
-473.259	209.334	-0.149	0.232
-472.245	12.865	0.155	-0.119
-471.230	121.434	-0.221	-0.275
-470.216	-30.907	0.238	0.134
-469.201	46.390	-0.162	0.150
-468.186	-200.000	0.028	0.345
-467.172	500.332	0.042	-0.097
-466.157	-116.776	-0.095	0.017
-465.143	239.446	-0.065	0.107
-464.128	208.150	-0.050	-0.078
-463.113	305.470	-0.114	0.211
-462.099	449.074	0.129	0.282
-461.084	787.304	0.080	-0.217
-460.070	51.619	-0.141	0.133
-459.055	-200.000	-0.036	0.298
-458.040	-177.866	-0.372	0.009
-457.026	-54.070	0.180	-0.081
-456.011	800.000	0.010	0.043
-454.997	673.743	0.137	0.354
-453.982	696.439	0.143	0.374
-452.968	-15.685	-0.239	0.151
-451.953	191.248	-0.120	-0.179
-450.938	50.906	-0.144	-0.136
-449.924	-31.035	0.038	-0.022
-448.909	154.159	0.039	-0.053
-447.895	800.000	-0.057	0.187
-446.880	307.328	0.174	0.322
-445.865	-131.134	-0.179	-0.024
-444.851	-200.000	-0.026	-0.175
-443.836	-184.210	0.170	0.003
-442.822	-200.000	0.014	0.332
-441.807	304.699	-0.091	0.169
-440.792	204.243	0.152	-0.235
-439.778	800.000	0.019	0.077
-438.763	-34.896	0.071	0.038
-437.749	462.699	0.064	-0.142
-436.734	-64.747	-0.173	-0.070
-435.719	98.247	-0.128	0.146
-434.705	39.286	0.160	-0.143
-433.690	800.000	0.028	-0.086
-432.676	-167.850	0.391	-0.015
-431.661	-200.000	-0.034	0.235
-430.646	-200.000	-0.019	0.238
-429.632	-32.607	-0.419	-0.232
-428.617	-111.074	-0.379	-0.077
-427.603	11.599	0.251	0.191
-426.588	-131.369	-0.193	0.025
-425.573	-62.100	0.214	-0.089
-424.559	800.000	0.061	-0.200
-423.544	-25.232	0.160	0.094
-422.530	-54.708	-0.330	-0.148
-421.515	-133.074	0.157	-0.020
-420.500	86.999	-0.068	-0.074
-419.486	800.000	-0.138	0.394
-418.471	-200.000	0.008	0.101
-417.457	-68.804	-0.236	0.091
-416.442	215.112	-0.179	-0.283
-415.428	-85.114	-0.311	-0.097
-414.413	23.811	-0.269	-0.220
-413.398	-90.925	-0.339	0.097
-412.384	47.099	-0.111	0.103
-411.369	20.833	0.187	-0.150
-410.355	-200.000	-0.027	-0.250
-409.340	800.000	-0.096	0.298
-408.325	192.511	0.096	0.143
-407.311	-200.000	0.038	0.242
-406.296	-98.790	-0.537	0.136
-405.282	79.815	-0.270	0.288
-404.267	682.545	-0.025	0.066
-403.252	359.945	0.159	0.316
-402.238	-99.803	0.455	-0.113
-401.223	1.101	-0.321	0.229
-400.209	48.177	-0.112	0.104
-399.194	648.724	0.097	-0.246
-398.179	258.917	0.051	-0.088
-397.165	63.024	-0.153	0.152
-396.150	99.140	-0.189	0.217
-395.136	83.690	0.229	0.248
-394.121	-127.231	-0.314	0.046
-393.106	800.000	0.053	0.157
-392.092	185.505	-0.289	-0.427
-391.077	-63.004	-0.261	0.107
-390.063	-200.000	-0.011	0.317
-389.048	-103.745	0.306	-0.071
-388.033	109.265	0.104	-0.124
-387.019	800.000	0.040	-0.131
-386.004	387.656	0.108	0.223
-384.990	305.582	0.179	-0.330
-383.975	502.019	0.053	-0.121
-382.960	154.519	0.222	0.303
-381.946	201.870	0.024	0.037
-380.931	-200.000	-0.012	-0.090
-379.917	323.453	0.089	0.169
-378.902	-71.796	-0.065	0.024
-377.888	-66.436	0.173	-0.068
-376.873	-63.324	-0.385	-0.157
-375.858	480.081	-0.054	0.122
-374.844	117.883	0.192	0.235
-373.829	60.924	-0.281	0.276
-372.815	-83.646	0.360	0.114
-371.800	-200.000	0.031	0.240
-370.785	-133.753	0.208	-0.026
-369.771	-200.000	-0.044	-0.192
-368.756	800.000	0.092	0.257
-367.742	23.517	0.215	-0.175
-366.727	68.216	0.278	-0.282
-365.712	800.000	-0.067	-0.220
-364.698	-105.642	-0.284	0.064
-363.683	-23.234	0.187	0.112
-362.669	-141.420	-0.144	0.015
-361.654	-159.875	-0.259	0.014
-360.639	279.221	0.116	-0.205
-359.625	-200.000	0.056	-0.247
-358.610	384.918	-0.014	-0.029
-357.596	800.000	0.017	0.054
-356.581	-8.926	0.237	0.157
-355.566	-126.355	0.095	-0.014
-354.552	-200.000	-0.004	-0.125
-353.537	-200.000	0.000	0.098
-352.523	-17.074	0.203	-0.127
-351.508	790.402	-0.152	-0.413
-350.493	-60.016	-0.166	0.070
-349.479	800.000	-0.104	0.317
-348.464	145.407	0.157	-0.209
-347.450	259.523	0.262	0.448
-346.435	-105.127	0.545	-0.124
-345.420	-126.200	-0.266	-0.039
-344.406	134.587	-0.024	0.030
-343.391	-200.000	-0.075	0.336
-342.377	800.000	0.077	0.307
-341.362	-63.843	0.221	-0.090
-340.348	-200.000	-0.017	0.274
-339.333	-200.000	-0.058	-0.308
-338.318	-84.783	-0.125	0.039
-337.304	-55.273	-0.069	0.031
-336.289	-82.166	-0.527	-0.170
-335.275	-155.208	-0.251	-0.016
-334.260	-69.565	-0.124	-0.047
-333.245	800.000	0.064	-0.204
-332.231	13.896	-0.075	-0.057
-331.216	-83.561	0.165	0.052
-330.202	655.117	0.110	-0.280
-329.187	-161.521	0.192	0.010
-328.172	140.133	-0.189	0.247
-327.158	-200.000	-0.021	0.145
-326.143	-12.145	-0.096	0.062
-325.129	-169.168	0.056	0.002
-324.114	-109.332	-0.200	-0.042
-323.099	84.982	0.062	-0.067
-322.085	-105.342	-0.351	-0.079
-321.070	9.155	0.268	0.201
-320.056	-186.255	-0.081	0.001
-319.041	-43.418	0.399	-0.199
-318.026	-36.312	-0.057	-0.030
-317.012	179.664	-0.103	-0.150
-315.997	-200.000	0.062	-0.369
-314.983	-200.000	0.036	0.184
-313.968	-74.415	0.054	-0.019
-312.953	282.121	0.065	-0.116
-311.939	214.005	-0.186	0.292
-310.924	150.244	0.128	0.172
-309.910	800.000	-0.077	-0.275
-308.895	-200.000	-0.028	-0.184
-307.880	451.601	0.070	-0.153
-306.866	422.506	-0.079	0.167
-305.851	578.285	0.016	0.038
-304.837	-28.523	-0.282	0.161
-303.822	-113.255	-0.348	-0.068
-302.807	800.000	0.077	-0.246
-301.793	-44.836	-0.287	0.142
-300.778	259.614	0.040	0.068
-299.764	-111.106	0.322	-0.065
-298.749	692.346	0.016	0.043
-297.735	67.369	0.105	-0.106
-296.720	330.040	0.150	0.286
-295.705	27.452	-0.185	0.154
-294.691	-2.667	-0.031	0.021
-293.676	152.658	0.114	-0.154
-292.662	800.000	0.132	0.375
-291.647	-137.823	-0.332	0.037
-290.632	-81.470	-0.283	0.092
-289.618	800.000	0.021	0.079
-288.603	-200.000	-0.006	0.051
-287.589	-32.859	0.273	0.150
-286.574	-140.111	0.443	0.046
-285.559	552.480	-0.095	-0.226
-284.545	-129.172	0.488	-0.067
-283.530	-103.827	-0.168	0.039
-282.516	-17.851	-0.373	-0.231
-281.501	-200.000	-0.033	0.142
-280.486	775.786	-0.028	0.076
-279.472	-170.012	0.302	0.011
-278.457	-60.151	0.295	-0.124
-277.443	108.586	-0.140	-0.166
-276.428	-21.494	-0.038	-0.023
-275.413	607.712	0.071	-0.176
-274.399	62.228	-0.088	-0.087
-273.384	-7.280	0.288	-0.193
-272.370	718.751	-0.089	0.233
-271.355	233.346	-0.174	0.282
-270.340	-54.773	0.282	-0.126
-269.326	-171.870	-0.221	-0.007
-268.311	-122.126	0.072	0.012
-267.297	598.019	0.101	0.247
-266.282	-109.180	-0.473	0.099
-265.267	-102.867	-0.126	0.029
-264.253	-80.023	0.140	-0.046
-263.238	112.009	0.056	-0.066
-262.224	-200.000	-0.089	0.508
-261.209	240.351	0.125	-0.205
-260.195	85.628	0.022	-0.024
-259.180	800.000	0.065	-0.213
-258.165	-111.038	-0.323	0.066
-257.151	-50.552	0.134	-0.063
-256.136	16.851	0.150	-0.117
-255.122	56.689	-0.024	-0.023
-254.107	162.023	-0.096	0.133
-253.092	-200.000	0.003	-0.185
-252.078	590.340	0.110	-0.269
-251.063	800.000	0.040	0.136
-250.049	-51.108	0.167	-0.077
-249.034	-70.745	0.255	-0.095
-248.019	-200.000	-0.015	0.085
-247.005	2.771	0.188	0.135
-245.990	-91.642	0.025	0.007
-244.976	800.000	0.175	-0.526
-243.961	-200.000	0.012	0.058
-242.946	-82.659	-0.119	-0.038
-241.932	800.000	-0.066	-0.191
-240.917	159.117	-0.211	0.290
-239.903	-40.584	0.387	0.198
-238.888	717.553	-0.132	-0.346
-237.873	568.214	-0.070	0.167
-236.859	106.454	0.207	0.242
-235.844	-200.000	-0.027	-0.389
-234.830	88.534	0.176	0.192
-233.815	440.732	-0.063	0.136
-232.800	-200.000	0.003	-0.143
-231.786	-108.566	0.178	-0.038
-230.771	330.667	0.050	-0.096
-229.757	5.670	0.406	-0.296
-228.742	91.435	0.171	-0.189
-227.727	-132.236	0.529	0.068
-226.713	-29.006	0.162	0.092
-225.698	-103.101	-0.155	-0.036
-224.684	154.372	-0.414	-0.561
-223.669	-200.000	-0.036	0.168
-222.655	398.606	-0.083	-0.171
-221.640	269.567	0.014	-0.024
-220.625	-54.666	0.150	-0.067
-219.611	800.000	0.061	0.189
-218.596	-123.944	0.125	-0.019
-217.582	-1.782	0.355	0.246
-216.567	-82.196	0.128	0.041
-215.552	-200.000	0.021	0.177
-214.538	-200.000	-0.028	-0.293
-213.523	259.980	0.137	0.233
-212.509	-165.298	-0.236	-0.010
-211.494	-86.811	-0.234	0.071
-210.479	-80.581	-0.279	-0.092
-209.465	-99.099	0.190	-0.047
-208.450	399.523	0.072	0.148
-207.436	208.054	-0.011	-0.018
-206.421	-63.532	-0.323	0.131
-205.406	-107.634	-0.140	0.030
-204.392	-200.000	0.000	-0.121
-203.377	-11.744	0.080	-0.052
-202.363	-14.152	0.239	-0.152
-201.348	-6.882	-0.137	0.092
-200.333	222.256	0.167	0.264
-199.319	501.903	-0.130	-0.296
-198.304	-41.298	0.114	0.058
-197.290	41.872	-0.277	0.247
-196.275	-114.620	0.390	0.074
-195.260	-4.299	0.204	-0.139
-194.246	-30.042	0.390	0.219
-193.231	262.652	-0.042	0.072
-192.217	577.492	0.217	-0.522
-191.202	578.593	-0.185	-0.447
-190.187	115.596	-0.122	0.147
-189.173	-97.731	0.104	-0.026
-188.158	33.070	0.036	-0.031
-187.144	-66.786	0.102	0.040
-186.129	108.237	0.172	0.203
-185.114	47.507	-0.131	-0.120
-184.100	-200.000	0.015	0.081
-183.085	-200.000	-0.005	-0.152
-182.071	-200.000	-0.014	0.143
-181.056	-117.716	0.446	-0.079
-180.042	-200.000	-0.044	-0.191
-179.027	100.633	0.126	-0.144
-178.012	103.353	0.210	-0.243
-176.998	41.994	0.103	0.092
-175.983	288.602	-0.153	-0.273
-174.969	212.277	0.134	-0.209
-173.954	-200.000	-0.070	-0.365
-172.939	800.000	-0.131	-0.458
-171.925	-34.823	-0.194	-0.104
-170.910	-91.484	0.154	-0.043
-169.896	-200.000	0.021	0.217
-168.881	-200.000	-0.015	0.074
-167.866	344.075	-0.125	-0.241
-166.852	98.259	-0.090	-0.102
-165.837	-117.541	0.099	0.018
-164.823	146.361	0.193	0.254
-163.808	-31.566	0.124	0.068
-162.793	-139.602	0.297	-0.031
-161.779	144.557	0.043	0.057
-160.764	47.112	-0.301	-0.276
-159.750	-200.000	-0.013	-0.093
-158.735	534.286	-0.069	0.161
-157.720	-200.000	0.010	0.194
-156.706	-105.324	-0.277	-0.062
-155.691	-154.258	-0.136	0.009
-154.677	-73.731	0.054	-0.019
-153.662	-200.000	0.008	0.153
-152.647	77.983	-0.071	0.075
-151.633	68.352	-0.332	-0.334
-150.618	-200.000	-0.016	-0.224
-149.604	-200.000	0.014	-0.215
-148.589	10.272	0.076	0.057
-147.574	-148.001	0.320	-0.026
-146.560	-132.265	-0.247	0.031
-145.545	158.807	0.132	0.181
-144.531	-200.000	0.052	-0.342
-143.516	281.952	-0.008	0.015
-142.502	-44.697	0.141	-0.069
-141.487	654.967	0.064	-0.162
-140.472	275.900	-0.043	-0.076
-139.458	392.813	0.120	-0.245
-138.443	-140.722	0.371	-0.038
-137.429	-58.962	-0.305	0.130
-136.414	-200.000	-0.099	0.566
-135.399	780.129	0.054	0.146
-134.385	-112.885	0.399	0.078
-133.370	-26.469	-0.151	0.087
-132.356	21.096	0.388	0.309
-131.341	-28.301	0.131	0.074
-130.326	-7.632	-0.207	-0.137
-129.312	-154.202	0.360	-0.024
-128.297	45.738	-0.306	-0.278
-127.283	27.775	0.113	-0.094
-126.268	205.937	0.148	-0.226
-125.253	-110.107	0.071	0.015
-124.239	800.000	0.192	-0.581
-123.224	-94.077	-0.352	0.095
-122.210	197.006	0.155	-0.233
