DTS Sentinel unit serial number:	SN413079Multiplexer serial number:	ORYXHardware model number:	OX4-SRSoftware version number:	ORYX F/W v4.00 Oryx Data Collector v3.7.2.0data status	okinstallation	princeton_trtdifferential loss correction	single-endedforward channel	channel 4reverse channel	N/Adate	2019/09/16time	20:01:35forward acquisition time	60.00reverse acquisition time	0.00gamma	496.2192k internal	0.2310k external	0.2310temperature offset calibration	0.9966default loss term (dB/km)	0.3790temperature slope calibration	1.0000multiplexer offset coefficient	1.0000multiplexer slope coefficient	1.0000fibre end	0.00T internal ref (°C)	33.37T ext. ref 1 (°C)	0.05T ext. ref 2 (°C)	26.65length (m)	temperature (°C)	Stokes	anti-Stokes-747.200	-152.048	0.481	-0.036
-746.185	723.181	-0.101	0.274
-745.171	-200.000	0.042	0.525
-744.156	800.000	0.065	0.221
-743.142	-48.536	-0.162	-0.079
-742.127	800.000	-0.137	0.475
-741.112	182.740	0.321	0.481
-740.098	-127.491	-0.183	-0.027
-739.083	-53.557	0.222	-0.103
-738.069	-79.462	-0.217	0.074
-737.054	-167.781	-0.243	-0.010
-736.039	-200.000	0.024	0.185
-735.025	-24.780	-0.281	0.169
-734.010	-200.000	0.038	0.000
-732.996	-54.742	-0.323	-0.148
-731.981	-151.254	-0.309	-0.023
-730.966	800.000	0.068	0.243
-729.952	92.843	0.116	-0.133
-728.937	-117.880	-0.199	-0.036
-727.923	-112.876	0.416	0.084
-726.908	-120.147	-0.377	0.065
-725.894	-89.622	-0.059	0.018
-724.879	-117.349	-0.232	0.043
-723.864	110.908	0.165	-0.201
-722.850	-200.000	-0.061	-0.409
-721.835	800.000	-0.029	0.103
-720.821	-187.573	0.159	0.002
-719.806	33.826	-0.087	-0.077
-718.791	-151.875	-0.219	-0.016
-717.777	-198.024	-0.267	0.002
-716.762	-133.642	-0.211	-0.027
-715.748	-7.783	0.256	-0.175
-714.733	-125.177	0.194	-0.030
-713.718	-36.244	0.309	-0.169
-712.704	245.324	0.054	0.092
-711.689	151.894	0.178	-0.246
-710.675	-152.902	-0.262	-0.019
-709.660	-112.779	0.343	0.069
-708.645	19.478	0.255	0.208
-707.631	-163.163	-0.033	0.002
-706.616	33.025	-0.215	-0.189
-705.602	-93.603	0.420	-0.118
-704.587	-80.784	0.288	-0.097
-703.572	165.725	0.047	0.067
-702.558	604.990	-0.130	-0.327
-701.543	91.380	0.181	-0.206
-700.529	-87.335	-0.170	0.052
-699.514	285.685	0.235	0.429
-698.499	165.631	0.164	0.235
-697.485	-200.000	-0.031	-0.194
-696.470	-158.540	-0.253	-0.015
-695.456	-200.000	0.030	-0.179
-694.441	-173.674	0.081	-0.002
-693.426	-66.876	-0.381	-0.153
-692.412	-61.184	-0.130	0.056
-691.397	5.770	-0.022	0.016
-690.383	800.000	-0.079	0.300
-689.368	-18.481	0.295	-0.187
-688.354	95.046	-0.148	-0.171
-687.339	-132.309	0.123	-0.016
-686.324	391.873	0.072	-0.152
-685.310	-200.000	0.007	0.220
-684.295	-57.517	0.261	0.116
-683.281	-28.640	0.161	-0.094
-682.266	-200.000	-0.019	-0.354
-681.251	30.186	0.082	-0.071
-680.237	-1.912	0.083	-0.059
-679.222	-42.702	-0.093	-0.048
-678.208	228.118	0.024	0.039
-677.193	390.132	-0.070	0.148
-676.178	576.943	-0.064	-0.158
-675.164	-57.911	-0.263	-0.116
-674.149	-79.059	0.158	0.054
-673.135	77.988	0.208	0.225
-672.120	108.244	-0.163	-0.197
-671.105	456.696	-0.065	0.146
-670.091	-102.562	-0.161	-0.039
-669.076	800.000	-0.094	0.294
-668.062	-122.715	0.204	0.033
-667.047	-47.011	-0.156	-0.077
-666.032	-113.244	-0.160	-0.032
-665.018	-93.436	0.398	0.112
-664.003	223.474	0.137	-0.223
-662.989	-200.000	-0.002	0.069
-661.974	371.219	0.153	0.314
-660.959	-200.000	0.011	0.083
-659.945	48.597	-0.040	0.038
-658.930	-200.000	0.003	-0.240
-657.916	-8.215	0.093	0.064
-656.901	-7.493	-0.414	-0.283
-655.886	-200.000	0.006	0.375
-654.872	7.408	0.102	0.077
-653.857	-35.777	0.196	-0.108
-652.843	301.792	-0.109	0.205
-651.828	-90.129	-0.194	0.057
-650.814	-141.526	0.343	0.035
-649.799	164.370	-0.216	0.308
-648.784	-200.000	-0.006	0.174
-647.770	269.342	-0.125	0.221
-646.755	800.000	0.082	0.342
-645.741	-82.972	0.104	-0.034
-644.726	-147.868	0.081	-0.007
-643.711	341.055	0.037	0.073
-642.697	698.414	0.131	0.349
-641.682	-200.000	-0.006	0.031
-640.668	-106.339	-0.347	0.078
-639.653	713.859	-0.055	0.147
-638.638	-53.620	-0.095	0.044
-637.624	-96.978	-0.396	-0.105
-636.609	800.000	0.081	-0.234
-635.595	-91.285	-0.447	0.129
-634.580	-13.244	-0.234	0.154
-633.565	558.324	0.162	0.395
-632.551	-82.841	-0.034	0.011
-631.536	-200.000	-0.019	-0.223
-630.522	-200.000	0.012	-0.148
-629.507	-107.535	-0.091	0.020
-628.492	-76.242	0.244	0.087
-627.478	5.659	0.197	0.147
-626.463	71.155	-0.204	-0.213
-625.449	800.000	-0.009	-0.036
-624.434	-42.616	-0.326	-0.168
-623.419	-84.250	0.410	-0.131
-622.405	227.267	-0.107	-0.176
-621.390	800.000	-0.049	-0.199
-620.376	-78.979	0.268	-0.092
-619.361	800.000	-0.038	-0.150
-618.346	-95.109	-0.201	-0.055
-617.332	-34.593	0.197	0.109
-616.317	-28.167	-0.200	0.117
-615.303	800.000	0.047	0.163
-614.288	-155.109	-0.159	0.011
-613.273	-69.803	-0.074	-0.029
-612.259	800.000	0.104	-0.319
-611.244	274.831	-0.133	0.238
-610.230	800.000	-0.065	-0.245
-609.215	-102.578	-0.353	0.085
-608.201	-76.534	0.124	0.044
-607.186	533.397	0.062	0.149
-606.171	800.000	-0.082	-0.278
-605.157	383.588	-0.106	-0.220
-604.142	-68.167	-0.288	0.113
-603.128	-200.000	0.008	-0.272
-602.113	511.133	-0.147	-0.344
-601.098	82.676	0.229	0.251
-600.084	800.000	0.025	0.086
-599.069	-114.852	0.446	0.086
-598.055	483.290	0.109	0.250
-597.040	106.393	0.084	0.101
-596.025	426.464	0.084	0.182
-595.011	501.950	0.051	-0.118
-593.996	-77.213	-0.195	0.068
-592.982	581.200	0.145	0.358
-591.967	-78.542	-0.083	-0.029
-590.952	115.951	-0.022	0.027
-589.938	-105.788	-0.178	-0.041
-588.923	97.743	-0.124	0.144
-587.909	-115.345	0.232	-0.044
-586.894	151.090	-0.118	-0.162
-585.879	288.573	-0.121	-0.221
-584.865	-92.206	0.395	0.113
-583.850	656.000	0.051	0.133
-582.836	376.362	-0.072	-0.149
-581.821	-96.373	0.271	-0.072
-580.806	-168.849	-0.095	0.004
-579.792	800.000	0.121	0.376
-578.777	176.838	0.270	0.396
-577.763	-18.954	0.153	-0.096
-576.748	800.000	0.059	-0.167
-575.733	-0.544	0.113	0.081
-574.719	-149.817	-0.091	0.007
-573.704	-200.000	-0.008	-0.096
-572.690	-193.419	0.210	0.002
-571.675	2.034	-0.262	0.191
-570.661	-104.596	-0.081	0.019
-569.646	-200.000	-0.067	-0.369
-568.631	76.038	-0.145	-0.154
-567.617	-135.937	-0.158	-0.019
-566.602	109.004	0.225	0.272
-565.588	10.337	-0.165	0.127
-564.573	-129.626	-0.218	0.030
-563.558	800.000	0.030	-0.128
-562.544	800.000	-0.051	-0.149
-561.529	-200.000	-0.046	0.342
-560.515	-98.705	0.212	-0.055
-559.500	-53.399	-0.300	0.139
-558.485	-114.479	-0.220	0.043
-557.471	185.845	0.162	0.243
-556.456	119.268	-0.053	-0.066
-555.442	314.410	-0.014	0.027
-554.427	220.957	0.224	0.363
-553.412	0.228	0.135	-0.097
-552.398	800.000	0.027	-0.112
-551.383	48.407	-0.227	-0.214
-550.369	-200.000	0.006	-0.085
-549.354	-89.302	-0.151	0.045
-548.339	159.225	-0.115	0.161
-547.325	-200.000	0.032	0.247
-546.310	408.211	-0.085	0.180
-545.296	-87.340	0.129	-0.039
-544.281	-200.000	0.007	-0.227
-543.266	-15.298	-0.131	-0.084
-542.252	-46.092	0.352	-0.175
-541.237	225.375	0.048	0.079
-540.223	800.000	-0.121	-0.370
-539.208	354.774	0.145	-0.290
-538.193	-44.262	0.111	-0.056
-537.179	537.340	-0.101	-0.241
-536.164	-200.000	-0.013	-0.142
-535.150	800.000	-0.099	-0.310
-534.135	291.520	-0.123	0.226
-533.121	357.097	0.079	0.159
-532.106	800.000	-0.041	0.122
-531.091	-14.064	-0.127	-0.083
-530.077	-147.775	-0.061	-0.005
-529.062	-200.000	-0.042	0.294
-528.048	-57.236	0.182	-0.081
-527.033	800.000	-0.083	-0.318
-526.018	263.265	0.128	-0.225
-525.004	-68.913	-0.181	0.070
-523.989	-102.644	0.179	0.043
-522.975	-81.254	-0.456	0.152
-521.960	486.581	0.023	-0.052
-520.945	800.000	-0.093	0.259
-519.931	-29.787	0.307	0.176
-518.916	-33.146	-0.110	0.061
-517.902	-64.365	0.124	0.051
-516.887	-84.087	-0.290	-0.093
-515.872	800.000	0.061	-0.169
-514.858	800.000	-0.025	-0.095
-513.843	196.270	-0.097	0.149
-512.829	41.184	-0.334	-0.304
-511.814	763.032	-0.076	0.207
-510.799	91.084	-0.202	0.228
-509.785	-200.000	0.055	0.289
-508.770	-159.243	-0.175	0.010
-507.756	-200.000	-0.055	-0.427
-506.741	246.046	-0.220	-0.373
-505.726	18.565	0.229	0.184
-504.712	65.260	-0.100	0.102
-503.697	157.569	-0.265	0.369
-502.683	170.150	0.023	-0.033
-501.668	-13.133	0.119	0.078
-500.653	-81.220	-0.320	0.106
-499.639	418.468	0.155	0.333
-498.624	102.049	0.117	0.137
-497.610	-18.168	0.304	-0.191
-496.595	-200.000	0.000	-0.141
-495.581	263.424	-0.080	0.140
-494.566	374.969	0.098	0.200
-493.551	-50.027	0.208	-0.099
-492.537	-200.000	0.007	-0.153
-491.522	-163.437	0.101	0.005
-490.508	-59.993	0.382	-0.164
-489.493	432.838	0.056	-0.122
-488.478	-26.808	-0.161	-0.095
-487.464	-100.795	-0.118	-0.029
-486.449	221.881	0.077	0.125
-485.435	-72.016	0.171	-0.064
-484.420	800.000	-0.082	0.318
-483.405	286.657	0.132	-0.240
-482.391	277.938	-0.237	0.424
-481.376	-69.888	-0.233	-0.089
-480.362	800.000	-0.069	-0.214
-479.347	-46.152	-0.377	0.186
-478.332	230.915	-0.133	0.219
-477.318	-133.720	0.204	-0.026
-476.303	108.711	0.163	-0.196
-475.289	-200.000	-0.017	-0.130
-474.274	-200.000	-0.016	-0.406
-473.259	-182.218	-0.210	-0.004
-472.245	800.000	-0.021	-0.072
-471.230	153.907	-0.127	-0.175
-470.216	8.530	0.134	0.102
-469.201	29.921	0.242	-0.207
-468.186	-93.925	0.219	0.061
-467.172	-172.922	0.189	-0.006
-466.157	800.000	0.116	-0.487
-465.143	83.800	-0.181	0.199
-464.128	-200.000	-0.042	-0.243
-463.113	800.000	-0.036	0.122
-462.099	346.888	0.053	-0.106
-461.084	-200.000	-0.029	-0.401
-460.070	800.000	-0.041	0.169
-459.055	189.340	-0.016	0.024
-458.040	800.000	0.071	0.202
-457.026	24.271	0.138	0.114
-456.011	-200.000	0.028	0.128
-454.997	800.000	0.071	0.215
-453.982	-69.759	0.082	-0.032
-452.968	-187.132	0.374	-0.005
-451.953	-162.358	-0.116	0.006
-450.938	-138.829	-0.417	-0.046
-449.924	-200.000	0.024	0.273
-448.909	-200.000	-0.010	0.052
-447.895	-139.128	0.270	-0.029
-446.880	554.458	0.049	0.119
-445.865	-88.608	-0.362	0.108
-444.851	133.844	0.118	-0.153
-443.836	14.609	-0.163	-0.128
-442.822	-200.000	-0.017	0.094
-441.807	-29.811	0.134	0.076
-440.792	-154.028	0.201	-0.014
-439.778	26.299	-0.180	0.151
-438.763	800.000	0.131	-0.384
-437.749	9.727	0.063	-0.048
-436.734	-62.253	-0.195	0.082
-435.719	-76.116	0.125	0.044
-434.705	18.720	0.142	-0.114
-433.690	-144.913	-0.132	0.012
-432.676	-200.000	0.006	-0.339
-431.661	-200.000	0.022	-0.114
-430.646	-124.758	-0.008	0.001
-429.632	-200.000	-0.026	-0.259
-428.617	-200.000	-0.002	0.105
-427.603	-108.500	0.241	0.052
-426.588	-89.949	0.131	-0.038
-425.573	-32.185	0.120	-0.067
-424.559	422.385	0.120	0.259
-423.544	88.986	-0.098	0.109
-422.530	253.602	-0.217	-0.372
-421.515	-94.804	-0.041	0.011
-420.500	29.700	0.218	0.186
-419.486	-42.769	0.096	-0.049
-418.471	10.165	-0.148	0.113
-417.457	49.841	-0.090	0.085
-416.442	-113.913	-0.051	0.010
-415.428	210.918	0.131	0.207
-414.413	-78.951	-0.183	0.062
-413.398	84.826	0.040	-0.044
-412.384	-52.482	0.123	-0.057
-411.369	737.472	-0.027	-0.073
-410.355	-135.072	-0.253	0.030
-409.340	1.973	0.022	-0.016
-408.325	379.283	0.074	-0.152
-407.311	-200.000	-0.061	-0.274
-406.296	-200.000	-0.037	-0.286
-405.282	-200.000	0.013	-0.059
-404.267	-76.897	0.270	0.095
-403.252	-91.084	0.349	-0.100
-402.238	-200.000	-0.005	-0.164
-401.223	151.572	-0.169	-0.231
-400.209	-200.000	0.115	-0.577
-399.194	800.000	-0.055	0.186
-398.179	217.294	0.029	-0.046
-397.165	26.703	-0.062	-0.052
-396.150	-182.037	-0.161	-0.003
-395.136	-154.070	0.232	-0.016
-394.121	237.825	-0.078	-0.130
-393.106	-84.956	0.249	-0.078
-392.092	-9.128	-0.055	0.037
-391.077	73.014	0.132	-0.138
-390.063	-88.590	-0.188	-0.056
-389.048	-22.824	-0.294	-0.178
-388.033	15.166	0.035	-0.028
-387.019	-42.822	0.332	-0.169
-386.004	260.367	0.087	-0.151
-384.990	-80.046	-0.355	0.119
-383.975	126.570	0.086	0.109
-382.960	-62.710	0.272	0.113
-381.946	-75.908	0.230	-0.081
-380.931	-39.443	0.113	0.059
-379.917	-93.457	0.161	0.045
-378.902	-50.526	0.227	0.107
-377.888	-36.609	0.152	-0.082
-376.873	-45.828	0.225	0.111
-375.858	745.798	0.116	-0.311
-374.844	88.914	-0.192	-0.213
-373.829	311.879	-0.079	-0.148
-372.815	302.431	-0.139	-0.258
-371.800	-86.039	0.219	-0.068
-370.785	781.479	0.106	0.291
-369.771	-200.000	-0.021	0.121
-368.756	595.039	0.014	-0.034
-367.742	-61.404	-0.379	-0.159
-366.727	-12.991	-0.179	0.116
-365.712	-96.117	0.286	-0.076
-364.698	-59.293	0.259	0.112
-363.683	-7.223	0.067	0.045
-362.669	50.812	-0.188	0.178
-361.654	-121.799	0.152	-0.025
-360.639	256.308	-0.036	-0.061
-359.625	-200.000	0.027	0.129
-358.610	187.497	0.178	-0.266
-357.596	800.000	-0.056	0.161
-356.581	-44.121	0.105	0.053
-355.566	149.634	0.173	-0.234
-354.552	35.336	-0.232	0.204
-353.537	800.000	-0.046	0.152
-352.523	532.991	0.066	-0.157
-351.508	-200.000	-0.081	-0.392
-350.493	-5.138	-0.072	0.050
-349.479	-200.000	-0.055	-0.411
-348.464	-200.000	0.007	0.124
-347.450	-31.345	-0.157	0.088
-346.435	-200.000	0.017	0.097
-345.420	-174.508	-0.396	0.011
-344.406	-111.113	-0.155	-0.032
-343.391	221.232	0.089	-0.142
-342.377	38.533	0.083	0.074
-341.362	109.004	0.023	-0.027
-340.348	199.254	-0.046	0.071
-339.333	-44.084	0.252	-0.126
-338.318	-60.303	-0.253	-0.108
-337.304	-106.385	-0.148	-0.033
-336.289	-148.339	0.392	-0.032
-335.275	2.167	0.066	-0.048
-334.260	-102.973	-0.042	-0.010
-333.245	-200.000	-0.006	0.279
-332.231	800.000	0.045	-0.123
-331.216	-200.000	-0.036	-0.319
-330.202	800.000	-0.050	-0.185
-329.187	-200.000	0.036	-0.194
-328.172	322.264	0.209	0.398
-327.158	255.687	-0.114	-0.196
-326.143	-66.538	0.201	0.080
-325.129	-86.853	0.059	0.018
-324.114	800.000	-0.064	-0.194
-323.099	65.720	-0.066	-0.066
-322.085	800.000	-0.091	0.365
-321.070	21.723	-0.167	-0.136
-320.056	-30.862	-0.182	0.103
-319.041	800.000	-0.064	0.255
-318.026	-105.656	-0.143	-0.032
-317.012	-142.901	0.206	0.020
-315.997	66.112	0.214	-0.217
-314.983	-200.000	-0.041	0.240
-313.968	800.000	0.074	-0.313
-312.953	-200.000	-0.031	-0.267
-311.939	78.253	0.150	-0.160
-310.924	161.637	-0.214	0.299
-309.910	271.437	-0.137	-0.240
-308.895	-87.316	0.369	0.112
-307.880	-168.477	0.144	-0.006
-306.866	116.451	-0.163	0.199
-305.851	-99.237	0.425	-0.107
-304.837	332.086	-0.148	0.284
-303.822	-200.000	-0.084	0.381
-302.807	584.420	0.027	-0.066
-301.793	-200.000	0.004	0.049
-300.778	163.600	-0.193	0.271
-299.764	-76.914	0.214	-0.075
-298.749	-200.000	-0.012	-0.114
-297.735	-188.780	-0.221	-0.003
-296.720	-91.567	-0.057	0.016
-295.705	-18.222	0.266	-0.166
-294.691	-48.102	-0.286	0.138
-293.676	-38.796	0.277	-0.146
-292.662	51.194	-0.041	-0.039
-291.647	-200.000	0.005	0.104
-290.632	112.392	-0.121	0.146
-289.618	63.824	0.252	0.253
-288.603	60.785	-0.376	0.372
-287.589	-109.445	-0.102	-0.022
-286.574	19.801	-0.205	-0.165
-285.559	-200.000	-0.027	-0.217
-284.545	-147.959	0.248	0.021
-283.530	156.887	-0.047	0.065
-282.516	-173.870	-0.153	0.005
-281.501	800.000	0.043	-0.146
-280.486	316.490	0.111	-0.208
-279.472	402.056	-0.041	0.086
-278.457	138.984	0.097	0.128
-277.443	644.490	-0.032	-0.082
-276.428	468.643	-0.100	0.223
-275.413	105.952	-0.276	-0.326
-274.399	2.456	-0.324	-0.234
-273.384	76.019	0.299	0.315
-272.370	-7.256	0.127	-0.086
-271.355	-7.372	-0.233	0.157
-270.340	-6.512	0.228	0.155
-269.326	-39.236	-0.276	0.145
-268.311	-114.588	0.380	-0.073
-267.297	-9.010	0.312	-0.208
-266.282	-93.453	0.038	-0.010
-265.267	-79.163	-0.326	0.110
-264.253	39.484	-0.227	0.203
-263.238	-40.409	0.308	0.159
-262.224	-48.171	-0.240	-0.115
-261.209	-92.947	0.113	0.031
-260.195	57.175	-0.285	-0.277
-259.180	-200.000	-0.004	-0.103
-258.165	4.234	-0.087	-0.063
-257.151	346.813	0.164	-0.321
-256.136	-200.000	-0.008	-0.266
-255.122	-2.192	0.097	-0.068
-254.107	-200.000	-0.015	0.159
-253.092	800.000	0.192	0.529
-252.078	-49.697	-0.395	-0.187
-251.063	-4.362	0.134	0.092
-250.049	-200.000	-0.019	0.150
-249.034	-200.000	-0.034	-0.344
-248.019	-200.000	0.014	0.239
-247.005	73.551	-0.103	-0.108
-245.990	800.000	-0.098	0.390
-244.976	-5.617	0.509	-0.348
-243.961	800.000	-0.015	0.059
-242.946	-88.705	-0.268	-0.079
-241.932	723.498	0.120	-0.317
-240.917	354.696	0.227	0.449
-239.903	77.018	-0.119	0.126
-238.888	-65.588	0.225	0.090
-237.873	518.265	0.006	-0.014
-236.859	49.777	-0.027	-0.025
-235.844	-158.121	-0.294	-0.017
-234.830	313.468	-0.153	-0.287
-233.815	74.423	0.131	0.137
-232.800	-48.022	0.144	-0.069
-231.786	-30.448	-0.201	-0.114
-230.771	31.961	-0.030	0.025
-229.757	-75.352	0.109	0.039
-228.742	22.716	0.087	0.071
-227.727	10.169	-0.302	0.229
-226.713	-200.000	-0.070	-0.349
-225.698	316.209	-0.008	-0.016
-224.684	-132.552	0.251	-0.032
-223.669	-177.813	-0.177	-0.004
-222.655	18.959	-0.229	-0.183
-221.640	411.954	-0.085	0.180
-220.625	7.147	0.123	-0.091
-219.611	-35.386	0.227	-0.123
-218.596	-50.363	-0.251	0.118
-217.582	800.000	-0.033	0.138
-216.567	-128.885	0.214	0.030
-215.552	-33.979	0.172	-0.094
-214.538	-200.000	0.045	0.369
-213.523	-52.992	0.221	-0.101
-212.509	-6.008	0.406	-0.276
-211.494	103.627	-0.160	0.186
-210.479	-119.519	-0.220	-0.038
-209.465	-69.703	0.113	0.043
-208.450	-200.000	-0.042	0.199
-207.436	800.000	-0.089	-0.299
-206.421	200.564	-0.093	-0.143
-205.406	-111.049	-0.117	0.024
-204.392	647.392	0.103	0.261
-203.377	289.497	-0.084	-0.151
-202.363	57.377	-0.139	0.135
-201.348	-200.000	0.042	-0.221
-200.333	-200.000	0.008	0.223
-199.319	-200.000	0.080	0.487
-198.304	-109.335	0.180	0.038
-197.290	119.770	-0.106	-0.130
-196.275	-60.166	-0.141	0.060
-195.260	-34.691	-0.035	0.019
-194.246	800.000	0.029	-0.099
-193.231	-200.000	0.010	-0.273
-192.217	800.000	-0.088	0.240
-191.202	800.000	-0.060	0.177
-190.187	-78.797	0.247	-0.084
-189.173	-200.000	-0.030	-0.231
-188.158	70.686	-0.279	-0.286
-187.144	-154.130	0.030	-0.002
-186.129	-73.739	0.072	-0.026
-185.114	-200.000	0.012	0.273
-184.100	800.000	0.070	-0.247
-183.085	467.383	-0.089	0.198
-182.071	-158.086	0.478	0.028
-181.056	-51.309	0.261	0.121
-180.042	117.059	-0.120	0.147
-179.027	800.000	0.039	-0.111
-178.012	52.454	-0.061	0.058
-176.998	31.724	0.292	-0.250
-175.983	44.071	-0.133	0.121
-174.969	14.505	0.120	0.093
-173.954	12.926	0.158	0.121
-172.939	-45.821	-0.120	0.059
-171.925	-66.831	0.152	0.059
-170.910	105.723	-0.205	0.241
-169.896	-63.566	0.422	0.172
-168.881	800.000	0.043	0.153
-167.866	775.127	-0.056	-0.152
-166.852	-96.230	-0.270	0.071
-165.837	-42.210	0.218	-0.110
-164.823	-139.019	-0.059	0.006
-163.808	800.000	-0.021	0.079
-162.793	23.193	0.130	0.106
-161.779	-200.000	-0.067	0.735
-160.764	18.279	0.285	0.226
-159.750	387.730	-0.032	0.066
-158.735	392.373	-0.106	-0.218
-157.720	-79.257	-0.182	0.061
-156.706	-200.000	-0.017	0.110
-155.691	-98.470	0.150	0.038
-154.677	-200.000	-0.032	-0.275
-153.662	-76.194	-0.232	0.081
-152.647	100.132	0.075	-0.086
-151.633	-142.107	-0.399	0.039
-150.618	18.256	0.190	0.150
-149.604	112.762	-0.102	-0.122
-148.589	-110.939	0.099	0.020
-147.574	-200.000	0.040	0.269
-146.560	19.797	0.081	-0.065
-145.545	800.000	-0.088	0.266
-144.531	-48.573	0.374	0.178
-143.516	459.521	0.137	0.302
-142.502	-200.000	0.018	-0.180
-141.487	-98.948	0.247	0.062
-140.472	-136.140	0.222	0.026
-139.458	-51.081	0.071	-0.033
-138.443	-26.860	0.180	0.105
-137.429	225.081	-0.027	0.043
-136.414	-97.660	0.185	0.048
-135.399	410.199	0.103	0.215
-134.385	-169.032	0.299	0.011
-133.370	-200.000	0.007	0.170
-132.356	152.924	0.059	0.080
-131.341	-106.064	-0.250	0.056
-130.326	74.507	0.160	0.167
-129.312	-132.636	-0.146	0.019
-128.297	-200.000	-0.090	0.417
-127.283	-82.597	0.050	-0.016
-126.268	-16.550	0.162	-0.102
-125.253	91.116	-0.117	0.130
-124.239	55.104	0.159	0.152
-123.224	-200.000	0.009	-0.067
-122.210	-146.891	0.173	0.015
-121.195	-84.304	-0.186	0.058
