DTS Sentinel unit serial number:	SN413079Multiplexer serial number:	ORYXHardware model number:	OX4-SRSoftware version number:	ORYX F/W v4.00 Oryx Data Collector v3.7.2.0data status	okinstallation	princeton_trtdifferential loss correction	single-endedforward channel	channel 4reverse channel	N/Adate	2019/09/17time	10:37:34forward acquisition time	60.00reverse acquisition time	0.00gamma	496.2192k internal	0.2310k external	0.2310temperature offset calibration	0.9974default loss term (dB/km)	0.3790temperature slope calibration	1.0000multiplexer offset coefficient	1.0000multiplexer slope coefficient	1.0000fibre end	0.00T internal ref (°C)	30.06T ext. ref 1 (°C)	0.17T ext. ref 2 (°C)	25.66length (m)	temperature (°C)	Stokes	anti-Stokes-747.200	-200.000	-0.004	-0.148
-746.185	800.000	-0.029	0.120
-745.171	72.800	0.026	0.028
-744.156	800.000	-0.081	-0.259
-743.142	110.050	0.133	0.162
-742.127	62.938	-0.009	-0.009
-741.112	44.197	0.118	-0.110
-740.098	116.523	-0.220	0.274
-739.083	628.574	-0.142	0.364
-738.069	-200.000	-0.032	0.160
-737.054	58.752	0.211	0.211
-736.039	-95.029	0.094	-0.026
-735.025	-200.000	-0.046	-0.411
-734.010	502.860	-0.171	-0.400
-732.996	342.016	0.169	-0.336
-731.981	-178.781	-0.184	-0.004
-730.966	800.000	-0.041	0.145
-729.952	-46.296	-0.097	-0.049
-728.937	-154.812	-0.211	-0.014
-727.923	-138.955	-0.106	-0.012
-726.908	800.000	0.110	-0.367
-725.894	800.000	-0.071	-0.260
-724.879	800.000	-0.028	-0.096
-723.864	271.528	-0.128	0.229
-722.850	-165.330	-0.152	0.007
-721.835	-200.000	0.041	-0.419
-720.821	-85.572	-0.204	0.064
-719.806	-140.091	0.447	-0.048
-718.791	-200.000	-0.051	0.253
-717.777	161.714	0.103	0.146
-716.762	-31.631	-0.210	-0.120
-715.748	37.162	0.373	0.335
-714.733	800.000	0.090	0.281
-713.718	57.344	0.100	-0.099
-712.704	-200.000	0.038	-0.243
-711.689	-162.987	0.076	0.004
-710.675	-200.000	-0.041	-0.261
-709.660	-15.685	0.366	0.236
-708.645	-81.049	-0.327	0.110
-707.631	800.000	0.039	-0.158
-706.616	-143.491	-0.294	0.028
-705.602	-200.000	0.192	-0.001
-704.587	413.993	-0.088	-0.191
-703.572	208.376	0.058	-0.092
-702.558	33.233	0.220	0.193
-701.543	229.446	0.127	-0.210
-700.529	-60.643	-0.237	0.102
-699.514	-87.462	-0.349	-0.107
-698.499	800.000	-0.022	0.088
-697.485	148.231	-0.077	-0.105
-696.470	-109.848	-0.232	-0.049
-695.456	-100.195	-0.202	-0.051
-694.441	187.219	0.091	0.138
-693.426	-200.000	0.054	-0.343
-692.412	199.714	0.140	-0.217
-691.397	-153.936	-0.107	-0.007
-690.383	-200.000	-0.059	-0.287
-689.368	64.195	-0.244	-0.249
-688.354	65.054	0.251	-0.257
-687.339	51.929	-0.137	0.133
-686.324	283.624	-0.033	0.060
-685.310	-125.395	-0.317	0.049
-684.295	158.801	-0.092	0.130
-683.281	104.487	0.201	0.240
-682.266	96.897	-0.307	-0.357
-681.251	-82.038	0.283	-0.094
-680.237	-25.696	-0.112	-0.067
-679.222	279.095	0.139	0.251
-678.208	36.242	-0.059	0.052
-677.193	85.192	-0.162	-0.181
-676.178	-200.000	-0.031	-0.208
-675.164	76.769	0.143	0.153
-674.149	-165.223	-0.243	-0.011
-673.135	-166.068	-0.216	-0.009
-672.120	-140.687	-0.193	-0.020
-671.105	26.399	0.302	0.255
-670.091	-200.000	0.000	-0.019
-669.076	220.631	-0.334	0.542
-668.062	421.709	-0.079	0.173
-667.047	35.662	0.307	-0.273
-666.032	57.726	0.160	-0.159
-665.018	-200.000	-0.006	0.187
-664.003	-200.000	0.031	-0.161
-662.989	86.568	0.081	-0.090
-661.974	-124.476	-0.127	0.020
-660.959	-77.959	0.195	-0.068
-659.945	137.177	-0.013	0.017
-658.930	-200.000	-0.008	0.069
-657.916	194.492	-0.197	0.303
-656.901	793.877	0.118	0.329
-655.886	103.343	-0.116	0.138
-654.872	400.988	-0.086	0.182
-653.857	646.866	0.026	0.068
-652.843	-115.344	-0.211	0.040
-651.828	358.628	-0.043	-0.087
-650.814	423.025	0.081	0.175
-649.799	25.140	0.105	0.088
-648.784	261.559	0.159	-0.278
-647.770	495.181	0.153	-0.357
-646.755	158.992	0.092	0.129
-645.741	411.418	-0.219	-0.469
-644.726	-37.737	-0.149	0.080
-643.711	-74.637	0.033	-0.012
-642.697	4.622	0.223	-0.166
-641.682	-158.111	-0.064	0.004
-640.668	-200.000	0.035	0.361
-639.653	-200.000	0.006	-0.268
-638.638	-39.215	-0.191	-0.102
-637.624	-111.465	-0.119	0.025
-636.609	68.117	0.174	-0.180
-635.595	624.143	0.123	0.314
-634.580	128.304	0.287	0.369
-633.565	-200.000	-0.004	0.111
-632.551	120.559	0.090	0.113
-631.536	281.481	-0.093	-0.169
-630.522	-200.000	0.024	-0.116
-629.507	800.000	0.018	-0.061
-628.492	355.541	0.064	-0.129
-627.478	-200.000	-0.055	-0.322
-626.463	592.930	-0.142	-0.354
-625.449	-178.597	0.086	0.002
-624.434	-200.000	0.012	-0.117
-623.419	800.000	-0.093	-0.410
-622.405	502.932	0.074	-0.174
-621.390	-200.000	-0.012	-0.361
-620.376	-88.583	0.498	-0.150
-619.361	331.452	0.045	-0.088
-618.346	-88.395	-0.329	-0.099
-617.332	110.573	-0.262	-0.318
-616.317	-200.000	0.003	-0.365
-615.303	24.096	0.261	0.218
-614.288	23.836	-0.097	-0.080
-613.273	49.401	0.197	0.187
-612.259	-93.615	-0.308	0.086
-611.244	299.020	-0.164	0.304
-610.230	100.218	0.184	-0.216
-609.215	800.000	-0.068	-0.245
-608.201	-117.997	-0.063	0.011
-607.186	-91.540	-0.347	-0.100
-606.171	-200.000	-0.036	0.284
-605.157	-200.000	-0.001	0.136
-604.142	-200.000	0.003	0.052
-603.128	-36.674	-0.107	-0.058
-602.113	-120.687	-0.226	-0.039
-601.098	800.000	-0.047	0.156
-600.084	800.000	0.034	0.124
-599.069	-200.000	0.004	0.173
-598.055	232.406	0.176	-0.291
-597.040	54.860	-0.215	-0.210
-596.025	-76.645	0.096	0.034
-595.011	-89.377	0.335	0.100
-593.996	376.880	-0.185	-0.381
-592.982	-175.432	-0.164	0.005
-591.967	-59.944	0.198	0.085
-590.952	193.873	-0.156	-0.239
-589.938	-200.000	-0.009	0.056
-588.923	-200.000	-0.056	-0.265
-587.909	-47.984	-0.323	-0.158
-586.894	-129.695	0.183	-0.025
-585.879	-200.000	0.047	-0.212
-584.865	-128.009	-0.139	0.020
-583.850	-51.628	0.413	0.195
-582.836	800.000	-0.018	0.077
-581.821	-104.036	-0.164	0.039
-580.806	69.489	0.074	-0.077
-579.792	-53.080	-0.179	-0.083
-578.777	455.057	0.115	-0.258
-577.763	103.082	-0.227	-0.268
-576.748	213.369	0.087	-0.139
-575.733	-58.787	0.062	0.027
-574.719	47.501	0.266	-0.250
-573.704	-21.992	-0.170	-0.104
-572.690	-200.000	-0.013	-0.318
-571.675	-68.668	0.166	0.065
-570.661	-46.841	-0.182	-0.090
-569.646	800.000	0.034	0.126
-568.631	-63.900	0.245	0.101
-567.617	-11.380	-0.148	-0.098
-566.602	-200.000	-0.043	-0.312
-565.588	240.801	-0.167	-0.281
-564.573	-200.000	0.079	-0.371
-563.558	-3.213	0.129	0.091
-562.544	25.711	-0.140	0.118
-561.529	-200.000	0.020	-0.207
-560.515	-94.796	-0.158	0.043
-559.500	-200.000	0.027	0.123
-558.485	227.588	-0.020	0.032
-557.471	49.781	-0.140	-0.133
-556.456	-108.493	0.052	0.011
-555.442	-200.000	-0.000	-0.198
-554.427	175.736	-0.056	-0.082
-553.412	237.279	0.214	0.358
-552.398	-200.000	-0.037	0.201
-551.383	-149.414	0.398	-0.032
-550.369	-124.637	-0.149	-0.023
-549.354	-200.000	0.023	-0.141
-548.339	126.915	-0.116	-0.148
-547.325	50.762	0.037	-0.036
-546.310	-200.000	0.011	-0.165
-545.296	313.811	-0.054	-0.102
-544.281	800.000	-0.055	0.170
-543.266	-100.639	-0.289	0.072
-542.252	357.810	0.023	0.046
-541.237	800.000	0.126	0.374
-540.223	199.663	-0.084	-0.129
-539.208	101.635	-0.045	-0.053
-538.193	800.000	-0.053	0.148
-537.179	135.013	-0.124	-0.163
-536.164	-200.000	-0.092	0.413
-535.150	800.000	0.044	-0.129
-534.135	-200.000	0.006	0.159
-533.121	800.000	-0.066	0.197
-532.106	-200.000	-0.017	-0.096
-531.091	30.323	0.101	0.087
-530.077	-17.277	0.117	-0.074
-529.062	9.254	-0.414	0.315
-528.048	16.190	-0.102	-0.081
-527.033	-48.287	-0.079	0.038
-526.018	-200.000	-0.030	-0.293
-525.004	-103.601	0.224	-0.053
-523.989	-125.011	0.189	0.029
-522.975	18.305	0.164	-0.132
-521.960	-200.000	-0.022	-0.290
-520.945	-200.000	0.026	-0.313
-519.931	-11.124	0.211	-0.140
-518.916	282.363	0.113	-0.204
-517.902	-200.000	0.018	0.122
-516.887	351.264	0.035	-0.070
-515.872	327.103	-0.219	-0.422
-514.858	126.795	0.217	-0.276
-513.843	-27.589	0.156	0.091
-512.829	319.683	-0.132	-0.253
-511.814	-127.817	0.201	0.029
-510.799	-160.133	0.140	-0.008
-509.785	-178.533	-0.321	-0.007
-508.770	185.006	-0.142	-0.212
-507.756	314.926	-0.068	-0.129
-506.741	-171.012	-0.326	0.011
-505.726	262.942	-0.068	0.118
-504.712	83.610	0.085	-0.093
-503.697	-64.313	0.176	-0.072
-502.683	13.580	0.420	0.328
-501.668	22.027	-0.134	-0.110
-500.653	-56.706	0.310	0.138
-499.639	-200.000	-0.021	0.166
-498.624	-48.154	-0.375	-0.182
-497.610	-74.555	0.111	-0.040
-496.595	-114.600	-0.072	0.014
-495.581	82.175	0.225	0.246
-494.566	-80.249	-0.416	-0.140
-493.551	800.000	0.154	0.513
-492.537	-200.000	-0.016	-0.338
-491.522	173.615	-0.115	0.168
-490.508	-34.689	0.175	0.096
-489.493	300.417	-0.105	-0.195
-488.478	385.403	-0.077	-0.159
-487.464	380.331	0.076	-0.156
-486.449	-189.294	0.185	-0.002
-485.435	619.141	-0.254	0.641
-484.420	-200.000	-0.054	0.376
-483.405	-20.616	-0.195	0.120
-482.391	-200.000	0.045	0.339
-481.376	-120.748	0.084	-0.014
-480.362	-200.000	0.002	-0.070
-479.347	-200.000	-0.004	-0.378
-478.332	800.000	-0.076	-0.239
-477.318	800.000	0.110	-0.316
-476.303	85.637	0.173	0.191
-475.289	-54.703	0.199	0.090
-474.274	-110.105	0.226	-0.047
-473.259	130.780	-0.181	0.234
-472.245	800.000	-0.018	0.065
-471.230	644.066	-0.076	-0.194
-470.216	-119.823	-0.185	-0.032
-469.201	4.007	-0.147	-0.108
-468.186	-200.000	-0.003	0.028
-467.172	-142.771	-0.348	0.034
-466.157	211.809	0.193	-0.306
-465.143	-200.000	0.033	0.299
-464.128	517.040	-0.051	-0.119
-463.113	-200.000	0.059	-0.451
-462.099	-80.958	0.331	-0.110
-461.084	800.000	0.091	0.263
-460.070	673.194	-0.095	0.247
-459.055	168.805	-0.141	0.201
-458.040	29.825	-0.075	0.065
-457.026	20.936	0.182	0.148
-456.011	465.708	-0.092	0.208
-454.997	73.245	0.110	-0.116
-453.982	108.733	0.207	-0.249
-452.968	227.526	-0.052	0.085
-451.953	-5.266	0.152	0.105
-450.938	-186.281	-0.137	-0.002
-449.924	352.084	-0.037	-0.075
-448.909	-0.248	-0.090	0.065
-447.895	-200.000	0.003	-0.072
-446.880	-200.000	-0.050	0.294
-445.865	160.162	-0.141	-0.198
-444.851	-77.123	0.013	-0.005
-443.836	-75.901	0.184	0.066
-442.822	-114.284	-0.311	-0.060
-441.807	614.029	-0.116	0.293
-440.792	-113.955	0.487	-0.095
-439.778	18.765	0.180	0.144
-438.763	-48.459	-0.085	-0.041
-437.749	-32.009	0.123	0.069
-436.734	-116.852	-0.246	0.045
-435.719	97.208	0.049	-0.057
-434.705	-2.204	0.337	-0.237
-433.690	-200.000	-0.006	-0.229
-432.676	800.000	0.107	0.433
-431.661	-35.186	-0.064	0.035
-430.646	-144.649	0.211	0.020
-429.632	-167.352	0.262	0.011
-428.617	-116.306	0.288	-0.053
-427.603	202.425	-0.089	0.138
-426.588	-147.460	0.403	0.034
-425.573	-12.518	-0.132	0.087
-424.559	92.171	-0.153	-0.173
-423.544	800.000	0.051	-0.215
-422.530	800.000	0.048	-0.192
-421.515	800.000	0.042	-0.151
-420.500	-138.994	0.240	-0.026
-419.486	66.270	-0.132	0.135
-418.471	-194.511	-0.085	0.001
-417.457	-200.000	0.051	-0.280
-416.442	-96.397	-0.132	0.035
-415.428	15.394	-0.011	0.008
-414.413	-41.004	0.201	0.104
-413.398	-25.123	-0.149	-0.088
-412.384	99.416	0.306	-0.355
-411.369	-109.957	0.282	0.059
-410.355	-75.552	-0.179	-0.064
-409.340	-69.469	-0.329	-0.127
-408.325	19.609	0.212	0.171
-407.311	-57.457	-0.256	0.113
-406.296	-36.623	-0.346	-0.187
-405.282	800.000	0.103	-0.382
-404.267	360.373	0.061	0.122
-403.252	-41.996	-0.273	0.140
-402.238	256.752	0.203	0.349
-401.223	57.827	-0.129	-0.126
-400.209	-9.128	0.185	0.124
-399.194	-200.000	-0.024	0.117
-398.179	-135.739	-0.051	0.006
-397.165	-200.000	-0.007	-0.159
-396.150	173.795	0.130	0.188
-395.136	26.344	0.142	0.119
-394.121	-200.000	-0.002	0.162
-393.106	-27.168	0.186	-0.108
-392.092	-8.997	-0.104	0.070
-391.077	-82.625	0.056	-0.018
-390.063	-179.967	-0.295	0.006
-389.048	-85.228	-0.231	0.072
-388.033	207.388	0.096	-0.150
-387.019	-38.339	0.167	0.088
-386.004	800.000	-0.035	0.125
-384.990	-100.185	-0.154	0.038
-383.975	-174.102	-0.205	0.006
-382.960	-43.165	-0.233	0.118
-381.946	-91.093	-0.098	-0.028
-380.931	-48.934	-0.111	-0.053
-379.917	-70.526	-0.095	0.036
-378.902	-57.914	-0.408	-0.178
-377.888	-200.000	0.007	0.069
-376.873	-94.588	0.200	-0.054
-375.858	-131.794	0.151	0.020
-374.844	-130.797	0.437	0.059
-373.829	83.268	0.142	-0.155
-372.815	96.675	0.249	0.285
-371.800	-104.089	-0.437	0.102
-370.785	688.929	0.202	0.528
-369.771	-91.352	-0.179	-0.051
-368.756	154.720	-0.159	-0.218
-367.742	-117.453	0.301	0.054
-366.727	-72.254	-0.051	0.019
-365.712	-44.766	-0.127	-0.063
-364.698	-25.491	0.243	0.144
-363.683	800.000	0.046	0.144
-362.669	600.437	-0.153	-0.379
-361.654	800.000	-0.121	-0.371
-360.639	-76.676	-0.054	0.019
-359.625	-200.000	-0.033	-0.369
-358.610	-158.349	0.055	-0.003
-357.596	-200.000	0.012	-0.275
-356.581	-31.422	-0.249	-0.140
-355.566	149.087	0.069	0.093
-354.552	-76.936	-0.067	0.023
-353.537	-94.912	0.311	-0.084
-352.523	-161.183	0.179	-0.009
-351.508	-1.671	0.247	-0.174
-350.493	-147.336	0.310	-0.026
-349.479	-29.180	0.094	-0.054
-348.464	32.942	-0.209	0.181
-347.450	218.547	0.135	0.216
-346.435	-200.000	-0.022	0.490
-345.420	-17.253	0.113	-0.071
-344.406	-200.000	-0.064	-0.301
-343.391	-100.025	-0.154	0.038
-342.377	271.732	-0.136	0.240
-341.362	-99.382	-0.286	0.072
-340.348	-200.000	0.006	0.320
-339.333	-200.000	0.004	-0.037
-338.318	105.160	0.281	0.332
-337.304	-57.030	-0.275	-0.121
-336.289	-200.000	-0.061	-0.395
-335.275	-200.000	-0.002	0.162
-334.260	80.046	-0.222	-0.239
-333.245	177.364	-0.177	0.258
-332.231	-200.000	-0.026	-0.148
-331.216	207.428	0.106	-0.166
-330.202	117.202	0.132	0.162
-329.187	-148.955	-0.258	-0.021
-328.172	-21.980	-0.153	0.093
-327.158	-51.744	-0.208	0.097
-326.143	448.876	0.032	0.071
-325.129	2.814	-0.313	0.227
-324.114	186.098	0.097	0.144
-323.099	200.611	-0.029	0.044
-322.085	-129.385	-0.150	0.021
-321.070	-137.265	0.270	0.031
-320.056	143.160	-0.197	0.262
-319.041	149.399	-0.093	-0.125
-318.026	-44.434	-0.213	-0.106
-317.012	-200.000	-0.036	0.341
-315.997	-24.773	-0.299	0.178
-314.983	137.562	-0.469	0.613
-313.968	-116.597	-0.197	-0.036
-312.953	-15.424	0.133	-0.085
-311.939	10.399	-0.292	0.222
-310.924	120.049	-0.111	0.137
-309.910	303.450	-0.085	-0.157
-308.895	800.000	-0.088	0.313
-307.880	-150.299	0.244	-0.019
-306.866	251.216	0.019	0.032
-305.851	-74.285	-0.278	-0.100
-304.837	-200.000	-0.009	0.218
-303.822	-154.935	0.095	0.006
-302.807	-200.000	-0.014	0.249
-301.793	800.000	0.026	0.088
-300.778	-105.301	-0.311	0.071
-299.764	-200.000	0.057	-0.373
-298.749	-147.994	0.069	0.006
-297.735	-200.000	0.024	0.249
-296.720	-97.261	-0.459	0.120
-295.705	-110.368	0.247	0.051
-294.691	800.000	0.065	0.202
-293.676	5.906	-0.185	0.136
-292.662	-101.038	-0.061	0.015
-291.647	-132.726	-0.094	-0.012
-290.632	800.000	0.010	0.032
-289.618	27.303	-0.138	0.116
-288.603	-200.000	-0.302	0.001
-287.589	-151.228	0.243	0.018
-286.574	-103.993	0.097	0.023
-285.559	-80.347	-0.079	0.026
-284.545	107.361	-0.035	-0.042
-283.530	403.746	-0.070	-0.147
-282.516	-129.831	0.087	0.012
-281.501	59.423	-0.174	-0.171
-280.486	-200.000	-0.040	0.228
-279.472	335.214	0.067	0.130
-278.457	-92.901	0.357	-0.099
-277.443	-200.000	-0.032	-0.170
-276.428	54.203	0.109	-0.104
-275.413	-110.031	0.155	0.032
-274.399	39.823	0.323	-0.289
-273.384	173.933	-0.184	0.265
-272.370	-12.379	-0.155	0.101
-271.355	27.312	0.084	0.070
-270.340	-16.884	-0.358	0.226
-269.326	494.801	-0.087	-0.200
-268.311	176.219	0.203	-0.294
-267.297	-200.000	0.023	-0.267
-266.282	-65.548	0.225	0.090
-265.267	287.218	-0.111	-0.200
-264.253	344.426	-0.216	0.422
-263.238	-194.869	-0.226	-0.002
-262.224	-200.000	-0.086	-0.389
-261.209	-34.487	-0.236	-0.129
-260.195	-200.000	0.082	-0.397
-259.180	-141.833	-0.205	-0.020
-258.165	-57.107	0.190	-0.084
-257.151	68.496	0.078	-0.080
-256.136	-194.957	-0.127	0.001
-255.122	744.317	0.087	-0.234
-254.107	-106.410	0.287	0.064
-253.092	-20.643	0.086	-0.052
-252.078	2.191	-0.169	-0.121
-251.063	-39.176	0.127	-0.066
-250.049	550.894	0.149	-0.357
-249.034	153.226	-0.205	0.280
-248.019	-200.000	-0.017	0.185
-247.005	-37.816	0.167	0.088
-245.990	55.619	0.183	0.176
-244.976	-99.737	0.114	0.028
-243.961	214.590	0.212	0.334
-242.946	-42.500	0.158	-0.080
-241.932	-84.624	0.047	-0.015
-240.917	-34.515	-0.210	0.114
-239.903	171.895	0.108	0.154
-238.888	-200.000	-0.024	0.150
-237.873	-48.932	0.188	-0.090
-236.859	273.683	0.164	-0.289
-235.844	103.343	-0.162	-0.189
-234.830	247.199	0.055	-0.092
-233.815	-116.478	0.237	-0.043
-232.800	121.233	0.097	-0.120
-231.786	240.694	-0.025	-0.041
-230.771	800.000	-0.059	-0.244
-229.757	-119.022	0.358	0.062
-228.742	-103.932	-0.255	0.059
-227.727	174.595	0.108	-0.156
-226.713	-97.768	0.259	0.067
-225.698	-146.138	0.202	0.018
-224.684	-200.000	-0.012	0.137
-223.669	-125.877	0.221	-0.033
-222.655	-54.883	0.257	0.115
-221.640	-200.000	0.037	0.501
-220.625	800.000	-0.123	0.351
-219.611	-76.520	-0.141	-0.049
-218.596	-145.442	-0.090	0.008
-217.582	-113.212	0.338	-0.066
-216.567	-200.000	-0.049	0.460
-215.552	-144.437	-0.291	-0.027
-214.538	38.105	0.040	0.035
-213.523	-200.000	0.007	-0.063
-212.509	-47.232	-0.185	-0.090
-211.494	-200.000	-0.007	-0.087
-210.479	52.197	-0.149	-0.141
-209.465	-42.636	0.281	-0.142
-208.450	-56.312	0.461	0.204
-207.436	114.868	0.025	0.031
-206.421	-200.000	-0.045	-0.253
-205.406	800.000	-0.072	-0.231
-204.392	118.224	-0.212	-0.260
-203.377	221.110	0.092	0.147
-202.363	-200.000	-0.017	-0.112
-201.348	-96.347	-0.184	-0.049
-200.333	227.799	0.109	0.177
-199.319	-87.813	-0.348	0.104
-198.304	-200.000	0.006	0.164
-197.290	201.426	0.110	0.169
-196.275	-61.317	0.298	0.125
-195.260	-152.928	0.529	-0.037
-194.246	800.000	0.048	0.136
-193.231	240.630	-0.205	-0.340
-192.217	-71.529	-0.191	0.071
-191.202	10.727	0.051	0.039
-190.187	-114.214	0.169	0.032
-189.173	-200.000	0.018	0.230
-188.158	39.021	0.074	-0.065
-187.144	-103.615	0.152	0.035
-186.129	10.568	0.116	0.088
-185.114	800.000	0.045	-0.177
-184.100	186.840	0.134	0.198
-183.085	-39.341	0.270	-0.141
-182.071	-31.580	-0.187	-0.104
-181.056	261.376	0.070	-0.121
-180.042	800.000	-0.160	0.471
-179.027	518.920	0.087	0.201
-178.012	-200.000	0.011	0.195
-176.998	-12.719	-0.171	0.111
-175.983	251.483	0.142	-0.240
-174.969	800.000	0.159	0.552
-173.954	-0.196	-0.089	-0.063
-172.939	37.035	-0.259	-0.228
-171.925	-37.224	0.203	-0.108
-170.910	-86.583	-0.155	0.047
-169.896	-151.475	-0.173	-0.013
-168.881	24.740	0.083	-0.068
-167.866	-200.000	0.056	0.291
-166.852	-7.094	0.177	0.119
-165.837	-200.000	0.012	0.362
-164.823	143.817	-0.257	0.341
-163.808	800.000	0.124	0.486
-162.793	300.198	0.185	0.339
-161.779	210.246	0.163	0.254
-160.764	800.000	0.131	0.383
-159.750	-200.000	-0.016	0.426
-158.735	-126.175	-0.482	-0.072
-157.720	-200.000	0.003	-0.310
-156.706	-138.743	-0.084	0.009
-155.691	21.551	0.019	-0.015
-154.677	-200.000	-0.003	-0.076
-153.662	95.926	0.113	0.128
-152.647	85.493	-0.142	-0.155
-151.633	-200.000	-0.033	0.178
-150.618	-47.609	0.206	0.099
-149.604	24.991	0.186	0.153
-148.589	800.000	0.125	-0.350
-147.574	72.338	0.183	0.190
-146.560	-200.000	-0.035	-0.186
-145.545	70.172	0.157	0.161
-144.531	800.000	-0.010	0.040
-143.516	85.696	0.133	-0.146
-142.502	351.723	-0.086	0.169
-141.487	544.104	-0.098	-0.231
-140.472	187.489	0.082	-0.121
-139.458	-200.000	-0.053	0.402
-138.443	311.792	-0.109	0.203
-137.429	184.741	0.216	-0.318
-136.414	-4.769	0.199	0.136
-135.399	182.272	-0.191	0.279
-134.385	-101.375	0.283	0.068
-133.370	-43.704	0.261	0.130
-132.356	-200.000	-0.081	0.558
-131.341	-200.000	0.016	0.125
-130.326	610.848	-0.124	0.308
-129.312	-64.508	-0.230	-0.092
-128.297	71.221	0.076	-0.078
-127.283	-100.207	0.025	0.006
-126.268	-103.770	0.184	-0.043
-125.253	146.234	-0.195	0.260
-124.239	223.360	-0.088	-0.141
-123.224	80.122	-0.153	-0.163
-122.210	-31.682	0.147	-0.082
