DTS Sentinel unit serial number:	SN413079Multiplexer serial number:	ORYXHardware model number:	OX4-SRSoftware version number:	ORYX F/W v4.00 Oryx Data Collector v3.7.2.0data status	okinstallation	princeton_trtdifferential loss correction	single-endedforward channel	channel 4reverse channel	N/Adate	2019/09/13time	04:25:35forward acquisition time	60.00reverse acquisition time	0.00gamma	496.2192k internal	0.2322k external	0.2322temperature offset calibration	1.0194default loss term (dB/km)	0.3790temperature slope calibration	1.0000multiplexer offset coefficient	1.0000multiplexer slope coefficient	1.0000fibre end	0.00T internal ref (°C)	26.75T ext. ref 1 (°C)	4.05T ext. ref 2 (°C)	21.17length (m)	temperature (°C)	Stokes	anti-Stokes-747.200	-137.997	0.112	-0.013
-746.185	30.455	-0.085	0.073
-745.171	-200.000	-0.033	-0.211
-744.156	19.645	-0.262	0.213
-743.142	198.499	-0.057	-0.088
-742.127	-200.000	-0.033	-0.270
-741.112	800.000	0.051	-0.198
-740.098	-112.970	0.315	-0.063
-739.083	-138.249	0.173	0.019
-738.069	-200.000	0.046	0.242
-737.054	428.286	-0.009	-0.020
-736.039	65.910	0.313	0.321
-735.025	220.274	-0.264	0.427
-734.010	-21.845	-0.392	-0.241
-732.996	-120.660	0.333	-0.057
-731.981	800.000	-0.051	-0.154
-730.966	-200.000	-0.015	0.129
-729.952	128.989	-0.235	-0.302
-728.937	151.406	0.165	-0.227
-727.923	-61.060	-0.199	0.085
-726.908	-53.471	-0.135	-0.062
-725.894	-166.491	-0.512	-0.022
-724.879	67.045	-0.066	-0.068
-723.864	-200.000	0.027	0.322
-722.850	-142.620	-0.227	-0.022
-721.835	550.903	0.065	-0.158
-720.821	800.000	-0.041	-0.133
-719.806	67.760	0.193	0.199
-718.791	192.960	-0.060	0.091
-717.777	800.000	-0.062	-0.210
-716.762	1.565	0.459	-0.333
-715.748	800.000	-0.074	-0.250
-714.733	494.150	0.028	0.065
-713.718	-200.000	0.003	0.379
-712.704	337.225	0.071	-0.139
-711.689	-66.408	-0.281	0.113
-710.675	-200.000	-0.072	-0.326
-709.660	-107.941	-0.058	0.013
-708.645	-29.986	0.137	0.079
-707.631	-170.920	-0.154	-0.005
-706.616	353.646	0.117	-0.235
-705.602	-64.381	-0.243	-0.100
-704.587	15.854	-0.316	-0.251
-703.572	-13.379	-0.154	-0.101
-702.558	800.000	0.036	-0.119
-701.543	-92.995	-0.052	-0.015
-700.529	108.870	0.122	-0.148
-699.514	-151.047	-0.214	-0.016
-698.499	-185.553	0.267	0.004
-697.485	5.394	-0.087	-0.064
-696.470	-63.326	0.159	0.066
-695.456	-200.000	-0.004	0.072
-694.441	2.279	-0.067	0.049
-693.426	800.000	-0.142	-0.562
-692.412	-113.276	-0.163	-0.032
-691.397	-200.000	-0.040	0.495
-690.383	95.865	-0.090	0.104
-689.368	188.962	0.154	0.232
-688.354	159.816	-0.084	-0.118
-687.339	-21.180	0.155	-0.095
-686.324	10.275	0.165	0.126
-685.310	17.992	-0.231	-0.186
-684.295	88.215	0.163	-0.183
-683.281	-76.157	-0.346	0.123
-682.266	199.912	-0.087	-0.134
-681.251	800.000	-0.027	-0.084
-680.237	800.000	0.117	-0.405
-679.222	31.528	0.136	0.118
-678.208	800.000	-0.098	-0.377
-677.193	-200.000	-0.003	-0.082
-676.178	-200.000	-0.001	0.225
-675.164	177.357	0.081	-0.120
-674.149	72.066	-0.076	-0.079
-673.135	-178.064	-0.354	0.008
-672.120	-14.785	-0.137	-0.089
-671.105	800.000	0.081	-0.235
-670.091	-121.023	-0.318	-0.054
-669.076	-160.312	-0.230	0.012
-668.062	-42.138	0.310	0.160
-667.047	3.888	-0.117	-0.086
-666.032	-200.000	0.028	0.452
-665.018	-200.000	-0.053	-0.291
-664.003	-3.901	0.243	-0.170
-662.989	-77.180	-0.198	0.070
-661.974	257.016	-0.048	0.083
-660.959	-200.000	0.032	0.175
-659.945	18.805	-0.156	-0.125
-658.930	-131.739	-0.318	0.042
-657.916	131.776	0.095	-0.123
-656.901	36.536	-0.141	0.126
-655.886	-200.000	-0.355	0.000
-654.872	-200.000	-0.063	0.323
-653.857	-200.000	-0.001	-0.137
-652.843	16.310	0.351	-0.279
-651.828	-13.429	0.062	0.040
-650.814	141.176	-0.154	-0.205
-649.799	-200.000	-0.031	0.156
-648.784	43.241	0.097	-0.089
-647.770	-73.171	0.167	-0.061
-646.755	-60.111	0.085	-0.037
-645.741	-91.149	-0.071	0.020
-644.726	29.995	-0.183	-0.157
-643.711	540.697	-0.015	0.037
-642.697	42.523	-0.159	-0.146
-641.682	-114.431	-0.216	-0.042
-640.668	-102.394	-0.183	0.044
-639.653	613.110	0.089	0.223
-638.638	-200.000	0.040	0.000
-637.624	64.925	0.166	-0.169
-636.609	-103.449	0.252	-0.060
-635.595	392.000	-0.091	0.189
-634.580	-171.426	0.335	-0.011
-633.565	-118.213	-0.191	0.034
-632.551	800.000	-0.034	-0.124
-631.536	4.276	-0.213	-0.157
-630.522	62.301	0.229	0.230
-629.507	252.135	-0.108	0.185
-628.492	-61.437	0.264	0.112
-627.478	-106.330	0.178	-0.040
-626.463	-141.582	0.140	-0.014
-625.449	27.110	-0.162	-0.137
-624.434	109.021	-0.055	-0.066
-623.419	367.960	-0.071	0.145
-622.405	-24.935	-0.076	0.045
-621.390	-116.430	0.534	-0.099
-620.376	-45.774	-0.190	0.095
-619.361	-109.097	0.056	0.012
-618.346	-81.779	0.042	0.014
-617.332	-103.194	-0.049	0.012
-616.317	-106.593	0.164	-0.037
-615.303	800.000	0.033	0.105
-614.288	-125.897	0.109	0.016
-613.273	-200.000	0.038	-0.345
-612.259	72.965	-0.229	-0.240
-611.244	-107.373	-0.376	-0.083
-610.230	-122.572	-0.258	0.042
-609.215	477.463	0.051	0.116
-608.201	800.000	-0.136	0.540
-607.186	-142.441	-0.016	-0.002
-606.171	-55.650	0.064	-0.029
-605.157	166.902	0.108	-0.153
-604.142	477.836	0.135	0.307
-603.128	-139.484	0.287	-0.031
-602.113	-104.094	0.384	0.090
-601.098	-117.540	0.717	0.130
-600.084	12.282	-0.273	-0.211
-599.069	10.353	0.106	-0.081
-598.055	-89.152	-0.090	-0.027
-597.040	-2.938	0.163	0.115
-596.025	800.000	-0.087	0.258
-595.011	151.878	0.347	0.475
-593.996	141.974	-0.164	0.219
-592.982	-3.614	0.059	0.041
-591.967	-185.455	-0.095	-0.001
-590.952	-140.302	-0.208	-0.022
-589.938	-90.416	-0.328	-0.096
-588.923	649.996	-0.068	0.176
-587.909	612.865	0.164	-0.413
-586.894	-21.881	-0.021	-0.013
-585.879	-136.034	-0.041	-0.005
-584.865	9.946	0.046	-0.035
-583.850	179.569	-0.121	0.178
-582.836	-30.568	-0.103	0.058
-581.821	-92.304	0.227	0.064
-580.806	-116.264	0.176	-0.033
-579.792	78.256	0.073	0.078
-578.777	-29.595	-0.377	0.216
-577.763	467.374	-0.203	0.457
-576.748	428.940	0.011	0.024
-575.733	-27.976	-0.075	-0.044
-574.719	800.000	-0.050	-0.184
-573.704	-135.796	0.185	0.022
-572.690	161.857	-0.199	-0.280
-571.675	4.164	-0.110	0.081
-570.661	-80.299	-0.070	0.024
-569.646	89.129	0.112	-0.125
-568.631	-26.736	0.051	-0.030
-567.617	70.026	-0.020	0.021
-566.602	189.317	0.069	-0.104
-565.588	-200.000	-0.012	0.069
-564.573	800.000	-0.096	-0.276
-563.558	69.061	0.140	0.144
-562.544	800.000	0.051	0.163
-561.529	-200.000	0.064	-0.349
-560.515	-153.534	0.227	-0.016
-559.500	-200.000	0.007	-0.115
-558.485	-200.000	-0.019	0.165
-557.471	-200.000	-0.039	0.181
-556.456	106.729	0.200	0.238
-555.442	-99.081	0.283	0.072
-554.427	-107.627	-0.279	0.061
-553.412	-3.882	0.068	0.047
-552.398	-25.285	0.075	-0.044
-551.383	90.120	-0.124	-0.139
-550.369	-200.000	0.073	0.360
-549.354	-97.232	0.151	-0.039
-548.339	-72.325	0.145	-0.054
-547.325	501.946	-0.085	-0.198
-546.310	-183.686	-0.316	0.005
-545.296	616.722	-0.062	0.156
-544.281	800.000	0.019	0.069
-543.266	-12.605	0.204	0.133
-542.252	-59.237	0.023	0.010
-541.237	520.932	0.069	0.163
-540.223	800.000	-0.078	0.227
-539.208	-200.000	0.022	0.124
-538.193	-51.052	-0.188	0.088
-537.179	30.050	0.158	0.135
-536.164	-140.936	0.039	-0.004
-535.150	7.020	-0.059	-0.044
-534.135	-96.409	0.140	0.037
-533.121	-83.864	0.176	0.056
-532.106	384.667	-0.155	-0.321
-531.091	-200.000	-0.295	-0.001
-530.077	279.399	-0.094	0.167
-529.062	-135.629	-0.344	0.041
-528.048	-102.559	0.169	0.041
-527.033	800.000	0.116	0.460
-526.018	-200.000	0.001	0.353
-525.004	-9.029	-0.122	0.082
-523.989	-125.542	-0.284	0.043
-522.975	75.245	0.150	-0.158
-521.960	72.188	-0.058	0.061
-520.945	800.000	0.023	0.079
-519.931	-140.662	0.357	-0.037
-518.916	800.000	-0.047	-0.142
-517.902	-171.309	0.452	-0.015
-516.887	-132.867	-0.391	-0.050
-515.872	73.020	0.118	-0.123
-514.858	-49.697	0.338	0.161
-513.843	503.065	-0.197	-0.455
-512.829	71.832	-0.194	0.202
-511.814	6.407	0.097	-0.072
-510.799	-101.418	-0.212	0.052
-509.785	-71.061	0.291	-0.110
-508.770	5.925	0.133	0.099
-507.756	27.178	-0.108	0.091
-506.741	-200.000	-0.042	0.535
-505.726	-113.989	-0.351	-0.068
-504.712	627.413	-0.069	-0.175
-503.697	800.000	-0.109	0.387
-502.683	-174.292	-0.193	-0.006
-501.668	389.075	-0.096	0.200
-500.653	-23.199	-0.253	0.152
-499.639	406.305	0.114	0.241
-498.624	800.000	0.094	-0.281
-497.610	-122.430	0.241	-0.039
-496.595	-200.000	-0.013	0.163
-495.581	12.872	-0.167	-0.129
-494.566	800.000	-0.154	0.462
-493.551	-200.000	-0.051	-0.260
-492.537	-6.825	-0.286	0.194
-491.522	495.537	-0.054	-0.124
-490.508	800.000	0.024	-0.068
-489.493	-61.713	0.098	0.041
-488.478	-200.000	-0.033	-0.158
-487.464	-34.623	-0.147	-0.081
-486.449	-58.269	0.145	-0.063
-485.435	-30.557	0.105	0.060
-484.420	-200.000	0.065	-0.292
-483.405	800.000	-0.068	0.214
-482.391	800.000	0.018	-0.072
-481.376	-38.731	0.202	0.107
-480.362	-49.636	-0.183	-0.087
-479.347	467.758	-0.156	-0.351
-478.332	-103.338	0.118	0.028
-477.318	-75.710	-0.194	-0.069
-476.303	-151.569	0.344	-0.025
-475.289	800.000	-0.092	0.256
-474.274	-200.000	0.010	-0.182
-473.259	-200.000	-0.022	0.109
-472.245	118.025	-0.240	-0.296
-471.230	800.000	0.050	-0.200
-470.216	800.000	0.017	0.057
-469.201	22.482	0.045	0.037
-468.186	225.346	0.127	0.205
-467.172	-200.000	-0.003	0.024
-466.157	800.000	0.062	-0.196
-465.143	-117.012	-0.208	0.038
-464.128	30.108	0.140	-0.119
-463.113	634.231	0.090	0.227
-462.099	-45.444	-0.241	0.119
-461.084	-200.000	-0.020	0.196
-460.070	416.446	-0.158	-0.338
-459.055	-200.000	-0.022	0.103
-458.040	315.504	-0.039	0.074
-457.026	-105.512	-0.458	0.104
-456.011	400.781	0.070	0.147
-454.997	-62.573	0.264	0.109
-453.982	800.000	-0.046	-0.141
-452.968	36.819	0.097	0.086
-451.953	800.000	-0.061	-0.185
-450.938	17.042	0.102	-0.081
-449.924	-68.606	0.021	-0.008
-448.909	-50.006	0.349	-0.165
-447.895	182.901	0.203	-0.300
-446.880	-200.000	0.001	-0.043
-445.865	143.439	-0.121	0.161
-444.851	-40.178	-0.283	0.147
-443.836	-119.177	-0.246	-0.043
-442.822	2.768	0.147	-0.107
-441.807	-200.000	-0.086	0.381
-440.792	800.000	-0.096	0.289
-439.778	16.895	-0.261	0.207
-438.763	-65.316	0.222	0.089
-437.749	-200.000	-0.041	-0.208
-436.734	-11.390	0.428	-0.282
-435.719	-200.000	0.025	-0.248
-434.705	-35.521	0.232	-0.126
-433.690	-13.012	0.245	0.159
-432.676	74.864	0.061	-0.064
-431.661	86.921	-0.172	-0.189
-430.646	-12.360	-0.101	0.066
-429.632	-200.000	0.011	-0.121
-428.617	-119.030	-0.234	-0.041
-427.603	-91.574	0.294	0.084
-426.588	-46.277	0.133	-0.065
-425.573	-172.902	-0.116	0.004
-424.559	176.515	0.174	-0.253
-423.544	565.122	-0.109	-0.263
-422.530	178.249	0.155	0.226
-421.515	-64.759	0.212	-0.086
-420.500	-200.000	0.018	0.123
-419.486	800.000	-0.055	0.212
-418.471	-200.000	0.071	-0.000
-417.457	751.793	-0.093	-0.252
-416.442	171.359	-0.150	0.214
-415.428	60.538	-0.113	0.111
-414.413	-32.052	0.171	-0.096
-413.398	-5.540	-0.117	0.080
-412.384	-143.215	-0.092	-0.009
-411.369	11.208	0.160	-0.122
-410.355	-21.765	0.285	-0.173
-409.340	304.473	0.094	-0.174
-408.325	74.648	-0.051	0.054
-407.311	-200.000	-0.032	0.259
-406.296	84.329	-0.226	-0.247
-405.282	-166.549	0.185	-0.008
-404.267	-85.594	0.243	0.075
-403.252	-163.976	-0.166	-0.008
-402.238	-12.136	-0.037	0.024
-401.223	-141.618	0.422	-0.042
-400.209	800.000	-0.043	-0.126
-399.194	-65.219	0.377	0.152
-398.179	-200.000	-0.002	0.199
-397.165	435.719	0.049	-0.105
-396.150	-192.717	0.155	0.001
-395.136	151.608	0.142	0.193
-394.121	79.067	-0.164	-0.176
-393.106	-45.370	0.054	-0.027
-392.092	271.477	-0.095	-0.166
-391.077	356.114	-0.201	-0.399
-390.063	-57.075	-0.113	0.050
-389.048	-22.195	-0.061	-0.037
-388.033	-140.949	0.141	0.014
-387.019	-200.000	-0.005	0.071
-386.004	-74.765	-0.193	0.069
-384.990	105.624	-0.165	0.194
-383.975	800.000	-0.071	0.204
-382.960	-79.019	-0.101	-0.034
-381.946	-37.171	0.338	0.180
-380.931	-200.000	-0.034	-0.287
-379.917	69.607	0.113	-0.116
-378.902	-140.269	-0.212	-0.022
-377.888	800.000	-0.054	-0.153
-376.873	76.100	0.162	-0.171
-375.858	-200.000	-0.018	-0.235
-374.844	800.000	-0.072	-0.208
-373.829	-29.921	-0.277	-0.157
-372.815	-200.000	0.038	-0.310
-371.800	156.307	0.080	-0.110
-370.785	800.000	-0.058	-0.216
-369.771	11.684	0.182	0.139
-368.756	227.526	0.126	-0.203
-367.742	-46.905	0.236	0.115
-366.727	-123.291	-0.426	0.068
-365.712	-88.132	-0.218	0.065
-364.698	-128.273	0.037	0.005
-363.683	208.732	-0.208	-0.325
-362.669	11.509	-0.077	-0.059
-361.654	-10.379	-0.161	-0.106
-360.639	2.321	-0.103	0.074
-359.625	-60.957	-0.026	-0.011
-358.610	-9.698	-0.296	0.196
-357.596	-200.000	-0.015	-0.180
-356.581	800.000	0.076	-0.212
-355.566	11.588	0.130	0.099
-354.552	170.765	-0.063	-0.090
-353.537	-42.587	-0.257	0.130
-352.523	144.383	-0.089	-0.118
-351.508	21.566	-0.198	-0.160
-350.493	-200.000	0.002	0.043
-349.479	94.398	-0.150	0.170
-348.464	-200.000	0.013	0.248
-347.450	105.414	-0.307	0.361
-346.435	379.382	0.038	0.078
-345.420	263.751	-0.197	-0.340
-344.406	-46.688	0.274	-0.133
-343.391	-200.000	-0.015	0.082
-342.377	-74.062	0.238	-0.086
-341.362	-85.011	-0.140	0.044
-340.348	83.350	-0.141	-0.153
-339.333	-131.720	0.240	0.031
-338.318	25.985	0.168	-0.139
-337.304	-168.818	-0.338	0.013
-336.289	-200.000	0.004	0.172
-335.275	-113.444	0.188	-0.037
-334.260	-106.706	-0.042	0.009
-333.245	327.810	0.110	0.210
-332.231	499.576	0.040	0.093
-331.216	-52.688	0.211	0.097
-330.202	-69.174	0.147	0.056
-329.187	295.813	0.119	-0.217
-328.172	38.671	0.171	-0.151
-327.158	-112.959	-0.150	0.029
-326.143	-80.283	0.011	0.004
-325.129	-115.615	-0.506	0.095
-324.114	800.000	-0.056	-0.161
-323.099	-200.000	-0.017	-0.442
-322.085	12.882	-0.127	0.097
-321.070	-200.000	0.031	-0.254
-320.056	-51.728	-0.182	-0.084
-319.041	-55.713	0.050	-0.022
-318.026	334.046	-0.035	0.068
-317.012	51.959	-0.078	-0.073
-315.997	-128.550	0.382	0.054
-314.983	341.988	-0.289	-0.562
-313.968	-200.000	0.058	-0.280
-312.953	25.052	0.267	0.220
-311.939	-200.000	-0.052	0.399
-310.924	-2.271	-0.227	0.159
-309.910	74.900	0.220	0.230
-308.895	-200.000	0.016	-0.325
-307.880	-147.806	0.125	0.010
-306.866	366.375	-0.066	0.132
-305.851	-200.000	-0.001	-0.187
-304.837	581.907	-0.023	-0.056
-303.822	-49.214	0.263	-0.125
-302.807	-200.000	-0.031	0.141
-301.793	-23.722	0.012	-0.007
-300.778	-111.287	-0.137	0.028
-299.764	159.474	-0.082	-0.113
-298.749	681.505	0.145	-0.376
-297.735	-57.523	-0.434	0.189
-296.720	73.727	0.132	0.137
-295.705	263.274	-0.148	-0.256
-294.691	454.988	-0.080	0.176
-293.676	-200.000	0.030	0.274
-292.662	800.000	0.078	0.322
-291.647	800.000	0.045	-0.151
-290.632	132.231	-0.112	0.143
-289.618	73.267	0.228	-0.237
-288.603	-46.374	-0.183	0.089
-287.589	-148.387	0.199	0.016
-286.574	-170.448	-0.075	0.003
-285.559	37.700	0.061	-0.054
-284.545	55.064	0.133	-0.128
-283.530	282.250	0.089	-0.159
-282.516	-125.628	-0.454	0.068
-281.501	-49.516	-0.179	-0.084
-280.486	-105.206	-0.134	-0.030
-279.472	164.178	0.149	0.208
-278.457	-50.933	-0.325	-0.151
-277.443	800.000	-0.109	-0.444
-276.428	-15.986	0.060	-0.038
-275.413	263.552	0.067	-0.115
-274.399	-200.000	0.050	-0.341
-273.384	-36.251	-0.371	0.199
-272.370	-54.108	0.247	-0.111
-271.355	13.027	-0.050	0.039
-270.340	-200.000	-0.046	-0.436
-269.326	-75.211	0.075	0.027
-268.311	232.057	-0.086	-0.140
-267.297	-19.090	-0.178	0.110
-266.282	407.236	-0.108	-0.225
-265.267	-120.871	0.085	0.014
-264.253	-200.000	0.018	-0.239
-263.238	768.683	0.063	0.170
-262.224	512.261	-0.063	0.146
-261.209	65.631	0.085	0.086
-260.195	-96.224	0.201	-0.053
-259.180	-200.000	0.004	0.098
-258.165	-200.000	0.109	-0.489
-257.151	49.995	-0.132	-0.123
-256.136	-100.604	-0.272	-0.067
-255.122	132.828	0.138	-0.177
-254.107	-119.286	0.218	0.038
-253.092	-80.277	-0.102	0.034
-252.078	40.697	-0.159	-0.142
-251.063	420.564	0.216	-0.458
-250.049	199.695	-0.127	-0.193
-249.034	-200.000	0.025	-0.236
-248.019	-124.536	0.139	0.021
-247.005	309.973	-0.046	0.086
-245.990	-200.000	0.109	0.505
-244.976	800.000	-0.087	0.292
-243.961	260.984	0.152	-0.261
-242.946	-7.395	-0.090	0.061
-241.932	800.000	-0.037	0.136
-240.917	52.139	0.266	-0.251
-239.903	165.238	-0.128	-0.180
-238.888	100.416	0.104	-0.119
-237.873	-200.000	-0.028	0.145
-236.859	-200.000	-0.058	0.333
-235.844	238.682	-0.065	0.107
-234.830	258.762	0.178	-0.303
-233.815	7.293	0.344	-0.254
-232.800	-115.854	0.203	0.038
-231.786	-99.709	-0.146	-0.036
-230.771	-154.018	0.136	-0.009
-229.757	-200.000	-0.006	0.064
-228.742	251.784	0.079	-0.133
-227.727	-200.000	-0.033	-0.222
-226.713	-200.000	-0.037	0.226
-225.698	39.736	-0.138	-0.123
-224.684	70.220	0.204	-0.208
-223.669	-182.987	0.206	0.004
-222.655	-82.471	0.234	-0.075
-221.640	-133.832	0.080	-0.010
-220.625	319.779	-0.080	0.150
-219.611	-200.000	-0.012	0.379
-218.596	770.510	-0.032	-0.087
-217.582	214.632	0.087	-0.137
-216.567	140.596	-0.082	0.108
-215.552	80.335	-0.242	0.258
-214.538	61.142	-0.235	0.231
-213.523	-200.000	0.003	-0.094
-212.509	235.510	0.093	-0.152
-211.494	-105.664	-0.184	-0.041
-210.479	-89.311	0.235	0.069
-209.465	-40.611	0.231	-0.119
-208.450	23.744	0.385	0.314
-207.436	242.250	-0.054	-0.090
-206.421	-179.956	0.209	-0.004
-205.406	800.000	0.029	-0.112
-204.392	-193.743	-0.322	0.003
-203.377	-200.000	0.048	0.255
-202.363	-37.804	-0.132	0.070
-201.348	-115.914	0.203	-0.038
-200.333	-72.482	-0.262	-0.096
-199.319	-92.516	-0.117	0.032
-198.304	-49.271	0.191	-0.090
-197.290	-27.430	-0.194	-0.112
-196.275	-17.404	-0.324	0.202
-195.260	674.473	0.074	-0.189
-194.246	-101.473	-0.126	0.030
-193.231	-104.251	-0.139	-0.032
-192.217	-110.639	0.225	0.046
-191.202	65.920	0.059	0.059
-190.187	367.904	-0.100	0.201
-189.173	45.290	-0.135	0.123
-188.158	-15.349	-0.186	-0.118
-187.144	-200.000	-0.018	0.304
-186.129	-200.000	0.063	0.286
-185.114	88.729	0.215	-0.236
-184.100	123.112	-0.189	-0.235
-183.085	-109.899	0.156	0.032
-182.071	62.397	-0.128	0.126
-181.056	-97.261	-0.348	0.090
-180.042	-139.996	0.445	0.046
-179.027	-149.331	-0.088	0.007
-178.012	-33.408	0.130	-0.071
-176.998	183.002	-0.117	0.171
-175.983	800.000	-0.096	0.359
-174.969	-52.340	0.165	0.076
-173.954	74.061	-0.286	-0.297
-172.939	128.788	0.314	0.395
-171.925	-200.000	-0.001	0.210
-170.910	-200.000	-0.013	0.242
-169.896	8.938	-0.232	0.173
-168.881	70.949	0.378	0.387
-167.866	325.226	-0.125	-0.236
-166.852	-36.162	-0.199	-0.106
-165.837	-200.000	0.008	-0.187
-164.823	-200.000	0.018	0.220
-163.808	-179.661	-0.268	-0.006
-162.793	-28.278	-0.240	-0.137
-161.779	800.000	-0.108	0.341
-160.764	-159.493	0.519	-0.029
-159.750	800.000	-0.030	-0.115
-158.735	800.000	-0.055	-0.212
-157.720	-61.209	0.114	0.047
-156.706	704.229	-0.109	0.284
-155.691	652.389	-0.028	0.072
-154.677	-19.115	0.326	0.200
-153.662	-21.675	0.231	-0.139
-152.647	-200.000	0.036	-0.239
-151.633	478.659	0.094	0.210
-150.618	-133.300	0.105	0.013
-149.604	-30.920	0.015	0.008
-148.589	800.000	-0.057	-0.179
-147.574	-126.726	0.146	0.021
-146.560	262.478	0.126	-0.215
-145.545	549.097	-0.098	-0.232
-144.531	93.598	-0.181	0.203
-143.516	800.000	-0.187	0.530
-142.502	38.472	0.344	-0.303
-141.487	-200.000	-0.004	-0.037
-140.472	800.000	0.012	-0.037
-139.458	-74.170	0.278	-0.099
-138.443	-154.216	-0.168	-0.011
-137.429	-200.000	0.064	0.321
-136.414	-105.841	0.363	0.081
-135.399	-68.700	-0.103	0.039
-134.385	54.547	0.093	0.089
-133.370	10.326	-0.289	0.217
-132.356	-10.519	-0.162	0.106
-131.341	40.320	-0.081	-0.072
-130.326	168.989	0.213	-0.299
-129.312	-149.839	-0.158	0.012
-128.297	134.179	-0.185	0.237
-127.283	364.828	0.140	-0.278
-126.268	-148.821	0.326	0.026
-125.253	566.511	0.092	0.220
-124.239	-25.469	0.409	0.238
-123.224	-165.893	-0.095	0.004
-122.210	13.268	0.124	-0.095
