DTS Sentinel unit serial number:	SN413079Multiplexer serial number:	ORYXHardware model number:	OX4-SRSoftware version number:	ORYX F/W v4.00 Oryx Data Collector v3.7.2.0data status	okinstallation	princeton_trtdifferential loss correction	single-endedforward channel	channel 4reverse channel	N/Adate	2019/09/14time	15:21:35forward acquisition time	60.00reverse acquisition time	0.00gamma	496.2192k internal	0.2291k external	0.2291temperature offset calibration	1.0140default loss term (dB/km)	0.3790temperature slope calibration	1.0000multiplexer offset coefficient	1.0000multiplexer slope coefficient	1.0000fibre end	0.00T internal ref (°C)	39.06T ext. ref 1 (°C)	5.11T ext. ref 2 (°C)	33.92length (m)	temperature (°C)	Stokes	anti-Stokes-747.200	401.068	0.108	-0.232
-746.185	-39.026	0.121	0.065
-745.171	-22.317	0.224	-0.139
-744.156	-200.000	-0.009	-0.194
-743.142	-76.088	0.190	0.069
-742.127	533.410	-0.060	-0.144
-741.112	49.726	0.121	-0.116
-740.098	-113.107	0.065	0.013
-739.083	-22.138	-0.116	0.072
-738.069	16.601	-0.097	0.078
-737.054	-133.857	-0.151	-0.019
-736.039	800.000	-0.051	-0.162
-735.025	-67.142	-0.083	-0.033
-734.010	-111.707	0.076	-0.016
-732.996	29.686	-0.081	0.071
-731.981	-200.000	0.015	-0.125
-730.966	-47.757	-0.141	0.070
-729.952	-114.984	0.226	-0.044
-728.937	-47.892	-0.051	-0.025
-727.923	-34.612	0.208	0.117
-726.908	69.379	-0.156	-0.164
-725.894	13.022	-0.107	0.085
-724.879	322.278	-0.047	0.091
-723.864	280.324	-0.040	0.073
-722.850	366.241	0.132	0.273
-721.835	-200.000	-0.052	0.351
-720.821	79.457	0.028	-0.031
-719.806	159.709	0.119	-0.169
-718.791	800.000	-0.074	0.272
-717.777	-200.000	-0.061	-0.316
-716.762	-121.039	-0.113	-0.019
-715.748	616.843	0.117	0.299
-714.733	-200.000	0.015	0.121
-713.718	-33.597	0.293	0.165
-712.704	800.000	-0.094	-0.280
-711.689	230.620	0.060	0.101
-710.675	-93.998	-0.188	-0.053
-709.660	-200.000	0.045	0.261
-708.645	-166.962	0.210	0.009
-707.631	-146.027	-0.312	0.028
-706.616	337.487	0.110	-0.219
-705.602	96.656	0.054	0.063
-704.587	800.000	-0.107	-0.330
-703.572	68.168	0.272	-0.285
-702.558	-78.644	-0.255	0.089
-701.543	-114.937	-0.118	-0.023
-700.529	-200.000	-0.020	-0.192
-699.514	244.772	0.125	-0.215
-698.499	-118.103	0.233	-0.043
-697.485	-19.703	-0.196	-0.124
-696.470	-200.000	-0.033	-0.247
-695.456	-47.893	0.190	-0.094
-694.441	-113.424	0.056	0.011
-693.426	-98.589	-0.160	0.042
-692.412	178.607	0.187	0.280
-691.397	-107.278	0.486	0.109
-690.383	118.488	0.165	0.208
-689.368	-109.234	0.188	-0.041
-688.354	5.362	0.241	0.182
-687.339	3.381	0.106	0.079
-686.324	-86.353	-0.156	0.049
-685.310	47.555	0.207	-0.197
-684.295	-99.490	0.304	-0.078
-683.281	51.775	-0.028	0.027
-682.266	-200.000	-0.020	-0.360
-681.251	214.370	0.143	0.231
-680.237	-95.753	-0.137	0.038
-679.222	-77.538	-0.210	-0.074
-678.208	-69.087	-0.177	-0.069
-677.193	800.000	0.074	-0.262
-676.178	-46.165	-0.180	-0.091
-675.164	259.809	-0.114	0.200
-674.149	-91.163	0.306	0.090
-673.135	-173.432	-0.007	-0.000
-672.120	167.696	0.215	0.312
-671.105	-200.000	-0.020	0.109
-670.091	286.026	0.083	0.153
-669.076	100.714	0.154	-0.183
-668.062	184.509	0.244	0.368
-667.047	-35.120	0.048	-0.027
-666.032	32.618	-0.131	-0.116
-665.018	447.193	0.123	-0.276
-664.003	-44.737	0.322	-0.164
-662.989	-50.140	-0.257	0.124
-661.974	478.893	-0.169	0.392
-660.959	103.546	-0.204	0.244
-659.945	26.641	-0.230	-0.197
-658.930	-200.000	-0.054	0.289
-657.916	384.423	0.056	0.117
-656.901	-200.000	-0.009	-0.305
-655.886	40.304	0.245	0.225
-654.872	-24.794	-0.297	-0.180
-653.857	-200.000	-0.028	-0.281
-652.843	800.000	0.096	0.291
-651.828	16.187	0.176	-0.142
-650.814	189.736	0.159	0.243
-649.799	2.793	0.259	-0.192
-648.784	14.405	-0.231	-0.184
-647.770	-48.377	-0.054	-0.026
-646.755	-200.000	-0.008	0.239
-645.741	421.707	-0.200	0.438
-644.726	-110.204	0.234	0.050
-643.711	-14.781	-0.236	-0.154
-642.697	-71.077	-0.229	-0.088
-641.682	-148.716	0.281	0.023
-640.668	34.150	-0.151	-0.135
-639.653	-176.952	0.252	-0.006
-638.638	-67.353	-0.267	0.107
-637.624	-6.833	-0.303	-0.210
-636.609	47.916	0.178	-0.169
-635.595	800.000	-0.135	0.443
-634.580	138.004	-0.129	0.172
-633.565	-72.385	0.171	-0.064
-632.551	-94.696	-0.058	0.016
-631.536	-35.754	-0.305	0.168
-630.522	597.975	-0.043	-0.109
-629.507	68.720	0.097	-0.102
-628.492	-200.000	-0.026	0.148
-627.478	-70.967	-0.264	0.101
-626.463	-200.000	0.043	0.266
-625.449	-200.000	-0.001	-0.069
-624.434	149.555	0.063	0.087
-623.419	149.456	-0.171	-0.236
-622.405	336.017	-0.067	-0.133
-621.390	54.303	0.222	0.218
-620.376	-23.857	-0.121	0.074
-619.361	-200.000	-0.007	0.047
-618.346	-200.000	0.024	0.250
-617.332	72.146	-0.164	0.174
-616.317	-47.736	-0.123	-0.061
-615.303	338.175	0.111	-0.220
-614.288	20.027	-0.077	-0.063
-613.273	-165.039	0.117	-0.005
-612.259	182.073	-0.139	0.209
-611.244	50.919	-0.201	-0.194
-610.230	317.614	0.110	-0.212
-609.215	-38.407	-0.037	0.020
-608.201	-200.000	-0.038	-0.276
-607.186	-200.000	-0.015	0.167
-606.171	566.344	0.086	0.211
-605.157	433.474	0.038	0.085
-604.142	-37.061	0.223	-0.121
-603.128	-92.947	0.175	0.050
-602.113	122.763	-0.041	0.053
-601.098	109.098	-0.097	0.118
-600.084	-168.838	-0.365	0.014
-599.069	259.518	-0.159	-0.280
-598.055	-91.784	0.151	0.044
-597.040	-66.983	-0.176	0.071
-596.025	-200.000	-0.021	-0.223
-595.011	-10.275	-0.350	-0.236
-593.996	-21.153	0.137	-0.085
-592.982	800.000	-0.126	-0.372
-591.967	426.792	0.109	0.238
-590.952	95.993	-0.208	0.242
-589.938	132.756	-0.076	0.100
-588.923	-100.831	0.126	0.031
-587.909	665.884	0.040	-0.105
-586.894	-200.000	0.037	-0.273
-585.879	-8.376	-0.094	0.064
-584.865	-200.000	0.004	-0.088
-583.850	91.697	0.185	0.212
-582.836	404.387	-0.028	0.059
-581.821	2.218	-0.068	-0.050
-580.806	346.216	-0.184	-0.368
-579.792	143.576	-0.135	-0.183
-578.777	606.175	0.089	-0.226
-577.763	22.575	-0.271	-0.226
-576.748	118.522	0.092	-0.116
-575.733	-48.325	-0.316	0.155
-574.719	152.821	-0.230	-0.320
-573.704	-48.359	0.123	-0.061
-572.690	146.144	0.092	-0.126
-571.675	-122.258	0.458	0.076
-570.661	-39.515	0.156	-0.083
-569.646	-200.000	0.039	0.249
-568.631	-0.690	0.242	0.174
-567.617	21.513	-0.244	-0.202
-566.602	177.271	-0.053	0.078
-565.588	341.581	0.048	-0.096
-564.573	10.293	-0.095	0.073
-563.558	-200.000	0.018	0.257
-562.544	-200.000	0.050	0.255
-561.529	-200.000	0.005	0.093
-560.515	-200.000	-0.003	0.412
-559.500	90.524	-0.104	-0.118
-558.485	800.000	-0.032	0.095
-557.471	-59.570	0.062	-0.027
-556.456	-81.954	-0.125	-0.041
-555.442	-100.514	0.424	-0.107
-554.427	800.000	0.227	-0.653
-553.412	-200.000	-0.003	0.173
-552.398	-26.893	0.010	-0.006
-551.383	-200.000	0.019	0.358
-550.369	-65.840	0.182	0.074
-549.354	-19.801	-0.317	-0.199
-548.339	-18.713	-0.229	-0.145
-547.325	-56.498	0.054	0.025
-546.310	10.590	-0.137	-0.106
-545.296	31.265	-0.207	-0.181
-544.281	-95.117	-0.173	0.047
-543.266	58.995	-0.069	0.069
-542.252	-200.000	0.011	-0.150
-541.237	45.061	-0.228	-0.213
-540.223	-23.487	0.056	-0.034
-539.208	139.221	-0.089	0.119
-538.193	800.000	0.091	0.344
-537.179	-56.491	-0.294	-0.132
-536.164	493.713	-0.042	-0.099
-535.150	199.507	0.025	-0.039
-534.135	32.027	-0.287	0.252
-533.121	5.887	-0.178	-0.133
-532.106	-124.161	0.294	0.047
-531.091	-24.439	0.193	-0.117
-530.077	-41.991	0.097	-0.050
-529.062	356.286	0.117	0.238
-528.048	129.511	0.247	0.320
-527.033	17.479	0.136	-0.110
-526.018	21.744	-0.121	0.100
-525.004	-50.020	0.429	0.207
-523.989	800.000	-0.081	-0.291
-522.975	-72.809	-0.176	0.066
-521.960	651.916	0.139	0.362
-520.945	-112.851	0.125	0.025
-519.931	-37.658	0.260	-0.141
-518.916	71.229	-0.036	-0.037
-517.902	-200.000	-0.045	-0.328
-516.887	-5.963	-0.198	-0.137
-515.872	-48.872	-0.101	-0.049
-514.858	282.711	0.231	-0.420
-513.843	-200.000	0.000	-0.335
-512.829	-5.800	0.302	-0.210
-511.814	-104.572	-0.350	0.082
-510.799	328.401	-0.093	-0.181
-509.785	90.410	-0.138	0.157
-508.770	459.213	-0.138	0.311
-507.756	-11.294	0.269	0.180
-506.741	7.766	0.142	-0.108
-505.726	800.000	-0.085	-0.255
-504.712	14.636	-0.022	0.018
-503.697	202.265	0.038	0.059
-502.683	356.737	-0.189	-0.382
-501.668	-103.616	-0.313	0.075
-500.653	559.473	-0.031	-0.075
-499.639	0.651	-0.154	0.112
-498.624	46.972	-0.262	0.247
-497.610	-200.000	0.071	-0.395
-496.595	296.285	0.373	0.693
-495.581	-35.746	-0.287	-0.158
-494.566	-52.669	0.149	0.070
-493.551	-200.000	-0.004	0.076
-492.537	-200.000	0.002	-0.077
-491.522	800.000	0.133	-0.447
-490.508	285.300	-0.115	0.210
-489.493	-200.000	-0.046	-0.288
-488.478	-200.000	-0.049	-0.371
-487.464	-140.873	-0.055	-0.006
-486.449	-176.245	-0.114	-0.003
-485.435	-7.996	0.162	-0.111
-484.420	548.896	-0.198	-0.482
-483.405	-200.000	-0.014	-0.128
-482.391	-93.490	-0.067	-0.019
-481.376	512.932	0.058	0.138
-480.362	42.639	0.024	0.022
-479.347	293.085	-0.149	0.276
-478.332	97.387	0.212	-0.247
-477.318	8.683	0.042	-0.032
-476.303	10.834	-0.096	0.075
-475.289	-200.000	-0.030	-0.243
-474.274	129.205	-0.058	0.075
-473.259	-200.000	-0.057	-0.278
-472.245	800.000	0.046	0.178
-471.230	-200.000	0.033	0.220
-470.216	-38.699	-0.222	-0.119
-469.201	665.599	0.030	-0.078
-468.186	287.091	-0.145	-0.265
-467.172	6.481	0.085	-0.064
-466.157	-68.439	-0.031	-0.012
-465.143	-3.804	-0.087	0.061
-464.128	-150.331	0.153	0.012
-463.113	800.000	0.139	-0.539
-462.099	100.651	0.154	0.181
-461.084	180.071	0.164	0.244
-460.070	257.020	-0.166	0.289
-459.055	356.774	-0.131	-0.265
-458.040	125.284	-0.135	0.173
-457.026	242.784	-0.084	-0.143
-456.011	-22.606	0.086	-0.053
-454.997	-102.296	0.140	-0.034
-453.982	82.473	0.138	-0.152
-452.968	383.470	0.137	-0.285
-451.953	-58.124	0.319	-0.141
-450.938	-75.906	-0.336	-0.120
-449.924	-57.969	-0.142	0.063
-448.909	-37.145	0.323	0.175
-447.895	800.000	0.130	0.487
-446.880	-133.941	0.128	-0.016
-445.865	-12.596	-0.190	0.125
-444.851	-98.096	0.144	-0.037
-443.836	17.078	-0.130	-0.104
-442.822	-87.175	-0.359	-0.110
-441.807	-66.418	0.302	0.121
-440.792	-39.865	-0.309	-0.163
-439.778	33.855	-0.142	-0.125
-438.763	-174.932	0.111	0.003
-437.749	35.447	0.090	-0.080
-436.734	-124.822	-0.345	0.054
-435.719	-200.000	-0.015	-0.231
-434.705	-43.957	-0.118	-0.060
-433.690	-103.709	-0.403	0.096
-432.676	43.499	-0.357	-0.330
-431.661	430.238	0.094	-0.206
-430.646	-7.594	0.099	0.068
-429.632	48.067	0.324	-0.306
-428.617	-79.056	-0.031	-0.011
-427.603	-129.253	-0.158	-0.022
-426.588	40.698	0.025	0.023
-425.573	-15.335	0.126	0.081
-424.559	6.175	0.078	0.058
-423.544	-2.881	-0.103	0.073
-422.530	-200.000	-0.014	0.104
-421.515	-15.954	0.184	-0.118
-420.500	182.794	-0.082	0.123
-419.486	63.301	0.153	-0.155
-418.471	-52.306	-0.118	-0.055
-417.457	201.465	0.165	0.256
-416.442	752.940	-0.105	-0.287
-415.428	225.543	0.201	0.330
-414.413	-200.000	-0.002	0.331
-413.398	500.954	-0.087	0.203
-412.384	-200.000	0.034	0.522
-411.369	300.173	0.203	0.378
-410.355	696.231	0.067	-0.177
-409.340	800.000	-0.079	-0.250
-408.325	14.953	0.193	-0.152
-407.311	353.555	-0.092	0.185
-406.296	800.000	-0.070	-0.216
-405.282	59.539	0.200	-0.199
-404.267	-148.629	0.196	-0.016
-403.252	-55.576	-0.098	0.044
-402.238	772.219	-0.030	-0.082
-401.223	-200.000	-0.024	-0.265
-400.209	-200.000	-0.033	0.150
-399.194	571.250	-0.035	-0.086
-398.179	179.768	0.083	-0.124
-397.165	-200.000	0.019	0.106
-396.150	303.623	0.103	-0.194
-395.136	-200.000	0.054	-0.260
-394.121	-117.388	0.404	-0.074
-393.106	263.500	0.074	-0.130
-392.092	68.024	-0.095	0.098
-391.077	147.424	-0.231	-0.314
-390.063	-200.000	-0.098	-0.487
-389.048	79.722	0.067	0.073
-388.033	-117.502	-0.111	0.020
-387.019	366.346	0.069	-0.140
-386.004	4.505	-0.252	-0.186
-384.990	-99.526	-0.250	0.063
-383.975	-46.663	0.081	-0.040
-382.960	-9.819	-0.187	-0.126
-381.946	49.500	-0.163	0.155
-380.931	20.169	-0.028	-0.023
-379.917	-200.000	-0.062	0.316
-378.902	65.183	-0.150	0.153
-377.888	268.831	-0.095	-0.169
-376.873	187.560	-0.120	-0.180
-375.858	-77.447	-0.129	-0.045
-374.844	-200.000	0.004	0.049
-373.829	55.870	0.221	-0.216
-372.815	203.447	0.114	-0.178
-371.800	-157.617	0.400	-0.024
-370.785	395.955	-0.082	-0.173
-369.771	-12.867	0.156	0.102
-368.756	-200.000	-0.018	0.298
-367.742	800.000	0.099	0.385
-366.727	-127.061	-0.175	0.026
-365.712	-52.403	-0.088	-0.041
-364.698	43.853	0.062	-0.057
-363.683	305.370	-0.108	0.203
-362.669	-60.387	0.097	-0.041
-361.654	722.622	0.055	0.147
-360.639	-71.085	-0.285	0.108
-359.625	-41.167	0.278	0.145
-358.610	800.000	-0.053	0.174
-357.596	20.386	0.384	0.313
-356.581	59.239	0.148	-0.147
-355.566	800.000	-0.037	-0.144
-354.552	-16.155	-0.098	0.063
-353.537	-47.609	-0.473	0.231
-352.523	-107.751	-0.124	0.027
-351.508	-200.000	0.016	0.136
-350.493	444.980	0.094	-0.208
-349.479	167.300	-0.237	-0.339
-348.464	-200.000	-0.022	0.293
-347.450	-120.202	0.037	-0.006
-346.435	474.080	-0.032	-0.072
-345.420	-32.075	-0.229	0.129
-344.406	233.551	-0.141	0.234
-343.391	135.811	-0.121	0.159
-342.377	-179.236	0.129	0.003
-341.362	800.000	0.048	-0.138
-340.348	800.000	-0.029	0.097
-339.333	-200.000	-0.003	-0.151
-338.318	332.784	-0.037	-0.072
-337.304	-200.000	0.052	0.295
-336.289	-200.000	-0.046	-0.340
-335.275	92.216	-0.102	-0.116
-334.260	-200.000	0.001	0.311
-333.245	422.818	0.248	-0.536
-332.231	-62.992	0.042	0.017
-331.216	-200.000	0.005	0.360
-330.202	-175.798	-0.025	-0.001
-329.187	-37.558	0.197	0.106
-328.172	283.194	-0.030	0.054
-327.158	-64.022	0.176	0.072
-326.143	-7.503	0.285	0.194
-325.129	22.288	0.460	0.379
-324.114	-76.552	0.170	0.060
-323.099	130.012	-0.076	0.098
-322.085	239.117	0.160	0.268
-321.070	147.125	0.269	0.364
-320.056	262.309	0.084	-0.147
-319.041	-185.772	-0.194	-0.003
-318.026	-70.635	-0.196	-0.074
-317.012	-13.386	0.281	0.184
-315.997	13.296	0.125	-0.098
-314.983	57.772	0.150	0.148
-313.968	800.000	-0.018	0.058
-312.953	-87.239	-0.257	0.079
-311.939	-200.000	-0.024	0.305
-310.924	-97.058	0.056	0.015
-309.910	-63.083	-0.117	0.049
-308.895	-10.474	-0.117	-0.078
-307.880	-148.527	-0.406	0.033
-306.866	-141.965	0.196	-0.020
-305.851	487.346	0.180	0.413
-304.837	184.889	0.256	0.382
-303.822	-71.219	-0.084	0.032
-302.807	-5.616	0.248	0.171
-301.793	32.721	-0.206	-0.179
-300.778	84.085	-0.072	0.079
-299.764	98.256	-0.190	-0.221
-298.749	386.683	0.147	-0.305
-297.735	-95.807	0.059	0.016
-296.720	0.446	-0.086	0.062
-295.705	-91.241	0.096	0.028
-294.691	61.982	0.093	0.094
-293.676	70.256	-0.067	-0.069
-292.662	-51.559	-0.328	0.154
-291.647	-200.000	-0.036	-0.362
-290.632	800.000	0.083	0.233
-289.618	800.000	-0.074	0.256
-288.603	-96.215	0.241	-0.064
-287.589	379.312	-0.059	0.121
-286.574	394.619	0.027	0.057
-285.559	69.791	0.145	0.151
-284.545	324.860	0.249	-0.480
-283.530	1.195	-0.116	-0.084
-282.516	200.905	-0.122	-0.188
-281.501	-99.220	0.283	-0.072
-280.486	-102.669	-0.256	0.061
-279.472	467.900	0.085	0.192
-278.457	-19.974	0.074	-0.046
-277.443	-200.000	-0.020	-0.102
-276.428	-117.077	-0.393	-0.072
-275.413	-49.067	-0.062	-0.030
-274.399	23.511	-0.283	0.234
-273.384	1.281	0.078	0.057
-272.370	800.000	0.133	0.498
-271.355	-10.655	0.138	-0.092
-270.340	-49.198	-0.247	0.119
-269.326	-42.519	0.168	0.086
-268.311	756.468	0.116	0.317
-267.297	475.332	0.087	0.197
-266.282	42.178	0.100	-0.091
-265.267	-200.000	0.009	-0.086
-264.253	8.952	0.216	-0.164
-263.238	-133.028	0.128	0.016
-262.224	-200.000	-0.002	-0.200
-261.209	-200.000	-0.030	0.232
-260.195	175.487	-0.078	0.114
-259.180	-61.361	0.464	0.196
-258.165	-195.014	-0.178	0.001
-257.151	-95.091	0.311	-0.084
-256.136	20.358	0.172	-0.140
-255.122	800.000	-0.068	-0.220
-254.107	-11.595	0.038	0.025
-253.092	155.092	-0.298	-0.412
-252.078	-200.000	-0.069	0.334
-251.063	182.603	0.193	0.286
-250.049	-200.000	-0.047	-0.310
-249.034	400.307	-0.061	-0.129
-248.019	-200.000	-0.004	-0.509
-247.005	-188.416	0.170	-0.002
-245.990	-94.614	-0.157	0.043
-244.976	-45.011	0.131	0.065
-243.961	-90.269	0.065	-0.019
-242.946	174.667	-0.045	-0.065
-241.932	517.556	0.126	0.297
-240.917	-116.559	-0.157	0.029
-239.903	473.672	-0.137	0.311
-238.888	-77.260	0.325	0.113
-237.873	800.000	0.070	-0.204
-236.859	78.349	-0.151	-0.162
-235.844	-178.104	-0.039	0.001
-234.830	70.786	-0.289	-0.300
-233.815	491.012	0.080	0.184
-232.800	-87.570	-0.123	-0.037
-231.786	-97.520	0.112	0.029
-230.771	800.000	-0.061	0.221
-229.757	-30.430	-0.175	0.100
-228.742	296.627	0.105	0.193
-227.727	141.940	0.047	0.062
-226.713	-200.000	-0.006	-0.059
-225.698	-105.215	0.549	0.126
-224.684	-71.812	0.112	0.042
-223.669	91.737	0.159	0.179
-222.655	317.861	0.010	0.019
-221.640	773.651	0.030	0.081
-220.625	-200.000	0.016	-0.246
-219.611	611.134	-0.109	-0.272
-218.596	235.871	-0.117	-0.194
-217.582	751.125	-0.036	-0.097
-216.567	41.724	0.141	-0.129
-215.552	-80.483	0.283	-0.095
-214.538	-36.536	0.102	-0.055
-213.523	800.000	0.053	0.174
-212.509	-178.735	0.210	-0.005
-211.494	594.823	-0.146	0.361
-210.479	-108.226	0.153	0.033
-209.465	-200.000	-0.041	-0.219
-208.450	106.468	-0.063	-0.075
-207.436	292.467	-0.099	0.181
-206.421	445.159	-0.052	-0.114
-205.406	-187.137	-0.322	-0.004
-204.392	517.228	-0.030	0.069
-203.377	249.192	-0.102	-0.173
-202.363	-2.955	-0.068	0.048
-201.348	-56.833	0.165	0.073
-200.333	8.268	-0.401	0.302
-199.319	130.530	-0.020	-0.025
-198.304	-200.000	0.002	-0.076
-197.290	149.297	0.164	0.222
-196.275	-95.952	0.392	0.105
-195.260	54.172	-0.185	0.179
-194.246	-100.659	-0.218	0.054
-193.231	800.000	0.039	0.139
-192.217	-192.746	0.105	-0.001
-191.202	800.000	0.046	0.131
-190.187	-132.917	0.336	0.043
-189.173	186.421	-0.075	-0.111
-188.158	-115.088	0.042	-0.008
-187.144	-200.000	0.004	-0.099
-186.129	134.857	-0.091	0.119
-185.114	-200.000	-0.054	0.260
-184.100	-112.984	0.172	-0.034
-183.085	-154.475	-0.259	0.017
-182.071	65.472	0.226	-0.229
-181.056	-102.354	-0.178	0.043
-180.042	473.039	0.071	0.161
-179.027	59.223	-0.161	-0.159
-178.012	-200.000	0.042	-0.221
-176.998	-200.000	0.028	-0.267
-175.983	110.130	-0.224	-0.269
-174.969	383.836	-0.066	0.137
-173.954	26.551	-0.107	0.090
-172.939	-5.733	0.122	0.084
-171.925	-55.394	0.360	0.162
-170.910	-102.088	0.281	0.068
-169.896	112.315	0.170	0.206
-168.881	495.207	-0.072	0.165
-167.866	155.517	0.138	-0.190
-166.852	-119.177	0.216	0.038
-165.837	47.233	-0.224	0.208
-164.823	-200.000	0.074	-0.363
-163.808	-157.786	-0.343	-0.020
-162.793	-200.000	0.008	-0.160
-161.779	209.492	0.204	0.320
-160.764	-200.000	0.017	-0.132
-159.750	800.000	0.103	-0.370
-158.735	60.801	0.278	0.276
-157.720	800.000	-0.019	-0.075
-156.706	-29.165	0.364	0.209
-155.691	-200.000	0.028	0.138
-154.677	293.241	0.103	-0.188
-153.662	-17.913	-0.237	0.149
-152.647	56.910	-0.145	0.142
-151.633	-200.000	-0.065	-0.289
-150.618	28.651	-0.138	0.117
-149.604	-116.714	0.267	-0.049
-148.589	548.172	0.029	-0.068
-147.574	97.516	0.120	0.138
-146.560	-26.610	-0.141	0.083
-145.545	251.693	-0.078	0.133
-144.531	-65.730	-0.199	0.080
-143.516	-70.673	0.435	0.165
-142.502	800.000	-0.077	-0.241
-141.487	108.654	0.263	0.314
-140.472	-30.265	0.224	0.127
-139.458	-200.000	0.001	0.004
-138.443	-200.000	-0.048	-0.294
-137.429	-53.740	0.106	0.048
-136.414	800.000	-0.090	0.268
-135.399	331.167	-0.121	0.233
-134.385	-106.803	0.222	-0.049
-133.370	-84.255	0.062	-0.020
-132.356	-86.265	0.124	0.038
-131.341	51.228	0.190	0.181
-130.326	-200.000	-0.422	0.001
-129.312	197.503	-0.154	0.235
-128.297	179.686	0.022	-0.032
-127.283	-200.000	0.002	0.071
-126.268	-200.000	-0.023	0.149
-125.253	367.075	0.143	0.288
-124.239	468.433	0.047	-0.105
-123.224	800.000	-0.126	0.359
-122.210	-200.000	0.009	0.454
-121.195	420.142	-0.085	-0.182
-120.180	33.989	-0.106	0.092
