DTS Sentinel unit serial number:	SN413079Multiplexer serial number:	ORYXHardware model number:	OX4-SRSoftware version number:	ORYX F/W v4.00 Oryx Data Collector v3.7.2.0data status	okinstallation	princeton_trtdifferential loss correction	single-endedforward channel	channel 4reverse channel	N/Adate	2019/09/13time	15:09:35forward acquisition time	60.00reverse acquisition time	0.00gamma	496.2192k internal	0.2296k external	0.2296temperature offset calibration	1.0209default loss term (dB/km)	0.3790temperature slope calibration	1.0000multiplexer offset coefficient	1.0000multiplexer slope coefficient	1.0000fibre end	0.00T internal ref (°C)	35.62T ext. ref 1 (°C)	4.72T ext. ref 2 (°C)	30.89length (m)	temperature (°C)	Stokes	anti-Stokes-747.200	-200.000	-0.031	0.247
-746.185	-200.000	-0.077	0.417
-745.171	127.118	-0.211	0.273
-744.156	12.918	0.227	0.179
-743.142	-118.333	0.220	-0.040
-742.127	-119.740	0.109	-0.019
-741.112	-73.245	0.340	-0.127
-740.098	71.795	-0.225	0.239
-739.083	-81.991	0.105	0.035
-738.069	-124.007	-0.333	0.053
-737.054	-1.330	-0.187	-0.135
-736.039	-51.883	-0.134	0.064
-735.025	250.253	-0.195	-0.338
-734.010	-200.000	-0.001	-0.367
-732.996	-200.000	0.020	-0.132
-731.981	-48.194	-0.129	-0.063
-730.966	-119.445	0.045	-0.008
-729.952	587.629	-0.084	0.211
-728.937	441.398	-0.093	0.208
-727.923	-7.546	-0.343	0.237
-726.908	-200.000	-0.010	0.056
-725.894	239.496	-0.088	-0.149
-724.879	-118.834	0.244	0.044
-723.864	800.000	-0.044	0.132
-722.850	-6.566	0.136	0.095
-721.835	-92.060	-0.199	0.057
-720.821	-114.856	0.191	-0.037
-719.806	-200.000	-0.020	0.170
-718.791	-14.613	0.159	0.104
-717.777	-21.227	-0.134	-0.084
-716.762	-19.602	-0.110	-0.070
-715.748	-58.522	0.181	0.080
-714.733	-56.763	0.172	-0.078
-713.718	41.030	-0.143	0.132
-712.704	47.036	-0.317	-0.301
-711.689	213.925	-0.034	-0.054
-710.675	-164.830	0.133	-0.006
-709.660	-83.026	-0.167	0.055
-708.645	-54.238	0.310	0.144
-707.631	521.513	0.126	-0.301
-706.616	74.683	-0.305	0.328
-705.602	-200.000	0.003	-0.060
-704.587	-154.691	-0.328	-0.022
-703.572	353.066	0.100	-0.203
-702.558	-95.327	-0.367	-0.101
-701.543	208.840	0.245	0.392
-700.529	-30.993	0.234	0.135
-699.514	296.488	-0.094	0.176
-698.499	165.946	-0.079	-0.114
-697.485	3.043	-0.108	0.080
-696.470	-15.582	-0.207	0.134
-695.456	-122.411	0.130	-0.022
-694.441	79.312	-0.081	-0.088
-693.426	-63.793	-0.388	0.162
-692.412	800.000	-0.014	0.043
-691.397	208.038	0.126	0.201
-690.383	83.544	0.140	0.155
-689.368	272.944	0.078	0.140
-688.354	133.882	-0.295	0.390
-687.339	-150.147	-0.162	0.013
-686.324	61.608	-0.271	-0.275
-685.310	800.000	-0.038	-0.129
-684.295	800.000	-0.047	0.185
-683.281	800.000	0.069	-0.226
-682.266	-200.000	0.001	-0.206
-681.251	-36.040	-0.294	0.162
-680.237	4.666	0.114	0.086
-679.222	-27.649	-0.280	0.166
-678.208	-90.043	-0.358	-0.106
-677.193	-195.580	0.310	0.002
-676.178	-200.000	0.013	-0.259
-675.164	-200.000	-0.034	-0.235
-674.149	-132.861	-0.207	-0.027
-673.135	56.359	-0.068	0.067
-672.120	-200.000	-0.046	0.298
-671.105	316.576	-0.153	-0.294
-670.091	-19.879	-0.272	0.171
-669.076	168.398	0.097	0.141
-668.062	63.788	-0.368	-0.377
-667.047	17.039	0.075	-0.061
-666.032	-105.199	-0.462	-0.107
-665.018	-68.538	0.169	0.067
-664.003	-127.059	-0.175	0.026
-662.989	800.000	0.103	-0.429
-661.974	26.590	0.311	0.265
-660.959	-200.000	-0.007	0.075
-659.945	-23.077	0.120	0.073
-658.930	-91.823	0.302	0.087
-657.916	661.223	-0.207	0.544
-656.901	-200.000	0.024	0.145
-655.886	79.429	0.216	-0.236
-654.872	238.174	-0.051	0.087
-653.857	-59.223	-0.328	-0.144
-652.843	-183.472	0.130	-0.002
-651.828	86.817	0.097	0.109
-650.814	-200.000	0.023	0.204
-649.799	784.739	-0.025	-0.071
-648.784	437.716	0.147	-0.327
-647.770	-146.564	0.271	-0.024
-646.755	-93.527	-0.056	0.016
-645.741	-200.000	-0.008	0.192
-644.726	-32.931	-0.205	-0.116
-643.711	343.242	0.160	0.318
-642.697	-109.564	-0.165	0.035
-641.682	-108.670	-0.075	0.016
-640.668	800.000	-0.042	0.144
-639.653	12.368	-0.127	-0.099
-638.638	141.142	0.213	-0.286
-637.624	138.865	0.041	-0.055
-636.609	257.612	-0.100	0.175
-635.595	-60.557	0.141	-0.061
-634.580	-200.000	0.021	-0.230
-633.565	560.555	0.064	-0.156
-632.551	311.783	-0.140	0.267
-631.536	-132.624	-0.331	-0.043
-630.522	-200.000	-0.018	0.177
-629.507	95.564	0.045	0.052
-628.492	800.000	-0.116	0.357
-627.478	-98.882	-0.256	0.066
-626.463	58.552	0.165	-0.165
-625.449	47.018	-0.243	-0.230
-624.434	-54.549	0.115	-0.053
-623.419	438.307	-0.019	0.041
-622.405	-9.807	-0.279	0.189
-621.390	240.657	0.258	-0.438
-620.376	-170.406	0.311	0.011
-619.361	-38.019	0.114	-0.061
-618.346	-32.213	0.028	-0.016
-617.332	124.885	-0.096	-0.123
-616.317	257.459	-0.221	0.386
-615.303	108.527	0.119	0.145
-614.288	-126.111	0.123	-0.019
-613.273	236.136	0.136	-0.228
-612.259	-94.658	0.177	-0.049
-611.244	176.371	-0.093	-0.137
-610.230	-22.192	-0.079	-0.049
-609.215	-200.000	-0.233	0.001
-608.201	-66.228	0.036	0.014
-607.186	-57.577	0.124	-0.055
-606.171	-74.418	0.134	-0.049
-605.157	-122.860	0.124	-0.020
-604.142	-56.181	-0.187	-0.084
-603.128	-63.621	-0.339	0.141
-602.113	-200.000	0.031	-0.444
-601.098	-189.988	-0.181	0.002
-600.084	-98.534	-0.190	-0.049
-599.069	-28.929	0.131	0.077
-598.055	311.757	-0.067	-0.128
-597.040	356.504	-0.057	0.116
-596.025	75.689	-0.300	-0.322
-595.011	-73.340	0.153	-0.057
-593.996	-200.000	-0.017	-0.133
-592.982	-54.160	-0.384	0.177
-591.967	77.736	-0.194	-0.210
-590.952	-154.655	0.456	-0.031
-589.938	800.000	-0.087	0.266
-588.923	-98.092	0.477	0.125
-587.909	800.000	0.081	0.318
-586.894	-71.272	-0.303	-0.115
-585.879	710.829	0.104	-0.279
-584.865	65.449	-0.089	0.092
-583.850	21.504	-0.401	0.332
-582.836	-5.665	-0.100	-0.070
-581.821	161.457	0.253	-0.359
-580.806	346.093	0.104	0.207
-579.792	697.939	0.060	-0.161
-578.777	293.893	-0.083	0.154
-577.763	204.123	-0.040	0.063
-576.748	153.957	-0.130	0.181
-575.733	800.000	-0.019	-0.077
-574.719	-89.627	0.130	0.039
-573.704	-132.647	-0.419	0.054
-572.690	127.248	-0.099	-0.128
-571.675	112.441	-0.147	-0.181
-570.661	-18.452	-0.082	0.052
-569.646	-23.714	0.053	-0.032
-568.631	800.000	-0.131	-0.471
-567.617	-107.622	0.139	0.031
-566.602	-78.954	0.292	0.101
-565.588	800.000	0.091	-0.285
-564.573	115.093	-0.028	0.034
-563.558	103.473	-0.091	-0.108
-562.544	800.000	-0.031	0.118
-561.529	-116.353	0.181	-0.034
-560.515	-169.482	-0.108	0.004
-559.500	250.943	0.045	-0.078
-558.485	23.803	-0.269	0.225
-557.471	-106.131	-0.218	-0.050
-556.456	-200.000	0.034	0.224
-555.442	800.000	0.083	-0.242
-554.427	-62.861	0.119	0.050
-553.412	-159.798	-0.121	-0.007
-552.398	87.603	0.056	0.063
-551.383	-7.651	-0.048	-0.033
-550.369	155.424	0.098	-0.137
-549.354	-107.187	-0.136	0.030
-548.339	-191.037	0.281	0.003
-547.325	130.428	-0.144	0.187
-546.310	-118.016	0.236	-0.043
-545.296	107.403	0.159	0.191
-544.281	-185.029	0.279	0.004
-543.266	-200.000	0.022	-0.240
-542.252	-200.000	0.012	-0.251
-541.237	-200.000	-0.000	-0.009
-540.223	43.871	-0.129	-0.120
-539.208	-186.448	-0.127	-0.002
-538.193	-30.567	0.184	-0.106
-537.179	-174.010	-0.390	-0.012
-536.164	-200.000	0.006	0.148
-535.150	-107.454	0.343	0.076
-534.135	79.547	0.090	-0.098
-533.121	-145.857	-0.416	0.037
-532.106	273.128	0.092	0.164
-531.091	145.388	0.033	0.044
-530.077	-86.558	-0.097	-0.030
-529.062	82.664	0.177	0.195
-528.048	800.000	0.053	-0.181
-527.033	-200.000	-0.031	0.270
-526.018	-106.066	0.344	0.078
-525.004	-200.000	-0.037	0.300
-523.989	213.172	-0.075	0.121
-522.975	73.313	-0.281	0.298
-521.960	-134.372	-0.386	-0.048
-520.945	-189.355	-0.431	0.005
-519.931	-96.985	0.113	0.030
-518.916	308.292	0.132	0.250
-517.902	-34.931	0.132	-0.073
-516.887	-46.945	-0.161	-0.080
-515.872	-103.012	0.360	-0.087
-514.858	771.181	-0.101	-0.278
-513.843	-31.103	0.297	0.170
-512.829	41.848	0.186	-0.171
-511.814	29.351	-0.186	-0.160
-510.799	-88.364	0.164	0.050
-509.785	-134.914	-0.484	0.059
-508.770	81.234	0.296	0.324
-507.756	-200.000	0.003	-0.193
-506.741	-83.053	0.204	-0.066
-505.726	-25.559	0.239	0.143
-504.712	88.384	-0.220	0.247
-503.697	744.888	-0.071	0.195
-502.683	-200.000	-0.029	0.167
-501.668	-200.000	-0.014	-0.107
-500.653	125.917	-0.164	-0.210
-499.639	-3.803	-0.180	-0.127
-498.624	417.643	0.097	0.210
-497.610	383.072	-0.006	-0.013
-496.595	107.975	-0.151	-0.183
-495.581	-9.098	-0.139	-0.094
-494.566	202.715	-0.191	-0.298
-493.551	800.000	0.034	0.118
-492.537	-200.000	-0.015	0.260
-491.522	800.000	0.049	-0.154
-490.508	276.982	0.125	0.225
-489.493	186.337	-0.014	0.021
-488.478	800.000	-0.075	0.296
-487.464	-200.000	0.047	-0.210
-486.449	-134.012	0.115	0.014
-485.435	-68.940	-0.051	0.020
-484.420	21.015	0.227	0.187
-483.405	12.921	-0.178	-0.139
-482.391	-200.000	0.059	-0.435
-481.376	-3.813	0.144	-0.101
-480.362	42.867	-0.308	-0.284
-479.347	32.847	0.377	-0.330
-478.332	800.000	-0.051	-0.224
-477.318	-109.278	-0.176	-0.038
-476.303	27.997	-0.227	-0.194
-475.289	50.984	0.063	-0.061
-474.274	-200.000	-0.007	0.242
-473.259	-34.227	-0.328	0.182
-472.245	221.682	-0.222	-0.362
-471.230	27.945	-0.441	-0.376
-470.216	-131.467	0.393	-0.052
-469.201	-56.607	-0.077	-0.035
-468.186	-200.000	0.006	0.063
-467.172	-126.812	0.354	-0.053
-466.157	-133.278	-0.145	0.018
-465.143	15.266	-0.211	-0.167
-464.128	-85.175	0.183	-0.058
-463.113	107.225	0.137	-0.165
-462.099	800.000	-0.061	-0.235
-461.084	800.000	0.009	-0.040
-460.070	-200.000	0.011	-0.180
-459.055	220.378	-0.040	-0.064
-458.040	-200.000	0.004	-0.148
-457.026	19.804	-0.258	0.210
-456.011	11.326	0.123	0.096
-454.997	78.460	0.327	-0.353
-453.982	261.846	-0.071	-0.124
-452.968	243.432	-0.111	-0.188
-451.953	276.084	0.228	0.409
-450.938	-102.925	0.158	0.038
-449.924	-89.918	0.190	0.056
-448.909	-82.878	-0.111	-0.036
-447.895	131.677	0.111	0.144
-446.880	-111.126	0.493	0.102
-445.865	150.737	0.048	0.066
-444.851	113.169	-0.187	-0.229
-443.836	-165.354	0.289	-0.013
-442.822	800.000	-0.059	-0.256
-441.807	-123.170	0.217	0.035
-440.792	-22.387	-0.393	-0.240
-439.778	508.398	0.038	-0.088
-438.763	24.580	0.281	-0.235
-437.749	-126.990	-0.237	-0.035
-436.734	-34.034	-0.175	-0.097
-435.719	436.718	-0.159	-0.350
-434.705	76.914	0.116	0.124
-433.690	23.643	0.064	0.054
-432.676	-141.302	0.113	0.012
-431.661	-114.910	0.225	-0.043
-430.646	-41.156	-0.243	-0.127
-429.632	-11.856	-0.116	-0.077
-428.617	-73.714	-0.040	-0.015
-427.603	-46.278	0.483	0.240
-426.588	800.000	-0.095	-0.330
-425.573	54.774	0.235	-0.229
-424.559	4.770	0.312	0.231
-423.544	49.395	-0.271	-0.258
-422.530	-36.960	-0.144	0.078
-421.515	-21.533	0.408	0.251
-420.500	64.505	-0.146	-0.149
-419.486	-50.283	-0.326	0.155
-418.471	394.853	-0.101	0.212
-417.457	45.519	0.261	-0.244
-416.442	-45.879	0.180	0.090
-415.428	-78.353	-0.279	0.096
-414.413	517.067	0.061	0.145
-413.398	-93.475	-0.315	0.088
-412.384	124.092	-0.082	-0.105
-411.369	273.968	0.157	-0.281
-410.355	-102.019	-0.111	-0.027
-409.340	322.756	-0.065	0.125
-408.325	-145.946	-0.078	-0.007
-407.311	740.661	0.039	-0.104
-406.296	363.367	0.261	-0.529
-405.282	59.131	-0.188	-0.187
-404.267	-131.602	0.134	-0.018
-403.252	-85.216	-0.172	0.054
-402.238	44.248	0.317	0.293
-401.223	203.427	-0.056	0.088
-400.209	129.980	-0.102	0.132
-399.194	72.339	0.159	-0.167
-398.179	-200.000	-0.006	-0.375
-397.165	-200.000	-0.036	0.326
-396.150	-200.000	-0.005	0.151
-395.136	448.580	0.141	-0.313
-394.121	-200.000	0.006	-0.241
-393.106	-122.162	0.184	-0.030
-392.092	-200.000	-0.007	0.058
-391.077	800.000	0.023	0.100
-390.063	-164.529	0.272	0.012
-389.048	290.713	0.086	0.157
-388.033	164.955	0.098	0.139
-387.019	-41.084	-0.092	0.048
-386.004	800.000	0.063	0.267
-384.990	-133.058	-0.182	0.023
-383.975	113.117	0.180	0.220
-382.960	-54.195	-0.107	0.049
-381.946	-162.598	-0.206	0.010
-380.931	60.302	-0.162	-0.161
-379.917	-3.700	-0.204	-0.143
-378.902	99.418	0.206	-0.240
-377.888	226.765	-0.100	-0.164
-376.873	-2.960	-0.198	-0.139
-375.858	-38.691	0.055	-0.029
-374.844	126.740	0.251	-0.320
-373.829	-38.754	0.334	0.178
-372.815	20.057	-0.041	-0.034
-371.800	-136.247	-0.113	-0.013
-370.785	-83.023	-0.413	-0.134
-369.771	683.613	0.151	0.398
-368.756	269.512	-0.119	0.211
-367.742	-3.051	-0.303	0.213
-366.727	-155.478	-0.090	-0.006
-365.712	40.299	0.156	0.141
-364.698	-200.000	0.022	0.114
-363.683	-134.141	-0.124	-0.015
-362.669	800.000	-0.062	-0.197
-361.654	134.379	0.038	-0.050
-360.639	65.169	0.190	0.194
-359.625	-200.000	-0.069	-0.402
-358.610	-200.000	-0.008	-0.246
-357.596	-25.909	-0.060	-0.035
-356.581	-95.669	-0.111	-0.030
-355.566	-200.000	0.001	0.075
-354.552	28.229	-0.247	0.210
-353.537	572.503	0.113	0.277
-352.523	10.278	0.129	-0.099
-351.508	400.645	0.119	0.252
-350.493	3.618	-0.247	0.181
-349.479	-116.817	-0.397	0.073
-348.464	800.000	0.100	0.420
-347.450	-200.000	0.036	0.208
-346.435	229.103	-0.087	-0.143
-345.420	-200.000	-0.012	-0.188
-344.406	-35.294	-0.261	-0.143
-343.391	6.048	0.168	-0.125
-342.377	314.507	0.049	-0.092
-341.362	-26.854	-0.104	-0.061
-340.348	800.000	-0.038	-0.139
-339.333	17.828	-0.270	0.216
-338.318	196.437	0.177	0.270
-337.304	-19.915	-0.153	0.095
-336.289	-2.795	0.238	0.168
-335.275	2.221	-0.276	0.201
-334.260	-142.971	0.082	0.008
-333.245	317.884	-0.143	0.272
-332.231	-200.000	-0.010	0.044
-331.216	126.509	-0.082	-0.104
-330.202	30.314	0.047	-0.040
-329.187	-106.755	-0.173	0.039
-328.172	-96.037	0.213	0.057
-327.158	800.000	0.040	-0.112
-326.143	-5.855	-0.180	-0.124
-325.129	237.356	0.152	0.254
-324.114	800.000	0.057	-0.200
-323.099	-15.889	0.056	-0.036
-322.085	116.388	-0.021	0.026
-321.070	461.783	0.029	-0.065
-320.056	506.697	-0.065	-0.152
-319.041	656.484	-0.052	0.134
-318.026	-200.000	-0.021	-0.095
-317.012	-175.589	-0.229	-0.006
-315.997	339.113	-0.064	0.126
-314.983	238.300	-0.180	-0.300
-313.968	-200.000	-0.012	-0.321
-312.953	125.679	-0.165	-0.210
-311.939	-200.000	0.058	0.299
-310.924	-121.264	0.368	0.062
-309.910	265.064	-0.070	0.123
-308.895	10.297	-0.151	0.116
-307.880	-200.000	0.049	-0.263
-306.866	-73.041	0.206	-0.076
-305.851	-200.000	-0.016	-0.109
-304.837	54.940	0.255	-0.247
-303.822	119.735	-0.028	-0.035
-302.807	169.396	0.145	-0.208
-301.793	-70.834	0.050	-0.019
-300.778	63.925	-0.148	0.150
-299.764	-112.971	0.396	-0.079
-298.749	-157.473	-0.297	0.018
-297.735	-50.289	0.223	0.106
-296.720	-11.344	-0.221	0.146
-295.705	122.403	0.184	-0.231
-294.691	211.065	0.129	-0.203
-293.676	-116.577	0.132	-0.024
-292.662	-200.000	0.031	0.337
-291.647	246.906	-0.271	0.459
-290.632	-67.091	0.506	-0.200
-289.618	111.431	-0.176	0.213
-288.603	-54.290	0.106	-0.048
-287.589	5.186	-0.127	0.094
-286.574	800.000	0.122	0.342
-285.559	259.805	0.040	0.070
-284.545	-117.030	-0.296	-0.054
-283.530	-200.000	0.107	-0.603
-282.516	-22.185	-0.191	0.116
-281.501	-117.858	0.089	-0.016
-280.486	-95.648	-0.167	-0.045
-279.472	485.176	0.142	0.325
-278.457	577.607	0.067	-0.163
-277.443	-171.140	0.303	-0.010
-276.428	-87.719	0.082	0.025
-275.413	-48.350	-0.247	0.119
-274.399	483.553	-0.158	-0.361
-273.384	-135.722	-0.067	0.008
-272.370	-200.000	-0.024	0.122
-271.355	800.000	0.105	0.297
-270.340	45.547	0.086	0.080
-269.326	552.719	-0.084	0.202
-268.311	697.354	-0.085	0.225
-267.297	-200.000	0.006	0.286
-266.282	-95.029	0.116	0.032
-265.267	-96.848	0.223	0.059
-264.253	23.164	-0.104	0.085
-263.238	-200.000	-0.043	0.288
-262.224	-16.100	0.231	0.147
-261.209	299.930	-0.192	0.355
-260.195	-141.478	-0.295	0.030
-259.180	-160.517	-0.118	0.006
-258.165	-150.585	0.253	0.019
-257.151	393.976	0.098	0.206
-256.136	-81.427	-0.161	0.053
-255.122	-33.851	0.233	0.128
-254.107	-50.738	-0.285	-0.134
-253.092	122.112	-0.133	-0.166
-252.078	-32.494	0.113	-0.063
-251.063	800.000	0.012	-0.034
-250.049	-62.596	-0.056	0.023
-249.034	800.000	-0.080	0.242
-248.019	-7.460	-0.359	-0.244
-247.005	57.176	0.111	-0.108
-245.990	-200.000	-0.004	0.069
-244.976	-145.390	0.196	0.018
-243.961	800.000	0.043	0.150
-242.946	218.115	-0.139	-0.223
-241.932	56.952	0.106	0.103
-240.917	-140.054	-0.092	-0.010
-239.903	730.829	0.058	-0.154
-238.888	45.567	0.372	0.344
-237.873	-68.195	0.101	-0.039
-236.859	-38.752	-0.070	-0.037
-235.844	-183.874	-0.132	-0.002
-234.830	695.911	0.094	-0.248
-233.815	-64.016	0.096	-0.039
-232.800	243.310	0.119	-0.199
-231.786	5.744	0.204	0.151
-230.771	-99.401	-0.090	-0.023
-229.757	-7.248	0.196	-0.133
-228.742	84.067	0.166	0.182
-227.727	578.861	0.116	0.284
-226.713	-36.363	0.152	0.082
-225.698	-110.413	-0.428	-0.089
-224.684	263.951	-0.154	0.268
-223.669	-136.806	-0.120	-0.014
-222.655	-200.000	-0.025	-0.182
-221.640	-200.000	0.024	0.245
-220.625	-173.471	-0.159	-0.005
-219.611	-121.855	-0.111	-0.018
-218.596	-142.770	0.387	-0.038
-217.582	-151.514	-0.204	0.015
-216.567	253.936	-0.078	-0.133
-215.552	-177.154	-0.077	-0.002
-214.538	427.580	-0.053	-0.115
-213.523	99.319	0.125	0.144
-212.509	75.719	0.081	-0.085
-211.494	42.568	0.068	0.062
-210.479	-17.571	-0.102	0.064
-209.465	222.073	-0.074	0.118
-208.450	5.574	0.050	-0.037
-207.436	-200.000	0.013	-0.372
-206.421	-128.004	0.143	0.021
-205.406	-37.995	-0.266	-0.141
-204.392	-93.899	-0.261	-0.072
-203.377	148.206	-0.154	0.208
-202.363	126.905	-0.040	0.051
-201.348	256.542	0.127	0.218
-200.333	208.942	-0.145	0.227
-199.319	-64.791	0.108	0.044
-198.304	-162.966	0.112	0.005
-197.290	-77.257	0.363	0.126
-196.275	-95.287	-0.167	0.045
-195.260	785.756	0.026	0.071
-194.246	-123.538	0.130	-0.021
-193.231	-52.184	-0.204	-0.094
-192.217	77.133	-0.088	-0.094
-191.202	-64.978	0.062	0.025
-190.187	-200.000	0.257	0.001
-189.173	83.841	-0.207	0.226
-188.158	30.177	0.182	-0.155
-187.144	-200.000	0.012	0.123
-186.129	135.084	0.309	0.401
-185.114	119.136	-0.105	-0.130
-184.100	679.607	0.016	0.041
-183.085	-101.578	0.203	0.049
-182.071	101.657	-0.176	0.205
-181.056	620.853	0.132	-0.331
-180.042	71.639	-0.218	0.226
-179.027	800.000	0.030	0.100
-178.012	-200.000	-0.032	-0.177
-176.998	800.000	-0.014	0.039
-175.983	2.488	-0.158	-0.114
-174.969	276.510	0.097	0.173
-173.954	85.549	0.244	-0.268
-172.939	227.640	-0.032	0.052
-171.925	78.654	0.237	0.253
-170.910	-200.000	0.068	0.385
-169.896	391.070	0.091	0.188
-168.881	114.880	0.220	0.268
-167.866	-179.938	-0.260	-0.006
-166.852	12.528	0.167	-0.128
-165.837	-160.880	0.117	-0.006
-164.823	11.892	-0.068	-0.052
-163.808	244.479	-0.147	-0.247
-162.793	64.274	0.214	-0.215
-161.779	-69.046	0.435	-0.167
-160.764	-152.878	0.287	0.020
-159.750	800.000	-0.038	0.157
-158.735	-200.000	0.002	0.053
-157.720	-200.000	-0.056	-0.279
-156.706	-140.120	-0.378	-0.040
-155.691	-11.924	0.049	-0.032
-154.677	-82.127	0.187	0.061
-153.662	800.000	0.100	0.289
-152.647	-200.000	-0.021	0.402
-151.633	110.999	0.023	-0.028
-150.618	475.531	-0.025	0.057
-149.604	-77.699	0.428	0.148
-148.589	-63.073	0.278	0.115
-147.574	361.802	-0.304	-0.608
-146.560	-200.000	0.003	-0.161
-145.545	46.799	-0.080	0.075
-144.531	-138.751	0.229	-0.025
-143.516	-99.468	-0.134	0.034
-142.502	-200.000	-0.043	0.254
-141.487	-48.730	0.395	0.190
-140.472	800.000	0.032	0.117
-139.458	800.000	0.045	0.164
-138.443	-42.587	-0.070	-0.036
-137.429	-200.000	0.033	0.345
-136.414	115.360	-0.072	-0.088
-135.399	139.898	0.214	-0.282
-134.385	121.153	0.115	0.143
-133.370	-46.139	0.025	0.012
-132.356	-2.688	-0.076	0.053
-131.341	-76.250	0.264	-0.093
-130.326	328.607	0.152	0.291
-129.312	-103.297	0.133	-0.031
-128.297	32.174	-0.132	0.114
-127.283	-130.701	0.059	-0.008
-126.268	362.508	0.100	0.200
-125.253	-200.000	0.014	-0.123
-124.239	46.731	-0.174	0.161
-123.224	-200.000	-0.008	-0.074
-122.210	-200.000	0.004	-0.121
-121.195	173.370	-0.086	-0.124
