DTS Sentinel unit serial number:	SN413079Multiplexer serial number:	ORYXHardware model number:	OX4-SRSoftware version number:	ORYX F/W v4.00 Oryx Data Collector v3.7.2.0data status	okinstallation	princeton_trtdifferential loss correction	single-endedforward channel	channel 4reverse channel	N/Adate	2019/09/18time	05:37:35forward acquisition time	60.00reverse acquisition time	0.00gamma	496.2192k internal	0.2333k external	0.2333temperature offset calibration	0.9996default loss term (dB/km)	0.3790temperature slope calibration	1.0000multiplexer offset coefficient	1.0000multiplexer slope coefficient	1.0000fibre end	0.00T internal ref (°C)	23.37T ext. ref 1 (°C)	0.19T ext. ref 2 (°C)	16.92length (m)	temperature (°C)	Stokes	anti-Stokes-747.200	800.000	-0.010	-0.044
-746.185	800.000	-0.039	0.163
-745.171	45.296	0.302	-0.280
-744.156	-50.093	-0.729	0.347
-743.142	-200.000	-0.006	-0.036
-742.127	89.917	-0.117	0.131
-741.112	633.709	0.142	0.361
-740.098	-148.959	-0.368	-0.030
-739.083	8.658	0.300	0.227
-738.069	-68.119	-0.347	0.136
-737.054	19.605	-0.327	0.264
-736.039	-70.945	-0.315	0.119
-735.025	-183.214	0.213	-0.004
-734.010	84.259	0.114	0.125
-732.996	65.458	-0.401	-0.408
-731.981	-145.655	0.076	0.007
-730.966	800.000	0.070	-0.234
-729.952	69.616	-0.239	0.247
-728.937	-6.681	-0.051	0.035
-727.923	116.053	0.167	0.206
-726.908	-173.365	-0.055	-0.002
-725.894	115.520	-0.100	-0.123
-724.879	453.133	0.110	0.245
-723.864	-44.109	-0.394	0.199
-722.850	341.836	-0.104	-0.205
-721.835	-68.418	0.253	0.099
-720.821	-200.000	-0.015	-0.207
-719.806	-152.319	0.275	-0.020
-718.791	-126.712	-0.066	-0.010
-717.777	172.745	0.034	0.050
-716.762	247.204	0.192	-0.326
-715.748	800.000	-0.018	0.076
-714.733	800.000	-0.087	-0.366
-713.718	-200.000	0.011	0.158
-712.704	119.895	0.242	-0.301
-711.689	114.612	0.119	0.146
-710.675	-111.428	0.133	0.027
-709.660	55.262	-0.307	-0.299
-708.645	173.616	0.137	-0.198
-707.631	-200.000	-0.024	0.156
-706.616	800.000	0.120	-0.472
-705.602	13.337	-0.177	0.138
-704.587	800.000	0.010	0.041
-703.572	-36.222	0.164	0.089
-702.558	800.000	-0.160	0.474
-701.543	30.712	-0.118	-0.101
-700.529	291.171	0.093	0.170
-699.514	86.286	-0.094	-0.104
-698.499	103.554	-0.122	-0.144
-697.485	67.110	-0.013	0.013
-696.470	140.240	-0.160	0.212
-695.456	322.832	0.166	0.317
-694.441	-74.909	0.157	0.057
-693.426	87.746	0.132	0.147
-692.412	76.083	0.125	0.133
-691.397	-181.896	0.218	-0.004
-690.383	-115.621	0.174	-0.033
-689.368	55.405	-0.195	0.189
-688.354	-75.898	-0.010	-0.004
-687.339	-132.101	0.171	0.022
-686.324	-128.477	-0.095	-0.014
-685.310	53.578	-0.247	0.238
-684.295	361.181	-0.073	-0.147
-683.281	-59.078	-0.312	0.135
-682.266	41.027	-0.235	-0.213
-681.251	-184.512	-0.229	-0.004
-680.237	-37.440	-0.280	0.150
-679.222	-63.829	0.505	0.207
-678.208	-200.000	0.007	0.190
-677.193	34.825	0.207	-0.182
-676.178	-118.132	0.301	0.054
-675.164	800.000	-0.163	0.451
-674.149	157.336	0.124	-0.172
-673.135	782.925	0.061	-0.166
-672.120	800.000	0.106	-0.441
-671.105	-33.096	0.157	0.087
-670.091	242.210	0.186	-0.312
-669.076	-200.000	0.025	-0.318
-668.062	560.187	-0.092	0.223
-667.047	-74.530	0.391	-0.141
-666.032	199.400	-0.092	-0.141
-665.018	43.702	-0.133	0.122
-664.003	-189.394	0.232	-0.003
-662.989	-19.212	-0.206	-0.128
-661.974	-38.929	0.139	-0.073
-660.959	41.118	-0.259	-0.234
-659.945	227.026	-0.019	-0.031
-658.930	688.497	0.107	-0.281
-657.916	49.252	-0.193	0.182
-656.901	520.902	-0.092	-0.217
-655.886	105.555	-0.215	0.254
-654.872	800.000	-0.025	0.106
-653.857	87.658	-0.058	-0.064
-652.843	-200.000	0.022	0.115
-651.828	-168.404	0.164	0.006
-650.814	-131.262	-0.111	-0.015
-649.799	-108.385	-0.268	0.058
-648.784	659.581	0.105	0.271
-647.770	800.000	-0.059	-0.218
-646.755	197.542	-0.203	0.311
-645.741	-200.000	-0.034	-0.309
-644.726	-103.375	0.145	-0.034
-643.711	309.454	-0.071	-0.133
-642.697	114.219	-0.162	0.197
-641.682	-81.294	0.092	-0.030
-640.668	-96.281	0.179	0.047
-639.653	-200.000	-0.039	-0.271
-638.638	24.405	0.243	-0.201
-637.624	32.596	-0.200	-0.174
-636.609	216.632	0.120	-0.191
-635.595	273.340	0.206	0.364
-634.580	77.782	0.202	-0.215
-633.565	-200.000	-0.020	-0.121
-632.551	456.039	0.119	0.264
-631.536	-62.131	0.051	0.021
-630.522	18.987	-0.219	0.176
-629.507	-146.450	-0.343	0.030
-628.492	800.000	-0.154	-0.537
-627.478	133.620	0.181	-0.234
-626.463	-21.472	-0.087	-0.053
-625.449	142.863	0.250	-0.333
-624.434	-156.199	-0.160	0.010
-623.419	331.082	-0.161	-0.310
-622.405	-200.000	-0.085	-0.422
-621.390	-129.362	0.179	0.025
-620.376	690.203	-0.019	-0.050
-619.361	800.000	0.017	-0.062
-618.346	-136.691	0.334	0.039
-617.332	-200.000	-0.004	0.409
-616.317	82.216	-0.077	0.083
-615.303	5.351	-0.041	0.030
-614.288	-29.374	0.040	0.023
-613.273	76.523	-0.208	-0.220
-612.259	286.295	-0.137	-0.248
-611.244	800.000	0.030	-0.110
-610.230	-21.840	0.082	0.050
-609.215	344.238	0.111	0.218
-608.201	-0.910	-0.064	0.045
-607.186	-200.000	0.041	0.193
-606.171	800.000	-0.038	-0.111
-605.157	-116.479	-0.204	-0.038
-604.142	-200.000	0.019	0.114
-603.128	-127.934	-0.254	-0.037
-602.113	-114.786	0.144	0.027
-601.098	-200.000	-0.014	-0.151
-600.084	-103.251	0.050	-0.012
-599.069	10.716	-0.210	-0.160
-598.055	16.519	0.062	-0.049
-597.040	-169.038	-0.236	-0.009
-596.025	800.000	0.083	-0.325
-595.011	215.351	0.085	-0.134
-593.996	-17.187	-0.085	0.053
-592.982	-10.021	-0.233	-0.155
-591.967	-67.898	0.157	-0.061
-590.952	-36.562	-0.176	0.095
-589.938	269.193	-0.177	-0.311
-588.923	-68.486	0.191	-0.074
-587.909	800.000	0.063	0.175
-586.894	-113.287	-0.074	-0.015
-585.879	22.492	0.154	0.126
-584.865	-35.745	0.117	-0.063
-583.850	-34.688	0.336	-0.184
-582.836	800.000	0.083	-0.251
-581.821	-23.615	-0.062	0.037
-580.806	57.957	-0.279	0.273
-579.792	-200.000	0.023	-0.135
-578.777	608.827	0.103	0.257
-577.763	-10.734	0.291	0.192
-576.748	380.506	-0.158	-0.324
-575.733	-28.635	0.134	0.077
-574.719	-200.000	-0.041	-0.252
-573.704	357.778	0.166	-0.330
-572.690	175.392	0.152	-0.220
-571.675	-45.617	0.203	0.100
-570.661	-20.695	0.070	0.043
-569.646	102.823	-0.104	0.122
-568.631	16.695	0.075	0.060
-567.617	-105.766	-0.210	-0.047
-566.602	-120.307	0.528	-0.090
-565.588	43.963	0.149	0.136
-564.573	9.599	0.085	-0.064
-563.558	800.000	0.085	-0.292
-562.544	-200.000	-0.017	0.159
-561.529	800.000	-0.052	-0.168
-560.515	171.661	-0.053	-0.075
-559.500	57.459	-0.010	-0.010
-558.485	-47.614	0.233	0.113
-557.471	-41.419	-0.238	0.122
-556.456	-111.495	0.282	0.057
-555.442	613.507	-0.059	0.147
-554.427	-68.355	-0.437	0.169
-553.412	-96.370	0.132	0.035
-552.398	-86.494	0.197	0.060
-551.383	-74.151	-0.206	-0.075
-550.369	-200.000	-0.014	-0.117
-549.354	-200.000	0.016	-0.476
-548.339	-71.148	0.095	-0.036
-547.325	800.000	-0.034	0.133
-546.310	-54.726	0.447	-0.202
-545.296	534.929	0.138	0.327
-544.281	464.450	0.050	-0.112
-543.266	-15.325	-0.073	-0.046
-542.252	800.000	0.104	-0.299
-541.237	60.998	0.186	0.184
-540.223	708.415	0.064	0.169
-539.208	364.116	0.034	0.069
-538.193	395.773	0.176	0.366
-537.179	41.683	0.117	-0.106
-536.164	160.454	0.147	0.204
-535.150	-200.000	-0.019	0.087
-534.135	10.592	-0.043	0.032
-533.121	-43.361	-0.362	0.183
-532.106	43.486	-0.320	-0.292
-531.091	97.950	0.154	-0.177
-530.077	283.167	-0.187	-0.335
-529.062	113.957	0.166	-0.201
-528.048	-15.742	-0.148	-0.094
-527.033	32.954	0.099	0.086
-526.018	195.668	0.108	-0.164
-525.004	-122.622	-0.333	-0.054
-523.989	-3.824	0.111	0.077
-522.975	-79.314	0.184	-0.062
-521.960	800.000	-0.085	-0.287
-520.945	586.240	-0.054	-0.132
-519.931	26.467	-0.136	0.113
-518.916	117.519	0.117	0.144
-517.902	116.090	0.287	0.350
-516.887	50.845	-0.245	0.231
-515.872	-155.275	-0.109	0.007
-514.858	729.520	0.045	-0.119
-513.843	292.590	0.161	-0.292
-512.829	-6.012	0.231	0.158
-511.814	-200.000	-0.006	0.075
-510.799	-106.470	0.176	0.039
-509.785	-4.408	-0.232	0.160
-508.770	191.936	0.141	0.212
-507.756	264.625	-0.129	-0.223
-506.741	303.800	-0.090	-0.166
-505.726	-200.000	0.034	-0.284
-504.712	-175.441	-0.277	0.008
-503.697	-136.894	0.394	0.045
-502.683	-39.598	0.016	0.008
-501.668	17.735	0.143	-0.113
-500.653	-91.900	-0.173	-0.049
-499.639	-140.789	-0.264	0.027
-498.624	486.557	0.149	0.337
-497.610	697.244	-0.088	0.231
-496.595	-120.335	-0.337	0.057
-495.581	-82.978	-0.254	0.081
-494.566	-167.137	-0.129	-0.005
-493.551	-91.375	0.086	-0.024
-492.537	800.000	0.034	0.134
-491.522	93.910	-0.173	0.195
-490.508	2.523	0.145	-0.105
-489.493	-200.000	0.036	0.292
-488.478	-48.304	-0.192	-0.092
-487.464	-90.666	0.198	0.057
-486.449	81.649	0.199	0.215
-485.435	32.640	-0.233	-0.200
-484.420	-200.000	-0.003	0.353
-483.405	119.337	-0.144	-0.178
-482.391	-99.674	0.430	0.107
-481.376	-37.818	-0.158	0.083
-480.362	-200.000	0.006	0.116
-479.347	-31.996	0.168	-0.094
-478.332	-6.765	-0.258	0.175
-477.318	218.457	0.060	-0.096
-476.303	-22.310	-0.263	0.159
-475.289	-52.423	-0.259	-0.119
-474.274	-43.173	-0.120	-0.060
-473.259	339.221	0.030	-0.059
-472.245	-200.000	0.045	-0.316
-471.230	30.068	-0.194	-0.165
-470.216	300.537	-0.105	0.194
-469.201	-114.038	0.083	0.016
-468.186	54.199	-0.142	-0.136
-467.172	-167.622	-0.316	-0.013
-466.157	-65.485	0.259	-0.104
-465.143	37.663	-0.044	0.039
-464.128	626.336	0.063	0.158
-463.113	-200.000	0.055	0.322
-462.099	69.577	0.121	-0.124
-461.084	-200.000	-0.046	0.338
-460.070	324.127	-0.107	0.203
-459.055	-109.838	-0.126	-0.026
-458.040	-62.458	-0.061	0.025
-457.026	-85.498	-0.268	-0.083
-456.011	-110.194	0.204	-0.042
-454.997	41.431	0.161	0.145
-453.982	-51.389	-0.074	0.035
-452.968	51.961	-0.086	0.082
-451.953	249.730	-0.091	-0.153
-450.938	295.372	0.157	0.285
-449.924	-22.168	0.142	-0.086
-448.909	-16.759	0.086	0.054
-447.895	380.419	0.167	0.341
-446.880	-91.848	-0.173	-0.049
-445.865	800.000	-0.061	-0.192
-444.851	594.049	-0.041	0.101
-443.836	-94.479	-0.210	0.057
-442.822	-171.898	0.049	0.002
-441.807	800.000	-0.111	0.317
-440.792	-55.683	-0.065	0.029
-439.778	-200.000	-0.033	0.212
-438.763	-50.594	-0.108	-0.050
-437.749	-200.000	0.003	0.030
-436.734	-88.224	0.161	0.048
-435.719	176.788	0.144	0.208
-434.705	21.342	-0.093	0.075
-433.690	-28.672	0.062	-0.035
-432.676	-25.753	0.170	-0.099
-431.661	43.626	0.118	0.107
-430.646	800.000	-0.099	-0.314
-429.632	469.141	-0.014	0.030
-428.617	160.235	-0.085	0.117
-427.603	-95.264	-0.063	-0.017
-426.588	-137.961	0.204	0.023
-425.573	-34.086	-0.062	-0.034
-424.559	-40.470	0.029	-0.015
-423.544	-200.000	0.013	-0.182
-422.530	-200.000	-0.032	-0.260
-421.515	-26.239	-0.142	0.083
-420.500	-165.431	0.261	-0.011
-419.486	-200.000	0.003	0.201
-418.471	122.063	0.081	0.100
-417.457	756.891	0.039	0.104
-416.442	131.498	0.233	-0.297
-415.428	609.383	0.098	-0.244
-414.413	-200.000	0.023	0.345
-413.398	-57.876	-0.244	0.106
-412.384	316.523	-0.069	0.130
-411.369	-197.392	0.211	0.001
-410.355	-200.000	0.034	-0.264
-409.340	800.000	0.076	0.210
-408.325	223.722	0.246	0.394
-407.311	196.602	0.011	-0.017
-406.296	-122.291	-0.008	-0.001
-405.282	-46.133	-0.257	0.126
-404.267	-200.000	0.010	0.292
-403.252	-200.000	-0.004	0.106
-402.238	-182.411	0.302	-0.006
-401.223	167.432	-0.139	0.196
-400.209	-200.000	-0.021	-0.114
-399.194	-117.434	-0.322	0.058
-398.179	342.453	0.128	0.248
-397.165	-112.358	-0.105	-0.021
-396.150	-50.433	0.037	-0.017
-395.136	-200.000	0.015	-0.344
-394.121	-101.092	-0.186	-0.045
-393.106	7.169	-0.215	-0.159
-392.092	-67.827	0.090	-0.035
-391.077	-118.815	0.167	0.029
-390.063	531.707	-0.032	0.074
-389.048	344.723	0.073	-0.142
-388.033	800.000	0.130	0.529
-387.019	-200.000	-0.022	-0.130
-386.004	800.000	0.051	0.157
-384.990	-111.956	0.145	0.029
-383.975	-63.738	0.330	0.134
-382.960	800.000	0.032	0.093
-381.946	-20.555	-0.055	-0.034
-380.931	607.589	-0.128	0.317
-379.917	-5.047	0.144	-0.099
-378.902	-200.000	0.016	-0.128
-377.888	173.707	-0.165	-0.236
-376.873	356.871	-0.059	-0.116
-375.858	-200.000	0.004	-0.258
-374.844	-31.610	0.272	-0.152
-373.829	-63.358	-0.310	-0.126
-372.815	24.699	0.209	0.172
-371.800	80.450	0.119	-0.127
-370.785	-113.688	0.135	-0.026
-369.771	-64.967	0.379	-0.152
-368.756	-6.431	-0.175	0.118
-367.742	-18.572	0.221	0.136
-366.727	-200.000	-0.023	-0.292
-365.712	800.000	0.026	-0.092
-364.698	-200.000	-0.056	-0.272
-363.683	49.390	0.164	-0.153
-362.669	-132.402	0.251	0.032
-361.654	-57.311	-0.272	-0.118
-360.639	-16.694	0.177	0.111
-359.625	578.700	-0.093	0.224
-358.610	37.173	-0.093	0.082
-357.596	-2.436	0.180	0.125
-356.581	-28.608	0.085	0.048
-355.566	264.770	-0.167	0.288
-354.552	-26.144	-0.118	0.069
-353.537	-8.418	0.062	0.041
-352.523	-62.801	-0.167	-0.069
-351.508	40.003	-0.089	0.079
-350.493	-111.088	0.200	-0.041
-349.479	-86.157	0.421	0.129
-348.464	-200.000	-0.021	-0.244
-347.450	-141.270	-0.017	0.002
-346.435	-186.624	-0.464	0.007
-345.420	-102.351	0.139	-0.033
-344.406	-200.000	-0.015	0.245
-343.391	-120.874	-0.093	0.016
-342.377	484.813	0.093	0.209
-341.362	91.488	-0.057	0.063
-340.348	-78.913	-0.088	0.030
-339.333	330.127	0.060	0.114
-338.318	-7.337	0.242	0.162
-337.304	800.000	-0.014	-0.058
-336.289	-200.000	0.005	0.218
-335.275	800.000	-0.101	-0.325
-334.260	-200.000	-0.016	-0.153
-333.245	-86.563	0.244	-0.074
-332.231	-200.000	0.023	-0.198
-331.216	292.654	-0.169	-0.305
-330.202	-45.980	-0.269	-0.131
-329.187	2.440	-0.127	-0.091
-328.172	22.897	-0.023	-0.018
-327.158	58.951	0.098	0.095
-326.143	-82.723	0.100	0.032
-325.129	-58.967	0.420	-0.179
-324.114	800.000	-0.107	-0.298
-323.099	-200.000	0.007	-0.388
-322.085	-45.002	0.152	0.075
-321.070	-200.000	0.017	0.216
-320.056	288.024	-0.093	0.167
-319.041	336.231	0.217	0.416
-318.026	-95.835	-0.213	-0.056
-317.012	360.217	0.009	0.018
-315.997	30.310	-0.260	-0.220
-314.983	-200.000	-0.069	-0.424
-313.968	800.000	0.077	-0.296
-312.953	-70.239	0.178	-0.067
-311.939	-128.247	-0.105	-0.015
-310.924	208.963	-0.060	0.093
-309.910	216.757	-0.032	-0.051
-308.895	424.484	-0.066	-0.140
-307.880	-200.000	-0.001	0.094
-306.866	104.260	0.264	-0.307
-305.851	800.000	-0.041	-0.135
-304.837	-21.370	0.121	-0.073
-303.822	-76.177	-0.233	0.081
-302.807	-200.000	-0.022	-0.170
-301.793	628.001	-0.073	-0.182
-300.778	32.747	-0.139	-0.118
-299.764	287.955	-0.247	0.441
-298.749	-55.220	-0.042	0.018
-297.735	303.943	-0.079	-0.145
-296.720	-81.780	0.169	-0.055
-295.705	187.883	-0.050	-0.073
-294.691	-126.167	-0.367	0.054
-293.676	54.007	0.170	0.162
-292.662	507.827	0.029	-0.065
-291.647	133.593	0.188	-0.241
-290.632	41.465	-0.178	-0.159
-289.618	-23.931	0.134	0.079
-288.603	317.731	0.170	-0.317
-287.589	204.806	0.140	-0.215
-286.574	-36.373	0.172	0.092
-285.559	439.579	-0.101	0.218
-284.545	35.791	-0.224	0.195
-283.530	-32.236	-0.063	0.035
-282.516	55.440	0.100	0.096
-281.501	-200.000	0.007	0.180
-280.486	269.256	-0.285	0.494
-279.472	800.000	-0.075	-0.255
-278.457	86.130	-0.325	0.353
-277.443	124.308	-0.091	0.113
-276.428	345.122	0.093	0.181
-275.413	-59.089	0.103	0.044
-274.399	176.423	-0.097	0.139
-273.384	570.794	-0.028	-0.068
-272.370	-55.459	-0.247	-0.109
-271.355	607.152	-0.059	0.146
-270.340	18.290	0.132	-0.104
-269.326	-87.793	-0.242	-0.072
-268.311	-138.174	-0.217	-0.024
-267.297	64.238	0.054	0.054
-266.282	800.000	-0.098	0.280
-265.267	-30.156	0.296	-0.166
-264.253	-32.806	0.158	0.087
-263.238	-200.000	-0.012	-0.163
-262.224	-130.547	-0.219	-0.029
-261.209	-182.081	-0.063	0.001
-260.195	35.865	-0.113	-0.098
-259.180	-39.854	0.326	0.168
-258.165	124.838	0.276	0.343
-257.151	294.102	-0.076	0.137
-256.136	370.721	-0.252	0.503
-255.122	-120.070	0.081	-0.014
-254.107	-118.027	-0.102	0.018
-253.092	65.913	0.275	0.275
-252.078	-127.674	-0.239	-0.034
-251.063	-200.000	0.018	-0.188
-250.049	-68.099	-0.046	-0.018
-249.034	74.162	0.104	-0.108
-248.019	800.000	0.106	0.413
-247.005	-98.116	0.113	-0.029
-245.990	-98.905	0.215	-0.054
-244.976	-200.000	-0.012	0.238
-243.961	-168.671	0.093	-0.003
-242.946	337.567	0.160	-0.307
-241.932	286.156	0.158	0.280
-240.917	800.000	0.020	0.061
-239.903	-167.514	0.054	-0.002
-238.888	207.008	0.212	-0.326
-237.873	800.000	-0.047	-0.135
-236.859	35.365	-0.124	-0.107
-235.844	80.585	-0.252	-0.268
-234.830	-88.930	-0.278	-0.081
-233.815	-200.000	0.001	0.249
-232.800	42.018	-0.121	-0.108
-231.786	-200.000	0.068	-0.378
-230.771	-45.940	0.313	-0.152
-229.757	49.581	-0.233	0.216
-228.742	-102.636	0.127	-0.030
-227.727	-84.187	0.137	0.043
-226.713	65.650	0.191	0.191
-225.698	18.256	0.450	0.354
-224.684	-144.573	-0.096	-0.009
-223.669	-177.780	0.191	0.005
-222.655	113.998	-0.212	0.254
-221.640	-36.002	-0.353	0.188
-220.625	-36.426	0.178	0.094
-219.611	-200.000	0.027	-0.118
-218.596	60.138	0.046	-0.045
-217.582	62.760	-0.404	0.398
-216.567	-174.567	-0.268	0.008
-215.552	404.129	-0.192	-0.398
-214.538	267.599	-0.175	-0.302
-213.523	-81.431	0.080	0.026
-212.509	-200.000	-0.027	0.231
-211.494	50.695	-0.246	0.229
-210.479	-200.000	0.014	0.252
-209.465	-9.729	-0.302	0.198
-208.450	-200.000	-0.028	-0.245
-207.436	532.635	-0.040	0.093
-206.421	199.191	-0.326	-0.492
-205.406	-19.608	0.230	-0.140
-204.392	364.049	-0.156	0.309
-203.377	-56.301	0.349	-0.153
-202.363	-27.759	-0.136	0.077
-201.348	-200.000	0.056	0.350
-200.333	104.588	0.124	0.144
-199.319	234.415	-0.183	-0.297
-198.304	94.052	0.053	0.059
-197.290	187.745	-0.103	-0.151
-196.275	-118.121	-0.303	-0.053
-195.260	800.000	0.020	0.066
-194.246	-200.000	-0.007	-0.134
-193.231	-200.000	0.037	-0.173
-192.217	172.328	0.068	0.097
-191.202	-168.899	-0.110	-0.004
-190.187	-105.776	-0.270	-0.060
-189.173	552.537	0.101	-0.239
-188.158	177.523	-0.060	0.086
-187.144	-76.777	-0.277	-0.095
-186.129	146.777	0.194	-0.256
-185.114	800.000	-0.040	-0.155
-184.100	-200.000	-0.020	0.197
-183.085	-200.000	-0.032	0.000
-182.071	61.987	-0.051	-0.050
-181.056	-51.396	0.217	0.100
-180.042	-126.926	0.363	-0.053
-179.027	-136.289	-0.131	0.015
-178.012	-54.347	-0.180	0.080
-176.998	459.200	-0.060	0.132
-175.983	-32.459	-0.142	-0.078
-174.969	-34.573	0.276	0.148
-173.954	-67.890	0.475	0.183
-172.939	-200.000	0.001	0.014
-171.925	-200.000	0.056	0.251
-170.910	-200.000	-0.050	0.241
-169.896	800.000	-0.082	-0.319
-168.881	-2.199	0.236	-0.163
-167.866	289.345	0.164	0.292
-166.852	-200.000	0.026	-0.212
-165.837	-84.142	0.205	0.064
-164.823	118.236	0.124	0.150
-163.808	-183.692	-0.160	-0.003
-162.793	-37.865	-0.195	0.102
-161.779	-117.706	0.267	-0.047
-160.764	103.533	-0.087	-0.100
-159.750	-64.434	-0.293	-0.117
-158.735	-54.772	-0.076	0.034
-157.720	-37.850	-0.185	-0.096
-156.706	719.969	-0.065	0.169
-155.691	647.116	-0.144	-0.362
-154.677	800.000	-0.075	-0.236
-153.662	288.526	-0.041	-0.073
-152.647	370.434	0.180	0.358
-151.633	-200.000	0.021	-0.127
-150.618	245.157	-0.039	0.064
-149.604	-200.000	-0.007	0.145
-148.589	13.268	-0.298	0.227
-147.574	-151.505	-0.053	0.004
-146.560	-200.000	0.019	0.194
-145.545	-10.989	0.171	0.111
-144.531	-157.349	-0.122	0.007
-143.516	-181.710	0.171	0.003
-142.502	-200.000	0.012	-0.148
-141.487	401.723	-0.029	-0.061
-140.472	19.819	-0.194	0.153
-139.458	94.153	-0.183	-0.204
-138.443	128.376	-0.123	-0.153
-137.429	265.422	0.023	-0.040
-136.414	168.515	0.072	-0.100
-135.399	745.661	-0.016	-0.041
-134.385	56.535	0.171	0.164
-133.370	66.079	-0.164	0.164
-132.356	-200.000	-0.023	-0.119
-131.341	-200.000	0.018	0.110
-130.326	-200.000	0.001	-0.218
-129.312	-36.251	-0.232	-0.123
-128.297	429.324	-0.123	-0.260
-127.283	-130.028	-0.285	0.038
-126.268	-60.570	0.139	0.058
-125.253	189.378	-0.059	0.086
-124.239	-63.428	-0.079	-0.032
-123.224	302.913	0.116	0.210
-122.210	-43.214	-0.237	-0.118
-121.195	-134.737	0.265	-0.032
