DTS Sentinel unit serial number:	SN413079Multiplexer serial number:	ORYXHardware model number:	OX4-SRSoftware version number:	ORYX F/W v4.00 Oryx Data Collector v3.7.2.0data status	okinstallation	princeton_trtdifferential loss correction	single-endedforward channel	channel 4reverse channel	N/Adate	2019/09/19time	03:17:35forward acquisition time	60.00reverse acquisition time	0.00gamma	496.2192k internal	0.2341k external	0.2341temperature offset calibration	1.0028default loss term (dB/km)	0.3790temperature slope calibration	1.0000multiplexer offset coefficient	1.0000multiplexer slope coefficient	1.0000fibre end	0.00T internal ref (°C)	20.75T ext. ref 1 (°C)	0.66T ext. ref 2 (°C)	14.17length (m)	temperature (°C)	Stokes	anti-Stokes-747.200	-37.314	0.089	0.048
-746.185	88.410	-0.131	0.146
-745.171	1.023	0.158	0.113
-744.156	-99.266	-0.276	0.070
-743.142	-35.447	-0.155	0.085
-742.127	-200.000	0.011	0.069
-741.112	18.428	0.486	0.389
-740.098	657.115	-0.181	0.467
-739.083	-200.000	-0.030	0.153
-738.069	39.289	-0.420	0.377
-737.054	-63.493	-0.123	-0.051
-736.039	87.942	-0.135	-0.150
-735.025	261.291	-0.167	0.289
-734.010	50.164	0.027	-0.026
-732.996	302.249	0.168	0.311
-731.981	411.311	-0.287	0.609
-730.966	-109.676	-0.398	-0.084
-729.952	-200.000	-0.011	-0.499
-728.937	-200.000	-0.035	-0.269
-727.923	8.545	0.254	-0.192
-726.908	670.722	-0.127	-0.330
-725.894	52.597	-0.254	-0.243
-724.879	-5.828	-0.150	-0.103
-723.864	403.220	-0.089	0.188
-722.850	163.331	0.220	0.310
-721.835	800.000	-0.095	-0.392
-720.821	-200.000	0.026	0.223
-719.806	-200.000	0.012	-0.057
-718.791	-200.000	-0.004	0.196
-717.777	-200.000	-0.057	0.296
-716.762	37.904	0.136	-0.121
-715.748	182.363	0.051	0.076
-714.733	-119.209	-0.422	-0.074
-713.718	-46.534	-0.206	-0.101
-712.704	-46.469	-0.151	-0.074
-711.689	-177.418	-0.219	-0.005
-710.675	469.003	-0.154	-0.347
-709.660	-91.347	0.317	-0.091
-708.645	-198.877	-0.405	-0.002
-707.631	-147.631	0.244	0.021
-706.616	-200.000	-0.001	0.210
-705.602	51.347	-0.060	-0.057
-704.587	-200.000	0.040	0.277
-703.572	-200.000	0.004	-0.220
-702.558	-1.660	-0.192	-0.136
-701.543	-12.907	0.183	0.119
-700.529	800.000	-0.045	-0.160
-699.514	800.000	-0.091	0.266
-698.499	83.803	0.139	-0.151
-697.485	-148.125	-0.218	0.018
-696.470	-52.923	-0.232	-0.107
-695.456	696.141	0.069	-0.181
-694.441	800.000	0.056	-0.215
-693.426	165.578	-0.221	0.313
-692.412	45.539	-0.073	-0.068
-691.397	800.000	-0.018	0.074
-690.383	-71.982	0.153	-0.057
-689.368	800.000	0.163	-0.464
-688.354	-200.000	-0.049	-0.271
-687.339	-47.365	-0.124	0.060
-686.324	66.898	-0.221	0.225
-685.310	-68.942	-0.283	-0.109
-684.295	-4.788	-0.112	-0.077
-683.281	-123.551	-0.266	0.042
-682.266	800.000	-0.040	-0.136
-681.251	-43.896	-0.294	0.148
-680.237	800.000	-0.052	-0.164
-679.222	-198.441	-0.120	0.001
-678.208	202.599	0.181	-0.279
-677.193	115.227	0.105	-0.128
-676.178	-13.413	0.339	-0.220
-675.164	203.274	-0.092	-0.143
-674.149	77.583	0.166	0.177
-673.135	-82.533	-0.167	0.054
-672.120	-8.044	0.242	-0.163
-671.105	-90.848	0.068	-0.019
-670.091	800.000	-0.100	-0.338
-669.076	84.710	0.085	-0.093
-668.062	-165.047	0.183	0.008
-667.047	304.254	-0.147	0.272
-666.032	775.718	-0.062	0.168
-665.018	112.564	-0.106	0.128
-664.003	20.655	0.244	-0.197
-662.989	-127.278	-0.263	-0.038
-661.974	-200.000	-0.000	0.223
-660.959	-76.386	0.271	0.095
-659.945	-100.261	0.064	-0.016
-658.930	-91.931	-0.120	-0.034
-657.916	80.141	-0.031	-0.033
-656.901	16.360	-0.180	0.142
-655.886	-47.017	0.368	0.179
-654.872	-200.000	0.013	0.268
-653.857	-194.530	-0.150	-0.001
-652.843	-60.017	-0.157	-0.067
-651.828	-121.698	-0.152	0.025
-650.814	252.356	-0.207	0.353
-649.799	79.993	-0.071	0.077
-648.784	61.796	-0.088	-0.087
-647.770	85.504	0.131	0.144
-646.755	655.844	0.084	-0.216
-645.741	-200.000	0.012	0.118
-644.726	-21.559	-0.145	0.088
-643.711	-138.950	-0.144	-0.016
-642.697	230.935	-0.095	-0.156
-641.682	-109.991	0.307	0.064
-640.668	126.631	-0.108	-0.137
-639.653	-96.884	0.294	0.077
-638.638	94.996	0.060	-0.068
-637.624	-200.000	0.095	0.493
-636.609	-11.817	0.190	-0.125
-635.595	58.989	-0.231	0.227
-634.580	-200.000	-0.039	-0.171
-633.565	690.971	-0.026	0.067
-632.551	332.636	0.050	-0.096
-631.536	-98.506	-0.293	-0.075
-630.522	-93.894	0.196	0.054
-629.507	-67.965	0.213	-0.083
-628.492	-200.000	0.020	0.270
-627.478	120.649	-0.225	0.279
-626.463	9.290	-0.097	-0.073
-625.449	-153.783	-0.358	-0.024
-624.434	-25.560	0.203	-0.120
-623.419	-157.554	0.310	0.019
-622.405	91.624	-0.132	0.148
-621.390	-152.256	-0.420	-0.030
-620.376	522.954	-0.038	-0.088
-619.361	6.309	0.041	-0.030
-618.346	73.232	0.079	-0.083
-617.332	57.520	-0.114	0.111
-616.317	416.658	-0.096	0.205
-615.303	800.000	0.072	0.263
-614.288	-111.701	0.406	0.082
-613.273	800.000	-0.086	-0.329
-612.259	-51.631	0.207	-0.096
-611.244	61.594	0.211	-0.210
-610.230	705.955	0.093	0.244
-609.215	-200.000	-0.002	-0.124
-608.201	-200.000	-0.012	0.094
-607.186	-125.688	0.136	-0.020
-606.171	207.550	0.146	-0.227
-605.157	-200.000	0.030	-0.331
-604.142	340.509	-0.041	-0.079
-603.128	-200.000	0.004	-0.133
-602.113	-200.000	-0.008	-0.134
-601.098	371.207	0.071	0.144
-600.084	627.125	0.148	0.371
-599.069	-66.389	0.296	0.117
-598.055	-154.184	-0.268	0.018
-597.040	303.483	0.056	0.103
-596.025	-25.489	-0.535	-0.315
-595.011	197.671	-0.071	-0.108
-593.996	29.834	-0.216	0.183
-592.982	-50.979	0.136	-0.064
-591.967	28.613	-0.249	-0.210
-590.952	-170.084	0.130	0.005
-589.938	-88.741	-0.482	0.143
-588.923	376.771	-0.094	0.191
-587.909	184.403	0.113	-0.167
-586.894	50.557	0.237	0.223
-585.879	-73.119	0.441	-0.161
-584.865	800.000	0.116	-0.499
-583.850	-200.000	-0.021	0.270
-582.836	-70.527	-0.066	-0.025
-581.821	143.243	-0.145	0.192
-580.806	-19.292	0.314	0.194
-579.792	64.885	0.205	0.206
-578.777	278.672	0.185	0.329
-577.763	240.413	0.065	-0.107
-576.748	800.000	0.042	0.169
-575.733	9.800	0.243	0.183
-574.719	10.001	0.175	-0.133
-573.704	126.625	-0.063	0.079
-572.690	574.334	0.012	0.029
-571.675	692.115	-0.028	-0.074
-570.661	-111.089	0.070	-0.014
-569.646	106.607	0.239	-0.282
-568.631	454.230	0.254	0.560
-567.617	459.803	-0.149	-0.330
-566.602	-73.822	-0.279	-0.101
-565.588	-159.590	0.069	0.004
-564.573	-152.254	0.142	-0.010
-563.558	240.504	-0.024	0.040
-562.544	218.180	-0.087	0.139
-561.529	64.195	0.124	0.124
-560.515	54.627	-0.211	-0.202
-559.500	76.254	-0.102	-0.107
-558.485	186.642	0.153	0.227
-557.471	250.334	-0.216	0.364
-556.456	12.802	0.082	-0.063
-555.442	217.238	-0.064	0.102
-554.427	117.215	-0.078	-0.095
-553.412	145.454	-0.103	-0.137
-552.398	-166.912	-0.102	0.004
-551.383	-44.960	-0.102	0.051
-550.369	75.167	0.265	-0.278
-549.354	-94.903	-0.071	-0.019
-548.339	232.961	-0.266	-0.435
-547.325	211.833	-0.080	0.125
-546.310	-74.848	-0.028	0.010
-545.296	800.000	0.033	-0.114
-544.281	340.006	-0.109	-0.212
-543.266	-134.379	0.228	-0.028
-542.252	-82.966	-0.229	0.073
-541.237	-128.119	-0.204	0.029
-540.223	569.627	-0.064	0.154
-539.208	-200.000	0.023	0.159
-538.193	46.630	0.051	0.047
-537.179	9.791	0.277	-0.209
-536.164	16.173	0.427	0.334
-535.150	-101.839	-0.304	-0.073
-534.135	-17.394	-0.129	0.081
-533.121	-200.000	0.009	-0.196
-532.106	-153.918	0.146	0.010
-531.091	-101.014	0.621	-0.151
-530.077	-75.754	0.321	-0.113
-529.062	800.000	0.002	-0.009
-528.048	-169.662	-0.296	0.011
-527.033	-22.866	-0.161	-0.096
-526.018	-13.806	0.260	0.167
-525.004	800.000	-0.036	-0.104
-523.989	-118.455	-0.056	0.010
-522.975	-97.347	-0.121	-0.031
-521.960	-26.048	0.132	-0.077
-520.945	-53.842	-0.480	-0.217
-519.931	-95.429	-0.250	-0.067
-518.916	-200.000	0.001	0.135
-517.902	-19.359	0.172	-0.106
-516.887	800.000	-0.037	0.153
-515.872	800.000	0.055	0.159
-514.858	-200.000	-0.034	-0.401
-513.843	107.011	0.217	-0.256
-512.829	23.399	-0.063	-0.052
-511.814	-200.000	0.026	0.258
-510.799	-200.000	-0.036	-0.167
-509.785	-200.000	0.007	-0.126
-508.770	-109.207	0.402	0.085
-507.756	735.159	0.045	-0.119
-506.741	-200.000	0.019	-0.179
-505.726	-200.000	-0.058	0.373
-504.712	88.628	0.075	0.083
-503.697	-149.713	-0.215	0.017
-502.683	6.868	-0.117	0.087
-501.668	95.820	0.113	-0.128
-500.653	2.312	0.175	0.126
-499.639	-64.658	-0.077	-0.031
-498.624	10.323	-0.147	0.111
-497.610	-96.522	-0.171	-0.045
-496.595	18.776	0.163	-0.130
-495.581	221.148	-0.148	-0.236
-494.566	-48.084	0.323	0.155
-493.551	-94.125	-0.265	0.072
-492.537	-16.886	0.046	0.029
-491.522	119.273	0.032	-0.040
-490.508	-200.000	0.022	0.294
-489.493	-200.000	0.054	-0.374
-488.478	253.851	-0.063	-0.107
-487.464	-200.000	0.055	-0.395
-486.449	392.882	0.090	-0.186
-485.435	-103.736	-0.294	0.068
-484.420	70.157	-0.284	-0.291
-483.405	-178.084	-0.038	-0.001
-482.391	-108.563	0.134	-0.029
-481.376	-200.000	-0.039	0.378
-480.362	453.823	-0.158	0.347
-479.347	-142.806	0.241	-0.023
-478.332	-64.470	-0.218	-0.088
-477.318	800.000	-0.145	-0.526
-476.303	-172.722	0.056	0.002
-475.289	-34.087	0.104	0.057
-474.274	-25.452	-0.119	0.070
-473.259	-140.879	0.211	-0.022
-472.245	226.103	0.045	0.073
-471.230	150.950	-0.063	0.085
-470.216	800.000	0.030	0.124
-469.201	-75.493	0.209	-0.074
-468.186	-73.251	-0.132	0.048
-467.172	-76.870	0.199	-0.069
-466.157	158.326	-0.192	-0.264
-465.143	800.000	0.043	-0.160
-464.128	61.819	0.035	-0.034
-463.113	-36.822	0.298	0.158
-462.099	-133.481	0.104	-0.013
-461.084	442.277	-0.075	-0.163
-460.070	800.000	0.092	0.360
-459.055	155.610	-0.150	0.205
-458.040	67.324	-0.036	-0.037
-457.026	-41.813	-0.260	-0.132
-456.011	373.723	0.097	-0.197
-454.997	198.187	-0.287	0.435
-453.982	800.000	0.015	0.057
-452.968	800.000	0.024	-0.081
-451.953	-200.000	-0.005	-0.035
-450.938	2.017	-0.212	0.152
-449.924	-20.888	0.173	-0.105
-448.909	-43.456	-0.219	-0.110
-447.895	-18.745	0.263	-0.162
-446.880	-32.998	0.058	-0.032
-445.865	221.022	0.131	0.208
-444.851	-200.000	0.033	-0.283
-443.836	800.000	-0.087	-0.282
-442.822	-96.031	0.367	0.097
-441.807	351.851	0.074	0.145
-440.792	758.946	-0.007	0.018
-439.778	127.098	0.134	-0.169
-438.763	180.592	0.155	-0.225
-437.749	-200.000	0.009	0.194
-436.734	186.061	-0.130	0.192
-435.719	44.141	-0.178	-0.162
-434.705	322.040	-0.069	-0.130
-433.690	-200.000	0.007	0.055
-432.676	-66.950	0.153	-0.060
-431.661	548.696	-0.089	0.211
-430.646	-120.732	0.119	-0.020
-429.632	800.000	0.087	0.320
-428.617	-102.931	-0.329	-0.077
-427.603	-10.119	-0.326	0.215
-426.588	-41.766	-0.087	-0.044
-425.573	154.280	0.136	-0.185
-424.559	-82.058	-0.178	0.058
-423.544	-164.310	0.080	0.004
-422.530	-103.292	-0.139	-0.032
-421.515	103.439	0.120	-0.139
-420.500	114.785	0.171	-0.207
-419.486	28.916	0.071	-0.059
-418.471	-200.000	-0.003	0.029
-417.457	735.569	-0.001	0.004
-416.442	-82.931	-0.108	0.034
-415.428	164.399	0.070	-0.097
-414.413	655.433	-0.068	0.174
-413.398	-34.574	-0.339	-0.183
-412.384	-52.881	0.226	-0.103
-411.369	-85.452	0.226	-0.070
-410.355	217.971	0.217	0.342
-409.340	-200.000	-0.062	0.523
-408.325	-145.451	-0.237	0.021
-407.311	31.896	0.145	0.123
-406.296	57.396	0.045	-0.043
-405.282	-161.429	-0.092	0.005
-404.267	-110.235	-0.060	0.012
-403.252	-47.865	-0.077	-0.037
-402.238	-89.709	-0.267	-0.077
-401.223	-109.832	-0.130	-0.027
-400.209	-99.625	-0.409	-0.101
-399.194	-153.166	-0.143	0.010
-398.179	99.182	0.150	0.172
-397.165	-21.346	0.270	0.163
-396.150	59.647	-0.196	-0.191
-395.136	115.421	0.216	0.261
-394.121	-200.000	0.004	-0.150
-393.106	-117.728	0.023	0.004
-392.092	-5.897	-0.074	-0.050
-391.077	800.000	-0.085	-0.257
-390.063	-98.055	0.070	0.018
-389.048	421.869	0.090	-0.192
-388.033	630.968	0.082	0.205
-387.019	-70.759	-0.150	-0.056
-386.004	-200.000	0.001	0.019
-384.990	-108.681	0.154	0.033
-383.975	59.118	-0.063	-0.061
-382.960	-200.000	0.017	0.193
-381.946	49.991	-0.131	0.122
-380.931	299.314	-0.024	0.044
-379.917	5.014	-0.231	0.168
-378.902	800.000	-0.088	0.272
-377.888	-21.286	-0.181	0.109
-376.873	699.348	-0.156	-0.405
-375.858	800.000	0.036	-0.137
-374.844	-55.706	-0.115	-0.051
-373.829	-168.590	0.252	-0.009
-372.815	-200.000	0.013	-0.182
-371.800	-200.000	0.031	-0.363
-370.785	-31.576	-0.108	0.060
-369.771	-101.109	-0.446	0.108
-368.756	-0.954	-0.317	-0.222
-367.742	-200.000	0.108	-0.000
-366.727	-117.823	-0.261	-0.046
-365.712	226.325	0.161	0.258
-364.698	-112.255	-0.340	0.067
-363.683	-200.000	0.058	-0.325
-362.669	17.058	-0.078	-0.061
-361.654	338.449	-0.126	-0.242
-360.639	800.000	-0.045	-0.185
-359.625	351.665	0.045	-0.087
-358.610	-60.699	0.163	0.068
-357.596	253.161	-0.104	0.176
-356.581	-178.833	0.141	-0.003
-355.566	170.526	-0.307	-0.435
-354.552	378.427	0.097	-0.196
-353.537	-18.077	0.112	-0.069
-352.523	137.632	-0.114	-0.147
-351.508	90.642	-0.275	0.304
-350.493	-82.200	-0.357	0.115
-349.479	-43.495	-0.295	-0.147
-348.464	-83.176	-0.107	0.034
-347.450	646.492	-0.037	0.094
-346.435	331.094	0.109	0.207
-345.420	-109.361	-0.163	-0.034
-344.406	800.000	0.032	-0.088
-343.391	-99.368	0.179	-0.045
-342.377	800.000	0.040	0.128
-341.362	139.744	0.377	0.490
-340.348	0.315	-0.130	0.091
-339.333	23.807	0.383	0.311
-338.318	-96.573	-0.149	-0.039
-337.304	-61.982	-0.096	-0.040
-336.289	-200.000	0.067	-0.293
-335.275	-70.873	-0.132	-0.049
-334.260	800.000	-0.120	0.370
-333.245	58.302	-0.156	0.151
-332.231	-54.250	0.141	-0.063
-331.216	407.170	0.107	-0.223
-330.202	-95.183	-0.233	0.062
-329.187	-23.994	-0.195	-0.115
-328.172	17.180	-0.225	-0.176
-327.158	-32.800	0.314	0.172
-326.143	-78.275	-0.172	0.058
-325.129	126.443	0.127	-0.159
-324.114	709.930	-0.064	0.167
-323.099	-129.639	-0.230	-0.031
-322.085	-157.001	0.154	0.009
-321.070	401.659	-0.048	-0.098
-320.056	-131.088	0.031	0.004
-319.041	-8.441	0.128	-0.085
-318.026	-91.223	-0.105	-0.030
-317.012	260.834	0.140	-0.238
-315.997	800.000	-0.077	-0.317
-314.983	-107.871	0.118	-0.025
-313.968	-147.862	-0.417	0.034
-312.953	-158.959	-0.331	0.019
-311.939	9.768	0.260	0.194
-310.924	298.339	0.103	0.187
-309.910	417.543	-0.172	0.361
-308.895	-200.000	0.001	-0.072
-307.880	-200.000	0.013	0.239
-306.866	19.212	0.148	0.117
-305.851	-70.261	0.141	0.053
-304.837	115.696	0.169	-0.204
-303.822	52.454	0.067	-0.063
-302.807	-200.000	0.015	-0.088
-301.793	-200.000	0.008	-0.136
-300.778	-69.635	-0.351	0.132
-299.764	75.109	-0.027	0.028
-298.749	230.800	-0.077	-0.124
-297.735	584.092	0.132	0.319
-296.720	800.000	0.082	-0.348
-295.705	-200.000	-0.094	0.585
-294.691	-96.010	0.212	-0.055
-293.676	-18.187	0.094	0.058
-292.662	288.532	-0.113	-0.202
-291.647	-200.000	0.050	-0.336
-290.632	-200.000	0.043	-0.406
-289.618	-57.974	0.104	0.045
-288.603	-11.077	0.208	-0.135
-287.589	-200.000	0.002	0.227
-286.574	-88.559	-0.141	0.041
-285.559	97.966	0.065	0.074
-284.545	-200.000	0.035	-0.402
-283.530	-69.080	0.132	-0.050
-282.516	532.760	-0.147	0.343
-281.501	-200.000	0.009	-0.198
-280.486	-48.830	0.240	-0.113
-279.472	-72.948	-0.238	-0.086
-278.457	8.174	-0.095	-0.070
-277.443	5.047	0.060	-0.044
-276.428	79.529	-0.104	-0.110
-275.413	-180.952	0.289	0.006
-274.399	-115.985	-0.259	0.047
-273.384	172.052	-0.061	0.087
-272.370	-3.459	-0.498	-0.341
-271.355	-34.123	0.165	-0.089
-270.340	110.510	0.078	-0.092
-269.326	800.000	0.065	-0.244
-268.311	-200.000	0.032	0.216
-267.297	48.860	0.123	0.113
-266.282	27.365	0.102	-0.084
-265.267	671.514	-0.112	-0.284
-264.253	-200.000	0.032	-0.260
-263.238	72.088	0.350	-0.358
-262.224	97.783	0.061	0.069
-261.209	800.000	0.057	0.186
-260.195	-151.309	0.291	-0.021
-259.180	-6.443	0.135	0.091
-258.165	-114.350	0.193	-0.036
-257.151	-200.000	0.007	-0.131
-256.136	-200.000	0.012	0.170
-255.122	-117.301	0.258	-0.046
-254.107	172.118	0.210	-0.296
-253.092	155.420	0.088	0.119
-252.078	-107.180	-0.214	-0.046
-251.063	-200.000	-0.019	-0.150
-250.049	-9.063	-0.324	0.213
-249.034	314.067	-0.184	0.340
-248.019	-87.811	0.412	0.122
-247.005	256.796	-0.067	0.113
-245.990	156.449	-0.095	0.129
-244.976	217.405	-0.181	0.283
-243.961	237.566	-0.285	0.464
-242.946	13.561	0.253	-0.193
-241.932	-131.061	-0.207	-0.027
-240.917	-30.448	0.308	0.171
-239.903	-39.987	0.081	-0.042
-238.888	22.124	-0.138	-0.111
-237.873	133.417	-0.139	0.176
-236.859	-26.043	-0.094	0.054
-235.844	107.618	0.283	0.331
-234.830	-152.514	0.231	0.016
-233.815	-145.992	-0.229	-0.020
-232.800	-121.480	0.188	0.031
-231.786	-21.328	-0.106	0.064
-230.771	53.823	0.181	-0.171
-229.757	-119.074	-0.201	0.035
-228.742	-78.676	0.223	-0.075
-227.727	800.000	0.117	0.342
-226.713	-200.000	-0.037	0.250
-225.698	-200.000	-0.038	-0.216
-224.684	-55.955	-0.197	-0.086
-223.669	222.994	-0.085	-0.135
-222.655	-8.898	-0.132	-0.087
-221.640	599.800	0.053	0.130
-220.625	800.000	0.034	0.114
-219.611	-200.000	0.032	-0.183
-218.596	-68.930	-0.151	0.057
-217.582	-200.000	-0.001	0.314
-216.567	58.454	-0.121	0.117
-215.552	-75.367	0.112	-0.039
-214.538	800.000	0.099	-0.354
-213.523	-83.082	0.187	0.059
-212.509	-200.000	-0.007	0.055
-211.494	-200.000	0.033	0.205
-210.479	513.605	-0.088	-0.202
-209.465	-74.303	-0.066	0.023
-208.450	102.427	0.154	0.177
-207.436	-138.925	0.012	0.001
-206.421	21.699	-0.047	0.037
-205.406	626.486	-0.060	0.148
-204.392	-123.677	0.171	0.027
-203.377	-35.976	0.188	-0.100
-202.363	56.280	-0.006	0.006
-201.348	-64.924	-0.191	0.076
-200.333	800.000	-0.044	0.172
-199.319	-119.605	0.086	-0.015
-198.304	-14.733	-0.178	-0.112
-197.290	-200.000	-0.021	0.277
-196.275	384.361	0.090	-0.183
-195.260	800.000	-0.051	0.145
-194.246	800.000	-0.022	-0.073
-193.231	-179.540	-0.484	-0.010
-192.217	800.000	0.098	0.280
-191.202	-200.000	-0.017	0.173
-190.187	80.855	0.180	0.191
-189.173	114.852	-0.017	-0.020
-188.158	289.034	0.043	0.077
-187.144	-200.000	-0.007	-0.036
-186.129	37.094	-0.125	-0.108
-185.114	-61.991	0.297	-0.122
-184.100	-95.552	-0.387	0.102
-183.085	-106.880	0.293	0.064
-182.071	-125.085	-0.342	0.052
-181.056	800.000	0.143	-0.495
-180.042	800.000	-0.077	-0.270
-179.027	-200.000	0.007	0.234
-178.012	-78.342	0.213	-0.072
-176.998	272.191	0.127	-0.219
-175.983	260.001	-0.072	-0.122
-174.969	-44.326	0.334	-0.164
-173.954	800.000	0.028	-0.094
-172.939	-200.000	0.007	-0.170
-171.925	-200.000	-0.032	0.188
-170.910	-52.626	0.100	-0.045
-169.896	-127.763	0.323	-0.046
-168.881	-156.966	-0.178	-0.011
-167.866	63.686	0.260	-0.256
-166.852	190.319	0.081	0.119
-165.837	800.000	0.132	0.430
-164.823	18.725	0.090	0.071
-163.808	-53.662	0.257	-0.115
-162.793	175.410	-0.146	-0.207
-161.779	-131.213	0.114	-0.015
-160.764	-200.000	0.019	0.394
-159.750	223.737	-0.237	0.375
-158.735	-200.000	0.030	0.157
-157.720	800.000	0.067	-0.229
-156.706	95.845	-0.258	0.289
-155.691	48.625	-0.219	0.201
-154.677	-185.440	0.099	-0.001
-153.662	-87.939	-0.137	-0.040
-152.647	6.450	0.156	0.113
-151.633	220.580	0.071	-0.112
-150.618	-8.018	0.258	0.170
-149.604	128.568	0.061	0.076
-148.589	343.775	0.080	0.154
-147.574	-200.000	-0.012	0.109
-146.560	108.271	-0.224	0.261
-145.545	-20.200	0.101	-0.061
-144.531	51.851	-0.102	-0.095
-143.516	-78.421	0.354	0.119
-142.502	-59.379	-0.104	0.044
-141.487	800.000	-0.088	0.257
-140.472	-55.587	0.189	0.083
-139.458	433.800	-0.174	0.370
-138.443	-182.767	-0.134	-0.002
-137.429	-77.170	-0.125	0.043
-136.414	60.183	-0.068	-0.065
-135.399	-81.993	0.129	-0.041
-134.385	-200.000	0.004	0.277
-133.370	-72.897	0.274	-0.099
-132.356	154.924	-0.164	-0.220
-131.341	180.114	0.085	-0.122
-130.326	-2.082	0.236	0.162
-129.312	800.000	-0.025	0.069
-128.297	126.133	-0.122	-0.151
-127.283	-152.241	-0.242	-0.017
-126.268	399.780	-0.113	-0.232
-125.253	800.000	-0.087	0.355
-124.239	-114.919	-0.232	0.043
-123.224	-200.000	-0.020	-0.240
-122.210	-66.850	0.090	-0.035
-121.195	-77.750	0.233	-0.079
