DTS Sentinel unit serial number:	SN413079Multiplexer serial number:	ORYXHardware model number:	OX4-SRSoftware version number:	ORYX F/W v4.00 Oryx Data Collector v3.7.2.0data status	okinstallation	princeton_trtdifferential loss correction	single-endedforward channel	channel 4reverse channel	N/Adate	2019/09/19time	08:37:35forward acquisition time	60.00reverse acquisition time	0.00gamma	496.2192k internal	0.2340k external	0.2340temperature offset calibration	1.0018default loss term (dB/km)	0.3790temperature slope calibration	1.0000multiplexer offset coefficient	1.0000multiplexer slope coefficient	1.0000fibre end	0.00T internal ref (°C)	20.86T ext. ref 1 (°C)	0.57T ext. ref 2 (°C)	16.40length (m)	temperature (°C)	Stokes	anti-Stokes-747.200	-200.000	0.013	0.122
-746.185	29.391	-0.497	0.423
-745.171	109.913	-0.042	-0.050
-744.156	800.000	-0.178	0.580
-743.142	-110.869	-0.138	-0.028
-742.127	800.000	-0.032	0.107
-741.112	-200.000	0.031	0.430
-740.098	-92.804	0.191	0.053
-739.083	61.601	-0.236	0.235
-738.069	357.771	-0.161	0.322
-737.054	-68.914	-0.063	-0.025
-736.039	-137.340	-0.367	-0.042
-735.025	-8.075	0.163	0.110
-734.010	-200.000	0.023	-0.228
-732.996	-171.923	-0.180	-0.006
-731.981	330.873	-0.049	-0.094
-730.966	184.939	-0.190	0.283
-729.952	-200.000	0.011	-0.131
-728.937	-67.536	-0.293	0.115
-727.923	545.168	0.139	0.333
-726.908	-36.573	0.124	-0.067
-725.894	149.189	0.138	-0.187
-724.879	183.517	-0.260	-0.385
-723.864	800.000	-0.019	0.080
-722.850	266.474	-0.188	-0.329
-721.835	-64.420	0.209	0.085
-720.821	-110.967	-0.065	-0.013
-719.806	162.959	-0.073	-0.102
-718.791	800.000	-0.130	-0.462
-717.777	133.012	-0.107	-0.138
-716.762	800.000	0.046	0.188
-715.748	-34.150	-0.271	0.149
-714.733	116.466	0.124	0.153
-713.718	-200.000	0.018	-0.189
-712.704	47.862	0.038	0.035
-711.689	-85.732	0.122	-0.038
-710.675	12.366	-0.297	0.229
-709.660	-194.061	-0.096	-0.001
-708.645	-87.736	0.396	0.120
-707.631	790.860	-0.062	0.170
-706.616	-87.333	0.103	-0.031
-705.602	-76.462	-0.348	-0.122
-704.587	-72.063	0.202	-0.075
-703.572	-11.985	0.295	0.194
-702.558	-200.000	-0.019	0.248
-701.543	-200.000	-0.006	-0.182
-700.529	-60.561	0.130	0.055
-699.514	-121.429	0.281	-0.047
-698.499	800.000	0.077	-0.335
-697.485	-43.500	-0.258	-0.130
-696.470	-122.094	0.181	-0.030
-695.456	42.685	0.186	0.170
-694.441	357.507	-0.114	-0.227
-693.426	-58.814	-0.321	-0.139
-692.412	-51.167	0.136	0.064
-691.397	-200.000	0.015	0.115
-690.383	800.000	-0.073	0.230
-689.368	-113.587	-0.166	0.033
-688.354	-103.350	0.261	0.062
-687.339	41.080	-0.181	-0.164
-686.324	200.872	0.098	-0.151
-685.310	34.508	-0.256	0.224
-684.295	538.479	-0.173	-0.411
-683.281	-200.000	-0.070	-0.384
-682.266	-88.306	-0.508	0.152
-681.251	288.379	0.129	0.234
-680.237	107.145	0.100	-0.118
-679.222	166.681	0.088	0.124
-678.208	69.339	0.155	0.160
-677.193	-200.000	-0.005	0.113
-676.178	19.440	-0.159	0.128
-675.164	-78.547	-0.235	-0.081
-674.149	-36.947	-0.143	0.077
-673.135	-97.169	0.150	-0.039
-672.120	-117.301	-0.056	-0.010
-671.105	-123.244	0.170	0.027
-670.091	213.043	-0.014	0.023
-669.076	-101.694	-0.273	-0.066
-668.062	-35.044	-0.170	0.093
-667.047	-200.000	0.023	-0.330
-666.032	-49.405	-0.159	-0.076
-665.018	-54.816	-0.293	0.132
-664.003	286.522	0.040	-0.073
-662.989	93.915	-0.136	-0.154
-661.974	8.470	-0.226	0.170
-660.959	96.981	-0.187	-0.215
-659.945	-42.470	0.127	-0.065
-658.930	800.000	0.029	0.091
-657.916	-200.000	-0.015	0.296
-656.901	-26.088	-0.158	-0.093
-655.886	-153.679	0.329	-0.023
-654.872	800.000	-0.010	-0.041
-653.857	-142.907	0.091	-0.009
-652.843	800.000	-0.084	0.341
-651.828	-200.000	-0.005	0.323
-650.814	592.761	-0.125	0.308
-649.799	-133.077	0.211	0.027
-648.784	-83.626	0.200	0.064
-647.770	496.968	0.087	-0.200
-646.755	101.284	-0.187	-0.217
-645.741	-200.000	-0.031	0.180
-644.726	67.479	-0.276	0.281
-643.711	22.689	-0.128	0.105
-642.697	33.595	0.150	0.130
-641.682	74.765	0.384	0.404
-640.668	-44.094	0.520	0.261
-639.653	-63.206	-0.274	-0.113
-638.638	263.247	-0.043	-0.074
-637.624	-200.000	-0.006	0.119
-636.609	-93.838	-0.275	-0.076
-635.595	-200.000	0.027	0.145
-634.580	116.544	-0.155	-0.189
-633.565	-36.952	-0.135	-0.072
-632.551	-115.623	0.182	0.034
-631.536	33.918	-0.232	0.202
-630.522	326.198	-0.042	0.081
-629.507	50.293	-0.143	0.135
-628.492	71.363	-0.208	-0.215
-627.478	-172.409	0.199	-0.006
-626.463	-182.585	-0.531	-0.010
-625.449	-78.923	-0.205	0.070
-624.434	-130.768	0.205	-0.027
-623.419	73.840	-0.120	-0.125
-622.405	-200.000	-0.008	-0.320
-621.390	344.395	0.088	-0.173
-620.376	-200.000	-0.028	0.142
-619.361	189.588	0.055	0.082
-618.346	-158.516	-0.204	-0.012
-617.332	800.000	-0.102	-0.313
-616.317	-200.000	-0.019	-0.122
-615.303	-80.348	0.120	-0.040
-614.288	-200.000	0.009	0.225
-613.273	-117.729	0.234	0.042
-612.259	161.474	-0.152	0.213
-611.244	-76.045	0.280	-0.099
-610.230	-200.000	0.052	0.280
-609.215	31.953	0.265	0.228
-608.201	-9.641	-0.209	-0.139
-607.186	-200.000	-0.074	-0.403
-606.171	443.629	-0.027	0.058
-605.157	58.235	-0.283	0.277
-604.142	93.167	0.092	0.104
-603.128	15.360	0.096	0.075
-602.113	379.316	0.062	0.126
-601.098	35.980	0.270	-0.237
-600.084	57.816	0.204	-0.199
-599.069	-105.262	0.063	0.014
-598.055	-200.000	0.027	-0.438
-597.040	8.557	0.074	-0.055
-596.025	-10.868	-0.135	-0.089
-595.011	800.000	-0.030	-0.111
-593.996	128.156	-0.098	0.124
-592.982	103.891	-0.138	0.161
-591.967	-200.000	0.001	0.159
-590.952	-191.912	0.132	-0.001
-589.938	-104.594	-0.073	-0.017
-588.923	-200.000	-0.003	-0.085
-587.909	232.289	-0.095	0.156
-586.894	-64.591	-0.079	-0.032
-585.879	-77.653	0.255	-0.088
-584.865	-200.000	-0.012	-0.091
-583.850	-42.045	-0.256	-0.131
-582.836	-19.325	-0.225	0.139
-581.821	800.000	-0.041	-0.155
-580.806	800.000	-0.042	-0.153
-579.792	417.723	0.121	0.257
-578.777	3.553	-0.064	0.047
-577.763	-76.671	0.210	0.073
-576.748	-124.804	-0.277	0.043
-575.733	201.338	0.154	0.236
-574.719	800.000	-0.086	-0.253
-573.704	-31.304	0.243	-0.136
-572.690	16.007	-0.299	0.235
-571.675	124.423	-0.254	-0.318
-570.661	283.078	-0.021	-0.037
-569.646	-200.000	-0.023	0.343
-568.631	-18.470	0.165	-0.103
-567.617	-23.209	-0.320	-0.192
-566.602	-28.539	-0.085	-0.049
-565.588	310.176	-0.140	-0.260
-564.573	-2.161	-0.254	-0.178
-563.558	-200.000	0.064	0.300
-562.544	-200.000	-0.032	-0.164
-561.529	107.765	0.355	-0.421
-560.515	44.970	0.184	-0.169
-559.500	-61.707	0.323	-0.135
-558.485	800.000	0.035	0.114
-557.471	579.346	-0.079	-0.193
-556.456	-32.611	0.225	-0.124
-555.442	-200.000	0.024	0.286
-554.427	401.364	-0.144	-0.301
-553.412	-72.923	-0.269	0.098
-552.398	-71.526	-0.140	-0.052
-551.383	-13.375	-0.040	-0.026
-550.369	-94.220	0.275	-0.075
-549.354	800.000	-0.025	0.102
-548.339	221.732	-0.029	0.047
-547.325	181.926	0.135	-0.198
-546.310	800.000	-0.071	0.222
-545.296	190.343	-0.144	0.216
-544.281	39.689	0.046	-0.041
-543.266	-30.607	0.073	-0.041
-542.252	-200.000	0.021	0.277
-541.237	25.059	-0.259	0.214
-540.223	62.191	0.226	0.225
-539.208	-48.534	-0.160	-0.076
-538.193	-56.151	-0.422	-0.187
-537.179	44.369	-0.107	-0.098
-536.164	-102.659	-0.451	-0.107
-535.150	-121.710	-0.159	-0.026
-534.135	265.123	-0.111	0.192
-533.121	-105.112	0.330	0.075
-532.106	-104.059	0.210	0.049
-531.091	-200.000	0.007	0.036
-530.077	-18.563	-0.031	-0.020
-529.062	-146.125	0.373	-0.033
-528.048	16.459	0.170	-0.133
-527.033	-139.438	0.081	-0.009
-526.018	-200.000	-0.042	-0.222
-525.004	-114.145	0.102	0.020
-523.989	-53.923	0.174	-0.079
-522.975	18.352	-0.323	-0.256
-521.960	19.453	0.245	-0.196
-520.945	-200.000	0.030	-0.244
-519.931	549.945	-0.080	-0.190
-518.916	75.499	-0.137	-0.143
-517.902	800.000	-0.021	-0.083
-516.887	-1.270	-0.130	0.091
-515.872	55.422	0.060	0.058
-514.858	-86.356	-0.397	0.121
-513.843	-110.084	-0.178	-0.037
-512.829	123.441	0.161	0.201
-511.814	-200.000	0.006	0.028
-510.799	347.143	-0.008	0.016
-509.785	406.805	0.111	0.233
-508.770	112.759	0.051	-0.062
-507.756	-80.849	0.133	0.044
-506.741	37.165	-0.083	-0.073
-505.726	-89.361	-0.118	-0.034
-504.712	-107.036	0.099	0.022
-503.697	-15.024	0.185	0.118
-502.683	-29.070	0.106	0.061
-501.668	67.857	0.119	0.120
-500.653	-167.715	-0.103	-0.004
-499.639	-117.588	-0.368	-0.066
-498.624	-200.000	-0.004	0.104
-497.610	-12.347	0.098	-0.064
-496.595	-200.000	0.008	-0.149
-495.581	-200.000	-0.038	-0.267
-494.566	-200.000	-0.040	-0.334
-493.551	24.887	-0.188	0.155
-492.537	22.649	0.381	0.310
-491.522	194.617	-0.220	-0.331
-490.508	36.780	-0.180	-0.158
-489.493	-200.000	-0.003	0.063
-488.478	-29.803	0.228	-0.129
-487.464	-136.078	0.198	0.023
-486.449	800.000	0.113	-0.389
-485.435	-200.000	0.106	0.625
-484.420	-200.000	0.012	-0.105
-483.405	800.000	0.069	0.269
-482.391	800.000	-0.020	0.059
-481.376	85.561	-0.207	0.226
-480.362	-100.326	-0.431	-0.106
-479.347	-200.000	-0.036	0.355
-478.332	-200.000	0.056	-0.369
-477.318	-121.598	-0.303	0.050
-476.303	35.705	0.255	0.223
-475.289	371.307	0.177	0.357
-474.274	-19.196	-0.212	0.131
-473.259	-90.308	-0.161	0.046
-472.245	-200.000	-0.067	-0.386
-471.230	-113.960	-0.088	0.017
-470.216	-200.000	-0.012	-0.275
-469.201	-200.000	-0.017	0.108
-468.186	-28.482	0.145	0.083
-467.172	-106.015	-0.301	0.067
-466.157	159.986	-0.222	0.308
-465.143	-1.259	-0.042	0.029
-464.128	800.000	-0.158	-0.491
-463.113	-47.590	0.360	-0.173
-462.099	53.823	0.023	0.022
-461.084	800.000	-0.096	-0.398
-460.070	117.326	0.042	0.051
-459.055	800.000	0.049	-0.159
-458.040	-186.112	0.290	-0.004
-457.026	-39.967	0.083	-0.043
-456.011	105.834	-0.212	-0.249
-454.997	112.000	0.027	-0.032
-453.982	-200.000	-0.015	0.374
-452.968	-62.289	0.111	-0.046
-451.953	-73.826	0.122	0.044
-450.938	263.152	-0.035	-0.060
-449.924	-96.430	-0.103	-0.027
-448.909	-122.403	0.358	0.058
-447.895	81.252	-0.064	-0.068
-446.880	-200.000	0.003	-0.276
-445.865	333.598	-0.054	0.104
-444.851	-88.009	-0.199	-0.059
-443.836	-82.437	0.302	-0.097
-442.822	615.161	-0.130	-0.323
-441.807	217.248	0.094	0.148
-440.792	-191.218	0.195	0.002
-439.778	287.396	0.039	-0.070
-438.763	-146.579	-0.104	-0.009
-437.749	-136.698	0.049	0.006
-436.734	63.483	0.282	-0.280
-435.719	336.704	0.054	-0.104
-434.705	-45.472	0.267	-0.131
-433.690	16.157	-0.167	0.130
-432.676	-119.358	0.171	-0.029
-431.661	-53.350	-0.277	0.126
-430.646	-41.826	-0.199	0.101
-429.632	518.749	-0.144	0.335
-428.617	-66.743	-0.229	-0.090
-427.603	-200.000	0.045	-0.263
-426.588	-18.347	0.268	0.166
-425.573	-110.893	-0.170	-0.035
-424.559	800.000	0.151	-0.477
-423.544	-107.136	0.135	0.030
-422.530	-117.779	-0.071	-0.013
-421.515	-109.457	0.273	-0.057
-420.500	-178.830	0.134	0.003
-419.486	-45.680	-0.300	0.147
-418.471	17.121	0.135	0.106
-417.457	-200.000	0.045	0.227
-416.442	306.306	-0.281	0.518
-415.428	210.719	-0.062	0.096
-414.413	-35.918	-0.271	-0.145
-413.398	-8.998	0.151	-0.100
-412.384	-200.000	0.054	0.255
-411.369	137.171	0.180	0.233
-410.355	110.712	-0.153	-0.182
-409.340	259.298	0.111	0.189
-408.325	-200.000	0.029	0.131
-407.311	-16.708	-0.254	-0.159
-406.296	368.496	0.109	0.217
-405.282	115.482	0.187	0.227
-404.267	-200.000	-0.019	0.251
-403.252	64.424	0.208	0.208
-402.238	550.128	-0.132	0.312
-401.223	16.654	-0.162	0.127
-400.209	41.099	0.073	0.065
-399.194	-28.291	0.095	0.054
-398.179	-143.339	0.046	0.004
-397.165	-8.943	0.292	-0.193
-396.150	-43.075	0.273	-0.137
-395.136	-44.380	-0.320	-0.159
-394.121	-171.317	-0.097	-0.003
-393.106	800.000	0.027	-0.104
-392.092	-200.000	0.021	-0.191
-391.077	-36.274	0.209	0.112
-390.063	131.639	0.075	-0.096
-389.048	-200.000	0.085	0.416
-388.033	89.375	0.005	-0.006
-387.019	-72.268	0.306	-0.112
-386.004	-94.941	0.075	-0.020
-384.990	-57.063	-0.071	-0.031
-383.975	-200.000	0.001	-0.094
-382.960	280.014	0.120	0.212
-381.946	-200.000	0.050	-0.218
-380.931	5.514	0.129	0.094
-379.917	207.384	0.186	0.287
-378.902	-119.408	0.371	-0.064
-377.888	-41.343	0.111	0.057
-376.873	-20.418	0.123	0.075
-375.858	62.539	-0.105	0.104
-374.844	-154.111	-0.238	0.016
-373.829	-200.000	0.022	0.105
-372.815	455.862	0.040	-0.087
-371.800	128.546	0.208	0.261
-370.785	-63.361	-0.333	-0.135
-369.771	-103.197	-0.261	0.061
-368.756	77.718	-0.077	-0.081
-367.742	295.136	0.144	0.260
-366.727	20.941	-0.182	0.146
-365.712	102.195	0.014	-0.016
-364.698	800.000	0.013	0.038
-363.683	800.000	-0.060	0.222
-362.669	-7.111	-0.052	0.035
-361.654	426.565	-0.133	-0.283
-360.639	-200.000	-0.011	0.057
-359.625	96.953	0.287	-0.325
-358.610	353.976	0.212	-0.415
-357.596	-138.458	0.175	0.019
-356.581	-100.877	0.271	-0.066
-355.566	-200.000	0.001	0.258
-354.552	-10.430	0.220	0.144
-353.537	-80.596	-0.474	0.156
-352.523	243.020	-0.057	0.095
-351.508	-28.301	0.299	0.170
-350.493	-138.759	-0.275	0.030
-349.479	87.595	-0.091	-0.100
-348.464	115.971	0.135	0.163
-347.450	134.209	0.211	-0.270
-346.435	-200.000	-0.004	0.052
-345.420	-6.942	-0.207	0.139
-344.406	-200.000	0.027	0.215
-343.391	-200.000	-0.037	-0.232
-342.377	-63.642	0.312	-0.126
-341.362	-19.791	-0.039	0.024
-340.348	157.403	-0.174	0.238
-339.333	800.000	-0.109	0.306
-338.318	800.000	0.069	0.296
-337.304	-107.424	0.195	0.042
-336.289	-135.995	0.271	-0.031
-335.275	-200.000	-0.009	-0.193
-334.260	770.392	0.209	-0.561
-333.245	669.716	0.056	-0.143
-332.231	-75.307	0.035	-0.012
-331.216	-200.000	0.015	0.297
-330.202	-90.477	0.144	-0.041
-329.187	-96.489	-0.215	-0.056
-328.172	22.406	-0.210	0.170
-327.158	300.558	-0.063	0.114
-326.143	-79.215	-0.243	-0.081
-325.129	-78.688	-0.135	-0.045
-324.114	-200.000	0.016	-0.381
-323.099	-20.006	0.177	-0.108
-322.085	349.202	-0.097	-0.189
-321.070	-90.573	0.217	-0.062
-320.056	178.669	0.216	-0.312
-319.041	-200.000	0.028	0.132
-318.026	35.949	-0.561	0.487
-317.012	115.082	0.056	0.067
-315.997	-158.541	-0.035	-0.002
-314.983	20.744	-0.106	-0.085
-313.968	-120.657	-0.318	-0.053
-312.953	-91.164	0.190	0.054
-311.939	49.759	-0.110	-0.102
-310.924	800.000	-0.064	0.200
-309.910	-200.000	0.027	0.175
-308.895	99.623	-0.091	0.103
-307.880	440.401	0.098	0.212
-306.866	430.652	0.015	-0.033
-305.851	-122.861	-0.293	-0.047
-304.837	800.000	-0.083	0.319
-303.822	-155.924	-0.179	0.011
-302.807	55.023	-0.182	0.173
-301.793	800.000	-0.027	0.103
-300.778	487.265	0.153	0.343
-299.764	800.000	0.065	0.208
-298.749	202.216	0.028	-0.043
-297.735	690.246	-0.159	0.411
-296.720	-200.000	-0.000	0.032
-295.705	-200.000	-0.012	-0.096
-294.691	500.586	0.081	0.183
-293.676	-200.000	0.013	-0.167
-292.662	219.059	0.137	0.216
-291.647	457.237	-0.070	-0.154
-290.632	299.079	0.150	-0.273
-289.618	-44.924	-0.174	0.085
-288.603	-92.036	-0.154	0.043
-287.589	-174.518	0.224	0.006
-286.574	247.455	-0.170	-0.284
-285.559	10.328	0.313	-0.235
-284.545	112.431	-0.193	0.230
-283.530	1.576	0.205	-0.145
-282.516	19.617	0.233	0.185
-281.501	-22.299	0.247	-0.147
-280.486	263.053	0.144	-0.246
-279.472	32.408	0.169	-0.144
-278.457	629.240	0.063	-0.158
-277.443	-131.993	0.248	-0.032
-276.428	-200.000	-0.021	0.496
-275.413	-200.000	-0.036	0.165
-274.399	-200.000	0.008	-0.274
-273.384	39.154	0.122	0.108
-272.370	-200.000	0.002	0.219
-271.355	-200.000	-0.047	-0.220
-270.340	-80.111	-0.278	-0.092
-269.326	-55.078	0.084	-0.037
-268.311	-173.038	0.153	0.005
-267.297	86.899	-0.106	-0.116
-266.282	-93.705	-0.113	0.031
-265.267	-17.960	-0.169	0.104
-264.253	800.000	-0.056	0.155
-263.238	79.245	-0.047	-0.050
-262.224	74.669	-0.162	-0.167
-261.209	800.000	-0.071	-0.214
-260.195	-171.521	0.079	0.003
-259.180	207.743	-0.300	-0.461
-258.165	313.447	0.179	-0.331
-257.151	-88.455	0.221	0.065
-256.136	-89.209	-0.279	0.081
-255.122	75.516	0.218	0.226
-254.107	-92.252	0.269	0.075
-253.092	-32.729	0.253	-0.138
-252.078	-77.087	-0.198	-0.068
-251.063	-200.000	0.018	0.180
-250.049	11.493	0.254	-0.192
-249.034	-200.000	-0.027	-0.179
-248.019	-145.618	-0.299	0.026
-247.005	800.000	-0.052	0.209
-245.990	-103.786	0.179	-0.041
-244.976	691.412	-0.075	-0.193
-243.961	800.000	0.081	-0.285
-242.946	-101.819	0.438	-0.104
-241.932	11.312	0.103	-0.078
-240.917	-3.650	-0.193	-0.132
-239.903	76.535	-0.128	-0.133
-238.888	-99.895	-0.451	0.111
-237.873	-165.937	0.280	-0.012
-236.859	-18.846	-0.256	-0.157
-235.844	-200.000	0.045	-0.282
-234.830	-118.639	0.202	-0.035
-233.815	30.142	-0.125	-0.104
-232.800	36.075	-0.114	0.099
-231.786	-41.506	-0.147	-0.075
-230.771	-200.000	-0.025	0.109
-229.757	800.000	-0.054	-0.206
-228.742	19.869	-0.061	0.048
-227.727	212.335	-0.109	0.168
-226.713	-75.755	-0.194	0.068
-225.698	315.797	0.032	-0.058
-224.684	-200.000	-0.024	0.149
-223.669	-76.267	-0.348	0.120
-222.655	376.194	-0.194	-0.390
-221.640	800.000	-0.030	0.103
-220.625	113.448	0.029	-0.034
-219.611	-200.000	-0.031	0.359
-218.596	37.998	0.269	0.235
-217.582	800.000	0.059	-0.224
-216.567	-27.860	-0.245	-0.139
-215.552	-3.073	-0.144	-0.099
-214.538	86.429	0.318	0.345
-213.523	231.384	0.101	-0.163
-212.509	376.713	0.017	0.034
-211.494	378.912	-0.076	-0.153
-210.479	-52.929	-0.140	0.063
-209.465	-200.000	-0.002	-0.287
-208.450	-47.171	-0.081	-0.039
-207.436	-200.000	-0.010	-0.056
-206.421	-90.420	0.289	-0.082
-205.406	-110.068	-0.260	0.053
-204.392	135.666	0.291	0.372
-203.377	-136.724	-0.381	0.043
-202.363	-161.282	-0.182	0.009
-201.348	-200.000	-0.063	-0.275
-200.333	9.795	0.293	0.218
-199.319	-72.175	0.337	0.123
-198.304	32.990	0.027	0.023
-197.290	102.364	0.173	-0.198
-196.275	-41.504	-0.231	0.117
-195.260	-108.896	0.126	0.026
-194.246	800.000	-0.045	-0.149
-193.231	-30.926	-0.379	-0.210
-192.217	-95.454	0.219	0.058
-191.202	-121.609	-0.322	0.052
-190.187	197.416	-0.074	-0.111
-189.173	282.814	-0.072	0.127
-188.158	81.438	-0.309	0.328
-187.144	-163.246	0.427	-0.020
-186.129	800.000	-0.076	-0.304
-185.114	389.446	-0.097	-0.196
-184.100	-155.119	0.301	-0.019
-183.085	-113.623	-0.342	-0.066
-182.071	173.019	0.173	0.244
-181.056	-120.288	0.195	-0.033
-180.042	800.000	-0.037	-0.145
-179.027	-85.632	-0.085	0.026
-178.012	203.570	0.149	0.225
-176.998	61.248	-0.090	-0.088
-175.983	67.351	0.148	0.148
-174.969	758.290	-0.120	0.319
-173.954	-16.387	-0.320	-0.199
-172.939	750.062	0.023	0.060
-171.925	350.082	0.099	-0.192
-170.910	-64.884	-0.125	0.050
-169.896	-175.557	-0.148	0.004
-168.881	96.871	0.248	0.278
-167.866	673.815	0.139	0.355
-166.852	-105.569	0.084	0.019
-165.837	-152.371	-0.072	-0.005
-164.823	800.000	0.078	-0.237
-163.808	-148.563	-0.431	0.034
-162.793	312.597	0.065	0.119
-161.779	-90.686	0.312	-0.088
-160.764	-163.872	0.225	0.010
-159.750	610.460	0.040	0.099
-158.735	-200.000	-0.036	-0.218
-157.720	-200.000	-0.033	-0.237
-156.706	-61.918	0.305	-0.125
-155.691	83.470	-0.180	0.193
-154.677	65.803	0.184	0.182
-153.662	-118.095	0.177	-0.031
-152.647	-1.744	0.050	0.034
-151.633	2.087	-0.074	-0.052
-150.618	-68.808	-0.479	0.181
-149.604	-78.918	0.222	-0.074
-148.589	-11.360	0.172	0.111
-147.574	-157.185	0.303	0.018
-146.560	342.554	-0.175	-0.335
-145.545	-6.305	0.221	0.148
-144.531	29.881	0.216	0.180
-143.516	25.104	-0.185	-0.151
-142.502	-200.000	0.040	0.232
-141.487	548.772	-0.171	0.400
-140.472	-115.027	-0.126	0.023
-139.458	-44.251	-0.162	0.080
-138.443	571.703	-0.017	0.041
-137.429	-100.417	-0.068	0.016
-136.414	-200.000	-0.013	-0.083
-135.399	-7.693	-0.068	-0.045
-134.385	53.178	-0.201	-0.189
-133.370	-123.993	0.186	0.029
-132.356	-159.762	0.254	0.014
-131.341	429.731	0.074	0.157
-130.326	-61.548	-0.269	-0.111
-129.312	-200.000	0.012	-0.300
-128.297	182.315	0.149	0.215
-127.283	535.874	-0.202	0.470
-126.268	-200.000	-0.046	0.446
-125.253	634.579	0.148	0.367
-124.239	-200.000	-0.008	-0.276
-123.224	95.875	-0.148	-0.165
-122.210	-200.000	-0.023	0.191
