DTS Sentinel unit serial number:	SN413079Multiplexer serial number:	ORYXHardware model number:	OX4-SRSoftware version number:	ORYX F/W v4.00 Oryx Data Collector v3.7.2.0data status	okinstallation	princeton_trtdifferential loss correction	single-endedforward channel	channel 4reverse channel	N/Adate	2019/09/18time	03:57:35forward acquisition time	60.00reverse acquisition time	0.00gamma	496.2192k internal	0.2332k external	0.2332temperature offset calibration	0.9995default loss term (dB/km)	0.3790temperature slope calibration	1.0000multiplexer offset coefficient	1.0000multiplexer slope coefficient	1.0000fibre end	0.00T internal ref (°C)	23.12T ext. ref 1 (°C)	0.17T ext. ref 2 (°C)	18.07length (m)	temperature (°C)	Stokes	anti-Stokes-747.200	800.000	0.026	0.094
-746.185	26.369	-0.279	0.235
-745.171	-83.866	0.111	0.036
-744.156	-25.462	0.178	-0.106
-743.142	16.808	0.118	-0.094
-742.127	-148.704	-0.286	0.023
-741.112	19.017	0.283	0.228
-740.098	723.415	-0.164	0.438
-739.083	-188.896	0.055	-0.001
-738.069	125.674	0.174	0.221
-737.054	-200.000	-0.020	-0.238
-736.039	-58.621	-0.148	-0.064
-735.025	187.898	0.185	0.278
-734.010	33.784	0.037	0.032
-732.996	-159.213	0.101	-0.006
-731.981	27.963	-0.080	-0.068
-730.966	-200.000	0.069	-0.336
-729.952	800.000	-0.095	-0.319
-728.937	-99.499	-0.383	0.097
-727.923	800.000	-0.099	-0.303
-726.908	33.311	0.090	0.078
-725.894	-35.479	-0.127	-0.069
-724.879	-30.305	-0.274	-0.157
-723.864	-200.000	-0.038	-0.260
-722.850	-200.000	0.048	0.393
-721.835	55.321	0.202	0.196
-720.821	-127.040	-0.529	-0.078
-719.806	762.070	-0.140	-0.381
-718.791	-200.000	-0.009	-0.315
-717.777	-109.453	0.020	0.004
-716.762	-32.659	0.276	0.154
-715.748	-95.206	-0.170	-0.046
-714.733	-200.000	-0.008	0.133
-713.718	800.000	0.103	-0.326
-712.704	-45.744	0.357	-0.177
-711.689	-200.000	0.017	0.295
-710.675	275.923	0.056	0.101
-709.660	-0.540	0.052	0.037
-708.645	18.600	-0.131	-0.105
-707.631	-200.000	-0.067	-0.327
-706.616	-40.553	0.187	0.097
-705.602	11.003	0.230	-0.177
-704.587	730.628	-0.168	0.450
-703.572	-146.039	-0.125	-0.011
-702.558	17.998	-0.252	0.202
-701.543	203.914	-0.045	-0.070
-700.529	-140.610	-0.143	0.015
-699.514	248.228	0.113	-0.191
-698.499	-93.729	0.152	0.042
-697.485	-131.508	-0.320	-0.042
-696.470	733.306	0.051	-0.138
-695.456	800.000	-0.098	-0.413
-694.441	105.845	-0.200	-0.238
-693.426	-119.371	-0.029	-0.005
-692.412	-99.176	-0.508	0.129
-691.397	9.663	0.161	-0.123
-690.383	116.129	0.105	0.130
-689.368	37.702	-0.285	-0.254
-688.354	-93.978	-0.441	-0.122
-687.339	273.239	-0.075	0.134
-686.324	285.994	-0.062	-0.112
-685.310	-23.516	-0.130	0.078
-684.295	-200.000	-0.044	-0.294
-683.281	-104.270	-0.104	-0.024
-682.266	-47.387	0.022	0.011
-681.251	-200.000	0.025	-0.173
-680.237	800.000	-0.093	-0.399
-679.222	559.611	0.017	0.041
-678.208	346.625	-0.070	0.139
-677.193	800.000	0.072	0.250
-676.178	-200.000	-0.048	-0.271
-675.164	271.160	-0.114	0.202
-674.149	-2.416	-0.308	-0.217
-673.135	-73.504	0.210	-0.077
-672.120	-109.008	-0.138	0.029
-671.105	-200.000	-0.006	-0.423
-670.091	800.000	0.051	-0.198
-669.076	409.064	-0.164	-0.348
-668.062	-200.000	0.013	0.429
-667.047	167.406	0.148	0.211
-666.032	479.916	0.108	0.245
-665.018	15.875	-0.196	-0.155
-664.003	543.613	-0.101	0.241
-662.989	800.000	0.078	0.314
-661.974	4.272	0.359	0.264
-660.959	-89.890	-0.114	0.033
-659.945	255.298	-0.079	0.136
-658.930	-133.304	-0.345	-0.044
-657.916	238.688	0.094	0.157
-656.901	189.251	-0.101	0.152
-655.886	-89.823	0.265	0.078
-654.872	-57.482	0.159	0.070
-653.857	489.714	0.059	0.135
-652.843	-135.336	-0.212	-0.025
-651.828	-29.101	-0.203	-0.117
-650.814	-200.000	0.014	-0.329
-649.799	0.706	-0.287	0.206
-648.784	97.587	0.118	0.135
-647.770	-200.000	0.025	0.133
-646.755	-147.443	0.065	0.006
-645.741	-200.000	-0.001	0.101
-644.726	45.919	-0.122	-0.113
-643.711	-97.117	0.308	-0.081
-642.697	-94.471	-0.153	0.042
-641.682	-24.039	-0.178	-0.106
-640.668	13.858	-0.214	0.167
-639.653	455.690	-0.124	-0.274
-638.638	378.819	-0.156	0.320
-637.624	-52.903	-0.167	0.077
-636.609	-92.757	-0.054	-0.015
-635.595	-75.785	0.542	-0.192
-634.580	-95.669	-0.265	-0.071
-633.565	-200.000	0.066	-0.327
-632.551	-91.647	-0.214	-0.061
-631.536	399.433	0.106	-0.223
-630.522	70.645	-0.111	-0.115
-629.507	-200.000	-0.024	-0.125
-628.492	116.680	0.264	-0.324
-627.478	334.297	-0.109	0.211
-626.463	-77.196	0.151	-0.053
-625.449	178.159	0.028	0.041
-624.434	416.086	0.076	0.163
-623.419	14.131	-0.145	-0.113
-622.405	127.121	0.079	0.100
-621.390	98.505	0.096	-0.111
-620.376	-200.000	0.015	0.180
-619.361	150.966	0.249	0.339
-618.346	-68.032	0.254	-0.099
-617.332	-128.463	-0.107	0.015
-616.317	716.198	-0.142	0.377
-615.303	73.114	0.054	0.057
-614.288	126.429	-0.275	0.348
-613.273	519.941	0.031	0.072
-612.259	-41.430	-0.059	0.030
-611.244	800.000	0.072	-0.260
-610.230	800.000	-0.108	-0.446
-609.215	-200.000	-0.021	-0.125
-608.201	33.880	0.142	-0.124
-607.186	311.276	0.202	-0.379
-606.171	782.974	-0.111	0.303
-605.157	523.495	-0.143	-0.335
-604.142	3.186	0.077	-0.056
-603.128	6.499	0.257	0.191
-602.113	-68.530	0.180	-0.070
-601.098	-200.000	-0.009	-0.076
-600.084	-11.520	-0.234	0.154
-599.069	-62.844	0.313	-0.129
-598.055	-160.858	-0.265	0.014
-597.040	-21.102	0.162	0.099
-596.025	251.935	-0.179	-0.304
-595.011	600.003	0.033	-0.081
-593.996	203.575	-0.049	-0.076
-592.982	-200.000	0.013	-0.254
-591.967	-120.878	-0.221	-0.037
-590.952	61.990	0.048	-0.047
-589.938	-19.251	-0.145	0.090
-588.923	95.222	0.235	-0.267
-587.909	-200.000	-0.002	0.356
-586.894	130.144	-0.076	0.097
-585.879	-58.235	0.131	0.057
-584.865	-39.460	0.531	0.278
-583.850	70.748	-0.170	0.176
-582.836	129.349	0.171	-0.218
-581.821	66.387	0.166	-0.168
-580.806	-19.177	-0.240	-0.149
-579.792	531.027	0.056	0.131
-578.777	800.000	-0.052	-0.150
-577.763	-200.000	-0.172	-0.000
-576.748	-200.000	0.006	-0.153
-575.733	-200.000	0.011	-0.079
-574.719	132.644	0.156	0.201
-573.704	-79.811	0.202	-0.068
-572.690	-152.885	-0.377	0.027
-571.675	-200.000	-0.004	-0.089
-570.661	-23.001	-0.031	0.019
-569.646	-200.000	0.004	0.369
-568.631	-200.000	0.008	-0.104
-567.617	-200.000	0.003	-0.238
-566.602	126.492	0.087	-0.111
-565.588	90.449	0.159	-0.178
-564.573	-200.000	-0.047	-0.345
-563.558	178.410	-0.097	-0.142
-562.544	-72.547	-0.013	0.005
-561.529	161.760	0.103	0.144
-560.515	-200.000	0.029	0.190
-559.500	-200.000	0.007	-0.041
-558.485	-76.025	0.314	-0.111
-557.471	-132.180	0.380	-0.049
-556.456	34.070	-0.092	-0.080
-555.442	363.210	-0.032	-0.064
-554.427	-173.952	-0.356	0.010
-553.412	-15.613	0.096	-0.061
-552.398	-40.823	0.364	0.188
-551.383	-43.837	-0.291	-0.146
-550.369	800.000	0.065	0.230
-549.354	313.882	0.086	-0.162
-548.339	42.644	0.312	-0.284
-547.325	-125.964	0.105	-0.016
-546.310	-200.000	0.029	-0.159
-545.296	-131.968	-0.235	-0.031
-544.281	800.000	0.033	-0.129
-543.266	-151.933	-0.182	-0.013
-542.252	-200.000	-0.031	-0.205
-541.237	485.528	-0.064	-0.146
-540.223	-67.379	0.239	0.094
-539.208	-152.060	0.191	-0.014
-538.193	-146.637	-0.287	0.025
-537.179	0.661	-0.288	0.206
-536.164	293.293	-0.101	-0.184
-535.150	161.901	0.049	-0.069
-534.135	-16.113	-0.244	0.155
-533.121	-74.775	0.261	-0.094
-532.106	-200.000	-0.004	-0.172
-531.091	331.664	0.063	0.121
-530.077	-127.413	-0.167	-0.024
-529.062	657.884	0.178	0.456
-528.048	-32.474	0.280	0.156
-527.033	129.128	0.052	0.066
-526.018	48.615	-0.295	0.276
-525.004	3.338	-0.118	0.086
-523.989	15.124	0.259	-0.203
-522.975	355.219	-0.034	-0.067
-521.960	-29.727	-0.371	-0.211
-520.945	-200.000	0.011	-0.235
-519.931	-33.180	0.242	-0.134
-518.916	-200.000	-0.027	0.135
-517.902	112.068	-0.125	-0.151
-516.887	149.215	-0.157	-0.212
-515.872	-182.324	-0.244	0.005
-514.858	-200.000	0.018	0.085
-513.843	-100.024	-0.167	0.042
-512.829	422.965	-0.035	-0.075
-511.814	-200.000	-0.008	-0.225
-510.799	-122.772	-0.060	-0.010
-509.785	58.860	0.103	-0.101
-508.770	800.000	0.014	0.051
-507.756	620.887	-0.043	-0.108
-506.741	-116.329	-0.276	-0.051
-505.726	-129.662	0.044	-0.006
-504.712	-62.276	0.338	-0.140
-503.697	800.000	-0.038	0.137
-502.683	-84.938	0.233	0.073
-501.668	-73.478	0.220	-0.080
-500.653	-81.311	0.159	-0.052
-499.639	20.556	0.213	0.172
-498.624	-68.264	-0.301	0.117
-497.610	6.489	0.180	-0.133
-496.595	-87.488	0.275	-0.083
-495.581	-27.494	-0.140	0.081
-494.566	-200.000	-0.043	0.299
-493.551	84.957	-0.105	0.115
-492.537	-200.000	0.061	-0.271
-491.522	-112.259	-0.204	0.041
-490.508	334.168	0.131	-0.252
-489.493	154.521	-0.230	0.314
-488.478	49.556	-0.133	-0.125
-487.464	-95.951	-0.340	-0.090
-486.449	-111.421	0.196	-0.040
-485.435	-200.000	0.007	0.558
-484.420	369.310	-0.100	-0.202
-483.405	-200.000	0.055	-0.241
-482.391	535.554	0.167	-0.394
-481.376	332.158	0.039	0.075
-480.362	-200.000	0.006	-0.095
-479.347	-200.000	-0.354	0.001
-478.332	122.265	0.035	0.044
-477.318	800.000	0.063	0.196
-476.303	-23.357	-0.266	-0.159
-475.289	-72.509	0.183	0.067
-474.274	187.397	0.114	-0.170
-473.259	58.001	-0.232	-0.227
-472.245	800.000	-0.098	0.277
-471.230	-200.000	-0.028	0.156
-470.216	79.092	-0.240	0.256
-469.201	800.000	0.160	0.481
-468.186	230.398	0.226	0.368
-467.172	279.991	0.135	0.240
-466.157	611.789	-0.046	-0.114
-465.143	517.715	-0.039	0.091
-464.128	248.025	0.081	-0.136
-463.113	800.000	0.037	-0.122
-462.099	148.086	-0.075	-0.101
-461.084	-117.417	0.108	0.019
-460.070	-142.380	-0.585	0.057
-459.055	800.000	0.091	0.371
-458.040	-41.937	-0.185	0.094
-457.026	196.465	-0.073	-0.111
-456.011	-143.588	-0.076	0.007
-454.997	77.886	0.091	0.097
-453.982	243.624	-0.121	0.201
-452.968	149.145	-0.250	0.337
-451.953	-28.192	0.428	0.246
-450.938	-200.000	-0.043	-0.295
-449.924	-200.000	0.015	-0.098
-448.909	49.689	-0.211	-0.198
-447.895	463.169	-0.105	-0.234
-446.880	259.435	0.076	-0.131
-445.865	-200.000	-0.037	-0.332
-444.851	654.486	0.116	-0.296
-443.836	-200.000	-0.054	0.417
-442.822	-200.000	0.032	-0.386
-441.807	-200.000	0.018	0.314
-440.792	195.987	-0.275	-0.416
-439.778	-36.737	-0.365	-0.195
-438.763	60.809	-0.163	0.161
-437.749	-200.000	0.116	0.514
-436.734	215.426	0.200	0.315
-435.719	-200.000	-0.052	0.254
-434.705	800.000	-0.046	0.186
-433.690	291.747	-0.044	-0.080
-432.676	17.466	0.084	-0.066
-431.661	-200.000	-0.015	-0.215
-430.646	408.859	0.048	0.101
-429.632	-64.520	-0.178	0.072
-428.617	69.241	0.190	0.194
-427.603	-200.000	-0.025	-0.273
-426.588	271.232	0.135	-0.237
-425.573	-10.116	0.099	0.065
-424.559	118.802	-0.252	0.309
-423.544	-139.196	-0.107	0.011
-422.530	617.007	-0.107	0.267
-421.515	389.179	-0.132	0.271
-420.500	464.111	0.151	0.336
-419.486	283.847	-0.039	-0.069
-418.471	-24.903	0.131	0.077
-417.457	-109.511	0.022	-0.005
-416.442	-135.470	-0.299	-0.035
-415.428	-200.000	-0.005	0.074
-414.413	-200.000	0.042	-0.264
-413.398	247.478	0.096	-0.160
-412.384	-4.933	-0.256	0.175
-411.369	-200.000	-0.003	0.320
-410.355	254.703	0.115	0.196
-409.340	-173.121	0.230	0.007
-408.325	55.866	-0.039	0.038
-407.311	105.212	-0.096	0.112
-406.296	198.806	0.225	0.342
-405.282	-200.000	0.062	0.388
-404.267	18.357	-0.167	0.133
-403.252	-179.274	-0.032	-0.001
-402.238	800.000	-0.106	-0.454
-401.223	75.835	0.314	0.330
-400.209	-119.802	0.145	0.025
-399.194	58.013	-0.191	0.186
-398.179	-139.439	-0.140	0.015
-397.165	-106.809	0.186	-0.041
-396.150	-99.927	0.233	-0.058
-395.136	-17.966	0.180	0.112
-394.121	-200.000	0.039	0.174
-393.106	-183.580	-0.075	-0.001
-392.092	-200.000	0.028	0.147
-391.077	-72.352	-0.168	-0.062
-390.063	195.045	-0.154	-0.232
-389.048	-52.110	-0.208	0.096
-388.033	800.000	0.117	-0.358
-387.019	800.000	0.065	-0.220
-386.004	-200.000	-0.011	-0.087
-384.990	-7.731	-0.475	-0.318
-383.975	-86.979	0.174	0.053
-382.960	53.960	0.054	0.051
-381.946	-200.000	0.005	0.342
-380.931	-184.244	0.269	-0.004
-379.917	35.867	-0.136	0.118
-378.902	43.258	-0.128	0.116
-377.888	-113.046	-0.135	-0.026
-376.873	-200.000	0.017	0.130
-375.858	5.236	0.154	0.112
-374.844	234.392	-0.157	-0.257
-373.829	573.834	-0.049	0.118
-372.815	-101.435	-0.447	-0.108
-371.800	-22.216	0.092	-0.055
-370.785	-200.000	0.041	0.393
-369.771	-200.000	0.027	-0.481
-368.756	449.982	0.139	-0.304
-367.742	-200.000	-0.029	0.135
-366.727	800.000	0.042	0.163
-365.712	173.286	-0.076	0.109
-364.698	53.162	-0.178	-0.169
-363.683	-94.803	-0.407	-0.109
-362.669	-9.416	0.237	-0.156
-361.654	-61.336	0.202	-0.084
-360.639	-51.142	-0.278	0.129
-359.625	800.000	-0.012	0.047
-358.610	66.773	-0.035	-0.035
-357.596	-86.081	0.465	-0.142
-356.581	633.478	-0.052	-0.131
-355.566	-200.000	-0.012	0.155
-354.552	43.173	0.037	0.034
-353.537	-200.000	0.001	-0.434
-352.523	-15.769	0.113	0.071
-351.508	-200.000	-0.026	0.366
-350.493	-46.462	-0.188	0.092
-349.479	-200.000	0.003	-0.113
-348.464	168.404	-0.095	0.134
-347.450	35.007	-0.231	0.200
-346.435	-200.000	-0.032	0.341
-345.420	202.051	0.274	0.418
-344.406	-200.000	0.032	0.218
-343.391	-83.494	0.336	0.107
-342.377	43.413	-0.087	-0.079
-341.362	-200.000	0.034	0.158
-340.348	-200.000	-0.003	-0.027
-339.333	-109.822	-0.512	0.106
-338.318	410.249	-0.059	0.123
-337.304	48.033	0.070	-0.064
-336.289	-154.367	0.172	0.011
-335.275	-27.880	-0.188	0.108
-334.260	-126.722	0.425	-0.062
-333.245	-58.183	0.280	-0.121
-332.231	60.535	-0.371	0.363
-331.216	-71.285	-0.263	0.098
-330.202	109.343	0.075	0.089
-329.187	800.000	0.096	0.300
-328.172	170.469	-0.119	-0.169
-327.158	69.542	0.054	0.055
-326.143	34.922	0.103	-0.089
-325.129	-146.528	-0.464	-0.040
-324.114	407.627	0.118	0.247
-323.099	800.000	-0.031	-0.112
-322.085	14.656	-0.149	-0.115
-321.070	-62.181	-0.229	-0.094
-320.056	-91.117	-0.365	0.103
-319.041	-200.000	0.041	0.337
-318.026	800.000	0.026	0.071
-317.012	-17.336	-0.185	0.115
-315.997	-112.027	-0.128	-0.025
-314.983	-7.489	-0.085	0.057
-313.968	-65.254	0.340	0.135
-312.953	-51.274	-0.167	-0.077
-311.939	89.248	0.158	-0.174
-310.924	-52.112	-0.272	0.125
-309.910	77.021	-0.162	-0.170
-308.895	-200.000	-0.035	-0.419
-307.880	25.585	-0.194	0.160
-306.866	800.000	0.078	0.254
-305.851	-200.000	0.000	0.038
-304.837	-39.649	0.229	0.118
-303.822	-200.000	0.051	0.246
-302.807	113.422	0.091	0.109
-301.793	29.741	0.091	-0.076
-300.778	-53.371	0.141	-0.064
-299.764	180.358	0.136	-0.198
-298.749	-200.000	-0.051	0.271
-297.735	800.000	0.019	-0.082
-296.720	800.000	-0.069	-0.193
-295.705	-91.863	-0.320	0.090
-294.691	-22.363	0.142	0.085
-293.676	-118.450	0.116	-0.020
-292.662	114.447	0.058	-0.069
-291.647	-174.234	0.027	0.001
-290.632	35.592	-0.091	-0.079
-289.618	800.000	0.115	-0.326
-288.603	239.339	0.263	0.433
-287.589	-67.695	-0.337	0.130
-286.574	-88.825	0.125	-0.037
-285.559	-200.000	0.005	-0.204
-284.545	491.069	-0.050	-0.113
-283.530	305.532	-0.079	-0.146
-282.516	-107.541	0.171	0.037
-281.501	138.311	0.164	-0.212
-280.486	146.756	-0.243	-0.322
-279.472	170.174	0.262	-0.371
-278.457	-62.147	-0.365	-0.150
-277.443	92.395	0.036	-0.040
-276.428	-95.115	-0.235	0.063
-275.413	-54.659	0.052	0.023
-274.399	-58.665	0.153	-0.066
-273.384	246.287	0.172	0.286
-272.370	-200.000	0.035	-0.230
-271.355	154.365	-0.185	-0.251
-270.340	233.944	-0.097	-0.158
-269.326	800.000	0.071	-0.284
-268.311	723.798	0.113	-0.296
-267.297	-36.068	-0.242	0.129
-266.282	7.982	0.073	-0.054
-265.267	-53.784	0.328	-0.148
-264.253	-79.543	-0.229	0.076
-263.238	800.000	0.122	-0.382
-262.224	77.295	-0.189	-0.198
-261.209	-200.000	-0.025	-0.154
-260.195	-113.696	0.190	0.037
-259.180	206.234	0.249	0.383
-258.165	-50.648	0.136	0.063
-257.151	-108.450	-0.028	0.006
-256.136	322.997	0.148	0.278
-255.122	-143.045	0.284	-0.027
-254.107	-200.000	0.032	-0.187
-253.092	13.385	-0.256	0.196
-252.078	800.000	0.013	-0.042
-251.063	800.000	0.057	-0.210
-250.049	468.364	0.110	-0.243
-249.034	-200.000	0.006	0.228
-248.019	-82.101	-0.381	-0.122
-247.005	478.750	0.107	-0.239
-245.990	-200.000	0.025	-0.110
-244.976	784.579	-0.034	0.092
-243.961	-115.794	0.263	0.049
-242.946	-200.000	-0.002	-0.037
-241.932	58.704	0.305	-0.295
-240.917	77.853	-0.240	0.252
-239.903	-153.975	0.112	-0.007
-238.888	148.334	0.052	-0.069
-237.873	-200.000	-0.028	-0.305
-236.859	800.000	0.103	-0.414
-235.844	-200.000	-0.055	0.259
-234.830	51.705	-0.101	0.095
-233.815	-44.770	-0.159	-0.078
-232.800	107.376	0.151	-0.177
-231.786	-147.202	-0.388	0.033
-230.771	-59.771	0.096	-0.041
-229.757	-87.233	-0.310	0.093
-228.742	-104.840	0.246	0.056
-227.727	-200.000	-0.067	0.407
-226.713	547.407	0.060	-0.140
-225.698	-200.000	0.002	0.144
-224.684	-122.949	0.118	-0.019
-223.669	-135.985	0.202	-0.023
-222.655	-100.027	-0.082	0.020
-221.640	137.769	0.052	0.067
-220.625	-200.000	-0.031	-0.257
-219.611	-103.600	-0.378	-0.087
-218.596	-200.000	-0.010	-0.211
-217.582	-200.000	0.000	0.113
-216.567	-200.000	-0.012	-0.122
-215.552	55.068	0.102	0.097
-214.538	-120.687	-0.286	0.048
-213.523	-0.930	0.184	-0.128
-212.509	-200.000	-0.086	0.374
-211.494	192.315	0.107	-0.160
-210.479	34.256	0.032	-0.028
-209.465	-98.551	0.168	0.042
-208.450	-64.881	0.074	0.030
-207.436	159.809	-0.225	0.308
-206.421	-109.265	0.289	-0.060
-205.406	302.369	-0.161	-0.294
-204.392	-6.869	-0.155	0.104
-203.377	800.000	-0.029	0.103
-202.363	79.543	-0.093	0.099
-201.348	-200.000	0.037	-0.202
-200.333	-152.285	0.387	0.027
-199.319	108.235	0.316	-0.371
-198.304	-42.358	0.270	-0.136
-197.290	12.450	-0.439	0.333
-196.275	-33.642	0.117	-0.063
-195.260	226.106	0.087	0.139
-194.246	280.736	0.135	-0.237
-193.231	-13.049	-0.084	-0.054
-192.217	535.808	-0.046	0.106
-191.202	-200.000	-0.013	-0.125
-190.187	-200.000	0.009	-0.108
-189.173	299.982	-0.239	-0.434
-188.158	-173.768	0.301	0.009
-187.144	-81.857	0.307	-0.099
-186.129	800.000	0.014	0.058
-185.114	-181.499	-0.019	0.000
-184.100	325.027	0.144	0.270
-183.085	121.784	-0.259	0.317
-182.071	800.000	0.036	-0.124
-181.056	34.853	0.196	-0.169
-180.042	-118.894	0.250	-0.043
-179.027	125.954	0.205	-0.255
-178.012	-19.034	-0.169	-0.104
-176.998	51.640	-0.317	0.296
-175.983	119.011	0.090	-0.109
-174.969	-46.595	0.165	-0.080
-173.954	-55.394	0.244	0.108
-172.939	253.058	0.107	0.180
-171.925	-131.454	-0.068	0.009
-170.910	-20.806	0.244	-0.147
-169.896	-148.577	0.129	-0.010
-168.881	348.517	-0.055	0.107
-167.866	188.890	0.017	0.025
-166.852	-200.000	0.033	0.423
-165.837	356.436	0.095	0.186
-164.823	78.470	-0.041	0.043
-163.808	275.490	-0.061	-0.107
-162.793	147.818	-0.101	0.134
-161.779	-152.628	0.319	-0.022
-160.764	-24.232	0.182	0.107
-159.750	-10.362	-0.175	0.114
-158.735	-122.356	0.308	0.049
-157.720	163.035	-0.188	-0.259
-156.706	-200.000	0.054	0.396
-155.691	113.544	-0.063	0.076
-154.677	174.899	0.064	-0.091
-153.662	-200.000	-0.007	-0.228
-152.647	-42.624	-0.341	0.171
-151.633	-51.931	0.334	0.153
-150.618	-200.000	0.026	-0.285
-149.604	-35.191	-0.266	0.142
-148.589	-120.664	-0.145	-0.024
-147.574	800.000	0.032	0.099
-146.560	-75.245	-0.193	0.068
-145.545	-4.522	-0.145	0.098
-144.531	-166.374	0.232	-0.010
-143.516	-148.633	-0.163	-0.013
-142.502	800.000	0.075	0.229
-141.487	238.254	0.129	-0.211
-140.472	-10.104	-0.398	0.260
-139.458	66.892	0.194	-0.194
-138.443	245.680	0.052	0.086
-137.429	20.396	0.229	-0.181
-136.414	-85.695	-0.071	-0.022
-135.399	-39.430	-0.093	-0.048
-134.385	109.523	-0.107	0.126
-133.370	-104.025	-0.203	-0.047
-132.356	800.000	0.046	-0.156
-131.341	78.312	0.261	-0.274
-130.326	-200.000	-0.010	-0.096
-129.312	14.560	0.221	-0.169
-128.297	-58.464	-0.139	-0.059
-127.283	5.661	-0.135	0.098
-126.268	-94.121	0.310	0.083
-125.253	800.000	-0.069	-0.259
-124.239	246.937	0.072	-0.119
-123.224	85.930	-0.324	0.349
-122.210	393.264	-0.207	-0.423
-121.195	42.457	0.201	0.179
