DTS Sentinel unit serial number:	SN413079Multiplexer serial number:	ORYXHardware model number:	OX4-SRSoftware version number:	ORYX F/W v4.00 Oryx Data Collector v3.7.2.0data status	okinstallation	princeton_trtdifferential loss correction	single-endedforward channel	channel 4reverse channel	N/Adate	2019/09/14time	20:53:35forward acquisition time	60.00reverse acquisition time	0.00gamma	496.2192k internal	0.2306k external	0.2306temperature offset calibration	1.0083default loss term (dB/km)	0.3790temperature slope calibration	1.0000multiplexer offset coefficient	1.0000multiplexer slope coefficient	1.0000fibre end	0.00T internal ref (°C)	33.23T ext. ref 1 (°C)	4.79T ext. ref 2 (°C)	27.97length (m)	temperature (°C)	Stokes	anti-Stokes-747.200	89.354	0.216	-0.245
-746.185	-57.951	-0.220	-0.098
-745.171	333.481	0.163	-0.322
-744.156	126.870	-0.209	0.270
-743.142	-200.000	-0.000	0.097
-742.127	-200.000	-0.040	0.256
-741.112	-200.000	-0.024	-0.445
-740.098	-82.354	-0.322	0.106
-739.083	-107.913	0.213	-0.047
-738.069	87.861	-0.270	-0.305
-737.054	800.000	-0.043	0.133
-736.039	72.296	0.123	-0.131
-735.025	108.751	0.110	-0.134
-734.010	-200.000	0.006	-0.035
-732.996	-21.658	-0.391	-0.242
-731.981	-200.000	0.374	-0.001
-730.966	800.000	0.037	0.150
-729.952	-102.091	-0.171	0.042
-728.937	412.671	-0.047	0.101
-727.923	-138.486	-0.216	-0.024
-726.908	800.000	0.092	-0.369
-725.894	-84.081	0.196	-0.063
-724.879	-200.000	0.021	-0.173
-723.864	-52.650	0.152	0.072
-722.850	-97.045	-0.235	-0.062
-721.835	-71.190	-0.303	-0.116
-720.821	17.629	0.083	0.067
-719.806	-93.287	-0.138	0.039
-718.791	800.000	0.084	-0.278
-717.777	-79.319	-0.175	0.060
-716.762	800.000	-0.059	0.256
-715.748	800.000	0.087	-0.309
-714.733	6.170	-0.177	0.133
-713.718	-130.121	-0.239	-0.033
-712.704	74.943	0.153	-0.164
-711.689	115.291	-0.030	0.038
-710.675	-93.949	-0.210	-0.059
-709.660	86.613	-0.335	-0.376
-708.645	-25.362	0.039	-0.023
-707.631	-200.000	0.047	-0.401
-706.616	316.567	-0.183	-0.351
-705.602	-200.000	0.060	-0.322
-704.587	-135.797	0.262	-0.031
-703.572	-6.271	-0.121	-0.084
-702.558	381.459	0.203	-0.424
-701.543	-16.073	-0.169	0.109
-700.529	516.370	-0.019	-0.045
-699.514	15.773	0.096	0.077
-698.499	46.683	0.066	-0.062
-697.485	679.709	0.016	-0.042
-696.470	-200.000	-0.008	0.165
-695.456	-153.590	-0.286	0.020
-694.441	-83.608	-0.220	0.071
-693.426	-200.000	0.005	0.371
-692.412	-46.018	-0.161	0.081
-691.397	54.462	0.146	-0.142
-690.383	-200.000	0.034	-0.379
-689.368	189.430	-0.108	-0.164
-688.354	-75.297	-0.110	0.040
-687.339	191.031	-0.196	0.299
-686.324	-38.687	-0.169	-0.091
-685.310	-9.311	0.029	0.020
-684.295	214.910	0.170	-0.273
-683.281	-66.486	0.265	-0.107
-682.266	800.000	0.028	0.097
-681.251	92.293	0.048	-0.055
-680.237	606.180	-0.151	-0.383
-679.222	148.151	-0.049	-0.067
-678.208	622.039	0.050	-0.129
-677.193	8.641	0.072	0.055
-676.178	-200.000	0.045	0.214
-675.164	91.837	-0.090	0.103
-674.149	-111.808	0.216	-0.044
-673.135	800.000	-0.018	-0.067
-672.120	422.294	-0.074	-0.162
-671.105	563.288	-0.100	-0.245
-670.091	198.915	-0.104	0.161
-669.076	-100.444	0.156	0.039
-668.062	-50.840	-0.266	0.127
-667.047	97.525	0.174	-0.202
-666.032	-113.142	-0.176	0.035
-665.018	-107.132	-0.377	0.084
-664.003	800.000	-0.042	0.122
-662.989	496.879	-0.056	-0.130
-661.974	800.000	0.060	0.221
-660.959	-27.383	-0.192	0.114
-659.945	-10.395	-0.199	0.134
-658.930	36.564	-0.054	-0.048
-657.916	-188.093	-0.230	-0.003
-656.901	-200.000	0.041	0.211
-655.886	760.756	-0.018	0.050
-654.872	463.002	0.185	0.419
-653.857	-109.352	-0.267	0.057
-652.843	487.397	-0.135	-0.312
-651.828	269.116	0.181	-0.322
-650.814	386.854	0.123	-0.258
-649.799	-95.128	0.278	0.076
-648.784	320.154	-0.050	0.096
-647.770	-146.936	-0.075	-0.007
-646.755	-103.178	0.106	-0.026
-645.741	109.729	0.202	-0.245
-644.726	-200.000	0.011	-0.100
-643.711	351.558	0.178	0.357
-642.697	800.000	-0.027	0.113
-641.682	248.034	-0.103	0.177
-640.668	24.136	-0.044	-0.037
-639.653	245.206	0.111	-0.189
-638.638	-57.325	-0.062	0.028
-637.624	71.873	-0.134	-0.141
-636.609	160.557	0.178	-0.252
-635.595	-97.519	-0.169	-0.044
-634.580	-200.000	-0.035	0.174
-633.565	-121.152	-0.270	-0.046
-632.551	-142.093	0.306	-0.031
-631.536	-1.885	0.314	-0.224
-630.522	246.020	-0.055	0.094
-629.507	-40.378	0.102	0.054
-628.492	233.985	0.033	0.056
-627.478	-122.044	0.129	-0.021
-626.463	-33.480	-0.144	-0.081
-625.449	-200.000	-0.036	-0.351
-624.434	15.118	0.320	-0.254
-623.419	-39.401	-0.218	0.116
-622.405	-12.793	0.084	-0.055
-621.390	800.000	0.073	-0.213
-620.376	28.845	0.031	0.027
-619.361	-74.790	-0.381	-0.138
-618.346	35.591	-0.178	-0.158
-617.332	-100.890	-0.324	0.081
-616.317	58.637	0.262	-0.260
-615.303	800.000	0.020	-0.058
-614.288	10.253	-0.054	0.042
-613.273	-24.819	0.072	-0.043
-612.259	800.000	0.053	-0.166
-611.244	516.098	0.130	-0.307
-610.230	-200.000	-0.045	-0.269
-609.215	-39.123	0.087	-0.046
-608.201	-200.000	-0.010	-0.101
-607.186	-200.000	0.040	-0.246
-606.171	800.000	-0.062	-0.251
-605.157	-98.904	0.417	0.107
-604.142	800.000	-0.067	-0.234
-603.128	18.668	0.082	0.067
-602.113	-79.900	0.113	-0.039
-601.098	-21.707	-0.151	-0.093
-600.084	221.262	-0.179	-0.290
-599.069	-154.842	-0.122	-0.008
-598.055	-43.922	-0.080	0.041
-597.040	-200.000	-0.014	-0.197
-596.025	-200.000	0.010	0.054
-595.011	7.048	-0.193	0.146
-593.996	-200.000	0.026	0.140
-592.982	-200.000	-0.010	0.111
-591.967	800.000	-0.084	-0.241
-590.952	-144.573	-0.224	-0.021
-589.938	529.806	0.059	0.140
-588.923	139.452	-0.104	-0.139
-587.909	162.713	-0.022	0.031
-586.894	-119.995	-0.408	-0.071
-585.879	800.000	-0.069	-0.278
-584.865	151.324	0.133	-0.183
-583.850	-200.000	-0.004	-0.128
-582.836	-149.300	-0.118	-0.010
-581.821	-79.273	-0.329	-0.113
-580.806	-137.607	-0.211	0.024
-579.792	83.215	0.158	0.173
-578.777	579.376	0.173	0.428
-577.763	-97.296	0.261	0.069
-576.748	-31.447	-0.116	-0.066
-575.733	800.000	0.019	-0.082
-574.719	103.682	-0.109	-0.130
-573.704	-101.765	0.292	0.071
-572.690	122.042	-0.131	-0.165
-571.675	212.113	-0.139	0.221
-570.661	800.000	-0.063	0.260
-569.646	-156.346	-0.251	-0.016
-568.631	-200.000	0.005	0.075
-567.617	244.016	-0.198	0.336
-566.602	96.900	-0.225	0.260
-565.588	-98.179	0.334	0.087
-564.573	-200.000	0.030	0.372
-563.558	800.000	-0.149	0.417
-562.544	248.012	-0.061	0.104
-561.529	-29.605	-0.188	-0.108
-560.515	-78.937	0.234	-0.081
-559.500	447.225	-0.108	0.241
-558.485	800.000	-0.052	0.184
-557.471	-13.578	0.116	0.076
-556.456	10.671	0.245	0.189
-555.442	-116.451	0.122	-0.023
-554.427	420.431	-0.133	0.288
-553.412	-200.000	-0.007	-0.049
-552.398	-120.554	0.285	0.049
-551.383	-73.478	0.298	-0.110
-550.369	32.419	-0.246	0.214
-549.354	190.324	0.135	-0.204
-548.339	236.972	0.094	-0.157
-547.325	40.045	-0.112	-0.101
-546.310	-200.000	-0.013	-0.220
-545.296	198.242	0.103	-0.159
-544.281	800.000	0.048	-0.189
-543.266	-136.401	-0.287	0.034
-542.252	-19.405	-0.345	0.216
-541.237	452.475	0.082	-0.183
-540.223	-110.280	0.164	0.034
-539.208	-143.464	-0.236	0.023
-538.193	-200.000	-0.035	-0.312
-537.179	723.617	0.106	-0.285
-536.164	525.758	-0.135	0.321
-535.150	800.000	0.060	0.202
-534.135	-181.564	0.188	0.004
-533.121	800.000	0.111	0.311
-532.106	189.925	0.207	0.313
-531.091	-200.000	0.002	0.083
-530.077	615.061	0.072	-0.183
-529.062	-172.784	0.165	0.005
-528.048	100.798	0.117	-0.138
-527.033	-200.000	-0.032	-0.428
-526.018	-82.582	0.249	0.082
-525.004	-200.000	0.044	-0.332
-523.989	-82.483	-0.251	0.082
-522.975	-200.000	0.024	0.281
-521.960	406.910	-0.081	-0.172
-520.945	-59.173	-0.119	0.052
-519.931	-200.000	0.068	0.000
-518.916	577.162	0.060	0.148
-517.902	-200.000	0.019	-0.227
-516.887	24.451	0.172	0.143
-515.872	133.014	-0.147	0.191
-514.858	-17.932	0.317	-0.200
-513.843	41.425	-0.116	-0.106
-512.829	35.293	-0.202	0.178
-511.814	446.721	0.139	0.309
-510.799	-12.087	0.086	0.057
-509.785	242.878	-0.044	-0.075
-508.770	800.000	-0.006	0.019
-507.756	149.535	-0.010	-0.013
-506.741	800.000	0.016	-0.061
-505.726	-178.811	-0.382	-0.009
-504.712	800.000	0.056	0.241
-503.697	-144.362	-0.223	0.021
-502.683	82.028	-0.076	-0.083
-501.668	111.519	0.291	-0.354
-500.653	-200.000	-0.010	-0.258
-499.639	800.000	0.075	0.323
-498.624	-200.000	0.005	-0.192
-497.610	-200.000	0.002	-0.145
-496.595	-56.394	-0.188	0.084
-495.581	316.109	0.118	-0.224
-494.566	61.862	0.112	0.113
-493.551	-43.765	0.162	0.082
-492.537	77.292	0.048	0.051
-491.522	-200.000	-0.001	0.059
-490.508	-6.234	-0.049	0.034
-489.493	-1.063	-0.030	0.021
-488.478	441.974	0.095	0.210
-487.464	-200.000	-0.004	0.125
-486.449	129.739	0.179	-0.230
-485.435	79.630	-0.414	0.448
-484.420	800.000	0.030	0.103
-483.405	14.542	0.090	-0.071
-482.391	-47.839	-0.200	-0.097
-481.376	-27.593	0.307	-0.180
-480.362	-31.303	0.174	0.099
-479.347	579.399	-0.029	-0.071
-478.332	-200.000	-0.011	-0.061
-477.318	-48.554	-0.237	-0.115
-476.303	417.755	-0.121	0.261
-475.289	-128.122	0.202	0.029
-474.274	-200.000	-0.012	0.214
-473.259	-66.250	0.170	-0.068
-472.245	53.097	-0.220	0.212
-471.230	-200.000	-0.019	0.113
-470.216	-14.226	0.165	0.107
-469.201	-200.000	-0.001	-0.034
-468.186	-78.052	-0.108	-0.037
-467.172	7.318	0.045	-0.034
-466.157	800.000	-0.087	-0.274
-465.143	-200.000	-0.005	-0.162
-464.128	-61.184	-0.214	-0.091
-463.113	800.000	0.031	0.107
-462.099	-113.147	0.341	0.068
-461.084	800.000	0.036	0.151
-460.070	-53.189	-0.185	-0.085
-459.055	-44.152	-0.252	-0.127
-458.040	240.103	0.214	-0.358
-457.026	-129.665	-0.309	0.043
-456.011	47.796	-0.082	0.077
-454.997	-47.116	0.165	0.081
-453.982	-6.030	-0.227	0.156
-452.968	-4.580	-0.221	-0.154
-451.953	95.960	0.166	-0.191
-450.938	-11.779	-0.322	0.213
-449.924	32.118	-0.057	0.049
-448.909	800.000	-0.067	0.190
-447.895	40.334	-0.220	-0.199
-446.880	-200.000	-0.039	-0.241
-445.865	-78.015	0.363	-0.126
-444.851	144.721	0.108	0.145
-443.836	-200.000	0.036	0.342
-442.822	-200.000	-0.097	0.490
-441.807	-138.408	-0.147	-0.016
-440.792	23.560	-0.292	-0.241
-439.778	-120.091	-0.164	-0.028
-438.763	-65.590	0.166	-0.067
-437.749	800.000	-0.008	0.024
-436.734	295.015	-0.231	0.424
-435.719	-52.544	0.132	0.061
-434.705	170.725	-0.097	-0.140
-433.690	577.503	0.086	0.212
-432.676	86.224	0.077	0.085
-431.661	-200.000	-0.013	0.193
-430.646	-200.000	0.006	0.153
-429.632	-42.261	-0.175	0.090
-428.617	-30.928	0.336	-0.191
-427.603	101.971	-0.372	-0.437
-426.588	-82.574	-0.178	-0.058
-425.573	-94.030	0.238	-0.066
-424.559	-46.907	0.123	0.060
-423.544	21.975	-0.221	0.181
-422.530	-62.283	-0.161	-0.068
-421.515	-193.124	0.181	-0.002
-420.500	800.000	0.067	-0.232
-419.486	-200.000	-0.005	-0.030
-418.471	105.344	-0.028	-0.033
-417.457	183.607	0.148	0.220
-416.442	-200.000	-0.073	-0.333
-415.428	-38.770	0.049	-0.026
-414.413	24.323	-0.134	-0.111
-413.398	-47.148	0.080	0.039
-412.384	-200.000	-0.009	0.157
-411.369	42.800	-0.181	0.165
-410.355	800.000	-0.117	0.484
-409.340	-148.594	-0.297	0.024
-408.325	-200.000	0.035	0.409
-407.311	-130.043	-0.179	-0.025
-406.296	-0.060	-0.113	0.081
-405.282	-135.906	0.248	-0.029
-404.267	-96.119	0.315	0.084
-403.252	144.868	0.186	0.250
-402.238	325.789	0.071	0.137
-401.223	394.839	-0.092	-0.192
-400.209	27.500	0.269	-0.227
-399.194	187.460	-0.076	-0.114
-398.179	86.916	-0.297	0.329
-397.165	-134.891	0.504	0.061
-396.150	-200.000	-0.018	-0.323
-395.136	-109.286	-0.078	-0.017
-394.121	1.070	0.196	-0.141
-393.106	-13.496	-0.208	0.135
-392.092	-86.398	0.235	-0.072
-391.077	-155.167	-0.188	-0.012
-390.063	-200.000	0.020	0.171
-389.048	40.391	-0.113	-0.102
-388.033	55.741	0.168	-0.164
-387.019	-84.031	-0.416	-0.133
-386.004	-83.975	0.080	-0.026
-384.990	-41.745	-0.275	0.142
-383.975	196.334	0.071	0.108
-382.960	-200.000	-0.069	-0.369
-381.946	95.260	-0.191	0.219
-380.931	611.649	0.104	0.262
-379.917	156.139	-0.078	0.107
-378.902	18.755	0.148	0.119
-377.888	-106.646	0.140	0.031
-376.873	-94.966	-0.163	-0.044
-375.858	-200.000	0.016	0.150
-374.844	17.037	0.065	0.052
-373.829	-200.000	0.006	0.036
-372.815	-200.000	-0.013	0.394
-371.800	-7.663	0.220	-0.149
-370.785	-88.741	-0.162	-0.048
-369.771	88.690	-0.043	-0.048
-368.756	104.673	0.185	-0.218
-367.742	-32.027	0.260	0.146
-366.727	373.811	-0.077	0.156
-365.712	-154.639	0.065	-0.004
-364.698	34.864	0.075	-0.066
-363.683	-156.052	-0.145	0.009
-362.669	-51.034	0.385	0.181
-361.654	237.717	0.058	0.096
-360.639	12.681	0.311	-0.240
-359.625	800.000	-0.067	0.233
-358.610	563.801	-0.065	-0.158
-357.596	128.931	0.069	-0.088
-356.581	629.756	-0.086	-0.219
-355.566	-85.552	-0.202	-0.063
-354.552	30.086	0.099	-0.085
-353.537	-200.000	-0.006	0.090
-352.523	289.811	0.126	-0.230
-351.508	-88.611	-0.288	0.086
-350.493	800.000	0.025	0.087
-349.479	597.829	-0.072	-0.180
-348.464	-103.679	0.325	-0.076
-347.450	-69.151	0.107	0.041
-346.435	491.490	0.019	-0.043
-345.420	800.000	-0.004	-0.014
-344.406	60.359	-0.133	-0.131
-343.391	-49.613	0.264	0.126
-342.377	-200.000	-0.018	-0.162
-341.362	149.795	0.219	-0.298
-340.348	-52.947	-0.257	0.119
-339.333	-101.253	0.424	0.104
-338.318	-93.926	-0.135	-0.037
-337.304	-200.000	-0.004	0.275
-336.289	169.172	0.048	-0.069
-335.275	179.411	-0.077	0.113
-334.260	-129.267	0.277	0.039
-333.245	318.487	-0.042	0.079
-332.231	153.611	0.011	0.015
-331.216	-107.713	-0.388	0.085
-330.202	332.925	-0.010	0.019
-329.187	-109.324	0.296	-0.063
-328.172	-200.000	0.044	-0.400
-327.158	-200.000	0.013	0.112
-326.143	-35.062	0.111	-0.061
-325.129	800.000	-0.026	-0.109
-324.114	85.275	-0.111	0.122
-323.099	-12.885	0.326	-0.213
-322.085	-144.335	-0.210	0.020
-321.070	2.253	0.197	0.143
-320.056	-117.032	-0.227	-0.042
-319.041	235.447	-0.104	-0.172
-318.026	788.737	0.085	0.234
-317.012	-54.398	-0.172	-0.078
-315.997	-82.411	-0.331	-0.108
-314.983	-200.000	0.021	-0.204
-313.968	800.000	-0.006	0.016
-312.953	-151.989	0.260	0.019
-311.939	-1.276	-0.347	0.245
-310.924	78.883	0.136	-0.146
-309.910	-52.300	-0.032	-0.015
-308.895	800.000	0.063	0.274
-307.880	-159.353	-0.040	0.002
-306.866	-200.000	0.001	-0.116
-305.851	-6.373	-0.140	0.095
-304.837	-140.235	-0.225	-0.024
-303.822	-200.000	0.001	-0.006
-302.807	-47.040	0.117	0.057
-301.793	-89.684	0.143	-0.042
-300.778	-172.189	0.175	0.006
-299.764	53.236	-0.161	0.154
-298.749	-200.000	-0.027	-0.307
-297.735	-200.000	-0.031	-0.146
-296.720	-200.000	-0.012	0.371
-295.705	-200.000	0.009	0.147
-294.691	800.000	-0.147	0.416
-293.676	-200.000	0.045	0.264
-292.662	-15.204	0.008	-0.005
-291.647	395.448	-0.151	0.315
-290.632	-164.419	0.273	0.012
-289.618	-200.000	0.014	-0.265
-288.603	-45.763	-0.089	-0.044
-287.589	-200.000	0.006	0.051
-286.574	101.435	-0.056	0.066
-285.559	-200.000	0.012	0.290
-284.545	-66.416	-0.179	-0.071
-283.530	-61.697	0.119	0.050
-282.516	-120.469	0.134	0.023
-281.501	-148.082	-0.136	0.011
-280.486	29.870	0.061	-0.052
-279.472	384.728	-0.162	-0.333
-278.457	179.587	0.244	-0.358
-277.443	16.122	-0.077	-0.060
-276.428	-111.871	-0.262	-0.053
-275.413	-200.000	0.046	0.431
-274.399	-93.708	-0.219	-0.060
-273.384	-101.072	0.184	0.045
-272.370	550.545	-0.038	0.090
-271.355	-200.000	-0.046	0.246
-270.340	168.049	-0.164	-0.233
-269.326	-200.000	-0.035	0.172
-268.311	40.745	0.126	0.114
-267.297	-200.000	-0.030	0.245
-266.282	-41.464	-0.156	0.080
-265.267	581.895	0.064	0.157
-264.253	759.542	0.073	-0.197
-263.238	313.427	0.134	0.251
-262.224	-200.000	0.024	0.152
-261.209	-145.648	-0.246	-0.022
-260.195	-150.134	-0.107	-0.008
-259.180	-147.261	-0.128	0.011
-258.165	-200.000	-0.020	0.177
-257.151	-200.000	0.057	-0.308
-256.136	135.582	0.111	-0.145
-255.122	800.000	0.031	0.110
-254.107	96.998	-0.166	-0.190
-253.092	38.076	0.180	-0.160
-252.078	143.806	0.099	0.132
-251.063	-200.000	-0.027	-0.145
-250.049	3.138	0.315	-0.229
-249.034	-200.000	0.061	0.298
-248.019	105.803	0.088	0.104
-247.005	30.907	0.171	0.146
-245.990	-173.370	-0.471	-0.014
-244.976	-156.043	-0.125	0.008
-243.961	236.359	-0.079	-0.130
-242.946	49.413	-0.190	0.179
-241.932	-35.187	0.158	0.086
-240.917	-200.000	-0.023	0.119
-239.903	-70.786	0.222	-0.083
-238.888	155.049	0.055	-0.075
-237.873	98.100	-0.178	-0.204
-236.859	70.320	-0.151	-0.156
-235.844	496.682	-0.162	-0.372
-234.830	-82.469	-0.099	-0.032
-233.815	169.292	0.174	-0.248
-232.800	-100.040	0.153	-0.038
-231.786	-4.172	0.017	-0.012
-230.771	251.634	-0.147	-0.249
-229.757	-200.000	-0.003	0.040
-228.742	-99.334	0.429	-0.108
-227.727	134.919	0.123	-0.159
-226.713	240.763	0.208	-0.347
-225.698	800.000	-0.141	-0.509
-224.684	384.775	0.139	-0.286
-223.669	-138.574	-0.358	0.039
-222.655	439.436	0.140	0.304
-221.640	4.986	-0.260	0.191
-220.625	544.187	0.083	-0.196
-219.611	455.030	-0.220	-0.485
-218.596	-161.094	0.282	0.015
-217.582	-59.948	0.094	-0.040
-216.567	-200.000	-0.016	-0.138
-215.552	800.000	-0.030	-0.133
-214.538	6.573	0.087	0.064
-213.523	371.034	0.170	-0.344
-212.509	-41.682	-0.385	-0.197
-211.494	-200.000	0.047	0.435
-210.479	-134.681	0.238	-0.029
-209.465	586.351	0.082	-0.200
-208.450	621.906	-0.102	0.255
-207.436	-200.000	0.028	-0.219
-206.421	210.298	-0.148	-0.231
-205.406	-181.932	-0.071	-0.001
-204.392	800.000	-0.021	0.077
-203.377	-136.937	0.161	-0.018
-202.363	-42.494	-0.177	0.090
-201.348	-72.145	-0.095	0.035
-200.333	-159.423	-0.139	-0.008
-199.319	-33.379	0.222	0.122
-198.304	784.956	0.171	0.468
-197.290	-13.724	-0.183	0.118
-196.275	69.720	-0.136	-0.140
-195.260	35.583	-0.196	-0.171
-194.246	-83.454	-0.163	0.052
-193.231	95.520	-0.091	0.104
-192.217	124.386	0.225	0.281
-191.202	35.963	-0.004	0.004
-190.187	-94.174	0.354	0.096
-189.173	559.158	0.075	-0.181
-188.158	-57.726	-0.153	0.067
-187.144	169.777	0.174	-0.247
-186.129	5.248	0.079	0.058
-185.114	-26.627	0.198	0.115
-184.100	186.235	-0.085	0.126
-183.085	141.983	0.093	-0.122
-182.071	33.088	0.060	-0.052
-181.056	-151.525	0.151	0.011
-180.042	341.117	-0.142	-0.277
-179.027	-66.137	0.304	-0.121
-178.012	247.769	-0.065	-0.109
-176.998	-200.000	0.072	0.342
-175.983	-14.755	0.089	-0.057
-174.969	-51.564	0.102	0.047
-173.954	-17.099	0.240	-0.151
-172.939	-98.804	-0.094	0.024
-171.925	-200.000	0.010	-0.059
-170.910	741.819	-0.075	0.201
-169.896	-76.623	0.109	-0.038
-168.881	800.000	-0.013	-0.056
-167.866	107.848	-0.142	0.169
-166.852	-42.901	0.084	-0.043
-165.837	129.850	0.019	-0.024
-164.823	-200.000	-0.006	-0.056
-163.808	38.809	0.195	0.173
-162.793	9.592	0.215	0.162
-161.779	800.000	-0.111	-0.326
-160.764	228.220	0.037	0.061
-159.750	96.867	-0.138	-0.158
-158.735	-146.926	-0.316	-0.027
-157.720	-200.000	-0.019	0.197
-156.706	567.750	0.118	0.285
-155.691	-111.109	-0.194	-0.039
-154.677	315.854	-0.124	0.232
-153.662	-200.000	-0.024	0.176
-152.647	800.000	0.048	0.167
-151.633	-148.774	0.273	0.022
-150.618	195.282	0.124	-0.187
-149.604	-117.226	-0.183	0.033
-148.589	187.614	0.161	0.239
-147.574	-39.631	0.250	0.130
-146.560	107.842	0.110	0.130
-145.545	-21.729	-0.235	0.142
-144.531	-149.539	-0.047	-0.004
-143.516	191.558	0.086	0.128
-142.502	-200.000	-0.018	0.174
-141.487	800.000	-0.078	-0.258
-140.472	-58.407	-0.234	-0.101
-139.458	-72.138	0.160	-0.059
-138.443	-57.793	0.315	0.137
-137.429	-200.000	0.045	0.247
-136.414	-76.068	-0.347	0.122
-135.399	-69.193	-0.161	0.061
-134.385	800.000	0.055	0.205
-133.370	-37.439	0.114	-0.061
-132.356	-32.682	-0.319	-0.176
-131.341	-157.271	-0.126	-0.008
-130.326	-12.561	0.052	0.034
-129.312	-59.875	0.230	-0.098
-128.297	-76.747	-0.143	0.050
-127.283	-64.464	0.122	0.049
-126.268	-106.697	0.260	-0.057
-125.253	800.000	-0.099	0.398
-124.239	-124.316	0.258	-0.040
-123.224	-39.733	-0.074	-0.038
-122.210	37.608	-0.102	0.090
