DTS Sentinel unit serial number:	SN413079Multiplexer serial number:	ORYXHardware model number:	OX4-SRSoftware version number:	ORYX F/W v4.00 Oryx Data Collector v3.7.2.0data status	okinstallation	princeton_trtdifferential loss correction	single-endedforward channel	channel 4reverse channel	N/Adate	2019/09/17time	08:01:35forward acquisition time	60.00reverse acquisition time	0.00gamma	496.2192k internal	0.2319k external	0.2319temperature offset calibration	0.9980default loss term (dB/km)	0.3790temperature slope calibration	1.0000multiplexer offset coefficient	1.0000multiplexer slope coefficient	1.0000fibre end	0.00T internal ref (°C)	27.25T ext. ref 1 (°C)	0.13T ext. ref 2 (°C)	22.38length (m)	temperature (°C)	Stokes	anti-Stokes-747.200	29.649	0.019	-0.016
-746.185	-200.000	0.005	-0.057
-745.171	95.329	0.170	-0.196
-744.156	73.122	0.046	0.049
-743.142	-200.000	0.021	-0.160
-742.127	-4.257	-0.247	0.173
-741.112	-49.846	0.109	0.052
-740.098	-200.000	-0.044	0.250
-739.083	-53.141	0.301	-0.140
-738.069	222.795	-0.195	0.318
-737.054	267.419	-0.031	-0.055
-736.039	-200.000	0.014	-0.247
-735.025	-106.740	0.307	0.069
-734.010	422.649	-0.054	-0.118
-732.996	-83.159	0.126	-0.041
-731.981	-200.000	0.016	0.149
-730.966	453.599	-0.079	0.178
-729.952	694.571	-0.144	0.382
-728.937	6.228	-0.207	-0.155
-727.923	42.429	-0.227	0.209
-726.908	-22.574	0.126	-0.077
-725.894	-122.068	0.163	0.027
-724.879	-159.150	-0.194	-0.011
-723.864	149.192	0.040	0.055
-722.850	-65.064	0.218	0.089
-721.835	-5.069	-0.106	0.074
-720.821	-200.000	0.088	0.470
-719.806	105.144	-0.133	-0.159
-718.791	-33.434	-0.174	-0.097
-717.777	435.751	-0.050	0.111
-716.762	800.000	0.047	-0.188
-715.748	-75.137	-0.409	0.148
-714.733	50.054	0.107	0.102
-713.718	-200.000	0.035	-0.394
-712.704	800.000	-0.111	-0.358
-711.689	-200.000	-0.037	-0.221
-710.675	45.789	0.080	-0.075
-709.660	800.000	-0.138	0.400
-708.645	-115.551	0.139	0.026
-707.631	47.763	-0.322	-0.304
-706.616	18.812	0.101	-0.082
-705.602	-87.545	0.103	0.032
-704.587	69.676	-0.132	-0.138
-703.572	519.342	0.063	0.149
-702.558	-119.269	0.203	-0.036
-701.543	-82.749	-0.390	-0.127
-700.529	-133.849	0.275	0.034
-699.514	-37.132	-0.224	0.121
-698.499	-200.000	-0.109	-0.000
-697.485	-10.877	-0.132	-0.088
-696.470	-200.000	0.072	0.333
-695.456	207.682	-0.043	0.068
-694.441	621.325	0.092	-0.234
-693.426	263.253	-0.086	-0.151
-692.412	800.000	-0.037	-0.124
-691.397	-200.000	-0.070	0.327
-690.383	-200.000	0.017	0.281
-689.368	-116.171	0.392	-0.074
-688.354	75.606	-0.064	-0.068
-687.339	5.671	-0.065	-0.048
-686.324	-127.067	-0.127	-0.019
-685.310	-161.053	-0.022	0.001
-684.295	800.000	-0.050	0.158
-683.281	-28.837	0.182	-0.105
-682.266	-136.060	0.405	0.048
-681.251	29.165	-0.206	-0.176
-680.237	800.000	0.098	-0.275
-679.222	450.440	0.170	0.378
-678.208	-200.000	0.014	0.373
-677.193	-119.238	0.102	0.018
-676.178	-7.663	-0.101	-0.069
-675.164	800.000	0.038	-0.115
-674.149	800.000	0.070	-0.203
-673.135	-59.640	0.291	-0.126
-672.120	447.800	-0.059	0.130
-671.105	111.454	-0.189	0.230
-670.091	800.000	0.115	-0.415
-669.076	-200.000	0.020	0.175
-668.062	800.000	0.072	0.244
-667.047	699.977	-0.011	-0.030
-666.032	800.000	-0.116	0.332
-665.018	800.000	-0.057	0.229
-664.003	-6.626	-0.467	0.320
-662.989	800.000	0.092	0.319
-661.974	-111.268	-0.145	0.030
-660.959	-200.000	0.044	0.277
-659.945	-36.129	-0.246	-0.134
-658.930	800.000	-0.030	0.087
-657.916	687.280	-0.094	-0.248
-656.901	-144.359	0.202	0.019
-655.886	-13.283	0.349	0.228
-654.872	-129.817	0.458	0.063
-653.857	-166.962	0.171	0.007
-652.843	-74.641	-0.103	0.037
-651.828	90.938	-0.068	-0.076
-650.814	-78.632	0.468	-0.161
-649.799	-122.967	0.201	-0.033
-648.784	74.491	-0.126	0.134
-647.770	19.921	-0.121	-0.098
-646.755	-43.252	-0.129	0.066
-645.741	667.303	-0.022	-0.056
-644.726	-150.703	0.239	0.018
-643.711	-169.833	0.121	-0.004
-642.697	-200.000	0.070	0.325
-641.682	-66.261	-0.149	0.060
-640.668	-115.219	0.448	0.086
-639.653	353.117	0.060	-0.121
-638.638	-200.000	-0.002	0.120
-637.624	800.000	0.076	-0.272
-636.609	-200.000	-0.006	0.395
-635.595	-120.738	0.246	-0.042
-634.580	199.247	0.125	0.194
-633.565	800.000	-0.078	0.281
-632.551	-83.765	-0.240	-0.077
-631.536	-67.654	-0.336	0.132
-630.522	38.740	-0.465	-0.418
-629.507	414.901	-0.089	-0.191
-628.492	73.569	-0.274	-0.288
-627.478	171.708	-0.086	0.124
-626.463	151.518	-0.136	-0.186
-625.449	143.677	0.205	-0.276
-624.434	800.000	-0.088	0.267
-623.419	-200.000	0.006	-0.053
-622.405	-200.000	0.032	-0.240
-621.390	-200.000	0.001	0.210
-620.376	-24.817	-0.057	-0.034
-619.361	-91.680	-0.094	-0.027
-618.346	-103.034	0.125	0.030
-617.332	382.904	-0.168	-0.347
-616.317	107.301	-0.276	-0.331
-615.303	58.930	-0.124	-0.123
-614.288	-200.000	-0.010	-0.180
-613.273	-200.000	-0.024	-0.449
-612.259	-200.000	0.012	-0.097
-611.244	742.559	0.048	-0.130
-610.230	-62.095	0.113	-0.047
-609.215	231.263	-0.257	0.423
-608.201	-85.373	-0.258	-0.081
-607.186	-200.000	-0.005	-0.253
-606.171	-55.404	-0.077	0.035
-605.157	-104.181	-0.213	0.050
-604.142	-65.790	-0.267	-0.107
-603.128	-32.165	-0.271	0.152
-602.113	-3.580	0.078	0.055
-601.098	-200.000	0.003	0.025
-600.084	-180.920	0.502	0.010
-599.069	2.239	0.126	0.092
-598.055	-97.129	-0.112	0.029
-597.040	776.116	-0.038	-0.104
-596.025	-78.691	-0.308	0.106
-595.011	-113.643	-0.076	0.015
-593.996	-200.000	-0.026	0.253
-592.982	-28.037	0.164	-0.095
-591.967	391.923	-0.105	0.220
-590.952	-102.418	-0.130	0.031
-589.938	585.655	-0.124	0.306
-588.923	800.000	-0.053	0.169
-587.909	-200.000	-0.001	-0.309
-586.894	353.696	-0.102	-0.203
-585.879	-179.092	0.242	0.005
-584.865	-164.168	0.385	0.018
-583.850	660.316	0.052	-0.135
-582.836	-200.000	-0.010	-0.424
-581.821	176.653	0.118	-0.172
-580.806	15.893	0.063	-0.050
-579.792	800.000	0.062	0.188
-578.777	-200.000	-0.027	-0.381
-577.763	84.271	-0.264	0.290
-576.748	-10.524	-0.131	-0.087
-575.733	26.347	0.228	0.191
-574.719	-200.000	0.061	-0.321
-573.704	267.140	0.096	0.170
-572.690	-83.699	-0.159	0.051
-571.675	-7.532	-0.312	0.212
-570.661	18.842	0.271	-0.218
-569.646	-147.955	-0.245	-0.020
-568.631	264.782	0.155	0.271
-567.617	-66.566	-0.331	0.132
-566.602	-140.496	0.289	0.030
-565.588	-130.897	0.315	-0.042
-564.573	23.009	0.247	-0.204
-563.558	800.000	-0.085	-0.298
-562.544	-10.500	0.215	-0.143
-561.529	19.289	0.139	0.112
-560.515	-88.759	-0.349	-0.104
-559.500	-159.396	0.225	-0.013
-558.485	800.000	0.017	-0.056
-557.471	-200.000	-0.043	-0.199
-556.456	-200.000	0.021	0.164
-555.442	-2.022	0.047	-0.033
-554.427	-128.144	0.186	0.027
-553.412	455.218	0.034	-0.075
-552.398	-148.705	-0.203	0.017
-551.383	-34.999	0.057	0.031
-550.369	33.060	-0.132	-0.115
-549.354	-200.000	0.069	-0.321
-548.339	800.000	0.024	0.079
-547.325	-5.558	0.036	0.025
-546.310	-51.471	-0.038	0.018
-545.296	-136.770	0.199	-0.023
-544.281	-150.801	-0.157	-0.012
-543.266	-155.272	0.068	-0.004
-542.252	-200.000	0.020	-0.132
-541.237	800.000	0.103	-0.438
-540.223	800.000	0.121	0.372
-539.208	-200.000	0.006	0.268
-538.193	298.563	-0.212	-0.392
-537.179	-61.419	0.462	-0.195
-536.164	127.363	0.036	-0.046
-535.150	-12.485	0.147	-0.096
-534.135	-113.428	0.147	0.029
-533.121	-103.154	0.296	-0.070
-532.106	-200.000	-0.010	0.113
-531.091	203.980	-0.287	0.446
-530.077	-138.796	-0.086	-0.009
-529.062	-75.229	-0.267	-0.095
-528.048	-200.000	-0.041	-0.188
-527.033	800.000	-0.076	0.233
-526.018	-101.498	-0.275	-0.067
-525.004	116.519	0.175	0.216
-523.989	-19.191	-0.183	0.114
-522.975	-200.000	-0.041	0.244
-521.960	123.039	-0.032	0.040
-520.945	-149.058	-0.193	-0.016
-519.931	68.783	0.154	-0.158
-518.916	-200.000	0.067	-0.337
-517.902	-6.187	-0.197	-0.135
-516.887	48.227	0.163	0.153
-515.872	-200.000	0.006	0.056
-514.858	797.906	0.040	0.111
-513.843	-200.000	-0.069	0.317
-512.829	82.812	0.111	0.121
-511.814	251.886	0.078	-0.133
-510.799	-59.649	-0.027	-0.012
-509.785	345.588	-0.144	0.284
-508.770	-200.000	-0.028	-0.127
-507.756	481.765	0.069	0.157
-506.741	-78.664	0.357	-0.122
-505.726	-200.000	0.020	-0.097
-504.712	110.050	-0.230	0.277
-503.697	-200.000	0.031	-0.320
-502.683	-200.000	-0.047	0.232
-501.668	-77.300	0.282	-0.098
-500.653	224.122	0.290	-0.469
-499.639	-6.325	-0.316	0.216
-498.624	183.617	0.076	-0.113
-497.610	381.657	-0.040	-0.081
-496.595	800.000	-0.045	-0.131
-495.581	-154.058	0.158	0.011
-494.566	-18.118	0.094	-0.059
-493.551	297.672	0.035	0.064
-492.537	627.964	0.033	0.083
-491.522	145.750	-0.164	0.220
-490.508	-200.000	0.054	-0.255
-489.493	-200.000	0.018	-0.397
-488.478	-173.570	-0.208	-0.006
-487.464	152.217	-0.218	0.299
-486.449	-79.184	0.226	0.077
-485.435	51.398	-0.041	-0.039
-484.420	-86.315	0.060	0.018
-483.405	-142.134	0.278	-0.028
-482.391	800.000	-0.076	0.333
-481.376	-147.141	-0.100	0.009
-480.362	-135.348	-0.140	0.017
-479.347	366.683	0.145	-0.293
-478.332	-200.000	0.036	-0.372
-477.318	-200.000	-0.029	0.159
-476.303	-58.663	0.202	-0.088
-475.289	-32.227	-0.240	0.134
-474.274	-50.290	0.239	0.113
-473.259	-47.988	0.131	-0.063
-472.245	52.260	-0.280	-0.268
-471.230	-200.000	0.045	-0.215
-470.216	-170.471	0.279	0.010
-469.201	-88.774	-0.216	0.064
-468.186	132.322	0.061	0.079
-467.172	-200.000	-0.004	0.362
-466.157	165.275	0.165	-0.234
-465.143	12.360	0.209	0.162
-464.128	-200.000	0.047	-0.323
-463.113	-92.376	0.319	-0.090
-462.099	800.000	-0.035	-0.112
-461.084	-200.000	-0.022	-0.170
-460.070	800.000	-0.071	-0.196
-459.055	-109.763	0.041	-0.009
-458.040	496.821	0.201	0.461
-457.026	-200.000	0.033	0.271
-456.011	131.683	0.206	0.265
-454.997	800.000	0.061	0.269
-453.982	-108.887	-0.210	0.045
-452.968	89.087	-0.253	0.282
-451.953	800.000	0.045	-0.192
-450.938	-200.000	-0.001	-0.090
-449.924	-4.049	0.212	-0.147
-448.909	-80.934	-0.038	0.013
-447.895	-77.631	-0.039	-0.014
-446.880	-89.072	-0.095	-0.028
-445.865	63.559	0.206	0.207
-444.851	-140.855	0.224	0.023
-443.836	-71.090	-0.365	-0.137
-442.822	-94.207	0.159	-0.044
-441.807	-182.925	-0.247	0.004
-440.792	60.598	0.130	0.128
-439.778	-200.000	0.018	0.161
-438.763	164.293	0.109	0.153
-437.749	241.460	-0.179	0.300
-436.734	246.892	0.214	0.361
-435.719	800.000	-0.106	0.300
-434.705	599.863	0.068	-0.169
-433.690	-105.452	-0.118	-0.027
-432.676	1.240	-0.043	-0.031
-431.661	-200.000	-0.028	-0.301
-430.646	-108.373	0.392	-0.085
-429.632	-200.000	0.016	0.439
-428.617	800.000	-0.044	0.148
-427.603	680.462	0.124	-0.324
-426.588	90.976	0.097	0.108
-425.573	-200.000	-0.014	-0.212
-424.559	-107.260	-0.076	-0.017
-423.544	-74.305	0.157	-0.057
-422.530	-155.559	0.393	-0.025
-421.515	-84.438	0.169	0.053
-420.500	-182.402	0.189	0.003
-419.486	-200.000	0.035	0.279
-418.471	521.172	-0.032	0.074
-417.457	-70.523	-0.053	-0.020
-416.442	-200.000	0.029	0.174
-415.428	-16.652	-0.135	0.085
-414.413	-200.000	-0.018	-0.400
-413.398	-200.000	0.005	-0.047
-412.384	-33.037	0.505	-0.280
-411.369	292.911	-0.062	0.112
-410.355	-200.000	-0.002	0.144
-409.340	-200.000	0.033	0.295
-408.325	-15.134	0.234	-0.150
-407.311	-42.859	0.109	-0.055
-406.296	-200.000	-0.001	0.115
-405.282	-196.000	-0.235	-0.002
-404.267	-124.546	0.125	-0.019
-403.252	800.000	-0.110	-0.331
-402.238	-134.364	0.093	0.011
-401.223	42.054	-0.249	-0.226
-400.209	-200.000	-0.017	0.117
-399.194	14.645	-0.343	-0.268
-398.179	-114.869	0.172	-0.033
-397.165	-200.000	0.016	0.084
-396.150	-46.747	-0.343	-0.168
-395.136	-142.644	-0.369	0.036
-394.121	-29.827	0.135	0.077
-393.106	7.193	0.222	-0.165
-392.092	-17.260	-0.064	0.041
-391.077	126.705	-0.173	-0.219
-390.063	-103.323	-0.290	0.068
-389.048	-200.000	0.032	0.478
-388.033	1.197	-0.239	0.171
-387.019	285.505	0.136	0.244
-386.004	12.579	0.299	0.230
-384.990	800.000	0.016	-0.065
-383.975	-9.690	-0.130	0.086
-382.960	-142.127	0.341	0.034
-381.946	78.874	0.047	-0.050
-380.931	107.933	-0.178	-0.211
-379.917	174.769	-0.103	-0.149
-378.902	-58.866	-0.104	0.045
-377.888	-139.603	-0.162	-0.017
-376.873	-200.000	0.042	0.248
-375.858	-148.718	0.103	-0.008
-374.844	-32.448	-0.138	-0.077
-373.829	436.239	-0.137	0.297
-372.815	-18.959	0.065	-0.040
-371.800	-126.983	-0.225	-0.033
-370.785	-200.000	-0.144	0.000
-369.771	-31.803	0.311	0.174
-368.756	-200.000	0.020	0.247
-367.742	-200.000	-0.008	-0.249
-366.727	190.686	-0.103	-0.154
-365.712	-200.000	-0.017	-0.172
-364.698	-4.600	0.116	0.080
-363.683	485.031	0.101	0.229
-362.669	-57.260	-0.048	0.021
-361.654	-30.111	0.180	0.102
-360.639	29.673	0.085	-0.072
-359.625	800.000	0.042	0.150
-358.610	-200.000	-0.034	0.193
-357.596	38.925	0.188	0.168
-356.581	-78.760	-0.218	0.074
-355.566	398.175	-0.041	-0.085
-354.552	81.177	0.205	0.220
-353.537	800.000	0.020	-0.081
-352.523	122.393	0.117	0.146
-351.508	-200.000	-0.012	0.166
-350.493	610.007	-0.036	-0.090
-349.479	125.021	-0.083	-0.104
-348.464	-200.000	0.007	-0.098
-347.450	269.853	0.111	-0.194
-346.435	-125.253	0.169	-0.026
-345.420	-162.752	0.117	0.006
-344.406	300.035	-0.253	0.464
-343.391	37.506	-0.027	-0.024
-342.377	-85.553	-0.274	-0.085
-341.362	-110.338	-0.066	0.014
-340.348	-88.210	0.140	-0.042
-339.333	-200.000	0.002	-0.170
-338.318	-200.000	0.022	-0.119
-337.304	-68.541	0.238	0.092
-336.289	-200.000	0.004	0.020
-335.275	-200.000	0.045	-0.239
-334.260	-40.690	0.132	-0.068
-333.245	478.153	-0.140	0.316
-332.231	407.430	-0.054	-0.114
-331.216	392.972	0.039	-0.080
-330.202	-119.481	-0.156	-0.027
-329.187	-137.007	-0.187	-0.021
-328.172	-179.255	-0.374	0.008
-327.158	-200.000	0.039	-0.302
-326.143	194.748	-0.162	-0.244
-325.129	-200.000	-0.016	0.159
-324.114	-192.537	0.660	-0.006
-323.099	-63.973	0.108	-0.044
-322.085	800.000	-0.070	-0.292
-321.070	1.354	0.194	0.139
-320.056	31.402	0.285	0.243
-319.041	800.000	-0.085	0.329
-318.026	-200.000	-0.006	-0.183
-317.012	44.714	-0.186	-0.170
-315.997	-38.753	0.082	-0.043
-314.983	-54.492	-0.246	-0.111
-313.968	-122.745	0.273	-0.044
-312.953	82.486	-0.333	0.360
-311.939	-96.397	0.263	-0.069
-310.924	209.399	0.150	-0.233
-309.910	-169.316	-0.343	0.013
-308.895	63.309	-0.285	0.284
-307.880	105.639	-0.089	0.105
-306.866	-200.000	-0.054	-0.460
-305.851	-62.639	-0.159	-0.066
-304.837	-200.000	0.022	-0.132
-303.822	215.232	0.057	0.090
-302.807	256.588	0.144	-0.245
-301.793	800.000	0.078	-0.248
-300.778	-200.000	-0.013	0.112
-299.764	-151.782	0.189	-0.014
-298.749	-74.054	-0.256	0.092
-297.735	800.000	0.086	0.242
-296.720	146.343	0.103	-0.137
-295.705	-120.487	-0.251	-0.042
-294.691	-35.853	-0.160	0.086
-293.676	366.172	-0.065	-0.131
-292.662	800.000	0.007	-0.028
-291.647	-25.673	0.270	0.158
-290.632	-178.454	-0.183	-0.004
-289.618	-84.189	0.101	-0.032
-288.603	-26.261	-0.321	-0.187
-287.589	154.369	-0.090	0.123
-286.574	315.530	-0.135	0.253
-285.559	494.271	-0.095	0.217
-284.545	371.903	0.091	0.184
-283.530	-200.000	-0.019	-0.176
-282.516	-200.000	0.065	0.394
-281.501	800.000	-0.058	0.197
-280.486	800.000	-0.046	0.163
-279.472	684.539	-0.045	0.116
-278.457	1.265	-0.297	0.212
-277.443	-200.000	-0.067	-0.385
-276.428	800.000	-0.078	0.213
-275.413	800.000	-0.106	0.410
-274.399	-187.417	-0.116	-0.002
-273.384	594.649	0.124	-0.305
-272.370	250.037	0.135	-0.228
-271.355	-200.000	-0.020	-0.274
-270.340	31.782	0.073	0.062
-269.326	800.000	-0.056	0.184
-268.311	-14.232	0.419	-0.269
-267.297	-69.253	-0.118	0.045
-266.282	-34.609	0.005	-0.003
-265.267	282.630	-0.178	-0.318
-264.253	800.000	-0.057	0.184
-263.238	202.977	0.187	0.287
-262.224	-107.806	-0.112	0.024
-261.209	-200.000	-0.012	-0.253
-260.195	800.000	-0.066	0.251
-259.180	-59.723	-0.125	-0.053
-258.165	-111.317	-0.114	-0.023
-257.151	87.291	0.090	0.098
-256.136	75.031	-0.147	-0.154
-255.122	781.916	-0.174	0.472
-254.107	-200.000	-0.023	-0.114
-253.092	-42.422	-0.302	-0.153
-252.078	-200.000	0.048	0.335
-251.063	-129.875	0.224	-0.031
-250.049	110.059	0.139	-0.166
-249.034	-200.000	-0.003	-0.032
-248.019	-200.000	-0.052	0.281
-247.005	-111.058	0.211	0.043
-245.990	800.000	0.078	-0.227
-244.976	-200.000	0.051	0.316
-243.961	-200.000	0.025	0.147
-242.946	800.000	-0.031	-0.108
-241.932	570.805	-0.063	0.152
-240.917	-200.000	0.003	-0.193
-239.903	202.044	-0.098	0.149
-238.888	-42.859	-0.158	-0.080
-237.873	-200.000	-0.047	0.312
-236.859	-200.000	-0.072	0.329
-235.844	-88.373	0.450	0.133
-234.830	12.062	-0.116	-0.089
-233.815	779.423	0.021	0.056
-232.800	-138.034	-0.227	-0.025
-231.786	-28.192	-0.205	0.117
-230.771	11.565	0.328	0.250
-229.757	468.534	-0.114	0.253
-228.742	800.000	0.073	0.216
-227.727	411.007	0.015	-0.032
-226.713	749.502	-0.097	-0.259
-225.698	62.921	0.084	0.083
-224.684	-13.804	-0.144	0.092
-223.669	599.971	-0.098	-0.240
-222.655	800.000	0.073	0.223
-221.640	65.785	-0.214	0.215
-220.625	-179.143	-0.516	-0.011
-219.611	50.107	-0.155	-0.145
-218.596	-76.337	0.303	0.106
-217.582	704.845	0.084	-0.220
-216.567	117.869	0.154	-0.188
-215.552	-64.908	0.209	0.084
-214.538	43.957	0.183	-0.166
-213.523	181.660	0.147	-0.214
-212.509	-39.953	0.156	0.081
-211.494	-96.223	0.186	0.049
-210.479	255.437	0.139	-0.235
-209.465	-14.788	-0.228	-0.145
-208.450	-128.005	-0.062	-0.009
-207.436	301.428	-0.043	-0.079
-206.421	-200.000	0.005	0.079
-205.406	-200.000	-0.012	-0.082
-204.392	800.000	-0.017	-0.062
-203.377	-34.838	-0.076	-0.041
-202.363	-90.565	0.250	-0.072
-201.348	-90.138	-0.160	0.046
-200.333	-49.019	0.195	0.093
-199.319	-129.374	-0.089	0.012
-198.304	9.905	-0.151	0.113
-197.290	-0.893	-0.143	0.100
-196.275	44.228	-0.154	0.140
-195.260	36.439	-0.046	0.040
-194.246	-200.000	0.029	0.220
-193.231	-46.488	0.147	-0.072
-192.217	800.000	-0.083	-0.287
-191.202	57.906	-0.122	0.118
-190.187	12.222	0.145	0.111
-189.173	-58.915	0.151	0.065
-188.158	134.295	0.047	0.060
-187.144	301.970	-0.086	0.157
-186.129	28.261	0.252	-0.211
-185.114	-36.881	-0.105	-0.056
-184.100	189.380	-0.187	-0.277
-183.085	-172.158	0.193	0.006
-182.071	59.251	-0.023	-0.023
-181.056	63.738	0.162	-0.161
-180.042	-112.967	-0.330	-0.065
-179.027	-54.796	-0.070	-0.031
-178.012	170.315	0.206	0.291
-176.998	105.265	0.166	0.194
-175.983	-25.171	0.050	-0.030
-174.969	-200.000	0.020	0.142
-173.954	353.092	-0.165	0.324
-172.939	-200.000	-0.012	-0.075
-171.925	-200.000	0.003	0.137
-170.910	-139.286	0.137	0.015
-169.896	71.514	0.098	0.101
-168.881	-200.000	0.009	-0.048
-167.866	115.112	0.228	0.275
-166.852	-44.106	0.237	-0.118
-165.837	152.978	-0.116	-0.157
-164.823	391.884	-0.172	-0.352
-163.808	800.000	-0.147	-0.555
-162.793	788.704	-0.022	0.059
-161.779	-97.001	-0.202	0.052
-160.764	800.000	-0.094	-0.309
-159.750	-200.000	0.015	-0.279
-158.735	-93.687	-0.126	-0.034
-157.720	-200.000	0.009	-0.313
-156.706	-200.000	-0.032	-0.210
-155.691	654.382	0.125	-0.316
-154.677	162.725	0.110	-0.153
-153.662	-114.048	-0.118	0.023
-152.647	748.339	0.075	0.199
-151.633	117.364	0.048	-0.058
-150.618	-113.822	-0.028	0.005
-149.604	102.817	0.159	-0.184
-148.589	19.975	0.213	0.170
-147.574	455.482	0.042	0.092
-146.560	-119.081	-0.116	0.020
-145.545	-39.873	0.157	0.081
-144.531	-68.869	0.058	0.022
-143.516	-116.396	0.263	0.048
-142.502	-200.000	0.028	-0.207
-141.487	-73.656	-0.578	-0.208
-140.472	-137.862	0.143	0.016
-139.458	50.167	-0.164	-0.153
-138.443	-200.000	0.023	0.211
-137.429	-200.000	0.011	0.138
-136.414	800.000	-0.015	-0.047
-135.399	-164.734	0.383	-0.017
-134.385	-125.764	0.269	-0.040
-133.370	173.492	-0.120	0.171
-132.356	800.000	0.046	-0.179
-131.341	49.426	0.230	-0.214
-130.326	-24.105	0.117	0.069
-129.312	-200.000	0.017	0.149
-128.297	-200.000	0.018	0.161
-127.283	81.530	0.231	0.247
-126.268	6.771	-0.106	0.078
-125.253	-91.076	-0.290	0.082
-124.239	114.852	0.042	0.050
-123.224	-109.655	-0.200	-0.042
