DTS Sentinel unit serial number:	SN413079Multiplexer serial number:	ORYXHardware model number:	OX4-SRSoftware version number:	ORYX F/W v4.00 Oryx Data Collector v3.7.2.0data status	okinstallation	princeton_trtdifferential loss correction	single-endedforward channel	channel 4reverse channel	N/Adate	2019/09/14time	18:45:35forward acquisition time	60.00reverse acquisition time	0.00gamma	496.2192k internal	0.2300k external	0.2300temperature offset calibration	1.0103default loss term (dB/km)	0.3790temperature slope calibration	1.0000multiplexer offset coefficient	1.0000multiplexer slope coefficient	1.0000fibre end	0.00T internal ref (°C)	36.12T ext. ref 1 (°C)	4.91T ext. ref 2 (°C)	29.85length (m)	temperature (°C)	Stokes	anti-Stokes-747.200	487.002	-0.121	-0.281
-746.185	-102.643	-0.300	0.073
-745.171	800.000	0.064	0.240
-744.156	168.190	-0.139	0.201
-743.142	800.000	-0.118	-0.331
-742.127	-150.333	-0.204	-0.016
-741.112	-39.930	0.119	-0.063
-740.098	86.071	0.160	0.179
-739.083	185.764	0.139	-0.210
-738.069	-200.000	0.019	0.449
-737.054	800.000	0.051	0.181
-736.039	-17.897	-0.171	0.109
-735.025	-200.000	0.042	0.409
-734.010	-87.634	-0.199	0.061
-732.996	-200.000	-0.057	-0.380
-731.981	-70.322	0.329	0.127
-730.966	-142.448	-0.251	-0.025
-729.952	495.502	-0.173	-0.406
-728.937	800.000	-0.043	-0.173
-727.923	800.000	-0.084	-0.247
-726.908	-200.000	0.010	0.054
-725.894	-3.179	-0.267	-0.190
-724.879	28.554	-0.139	-0.119
-723.864	101.759	0.094	0.112
-722.850	-91.096	0.213	0.062
-721.835	-41.222	-0.131	-0.069
-720.821	242.993	-0.142	0.242
-719.806	-105.379	-0.399	-0.093
-718.791	581.899	0.083	-0.207
-717.777	-134.393	-0.328	-0.041
-716.762	154.956	0.215	0.302
-715.748	93.477	0.268	-0.309
-714.733	-41.025	-0.100	0.052
-713.718	-35.415	-0.271	-0.150
-712.704	-6.089	0.124	0.087
-711.689	-26.958	0.533	0.317
-710.675	681.771	0.117	-0.310
-709.660	25.138	-0.299	-0.253
-708.645	546.851	-0.054	0.132
-707.631	242.394	0.140	0.239
-706.616	569.936	0.066	-0.164
-705.602	-31.471	-0.231	0.132
-704.587	-3.310	-0.502	-0.356
-703.572	-106.664	0.110	0.025
-702.558	43.084	0.167	0.155
-701.543	-8.206	-0.170	-0.117
-700.529	261.997	0.077	0.135
-699.514	-114.510	0.075	-0.015
-698.499	268.127	-0.117	-0.208
-697.485	114.643	0.038	0.047
-696.470	25.512	-0.299	0.253
-695.456	-12.680	-0.357	0.237
-694.441	-200.000	0.032	-0.363
-693.426	175.004	-0.143	-0.211
-692.412	-200.000	0.064	-0.503
-691.397	-44.330	0.180	0.092
-690.383	348.615	0.026	0.053
-689.368	123.582	-0.100	-0.127
-688.354	131.218	-0.120	-0.157
-687.339	66.854	0.131	0.136
-686.324	-156.790	0.295	-0.018
-685.310	800.000	-0.037	-0.135
-684.295	-23.278	0.397	-0.243
-683.281	-13.044	-0.293	-0.194
-682.266	91.116	-0.092	-0.105
-681.251	-113.437	-0.327	0.065
-680.237	283.422	0.054	-0.098
-679.222	-97.600	-0.449	0.118
-678.208	374.521	-0.030	0.062
-677.193	-65.937	0.180	-0.073
-676.178	-99.645	0.376	0.096
-675.164	123.835	0.234	0.299
-674.149	297.236	0.107	0.199
-673.135	-159.095	0.160	-0.009
-672.120	-200.000	0.006	0.045
-671.105	154.772	-0.062	0.086
-670.091	-57.881	-0.233	0.104
-669.076	-200.000	-0.076	-0.456
-668.062	-189.195	0.324	0.004
-667.047	81.202	-0.101	-0.111
-666.032	-108.852	-0.302	0.066
-665.018	-45.062	0.251	-0.127
-664.003	64.514	0.223	-0.228
-662.989	54.955	-0.087	0.085
-661.974	-163.750	-0.309	0.015
-660.959	-158.804	-0.146	0.008
-659.945	390.579	-0.114	-0.240
-658.930	-19.832	0.060	0.038
-657.916	45.229	0.052	-0.049
-656.901	800.000	0.009	0.026
-655.886	800.000	0.045	0.158
-654.872	620.194	-0.086	-0.219
-653.857	-200.000	-0.004	0.251
-652.843	-112.232	-0.295	-0.060
-651.828	138.897	0.188	-0.250
-650.814	800.000	-0.001	0.005
-649.799	342.741	-0.102	0.203
-648.784	-200.000	-0.008	0.229
-647.770	-61.286	-0.041	-0.018
-646.755	-143.842	-0.181	-0.017
-645.741	-98.462	0.291	-0.076
-644.726	452.998	0.072	-0.161
-643.711	-89.227	-0.299	0.090
-642.697	800.000	-0.075	-0.294
-641.682	-75.142	0.100	-0.036
-640.668	-200.000	0.039	-0.349
-639.653	27.099	-0.123	-0.105
-638.638	128.548	0.211	0.273
-637.624	-25.609	-0.141	-0.085
-636.609	-15.567	-0.366	-0.237
-635.595	242.611	-0.040	0.068
-634.580	-7.420	-0.473	-0.325
-633.565	800.000	-0.092	0.262
-632.551	-200.000	-0.002	-0.158
-631.536	-58.216	-0.165	-0.073
-630.522	-200.000	0.047	0.292
-629.507	-200.000	-0.014	0.174
-628.492	-9.353	-0.076	0.052
-627.478	-200.000	-0.010	-0.241
-626.463	-28.266	-0.232	0.136
-625.449	800.000	0.030	0.117
-624.434	-200.000	0.015	0.160
-623.419	-66.984	0.171	0.068
-622.405	54.310	-0.104	-0.101
-621.390	-27.538	-0.275	0.162
-620.376	-109.551	-0.131	0.028
-619.361	-200.000	0.009	-0.066
-618.346	220.920	0.155	-0.253
-617.332	-28.135	0.156	-0.092
-616.317	-42.613	-0.104	0.054
-615.303	800.000	0.021	-0.061
-614.288	-172.091	0.122	-0.004
-613.273	-51.494	-0.137	-0.065
-612.259	800.000	-0.053	-0.202
-611.244	-29.149	-0.145	0.084
-610.230	-200.000	-0.020	0.192
-609.215	800.000	0.095	-0.286
-608.201	-200.000	-0.005	-0.405
-607.186	-32.784	0.308	-0.174
-606.171	-149.587	0.346	0.028
-605.157	641.494	0.055	0.143
-604.142	-33.933	0.132	-0.074
-603.128	-48.755	-0.137	-0.067
-602.113	93.946	0.039	0.045
-601.098	292.190	0.103	-0.191
-600.084	-200.000	-0.004	0.293
-599.069	-114.378	-0.370	-0.072
-598.055	0.159	-0.288	0.208
-597.040	158.094	-0.059	-0.083
-596.025	-40.826	-0.219	0.115
-595.011	10.824	-0.203	0.157
-593.996	-162.124	0.084	-0.004
-592.982	648.300	-0.040	-0.104
-591.967	-59.213	0.134	-0.059
-590.952	-57.003	-0.280	-0.125
-589.938	45.983	0.146	0.137
-588.923	70.185	-0.140	-0.146
-587.909	-150.262	0.473	-0.037
-586.894	800.000	0.067	0.292
-585.879	-40.937	0.282	-0.148
-584.865	800.000	0.082	0.350
-583.850	642.897	-0.028	0.071
-582.836	800.000	0.059	0.221
-581.821	292.330	-0.115	-0.212
-580.806	-61.674	-0.085	0.036
-579.792	-6.853	-0.204	0.141
-578.777	-200.000	-0.001	0.253
-577.763	-137.239	-0.188	-0.022
-576.748	-127.692	-0.056	-0.008
-575.733	-161.998	0.235	-0.012
-574.719	675.698	-0.127	-0.334
-573.704	58.686	-0.082	0.082
-572.690	8.672	0.187	0.143
-571.675	249.687	-0.031	0.053
-570.661	6.451	0.087	-0.066
-569.646	1.344	0.172	0.125
-568.631	352.059	-0.055	0.110
-567.617	800.000	-0.067	-0.273
-566.602	60.890	0.098	-0.098
-565.588	-200.000	0.003	-0.527
-564.573	145.015	0.079	-0.107
-563.558	47.635	0.312	-0.294
-562.544	17.926	0.030	-0.024
-561.529	48.982	0.340	0.324
-560.515	429.142	-0.081	0.178
-559.500	108.994	-0.165	-0.200
-558.485	-159.199	0.482	0.027
-557.471	26.182	0.172	-0.145
-556.456	-131.809	-0.153	0.020
-555.442	79.780	-0.041	0.045
-554.427	-28.321	-0.158	0.093
-553.412	-83.002	0.279	0.091
-552.398	-22.416	-0.215	0.132
-551.383	29.003	-0.240	0.206
-550.369	262.274	0.038	-0.067
-549.354	-200.000	-0.054	-0.383
-548.339	-28.383	0.082	0.048
-547.325	-200.000	0.008	0.140
-546.310	-200.000	0.021	-0.727
-545.296	-13.131	0.096	-0.063
-544.281	36.582	-0.242	-0.216
-543.266	-165.659	-0.250	-0.011
-542.252	-14.482	0.240	0.156
-541.237	800.000	0.073	0.289
-540.223	-35.122	0.120	-0.066
-539.208	-115.599	-0.266	0.051
-538.193	351.131	-0.037	0.074
-537.179	-108.760	0.487	0.106
-536.164	394.274	0.053	-0.112
-535.150	-111.846	0.248	0.051
-534.135	-115.250	-0.323	0.062
-533.121	130.790	0.148	-0.193
-532.106	-48.904	0.320	0.155
-531.091	-29.345	0.166	-0.096
-530.077	511.177	-0.088	-0.208
-529.062	-99.389	-0.065	0.017
-528.048	-123.140	-0.224	0.036
-527.033	-200.000	0.069	-0.429
-526.018	47.117	0.179	0.168
-525.004	33.055	-0.127	0.111
-523.989	-54.633	0.356	0.163
-522.975	-48.512	-0.269	-0.131
-521.960	523.988	0.090	0.213
-520.945	-126.708	-0.151	-0.023
-519.931	41.065	0.217	-0.198
-518.916	266.845	0.168	-0.297
-517.902	-126.148	-0.289	-0.044
-516.887	754.761	0.079	-0.216
-515.872	-200.000	0.023	-0.493
-514.858	158.460	0.201	0.281
-513.843	-48.438	-0.259	0.126
-512.829	-85.144	-0.211	-0.067
-511.814	-174.304	0.342	0.010
-510.799	-200.000	-0.032	0.304
-509.785	35.487	0.276	-0.244
-508.770	-0.289	0.116	-0.083
-507.756	264.637	0.071	-0.125
-506.741	-100.605	-0.345	-0.086
-505.726	800.000	0.069	-0.254
-504.712	-139.893	0.398	0.043
-503.697	-109.792	-0.086	0.018
-502.683	-75.581	0.026	-0.009
-501.668	314.383	-0.096	-0.183
-500.653	-109.920	0.024	-0.005
-499.639	-200.000	0.005	0.239
-498.624	395.656	0.139	0.293
-497.610	-84.844	0.315	-0.100
-496.595	-23.467	-0.159	-0.097
-495.581	-51.544	0.440	-0.208
-494.566	52.629	0.101	0.098
-493.551	391.234	0.109	0.229
-492.537	29.288	-0.091	-0.078
-491.522	-148.126	0.214	0.018
-490.508	755.194	0.016	-0.043
-489.493	-141.236	0.306	0.031
-488.478	-3.297	-0.212	0.149
-487.464	-113.178	-0.424	-0.084
-486.449	-64.750	-0.086	-0.035
-485.435	-12.356	0.132	-0.087
-484.420	-200.000	0.001	0.051
-483.405	-181.966	-0.491	0.009
-482.391	-43.476	0.088	-0.045
-481.376	800.000	-0.033	0.092
-480.362	268.684	-0.109	-0.194
-479.347	-161.024	-0.172	0.009
-478.332	-13.123	0.206	-0.135
-477.318	-200.000	0.022	-0.151
-476.303	201.758	0.096	-0.149
-475.289	471.182	0.102	0.232
-474.274	4.235	-0.287	-0.212
-473.259	5.264	-0.108	0.080
-472.245	-200.000	-0.017	0.200
-471.230	207.014	-0.040	0.063
-470.216	-50.210	-0.469	-0.224
-469.201	800.000	-0.004	0.014
-468.186	-166.682	0.195	-0.008
-467.172	-53.818	-0.118	0.054
-466.157	64.078	0.097	-0.099
-465.143	405.279	-0.108	-0.230
-464.128	659.980	0.034	-0.089
-463.113	-200.000	-0.008	-0.129
-462.099	-24.873	0.056	0.034
-461.084	117.786	0.060	0.075
-460.070	24.529	0.084	0.070
-459.055	168.509	0.124	-0.178
-458.040	-78.917	0.239	-0.082
-457.026	-2.661	-0.301	0.213
-456.011	-200.000	0.001	-0.162
-454.997	-66.909	0.209	-0.083
-453.982	-73.535	-0.215	-0.079
-452.968	800.000	0.049	0.159
-451.953	800.000	-0.067	0.217
-450.938	-200.000	0.022	-0.315
-449.924	-158.117	0.098	0.006
-448.909	-38.221	0.101	-0.054
-447.895	256.398	-0.151	-0.261
-446.880	-154.941	0.234	-0.016
-445.865	-68.777	-0.135	0.053
-444.851	-84.664	0.059	-0.019
-443.836	-116.988	-0.114	-0.021
-442.822	-200.000	0.049	0.428
-441.807	2.623	0.200	-0.146
-440.792	-200.000	-0.057	-0.279
-439.778	80.332	0.094	-0.102
-438.763	-200.000	-0.037	0.334
-437.749	-134.777	-0.043	0.005
-436.734	-55.332	0.188	-0.085
-435.719	800.000	-0.096	0.416
-434.705	356.020	-0.107	0.214
-433.690	-33.408	0.337	0.188
-432.676	172.691	-0.177	0.257
-431.661	-76.625	-0.251	-0.089
-430.646	-24.202	0.345	0.207
-429.632	-177.734	0.360	0.009
-428.617	-65.186	-0.346	0.140
-427.603	250.281	-0.014	-0.024
-426.588	-200.000	0.074	-0.553
-425.573	-3.436	-0.172	0.121
-424.559	-200.000	-0.027	-0.280
-423.544	147.650	-0.148	0.201
-422.530	-45.139	-0.190	-0.095
-421.515	-110.938	-0.451	-0.093
-420.500	665.622	0.077	0.199
-419.486	-72.664	0.327	-0.122
-418.471	83.157	0.232	0.254
-417.457	179.031	0.190	-0.280
-416.442	81.069	-0.295	-0.321
-415.428	213.265	0.027	-0.043
-414.413	-200.000	-0.033	0.331
-413.398	-48.809	-0.042	0.020
-412.384	171.423	-0.048	0.069
-411.369	117.701	0.152	0.189
-410.355	800.000	0.048	-0.141
-409.340	-200.000	-0.012	0.179
-408.325	800.000	-0.042	0.127
-407.311	800.000	0.103	0.375
-406.296	-1.669	-0.366	-0.259
-405.282	-47.509	0.061	0.030
-404.267	173.246	0.242	-0.351
-403.252	-85.823	0.450	-0.140
-402.238	336.438	-0.167	-0.327
-401.223	-45.133	0.269	0.135
-400.209	-172.362	-0.165	-0.005
-399.194	-153.402	-0.265	0.019
-398.179	-59.387	-0.294	-0.127
-397.165	-127.643	-0.411	-0.060
-396.150	3.794	-0.258	0.190
-395.136	-26.804	-0.261	-0.153
-394.121	-92.804	0.278	-0.078
-393.106	476.578	-0.148	0.335
-392.092	-18.673	0.192	0.120
-391.077	14.689	-0.044	-0.035
-390.063	800.000	0.122	0.386
-389.048	606.887	-0.124	-0.311
-388.033	-200.000	0.019	-0.166
-387.019	-200.000	0.018	0.205
-386.004	207.675	0.041	-0.064
-384.990	475.325	-0.101	0.228
-383.975	192.660	0.069	0.105
-382.960	-179.314	-0.219	-0.005
-381.946	-14.607	0.060	0.039
-380.931	125.641	0.200	0.254
-379.917	369.285	-0.071	-0.144
-378.902	-131.467	-0.165	0.022
-377.888	-92.418	-0.205	-0.058
-376.873	-200.000	-0.008	-0.496
-375.858	373.457	0.124	-0.255
-374.844	465.998	-0.134	0.303
-373.829	-50.217	0.302	0.144
-372.815	-85.146	0.309	0.097
-371.800	-129.197	-0.291	-0.041
-370.785	66.637	-0.187	-0.191
-369.771	-200.000	0.037	-0.193
-368.756	181.473	0.115	-0.170
-367.742	-69.128	0.088	-0.034
-366.727	78.444	0.155	0.167
-365.712	62.853	-0.162	0.163
-364.698	450.419	0.055	0.122
-363.683	467.363	-0.108	0.244
-362.669	-200.000	0.013	-0.076
-361.654	-57.628	0.192	0.085
-360.639	-200.000	0.033	-0.456
-359.625	-126.862	-0.262	0.039
-358.610	87.511	0.070	-0.078
-357.596	-97.334	-0.111	0.029
-356.581	-200.000	-0.032	0.156
-355.566	382.336	0.061	-0.126
-354.552	-46.589	0.170	-0.084
-353.537	-200.000	-0.050	0.228
-352.523	180.243	-0.079	-0.116
-351.508	-75.068	0.236	-0.085
-350.493	522.732	0.184	0.434
-349.479	800.000	0.082	0.230
-348.464	239.575	-0.121	0.203
-347.450	-189.565	0.097	-0.001
-346.435	-127.397	-0.221	-0.032
-345.420	161.004	0.180	0.252
-344.406	800.000	-0.062	0.211
-343.391	282.904	-0.068	0.122
-342.377	-200.000	-0.006	0.154
-341.362	-33.054	-0.126	-0.070
-340.348	37.278	-0.084	-0.075
-339.333	247.384	0.225	-0.382
-338.318	676.164	-0.106	-0.278
-337.304	-151.678	0.233	0.017
-336.289	-74.251	0.240	0.087
-335.275	-115.281	-0.495	-0.094
-334.260	52.506	-0.170	-0.163
-333.245	662.414	-0.047	-0.121
-332.231	-174.442	-0.097	-0.003
-331.216	404.095	-0.213	0.450
-330.202	29.628	0.143	0.122
-329.187	-157.774	-0.153	0.009
-328.172	-188.891	0.245	0.003
-327.158	-83.890	0.085	-0.027
-326.143	-200.000	0.227	-0.001
-325.129	54.366	0.166	-0.161
-324.114	-200.000	0.042	0.192
-323.099	-200.000	-0.025	0.117
-322.085	448.897	0.082	0.182
-321.070	-200.000	0.116	0.638
-320.056	-13.061	-0.155	0.101
-319.041	-18.531	0.245	-0.153
-318.026	24.037	-0.037	0.030
-317.012	385.703	-0.027	0.055
-315.997	219.354	0.068	0.109
-314.983	800.000	0.028	0.083
-313.968	-140.553	-0.269	0.028
-312.953	-176.341	-0.435	-0.011
-311.939	-18.482	-0.081	0.051
-310.924	217.626	-0.109	-0.174
-309.910	82.961	0.063	-0.069
-308.895	-130.801	0.095	-0.013
-307.880	-144.911	-0.602	-0.055
-306.866	800.000	0.103	0.293
-305.851	-154.697	-0.022	-0.001
-304.837	6.996	0.198	0.148
-303.822	51.297	-0.199	-0.189
-302.807	-110.824	0.079	0.016
-301.793	-68.901	-0.054	-0.021
-300.778	82.455	0.187	-0.204
-299.764	-180.937	-0.080	-0.002
-298.749	-47.331	0.047	0.023
-297.735	27.660	0.167	0.141
-296.720	-200.000	-0.038	-0.226
-295.705	-11.600	0.211	-0.139
-294.691	800.000	-0.030	0.117
-293.676	162.979	-0.052	-0.073
-292.662	663.079	-0.045	0.115
-291.647	-121.115	-0.258	0.043
-290.632	-200.000	0.002	-0.010
-289.618	428.846	0.010	-0.021
-288.603	155.912	0.175	0.241
-287.589	-34.234	-0.109	0.060
-286.574	-49.342	0.175	0.084
-285.559	5.505	0.071	-0.052
-284.545	31.298	-0.164	0.141
-283.530	68.000	-0.049	0.051
-282.516	-22.607	0.246	-0.149
-281.501	-81.219	-0.163	0.054
-280.486	-200.000	0.029	0.271
-279.472	-42.738	0.101	-0.051
-278.457	800.000	0.107	-0.336
-277.443	13.784	0.221	0.172
-276.428	337.860	0.155	0.302
-275.413	6.386	-0.120	0.089
-274.399	-40.988	0.183	0.095
-273.384	-200.000	0.008	-0.301
-272.370	-103.085	0.248	-0.059
-271.355	800.000	-0.026	-0.077
-270.340	-140.278	0.032	-0.003
-269.326	-21.594	0.199	0.122
-268.311	654.077	-0.072	0.185
-267.297	800.000	-0.018	-0.051
-266.282	318.520	-0.057	-0.109
-265.267	-168.285	0.184	-0.007
-264.253	299.336	0.107	0.196
-263.238	352.032	-0.119	-0.236
-262.224	-78.690	0.063	0.021
-261.209	-128.044	-0.195	0.028
-260.195	-69.899	0.276	-0.106
-259.180	-200.000	0.047	0.218
-258.165	800.000	0.040	0.118
-257.151	-8.754	-0.089	-0.060
-256.136	721.192	0.210	-0.560
-255.122	73.571	0.214	0.224
-254.107	-33.885	0.402	-0.222
-253.092	116.707	-0.105	-0.129
-252.078	800.000	-0.084	0.355
-251.063	-15.468	0.171	0.109
-250.049	-27.491	-0.258	0.150
-249.034	18.789	-0.205	0.164
-248.019	337.281	0.046	-0.090
-247.005	-121.134	-0.250	-0.042
-245.990	-200.000	-0.031	0.224
-244.976	59.798	0.163	0.161
-243.961	176.459	-0.096	-0.139
-242.946	-144.325	-0.269	0.025
-241.932	-200.000	-0.005	-0.195
-240.917	-54.319	-0.020	0.009
-239.903	-26.889	-0.269	-0.157
-238.888	800.000	-0.060	0.222
-237.873	125.162	-0.057	-0.072
-236.859	-15.043	0.126	-0.081
-235.844	-121.693	0.223	0.037
-234.830	-200.000	0.068	0.447
-233.815	-200.000	-0.030	0.266
-232.800	290.725	-0.081	0.148
-231.786	800.000	0.080	0.227
-230.771	-82.372	0.318	0.103
-229.757	-95.005	-0.149	0.040
-228.742	-50.713	0.090	0.043
-227.727	-105.056	-0.050	0.011
-226.713	-200.000	0.010	-0.109
-225.698	456.345	0.154	-0.342
-224.684	-80.637	0.192	0.064
-223.669	800.000	0.102	-0.308
-222.655	-91.700	-0.294	0.084
-221.640	-140.013	0.384	-0.040
-220.625	-14.576	0.069	-0.044
-219.611	-118.856	-0.227	-0.040
-218.596	57.670	0.116	0.113
-217.582	-11.059	0.084	0.055
-216.567	372.935	-0.055	0.112
-215.552	-200.000	0.021	0.203
-214.538	800.000	0.066	0.196
-213.523	-200.000	0.004	0.054
-212.509	61.663	-0.172	0.171
-211.494	800.000	-0.018	0.054
-210.479	-48.107	0.272	-0.131
-209.465	-89.402	0.276	-0.081
-208.450	227.515	0.117	0.190
-207.436	58.896	-0.276	-0.271
-206.421	228.270	0.213	0.347
-205.406	-167.799	-0.254	0.010
-204.392	39.673	0.019	0.017
-203.377	-200.000	-0.070	-0.313
-202.363	800.000	-0.086	-0.360
-201.348	-200.000	0.018	0.183
-200.333	329.072	0.039	0.075
-199.319	800.000	-0.040	0.135
-198.304	16.459	-0.212	-0.167
-197.290	800.000	-0.057	0.202
-196.275	800.000	-0.066	0.278
-195.260	117.730	0.145	-0.178
-194.246	-31.748	0.078	-0.043
-193.231	-41.297	-0.208	0.107
-192.217	-113.016	0.438	0.086
-191.202	77.522	0.157	0.167
-190.187	-144.220	0.053	0.005
-189.173	-200.000	0.018	-0.545
-188.158	356.911	-0.022	0.043
-187.144	-101.547	-0.479	0.116
-186.129	-94.337	-0.570	-0.155
-185.114	800.000	-0.052	0.223
-184.100	275.580	0.067	-0.118
-183.085	-190.811	-0.107	-0.001
-182.071	-118.989	0.125	-0.022
-181.056	114.325	0.181	0.220
-180.042	-200.000	-0.094	-0.446
-179.027	-138.928	-0.183	-0.020
-178.012	221.654	-0.115	0.185
-176.998	800.000	-0.110	-0.382
-175.983	123.394	0.166	-0.208
-174.969	-200.000	-0.006	-0.122
-173.954	80.653	-0.196	-0.211
-172.939	46.159	0.295	-0.273
-171.925	-80.719	0.162	0.054
-170.910	-39.194	0.094	0.049
-169.896	-33.296	-0.085	0.047
-168.881	-26.263	-0.335	0.196
-167.866	364.910	0.036	0.071
-166.852	-68.666	-0.263	-0.101
-165.837	248.317	-0.113	0.191
-164.823	103.107	-0.109	0.128
-163.808	287.176	0.050	0.091
-162.793	-125.935	-0.410	0.062
-161.779	-115.822	0.052	0.010
-160.764	25.891	-0.135	0.112
-159.750	574.114	0.147	-0.358
-158.735	-33.722	0.137	-0.075
-157.720	-2.017	-0.076	-0.053
-156.706	-25.419	0.213	0.126
-155.691	-2.606	-0.055	0.039
-154.677	736.234	-0.036	-0.097
-153.662	-62.576	0.180	0.074
-152.647	-138.991	-0.257	-0.028
-151.633	-200.000	-0.048	-0.276
-150.618	-45.162	0.131	-0.065
-149.604	544.741	-0.029	0.069
-148.589	-103.376	-0.086	-0.020
-147.574	-129.044	-0.167	-0.023
-146.560	-190.490	0.214	-0.002
-145.545	-43.592	0.115	0.058
-144.531	-200.000	0.004	-0.028
-143.516	-90.311	0.383	0.111
-142.502	-200.000	-0.002	0.255
-141.487	1.492	0.267	-0.191
-140.472	-200.000	0.012	-0.100
-139.458	-176.398	-0.138	0.004
-138.443	-48.888	0.185	-0.088
-137.429	-200.000	0.008	-0.143
-136.414	100.204	0.185	-0.213
-135.399	-200.000	-0.025	0.109
-134.385	-31.298	0.133	-0.074
-133.370	196.109	0.213	-0.323
-132.356	-104.746	0.160	-0.037
-131.341	-96.778	-0.185	0.048
-130.326	-57.565	0.180	0.079
-129.312	-54.059	0.353	0.160
-128.297	800.000	-0.049	-0.201
-127.283	101.593	0.149	-0.172
-126.268	800.000	-0.042	-0.170
-125.253	800.000	-0.056	0.175
-124.239	800.000	0.024	0.097
-123.224	-37.241	-0.247	0.131
-122.210	10.560	-0.235	0.178
-121.195	61.814	-0.269	0.266
