DTS Sentinel unit serial number:	SN413079Multiplexer serial number:	ORYXHardware model number:	OX4-SRSoftware version number:	ORYX F/W v4.00 Oryx Data Collector v3.7.2.0data status	okinstallation	princeton_trtdifferential loss correction	single-endedforward channel	channel 4reverse channel	N/Adate	2019/09/12time	20:04:19forward acquisition time	15.00reverse acquisition time	0.00gamma	496.2192k internal	0.2310k external	0.2310temperature offset calibration	1.0151default loss term (dB/km)	0.3790temperature slope calibration	1.0000multiplexer offset coefficient	1.0000multiplexer slope coefficient	1.0000fibre end	0.00T internal ref (°C)	31.69T ext. ref 1 (°C)	3.39T ext. ref 2 (°C)	26.19length (m)	temperature (°C)	Stokes	anti-Stokes-747.200	-13.400	-0.203	0.134
-746.185	625.923	0.045	-0.115
-745.171	276.580	-0.034	0.061
-744.156	75.017	-0.363	0.388
-743.142	110.518	-0.245	-0.299
-742.127	123.043	-0.114	0.145
-741.112	298.404	0.145	0.271
-740.098	-200.000	0.096	-0.621
-739.083	72.953	0.446	0.473
-738.069	-144.053	-0.657	-0.063
-737.054	-69.730	-0.551	-0.214
-736.039	-200.000	-0.074	-0.986
-735.025	100.034	0.250	-0.294
-734.010	-84.884	-1.366	-0.435
-732.996	-26.512	-0.712	0.423
-731.981	-102.857	-1.147	-0.277
-730.966	-200.000	0.119	-0.990
-729.952	-200.000	-0.028	0.488
-728.937	75.898	0.231	-0.248
-727.923	-200.000	-0.007	0.406
-726.908	144.821	0.431	-0.585
-725.894	800.000	-0.186	-0.568
-724.879	126.310	-0.074	0.095
-723.864	-14.141	-0.649	0.425
-722.850	800.000	0.149	0.562
-721.835	-200.000	0.071	-0.419
-720.821	-63.478	-0.244	0.102
-719.806	54.579	0.439	-0.429
-718.791	191.867	0.143	-0.219
-717.777	45.676	-0.476	0.446
-716.762	216.728	0.327	-0.528
-715.748	-200.000	0.022	-0.164
-714.733	95.171	0.428	-0.495
-713.718	-88.749	-0.160	-0.048
-712.704	-200.000	-0.049	-0.736
-711.689	350.751	0.096	0.192
-710.675	-48.762	-0.197	-0.096
-709.660	156.660	0.275	0.385
-708.645	800.000	-0.238	0.741
-707.631	151.596	-0.777	1.073
-706.616	128.785	0.043	-0.056
-705.602	368.333	0.103	0.212
-704.587	-134.201	-0.305	-0.038
-703.572	64.843	0.242	0.248
-702.558	-200.000	0.074	-0.465
-701.543	158.770	0.575	0.810
-700.529	-200.000	-0.035	-0.170
-699.514	-14.794	0.205	0.133
-698.499	113.681	0.396	-0.487
-697.485	526.996	-0.212	-0.507
-696.470	179.459	-0.519	-0.770
-695.456	-35.572	0.596	-0.328
-694.441	134.458	-0.203	-0.267
-693.426	81.414	0.109	-0.120
-692.412	-200.000	0.031	-0.436
-691.397	-200.000	0.243	-0.001
-690.383	-200.000	-0.091	-0.514
-689.368	-186.632	-0.718	-0.010
-688.354	-12.474	0.525	0.348
-687.339	-163.983	-0.364	0.017
-686.324	646.710	0.181	0.470
-685.310	182.529	-0.057	-0.084
-684.295	125.845	-0.301	-0.385
-683.281	-200.000	0.054	-0.481
-682.266	800.000	0.042	-0.160
-681.251	-117.766	-0.276	-0.050
-680.237	357.884	-0.509	-1.030
-679.222	-6.328	-0.557	-0.385
-678.208	166.156	-0.139	-0.200
-677.193	772.202	-0.086	0.238
-676.178	437.874	-0.039	0.086
-675.164	-1.153	-0.311	0.222
-674.149	-14.838	-0.521	-0.339
-673.135	-51.224	0.328	0.156
-672.120	-139.220	0.312	0.034
-671.105	142.789	0.296	0.398
-670.091	-164.190	-0.348	-0.016
-669.076	-99.058	-0.647	0.166
-668.062	401.255	-0.371	0.788
-667.047	759.906	-0.112	-0.307
-666.032	-200.000	0.067	0.558
-665.018	-62.329	-0.196	-0.083
-664.003	11.322	-0.704	-0.545
-662.989	726.131	0.373	1.007
-661.974	-12.876	-0.565	-0.372
-660.959	-163.970	-0.521	-0.025
-659.945	-14.472	0.600	0.390
-658.930	-109.187	0.743	0.160
-657.916	146.390	-0.290	-0.394
-656.901	-86.470	-0.504	0.157
-655.886	-81.090	-0.150	0.050
-654.872	14.265	-0.863	0.681
-653.857	-57.587	0.232	-0.103
-652.843	-200.000	-0.050	-0.476
-651.828	51.896	0.138	0.133
-650.814	9.840	-0.487	-0.374
-649.799	277.940	-0.410	-0.738
-648.784	-49.352	-0.266	0.129
-647.770	-125.527	0.217	0.033
-646.755	120.301	0.687	-0.863
-645.741	127.581	-0.620	-0.797
-644.726	36.511	-0.119	-0.106
-643.711	428.907	-0.149	0.326
-642.697	546.889	0.381	-0.922
-641.682	800.000	0.208	-0.847
-640.668	-19.627	-0.604	0.378
-639.653	800.000	-0.252	-1.026
-638.638	-200.000	0.127	-1.379
-637.624	800.000	0.226	0.764
-636.609	-200.000	0.006	-0.436
-635.595	530.005	-0.098	-0.235
-634.580	244.480	-0.195	0.331
-633.565	-200.000	-0.013	0.500
-632.551	530.543	0.137	0.328
-631.536	-19.706	0.436	-0.272
-630.522	-113.305	0.904	0.180
-629.507	-80.993	0.689	-0.231
-628.492	-84.005	0.367	-0.118
-627.478	-119.414	0.852	0.150
-626.463	-200.000	-0.020	-0.785
-625.449	800.000	0.075	-0.274
-624.434	-200.000	-0.036	-0.347
-623.419	-46.653	-0.405	-0.201
-622.405	-200.000	0.076	-0.606
-621.390	-110.797	1.055	0.220
-620.376	29.701	-0.210	-0.180
-619.361	-131.968	0.341	0.045
-618.346	-121.554	0.839	0.141
-617.332	-47.009	0.588	-0.290
-616.317	800.000	0.184	0.576
-615.303	-37.367	0.475	-0.256
-614.288	-146.034	-0.292	0.026
-613.273	17.417	-0.838	0.673
-612.259	800.000	0.033	0.139
-611.244	327.193	0.164	0.318
-610.230	-133.622	-0.109	-0.014
-609.215	-200.000	0.091	0.957
-608.201	-131.432	0.484	-0.065
-607.186	-154.960	1.026	-0.068
-606.171	800.000	-0.031	-0.125
-605.157	-54.249	-0.549	0.252
-604.142	800.000	0.089	-0.378
-603.128	420.459	-0.164	-0.354
-602.113	270.753	-0.193	-0.344
-601.098	-76.999	-0.286	-0.101
-600.084	-119.240	-1.371	0.241
-599.069	321.095	-0.354	0.679
-598.055	-74.597	0.381	0.138
-597.040	8.369	-0.552	-0.419
-596.025	762.378	0.181	-0.496
-595.011	800.000	-0.086	-0.316
-593.996	-144.956	1.085	-0.100
-592.982	-200.000	0.089	-0.765
-591.967	-143.066	-0.399	0.039
-590.952	-200.000	-0.008	-0.344
-589.938	-200.000	0.029	-0.616
-588.923	75.996	0.462	0.493
-587.909	-70.273	-0.178	0.068
-586.894	160.934	-0.480	-0.677
-585.879	-200.000	0.009	-0.185
-584.865	-29.204	0.150	0.087
-583.850	-200.000	-0.031	0.746
-582.836	-112.800	-0.955	0.191
-581.821	88.285	0.474	-0.531
-580.806	-142.084	-0.189	0.019
-579.792	577.965	-0.104	0.257
-578.777	-127.944	-0.473	0.069
-577.763	-18.396	0.811	0.511
-576.748	800.000	0.189	-0.631
-575.733	-84.864	-0.608	0.193
-574.719	191.933	-0.137	-0.208
-573.704	77.569	-0.766	0.823
-572.690	-50.712	-0.493	-0.234
-571.675	238.362	-0.312	-0.522
-570.661	128.441	-0.389	0.500
-569.646	800.000	-0.168	0.648
-568.631	608.351	0.221	0.557
-567.617	223.294	0.147	-0.239
-566.602	-9.136	-0.752	0.507
-565.588	-153.408	-0.892	0.063
-564.573	-19.933	-0.664	-0.413
-563.558	-39.854	0.362	0.190
-562.544	-45.543	0.586	-0.293
-561.529	110.930	-0.634	0.770
-560.515	730.082	0.046	0.125
-559.500	-200.000	0.024	-0.428
-558.485	-122.819	-0.678	-0.110
-557.471	239.428	0.394	-0.662
-556.456	481.638	-0.126	-0.288
-555.442	14.260	-0.723	-0.568
-554.427	-200.000	-0.066	0.415
-553.412	31.691	0.264	0.229
-552.398	-8.379	-0.282	-0.191
-551.383	-108.038	-1.004	-0.219
-550.369	-200.000	0.009	0.949
-549.354	194.752	0.450	0.688
-548.339	462.437	-0.317	0.712
-547.325	800.000	0.115	0.473
-546.310	3.377	-0.993	-0.729
-545.296	-200.000	0.009	-0.041
-544.281	-139.033	1.448	0.158
-543.266	785.661	-0.206	0.568
-542.252	141.227	-0.688	0.917
-541.237	-200.000	0.011	-0.341
-540.223	-57.672	0.574	-0.253
-539.208	800.000	-0.187	-0.524
-538.193	-200.000	-0.103	0.528
-537.179	121.062	-0.836	1.048
-536.164	48.955	-0.615	0.581
-535.150	47.798	-0.252	0.237
-534.135	128.243	-0.417	0.535
-533.121	-200.000	-0.000	-0.438
-532.106	-49.069	-0.350	0.169
-531.091	118.790	0.437	0.544
-530.077	-80.070	1.009	0.341
-529.062	-38.590	-0.670	0.356
-528.048	-200.000	-0.145	-0.777
-527.033	540.725	0.180	0.431
-526.018	218.704	0.553	-0.889
-525.004	123.808	-0.135	-0.171
-523.989	73.238	0.240	0.252
-522.975	14.736	-0.305	0.240
-521.960	-200.000	-0.085	-0.943
-520.945	309.264	-0.432	-0.814
-519.931	800.000	-0.129	0.431
-518.916	75.804	-0.466	0.496
-517.902	-26.425	-0.630	0.372
-516.887	28.278	-0.294	-0.250
-515.872	251.504	-0.394	0.675
-514.858	408.667	-0.175	0.373
-513.843	-157.725	0.826	0.049
-512.829	-45.682	0.372	-0.185
-511.814	566.082	0.136	0.331
-510.799	-14.449	0.426	-0.276
-509.785	-200.000	-0.009	1.114
-508.770	665.028	0.186	0.484
-507.756	-57.261	0.472	0.209
-506.741	443.834	-0.335	0.738
-505.726	121.239	-0.333	-0.417
-504.712	-200.000	0.117	0.708
-503.697	28.304	-0.667	-0.567
-502.683	800.000	-0.207	-0.610
-501.668	80.237	-0.626	-0.678
-500.653	-167.016	0.604	0.025
-499.639	800.000	0.071	-0.280
-498.624	390.199	-0.477	0.994
-497.610	-138.970	-0.433	0.047
-496.595	45.813	0.665	0.619
-495.581	-57.935	0.414	0.182
-494.566	-200.000	-0.158	-0.949
-493.551	33.139	0.207	-0.180
-492.537	-200.000	0.129	-0.598
-491.522	-4.069	0.130	-0.091
-490.508	663.356	-0.191	0.496
-489.493	-90.173	0.127	-0.037
-488.478	-147.526	0.066	-0.006
-487.464	-147.890	-0.244	-0.020
-486.449	-5.292	-1.039	-0.718
-485.435	-38.195	-0.277	-0.147
-484.420	410.147	-0.212	0.451
-483.405	800.000	-0.219	-0.812
-482.391	-28.710	0.288	0.167
-481.376	-92.390	0.379	-0.107
-480.362	-23.776	-0.181	-0.109
-479.347	488.591	0.223	0.513
-478.332	-76.348	-0.220	-0.078
-477.318	-200.000	0.019	-0.414
-476.303	-37.733	-0.324	-0.173
-475.289	-41.938	0.671	0.345
-474.274	-143.185	0.688	-0.067
-473.259	144.041	-0.355	-0.475
-472.245	-50.220	0.375	-0.178
-471.230	-80.540	-0.095	0.032
-470.216	-200.000	-0.088	-0.743
-469.201	77.659	-0.250	0.268
-468.186	-200.000	0.103	0.741
-467.172	-152.244	-0.105	0.008
-466.157	-77.679	-0.046	0.016
-465.143	-200.000	0.098	-0.467
-464.128	55.734	0.548	0.533
-463.113	773.045	-0.082	0.223
-462.099	57.316	0.470	-0.461
-461.084	-58.946	0.426	0.185
-460.070	-121.073	-0.783	-0.132
-459.055	-11.938	0.534	-0.352
-458.040	330.021	0.247	0.478
-457.026	118.069	0.393	0.486
-456.011	-48.376	0.739	0.358
-454.997	-200.000	-0.109	-0.521
-453.982	-51.197	0.195	0.092
-452.968	40.095	-0.156	-0.141
-451.953	-200.000	0.077	0.436
-450.938	800.000	0.088	0.341
-449.924	-149.328	0.533	-0.043
-448.909	-152.763	-1.614	0.115
-447.895	-107.364	-0.554	0.122
-446.880	126.802	0.057	0.072
-445.865	-81.557	0.528	0.174
-444.851	696.240	0.138	0.363
-443.836	800.000	0.173	-0.649
-442.822	206.099	0.114	-0.178
-441.807	-165.837	-0.622	0.027
-440.792	-200.000	-0.125	1.157
-439.778	163.417	-0.269	-0.380
-438.763	11.366	0.168	0.129
-437.749	800.000	-0.082	0.315
-436.734	-200.000	-0.150	-0.659
-435.719	-21.674	0.359	0.220
-434.705	-126.577	0.410	0.061
-433.690	121.949	-0.437	0.547
-432.676	47.983	-0.553	-0.518
-431.661	325.132	-0.246	0.473
-430.646	129.839	-0.072	-0.093
-429.632	217.489	0.350	0.559
-428.617	-49.259	-0.287	0.137
-427.603	798.925	0.187	-0.516
-426.588	556.884	0.222	-0.537
-425.573	77.637	-0.383	-0.409
-424.559	800.000	0.246	1.022
-423.544	375.174	-0.352	-0.719
-422.530	-0.533	-0.423	0.301
-421.515	800.000	-0.086	-0.239
-420.500	-200.000	-0.037	-0.222
-419.486	131.070	-0.451	-0.581
-418.471	-14.436	0.541	-0.349
-417.457	-100.002	0.262	0.065
-416.442	-200.000	-0.100	-0.565
-415.428	-127.153	0.384	-0.056
-414.413	-170.660	-0.395	-0.014
-413.398	-92.599	0.060	-0.017
-412.384	-47.008	0.353	0.173
-411.369	-66.687	-1.095	-0.435
-410.355	11.572	-0.513	0.394
-409.340	-200.000	-0.005	-0.142
-408.325	-90.211	-0.976	0.285
-407.311	-200.000	-0.092	-0.419
-406.296	188.318	-0.212	0.317
-405.282	-200.000	-0.006	-0.653
-404.267	-34.791	-0.617	-0.338
-403.252	383.350	0.332	-0.684
-402.238	-200.000	-0.560	0.002
-401.223	-99.658	-0.430	0.108
-400.209	-200.000	0.106	0.670
-399.194	-22.115	-0.598	0.363
-398.179	180.741	-0.205	0.302
-397.165	-13.886	-0.372	-0.241
-396.150	-63.189	0.290	0.120
-395.136	-200.000	-0.244	1.173
-394.121	-200.000	0.005	0.502
-393.106	48.477	0.466	0.437
-392.092	-179.411	0.599	0.013
-391.077	410.699	-0.467	-0.991
-390.063	-172.055	0.526	-0.017
-389.048	-128.949	0.400	-0.056
-388.033	-200.000	-0.030	0.232
-387.019	90.549	-0.357	0.400
-386.004	735.609	-0.139	0.373
-384.990	39.670	0.335	-0.301
-383.975	-104.771	-0.270	0.062
-382.960	484.088	0.166	0.379
-381.946	253.833	-0.223	0.382
-380.931	161.653	0.016	-0.023
-379.917	77.989	-0.481	0.514
-378.902	-117.262	-0.726	-0.132
-377.888	218.380	-0.191	0.305
-376.873	-136.749	0.373	0.043
-375.858	-55.441	0.762	-0.342
-374.844	426.951	-0.190	0.410
-373.829	-25.613	0.808	0.478
-372.815	-26.241	-0.352	-0.207
-371.800	36.453	0.393	-0.347
-370.785	54.833	-0.654	0.631
-369.771	-91.360	0.687	-0.197
-368.756	466.694	-0.042	0.094
-367.742	155.268	-0.391	-0.538
-366.727	317.372	0.173	-0.327
-365.712	575.450	0.324	-0.791
-364.698	16.567	0.309	0.244
-363.683	-200.000	-0.103	-1.319
-362.669	182.720	0.196	-0.289
-361.654	-159.177	0.891	0.050
-360.639	311.830	0.110	0.206
-359.625	158.091	-0.309	-0.428
-358.610	-71.423	0.637	-0.238
-357.596	-176.763	-0.525	-0.013
-356.581	430.410	0.216	-0.468
-355.566	-51.465	0.567	-0.265
-354.552	641.132	-0.321	0.818
-353.537	-200.000	-0.050	-0.343
-352.523	-113.322	0.854	0.168
-351.508	179.531	-0.277	0.405
-350.493	-200.000	0.004	0.186
-349.479	-118.556	0.300	0.053
-348.464	-146.212	-0.332	-0.029
-347.450	-34.978	-0.524	0.286
-346.435	-200.000	-0.054	-0.439
-345.420	140.753	0.313	-0.414
-344.406	5.192	0.431	0.318
-343.391	800.000	0.173	-0.524
-342.377	-15.897	-0.680	0.433
-341.362	163.000	0.397	-0.557
-340.348	-18.684	-0.414	0.258
-339.333	497.409	0.123	-0.282
-338.318	-47.391	-0.860	-0.418
-337.304	-147.003	-0.404	-0.035
-336.289	-6.522	-0.254	-0.173
-335.275	80.322	0.431	0.463
-334.260	69.630	-0.354	0.364
-333.245	800.000	-0.115	0.345
-332.231	-59.939	-0.426	-0.182
-331.216	-200.000	0.015	0.253
-330.202	520.201	0.044	-0.104
-329.187	49.994	0.598	-0.563
-328.172	456.601	0.183	-0.406
-327.158	800.000	0.234	-0.722
-326.143	56.924	0.247	-0.240
-325.129	239.499	0.273	0.454
-324.114	-79.798	0.396	0.133
-323.099	-21.564	-1.175	-0.716
-322.085	-200.000	0.051	-0.343
-321.070	96.883	0.567	-0.649
-320.056	-200.000	0.058	-0.343
-319.041	-36.790	0.849	-0.455
-318.026	800.000	0.207	-0.616
-317.012	561.839	0.216	0.521
-315.997	-27.613	0.174	-0.101
-314.983	-78.908	0.368	0.125
-313.968	-111.638	-0.716	-0.145
-312.953	398.926	0.271	0.567
-311.939	-200.000	0.058	0.258
-310.924	-200.000	0.087	0.615
-309.910	800.000	0.310	0.967
-308.895	768.652	-0.375	1.018
-307.880	-200.000	-0.001	0.673
-306.866	-43.562	0.638	-0.321
-305.851	688.360	-0.095	-0.247
-304.837	-71.036	0.712	-0.267
-303.822	-200.000	-0.040	0.417
-302.807	157.222	-0.296	-0.408
-301.793	800.000	-0.270	-0.780
-300.778	-175.294	-0.696	0.019
-299.764	-112.297	0.666	-0.133
-298.749	800.000	-0.132	0.420
-297.735	-200.000	0.045	-0.238
-296.720	800.000	0.175	0.565
-295.705	-91.551	0.309	-0.088
-294.691	-142.567	-0.748	0.073
-293.676	-22.638	-0.629	-0.379
-292.662	-95.492	0.386	0.103
-291.647	10.766	-0.263	-0.200
-290.632	-171.672	-0.393	-0.013
-289.618	-138.969	0.478	0.052
-288.603	-8.444	-0.036	-0.024
-287.589	-110.683	0.315	0.065
-286.574	-71.847	-0.090	-0.033
-285.559	-25.779	-0.465	0.273
-284.545	228.122	0.348	-0.565
-283.530	-131.802	0.619	-0.081
-282.516	-58.056	0.727	-0.316
-281.501	-101.599	0.526	0.127
-280.486	-148.104	-0.631	-0.052
-279.472	210.111	-0.441	-0.691
-278.457	-90.446	0.522	0.151
-277.443	-101.059	-0.392	-0.096
-276.428	91.858	0.070	-0.079
-275.413	-200.000	-0.043	0.627
-274.399	-49.449	-0.414	-0.197
-273.384	-92.269	-0.351	-0.099
-272.370	92.232	-0.361	-0.406
-271.355	-200.000	-0.037	-0.855
-270.340	416.802	-0.150	0.320
-269.326	111.314	-0.302	0.363
-268.311	24.366	-0.420	0.346
-267.297	-200.000	-0.103	1.035
-266.282	-200.000	-0.014	0.096
-265.267	53.333	-0.141	-0.135
-264.253	-200.000	-0.040	-0.285
-263.238	-142.357	0.391	-0.038
-262.224	82.530	-0.549	-0.594
-261.209	-69.923	0.625	-0.238
-260.195	-23.809	0.612	0.365
-259.180	607.135	0.212	-0.526
-258.165	-153.486	-0.733	-0.051
-257.151	-200.000	-0.106	-0.552
-256.136	100.871	0.275	0.319
-255.122	-200.000	0.018	0.181
-254.107	-69.832	-0.268	0.102
-253.092	-163.788	-1.465	0.068
-252.078	57.455	0.443	0.431
-251.063	0.455	0.310	0.220
-250.049	-13.076	0.513	0.332
-249.034	52.595	-0.689	0.656
-248.019	738.334	-0.053	0.142
-247.005	-105.966	-0.295	-0.066
-245.990	-200.000	-0.065	0.759
-244.976	-50.348	0.481	-0.226
-243.961	-200.000	-0.217	0.000
-242.946	-27.723	-0.239	-0.138
-241.932	-110.126	0.464	-0.096
-240.917	-0.643	0.663	-0.468
-239.903	-200.000	-0.068	0.317
-238.888	-200.000	-0.171	0.807
-237.873	67.030	-0.083	-0.085
-236.859	433.195	0.334	0.721
-235.844	-15.026	-0.427	-0.272
-234.830	-71.937	0.779	0.289
-233.815	-144.241	-0.661	-0.061
-232.800	476.476	0.307	-0.690
-231.786	-81.621	-0.609	-0.199
-230.771	-200.000	0.020	-0.450
-229.757	201.286	0.291	0.446
-228.742	199.884	-0.341	0.521
-227.727	327.483	0.176	-0.336
-226.713	-101.911	-0.561	-0.135
-225.698	271.721	-0.386	-0.677
-224.684	-104.487	0.890	-0.205
-223.669	98.797	0.122	0.140
-222.655	-62.209	-0.723	0.300
-221.640	800.000	-0.092	0.298
-220.625	153.523	-0.161	0.219
-219.611	6.483	-0.364	-0.269
-218.596	-78.520	0.306	-0.104
-217.582	-74.361	0.679	0.244
-216.567	66.701	-0.165	0.167
-215.552	-123.812	0.552	0.087
-214.538	173.175	-0.212	0.305
-213.523	800.000	-0.246	0.891
-212.509	-91.342	0.463	0.132
-211.494	-157.664	0.348	0.021
-210.479	-200.000	-0.163	1.007
-209.465	-78.067	0.812	0.278
-208.450	29.686	0.195	0.165
-207.436	110.471	-0.750	0.896
-206.421	-20.275	0.296	0.181
-205.406	-7.141	-0.282	-0.190
-204.392	21.687	0.257	-0.208
-203.377	313.813	-0.217	0.407
-202.363	-11.817	0.497	-0.324
-201.348	266.379	0.216	-0.375
-200.333	59.171	-0.284	-0.278
-199.319	-200.000	0.028	1.163
-198.304	66.705	-0.256	-0.259
-197.290	-55.739	0.413	0.183
-196.275	40.481	-0.467	0.418
-195.260	355.405	-0.433	-0.857
-194.246	38.793	0.724	-0.643
-193.231	2.792	0.233	-0.168
-192.217	-95.120	1.042	-0.280
-191.202	-159.984	1.019	0.055
-190.187	-137.504	-0.448	-0.050
-189.173	-200.000	0.064	-0.366
-188.158	-106.887	0.471	0.104
-187.144	-200.000	-0.025	0.589
-186.129	-100.746	0.396	0.097
-185.114	-59.552	-0.103	-0.044
-184.100	-200.000	-0.096	0.805
-183.085	225.110	-0.314	-0.505
-182.071	59.698	0.392	-0.384
-181.056	-79.393	0.562	-0.189
-180.042	800.000	-0.156	0.624
-179.027	-38.627	0.358	-0.188
-178.012	135.198	-0.368	0.475
-176.998	-156.430	-0.878	0.054
-175.983	-100.349	0.939	0.231
-174.969	130.272	0.228	-0.290
-173.954	175.685	-0.353	-0.509
-172.939	-106.602	0.398	0.088
-171.925	-77.458	0.470	-0.162
-170.910	-85.286	-0.553	-0.172
-169.896	68.533	0.531	0.540
-168.881	39.879	-0.502	-0.447
-167.866	-17.576	0.405	0.253
-166.852	-23.014	0.444	-0.265
-165.837	-173.484	0.555	0.017
-164.823	-138.090	0.270	-0.030
-163.808	-145.197	0.936	0.084
-162.793	68.463	0.346	-0.352
-161.779	-200.000	-0.001	-0.762
-160.764	-42.172	-0.209	-0.106
-159.750	800.000	0.309	-0.873
-158.735	-188.549	0.255	-0.003
-157.720	137.516	-0.082	0.107
-156.706	-75.564	-0.518	-0.183
-155.691	-120.363	-0.434	0.073
-154.677	-181.174	1.080	0.021
-153.662	-200.000	0.047	-0.212
-152.647	-162.819	0.307	0.015
-151.633	-200.000	0.046	0.421
-150.618	308.898	-0.042	0.078
-149.604	-35.899	-0.906	-0.486
-148.589	-85.970	-0.657	-0.202
-147.574	-183.157	-1.081	0.019
-146.560	-135.913	-0.924	-0.108
-145.545	120.194	-0.455	-0.561
-144.531	-37.306	-0.360	0.191
-143.516	201.972	0.061	-0.094
-142.502	800.000	0.123	-0.412
-141.487	-200.000	-0.065	0.376
-140.472	-85.415	0.869	0.269
-139.458	800.000	0.088	-0.287
-138.443	-107.975	0.111	-0.024
-137.429	49.911	0.284	0.265
-136.414	-36.323	-0.439	0.235
-135.399	-124.604	-0.517	0.080
-134.385	-54.060	0.395	0.178
-133.370	111.047	-0.231	0.276
-132.356	-154.321	-0.206	0.014
-131.341	-200.000	-0.029	0.370
-130.326	110.981	-0.231	-0.275
-129.312	800.000	0.029	0.079
-128.297	800.000	0.091	-0.363
-127.283	-3.587	-0.367	0.253
-126.268	155.548	0.149	-0.203
-125.253	-25.182	0.535	0.314
-124.239	36.039	-0.359	-0.313
-123.224	-55.548	-1.215	-0.540
