DTS Sentinel unit serial number:	SN413079Multiplexer serial number:	ORYXHardware model number:	OX4-SRSoftware version number:	ORYX F/W v4.00 Oryx Data Collector v3.7.2.0data status	okinstallation	princeton_trtdifferential loss correction	single-endedforward channel	channel 4reverse channel	N/Adate	2019/09/17time	23:49:35forward acquisition time	60.00reverse acquisition time	0.00gamma	496.2192k internal	0.2332k external	0.2332temperature offset calibration	0.9998default loss term (dB/km)	0.3790temperature slope calibration	1.0000multiplexer offset coefficient	1.0000multiplexer slope coefficient	1.0000fibre end	0.00T internal ref (°C)	24.00T ext. ref 1 (°C)	0.17T ext. ref 2 (°C)	17.34length (m)	temperature (°C)	Stokes	anti-Stokes-747.200	6.146	-0.130	-0.097
-746.185	207.359	0.121	0.190
-745.171	-52.014	0.207	0.097
-744.156	184.561	-0.110	-0.164
-743.142	-55.638	-0.048	-0.021
-742.127	800.000	0.027	-0.115
-741.112	3.575	0.111	-0.082
-740.098	370.297	-0.080	-0.162
-739.083	-48.221	0.183	-0.089
-738.069	783.032	0.031	0.087
-737.054	-200.000	0.003	-0.257
-736.039	91.574	-0.216	0.244
-735.025	-83.166	0.186	0.060
-734.010	-117.750	-0.125	-0.023
-732.996	105.753	-0.226	-0.268
-731.981	7.491	0.101	-0.076
-730.966	-200.000	0.020	-0.288
-729.952	19.588	-0.197	-0.159
-728.937	61.081	-0.243	0.242
-727.923	-200.000	0.007	-0.082
-726.908	178.044	0.061	-0.089
-725.894	-24.336	-0.235	0.141
-724.879	-9.195	0.354	0.238
-723.864	-19.817	-0.057	0.035
-722.850	-23.977	-0.175	0.105
-721.835	26.549	-0.246	0.207
-720.821	-85.224	0.084	-0.026
-719.806	65.312	-0.169	-0.172
-718.791	-200.000	-0.035	0.156
-717.777	214.151	-0.223	-0.354
-716.762	-200.000	0.020	-0.407
-715.748	-200.000	0.001	-0.205
-714.733	63.330	-0.092	-0.093
-713.718	80.961	-0.163	-0.177
-712.704	24.458	0.208	-0.173
-711.689	-82.695	-0.154	-0.050
-710.675	686.709	-0.079	0.207
-709.660	154.765	-0.253	-0.350
-708.645	-200.000	0.047	-0.282
-707.631	72.881	0.231	-0.242
-706.616	-200.000	-0.038	-0.281
-705.602	-85.739	-0.317	0.099
-704.587	800.000	-0.078	-0.234
-703.572	-50.345	0.215	-0.102
-702.558	-60.101	-0.113	-0.048
-701.543	24.107	-0.357	-0.296
-700.529	-167.990	0.614	0.024
-699.514	114.983	-0.149	0.183
-698.499	231.607	-0.148	0.243
-697.485	109.963	0.233	-0.281
-696.470	-200.000	0.014	-0.367
-695.456	-90.881	0.153	-0.044
-694.441	800.000	-0.106	-0.305
-693.426	-31.738	-0.132	-0.074
-692.412	254.954	-0.274	0.471
-691.397	800.000	-0.101	-0.371
-690.383	-200.000	0.041	-0.434
-689.368	-13.936	-0.086	-0.056
-688.354	-118.797	-0.171	-0.030
-687.339	26.341	-0.110	-0.092
-686.324	632.715	-0.196	-0.498
-685.310	-200.000	-0.009	0.295
-684.295	-37.200	-0.228	0.123
-683.281	295.905	0.119	-0.218
-682.266	329.590	0.097	0.187
-681.251	-200.000	-0.001	0.080
-680.237	519.113	0.043	0.102
-679.222	185.466	-0.035	0.053
-678.208	65.225	-0.174	0.176
-677.193	-181.036	-0.354	-0.007
-676.178	53.636	0.198	-0.191
-675.164	-200.000	0.039	0.214
-674.149	-135.105	-0.219	-0.026
-673.135	27.174	0.050	0.042
-672.120	-91.253	-0.118	0.034
-671.105	-69.735	-0.322	-0.124
-670.091	-200.000	0.010	0.188
-669.076	-57.117	-0.422	-0.186
-668.062	-13.432	-0.160	0.104
-667.047	-175.539	0.093	0.003
-666.032	-25.752	-0.120	-0.071
-665.018	800.000	0.134	-0.466
-664.003	7.315	0.091	-0.068
-662.989	-135.510	-0.159	-0.019
-661.974	36.922	-0.294	-0.260
-660.959	65.745	-0.128	0.130
-659.945	760.691	-0.032	-0.087
-658.930	310.704	0.142	0.267
-657.916	800.000	0.033	-0.095
-656.901	44.074	0.164	-0.151
-655.886	217.254	-0.086	-0.138
-654.872	52.421	0.047	-0.045
-653.857	-200.000	0.017	0.137
-652.843	92.188	0.060	0.068
-651.828	-11.040	-0.323	0.214
-650.814	-102.954	0.102	0.024
-649.799	12.845	-0.161	0.125
-648.784	-193.885	-0.193	-0.002
-647.770	-30.056	0.164	-0.093
-646.755	-200.000	0.005	-0.338
-645.741	-15.803	-0.179	-0.114
-644.726	51.564	-0.262	0.250
-643.711	614.452	0.040	0.100
-642.697	-66.807	-0.064	-0.025
-641.682	-200.000	0.033	-0.438
-640.668	800.000	-0.030	0.088
-639.653	-98.056	-0.492	-0.127
-638.638	-36.581	0.108	0.058
-637.624	33.680	0.296	0.258
-636.609	-193.314	-0.439	-0.004
-635.595	79.334	-0.104	-0.111
-634.580	315.382	0.055	0.104
-633.565	-200.000	0.061	-0.344
-632.551	800.000	-0.069	0.291
-631.536	-200.000	0.011	-0.220
-630.522	27.346	-0.332	-0.279
-629.507	-159.152	0.151	-0.009
-628.492	11.215	0.219	-0.168
-627.478	-80.907	-0.401	-0.133
-626.463	-177.675	0.202	0.005
-625.449	-86.428	-0.101	-0.031
-624.434	-200.000	0.015	-0.170
-623.419	-50.530	0.328	0.155
-622.405	-79.780	-0.088	-0.030
-621.390	77.023	-0.297	-0.315
-620.376	135.903	0.103	0.135
-619.361	-184.444	0.240	-0.004
-618.346	-55.134	0.067	0.030
-617.332	-31.651	-0.190	0.107
-616.317	10.123	0.241	-0.183
-615.303	-200.000	0.020	-0.181
-614.288	145.425	0.241	0.322
-613.273	66.117	0.184	0.187
-612.259	-113.131	0.226	0.045
-611.244	31.547	0.041	0.035
-610.230	90.738	-0.050	-0.056
-609.215	-200.000	0.018	-0.117
-608.201	800.000	-0.030	-0.121
-607.186	269.497	-0.112	0.197
-606.171	168.874	-0.048	-0.068
-605.157	48.100	-0.239	0.224
-604.142	17.111	0.267	-0.212
-603.128	127.916	-0.172	-0.219
-602.113	-200.000	-0.009	-0.187
-601.098	-137.167	-0.132	0.015
-600.084	-60.164	-0.368	0.157
-599.069	689.425	0.023	-0.060
-598.055	-200.000	0.005	-0.329
-597.040	-65.632	-0.100	-0.040
-596.025	55.795	0.130	-0.126
-595.011	45.461	-0.193	0.179
-593.996	28.971	0.243	-0.206
-592.982	-20.498	0.164	-0.101
-591.967	-180.142	0.127	0.003
-590.952	88.577	0.090	0.100
-589.938	155.071	0.035	-0.047
-588.923	167.397	-0.103	0.146
-587.909	138.823	0.086	0.113
-586.894	385.212	-0.149	-0.308
-585.879	-200.000	0.014	-0.359
-584.865	800.000	0.026	0.110
-583.850	51.541	-0.149	-0.142
-582.836	392.067	0.139	-0.288
-581.821	67.965	0.154	-0.157
-580.806	164.623	0.137	0.194
-579.792	164.660	0.053	0.075
-578.777	800.000	-0.051	0.189
-577.763	325.576	-0.073	-0.140
-576.748	-200.000	0.019	0.117
-575.733	-134.245	-0.164	-0.020
-574.719	-134.697	-0.373	0.045
-573.704	492.144	-0.090	-0.206
-572.690	-48.967	0.125	0.060
-571.675	162.378	-0.129	0.181
-570.661	-0.700	0.088	-0.062
-569.646	405.877	-0.076	0.161
-568.631	-141.935	-0.135	-0.013
-567.617	-200.000	-0.020	0.149
-566.602	46.631	-0.188	0.175
-565.588	-200.000	-0.027	0.312
-564.573	-200.000	0.029	0.338
-563.558	-124.866	-0.104	0.016
-562.544	800.000	0.046	0.134
-561.529	21.587	0.253	0.206
-560.515	6.023	0.300	-0.222
-559.500	-77.723	0.376	0.130
-558.485	-200.000	0.010	0.157
-557.471	35.313	0.072	0.063
-556.456	-200.000	-0.017	-0.391
-555.442	-200.000	0.052	0.254
-554.427	800.000	0.077	0.292
-553.412	-123.366	0.165	0.026
-552.398	800.000	-0.078	0.248
-551.383	56.269	-0.066	-0.064
-550.369	-200.000	-0.029	-0.191
-549.354	-200.000	-0.003	0.132
-548.339	-200.000	0.012	0.066
-547.325	-200.000	-0.042	-0.208
-546.310	565.960	-0.089	-0.217
-545.296	29.017	0.236	-0.200
-544.281	-157.463	-0.293	-0.018
-543.266	800.000	-0.042	0.171
-542.252	28.830	0.183	-0.155
-541.237	125.878	-0.128	-0.161
-540.223	10.668	-0.188	0.143
-539.208	19.390	0.149	0.120
-538.193	-44.595	-0.038	0.019
-537.179	-61.640	-0.230	0.096
-536.164	-151.216	0.166	-0.012
-535.150	-124.285	0.275	0.043
-534.135	121.446	0.084	-0.105
-533.121	-100.902	0.099	-0.024
-532.106	95.410	0.076	0.087
-531.091	800.000	-0.042	-0.175
-530.077	182.829	-0.150	-0.221
-529.062	-96.362	0.228	0.060
-528.048	-88.981	0.175	0.052
-527.033	288.384	0.031	0.056
-526.018	26.649	-0.356	-0.297
-525.004	-175.484	0.361	0.010
-523.989	83.224	-0.083	0.090
-522.975	-89.426	0.147	-0.043
-521.960	-97.887	-0.266	-0.069
-520.945	80.779	-0.210	-0.226
-519.931	476.932	-0.121	0.273
-518.916	-22.264	-0.052	-0.031
-517.902	-37.054	-0.101	0.054
-516.887	-200.000	-0.018	-0.226
-515.872	-168.446	0.227	0.009
-514.858	-200.000	0.012	0.311
-513.843	51.253	-0.191	-0.181
-512.829	-200.000	-0.049	-0.547
-511.814	2.000	0.194	0.140
-510.799	431.017	-0.220	-0.475
-509.785	-134.195	-0.335	0.041
-508.770	800.000	-0.135	0.440
-507.756	-50.031	-0.244	-0.115
-506.741	-96.850	-0.094	-0.024
-505.726	-200.000	0.001	0.199
-504.712	8.570	0.348	0.261
-503.697	22.226	-0.285	-0.232
-502.683	76.559	-0.178	-0.188
-501.668	-99.274	0.289	0.073
-500.653	800.000	-0.108	-0.300
-499.639	-12.841	-0.109	-0.071
-498.624	26.447	-0.198	0.165
-497.610	55.880	-0.185	0.179
-496.595	453.913	0.040	0.089
-495.581	45.643	0.154	-0.142
-494.566	-200.000	0.015	-0.206
-493.551	1.589	-0.140	-0.101
-492.537	-4.100	-0.067	0.046
-491.522	-200.000	-0.010	0.157
-490.508	47.666	-0.063	0.059
-489.493	36.042	-0.205	0.180
-488.478	59.684	-0.241	-0.236
-487.464	-39.260	0.181	-0.094
-486.449	-200.000	-0.023	-0.157
-485.435	800.000	0.054	0.202
-484.420	-29.647	0.052	-0.030
-483.405	-5.376	-0.314	0.215
-482.391	-83.452	0.190	0.061
-481.376	-200.000	-0.002	-0.179
-480.362	429.380	0.129	-0.278
-479.347	-200.000	0.022	-0.462
-478.332	-91.515	-0.166	0.047
-477.318	-200.000	0.034	0.235
-476.303	142.405	0.110	0.145
-475.289	-200.000	0.028	0.141
-474.274	87.788	0.042	0.047
-473.259	-128.614	0.185	-0.026
-472.245	215.411	-0.180	-0.284
-471.230	800.000	-0.116	-0.349
-470.216	-200.000	-0.037	-0.306
-469.201	-16.607	-0.191	0.120
-468.186	341.233	-0.060	0.116
-467.172	25.691	0.089	-0.074
-466.157	548.428	0.038	-0.090
-465.143	-41.444	-0.166	-0.085
-464.128	201.276	-0.108	-0.165
-463.113	-125.149	-0.088	0.013
-462.099	308.346	0.095	0.176
-461.084	270.894	0.146	0.255
-460.070	-200.000	0.002	-0.127
-459.055	-133.304	0.107	-0.013
-458.040	800.000	0.012	-0.036
-457.026	-41.349	0.274	-0.140
-456.011	346.951	0.162	0.318
-454.997	495.349	-0.158	0.361
-453.982	-200.000	0.005	0.090
-452.968	-103.965	-0.036	0.008
-451.953	105.126	-0.274	0.322
-450.938	-139.280	-0.099	0.011
-449.924	770.740	0.097	0.262
-448.909	17.875	0.254	0.201
-447.895	-167.068	0.183	0.007
-446.880	-200.000	0.079	-0.387
-445.865	-125.347	-0.653	0.099
-444.851	-103.212	0.312	0.073
-443.836	-62.297	-0.226	0.094
-442.822	-62.799	0.145	-0.060
-441.807	-94.763	-0.349	0.094
-440.792	-96.736	0.012	-0.003
-439.778	-68.721	-0.283	0.109
-438.763	-74.715	-0.200	0.072
-437.749	800.000	0.087	0.259
-436.734	-40.787	0.328	-0.169
-435.719	132.103	-0.231	0.296
-434.705	-14.933	0.122	0.078
-433.690	800.000	0.103	0.304
-432.676	253.935	-0.243	-0.412
-431.661	655.912	-0.027	-0.070
-430.646	-134.659	0.220	0.027
-429.632	-73.160	0.410	-0.149
-428.617	-33.107	0.076	0.042
-427.603	48.940	-0.157	0.146
-426.588	800.000	0.129	-0.357
-425.573	595.697	0.029	0.072
-424.559	303.662	-0.094	0.172
-423.544	86.696	-0.132	-0.145
-422.530	-200.000	0.002	-0.033
-421.515	128.322	-0.265	-0.335
-420.500	29.456	0.405	0.342
-419.486	13.711	-0.138	0.106
-418.471	800.000	0.057	0.203
-417.457	-20.246	-0.343	0.210
-416.442	-88.839	0.323	0.095
-415.428	2.728	-0.195	-0.141
-414.413	-75.646	0.088	0.031
-413.398	-200.000	0.004	-0.046
-412.384	800.000	0.010	-0.031
-411.369	34.315	-0.218	-0.189
-410.355	-194.267	0.450	-0.004
-409.340	800.000	0.152	0.442
-408.325	-123.591	-0.097	0.015
-407.311	236.478	-0.119	-0.196
-406.296	-125.452	-0.365	-0.055
-405.282	-200.000	-0.008	-0.313
-404.267	-172.908	0.032	0.001
-403.252	489.063	-0.064	-0.145
-402.238	73.482	-0.090	-0.093
-401.223	-9.346	0.384	-0.255
-400.209	800.000	0.070	-0.251
-399.194	800.000	0.054	-0.228
-398.179	189.598	-0.041	-0.061
-397.165	324.499	0.115	0.218
-396.150	-103.524	0.047	-0.011
-395.136	24.475	-0.170	0.139
-394.121	800.000	0.058	0.204
-393.106	-123.281	0.077	-0.012
-392.092	169.604	-0.051	0.073
-391.077	64.948	0.201	0.201
-390.063	107.570	0.058	-0.068
-389.048	-200.000	0.008	0.361
-388.033	-200.000	-0.057	0.250
-387.019	-104.879	0.046	0.010
-386.004	-200.000	-0.008	0.358
-384.990	-102.236	-0.221	-0.053
-383.975	800.000	-0.084	-0.292
-382.960	152.649	-0.208	-0.281
-381.946	137.019	-0.264	0.343
-380.931	-195.023	-0.038	-0.000
-379.917	-113.690	-0.289	0.056
-378.902	265.661	0.039	-0.067
-377.888	255.592	0.055	-0.093
-376.873	-136.534	0.159	0.018
-375.858	258.328	-0.182	-0.311
-374.844	225.750	-0.067	-0.108
-373.829	73.953	-0.340	-0.354
-372.815	-100.478	-0.136	0.033
-371.800	-200.000	-0.004	0.164
-370.785	-15.677	-0.171	0.108
-369.771	352.895	-0.053	-0.105
-368.756	800.000	-0.063	-0.202
-367.742	738.130	0.103	0.273
-366.727	-96.356	0.124	-0.032
-365.712	-44.279	-0.107	0.053
-364.698	393.722	0.027	-0.056
-363.683	360.940	-0.163	0.324
-362.669	-200.000	-0.030	0.158
-361.654	-94.624	0.196	0.053
-360.639	-62.015	0.124	-0.051
-359.625	800.000	0.031	0.105
-358.610	-154.085	0.419	-0.028
-357.596	-59.568	-0.136	0.058
-356.581	800.000	-0.097	-0.294
-355.566	-20.122	0.078	0.048
-354.552	-112.667	0.127	0.025
-353.537	115.892	0.092	0.111
-352.523	-161.454	0.209	-0.011
-351.508	-130.632	-0.516	-0.069
-350.493	-150.003	-0.114	0.009
-349.479	356.616	0.100	0.197
-348.464	-10.272	0.283	-0.186
-347.450	547.640	0.079	-0.186
-346.435	36.316	0.022	-0.019
-345.420	-129.146	-0.107	0.015
-344.406	-92.347	0.183	0.051
-343.391	368.729	0.014	0.028
-342.377	133.432	-0.288	-0.369
-341.362	14.991	0.159	0.123
-340.348	-154.543	0.121	0.008
-339.333	62.190	-0.173	0.171
-338.318	-200.000	0.037	-0.400
-337.304	-90.240	0.120	0.035
-336.289	2.973	0.049	0.035
-335.275	-95.387	-0.240	0.064
-334.260	657.113	-0.051	0.131
-333.245	-67.282	-0.106	0.041
-332.231	139.626	0.137	-0.179
-331.216	-200.000	0.054	-0.317
-330.202	178.646	0.190	0.275
-329.187	-121.851	0.084	0.014
-328.172	-84.762	0.125	-0.039
-327.158	287.669	-0.167	-0.300
-326.143	211.906	-0.088	-0.138
-325.129	-1.688	0.141	0.098
-324.114	74.560	-0.065	0.068
-323.099	-0.074	-0.093	0.066
-322.085	480.242	0.095	-0.214
-321.070	-92.546	0.172	0.048
-320.056	-200.000	0.054	-0.416
-319.041	85.371	-0.170	-0.185
-318.026	-100.145	-0.215	0.053
-317.012	800.000	-0.094	0.319
-315.997	157.151	-0.102	-0.140
-314.983	-95.093	-0.279	-0.074
-313.968	381.406	0.032	-0.065
-312.953	-100.617	0.246	-0.060
-311.939	316.569	-0.096	-0.180
-310.924	-200.000	-0.005	-0.049
-309.910	-200.000	-0.019	-0.140
-308.895	95.310	-0.194	0.218
-307.880	-151.030	-0.076	-0.006
-306.866	-77.892	-0.241	-0.082
-305.851	-2.722	-0.422	-0.292
-304.837	-1.132	0.153	-0.107
-303.822	-120.094	0.412	-0.070
-302.807	-4.171	0.119	0.082
-301.793	31.109	-0.242	0.205
-300.778	1.054	-0.090	-0.064
-299.764	-200.000	0.031	0.158
-298.749	-24.594	0.419	0.246
-297.735	-113.359	-0.183	-0.035
-296.720	685.353	-0.052	0.135
-295.705	-200.000	-0.084	0.566
-294.691	8.903	0.093	0.069
-293.676	-200.000	0.005	0.306
-292.662	-125.486	-0.114	-0.017
-291.647	83.651	0.236	0.254
-290.632	800.000	0.071	0.216
-289.618	-84.221	-0.131	-0.041
-288.603	46.516	0.057	-0.052
-287.589	-123.066	0.297	-0.047
-286.574	-200.000	0.040	-0.252
-285.559	-121.531	0.307	0.050
-284.545	101.684	0.077	0.088
-283.530	8.819	0.389	-0.290
-282.516	-200.000	0.073	0.324
-281.501	158.909	0.134	0.184
-280.486	-2.808	0.127	-0.088
-279.472	800.000	-0.035	0.131
-278.457	267.602	-0.063	-0.109
-277.443	-200.000	0.039	0.197
-276.428	170.438	0.058	-0.082
-275.413	800.000	-0.096	0.294
-274.399	-200.000	0.011	-0.401
-273.384	-200.000	-0.036	0.282
-272.370	-72.744	-0.165	-0.060
-271.355	-62.094	-0.337	-0.139
-270.340	286.765	0.166	-0.295
-269.326	49.862	-0.303	0.282
-268.311	-69.062	0.199	-0.076
-267.297	82.550	-0.117	-0.125
-266.282	177.921	0.255	-0.368
-265.267	-2.387	0.225	-0.156
-264.253	-200.000	-0.046	-0.302
-263.238	-75.838	0.361	-0.126
-262.224	321.727	0.086	-0.162
-261.209	-88.964	0.380	-0.111
-260.195	-127.011	0.219	0.032
-259.180	21.788	-0.284	0.228
-258.165	800.000	0.054	-0.211
-257.151	-15.512	-0.134	-0.084
-256.136	-21.452	0.401	0.241
-255.122	-2.767	-0.429	-0.296
-254.107	424.459	-0.145	0.307
-253.092	190.334	0.189	0.281
-252.078	62.863	-0.108	0.107
-251.063	-111.482	-0.185	0.037
-250.049	800.000	0.060	-0.194
-249.034	-73.626	0.249	0.089
-248.019	17.923	-0.122	-0.096
-247.005	44.601	0.125	-0.114
-245.990	-200.000	0.041	0.267
-244.976	800.000	-0.108	0.296
-243.961	-155.385	-0.254	0.016
-242.946	-15.352	0.181	-0.114
-241.932	800.000	-0.063	0.242
-240.917	800.000	0.042	0.183
-239.903	-96.461	0.459	-0.119
-238.888	-60.450	-0.389	-0.163
-237.873	-99.631	-0.106	-0.026
-236.859	-169.560	-0.343	0.012
-235.844	277.744	0.047	-0.083
-234.830	-42.623	0.196	-0.098
-233.815	-200.000	0.016	0.319
-232.800	-57.881	-0.260	-0.112
-231.786	87.317	0.179	-0.195
-230.771	-77.728	-0.266	0.091
-229.757	-27.966	0.085	-0.048
-228.742	250.941	0.108	0.180
-227.727	45.171	0.079	-0.072
-226.713	403.447	0.129	-0.268
-225.698	-98.654	0.256	-0.064
-224.684	24.473	0.264	-0.215
-223.669	-184.949	0.282	0.004
-222.655	245.042	0.190	-0.315
-221.640	-200.000	-0.054	-0.307
-220.625	214.471	-0.142	0.222
-219.611	27.489	0.169	0.140
-218.596	800.000	0.092	0.278
-217.582	8.850	-0.087	0.064
-216.567	-171.202	-0.589	-0.020
-215.552	-58.559	0.282	-0.120
-214.538	39.643	0.082	-0.073
-213.523	98.041	-0.127	0.144
-212.509	-0.988	0.157	-0.109
-211.494	-33.470	-0.113	-0.062
-210.479	-2.266	0.216	-0.149
-209.465	-200.000	0.019	-0.136
-208.450	289.965	0.083	0.149
-207.436	800.000	-0.068	0.190
-206.421	540.485	0.082	0.191
-205.406	-175.611	-0.270	0.007
-204.392	-200.000	0.019	0.210
-203.377	-159.462	0.174	-0.010
-202.363	-61.724	-0.153	0.063
-201.348	-51.240	-0.099	0.045
-200.333	109.563	0.213	0.251
-199.319	137.103	0.101	0.131
-198.304	800.000	-0.144	0.410
-197.290	-115.366	-0.210	-0.039
-196.275	-53.015	0.215	-0.097
-195.260	126.258	0.099	0.123
-194.246	71.902	-0.116	0.119
-193.231	-37.388	0.398	-0.209
-192.217	800.000	-0.075	0.208
-191.202	-104.399	0.142	-0.032
-190.187	800.000	-0.095	0.307
-189.173	800.000	-0.096	0.290
-188.158	412.957	0.128	0.268
-187.144	-150.771	-0.178	0.013
-186.129	-13.948	-0.135	0.086
-185.114	237.235	-0.118	0.193
-184.100	-64.683	0.348	-0.139
-183.085	31.694	-0.073	0.062
-182.071	-200.000	0.051	-0.496
-181.056	-45.019	-0.200	0.098
-180.042	-200.000	-0.020	0.294
-179.027	176.155	-0.211	-0.301
-178.012	124.264	-0.247	0.305
-176.998	122.325	-0.071	0.087
-175.983	-11.265	-0.127	-0.082
-174.969	123.038	0.097	0.119
-173.954	-2.065	-0.347	-0.240
-172.939	94.637	0.078	0.088
-171.925	-117.620	0.180	0.032
-170.910	-50.507	0.211	-0.098
-169.896	800.000	0.025	0.097
-168.881	800.000	-0.005	0.020
-167.866	-200.000	0.085	0.382
-166.852	102.209	0.064	-0.074
-165.837	-97.440	0.283	-0.072
-164.823	32.603	0.350	-0.298
-163.808	-200.000	0.050	-0.216
-162.793	142.239	-0.137	0.179
-161.779	599.360	-0.140	0.341
-160.764	-27.119	0.323	0.185
-159.750	-25.904	0.260	0.150
-158.735	-199.692	0.161	-0.001
-157.720	-105.357	0.168	-0.038
-156.706	800.000	-0.066	-0.196
-155.691	-79.618	0.255	-0.084
-154.677	751.735	-0.021	-0.056
-153.662	199.757	-0.128	-0.193
-152.647	352.588	-0.049	0.096
-151.633	60.631	0.134	-0.131
-150.618	-105.153	0.127	0.028
-149.604	-8.919	-0.189	-0.125
-148.589	-200.000	-0.026	0.156
-147.574	-34.495	-0.220	-0.118
-146.560	-17.206	-0.213	-0.132
-145.545	31.977	0.185	0.157
-144.531	169.807	0.171	0.240
-143.516	383.943	-0.042	0.084
-142.502	-102.163	-0.286	-0.068
-141.487	-200.000	0.012	0.331
-140.472	462.970	-0.074	-0.163
-139.458	92.934	0.098	0.109
-138.443	-200.000	-0.096	0.476
-137.429	-94.666	-0.405	0.108
-136.414	800.000	0.083	-0.243
-135.399	379.896	0.066	0.132
-134.385	250.914	0.139	0.232
-133.370	282.847	0.112	0.198
-132.356	800.000	-0.162	0.502
-131.341	-64.744	-0.399	0.159
-130.326	-152.589	0.375	0.026
-129.312	-16.921	0.200	0.124
-128.297	-200.000	-0.037	-0.253
-127.283	-58.012	0.223	-0.096
-126.268	275.017	-0.010	0.017
-125.253	-48.798	-0.121	0.057
-124.239	712.518	0.047	-0.123
-123.224	33.886	-0.335	0.286
-122.210	221.933	-0.037	-0.059
-121.195	-42.365	-0.301	0.151
-120.180	-80.854	0.396	-0.129
