DTS Sentinel unit serial number:	SN413079Multiplexer serial number:	ORYXHardware model number:	OX4-SRSoftware version number:	ORYX F/W v4.00 Oryx Data Collector v3.7.2.0data status	okinstallation	princeton_trtdifferential loss correction	single-endedforward channel	channel 4reverse channel	N/Adate	2019/09/19time	14:25:35forward acquisition time	60.00reverse acquisition time	0.00gamma	496.2192k internal	0.2305k external	0.2305temperature offset calibration	1.0023default loss term (dB/km)	0.3790temperature slope calibration	1.0000multiplexer offset coefficient	1.0000multiplexer slope coefficient	1.0000fibre end	0.00T internal ref (°C)	32.00T ext. ref 1 (°C)	1.07T ext. ref 2 (°C)	29.17length (m)	temperature (°C)	Stokes	anti-Stokes-747.200	-200.000	0.047	0.255
-746.185	-39.976	0.291	0.154
-745.171	69.565	0.084	0.088
-744.156	800.000	0.059	0.249
-743.142	-92.727	-0.029	0.008
-742.127	-31.864	-0.259	0.148
-741.112	60.564	-0.089	0.090
-740.098	800.000	-0.034	0.152
-739.083	240.860	0.124	0.211
-738.069	-20.762	-0.189	0.118
-737.054	76.825	0.155	-0.167
-736.039	56.578	0.197	-0.195
-735.025	-60.141	0.254	-0.110
-734.010	-165.219	0.210	0.009
-732.996	-65.879	-0.640	-0.260
-731.981	-55.384	0.074	-0.034
-730.966	117.555	-0.110	-0.138
-729.952	800.000	-0.100	-0.418
-728.937	201.979	-0.255	-0.400
-727.923	-129.020	-0.131	-0.019
-726.908	100.826	-0.182	0.215
-725.894	-26.626	0.403	0.240
-724.879	800.000	0.086	-0.279
-723.864	800.000	-0.040	-0.141
-722.850	-123.610	-0.393	-0.063
-721.835	-76.768	-0.190	-0.068
-720.821	-200.000	0.049	-0.242
-719.806	-70.100	0.445	-0.172
-718.791	212.953	0.110	-0.177
-717.777	-82.616	0.163	-0.054
-716.762	297.705	-0.131	0.246
-715.748	-200.000	0.022	-0.164
-714.733	-56.198	0.305	-0.138
-713.718	22.973	0.140	0.117
-712.704	370.071	0.127	-0.262
-711.689	800.000	0.018	-0.070
-710.675	512.086	0.111	-0.264
-709.660	-200.000	0.047	0.312
-708.645	74.704	-0.188	0.201
-707.631	-16.984	0.171	0.110
-706.616	237.003	0.179	0.301
-705.602	-90.476	0.015	0.005
-704.587	174.788	-0.228	0.335
-703.572	-63.429	0.298	-0.125
-702.558	-163.037	-0.269	-0.013
-701.543	-31.830	0.118	0.067
-700.529	269.727	0.081	0.144
-699.514	-92.173	-0.069	-0.020
-698.499	42.268	-0.066	-0.061
-697.485	350.313	-0.048	-0.096
-696.470	800.000	0.052	0.222
-695.456	25.379	0.218	-0.184
-694.441	-167.085	0.337	0.014
-693.426	182.536	0.098	0.147
-692.412	-137.038	-0.175	-0.020
-691.397	148.102	0.176	0.241
-690.383	67.428	0.022	-0.022
-689.368	800.000	-0.043	0.124
-688.354	800.000	-0.035	-0.105
-687.339	-22.279	0.166	0.102
-686.324	-68.310	0.127	-0.050
-685.310	132.393	-0.089	0.117
-684.295	-200.000	-0.002	-0.180
-683.281	-55.344	-0.171	-0.078
-682.266	-121.735	-0.134	-0.022
-681.251	-51.208	0.372	0.177
-680.237	-200.000	0.139	-0.624
-679.222	-105.048	-0.102	-0.024
-678.208	387.423	-0.114	-0.240
-677.193	800.000	0.045	0.161
-676.178	276.357	0.089	0.161
-675.164	-91.205	0.080	0.023
-674.149	23.307	0.171	0.143
-673.135	-96.065	-0.100	-0.027
-672.120	81.678	-0.273	0.300
-671.105	272.552	-0.051	0.092
-670.091	-88.298	0.345	0.105
-669.076	52.627	0.050	0.049
-668.062	362.807	-0.125	0.255
-667.047	293.324	0.057	0.106
-666.032	-147.796	0.245	-0.021
-665.018	-6.605	-0.177	-0.122
-664.003	-108.002	-0.153	0.034
-662.989	-108.267	-0.236	-0.052
-661.974	143.443	0.158	-0.214
-660.959	-13.557	0.104	-0.068
-659.945	-129.581	0.297	0.042
-658.930	445.902	0.170	-0.379
-657.916	-200.000	-0.048	-0.329
-656.901	94.471	0.063	0.072
-655.886	-23.716	-0.160	0.097
-654.872	-10.996	-0.133	0.089
-653.857	800.000	0.055	0.207
-652.843	-134.987	-0.108	-0.013
-651.828	-200.000	-0.013	-0.225
-650.814	302.707	-0.138	-0.258
-649.799	800.000	-0.031	0.107
-648.784	26.999	0.135	-0.114
-647.770	122.930	-0.184	-0.233
-646.755	100.201	0.441	0.518
-645.741	-200.000	0.017	-0.161
-644.726	114.954	0.186	-0.230
-643.711	-200.000	-0.011	-0.323
-642.697	-200.000	-0.019	-0.312
-641.682	-119.810	-0.160	-0.028
-640.668	-101.328	-0.198	-0.049
-639.653	-145.814	-0.166	-0.015
-638.638	-200.000	-0.053	-0.287
-637.624	77.404	0.099	0.107
-636.609	369.915	-0.064	-0.131
-635.595	-17.725	0.258	-0.164
-634.580	44.681	-0.088	-0.082
-633.565	342.711	-0.110	-0.219
-632.551	-200.000	0.018	0.094
-631.536	538.854	-0.117	-0.282
-630.522	-102.925	0.093	-0.022
-629.507	-141.433	0.270	0.028
-628.492	411.977	-0.194	0.417
-627.478	256.564	0.021	-0.037
-626.463	-200.000	-0.026	0.239
-625.449	-22.238	-0.073	-0.045
-624.434	-57.288	-0.146	0.065
-623.419	-21.428	0.130	0.080
-622.405	-121.449	-0.249	-0.042
-621.390	-15.764	-0.202	0.130
-620.376	41.082	-0.173	0.158
-619.361	148.273	-0.100	0.137
-618.346	800.000	-0.065	0.274
-617.332	-124.229	0.013	0.002
-616.317	-200.000	-0.031	-0.189
-615.303	-200.000	0.002	-0.412
-614.288	-54.351	0.202	0.093
-613.273	-19.791	0.260	0.162
-612.259	750.531	0.014	-0.038
-611.244	800.000	0.046	-0.135
-610.230	-92.711	0.347	-0.098
-609.215	78.600	-0.213	0.230
-608.201	-111.855	0.343	-0.070
-607.186	33.342	0.044	-0.038
-606.171	-78.266	-0.167	0.058
-605.157	-200.000	0.016	-0.213
-604.142	238.612	-0.160	0.270
-603.128	85.890	-0.201	0.224
-602.113	139.524	-0.202	-0.269
-601.098	-74.468	0.233	-0.085
-600.084	-70.472	-0.189	-0.073
-599.069	800.000	0.052	-0.150
-598.055	571.958	0.012	-0.030
-597.040	-109.128	0.238	0.051
-596.025	-200.000	0.012	0.377
-595.011	218.717	0.017	0.027
-593.996	136.130	0.125	-0.165
-592.982	800.000	-0.103	-0.359
-591.967	758.812	0.053	-0.144
-590.952	325.528	-0.174	-0.336
-589.938	194.080	-0.125	0.192
-588.923	114.321	-0.220	-0.272
-587.909	729.678	-0.052	0.140
-586.894	-83.586	0.094	0.031
-585.879	-166.218	0.209	-0.009
-584.865	-89.567	-0.007	0.002
-583.850	397.184	-0.190	-0.402
-582.836	190.704	-0.113	-0.171
-581.821	-81.365	0.110	0.037
-580.806	-200.000	0.025	0.326
-579.792	-200.000	-0.022	0.148
-578.777	-200.000	0.015	-0.154
-577.763	-71.491	0.096	-0.036
-576.748	-156.612	-0.324	0.020
-575.733	-200.000	-0.050	0.422
-574.719	15.108	0.254	-0.201
-573.704	-67.350	0.134	0.053
-572.690	800.000	-0.044	0.149
-571.675	-200.000	-0.006	0.201
-570.661	-68.306	-0.281	0.111
-569.646	-200.000	0.039	0.383
-568.631	610.519	0.047	-0.119
-567.617	-200.000	-0.002	0.092
-566.602	-97.260	-0.176	0.046
-565.588	-35.201	-0.259	0.143
-564.573	-93.665	0.100	-0.028
-563.558	442.805	-0.078	0.173
-562.544	215.519	-0.126	-0.203
-561.529	-77.449	-0.152	-0.053
-560.515	-132.547	0.313	0.041
-559.500	-89.142	0.416	0.124
-558.485	8.040	0.132	0.100
-557.471	-171.013	-0.180	0.006
-556.456	43.937	0.237	0.219
-555.442	-31.320	0.145	-0.083
-554.427	88.669	0.049	-0.055
-553.412	139.404	0.282	-0.375
-552.398	1.155	0.083	-0.060
-551.383	-95.179	0.105	-0.029
-550.369	-87.361	-0.076	0.023
-549.354	33.477	-0.309	0.271
-548.339	-18.350	0.142	-0.090
-547.325	-200.000	0.009	-0.216
-546.310	208.588	0.233	-0.369
-545.296	232.041	-0.112	0.186
-544.281	-200.000	-0.041	-0.417
-543.266	-200.000	0.013	-0.119
-542.252	125.565	0.144	-0.184
-541.237	-119.484	-0.217	-0.038
-540.223	-121.556	-0.512	-0.086
-539.208	383.529	0.043	0.089
-538.193	152.027	-0.084	0.116
-537.179	-6.794	-0.053	-0.037
-536.164	-57.211	-0.253	-0.112
-535.150	-200.000	0.015	-0.112
-534.135	-42.415	-0.324	0.167
-533.121	-80.045	-0.133	0.045
-532.106	318.960	-0.159	-0.303
-531.091	42.128	-0.054	-0.050
-530.077	120.147	-0.082	0.102
-529.062	50.195	0.166	-0.158
-528.048	-140.152	-0.131	0.014
-527.033	-33.253	-0.267	0.149
-526.018	-200.000	-0.039	-0.223
-525.004	-157.747	0.127	-0.008
-523.989	159.144	0.023	0.033
-522.975	-56.097	0.100	-0.045
-521.960	235.740	-0.078	0.130
-520.945	30.952	-0.113	0.098
-519.931	-96.996	0.228	-0.060
-518.916	150.983	-0.102	-0.140
-517.902	4.521	-0.154	-0.114
-516.887	-200.000	0.005	-0.029
-515.872	-21.331	-0.338	-0.208
-514.858	-177.336	-0.056	-0.001
-513.843	202.139	0.071	-0.110
-512.829	53.796	-0.163	-0.158
-511.814	105.660	0.223	-0.265
-510.799	-138.311	-0.275	-0.031
-509.785	299.859	-0.168	-0.312
-508.770	-160.046	-0.150	0.008
-507.756	-200.000	0.011	0.136
-506.741	336.675	0.203	0.397
-505.726	-92.068	0.220	-0.063
-504.712	282.704	0.105	-0.190
-503.697	76.073	-0.191	-0.204
-502.683	71.693	-0.092	-0.096
-501.668	365.029	-0.143	0.290
-500.653	259.863	0.030	-0.052
-499.639	-11.298	-0.169	0.112
-498.624	-59.882	0.417	0.180
-497.610	-89.323	0.069	0.021
-496.595	641.536	-0.155	-0.397
-495.581	-200.000	0.020	0.152
-494.566	-200.000	0.002	0.018
-493.551	172.712	-0.200	-0.290
-492.537	544.760	0.069	0.165
-491.522	746.667	-0.033	-0.089
-490.508	792.251	-0.065	-0.180
-489.493	-1.434	-0.253	-0.180
-488.478	800.000	-0.081	-0.337
-487.464	49.961	0.185	0.176
-486.449	800.000	-0.078	0.274
-485.435	-200.000	0.038	-0.188
-484.420	77.272	-0.204	0.219
-483.405	-91.522	0.263	-0.076
-482.391	-180.497	-0.294	-0.006
-481.376	-200.000	0.020	-0.187
-480.362	800.000	0.058	0.178
-479.347	-200.000	0.006	0.164
-478.332	-128.188	-0.074	-0.011
-477.318	-9.055	0.322	-0.217
-476.303	-200.000	-0.023	-0.215
-475.289	-37.619	-0.324	-0.174
-474.274	-26.281	0.212	-0.125
-473.259	-97.508	-0.286	0.075
-472.245	-49.436	-0.157	-0.075
-471.230	382.867	-0.138	0.285
-470.216	-6.559	-0.218	0.149
-469.201	-200.000	0.018	0.129
-468.186	-11.505	-0.231	-0.153
-467.172	-200.000	0.018	0.275
-466.157	-140.454	-0.070	-0.007
-465.143	219.307	-0.049	0.079
-464.128	446.587	-0.189	0.419
-463.113	-62.628	0.253	-0.105
-462.099	800.000	0.121	0.349
-461.084	-30.330	-0.330	0.189
-460.070	-70.602	-0.413	0.157
-459.055	250.291	-0.110	0.188
-458.040	-200.000	0.005	0.126
-457.026	230.499	-0.162	0.266
-456.011	-110.638	-0.049	0.010
-454.997	157.798	-0.010	-0.014
-453.982	800.000	-0.094	0.393
-452.968	800.000	0.115	0.368
-451.953	800.000	-0.020	-0.083
-450.938	-110.657	0.096	-0.020
-449.924	-68.411	-0.196	0.076
-448.909	-66.761	-0.141	0.056
-447.895	285.043	-0.100	-0.182
-446.880	-70.812	0.507	0.192
-445.865	-158.170	0.203	-0.012
-444.851	-18.540	0.256	0.161
-443.836	-200.000	0.010	-0.225
-442.822	123.803	-0.241	0.305
-441.807	65.348	0.217	-0.221
-440.792	704.554	0.111	-0.293
-439.778	-200.000	-0.001	0.025
-438.763	-77.784	0.323	-0.112
-437.749	-12.731	-0.109	0.071
-436.734	-200.000	0.357	0.001
-435.719	8.259	0.209	0.158
-434.705	169.195	0.151	0.216
-433.690	80.773	-0.169	0.183
-432.676	-200.000	0.015	0.086
-431.661	361.308	0.135	0.271
-430.646	8.884	0.018	-0.014
-429.632	-200.000	-0.041	-0.227
-428.617	-200.000	-0.018	-0.179
-427.603	339.645	-0.085	0.166
-426.588	-76.283	-0.307	-0.109
-425.573	32.192	0.215	-0.186
-424.559	-200.000	0.060	0.310
-423.544	800.000	0.085	0.239
-422.530	114.181	0.062	-0.076
-421.515	-44.848	0.413	0.207
-420.500	19.315	0.091	0.074
-419.486	-200.000	-0.034	-0.212
-418.471	143.146	-0.119	0.159
-417.457	-60.866	0.176	-0.075
-416.442	-114.322	0.176	-0.034
-415.428	800.000	-0.082	-0.315
-414.413	129.416	-0.210	-0.269
-413.398	342.813	-0.156	0.307
-412.384	132.936	0.053	-0.068
-411.369	800.000	-0.050	0.188
-410.355	53.917	-0.231	-0.223
-409.340	-74.753	0.313	0.113
-408.325	419.878	-0.172	0.370
-407.311	175.834	0.162	-0.236
-406.296	64.194	0.071	0.072
-405.282	-38.380	0.209	-0.111
-404.267	-54.901	-0.149	0.067
-403.252	-192.464	-0.116	-0.001
-402.238	-146.884	0.081	0.007
-401.223	-78.304	0.201	-0.069
-400.209	417.840	0.049	0.106
-399.194	-197.023	0.237	-0.002
-398.179	800.000	0.110	-0.367
-397.165	81.240	0.120	-0.130
-396.150	800.000	0.055	-0.170
-395.136	-75.633	-0.232	-0.083
-394.121	-168.095	-0.311	0.012
-393.106	266.438	-0.013	-0.024
-392.092	255.460	-0.077	-0.132
-391.077	-4.702	0.147	-0.102
-390.063	-200.000	-0.078	-0.481
-389.048	85.106	-0.067	-0.074
-388.033	41.681	0.029	-0.026
-387.019	800.000	0.104	0.319
-386.004	-135.723	0.444	0.053
-384.990	-200.000	0.004	-0.275
-383.975	365.430	0.177	0.358
-382.960	-25.713	-0.177	0.105
-381.946	14.736	0.322	-0.253
-380.931	-200.000	0.018	-0.146
-379.917	-180.803	0.174	0.004
-378.902	-161.661	-0.132	0.007
-377.888	-115.396	-0.328	0.062
-376.873	21.691	0.071	0.058
-375.858	800.000	0.062	-0.218
-374.844	-81.060	0.212	-0.070
-373.829	-54.661	-0.245	0.111
-372.815	301.512	0.160	0.297
-371.800	-200.000	0.033	-0.193
-370.785	302.050	-0.186	-0.345
-369.771	234.814	-0.125	0.206
-368.756	-5.782	-0.207	0.142
-367.742	-200.000	0.013	-0.107
-366.727	74.354	0.079	0.083
-365.712	186.858	0.194	-0.290
-364.698	-35.166	0.057	0.031
-363.683	-3.624	-0.214	-0.149
-362.669	4.004	-0.090	0.066
-361.654	-200.000	-0.008	0.078
-360.639	800.000	0.055	-0.169
-359.625	26.781	0.156	-0.131
-358.610	97.776	-0.175	-0.202
-357.596	669.260	-0.096	-0.248
-356.581	80.545	0.096	0.104
-355.566	-200.000	-0.047	0.258
-354.552	-29.842	0.146	-0.084
-353.537	230.527	0.095	0.156
-352.523	-111.911	-0.089	-0.018
-351.508	-77.807	0.183	-0.063
-350.493	800.000	-0.032	-0.098
-349.479	-154.307	0.292	0.020
-348.464	140.925	-0.037	0.049
-347.450	-66.383	-0.329	0.131
-346.435	800.000	-0.035	0.147
-345.420	-62.272	-0.257	-0.107
-344.406	-52.391	-0.066	-0.030
-343.391	-37.276	-0.067	-0.036
-342.377	103.236	-0.134	-0.157
-341.362	-154.364	-0.264	0.018
-340.348	-200.000	-0.026	0.259
-339.333	249.812	0.096	0.162
-338.318	14.441	0.100	0.078
-337.304	-200.000	0.038	0.400
-336.289	-109.420	-0.217	-0.046
-335.275	62.565	0.254	-0.254
-334.260	-94.051	0.137	0.038
-333.245	-59.491	0.233	0.100
-332.231	500.433	-0.160	0.370
-331.216	196.083	-0.030	-0.045
-330.202	-140.670	0.267	0.028
-329.187	625.473	0.102	0.257
-328.172	211.452	-0.260	-0.410
-327.158	19.826	-0.068	-0.054
-326.143	518.742	0.084	0.197
-325.129	171.327	0.282	0.405
-324.114	-57.437	-0.096	-0.042
-323.099	-85.364	0.457	0.143
-322.085	-200.000	0.018	-0.358
-321.070	-122.801	-0.341	-0.055
-320.056	277.255	-0.062	-0.110
-319.041	-104.024	-0.379	0.088
-318.026	800.000	0.045	0.176
-317.012	-200.000	-0.071	0.406
-315.997	800.000	-0.082	0.316
-314.983	-9.054	-0.158	-0.106
-313.968	-111.676	0.349	0.071
-312.953	83.586	0.194	0.212
-311.939	-80.477	-0.158	-0.053
-310.924	78.986	0.115	0.123
-309.910	353.318	0.097	0.192
-308.895	209.964	0.252	-0.396
-307.880	8.702	0.373	-0.281
-306.866	-151.414	0.259	-0.019
-305.851	-76.247	0.300	-0.106
-304.837	242.907	-0.155	0.259
-303.822	-92.724	0.203	-0.057
-302.807	230.444	0.138	-0.226
-301.793	117.479	0.166	-0.204
-300.778	-69.937	0.093	-0.036
-299.764	-152.736	-0.063	-0.005
-298.749	800.000	-0.045	0.150
-297.735	-67.054	0.242	-0.095
-296.720	-136.811	0.443	0.051
-295.705	-163.560	-0.252	-0.012
-294.691	136.113	-0.240	0.312
-293.676	-200.000	-0.021	-0.222
-292.662	156.109	0.133	-0.183
-291.647	-170.531	-0.045	0.002
-290.632	253.264	-0.146	0.249
-289.618	-200.000	0.007	-0.112
-288.603	800.000	0.008	0.028
-287.589	659.821	-0.118	-0.303
-286.574	137.379	0.089	0.117
-285.559	-17.458	0.216	0.136
-284.545	-120.189	-0.151	-0.026
-283.530	800.000	-0.094	-0.267
-282.516	-200.000	0.005	-0.071
-281.501	-200.000	0.026	-0.327
-280.486	82.477	0.307	-0.333
-279.472	-24.550	0.140	0.083
-278.457	-71.256	-0.189	0.071
-277.443	-54.628	-0.064	0.029
-276.428	-121.089	-0.302	0.051
-275.413	-200.000	-0.050	-0.261
-274.399	99.243	0.197	0.227
-273.384	-69.698	0.380	-0.145
-272.370	-125.356	-0.267	-0.041
-271.355	800.000	0.034	-0.143
-270.340	-33.192	0.060	0.033
-269.326	237.954	0.134	-0.223
-268.311	-172.629	-0.152	-0.005
-267.297	46.439	-0.162	0.150
-266.282	-200.000	-0.003	-0.070
-265.267	-129.776	-0.095	0.013
-264.253	43.777	0.194	0.177
-263.238	-143.354	-0.251	0.024
-262.224	-200.000	0.033	0.246
-261.209	-142.883	-0.243	0.024
-260.195	-47.766	0.129	0.063
-259.180	276.805	-0.175	0.311
-258.165	7.642	0.376	-0.281
-257.151	-74.773	0.305	0.109
-256.136	-10.985	-0.150	-0.099
-255.122	323.998	-0.067	-0.127
-254.107	-118.259	0.225	0.040
-253.092	-155.810	-0.185	0.012
-252.078	-157.957	-0.443	0.026
-251.063	129.414	-0.281	0.358
-250.049	-106.131	-0.032	0.007
-249.034	-168.827	0.192	0.007
-248.019	-200.000	0.048	0.312
-247.005	-68.363	-0.307	-0.119
-245.990	-96.309	0.142	-0.037
-244.976	800.000	0.027	-0.090
-243.961	-200.000	-0.036	-0.185
-242.946	-200.000	0.036	-0.539
-241.932	81.931	-0.143	0.154
-240.917	-71.753	-0.419	0.156
-239.903	-200.000	-0.002	0.163
-238.888	-200.000	-0.081	-0.372
-237.873	675.138	-0.114	-0.296
-236.859	-200.000	0.036	-0.200
-235.844	10.903	0.135	0.103
-234.830	-75.108	-0.150	0.054
-233.815	47.537	0.105	-0.098
-232.800	-88.541	0.244	0.073
-231.786	-102.895	0.126	0.030
-230.771	-64.220	-0.223	0.090
-229.757	-200.000	-0.008	0.438
-228.742	-3.578	0.193	0.134
-227.727	800.000	-0.037	0.141
-226.713	800.000	0.093	-0.272
-225.698	800.000	-0.075	0.209
-224.684	-90.363	0.225	-0.065
-223.669	-200.000	0.002	-0.223
-222.655	94.944	0.097	-0.110
-221.640	800.000	-0.034	-0.144
-220.625	549.925	-0.001	0.004
-219.611	-52.754	0.212	0.097
-218.596	-200.000	-0.030	0.186
-217.582	-29.164	0.289	-0.165
-216.567	517.603	-0.144	-0.336
-215.552	-153.962	0.240	0.016
-214.538	254.409	-0.037	0.063
-213.523	-24.075	0.142	-0.084
-212.509	-155.562	-0.260	0.017
-211.494	800.000	0.046	-0.186
-210.479	-73.165	0.444	-0.162
-209.465	-70.322	-0.350	0.132
-208.450	-200.000	-0.033	-0.178
-207.436	-37.901	-0.050	-0.026
-206.421	-107.952	-0.063	-0.014
-205.406	472.739	-0.057	0.127
-204.392	361.486	0.163	-0.325
-203.377	-33.937	-0.103	-0.056
-202.363	-200.000	-0.001	0.098
-201.348	-0.400	-0.212	0.150
-200.333	-200.000	0.001	0.178
-199.319	-23.327	-0.235	0.140
-198.304	74.045	0.310	0.324
-197.290	11.734	0.066	-0.050
-196.275	-132.431	0.225	-0.029
-195.260	299.955	0.028	0.051
-194.246	-81.479	-0.079	0.026
-193.231	800.000	0.029	-0.082
-192.217	-31.158	0.216	-0.121
-191.202	7.429	-0.292	0.217
-190.187	593.887	0.167	0.412
-189.173	-200.000	-0.030	-0.157
-188.158	800.000	0.021	0.070
-187.144	178.757	0.045	0.066
-186.129	-120.754	-0.306	0.051
-185.114	19.022	0.190	0.152
-184.100	2.895	0.060	-0.043
-183.085	-97.555	-0.177	0.046
-182.071	-86.181	0.536	0.164
-181.056	-182.268	-0.079	0.001
-180.042	295.687	0.019	-0.035
-179.027	-62.918	-0.222	0.091
-178.012	76.025	-0.263	0.277
-176.998	-200.000	-0.036	0.266
-175.983	-8.390	-0.197	-0.132
-174.969	-200.000	0.036	0.244
-173.954	-93.025	-0.238	-0.066
-172.939	182.401	0.042	0.061
-171.925	-19.844	0.154	-0.094
-170.910	-88.124	-0.213	0.063
-169.896	276.796	0.072	0.128
-168.881	614.070	-0.091	-0.227
-167.866	2.576	0.299	-0.215
-166.852	800.000	0.049	0.177
-165.837	7.102	0.087	0.065
-164.823	800.000	-0.080	-0.222
-163.808	352.189	0.101	0.199
-162.793	545.187	-0.133	-0.316
-161.779	-200.000	-0.003	-0.073
-160.764	754.961	0.135	0.363
-159.750	192.049	-0.121	0.182
-158.735	800.000	0.027	0.095
-157.720	-143.750	0.083	-0.008
-156.706	-70.103	0.496	0.188
-155.691	396.492	0.043	0.090
-154.677	-145.683	0.348	-0.031
-153.662	6.586	-0.097	0.072
-152.647	800.000	-0.060	0.224
-151.633	-99.661	-0.291	-0.073
-150.618	81.524	-0.076	0.082
-149.604	-60.826	-0.184	0.078
-148.589	-24.061	0.498	0.296
-147.574	-200.000	0.005	0.262
-146.560	345.125	-0.069	-0.135
-145.545	379.808	0.057	-0.115
-144.531	-25.121	0.192	-0.113
-143.516	124.436	-0.256	0.320
-142.502	-103.076	0.089	0.021
-141.487	-13.120	-0.436	-0.282
-140.472	-200.000	0.017	0.119
-139.458	-57.825	-0.171	-0.075
-138.443	107.111	-0.052	-0.062
-137.429	800.000	-0.053	0.161
-136.414	46.545	-0.076	-0.070
-135.399	-200.000	0.432	0.000
-134.385	800.000	0.019	-0.058
-133.370	204.377	-0.097	0.150
-132.356	-24.528	0.038	-0.023
-131.341	-90.575	0.132	-0.038
-130.326	242.127	0.190	0.315
-129.312	-131.197	0.081	-0.011
-128.297	630.230	0.125	0.315
-127.283	-117.112	0.213	-0.038
-126.268	122.575	0.108	0.134
-125.253	-200.000	0.008	-0.294
-124.239	8.214	-0.151	-0.113
-123.224	25.449	-0.324	-0.268
-122.210	-200.000	-0.028	-0.242
-121.195	131.335	0.144	-0.184
