DTS Sentinel unit serial number:	SN413079Multiplexer serial number:	ORYXHardware model number:	OX4-SRSoftware version number:	ORYX F/W v4.00 Oryx Data Collector v3.7.2.0data status	okinstallation	princeton_trtdifferential loss correction	single-endedforward channel	channel 4reverse channel	N/Adate	2019/09/14time	14:37:35forward acquisition time	60.00reverse acquisition time	0.00gamma	496.2192k internal	0.2289k external	0.2289temperature offset calibration	1.0140default loss term (dB/km)	0.3790temperature slope calibration	1.0000multiplexer offset coefficient	1.0000multiplexer slope coefficient	1.0000fibre end	0.00T internal ref (°C)	39.25T ext. ref 1 (°C)	4.99T ext. ref 2 (°C)	35.10length (m)	temperature (°C)	Stokes	anti-Stokes-747.200	467.613	-0.239	0.549
-746.185	-92.134	-0.251	0.073
-745.171	78.386	-0.188	0.206
-744.156	7.069	-0.061	-0.047
-743.142	-200.000	-0.025	0.248
-742.127	-147.792	0.360	-0.031
-741.112	800.000	0.046	0.142
-740.098	-58.323	0.300	0.134
-739.083	800.000	-0.077	0.234
-738.069	190.027	0.275	0.423
-737.054	-200.000	0.035	0.405
-736.039	-61.597	-0.301	0.129
-735.025	800.000	-0.109	0.482
-734.010	-129.826	0.118	-0.017
-732.996	243.098	-0.135	-0.231
-731.981	256.349	-0.050	-0.088
-730.966	256.753	-0.065	0.114
-729.952	800.000	-0.042	0.132
-728.937	-34.816	0.202	0.113
-727.923	70.674	0.128	-0.136
-726.908	-123.330	-0.146	-0.024
-725.894	38.158	-0.090	0.082
-724.879	81.272	-0.284	-0.314
-723.864	-200.000	0.002	0.021
-722.850	-74.840	0.341	0.125
-721.835	-169.949	-0.190	0.007
-720.821	209.711	0.105	-0.169
-719.806	140.410	0.155	-0.210
-718.791	-2.247	-0.033	-0.024
-717.777	-137.180	-0.188	-0.022
-716.762	800.000	0.090	-0.303
-715.748	243.857	0.078	-0.133
-714.733	171.991	0.181	-0.266
-713.718	-116.430	0.071	0.013
-712.704	61.602	0.183	-0.186
-711.689	-16.875	-0.212	-0.137
-710.675	-36.892	0.224	-0.123
-709.660	568.916	0.107	-0.265
-708.645	47.610	0.117	0.112
-707.631	-29.459	-0.222	0.130
-706.616	-79.089	-0.101	0.035
-705.602	-183.133	0.229	0.004
-704.587	-19.725	0.103	-0.065
-703.572	-87.804	-0.290	-0.089
-702.558	386.083	-0.025	0.054
-701.543	123.296	0.255	0.326
-700.529	800.000	0.037	0.152
-699.514	580.827	-0.028	0.071
-698.499	800.000	-0.120	-0.391
-697.485	-2.986	0.181	0.129
-696.470	273.298	0.102	-0.184
-695.456	37.355	-0.312	0.283
-694.441	-85.217	0.150	-0.048
-693.426	800.000	-0.066	-0.242
-692.412	44.806	0.247	-0.233
-691.397	0.474	-0.385	-0.282
-690.383	237.485	0.136	0.231
-689.368	-75.150	0.264	-0.096
-688.354	-2.165	0.146	-0.105
-687.339	-34.707	0.146	-0.082
-686.324	-93.713	-0.165	-0.047
-685.310	0.163	-0.340	0.248
-684.295	327.052	-0.059	-0.116
-683.281	-14.698	0.046	0.030
-682.266	-140.892	-0.078	0.008
-681.251	-96.529	-0.125	0.034
-680.237	-172.395	-0.228	-0.007
-679.222	51.142	-0.303	0.293
-678.208	95.180	-0.209	-0.244
-677.193	90.565	-0.096	-0.110
-676.178	-200.000	-0.030	-0.363
-675.164	24.047	-0.223	0.188
-674.149	236.522	-0.120	0.203
-673.135	-100.823	-0.321	0.081
-672.120	145.299	-0.089	0.122
-671.105	556.317	0.057	0.139
-670.091	-200.000	-0.035	-0.212
-669.076	70.213	-0.365	0.385
-668.062	-200.000	-0.011	0.299
-667.047	800.000	0.032	0.140
-666.032	-200.000	0.030	0.146
-665.018	800.000	-0.108	0.364
-664.003	800.000	-0.055	0.157
-662.989	-200.000	0.020	0.245
-661.974	217.221	0.150	0.244
-660.959	-125.857	0.214	-0.033
-659.945	800.000	-0.009	0.040
-658.930	-71.919	0.296	-0.112
-657.916	-200.000	0.008	-0.147
-656.901	-200.000	-0.008	-0.563
-655.886	330.639	-0.195	0.383
-654.872	800.000	-0.053	-0.174
-653.857	-200.000	-0.033	0.402
-652.843	-75.120	-0.056	0.020
-651.828	-200.000	-0.163	-0.000
-650.814	-200.000	0.038	0.187
-649.799	-4.511	-0.268	-0.189
-648.784	184.143	-0.077	0.116
-647.770	73.084	0.157	0.167
-646.755	-32.995	-0.137	0.078
-645.741	-54.931	-0.250	0.115
-644.726	-104.907	0.141	-0.033
-643.711	-94.402	-0.127	-0.035
-642.697	-106.249	0.314	0.072
-641.682	185.421	0.185	0.280
-640.668	88.593	-0.078	0.088
-639.653	-200.000	-0.066	0.297
-638.638	800.000	-0.020	-0.089
-637.624	40.799	-0.084	0.077
-636.609	-139.244	0.034	-0.004
-635.595	-200.000	0.023	0.220
-634.580	597.951	-0.036	-0.090
-633.565	125.482	0.109	-0.140
-632.551	-200.000	0.002	0.399
-631.536	-189.713	-0.240	-0.003
-630.522	-141.617	-0.108	0.011
-629.507	10.762	0.188	-0.146
-628.492	-200.000	0.031	-0.347
-627.478	800.000	-0.066	-0.217
-626.463	-92.810	0.157	-0.045
-625.449	171.440	-0.094	0.138
-624.434	-145.177	-0.188	-0.017
-623.419	-83.941	0.300	-0.097
-622.405	-200.000	-0.013	-0.108
-621.390	-25.680	-0.254	-0.153
-620.376	202.061	-0.115	-0.181
-619.361	-56.052	-0.193	-0.087
-618.346	11.144	-0.208	0.162
-617.332	-7.257	-0.204	0.141
-616.317	177.347	-0.137	-0.204
-615.303	-104.857	-0.018	0.004
-614.288	-92.886	-0.168	0.048
-613.273	149.944	-0.093	-0.129
-612.259	-200.000	0.030	-0.166
-611.244	327.540	-0.070	-0.137
-610.230	1.120	0.131	-0.096
-609.215	-59.191	-0.263	-0.116
-608.201	175.491	-0.154	0.228
-607.186	-200.000	0.013	0.078
-606.171	60.799	0.204	-0.206
-605.157	178.065	-0.084	0.126
-604.142	-171.880	-0.290	-0.010
-603.128	395.963	0.112	-0.238
-602.113	44.978	-0.238	-0.223
-601.098	485.139	0.142	-0.329
-600.084	-200.000	-0.007	-0.179
-599.069	141.579	-0.174	0.235
-598.055	10.168	-0.231	-0.179
-597.040	-36.599	0.148	-0.081
-596.025	800.000	-0.050	0.211
-595.011	-200.000	-0.045	-0.379
-593.996	-28.493	0.180	-0.106
-592.982	32.506	-0.168	0.148
-591.967	-68.572	-0.089	0.035
-590.952	-166.777	0.236	-0.010
-589.938	220.424	0.069	-0.113
-588.923	61.037	-0.266	-0.269
-587.909	-92.907	0.126	0.036
-586.894	800.000	0.032	0.098
-585.879	333.788	0.113	-0.223
-584.865	-3.609	0.261	-0.185
-583.850	-96.374	0.038	0.010
-582.836	-200.000	-0.000	-0.088
-581.821	432.568	0.238	0.526
-580.806	745.077	0.059	-0.162
-579.792	-200.000	0.005	-0.192
-578.777	173.596	0.099	0.145
-577.763	281.428	0.176	0.321
-576.748	-200.000	-0.041	0.314
-575.733	294.892	0.101	-0.188
-574.719	-200.000	-0.045	-0.505
-573.704	108.499	-0.194	0.235
-572.690	-77.966	0.197	0.069
-571.675	-119.827	0.180	0.032
-570.661	-18.497	-0.205	-0.130
-569.646	595.232	-0.112	-0.282
-568.631	-94.268	-0.202	0.056
-567.617	133.527	-0.207	-0.273
-566.602	7.174	0.167	-0.127
-565.588	800.000	-0.096	-0.275
-564.573	104.560	0.036	-0.043
-563.558	800.000	-0.119	-0.384
-562.544	-23.624	0.119	0.073
-561.529	227.598	-0.114	-0.189
-560.515	800.000	0.030	-0.093
-559.500	-9.825	-0.299	-0.202
-558.485	553.021	-0.042	-0.103
-557.471	-105.129	0.193	-0.045
-556.456	123.574	-0.144	0.184
-555.442	-17.817	0.175	0.112
-554.427	-200.000	0.121	-0.550
-553.412	-183.844	0.440	-0.008
-552.398	43.579	0.128	0.119
-551.383	-200.000	0.008	0.319
-550.369	-114.699	-0.456	-0.089
-549.354	428.380	-0.133	-0.291
-548.339	111.075	0.030	-0.037
-547.325	177.698	-0.198	0.293
-546.310	145.607	0.157	0.214
-545.296	-70.012	-0.146	-0.057
-544.281	310.234	-0.070	0.134
-543.266	-12.559	0.146	0.097
-542.252	-17.382	-0.257	0.164
-541.237	394.371	-0.010	-0.021
-540.223	245.183	0.148	-0.253
-539.208	-13.729	-0.154	0.101
-538.193	-93.212	-0.018	-0.005
-537.179	800.000	-0.036	-0.104
-536.164	-82.463	0.057	0.019
-535.150	-100.822	0.047	0.012
-534.135	-172.295	0.232	-0.008
-533.121	40.090	0.055	-0.051
-532.106	800.000	-0.054	0.166
-531.091	-60.727	0.155	-0.067
-530.077	19.890	0.123	0.101
-529.062	800.000	0.168	0.497
-528.048	388.418	0.123	-0.260
-527.033	800.000	0.080	0.244
-526.018	-200.000	0.023	0.122
-525.004	-36.434	-0.228	0.125
-523.989	800.000	-0.074	-0.264
-522.975	-3.168	-0.232	0.165
-521.960	-80.012	-0.225	-0.077
-520.945	800.000	0.080	-0.277
-519.931	-200.000	-0.028	-0.185
-518.916	25.453	0.363	0.306
-517.902	171.784	0.104	-0.152
-516.887	380.141	0.163	-0.339
-515.872	-200.000	0.000	0.167
-514.858	-112.985	0.211	0.042
-513.843	71.610	0.310	0.327
-512.829	-16.972	0.249	0.160
-511.814	-200.000	-0.065	-0.337
-510.799	236.679	-0.165	0.277
-509.785	45.642	0.216	-0.203
-508.770	-7.982	-0.251	-0.172
-507.756	38.907	-0.131	0.119
-506.741	-84.058	0.241	0.078
-505.726	-200.000	-0.023	0.336
-504.712	92.946	0.347	0.398
-503.697	-200.000	-0.048	0.212
-502.683	56.261	-0.083	0.082
-501.668	800.000	-0.068	-0.230
-500.653	-6.182	0.104	0.072
-499.639	-200.000	-0.024	-0.135
-498.624	-175.960	0.281	-0.008
-497.610	800.000	0.087	-0.334
-496.595	-200.000	-0.014	0.121
-495.581	-200.000	0.006	-0.223
-494.566	85.154	0.223	0.249
-493.551	258.257	0.113	-0.198
-492.537	-100.085	-0.143	-0.036
-491.522	48.416	-0.170	0.161
-490.508	-200.000	0.005	0.033
-489.493	-200.000	0.002	-0.188
-488.478	-69.743	-0.262	-0.101
-487.464	-200.000	-0.053	-0.305
-486.449	-78.971	0.184	0.064
-485.435	83.002	-0.092	0.101
-484.420	-41.205	-0.042	0.022
-483.405	-31.218	-0.210	0.120
-482.391	205.691	0.074	0.117
-481.376	-143.516	0.198	-0.019
-480.362	7.293	-0.262	0.198
-479.347	-116.382	-0.282	0.053
-478.332	241.275	-0.056	0.095
-477.318	732.263	-0.084	0.228
-476.303	-200.000	0.034	-0.310
-475.289	-110.791	-0.204	-0.043
-474.274	341.180	-0.158	-0.313
-473.259	-200.000	0.032	-0.173
-472.245	-68.608	-0.105	-0.041
-471.230	-200.000	0.035	0.308
-470.216	117.157	-0.114	0.142
-469.201	-200.000	0.035	-0.226
-468.186	241.463	0.098	0.166
-467.172	593.810	0.120	0.302
-466.157	474.311	0.119	0.273
-465.143	235.004	0.100	-0.168
-464.128	-200.000	0.026	0.176
-463.113	800.000	-0.098	-0.327
-462.099	-103.029	-0.207	-0.050
-461.084	100.998	-0.055	-0.065
-460.070	13.220	-0.143	0.113
-459.055	800.000	0.029	-0.111
-458.040	68.840	0.054	-0.056
-457.026	97.344	-0.249	-0.290
-456.011	-24.539	-0.130	-0.079
-454.997	-3.557	-0.189	-0.133
-453.982	-5.823	-0.077	-0.053
-452.968	-3.282	0.215	0.152
-451.953	47.442	0.051	-0.049
-450.938	-113.541	-0.107	0.021
-449.924	195.186	0.083	-0.127
-448.909	-181.717	-0.151	-0.003
-447.895	-200.000	0.049	0.318
-446.880	-1.434	-0.231	-0.165
-445.865	-200.000	-0.035	0.165
-444.851	318.886	0.206	0.396
-443.836	800.000	-0.062	0.220
-442.822	81.344	0.149	0.163
-441.807	206.506	-0.113	0.179
-440.792	331.527	-0.026	-0.050
-439.778	-184.277	0.204	0.003
-438.763	244.503	0.071	0.122
-437.749	196.363	-0.132	0.204
-436.734	133.320	0.058	0.076
-435.719	277.723	0.112	-0.201
-434.705	-120.239	0.158	0.027
-433.690	84.280	-0.187	-0.207
-432.676	-106.661	-0.023	-0.005
-431.661	-78.154	0.276	-0.096
-430.646	800.000	-0.076	-0.240
-429.632	147.492	-0.142	0.193
-428.617	-200.000	0.000	-0.030
-427.603	218.440	0.168	-0.271
-426.588	138.119	0.125	0.166
-425.573	-200.000	-0.010	0.109
-424.559	57.524	-0.201	-0.199
-423.544	40.925	-0.025	-0.023
-422.530	703.393	-0.110	0.293
-421.515	-130.203	0.204	-0.028
-420.500	65.083	0.139	0.142
-419.486	29.928	0.240	0.207
-418.471	-108.451	-0.364	0.079
-417.457	207.579	-0.135	-0.213
-416.442	-38.846	0.372	0.199
-415.428	6.787	-0.208	-0.156
-414.413	-9.229	0.191	0.129
-413.398	66.520	-0.100	0.103
-412.384	800.000	0.092	0.359
-411.369	-200.000	0.017	-0.112
-410.355	-36.038	-0.186	0.102
-409.340	35.018	-0.187	0.165
-408.325	-200.000	-0.101	-0.632
-407.311	-54.106	-0.162	-0.074
-406.296	-8.933	0.174	0.118
-405.282	158.740	0.185	-0.260
-404.267	-25.623	0.091	0.054
-403.252	-200.000	0.046	0.314
-402.238	371.959	-0.100	-0.206
-401.223	125.355	-0.084	0.107
-400.209	-107.054	0.133	-0.030
-399.194	301.585	-0.082	-0.154
-398.179	-71.495	-0.152	-0.057
-397.165	-31.704	-0.099	0.056
-396.150	800.000	0.075	0.255
-395.136	659.333	0.076	0.199
-394.121	-165.035	-0.102	-0.005
-393.106	-53.218	0.048	-0.022
-392.092	-82.974	0.606	0.198
-391.077	-136.269	0.171	-0.020
-390.063	177.985	-0.210	0.309
-389.048	-68.347	0.191	-0.075
-388.033	800.000	0.038	0.128
-387.019	-94.965	0.360	0.098
-386.004	-63.844	-0.165	0.068
-384.990	79.861	-0.201	0.218
-383.975	800.000	-0.055	0.195
-382.960	-62.787	0.142	-0.059
-381.946	-39.710	0.092	0.049
-380.931	-200.000	-0.016	0.268
-379.917	441.610	-0.013	0.028
-378.902	-200.000	0.037	0.206
-377.888	-200.000	-0.001	-0.035
-376.873	-200.000	-0.000	-0.043
-375.858	-85.964	0.205	0.064
-374.844	-200.000	0.016	-0.416
-373.829	218.233	-0.111	0.178
-372.815	-71.753	-0.124	-0.047
-371.800	495.537	0.045	-0.104
-370.785	-85.841	-0.286	-0.090
-369.771	17.734	-0.224	0.180
-368.756	61.097	0.259	-0.260
-367.742	157.971	0.064	0.090
-366.727	249.800	0.063	0.107
-365.712	-130.704	0.299	0.041
-364.698	800.000	0.042	-0.151
-363.683	-200.000	-0.014	-0.182
-362.669	-131.171	0.220	0.030
-361.654	-71.253	-0.329	-0.125
-360.639	-200.000	0.031	-0.295
-359.625	96.819	-0.048	0.056
-358.610	-9.360	-0.033	-0.023
-357.596	20.516	0.180	-0.147
-356.581	-200.000	0.060	0.300
-355.566	-3.034	0.459	0.324
-354.552	-200.000	-0.036	-0.374
-353.537	315.053	0.080	0.153
-352.523	260.269	0.147	-0.256
-351.508	468.092	-0.067	0.153
-350.493	-81.807	0.104	0.034
-349.479	241.346	-0.036	-0.061
-348.464	230.549	-0.056	-0.092
-347.450	-132.418	-0.227	-0.030
-346.435	-62.125	0.036	0.015
-345.420	0.407	-0.241	-0.173
-344.406	-200.000	0.025	0.129
-343.391	-49.601	-0.251	0.120
-342.377	-87.688	-0.356	0.108
-341.362	-18.920	0.208	0.131
-340.348	-108.057	-0.432	-0.095
-339.333	-128.292	0.152	0.022
-338.318	-107.137	0.601	-0.134
-337.304	-200.000	0.017	-0.391
-336.289	115.149	0.045	-0.055
-335.275	-28.622	-0.290	-0.168
-334.260	-73.849	0.027	-0.010
-333.245	800.000	0.065	0.198
-332.231	-200.000	-0.031	-0.198
-331.216	24.520	-0.252	-0.210
-330.202	-67.805	-0.133	-0.052
-329.187	-200.000	-0.025	-0.110
-328.172	98.255	0.147	0.171
-327.158	-17.346	-0.202	-0.128
-326.143	37.727	-0.277	0.248
-325.129	32.908	0.090	0.078
-324.114	800.000	-0.045	-0.152
-323.099	-102.104	0.101	0.024
-322.085	56.082	0.107	0.105
-321.070	6.720	0.250	0.188
-320.056	412.477	-0.153	0.329
-319.041	-200.000	-0.035	0.203
-318.026	174.656	-0.109	-0.159
-317.012	-41.864	0.083	-0.043
-315.997	-0.396	0.238	0.171
-314.983	131.464	-0.270	-0.349
-313.968	800.000	-0.084	0.303
-312.953	-68.879	0.037	0.014
-311.939	-88.729	0.212	-0.064
-310.924	81.773	0.047	-0.051
-309.910	-115.520	-0.370	0.070
-308.895	-200.000	-0.051	-0.325
-307.880	27.107	-0.197	0.166
-306.866	-200.000	-0.021	-0.221
-305.851	-200.000	-0.027	0.166
-304.837	-200.000	-0.129	0.585
-303.822	-115.239	0.334	0.064
-302.807	160.797	-0.048	-0.067
-301.793	-200.000	0.073	-0.406
-300.778	-77.701	0.236	0.082
-299.764	-200.000	-0.012	-0.086
-298.749	70.995	0.207	-0.216
-297.735	-94.481	-0.236	0.065
-296.720	111.178	-0.158	-0.191
-295.705	-200.000	0.024	-0.181
-294.691	-153.537	0.260	-0.018
-293.676	51.230	-0.119	0.114
-292.662	331.387	0.216	0.418
-291.647	-82.001	-0.238	0.078
-290.632	-200.000	0.035	0.384
-289.618	-92.888	0.458	-0.129
-288.603	800.000	-0.134	-0.442
-287.589	320.489	-0.135	-0.259
-286.574	202.450	-0.062	-0.096
-285.559	-92.144	-0.095	0.027
-284.545	-200.000	0.034	0.291
-283.530	-200.000	0.007	0.045
-282.516	257.893	0.174	-0.301
-281.501	-179.812	-0.095	0.002
-280.486	-136.713	0.050	-0.006
-279.472	59.821	-0.131	0.130
-278.457	119.920	-0.204	0.255
-277.443	206.156	-0.171	-0.267
-276.428	-131.009	-0.104	-0.014
-275.413	800.000	0.023	-0.085
-274.399	-22.566	-0.019	0.012
-273.384	-136.755	-0.593	0.069
-272.370	-131.063	0.176	0.024
-271.355	-22.551	-0.099	-0.061
-270.340	-83.654	0.233	-0.075
-269.326	-185.282	0.077	-0.001
-268.311	800.000	0.101	0.328
-267.297	31.728	-0.091	0.079
-266.282	57.946	0.117	-0.116
-265.267	578.447	0.077	-0.190
-264.253	223.191	0.194	-0.314
-263.238	131.799	-0.127	0.164
-262.224	-154.462	-0.280	0.019
-261.209	-147.582	-0.133	-0.011
-260.195	800.000	0.062	0.215
-259.180	800.000	-0.039	0.119
-258.165	-74.996	0.390	-0.141
-257.151	142.734	-0.184	0.245
-256.136	-200.000	0.005	0.147
-255.122	-200.000	0.059	-0.299
-254.107	-200.000	-0.006	-0.233
-253.092	-15.162	0.099	0.064
-252.078	800.000	-0.003	-0.010
-251.063	-95.071	0.109	-0.030
-250.049	-135.551	0.288	-0.034
-249.034	323.902	0.110	-0.212
-248.019	-200.000	0.005	-0.092
-247.005	128.515	-0.182	0.233
-245.990	-200.000	0.035	0.257
-244.976	770.101	0.059	-0.161
-243.961	169.697	-0.138	-0.198
-242.946	300.436	-0.106	0.196
-241.932	89.690	-0.194	0.218
-240.917	87.378	-0.185	-0.206
-239.903	206.661	0.084	0.132
-238.888	-200.000	0.028	-0.174
-237.873	-100.462	0.196	0.049
-236.859	800.000	-0.047	0.197
-235.844	-18.602	0.529	0.331
-234.830	800.000	0.095	-0.399
-233.815	-86.931	-0.368	-0.113
-232.800	118.250	-0.088	0.109
-231.786	-48.276	-0.101	-0.049
-230.771	800.000	0.094	-0.412
-229.757	-120.536	0.196	0.033
-228.742	150.028	-0.190	0.258
-227.727	28.459	0.103	-0.088
-226.713	-104.209	-0.140	0.033
-225.698	52.174	-0.247	-0.236
-224.684	-200.000	-0.014	0.170
-223.669	-84.497	-0.075	0.024
-222.655	800.000	0.089	-0.248
-221.640	173.102	-0.138	0.200
-220.625	-51.127	-0.298	0.140
-219.611	-64.158	0.305	0.125
-218.596	-44.916	0.155	0.077
-217.582	-125.992	0.144	-0.022
-216.567	-200.000	-0.021	-0.109
-215.552	215.019	0.095	-0.152
-214.538	-54.528	-0.115	0.052
-213.523	-135.547	0.079	-0.009
-212.509	468.398	-0.045	-0.102
-211.494	-56.083	0.239	-0.107
-210.479	-13.239	0.259	0.169
-209.465	169.000	-0.234	0.335
-208.450	-200.000	0.043	-0.300
-207.436	39.189	-0.129	-0.116
-206.421	170.721	0.099	0.143
-205.406	-200.000	0.008	-0.051
-204.392	117.288	-0.207	0.255
-203.377	-41.132	-0.041	-0.021
-202.363	-69.164	0.230	-0.089
-201.348	191.701	-0.065	0.098
-200.333	41.015	0.154	0.139
-199.319	81.012	0.208	0.225
-198.304	-78.754	0.181	-0.062
-197.290	313.224	0.159	-0.299
-196.275	-198.528	-0.206	0.001
-195.260	-70.989	0.067	-0.025
-194.246	-179.022	0.204	-0.005
-193.231	800.000	0.062	0.211
-192.217	329.512	0.127	-0.244
-191.202	101.609	-0.201	0.235
-190.187	203.808	-0.058	-0.091
-189.173	97.275	0.118	0.136
-188.158	289.475	-0.146	-0.265
-187.144	235.159	-0.059	0.097
-186.129	11.759	0.320	0.246
-185.114	800.000	-0.104	0.355
-184.100	-75.109	0.151	-0.054
-183.085	168.779	0.104	0.148
-182.071	800.000	-0.027	-0.092
-181.056	-26.897	-0.159	-0.093
-180.042	-200.000	-0.004	0.093
-179.027	800.000	-0.066	-0.199
-178.012	5.427	0.155	-0.114
-176.998	30.960	-0.143	0.123
-175.983	-68.376	0.139	-0.054
-174.969	-200.000	0.073	-0.331
-173.954	262.627	-0.072	-0.126
-172.939	4.795	0.118	0.087
-171.925	-104.988	0.329	-0.076
-170.910	-75.815	-0.253	-0.090
-169.896	-95.707	-0.163	0.044
-168.881	415.381	-0.121	-0.259
-167.866	-54.246	0.196	0.089
-166.852	-59.858	-0.096	-0.041
-165.837	-34.302	0.397	-0.219
-164.823	800.000	-0.028	0.088
-163.808	-200.000	0.045	-0.235
-162.793	-123.364	0.023	0.004
-161.779	132.122	0.027	0.035
-160.764	304.420	0.028	0.053
-159.750	23.307	0.189	0.156
-158.735	-200.000	-0.044	0.288
-157.720	-200.000	0.007	0.447
-156.706	800.000	-0.035	0.130
-155.691	-52.043	-0.194	0.090
-154.677	-130.403	-0.140	0.019
-153.662	129.572	-0.257	-0.329
-152.647	372.226	0.061	-0.123
-151.633	-200.000	-0.029	0.396
-150.618	53.569	0.079	0.076
-149.604	352.408	0.212	0.421
-148.589	-200.000	0.047	0.213
-147.574	-10.905	-0.229	-0.151
-146.560	-142.264	0.208	0.021
-145.545	-150.460	-0.184	-0.014
-144.531	-15.882	0.074	0.047
-143.516	-95.110	0.368	0.099
-142.502	698.742	0.105	0.276
-141.487	513.715	0.090	0.209
-140.472	-125.239	0.076	0.012
-139.458	434.311	-0.064	-0.138
-138.443	776.787	-0.043	-0.119
-137.429	20.154	0.143	-0.115
-136.414	45.930	0.166	-0.154
-135.399	800.000	-0.080	0.279
-134.385	-82.165	-0.200	0.065
-133.370	32.637	0.148	0.128
-132.356	-89.069	0.449	-0.133
-131.341	-32.184	0.242	-0.135
-130.326	-86.689	-0.346	-0.106
-129.312	39.565	0.301	0.270
-128.297	-200.000	0.046	0.258
-127.283	454.929	0.093	-0.206
-126.268	165.850	0.108	-0.153
-125.253	227.972	-0.078	-0.127
-124.239	14.427	0.174	-0.136
-123.224	13.585	0.116	-0.090
-122.210	501.286	0.051	0.117
-121.195	-80.339	0.473	0.158
-120.180	-99.767	0.125	-0.031
