DTS Sentinel unit serial number:	SN413079Multiplexer serial number:	ORYXHardware model number:	OX4-SRSoftware version number:	ORYX F/W v4.00 Oryx Data Collector v3.7.2.0data status	okinstallation	princeton_trtdifferential loss correction	single-endedforward channel	channel 4reverse channel	N/Adate	2019/09/15time	06:13:34forward acquisition time	60.00reverse acquisition time	0.00gamma	496.2192k internal	0.2311k external	0.2311temperature offset calibration	1.0034default loss term (dB/km)	0.3790temperature slope calibration	1.0000multiplexer offset coefficient	1.0000multiplexer slope coefficient	1.0000fibre end	0.00T internal ref (°C)	30.56T ext. ref 1 (°C)	4.83T ext. ref 2 (°C)	25.05length (m)	temperature (°C)	Stokes	anti-Stokes-747.200	195.131	-0.174	-0.269
-746.185	61.399	0.034	-0.034
-745.171	-169.030	0.190	0.007
-744.156	800.000	0.040	-0.168
-743.142	-200.000	-0.026	0.146
-742.127	-132.691	0.205	-0.027
-741.112	70.440	-0.309	-0.324
-740.098	-200.000	-0.046	0.294
-739.083	-75.955	0.353	0.127
-738.069	180.478	0.134	0.200
-737.054	151.777	0.044	-0.061
-736.039	-33.683	0.073	-0.041
-735.025	2.535	-0.028	-0.021
-734.010	800.000	0.047	-0.134
-732.996	96.372	-0.294	0.341
-731.981	-46.012	-0.491	0.245
-730.966	253.190	-0.069	-0.120
-729.952	-76.565	-0.349	-0.124
-728.937	-158.712	-0.256	0.015
-727.923	-89.834	-0.027	0.008
-726.908	51.153	-0.211	-0.203
-725.894	-107.496	-0.323	-0.072
-724.879	-137.898	-0.172	-0.019
-723.864	800.000	-0.023	-0.072
-722.850	359.934	0.069	0.140
-721.835	24.818	-0.290	0.244
-720.821	-56.177	-0.117	0.053
-719.806	-101.880	0.236	0.058
-718.791	-5.972	-0.377	-0.262
-717.777	-101.399	0.198	-0.049
-716.762	195.795	-0.207	0.319
-715.748	-200.000	0.030	0.135
-714.733	-185.184	-0.126	-0.002
-713.718	-33.275	0.162	0.091
-712.704	-57.418	0.034	0.015
-711.689	-91.189	-0.069	0.020
-710.675	142.628	0.161	-0.217
-709.660	-200.000	0.010	-0.196
-708.645	-147.259	-0.360	-0.031
-707.631	28.230	-0.035	-0.030
-706.616	258.547	-0.099	-0.172
-705.602	185.027	0.048	0.073
-704.587	264.923	-0.103	0.181
-703.572	177.869	-0.191	0.283
-702.558	-143.818	0.326	0.031
-701.543	-57.710	0.228	-0.101
-700.529	-54.232	0.181	-0.083
-699.514	20.679	-0.361	0.296
-698.499	20.193	0.242	-0.198
-697.485	401.971	0.279	0.593
-696.470	218.601	0.130	-0.210
-695.456	-83.328	-0.196	-0.064
-694.441	17.965	-0.086	-0.069
-693.426	-158.356	-0.157	0.009
-692.412	-77.144	0.086	-0.030
-691.397	51.241	0.071	0.068
-690.383	-5.683	0.241	0.167
-689.368	619.996	0.123	0.314
-688.354	-101.562	0.034	-0.008
-687.339	577.929	0.138	-0.342
-686.324	-57.790	-0.356	0.158
-685.310	496.825	0.079	-0.183
-684.295	-17.293	-0.261	-0.167
-683.281	-59.205	-0.161	-0.070
-682.266	-136.571	-0.374	0.044
-681.251	-68.717	0.047	-0.019
-680.237	4.319	-0.135	-0.100
-679.222	-4.957	0.066	-0.046
-678.208	138.478	0.117	-0.155
-677.193	-200.000	-0.008	0.041
-676.178	-0.074	0.366	0.264
-675.164	580.585	-0.218	-0.540
-674.149	-14.201	0.465	-0.303
-673.135	-35.674	-0.299	0.164
-672.120	-200.000	0.018	0.083
-671.105	45.319	-0.140	-0.130
-670.091	174.513	0.167	0.244
-669.076	376.357	0.125	-0.259
-668.062	-200.000	0.015	0.130
-667.047	-200.000	-0.012	-0.250
-666.032	72.614	0.105	-0.111
-665.018	35.469	-0.015	0.013
-664.003	222.605	-0.088	0.143
-662.989	-68.707	-0.146	-0.057
-661.974	-44.762	-0.050	0.025
-660.959	-118.357	-0.129	0.023
-659.945	157.444	-0.177	0.248
-658.930	-200.000	-0.021	0.219
-657.916	245.885	-0.249	-0.424
-656.901	-62.568	0.317	-0.133
-655.886	-82.592	-0.288	-0.094
-654.872	-200.000	-0.006	-0.214
-653.857	-47.556	-0.053	-0.026
-652.843	602.589	0.065	0.164
-651.828	-200.000	0.013	-0.116
-650.814	626.679	-0.105	-0.269
-649.799	-36.649	-0.138	0.075
-648.784	800.000	-0.051	0.204
-647.770	800.000	-0.008	0.028
-646.755	800.000	-0.043	0.133
-645.741	-97.072	0.297	-0.078
-644.726	-173.346	0.115	-0.004
-643.711	147.658	0.271	-0.370
-642.697	-65.362	0.087	-0.036
-641.682	-200.000	-0.050	-0.301
-640.668	-126.776	0.273	-0.041
-639.653	22.054	-0.186	-0.153
-638.638	-46.475	0.312	0.155
-637.624	-114.814	-0.079	-0.015
-636.609	-9.430	0.241	-0.162
-635.595	10.284	0.134	0.103
-634.580	212.727	0.180	0.287
-633.565	-200.000	0.017	-0.091
-632.551	-81.315	0.147	0.049
-631.536	-93.124	-0.335	-0.094
-630.522	-200.000	0.045	0.289
-629.507	-129.624	0.320	-0.045
-628.492	20.580	0.259	-0.212
-627.478	57.626	-0.224	-0.221
-626.463	236.357	-0.050	-0.083
-625.449	308.026	0.034	0.064
-624.434	390.224	-0.052	-0.108
-623.419	-194.523	0.099	-0.001
-622.405	-49.976	-0.297	0.142
-621.390	-200.000	0.043	-0.454
-620.376	-76.980	0.374	-0.132
-619.361	-167.780	0.481	-0.019
-618.346	-200.000	0.025	-0.112
-617.332	336.988	-0.021	0.041
-616.317	11.118	-0.111	0.086
-615.303	793.898	-0.065	-0.180
-614.288	-153.899	0.621	-0.043
-613.273	581.862	-0.062	0.154
-612.259	-200.000	0.027	-0.218
-611.244	800.000	-0.080	0.243
-610.230	-109.930	-0.281	-0.059
-609.215	336.437	0.162	-0.318
-608.201	166.118	-0.150	-0.214
-607.186	800.000	0.039	-0.167
-606.171	226.293	-0.099	0.162
-605.157	-21.561	0.085	0.052
-604.142	0.164	-0.073	-0.053
-603.128	-2.286	-0.145	0.103
-602.113	-0.069	-0.253	-0.182
-601.098	-0.470	-0.162	-0.116
-600.084	-200.000	0.039	0.343
-599.069	33.810	-0.094	0.083
-598.055	73.117	-0.226	0.239
-597.040	-102.418	0.052	-0.013
-596.025	-179.315	0.200	0.004
-595.011	219.604	0.117	-0.189
-593.996	188.769	-0.064	-0.097
-592.982	52.210	-0.154	0.148
-591.967	167.412	0.206	-0.296
-590.952	67.801	-0.087	-0.089
-589.938	48.876	0.214	-0.203
-588.923	15.996	0.078	-0.062
-587.909	-12.830	-0.103	0.068
-586.894	-200.000	-0.061	0.303
-585.879	800.000	-0.091	0.353
-584.865	800.000	-0.061	-0.266
-583.850	82.962	0.074	0.081
-582.836	534.071	-0.088	0.210
-581.821	-200.000	0.081	0.532
-580.806	-122.695	0.214	0.035
-579.792	-200.000	0.050	-0.297
-578.777	-10.440	0.094	-0.063
-577.763	702.941	0.056	-0.148
-576.748	195.789	0.163	-0.250
-575.733	-47.796	-0.219	-0.107
-574.719	30.547	0.148	0.127
-573.704	-200.000	0.002	0.067
-572.690	-27.529	-0.095	-0.055
-571.675	-87.923	0.140	-0.042
-570.661	-28.255	0.201	0.117
-569.646	48.117	0.102	0.096
-568.631	-200.000	-0.005	-0.265
-567.617	99.302	-0.145	-0.169
-566.602	98.354	0.308	0.358
-565.588	-200.000	0.008	0.158
-564.573	-32.451	0.232	-0.130
-563.558	-174.585	0.357	0.010
-562.544	-200.000	-0.001	0.118
-561.529	-15.286	0.223	-0.144
-560.515	0.703	0.139	0.101
-559.500	-82.201	-0.227	-0.075
-558.485	-200.000	0.069	0.315
-557.471	-61.338	-0.231	0.098
-556.456	800.000	-0.059	-0.251
-555.442	374.589	0.041	-0.084
-554.427	-200.000	-0.076	0.410
-553.412	59.689	0.047	-0.046
-552.398	800.000	-0.045	0.133
-551.383	-103.741	-0.188	0.044
-550.369	9.123	0.266	0.203
-549.354	-200.000	-0.046	0.258
-548.339	3.286	0.133	0.097
-547.325	-99.167	-0.336	-0.086
-546.310	-143.724	0.200	0.019
-545.296	-79.224	0.197	-0.067
-544.281	-200.000	-0.045	-0.256
-543.266	25.701	-0.063	0.053
-542.252	-200.000	-0.025	-0.118
-541.237	-37.273	0.375	0.202
-540.223	15.943	-0.128	0.101
-539.208	-200.000	0.018	-0.165
-538.193	-7.580	-0.429	-0.292
-537.179	-85.286	-0.195	-0.061
-536.164	80.817	0.226	0.245
-535.150	-39.115	0.123	0.065
-534.135	800.000	0.111	-0.448
-533.121	-69.162	-0.165	0.064
-532.106	198.454	0.085	-0.130
-531.091	183.791	-0.196	0.292
-530.077	-200.000	0.015	0.123
-529.062	-185.096	-0.055	-0.001
-528.048	261.569	-0.037	-0.064
-527.033	-122.159	-0.209	0.034
-526.018	800.000	-0.105	-0.361
-525.004	445.222	-0.112	-0.248
-523.989	-40.388	-0.059	0.031
-522.975	800.000	-0.110	-0.320
-521.960	-63.745	0.173	-0.072
-520.945	204.418	-0.189	-0.296
-519.931	34.670	0.093	0.081
-518.916	-200.000	0.008	0.067
-517.902	306.777	0.037	-0.069
-516.887	-78.382	0.212	0.073
-515.872	-187.645	-0.219	0.003
-514.858	-86.733	0.234	-0.072
-513.843	-200.000	0.020	0.235
-512.829	89.777	-0.084	0.095
-511.814	-13.001	-0.296	0.193
-510.799	800.000	0.038	-0.155
-509.785	-72.028	0.181	-0.068
-508.770	-1.238	-0.077	-0.054
-507.756	29.768	-0.123	0.105
-506.741	-49.573	0.277	-0.132
-505.726	-200.000	0.011	-0.264
-504.712	-200.000	0.034	0.243
-503.697	-200.000	0.020	0.178
-502.683	53.001	-0.155	-0.149
-501.668	186.912	0.050	-0.076
-500.653	250.933	-0.129	-0.221
-499.639	452.302	0.090	0.201
-498.624	85.645	-0.245	-0.271
-497.610	174.462	0.060	0.088
-496.595	-12.884	0.141	0.092
-495.581	105.256	-0.076	0.090
-494.566	-133.189	0.193	-0.025
-493.551	800.000	0.142	-0.466
-492.537	215.484	0.131	-0.208
-491.522	-16.289	-0.240	0.153
-490.508	-156.430	0.094	-0.006
-489.493	-200.000	0.040	-0.206
-488.478	-9.386	0.356	0.239
-487.464	19.429	0.024	0.020
-486.449	277.676	-0.339	0.606
-485.435	-139.333	0.333	-0.036
-484.420	155.983	0.082	-0.113
-483.405	-60.160	-0.187	-0.080
-482.391	-200.000	-0.041	-0.245
-481.376	139.152	-0.025	0.033
-480.362	220.570	-0.183	-0.295
-479.347	-166.117	-0.324	-0.014
-478.332	600.121	-0.021	-0.053
-477.318	-131.702	0.299	0.039
-476.303	-37.698	0.282	-0.151
-475.289	289.144	-0.030	0.055
-474.274	49.519	-0.161	0.152
-473.259	178.089	-0.053	0.077
-472.245	-86.596	-0.219	-0.067
-471.230	-200.000	0.010	-0.067
-470.216	-200.000	-0.002	0.216
-469.201	-200.000	0.013	0.143
-468.186	-36.822	-0.311	0.167
-467.172	96.707	-0.046	-0.053
-466.157	67.183	0.059	0.061
-465.143	19.081	0.052	0.042
-464.128	1.199	0.244	-0.176
-463.113	-184.978	-0.100	0.002
-462.099	87.622	-0.147	0.164
-461.084	355.437	-0.076	0.152
-460.070	209.887	-0.148	0.233
-459.055	-98.025	0.148	-0.038
-458.040	-127.883	-0.058	-0.008
-457.026	200.779	-0.040	-0.062
-456.011	-200.000	0.002	0.073
-454.997	-75.368	-0.295	0.106
-453.982	628.157	-0.090	-0.228
-452.968	-200.000	0.040	-0.271
-451.953	-144.511	0.216	0.020
-450.938	104.747	0.100	0.119
-449.924	-5.897	-0.336	-0.231
-448.909	800.000	-0.062	-0.189
-447.895	112.754	-0.120	0.146
-446.880	-200.000	0.021	-0.177
-445.865	-200.000	0.024	0.108
-444.851	-80.053	0.331	-0.111
-443.836	-64.706	-0.305	-0.124
-442.822	37.420	0.058	0.052
-441.807	800.000	0.028	0.085
-440.792	398.419	0.131	-0.274
-439.778	76.757	-0.027	-0.028
-438.763	61.571	0.096	0.095
-437.749	-200.000	-0.006	0.077
-436.734	-113.172	0.084	0.017
-435.719	-114.560	0.380	0.073
-434.705	26.705	-0.234	0.197
-433.690	-69.905	0.154	0.059
-432.676	-165.876	-0.347	0.015
-431.661	-200.000	0.002	-0.116
-430.646	283.290	0.098	-0.176
-429.632	800.000	-0.046	0.158
-428.617	-135.202	0.124	0.015
-427.603	86.432	-0.171	0.188
-426.588	-151.744	0.268	-0.020
-425.573	49.376	0.229	-0.216
-424.559	671.876	0.045	-0.117
-423.544	-27.350	0.108	-0.063
-422.530	126.106	0.272	0.344
-421.515	571.691	0.164	-0.400
-420.500	154.817	-0.221	0.304
-419.486	-194.759	0.117	0.001
-418.471	40.804	-0.149	-0.135
-417.457	116.267	0.092	-0.114
-416.442	-200.000	-0.057	-0.337
-415.428	-200.000	0.047	-0.252
-414.413	-200.000	-0.007	0.092
-413.398	-17.993	0.353	-0.222
-412.384	186.981	0.209	-0.312
-411.369	243.833	-0.085	-0.144
-410.355	307.286	-0.102	-0.191
-409.340	-200.000	0.016	-0.394
-408.325	-175.306	0.045	-0.001
-407.311	-102.023	0.039	0.010
-406.296	38.298	-0.207	-0.185
-405.282	226.310	0.141	-0.230
-404.267	-25.723	-0.051	-0.030
-403.252	-161.581	0.181	-0.009
-402.238	-81.741	-0.332	0.109
-401.223	-50.576	0.191	-0.090
-400.209	0.338	0.084	-0.060
-399.194	-123.592	0.120	0.019
-398.179	38.655	0.084	-0.075
-397.165	17.825	0.167	-0.133
-396.150	-3.558	0.263	-0.183
-395.136	25.921	0.207	-0.173
-394.121	-126.843	-0.192	0.028
-393.106	-200.000	-0.079	0.423
-392.092	142.879	0.115	-0.153
-391.077	800.000	-0.054	-0.218
-390.063	-132.324	-0.081	-0.010
-389.048	490.963	-0.018	0.042
-388.033	-80.815	0.193	-0.064
-387.019	89.332	-0.126	-0.141
-386.004	800.000	0.068	0.234
-384.990	-138.617	-0.138	-0.015
-383.975	-117.738	-0.307	0.055
-382.960	800.000	-0.054	0.159
-381.946	52.961	0.172	0.165
-380.931	800.000	-0.016	0.055
-379.917	152.329	0.217	-0.297
-378.902	-119.967	0.304	-0.052
-377.888	-84.157	-0.254	-0.081
-376.873	800.000	0.085	-0.256
-375.858	-46.513	-0.091	-0.045
-374.844	-41.496	0.397	0.204
-373.829	660.870	-0.101	-0.260
-372.815	96.555	0.182	-0.208
-371.800	80.127	-0.212	0.228
-370.785	43.134	0.105	0.095
-369.771	-132.359	-0.202	0.026
-368.756	-97.394	-0.181	0.047
-367.742	-200.000	-0.019	-0.114
-366.727	195.635	0.187	-0.284
-365.712	420.921	-0.038	-0.080
-364.698	-73.019	-0.149	0.055
-363.683	303.330	-0.135	-0.251
-362.669	139.376	0.083	-0.109
-361.654	327.531	-0.102	-0.196
-360.639	800.000	-0.097	-0.347
-359.625	162.525	0.021	-0.030
-358.610	-69.017	0.252	0.097
-357.596	-63.502	-0.369	0.152
-356.581	47.713	-0.251	-0.234
-355.566	-59.173	-0.207	-0.089
-354.552	-64.764	-0.026	0.011
-353.537	662.959	0.061	0.158
-352.523	-200.000	0.003	0.161
-351.508	-30.734	0.056	0.032
-350.493	75.819	0.189	-0.200
-349.479	159.639	-0.190	-0.264
-348.464	-94.010	-0.042	0.011
-347.450	0.071	0.156	-0.111
-346.435	685.968	0.100	0.260
-345.420	234.459	-0.130	0.215
-344.406	-64.541	0.111	0.045
-343.391	92.892	-0.200	0.226
-342.377	-64.240	-0.131	-0.053
-341.362	-37.829	0.228	-0.121
-340.348	738.515	0.157	0.420
-339.333	-200.000	-0.005	0.133
-338.318	-200.000	-0.038	-0.310
-337.304	800.000	-0.157	-0.474
-336.289	800.000	-0.136	0.561
-335.275	-112.676	0.203	0.040
-334.260	800.000	-0.068	-0.254
-333.245	37.415	0.047	-0.042
-332.231	-67.084	-0.171	0.067
-331.216	397.206	-0.200	0.416
-330.202	-105.446	-0.462	0.105
-329.187	-113.924	-0.286	0.056
-328.172	51.053	-0.032	-0.030
-327.158	64.014	-0.117	-0.118
-326.143	333.774	-0.159	0.307
-325.129	800.000	-0.057	0.245
-324.114	-66.607	-0.191	-0.076
-323.099	-79.759	-0.153	0.052
-322.085	800.000	-0.032	-0.107
-321.070	-134.689	-0.100	0.012
-320.056	-70.867	-0.195	0.073
-319.041	-200.000	0.025	0.221
-318.026	-200.000	-0.060	0.279
-317.012	-65.559	-0.238	-0.095
-315.997	-107.790	-0.086	-0.019
-314.983	-127.277	-0.213	-0.031
-313.968	-55.101	0.209	-0.094
-312.953	94.752	0.202	0.229
-311.939	-130.927	-0.188	0.025
-310.924	-65.075	0.323	-0.130
-309.910	-72.313	-0.284	-0.105
-308.895	242.888	0.092	0.154
-307.880	489.831	0.138	0.314
-306.866	84.184	-0.078	0.085
-305.851	284.193	0.097	0.174
-304.837	-8.205	0.126	-0.085
-303.822	-23.558	0.093	0.056
-302.807	-120.862	0.110	-0.018
-301.793	407.567	0.024	0.051
-300.778	-200.000	-0.043	0.509
-299.764	487.981	0.085	0.193
-298.749	-122.275	-0.341	-0.056
-297.735	-72.738	0.100	0.037
-296.720	86.071	0.048	0.053
-295.705	-122.958	0.242	-0.039
-294.691	-9.105	-0.177	-0.118
-293.676	800.000	0.116	0.362
-292.662	67.799	0.155	-0.159
-291.647	-148.080	0.278	-0.023
-290.632	-200.000	-0.062	-0.473
-289.618	153.920	-0.083	-0.113
-288.603	24.157	0.239	0.197
-287.589	282.542	-0.111	-0.199
-286.574	-126.789	-0.081	-0.012
-285.559	58.267	0.183	-0.178
-284.545	-200.000	-0.041	-0.195
-283.530	-124.980	0.329	-0.051
-282.516	-200.000	0.083	0.376
-281.501	-64.538	0.409	-0.166
-280.486	-125.703	0.162	-0.025
-279.472	58.229	-0.074	-0.072
-278.457	247.151	-0.105	0.176
-277.443	-200.000	0.072	0.400
-276.428	5.444	-0.078	0.057
-275.413	-182.319	-0.170	0.003
-274.399	46.588	-0.216	0.200
-273.384	161.704	-0.143	-0.200
-272.370	800.000	-0.063	0.178
-271.355	606.896	-0.132	0.327
-270.340	-72.184	0.311	0.115
-269.326	-33.797	0.382	-0.210
-268.311	-197.514	0.201	-0.001
-267.297	800.000	0.046	0.200
-266.282	-14.790	-0.308	0.197
-265.267	-89.742	0.340	-0.099
-264.253	-148.578	-0.087	0.007
-263.238	112.265	-0.270	0.325
-262.224	558.432	-0.060	0.145
-261.209	-80.672	-0.341	-0.113
-260.195	-67.914	-0.205	0.080
-259.180	-200.000	-0.030	0.361
-258.165	36.647	-0.184	0.162
-257.151	-119.348	0.125	-0.022
-256.136	112.172	-0.033	0.040
-255.122	96.830	0.229	0.261
-254.107	234.848	-0.152	-0.250
-253.092	68.766	0.144	0.148
-252.078	-200.000	-0.039	0.319
-251.063	166.802	-0.180	0.254
-250.049	800.000	0.081	0.298
-249.034	-144.960	-0.367	-0.033
-248.019	213.737	0.183	-0.287
-247.005	74.212	0.096	0.101
-245.990	-200.000	0.004	0.305
-244.976	-200.000	0.056	0.282
-243.961	-192.140	-0.243	0.002
-242.946	800.000	-0.090	-0.329
-241.932	-81.823	-0.060	-0.019
-240.917	-92.559	-0.281	-0.079
-239.903	-83.011	-0.271	0.087
-238.888	800.000	0.089	0.295
-237.873	-40.694	-0.100	0.052
-236.859	-200.000	-0.063	-0.344
-235.844	-75.355	0.189	-0.067
-234.830	31.549	-0.159	-0.136
-233.815	800.000	-0.017	0.057
-232.800	44.432	0.350	0.320
-231.786	54.793	-0.224	-0.215
-230.771	313.590	-0.065	-0.122
-229.757	-200.000	-0.001	-0.004
-228.742	157.571	0.156	0.215
-227.727	-200.000	0.012	0.229
-226.713	-53.966	-0.203	0.092
-225.698	-13.405	0.192	-0.124
-224.684	-200.000	-0.025	-0.208
-223.669	403.141	-0.033	-0.069
-222.655	264.121	-0.006	0.011
-221.640	156.024	-0.057	0.079
-220.625	26.748	0.160	-0.134
-219.611	-200.000	-0.007	0.137
-218.596	-17.130	0.025	-0.016
-217.582	65.012	-0.219	-0.220
-216.567	-123.576	-0.287	0.045
-215.552	-104.071	0.123	-0.029
-214.538	-23.918	-0.352	0.210
-213.523	46.688	-0.088	-0.081
-212.509	663.287	-0.069	0.178
-211.494	331.274	-0.089	0.171
-210.479	-63.940	0.063	0.026
-209.465	33.812	0.229	-0.198
-208.450	613.245	-0.024	-0.060
-207.436	22.162	0.075	-0.061
-206.421	800.000	-0.036	0.151
-205.406	648.364	-0.058	0.147
-204.392	-116.399	-0.282	-0.052
-203.377	8.844	-0.202	0.151
-202.363	-200.000	0.001	-0.182
-201.348	-200.000	0.247	-0.001
-200.333	-148.015	-0.212	-0.017
-199.319	710.574	0.182	0.478
-198.304	-18.705	-0.187	-0.116
-197.290	-20.376	0.218	-0.133
-196.275	-70.056	0.272	-0.103
-195.260	-40.181	-0.134	0.069
-194.246	453.217	-0.104	0.228
-193.231	-140.875	0.366	-0.037
-192.217	-49.173	0.041	-0.020
-191.202	99.645	0.202	0.233
-190.187	-51.993	-0.246	-0.114
-189.173	-115.417	-0.216	-0.041
-188.158	-133.364	-0.223	-0.028
-187.144	-52.318	0.383	0.176
-186.129	469.053	0.056	0.125
-185.114	-31.136	-0.144	-0.081
-184.100	127.782	0.239	-0.302
-183.085	-61.839	0.235	-0.098
-182.071	-200.000	0.001	0.018
-181.056	208.079	0.318	0.493
-180.042	-51.319	-0.109	0.050
-179.027	238.809	0.157	0.259
-178.012	339.517	-0.054	0.104
-176.998	-120.340	-0.079	0.013
-175.983	430.950	-0.158	0.340
-174.969	-108.545	0.410	0.087
-173.954	800.000	-0.070	-0.268
-172.939	800.000	-0.021	-0.090
-171.925	176.254	-0.128	0.184
-170.910	25.085	-0.199	-0.164
-169.896	366.473	-0.185	-0.371
-168.881	-200.000	-0.007	-0.140
-167.866	-166.841	-0.367	0.015
-166.852	-200.000	-0.045	-0.409
-165.837	-200.000	-0.005	0.108
-164.823	-109.658	0.056	-0.012
-163.808	51.515	-0.097	-0.092
-162.793	14.164	0.240	0.185
-161.779	72.573	-0.254	-0.262
-160.764	-176.649	-0.138	0.004
-159.750	22.909	-0.151	-0.123
-158.735	-197.511	-0.178	-0.001
-157.720	800.000	0.023	0.072
-156.706	-141.994	-0.366	-0.036
-155.691	145.645	-0.109	0.145
-154.677	-115.599	0.288	0.054
-153.662	-90.055	-0.086	0.025
-152.647	-200.000	0.025	0.174
-151.633	-137.705	0.142	-0.016
-150.618	-61.733	-0.422	0.175
-149.604	633.946	0.104	-0.262
-148.589	-62.274	-0.118	0.049
-147.574	49.128	0.076	-0.071
-146.560	-154.388	0.168	-0.011
-145.545	-132.156	0.221	0.028
-144.531	-12.143	0.204	-0.132
-143.516	218.437	-0.044	-0.070
-142.502	494.822	-0.058	-0.132
-141.487	-162.866	0.260	-0.013
-140.472	-174.346	0.080	-0.002
-139.458	82.842	0.130	-0.140
-138.443	800.000	0.060	0.231
-137.429	-120.855	-0.350	0.058
-136.414	-71.123	-0.456	-0.170
-135.399	-200.000	-0.016	0.378
-134.385	203.091	0.031	0.047
-133.370	320.473	0.089	-0.167
-132.356	800.000	0.114	0.400
-131.341	-200.000	0.033	-0.273
-130.326	-60.108	-0.218	0.092
-129.312	241.920	-0.129	-0.214
-128.297	73.334	0.116	0.120
-127.283	-15.555	0.239	0.151
-126.268	-200.000	0.037	0.282
-125.253	387.039	0.064	-0.131
-124.239	27.414	0.140	-0.116
-123.224	-140.117	0.395	0.041
-122.210	31.182	-0.161	-0.137
-121.195	108.256	0.230	0.271
