DTS Sentinel unit serial number:	SN413079Multiplexer serial number:	ORYXHardware model number:	OX4-SRSoftware version number:	ORYX F/W v4.00 Oryx Data Collector v3.7.2.0data status	okinstallation	princeton_trtdifferential loss correction	single-endedforward channel	channel 4reverse channel	N/Adate	2019/09/17time	17:29:35forward acquisition time	60.00reverse acquisition time	0.00gamma	496.2192k internal	0.2278k external	0.2278temperature offset calibration	0.9981default loss term (dB/km)	0.3790temperature slope calibration	1.0000multiplexer offset coefficient	1.0000multiplexer slope coefficient	1.0000fibre end	0.00T internal ref (°C)	43.17T ext. ref 1 (°C)	0.35T ext. ref 2 (°C)	39.14length (m)	temperature (°C)	Stokes	anti-Stokes-747.200	-190.898	-0.402	0.004
-746.185	16.216	-0.253	0.206
-745.171	-154.393	-0.256	0.018
-744.156	492.208	-0.244	0.575
-743.142	-200.000	0.010	-0.135
-742.127	196.272	0.102	0.160
-741.112	-139.579	-0.099	0.011
-740.098	-200.000	-0.018	0.147
-739.083	226.461	-0.006	0.010
-738.069	-37.207	0.322	0.177
-737.054	35.251	0.050	0.045
-736.039	-41.269	0.102	0.054
-735.025	-200.000	-0.068	0.360
-734.010	3.310	0.097	0.073
-732.996	-72.634	0.274	-0.104
-731.981	20.979	0.213	0.178
-730.966	634.066	-0.065	0.170
-729.952	-74.407	-0.263	-0.097
-728.937	-58.508	-0.387	0.173
-727.923	-200.000	-0.010	-0.121
-726.908	-200.000	-0.079	-0.370
-725.894	62.651	-0.192	0.198
-724.879	6.133	0.272	0.208
-723.864	-200.000	-0.005	0.187
-722.850	173.119	-0.107	0.159
-721.835	631.197	0.209	-0.545
-720.821	168.326	-0.134	-0.196
-719.806	57.710	-0.152	0.153
-718.791	-136.667	-0.057	0.007
-717.777	-200.000	-0.012	0.102
-716.762	-134.339	0.157	-0.020
-715.748	-192.797	0.189	-0.002
-714.733	-46.612	-0.222	-0.112
-713.718	800.000	-0.049	0.211
-712.704	86.189	0.172	0.195
-711.689	-76.886	-0.149	-0.053
-710.675	34.665	0.160	-0.144
-709.660	384.795	0.056	0.118
-708.645	800.000	-0.095	-0.386
-707.631	248.851	-0.159	0.277
-706.616	30.069	-0.168	-0.147
-705.602	-61.161	-0.041	-0.018
-704.587	-200.000	0.017	0.444
-703.572	-158.208	-0.116	0.007
-702.558	-20.249	0.291	0.185
-701.543	800.000	0.056	0.167
-700.529	51.173	0.076	0.074
-699.514	65.971	0.111	-0.116
-698.499	-9.271	0.125	0.086
-697.485	745.276	0.051	0.142
-696.470	71.063	-0.224	0.238
-695.456	-200.000	0.026	-0.256
-694.441	363.916	0.086	-0.178
-693.426	-135.819	0.148	0.018
-692.412	-200.000	0.018	-0.116
-691.397	-46.471	0.223	0.112
-690.383	800.000	0.034	0.144
-689.368	510.770	-0.098	0.234
-688.354	-6.912	-0.144	-0.101
-687.339	-25.363	-0.246	0.149
-686.324	13.743	0.108	-0.086
-685.310	563.179	0.035	-0.087
-684.295	274.812	0.104	-0.189
-683.281	39.517	-0.019	0.017
-682.266	246.244	-0.188	-0.325
-681.251	595.582	-0.027	0.068
-680.237	76.585	-0.254	-0.277
-679.222	57.457	0.282	0.282
-678.208	-200.000	0.009	-0.183
-677.193	-200.000	0.027	-0.226
-676.178	-165.101	0.031	-0.001
-675.164	800.000	-0.085	-0.317
-674.149	-87.256	-0.291	-0.091
-673.135	-116.248	0.089	0.017
-672.120	-200.000	-0.001	-0.036
-671.105	-200.000	-0.004	-0.056
-670.091	800.000	-0.043	0.191
-669.076	424.410	-0.132	-0.292
-668.062	388.459	0.147	-0.312
-667.047	190.173	-0.129	-0.199
-666.032	-24.331	0.416	-0.254
-665.018	-62.570	-0.081	-0.035
-664.003	664.988	0.090	0.239
-662.989	800.000	0.017	-0.075
-661.974	441.445	0.113	-0.254
-660.959	-111.285	0.162	-0.034
-659.945	-133.201	0.157	0.020
-658.930	800.000	-0.049	0.161
-657.916	-121.195	0.135	0.023
-656.901	143.628	0.257	0.351
-655.886	-200.000	-0.008	0.257
-654.872	112.380	-0.233	0.289
-653.857	94.010	0.176	0.205
-652.843	-200.000	0.012	-0.170
-651.828	800.000	0.091	-0.322
-650.814	-41.815	-0.396	0.208
-649.799	-200.000	-0.003	0.046
-648.784	-56.415	0.248	-0.113
-647.770	168.190	-0.126	-0.183
-646.755	-200.000	0.006	-0.134
-645.741	800.000	0.059	-0.213
-644.726	465.717	-0.132	0.302
-643.711	-131.980	0.207	-0.028
-642.697	-200.000	0.031	0.208
-641.682	57.246	0.063	0.063
-640.668	87.252	-0.077	0.088
-639.653	-117.188	-0.288	-0.054
-638.638	-91.552	-0.308	-0.090
-637.624	31.348	-0.160	-0.141
-636.609	409.766	0.076	-0.164
-635.595	186.824	-0.047	-0.072
-634.580	563.833	-0.109	-0.270
-633.565	24.257	-0.103	0.087
-632.551	-128.998	0.295	-0.042
-631.536	-200.000	0.016	0.295
-630.522	-51.141	-0.281	0.135
-629.507	27.032	0.228	-0.196
-628.492	-200.000	-0.012	-0.334
-627.478	207.121	-0.120	-0.191
-626.463	73.322	-0.176	-0.189
-625.449	87.996	-0.253	0.288
-624.434	-144.977	0.429	0.040
-623.419	158.534	0.064	-0.091
-622.405	-53.192	0.088	0.041
-621.390	-111.389	0.495	-0.103
-620.376	128.632	-0.132	-0.173
-619.361	54.635	-0.324	-0.320
-618.346	323.621	0.138	-0.269
-617.332	522.342	-0.040	-0.097
-616.317	495.798	-0.033	0.079
-615.303	-150.917	0.083	0.006
-614.288	0.864	0.397	-0.291
-613.273	-59.811	-0.158	0.069
-612.259	-13.169	0.136	-0.091
-611.244	-48.625	-0.079	0.039
-610.230	236.137	0.034	-0.057
-609.215	-2.831	0.294	0.211
-608.201	800.000	0.048	0.198
-607.186	800.000	-0.009	-0.031
-606.171	-41.940	-0.201	0.106
-605.157	-200.000	-0.022	-0.105
-604.142	-49.393	-0.289	-0.141
-603.128	-43.936	-0.215	-0.111
-602.113	-200.000	-0.010	-0.074
-601.098	163.420	0.122	-0.175
-600.084	-60.828	-0.305	0.132
-599.069	71.254	0.171	-0.182
-598.055	169.531	0.079	-0.115
-597.040	-106.312	0.459	0.105
-596.025	-200.000	-0.028	-0.193
-595.011	-3.772	-0.246	0.175
-593.996	-157.611	-0.228	-0.014
-592.982	-86.160	0.359	-0.113
-591.967	6.167	-0.128	-0.097
-590.952	-200.000	0.009	0.110
-589.938	-10.033	-0.142	-0.096
-588.923	89.383	0.174	-0.199
-587.909	-97.686	-0.098	0.026
-586.894	-51.364	-0.239	0.115
-585.879	-135.182	0.113	0.014
-584.865	-52.639	0.024	-0.011
-583.850	-121.432	-0.241	0.041
-582.836	800.000	0.032	-0.100
-581.821	-7.523	0.120	0.083
-580.806	-73.882	-0.254	-0.094
-579.792	-200.000	-0.009	-0.090
-578.777	-200.000	-0.023	0.140
-577.763	-200.000	0.011	0.080
-576.748	-65.504	-0.225	0.093
-575.733	-200.000	0.009	0.053
-574.719	347.950	0.163	-0.328
-573.704	-200.000	-0.012	0.139
-572.690	-200.000	0.023	0.174
-571.675	800.000	0.020	-0.065
-570.661	-160.904	-0.092	-0.005
-569.646	-45.730	-0.256	0.129
-568.631	-73.183	-0.311	0.117
-567.617	189.507	0.081	-0.124
-566.602	800.000	0.038	-0.126
-565.588	35.999	0.135	0.121
-564.573	16.389	0.202	-0.163
-563.558	-200.000	0.013	0.187
-562.544	-200.000	0.018	-0.201
-561.529	365.642	-0.111	-0.229
-560.515	-14.310	-0.090	0.059
-559.500	-148.170	0.354	-0.030
-558.485	-94.428	0.138	-0.038
-557.471	-78.718	-0.196	-0.068
-556.456	-119.119	0.117	-0.021
-555.442	718.769	-0.021	-0.058
-554.427	-78.025	0.255	-0.090
-553.412	49.289	-0.308	-0.296
-552.398	-200.000	0.104	0.530
-551.383	162.133	0.204	-0.292
-550.369	-93.996	-0.218	-0.061
-549.354	-149.985	0.143	0.011
-548.339	676.981	0.056	0.148
-547.325	-108.067	-0.171	0.038
-546.310	-200.000	0.025	-0.201
-545.296	-200.000	0.000	-0.186
-544.281	420.544	0.067	-0.147
-543.266	132.477	-0.145	0.191
-542.252	188.992	-0.166	-0.255
-541.237	-31.012	-0.147	-0.085
-540.223	-200.000	0.015	0.193
-539.208	800.000	0.102	0.360
-538.193	-200.000	0.005	-0.263
-537.179	463.009	0.171	-0.390
-536.164	-158.587	0.200	0.012
-535.150	-200.000	-0.055	0.338
-534.135	-50.100	0.265	0.128
-533.121	14.348	-0.238	0.190
-532.106	-23.183	-0.179	0.110
-531.091	800.000	0.071	-0.265
-530.077	-53.320	-0.229	-0.107
-529.062	-2.739	-0.256	-0.183
-528.048	81.289	0.190	-0.210
-527.033	-200.000	0.000	0.078
-526.018	99.268	0.096	0.114
-525.004	5.564	-0.039	0.029
-523.989	687.781	-0.033	-0.087
-522.975	719.870	0.099	0.268
-521.960	-200.000	0.012	0.189
-520.945	-163.602	-0.126	0.006
-519.931	-200.000	-0.033	-0.229
-518.916	-200.000	-0.005	0.273
-517.902	54.439	-0.100	-0.098
-516.887	312.804	-0.025	0.048
-515.872	-16.128	0.061	-0.040
-514.858	-29.847	0.162	0.094
-513.843	750.167	0.070	0.193
-512.829	1.705	0.149	-0.110
-511.814	65.278	-0.030	0.031
-510.799	-200.000	0.095	0.514
-509.785	288.733	-0.024	-0.044
-508.770	800.000	-0.057	0.241
-507.756	52.149	-0.169	0.164
-506.741	-18.489	0.226	-0.144
-505.726	-96.598	0.271	-0.073
-504.712	-49.622	0.081	0.039
-503.697	99.457	0.366	0.432
-502.683	-133.021	0.056	-0.007
-501.668	800.000	-0.077	-0.235
-500.653	269.970	0.019	0.035
-499.639	-111.224	-0.062	0.013
-498.624	-200.000	-0.020	-0.178
-497.610	-117.746	0.211	-0.039
-496.595	-12.131	0.157	-0.105
-495.581	-200.000	-0.019	-0.126
-494.566	-198.402	-0.229	0.001
-493.551	643.994	0.093	-0.243
-492.537	-81.633	0.238	0.080
-491.522	243.633	0.026	0.044
-490.508	-200.000	0.029	-0.266
-489.493	-61.114	-0.437	0.188
-488.478	-72.363	-0.052	0.020
-487.464	-71.109	0.169	0.065
-486.449	345.071	0.189	-0.378
-485.435	-67.358	-0.398	-0.159
-484.420	-200.000	0.022	-0.288
-483.405	-200.000	0.020	-0.376
-482.391	266.799	0.068	0.122
-481.376	-141.843	0.090	-0.009
-480.362	-131.036	-0.217	0.029
-479.347	43.391	0.057	-0.053
-478.332	509.729	0.127	0.300
-477.318	574.414	-0.098	-0.245
-476.303	443.664	0.121	-0.270
-475.289	-142.488	-0.192	-0.019
-474.274	664.933	-0.113	-0.296
-473.259	152.902	0.093	-0.129
-472.245	-90.458	0.094	0.028
-471.230	-200.000	-0.057	-0.365
-470.216	-200.000	0.003	-0.016
-469.201	-72.640	0.202	0.076
-468.186	-59.564	-0.144	0.063
-467.172	-200.000	0.062	0.000
-466.157	-154.593	0.229	0.016
-465.143	-200.000	-0.083	-0.373
-464.128	-4.373	-0.085	-0.060
-463.113	17.452	0.088	-0.071
-462.099	-102.790	-0.262	0.064
-461.084	-53.883	0.233	-0.108
-460.070	-165.402	-0.126	-0.006
-459.055	-200.000	-0.025	-0.155
-458.040	113.693	-0.066	-0.081
-457.026	169.680	0.111	-0.162
-456.011	-200.000	0.040	-0.296
-454.997	-130.501	0.169	-0.023
-453.982	295.971	0.227	-0.423
-452.968	800.000	-0.083	-0.281
-451.953	-200.000	-0.009	0.137
-450.938	36.629	0.060	0.054
-449.924	-200.000	0.067	0.336
-448.909	800.000	-0.065	0.185
-447.895	-49.296	-0.317	-0.154
-446.880	188.173	-0.092	0.139
-445.865	44.697	-0.111	0.104
-444.851	-43.880	-0.138	-0.070
-443.836	-128.721	0.137	-0.020
-442.822	-128.669	-0.230	0.033
-441.807	-200.000	-0.018	0.263
-440.792	800.000	0.013	-0.051
-439.778	-105.466	0.230	0.053
-438.763	-84.525	0.429	-0.138
-437.749	95.564	0.114	-0.132
-436.734	-44.611	-0.052	0.026
-435.719	-128.623	0.298	0.043
-434.705	-200.000	-0.020	0.292
-433.690	-200.000	0.078	-0.373
-432.676	-102.277	0.190	0.046
-431.661	-17.013	0.330	0.212
-430.646	800.000	0.101	0.336
-429.632	375.496	-0.125	0.259
-428.617	195.317	0.223	0.345
-427.603	471.108	0.080	-0.184
-426.588	800.000	0.022	-0.081
-425.573	299.199	-0.068	-0.128
-424.559	-42.430	-0.338	0.175
-423.544	-50.508	0.280	0.134
-422.530	-45.259	0.147	0.074
-421.515	-17.604	-0.059	0.037
-420.500	-65.167	-0.180	0.074
-419.486	335.874	-0.095	0.188
-418.471	145.609	0.086	0.117
-417.457	-129.729	0.174	-0.024
-416.442	-200.000	-0.028	0.127
-415.428	378.061	0.060	-0.125
-414.413	-86.365	0.209	0.065
-413.398	289.232	-0.146	0.269
-412.384	80.496	-0.046	0.050
-411.369	-200.000	0.001	0.313
-410.355	123.191	-0.108	0.138
-409.340	2.381	-0.127	-0.093
-408.325	53.497	-0.261	0.254
-407.311	-9.715	0.182	-0.123
-406.296	-166.960	0.194	0.008
-405.282	37.068	0.288	0.259
-404.267	31.883	-0.123	0.107
-403.252	43.902	0.139	-0.130
-402.238	449.273	0.058	0.130
-401.223	-72.346	0.056	0.021
-400.209	168.975	-0.196	0.284
-399.194	-200.000	0.029	-0.238
-398.179	-176.325	0.216	-0.006
-397.165	-12.259	0.301	-0.200
-396.150	-7.819	0.206	-0.141
-395.136	-1.371	-0.077	0.055
-394.121	329.836	0.077	0.150
-393.106	-89.388	0.294	0.088
-392.092	274.989	0.119	-0.215
-391.077	-139.005	-0.087	-0.010
-390.063	23.598	0.081	0.068
-389.048	128.222	0.098	-0.126
-388.033	145.843	-0.155	0.211
-387.019	204.563	-0.088	0.138
-386.004	800.000	-0.033	0.124
-384.990	800.000	0.070	-0.209
-383.975	-200.000	-0.076	-0.375
-382.960	-72.714	0.183	0.068
-381.946	200.773	-0.064	-0.099
-380.931	487.421	0.056	-0.130
-379.917	72.255	-0.159	-0.169
-378.902	-200.000	-0.031	-0.259
-377.888	-36.856	0.215	-0.117
-376.873	-27.809	0.389	0.229
-375.858	-126.504	0.110	0.017
-374.844	2.377	-0.148	0.109
-373.829	-80.204	0.194	0.066
-372.815	27.050	0.144	0.122
-371.800	-126.036	-0.275	-0.042
-370.785	-200.000	-0.022	0.200
-369.771	86.478	-0.130	0.146
-368.756	-200.000	-0.014	0.215
-367.742	-71.408	-0.121	-0.046
-366.727	-95.127	0.398	0.109
-365.712	-64.863	0.261	0.107
-364.698	380.608	0.070	-0.145
-363.683	10.814	-0.284	0.220
-362.669	-200.000	0.007	-0.048
-361.654	346.733	-0.084	-0.167
-360.639	-84.976	-0.136	-0.043
-359.625	6.347	-0.251	-0.189
-358.610	-144.041	-0.162	0.015
-357.596	-131.950	-0.137	-0.018
-356.581	230.177	0.166	-0.275
-355.566	-47.448	-0.034	0.017
-354.552	71.629	0.028	0.029
-353.537	800.000	0.050	0.145
-352.523	-200.000	-0.025	-0.172
-351.508	-194.002	0.398	-0.003
-350.493	418.917	0.126	-0.274
-349.479	-52.179	0.084	-0.040
-348.464	793.256	0.032	-0.091
-347.450	-163.355	0.200	0.010
-346.435	145.191	-0.131	0.177
-345.420	-200.000	0.023	-0.304
-344.406	-20.853	-0.047	-0.029
-343.391	-200.000	0.013	-0.061
-342.377	-133.597	-0.286	0.036
-341.362	800.000	-0.032	0.119
-340.348	33.262	0.091	0.080
-339.333	-25.588	0.093	0.056
-338.318	-128.259	-0.351	0.051
-337.304	-62.424	0.366	0.154
-336.289	193.091	0.014	-0.021
-335.275	-179.996	0.306	-0.007
-334.260	-2.265	0.139	-0.099
-333.245	32.313	-0.349	-0.305
-332.231	-119.982	-0.314	0.055
-331.216	-200.000	0.017	0.090
-330.202	71.501	0.191	-0.201
-329.187	74.624	0.303	0.323
-328.172	-200.000	-0.004	0.321
-327.158	-20.311	-0.230	0.143
-326.143	-200.000	0.024	0.192
-325.129	160.483	-0.030	0.042
-324.114	68.042	-0.227	-0.236
-323.099	-200.000	-0.030	-0.216
-322.085	668.359	-0.088	0.231
-321.070	672.588	-0.171	-0.449
-320.056	162.413	0.159	0.225
-319.041	504.641	-0.057	0.133
-318.026	-200.000	-0.025	0.159
-317.012	-78.325	-0.202	-0.070
-315.997	-132.736	0.063	0.008
-314.983	282.244	-0.137	-0.248
-313.968	-200.000	-0.014	-0.157
-312.953	344.471	0.041	0.081
-311.939	157.561	-0.147	-0.206
-310.924	0.960	-0.096	0.070
-309.910	-150.829	0.317	0.024
-308.895	74.644	-0.091	-0.097
-307.880	473.609	-0.142	-0.325
-306.866	-200.000	0.002	0.186
-305.851	68.082	0.136	-0.141
-304.837	2.052	0.140	-0.102
-303.822	286.582	0.126	-0.231
-302.807	-74.118	-0.234	0.086
-301.793	-200.000	0.038	0.329
-300.778	-200.000	-0.025	0.171
-299.764	-51.930	-0.224	0.105
-298.749	-200.000	0.019	-0.199
-297.735	-165.335	0.047	-0.002
-296.720	800.000	-0.095	0.316
-295.705	-200.000	-0.032	0.183
-294.691	405.213	0.117	0.250
-293.676	800.000	0.061	0.218
-292.662	-160.798	-0.073	0.004
-291.647	-47.186	0.117	0.058
-290.632	800.000	0.042	0.149
-289.618	1.530	0.251	-0.183
-288.603	-89.822	0.233	0.069
-287.589	707.401	-0.031	-0.082
-286.574	56.025	-0.172	0.169
-285.559	-125.376	-0.105	0.016
-284.545	68.334	0.158	-0.164
-283.530	96.159	-0.206	-0.238
-282.516	27.491	0.067	-0.057
-281.501	800.000	0.043	-0.163
-280.486	12.129	-0.271	0.211
-279.472	189.898	0.290	0.440
-278.457	-69.790	-0.374	-0.145
-277.443	135.881	-0.138	-0.181
-276.428	-24.250	-0.046	0.028
-275.413	122.617	-0.114	-0.145
-274.399	249.930	0.072	-0.123
-273.384	-135.232	-0.341	0.041
-272.370	-43.026	-0.131	-0.067
-271.355	321.204	-0.119	0.229
-270.340	-95.295	0.194	-0.053
-269.326	96.700	-0.105	0.122
-268.311	-162.699	0.207	0.010
-267.297	-119.974	-0.155	-0.027
-266.282	-66.896	-0.215	-0.086
-265.267	13.084	-0.255	0.199
-264.253	633.706	0.099	0.254
-263.238	-155.841	-0.338	-0.022
-262.224	-119.287	-0.152	0.027
-261.209	62.522	0.125	0.126
-260.195	-81.230	-0.180	-0.060
-259.180	-143.716	0.194	0.019
-258.165	487.935	0.127	-0.293
-257.151	-200.000	0.006	0.049
-256.136	800.000	0.065	-0.281
-255.122	-131.389	-0.275	-0.037
-254.107	-150.712	0.360	-0.028
-253.092	-43.928	0.130	-0.066
-252.078	-200.000	0.016	0.167
-251.063	445.337	-0.109	-0.243
-250.049	135.309	-0.134	0.176
-249.034	38.298	0.195	-0.175
-248.019	800.000	0.051	-0.163
-247.005	-30.651	0.156	0.089
-245.990	25.667	-0.072	0.061
-244.976	800.000	0.038	-0.161
-243.961	-44.248	-0.450	0.228
-242.946	411.823	0.154	0.329
-241.932	35.507	-0.343	-0.304
-240.917	-200.000	-0.001	0.300
-239.903	800.000	0.041	-0.173
-238.888	59.369	-0.107	0.107
-237.873	800.000	0.107	0.368
-236.859	433.507	0.134	-0.293
-235.844	-87.485	0.181	0.055
-234.830	-200.000	-0.029	-0.207
-233.815	-62.046	-0.135	0.057
-232.800	225.532	-0.180	0.294
-231.786	171.349	0.162	0.234
-230.771	57.089	-0.177	-0.174
-229.757	-143.922	0.079	0.007
-228.742	101.925	-0.227	0.267
-227.727	800.000	0.043	0.125
-226.713	-70.814	-0.055	0.021
-225.698	-107.924	0.206	-0.045
-224.684	-164.157	-0.404	0.019
-223.669	-61.395	-0.198	0.084
-222.655	62.985	-0.060	0.061
-221.640	-78.486	0.094	0.033
-220.625	-200.000	0.009	-0.111
-219.611	-96.484	-0.137	-0.036
-218.596	-200.000	-0.081	-0.540
-217.582	44.140	-0.207	0.191
-216.567	-63.847	0.107	0.044
-215.552	-89.680	0.274	-0.081
-214.538	481.969	-0.065	0.150
-213.523	-42.883	0.357	0.183
-212.509	43.465	-0.214	-0.197
-211.494	-158.792	-0.389	0.022
-210.479	-154.355	0.208	0.014
-209.465	-33.968	0.328	-0.182
-208.450	122.539	-0.262	-0.330
-207.436	-200.000	-0.032	0.199
-206.421	-200.000	0.001	-0.084
-205.406	2.215	0.119	0.087
-204.392	15.044	-0.166	0.131
-203.377	-25.005	-0.114	0.068
-202.363	14.895	0.091	-0.071
-201.348	33.634	0.082	0.072
-200.333	-200.000	0.008	-0.071
-199.319	386.753	0.118	-0.246
-198.304	297.758	0.140	0.259
-197.290	-200.000	-0.034	0.210
-196.275	-200.000	-0.055	0.483
-195.260	753.341	-0.065	0.178
-194.246	-200.000	0.019	-0.207
-193.231	-7.618	-0.105	0.072
-192.217	-195.088	-0.272	0.002
-191.202	262.403	-0.127	-0.221
-190.187	716.471	0.032	-0.085
-189.173	26.341	-0.179	-0.151
-188.158	232.003	0.216	0.357
-187.144	-11.612	-0.082	0.054
-186.129	151.386	0.140	0.191
-185.114	-170.074	-0.093	0.003
-184.100	-47.314	0.177	0.087
-183.085	32.767	-0.107	0.093
-182.071	209.680	0.080	-0.127
-181.056	114.736	0.115	-0.142
-180.042	-78.207	-0.409	0.142
-179.027	11.168	-0.119	-0.092
-178.012	-200.000	-0.032	-0.179
-176.998	-158.575	-0.139	-0.008
-175.983	203.490	-0.169	0.264
-174.969	44.306	-0.095	-0.087
-173.954	-200.000	0.011	0.135
-172.939	220.496	0.159	0.257
-171.925	25.866	-0.257	0.216
-170.910	240.722	-0.096	-0.162
-169.896	-200.000	-0.013	0.223
-168.881	31.628	-0.180	0.155
-167.866	-200.000	0.029	0.167
-166.852	196.963	-0.172	0.263
-165.837	53.254	0.125	0.120
-164.823	-35.121	0.168	0.092
-163.808	-48.264	0.127	0.062
-162.793	86.063	-0.086	-0.095
-161.779	-200.000	0.038	0.325
-160.764	227.137	0.106	0.174
-159.750	520.178	-0.150	-0.353
-158.735	-200.000	-0.022	0.171
-157.720	101.017	0.184	0.216
-156.706	163.941	0.061	0.086
-155.691	-200.000	-0.009	-0.262
-154.677	-167.017	0.110	-0.005
-153.662	24.568	0.063	0.052
-152.647	311.614	-0.099	-0.186
-151.633	92.094	0.079	0.090
-150.618	800.000	-0.060	0.191
-149.604	-46.429	-0.342	0.169
-148.589	-70.979	0.333	-0.126
-147.574	-107.835	0.080	-0.018
-146.560	200.876	-0.082	0.126
-145.545	-200.000	-0.097	-0.427
-144.531	-200.000	-0.025	-0.162
-143.516	-122.436	-0.299	-0.049
-142.502	329.661	-0.087	-0.168
-141.487	228.064	-0.139	-0.228
-140.472	-200.000	0.014	-0.224
-139.458	-200.000	-0.035	0.385
-138.443	37.642	-0.431	-0.384
-137.429	-8.787	0.170	0.114
-136.414	404.772	0.094	0.199
-135.399	-81.430	0.352	-0.116
-134.385	-200.000	0.006	-0.075
-133.370	-200.000	-0.010	0.335
-132.356	-90.651	-0.214	0.062
-131.341	596.699	-0.036	-0.089
-130.326	-200.000	0.023	-0.312
-129.312	-91.238	-0.106	-0.030
-128.297	77.563	0.115	0.123
-127.283	503.768	0.135	-0.314
-126.268	58.050	0.288	-0.283
-125.253	391.277	-0.082	-0.171
-124.239	97.324	-0.200	0.231
-123.224	84.582	-0.012	-0.013
-122.210	-200.000	0.007	0.088
-121.195	-5.478	-0.249	-0.172
-120.180	141.835	-0.139	0.185
