DTS Sentinel unit serial number:	SN413079Multiplexer serial number:	ORYXHardware model number:	OX4-SRSoftware version number:	ORYX F/W v4.00 Oryx Data Collector v3.7.2.0data status	okinstallation	princeton_trtdifferential loss correction	single-endedforward channel	channel 4reverse channel	N/Adate	2019/09/19time	09:09:35forward acquisition time	60.00reverse acquisition time	0.00gamma	496.2192k internal	0.2337k external	0.2337temperature offset calibration	1.0014default loss term (dB/km)	0.3790temperature slope calibration	1.0000multiplexer offset coefficient	1.0000multiplexer slope coefficient	1.0000fibre end	0.00T internal ref (°C)	21.89T ext. ref 1 (°C)	0.60T ext. ref 2 (°C)	19.04length (m)	temperature (°C)	Stokes	anti-Stokes-747.200	36.526	0.094	0.083
-746.185	444.576	-0.093	0.204
-745.171	-19.014	0.210	0.131
-744.156	-29.615	-0.166	0.095
-743.142	-114.396	0.265	0.051
-742.127	800.000	-0.111	0.334
-741.112	-171.704	-0.254	0.008
-740.098	-99.033	-0.165	-0.042
-739.083	-72.501	0.110	0.041
-738.069	-4.449	0.065	0.045
-737.054	-167.675	-0.162	-0.006
-736.039	-141.488	-0.132	0.013
-735.025	-200.000	-0.005	0.387
-734.010	-200.000	-0.045	-0.397
-732.996	-166.800	-0.217	0.009
-731.981	-130.556	0.216	0.029
-730.966	-170.832	-0.252	-0.009
-729.952	289.414	-0.243	-0.442
-728.937	26.612	0.170	-0.142
-727.923	-98.015	0.151	0.039
-726.908	171.723	-0.110	-0.159
-725.894	62.070	-0.162	0.162
-724.879	-15.788	0.242	-0.155
-723.864	-200.000	-0.016	-0.125
-722.850	800.000	-0.099	0.403
-721.835	-73.988	0.164	-0.060
-720.821	32.178	-0.113	-0.098
-719.806	492.463	-0.100	-0.230
-718.791	74.421	-0.131	-0.138
-717.777	-159.808	-0.483	0.027
-716.762	418.998	-0.119	0.255
-715.748	137.524	-0.162	-0.213
-714.733	241.185	-0.045	0.075
-713.718	149.724	0.137	0.186
-712.704	69.649	0.260	-0.269
-711.689	-76.997	-0.196	-0.069
-710.675	-96.064	-0.220	-0.059
-709.660	463.162	0.094	-0.211
-708.645	-28.150	0.088	-0.051
-707.631	-200.000	0.011	0.061
-706.616	452.437	0.094	-0.208
-705.602	-200.000	-0.031	-0.315
-704.587	208.855	-0.038	0.060
-703.572	-10.366	-0.122	-0.081
-702.558	-180.456	-0.096	0.002
-701.543	-159.854	0.066	-0.004
-700.529	-1.506	-0.228	-0.161
-699.514	-31.587	-0.216	0.121
-698.499	-200.000	0.052	-0.284
-697.485	-39.727	0.325	0.170
-696.470	-76.258	0.375	-0.132
-695.456	324.380	0.186	0.356
-694.441	800.000	0.047	0.179
-693.426	-113.963	-0.288	0.056
-692.412	-200.000	-0.020	-0.097
-691.397	260.284	-0.033	-0.058
-690.383	196.788	-0.110	-0.168
-689.368	-7.017	-0.169	0.115
-688.354	-36.004	-0.100	-0.054
-687.339	18.663	-0.051	0.041
-686.324	-128.830	-0.135	-0.019
-685.310	15.627	0.183	-0.144
-684.295	-200.000	-0.006	-0.087
-683.281	-200.000	0.004	-0.280
-682.266	-57.723	-0.270	0.118
-681.251	-200.000	-0.022	0.113
-680.237	-114.517	-0.425	-0.082
-679.222	-90.837	-0.096	-0.028
-678.208	-200.000	-0.043	-0.255
-677.193	-18.792	0.146	-0.091
-676.178	800.000	0.041	-0.113
-675.164	154.958	-0.109	0.149
-674.149	-200.000	0.084	0.384
-673.135	-69.766	-0.385	0.147
-672.120	-17.533	-0.066	-0.041
-671.105	88.099	-0.164	-0.182
-670.091	10.800	0.073	0.055
-669.076	21.170	-0.052	-0.042
-668.062	-166.557	-0.094	0.004
-667.047	53.267	-0.083	-0.079
-666.032	-148.294	-0.419	0.034
-665.018	-104.012	-0.269	-0.063
-664.003	316.008	0.101	0.192
-662.989	-200.000	0.038	-0.219
-661.974	349.143	0.143	-0.283
-660.959	53.126	-0.074	0.070
-659.945	683.091	0.180	0.470
-658.930	800.000	-0.123	0.341
-657.916	-200.000	-0.055	0.353
-656.901	-200.000	0.014	0.189
-655.886	85.571	0.191	0.210
-654.872	-200.000	0.004	0.280
-653.857	800.000	-0.082	-0.290
-652.843	-177.155	-0.169	-0.004
-651.828	66.312	0.352	-0.358
-650.814	665.562	-0.146	-0.377
-649.799	21.000	-0.079	-0.064
-648.784	372.285	-0.089	-0.181
-647.770	120.676	0.124	-0.155
-646.755	173.657	-0.033	-0.047
-645.741	-39.363	-0.175	-0.092
-644.726	-55.116	0.215	-0.097
-643.711	-200.000	-0.022	-0.124
-642.697	-102.503	0.293	-0.070
-641.682	800.000	0.040	0.161
-640.668	-200.000	-0.011	-0.195
-639.653	800.000	-0.067	-0.211
-638.638	128.641	0.029	-0.037
-637.624	130.051	-0.083	-0.106
-636.609	-200.000	-0.010	-0.055
-635.595	763.017	0.023	-0.063
-634.580	171.729	0.111	-0.160
-633.565	-40.021	0.168	0.088
-632.551	-200.000	0.008	-0.334
-631.536	-200.000	-0.027	-0.226
-630.522	800.000	0.042	0.145
-629.507	220.529	-0.076	0.121
-628.492	-200.000	-0.005	0.393
-627.478	800.000	-0.037	0.136
-626.463	114.319	0.056	0.068
-625.449	-78.382	0.211	0.072
-624.434	-83.602	0.050	0.016
-623.419	126.584	-0.234	-0.296
-622.405	6.213	-0.037	0.027
-621.390	749.794	0.157	0.422
-620.376	112.174	0.070	-0.085
-619.361	31.950	-0.210	-0.181
-618.346	322.141	-0.132	-0.250
-617.332	-70.866	-0.165	0.062
-616.317	116.967	-0.134	0.164
-615.303	-200.000	-0.021	0.096
-614.288	-99.196	-0.203	-0.051
-613.273	800.000	-0.092	0.282
-612.259	-91.889	-0.241	-0.068
-611.244	4.967	0.201	0.148
-610.230	800.000	-0.054	0.151
-609.215	-60.288	-0.312	0.132
-608.201	327.412	0.024	0.046
-607.186	-114.907	-0.206	-0.039
-606.171	-6.452	0.390	0.265
-605.157	472.778	0.021	-0.047
-604.142	11.437	-0.177	0.135
-603.128	23.515	0.290	0.238
-602.113	-200.000	-0.025	-0.288
-601.098	-60.740	-0.208	-0.088
-600.084	60.363	-0.095	0.094
-599.069	-84.364	-0.470	0.148
-598.055	130.302	-0.141	0.180
-597.040	-134.567	-0.219	0.027
-596.025	800.000	-0.167	-0.551
-595.011	800.000	-0.112	0.314
-593.996	67.442	0.208	0.212
-592.982	249.778	0.120	0.203
-591.967	-200.000	0.024	0.227
-590.952	404.613	0.127	0.268
-589.938	-1.325	-0.090	0.064
-588.923	599.735	-0.072	-0.179
-587.909	-140.973	-0.308	-0.032
-586.894	72.280	0.207	0.215
-585.879	800.000	0.099	-0.273
-584.865	-35.214	0.185	0.100
-583.850	-19.592	-0.144	0.089
-582.836	47.822	0.321	0.299
-581.821	184.075	0.147	-0.217
-580.806	-200.000	-0.030	-0.161
-579.792	-49.843	-0.082	0.039
-578.777	-200.000	0.065	-0.465
-577.763	-73.794	0.394	0.143
-576.748	285.225	-0.074	-0.133
-575.733	-138.796	-0.155	-0.017
-574.719	-56.524	0.082	-0.036
-573.704	-200.000	0.036	0.342
-572.690	262.163	-0.047	-0.081
-571.675	47.460	0.183	-0.170
-570.661	-70.493	-0.268	-0.101
-569.646	335.793	-0.247	-0.477
-568.631	-5.294	-0.225	-0.154
-567.617	328.163	0.098	-0.187
-566.602	44.216	-0.074	-0.068
-565.588	-143.143	0.079	-0.008
-564.573	-199.676	-0.159	0.001
-563.558	-200.000	0.004	-0.073
-562.544	103.710	0.069	-0.080
-561.529	-200.000	-0.028	-0.171
-560.515	-56.754	-0.120	-0.053
-559.500	61.136	-0.070	-0.069
-558.485	800.000	-0.042	0.146
-557.471	800.000	0.120	0.348
-556.456	147.103	-0.075	0.100
-555.442	152.286	0.201	-0.274
-554.427	-96.243	-0.260	-0.069
-553.412	-115.640	0.310	0.058
-552.398	-3.457	-0.081	-0.056
-551.383	87.110	-0.231	-0.254
-550.369	123.863	-0.251	-0.314
-549.354	42.984	-0.214	-0.194
-548.339	197.353	-0.025	-0.037
-547.325	49.464	0.256	0.240
-546.310	342.660	-0.020	-0.039
-545.296	40.590	-0.130	-0.117
-544.281	20.490	-0.164	-0.132
-543.266	-0.175	-0.246	-0.175
-542.252	-2.822	0.278	-0.193
-541.237	-200.000	-0.039	-0.203
-540.223	-46.588	-0.208	-0.101
-539.208	800.000	-0.043	0.185
-538.193	419.893	-0.051	0.108
-537.179	-131.020	0.075	-0.010
-536.164	-104.316	-0.082	0.019
-535.150	52.313	0.136	0.129
-534.135	129.894	-0.130	-0.166
-533.121	-159.535	0.340	0.019
-532.106	-76.414	-0.313	0.109
-531.091	-82.679	-0.334	0.108
-530.077	-121.418	0.065	-0.011
-529.062	23.753	0.447	0.366
-528.048	86.702	0.163	-0.179
-527.033	-28.740	-0.024	0.014
-526.018	-99.054	0.187	0.047
-525.004	-4.106	-0.131	-0.091
-523.989	393.718	0.128	-0.265
-522.975	216.191	-0.118	0.187
-521.960	131.277	0.091	-0.116
-520.945	-132.775	-0.070	0.009
-519.931	387.524	0.119	0.245
-518.916	-95.102	0.421	0.113
-517.902	-83.063	-0.235	-0.075
-516.887	-200.000	0.022	-0.165
-515.872	-200.000	0.000	0.013
-514.858	-200.000	-0.092	-0.571
-513.843	177.966	0.095	0.137
-512.829	-200.000	-0.059	-0.279
-511.814	800.000	-0.061	-0.167
-510.799	-146.649	0.187	-0.016
-509.785	-200.000	-0.049	0.000
-508.770	109.631	0.223	-0.265
-507.756	-117.424	-0.198	-0.036
-506.741	-87.070	-0.142	0.043
-505.726	184.309	0.200	0.295
-504.712	-119.182	-0.391	-0.068
-503.697	149.951	0.178	-0.240
-502.683	800.000	0.017	-0.054
-501.668	-200.000	-0.010	-0.097
-500.653	485.629	-0.177	-0.402
-499.639	300.163	0.127	0.232
-498.624	-162.525	0.129	0.006
-497.610	800.000	0.120	0.335
-496.595	343.493	0.085	-0.165
-495.581	-43.666	0.465	0.233
-494.566	411.119	-0.102	0.215
-493.551	-200.000	-0.019	0.129
-492.537	394.267	0.217	0.450
-491.522	-200.000	-0.011	0.059
-490.508	-118.632	0.352	0.062
-489.493	-145.392	0.458	0.041
-488.478	480.157	0.095	0.214
-487.464	-61.272	0.190	-0.080
-486.449	249.862	-0.068	-0.115
-485.435	-135.630	-0.577	0.068
-484.420	-200.000	0.004	0.419
-483.405	-142.070	-0.328	-0.032
-482.391	-151.798	-0.227	0.017
-481.376	130.328	0.071	-0.090
-480.362	27.641	0.252	0.211
-479.347	60.454	0.111	-0.109
-478.332	-43.586	0.094	0.047
-477.318	-85.221	0.065	-0.020
-476.303	66.562	0.205	-0.207
-475.289	-85.178	-0.528	-0.164
-474.274	343.363	-0.138	0.268
-473.259	-113.070	-0.048	-0.009
-472.245	-48.238	-0.136	0.065
-471.230	-200.000	0.003	0.121
-470.216	800.000	-0.029	0.092
-469.201	-200.000	-0.007	0.303
-468.186	-180.724	-0.538	-0.011
-467.172	101.236	0.199	0.230
-466.157	800.000	0.047	-0.186
-465.143	-200.000	-0.004	-0.168
-464.128	-173.266	-0.159	-0.005
-463.113	-200.000	0.031	0.214
-462.099	-10.951	0.126	0.083
-461.084	670.369	0.122	-0.313
-460.070	-27.698	0.147	-0.085
-459.055	27.484	-0.080	-0.066
-458.040	-200.000	-0.007	0.405
-457.026	3.801	-0.156	0.113
-456.011	-34.719	-0.236	-0.128
-454.997	-33.938	-0.033	0.018
-453.982	-37.571	0.282	0.149
-452.968	800.000	-0.078	-0.323
-451.953	-79.650	0.383	0.128
-450.938	285.688	-0.023	-0.041
-449.924	97.570	0.228	-0.259
-448.909	455.547	0.184	-0.404
-447.895	16.465	-0.202	-0.158
-446.880	-67.823	0.217	-0.084
-445.865	-200.000	-0.023	-0.175
-444.851	-79.441	-0.337	-0.113
-443.836	25.027	-0.194	-0.160
-442.822	-133.884	-0.091	-0.011
-441.807	-79.319	0.526	0.177
-440.792	-115.275	0.433	-0.081
-439.778	-107.030	-0.216	0.047
-438.763	-106.396	-0.247	0.055
-437.749	56.329	-0.089	0.086
-436.734	-200.000	-0.017	-0.224
-435.719	-200.000	-0.045	0.310
-434.705	45.027	0.050	0.046
-433.690	766.824	0.091	-0.246
-432.676	26.565	0.298	0.247
-431.661	800.000	-0.049	0.199
-430.646	307.128	-0.108	-0.199
-429.632	462.717	-0.138	-0.306
-428.617	15.934	0.242	0.189
-427.603	-174.423	-0.237	0.007
-426.588	62.063	0.250	0.247
-425.573	800.000	-0.068	0.248
-424.559	-68.922	0.240	-0.092
-423.544	-61.048	-0.102	0.043
-422.530	-68.703	0.112	0.043
-421.515	-200.000	0.019	0.119
-420.500	108.690	-0.136	-0.161
-419.486	61.479	-0.072	-0.071
-418.471	800.000	0.136	0.398
-417.457	800.000	-0.045	-0.161
-416.442	149.634	0.278	-0.373
-415.428	-161.825	-0.172	-0.009
-414.413	-138.386	0.223	-0.024
-413.398	-163.541	-0.144	0.007
-412.384	-200.000	-0.010	-0.060
-411.369	519.903	-0.126	0.293
-410.355	174.894	0.151	0.216
-409.340	-4.975	0.172	-0.117
-408.325	569.033	0.165	-0.397
-407.311	459.715	0.016	0.036
-406.296	157.881	-0.115	-0.158
-405.282	-160.948	0.204	-0.011
-404.267	-76.399	-0.260	-0.091
-403.252	800.000	-0.040	0.153
-402.238	-146.788	0.402	0.034
-401.223	800.000	-0.032	-0.106
-400.209	414.238	0.013	0.028
-399.194	-15.021	-0.300	0.190
-398.179	163.745	-0.316	-0.440
-397.165	-28.452	-0.335	-0.191
-396.150	800.000	0.015	-0.055
-395.136	501.196	-0.122	0.280
-394.121	158.668	-0.096	-0.131
-393.106	79.963	-0.051	-0.054
-392.092	161.571	0.200	-0.277
-391.077	18.200	-0.109	-0.086
-390.063	-143.622	0.184	0.017
-389.048	800.000	0.038	-0.125
-388.033	-200.000	0.025	0.184
-387.019	87.982	-0.114	0.125
-386.004	800.000	-0.052	0.194
-384.990	-200.000	-0.027	0.229
-383.975	-54.000	0.252	-0.113
-382.960	162.446	-0.103	0.143
-381.946	-43.711	-0.239	0.119
-380.931	63.860	0.167	-0.166
-379.917	800.000	-0.077	0.329
-378.902	-200.000	-0.060	-0.309
-377.888	4.451	0.246	0.179
-376.873	-125.204	0.156	-0.024
-375.858	75.297	0.257	0.269
-374.844	199.984	0.040	-0.060
-373.829	-113.407	0.302	0.059
-372.815	-142.399	-0.202	-0.020
-371.800	84.653	0.244	0.265
-370.785	-79.511	-0.073	0.024
-369.771	-26.513	0.160	-0.093
-368.756	-200.000	0.027	-0.171
-367.742	53.186	-0.162	0.154
-366.727	-100.922	-0.122	0.030
-365.712	-34.334	-0.078	0.042
-364.698	488.564	-0.142	0.321
-363.683	-87.519	0.189	0.056
-362.669	-28.307	-0.205	0.117
-361.654	-75.671	-0.132	-0.046
-360.639	-200.000	0.004	0.054
-359.625	-142.597	-0.424	-0.041
-358.610	800.000	-0.039	0.153
-357.596	-60.073	-0.139	0.059
-356.581	-139.768	-0.084	0.009
-355.566	-200.000	-0.019	0.182
-354.552	-23.220	-0.433	-0.257
-353.537	-200.000	0.011	0.372
-352.523	-200.000	-0.013	0.162
-351.508	167.085	0.225	-0.316
-350.493	315.309	0.125	0.232
-349.479	389.253	-0.116	0.238
-348.464	68.018	0.077	-0.078
-347.450	-17.224	0.089	-0.056
-346.435	-33.275	0.261	0.143
-345.420	643.678	0.173	-0.435
-344.406	-10.289	0.159	0.104
-343.391	-31.817	0.238	-0.132
-342.377	292.944	-0.044	-0.080
-341.362	-200.000	0.035	-0.200
-340.348	-17.351	-0.273	0.170
-339.333	-200.000	-0.009	0.136
-338.318	-116.325	0.389	-0.071
-337.304	-63.829	-0.085	-0.034
-336.289	5.629	-0.152	0.111
-335.275	46.452	0.403	-0.369
-334.260	81.632	-0.164	-0.176
-333.245	-200.000	-0.095	0.414
-332.231	66.529	-0.145	-0.145
-331.216	-10.639	0.107	0.070
-330.202	42.435	0.016	-0.015
-329.187	-200.000	-0.019	0.132
-328.172	-100.920	0.424	0.103
-327.158	800.000	0.006	0.019
-326.143	-168.884	-0.298	-0.011
-325.129	86.066	-0.120	-0.131
-324.114	39.427	0.197	0.174
-323.099	-200.000	-0.023	0.111
-322.085	152.525	0.214	0.289
-321.070	-35.937	-0.368	-0.197
-320.056	153.580	-0.061	0.082
-319.041	57.418	-0.143	-0.138
-318.026	800.000	-0.077	0.231
-317.012	-57.494	0.249	-0.108
-315.997	142.554	0.105	0.138
-314.983	-200.000	-0.065	0.294
-313.968	-200.000	-0.025	0.334
-312.953	-200.000	-0.026	0.151
-311.939	-48.127	-0.087	0.041
-310.924	499.906	0.042	0.095
-309.910	-163.142	0.217	-0.010
-308.895	800.000	-0.065	-0.221
-307.880	-52.475	0.312	0.142
-306.866	-40.913	0.095	-0.048
-305.851	-42.645	0.212	-0.106
-304.837	276.312	-0.211	-0.369
-303.822	-35.264	-0.279	0.150
-302.807	-62.768	0.186	0.076
-301.793	93.970	-0.153	-0.171
-300.778	-25.375	-0.174	-0.102
-299.764	-117.542	-0.076	-0.014
-298.749	135.344	0.180	0.231
-297.735	-73.901	0.065	-0.023
-296.720	570.162	-0.116	0.277
-295.705	144.834	0.152	0.200
-294.691	-200.000	0.016	-0.231
-293.676	570.837	-0.024	0.057
-292.662	-200.000	-0.018	0.254
-291.647	247.879	0.034	-0.056
-290.632	-71.730	-0.170	0.062
-289.618	-21.975	0.357	0.214
-288.603	11.577	-0.149	-0.113
-287.589	-28.358	0.162	-0.092
-286.574	-51.854	-0.155	0.071
-285.559	-200.000	0.070	0.324
-284.545	-130.147	0.110	0.015
-283.530	48.513	-0.085	-0.079
-282.516	-200.000	-0.004	0.108
-281.501	164.273	0.236	-0.328
-280.486	-37.439	-0.246	0.130
-279.472	-132.221	-0.277	-0.035
-278.457	48.919	0.152	0.140
-277.443	-200.000	0.027	-0.192
-276.428	-37.242	-0.300	-0.158
-275.413	270.963	-0.069	0.120
-274.399	-107.939	-0.093	-0.020
-273.384	-26.098	-0.106	-0.062
-272.370	210.663	-0.075	-0.116
-271.355	-5.217	-0.178	0.121
-270.340	-22.711	-0.160	-0.095
-269.326	-182.808	-0.121	-0.002
-268.311	-71.362	0.158	0.058
-267.297	-200.000	0.019	-0.126
-266.282	53.518	-0.104	0.099
-265.267	336.212	0.195	0.372
-264.253	-53.102	0.170	-0.077
-263.238	-103.647	0.265	0.061
-262.224	46.919	0.066	0.060
-261.209	68.484	-0.243	-0.246
-260.195	-89.883	0.072	-0.021
-259.180	-115.003	-0.406	-0.076
-258.165	-72.738	0.186	-0.067
-257.151	-100.075	-0.386	0.095
-256.136	-200.000	0.021	-0.232
-255.122	-200.000	0.017	0.666
-254.107	761.889	-0.111	0.297
-253.092	91.390	-0.031	-0.034
-252.078	-200.000	0.029	0.179
-251.063	-106.497	-0.281	0.062
-250.049	-21.264	-0.110	0.066
-249.034	-113.486	0.177	0.034
-248.019	-71.221	-0.063	0.023
-247.005	168.787	-0.068	-0.095
-245.990	95.694	-0.198	0.222
-244.976	-200.000	0.006	-0.053
-243.961	65.187	0.156	-0.155
-242.946	-159.565	0.257	0.014
-241.932	329.092	-0.094	-0.178
-240.917	-32.430	-0.103	-0.056
-239.903	-200.000	0.009	0.270
-238.888	-200.000	-0.005	-0.165
-237.873	727.033	-0.095	-0.249
-236.859	-119.191	0.356	-0.061
-235.844	566.604	-0.069	0.164
-234.830	-0.289	-0.098	0.068
-233.815	-143.202	0.237	0.022
-232.800	434.677	-0.052	0.112
-231.786	-200.000	-0.024	-0.364
-230.771	122.208	0.208	-0.255
-229.757	-172.121	-0.269	-0.009
-228.742	-12.400	0.285	-0.183
-227.727	32.733	-0.172	0.146
-226.713	-142.264	0.071	-0.007
-225.698	-200.000	-0.020	0.129
-224.684	-54.597	-0.129	0.057
-223.669	207.191	-0.038	0.059
-222.655	428.913	0.043	0.091
-221.640	82.045	0.038	-0.040
-220.625	180.367	-0.026	-0.038
-219.611	800.000	0.066	0.269
-218.596	-18.029	-0.034	-0.021
-217.582	-89.915	-0.169	0.049
-216.567	-36.838	0.232	0.123
-215.552	-58.534	-0.369	-0.157
-214.538	-84.024	0.287	-0.090
-213.523	-64.885	0.143	0.057
-212.509	78.806	-0.052	-0.055
-211.494	26.178	0.414	-0.340
-210.479	188.307	-0.054	-0.079
-209.465	-83.404	-0.199	-0.063
-208.450	73.999	-0.025	0.025
-207.436	-135.724	0.106	0.012
-206.421	-200.000	0.058	-0.373
-205.406	-54.131	-0.197	0.088
-204.392	800.000	-0.041	-0.163
-203.377	-200.000	0.030	0.190
-202.363	47.736	-0.304	-0.279
-201.348	-153.028	0.151	-0.010
-200.333	288.598	0.106	-0.189
-199.319	477.665	0.050	0.110
-198.304	800.000	-0.073	0.218
-197.290	58.996	0.160	-0.155
-196.275	59.639	-0.143	0.139
-195.260	-118.780	-0.326	0.056
-194.246	800.000	-0.033	-0.097
-193.231	233.328	0.151	0.244
-192.217	189.282	0.107	0.158
-191.202	800.000	-0.105	-0.286
-190.187	-53.479	0.269	-0.121
-189.173	84.391	-0.063	0.067
-188.158	800.000	0.141	0.390
-187.144	-200.000	-0.030	-0.144
-186.129	-104.548	0.227	0.052
-185.114	-115.857	0.073	0.013
-184.100	-200.000	-0.038	0.339
-183.085	-113.329	0.082	0.016
-182.071	-98.064	-0.176	-0.044
-181.056	499.400	0.144	-0.326
-180.042	-200.000	0.032	-0.152
-179.027	-200.000	-0.038	0.278
-178.012	-200.000	-0.042	-0.310
-176.998	61.044	0.061	0.059
-175.983	-26.874	-0.180	-0.103
-174.969	424.875	0.088	0.186
-173.954	-200.000	-0.003	-0.017
-172.939	-72.649	0.227	0.082
-171.925	540.594	-0.073	-0.171
-170.910	127.531	-0.170	-0.212
-169.896	800.000	0.105	-0.401
-168.881	195.852	0.017	0.026
-167.866	800.000	-0.081	-0.275
-166.852	-145.117	0.465	-0.041
-165.837	800.000	-0.029	0.103
-164.823	-11.804	-0.284	-0.183
-163.808	-200.000	-0.019	0.130
-162.793	-77.138	0.274	0.094
-161.779	-21.696	0.330	0.197
-160.764	-200.000	-0.006	0.042
-159.750	281.050	0.096	0.168
-158.735	-113.770	0.122	0.023
-157.720	17.450	0.106	-0.083
-156.706	-37.109	-0.230	0.121
-155.691	172.238	0.077	0.109
-154.677	34.163	-0.199	-0.170
-153.662	-200.000	0.075	-0.375
-152.647	-68.821	0.219	-0.083
-151.633	283.450	-0.165	-0.290
-150.618	-200.000	0.046	-0.238
-149.604	226.966	-0.143	0.227
-148.589	79.259	-0.199	-0.209
-147.574	-181.244	-0.065	-0.001
-146.560	585.916	0.108	0.261
-145.545	-8.937	-0.371	0.244
-144.531	-13.339	0.159	-0.101
-143.516	-200.000	-0.013	-0.183
-142.502	85.007	-0.235	0.252
-141.487	-200.000	0.009	-0.232
-140.472	800.000	-0.115	0.415
-139.458	162.102	0.054	-0.074
-138.443	-117.397	0.170	0.030
-137.429	-30.921	-0.431	-0.238
-136.414	-54.371	-0.346	-0.154
-135.399	-77.918	0.132	-0.045
-134.385	-128.016	0.205	0.029
-133.370	-86.931	0.020	0.006
-132.356	26.518	-0.148	0.121
-131.341	-200.000	0.005	0.139
-130.326	39.000	-0.014	0.012
-129.312	187.797	-0.050	0.074
-128.297	-134.869	0.144	0.017
-127.283	-34.536	-0.117	0.063
-126.268	800.000	-0.088	-0.341
-125.253	-109.615	0.105	0.022
-124.239	100.961	-0.097	0.111
-123.224	-200.000	-0.002	0.083
