DTS Sentinel unit serial number:	SN413079Multiplexer serial number:	ORYXHardware model number:	OX4-SRSoftware version number:	ORYX F/W v4.00 Oryx Data Collector v3.7.2.0data status	okinstallation	princeton_trtdifferential loss correction	single-endedforward channel	channel 4reverse channel	N/Adate	2019/09/13time	04:53:35forward acquisition time	60.00reverse acquisition time	0.00gamma	496.2192k internal	0.2322k external	0.2322temperature offset calibration	1.0195default loss term (dB/km)	0.3790temperature slope calibration	1.0000multiplexer offset coefficient	1.0000multiplexer slope coefficient	1.0000fibre end	0.00T internal ref (°C)	26.52T ext. ref 1 (°C)	4.06T ext. ref 2 (°C)	20.97length (m)	temperature (°C)	Stokes	anti-Stokes-747.200	107.558	0.093	0.111
-746.185	52.065	-0.059	-0.057
-745.171	-200.000	0.015	-0.100
-744.156	193.840	0.137	0.209
-743.142	-200.000	0.074	0.522
-742.127	51.155	-0.250	0.240
-741.112	702.509	0.109	-0.291
-740.098	-161.553	-0.085	0.004
-739.083	-150.004	0.261	-0.021
-738.069	-128.820	0.244	-0.035
-737.054	-75.831	0.186	0.066
-736.039	-5.857	-0.335	-0.231
-735.025	259.442	0.131	0.229
-734.010	115.629	0.214	0.264
-732.996	51.892	0.155	0.149
-731.981	119.856	-0.170	-0.212
-730.966	23.374	-0.192	0.160
-729.952	-81.771	0.282	-0.093
-728.937	800.000	-0.109	0.340
-727.923	-128.508	0.310	0.044
-726.908	219.653	0.131	0.212
-725.894	131.097	0.034	-0.044
-724.879	73.675	0.073	0.077
-723.864	-200.000	0.015	-0.067
-722.850	-59.909	-0.201	0.087
-721.835	-25.294	0.079	-0.047
-720.821	-200.000	-0.016	-0.358
-719.806	-101.286	-0.470	0.116
-718.791	-119.257	0.110	-0.019
-717.777	-107.869	0.190	0.042
-716.762	-176.607	0.083	0.002
-715.748	-200.000	-0.023	0.121
-714.733	-2.036	-0.254	0.180
-713.718	674.905	-0.081	0.213
-712.704	52.946	-0.298	0.288
-711.689	18.112	-0.173	-0.139
-710.675	751.042	0.090	0.244
-709.660	800.000	0.051	-0.201
-708.645	-200.000	-0.009	0.045
-707.631	-51.885	-0.183	-0.086
-706.616	-200.000	0.052	-0.366
-705.602	-200.000	-0.005	0.144
-704.587	-58.478	-0.206	-0.090
-703.572	791.648	0.199	0.552
-702.558	-200.000	0.021	0.142
-701.543	800.000	-0.088	-0.258
-700.529	-200.000	0.017	0.093
-699.514	-200.000	-0.026	-0.211
-698.499	-140.552	-0.118	0.012
-697.485	-134.385	-0.136	-0.017
-696.470	575.647	0.154	0.379
-695.456	-81.821	0.334	-0.110
-694.441	654.778	-0.093	0.240
-693.426	-200.000	-0.051	0.316
-692.412	60.158	-0.219	-0.218
-691.397	351.616	0.129	0.258
-690.383	14.577	0.210	0.165
-689.368	-130.227	-0.334	0.046
-688.354	-61.028	0.154	-0.065
-687.339	32.501	0.261	0.228
-686.324	-156.199	-0.172	0.011
-685.310	-200.000	-0.054	-0.378
-684.295	-6.259	-0.177	-0.121
-683.281	-35.659	-0.152	-0.083
-682.266	-41.010	0.427	-0.222
-681.251	-165.930	0.322	0.014
-680.237	-200.000	-0.056	0.324
-679.222	800.000	-0.010	-0.036
-678.208	99.124	-0.199	-0.231
-677.193	56.679	-0.154	-0.151
-676.178	731.033	-0.102	-0.276
-675.164	-200.000	-0.038	0.316
-674.149	800.000	0.084	0.313
-673.135	392.920	0.114	0.240
-672.120	243.658	-0.108	-0.183
-671.105	114.357	-0.129	0.158
-670.091	69.725	0.324	-0.336
-669.076	-5.264	0.090	-0.062
-668.062	-19.399	-0.119	-0.074
-667.047	36.229	-0.076	-0.068
-666.032	32.201	-0.174	-0.151
-665.018	-121.360	0.245	0.041
-664.003	-200.000	-0.022	-0.394
-662.989	-35.768	0.214	0.117
-661.974	-113.971	-0.336	-0.066
-660.959	-200.000	-0.047	0.227
-659.945	800.000	0.041	-0.174
-658.930	417.366	0.085	-0.183
-657.916	44.175	0.113	-0.105
-656.901	94.714	-0.144	0.165
-655.886	213.570	-0.057	0.091
-654.872	-28.870	0.249	-0.144
-653.857	-39.270	-0.150	-0.079
-652.843	-9.809	0.107	0.071
-651.828	-200.000	-0.005	0.109
-650.814	496.616	-0.081	0.187
-649.799	-137.196	-0.169	0.019
-648.784	24.185	0.271	-0.225
-647.770	-7.916	-0.160	0.108
-646.755	-9.625	-0.260	0.174
-645.741	-155.162	-0.046	-0.003
-644.726	800.000	-0.061	-0.229
-643.711	-62.652	0.159	0.066
-642.697	466.390	0.098	0.221
-641.682	306.463	-0.125	-0.233
-640.668	25.425	-0.219	-0.183
-639.653	56.590	0.052	-0.051
-638.638	1.940	-0.168	0.122
-637.624	-171.733	-0.141	0.005
-636.609	-87.436	-0.141	-0.043
-635.595	-200.000	0.027	-0.237
-634.580	366.827	-0.078	0.157
-633.565	-73.348	-0.304	-0.112
-632.551	800.000	0.037	-0.144
-631.536	-175.573	-0.454	-0.012
-630.522	800.000	-0.143	-0.475
-629.507	800.000	-0.048	-0.205
-628.492	290.195	-0.116	-0.212
-627.478	-19.229	-0.098	0.061
-626.463	800.000	-0.013	-0.040
-625.449	-51.319	0.249	0.117
-624.434	800.000	0.094	0.411
-623.419	-77.236	-0.085	-0.030
-622.405	-65.232	-0.053	0.021
-621.390	30.965	-0.345	-0.297
-620.376	-79.045	0.360	-0.123
-619.361	-200.000	0.003	0.160
-618.346	-200.000	-0.009	-0.174
-617.332	95.988	-0.167	0.192
-616.317	-129.032	0.022	0.003
-615.303	-200.000	-0.008	0.160
-614.288	409.845	-0.025	0.053
-613.273	-200.000	0.007	-0.082
-612.259	735.835	-0.123	-0.331
-611.244	12.236	-0.134	0.104
-610.230	334.635	0.044	0.087
-609.215	91.196	-0.167	-0.189
-608.201	295.175	-0.221	-0.406
-607.186	726.876	0.028	-0.076
-606.171	-8.841	-0.053	-0.035
-605.157	186.844	0.122	0.183
-604.142	-27.168	-0.063	-0.037
-603.128	2.935	-0.146	-0.107
-602.113	-188.529	-0.223	0.003
-601.098	651.944	0.086	-0.221
-600.084	-200.000	0.011	0.176
-599.069	525.164	0.087	-0.205
-598.055	186.359	-0.140	0.209
-597.040	-200.000	-0.040	-0.248
-596.025	-82.320	-0.231	-0.075
-595.011	171.366	0.075	-0.109
-593.996	-115.004	0.108	-0.021
-592.982	665.136	0.126	-0.326
-591.967	313.485	-0.046	0.086
-590.952	800.000	0.122	0.370
-589.938	-183.888	0.273	-0.005
-588.923	213.065	0.060	-0.095
-587.909	-200.000	-0.009	0.162
-586.894	800.000	-0.103	0.316
-585.879	-60.669	0.262	-0.112
-584.865	-200.000	0.010	0.152
-583.850	62.919	0.128	-0.128
-582.836	-168.966	-0.030	0.001
-581.821	-115.164	-0.218	0.041
-580.806	-102.784	0.249	0.060
-579.792	147.133	-0.177	0.240
-578.777	-44.779	-0.385	-0.193
-577.763	585.378	-0.202	0.499
-576.748	316.971	-0.063	0.119
-575.733	-88.788	0.142	0.042
-574.719	800.000	0.056	-0.198
-573.704	113.435	-0.088	-0.108
-572.690	-121.417	0.305	0.051
-571.675	-200.000	0.009	0.072
-570.661	-87.196	0.154	-0.047
-569.646	361.533	-0.063	-0.127
-568.631	800.000	0.090	0.337
-567.617	11.944	0.078	-0.060
-566.602	350.837	0.062	0.123
-565.588	93.226	0.064	0.072
-564.573	240.534	-0.139	0.232
-563.558	37.817	-0.288	0.257
-562.544	-103.950	0.174	0.041
-561.529	526.624	-0.030	0.070
-560.515	-91.492	0.300	-0.086
-559.500	800.000	0.067	-0.226
-558.485	-18.664	0.029	-0.018
-557.471	95.186	-0.156	0.178
-556.456	651.763	-0.133	-0.342
-555.442	-75.745	-0.173	-0.061
-554.427	184.841	0.068	0.101
-553.412	-104.436	-0.219	-0.051
-552.398	800.000	-0.114	0.468
-551.383	175.327	-0.149	0.217
-550.369	-62.664	-0.182	0.076
-549.354	-95.262	0.390	0.105
-548.339	-200.000	0.003	-0.155
-547.325	125.588	0.212	-0.268
-546.310	96.252	0.179	-0.205
-545.296	-79.581	-0.092	0.031
-544.281	-70.877	-0.326	0.123
-543.266	-99.324	0.061	-0.015
-542.252	800.000	0.055	-0.199
-541.237	-76.344	-0.082	-0.029
-540.223	529.813	0.162	-0.383
-539.208	36.499	0.088	-0.078
-538.193	-48.011	-0.270	0.131
-537.179	290.053	0.138	-0.251
-536.164	-134.118	0.252	0.031
-535.150	637.338	-0.053	-0.136
-534.135	-200.000	0.018	0.238
-533.121	-125.809	0.138	-0.021
-532.106	-4.335	0.173	-0.120
-531.091	-63.857	0.228	-0.093
-530.077	-200.000	0.039	0.350
-529.062	-130.750	0.152	0.020
-528.048	-12.766	0.255	0.166
-527.033	800.000	-0.011	0.039
-526.018	-200.000	-0.021	0.198
-525.004	113.855	-0.127	-0.154
-523.989	800.000	-0.124	-0.396
-522.975	252.465	-0.183	-0.313
-521.960	65.649	-0.066	-0.067
-520.945	-90.154	0.230	0.067
-519.931	193.277	-0.173	-0.262
-518.916	23.297	0.355	0.292
-517.902	120.919	-0.334	0.416
-516.887	-18.754	-0.184	-0.115
-515.872	-200.000	-0.038	-0.322
-514.858	-27.732	0.291	0.169
-513.843	-61.827	0.217	0.091
-512.829	308.256	-0.030	-0.057
-511.814	-99.716	-0.190	0.048
-510.799	-53.508	-0.162	0.074
-509.785	-19.882	-0.326	-0.201
-508.770	161.271	-0.145	-0.204
-507.756	-5.501	0.141	-0.097
-506.741	-131.709	-0.217	-0.028
-505.726	-200.000	-0.018	0.092
-504.712	-53.158	-0.358	-0.164
-503.697	-94.945	0.068	0.018
-502.683	-49.183	0.142	0.068
-501.668	800.000	0.075	-0.231
-500.653	0.603	-0.319	0.228
-499.639	-89.217	-0.054	-0.016
-498.624	-102.207	-0.497	-0.120
-497.610	228.597	0.058	-0.095
-496.595	-113.591	0.532	0.104
-495.581	329.679	-0.055	0.105
-494.566	-200.000	-0.005	0.108
-493.551	265.618	0.035	0.061
-492.537	-200.000	-0.004	0.224
-491.522	-28.144	0.139	0.080
-490.508	-200.000	-0.024	0.243
-489.493	-65.889	0.230	0.092
-488.478	-95.796	0.186	-0.050
-487.464	31.892	0.194	-0.167
-486.449	14.706	0.149	-0.117
-485.435	-64.190	0.129	0.052
-484.420	-29.455	-0.062	0.036
-483.405	-200.000	-0.008	0.311
-482.391	800.000	0.107	0.300
-481.376	-102.434	-0.028	-0.007
-480.362	-6.583	0.267	0.182
-479.347	-109.470	-0.027	0.006
-478.332	-97.341	-0.228	-0.059
-477.318	-82.837	-0.108	-0.035
-476.303	-48.951	-0.108	-0.052
-475.289	-118.534	-0.120	0.021
-474.274	-200.000	0.057	0.373
-473.259	-158.511	-0.394	0.023
-472.245	52.396	0.228	-0.217
-471.230	-58.274	-0.152	-0.066
-470.216	87.827	0.058	-0.064
-469.201	494.247	0.157	-0.360
-468.186	-7.813	-0.068	0.046
-467.172	110.534	0.081	-0.097
-466.157	800.000	0.074	0.216
-465.143	-131.153	-0.086	-0.011
-464.128	-105.393	-0.341	-0.078
-463.113	13.530	-0.082	0.064
-462.099	-147.010	0.190	0.016
-461.084	174.812	-0.219	-0.317
-460.070	-68.080	0.350	-0.136
-459.055	-75.204	-0.137	-0.049
-458.040	116.737	0.264	-0.324
-457.026	-110.876	0.175	0.036
-456.011	320.065	-0.036	0.069
-454.997	-33.394	-0.058	-0.032
-453.982	-200.000	0.041	-0.414
-452.968	7.046	-0.237	0.176
-451.953	24.879	-0.104	0.086
-450.938	-200.000	0.016	-0.108
-449.924	-72.784	-0.163	-0.060
-448.909	-200.000	-0.004	0.161
-447.895	372.893	0.031	-0.063
-446.880	11.326	-0.191	0.146
-445.865	122.992	-0.158	-0.197
-444.851	14.594	-0.122	-0.095
-443.836	-94.308	-0.318	0.087
-442.822	581.039	-0.098	-0.239
-441.807	-124.253	-0.248	0.039
-440.792	128.521	-0.101	0.129
-439.778	722.231	-0.094	-0.249
-438.763	24.191	-0.228	-0.188
-437.749	320.035	0.138	-0.261
-436.734	-63.749	-0.094	-0.038
-435.719	-200.000	-0.035	0.437
-434.705	-3.236	-0.113	0.078
-433.690	800.000	0.009	0.028
-432.676	-104.708	-0.145	0.033
-431.661	-137.478	-0.081	0.009
-430.646	92.762	-0.162	0.182
-429.632	17.980	0.217	0.173
-428.617	115.842	0.090	-0.110
-427.603	-200.000	-0.009	0.202
-426.588	-18.434	-0.149	-0.093
-425.573	-57.674	0.115	0.050
-424.559	-200.000	0.010	-0.048
-423.544	800.000	-0.042	-0.129
-422.530	162.061	0.208	0.291
-421.515	-136.971	-0.110	0.013
-420.500	333.756	-0.023	0.044
-419.486	800.000	0.038	0.123
-418.471	-93.434	0.337	-0.093
-417.457	800.000	0.054	-0.202
-416.442	-42.549	-0.008	0.004
-415.428	-200.000	-0.033	-0.243
-414.413	-81.542	0.287	-0.094
-413.398	-45.010	-0.264	-0.131
-412.384	-200.000	-0.003	0.063
-411.369	-17.349	0.275	0.173
-410.355	-48.867	-0.346	0.166
-409.340	258.637	0.077	0.132
-408.325	-177.075	0.074	0.002
-407.311	276.440	0.066	0.117
-406.296	-152.107	-0.185	0.013
-405.282	410.420	-0.026	-0.055
-404.267	-103.262	0.279	0.066
-403.252	102.115	0.127	-0.147
-402.238	-200.000	0.012	0.153
-401.223	-88.733	-0.310	0.092
-400.209	-158.451	-0.548	0.032
-399.194	-91.840	0.148	-0.042
-398.179	800.000	0.044	0.147
-397.165	-200.000	-0.004	0.135
-396.150	270.733	-0.054	0.095
-395.136	800.000	-0.080	0.229
-394.121	-200.000	0.035	0.152
-393.106	-63.259	-0.420	-0.172
-392.092	637.019	0.053	0.134
-391.077	-106.429	0.530	-0.118
-390.063	-143.631	0.195	0.018
-389.048	800.000	-0.187	-0.579
-388.033	112.535	0.167	0.201
-387.019	-172.578	0.150	0.005
-386.004	-200.000	-0.046	-0.466
-384.990	-31.503	0.200	0.112
-383.975	225.738	0.042	-0.067
-382.960	-86.116	0.470	0.145
-381.946	105.996	-0.101	-0.119
-380.931	-200.000	0.005	-0.216
-379.917	48.875	0.062	-0.058
-378.902	464.450	-0.059	-0.132
-377.888	-79.989	0.220	0.073
-376.873	-178.670	-0.284	0.006
-375.858	-200.000	-0.028	-0.292
-374.844	-168.042	-0.350	0.014
-373.829	70.258	0.112	0.115
-372.815	-200.000	-0.020	0.181
-371.800	-123.858	0.295	-0.046
-370.785	800.000	-0.042	-0.126
-369.771	206.417	0.049	-0.076
-368.756	36.178	-0.145	0.127
-367.742	266.232	0.047	0.081
-366.727	-77.983	-0.194	-0.066
-365.712	161.747	-0.139	-0.193
-364.698	-28.894	-0.224	0.128
-363.683	40.802	-0.089	0.080
-362.669	527.186	-0.027	0.064
-361.654	415.918	0.141	0.300
-360.639	-200.000	0.013	-0.107
-359.625	-108.585	-0.242	-0.052
-358.610	-166.289	-0.273	-0.011
-357.596	162.293	-0.165	-0.230
-356.581	-123.574	0.252	-0.040
-355.566	-116.694	0.248	-0.045
-354.552	800.000	0.081	0.225
-353.537	-200.000	0.005	-0.108
-352.523	-57.728	-0.051	-0.022
-351.508	725.871	0.093	0.246
-350.493	34.093	-0.092	0.079
-349.479	-200.000	0.352	0.002
-348.464	800.000	-0.068	-0.282
-347.450	-47.514	-0.156	-0.075
-346.435	-200.000	-0.013	0.460
-345.420	-200.000	-0.023	0.000
-344.406	51.847	-0.114	-0.108
-343.391	-151.396	0.159	0.012
-342.377	-57.642	-0.066	0.029
-341.362	-47.740	0.104	0.050
-340.348	-71.593	0.083	-0.031
-339.333	-200.000	-0.033	-0.295
-338.318	-200.000	-0.012	0.058
-337.304	-161.155	0.196	-0.010
-336.289	-200.000	0.010	-0.169
-335.275	-200.000	-0.035	-0.238
-334.260	61.881	0.270	0.267
-333.245	-200.000	-0.045	0.232
-332.231	-81.414	-0.374	0.122
-331.216	141.436	-0.120	0.158
-330.202	170.780	0.129	0.183
-329.187	-22.562	0.158	0.095
-328.172	-51.058	0.379	0.177
-327.158	25.578	0.271	-0.225
-326.143	-200.000	-0.007	-0.084
-325.129	800.000	-0.017	0.049
-324.114	-27.568	-0.075	-0.043
-323.099	374.323	-0.052	0.106
-322.085	-59.540	-0.208	-0.089
-321.070	800.000	0.053	-0.151
-320.056	-200.000	-0.008	0.088
-319.041	-200.000	-0.010	0.184
-318.026	255.881	-0.089	-0.151
-317.012	368.649	0.058	0.116
-315.997	800.000	-0.056	0.195
-314.983	96.171	0.188	0.214
-313.968	800.000	0.033	-0.099
-312.953	-135.251	-0.252	-0.030
-311.939	42.565	0.176	-0.159
-310.924	-52.829	0.077	-0.035
-309.910	92.377	0.229	-0.257
-308.895	-200.000	0.013	0.249
-307.880	171.702	0.198	-0.282
-306.866	-31.144	0.291	-0.163
-305.851	209.438	0.076	-0.118
-304.837	688.002	-0.077	0.200
-303.822	456.347	0.071	-0.157
-302.807	-106.946	0.169	-0.037
-301.793	-101.760	0.253	0.061
-300.778	-161.089	0.258	-0.013
-299.764	32.626	0.078	0.067
-298.749	800.000	0.023	-0.095
-297.735	-142.506	0.494	0.048
-296.720	-200.000	-0.038	0.307
-295.705	-200.000	-0.022	0.232
-294.691	-165.433	-0.285	-0.012
-293.676	800.000	0.101	0.285
-292.662	186.138	-0.168	0.247
-291.647	-51.208	0.272	-0.126
-290.632	-140.185	-0.285	0.030
-289.618	-23.647	-0.233	0.139
-288.603	-66.359	-0.287	0.113
-287.589	800.000	-0.078	-0.302
-286.574	800.000	0.057	-0.176
-285.559	114.146	0.064	-0.078
-284.545	49.734	0.056	-0.052
-283.530	313.080	0.101	-0.188
-282.516	218.520	0.166	0.264
-281.501	221.624	0.082	-0.130
-280.486	318.744	0.062	-0.117
-279.472	-66.422	0.220	0.087
-278.457	-200.000	-0.015	0.160
-277.443	175.504	0.145	0.209
-276.428	800.000	-0.020	-0.071
-275.413	624.739	0.046	-0.114
-274.399	27.059	0.111	0.092
-273.384	215.986	-0.096	0.152
-272.370	161.024	-0.124	0.172
-271.355	1.785	-0.091	0.065
-270.340	-166.339	0.364	0.015
-269.326	436.330	-0.048	-0.105
-268.311	2.190	0.212	-0.152
-267.297	-176.208	-0.660	0.017
-266.282	642.646	0.020	-0.051
-265.267	139.458	-0.145	0.189
-264.253	271.905	0.046	-0.081
-263.238	-90.187	-0.457	-0.132
-262.224	-103.393	-0.230	-0.054
-261.209	105.789	-0.105	-0.123
-260.195	-200.000	0.036	-0.633
-259.180	-163.543	-0.167	0.008
-258.165	-0.414	-0.388	0.273
-257.151	-49.887	0.303	-0.143
-256.136	229.093	0.054	0.087
-255.122	-70.550	-0.165	0.062
-254.107	406.594	-0.119	-0.249
-253.092	15.578	-0.110	0.086
-252.078	-24.929	0.046	0.027
-251.063	-81.185	0.321	0.105
-250.049	417.819	-0.077	0.164
-249.034	-40.043	0.140	-0.072
-248.019	-13.081	0.251	-0.162
-247.005	127.364	-0.218	-0.274
-245.990	-21.314	0.028	-0.017
-244.976	171.982	-0.113	0.160
-243.961	-21.469	0.152	0.092
-242.946	-166.336	0.295	0.012
-241.932	489.382	0.110	-0.250
-240.917	632.887	0.139	0.349
-239.903	-200.000	0.018	0.117
-238.888	14.243	-0.089	0.069
-237.873	-200.000	-0.066	0.359
-236.859	-21.311	0.309	-0.187
-235.844	-200.000	-0.001	0.057
-234.830	-200.000	0.079	-0.561
-233.815	138.678	-0.071	0.092
-232.800	-153.486	0.119	-0.008
-231.786	-24.319	0.213	-0.126
-230.771	135.692	-0.246	-0.317
-229.757	-113.597	0.234	-0.045
-228.742	164.918	-0.095	-0.133
-227.727	-144.558	-0.140	0.013
-226.713	-200.000	0.075	0.401
-225.698	207.112	-0.147	0.227
-224.684	-200.000	0.027	0.130
-223.669	347.974	0.092	0.180
-222.655	57.826	0.476	0.461
-221.640	414.566	0.100	0.210
-220.625	-95.067	0.229	0.061
-219.611	-20.651	-0.197	0.120
-218.596	-34.121	-0.222	0.121
-217.582	-200.000	0.040	0.372
-216.567	182.648	-0.136	0.198
-215.552	316.514	0.139	-0.259
-214.538	-200.000	0.011	-0.212
-213.523	110.747	0.078	0.093
-212.509	179.471	-0.322	0.467
-211.494	-53.962	0.315	-0.142
-210.479	-200.000	-0.038	-0.339
-209.465	-81.928	-0.099	-0.032
-208.450	155.376	0.114	0.156
-207.436	-64.036	-0.156	0.063
-206.421	-76.839	0.169	0.058
-205.406	10.284	0.154	0.116
-204.392	800.000	0.003	-0.009
-203.377	-34.906	-0.067	0.036
-202.363	594.177	0.095	-0.232
-201.348	-200.000	-0.008	-0.070
-200.333	-188.548	-0.074	-0.001
-199.319	674.753	0.079	-0.202
-198.304	-200.000	-0.052	0.229
-197.290	-200.000	-0.014	-0.261
-196.275	-21.226	-0.274	0.165
-195.260	-46.945	0.347	0.168
-194.246	-110.100	-0.217	0.045
-193.231	-50.168	0.155	-0.073
-192.217	-25.439	0.432	0.252
-191.202	-12.600	-0.260	-0.167
-190.187	-16.900	-0.133	-0.083
-189.173	24.216	0.309	-0.252
-188.158	-74.125	-0.248	0.089
-187.144	0.485	0.092	-0.065
-186.129	800.000	0.119	0.380
-185.114	66.571	0.246	-0.248
-184.100	-200.000	-0.015	-0.245
-183.085	-26.104	-0.191	0.111
-182.071	-21.650	-0.108	-0.065
-181.056	-57.304	-0.110	-0.048
-180.042	-47.560	0.131	0.063
-179.027	-200.000	-0.042	0.337
-178.012	-4.636	0.298	-0.204
-176.998	800.000	-0.119	-0.336
-175.983	800.000	-0.059	0.167
-174.969	16.875	0.196	0.154
-173.954	407.851	0.072	-0.150
-172.939	-200.000	0.021	-0.191
-171.925	18.544	0.058	-0.046
-170.910	177.518	-0.118	-0.169
-169.896	-18.936	-0.071	0.044
-168.881	-17.602	0.283	0.176
-167.866	-89.727	0.107	-0.031
-166.852	-123.288	-0.026	0.004
-165.837	24.306	0.097	-0.079
-164.823	53.030	0.193	-0.183
-163.808	154.774	-0.115	-0.156
-162.793	764.748	-0.175	-0.468
-161.779	-142.904	0.213	0.020
-160.764	-200.000	0.002	0.252
-159.750	23.112	0.141	-0.115
-158.735	359.916	-0.120	0.238
-157.720	130.527	0.278	0.352
-156.706	-107.717	-0.236	-0.051
-155.691	140.243	0.044	-0.057
-154.677	800.000	0.062	0.248
-153.662	-100.614	-0.247	-0.060
-152.647	5.741	-0.127	0.092
-151.633	-85.939	0.105	0.032
-150.618	239.720	0.052	-0.085
-149.604	-25.336	0.172	-0.100
-148.589	563.504	-0.076	0.181
-147.574	800.000	0.118	0.379
-146.560	360.576	-0.080	0.158
-145.545	61.342	-0.264	-0.259
-144.531	-39.860	-0.269	-0.139
-143.516	-85.070	0.266	-0.082
-142.502	307.030	-0.100	-0.183
-141.487	3.686	-0.425	-0.306
-140.472	-142.349	-0.074	0.007
-139.458	-138.533	0.117	0.013
-138.443	139.750	0.206	-0.268
-137.429	88.117	-0.135	-0.148
-136.414	-75.777	0.163	0.057
-135.399	-52.828	-0.250	0.114
-134.385	217.072	-0.196	0.309
-133.370	244.725	-0.022	-0.036
-132.356	119.522	-0.137	-0.167
-131.341	-63.723	0.083	-0.034
-130.326	800.000	0.019	-0.057
-129.312	25.702	-0.166	-0.136
-128.297	-3.589	0.126	-0.086
-127.283	608.712	0.179	-0.440
-126.268	-200.000	0.016	-0.139
-125.253	-69.846	-0.229	0.086
-124.239	-16.013	0.204	0.128
-123.224	52.277	0.246	-0.231
-122.210	-20.607	-0.171	-0.104
-121.195	-74.877	0.254	-0.090
