DTS Sentinel unit serial number:	SN413079Multiplexer serial number:	ORYXHardware model number:	OX4-SRSoftware version number:	ORYX F/W v4.00 Oryx Data Collector v3.7.2.0data status	okinstallation	princeton_trtdifferential loss correction	single-endedforward channel	channel 4reverse channel	N/Adate	2019/09/17time	17:25:35forward acquisition time	60.00reverse acquisition time	0.00gamma	496.2192k internal	0.2278k external	0.2278temperature offset calibration	0.9979default loss term (dB/km)	0.3790temperature slope calibration	1.0000multiplexer offset coefficient	1.0000multiplexer slope coefficient	1.0000fibre end	0.00T internal ref (°C)	43.06T ext. ref 1 (°C)	0.34T ext. ref 2 (°C)	39.10length (m)	temperature (°C)	Stokes	anti-Stokes-747.200	-200.000	0.001	0.063
-746.185	-30.500	0.115	0.067
-745.171	-59.094	0.049	0.022
-744.156	-56.806	-0.203	-0.092
-743.142	41.041	0.217	-0.202
-742.127	175.826	0.013	0.020
-741.112	102.665	-0.215	-0.259
-740.098	800.000	0.074	0.213
-739.083	800.000	0.014	0.065
-738.069	-62.279	-0.068	0.029
-737.054	-55.276	-0.290	0.134
-736.039	28.216	0.126	0.110
-735.025	16.076	0.191	0.155
-734.010	-200.000	-0.007	-0.156
-732.996	800.000	-0.062	0.222
-731.981	366.892	-0.044	0.091
-730.966	-144.038	0.110	0.011
-729.952	379.282	0.125	0.264
-728.937	17.935	0.020	-0.016
-727.923	-9.769	-0.169	0.116
-726.908	-200.000	-0.009	0.055
-725.894	71.180	0.192	0.205
-724.879	-200.000	-0.008	-0.168
-723.864	-116.224	-0.293	0.056
-722.850	497.366	0.073	0.172
-721.835	31.895	-0.275	0.244
-720.821	-35.369	0.153	0.086
-719.806	222.494	-0.121	-0.200
-718.791	41.918	-0.269	-0.251
-717.777	-146.038	0.028	0.003
-716.762	-75.150	-0.264	-0.097
-715.748	-40.167	0.152	0.082
-714.733	-200.000	0.007	-0.351
-713.718	-20.568	0.272	0.172
-712.704	-133.815	0.130	0.017
-711.689	39.081	0.100	-0.092
-710.675	-200.000	-0.009	0.305
-709.660	-200.000	-0.044	-0.213
-708.645	199.754	-0.059	-0.093
-707.631	-200.000	0.002	0.021
-706.616	-200.000	-0.003	-0.184
-705.602	-200.000	0.036	0.168
-704.587	-118.131	0.305	-0.056
-703.572	-69.234	-0.148	-0.059
-702.558	-105.693	0.154	0.036
-701.543	124.826	-0.185	-0.239
-700.529	-36.450	-0.066	-0.037
-699.514	-200.000	-0.027	-0.187
-698.499	371.194	-0.153	-0.320
-697.485	-1.972	-0.185	-0.134
-696.470	-200.000	0.002	-0.155
-695.456	-120.030	0.351	-0.062
-694.441	89.066	-0.285	-0.326
-693.426	-35.571	-0.030	0.017
-692.412	134.590	-0.104	-0.139
-691.397	-200.000	0.043	0.195
-690.383	-109.843	-0.221	0.048
-689.368	-68.309	0.018	-0.007
-688.354	-171.302	-0.387	0.013
-687.339	65.028	0.066	0.068
-686.324	77.310	0.174	-0.190
-685.310	800.000	-0.045	-0.175
-684.295	643.398	0.100	-0.263
-683.281	-44.676	-0.153	-0.079
-682.266	-200.000	0.035	-0.204
-681.251	-139.663	0.140	0.015
-680.237	-92.895	-0.241	-0.069
-679.222	-112.356	0.240	-0.049
-678.208	-151.040	0.179	-0.014
-677.193	73.396	-0.200	-0.216
-676.178	-55.026	0.181	-0.084
-675.164	257.791	0.066	-0.117
-674.149	30.921	-0.146	-0.129
-673.135	-125.675	0.376	0.059
-672.120	87.351	0.026	0.029
-671.105	-132.253	0.388	0.052
-670.091	-130.806	0.254	0.035
-669.076	23.470	0.117	0.098
-668.062	-187.618	0.383	-0.005
-667.047	245.964	0.104	-0.179
-666.032	-44.300	0.260	-0.134
-665.018	277.969	0.153	0.281
-664.003	-200.000	-0.052	-0.372
-662.989	304.003	-0.176	-0.335
-661.974	-61.862	-0.215	-0.092
-660.959	-80.547	-0.170	0.058
-659.945	-113.005	0.246	-0.050
-658.930	136.468	-0.350	0.469
-657.916	-34.887	0.123	-0.069
-656.901	-200.000	0.039	-0.282
-655.886	690.466	-0.087	0.235
-654.872	-145.784	0.200	0.018
-653.857	569.649	0.153	0.383
-652.843	800.000	0.051	-0.228
-651.828	-28.751	0.069	0.041
-650.814	-90.725	-0.356	-0.105
-649.799	-200.000	-0.032	-0.417
-648.784	-94.707	-0.158	0.044
-647.770	-177.534	-0.645	0.016
-646.755	-62.621	-0.118	0.050
-645.741	-105.705	0.270	-0.063
-644.726	57.859	-0.167	-0.167
-643.711	-7.319	0.194	-0.135
-642.697	88.252	0.216	-0.246
-641.682	165.701	-0.026	-0.038
-640.668	-91.205	0.228	-0.067
-639.653	214.267	-0.091	-0.148
-638.638	33.377	-0.123	-0.109
-637.624	-200.000	0.037	-0.177
-636.609	-142.817	0.099	0.010
-635.595	89.507	0.209	-0.239
-634.580	-200.000	-0.051	-0.278
-633.565	541.263	-0.116	-0.283
-632.551	-200.000	-0.001	-0.104
-631.536	-200.000	0.053	0.277
-630.522	800.000	0.072	-0.215
-629.507	-6.776	0.055	0.038
-628.492	800.000	-0.025	-0.081
-627.478	800.000	-0.068	-0.227
-626.463	256.953	0.122	0.214
-625.449	-124.970	0.358	0.057
-624.434	-200.000	-0.037	-0.232
-623.419	800.000	-0.040	-0.126
-622.405	155.431	0.196	0.277
-621.390	31.364	-0.216	0.190
-620.376	733.256	-0.082	-0.224
-619.361	-200.000	-0.026	0.127
-618.346	-71.067	0.136	-0.052
-617.332	85.126	-0.136	0.153
-616.317	-112.607	0.147	-0.030
-615.303	291.200	0.085	0.158
-614.288	-97.383	-0.042	-0.011
-613.273	6.196	-0.189	-0.143
-612.259	0.617	0.171	-0.125
-611.244	800.000	-0.019	0.064
-610.230	134.927	0.048	-0.064
-609.215	-164.958	-0.240	0.011
-608.201	-200.000	0.064	0.331
-607.186	-3.341	-0.210	-0.150
-606.171	83.739	-0.191	0.213
-605.157	-56.902	-0.102	-0.046
-604.142	-75.594	-0.445	-0.162
-603.128	101.226	-0.097	0.115
-602.113	800.000	-0.032	0.106
-601.098	800.000	0.034	0.123
-600.084	20.034	-0.185	0.153
-599.069	84.648	-0.195	0.219
-598.055	-60.592	-0.181	0.079
-597.040	178.092	0.207	-0.309
-596.025	-198.366	-0.086	0.001
-595.011	-200.000	-0.045	-0.244
-593.996	-24.596	-0.266	-0.162
-592.982	17.806	0.072	-0.059
-591.967	-200.000	0.012	-0.475
-590.952	333.348	-0.114	0.225
-589.938	-18.407	0.372	0.238
-588.923	-52.916	-0.130	-0.061
-587.909	306.364	-0.128	0.244
-586.894	-68.474	-0.116	-0.046
-585.879	-200.000	-0.003	-0.125
-584.865	135.027	-0.199	0.265
-583.850	800.000	-0.106	0.301
-582.836	-200.000	0.076	0.373
-581.821	-31.829	-0.263	-0.151
-580.806	-36.923	0.054	-0.030
-579.792	73.548	-0.087	0.094
-578.777	-56.303	-0.039	0.018
-577.763	-200.000	-0.025	-0.174
-576.748	-200.000	-0.032	0.157
-575.733	-68.840	0.056	0.022
-574.719	-200.000	0.064	-0.376
-573.704	2.246	-0.204	-0.151
-572.690	-46.671	-0.385	-0.193
-571.675	-200.000	-0.062	-0.321
-570.661	157.413	0.137	0.193
-569.646	381.909	0.116	0.244
-568.631	-200.000	-0.023	0.273
-567.617	-22.234	-0.250	0.155
-566.602	-95.830	-0.195	0.053
-565.588	-76.041	0.062	-0.022
-564.573	37.364	0.127	-0.115
-563.558	-200.000	-0.013	-0.218
-562.544	800.000	-0.117	0.334
-561.529	-73.490	0.178	0.067
-560.515	648.590	-0.063	-0.165
-559.500	-200.000	0.024	-0.451
-558.485	800.000	-0.042	-0.183
-557.471	-75.789	-0.335	-0.121
-556.456	25.230	0.153	0.130
-555.442	-15.089	0.185	-0.121
-554.427	381.992	0.048	-0.100
-553.412	407.043	0.033	-0.071
-552.398	-9.306	0.119	0.081
-551.383	800.000	0.050	-0.151
-550.369	-37.420	-0.183	0.100
-549.354	-149.274	0.232	0.019
-548.339	-162.752	0.409	0.020
-547.325	96.598	0.186	0.217
-546.310	-200.000	0.007	0.241
-545.296	-60.463	0.328	0.142
-544.281	-78.404	0.213	-0.074
-543.266	-64.489	-0.378	0.157
-542.252	-101.805	0.181	-0.045
-541.237	-46.660	0.169	0.085
-540.223	34.488	-0.141	0.126
-539.208	449.735	-0.013	-0.030
-538.193	230.872	-0.103	-0.172
-537.179	-98.814	-0.200	-0.052
-536.164	-200.000	-0.034	-0.166
-535.150	-151.916	0.072	0.005
-534.135	-119.184	0.083	0.015
-533.121	-116.504	-0.244	-0.046
-532.106	593.725	-0.070	0.178
-531.091	254.560	-0.025	0.044
-530.077	-93.734	0.192	0.054
-529.062	59.521	0.087	-0.087
-528.048	800.000	0.035	-0.117
-527.033	35.970	0.230	-0.206
-526.018	593.918	0.082	-0.207
-525.004	-200.000	0.012	0.250
-523.989	-76.281	-0.120	0.043
-522.975	-149.497	-0.258	-0.021
-521.960	-41.748	0.262	-0.137
-520.945	255.715	0.194	0.340
-519.931	800.000	-0.058	0.170
-518.916	800.000	0.067	0.280
-517.902	800.000	0.074	0.227
-516.887	201.215	-0.127	-0.200
-515.872	132.791	-0.111	0.146
-514.858	33.417	-0.279	0.247
-513.843	-74.921	-0.049	0.018
-512.829	476.390	-0.054	0.124
-511.814	44.760	-0.100	-0.094
-510.799	-132.905	0.430	0.056
-509.785	-65.882	-0.220	-0.090
-508.770	69.133	0.145	0.152
-507.756	-139.832	0.232	0.025
-506.741	-111.724	0.299	0.062
-505.726	-114.925	0.237	-0.046
-504.712	-30.145	-0.134	0.078
-503.697	-82.213	-0.397	0.132
-502.683	131.241	0.194	0.254
-501.668	231.867	-0.032	0.053
-500.653	-65.057	-0.160	-0.066
-499.639	109.409	0.135	0.165
-498.624	-200.000	-0.018	-0.087
-497.610	-149.132	-0.044	-0.004
-496.595	66.007	-0.010	-0.010
-495.581	-99.808	-0.212	-0.054
-494.566	-59.786	-0.102	0.045
-493.551	-105.018	0.072	-0.017
-492.537	-8.427	0.439	-0.301
-491.522	101.597	0.056	-0.066
-490.508	-200.000	-0.024	0.267
-489.493	800.000	-0.095	0.358
-488.478	367.904	0.058	-0.119
-487.464	-152.704	-0.392	0.028
-486.449	229.816	0.178	-0.297
-485.435	-154.874	0.218	-0.015
-484.420	-39.170	0.235	0.126
-483.405	671.445	-0.078	-0.205
-482.391	-156.580	-0.083	-0.005
-481.376	-24.626	0.180	-0.109
-480.362	-200.000	-0.023	-0.416
-479.347	-114.318	-0.140	-0.027
-478.332	-184.524	-0.219	0.004
-477.318	-77.336	0.067	0.024
-476.303	58.324	0.012	-0.012
-475.289	8.742	0.265	-0.203
-474.274	83.086	0.131	0.145
-473.259	40.512	-0.226	-0.208
-472.245	-18.410	-0.014	0.009
-471.230	81.456	-0.215	0.237
-470.216	-117.080	0.145	-0.027
-469.201	21.547	0.318	0.263
-468.186	-200.000	0.043	0.242
-467.172	672.336	0.220	0.581
-466.157	-19.303	-0.135	0.085
-465.143	-124.064	0.111	-0.018
-464.128	-70.413	-0.429	0.165
-463.113	-42.438	0.212	0.110
-462.099	-2.064	0.137	-0.098
-461.084	22.635	-0.152	-0.127
-460.070	272.863	-0.054	0.097
-459.055	-182.042	0.224	-0.004
-458.040	-200.000	0.063	-0.298
-457.026	800.000	0.024	-0.106
-456.011	13.250	0.114	-0.090
-454.997	159.786	-0.120	0.170
-453.982	549.110	-0.068	0.165
-452.968	-96.004	-0.134	-0.036
-451.953	-62.174	-0.201	-0.085
-450.938	224.042	0.138	0.226
-449.924	-157.565	-0.006	-0.000
-448.909	-126.022	0.182	0.028
-447.895	341.437	-0.101	0.200
-446.880	-200.000	0.030	0.231
-445.865	-200.000	-0.042	-0.258
-444.851	-200.000	0.038	-0.192
-443.836	-29.563	-0.125	-0.073
-442.822	-77.601	-0.275	-0.097
-441.807	6.922	0.371	0.281
-440.792	-81.658	0.568	0.190
-439.778	508.253	0.076	-0.180
-438.763	800.000	0.026	-0.092
-437.749	513.251	-0.058	-0.137
-436.734	62.320	-0.108	0.110
-435.719	633.960	-0.074	-0.191
-434.705	-122.817	0.208	-0.034
-433.690	-12.233	0.107	-0.071
-432.676	-145.519	-0.248	0.023
-431.661	132.682	-0.117	-0.153
-430.646	-64.363	0.219	-0.091
-429.632	-42.483	-0.332	-0.172
-428.617	272.406	0.050	-0.089
-427.603	-5.260	0.210	-0.147
-426.588	173.352	-0.150	-0.220
-425.573	-132.707	0.387	0.050
-424.559	349.504	-0.122	0.246
-423.544	-111.677	0.131	0.027
-422.530	800.000	0.024	-0.104
-421.515	584.035	0.010	0.026
-420.500	53.390	0.126	-0.123
-419.486	200.307	-0.061	0.095
-418.471	-200.000	0.030	-0.146
-417.457	-141.430	-0.184	0.019
-416.442	108.547	0.199	-0.241
-415.428	-150.848	-0.311	-0.024
-414.413	800.000	0.058	-0.220
-413.398	800.000	0.036	-0.139
-412.384	38.480	-0.070	-0.064
-411.369	662.871	0.089	-0.234
-410.355	95.741	0.154	-0.179
-409.340	338.000	0.037	-0.074
-408.325	-100.680	0.065	0.016
-407.311	196.911	0.079	0.123
-406.296	532.020	0.075	-0.179
-405.282	-78.190	-0.131	-0.046
-404.267	800.000	0.092	-0.276
-403.252	202.295	0.298	0.468
-402.238	785.454	0.077	0.213
-401.223	69.990	-0.013	-0.014
-400.209	66.902	0.067	-0.069
-399.194	-127.363	-0.229	-0.034
-398.179	235.202	0.198	-0.332
-397.165	247.876	0.079	-0.135
-396.150	95.872	0.055	0.064
-395.136	144.207	-0.117	-0.159
-394.121	800.000	0.018	-0.053
-393.106	37.998	-0.041	0.037
-392.092	-15.839	-0.294	0.190
-391.077	716.687	0.052	-0.141
-390.063	79.921	0.142	-0.155
-389.048	800.000	0.043	-0.183
-388.033	-80.755	-0.244	0.082
-387.019	-156.323	-0.435	-0.028
-386.004	800.000	0.080	0.311
-384.990	492.265	0.024	0.055
-383.975	68.190	-0.237	0.246
-382.960	-132.851	0.177	0.023
-381.946	-65.164	0.215	-0.088
-380.931	187.543	-0.178	-0.270
-379.917	445.950	-0.043	0.096
-378.902	128.545	0.170	-0.220
-377.888	-200.000	0.054	-0.248
-376.873	-17.367	0.290	-0.186
-375.858	86.814	0.237	0.265
-374.844	243.450	-0.071	0.121
-373.829	-116.416	0.172	-0.032
-372.815	291.535	0.054	-0.100
-371.800	-129.755	-0.034	0.005
-370.785	-80.487	-0.072	-0.024
-369.771	-171.100	0.129	0.004
-368.756	-200.000	-0.096	-0.628
-367.742	278.889	-0.091	-0.165
-366.727	800.000	-0.125	0.471
-365.712	-59.962	-0.355	0.154
-364.698	-174.772	0.458	0.013
-363.683	-83.838	-0.102	0.033
-362.669	-167.443	-0.082	0.003
-361.654	-92.993	-0.254	-0.072
-360.639	800.000	-0.048	-0.162
-359.625	-96.702	0.278	0.074
-358.610	-26.233	-0.257	-0.153
-357.596	-162.341	0.097	-0.005
-356.581	-200.000	0.031	0.294
-355.566	-100.469	-0.146	0.037
-354.552	443.798	0.140	-0.311
-353.537	-29.817	-0.198	-0.114
-352.523	18.708	-0.083	-0.068
-351.508	30.489	-0.247	-0.214
-350.493	118.751	0.134	-0.168
-349.479	-151.439	-0.278	-0.021
-348.464	114.425	-0.086	0.106
-347.450	7.056	-0.259	0.196
-346.435	57.417	-0.072	-0.071
-345.420	363.160	0.061	0.123
-344.406	-44.191	0.132	0.067
-343.391	594.995	-0.181	-0.455
-342.377	36.697	0.151	0.135
-341.362	278.729	0.126	-0.228
-340.348	-80.231	0.407	-0.138
-339.333	22.163	-0.290	0.240
-338.318	341.743	0.055	0.109
-337.304	-200.000	-0.023	-0.149
-336.289	-99.383	0.286	-0.073
-335.275	49.007	0.312	0.297
-334.260	53.912	-0.153	0.149
-333.245	-200.000	0.025	-0.348
-332.231	74.496	0.084	-0.089
-331.216	800.000	-0.022	0.075
-330.202	-148.391	-0.104	-0.009
-329.187	10.384	0.244	0.188
-328.172	-62.394	-0.152	-0.064
-327.158	94.404	-0.257	0.296
-326.143	-124.836	-0.308	-0.048
-325.129	583.332	-0.109	-0.271
-324.114	-200.000	-0.060	0.306
-323.099	188.939	-0.100	0.152
-322.085	-79.520	0.135	-0.046
-321.070	800.000	0.067	-0.264
-320.056	253.529	-0.063	-0.108
-319.041	359.724	0.126	-0.256
-318.026	389.492	-0.182	0.381
-317.012	722.330	0.052	-0.141
-315.997	-106.144	-0.126	0.029
-314.983	-113.148	0.297	0.059
-313.968	-152.954	0.321	0.023
-312.953	354.928	0.099	0.200
-311.939	-146.145	0.327	-0.029
-310.924	666.409	0.104	-0.272
-309.910	21.278	-0.225	0.185
-308.895	9.618	0.143	-0.110
-307.880	135.868	0.194	0.256
-306.866	353.965	0.028	0.056
-305.851	126.014	0.125	-0.160
-304.837	-200.000	-0.010	0.494
-303.822	-34.727	0.312	0.172
-302.807	18.050	-0.071	0.057
-301.793	-90.590	-0.107	0.031
-300.778	800.000	0.059	-0.252
-299.764	376.228	-0.125	0.257
-298.749	800.000	0.038	-0.142
-297.735	40.590	0.426	0.388
-296.720	34.616	0.106	-0.093
-295.705	-35.870	0.247	-0.135
-294.691	-69.257	0.153	0.059
-293.676	314.011	-0.033	-0.062
-292.662	276.306	0.161	0.289
-291.647	389.249	0.075	0.156
-290.632	329.632	-0.075	0.145
-289.618	-171.816	-0.526	0.017
-288.603	165.726	0.119	-0.171
-287.589	-101.570	0.207	-0.051
-286.574	113.893	-0.110	-0.135
-285.559	-200.000	-0.019	0.134
-284.545	-131.981	-0.261	-0.034
-283.530	-65.744	0.370	0.150
-282.516	-47.846	0.419	0.205
-281.501	-200.000	0.012	0.116
-280.486	-101.965	-0.062	0.015
-279.472	536.592	-0.122	0.292
-278.457	800.000	0.029	0.085
-277.443	-6.613	0.238	0.164
-276.428	-42.302	-0.285	-0.147
-275.413	-158.996	-0.133	-0.008
-274.399	-145.757	0.089	0.008
-273.384	402.950	-0.047	0.099
-272.370	24.554	-0.085	-0.071
-271.355	129.290	0.093	0.120
-270.340	-93.440	-0.339	-0.095
-269.326	-200.000	-0.015	0.140
-268.311	-112.779	0.138	0.028
-267.297	43.471	-0.251	-0.232
-266.282	800.000	0.090	0.253
-265.267	-70.229	0.170	-0.065
-264.253	-15.302	-0.047	0.030
-263.238	-200.000	0.008	0.047
-262.224	800.000	-0.054	0.204
-261.209	-21.301	0.191	-0.118
-260.195	723.346	-0.056	0.152
-259.180	167.022	0.077	-0.111
-258.165	255.666	-0.165	-0.286
-257.151	474.717	-0.110	-0.251
-256.136	6.422	0.153	0.115
-255.122	-200.000	0.024	0.225
-254.107	52.886	-0.213	-0.205
-253.092	615.820	0.072	-0.183
-252.078	-200.000	0.003	-0.211
-251.063	-176.511	-0.356	-0.009
-250.049	-30.315	-0.355	0.203
-249.034	-119.506	0.117	-0.020
-248.019	-52.337	0.074	-0.035
-247.005	-52.260	-0.268	0.126
-245.990	11.499	0.303	0.235
-244.976	82.066	-0.123	0.134
-243.961	-97.300	-0.339	0.089
-242.946	-200.000	0.039	0.379
-241.932	-200.000	0.030	0.176
-240.917	800.000	0.131	0.390
-239.903	60.774	0.090	-0.090
-238.888	-42.530	0.304	0.157
-237.873	-200.000	-0.045	-0.273
-236.859	234.755	0.128	0.212
-235.844	-47.271	-0.104	0.051
-234.830	-71.157	0.208	-0.079
-233.815	169.312	-0.124	0.179
-232.800	22.883	-0.242	-0.200
-231.786	-200.000	-0.002	0.397
-230.771	130.202	-0.176	0.228
-229.757	-22.211	-0.046	-0.028
-228.742	376.199	-0.150	-0.308
-227.727	-176.536	-0.194	-0.005
-226.713	-29.268	0.050	-0.029
-225.698	765.008	0.046	0.125
-224.684	96.879	0.073	-0.084
-223.669	-200.000	0.030	0.229
-222.655	236.343	-0.236	0.393
-221.640	120.544	-0.185	0.231
-220.625	-102.835	0.210	0.051
-219.611	-48.755	-0.159	0.077
-218.596	800.000	-0.063	0.273
-217.582	270.056	0.099	-0.175
-216.567	129.786	0.071	0.092
-215.552	739.192	0.040	0.109
-214.538	-200.000	-0.017	-0.151
-213.523	-158.404	0.089	-0.005
-212.509	52.332	-0.101	-0.097
-211.494	-85.395	0.093	0.029
-210.479	-13.886	-0.164	0.107
-209.465	-90.897	-0.197	-0.057
-208.450	-113.703	-0.259	0.051
-207.436	-24.498	-0.254	-0.153
-206.421	-200.000	0.000	-0.120
-205.406	-200.000	-0.029	-0.297
-204.392	-200.000	-0.012	-0.326
-203.377	-130.575	0.106	0.014
-202.363	-80.449	-0.234	-0.079
-201.348	-15.173	0.320	0.207
-200.333	-152.494	-0.172	-0.012
-199.319	-124.447	-0.286	0.045
-198.304	-200.000	0.017	-0.170
-197.290	473.197	0.072	-0.164
-196.275	431.785	-0.059	-0.130
-195.260	146.025	0.148	-0.200
-194.246	38.799	-0.147	0.132
-193.231	740.514	0.034	-0.092
-192.217	246.346	-0.107	-0.183
-191.202	800.000	-0.029	0.116
-190.187	221.980	-0.240	0.388
-189.173	70.381	-0.235	-0.245
-188.158	169.505	-0.009	0.013
-187.144	-18.208	0.163	-0.103
-186.129	-45.116	0.089	0.045
-185.114	-200.000	-0.000	0.352
-184.100	800.000	0.041	-0.163
-183.085	-69.899	-0.097	-0.037
-182.071	-165.775	0.169	-0.007
-181.056	-103.296	0.253	0.060
-180.042	-200.000	0.004	0.352
-179.027	-200.000	-0.012	-0.235
-178.012	800.000	0.033	0.121
-176.998	-102.225	0.223	0.054
-175.983	-44.174	-0.077	0.039
-174.969	-68.790	0.171	0.067
-173.954	-200.000	-0.015	-0.099
-172.939	366.654	-0.075	-0.153
-171.925	-200.000	0.035	0.311
-170.910	-200.000	-0.008	0.390
-169.896	-3.948	-0.233	-0.162
-168.881	-47.549	-0.151	-0.074
-167.866	800.000	-0.017	0.058
-166.852	82.609	-0.183	-0.201
-165.837	-192.483	-0.104	-0.001
-164.823	-64.542	0.060	0.024
-163.808	-32.644	-0.093	0.052
-162.793	-25.806	0.337	-0.200
-161.779	32.627	0.119	-0.104
-160.764	-36.347	-0.219	0.119
-159.750	800.000	0.038	0.117
-158.735	-40.514	0.252	0.132
-157.720	235.571	0.066	-0.110
-156.706	365.149	0.151	-0.307
-155.691	154.342	-0.167	-0.230
-154.677	800.000	0.036	0.138
-153.662	800.000	0.035	-0.100
-152.647	-111.988	0.251	-0.051
-151.633	18.004	0.176	-0.141
-150.618	-99.113	0.112	0.029
-149.604	188.297	0.060	-0.090
-148.589	29.428	0.160	0.137
-147.574	-35.007	0.075	0.041
-146.560	800.000	0.079	0.293
-145.545	-81.405	-0.190	-0.063
-144.531	78.763	-0.159	-0.171
-143.516	-200.000	0.001	0.207
-142.502	101.527	0.110	0.129
-141.487	-26.206	0.257	0.152
-140.472	800.000	-0.025	0.092
-139.458	-200.000	0.097	-0.459
-138.443	573.251	0.032	0.077
-137.429	-131.949	-0.320	-0.042
-136.414	55.723	-0.299	-0.291
-135.399	-55.982	0.246	0.110
-134.385	216.463	-0.170	0.271
-133.370	51.437	-0.098	-0.094
-132.356	152.189	0.198	-0.272
-131.341	-200.000	-0.032	-0.175
-130.326	-159.949	0.127	0.007
-129.312	-98.253	-0.175	-0.045
-128.297	-56.810	-0.126	-0.056
-127.283	36.287	-0.242	0.214
-126.268	800.000	-0.018	0.059
-125.253	116.702	0.150	0.185
-124.239	800.000	0.101	-0.336
-123.224	-93.536	0.140	-0.039
-122.210	77.693	-0.134	-0.143
-121.195	-5.957	-0.035	0.024
