DTS Sentinel unit serial number:	SN413079Multiplexer serial number:	ORYXHardware model number:	OX4-SRSoftware version number:	ORYX F/W v4.00 Oryx Data Collector v3.7.2.0data status	okinstallation	princeton_trtdifferential loss correction	single-endedforward channel	channel 4reverse channel	N/Adate	2019/09/17time	03:21:35forward acquisition time	60.00reverse acquisition time	0.00gamma	496.2192k internal	0.2311k external	0.2311temperature offset calibration	0.9973default loss term (dB/km)	0.3790temperature slope calibration	1.0000multiplexer offset coefficient	1.0000multiplexer slope coefficient	1.0000fibre end	0.00T internal ref (°C)	30.00T ext. ref 1 (°C)	0.14T ext. ref 2 (°C)	24.84length (m)	temperature (°C)	Stokes	anti-Stokes-747.200	800.000	-0.083	-0.232
-746.185	19.459	-0.181	0.148
-745.171	118.065	-0.113	0.142
-744.156	68.843	0.250	0.260
-743.142	-84.920	0.078	0.025
-742.127	-200.000	-0.032	0.367
-741.112	26.088	-0.113	-0.096
-740.098	800.000	-0.136	0.463
-739.083	105.811	0.235	0.283
-738.069	657.887	0.070	-0.183
-737.054	-98.071	0.163	-0.043
-736.039	34.773	-0.320	0.284
-735.025	16.088	-0.169	-0.135
-734.010	-83.044	-0.126	-0.041
-732.996	-41.141	-0.517	-0.271
-731.981	-123.500	-0.364	0.059
-730.966	-200.000	0.016	0.315
-729.952	147.896	-0.306	0.419
-728.937	-134.255	-0.071	-0.009
-727.923	800.000	0.089	-0.252
-726.908	345.742	0.077	0.153
-725.894	-49.562	0.337	0.163
-724.879	-69.202	-0.243	-0.095
-723.864	-91.390	0.097	-0.028
-722.850	-36.265	-0.197	-0.108
-721.835	-21.409	-0.161	0.100
-720.821	0.250	-0.228	-0.165
-719.806	305.262	-0.279	-0.526
-718.791	-110.699	-0.168	0.035
-717.777	800.000	0.048	-0.143
-716.762	-48.592	-0.194	-0.094
-715.748	-29.809	0.543	0.314
-714.733	200.934	-0.042	-0.065
-713.718	800.000	-0.100	-0.289
-712.704	9.535	0.239	-0.184
-711.689	-38.505	0.142	0.076
-710.675	-43.805	-0.221	0.113
-709.660	546.475	-0.118	-0.286
-708.645	353.054	0.045	-0.091
-707.631	800.000	0.026	0.102
-706.616	800.000	0.039	0.109
-705.602	-25.726	0.289	-0.173
-704.587	320.773	0.061	0.117
-703.572	73.453	0.046	-0.049
-702.558	-45.918	-0.083	0.042
-701.543	-42.622	0.372	0.192
-700.529	159.255	0.190	0.267
-699.514	-200.000	0.032	-0.251
-698.499	-176.968	-0.417	-0.011
-697.485	-36.586	-0.158	0.086
-696.470	6.214	-0.248	0.186
-695.456	154.661	0.100	0.139
-694.441	800.000	0.032	-0.112
-693.426	145.424	0.039	-0.054
-692.412	-74.929	-0.186	-0.068
-691.397	-123.639	-0.151	0.024
-690.383	145.666	-0.127	-0.172
-689.368	86.806	0.192	-0.215
-688.354	14.806	-0.132	-0.104
-687.339	800.000	0.065	0.218
-686.324	-50.627	0.177	0.084
-685.310	-82.911	-0.217	-0.071
-684.295	-139.843	0.143	0.015
-683.281	403.556	0.021	0.045
-682.266	-71.719	0.123	-0.047
-681.251	-200.000	0.007	-0.047
-680.237	-80.015	0.044	0.015
-679.222	800.000	-0.100	-0.366
-678.208	51.800	-0.087	-0.084
-677.193	-123.332	0.143	-0.023
-676.178	-17.826	-0.143	0.091
-675.164	-28.347	-0.242	-0.141
-674.149	800.000	-0.082	-0.247
-673.135	-91.985	-0.053	-0.015
-672.120	-200.000	-0.027	0.146
-671.105	34.612	-0.068	-0.060
-670.091	-200.000	-0.012	-0.120
-669.076	-27.744	0.140	0.082
-668.062	-126.368	-0.115	-0.017
-667.047	130.839	-0.032	0.041
-666.032	110.054	-0.165	0.200
-665.018	138.344	-0.211	-0.280
-664.003	-200.000	0.059	-0.354
-662.989	205.416	0.047	-0.074
-661.974	86.255	-0.098	-0.109
-660.959	-65.201	0.157	-0.064
-659.945	47.130	-0.158	-0.149
-658.930	-200.000	-0.008	-0.233
-657.916	-200.000	0.012	0.079
-656.901	-47.117	-0.123	-0.061
-655.886	180.811	-0.125	-0.185
-654.872	-0.238	0.204	0.147
-653.857	-139.132	0.256	-0.028
-652.843	134.405	-0.083	-0.108
-651.828	421.247	-0.087	-0.189
-650.814	-69.243	0.066	-0.026
-649.799	-198.009	0.177	0.001
-648.784	139.024	-0.108	0.144
-647.770	-17.159	0.036	0.023
-646.755	-92.209	0.149	-0.042
-645.741	-44.934	-0.263	0.132
-644.726	-200.000	-0.025	0.188
-643.711	-18.481	-0.087	-0.055
-642.697	-149.925	-0.208	0.016
-641.682	-200.000	-0.013	-0.073
-640.668	-36.873	-0.177	-0.096
-639.653	-200.000	-0.014	-0.149
-638.638	123.059	0.117	-0.148
-637.624	-200.000	0.001	0.131
-636.609	-200.000	0.007	0.139
-635.595	-53.852	-0.040	0.018
-634.580	-91.729	-0.301	0.086
-633.565	-71.112	-0.041	0.015
-632.551	164.852	0.130	0.185
-631.536	-51.743	0.100	0.047
-630.522	800.000	-0.102	0.385
-629.507	35.390	0.427	0.378
-628.492	-129.793	0.309	-0.043
-627.478	-117.279	-0.346	-0.064
-626.463	260.957	-0.041	0.072
-625.449	800.000	-0.040	-0.150
-624.434	-171.690	-0.386	0.013
-623.419	-129.789	-0.230	-0.032
-622.405	241.508	0.107	0.180
-621.390	800.000	-0.054	0.188
-620.376	-95.144	-0.469	-0.128
-619.361	-197.283	0.135	-0.001
-618.346	-80.812	-0.199	0.067
-617.332	14.137	0.063	0.050
-616.317	296.880	-0.029	0.053
-615.303	464.092	-0.110	0.248
-614.288	800.000	-0.057	0.251
-613.273	-53.422	-0.101	0.047
-612.259	-82.609	0.465	-0.152
-611.244	-200.000	-0.008	-0.124
-610.230	45.487	0.182	-0.169
-609.215	800.000	-0.160	-0.463
-608.201	45.368	0.197	-0.184
-607.186	-128.521	0.077	-0.011
-606.171	-105.365	-0.167	-0.038
-605.157	-113.671	-0.219	-0.043
-604.142	-82.315	0.107	0.035
-603.128	3.112	-0.073	-0.053
-602.113	-200.000	-0.014	-0.111
-601.098	-200.000	-0.078	0.000
-600.084	613.896	0.109	-0.274
-599.069	-200.000	-0.042	-0.258
-598.055	-200.000	-0.025	0.127
-597.040	800.000	0.042	0.161
-596.025	-200.000	-0.029	-0.193
-595.011	-69.398	-0.221	0.086
-593.996	56.133	-0.154	0.151
-592.982	-131.354	-0.154	-0.021
-591.967	246.668	0.071	-0.121
-590.952	18.858	0.271	-0.219
-589.938	-129.111	0.068	-0.010
-588.923	-104.564	0.146	-0.034
-587.909	-77.501	0.424	0.148
-586.894	-2.399	-0.074	0.053
-585.879	-200.000	-0.032	0.367
-584.865	-132.498	-0.198	0.026
-583.850	-114.755	-0.168	0.032
-582.836	-91.836	-0.153	-0.044
-581.821	-87.301	0.122	0.037
-580.806	800.000	-0.064	-0.188
-579.792	800.000	0.078	-0.257
-578.777	286.460	-0.070	-0.127
-577.763	-157.710	-0.297	-0.018
-576.748	-138.286	-0.127	-0.014
-575.733	325.634	0.103	0.199
-574.719	800.000	-0.025	-0.082
-573.704	142.265	-0.099	0.133
-572.690	120.015	0.040	-0.050
-571.675	123.986	0.067	-0.085
-570.661	-200.000	-0.028	-0.176
-569.646	800.000	-0.081	-0.330
-568.631	251.694	0.061	0.104
-567.617	8.248	-0.391	0.296
-566.602	142.357	-0.057	-0.077
-565.588	-200.000	0.034	0.158
-564.573	-47.193	-0.141	-0.069
-563.558	309.820	-0.174	-0.329
-562.544	53.029	-0.128	-0.123
-561.529	-200.000	-0.078	0.353
-560.515	-77.205	-0.071	0.025
-559.500	134.180	0.046	-0.060
-558.485	-200.000	-0.004	0.027
-557.471	339.638	-0.061	0.120
-556.456	107.024	0.230	-0.276
-555.442	-46.866	-0.181	-0.089
-554.427	-59.530	-0.173	-0.075
-553.412	-1.612	-0.204	-0.145
-552.398	-129.181	-0.155	-0.022
-551.383	800.000	-0.009	0.029
-550.369	-121.941	0.198	-0.033
-549.354	-93.429	0.084	0.024
-548.339	-0.602	-0.051	0.037
-547.325	-14.056	0.266	0.173
-546.310	-40.266	-0.038	-0.020
-545.296	110.476	-0.026	-0.031
-544.281	800.000	0.049	0.207
-543.266	165.159	0.124	0.177
-542.252	374.543	0.109	0.224
-541.237	800.000	-0.080	-0.249
-540.223	-200.000	-0.057	-0.559
-539.208	-68.241	0.213	0.083
-538.193	-107.567	0.141	0.031
-537.179	200.100	0.123	-0.190
-536.164	-86.288	-0.074	-0.023
-535.150	82.435	0.095	0.103
-534.135	-144.160	-0.439	-0.041
-533.121	-89.761	-0.123	0.036
-532.106	253.934	0.045	0.077
-531.091	-89.633	0.374	-0.110
-530.077	-99.745	0.348	-0.088
-529.062	-68.042	-0.201	0.079
-528.048	14.838	0.140	-0.110
-527.033	-2.532	-0.082	0.058
-526.018	-138.590	-0.239	0.026
-525.004	314.421	0.033	-0.063
-523.989	27.328	-0.047	-0.040
-522.975	263.269	0.189	-0.331
-521.960	-23.326	0.087	0.053
-520.945	-34.043	-0.136	-0.075
-519.931	11.090	-0.358	-0.276
-518.916	800.000	-0.105	-0.378
-517.902	-73.918	0.535	0.195
-516.887	-151.525	-0.232	0.017
-515.872	800.000	0.015	-0.052
-514.858	-45.967	-0.259	0.129
-513.843	-91.868	-0.181	-0.052
-512.829	-200.000	0.035	0.268
-511.814	235.945	-0.063	0.106
-510.799	595.966	0.050	0.126
-509.785	122.526	0.158	0.199
-508.770	244.115	0.072	0.121
-507.756	185.420	-0.117	0.174
-506.741	52.833	-0.069	0.067
-505.726	169.419	0.255	-0.367
-504.712	-200.000	0.032	-0.143
-503.697	-171.878	-0.191	0.006
-502.683	106.923	-0.112	0.134
-501.668	149.932	0.097	-0.133
-500.653	-200.000	-0.009	0.076
-499.639	-27.642	-0.043	0.025
-498.624	31.115	-0.267	0.230
-497.610	-81.370	0.275	0.091
-496.595	-200.000	0.025	-0.411
-495.581	195.766	0.135	-0.207
-494.566	742.649	-0.150	0.404
-493.551	180.376	-0.116	0.170
-492.537	222.062	-0.247	-0.400
-491.522	204.232	0.088	0.137
-490.508	53.728	0.242	-0.233
-489.493	-39.223	0.156	0.082
-488.478	-99.479	0.194	0.049
-487.464	-200.000	-0.013	0.185
-486.449	-43.087	0.275	0.140
-485.435	800.000	-0.108	0.318
-484.420	292.108	0.062	-0.114
-483.405	40.704	-0.246	0.223
-482.391	800.000	-0.044	0.138
-481.376	-86.450	-0.097	-0.030
-480.362	-200.000	-0.007	0.200
-479.347	272.005	0.139	0.246
-478.332	-160.340	0.240	0.013
-477.318	-200.000	0.008	-0.108
-476.303	-84.646	-0.242	-0.077
-475.289	35.761	0.127	-0.112
-474.274	800.000	-0.070	0.235
-473.259	192.690	0.064	-0.097
-472.245	227.156	0.097	-0.159
-471.230	-30.934	-0.280	-0.159
-470.216	71.955	0.084	0.087
-469.201	-4.063	-0.019	0.013
-468.186	22.532	0.168	0.138
-467.172	-112.325	-0.230	0.046
-466.157	800.000	0.025	0.080
-465.143	297.034	-0.125	-0.230
-464.128	-32.171	-0.198	-0.111
-463.113	16.469	0.181	-0.144
-462.099	-37.761	-0.233	-0.125
-461.084	-110.245	0.306	-0.064
-460.070	-181.023	0.069	-0.001
-459.055	277.616	0.140	-0.250
-458.040	-200.000	0.024	-0.388
-457.026	-70.012	-0.264	0.101
-456.011	85.099	0.319	-0.351
-454.997	-109.968	0.141	-0.030
-453.982	474.717	0.057	0.129
-452.968	800.000	0.070	0.272
-451.953	-41.482	0.308	0.159
-450.938	767.242	-0.105	0.286
-449.924	600.066	-0.115	-0.287
-448.909	-170.226	0.267	-0.009
-447.895	272.501	0.066	-0.116
-446.880	-200.000	-0.001	0.161
-445.865	-21.147	-0.231	0.142
-444.851	236.436	-0.211	-0.351
-443.836	627.199	-0.065	0.165
-442.822	-110.525	-0.130	0.027
-441.807	-200.000	0.051	-0.614
-440.792	-189.664	0.079	0.001
-439.778	-192.840	0.238	0.002
-438.763	15.422	0.061	0.048
-437.749	207.533	0.079	-0.124
-436.734	144.953	0.073	-0.097
-435.719	-23.341	0.172	-0.104
-434.705	-25.676	-0.080	-0.048
-433.690	41.650	-0.123	0.112
-432.676	-200.000	0.030	0.410
-431.661	667.507	-0.219	-0.568
-430.646	58.106	0.242	-0.238
-429.632	133.739	0.175	0.228
-428.617	26.994	0.085	0.072
-427.603	-200.000	-0.045	0.268
-426.588	-53.061	-0.384	-0.177
-425.573	632.035	0.093	-0.236
-424.559	-155.770	0.131	-0.008
-423.544	537.483	0.081	-0.194
-422.530	-106.589	-0.298	-0.067
-421.515	800.000	0.060	0.248
-420.500	339.584	-0.192	-0.376
-419.486	-164.235	0.168	-0.008
-418.471	-200.000	-0.030	0.231
-417.457	69.758	-0.377	0.389
-416.442	36.521	0.186	-0.164
-415.428	82.787	-0.173	0.188
-414.413	81.612	-0.137	-0.148
-413.398	-120.674	0.117	0.020
-412.384	-200.000	0.004	-0.031
-411.369	-6.790	0.329	-0.224
-410.355	251.864	-0.081	-0.137
-409.340	-163.216	-0.121	-0.006
-408.325	-200.000	0.168	0.000
-407.311	-87.379	-0.108	0.033
-406.296	-200.000	-0.030	-0.196
-405.282	-22.954	0.177	0.107
-404.267	800.000	-0.097	0.389
-403.252	-200.000	-0.011	0.174
-402.238	375.347	0.100	-0.205
-401.223	800.000	-0.058	-0.252
-400.209	433.444	-0.025	0.055
-399.194	703.646	-0.071	-0.187
-398.179	-200.000	0.016	0.139
-397.165	372.538	0.098	0.199
-396.150	-12.354	0.182	0.119
-395.136	-108.132	0.270	0.058
-394.121	-200.000	0.004	0.060
-393.106	208.807	-0.181	-0.283
-392.092	-200.000	0.017	0.225
-391.077	163.115	0.087	0.123
-390.063	-38.719	0.120	0.063
-389.048	210.457	0.068	-0.108
-388.033	35.439	0.262	0.230
-387.019	-200.000	0.035	0.437
-386.004	-118.274	-0.078	0.014
-384.990	-16.807	0.164	0.104
-383.975	-200.000	-0.005	0.099
-382.960	-34.705	0.190	-0.104
-381.946	-200.000	0.016	-0.242
-380.931	498.947	-0.098	0.226
-379.917	800.000	-0.034	0.110
-378.902	141.290	-0.084	0.111
-377.888	-146.503	0.050	0.004
-376.873	-61.535	-0.291	-0.122
-375.858	-25.506	-0.160	0.094
-374.844	-15.225	0.168	0.108
-373.829	-48.417	0.136	0.066
-372.815	63.305	0.146	-0.146
-371.800	145.851	-0.047	0.063
-370.785	142.036	0.225	0.299
-369.771	800.000	-0.055	-0.219
-368.756	558.749	0.127	0.307
-367.742	31.475	0.273	0.235
-366.727	800.000	0.044	-0.123
-365.712	75.720	0.275	0.291
-364.698	-10.409	-0.293	-0.194
-363.683	483.585	-0.026	0.060
-362.669	-93.095	-0.081	-0.022
-361.654	-30.073	-0.347	0.198
-360.639	-51.492	0.292	-0.136
-359.625	303.524	-0.124	-0.229
-358.610	-200.000	-0.010	-0.051
-357.596	800.000	0.064	-0.177
-356.581	-65.704	-0.183	-0.073
-355.566	28.435	0.107	0.090
-354.552	150.273	-0.191	0.260
-353.537	198.645	-0.028	0.044
-352.523	128.781	-0.181	-0.231
-351.508	-135.088	0.081	0.010
-350.493	74.461	-0.151	-0.159
-349.479	-22.763	-0.440	-0.266
-348.464	-200.000	-0.076	-0.340
-347.450	-200.000	0.008	0.251
-346.435	-140.331	0.175	-0.018
-345.420	-200.000	0.038	0.362
-344.406	800.000	-0.030	-0.103
-343.391	202.639	-0.025	0.039
-342.377	-200.000	-0.075	0.535
-341.362	800.000	-0.028	0.113
-340.348	94.969	0.128	0.145
-339.333	-124.436	-0.306	-0.048
-338.318	395.829	-0.220	-0.459
-337.304	-200.000	-0.107	-0.531
-336.289	56.684	0.122	0.119
-335.275	800.000	-0.054	0.196
-334.260	800.000	0.037	0.116
-333.245	762.716	0.121	-0.329
-332.231	-151.598	-0.286	-0.021
-331.216	-132.934	0.190	0.024
-330.202	130.528	-0.068	0.087
-329.187	40.206	0.161	0.145
-328.172	239.977	0.036	0.060
-327.158	-69.301	-0.167	0.064
-326.143	-200.000	0.038	-0.171
-325.129	-172.355	-0.088	-0.003
-324.114	-79.401	-0.255	0.086
-323.099	-49.950	-0.404	-0.191
-322.085	-200.000	-0.013	0.072
-321.070	-120.304	-0.110	0.019
-320.056	-27.716	-0.184	-0.107
-319.041	218.571	0.207	-0.330
-318.026	222.821	0.067	0.108
-317.012	-42.429	0.235	-0.119
-315.997	-200.000	-0.019	-0.123
-314.983	-168.542	0.245	-0.009
-313.968	589.132	-0.101	0.249
-312.953	21.547	0.060	-0.049
-311.939	11.802	-0.087	0.067
-310.924	115.472	-0.124	0.151
-309.910	189.759	0.134	-0.200
-308.895	187.810	0.165	0.245
-307.880	-134.801	0.124	0.015
-306.866	-90.536	0.201	-0.058
-305.851	-131.947	0.300	0.039
-304.837	-106.635	0.304	-0.068
-303.822	800.000	0.106	-0.331
-302.807	800.000	0.056	0.176
-301.793	214.687	-0.086	-0.136
-300.778	800.000	0.096	0.325
-299.764	-77.051	-0.263	0.092
-298.749	397.131	0.029	-0.060
-297.735	-80.668	0.283	0.094
-296.720	-47.956	0.013	-0.006
-295.705	-68.658	-0.385	0.149
-294.691	241.762	-0.128	0.213
-293.676	181.640	-0.220	-0.323
-292.662	-130.842	0.270	-0.036
-291.647	255.618	0.221	-0.378
-290.632	-23.006	0.139	-0.083
-289.618	-200.000	-0.007	-0.166
-288.603	-105.725	-0.094	-0.021
-287.589	800.000	0.031	-0.125
-286.574	-200.000	0.007	-0.145
-285.559	38.896	-0.172	0.153
-284.545	-67.976	-0.385	0.150
-283.530	88.539	0.180	-0.199
-282.516	-200.000	-0.051	0.348
-281.501	165.298	-0.219	0.309
-280.486	5.805	0.240	0.177
-279.472	72.168	-0.069	-0.072
-278.457	162.883	0.199	-0.278
-277.443	-6.766	0.044	0.030
-276.428	109.347	0.104	-0.124
-275.413	38.917	-0.113	-0.100
-274.399	-64.356	0.249	0.101
-273.384	-63.846	0.212	0.087
-272.370	14.727	0.169	-0.132
-271.355	800.000	0.055	0.228
-270.340	41.707	0.175	0.158
-269.326	-56.328	0.317	0.140
-268.311	391.500	-0.151	0.313
-267.297	-200.000	-0.007	-0.245
-266.282	-152.734	-0.324	-0.023
-265.267	118.920	-0.054	-0.067
-264.253	364.148	0.108	0.216
-263.238	62.141	0.065	0.064
-262.224	402.271	0.096	0.201
-261.209	-136.203	-0.165	-0.019
-260.195	284.946	-0.034	-0.061
-259.180	800.000	-0.085	0.277
-258.165	273.298	-0.150	-0.265
-257.151	-124.424	-0.201	-0.031
-256.136	-105.613	-0.199	0.045
-255.122	-91.047	0.191	-0.055
-254.107	25.754	0.186	0.154
-253.092	79.230	-0.201	0.214
-252.078	-132.353	-0.173	-0.022
-251.063	-54.008	-0.223	0.101
-250.049	218.702	-0.039	0.062
-249.034	173.397	-0.184	-0.264
-248.019	-200.000	-0.030	-0.235
-247.005	30.781	0.114	-0.098
-245.990	202.694	-0.338	0.520
-244.976	800.000	0.096	0.314
-243.961	-200.000	0.028	0.433
-242.946	-9.350	0.104	0.069
-241.932	-58.618	-0.179	0.077
-240.917	541.777	0.101	-0.240
-239.903	15.605	-0.114	0.089
-238.888	-126.373	0.062	0.009
-237.873	230.745	-0.095	-0.155
-236.859	-200.000	-0.001	-0.415
-235.844	767.788	0.076	-0.205
-234.830	-200.000	-0.015	-0.067
-233.815	326.291	0.118	-0.226
-232.800	-150.816	0.200	0.015
-231.786	-200.000	-0.067	-0.318
-230.771	54.206	0.107	0.103
-229.757	80.988	0.159	-0.171
-228.742	34.357	-0.103	-0.089
-227.727	-182.806	0.150	0.003
-226.713	-112.386	0.222	-0.044
-225.698	115.564	0.212	0.258
-224.684	-200.000	-0.003	-0.018
-223.669	-200.000	-0.012	-0.109
-222.655	-190.144	0.049	0.001
-221.640	-76.568	0.049	-0.017
-220.625	-200.000	-0.044	-0.211
-219.611	33.292	0.210	-0.181
-218.596	-32.448	-0.163	-0.091
-217.582	124.732	0.138	0.173
-216.567	800.000	0.012	0.041
-215.552	44.071	-0.131	0.119
-214.538	-67.832	0.213	-0.083
-213.523	-68.313	-0.086	-0.033
-212.509	314.403	-0.120	0.225
-211.494	649.965	0.083	-0.211
-210.479	-52.383	0.365	0.168
-209.465	141.450	-0.179	-0.235
-208.450	390.069	0.067	-0.138
-207.436	-86.654	0.260	0.079
-206.421	-83.349	0.209	-0.067
-205.406	-0.664	-0.466	-0.328
-204.392	134.534	-0.188	0.242
-203.377	423.193	0.127	0.271
-202.363	278.601	0.179	0.316
-201.348	-116.863	0.299	0.054
-200.333	-73.370	-0.211	-0.077
-199.319	54.140	0.124	-0.119
-198.304	-117.368	-0.344	-0.062
-197.290	-137.060	0.119	0.014
-196.275	-173.717	0.072	-0.002
-195.260	-8.592	0.207	0.138
-194.246	-200.000	-0.040	-0.496
-193.231	90.929	-0.298	0.332
-192.217	180.855	0.041	-0.059
-191.202	800.000	0.103	0.297
-190.187	658.228	0.167	0.427
-189.173	29.757	-0.105	0.089
-188.158	70.689	-0.075	0.077
-187.144	-101.442	-0.173	-0.042
-186.129	27.569	0.211	0.176
-185.114	-200.000	-0.038	-0.342
-184.100	109.834	0.114	-0.136
-183.085	2.622	-0.023	0.017
-182.071	16.918	-0.251	0.198
-181.056	-144.591	0.109	0.010
-180.042	786.692	-0.104	-0.285
-179.027	97.271	0.222	-0.253
-178.012	83.239	-0.150	0.162
-176.998	-200.000	0.045	0.307
-175.983	250.997	0.228	0.386
-174.969	-22.469	0.266	-0.160
-173.954	17.035	0.260	-0.204
-172.939	800.000	0.047	-0.154
-171.925	-200.000	0.022	-0.187
-170.910	-129.359	0.155	-0.021
-169.896	58.498	0.130	0.127
-168.881	118.258	-0.195	0.238
-167.866	-110.766	-0.152	-0.031
-166.852	-48.209	-0.270	-0.129
-165.837	-28.397	0.242	0.139
-164.823	-8.835	-0.101	0.067
-163.808	619.722	0.116	-0.290
-162.793	28.121	0.147	-0.123
-161.779	-30.269	0.090	0.050
-160.764	-37.476	0.226	-0.120
-159.750	-200.000	-0.017	-0.154
-158.735	55.446	0.080	0.077
-157.720	-97.583	-0.298	-0.077
-156.706	-200.000	0.002	-0.186
-155.691	-75.547	-0.217	-0.077
-154.677	-6.624	-0.108	-0.073
-153.662	-200.000	-0.002	0.285
-152.647	-168.459	-0.223	0.008
-151.633	-200.000	0.033	0.273
-150.618	97.108	-0.066	-0.075
-149.604	151.186	0.209	0.282
-148.589	622.024	-0.038	0.094
-147.574	385.745	0.019	0.038
-146.560	-74.698	0.249	0.089
-145.545	-37.449	0.163	-0.086
-144.531	108.732	0.126	0.149
-143.516	30.399	0.074	0.063
-142.502	-98.362	-0.322	0.082
-141.487	-200.000	-0.006	-0.325
-140.472	-126.931	0.230	-0.034
-139.458	-179.240	-0.233	0.005
-138.443	-84.571	-0.119	-0.037
-137.429	-200.000	0.057	-0.301
-136.414	19.618	0.116	-0.092
-135.399	17.007	0.050	0.039
-134.385	355.693	0.094	0.186
-133.370	-200.000	-0.054	-0.253
-132.356	43.529	-0.292	0.265
-131.341	-54.322	0.144	-0.065
-130.326	-17.879	-0.160	-0.099
-129.312	154.116	-0.058	-0.080
-128.297	21.739	0.140	-0.113
-127.283	-200.000	0.014	0.220
-126.268	-45.236	0.321	-0.158
-125.253	-43.870	0.058	0.029
-124.239	45.031	0.314	-0.286
-123.224	800.000	0.066	0.220
-122.210	-200.000	-0.014	-0.175
-121.195	109.000	-0.042	0.049
