DTS Sentinel unit serial number:	SN413079Multiplexer serial number:	ORYXHardware model number:	OX4-SRSoftware version number:	ORYX F/W v4.00 Oryx Data Collector v3.7.2.0data status	okinstallation	princeton_trtdifferential loss correction	single-endedforward channel	channel 4reverse channel	N/Adate	2019/09/13time	13:25:34forward acquisition time	60.00reverse acquisition time	0.00gamma	496.2192k internal	0.2296k external	0.2296temperature offset calibration	1.0213default loss term (dB/km)	0.3790temperature slope calibration	1.0000multiplexer offset coefficient	1.0000multiplexer slope coefficient	1.0000fibre end	0.00T internal ref (°C)	35.00T ext. ref 1 (°C)	4.57T ext. ref 2 (°C)	31.02length (m)	temperature (°C)	Stokes	anti-Stokes-747.200	-200.000	0.020	0.464
-746.185	160.679	0.084	0.119
-745.171	348.817	0.132	-0.266
-744.156	-200.000	0.038	0.221
-743.142	-27.417	0.261	-0.155
-742.127	-20.461	0.147	0.093
-741.112	-122.663	0.066	-0.011
-740.098	-200.000	-0.032	-0.147
-739.083	-122.231	-0.109	-0.018
-738.069	-86.180	0.279	-0.088
-737.054	-200.000	-0.067	-0.000
-736.039	53.570	0.109	0.107
-735.025	-88.837	-0.178	0.054
-734.010	65.864	-0.291	-0.301
-732.996	-200.000	-0.065	-0.327
-731.981	-200.000	0.028	-0.277
-730.966	49.864	0.203	-0.195
-729.952	-200.000	-0.037	-0.267
-728.937	321.293	-0.229	-0.444
-727.923	-125.822	-0.126	-0.019
-726.908	23.982	-0.143	-0.121
-725.894	295.714	-0.103	0.193
-724.879	196.301	-0.207	-0.322
-723.864	11.498	0.361	-0.282
-722.850	177.002	0.018	0.027
-721.835	800.000	0.042	-0.156
-720.821	800.000	0.055	-0.164
-719.806	-29.997	0.195	0.113
-718.791	113.466	-0.293	-0.363
-717.777	-92.609	-0.193	-0.055
-716.762	42.438	0.129	-0.120
-715.748	-76.371	0.102	-0.037
-714.733	-142.980	0.431	-0.043
-713.718	-200.000	0.020	0.099
-712.704	-112.679	-0.210	0.043
-711.689	-200.000	0.016	0.134
-710.675	28.978	0.008	0.007
-709.660	800.000	0.061	0.204
-708.645	-174.625	0.202	0.006
-707.631	-200.000	0.019	0.097
-706.616	800.000	-0.138	-0.414
-705.602	78.880	0.355	-0.387
-704.587	255.540	-0.059	-0.104
-703.572	800.000	0.041	0.128
-702.558	734.767	-0.078	0.214
-701.543	-200.000	-0.097	-0.496
-700.529	328.839	-0.021	-0.042
-699.514	163.063	0.049	0.071
-698.499	800.000	0.053	-0.226
-697.485	-90.705	-0.232	-0.068
-696.470	-30.536	0.002	-0.001
-695.456	-83.741	0.432	-0.141
-694.441	-159.699	-0.120	0.007
-693.426	-22.037	0.354	-0.219
-692.412	-46.016	0.074	-0.037
-691.397	-5.640	-0.227	-0.158
-690.383	-200.000	-0.043	-0.195
-689.368	-69.954	-0.207	0.080
-688.354	252.743	-0.097	-0.169
-687.339	95.270	0.030	-0.035
-686.324	-87.737	-0.183	0.056
-685.310	800.000	-0.052	0.190
-684.295	94.262	-0.185	0.214
-683.281	37.579	0.109	-0.098
-682.266	-200.000	0.028	0.147
-681.251	-85.617	-0.124	0.039
-680.237	-40.335	-0.105	0.055
-679.222	-90.139	-0.071	0.021
-678.208	-89.363	-0.128	-0.038
-677.193	282.084	0.035	0.064
-676.178	-200.000	0.015	-0.196
-675.164	800.000	0.089	-0.252
-674.149	585.166	0.010	0.026
-673.135	-36.735	-0.227	-0.124
-672.120	-55.364	-0.173	0.079
-671.105	-113.263	-0.207	-0.041
-670.091	45.176	-0.033	0.031
-669.076	-200.000	-0.012	-0.290
-668.062	-171.910	0.113	-0.004
-667.047	228.884	-0.129	-0.214
-666.032	236.883	0.179	-0.303
-665.018	-16.881	-0.227	-0.146
-664.003	-102.812	0.499	-0.121
-662.989	-200.000	-0.031	-0.184
-661.974	800.000	-0.070	0.246
-660.959	-63.696	0.344	-0.144
-659.945	-27.408	0.142	0.084
-658.930	280.001	-0.185	0.337
-657.916	-59.274	0.219	-0.096
-656.901	205.205	0.145	-0.230
-655.886	273.397	0.089	-0.161
-654.872	800.000	0.074	0.209
-653.857	11.986	0.375	-0.294
-652.843	6.489	0.228	-0.173
-651.828	-200.000	0.003	-0.250
-650.814	-200.000	-0.009	0.045
-649.799	72.449	-0.101	0.107
-648.784	34.762	0.190	0.169
-647.770	80.199	0.071	-0.077
-646.755	-52.928	0.151	0.071
-645.741	-80.487	0.227	0.077
-644.726	-200.000	0.004	-0.087
-643.711	299.247	0.186	-0.348
-642.697	-185.789	-0.558	-0.008
-641.682	-82.410	-0.057	0.019
-640.668	-39.286	-0.037	-0.020
-639.653	93.371	-0.051	-0.059
-638.638	239.206	0.174	-0.294
-637.624	668.851	-0.115	-0.302
-636.609	-99.987	-0.278	0.071
-635.595	-128.697	-0.099	0.014
-634.580	-156.957	0.170	-0.011
-633.565	-200.000	-0.038	-0.198
-632.551	800.000	-0.040	-0.137
-631.536	153.188	0.151	0.210
-630.522	-134.160	0.091	0.011
-629.507	-84.893	-0.131	0.042
-628.492	-47.284	-0.144	-0.071
-627.478	123.679	0.235	-0.299
-626.463	609.413	0.174	-0.441
-625.449	-57.397	-0.469	0.210
-624.434	-200.000	-0.037	-0.228
-623.419	285.656	0.056	-0.102
-622.405	48.600	0.250	-0.238
-621.390	-91.397	-0.395	-0.115
-620.376	78.270	0.124	0.134
-619.361	31.993	-0.308	-0.270
-618.346	-75.318	-0.061	-0.022
-617.332	-128.562	-0.105	0.015
-616.317	-42.077	-0.055	-0.028
-615.303	118.142	0.011	0.014
-614.288	-71.143	0.202	0.077
-613.273	56.932	0.099	0.098
-612.259	-69.088	0.205	0.080
-611.244	21.279	0.328	-0.271
-610.230	-36.655	0.096	0.052
-609.215	-21.792	0.217	-0.134
-608.201	406.133	-0.133	-0.285
-607.186	47.854	-0.091	0.087
-606.171	-159.873	-0.449	0.025
-605.157	800.000	-0.066	-0.196
-604.142	-34.285	-0.186	-0.104
-603.128	-91.464	-0.150	0.043
-602.113	116.728	0.022	-0.028
-601.098	-118.761	0.316	0.057
-600.084	-27.962	0.182	-0.107
-599.069	539.288	-0.048	0.116
-598.055	113.567	-0.140	0.173
-597.040	-10.839	0.171	0.115
-596.025	41.058	-0.127	0.117
-595.011	-38.117	-0.226	-0.122
-593.996	-200.000	-0.041	0.182
-592.982	54.421	0.039	-0.038
-591.967	-28.630	0.060	-0.035
-590.952	35.640	0.114	-0.101
-589.938	-45.836	0.197	-0.099
-588.923	545.849	-0.074	0.180
-587.909	-129.144	-0.246	-0.035
-586.894	107.659	-0.097	-0.117
-585.879	464.607	-0.139	0.315
-584.865	225.731	0.320	0.527
-583.850	-70.769	0.119	0.045
-582.836	800.000	-0.069	0.201
-581.821	282.459	-0.064	0.117
-580.806	159.366	-0.389	-0.549
-579.792	40.138	0.264	0.241
-578.777	279.456	0.055	0.100
-577.763	-44.481	-0.328	0.167
-576.748	149.444	-0.119	-0.164
-575.733	-75.704	0.157	0.057
-574.719	514.225	0.070	0.166
-573.704	-200.000	-0.017	-0.167
-572.690	449.144	0.041	-0.093
-571.675	800.000	0.075	-0.288
-570.661	-78.318	0.122	0.043
-569.646	-120.837	-0.088	0.015
-568.631	25.430	-0.213	-0.180
-567.617	-7.678	0.150	-0.103
-566.602	-102.478	-0.180	-0.044
-565.588	800.000	0.049	0.151
-564.573	800.000	0.041	-0.134
-563.558	800.000	0.083	0.240
-562.544	-97.178	-0.335	0.089
-561.529	78.671	-0.062	-0.068
-560.515	800.000	-0.044	-0.141
-559.500	146.278	0.086	-0.117
-558.485	670.101	0.068	0.179
-557.471	15.961	0.101	-0.081
-556.456	264.622	0.133	-0.235
-555.442	250.980	0.087	0.149
-554.427	768.811	0.021	-0.059
-553.412	-23.167	-0.129	-0.079
-552.398	-98.059	0.144	-0.038
-551.383	459.851	-0.108	0.245
-550.369	88.867	0.220	-0.248
-549.354	-111.976	-0.225	-0.046
-548.339	16.294	-0.059	0.047
-547.325	-94.012	0.366	-0.102
-546.310	416.348	0.122	0.263
-545.296	-65.860	-0.223	0.090
-544.281	53.362	0.219	-0.213
-543.266	800.000	0.082	0.255
-542.252	199.600	-0.191	-0.297
-541.237	190.229	-0.029	0.044
-540.223	239.611	0.065	0.109
-539.208	-52.880	0.183	0.085
-538.193	-200.000	0.029	0.219
-537.179	800.000	-0.105	-0.395
-536.164	-5.125	-0.240	0.167
-535.150	-68.233	-0.190	-0.075
-534.135	72.604	-0.172	-0.182
-533.121	800.000	0.098	0.291
-532.106	-158.466	-0.279	-0.016
-531.091	36.867	0.060	-0.054
-530.077	-28.476	-0.161	0.094
-529.062	-3.681	0.304	0.214
-528.048	-200.000	-0.002	0.196
-527.033	342.868	-0.045	-0.089
-526.018	122.716	0.209	0.265
-525.004	-36.402	-0.095	0.052
-523.989	-120.236	-0.275	0.048
-522.975	-113.949	0.120	0.024
-521.960	800.000	-0.090	-0.306
-520.945	32.312	-0.259	0.227
-519.931	486.400	0.063	0.145
-518.916	203.140	0.135	-0.211
-517.902	-96.337	0.170	-0.046
-516.887	19.216	0.193	0.157
-515.872	274.081	0.143	0.257
-514.858	800.000	0.096	-0.347
-513.843	25.053	-0.224	0.188
-512.829	405.648	-0.071	-0.152
-511.814	-95.378	-0.014	-0.004
-510.799	-42.140	-0.196	-0.101
-509.785	-200.000	-0.025	0.346
-508.770	800.000	-0.014	0.046
-507.756	717.518	-0.068	-0.183
-506.741	800.000	0.063	-0.223
-505.726	800.000	-0.067	0.288
-504.712	-99.265	0.234	0.060
-503.697	25.959	0.256	0.216
-502.683	-94.808	0.130	-0.036
-501.668	-16.465	0.233	0.150
-500.653	32.152	-0.050	0.044
-499.639	800.000	-0.083	0.243
-498.624	681.946	-0.038	0.101
-497.610	26.187	-0.126	-0.106
-496.595	194.784	-0.181	0.278
-495.581	28.446	0.018	-0.015
-494.566	800.000	0.053	0.220
-493.551	-52.436	0.070	-0.033
-492.537	33.117	-0.301	-0.264
-491.522	-20.253	-0.431	0.269
-490.508	-109.353	-0.224	-0.048
-489.493	239.643	-0.167	0.282
-488.478	40.733	-0.130	0.118
-487.464	-200.000	0.003	0.053
-486.449	-200.000	-0.021	-0.128
-485.435	-23.547	-0.250	-0.152
-484.420	-43.940	0.121	0.061
-483.405	-107.962	-0.290	-0.064
-482.391	52.145	0.163	0.157
-481.376	145.039	0.128	-0.173
-480.362	-200.000	-0.016	-0.221
-479.347	-41.431	-0.254	-0.132
-478.332	2.869	-0.243	-0.178
-477.318	-110.695	-0.121	0.025
-476.303	800.000	-0.121	0.496
-475.289	-112.648	-0.321	-0.065
-474.274	-103.609	-0.250	0.059
-473.259	-166.778	-0.404	0.017
-472.245	-200.000	0.036	-0.198
-471.230	-200.000	0.026	0.147
-470.216	-139.527	0.439	0.047
-469.201	-114.740	-0.357	-0.069
-468.186	285.042	0.139	0.253
-467.172	-200.000	-0.019	0.127
-466.157	458.110	0.032	0.071
-465.143	104.673	-0.160	0.190
-464.128	800.000	-0.037	0.158
-463.113	-200.000	-0.031	0.280
-462.099	-58.593	0.495	-0.217
-461.084	-46.746	0.116	-0.057
-460.070	-63.202	-0.097	-0.040
-459.055	800.000	-0.073	-0.230
-458.040	800.000	0.156	0.435
-457.026	-200.000	0.010	-0.171
-456.011	-200.000	0.024	-0.151
-454.997	358.011	-0.058	0.117
-453.982	278.937	-0.112	0.202
-452.968	117.639	0.201	0.250
-451.953	83.993	-0.034	-0.038
-450.938	-52.578	0.438	-0.205
-449.924	186.187	0.326	-0.490
-448.909	-67.557	0.047	-0.019
-447.895	253.076	-0.079	-0.136
-446.880	-179.602	-0.279	-0.006
-445.865	-172.102	0.081	0.003
-444.851	316.353	0.182	0.347
-443.836	-200.000	0.004	0.106
-442.822	793.697	-0.090	-0.251
-441.807	-159.573	0.030	-0.002
-440.792	800.000	0.072	0.232
-439.778	800.000	0.051	-0.176
-438.763	750.206	0.196	-0.535
-437.749	-200.000	0.049	-0.302
-436.734	175.052	0.098	-0.143
-435.719	-14.360	-0.111	0.072
-434.705	170.255	0.182	0.263
-433.690	264.524	0.114	-0.200
-432.676	-3.362	-0.178	0.125
-431.661	325.547	0.073	0.141
-430.646	800.000	-0.051	0.154
-429.632	-178.766	-0.294	0.007
-428.617	-200.000	-0.030	-0.354
-427.603	-200.000	0.033	-0.296
-426.588	-84.249	-0.203	0.065
-425.573	51.112	-0.171	-0.163
-424.559	448.553	0.180	-0.399
-423.544	-19.969	-0.224	0.140
-422.530	800.000	-0.032	-0.103
-421.515	-56.873	0.151	-0.067
-420.500	41.651	-0.107	0.098
-419.486	-30.862	0.218	-0.124
-418.471	-69.529	0.213	-0.082
-417.457	53.981	0.177	-0.172
-416.442	-140.653	-0.077	-0.008
-415.428	800.000	-0.108	-0.310
-414.413	-28.858	0.219	0.127
-413.398	175.641	0.051	0.075
-412.384	-200.000	-0.028	0.216
-411.369	800.000	0.029	0.099
-410.355	-135.882	0.111	-0.013
-409.340	333.853	0.214	-0.417
-408.325	-200.000	-0.036	-0.191
-407.311	11.315	0.156	-0.120
-406.296	-54.068	0.063	-0.029
-405.282	-200.000	-0.015	-0.103
-404.267	800.000	-0.096	-0.299
-403.252	-87.768	0.201	-0.061
-402.238	-47.932	0.383	0.187
-401.223	11.051	0.175	-0.135
-400.209	98.166	0.130	-0.151
-399.194	104.025	-0.222	0.263
-398.179	404.135	0.113	0.240
-397.165	-28.012	0.348	0.203
-396.150	-70.768	-0.378	0.144
-395.136	131.670	0.130	0.169
-394.121	82.140	0.145	0.159
-393.106	-52.933	0.271	-0.126
-392.092	36.819	0.211	-0.188
-391.077	-110.528	-0.526	0.110
-390.063	291.484	0.054	0.098
-389.048	607.791	0.105	-0.264
-388.033	256.481	0.086	-0.149
-387.019	-37.528	-0.065	0.035
-386.004	-200.000	0.044	-0.231
-384.990	-44.651	-0.111	0.056
-383.975	686.781	0.128	0.338
-382.960	-102.625	-0.189	-0.045
-381.946	-69.797	0.105	-0.040
-380.931	-200.000	-0.012	0.065
-379.917	-200.000	0.021	0.098
-378.902	145.392	0.334	0.450
-377.888	-137.824	0.353	0.040
-376.873	800.000	-0.020	-0.086
-375.858	-19.305	0.146	-0.091
-374.844	-27.708	-0.155	-0.090
-373.829	-200.000	0.004	0.147
-372.815	-82.276	-0.229	0.075
-371.800	-129.251	0.159	0.022
-370.785	-159.709	-0.153	-0.008
-369.771	276.431	-0.110	0.196
-368.756	592.892	0.116	-0.289
-367.742	140.509	0.232	-0.309
-366.727	800.000	0.011	0.045
-365.712	-14.178	0.187	0.121
-364.698	-200.000	0.016	0.211
-363.683	-22.945	0.512	-0.311
-362.669	157.031	-0.121	-0.169
-361.654	-200.000	-0.016	-0.141
-360.639	-200.000	-0.014	0.217
-359.625	-200.000	0.029	0.137
-358.610	-40.992	-0.198	-0.103
-357.596	-120.021	-0.029	-0.005
-356.581	-200.000	0.011	-0.197
-355.566	-147.292	0.079	-0.007
-354.552	-200.000	0.006	0.124
-353.537	-200.000	-0.004	0.084
-352.523	488.629	0.023	-0.052
-351.508	800.000	0.156	-0.455
-350.493	2.738	-0.261	-0.191
-349.479	800.000	0.048	-0.198
-348.464	261.374	-0.116	0.203
-347.450	20.180	0.182	-0.148
-346.435	-30.110	0.151	-0.086
-345.420	-15.371	-0.132	0.085
-344.406	-134.382	-0.152	-0.019
-343.391	43.452	0.056	-0.052
-342.377	-92.957	0.247	-0.069
-341.362	-8.196	-0.097	-0.066
-340.348	125.306	-0.106	-0.135
-339.333	92.884	-0.079	0.090
-338.318	-103.473	-0.198	0.047
-337.304	-200.000	0.007	0.180
-336.289	-200.000	0.017	0.154
-335.275	-139.908	0.182	0.019
-334.260	63.868	-0.043	0.044
-333.245	-7.602	-0.189	-0.129
-332.231	-94.570	-0.118	-0.032
-331.216	62.545	0.012	-0.012
-330.202	-65.210	-0.221	-0.090
-329.187	800.000	-0.032	0.099
-328.172	-190.648	-0.183	-0.002
-327.158	-96.608	0.150	0.040
-326.143	-200.000	0.022	0.117
-325.129	292.520	-0.083	-0.152
-324.114	-19.274	0.335	-0.209
-323.099	-124.606	-0.132	0.021
-322.085	-200.000	0.042	0.265
-321.070	109.581	0.170	0.204
-320.056	-69.090	0.443	-0.172
-319.041	-51.499	-0.156	-0.073
-318.026	-200.000	0.005	0.109
-317.012	-79.301	0.132	-0.045
-315.997	84.305	-0.178	-0.196
-314.983	-64.733	-0.248	-0.101
-313.968	-139.907	0.243	-0.026
-312.953	13.608	0.081	0.063
-311.939	117.941	-0.127	0.158
-310.924	340.063	-0.156	0.306
-309.910	-23.672	0.237	-0.143
-308.895	-200.000	0.017	-0.240
-307.880	77.698	-0.148	-0.158
-306.866	-200.000	0.046	0.256
-305.851	383.989	-0.042	0.088
-304.837	62.941	-0.045	0.045
-303.822	128.242	-0.149	-0.191
-302.807	-114.736	-0.259	0.050
-301.793	800.000	-0.087	-0.246
-300.778	-59.538	0.123	0.053
-299.764	373.371	-0.072	0.147
-298.749	187.150	-0.218	-0.326
-297.735	71.251	-0.120	-0.125
-296.720	217.634	-0.053	-0.085
-295.705	29.637	0.064	0.055
-294.691	-135.168	-0.480	0.058
-293.676	290.875	-0.083	-0.151
-292.662	-47.209	0.560	-0.274
-291.647	-185.159	-0.035	0.001
-290.632	-200.000	-0.035	-0.268
-289.618	-54.227	0.168	-0.077
-288.603	-42.854	-0.459	0.234
-287.589	23.911	-0.084	0.070
-286.574	137.221	0.262	-0.344
-285.559	312.756	0.160	-0.301
-284.545	138.284	-0.159	0.209
-283.530	-109.275	-0.320	0.068
-282.516	213.431	0.055	0.087
-281.501	-66.917	-0.315	-0.125
-280.486	724.113	-0.088	0.235
-279.472	-2.235	0.127	-0.089
-278.457	-29.534	0.079	-0.046
-277.443	-200.000	0.058	0.484
-276.428	187.887	0.008	-0.012
-275.413	502.745	-0.111	-0.258
-274.399	-104.954	0.144	-0.033
-273.384	-94.475	-0.151	0.041
-272.370	800.000	0.047	0.134
-271.355	8.275	-0.170	0.128
-270.340	-100.517	0.199	0.049
-269.326	513.997	0.125	-0.294
-268.311	50.314	-0.018	0.017
-267.297	-47.969	-0.106	0.051
-266.282	-200.000	-0.003	-0.146
-265.267	769.433	-0.064	-0.175
-264.253	-69.403	0.238	0.091
-263.238	-101.473	0.310	0.076
-262.224	-29.971	-0.275	-0.157
-261.209	-200.000	-0.048	0.298
-260.195	288.408	-0.159	0.290
-259.180	492.862	0.093	0.213
-258.165	528.040	0.174	0.412
-257.151	-143.685	0.231	-0.022
-256.136	76.317	-0.037	-0.039
-255.122	3.960	-0.177	0.130
-254.107	-78.789	0.376	0.128
-253.092	40.639	-0.142	-0.128
-252.078	89.698	0.318	0.356
-251.063	-99.292	0.093	0.024
-250.049	-146.790	0.139	-0.012
-249.034	321.424	-0.075	0.143
-248.019	-200.000	-0.058	-0.386
-247.005	-55.283	-0.127	-0.057
-245.990	-10.942	-0.288	0.191
-244.976	113.692	-0.363	0.442
-243.961	-73.207	0.211	-0.078
-242.946	336.776	-0.066	-0.128
-241.932	-20.780	-0.176	-0.108
-240.917	65.974	-0.083	0.085
-239.903	800.000	0.091	-0.292
-238.888	118.888	0.077	-0.095
-237.873	-200.000	0.010	-0.095
-236.859	-158.916	0.345	0.020
-235.844	19.606	-0.139	-0.112
-234.830	-87.290	0.093	0.028
-233.815	-0.814	0.339	0.240
-232.800	592.802	-0.117	-0.288
-231.786	800.000	0.020	-0.066
-230.771	-33.281	0.229	0.127
-229.757	222.107	0.277	0.447
-228.742	-82.650	-0.249	0.081
-227.727	800.000	0.021	-0.090
-226.713	-53.456	0.153	-0.070
-225.698	86.265	-0.181	0.199
-224.684	-200.000	0.004	0.064
-223.669	122.439	-0.092	0.115
-222.655	487.158	-0.095	0.218
-221.640	-200.000	0.024	-0.115
-220.625	220.496	0.047	0.076
-219.611	229.397	0.101	-0.165
-218.596	417.646	0.067	0.144
-217.582	-68.500	0.164	0.064
-216.567	-140.520	0.153	0.016
-215.552	-113.894	-0.298	0.058
-214.538	-128.323	-0.184	-0.026
-213.523	-200.000	-0.012	0.152
-212.509	800.000	-0.053	0.188
-211.494	-50.765	0.129	0.061
-210.479	755.074	-0.012	0.032
-209.465	-77.037	-0.178	-0.062
-208.450	800.000	0.050	-0.142
-207.436	14.375	-0.120	0.093
-206.421	-200.000	0.022	0.146
-205.406	-50.984	-0.158	0.074
-204.392	-55.627	0.175	0.078
-203.377	446.365	0.130	-0.287
-202.363	227.603	-0.029	-0.047
-201.348	65.233	0.109	-0.110
-200.333	-122.214	0.245	-0.040
-199.319	800.000	0.102	-0.327
-198.304	800.000	-0.052	-0.184
-197.290	91.436	-0.055	0.061
-196.275	-167.778	0.260	-0.010
-195.260	800.000	-0.046	0.132
-194.246	736.674	0.137	0.368
-193.231	-175.385	0.175	-0.005
-192.217	-72.989	0.263	-0.097
-191.202	800.000	-0.027	0.097
-190.187	-34.337	-0.169	-0.093
-189.173	-148.488	0.229	-0.019
-188.158	40.093	0.040	-0.036
-187.144	-200.000	0.024	0.132
-186.129	772.469	-0.099	0.269
-185.114	-200.000	0.002	0.044
-184.100	-200.000	-0.015	0.127
-183.085	177.959	0.230	0.335
-182.071	-57.282	0.063	0.028
-181.056	-57.707	-0.263	-0.115
-180.042	-200.000	0.015	0.098
-179.027	-200.000	-0.002	-0.031
-178.012	-54.002	-0.297	0.135
-176.998	-62.741	-0.056	-0.023
-175.983	-162.113	-0.214	-0.011
-174.969	-105.550	-0.091	0.021
-173.954	16.390	-0.152	0.120
-172.939	119.828	-0.076	0.094
-171.925	89.762	0.081	0.091
-170.910	782.693	0.103	-0.281
-169.896	-200.000	0.005	0.197
-168.881	167.896	0.113	-0.160
-167.866	-60.256	-0.321	-0.136
-166.852	-106.688	-0.299	0.067
-165.837	-137.817	0.299	0.033
-164.823	-200.000	-0.004	0.155
-163.808	-7.749	0.118	0.080
-162.793	-13.866	0.108	0.069
-161.779	-185.878	-0.252	-0.004
-160.764	245.744	-0.074	0.125
-159.750	-147.722	0.307	-0.026
-158.735	800.000	-0.111	-0.396
-157.720	-121.472	-0.115	-0.019
-156.706	57.215	0.165	-0.161
-155.691	-66.716	-0.166	0.066
-154.677	-143.578	-0.280	0.027
-153.662	73.457	0.040	0.042
-152.647	66.844	-0.095	0.097
-151.633	103.922	0.076	0.090
-150.618	-200.000	0.039	-0.270
-149.604	-200.000	-0.042	-0.462
-148.589	-92.025	-0.242	0.068
-147.574	-138.524	0.274	0.030
-146.560	-200.000	0.024	0.180
-145.545	780.193	0.067	0.184
-144.531	-122.354	-0.078	-0.013
-143.516	18.220	0.059	0.047
-142.502	800.000	-0.110	-0.340
-141.487	125.788	-0.106	-0.133
-140.472	800.000	-0.079	-0.318
-139.458	22.379	-0.210	-0.171
-138.443	113.565	0.135	-0.164
-137.429	635.300	0.089	-0.226
-136.414	19.198	-0.052	-0.042
-135.399	-73.986	0.184	-0.067
-134.385	141.824	0.146	-0.194
-133.370	87.928	-0.152	0.169
-132.356	800.000	0.029	-0.104
-131.341	-69.857	0.118	-0.045
-130.326	72.427	-0.083	-0.086
-129.312	800.000	0.081	-0.241
-128.297	152.054	-0.179	-0.244
-127.283	-200.000	-0.005	0.027
-126.268	-160.737	-0.063	-0.003
-125.253	-200.000	0.037	0.262
-124.239	20.710	0.231	-0.186
-123.224	800.000	0.007	0.028
-122.210	214.899	-0.049	-0.078
-121.195	-51.534	0.331	-0.154
