DTS Sentinel unit serial number:	SN413079Multiplexer serial number:	ORYXHardware model number:	OX4-SRSoftware version number:	ORYX F/W v4.00 Oryx Data Collector v3.7.2.0data status	okinstallation	princeton_trtdifferential loss correction	single-endedforward channel	channel 4reverse channel	N/Adate	2019/09/13time	20:49:34forward acquisition time	60.00reverse acquisition time	0.00gamma	496.2192k internal	0.2319k external	0.2319temperature offset calibration	1.0133default loss term (dB/km)	0.3790temperature slope calibration	1.0000multiplexer offset coefficient	1.0000multiplexer slope coefficient	1.0000fibre end	0.00T internal ref (°C)	28.78T ext. ref 1 (°C)	3.20T ext. ref 2 (°C)	23.35length (m)	temperature (°C)	Stokes	anti-Stokes-747.200	-200.000	-0.003	0.085
-746.185	19.087	0.213	-0.173
-745.171	800.000	0.088	-0.324
-744.156	-200.000	-0.043	0.261
-743.142	800.000	0.121	-0.384
-742.127	674.888	-0.120	-0.314
-741.112	275.514	0.205	-0.368
-740.098	-200.000	0.039	0.178
-739.083	-99.004	0.070	-0.018
-738.069	39.450	-0.078	-0.071
-737.054	800.000	0.042	0.141
-736.039	-74.171	-0.432	-0.158
-735.025	-105.740	0.241	-0.055
-734.010	-200.000	-0.003	0.031
-732.996	-33.269	0.168	-0.094
-731.981	800.000	0.078	0.237
-730.966	-125.681	-0.103	-0.016
-729.952	-200.000	0.065	0.422
-728.937	-134.654	0.059	0.007
-727.923	-200.000	0.023	-0.293
-726.908	-13.684	-0.248	0.162
-725.894	385.459	-0.076	0.159
-724.879	-41.465	0.160	0.083
-723.864	407.760	0.061	-0.130
-722.850	-93.366	-0.114	-0.032
-721.835	-64.612	0.166	-0.068
-720.821	-124.019	-0.246	0.039
-719.806	-144.015	-0.276	0.026
-718.791	-76.061	0.303	-0.108
-717.777	463.656	-0.131	-0.296
-716.762	-87.186	-0.212	0.065
-715.748	-54.909	0.309	0.141
-714.733	-147.662	-0.179	0.015
-713.718	752.093	0.037	0.102
-712.704	-200.000	0.011	-0.385
-711.689	296.351	0.187	0.346
-710.675	-109.616	-0.630	-0.134
-709.660	301.943	-0.202	-0.377
-708.645	-22.765	0.120	0.073
-707.631	34.775	-0.059	-0.052
-706.616	-80.560	0.147	-0.049
-705.602	-13.241	-0.285	-0.187
-704.587	800.000	-0.125	0.363
-703.572	-139.641	-0.125	-0.014
-702.558	630.140	0.043	0.109
-701.543	800.000	-0.106	0.341
-700.529	-40.983	0.255	-0.133
-699.514	800.000	0.059	-0.215
-698.499	-57.389	0.177	-0.078
-697.485	-134.158	-0.222	0.028
-696.470	34.478	0.076	0.067
-695.456	800.000	0.068	0.205
-694.441	-109.537	-0.144	0.031
-693.426	383.315	0.142	-0.295
-692.412	-8.140	0.274	-0.187
-691.397	-24.178	0.021	-0.013
-690.383	5.691	0.253	0.189
-689.368	-126.541	-0.108	0.016
-688.354	-200.000	0.030	-0.219
-687.339	-200.000	0.023	-0.106
-686.324	60.989	-0.174	0.174
-685.310	113.600	-0.168	0.205
-684.295	-41.664	-0.150	-0.078
-683.281	800.000	-0.068	0.190
-682.266	89.421	0.158	0.178
-681.251	374.497	-0.053	0.110
-680.237	-120.699	0.351	-0.060
-679.222	97.219	-0.305	0.354
-678.208	-200.000	0.019	0.159
-677.193	178.097	-0.084	-0.123
-676.178	800.000	-0.033	-0.110
-675.164	-103.231	0.236	-0.056
-674.149	-98.845	-0.460	-0.118
-673.135	-85.109	0.315	0.099
-672.120	-200.000	0.003	-0.050
-671.105	25.573	0.137	0.115
-670.091	-200.000	-0.000	0.319
-669.076	155.848	-0.196	-0.272
-668.062	-127.138	0.425	-0.063
-667.047	-34.730	-0.242	-0.133
-666.032	-92.843	0.123	-0.035
-665.018	800.000	-0.064	0.214
-664.003	-52.694	0.206	-0.096
-662.989	175.810	-0.034	0.049
-661.974	800.000	0.057	0.194
-660.959	800.000	-0.077	0.226
-659.945	-200.000	0.000	0.180
-658.930	-200.000	-0.109	0.684
-657.916	-200.000	0.022	0.541
-656.901	70.363	-0.069	-0.072
-655.886	23.735	0.248	0.206
-654.872	-161.471	-0.160	0.008
-653.857	241.192	-0.129	-0.216
-652.843	72.921	0.256	0.270
-651.828	-68.592	0.222	0.087
-650.814	36.577	0.098	0.087
-649.799	84.623	-0.069	0.076
-648.784	72.017	-0.120	0.125
-647.770	-25.256	0.063	0.037
-646.755	44.478	0.129	0.119
-645.741	142.529	0.171	-0.229
-644.726	42.871	-0.308	-0.283
-643.711	526.379	0.075	-0.177
-642.697	207.062	0.089	0.140
-641.682	601.707	-0.143	-0.359
-640.668	-200.000	0.011	0.345
-639.653	-24.387	-0.154	-0.093
-638.638	0.619	0.115	-0.083
-637.624	-200.000	-0.015	-0.083
-636.609	800.000	-0.072	0.247
-635.595	47.563	0.277	-0.260
-634.580	-39.653	0.177	-0.093
-633.565	190.555	0.190	-0.288
-632.551	-117.149	0.148	0.027
-631.536	-167.257	0.309	-0.013
-630.522	-1.676	-0.113	-0.081
-629.507	196.039	0.197	-0.301
-628.492	374.717	0.038	-0.078
-627.478	226.579	-0.255	0.416
-626.463	-200.000	-0.005	0.429
-625.449	-57.152	-0.219	-0.097
-624.434	-109.894	0.343	0.072
-623.419	-129.100	0.340	0.048
-622.405	800.000	0.038	0.119
-621.390	182.483	0.086	0.127
-620.376	-200.000	-0.007	-0.093
-619.361	-83.816	0.132	-0.043
-618.346	-200.000	0.046	-0.313
-617.332	163.775	0.277	-0.393
-616.317	-5.835	-0.194	-0.134
-615.303	-99.490	0.267	-0.068
-614.288	589.978	-0.151	0.375
-613.273	-31.703	-0.203	-0.115
-612.259	-30.090	0.072	-0.041
-611.244	35.600	-0.322	-0.285
-610.230	-15.111	-0.166	0.107
-609.215	210.281	-0.038	0.060
-608.201	-200.000	0.006	-0.278
-607.186	-24.313	-0.024	-0.014
-606.171	-73.287	-0.145	0.053
-605.157	-119.026	0.120	0.021
-604.142	-108.905	0.229	-0.049
-603.128	-200.000	0.007	0.148
-602.113	-200.000	0.007	-0.113
-601.098	104.570	-0.200	0.236
-600.084	-58.281	-0.310	-0.136
-599.069	-200.000	-0.009	-0.040
-598.055	-163.085	0.351	-0.017
-597.040	-41.842	-0.344	-0.177
-596.025	-40.071	-0.267	0.140
-595.011	800.000	0.049	-0.151
-593.996	-98.674	-0.260	0.067
-592.982	-119.739	0.068	-0.012
-591.967	-186.045	0.139	0.002
-590.952	-200.000	-0.051	0.352
-589.938	444.355	-0.126	-0.279
-588.923	-200.000	-0.006	-0.095
-587.909	800.000	-0.064	-0.197
-586.894	160.243	0.082	-0.115
-585.879	-66.386	-0.328	-0.131
-584.865	-200.000	0.024	-0.236
-583.850	310.023	0.059	0.110
-582.836	-139.984	-0.521	-0.055
-581.821	-65.340	0.229	-0.093
-580.806	-200.000	0.073	0.384
-579.792	-87.835	0.282	0.085
-578.777	759.063	0.048	0.130
-577.763	356.744	-0.040	0.079
-576.748	-200.000	-0.029	-0.145
-575.733	-39.783	-0.036	0.019
-574.719	-81.812	-0.163	0.054
-573.704	-69.176	-0.183	-0.071
-572.690	66.237	-0.033	-0.034
-571.675	-200.000	-0.013	0.389
-570.661	347.914	-0.152	0.302
-569.646	-94.199	0.297	-0.082
-568.631	800.000	-0.046	-0.145
-567.617	70.164	-0.153	-0.158
-566.602	-191.877	0.253	-0.002
-565.588	-200.000	-0.049	-0.221
-564.573	-71.997	0.209	-0.078
-563.558	-38.725	-0.024	-0.013
-562.544	458.723	-0.118	0.264
-561.529	-200.000	-0.038	0.172
-560.515	700.900	-0.030	-0.079
-559.500	-56.453	-0.423	0.188
-558.485	51.274	0.195	0.186
-557.471	92.834	0.171	0.194
-556.456	-75.585	0.229	-0.082
-555.442	-22.256	-0.063	-0.038
-554.427	-138.431	0.188	0.021
-553.412	184.750	0.171	-0.255
-552.398	-48.367	0.157	0.076
-551.383	800.000	0.048	-0.150
-550.369	143.301	0.178	0.238
-549.354	180.792	-0.089	0.131
-548.339	167.505	0.107	-0.152
-547.325	43.373	-0.157	0.144
-546.310	563.665	-0.118	-0.286
-545.296	27.992	-0.134	0.113
-544.281	-200.000	-0.007	-0.228
-543.266	-113.691	0.141	-0.028
-542.252	-144.535	0.350	0.032
-541.237	173.017	0.153	-0.221
-540.223	-130.710	0.423	-0.057
-539.208	-200.000	-0.039	-0.180
-538.193	-200.000	0.020	-0.218
-537.179	19.578	-0.209	0.169
-536.164	-200.000	-0.062	0.357
-535.150	-18.984	0.052	-0.032
-534.135	659.338	-0.114	-0.294
-533.121	-179.673	-0.211	0.005
-532.106	127.744	-0.173	0.221
-531.091	-117.878	0.244	0.044
-530.077	-114.786	-0.239	-0.046
-529.062	-200.000	-0.032	-0.213
-528.048	398.648	-0.103	-0.216
-527.033	296.116	0.126	-0.232
-526.018	-186.517	-0.267	-0.004
-525.004	-77.247	-0.304	-0.106
-523.989	-41.943	-0.130	-0.067
-522.975	-131.020	-0.099	-0.013
-521.960	-82.902	0.241	0.078
-520.945	781.060	-0.068	0.187
-519.931	-91.993	-0.301	0.085
-518.916	43.972	-0.171	-0.157
-517.902	-20.062	-0.097	-0.060
-516.887	183.621	-0.032	-0.047
-515.872	-126.174	0.252	0.038
-514.858	-99.703	-0.186	-0.047
-513.843	-200.000	-0.017	-0.156
-512.829	-18.847	-0.268	-0.168
-511.814	149.225	0.043	-0.058
-510.799	-118.418	-0.222	0.039
-509.785	-40.401	-0.277	-0.144
-508.770	284.248	-0.035	0.063
-507.756	323.538	-0.058	0.110
-506.741	-97.847	-0.585	0.151
-505.726	-200.000	0.001	0.010
-504.712	9.871	-0.237	-0.180
-503.697	800.000	0.092	0.287
-502.683	149.814	0.160	-0.217
-501.668	797.159	-0.120	-0.332
-500.653	3.159	0.110	-0.080
-499.639	-200.000	0.019	0.209
-498.624	-200.000	0.031	0.406
-497.610	-95.257	0.470	0.127
-496.595	752.609	-0.133	-0.361
-495.581	-128.273	-0.272	-0.039
-494.566	-94.569	0.139	0.038
-493.551	-95.080	-0.214	0.058
-492.537	115.892	-0.189	0.232
-491.522	242.088	0.209	0.350
-490.508	409.787	0.063	-0.134
-489.493	-200.000	-0.028	0.210
-488.478	545.354	-0.095	0.228
-487.464	106.787	0.030	0.036
-486.449	-26.259	0.057	0.033
-485.435	127.572	-0.107	0.137
-484.420	800.000	0.072	0.299
-483.405	-80.378	-0.288	0.096
-482.391	-200.000	0.076	0.356
-481.376	-84.008	0.227	0.072
-480.362	583.064	-0.039	-0.096
-479.347	80.335	-0.091	0.099
-478.332	-167.507	0.323	-0.013
-477.318	800.000	-0.071	0.209
-476.303	800.000	0.081	0.266
-475.289	68.460	0.008	0.008
-474.274	70.436	0.301	-0.311
-473.259	520.218	-0.056	0.131
-472.245	179.253	0.030	0.045
-471.230	-108.984	-0.202	-0.043
-470.216	-200.000	-0.031	-0.353
-469.201	262.323	0.146	-0.253
-468.186	544.955	0.059	-0.142
-467.172	-200.000	0.029	0.278
-466.157	-200.000	-0.002	-0.143
-465.143	800.000	-0.112	-0.443
-464.128	118.099	0.089	0.109
-463.113	127.981	-0.215	0.274
-462.099	800.000	-0.037	-0.135
-461.084	-181.957	-0.193	-0.004
-460.070	-110.779	0.499	-0.103
-459.055	63.346	-0.185	0.185
-458.040	192.091	0.038	0.057
-457.026	-99.473	0.194	0.049
-456.011	185.784	-0.265	0.393
-454.997	20.700	0.100	0.081
-453.982	-200.000	0.006	-0.068
-452.968	274.485	0.089	0.158
-451.953	-200.000	0.044	-0.237
-450.938	443.260	-0.113	-0.247
-449.924	245.246	0.065	-0.110
-448.909	-69.796	0.169	0.065
-447.895	-200.000	-0.025	-0.150
-446.880	-97.810	-0.216	-0.056
-445.865	449.237	0.057	-0.125
-444.851	130.638	0.172	-0.220
-443.836	-200.000	-0.028	-0.166
-442.822	-103.486	0.054	-0.013
-441.807	800.000	0.088	-0.258
-440.792	800.000	0.036	-0.146
-439.778	-183.681	0.226	-0.004
-438.763	-200.000	0.022	0.137
-437.749	-165.599	0.048	-0.002
-436.734	-166.528	0.086	0.004
-435.719	-103.484	0.199	0.047
-434.705	-64.523	0.072	-0.029
-433.690	255.942	0.082	-0.140
-432.676	332.007	-0.055	0.105
-431.661	17.907	0.243	-0.193
-430.646	-200.000	0.053	-0.289
-429.632	-131.665	-0.289	0.038
-428.617	-134.058	0.189	-0.023
-427.603	-15.983	-0.241	-0.153
-426.588	-200.000	0.023	-0.321
-425.573	-200.000	-0.003	0.064
-424.559	-59.819	-0.448	-0.192
-423.544	-134.534	-0.149	-0.018
-422.530	800.000	0.040	-0.119
-421.515	-200.000	-0.052	-0.250
-420.500	-54.367	-0.224	0.101
-419.486	-200.000	0.039	0.273
-418.471	-200.000	-0.041	0.339
-417.457	102.871	-0.208	-0.243
-416.442	-103.407	0.127	-0.030
-415.428	-15.245	-0.213	0.136
-414.413	-200.000	-0.019	0.112
-413.398	-175.589	-0.230	0.006
-412.384	-74.186	0.195	-0.071
-411.369	-200.000	0.069	-0.313
-410.355	-200.000	0.021	-0.391
-409.340	-75.599	0.266	0.095
-408.325	-200.000	0.002	-0.045
-407.311	40.999	0.219	-0.197
-406.296	67.204	-0.033	0.033
-405.282	-95.944	0.275	0.073
-404.267	-110.450	0.219	-0.045
-403.252	23.213	-0.192	-0.157
-402.238	-134.847	-0.097	-0.012
-401.223	-200.000	0.042	-0.413
-400.209	-200.000	-0.024	-0.201
-399.194	-149.966	-0.080	-0.006
-398.179	-120.314	0.221	-0.038
-397.165	413.482	-0.041	0.087
-396.150	800.000	-0.062	0.189
-395.136	-112.259	-0.254	0.051
-394.121	71.183	-0.036	-0.038
-393.106	-85.483	0.239	-0.074
-392.092	37.801	0.100	-0.089
-391.077	-37.156	-0.067	-0.036
-390.063	-28.361	0.297	0.171
-389.048	-94.150	0.124	-0.034
-388.033	333.846	-0.100	0.193
-387.019	-116.227	-0.083	0.015
-386.004	-200.000	0.031	0.134
-384.990	-98.642	-0.192	0.049
-383.975	-88.120	-0.303	-0.091
-382.960	60.046	0.180	-0.178
-381.946	-138.464	-0.284	0.031
-380.931	101.679	0.151	-0.175
-379.917	-148.853	0.284	-0.023
-378.902	-111.075	-0.071	-0.015
-377.888	-14.125	-0.077	-0.049
-376.873	800.000	-0.074	0.283
-375.858	114.941	-0.034	0.041
-374.844	800.000	-0.119	-0.474
-373.829	321.074	0.015	-0.029
-372.815	800.000	0.091	0.270
-371.800	38.542	-0.096	0.086
-370.785	108.433	0.233	0.277
-369.771	28.927	-0.103	0.087
-368.756	-200.000	-0.021	0.374
-367.742	-10.685	-0.115	0.076
-366.727	7.025	0.276	-0.205
-365.712	-146.582	-0.234	-0.020
-364.698	84.341	-0.156	0.170
-363.683	118.009	0.098	0.121
-362.669	249.308	0.191	0.322
-361.654	-200.000	-0.023	0.173
-360.639	800.000	0.108	0.369
-359.625	242.259	-0.037	0.062
-358.610	-62.286	-0.074	-0.031
-357.596	32.506	-0.215	-0.185
-356.581	127.115	-0.067	0.085
-355.566	-135.892	0.181	-0.021
-354.552	-54.874	0.183	0.082
-353.537	86.746	0.207	-0.228
-352.523	800.000	0.071	0.271
-351.508	-93.264	-0.153	-0.042
-350.493	800.000	-0.108	-0.326
-349.479	-53.139	0.299	-0.137
-348.464	-89.689	-0.280	0.082
-347.450	-23.581	0.300	0.180
-346.435	71.159	-0.223	0.231
-345.420	-19.667	-0.253	0.156
-344.406	-171.815	0.122	0.004
-343.391	-150.536	0.250	-0.019
-342.377	-200.000	-0.001	0.048
-341.362	-200.000	0.058	-0.393
-340.348	-52.887	0.129	-0.059
-339.333	-83.401	-0.288	0.092
-338.318	-58.664	0.157	0.068
-337.304	-74.447	-0.147	0.053
-336.289	-200.000	0.028	-0.162
-335.275	25.723	0.187	-0.155
-334.260	579.717	-0.035	-0.086
-333.245	800.000	0.029	0.105
-332.231	134.897	0.105	0.136
-331.216	800.000	-0.070	-0.234
-330.202	-145.794	-0.167	-0.015
-329.187	-17.150	-0.098	0.061
-328.172	-133.160	0.134	0.017
-327.158	-173.886	-0.236	-0.007
-326.143	-24.995	-0.179	0.106
-325.129	800.000	0.079	0.223
-324.114	209.074	0.029	0.044
-323.099	57.945	-0.235	0.229
-322.085	107.592	0.164	-0.194
-321.070	160.891	0.287	0.399
-320.056	168.360	-0.038	0.054
-319.041	-200.000	-0.037	-0.176
-318.026	-145.615	0.061	0.005
-317.012	2.186	-0.137	0.099
-315.997	-19.946	-0.132	-0.081
-314.983	170.029	0.133	0.189
-313.968	800.000	-0.141	-0.404
-312.953	-25.625	-0.176	-0.104
-311.939	132.987	0.176	0.226
-310.924	-110.512	-0.306	0.063
-309.910	-37.070	-0.066	0.035
-308.895	44.567	0.043	-0.039
-307.880	-200.000	0.022	-0.268
-306.866	-157.640	-0.351	-0.021
-305.851	247.898	-0.119	0.200
-304.837	63.032	0.195	0.194
-303.822	-200.000	0.018	0.321
-302.807	36.239	0.082	0.072
-301.793	-200.000	-0.006	-0.278
-300.778	34.268	-0.305	-0.265
-299.764	45.448	0.130	-0.120
-298.749	-160.538	0.200	-0.011
-297.735	189.359	-0.151	0.226
-296.720	-112.391	0.331	-0.066
-295.705	-110.264	-0.101	-0.021
-294.691	-83.973	0.155	0.049
-293.676	152.592	-0.069	-0.094
-292.662	-143.842	0.146	0.014
-291.647	39.132	-0.122	-0.109
-290.632	172.356	-0.195	-0.279
-289.618	199.017	0.211	-0.321
-288.603	-200.000	-0.015	-0.099
-287.589	-200.000	-0.013	0.100
-286.574	-67.502	-0.204	-0.080
-285.559	-116.058	0.199	0.037
-284.545	-200.000	0.063	-0.434
-283.530	89.099	0.147	0.162
-282.516	-106.582	0.120	-0.027
-281.501	198.903	0.133	-0.203
-280.486	191.953	0.123	-0.185
-279.472	134.803	-0.149	0.192
-278.457	574.327	0.075	-0.182
-277.443	468.961	0.035	0.078
-276.428	-19.031	0.116	-0.072
-275.413	-200.000	0.044	0.419
-274.399	-176.675	-0.255	-0.006
-273.384	-116.879	-0.248	-0.045
-272.370	321.806	-0.082	0.156
-271.355	15.449	0.358	0.279
-270.340	153.748	-0.125	0.170
-269.326	-200.000	-0.017	-0.121
-268.311	553.113	0.086	0.205
-267.297	-200.000	0.070	0.317
-266.282	427.847	-0.098	0.210
-265.267	-80.124	-0.343	-0.114
-264.253	-200.000	-0.022	0.135
-263.238	-37.363	0.122	-0.064
-262.224	70.730	-0.380	-0.390
-261.209	-200.000	-0.000	0.006
-260.195	-200.000	0.046	0.338
-259.180	-68.820	0.451	-0.173
-258.165	766.680	-0.180	0.485
-257.151	800.000	-0.060	0.170
-256.136	-126.110	-0.195	0.029
-255.122	-200.000	-0.016	-0.105
-254.107	81.086	-0.086	-0.092
-253.092	-166.448	0.129	-0.005
-252.078	-112.568	0.322	0.064
-251.063	-68.231	-0.145	0.056
-250.049	-117.692	-0.068	0.012
-249.034	9.769	-0.127	-0.096
-248.019	112.212	0.169	-0.203
-247.005	-96.025	0.107	0.028
-245.990	-83.836	0.308	-0.098
-244.976	800.000	0.103	-0.342
-243.961	800.000	0.076	0.209
-242.946	800.000	0.115	0.383
-241.932	558.205	0.080	-0.191
-240.917	448.267	0.106	-0.232
-239.903	-61.923	0.087	0.036
-238.888	332.790	0.040	-0.077
-237.873	-200.000	0.002	0.313
-236.859	20.619	-0.122	0.098
-235.844	23.224	0.049	-0.040
-234.830	-40.154	-0.200	-0.103
-233.815	297.728	-0.043	0.079
-232.800	-128.010	0.265	0.038
-231.786	-200.000	0.028	0.242
-230.771	800.000	0.080	0.230
-229.757	-39.430	0.186	0.097
-228.742	-94.828	0.083	0.022
-227.727	417.265	0.186	-0.394
-226.713	800.000	0.027	0.110
-225.698	176.065	0.059	-0.085
-224.684	27.150	-0.280	0.233
-223.669	-195.490	0.167	0.001
-222.655	-200.000	-0.001	-0.040
-221.640	4.660	0.185	0.135
-220.625	-98.835	0.148	0.037
-219.611	-127.796	0.186	-0.027
-218.596	800.000	0.059	0.188
-217.582	150.874	-0.188	-0.253
-216.567	-156.776	0.410	-0.025
-215.552	-62.062	0.146	0.060
-214.538	800.000	0.033	0.128
-213.523	119.034	-0.253	0.310
-212.509	800.000	0.067	0.275
-211.494	-145.874	-0.142	0.012
-210.479	-200.000	0.001	-0.255
-209.465	-200.000	-0.024	0.115
-208.450	800.000	-0.092	-0.332
-207.436	800.000	-0.030	0.098
-206.421	196.411	-0.105	0.158
-205.406	331.084	-0.043	0.082
-204.392	-93.804	-0.344	-0.094
-203.377	191.361	0.074	-0.110
-202.363	-200.000	0.025	0.310
-201.348	-200.000	-0.018	-0.290
-200.333	-95.577	-0.333	0.088
-199.319	12.472	0.268	0.204
-198.304	79.623	0.185	0.196
-197.290	800.000	-0.096	0.309
-196.275	-200.000	0.053	0.285
-195.260	-164.439	-0.029	-0.001
-194.246	800.000	0.018	-0.070
-193.231	-33.228	-0.069	0.038
-192.217	447.205	-0.046	0.099
-191.202	306.396	0.105	-0.194
-190.187	-85.305	0.240	-0.074
-189.173	-149.440	0.100	-0.008
-188.158	-3.417	-0.169	0.116
-187.144	-55.612	-0.177	0.078
-186.129	-41.088	-0.124	-0.063
-185.114	-200.000	-0.027	0.350
-184.100	29.619	0.155	-0.131
-183.085	-200.000	-0.003	0.391
-182.071	302.091	0.168	0.307
-181.056	79.675	-0.384	-0.407
-180.042	-58.471	0.141	0.061
-179.027	-143.123	0.118	0.011
-178.012	145.882	-0.147	-0.195
-176.998	-200.000	-0.027	0.220
-175.983	314.227	-0.044	0.083
-174.969	94.081	-0.187	-0.210
-173.954	226.091	0.200	0.322
-172.939	800.000	-0.058	0.243
-171.925	-25.959	-0.206	-0.120
-170.910	260.765	0.018	-0.031
-169.896	-145.219	0.223	-0.020
-168.881	-200.000	0.019	-0.194
-167.866	56.003	-0.123	-0.118
-166.852	-200.000	-0.010	-0.241
-165.837	-96.672	-0.285	0.074
-164.823	-73.683	-0.196	-0.071
-163.808	21.205	0.117	-0.094
-162.793	54.998	-0.117	-0.112
-161.779	-200.000	0.038	-0.166
-160.764	-73.903	0.228	-0.082
-159.750	751.748	-0.024	0.063
-158.735	25.792	-0.137	0.113
-157.720	12.281	-0.144	-0.110
-156.706	-105.762	0.203	-0.045
-155.691	35.413	-0.091	-0.079
-154.677	219.192	0.086	-0.136
-153.662	465.113	0.153	-0.338
-152.647	800.000	0.113	0.407
-151.633	-200.000	0.002	0.057
-150.618	-200.000	-0.006	0.297
-149.604	-200.000	0.011	-0.120
-148.589	-200.000	-0.012	0.454
-147.574	-41.509	0.251	0.127
-146.560	76.247	0.104	0.108
-145.545	-21.638	0.327	-0.197
-144.531	69.782	0.143	-0.145
-143.516	-200.000	-0.013	0.209
-142.502	-28.576	-0.101	0.057
-141.487	18.462	-0.096	-0.076
-140.472	800.000	0.043	-0.150
-139.458	47.867	0.179	-0.165
-138.443	-200.000	-0.005	0.143
-137.429	-200.000	0.005	0.288
-136.414	-111.645	-0.193	0.039
-135.399	-51.714	0.094	-0.043
-134.385	-43.810	-0.518	0.258
-133.370	-64.744	0.120	0.048
-132.356	89.039	-0.178	-0.195
-131.341	-105.172	-0.043	-0.010
-130.326	5.591	-0.123	0.090
-129.312	-200.000	0.072	-0.312
-128.297	-64.414	-0.256	0.103
-127.283	18.323	0.197	0.156
-126.268	52.800	-0.024	0.023
-125.253	-21.181	0.063	-0.038
-124.239	-146.423	-0.229	0.020
-123.224	-200.000	-0.016	-0.101
-122.210	-34.306	0.088	0.048
