DTS Sentinel unit serial number:	SN413079Multiplexer serial number:	ORYXHardware model number:	OX4-SRSoftware version number:	ORYX F/W v4.00 Oryx Data Collector v3.7.2.0data status	okinstallation	princeton_trtdifferential loss correction	single-endedforward channel	channel 4reverse channel	N/Adate	2019/09/18time	16:01:34forward acquisition time	60.00reverse acquisition time	0.00gamma	496.2192k internal	0.2291k external	0.2291temperature offset calibration	1.0006default loss term (dB/km)	0.3790temperature slope calibration	1.0000multiplexer offset coefficient	1.0000multiplexer slope coefficient	1.0000fibre end	0.00T internal ref (°C)	37.41T ext. ref 1 (°C)	0.81T ext. ref 2 (°C)	36.75length (m)	temperature (°C)	Stokes	anti-Stokes-747.200	385.746	0.081	0.172
-746.185	-200.000	-0.001	0.081
-745.171	84.205	-0.133	0.149
-744.156	-200.000	-0.022	0.354
-743.142	-13.009	-0.228	0.152
-742.127	720.160	-0.168	0.457
-741.112	-132.614	-0.091	-0.012
-740.098	-33.643	-0.259	0.146
-739.083	53.677	-0.130	-0.128
-738.069	800.000	0.061	-0.177
-737.054	-200.000	-0.030	-0.258
-736.039	-48.535	-0.258	-0.127
-735.025	800.000	0.045	-0.127
-734.010	-200.000	-0.007	0.154
-732.996	8.423	0.127	-0.098
-731.981	-87.478	-0.194	0.060
-730.966	-65.512	-0.120	-0.049
-729.952	305.469	-0.115	-0.219
-728.937	166.668	0.125	0.182
-727.923	23.003	0.231	0.194
-726.908	-150.926	0.241	-0.019
-725.894	333.489	-0.062	-0.122
-724.879	-200.000	0.054	-0.395
-723.864	489.358	0.049	-0.116
-722.850	-1.552	-0.195	0.140
-721.835	-200.000	-0.012	0.114
-720.821	-62.941	0.355	-0.150
-719.806	-87.195	-0.358	0.111
-718.791	214.296	0.129	-0.209
-717.777	-176.980	-0.127	-0.003
-716.762	-102.931	-0.179	-0.044
-715.748	-148.464	-0.200	0.017
-714.733	-200.000	0.011	-0.201
-713.718	138.868	-0.165	-0.222
-712.704	-31.514	0.178	-0.102
-711.689	361.301	0.095	-0.195
-710.675	-200.000	-0.012	-0.184
-709.660	-21.402	-0.249	-0.155
-708.645	69.699	0.210	0.221
-707.631	-72.880	-0.199	0.075
-706.616	254.630	0.186	0.325
-705.602	72.382	0.105	0.112
-704.587	-200.000	-0.037	-0.418
-703.572	87.569	-0.405	-0.458
-702.558	-200.000	0.006	-0.312
-701.543	416.083	-0.062	-0.135
-700.529	-31.892	0.062	0.036
-699.514	-200.000	-0.042	0.336
-698.499	165.395	0.046	0.067
-697.485	-200.000	-0.041	-0.200
-696.470	77.322	-0.129	-0.140
-695.456	-71.172	-0.229	0.088
-694.441	3.539	0.244	-0.182
-693.426	252.249	-0.138	-0.240
-692.412	-11.952	0.121	-0.081
-691.397	-36.425	-0.127	-0.070
-690.383	63.078	-0.082	0.084
-689.368	-146.592	-0.094	-0.008
-688.354	-116.857	-0.246	0.046
-687.339	396.699	-0.233	-0.497
-686.324	800.000	0.057	0.251
-685.310	548.856	-0.142	0.348
-684.295	-200.000	0.020	0.140
-683.281	-12.709	0.153	0.102
-682.266	-58.137	0.114	-0.051
-681.251	-76.413	0.276	0.099
-680.237	-200.000	0.097	-0.564
-679.222	98.802	0.128	0.151
-678.208	-46.185	0.308	0.155
-677.193	597.443	0.039	-0.100
-676.178	209.741	0.128	-0.205
-675.164	-62.709	0.142	0.060
-674.149	-48.620	0.079	0.039
-673.135	-200.000	-0.047	0.459
-672.120	25.524	-0.055	-0.047
-671.105	-139.453	-0.178	-0.019
-670.091	-80.211	0.327	-0.112
-669.076	-83.605	-0.144	-0.047
-668.062	716.983	-0.008	0.021
-667.047	33.991	-0.121	0.108
-666.032	800.000	-0.051	-0.162
-665.018	-54.710	0.346	0.160
-664.003	-129.694	-0.214	-0.030
-662.989	-141.921	0.137	-0.014
-661.974	-153.089	0.186	-0.013
-660.959	166.906	-0.177	-0.257
-659.945	187.058	0.080	-0.121
-658.930	800.000	0.047	-0.193
-657.916	36.207	-0.278	-0.250
-656.901	-200.000	0.060	-0.321
-655.886	-200.000	0.004	0.043
-654.872	-190.338	-0.291	0.003
-653.857	800.000	-0.039	0.113
-652.843	-152.348	-0.087	-0.006
-651.828	527.908	-0.141	0.339
-650.814	-76.689	0.201	-0.072
-649.799	-200.000	-0.017	0.307
-648.784	-41.347	-0.245	-0.129
-647.770	-107.032	0.187	-0.042
-646.755	123.806	0.164	0.210
-645.741	-45.570	-0.085	-0.043
-644.726	-35.096	0.196	-0.109
-643.711	94.513	0.296	-0.343
-642.697	-170.019	-0.151	0.005
-641.682	125.364	-0.126	-0.162
-640.668	-141.753	-0.246	-0.025
-639.653	116.024	0.268	0.334
-638.638	-46.311	-0.262	-0.131
-637.624	120.789	-0.124	0.158
-636.609	543.306	-0.097	-0.235
-635.595	-69.824	0.273	0.106
-634.580	-200.000	0.009	0.308
-633.565	-150.954	0.183	0.014
-632.551	105.078	-0.183	-0.220
-631.536	330.157	0.091	-0.178
-630.522	120.142	-0.022	-0.028
-629.507	197.398	-0.178	-0.277
-628.492	-200.000	0.082	-0.377
-627.478	26.852	-0.087	0.075
-626.463	427.149	-0.021	-0.046
-625.449	-200.000	-0.001	0.349
-624.434	-184.716	0.109	-0.002
-623.419	-100.334	-0.242	-0.061
-622.405	-200.000	0.005	-0.181
-621.390	-113.526	0.129	0.026
-620.376	295.297	0.086	0.160
-619.361	328.220	0.017	-0.033
-618.346	49.652	0.098	-0.094
-617.332	142.079	0.119	0.161
-616.317	56.222	0.094	0.093
-615.303	192.506	-0.120	-0.185
-614.288	-200.000	-0.048	-0.307
-613.273	158.407	0.197	-0.279
-612.259	-106.349	0.225	-0.051
-611.244	312.314	0.046	-0.087
-610.230	582.364	0.045	-0.113
-609.215	198.274	-0.166	-0.259
-608.201	-131.114	-0.188	-0.025
-607.186	800.000	-0.081	0.280
-606.171	-91.052	0.214	0.063
-605.157	-146.099	-0.135	-0.012
-604.142	308.595	0.143	-0.272
-603.128	254.867	0.187	0.326
-602.113	-200.000	-0.003	-0.212
-601.098	-74.661	-0.345	-0.126
-600.084	-136.832	0.288	0.034
-599.069	800.000	0.001	0.002
-598.055	151.017	-0.212	-0.294
-597.040	-40.647	0.144	0.076
-596.025	-200.000	0.005	0.085
-595.011	-61.480	-0.138	-0.059
-593.996	-137.603	0.036	-0.004
-592.982	-125.958	-0.197	-0.030
-591.967	-200.000	-0.035	0.239
-590.952	-22.821	0.063	0.039
-589.938	558.009	0.031	0.076
-588.923	84.844	-0.136	0.152
-587.909	24.225	-0.173	-0.146
-586.894	800.000	0.105	-0.369
-585.879	800.000	0.050	-0.204
-584.865	167.916	0.048	-0.069
-583.850	202.136	0.120	0.188
-582.836	10.973	0.200	-0.156
-581.821	-60.834	0.087	-0.037
-580.806	491.187	0.166	-0.387
-579.792	-87.320	-0.151	0.047
-578.777	18.761	0.085	0.070
-577.763	800.000	-0.048	0.194
-576.748	-94.874	0.185	-0.051
-575.733	219.508	0.079	0.128
-574.719	-136.914	-0.160	0.019
-573.704	-25.482	0.217	-0.130
-572.690	-119.344	0.174	-0.031
-571.675	16.193	-0.268	-0.215
-570.661	-200.000	0.012	-0.083
-569.646	715.821	-0.062	-0.167
-568.631	357.323	0.032	-0.064
-567.617	-128.777	0.181	-0.026
-566.602	-71.297	-0.063	0.024
-565.588	-200.000	-0.004	-0.176
-564.573	171.886	0.140	-0.205
-563.558	26.243	-0.230	-0.196
-562.544	330.133	-0.104	-0.204
-561.529	-144.548	0.288	0.027
-560.515	-0.596	-0.157	0.114
-559.500	40.064	0.042	-0.038
-558.485	-45.319	-0.215	0.108
-557.471	109.691	0.129	-0.157
-556.456	-67.974	0.100	-0.040
-555.442	49.353	0.197	-0.189
-554.427	137.185	0.119	0.159
-553.412	-200.000	0.020	-0.182
-552.398	800.000	0.070	-0.255
-551.383	800.000	-0.056	0.173
-550.369	-36.855	0.141	0.077
-549.354	95.358	0.152	-0.176
-548.339	42.439	0.070	-0.065
-547.325	-154.719	0.048	0.003
-546.310	201.268	-0.086	0.135
-545.296	-70.441	0.371	0.143
-544.281	-163.460	-0.129	-0.006
-543.266	-104.328	-0.369	-0.087
-542.252	-41.836	0.040	0.021
-541.237	254.557	-0.023	0.040
-540.223	107.610	0.184	0.222
-539.208	68.959	0.281	-0.293
-538.193	508.589	-0.155	-0.367
-537.179	106.589	0.294	0.354
-536.164	-141.649	-0.344	0.035
-535.150	310.996	0.139	-0.265
-534.135	66.203	0.119	-0.123
-533.121	-200.000	0.043	0.195
-532.106	174.668	-0.145	0.213
-531.091	-44.167	-0.206	0.105
-530.077	0.171	0.223	0.161
-529.062	689.661	-0.098	-0.261
-528.048	-200.000	-0.001	0.083
-527.033	-61.210	-0.109	-0.047
-526.018	-2.308	0.197	-0.140
-525.004	12.301	-0.147	0.115
-523.989	94.459	0.162	0.186
-522.975	293.165	-0.042	0.078
-521.960	-97.693	0.218	0.057
-520.945	-148.609	-0.229	-0.019
-519.931	-158.944	-0.082	0.005
-518.916	-85.941	-0.136	-0.043
-517.902	89.949	-0.102	-0.115
-516.887	442.588	-0.140	-0.310
-515.872	456.835	-0.100	-0.225
-514.858	53.073	0.184	-0.179
-513.843	140.894	-0.124	0.166
-512.829	231.774	-0.166	0.277
-511.814	-200.000	0.035	-0.157
-510.799	88.626	-0.136	0.154
-509.785	-41.955	-0.261	-0.136
-508.770	162.132	0.168	0.239
-507.756	-101.327	0.111	-0.027
-506.741	-9.156	-0.221	-0.150
-505.726	-118.673	-0.133	-0.024
-504.712	799.313	0.056	0.156
-503.697	142.799	-0.138	-0.186
-502.683	-35.578	0.068	0.037
-501.668	63.098	-0.193	-0.196
-500.653	-18.963	0.147	0.093
-499.639	221.960	-0.029	-0.047
-498.624	55.548	0.038	0.037
-497.610	-200.000	-0.046	0.223
-496.595	-200.000	-0.019	-0.099
-495.581	258.088	0.142	0.247
-494.566	17.010	0.175	0.140
-493.551	-73.456	-0.128	-0.047
-492.537	-113.686	0.341	-0.067
-491.522	-80.596	-0.123	-0.041
-490.508	118.647	0.181	-0.226
-489.493	231.429	0.077	-0.127
-488.478	-194.279	-0.163	-0.001
-487.464	800.000	0.031	-0.130
-486.449	-112.963	-0.341	0.068
-485.435	153.684	-0.119	0.166
-484.420	-200.000	-0.033	-0.320
-483.405	36.315	0.163	0.145
-482.391	42.418	-0.258	-0.238
-481.376	-200.000	0.051	0.238
-480.362	-88.897	-0.275	0.083
-479.347	-25.702	-0.153	-0.091
-478.332	130.279	0.241	0.313
-477.318	213.495	0.234	0.374
-476.303	-4.087	0.087	0.061
-475.289	-94.605	-0.220	0.061
-474.274	-200.000	-0.005	0.287
-473.259	-141.072	0.287	-0.030
-472.245	-65.864	-0.085	0.034
-471.230	12.563	0.415	0.324
-470.216	-59.512	-0.108	-0.047
-469.201	800.000	0.100	-0.311
-468.186	-200.000	-0.021	0.139
-467.172	800.000	-0.034	0.140
-466.157	-200.000	0.023	0.200
-465.143	218.806	-0.096	0.155
-464.128	-99.078	0.247	-0.063
-463.113	-28.170	-0.186	-0.109
-462.099	82.396	0.071	-0.078
-461.084	-29.460	0.246	-0.143
-460.070	-64.393	0.099	0.041
-459.055	-23.577	-0.302	0.184
-458.040	272.777	-0.026	-0.047
-457.026	800.000	0.111	-0.473
-456.011	-123.318	-0.150	-0.024
-454.997	-132.419	0.162	-0.021
-453.982	269.152	-0.166	-0.296
-452.968	233.577	-0.045	-0.076
-451.953	-161.673	0.206	-0.011
-450.938	43.498	0.179	0.165
-449.924	127.740	0.332	-0.428
-448.909	166.596	0.053	0.076
-447.895	149.662	0.180	-0.246
-446.880	774.560	0.066	0.182
-445.865	-83.845	0.144	0.046
-444.851	800.000	0.095	0.302
-443.836	-94.673	-0.042	0.012
-442.822	-96.650	-0.220	0.059
-441.807	-35.428	-0.369	0.203
-440.792	19.756	0.100	-0.081
-439.778	-200.000	-0.006	0.134
-438.763	36.292	-0.098	-0.087
-437.749	-91.052	0.118	-0.034
-436.734	800.000	-0.045	-0.151
-435.719	-172.849	0.099	0.003
-434.705	-200.000	-0.014	-0.146
-433.690	208.087	0.097	-0.153
-432.676	15.344	-0.218	-0.173
-431.661	238.453	0.077	0.129
-430.646	169.177	0.190	0.274
-429.632	197.958	-0.156	0.242
-428.617	-200.000	-0.077	-0.385
-427.603	43.440	0.299	-0.276
-426.588	-70.438	-0.059	-0.023
-425.573	489.727	0.133	0.308
-424.559	223.617	-0.147	-0.240
-423.544	-152.598	-0.183	-0.013
-422.530	-200.000	0.056	-0.277
-421.515	19.869	-0.133	0.108
-420.500	85.210	-0.124	-0.138
-419.486	-200.000	0.024	-0.123
-418.471	-52.850	0.489	-0.228
-417.457	300.320	-0.029	-0.055
-416.442	-50.456	-0.020	-0.010
-415.428	-45.516	-0.353	-0.177
-414.413	-18.218	0.202	-0.128
-413.398	403.886	-0.069	0.148
-412.384	800.000	-0.062	0.182
-411.369	106.545	-0.067	0.080
-410.355	-63.945	0.549	0.227
-409.340	-121.250	0.205	0.035
-408.325	788.831	-0.076	0.211
-407.311	331.007	-0.178	-0.346
-406.296	69.287	-0.067	-0.069
-405.282	241.571	-0.115	0.194
-404.267	642.849	0.083	0.213
-403.252	393.482	-0.132	0.278
-402.238	19.079	-0.187	0.151
-401.223	38.609	-0.298	-0.268
-400.209	800.000	0.079	0.275
-399.194	-131.456	-0.260	-0.035
-398.179	393.413	0.075	0.159
-397.165	-31.039	-0.320	-0.182
-396.150	14.867	-0.314	0.248
-395.136	662.636	-0.150	-0.390
-394.121	-1.578	0.118	0.084
-393.106	-200.000	0.018	0.163
-392.092	800.000	-0.126	0.492
-391.077	-107.122	0.122	-0.027
-390.063	-65.354	-0.351	0.143
-389.048	455.624	-0.129	-0.290
-388.033	-179.329	0.113	0.003
-387.019	800.000	0.061	-0.180
-386.004	388.036	-0.001	-0.003
-384.990	800.000	-0.109	0.319
-383.975	800.000	0.020	-0.082
-382.960	-69.031	0.192	-0.075
-381.946	20.210	0.118	0.096
-380.931	65.642	-0.274	-0.280
-379.917	-92.384	0.006	-0.002
-378.902	-127.690	0.293	-0.043
-377.888	-200.000	-0.052	0.239
-376.873	594.275	0.109	0.271
-375.858	255.147	-0.154	0.266
-374.844	-200.000	-0.033	0.313
-373.829	5.066	0.217	0.162
-372.815	385.594	0.056	-0.116
-371.800	352.925	0.092	-0.184
-370.785	25.950	-0.086	0.072
-369.771	-94.835	-0.079	0.022
-368.756	-25.915	-0.069	0.041
-367.742	800.000	-0.064	0.189
-366.727	800.000	0.040	0.164
-365.712	-95.499	0.078	0.021
-364.698	403.927	-0.121	0.256
-363.683	146.047	0.214	0.290
-362.669	370.153	-0.074	0.152
-361.654	-123.611	0.200	0.032
-360.639	-200.000	0.091	0.459
-359.625	-176.366	-0.215	0.006
-358.610	-41.596	-0.204	-0.106
-357.596	203.368	0.153	-0.239
-356.581	-35.512	0.200	0.109
-355.566	186.760	-0.130	0.195
-354.552	-169.822	-0.012	0.000
-353.537	-107.596	-0.235	0.052
-352.523	780.415	-0.150	0.413
-351.508	11.651	-0.126	-0.097
-350.493	-36.998	0.131	-0.071
-349.479	316.693	0.118	0.225
-348.464	9.631	0.110	-0.084
-347.450	78.333	0.118	0.127
-346.435	-52.592	0.295	0.137
-345.420	111.276	-0.287	-0.349
-344.406	-148.808	0.147	-0.012
-343.391	-91.687	0.235	0.067
-342.377	190.947	0.139	-0.211
-341.362	-17.218	0.329	-0.209
-340.348	-58.403	-0.083	0.036
-339.333	159.263	0.248	0.347
-338.318	-21.642	0.184	0.113
-337.304	-39.794	-0.262	0.138
-336.289	-5.594	0.080	0.056
-335.275	-14.549	-0.110	-0.071
-334.260	526.351	-0.073	-0.174
-333.245	-123.199	0.058	-0.009
-332.231	307.576	0.192	0.360
-331.216	5.564	0.302	-0.225
-330.202	322.764	0.035	-0.068
-329.187	731.159	0.094	0.252
-328.172	-64.485	0.029	-0.012
-327.158	-168.664	-0.147	-0.006
-326.143	-71.152	0.092	0.035
-325.129	-75.357	0.045	0.016
-324.114	-200.000	-0.007	-0.144
-323.099	123.872	0.082	0.104
-322.085	-184.495	0.371	0.006
-321.070	64.207	-0.183	0.186
-320.056	800.000	0.051	0.224
-319.041	-200.000	0.029	-0.173
-318.026	-48.096	0.058	-0.028
-317.012	795.565	0.120	-0.334
-315.997	-57.023	0.262	0.116
-314.983	21.366	0.294	-0.241
-313.968	578.814	-0.060	-0.149
-312.953	123.472	-0.130	0.164
-311.939	147.022	0.073	0.098
-310.924	800.000	-0.005	-0.020
-309.910	-200.000	0.011	-0.318
-308.895	-55.336	0.077	-0.035
-307.880	636.636	0.019	0.048
-306.866	56.589	0.093	-0.092
-305.851	52.149	-0.060	0.058
-304.837	-111.169	0.071	0.015
-303.822	194.766	-0.072	0.111
-302.807	-47.816	-0.192	-0.094
-301.793	93.031	-0.113	-0.128
-300.778	-200.000	-0.011	0.274
-299.764	204.269	-0.163	-0.254
-298.749	-200.000	-0.010	0.073
-297.735	-200.000	0.069	-0.320
-296.720	-200.000	0.003	-0.132
-295.705	77.977	-0.025	0.027
-294.691	18.773	-0.243	0.196
-293.676	-75.620	-0.363	-0.130
-292.662	425.208	-0.136	0.294
-291.647	43.228	0.117	0.108
-290.632	-200.000	0.044	-0.284
-289.618	-19.859	0.145	0.090
-288.603	576.088	-0.100	0.247
-287.589	175.704	-0.246	-0.359
-286.574	766.876	-0.067	0.184
-285.559	161.336	-0.146	-0.205
-284.545	62.313	-0.188	0.189
-283.530	77.332	-0.084	0.090
-282.516	0.965	0.231	-0.167
-281.501	-200.000	-0.007	-0.128
-280.486	-200.000	-0.012	-0.161
-279.472	34.071	-0.084	-0.074
-278.457	-200.000	0.009	-0.105
-277.443	-141.234	0.172	0.018
-276.428	-200.000	0.011	0.093
-275.413	-10.164	-0.104	0.069
-274.399	-88.868	0.289	0.086
-273.384	83.223	0.206	-0.226
-272.370	800.000	0.095	-0.280
-271.355	46.561	-0.162	0.151
-270.340	-13.179	-0.199	0.130
-269.326	56.152	-0.305	0.298
-268.311	800.000	0.029	0.090
-267.297	-200.000	0.008	0.308
-266.282	-63.825	0.152	-0.063
-265.267	-200.000	0.033	-0.160
-264.253	42.628	0.278	-0.255
-263.238	-139.773	-0.599	0.064
-262.224	-147.375	0.242	-0.021
-261.209	-200.000	0.039	-0.294
-260.195	-200.000	0.019	-0.196
-259.180	122.953	-0.092	0.116
-258.165	98.497	-0.232	-0.269
-257.151	800.000	0.053	0.217
-256.136	800.000	0.064	-0.222
-255.122	-72.769	0.205	0.076
-254.107	717.277	-0.128	0.341
-253.092	-77.476	-0.379	-0.132
-252.078	-44.034	-0.140	-0.071
-251.063	218.678	0.165	-0.264
-250.049	-30.670	0.121	-0.069
-249.034	-93.347	-0.138	-0.039
-248.019	-58.773	0.116	0.050
-247.005	487.445	-0.041	0.093
-245.990	-89.570	-0.124	0.037
-244.976	-200.000	-0.030	0.134
-243.961	303.562	0.006	-0.012
-242.946	-41.417	-0.037	0.019
-241.932	-63.409	-0.231	0.096
-240.917	800.000	-0.043	0.185
-239.903	-77.052	0.244	-0.086
-238.888	-200.000	0.257	-0.000
-237.873	-106.084	-0.131	-0.030
-236.859	-200.000	-0.038	0.283
-235.844	-144.622	-0.255	0.024
-234.830	800.000	-0.041	0.156
-233.815	-105.581	-0.098	-0.022
-232.800	32.878	0.173	-0.150
-231.786	-133.445	0.098	0.012
-230.771	-200.000	0.054	0.390
-229.757	-200.000	-0.115	0.000
-228.742	-200.000	-0.018	0.147
-227.727	-200.000	0.045	-0.257
-226.713	6.950	0.096	0.071
-225.698	80.094	-0.187	0.202
-224.684	759.458	0.123	0.335
-223.669	52.302	-0.100	0.096
-222.655	91.456	-0.246	0.278
-221.640	-200.000	-0.003	0.019
-220.625	-172.646	0.193	-0.006
-219.611	-147.028	0.141	-0.012
-218.596	322.685	-0.143	-0.274
-217.582	128.381	0.097	0.124
-216.567	-37.624	-0.237	0.127
-215.552	-42.163	-0.207	-0.106
-214.538	-200.000	-0.011	0.305
-213.523	-40.761	-0.145	0.075
-212.509	8.860	0.114	-0.086
-211.494	143.048	0.324	-0.432
-210.479	684.255	0.073	-0.190
-209.465	-112.513	-0.091	0.018
-208.450	-3.959	-0.133	-0.092
-207.436	244.246	0.112	-0.189
-206.421	275.348	-0.027	-0.047
-205.406	-200.000	-0.038	-0.300
-204.392	21.844	-0.336	0.275
-203.377	-200.000	-0.027	-0.124
-202.363	499.964	0.065	0.149
-201.348	-200.000	0.045	-0.257
-200.333	800.000	-0.059	0.206
-199.319	118.828	0.071	-0.088
-198.304	-4.555	0.223	0.154
-197.290	-200.000	0.064	0.287
-196.275	149.361	-0.295	0.400
-195.260	800.000	-0.050	-0.186
-194.246	-4.266	0.172	0.119
-193.231	682.210	-0.038	0.100
-192.217	455.694	-0.130	0.290
-191.202	68.208	0.345	-0.354
-190.187	-6.154	0.238	-0.163
-189.173	-200.000	-0.025	0.271
-188.158	-200.000	-0.031	-0.236
-187.144	390.307	-0.015	-0.031
-186.129	-34.457	0.174	0.096
-185.114	-73.109	-0.143	-0.053
-184.100	183.345	0.070	0.104
-183.085	-200.000	0.013	-0.165
-182.071	-200.000	0.057	-0.478
-181.056	143.803	0.311	-0.415
-180.042	-48.907	-0.177	0.085
-179.027	433.177	0.087	0.189
-178.012	123.752	-0.237	-0.298
-176.998	800.000	-0.043	0.135
-175.983	105.929	0.251	0.297
-174.969	557.535	-0.061	-0.147
-173.954	15.316	-0.149	-0.117
-172.939	-41.380	-0.254	-0.131
-171.925	-29.409	0.066	0.038
-170.910	72.464	-0.222	-0.232
-169.896	14.900	0.121	0.095
-168.881	392.971	0.054	0.113
-167.866	492.596	-0.079	0.182
-166.852	9.545	-0.388	0.294
-165.837	-200.000	0.027	-0.219
-164.823	-110.475	-0.183	0.038
-163.808	-31.606	-0.154	-0.087
-162.793	3.244	-0.143	-0.104
-161.779	-119.938	-0.265	-0.045
-160.764	-98.546	-0.269	-0.069
-159.750	84.859	0.106	0.117
-158.735	311.894	-0.245	0.460
-157.720	-164.849	-0.135	0.006
-156.706	39.183	-0.191	0.171
-155.691	-119.850	0.315	0.054
-154.677	48.851	-0.187	0.175
-153.662	-160.707	0.480	0.025
-152.647	44.277	-0.165	-0.152
-151.633	-94.212	0.227	0.062
-150.618	-23.195	0.318	0.191
-149.604	-31.031	0.310	-0.175
-148.589	-1.938	-0.149	0.105
-147.574	-63.352	-0.069	-0.028
-146.560	20.386	0.045	0.036
-145.545	-59.885	0.222	0.095
-144.531	-125.402	-0.050	0.008
-143.516	-176.701	0.052	0.001
-142.502	-118.196	0.403	0.072
-141.487	-26.134	0.092	0.054
-140.472	-166.089	0.192	0.008
-139.458	193.078	-0.132	0.199
-138.443	-200.000	0.050	0.323
-137.429	-9.852	-0.253	0.168
-136.414	-200.000	-0.001	-0.207
-135.399	-144.140	0.314	-0.029
-134.385	126.274	-0.028	-0.036
-133.370	-99.229	-0.317	0.080
-132.356	-160.001	-0.046	-0.003
-131.341	800.000	0.041	0.154
-130.326	111.519	0.163	0.196
-129.312	251.748	0.018	0.031
-128.297	-200.000	-0.078	0.345
-127.283	186.292	0.179	0.266
-126.268	-200.000	0.044	-0.203
-125.253	671.635	0.067	0.173
-124.239	25.247	-0.354	0.294
-123.224	-70.285	-0.021	-0.008
-122.210	658.406	-0.014	-0.037
-121.195	115.763	-0.124	0.152
-120.180	36.239	0.367	0.323
