DTS Sentinel unit serial number:	SN413079Multiplexer serial number:	ORYXHardware model number:	OX4-SRSoftware version number:	ORYX F/W v4.00 Oryx Data Collector v3.7.2.0data status	okinstallation	princeton_trtdifferential loss correction	single-endedforward channel	channel 4reverse channel	N/Adate	2019/09/16time	14:25:35forward acquisition time	60.00reverse acquisition time	0.00gamma	496.2192k internal	0.2286k external	0.2286temperature offset calibration	0.9939default loss term (dB/km)	0.3790temperature slope calibration	1.0000multiplexer offset coefficient	1.0000multiplexer slope coefficient	1.0000fibre end	0.00T internal ref (°C)	42.00T ext. ref 1 (°C)	14.21T ext. ref 2 (°C)	36.28length (m)	temperature (°C)	Stokes	anti-Stokes-747.200	-200.000	0.005	-0.183
-746.185	-200.000	-0.032	0.186
-745.171	800.000	0.032	-0.116
-744.156	-200.000	0.053	0.242
-743.142	255.719	-0.096	0.168
-742.127	-200.000	-0.064	0.592
-741.112	-48.417	-0.294	0.145
-740.098	200.386	0.108	0.170
-739.083	-2.619	-0.192	-0.138
-738.069	259.286	-0.153	-0.271
-737.054	-88.944	0.213	-0.065
-736.039	800.000	-0.031	0.136
-735.025	331.220	0.114	0.226
-734.010	-200.000	-0.030	-0.191
-732.996	-200.000	-0.077	-0.383
-731.981	-200.000	-0.047	0.283
-730.966	-104.623	0.203	0.048
-729.952	-200.000	-0.006	-0.281
-728.937	-113.477	-0.151	0.030
-727.923	-82.584	0.194	0.065
-726.908	89.696	-0.099	0.113
-725.894	-140.455	-0.198	0.021
-724.879	-129.424	-0.289	-0.041
-723.864	134.205	0.029	-0.039
-722.850	224.245	0.063	0.105
-721.835	-100.816	-0.177	0.045
-720.821	-176.175	-0.143	0.004
-719.806	800.000	-0.062	-0.227
-718.791	322.459	-0.184	-0.358
-717.777	-90.900	-0.380	-0.112
-716.762	-100.687	-0.205	0.052
-715.748	191.134	-0.068	-0.106
-714.733	-80.677	0.094	0.032
-713.718	800.000	0.064	0.259
-712.704	-141.223	-0.318	0.033
-711.689	800.000	-0.056	-0.250
-710.675	-200.000	0.030	0.175
-709.660	-17.403	0.338	-0.218
-708.645	-51.740	-0.204	0.098
-707.631	168.478	0.220	-0.321
-706.616	-200.000	-0.016	-0.207
-705.602	55.889	0.282	-0.280
-704.587	-68.302	0.167	0.066
-703.572	-200.000	-0.006	0.026
-702.558	800.000	0.109	0.307
-701.543	-200.000	0.035	-0.256
-700.529	-200.000	0.010	-0.310
-699.514	-97.301	0.028	0.007
-698.499	93.737	-0.093	-0.107
-697.485	94.315	-0.142	-0.165
-696.470	-78.775	0.102	-0.036
-695.456	-116.452	-0.372	-0.070
-694.441	104.546	0.143	-0.173
-693.426	-5.058	0.112	0.079
-692.412	-65.222	-0.122	-0.050
-691.397	800.000	0.091	0.289
-690.383	87.094	-0.122	0.138
-689.368	-138.826	0.098	0.011
-688.354	98.615	0.073	-0.086
-687.339	170.672	0.206	-0.302
-686.324	-200.000	-0.003	-0.041
-685.310	-22.309	-0.090	0.056
-684.295	-200.000	-0.020	-0.230
-683.281	-7.973	0.182	-0.126
-682.266	-152.914	-0.056	-0.004
-681.251	12.429	0.089	-0.070
-680.237	278.672	-0.049	0.090
-679.222	213.282	-0.160	0.259
-678.208	204.594	-0.190	-0.302
-677.193	84.470	-0.103	0.115
-676.178	800.000	-0.065	-0.232
-675.164	-76.625	-0.267	-0.096
-674.149	53.588	-0.221	-0.217
-673.135	-189.041	0.355	0.004
-672.120	-200.000	0.002	0.198
-671.105	-168.375	-0.300	-0.012
-670.091	800.000	0.053	-0.177
-669.076	800.000	-0.055	-0.164
-668.062	4.893	-0.328	-0.247
-667.047	161.168	0.186	-0.266
-666.032	120.589	-0.053	0.067
-665.018	-200.000	0.213	-0.001
-664.003	-28.074	0.306	0.181
-662.989	136.043	-0.045	0.061
-661.974	96.198	0.192	0.224
-660.959	1.784	-0.286	0.211
-659.945	608.414	-0.048	-0.122
-658.930	-200.000	0.038	-0.202
-657.916	800.000	-0.065	0.273
-656.901	-200.000	0.002	0.096
-655.886	102.394	0.122	-0.145
-654.872	15.703	-0.212	-0.170
-653.857	233.997	0.079	-0.133
-652.843	-55.024	-0.049	-0.023
-651.828	245.739	0.042	-0.073
-650.814	800.000	0.075	-0.215
-649.799	-75.070	-0.283	0.103
-648.784	-200.000	0.018	-0.118
-647.770	800.000	0.117	-0.346
-646.755	-200.000	-0.047	-0.247
-645.741	27.637	-0.088	0.076
-644.726	-140.236	0.289	0.031
-643.711	800.000	-0.101	-0.323
-642.697	-113.650	0.219	-0.044
-641.682	264.077	0.074	-0.131
-640.668	-33.605	0.077	-0.043
-639.653	34.968	-0.273	0.245
-638.638	-86.138	-0.094	0.030
-637.624	14.068	0.171	0.136
-636.609	-127.507	0.334	0.050
-635.595	112.004	-0.024	0.030
-634.580	245.541	0.097	0.168
-633.565	51.717	0.126	-0.123
-632.551	-26.140	0.136	-0.082
-631.536	-39.790	-0.335	0.179
-630.522	800.000	-0.080	-0.279
-629.507	-79.929	-0.413	-0.142
-628.492	-200.000	0.057	-0.279
-627.478	47.387	-0.215	-0.205
-626.463	141.002	-0.065	0.088
-625.449	50.004	0.143	-0.138
-624.434	-8.837	-0.246	0.168
-623.419	757.430	-0.135	-0.373
-622.405	800.000	0.076	-0.235
-621.390	78.903	0.155	-0.169
-620.376	390.234	0.067	0.142
-619.361	-200.000	0.002	0.359
-618.346	-200.000	-0.007	0.171
-617.332	800.000	-0.109	-0.364
-616.317	-81.830	-0.163	-0.054
-615.303	204.053	0.242	-0.383
-614.288	-129.709	0.129	-0.018
-613.273	320.659	-0.132	-0.256
-612.259	-160.330	-0.228	-0.013
-611.244	-186.751	0.498	-0.007
-610.230	-200.000	-0.008	0.231
-609.215	5.476	0.149	-0.113
-608.201	-97.783	0.113	-0.030
-607.186	-47.096	0.212	-0.106
-606.171	-33.518	-0.365	0.206
-605.157	547.087	0.034	-0.082
-604.142	321.729	-0.171	-0.332
-603.128	-62.048	-0.221	-0.094
-602.113	106.075	-0.154	-0.186
-601.098	-74.280	-0.217	0.080
-600.084	-200.000	-0.024	-0.200
-599.069	-95.064	-0.356	-0.098
-598.055	376.655	-0.053	0.110
-597.040	-200.000	-0.006	0.390
-596.025	-86.098	0.098	0.031
-595.011	28.230	-0.211	-0.182
-593.996	112.325	-0.266	-0.328
-592.982	192.756	-0.087	-0.133
-591.967	-2.522	0.514	-0.368
-590.952	-111.712	-0.108	0.022
-589.938	79.299	0.235	0.257
-588.923	-72.227	-0.274	-0.104
-587.909	800.000	0.072	-0.250
-586.894	-58.695	0.290	0.128
-585.879	23.671	-0.175	-0.147
-584.865	63.507	0.115	-0.117
-583.850	54.690	0.200	0.197
-582.836	243.139	-0.081	0.138
-581.821	-2.531	-0.159	-0.113
-580.806	139.574	-0.176	-0.236
-579.792	-47.009	-0.090	0.045
-578.777	519.893	0.165	-0.393
-577.763	-200.000	0.034	-0.250
-576.748	-29.751	-0.310	0.180
-575.733	50.634	-0.125	-0.121
-574.719	81.229	-0.143	-0.157
-573.704	-9.272	-0.106	-0.072
-572.690	-179.130	-0.235	-0.005
-571.675	499.642	-0.103	0.242
-570.661	-62.716	0.141	-0.059
-569.646	-175.913	0.162	-0.004
-568.631	121.209	0.130	0.165
-567.617	-200.000	0.013	-0.264
-566.602	-90.342	-0.139	-0.041
-565.588	18.859	0.116	-0.095
-564.573	-6.405	0.182	0.126
-563.558	-64.642	-0.285	0.118
-562.544	-136.786	0.165	-0.019
-561.529	-104.807	-0.338	0.079
-560.515	-175.057	-0.109	0.003
-559.500	-200.000	-0.029	-0.159
-558.485	34.625	0.204	-0.182
-557.471	-200.000	-0.028	-0.164
-556.456	-200.000	0.010	-0.092
-555.442	-69.783	-0.250	-0.097
-554.427	-200.000	0.057	0.347
-553.412	-9.055	-0.231	-0.157
-552.398	-109.884	-0.245	0.052
-551.383	-200.000	-0.031	0.217
-550.369	233.260	0.113	-0.189
-549.354	-200.000	-0.001	0.217
-548.339	-71.237	0.210	-0.080
-547.325	800.000	0.056	0.191
-546.310	-56.906	-0.463	0.208
-545.296	-40.888	-0.264	0.139
-544.281	237.213	-0.141	0.239
-543.266	-89.705	0.147	-0.044
-542.252	800.000	-0.028	-0.085
-541.237	-74.641	0.316	-0.116
-540.223	45.645	0.310	0.292
-539.208	-120.308	-0.201	0.035
-538.193	242.038	-0.140	0.238
-537.179	118.426	-0.048	0.060
-536.164	33.513	-0.089	-0.079
-535.150	-122.846	0.096	0.016
-534.135	-200.000	-0.245	-0.000
-533.121	-200.000	-0.040	0.190
-532.106	527.334	0.142	0.340
-531.091	646.938	-0.015	0.038
-530.077	-100.071	-0.391	0.099
-529.062	-102.151	0.088	-0.021
-528.048	173.810	0.050	-0.074
-527.033	800.000	0.068	0.238
-526.018	186.571	0.005	-0.007
-525.004	189.457	-0.158	-0.240
-523.989	800.000	-0.080	0.263
-522.975	-15.618	-0.097	0.063
-521.960	108.297	0.078	0.094
-520.945	489.402	0.147	0.342
-519.931	37.948	0.033	-0.029
-518.916	-70.430	0.396	0.153
-517.902	109.390	0.208	-0.253
-516.887	442.682	0.050	0.110
-515.872	-200.000	-0.047	-0.246
-514.858	-110.291	-0.279	-0.059
-513.843	-200.000	0.043	-0.362
-512.829	-200.000	0.013	-0.094
-511.814	86.288	-0.048	-0.054
-510.799	-58.397	0.068	0.030
-509.785	-86.460	-0.062	0.019
-508.770	-182.709	-0.252	0.005
-507.756	476.912	-0.030	0.069
-506.741	615.205	0.040	-0.102
-505.726	-24.483	0.235	0.142
-504.712	115.065	0.090	0.112
-503.697	800.000	-0.076	0.264
-502.683	-109.822	0.292	-0.062
-501.668	173.658	0.077	0.114
-500.653	-72.711	0.174	0.065
-499.639	-116.466	0.129	0.024
-498.624	-200.000	-0.012	-0.086
-497.610	-50.321	-0.206	-0.099
-496.595	30.182	-0.234	0.203
-495.581	800.000	-0.114	0.333
-494.566	-200.000	0.000	0.314
-493.551	-79.097	-0.091	0.031
-492.537	800.000	0.038	-0.149
-491.522	28.386	0.258	0.221
-490.508	140.991	-0.167	0.224
-489.493	17.540	-0.114	-0.092
-488.478	-56.741	0.139	-0.062
-487.464	385.838	-0.108	0.226
-486.449	-164.007	-0.326	-0.015
-485.435	-92.432	-0.063	-0.018
-484.420	-200.000	0.038	0.470
-483.405	-81.450	-0.069	-0.023
-482.391	-92.784	-0.057	0.016
-481.376	255.450	0.139	0.241
-480.362	-69.146	-0.229	0.090
-479.347	-64.258	-0.096	0.040
-478.332	800.000	-0.085	-0.290
-477.318	790.917	-0.092	0.258
-476.303	-100.579	0.199	-0.050
-475.289	15.807	0.159	0.127
-474.274	238.793	0.134	0.225
-473.259	800.000	-0.046	0.190
-472.245	-61.871	-0.173	0.074
-471.230	-86.170	-0.054	0.017
-470.216	-16.452	-0.077	0.049
-469.201	96.193	0.143	-0.166
-468.186	-89.135	-0.219	-0.066
-467.172	-96.813	0.419	-0.112
-466.157	245.542	0.080	-0.136
-465.143	207.916	-0.211	-0.334
-464.128	-200.000	-0.007	0.036
-463.113	454.272	-0.034	0.075
-462.099	-86.664	-0.231	0.072
-461.084	11.098	-0.252	0.195
-460.070	172.102	0.146	-0.212
-459.055	200.441	0.251	-0.391
-458.040	-101.670	-0.397	-0.098
-457.026	720.534	0.051	0.139
-456.011	-200.000	0.040	-0.224
-454.997	27.637	-0.030	0.025
-453.982	58.022	0.305	0.303
-452.968	-166.930	-0.165	-0.007
-451.953	-200.000	0.013	-0.060
-450.938	-200.000	-0.154	-0.001
-449.924	-83.650	-0.129	0.042
-448.909	-4.961	-0.052	0.036
-447.895	-196.851	0.192	-0.001
-446.880	-24.572	0.048	0.029
-445.865	42.257	-0.441	0.406
-444.851	-9.844	-0.294	-0.198
-443.836	551.230	-0.128	0.313
-442.822	-200.000	-0.025	-0.343
-441.807	249.552	0.028	0.048
-440.792	800.000	0.123	-0.397
-439.778	-81.672	-0.046	-0.015
-438.763	71.548	-0.282	0.297
-437.749	800.000	-0.099	-0.312
-436.734	202.788	-0.121	-0.189
-435.719	550.766	-0.017	-0.042
-434.705	145.998	-0.097	-0.132
-433.690	-200.000	0.006	-0.379
-432.676	-102.681	-0.321	-0.078
-431.661	-82.995	-0.416	0.136
-430.646	46.216	0.110	0.104
-429.632	305.509	-0.104	-0.196
-428.617	75.533	0.250	-0.267
-427.603	149.839	0.169	-0.233
-426.588	-99.312	0.171	-0.044
-425.573	-154.785	-0.096	0.006
-424.559	-4.959	-0.238	0.166
-423.544	-200.000	0.004	0.100
-422.530	40.047	0.161	-0.146
-421.515	568.737	0.063	-0.156
-420.500	-89.488	-0.212	0.063
-419.486	102.432	-0.131	0.155
-418.471	-71.507	-0.204	0.077
-417.457	-200.000	-0.014	0.126
-416.442	-200.000	-0.058	0.281
-415.428	-200.000	-0.055	0.426
-414.413	-148.313	-0.290	-0.024
-413.398	34.349	-0.080	-0.071
-412.384	-156.099	-0.244	-0.016
-411.369	-200.000	-0.018	-0.196
-410.355	16.472	0.150	0.120
-409.340	96.710	0.070	-0.082
-408.325	591.298	0.028	-0.069
-407.311	-74.417	0.285	0.104
-406.296	800.000	-0.088	-0.379
-405.282	121.614	0.142	-0.179
-404.267	-76.378	0.076	-0.027
-403.252	-72.844	0.105	-0.039
-402.238	-18.359	0.076	-0.048
-401.223	3.102	0.161	0.118
-400.209	800.000	-0.119	0.355
-399.194	303.995	0.163	-0.306
-398.179	43.135	0.224	-0.207
-397.165	333.530	-0.056	-0.111
-396.150	-200.000	0.040	0.340
-395.136	596.148	-0.143	0.358
-394.121	45.325	-0.076	-0.071
-393.106	-35.731	0.182	0.100
-392.092	-53.971	0.153	0.070
-391.077	-53.637	-0.543	0.251
-390.063	-88.196	0.434	-0.132
-389.048	800.000	-0.079	-0.241
-388.033	268.331	-0.086	0.152
-387.019	800.000	-0.092	0.292
-386.004	-21.699	-0.075	-0.046
-384.990	37.187	-0.334	-0.299
-383.975	-116.148	0.382	0.072
-382.960	-200.000	-0.022	0.216
-381.946	59.840	-0.272	0.272
-380.931	-200.000	0.034	0.367
-379.917	131.342	0.035	0.046
-378.902	31.795	-0.061	-0.053
-377.888	-200.000	0.038	-0.240
-376.873	26.078	0.146	-0.123
-375.858	-200.000	-0.007	-0.223
-374.844	106.779	-0.059	-0.070
-373.829	-66.806	-0.172	0.069
-372.815	-127.459	0.254	-0.037
-371.800	59.407	-0.249	-0.248
-370.785	-134.328	0.131	0.016
-369.771	-120.133	-0.435	-0.075
-368.756	-200.000	0.003	-0.169
-367.742	-142.416	-0.119	-0.012
-366.727	698.255	-0.094	-0.250
-365.712	800.000	0.073	0.211
-364.698	-155.766	0.361	0.023
-363.683	-200.000	-0.407	0.001
-362.669	800.000	-0.011	0.047
-361.654	-125.746	0.163	0.025
-360.639	76.718	-0.029	0.031
-359.625	7.306	-0.088	0.067
-358.610	-88.142	0.169	-0.051
-357.596	2.807	0.116	-0.085
-356.581	800.000	-0.043	-0.142
-355.566	-89.412	0.433	0.129
-354.552	547.916	0.082	0.198
-353.537	-169.008	0.283	0.011
-352.523	-20.211	0.208	-0.130
-351.508	-106.670	0.207	0.046
-350.493	205.701	0.111	0.174
-349.479	178.693	-0.124	-0.183
-348.464	433.557	-0.085	-0.186
-347.450	127.471	0.104	-0.133
-346.435	800.000	0.062	0.181
-345.420	800.000	0.023	0.068
-344.406	-139.425	0.483	0.052
-343.391	-10.750	0.055	0.036
-342.377	185.239	0.282	-0.423
-341.362	84.913	-0.061	0.068
-340.348	-57.935	-0.301	0.133
-339.333	-14.481	0.184	0.120
-338.318	-77.977	-0.166	0.058
-337.304	-200.000	0.022	0.284
-336.289	110.697	0.091	-0.111
-335.275	105.588	-0.098	-0.117
-334.260	51.287	-0.233	0.223
-333.245	-81.781	-0.238	-0.079
-332.231	142.355	0.202	-0.271
-331.216	-37.880	-0.183	0.098
-330.202	82.207	0.344	0.376
-329.187	78.644	0.105	-0.113
-328.172	800.000	-0.061	-0.171
-327.158	39.938	0.174	0.157
-326.143	-63.198	0.177	0.074
-325.129	339.763	0.119	0.234
-324.114	-200.000	0.002	-0.273
-323.099	68.442	-0.214	0.221
-322.085	479.861	-0.211	-0.483
-321.070	33.355	-0.027	-0.024
-320.056	-77.382	0.182	0.064
-319.041	33.453	-0.144	0.126
-318.026	287.759	-0.076	0.139
-317.012	-200.000	0.012	0.233
-315.997	-134.172	0.348	0.043
-314.983	88.160	-0.169	-0.189
-313.968	-59.482	-0.166	-0.072
-312.953	800.000	-0.069	0.224
-311.939	127.805	0.238	0.306
-310.924	223.832	0.146	-0.238
-309.910	-180.456	-0.272	0.006
-308.895	-120.044	0.154	0.027
-307.880	-30.519	-0.126	0.072
-306.866	-76.093	0.040	0.014
-305.851	95.713	0.060	0.069
-304.837	-200.000	0.038	-0.195
-303.822	-108.113	0.034	-0.008
-302.807	800.000	-0.028	-0.100
-301.793	-0.194	-0.111	0.080
-300.778	-200.000	0.003	0.134
-299.764	35.227	-0.147	-0.130
-298.749	-200.000	-0.031	0.153
-297.735	248.839	0.177	0.303
-296.720	-42.781	0.045	0.023
-295.705	301.748	0.027	0.051
-294.691	-99.260	-0.149	0.038
-293.676	800.000	0.026	0.091
-292.662	-22.537	0.105	0.064
-291.647	60.506	-0.243	-0.243
-290.632	433.551	0.028	0.061
-289.618	-200.000	-0.008	-0.074
-288.603	-70.800	0.442	0.168
-287.589	216.772	-0.082	-0.132
-286.574	151.943	0.158	0.217
-285.559	-200.000	0.053	0.377
-284.545	-108.497	-0.205	-0.045
-283.530	42.089	0.170	0.155
-282.516	794.637	-0.060	0.166
-281.501	135.496	-0.284	-0.372
-280.486	449.697	0.066	0.148
-279.472	72.000	0.049	-0.051
-278.457	480.697	-0.051	0.116
-277.443	-155.321	0.133	-0.009
-276.428	-73.407	-0.104	-0.038
-275.413	219.164	0.034	0.055
-274.399	-200.000	0.015	0.083
-273.384	87.152	0.048	-0.054
-272.370	42.271	0.333	-0.305
-271.355	436.442	-0.158	0.346
-270.340	0.201	-0.335	-0.240
-269.326	-127.208	0.211	0.031
-268.311	-176.978	-0.192	0.005
-267.297	-144.540	0.209	0.019
-266.282	220.888	0.273	-0.441
-265.267	800.000	0.061	0.180
-264.253	-8.849	0.405	0.273
-263.238	-200.000	-0.027	0.239
-262.224	-144.267	-0.335	0.031
-261.209	800.000	-0.062	-0.185
-260.195	-114.454	-0.288	-0.056
-259.180	-4.759	0.306	0.212
-258.165	170.775	0.071	-0.103
-257.151	800.000	0.045	0.127
-256.136	-200.000	0.071	0.344
-255.122	-200.000	0.016	0.339
-254.107	-200.000	-0.002	-0.119
-253.092	210.674	-0.122	-0.193
-252.078	-96.520	0.107	-0.029
-251.063	-200.000	0.036	-0.194
-250.049	238.018	0.028	0.046
-249.034	137.092	-0.228	-0.300
-248.019	221.593	0.104	-0.168
-247.005	177.372	-0.230	0.338
-245.990	410.699	0.063	-0.134
-244.976	64.151	-0.144	-0.146
-243.961	800.000	0.099	0.320
-242.946	-95.458	0.061	0.016
-241.932	-200.000	0.040	0.390
-240.917	-200.000	-0.024	0.216
-239.903	68.787	-0.041	0.042
-238.888	-95.802	0.572	0.154
-237.873	-60.544	-0.059	-0.025
-236.859	-200.000	-0.028	-0.273
-235.844	-162.739	0.223	0.011
-234.830	23.689	-0.163	-0.135
-233.815	654.013	0.044	0.115
-232.800	142.307	-0.077	-0.102
-231.786	-49.547	0.134	-0.064
-230.771	131.204	0.045	-0.058
-229.757	800.000	0.066	0.261
-228.742	39.480	0.261	0.236
-227.727	-200.000	0.004	-0.048
-226.713	169.234	-0.160	0.229
-225.698	800.000	-0.062	-0.262
-224.684	-109.169	0.148	-0.032
-223.669	-18.082	0.280	0.176
-222.655	286.249	0.046	0.083
-221.640	800.000	-0.032	-0.123
-220.625	-138.244	0.149	0.017
-219.611	-68.275	0.246	-0.096
-218.596	-60.771	-0.088	0.037
-217.582	800.000	0.122	0.435
-216.567	322.312	0.196	-0.376
-215.552	215.609	0.145	-0.231
-214.538	-114.056	-0.057	-0.011
-213.523	-173.476	0.270	-0.008
-212.509	-200.000	-0.019	-0.098
-211.494	-88.120	-0.271	0.082
-210.479	310.877	0.008	-0.016
-209.465	-111.521	0.166	-0.034
-208.450	73.382	-0.073	-0.076
-207.436	197.292	-0.102	0.157
-206.421	-143.311	0.275	-0.027
-205.406	-89.499	-0.069	0.020
-204.392	7.091	0.023	-0.017
-203.377	-163.086	0.205	0.010
-202.363	-200.000	0.009	0.293
-201.348	-159.711	0.334	0.019
-200.333	-61.071	-0.334	-0.142
-199.319	-200.000	-0.024	-0.323
-198.304	6.089	-0.137	-0.102
-197.290	-32.520	-0.358	0.200
-196.275	-163.747	-0.215	0.010
-195.260	143.948	0.154	0.206
-194.246	73.075	0.193	0.203
-193.231	-50.470	0.058	0.027
-192.217	33.818	0.166	0.145
-191.202	304.803	-0.111	-0.208
-190.187	17.669	-0.228	0.182
-189.173	46.173	-0.218	-0.203
-188.158	172.590	0.052	-0.076
-187.144	800.000	-0.083	0.349
-186.129	72.055	-0.047	-0.049
-185.114	-89.418	0.242	-0.072
-184.100	64.713	0.152	-0.154
-183.085	-49.481	-0.118	0.056
-182.071	-33.852	-0.169	-0.094
-181.056	-200.000	0.035	-0.242
-180.042	800.000	-0.061	-0.252
-179.027	-43.028	0.112	0.057
-178.012	104.094	0.104	0.122
-176.998	28.765	0.207	-0.176
-175.983	-49.660	-0.250	-0.120
-174.969	-156.972	0.298	-0.018
-173.954	-63.398	0.095	-0.039
-172.939	133.464	0.093	-0.120
-171.925	800.000	-0.013	0.046
-170.910	-87.709	0.437	-0.132
-169.896	41.366	0.122	-0.111
-168.881	284.683	0.196	0.354
-167.866	-93.800	0.115	-0.032
-166.852	-141.004	-0.225	-0.023
-165.837	-13.166	-0.082	0.053
-164.823	800.000	0.020	0.065
-163.808	-57.614	0.377	0.166
-162.793	89.781	0.272	-0.305
-161.779	398.953	0.064	-0.135
-160.764	181.590	0.150	-0.222
-159.750	800.000	0.019	-0.070
-158.735	-153.846	-0.236	-0.016
-157.720	-10.834	0.178	0.118
-156.706	211.719	0.100	0.158
-155.691	-52.166	-0.137	-0.064
-154.677	96.590	-0.087	-0.100
-153.662	-200.000	0.015	-0.106
-152.647	48.902	0.154	-0.145
-151.633	63.662	-0.115	-0.116
-150.618	-200.000	0.023	0.145
-149.604	-200.000	0.063	0.366
-148.589	236.407	0.068	0.114
-147.574	36.706	-0.032	0.029
-146.560	-158.420	-0.258	-0.015
-145.545	-28.968	-0.275	0.158
-144.531	404.687	-0.028	-0.060
-143.516	212.281	0.266	0.421
-142.502	-10.839	0.214	-0.141
-141.487	-37.045	0.139	0.075
-140.472	-105.904	-0.200	-0.045
-139.458	-200.000	0.058	0.439
-138.443	-87.633	0.288	-0.087
-137.429	36.402	-0.125	0.111
-136.414	16.415	-0.202	-0.160
-135.399	-7.397	-0.147	0.100
-134.385	-4.879	0.123	-0.085
-133.370	-99.148	0.169	-0.043
-132.356	-200.000	-0.028	0.226
-131.341	212.115	-0.147	0.233
-130.326	590.583	-0.087	0.216
-129.312	84.028	-0.199	0.217
-128.297	213.178	-0.084	-0.134
-127.283	-34.659	0.296	-0.162
-126.268	-68.119	-0.219	0.085
-125.253	-200.000	0.010	0.121
-124.239	40.366	-0.295	0.266
-123.224	-200.000	-0.019	0.149
-122.210	201.793	-0.238	0.368
-121.195	27.582	0.092	-0.077
-120.180	-9.813	-0.275	0.183
