DTS Sentinel unit serial number:	SN413079Multiplexer serial number:	ORYXHardware model number:	OX4-SRSoftware version number:	ORYX F/W v4.00 Oryx Data Collector v3.7.2.0data status	okinstallation	princeton_trtdifferential loss correction	single-endedforward channel	channel 4reverse channel	N/Adate	2019/09/13time	00:05:35forward acquisition time	60.00reverse acquisition time	0.00gamma	496.2192k internal	0.2316k external	0.2316temperature offset calibration	1.0173default loss term (dB/km)	0.3790temperature slope calibration	1.0000multiplexer offset coefficient	1.0000multiplexer slope coefficient	1.0000fibre end	0.00T internal ref (°C)	28.62T ext. ref 1 (°C)	3.76T ext. ref 2 (°C)	23.31length (m)	temperature (°C)	Stokes	anti-Stokes-747.200	215.419	-0.145	0.234
-746.185	-10.941	-0.243	0.163
-745.171	-114.510	0.199	0.039
-744.156	-200.000	-0.007	0.298
-743.142	-168.201	-0.397	-0.016
-742.127	-84.225	-0.101	-0.033
-741.112	-200.000	-0.001	0.073
-740.098	44.192	0.196	0.182
-739.083	507.019	0.033	-0.077
-738.069	70.443	-0.111	0.116
-737.054	800.000	-0.094	-0.399
-736.039	-48.381	-0.285	-0.139
-735.025	-43.630	0.488	-0.249
-734.010	-200.000	0.038	0.210
-732.996	-24.368	-0.233	0.141
-731.981	800.000	-0.168	-0.514
-730.966	113.380	0.165	0.203
-729.952	20.447	-0.189	0.155
-728.937	375.727	-0.117	-0.243
-727.923	800.000	-0.041	-0.140
-726.908	800.000	-0.078	-0.255
-725.894	90.015	0.260	0.294
-724.879	605.525	-0.185	0.467
-723.864	-78.856	-0.187	-0.064
-722.850	-92.384	-0.186	0.053
-721.835	-200.000	0.030	-0.403
-720.821	97.044	-0.261	0.303
-719.806	502.208	0.080	0.187
-718.791	91.070	-0.176	0.199
-717.777	44.901	0.108	0.100
-716.762	-88.785	-0.069	-0.021
-715.748	800.000	-0.088	-0.301
-714.733	-45.400	-0.264	0.132
-713.718	-98.497	-0.068	-0.018
-712.704	-106.003	-0.182	0.041
-711.689	-115.447	0.131	-0.025
-710.675	-125.523	-0.304	0.047
-709.660	-200.000	-0.092	-0.413
-708.645	-200.000	0.032	0.146
-707.631	9.374	0.210	0.160
-706.616	-200.000	-0.033	-0.173
-705.602	-200.000	0.030	0.191
-704.587	-116.193	-0.320	-0.060
-703.572	-200.000	0.068	0.587
-702.558	-35.533	-0.168	0.092
-701.543	-76.688	-0.031	0.011
-700.529	13.750	-0.313	-0.246
-699.514	-57.392	-0.265	0.118
-698.499	-91.441	0.134	0.039
-697.485	-114.990	0.253	0.049
-696.470	47.722	-0.167	0.158
-695.456	-167.743	-0.380	0.015
-694.441	35.212	-0.135	0.120
-693.426	-200.000	-0.230	-0.000
-692.412	-21.208	-0.126	-0.078
-691.397	41.630	-0.379	-0.347
-690.383	593.812	0.088	0.221
-689.368	-144.326	-0.376	-0.035
-688.354	-89.101	0.221	-0.066
-687.339	800.000	0.035	0.139
-686.324	-128.072	-0.122	0.018
-685.310	-110.402	-0.223	-0.047
-684.295	-155.357	0.077	-0.005
-683.281	800.000	-0.047	0.173
-682.266	30.518	0.090	-0.077
-681.251	800.000	-0.117	0.382
-680.237	460.589	0.090	-0.202
-679.222	-151.777	-0.053	-0.004
-678.208	-61.470	-0.162	-0.069
-677.193	-3.006	0.104	-0.073
-676.178	46.018	0.067	-0.062
-675.164	-200.000	-0.053	0.254
-674.149	46.971	-0.046	0.043
-673.135	-200.000	0.035	-0.209
-672.120	165.694	-0.069	-0.098
-671.105	-66.178	-0.399	0.161
-670.091	-164.929	-0.332	-0.015
-669.076	-200.000	-0.027	-0.343
-668.062	-124.865	0.085	0.013
-667.047	291.665	0.065	-0.119
-666.032	332.387	-0.088	-0.172
-665.018	-143.271	-0.198	-0.019
-664.003	-11.015	0.220	-0.147
-662.989	-123.760	0.176	0.028
-661.974	46.117	0.131	-0.122
-660.959	535.290	0.009	0.022
-659.945	53.586	-0.150	0.146
-658.930	-200.000	-0.012	-0.257
-657.916	270.810	0.056	-0.099
-656.901	800.000	-0.095	0.289
-655.886	-39.304	-0.139	-0.074
-654.872	470.482	-0.052	-0.118
-653.857	-200.000	-0.003	0.147
-652.843	68.311	0.113	-0.117
-651.828	-164.912	0.224	-0.010
-650.814	269.007	0.121	-0.215
-649.799	-146.784	-0.206	0.018
-648.784	248.774	-0.055	-0.094
-647.770	-55.752	-0.396	-0.178
-646.755	-71.295	-0.145	0.055
-645.741	191.274	-0.062	-0.094
-644.726	800.000	-0.151	-0.515
-643.711	-75.134	-0.107	-0.038
-642.697	-81.313	-0.136	0.045
-641.682	186.971	0.109	-0.163
-640.668	84.022	-0.115	-0.127
-639.653	184.569	0.100	-0.149
-638.638	-200.000	-0.033	-0.150
-637.624	585.891	0.079	-0.195
-636.609	445.717	0.051	-0.113
-635.595	492.856	-0.120	0.276
-634.580	-67.010	-0.255	-0.101
-633.565	800.000	0.112	0.340
-632.551	-62.386	0.223	-0.093
-631.536	-91.201	-0.555	-0.160
-630.522	625.825	-0.057	0.144
-629.507	-72.455	-0.301	0.112
-628.492	-123.313	-0.366	-0.059
-627.478	-66.257	-0.295	0.119
-626.463	-141.699	0.126	-0.013
-625.449	-200.000	0.005	0.301
-624.434	49.788	0.268	0.254
-623.419	-81.235	-0.193	-0.064
-622.405	44.074	0.293	0.271
-621.390	-200.000	0.043	0.274
-620.376	271.046	0.067	-0.118
-619.361	-58.886	0.136	0.059
-618.346	124.340	0.101	-0.128
-617.332	592.517	0.011	0.029
-616.317	250.295	-0.131	0.224
-615.303	800.000	-0.080	0.318
-614.288	-151.907	-0.172	0.013
-613.273	-63.375	-0.123	-0.051
-612.259	208.195	0.081	0.128
-611.244	-26.908	0.264	0.155
-610.230	106.269	0.105	-0.125
-609.215	-135.053	0.198	0.024
-608.201	206.673	0.074	0.117
-607.186	36.161	0.263	0.233
-606.171	-99.837	-0.092	0.023
-605.157	294.494	-0.034	-0.062
-604.142	-200.000	0.006	0.218
-603.128	435.647	-0.087	0.191
-602.113	-170.699	-0.517	-0.018
-601.098	-141.720	0.110	0.011
-600.084	800.000	0.041	0.175
-599.069	86.917	0.273	-0.304
-598.055	-74.436	-0.323	0.117
-597.040	800.000	0.029	0.090
-596.025	-200.000	0.044	-0.212
-595.011	530.649	-0.070	0.166
-593.996	-71.801	0.176	0.066
-592.982	333.455	0.081	0.158
-591.967	471.955	0.085	-0.193
-590.952	-82.108	-0.276	-0.091
-589.938	-99.128	0.225	-0.057
-588.923	0.819	0.111	0.080
-587.909	-125.731	-0.235	0.036
-586.894	-200.000	-0.020	0.145
-585.879	-26.097	0.274	-0.162
-584.865	350.392	-0.049	0.097
-583.850	800.000	0.107	-0.385
-582.836	75.228	0.235	0.250
-581.821	54.250	-0.047	0.045
-580.806	25.084	0.285	-0.238
-579.792	378.535	0.014	-0.028
-578.777	-22.554	-0.059	0.036
-577.763	-114.866	-0.063	0.012
-576.748	-120.883	-0.130	-0.022
-575.733	-127.244	0.241	-0.035
-574.719	92.184	-0.091	-0.103
-573.704	173.124	0.065	-0.094
-572.690	3.585	0.132	0.097
-571.675	393.175	-0.148	-0.310
-570.661	109.915	0.079	-0.095
-569.646	508.000	0.121	-0.282
-568.631	-46.288	0.039	0.019
-567.617	-111.296	-0.247	-0.051
-566.602	-118.850	-0.313	0.055
-565.588	102.812	-0.242	-0.285
-564.573	38.612	-0.106	-0.095
-563.558	57.368	-0.279	0.274
-562.544	110.857	0.188	0.227
-561.529	666.902	0.080	0.207
-560.515	-113.530	0.224	0.044
-559.500	557.312	0.088	-0.212
-558.485	473.349	-0.031	-0.071
-557.471	210.968	-0.160	0.253
-556.456	-54.558	0.114	-0.052
-555.442	-77.769	-0.106	0.037
-554.427	697.848	-0.125	0.330
-553.412	282.351	0.115	0.208
-552.398	36.390	-0.214	0.190
-551.383	-200.000	-0.003	-0.180
-550.369	315.807	-0.148	-0.280
-549.354	535.854	0.027	0.065
-548.339	560.538	-0.015	-0.036
-547.325	800.000	-0.073	0.259
-546.310	-190.442	0.269	0.003
-545.296	-47.667	-0.417	-0.203
-544.281	-5.690	-0.380	-0.262
-543.266	514.601	-0.038	0.089
-542.252	101.521	-0.085	0.100
-541.237	-117.451	0.416	0.076
-540.223	-78.987	-0.197	0.067
-539.208	-87.222	0.078	0.024
-538.193	288.992	-0.071	0.129
-537.179	646.850	-0.103	-0.265
-536.164	505.053	-0.134	-0.313
-535.150	176.447	0.149	-0.217
-534.135	449.983	-0.121	0.269
-533.121	162.924	0.189	-0.266
-532.106	-141.562	-0.345	0.035
-531.091	-27.428	-0.089	-0.052
-530.077	-200.000	0.003	0.090
-529.062	272.159	-0.052	0.091
-528.048	120.665	-0.135	0.168
-527.033	-101.248	-0.273	-0.067
-526.018	734.671	-0.068	-0.183
-525.004	13.701	0.091	0.071
-523.989	-65.301	0.218	-0.088
-522.975	188.491	0.139	-0.208
-521.960	-200.000	0.001	0.021
-520.945	800.000	-0.046	0.152
-519.931	-188.356	0.213	-0.003
-518.916	281.508	-0.057	0.102
-517.902	-133.494	0.194	0.024
-516.887	687.368	0.275	-0.722
-515.872	-55.202	0.280	0.126
-514.858	800.000	-0.020	-0.075
-513.843	109.362	0.126	-0.152
-512.829	49.162	-0.068	0.064
-511.814	-11.842	-0.292	-0.192
-510.799	80.077	0.169	0.182
-509.785	800.000	0.016	-0.051
-508.770	-2.750	0.171	-0.120
-507.756	467.688	0.050	-0.112
-506.741	33.839	0.155	-0.135
-505.726	108.208	0.194	0.232
-504.712	-131.111	-0.040	0.005
-503.697	-200.000	-0.012	0.091
-502.683	400.873	0.102	-0.214
-501.668	-50.543	-0.281	0.133
-500.653	-92.316	-0.208	0.059
-499.639	30.228	-0.189	0.162
-498.624	-200.000	0.036	-0.181
-497.610	40.400	-0.194	0.175
-496.595	323.450	0.027	-0.051
-495.581	2.925	-0.228	-0.166
-494.566	800.000	0.074	0.218
-493.551	-86.142	-0.074	-0.023
-492.537	54.670	0.094	0.091
-491.522	-59.643	0.259	0.112
-490.508	-200.000	0.012	-0.069
-489.493	714.219	-0.052	0.139
-488.478	-200.000	-0.042	-0.189
-487.464	-42.759	0.127	-0.065
-486.449	28.501	0.129	0.109
-485.435	611.192	0.126	0.315
-484.420	-40.486	0.287	0.149
-483.405	410.567	-0.080	-0.170
-482.391	800.000	-0.122	0.378
-481.376	37.072	0.023	0.021
-480.362	-47.695	0.278	-0.135
-479.347	-108.059	0.183	-0.040
-478.332	-90.883	0.188	-0.054
-477.318	-141.596	-0.094	0.009
-476.303	712.035	-0.094	0.250
-475.289	-200.000	-0.004	-0.024
-474.274	255.153	0.080	-0.137
-473.259	-200.000	0.008	-0.139
-472.245	-130.516	0.255	-0.035
-471.230	-200.000	-0.048	-0.231
-470.216	-178.947	0.246	0.006
-469.201	-104.060	-0.184	-0.043
-468.186	-200.000	0.043	0.281
-467.172	-124.045	0.226	-0.036
-466.157	264.671	-0.065	-0.114
-465.143	-130.860	-0.192	-0.026
-464.128	-50.306	0.152	0.072
-463.113	-200.000	-0.023	-0.136
-462.099	-111.683	0.338	-0.069
-461.084	43.658	-0.177	0.162
-460.070	104.014	-0.181	-0.213
-459.055	4.599	0.137	-0.101
-458.040	-147.878	-0.152	0.013
-457.026	706.191	0.074	-0.196
-456.011	258.233	-0.106	-0.183
-454.997	-1.089	-0.214	-0.151
-453.982	-161.564	0.388	-0.020
-452.968	-200.000	-0.004	0.127
-451.953	91.327	-0.061	0.068
-450.938	-200.000	-0.035	-0.208
-449.924	626.995	0.136	-0.344
-448.909	-200.000	-0.017	-0.180
-447.895	65.885	-0.342	-0.348
-446.880	632.560	0.086	-0.218
-445.865	-200.000	0.011	-0.160
-444.851	36.165	0.210	-0.185
-443.836	-4.214	0.088	0.061
-442.822	-15.780	0.330	0.211
-441.807	128.041	-0.062	-0.079
-440.792	130.845	-0.107	0.138
-439.778	183.321	-0.191	-0.283
-438.763	84.948	-0.068	0.074
-437.749	761.086	0.178	-0.483
-436.734	800.000	-0.134	-0.411
-435.719	800.000	-0.029	0.100
-434.705	68.481	0.204	-0.210
-433.690	-200.000	-0.018	0.233
-432.676	-102.331	0.332	0.080
-431.661	-96.081	-0.095	0.025
-430.646	174.194	-0.146	0.212
-429.632	-158.717	-0.304	0.017
-428.617	578.733	0.073	-0.178
-427.603	169.887	0.033	0.047
-426.588	-49.215	0.084	0.040
-425.573	800.000	0.075	-0.225
-424.559	-23.822	-0.364	0.218
-423.544	-80.750	0.191	0.064
-422.530	144.126	-0.162	0.216
-421.515	800.000	-0.011	0.048
-420.500	651.444	-0.170	-0.436
-419.486	8.126	-0.049	-0.037
-418.471	242.017	0.201	0.336
-417.457	800.000	0.024	-0.080
-416.442	-75.703	0.215	-0.076
-415.428	-30.995	-0.146	0.082
-414.413	666.870	0.009	0.024
-413.398	17.221	-0.057	-0.046
-412.384	-60.921	0.225	0.095
-411.369	-47.416	0.214	-0.104
-410.355	-135.054	0.144	0.017
-409.340	762.054	-0.102	-0.277
-408.325	13.239	0.103	0.080
-407.311	-178.853	-0.206	0.005
-406.296	800.000	0.073	-0.225
-405.282	-151.454	-0.155	-0.011
-404.267	3.029	0.266	0.193
-403.252	-133.299	-0.025	0.003
-402.238	-30.410	-0.279	0.158
-401.223	17.416	-0.105	-0.083
-400.209	-65.014	-0.139	-0.056
-399.194	15.484	-0.072	0.056
-398.179	-82.354	-0.218	-0.071
-397.165	95.600	-0.190	-0.216
-396.150	-18.229	0.283	0.177
-395.136	186.704	-0.070	0.104
-394.121	-200.000	0.002	-0.294
-393.106	13.832	0.240	0.186
-392.092	37.701	0.178	0.158
-391.077	-200.000	-0.008	-0.067
-390.063	-45.626	-0.458	-0.226
-389.048	800.000	0.026	0.096
-388.033	-19.910	-0.098	-0.060
-387.019	7.868	0.184	0.138
-386.004	-14.580	0.100	-0.064
-384.990	111.340	-0.259	0.312
-383.975	68.128	0.069	0.070
-382.960	315.353	-0.105	-0.197
-381.946	800.000	-0.014	-0.059
-380.931	234.536	0.076	-0.125
-379.917	53.830	0.195	0.187
-378.902	-35.713	-0.173	-0.094
-377.888	272.315	-0.182	0.321
-376.873	-71.571	0.093	-0.035
-375.858	-121.037	-0.071	-0.012
-374.844	-200.000	0.026	-0.206
-373.829	-9.601	-0.298	0.198
-372.815	-127.841	0.107	0.015
-371.800	-7.978	-0.259	0.174
-370.785	-200.000	-0.000	0.250
-369.771	505.726	0.100	0.232
-368.756	208.468	-0.196	0.306
-367.742	0.936	-0.230	-0.164
-366.727	-175.107	0.281	0.008
-365.712	-164.925	-0.222	0.010
-364.698	-146.264	0.307	-0.027
-363.683	99.188	-0.034	-0.040
-362.669	-41.320	0.093	0.048
-361.654	-127.419	0.048	0.007
-360.639	800.000	-0.027	-0.092
-359.625	-34.852	0.180	-0.098
-358.610	46.865	-0.149	0.138
-357.596	663.980	-0.034	-0.086
-356.581	-200.000	0.018	0.198
-355.566	800.000	0.020	0.081
-354.552	122.202	-0.100	0.124
-353.537	-200.000	0.017	0.377
-352.523	327.299	0.133	0.254
-351.508	366.523	0.041	-0.082
-350.493	-71.515	0.227	0.085
-349.479	-18.306	-0.364	-0.227
-348.464	800.000	0.045	0.143
-347.450	319.631	-0.039	0.073
-346.435	-60.276	0.233	-0.099
-345.420	165.439	0.187	-0.264
-344.406	-154.445	-0.108	0.007
-343.391	73.295	0.288	-0.300
-342.377	49.486	0.173	0.162
-341.362	-73.254	-0.272	-0.099
-340.348	514.876	0.092	-0.213
-339.333	71.727	-0.046	0.048
-338.318	89.386	-0.163	0.181
-337.304	6.538	0.149	-0.110
-336.289	-200.000	0.015	-0.189
-335.275	216.822	0.076	-0.120
-334.260	38.292	-0.063	0.056
-333.245	81.715	-0.081	0.088
-332.231	-200.000	0.058	0.294
-331.216	505.012	-0.135	-0.311
-330.202	38.647	-0.444	-0.395
-329.187	-200.000	0.009	0.060
-328.172	-108.528	-0.032	0.007
-327.158	-200.000	-0.012	-0.230
-326.143	-62.966	0.092	-0.038
-325.129	29.487	0.194	-0.165
-324.114	-124.675	0.364	0.056
-323.099	327.230	-0.126	0.241
-322.085	56.798	0.228	0.221
-321.070	-59.050	-0.117	-0.050
-320.056	58.358	0.077	0.075
-319.041	153.280	0.191	-0.260
-318.026	69.589	-0.141	-0.145
-317.012	260.955	0.098	0.169
-315.997	89.186	-0.290	0.321
-314.983	-61.579	0.311	0.130
-313.968	-200.000	-0.005	0.113
-312.953	-117.656	0.152	-0.027
-311.939	-118.269	0.123	0.022
-310.924	-26.241	0.164	0.096
-309.910	59.751	0.240	0.236
-308.895	64.194	-0.152	0.152
-307.880	-200.000	0.015	-0.157
-306.866	464.916	0.102	0.228
-305.851	-153.057	0.241	0.017
-304.837	-200.000	-0.001	0.163
-303.822	-168.893	-0.350	-0.013
-302.807	-200.000	0.031	0.140
-301.793	-83.853	0.234	0.074
-300.778	-113.615	-0.179	0.035
-299.764	203.898	0.202	0.312
-298.749	120.680	-0.088	0.108
-297.735	539.298	0.026	0.063
-296.720	-129.075	-0.381	0.053
-295.705	49.433	-0.413	0.387
-294.691	-28.139	-0.147	0.084
-293.676	-79.465	0.043	-0.014
-292.662	23.276	-0.225	0.184
-291.647	-140.671	-0.053	0.005
-290.632	366.905	0.127	0.254
-289.618	800.000	-0.136	0.387
-288.603	-171.974	-0.262	-0.008
-287.589	109.931	0.186	-0.222
-286.574	498.239	0.159	-0.363
-285.559	-200.000	-0.029	-0.239
-284.545	-18.850	0.120	-0.075
-283.530	-176.895	-0.049	-0.001
-282.516	-88.698	0.138	0.041
-281.501	-126.098	-0.140	-0.021
-280.486	-200.000	0.008	-0.187
-279.472	64.457	0.344	0.345
-278.457	387.230	0.192	0.394
-277.443	245.505	0.186	0.311
-276.428	-200.000	0.020	0.092
-275.413	-17.242	-0.404	0.253
-274.399	37.384	0.132	0.116
-273.384	146.388	0.081	0.109
-272.370	-110.415	0.254	-0.052
-271.355	519.410	-0.081	-0.188
-270.340	530.133	-0.114	-0.268
-269.326	143.555	-0.216	-0.286
-268.311	117.053	0.177	-0.217
-267.297	17.605	-0.209	0.165
-266.282	-146.340	0.470	0.041
-265.267	612.202	-0.139	-0.346
-264.253	-200.000	-0.126	0.001
-263.238	-200.000	-0.036	-0.238
-262.224	-52.069	-0.266	-0.123
-261.209	37.565	0.209	0.185
-260.195	-51.564	-0.322	-0.150
-259.180	193.413	0.175	0.263
-258.165	85.527	-0.042	0.046
-257.151	-55.222	-0.222	0.099
-256.136	200.096	0.149	-0.227
-255.122	-200.000	-0.017	0.224
-254.107	-200.000	-0.018	-0.374
-253.092	68.541	-0.148	-0.151
-252.078	-79.851	0.188	-0.063
-251.063	-175.185	0.256	-0.007
-250.049	-43.390	0.239	-0.120
-249.034	-178.563	-0.308	0.007
-248.019	108.045	0.144	0.170
-247.005	-6.531	0.195	0.132
-245.990	-148.858	0.178	-0.014
-244.976	-101.085	-0.095	-0.023
-243.961	86.086	-0.239	-0.261
-242.946	-200.000	-0.002	0.284
-241.932	-55.796	0.085	0.038
-240.917	800.000	-0.010	0.029
-239.903	-32.393	0.409	0.227
-238.888	-90.314	-0.452	0.130
-237.873	123.368	-0.124	0.154
-236.859	800.000	-0.062	-0.225
-235.844	-102.916	0.288	0.068
-234.830	-80.277	0.203	-0.068
-233.815	332.076	0.044	0.085
-232.800	-200.000	-0.005	0.072
-231.786	140.841	0.149	0.195
-230.771	50.430	0.111	0.104
-229.757	149.249	0.144	-0.193
-228.742	-200.000	-0.027	0.121
-227.727	-21.038	-0.083	-0.051
-226.713	6.863	0.240	0.178
-225.698	-45.956	0.207	-0.101
-224.684	123.524	0.105	-0.130
-223.669	154.830	0.090	0.122
-222.655	-146.427	-0.370	-0.032
-221.640	-187.647	-0.307	-0.004
-220.625	120.173	0.383	-0.472
-219.611	-105.847	0.204	0.046
-218.596	-75.018	0.323	0.115
-217.582	-151.577	-0.120	-0.009
-216.567	208.749	0.108	-0.167
-215.552	-200.000	-0.013	-0.339
-214.538	-188.390	0.328	0.004
-213.523	183.417	0.286	-0.420
-212.509	361.948	0.078	0.156
-211.494	-82.005	-0.086	-0.028
-210.479	-123.778	-0.361	-0.057
-209.465	1.141	-0.293	0.209
-208.450	216.932	0.094	0.148
-207.436	-186.638	-0.308	-0.004
-206.421	179.544	0.072	0.104
-205.406	800.000	0.065	0.202
-204.392	-112.460	-0.337	-0.067
-203.377	-121.753	0.172	-0.028
-202.363	-7.732	0.044	0.029
-201.348	-200.000	0.024	-0.310
-200.333	-40.061	-0.256	-0.132
-199.319	-199.438	-0.206	-0.001
-198.304	74.935	-0.336	0.350
-197.290	800.000	0.063	-0.182
-196.275	-38.034	-0.272	0.143
-195.260	149.068	0.190	0.254
-194.246	164.312	-0.136	0.190
-193.231	-87.759	-0.245	-0.073
-192.217	367.046	0.137	0.274
-191.202	-200.000	-0.005	-0.064
-190.187	449.924	-0.126	-0.275
-189.173	-126.701	0.249	0.036
-188.158	-37.652	0.202	-0.107
-187.144	195.807	-0.051	0.077
-186.129	-200.000	0.007	-0.180
-185.114	-200.000	0.066	0.329
-184.100	89.172	-0.147	0.163
-183.085	-20.016	0.020	0.012
-182.071	800.000	0.088	0.247
-181.056	54.521	0.124	0.118
-180.042	-61.878	0.151	0.063
-179.027	47.272	-0.292	-0.269
-178.012	659.739	0.086	-0.220
-176.998	-120.343	0.278	0.047
-175.983	259.292	-0.185	0.317
-174.969	-109.104	0.145	0.031
-173.954	-63.668	-0.306	0.124
-172.939	120.620	0.042	-0.051
-171.925	174.740	0.153	0.220
-170.910	-44.084	-0.088	-0.044
-169.896	59.944	-0.292	0.286
-168.881	800.000	0.063	-0.271
-167.866	-102.756	-0.037	0.009
-166.852	-110.198	0.185	-0.038
-165.837	800.000	0.082	-0.264
-164.823	-142.786	0.030	0.003
-163.808	-200.000	0.027	-0.143
-162.793	325.748	-0.093	0.176
-161.779	-151.487	0.274	0.020
-160.764	476.843	0.042	-0.095
-159.750	-200.000	-0.005	-0.100
-158.735	800.000	-0.061	-0.181
-157.720	-7.750	-0.216	0.145
-156.706	-200.000	-0.058	-0.305
-155.691	258.265	0.146	-0.250
-154.677	-123.093	-0.169	-0.027
-153.662	-200.000	0.027	-0.305
-152.647	-84.559	0.128	-0.040
-151.633	10.308	-0.156	-0.118
-150.618	-33.127	-0.119	0.065
-149.604	-200.000	0.011	0.265
-148.589	392.837	0.117	0.241
-147.574	-114.060	0.426	0.082
-146.560	800.000	0.079	0.237
-145.545	-84.663	0.144	-0.045
-144.531	94.003	-0.201	0.225
-143.516	3.858	-0.124	0.090
-142.502	-57.588	-0.068	-0.030
-141.487	251.669	-0.154	-0.259
-140.472	392.093	-0.018	0.037
-139.458	-50.336	0.246	0.115
-138.443	-14.441	0.187	0.119
-137.429	201.082	-0.089	0.136
-136.414	-86.997	-0.245	0.074
-135.399	-200.000	-0.040	-0.184
-134.385	-101.924	0.164	0.039
-133.370	139.440	-0.123	0.161
-132.356	-200.000	-0.015	0.172
-131.341	-17.802	-0.381	0.236
-130.326	-50.842	0.190	0.088
-129.312	-200.000	-0.439	0.001
-128.297	58.873	-0.102	-0.099
-127.283	-69.086	-0.205	-0.078
-126.268	-200.000	0.023	0.223
-125.253	37.062	-0.108	-0.094
-124.239	-76.528	0.235	0.082
-123.224	-200.000	0.035	-0.285
-122.210	-95.934	-0.293	0.077
-121.195	90.834	0.111	0.123
-120.180	44.441	0.192	0.175
