DTS Sentinel unit serial number:	SN413079Multiplexer serial number:	ORYXHardware model number:	OX4-SRSoftware version number:	ORYX F/W v4.00 Oryx Data Collector v3.7.2.0data status	okinstallation	princeton_trtdifferential loss correction	single-endedforward channel	channel 4reverse channel	N/Adate	2019/09/15time	23:53:35forward acquisition time	60.00reverse acquisition time	0.00gamma	496.2192k internal	0.2323k external	0.2323temperature offset calibration	0.9961default loss term (dB/km)	0.3790temperature slope calibration	1.0000multiplexer offset coefficient	1.0000multiplexer slope coefficient	1.0000fibre end	0.00T internal ref (°C)	27.92T ext. ref 1 (°C)	9.32T ext. ref 2 (°C)	21.81length (m)	temperature (°C)	Stokes	anti-Stokes-747.200	254.778	0.113	0.195
-746.185	514.332	0.139	0.329
-745.171	-200.000	0.011	-0.068
-744.156	-200.000	0.013	-0.134
-743.142	-14.590	0.101	0.066
-742.127	180.119	-0.200	0.295
-741.112	-112.451	-0.167	-0.034
-740.098	-9.660	0.215	-0.145
-739.083	149.060	-0.215	0.294
-738.069	40.515	0.020	0.018
-737.054	-35.366	0.317	-0.174
-736.039	15.389	-0.456	0.361
-735.025	211.501	0.137	0.217
-734.010	-200.000	-0.019	0.177
-732.996	-200.000	-0.015	0.206
-731.981	134.280	0.176	0.230
-730.966	380.591	-0.087	-0.180
-729.952	-200.000	0.023	-0.182
-728.937	370.327	0.112	-0.229
-727.923	-200.000	0.009	0.211
-726.908	-17.287	0.200	-0.127
-725.894	800.000	-0.010	-0.032
-724.879	-105.902	-0.168	0.038
-723.864	69.735	-0.115	0.120
-722.850	-200.000	0.005	-0.191
-721.835	-200.000	-0.188	-0.001
-720.821	102.592	-0.137	0.162
-719.806	-94.800	0.076	0.021
-718.791	-200.000	-0.000	0.216
-717.777	800.000	0.049	-0.189
-716.762	48.192	-0.232	-0.219
-715.748	42.331	0.138	-0.127
-714.733	-52.935	0.117	-0.054
-713.718	-200.000	0.008	-0.068
-712.704	112.788	0.165	0.202
-711.689	-92.539	-0.141	-0.040
-710.675	-129.012	-0.168	-0.024
-709.660	-78.864	-0.234	-0.081
-708.645	-61.403	0.305	-0.129
-707.631	205.600	-0.181	-0.284
-706.616	-50.264	0.281	-0.134
-705.602	-200.000	0.019	0.180
-704.587	-47.462	-0.052	-0.025
-703.572	-35.371	0.260	0.143
-702.558	6.225	0.122	0.092
-701.543	-196.716	-0.121	-0.001
-700.529	800.000	-0.066	0.219
-699.514	103.372	-0.221	-0.261
-698.499	-200.000	0.011	0.097
-697.485	-80.757	0.169	0.057
-696.470	-200.000	0.003	-0.207
-695.456	-200.000	-0.048	-0.252
-694.441	-113.935	-0.191	0.037
-693.426	250.046	-0.120	-0.205
-692.412	-26.618	0.292	-0.172
-691.397	61.342	-0.105	0.105
-690.383	-200.000	0.007	0.048
-689.368	-110.135	-0.255	0.054
-688.354	139.618	-0.164	-0.217
-687.339	14.028	-0.291	0.229
-686.324	-200.000	-0.046	0.443
-685.310	-2.515	-0.236	0.167
-684.295	-115.403	0.375	0.071
-683.281	800.000	0.117	-0.378
-682.266	-118.468	0.075	0.013
-681.251	-200.000	0.023	0.215
-680.237	1.001	-0.080	-0.058
-679.222	-200.000	0.033	-0.275
-678.208	800.000	-0.052	0.177
-677.193	-2.007	-0.136	0.097
-676.178	9.074	-0.251	0.191
-675.164	-126.649	-0.292	0.044
-674.149	90.317	0.123	-0.139
-673.135	137.868	-0.131	0.173
-672.120	127.580	0.116	0.149
-671.105	112.577	-0.369	-0.450
-670.091	186.733	0.154	-0.232
-669.076	-166.095	-0.230	-0.010
-668.062	41.272	-0.237	0.215
-667.047	-0.156	0.085	-0.061
-666.032	97.196	-0.063	-0.073
-665.018	349.613	0.082	-0.163
-664.003	-91.346	-0.359	-0.103
-662.989	516.961	-0.123	0.290
-661.974	220.166	-0.079	-0.127
-660.959	-109.178	0.118	-0.025
-659.945	87.914	0.056	0.062
-658.930	-168.528	-0.091	0.003
-657.916	-200.000	-0.020	0.123
-656.901	225.129	0.154	-0.252
-655.886	-200.000	0.019	0.201
-654.872	-180.891	0.309	-0.006
-653.857	-200.000	-0.039	-0.272
-652.843	-49.480	0.338	0.162
-651.828	-200.000	-0.046	-0.230
-650.814	800.000	0.118	-0.454
-649.799	-96.284	0.193	0.052
-648.784	-163.217	0.207	0.010
-647.770	-36.407	0.154	-0.084
-646.755	-200.000	-0.014	-0.552
-645.741	121.849	0.021	0.026
-644.726	800.000	0.062	-0.186
-643.711	-106.722	0.310	-0.069
-642.697	-66.849	0.295	0.117
-641.682	-163.329	-0.228	0.011
-640.668	7.110	0.231	-0.173
-639.653	-200.000	0.016	0.106
-638.638	407.135	-0.130	0.277
-637.624	92.504	-0.076	0.087
-636.609	-200.000	-0.055	-0.363
-635.595	195.012	0.119	-0.182
-634.580	800.000	-0.038	0.155
-633.565	800.000	-0.010	-0.041
-632.551	773.669	0.132	0.362
-631.536	436.422	0.133	-0.292
-630.522	-200.000	-0.002	0.086
-629.507	68.344	-0.060	0.062
-628.492	-13.894	0.229	0.149
-627.478	-115.459	-0.221	-0.042
-626.463	-173.517	0.184	0.006
-625.449	106.328	0.070	0.084
-624.434	179.154	-0.067	-0.099
-623.419	-200.000	0.012	-0.134
-622.405	1.743	-0.141	-0.102
-621.390	-39.425	-0.165	-0.087
-620.376	-200.000	0.030	-0.156
-619.361	456.990	-0.170	-0.380
-618.346	102.061	0.230	-0.270
-617.332	-152.013	-0.301	-0.022
-616.317	-94.443	0.543	0.149
-615.303	625.303	0.032	0.080
-614.288	52.362	-0.075	-0.072
-613.273	-51.875	-0.152	0.071
-612.259	-200.000	-0.046	0.219
-611.244	53.463	-0.076	0.074
-610.230	25.711	-0.143	0.120
-609.215	800.000	0.023	0.102
-608.201	571.877	0.153	0.374
-607.186	66.253	-0.119	0.121
-606.171	-157.531	0.014	0.001
-605.157	96.932	0.259	0.298
-604.142	-194.400	-0.046	0.000
-603.128	1.910	0.186	0.135
-602.113	-108.894	-0.105	0.022
-601.098	485.475	-0.058	0.134
-600.084	236.228	-0.174	-0.289
-599.069	18.413	-0.145	-0.117
-598.055	-125.042	0.123	0.019
-597.040	728.532	-0.114	0.306
-596.025	73.290	-0.218	0.229
-595.011	-117.629	0.192	0.035
-593.996	800.000	-0.103	0.365
-592.982	-115.835	-0.379	-0.071
-591.967	800.000	0.080	-0.334
-590.952	-177.132	-0.142	-0.004
-589.938	653.340	-0.055	0.143
-588.923	800.000	0.044	0.177
-587.909	-121.547	-0.066	0.011
-586.894	83.672	-0.299	0.327
-585.879	311.002	0.082	-0.155
-584.865	379.069	-0.090	-0.184
-583.850	-200.000	0.019	-0.304
-582.836	-75.626	0.093	-0.033
-581.821	52.155	-0.026	-0.025
-580.806	56.108	0.267	0.260
-579.792	221.241	0.114	0.183
-578.777	-84.297	-0.088	0.028
-577.763	-79.716	0.390	0.132
-576.748	-60.583	0.222	-0.095
-575.733	271.848	-0.170	0.301
-574.719	-71.236	-0.380	-0.143
-573.704	-18.159	-0.157	0.098
-572.690	-59.590	-0.229	0.099
-571.675	-200.000	0.022	-0.123
-570.661	-92.468	-0.223	-0.063
-569.646	-62.396	0.116	0.049
-568.631	776.977	-0.089	0.244
-567.617	-86.944	-0.261	0.080
-566.602	-109.526	0.479	-0.102
-565.588	746.573	-0.083	0.226
-564.573	-71.609	-0.122	0.046
-563.558	-200.000	0.009	0.060
-562.544	-169.543	0.190	-0.007
-561.529	-113.918	0.189	-0.037
-560.515	-18.911	-0.375	-0.234
-559.500	334.954	0.084	-0.162
-558.485	123.682	0.075	-0.094
-557.471	-22.245	0.307	-0.187
-556.456	800.000	0.026	-0.087
-555.442	-39.576	-0.287	-0.151
-554.427	-147.911	0.378	0.032
-553.412	454.272	0.076	-0.170
-552.398	167.018	0.119	-0.169
-551.383	-200.000	-0.037	-0.251
-550.369	-200.000	-0.003	-0.101
-549.354	-200.000	-0.009	0.161
-548.339	-97.696	0.084	0.022
-547.325	-65.038	0.329	0.133
-546.310	-200.000	-0.001	0.352
-545.296	228.871	0.124	0.203
-544.281	800.000	-0.024	0.099
-543.266	105.878	0.107	-0.127
-542.252	-200.000	-0.021	-0.117
-541.237	164.185	0.105	-0.148
-540.223	51.654	0.255	0.243
-539.208	262.419	0.161	-0.280
-538.193	416.720	0.144	-0.308
-537.179	-38.384	-0.298	0.158
-536.164	-69.446	0.479	-0.184
-535.150	-18.946	0.095	0.059
-534.135	-200.000	-0.040	-0.402
-533.121	-108.419	0.195	-0.042
-532.106	158.253	-0.102	0.142
-531.091	-80.573	-0.329	-0.110
-530.077	-31.984	0.155	-0.087
-529.062	138.466	-0.088	-0.115
-528.048	-144.978	-0.096	0.009
-527.033	-200.000	0.036	-0.235
-526.018	-200.000	-0.032	-0.182
-525.004	-120.908	-0.197	0.033
-523.989	145.907	-0.183	-0.246
-522.975	-89.872	-0.133	-0.039
-521.960	339.784	-0.155	-0.303
-520.945	-52.507	-0.182	0.084
-519.931	-200.000	0.020	0.186
-518.916	21.309	-0.156	-0.127
-517.902	-200.000	0.038	-0.327
-516.887	23.125	0.319	-0.262
-515.872	-116.086	0.181	-0.034
-514.858	117.245	-0.174	0.215
-513.843	248.572	0.192	0.326
-512.829	-13.457	-0.114	-0.074
-511.814	739.728	-0.103	-0.278
-510.799	-10.461	0.217	-0.144
-509.785	102.688	-0.257	0.301
-508.770	-200.000	0.004	-0.116
-507.756	127.849	-0.285	-0.363
-506.741	800.000	0.029	-0.081
-505.726	-200.000	-0.032	-0.160
-504.712	-21.678	-0.334	-0.204
-503.697	800.000	0.034	-0.115
-502.683	-79.239	0.173	0.059
-501.668	256.795	-0.139	-0.240
-500.653	564.493	-0.022	0.054
-499.639	222.931	0.103	0.165
-498.624	-47.654	-0.041	0.020
-497.610	419.943	-0.051	0.108
-496.595	10.316	0.121	0.092
-495.581	101.334	0.091	0.107
-494.566	61.034	-0.450	-0.447
-493.551	800.000	0.060	-0.228
-492.537	-87.814	0.262	-0.079
-491.522	37.523	0.158	-0.140
-490.508	134.469	-0.189	0.245
-489.493	36.276	-0.136	-0.120
-488.478	371.349	0.066	-0.133
-487.464	-200.000	-0.033	0.240
-486.449	38.254	0.064	-0.057
-485.435	530.229	0.109	-0.258
-484.420	173.010	-0.227	-0.327
-483.405	506.302	-0.056	-0.129
-482.391	0.735	-0.291	0.208
-481.376	-97.678	0.351	-0.091
-480.362	-200.000	-0.020	0.094
-479.347	800.000	0.053	0.182
-478.332	192.884	0.142	0.214
-477.318	-143.433	-0.470	-0.045
-476.303	-80.381	0.184	0.061
-475.289	39.018	0.137	-0.122
-474.274	-130.190	0.146	-0.020
-473.259	5.058	-0.239	-0.176
-472.245	221.838	0.095	0.152
-471.230	-31.023	-0.232	0.131
-470.216	288.798	0.153	-0.277
-469.201	49.739	0.194	0.182
-468.186	-47.663	-0.289	-0.140
-467.172	-87.523	0.064	0.019
-466.157	-200.000	-0.008	-0.052
-465.143	-89.903	0.135	-0.039
-464.128	-19.153	-0.184	-0.114
-463.113	295.528	0.056	0.102
-462.099	-181.789	0.406	-0.008
-461.084	-88.555	-0.325	0.097
-460.070	269.586	0.039	0.068
-459.055	180.838	-0.062	-0.090
-458.040	-200.000	-0.035	-0.159
-457.026	-169.781	0.453	0.016
-456.011	246.713	0.078	0.131
-454.997	-18.303	0.252	-0.157
-453.982	408.931	0.073	-0.153
-452.968	-52.236	0.380	0.176
-451.953	-12.632	-0.242	-0.157
-450.938	-200.000	0.046	0.243
-449.924	508.852	-0.079	-0.183
-448.909	-200.000	-0.011	-0.056
-447.895	168.400	-0.158	0.225
-446.880	-45.046	-0.135	-0.067
-445.865	-22.254	0.172	-0.104
-444.851	146.317	0.176	0.235
-443.836	-200.000	-0.001	-0.065
-442.822	-76.774	-0.242	-0.084
-441.807	-79.241	-0.167	-0.056
-440.792	-136.547	-0.085	0.010
-439.778	179.040	-0.223	-0.326
-438.763	85.503	-0.336	-0.368
-437.749	37.798	0.308	0.273
-436.734	135.317	-0.018	0.023
-435.719	-200.000	0.041	0.234
-434.705	-16.175	0.094	0.060
-433.690	-192.623	-0.072	-0.001
-432.676	800.000	0.018	0.051
-431.661	-200.000	0.002	-0.243
-430.646	-50.278	0.027	0.013
-429.632	185.808	-0.063	0.093
-428.617	431.897	0.083	0.181
-427.603	-57.681	-0.172	0.075
-426.588	-93.858	0.333	-0.091
-425.573	43.528	0.115	-0.105
-424.559	-23.243	0.136	0.082
-423.544	329.733	-0.056	0.108
-422.530	20.132	-0.169	-0.136
-421.515	16.227	-0.183	-0.144
-420.500	-141.059	-0.396	-0.040
-419.486	329.280	0.065	0.124
-418.471	61.663	-0.237	0.236
-417.457	-134.460	-0.211	-0.026
-416.442	800.000	-0.073	0.201
-415.428	272.445	0.083	0.145
-414.413	313.903	-0.082	0.154
-413.398	664.342	0.045	0.117
-412.384	-200.000	-0.049	0.329
-411.369	-200.000	-0.023	0.102
-410.355	147.511	-0.176	-0.236
-409.340	-200.000	-0.014	0.405
-408.325	800.000	-0.122	0.419
-407.311	-48.109	0.466	-0.224
-406.296	-27.204	0.084	0.049
-405.282	-2.611	0.175	0.122
-404.267	533.992	0.056	-0.133
-403.252	-68.943	-0.323	-0.124
-402.238	-50.955	-0.322	0.151
-401.223	146.668	0.265	0.355
-400.209	252.193	0.085	0.145
-399.194	134.610	0.157	0.203
-398.179	13.285	0.302	-0.233
-397.165	-200.000	-0.010	0.093
-396.150	-10.371	0.209	0.138
-395.136	79.659	-0.067	-0.071
-394.121	-10.692	-0.192	0.127
-393.106	-200.000	-0.044	0.272
-392.092	790.337	-0.064	0.175
-391.077	83.184	-0.157	-0.170
-390.063	-200.000	0.034	-0.153
-389.048	225.008	0.020	-0.031
-388.033	-200.000	-0.030	0.301
-387.019	-200.000	-0.027	0.123
-386.004	-200.000	-0.014	0.186
-384.990	-53.685	0.511	-0.232
-383.975	285.136	-0.107	-0.192
-382.960	-200.000	-0.012	0.183
-381.946	800.000	0.078	0.221
-380.931	-3.555	-0.200	-0.139
-379.917	-100.612	-0.253	-0.062
-378.902	-39.466	-0.317	-0.166
-377.888	243.833	-0.085	-0.142
-376.873	-44.601	0.116	-0.058
-375.858	94.907	0.139	-0.158
-374.844	-156.133	-0.214	0.013
-373.829	-91.141	0.153	0.044
-372.815	-183.080	-0.239	0.004
-371.800	-87.845	0.294	-0.088
-370.785	-200.000	-0.032	0.332
-369.771	80.104	0.130	-0.139
-368.756	452.819	-0.142	-0.312
-367.742	61.854	-0.154	-0.153
-366.727	154.333	0.168	0.230
-365.712	-137.394	-0.171	-0.019
-364.698	127.456	-0.047	0.059
-363.683	-12.332	-0.362	0.236
-362.669	-22.820	0.280	0.168
-361.654	-28.877	0.173	0.099
-360.639	-200.000	-0.029	0.185
-359.625	-175.197	-0.372	0.010
-358.610	-200.000	-0.046	-0.393
-357.596	190.061	0.189	-0.282
-356.581	-111.233	-0.156	-0.032
-355.566	72.786	0.203	-0.211
-354.552	549.671	-0.102	-0.243
-353.537	-42.471	0.340	0.173
-352.523	416.624	-0.118	0.251
-351.508	-104.619	-0.189	-0.043
-350.493	303.727	-0.059	0.108
-349.479	-139.921	0.358	0.038
-348.464	-165.418	-0.277	-0.012
-347.450	224.603	0.225	-0.362
-346.435	-139.571	0.259	0.027
-345.420	-200.000	0.000	-0.092
-344.406	323.156	0.034	-0.065
-343.391	-200.000	-0.109	-0.502
-342.377	-200.000	0.002	0.260
-341.362	-200.000	0.015	0.498
-340.348	-200.000	-0.028	-0.126
-339.333	522.687	0.088	-0.206
-338.318	800.000	0.079	-0.256
-337.304	27.922	-0.166	-0.139
-336.289	211.367	-0.144	0.225
-335.275	-30.225	-0.260	0.147
-334.260	-200.000	-0.018	0.098
-333.245	-67.969	-0.104	-0.040
-332.231	248.586	0.180	0.303
-331.216	19.694	-0.189	-0.151
-330.202	-114.614	0.364	0.069
-329.187	-50.640	0.117	-0.055
-328.172	-45.869	-0.191	-0.094
-327.158	-74.609	0.156	-0.056
-326.143	-200.000	-0.008	-0.065
-325.129	100.112	0.141	-0.162
-324.114	379.900	0.073	-0.148
-323.099	-155.748	-0.145	0.009
-322.085	375.304	-0.112	-0.227
-321.070	-101.296	0.468	0.114
-320.056	-200.000	-0.010	0.174
-319.041	-179.903	-0.223	-0.005
-318.026	144.173	-0.227	-0.301
-317.012	-105.595	0.018	-0.004
-315.997	-200.000	0.055	0.277
-314.983	-29.070	-0.356	-0.203
-313.968	89.127	0.173	-0.191
-312.953	-49.220	-0.165	0.078
-311.939	800.000	-0.052	-0.200
-310.924	-188.315	0.166	0.002
-309.910	90.323	-0.223	-0.248
-308.895	22.892	0.251	-0.205
-307.880	-136.253	-0.372	-0.043
-306.866	-111.920	-0.096	0.019
-305.851	-103.874	-0.286	0.066
-304.837	458.169	0.026	-0.058
-303.822	-62.404	-0.119	0.049
-302.807	-29.202	0.156	-0.088
-301.793	-134.179	0.104	0.013
-300.778	279.082	0.137	0.242
-299.764	-200.000	0.012	0.224
-298.749	800.000	0.035	0.128
-297.735	358.318	0.183	0.363
-296.720	23.342	-0.272	0.222
-295.705	-19.070	0.180	0.111
-294.691	-103.451	0.296	-0.069
-293.676	-47.538	-0.216	-0.104
-292.662	800.000	-0.083	-0.294
-291.647	-108.524	-0.135	-0.029
-290.632	-200.000	-0.029	-0.253
-289.618	800.000	-0.047	0.146
-288.603	800.000	-0.077	-0.216
-287.589	-8.035	0.261	-0.175
-286.574	-200.000	-0.069	-0.311
-285.559	42.113	0.186	0.167
-284.545	-200.000	0.020	0.190
-283.530	-88.139	0.417	0.124
-282.516	-200.000	0.005	-0.087
-281.501	209.448	0.099	0.154
-280.486	32.372	0.019	-0.016
-279.472	800.000	-0.051	0.215
-278.457	430.226	0.127	0.273
-277.443	-97.979	0.323	-0.083
-276.428	-83.680	-0.293	-0.093
-275.413	-200.000	-0.042	-0.212
-274.399	86.295	0.112	-0.122
-273.384	-130.095	-0.109	0.015
-272.370	-200.000	-0.001	-0.155
-271.355	-140.536	0.214	0.022
-270.340	80.265	-0.120	0.128
-269.326	442.163	0.125	0.271
-268.311	-7.693	-0.286	-0.192
-267.297	412.225	0.050	0.106
-266.282	88.044	0.132	-0.145
-265.267	-83.139	-0.191	-0.061
-264.253	-104.374	-0.205	0.047
-263.238	-200.000	0.012	0.152
-262.224	-109.323	0.194	0.041
-261.209	-72.193	-0.332	0.122
-260.195	71.060	0.107	-0.110
-259.180	-76.984	-0.141	0.049
-258.165	-200.000	-0.023	0.342
-257.151	105.260	-0.271	-0.317
-256.136	72.694	0.220	-0.228
-255.122	240.381	-0.154	-0.255
-254.107	304.902	-0.202	0.371
-253.092	-200.000	-0.039	0.185
-252.078	180.960	-0.076	-0.110
-251.063	-200.000	0.010	0.178
-250.049	197.236	0.167	-0.253
-249.034	-35.999	0.267	-0.143
-248.019	-120.572	-0.197	-0.033
-247.005	-162.013	-0.218	-0.011
-245.990	-12.939	-0.430	0.277
-244.976	220.971	0.193	0.307
-243.961	14.843	-0.134	0.104
-242.946	84.235	0.190	0.205
-241.932	-200.000	0.025	0.141
-240.917	-200.000	-0.023	-0.134
-239.903	-95.671	0.297	0.079
-238.888	39.208	-0.210	0.186
-237.873	-200.000	-0.006	0.047
-236.859	652.408	-0.064	-0.162
-235.844	29.417	0.077	-0.065
-234.830	115.628	0.188	-0.227
-233.815	-81.507	-0.128	-0.042
-232.800	-41.330	-0.314	0.160
-231.786	15.873	0.244	-0.190
-230.771	-200.000	-0.110	0.497
-229.757	-200.000	0.048	0.299
-228.742	-147.393	0.361	0.030
-227.727	800.000	0.124	0.364
-226.713	104.725	-0.252	-0.294
-225.698	-200.000	-0.005	0.074
-224.684	57.432	-0.123	-0.119
-223.669	800.000	0.072	0.297
-222.655	-200.000	-0.017	-0.449
-221.640	37.546	0.082	-0.072
-220.625	19.212	-0.250	0.198
-219.611	648.294	0.031	-0.079
-218.596	-36.991	0.184	0.098
-217.582	99.249	0.075	0.086
-216.567	154.643	0.169	0.230
-215.552	51.286	-0.129	0.121
-214.538	-44.705	0.180	-0.089
-213.523	74.359	-0.256	-0.266
-212.509	129.547	0.152	0.192
-211.494	800.000	0.129	0.383
-210.479	35.385	0.163	-0.141
-209.465	49.940	0.091	0.085
-208.450	800.000	0.095	-0.272
-207.436	-153.915	0.116	0.008
-206.421	-60.578	0.166	0.070
-205.406	191.044	-0.205	-0.305
-204.392	12.915	-0.135	-0.103
-203.377	-181.804	0.141	0.003
-202.363	-23.814	-0.277	0.164
-201.348	-94.115	-0.300	0.081
-200.333	-187.043	-0.158	0.002
-199.319	800.000	0.008	-0.029
-198.304	-41.844	-0.041	0.021
-197.290	-200.000	0.003	0.154
-196.275	-134.105	-0.138	-0.017
-195.260	-44.679	-0.300	0.148
-194.246	-102.863	0.393	0.092
-193.231	-71.540	-0.391	-0.145
-192.217	207.391	-0.101	-0.155
-191.202	132.573	-0.056	0.071
-190.187	20.602	-0.242	0.193
-189.173	-53.747	0.131	0.059
-188.158	-59.887	-0.036	0.015
-187.144	478.738	0.082	0.183
-186.129	45.483	0.058	-0.053
-185.114	-43.836	0.034	0.017
-184.100	-39.164	-0.106	-0.055
-183.085	-200.000	0.031	-0.171
-182.071	-68.205	-0.122	0.047
-181.056	6.357	0.121	-0.089
-180.042	800.000	0.079	-0.227
-179.027	100.970	-0.158	-0.182
-178.012	-105.927	0.061	-0.014
-176.998	800.000	-0.044	0.186
-175.983	800.000	-0.032	-0.108
-174.969	-106.141	0.198	0.044
-173.954	-200.000	-0.006	0.074
-172.939	297.747	0.105	0.191
-171.925	53.855	-0.072	-0.068
-170.910	-200.000	0.032	0.313
-169.896	621.604	-0.095	0.237
-168.881	-51.571	-0.129	-0.059
-167.866	-200.000	-0.003	0.047
-166.852	49.438	0.241	0.224
-165.837	-200.000	0.022	-0.243
-164.823	30.299	0.256	-0.215
-163.808	2.387	0.064	0.046
-162.793	55.973	0.071	-0.068
-161.779	557.929	-0.086	0.205
-160.764	587.264	0.091	0.222
-159.750	-128.966	0.380	-0.053
-158.735	-133.335	0.117	0.015
-157.720	-200.000	0.038	0.200
-156.706	-72.604	0.167	-0.061
-155.691	-63.822	0.469	-0.189
-154.677	237.886	0.129	0.211
-153.662	-180.904	-0.346	0.007
-152.647	44.722	-0.056	0.051
-151.633	124.983	-0.244	-0.304
-150.618	-32.973	-0.078	0.043
-149.604	800.000	0.060	0.174
-148.589	800.000	0.066	0.264
-147.574	-129.535	-0.149	0.020
-146.560	800.000	-0.033	-0.114
-145.545	-35.314	-0.297	0.159
-144.531	73.353	0.141	-0.145
-143.516	-200.000	-0.011	-0.051
-142.502	27.191	0.126	-0.105
-141.487	30.638	0.215	0.181
-140.472	-167.212	-0.126	0.005
-139.458	800.000	0.048	-0.155
-138.443	-128.820	0.340	-0.047
-137.429	-60.317	0.309	0.130
-136.414	-135.110	-0.312	-0.037
-135.399	-84.532	0.247	-0.077
-134.385	144.468	0.281	0.371
-133.370	-68.860	-0.231	0.088
-132.356	110.212	0.112	0.132
-131.341	-200.000	0.016	-0.086
-130.326	-87.897	-0.413	0.123
-129.312	-200.000	0.010	0.057
-128.297	800.000	0.101	0.280
-127.283	-200.000	0.004	0.082
-126.268	-49.750	0.140	0.066
-125.253	-68.607	0.115	-0.044
-124.239	-148.274	0.199	0.016
-123.224	210.603	-0.129	0.199
-122.210	13.438	0.178	-0.136
-121.195	367.403	0.081	-0.160
