DTS Sentinel unit serial number:	SN413079Multiplexer serial number:	ORYXHardware model number:	OX4-SRSoftware version number:	ORYX F/W v4.00 Oryx Data Collector v3.7.2.0data status	okinstallation	princeton_trtdifferential loss correction	single-endedforward channel	channel 4reverse channel	N/Adate	2019/09/14time	14:17:35forward acquisition time	60.00reverse acquisition time	0.00gamma	496.2192k internal	0.2289k external	0.2289temperature offset calibration	1.0149default loss term (dB/km)	0.3790temperature slope calibration	1.0000multiplexer offset coefficient	1.0000multiplexer slope coefficient	1.0000fibre end	0.00T internal ref (°C)	38.75T ext. ref 1 (°C)	5.09T ext. ref 2 (°C)	36.34length (m)	temperature (°C)	Stokes	anti-Stokes-747.200	-41.925	-0.204	-0.107
-746.185	-200.000	-0.062	0.437
-745.171	770.307	-0.093	0.258
-744.156	800.000	-0.093	0.290
-743.142	42.442	-0.252	-0.235
-742.127	-200.000	0.061	0.413
-741.112	-43.426	0.235	0.122
-740.098	233.573	-0.078	0.132
-739.083	-200.000	-0.010	0.374
-738.069	-52.672	-0.213	-0.101
-737.054	133.659	-0.107	-0.141
-736.039	22.629	-0.251	-0.210
-735.025	-115.118	0.337	0.065
-734.010	210.141	0.058	-0.093
-732.996	32.830	-0.281	0.250
-731.981	-200.000	0.015	-0.161
-730.966	-200.000	0.006	-0.270
-729.952	-6.294	-0.083	0.058
-728.937	-141.935	0.188	0.019
-727.923	-200.000	0.005	0.188
-726.908	-99.466	-0.318	0.082
-725.894	-62.579	-0.399	0.170
-724.879	-200.000	0.035	0.291
-723.864	177.430	-0.146	0.217
-722.850	397.016	0.095	0.204
-721.835	163.405	-0.121	-0.174
-720.821	800.000	-0.068	-0.220
-719.806	800.000	-0.079	-0.241
-718.791	106.533	-0.039	0.047
-717.777	77.604	-0.201	-0.219
-716.762	-111.165	-0.352	-0.074
-715.748	-83.375	0.244	-0.080
-714.733	-140.053	-0.257	0.028
-713.718	-27.673	-0.050	-0.030
-712.704	-137.943	0.272	-0.031
-711.689	-21.823	0.066	0.041
-710.675	800.000	0.025	-0.104
-709.660	-200.000	-0.012	-0.295
-708.645	-121.531	0.010	-0.002
-707.631	18.912	0.222	-0.182
-706.616	-123.780	0.080	-0.013
-705.602	-169.773	-0.272	-0.010
-704.587	102.348	-0.072	0.086
-703.572	-1.724	0.339	-0.244
-702.558	800.000	-0.051	-0.179
-701.543	-200.000	0.003	0.056
-700.529	48.019	0.040	0.039
-699.514	-200.000	-0.009	0.395
-698.499	299.421	-0.152	-0.286
-697.485	-200.000	0.000	0.004
-696.470	-125.062	-0.740	0.116
-695.456	-200.000	0.010	0.463
-694.441	-200.000	-0.004	0.039
-693.426	-108.292	0.059	-0.013
-692.412	800.000	-0.099	-0.343
-691.397	-6.600	0.074	-0.052
-690.383	-57.094	0.094	0.043
-689.368	152.207	-0.104	-0.145
-688.354	204.006	0.120	-0.189
-687.339	800.000	0.023	-0.104
-686.324	-44.466	-0.365	-0.187
-685.310	48.143	-0.242	0.232
-684.295	-25.982	-0.146	-0.088
-683.281	-200.000	-0.005	-0.134
-682.266	84.607	-0.375	-0.419
-681.251	621.270	0.043	0.110
-680.237	189.127	-0.134	0.205
-679.222	-118.709	-0.040	-0.007
-678.208	294.301	-0.044	0.082
-677.193	-155.025	-0.203	-0.014
-676.178	192.870	0.121	-0.187
-675.164	136.455	0.066	0.088
-674.149	663.521	0.062	-0.164
-673.135	58.897	-0.272	-0.273
-672.120	650.552	-0.065	-0.170
-671.105	-29.240	-0.061	-0.036
-670.091	-200.000	0.031	0.141
-669.076	5.477	-0.108	0.081
-668.062	-137.185	-0.099	0.011
-667.047	-149.153	-0.088	-0.007
-666.032	800.000	-0.076	-0.268
-665.018	-106.820	-0.306	-0.069
-664.003	54.263	-0.236	-0.232
-662.989	445.446	0.154	-0.346
-661.974	75.498	0.057	0.061
-660.959	-61.533	0.178	0.076
-659.945	-200.000	-0.023	-0.235
-658.930	-156.720	0.157	-0.010
-657.916	236.478	0.078	0.132
-656.901	800.000	-0.083	-0.273
-655.886	-200.000	0.013	0.127
-654.872	179.289	0.103	0.154
-653.857	-78.769	0.139	-0.049
-652.843	71.959	-0.097	-0.103
-651.828	-180.069	-0.148	-0.003
-650.814	-159.129	-0.115	-0.007
-649.799	-33.287	-0.196	0.111
-648.784	160.107	0.188	0.267
-647.770	-85.097	-0.456	0.146
-646.755	98.510	0.254	-0.299
-645.741	-200.000	0.022	-0.154
-644.726	-200.000	-0.022	0.209
-643.711	49.263	0.077	0.074
-642.697	54.469	-0.154	-0.152
-641.682	-150.794	-0.082	-0.006
-640.668	-75.224	-0.262	-0.095
-639.653	-116.619	0.116	0.022
-638.638	-40.325	0.240	-0.128
-637.624	-151.283	-0.127	0.010
-636.609	-80.309	0.099	0.034
-635.595	147.234	-0.220	0.302
-634.580	-111.164	-0.127	-0.027
-633.565	92.164	-0.054	-0.063
-632.551	5.214	0.217	0.163
-631.536	420.917	0.172	0.376
-630.522	177.920	-0.207	0.309
-629.507	800.000	0.073	-0.324
-628.492	15.984	0.191	0.154
-627.478	-200.000	-0.050	0.252
-626.463	-192.691	-0.117	0.001
-625.449	175.749	0.140	-0.207
-624.434	-200.000	-0.034	0.181
-623.419	-93.871	0.135	0.038
-622.405	-128.288	-0.286	-0.042
-621.390	286.888	-0.141	-0.259
-620.376	-34.492	0.203	-0.113
-619.361	800.000	-0.145	-0.520
-618.346	-200.000	-0.006	-0.051
-617.332	-86.975	-0.243	-0.076
-616.317	622.536	0.134	0.344
-615.303	335.728	0.142	-0.280
-614.288	118.483	0.105	-0.132
-613.273	-200.000	-0.014	-0.143
-612.259	274.991	-0.134	-0.243
-611.244	-176.708	-0.219	0.006
-610.230	188.838	0.175	-0.268
-609.215	-3.244	0.030	-0.021
-608.201	199.566	-0.040	0.062
-607.186	-200.000	0.007	0.468
-606.171	-96.496	-0.174	-0.047
-605.157	-82.141	0.178	0.059
-604.142	299.912	-0.089	-0.167
-603.128	-138.278	-0.199	0.022
-602.113	-200.000	0.034	-0.162
-601.098	800.000	-0.089	-0.269
-600.084	800.000	-0.043	-0.148
-599.069	-200.000	0.038	0.284
-598.055	800.000	-0.034	0.117
-597.040	-128.735	0.190	-0.027
-596.025	14.293	-0.110	0.087
-595.011	-33.357	0.247	-0.139
-593.996	168.543	0.164	0.238
-592.982	-65.484	-0.184	-0.075
-591.967	-92.810	-0.260	0.074
-590.952	800.000	0.130	0.418
-589.938	-34.036	0.403	0.226
-588.923	-73.785	0.078	-0.029
-587.909	635.783	0.075	0.194
-586.894	-130.924	-0.441	-0.060
-585.879	255.596	-0.124	-0.216
-584.865	132.966	-0.196	0.258
-583.850	-170.235	0.164	-0.006
-582.836	498.986	-0.033	0.077
-581.821	117.977	0.132	0.165
-580.806	-200.000	-0.028	-0.260
-579.792	-200.000	0.018	0.285
-578.777	-83.457	0.253	-0.083
-577.763	-200.000	0.053	-0.242
-576.748	-85.999	0.219	0.069
-575.733	-200.000	-0.014	0.105
-574.719	-150.134	-0.061	-0.005
-573.704	40.703	-0.064	0.058
-572.690	-200.000	0.016	-0.099
-571.675	-114.471	0.211	0.041
-570.661	-200.000	0.015	0.166
-569.646	-1.249	-0.093	-0.067
-568.631	-200.000	0.028	-0.267
-567.617	477.654	-0.032	-0.073
-566.602	-175.363	0.103	0.003
-565.588	-123.961	0.255	-0.041
-564.573	288.667	-0.086	0.158
-563.558	29.633	0.072	0.062
-562.544	287.137	-0.060	0.111
-561.529	800.000	-0.075	0.250
-560.515	98.153	-0.152	0.178
-559.500	-43.477	0.100	-0.051
-558.485	29.794	-0.204	0.177
-557.471	-52.720	-0.143	0.067
-556.456	61.098	0.045	0.046
-555.442	-133.322	0.285	-0.036
-554.427	-154.409	0.382	-0.026
-553.412	117.326	-0.021	-0.027
-552.398	800.000	0.102	-0.307
-551.383	-200.000	0.025	-0.136
-550.369	-200.000	-0.018	-0.095
-549.354	-105.392	0.366	-0.085
-548.339	-67.522	0.323	0.129
-547.325	328.924	0.021	0.041
-546.310	800.000	-0.038	-0.123
-545.296	800.000	-0.148	-0.644
-544.281	-122.888	0.144	-0.024
-543.266	83.205	-0.212	0.235
-542.252	201.342	0.173	0.270
-541.237	361.729	-0.046	0.095
-540.223	-58.253	0.107	0.047
-539.208	61.621	-0.048	0.048
-538.193	54.576	0.134	0.131
-537.179	305.835	-0.080	0.151
-536.164	-85.619	-0.255	0.081
-535.150	564.105	0.018	-0.044
-534.135	-61.621	-0.212	-0.090
-533.121	43.673	0.227	-0.211
-532.106	26.646	0.175	0.149
-531.091	162.926	0.206	-0.294
-530.077	373.866	0.074	-0.153
-529.062	-138.173	-0.189	-0.021
-528.048	-109.715	-0.112	-0.024
-527.033	36.471	0.175	-0.157
-526.018	768.292	-0.099	0.274
-525.004	-200.000	-0.002	0.142
-523.989	-200.000	0.011	-0.140
-522.975	800.000	-0.027	-0.105
-521.960	-93.442	0.359	-0.101
-520.945	-157.173	-0.346	-0.021
-519.931	-200.000	-0.007	-0.079
-518.916	316.346	0.176	0.337
-517.902	-64.382	0.160	0.066
-516.887	-200.000	0.034	0.239
-515.872	-112.134	-0.179	-0.036
-514.858	-200.000	-0.007	0.339
-513.843	23.278	-0.139	0.116
-512.829	408.822	0.058	0.125
-511.814	-49.376	-0.313	0.152
-510.799	-200.000	-0.062	0.309
-509.785	153.236	-0.131	-0.183
-508.770	-200.000	0.032	-0.205
-507.756	64.883	0.179	-0.183
-506.741	177.129	-0.068	0.100
-505.726	-200.000	0.064	0.312
-504.712	138.821	-0.097	-0.129
-503.697	800.000	-0.039	0.118
-502.683	-28.297	0.263	-0.154
-501.668	-146.124	0.147	-0.013
-500.653	745.378	-0.015	-0.041
-499.639	-84.182	-0.172	0.055
-498.624	-91.798	0.098	0.028
-497.610	-200.000	0.050	0.288
-496.595	-2.861	-0.214	0.152
-495.581	-34.590	-0.218	0.121
-494.566	268.321	-0.069	-0.122
-493.551	-35.152	0.195	0.108
-492.537	175.575	-0.183	-0.269
-491.522	90.792	0.111	0.127
-490.508	-200.000	-0.079	0.362
-489.493	800.000	-0.023	-0.077
-488.478	-111.013	0.239	-0.050
-487.464	108.222	0.101	-0.122
-486.449	11.838	-0.213	0.166
-485.435	-200.000	-0.080	0.442
-484.420	-150.355	-0.233	-0.018
-483.405	142.229	-0.199	-0.269
-482.391	-136.448	-0.143	-0.017
-481.376	44.593	0.024	0.022
-480.362	572.143	0.034	-0.083
-479.347	113.162	0.062	-0.076
-478.332	-41.617	0.207	0.108
-477.318	-71.299	-0.165	-0.063
-476.303	217.979	-0.209	0.338
-475.289	-91.836	-0.071	0.021
-474.274	-124.455	-0.108	-0.017
-473.259	-149.528	0.036	-0.003
-472.245	-118.205	-0.161	-0.029
-471.230	258.030	-0.077	0.134
-470.216	31.422	0.053	0.046
-469.201	-57.196	0.317	0.141
-468.186	504.958	-0.068	0.160
-467.172	-33.365	-0.165	-0.093
-466.157	35.781	-0.092	-0.082
-465.143	-200.000	0.053	-0.262
-464.128	-169.075	-0.203	-0.008
-463.113	-92.762	-0.082	0.023
-462.099	-171.307	-0.304	-0.010
-461.084	-117.468	0.397	-0.073
-460.070	800.000	-0.050	0.165
-459.055	-67.868	0.109	0.043
-458.040	-156.587	-0.320	-0.020
-457.026	-138.864	-0.549	-0.061
-456.011	-138.435	-0.121	-0.013
-454.997	293.577	0.100	-0.185
-453.982	800.000	-0.161	-0.464
-452.968	-15.682	0.122	0.079
-451.953	203.602	-0.083	-0.131
-450.938	800.000	-0.030	-0.124
-449.924	-122.032	-0.120	-0.020
-448.909	-71.971	-0.102	0.038
-447.895	151.220	-0.029	0.040
-446.880	585.246	0.040	-0.099
-445.865	-60.900	0.450	0.193
-444.851	-200.000	-0.024	-0.216
-443.836	-200.000	-0.063	-0.414
-442.822	-53.253	0.283	0.132
-441.807	774.583	-0.146	-0.404
-440.792	6.055	0.201	0.151
-439.778	354.090	-0.018	-0.036
-438.763	307.213	0.033	0.063
-437.749	-16.540	0.112	0.072
-436.734	-200.000	0.006	-0.273
-435.719	-85.540	0.116	-0.036
-434.705	-101.051	-0.469	0.117
-433.690	342.154	0.050	0.099
-432.676	800.000	0.062	-0.209
-431.661	335.945	0.122	-0.240
-430.646	-95.234	-0.108	0.029
-429.632	65.904	0.201	0.206
-428.617	-118.413	0.316	0.057
-427.603	-118.832	-0.305	-0.054
-426.588	-200.000	-0.003	0.100
-425.573	-120.278	0.037	-0.006
-424.559	800.000	0.040	-0.118
-423.544	431.491	-0.089	-0.195
-422.530	-4.057	0.050	-0.035
-421.515	55.738	0.008	0.008
-420.500	38.913	0.048	-0.043
-419.486	-30.275	0.351	0.202
-418.471	-107.804	-0.311	0.069
-417.457	68.095	0.100	-0.104
-416.442	-104.081	0.203	0.048
-415.428	-8.195	-0.193	-0.132
-414.413	-86.723	0.330	-0.102
-413.398	311.877	-0.134	-0.254
-412.384	252.450	0.102	-0.176
-411.369	75.834	-0.143	0.153
-410.355	89.932	0.128	0.145
-409.340	-75.903	0.087	0.031
-408.325	-28.841	0.066	-0.038
-407.311	5.879	-0.095	-0.071
-406.296	46.049	0.205	-0.192
-405.282	-10.569	0.194	-0.130
-404.267	269.045	-0.123	0.218
-403.252	-200.000	-0.007	-0.139
-402.238	465.537	0.025	0.056
-401.223	-136.495	-0.065	-0.008
-400.209	33.132	-0.125	0.109
-399.194	3.979	0.240	0.177
-398.179	-200.000	-0.022	0.192
-397.165	-129.976	-0.167	0.023
-396.150	11.719	-0.228	0.177
-395.136	-103.490	-0.107	-0.025
-394.121	95.536	-0.151	-0.174
-393.106	-142.425	0.130	0.013
-392.092	-181.547	-0.246	-0.005
-391.077	-144.164	-0.562	-0.053
-390.063	784.631	0.063	-0.175
-389.048	-200.000	0.008	-0.036
-388.033	-120.287	0.230	0.040
-387.019	-81.004	0.151	-0.051
-386.004	-72.619	-0.276	0.103
-384.990	-58.886	-0.208	-0.091
-383.975	37.481	-0.234	0.210
-382.960	579.326	-0.118	0.292
-381.946	-200.000	0.056	-0.344
-380.931	800.000	-0.066	-0.240
-379.917	800.000	0.113	-0.350
-378.902	-31.733	-0.179	0.102
-377.888	-47.957	-0.179	0.088
-376.873	241.671	0.138	0.233
-375.858	78.631	0.117	0.126
-374.844	-200.000	-0.022	0.185
-373.829	-21.845	0.369	-0.227
-372.815	-118.427	0.068	-0.012
-371.800	-8.296	-0.311	-0.212
-370.785	69.323	-0.113	0.117
-369.771	286.289	-0.191	0.347
-368.756	-27.064	-0.205	0.121
-367.742	-200.000	0.011	-0.052
-366.727	14.818	-0.098	-0.078
-365.712	-2.662	0.295	-0.209
-364.698	-36.753	0.188	0.102
-363.683	247.962	0.154	0.263
-362.669	142.197	-0.127	-0.170
-361.654	409.353	0.189	-0.404
-360.639	-36.947	-0.177	-0.096
-359.625	9.098	0.217	-0.165
-358.610	-98.250	0.102	0.026
-357.596	631.214	0.018	-0.047
-356.581	133.608	-0.028	-0.037
-355.566	800.000	0.073	-0.296
-354.552	-102.865	-0.283	-0.068
-353.537	-40.530	0.170	-0.089
-352.523	31.590	0.084	0.073
-351.508	129.201	0.260	-0.335
-350.493	-200.000	0.031	-0.138
-349.479	22.189	0.278	-0.229
-348.464	-84.816	0.127	0.040
-347.450	220.245	-0.233	0.377
-346.435	-200.000	0.007	0.072
-345.420	114.169	0.116	-0.143
-344.406	-19.582	-0.228	0.142
-343.391	-164.129	-0.320	-0.015
-342.377	25.158	0.064	-0.054
-341.362	490.085	0.052	-0.120
-340.348	217.177	-0.131	0.211
-339.333	-200.000	0.018	-0.137
-338.318	32.300	0.101	0.088
-337.304	800.000	-0.066	0.287
-336.289	-21.077	0.065	0.040
-335.275	243.618	-0.067	-0.113
-334.260	155.803	-0.151	-0.210
-333.245	227.120	-0.031	0.051
-332.231	38.847	0.165	-0.148
-331.216	-200.000	-0.003	-0.181
-330.202	-200.000	-0.004	0.085
-329.187	800.000	-0.034	0.096
-328.172	-200.000	-0.018	0.242
-327.158	207.616	-0.079	0.124
-326.143	271.538	-0.097	0.172
-325.129	-11.774	-0.166	0.110
-324.114	-99.616	0.389	-0.099
-323.099	800.000	-0.084	0.262
-322.085	-123.712	0.140	-0.022
-321.070	-97.331	-0.321	-0.084
-320.056	-86.917	-0.071	-0.022
-319.041	-176.617	-0.353	0.009
-318.026	216.840	0.180	-0.289
-317.012	23.485	0.152	0.126
-315.997	-94.939	0.293	-0.080
-314.983	800.000	-0.088	-0.290
-313.968	788.543	-0.024	-0.066
-312.953	800.000	-0.036	0.110
-311.939	-115.124	0.188	0.036
-310.924	35.176	-0.200	0.177
-309.910	-15.873	-0.180	0.116
-308.895	190.246	0.092	-0.139
-307.880	-200.000	-0.018	0.165
-306.866	-200.000	0.026	0.251
-305.851	220.197	0.090	-0.145
-304.837	114.740	0.012	-0.015
-303.822	800.000	-0.053	-0.174
-302.807	31.292	0.253	0.219
-301.793	-96.625	0.204	0.054
-300.778	67.019	0.160	-0.164
-299.764	226.664	-0.071	0.116
-298.749	800.000	0.075	0.290
-297.735	-2.321	-0.120	-0.085
-296.720	369.523	0.034	0.069
-295.705	-97.504	-0.542	-0.142
-294.691	-158.111	0.119	0.007
-293.676	620.325	-0.069	0.175
-292.662	-91.599	0.459	-0.132
-291.647	-120.373	0.162	-0.028
-290.632	-200.000	0.016	0.279
-289.618	580.901	0.038	0.093
-288.603	291.753	0.036	0.065
-287.589	-112.739	0.276	-0.055
-286.574	-200.000	0.072	0.330
-285.559	-70.291	0.118	-0.045
-284.545	-155.535	-0.239	-0.016
-283.530	-133.945	0.094	-0.012
-282.516	-72.107	0.460	-0.172
-281.501	-94.888	-0.316	-0.086
-280.486	-135.810	-0.181	-0.021
-279.472	69.064	0.078	-0.081
-278.457	800.000	0.116	-0.436
-277.443	-17.659	-0.309	-0.195
-276.428	-138.622	0.153	0.017
-275.413	22.777	0.144	-0.118
-274.399	177.254	0.243	-0.356
-273.384	-153.248	0.172	-0.012
-272.370	-155.935	0.408	-0.026
-271.355	595.095	0.066	0.165
-270.340	800.000	-0.075	-0.324
-269.326	67.971	-0.279	-0.287
-268.311	-92.227	-0.199	-0.057
-267.297	-13.519	0.433	0.282
-266.282	616.208	-0.197	0.497
-265.267	-200.000	0.021	0.105
-264.253	-64.927	-0.056	-0.023
-263.238	-107.053	-0.214	0.047
-262.224	62.371	0.073	0.073
-261.209	-200.000	0.021	-0.112
-260.195	-200.000	-0.017	0.201
-259.180	-200.000	-0.034	0.297
-258.165	-20.475	-0.251	0.155
-257.151	60.980	0.207	-0.206
-256.136	12.655	0.231	0.179
-255.122	8.509	-0.343	0.260
-254.107	-143.711	0.181	0.017
-253.092	65.969	0.082	0.084
-252.078	3.043	-0.034	0.025
-251.063	92.849	-0.016	0.018
-250.049	800.000	0.037	-0.122
-249.034	-200.000	-0.053	-0.248
-248.019	63.359	0.097	-0.098
-247.005	71.737	0.202	0.211
-245.990	-138.514	-0.239	-0.026
-244.976	-32.472	0.546	-0.306
-243.961	-32.378	-0.088	0.049
-242.946	-52.164	0.106	-0.050
-241.932	-200.000	-0.039	-0.192
-240.917	67.085	0.246	-0.252
-239.903	-184.741	-0.329	-0.005
-238.888	800.000	0.016	-0.059
-237.873	98.197	-0.149	0.172
-236.859	-13.254	0.141	0.092
-235.844	12.519	0.039	-0.031
-234.830	-60.233	0.053	-0.023
-233.815	447.859	-0.057	-0.126
-232.800	208.901	0.062	-0.098
-231.786	658.259	0.119	-0.308
-230.771	109.341	-0.162	-0.195
-229.757	250.734	-0.117	-0.199
-228.742	-149.509	-0.306	-0.024
-227.727	-98.633	-0.347	-0.089
-226.713	67.890	-0.235	-0.241
-225.698	-200.000	0.045	-0.228
-224.684	-200.000	-0.035	0.279
-223.669	800.000	0.151	0.430
-222.655	-200.000	-0.032	0.250
-221.640	-10.220	-0.157	0.104
-220.625	-179.316	0.197	0.004
-219.611	261.825	-0.136	-0.237
-218.596	-9.006	0.262	-0.176
-217.582	-0.517	-0.237	0.169
-216.567	-122.020	-0.178	0.029
-215.552	-200.000	0.047	0.273
-214.538	34.837	0.010	-0.008
-213.523	-120.546	-0.082	-0.014
-212.509	-200.000	-0.042	-0.363
-211.494	38.350	0.126	0.113
-210.479	-144.773	-0.053	-0.005
-209.465	-85.712	-0.249	0.078
-208.450	6.974	0.152	-0.114
-207.436	-85.556	-0.109	0.034
-206.421	800.000	-0.060	0.223
-205.406	-134.027	-0.116	-0.014
-204.392	-134.797	0.087	0.011
-203.377	442.354	-0.052	-0.114
-202.363	-74.188	0.030	0.011
-201.348	-21.159	0.029	-0.018
-200.333	34.300	0.124	0.109
-199.319	-200.000	-0.045	0.256
-198.304	193.345	-0.111	0.169
-197.290	33.610	-0.082	0.071
-196.275	-200.000	0.003	0.020
-195.260	-65.703	-0.220	0.088
-194.246	-143.265	0.266	-0.026
-193.231	293.585	0.078	0.144
-192.217	-200.000	-0.005	0.279
-191.202	33.961	-0.120	0.105
-190.187	-67.104	-0.228	-0.090
-189.173	88.572	0.151	-0.168
-188.158	-115.757	-0.242	0.046
-187.144	-200.000	-0.001	0.101
-186.129	800.000	-0.041	0.134
-185.114	-52.758	0.175	0.081
-184.100	-135.914	-0.280	-0.033
-183.085	-200.000	-0.042	0.251
-182.071	-107.465	0.296	-0.065
-181.056	-200.000	0.012	-0.329
-180.042	-119.726	0.016	-0.003
-179.027	-79.853	-0.135	0.045
-178.012	-35.768	-0.220	-0.119
-176.998	-200.000	0.015	-0.175
-175.983	-156.960	-0.221	0.014
-174.969	-89.632	0.201	-0.059
-173.954	102.683	-0.161	0.188
-172.939	-103.213	0.079	-0.019
-171.925	-200.000	0.027	-0.193
-170.910	-16.926	0.267	0.169
-169.896	598.688	-0.065	-0.162
-168.881	800.000	-0.069	0.301
-167.866	218.436	0.066	-0.105
-166.852	214.668	0.090	-0.143
-165.837	6.466	0.177	0.132
-164.823	635.487	0.055	-0.140
-163.808	7.471	0.358	0.268
-162.793	-112.989	-0.248	-0.049
-161.779	800.000	0.028	-0.092
-160.764	-101.179	0.127	-0.031
-159.750	800.000	0.102	-0.420
-158.735	-200.000	0.031	-0.226
-157.720	-59.518	0.289	0.124
-156.706	-77.111	-0.067	0.023
-155.691	800.000	0.140	0.558
-154.677	-200.000	-0.013	-0.213
-153.662	-188.596	0.103	-0.001
-152.647	138.485	0.090	-0.119
-151.633	118.752	-0.093	-0.116
-150.618	88.474	0.152	-0.169
-149.604	-88.350	-0.166	-0.050
-148.589	85.146	0.103	-0.113
-147.574	52.484	-0.064	-0.061
-146.560	212.305	-0.080	-0.127
-145.545	-128.185	0.136	0.020
-144.531	24.487	0.034	0.028
-143.516	-60.667	0.064	-0.027
-142.502	-200.000	-0.034	0.348
-141.487	-57.568	-0.102	0.045
-140.472	-200.000	0.025	-0.179
-139.458	-181.920	0.284	0.005
-138.443	-82.389	-0.452	-0.147
-137.429	548.113	0.059	-0.142
-136.414	195.589	0.264	-0.401
-135.399	-62.391	-0.172	0.072
-134.385	-90.702	0.576	-0.166
-133.370	-156.694	-0.059	0.004
-132.356	25.391	0.289	0.240
-131.341	-50.463	-0.534	-0.252
-130.326	-99.905	0.167	-0.042
-129.312	-200.000	0.037	0.217
-128.297	-131.664	0.360	0.047
-127.283	-91.151	0.053	0.015
-126.268	-200.000	0.025	-0.112
-125.253	467.922	0.058	0.130
-124.239	132.413	0.141	-0.181
-123.224	-146.260	-0.351	0.031
-122.210	-200.000	-0.020	-0.160
