DTS Sentinel unit serial number:	SN413079Multiplexer serial number:	ORYXHardware model number:	OX4-SRSoftware version number:	ORYX F/W v4.00 Oryx Data Collector v3.7.2.0data status	okinstallation	princeton_trtdifferential loss correction	single-endedforward channel	channel 4reverse channel	N/Adate	2019/09/11time	06:11:11forward acquisition time	60.00reverse acquisition time	0.00gamma	496.2192k internal	0.2316k external	0.2316temperature offset calibration	0.9945default loss term (dB/km)	0.3790temperature slope calibration	1.0000multiplexer offset coefficient	1.0000multiplexer slope coefficient	1.0000fibre end	0.00T internal ref (°C)	29.48T ext. ref 1 (°C)	-0.22T ext. ref 2 (°C)	23.77length (m)	temperature (°C)	Stokes	anti-Stokes-747.200	800.000	-0.059	-0.232
-746.185	116.012	0.201	0.249
-745.171	-101.306	0.138	-0.034
-744.156	-200.000	-0.020	-0.202
-743.142	306.052	0.122	-0.230
-742.127	-200.000	-0.011	0.072
-741.112	800.000	0.085	-0.358
-740.098	-200.000	0.024	-0.136
-739.083	-100.965	0.469	0.117
-738.069	-72.904	-0.187	-0.070
-737.054	790.726	-0.058	0.161
-736.039	36.976	-0.082	-0.074
-735.025	-200.000	0.018	0.121
-734.010	-116.667	-0.031	0.006
-732.996	800.000	-0.044	0.124
-731.981	-200.000	-0.034	0.217
-730.966	-200.000	0.003	-0.241
-729.952	10.138	-0.101	-0.078
-728.937	28.915	0.049	0.042
-727.923	111.331	-0.242	0.295
-726.908	-163.201	-0.094	-0.005
-725.894	800.000	-0.099	-0.287
-724.879	-37.184	-0.125	-0.067
-723.864	-7.624	0.304	0.208
-722.850	145.108	-0.191	-0.258
-721.835	-112.039	-0.269	-0.055
-720.821	-112.482	-0.279	-0.056
-719.806	111.367	-0.316	-0.385
-718.791	30.113	0.125	-0.108
-717.777	64.456	-0.090	-0.092
-716.762	63.320	-0.141	0.143
-715.748	800.000	0.092	-0.398
-714.733	-76.777	-0.162	-0.058
-713.718	-82.379	0.194	-0.064
-712.704	255.730	-0.161	0.280
-711.689	23.198	0.191	0.159
-710.675	32.552	-0.013	0.011
-709.660	-134.547	0.141	-0.017
-708.645	92.810	0.157	0.180
-707.631	-200.000	0.046	0.348
-706.616	441.498	-0.135	-0.299
-705.602	215.379	0.128	-0.206
-704.587	139.508	0.050	0.066
-703.572	67.354	-0.204	0.211
-702.558	-200.000	-0.005	-0.130
-701.543	-65.622	-0.129	-0.052
-700.529	292.105	0.076	0.140
-699.514	-200.000	0.053	0.254
-698.499	252.512	-0.267	-0.460
-697.485	-19.454	0.205	-0.128
-696.470	-1.966	-0.059	-0.042
-695.456	-35.903	-0.337	0.185
-694.441	-17.240	-0.126	0.080
-693.426	800.000	-0.041	0.162
-692.412	-200.000	-0.032	0.225
-691.397	185.327	0.096	0.144
-690.383	-66.238	0.083	0.033
-689.368	319.057	-0.140	0.269
-688.354	-200.000	0.035	0.287
-687.339	380.338	0.094	-0.195
-686.324	-26.038	-0.133	-0.079
-685.310	-200.000	0.013	-0.159
-684.295	118.170	0.170	-0.212
-683.281	45.041	-0.049	-0.046
-682.266	-119.210	0.151	0.027
-681.251	-0.497	0.247	0.177
-680.237	210.553	0.107	-0.170
-679.222	151.273	-0.143	0.197
-678.208	32.766	-0.146	-0.128
-677.193	-135.818	0.080	0.010
-676.178	125.519	-0.180	0.230
-675.164	-200.000	-0.013	0.168
-674.149	468.357	-0.126	0.287
-673.135	-140.021	-0.016	0.002
-672.120	-144.082	0.285	0.027
-671.105	80.633	-0.229	-0.249
-670.091	629.158	-0.162	0.413
-669.076	-178.369	-0.248	-0.006
-668.062	476.948	-0.113	0.257
-667.047	-157.379	0.111	-0.007
-666.032	725.569	-0.071	-0.191
-665.018	-93.008	-0.096	-0.027
-664.003	323.552	-0.055	0.105
-662.989	-104.911	-0.070	-0.016
-661.974	-200.000	-0.028	0.210
-660.959	-200.000	-0.026	0.259
-659.945	52.663	-0.190	-0.183
-658.930	-142.345	-0.337	-0.034
-657.916	192.218	-0.041	0.063
-656.901	184.475	-0.147	-0.220
-655.886	375.113	-0.213	-0.439
-654.872	-200.000	-0.013	-0.268
-653.857	-120.996	0.067	-0.011
-652.843	-140.239	0.322	-0.034
-651.828	-124.241	0.399	0.063
-650.814	-172.820	0.068	-0.002
-649.799	490.892	0.097	-0.224
-648.784	-66.157	0.232	-0.093
-647.770	106.684	-0.089	0.106
-646.755	464.572	0.104	0.235
-645.741	-60.446	0.363	0.156
-644.726	800.000	0.037	0.106
-643.711	-92.398	0.296	-0.084
-642.697	249.170	0.104	-0.178
-641.682	-43.696	0.026	-0.013
-640.668	192.443	0.214	0.326
-639.653	-200.000	-0.050	0.241
-638.638	143.833	0.009	0.012
-637.624	-24.728	0.253	-0.152
-636.609	-76.952	-0.102	0.036
-635.595	-54.458	0.218	0.099
-634.580	-109.027	0.355	0.076
-633.565	181.428	0.090	-0.134
-632.551	64.755	-0.294	0.299
-631.536	-177.072	-0.106	-0.003
-630.522	195.244	0.167	-0.255
-629.507	5.013	-0.059	0.044
-628.492	-124.331	0.049	0.008
-627.478	729.890	0.013	0.036
-626.463	-153.945	-0.083	0.006
-625.449	110.770	0.166	-0.202
-624.434	38.903	0.115	0.104
-623.419	-146.171	0.155	-0.014
-622.405	138.602	0.069	-0.091
-621.390	104.420	-0.178	0.212
-620.376	800.000	0.040	-0.170
-619.361	-3.685	-0.179	-0.126
-618.346	-200.000	0.022	-0.158
-617.332	-94.421	-0.086	-0.024
-616.317	158.883	-0.137	-0.192
-615.303	-200.000	-0.035	-0.157
-614.288	331.481	0.097	-0.189
-613.273	-61.443	0.198	-0.084
-612.259	-114.899	-0.104	-0.020
-611.244	800.000	0.037	-0.124
-610.230	53.189	0.124	0.120
-609.215	138.093	0.195	-0.257
-608.201	800.000	0.059	0.166
-607.186	-16.704	0.184	-0.117
-606.171	-200.000	-0.043	0.410
-605.157	-200.000	-0.016	-0.200
-604.142	-23.879	-0.079	-0.048
-603.128	-43.377	-0.150	-0.076
-602.113	-142.336	-0.096	-0.010
-601.098	155.964	0.023	0.031
-600.084	638.093	-0.104	0.267
-599.069	-44.631	0.116	0.059
-598.055	-108.695	0.066	-0.014
-597.040	-164.093	0.385	0.018
-596.025	800.000	-0.048	0.184
-595.011	358.549	0.027	0.054
-593.996	92.163	-0.262	-0.298
-592.982	612.193	0.150	0.377
-591.967	108.166	0.172	0.206
-590.952	-79.516	-0.215	-0.073
-589.938	-85.254	0.059	-0.018
-588.923	-104.691	-0.252	0.059
-587.909	-137.190	-0.077	-0.009
-586.894	-92.820	-0.134	-0.038
-585.879	-141.603	-0.243	-0.025
-584.865	636.461	0.070	0.178
-583.850	-7.048	-0.084	-0.058
-582.836	-200.000	0.002	0.071
-581.821	-137.193	0.039	-0.005
-580.806	253.302	-0.081	0.139
-579.792	314.436	-0.129	0.245
-578.777	31.299	0.222	-0.192
-577.763	-70.341	-0.204	0.078
-576.748	11.863	0.258	-0.200
-575.733	23.744	0.312	-0.259
-574.719	-60.865	0.310	-0.132
-573.704	-6.968	-0.478	-0.327
-572.690	800.000	-0.025	-0.096
-571.675	800.000	-0.049	0.205
-570.661	-200.000	-0.051	-0.238
-569.646	-180.248	-0.431	-0.009
-568.631	32.930	0.383	-0.334
-567.617	-129.411	-0.195	0.027
-566.602	-11.597	-0.155	-0.103
-565.588	-7.489	0.101	-0.069
-564.573	-90.089	-0.069	0.020
-563.558	-122.843	0.446	-0.072
-562.544	166.065	-0.237	0.337
-561.529	0.191	0.242	-0.174
-560.515	346.291	0.149	-0.295
-559.500	203.249	0.102	0.159
-558.485	-200.000	-0.005	-0.275
-557.471	-200.000	0.049	-0.397
-556.456	-193.795	-0.193	0.002
-555.442	462.407	0.166	-0.372
-554.427	190.188	-0.230	0.347
-553.412	-73.402	-0.226	-0.083
-552.398	-61.023	0.224	0.095
-551.383	347.944	0.095	0.188
-550.369	-103.491	0.167	0.039
-549.354	-61.159	-0.165	0.070
-548.339	229.244	-0.137	-0.225
-547.325	792.733	0.105	-0.291
-546.310	77.662	0.185	-0.198
-545.296	416.596	-0.064	0.137
-544.281	654.603	-0.019	-0.049
-543.266	-50.255	-0.055	0.026
-542.252	667.106	-0.142	0.370
-541.237	-200.000	0.025	0.438
-540.223	-133.152	0.136	0.017
-539.208	15.976	0.140	-0.111
-538.193	-127.486	0.299	0.044
-537.179	-17.311	-0.327	-0.207
-536.164	-200.000	0.037	0.217
-535.150	51.416	-0.188	0.180
-534.135	-126.111	0.105	-0.016
-533.121	259.165	-0.081	0.140
-532.106	800.000	0.099	-0.366
-531.091	311.223	0.068	-0.129
-530.077	-200.000	-0.047	-0.238
-529.062	-200.000	0.010	-0.144
-528.048	25.123	-0.241	-0.201
-527.033	-134.439	-0.113	0.014
-526.018	800.000	-0.064	0.189
-525.004	638.611	-0.076	-0.193
-523.989	59.401	0.129	0.127
-522.975	17.985	0.127	-0.102
-521.960	-38.844	0.164	-0.087
-520.945	-89.936	0.335	0.098
-519.931	56.818	0.108	-0.106
-518.916	-7.385	-0.259	-0.176
-517.902	743.224	0.082	0.220
-516.887	-200.000	-0.020	0.099
-515.872	-150.945	0.135	0.010
-514.858	-1.135	0.251	-0.178
-513.843	-177.036	-0.188	0.005
-512.829	428.946	0.122	-0.266
-511.814	-35.995	0.154	0.084
-510.799	453.873	-0.090	0.201
-509.785	528.402	0.146	-0.345
-508.770	-105.397	0.318	0.073
-507.756	210.367	-0.129	0.204
-506.741	358.653	0.064	0.129
-505.726	-130.357	-0.083	-0.011
-504.712	-62.025	0.273	0.115
-503.697	-10.201	-0.142	-0.095
-502.683	29.570	-0.257	-0.220
-501.668	-20.341	0.034	0.021
-500.653	148.480	0.117	0.159
-499.639	504.991	-0.168	0.389
-498.624	-88.604	0.285	-0.085
-497.610	127.341	-0.242	0.308
-496.595	-60.633	0.331	0.141
-495.581	141.861	-0.075	-0.100
-494.566	-111.443	0.127	-0.026
-493.551	-146.460	-0.122	0.011
-492.537	-44.944	0.121	0.060
-491.522	-200.000	-0.032	-0.143
-490.508	27.876	-0.147	-0.124
-489.493	-152.266	0.053	0.004
-488.478	130.080	0.106	-0.136
-487.464	-9.664	-0.166	-0.111
-486.449	-149.662	0.235	0.019
-485.435	-73.940	-0.279	-0.101
-484.420	158.248	-0.097	-0.135
-483.405	-21.716	-0.285	0.174
-482.391	-27.344	0.184	-0.107
-481.376	-83.814	-0.436	-0.139
-480.362	800.000	0.026	0.112
-479.347	-36.039	0.112	0.060
-478.332	800.000	-0.128	-0.438
-477.318	-6.050	-0.050	0.034
-476.303	76.661	-0.377	0.401
-475.289	-10.260	-0.209	0.139
-474.274	-200.000	-0.019	-0.173
-473.259	142.769	-0.050	0.067
-472.245	514.928	0.038	0.090
-471.230	203.527	-0.278	-0.432
-470.216	-105.446	-0.125	-0.028
-469.201	143.821	-0.185	0.247
-468.186	145.855	0.177	-0.238
-467.172	17.790	0.064	-0.051
-466.157	151.028	0.228	0.310
-465.143	54.850	0.135	-0.131
-464.128	122.556	-0.302	-0.379
-463.113	346.163	0.220	-0.433
-462.099	-98.535	0.438	0.112
-461.084	-38.100	0.141	-0.075
-460.070	416.753	-0.170	-0.363
-459.055	-200.000	0.001	-0.334
-458.040	-130.368	0.054	0.007
-457.026	-156.606	-0.294	0.018
-456.011	-200.000	-0.001	-0.038
-454.997	-71.977	-0.241	-0.090
-453.982	16.932	0.337	0.267
-452.968	153.220	-0.180	-0.247
-451.953	35.776	-0.108	-0.095
-450.938	-44.134	-0.080	-0.040
-449.924	800.000	0.058	-0.227
-448.909	-36.413	-0.208	-0.112
-447.895	440.185	0.086	0.188
-446.880	-128.911	0.183	-0.026
-445.865	398.010	-0.043	0.091
-444.851	-8.031	-0.246	-0.166
-443.836	-149.150	-0.300	0.024
-442.822	800.000	-0.014	-0.044
-441.807	800.000	0.018	-0.072
-440.792	373.069	-0.133	-0.271
-439.778	120.513	-0.105	-0.130
-438.763	428.552	-0.066	0.144
-437.749	-167.061	-0.412	0.017
-436.734	-200.000	0.003	-0.121
-435.719	210.713	-0.096	-0.150
-434.705	-113.285	-0.433	0.085
-433.690	-200.000	-0.062	-0.306
-432.676	327.578	-0.056	-0.107
-431.661	252.149	-0.072	-0.122
-430.646	-71.951	-0.164	0.061
-429.632	107.722	0.142	0.169
-428.617	-75.613	-0.215	0.076
-427.603	36.197	0.065	-0.058
-426.588	100.425	-0.127	0.147
-425.573	53.322	0.080	0.076
-424.559	74.951	-0.077	0.081
-423.544	200.456	-0.041	-0.063
-422.530	-166.289	0.316	0.013
-421.515	-19.534	-0.090	0.056
-420.500	68.357	-0.100	0.103
-419.486	-79.996	0.217	-0.073
-418.471	349.757	-0.087	0.173
-417.457	-9.074	0.335	0.224
-416.442	103.031	-0.114	0.133
-415.428	-22.968	0.215	0.130
-414.413	-124.878	-0.211	-0.033
-413.398	96.840	-0.173	-0.198
-412.384	785.311	-0.058	0.159
-411.369	45.763	0.159	0.147
-410.355	-79.408	0.130	-0.044
-409.340	34.781	0.113	0.099
-408.325	-24.112	0.111	-0.066
-407.311	-58.863	-0.247	0.107
-406.296	9.553	0.118	-0.089
-405.282	-67.552	-0.379	-0.148
-404.267	135.351	0.191	0.249
-403.252	263.476	0.064	-0.111
-402.238	800.000	-0.023	0.092
-401.223	-99.823	-0.163	-0.041
-400.209	-113.712	-0.192	-0.038
-399.194	-30.098	0.150	-0.085
-398.179	-146.631	-0.125	0.011
-397.165	33.447	-0.093	0.081
-396.150	158.321	0.298	-0.413
-395.136	63.827	-0.422	-0.424
-394.121	-105.695	-0.319	0.072
-393.106	65.349	-0.331	0.334
-392.092	-73.884	-0.229	0.083
-391.077	-200.000	0.026	0.211
-390.063	48.622	0.224	0.210
-389.048	26.667	0.102	0.085
-388.033	800.000	-0.077	0.295
-387.019	37.243	-0.151	-0.133
-386.004	-200.000	0.037	0.205
-384.990	-70.048	-0.089	-0.034
-383.975	90.513	-0.116	-0.130
-382.960	32.891	-0.205	0.177
-381.946	-200.000	0.002	0.216
-380.931	-200.000	-0.030	0.409
-379.917	-200.000	0.006	-0.210
-378.902	800.000	-0.018	0.054
-377.888	-58.327	-0.177	0.077
-376.873	275.171	0.109	0.194
-375.858	-20.578	0.183	-0.112
-374.844	685.866	-0.144	0.376
-373.829	524.482	0.121	0.284
-372.815	800.000	0.007	0.032
-371.800	4.076	0.275	-0.201
-370.785	-200.000	0.022	0.119
-369.771	-135.123	-0.172	-0.021
-368.756	281.501	-0.097	-0.173
-367.742	446.328	0.063	-0.139
-366.727	129.978	0.221	-0.282
-365.712	232.832	0.191	0.314
-364.698	-102.740	0.117	0.028
-363.683	-59.197	0.280	0.120
-362.669	156.774	-0.036	-0.049
-361.654	95.730	0.204	-0.232
-360.639	8.512	-0.145	0.109
-359.625	-200.000	0.012	-0.222
-358.610	-200.000	0.008	0.381
-357.596	800.000	0.057	0.250
-356.581	-161.833	0.367	0.019
-355.566	-79.693	-0.348	-0.117
-354.552	-69.414	0.184	-0.070
-353.537	5.901	0.158	-0.117
-352.523	20.646	0.277	-0.224
-351.508	800.000	0.041	-0.144
-350.493	800.000	0.048	-0.208
-349.479	78.727	0.182	0.194
-348.464	-67.400	0.430	0.168
-347.450	71.970	0.165	-0.171
-346.435	61.973	0.183	-0.182
-345.420	-29.603	-0.091	-0.052
-344.406	158.830	-0.136	-0.189
-343.391	28.601	0.220	0.186
-342.377	-200.000	0.012	-0.394
-341.362	-156.546	-0.086	0.005
-340.348	-69.745	-0.076	-0.029
-339.333	-200.000	-0.030	-0.138
-338.318	-57.739	-0.338	-0.147
-337.304	42.379	0.214	-0.194
-336.289	251.496	0.185	0.314
-335.275	-200.000	-0.010	0.154
-334.260	210.455	0.197	0.308
-333.245	-53.087	-0.117	-0.054
-332.231	315.553	-0.080	0.149
-331.216	-200.000	-0.002	-0.094
-330.202	209.037	0.153	0.238
-329.187	-200.000	-0.062	0.286
-328.172	-159.684	-0.233	0.013
-327.158	167.129	-0.192	0.271
-326.143	-36.291	-0.235	-0.126
-325.129	-49.974	-0.231	0.109
-324.114	-18.915	-0.108	-0.067
-323.099	21.331	0.144	-0.117
-322.085	-200.000	0.002	-0.046
-321.070	84.050	-0.057	0.062
-320.056	800.000	0.032	0.136
-319.041	-43.955	-0.147	-0.074
-318.026	-200.000	-0.024	0.367
-317.012	73.205	0.188	-0.196
-315.997	800.000	0.035	-0.114
-314.983	800.000	-0.095	0.301
-313.968	-52.830	-0.283	-0.130
-312.953	800.000	0.044	-0.138
-311.939	-84.416	0.084	-0.026
-310.924	-2.337	0.083	0.058
-309.910	48.719	0.236	0.221
-308.895	140.212	-0.188	0.248
-307.880	-199.430	-0.329	0.002
-306.866	-200.000	-0.002	0.089
-305.851	226.000	-0.103	-0.167
-304.837	800.000	0.071	-0.276
-303.822	-3.526	-0.296	0.205
-302.807	144.940	-0.141	0.188
-301.793	496.546	-0.096	-0.219
-300.778	-107.436	-0.352	-0.077
-299.764	40.461	-0.157	-0.141
-298.749	84.190	0.049	-0.053
-297.735	648.462	-0.056	-0.144
-296.720	-104.597	-0.084	0.019
-295.705	-200.000	-0.028	-0.216
-294.691	-59.118	-0.141	0.060
-293.676	287.242	-0.098	0.176
-292.662	-84.867	-0.260	0.081
-291.647	421.756	0.085	0.181
-290.632	-161.682	-0.233	-0.012
-289.618	-131.641	0.279	0.037
-288.603	-37.538	-0.053	-0.028
-287.589	35.483	0.237	-0.207
-286.574	-200.000	0.001	-0.086
-285.559	28.040	-0.109	-0.091
-284.545	800.000	0.022	-0.081
-283.530	-195.522	0.375	-0.003
-282.516	-9.077	0.175	-0.116
-281.501	-52.919	-0.244	-0.112
-280.486	161.389	0.100	-0.139
-279.472	-120.416	0.074	0.013
-278.457	-200.000	0.053	-0.279
-277.443	-87.675	-0.160	-0.048
-276.428	184.748	-0.132	0.195
-275.413	47.531	0.115	-0.106
-274.399	-200.000	-0.014	0.265
-273.384	-79.321	-0.140	-0.047
-272.370	-200.000	0.029	-0.258
-271.355	205.630	-0.073	-0.112
-270.340	96.971	0.155	0.177
-269.326	-18.729	-0.095	-0.059
-268.311	800.000	-0.047	-0.200
-267.297	-29.489	-0.296	0.168
-266.282	-79.428	0.466	-0.157
-265.267	-200.000	0.046	-0.214
-264.253	42.085	0.268	-0.242
-263.238	-3.605	0.297	0.205
-262.224	457.739	0.044	0.097
-261.209	-200.000	-0.075	0.446
-260.195	800.000	0.133	0.471
-259.180	480.199	0.057	0.129
-258.165	94.419	-0.129	0.145
-257.151	-93.506	0.251	0.069
-256.136	10.455	-0.336	0.254
-255.122	800.000	0.053	-0.163
-254.107	-47.203	0.071	-0.034
-253.092	380.547	0.132	-0.269
-252.078	-36.531	0.215	-0.115
-251.063	-19.109	0.181	0.112
-250.049	-83.026	-0.158	0.051
-249.034	-200.000	-0.030	0.439
-248.019	-26.429	0.197	0.115
-247.005	177.466	0.192	-0.278
-245.990	69.152	0.083	0.085
-244.976	-7.377	0.146	0.098
-243.961	-24.351	0.155	0.092
-242.946	-66.493	-0.186	0.073
-241.932	-153.375	-0.086	0.006
-240.917	-90.264	0.208	-0.060
-239.903	-135.982	0.279	0.033
-238.888	-135.032	0.317	0.038
-237.873	70.858	-0.103	0.106
-236.859	800.000	-0.109	0.348
-235.844	160.966	-0.184	-0.255
-234.830	-68.059	-0.100	-0.039
-233.815	-176.257	-0.188	-0.005
-232.800	800.000	-0.144	0.503
-231.786	-37.786	0.105	0.055
-230.771	97.126	-0.089	-0.101
-229.757	-153.616	-0.268	-0.018
-228.742	-148.961	0.284	0.023
-227.727	205.964	0.057	-0.088
-226.713	-59.634	-0.177	0.075
-225.698	-27.665	0.090	0.052
-224.684	-108.666	-0.204	-0.043
-223.669	-200.000	0.028	0.161
-222.655	-169.260	-0.184	-0.007
-221.640	612.282	0.069	0.172
-220.625	-200.000	0.051	0.274
-219.611	-26.199	-0.123	-0.072
-218.596	-200.000	-0.022	-0.121
-217.582	1.354	0.212	-0.151
-216.567	109.633	-0.117	-0.140
-215.552	110.571	-0.248	0.296
-214.538	800.000	0.129	-0.417
-213.523	2.188	0.122	-0.087
-212.509	-200.000	-0.016	-0.086
-211.494	72.025	-0.041	-0.042
-210.479	-9.605	-0.070	-0.046
-209.465	-78.002	0.219	-0.075
-208.450	200.857	-0.228	-0.348
-207.436	800.000	0.044	0.130
-206.421	-200.000	-0.011	0.175
-205.406	56.259	0.073	-0.071
-204.392	-144.622	0.079	-0.007
-203.377	-200.000	-0.018	0.226
-202.363	-60.478	-0.532	0.224
-201.348	800.000	0.031	0.124
-200.333	154.575	0.199	0.271
-199.319	-200.000	0.032	0.162
-198.304	-94.809	-0.160	0.043
-197.290	-200.000	0.002	0.267
-196.275	-118.318	-0.243	-0.043
-195.260	-35.764	0.207	-0.111
-194.246	92.223	-0.055	0.061
-193.231	-200.000	-0.098	0.499
-192.217	428.048	-0.148	-0.317
-191.202	26.011	-0.096	-0.079
-190.187	-128.083	-0.340	0.048
-189.173	22.580	-0.110	-0.089
-188.158	-200.000	0.028	0.198
-187.144	-29.398	0.291	0.165
-186.129	346.129	0.075	0.146
-185.114	37.926	-0.099	-0.087
-184.100	103.635	0.124	0.144
-183.085	-172.148	-0.320	-0.010
-182.071	-200.000	0.005	0.198
-181.056	800.000	-0.066	0.262
-180.042	79.792	0.317	-0.338
-179.027	-137.119	-0.241	0.027
-178.012	-41.435	-0.086	0.044
-176.998	-63.709	0.207	-0.084
-175.983	195.644	0.130	0.195
-174.969	-200.000	-0.009	0.208
-173.954	-142.208	-0.117	-0.011
-172.939	-28.212	0.145	-0.083
-171.925	-200.000	-0.013	-0.137
-170.910	-200.000	0.057	-0.381
-169.896	-149.079	0.320	0.025
-168.881	800.000	-0.080	0.231
-167.866	-200.000	-0.016	-0.116
-166.852	-197.587	-0.122	0.001
-165.837	-200.000	-0.040	-0.234
-164.823	342.245	0.137	0.266
-163.808	240.468	0.045	-0.074
-162.793	7.905	-0.040	-0.030
-161.779	-23.209	-0.162	0.097
-160.764	-36.780	0.304	-0.162
-159.750	303.970	0.098	-0.179
-158.735	180.081	0.059	0.086
-157.720	222.652	0.046	0.074
-156.706	87.427	0.230	-0.252
-155.691	-132.771	0.295	-0.037
-154.677	-139.854	-0.052	0.005
-153.662	-104.044	-0.228	-0.053
-152.647	-140.960	0.182	-0.019
-151.633	800.000	-0.023	0.081
-150.618	206.722	-0.030	-0.046
-149.604	376.630	-0.041	-0.082
-148.589	37.002	-0.186	0.163
-147.574	-17.422	0.157	-0.098
-146.560	-200.000	0.025	-0.122
-145.545	177.898	-0.158	-0.228
-144.531	155.099	-0.067	0.092
-143.516	135.242	0.129	-0.166
-142.502	17.549	-0.124	-0.098
-141.487	800.000	0.072	-0.209
-140.472	-128.070	0.174	0.025
-139.458	-200.000	-0.015	-0.162
-138.443	-46.649	-0.176	0.085
-137.429	800.000	-0.136	-0.385
-136.414	-104.832	-0.172	0.039
-135.399	-33.140	0.192	0.105
-134.385	-111.832	-0.429	0.086
-133.370	800.000	-0.087	0.350
-132.356	-200.000	0.052	0.224
-131.341	-200.000	0.051	0.336
-130.326	-137.987	0.289	0.032
-129.312	657.426	-0.126	0.320
-128.297	800.000	-0.026	-0.090
-127.283	-200.000	0.007	0.068
-126.268	-200.000	-0.028	-0.184
-125.253	800.000	0.067	0.247
-124.239	-200.000	-0.006	-0.147
-123.224	-90.905	0.229	-0.065
-122.210	-200.000	-0.008	-0.291
