DTS Sentinel unit serial number:	SN413079Multiplexer serial number:	ORYXHardware model number:	OX4-SRSoftware version number:	ORYX F/W v4.00 Oryx Data Collector v3.7.2.0data status	okinstallation	princeton_trtdifferential loss correction	single-endedforward channel	channel 4reverse channel	N/Adate	2019/09/11time	05:39:10forward acquisition time	60.00reverse acquisition time	0.00gamma	496.2192k internal	0.2316k external	0.2316temperature offset calibration	0.9947default loss term (dB/km)	0.3790temperature slope calibration	1.0000multiplexer offset coefficient	1.0000multiplexer slope coefficient	1.0000fibre end	0.00T internal ref (°C)	29.41T ext. ref 1 (°C)	-0.24T ext. ref 2 (°C)	23.32length (m)	temperature (°C)	Stokes	anti-Stokes-747.200	309.327	0.094	0.179
-746.185	513.504	-0.101	-0.238
-745.171	-106.649	0.342	0.077
-744.156	351.086	-0.138	0.278
-743.142	-6.942	-0.271	0.187
-742.127	800.000	-0.057	0.204
-741.112	-200.000	0.006	-0.098
-740.098	-26.736	0.129	0.076
-739.083	800.000	0.107	0.327
-738.069	-200.000	0.011	0.240
-737.054	432.120	-0.108	0.237
-736.039	-94.441	-0.284	0.079
-735.025	-200.000	-0.029	0.474
-734.010	248.665	-0.096	0.165
-732.996	-200.000	0.055	-0.588
-731.981	52.622	-0.072	-0.069
-730.966	-89.778	-0.172	-0.051
-729.952	-63.473	-0.274	-0.114
-728.937	-116.866	-0.153	0.028
-727.923	-27.064	0.315	0.186
-726.908	230.486	0.074	0.123
-725.894	0.836	-0.117	-0.085
-724.879	85.701	-0.098	-0.109
-723.864	75.096	0.197	0.210
-722.850	-7.599	-0.159	0.109
-721.835	2.357	-0.146	-0.107
-720.821	48.136	-0.170	0.161
-719.806	69.113	0.091	0.094
-718.791	-200.000	0.059	0.267
-717.777	81.248	0.119	-0.130
-716.762	94.999	0.136	-0.156
-715.748	233.838	0.030	0.050
-714.733	800.000	0.063	-0.221
-713.718	800.000	0.075	0.296
-712.704	800.000	-0.101	0.312
-711.689	308.086	-0.149	0.281
-710.675	-200.000	-0.065	-0.607
-709.660	222.694	0.177	-0.288
-708.645	108.884	-0.114	-0.138
-707.631	508.276	-0.046	-0.108
-706.616	78.770	0.139	-0.151
-705.602	-200.000	0.040	-0.377
-704.587	347.550	0.153	-0.304
-703.572	153.198	0.076	-0.105
-702.558	-44.392	0.153	0.077
-701.543	192.007	-0.053	0.080
-700.529	-200.000	0.020	-0.146
-699.514	108.129	-0.097	0.117
-698.499	-200.000	0.015	0.391
-697.485	-200.000	0.011	0.298
-696.470	800.000	-0.031	-0.099
-695.456	636.074	0.074	-0.189
-694.441	-79.542	0.195	-0.067
-693.426	-200.000	0.031	0.303
-692.412	-55.282	0.113	0.051
-691.397	322.531	-0.107	0.206
-690.383	240.041	0.051	-0.085
-689.368	31.829	-0.268	-0.233
-688.354	15.132	0.075	0.060
-687.339	156.166	-0.211	0.294
-686.324	-107.301	-0.094	-0.021
-685.310	-23.795	0.264	0.160
-684.295	-6.949	-0.075	-0.052
-683.281	800.000	-0.074	0.264
-682.266	72.427	0.183	0.193
-681.251	650.295	-0.035	-0.090
-680.237	109.341	-0.031	-0.037
-679.222	-17.262	0.158	0.101
-678.208	4.687	-0.180	-0.134
-677.193	166.854	0.122	-0.175
-676.178	293.788	0.079	0.146
-675.164	280.851	-0.219	-0.395
-674.149	93.111	0.181	0.206
-673.135	-144.869	0.377	-0.035
-672.120	-114.593	-0.404	0.078
-671.105	-28.670	-0.069	0.040
-670.091	132.204	-0.125	-0.163
-669.076	-50.428	0.264	0.126
-668.062	-51.517	-0.163	-0.077
-667.047	800.000	0.069	-0.290
-666.032	-200.000	0.019	0.275
-665.018	1.585	0.158	0.115
-664.003	-200.000	-0.019	-0.182
-662.989	14.996	0.199	-0.157
-661.974	19.071	0.099	0.080
-660.959	74.743	0.120	-0.127
-659.945	-200.000	-0.003	0.075
-658.930	193.386	-0.091	-0.140
-657.916	62.225	-0.172	-0.173
-656.901	254.826	-0.138	0.238
-655.886	800.000	0.045	0.127
-654.872	-172.366	0.212	-0.007
-653.857	-93.558	0.516	0.144
-652.843	-135.698	0.154	-0.018
-651.828	-81.039	-0.106	0.035
-650.814	-165.637	-0.207	0.009
-649.799	174.220	-0.160	0.233
-648.784	-70.928	0.115	-0.044
-647.770	-200.000	0.004	-0.291
-646.755	39.769	-0.017	0.015
-645.741	101.829	-0.129	-0.152
-644.726	-129.642	-0.231	-0.032
-643.711	618.912	-0.115	-0.292
-642.697	-65.797	-0.294	0.119
-641.682	-182.883	0.278	-0.005
-640.668	108.988	-0.188	0.227
-639.653	-200.000	-0.022	0.130
-638.638	800.000	0.057	-0.217
-637.624	602.781	0.061	0.153
-636.609	-159.398	0.216	0.012
-635.595	356.845	0.211	0.424
-634.580	16.867	-0.248	-0.198
-633.565	-155.031	0.231	0.015
-632.551	-77.108	0.129	-0.045
-631.536	24.546	-0.071	-0.059
-630.522	131.680	-0.192	-0.249
-629.507	-35.819	-0.197	-0.108
-628.492	800.000	0.054	0.228
-627.478	-200.000	-0.028	0.149
-626.463	-60.806	-0.395	-0.169
-625.449	-77.599	-0.163	0.057
-624.434	-112.156	-0.389	0.079
-623.419	-148.650	0.168	-0.014
-622.405	-79.259	-0.229	-0.078
-621.390	-18.029	0.217	0.137
-620.376	-200.000	-0.046	-0.220
-619.361	-200.000	0.004	-0.113
-618.346	-97.980	-0.042	-0.011
-617.332	-200.000	-0.023	0.311
-616.317	-103.659	-0.144	0.034
-615.303	-81.057	-0.304	-0.102
-614.288	-200.000	0.014	-0.223
-613.273	-129.498	-0.250	-0.035
-612.259	219.820	0.055	-0.088
-611.244	163.556	0.129	0.183
-610.230	-200.000	-0.009	0.399
-609.215	-1.660	0.141	-0.100
-608.201	-63.459	-0.225	-0.093
-607.186	228.693	0.090	-0.148
-606.171	266.850	-0.086	-0.152
-605.157	800.000	0.046	0.163
-604.142	-133.345	0.084	-0.011
-603.128	55.627	-0.156	0.152
-602.113	-176.390	-0.283	0.007
-601.098	63.309	0.106	-0.107
-600.084	800.000	-0.115	0.451
-599.069	-129.179	0.383	-0.054
-598.055	-2.773	-0.119	-0.084
-597.040	25.762	-0.173	-0.145
-596.025	192.763	-0.051	-0.078
-595.011	-109.870	-0.201	0.043
-593.996	800.000	0.007	0.026
-592.982	-9.895	-0.443	0.297
-591.967	161.871	0.152	-0.214
-590.952	-42.844	-0.170	0.087
-589.938	-200.000	0.000	-0.141
-588.923	-26.535	0.346	-0.204
-587.909	412.004	0.024	-0.051
-586.894	104.196	0.238	-0.282
-585.879	-7.321	0.456	0.311
-584.865	-17.860	-0.081	0.051
-583.850	800.000	-0.083	-0.235
-582.836	-96.564	-0.037	-0.010
-581.821	123.593	-0.280	0.353
-580.806	-176.356	0.464	0.012
-579.792	-80.999	-0.132	-0.044
-578.777	-200.000	0.015	-0.110
-577.763	-200.000	0.012	0.000
-576.748	15.187	0.054	-0.043
-575.733	800.000	-0.054	-0.231
-574.719	-23.437	-0.086	-0.052
-573.704	-200.000	-0.014	-0.105
-572.690	34.859	0.124	-0.109
-571.675	-42.508	-0.272	-0.139
-570.661	-200.000	-0.016	0.243
-569.646	437.275	0.048	0.105
-568.631	231.678	0.131	-0.217
-567.617	800.000	0.062	-0.258
-566.602	-12.221	-0.073	0.048
-565.588	49.525	-0.036	0.034
-564.573	-200.000	-0.005	-0.080
-563.558	-8.425	-0.233	0.157
-562.544	-55.499	-0.189	0.085
-561.529	-47.968	-0.098	-0.048
-560.515	-117.304	-0.320	-0.058
-559.500	-16.194	-0.160	0.102
-558.485	-39.221	-0.292	0.154
-557.471	46.349	0.222	-0.207
-556.456	-200.000	0.024	-0.194
-555.442	24.414	0.291	-0.242
-554.427	268.265	-0.086	0.152
-553.412	-50.609	-0.462	0.219
-552.398	254.061	-0.107	0.185
-551.383	-84.376	0.455	-0.145
-550.369	3.578	0.131	0.096
-549.354	-200.000	-0.013	0.130
-548.339	800.000	-0.103	0.299
-547.325	-141.418	-0.154	0.016
-546.310	800.000	-0.030	-0.101
-545.296	-24.490	-0.101	0.060
-544.281	-117.882	0.135	0.024
-543.266	-22.240	0.199	-0.122
-542.252	587.951	-0.144	-0.357
-541.237	-74.230	0.190	-0.069
-540.223	60.356	0.462	0.460
-539.208	31.415	-0.264	0.228
-538.193	-83.991	0.307	0.098
-537.179	-200.000	-0.003	0.134
-536.164	285.577	-0.074	0.133
-535.150	-108.568	-0.398	-0.086
-534.135	-124.206	-0.057	-0.009
-533.121	-25.403	-0.277	0.165
-532.106	-100.553	0.448	0.111
-531.091	-17.265	0.129	-0.082
-530.077	56.263	-0.206	-0.201
-529.062	-70.934	-0.054	0.020
-528.048	74.493	-0.176	-0.186
-527.033	2.514	-0.304	-0.221
-526.018	-3.798	-0.137	0.096
-525.004	-200.000	-0.011	0.088
-523.989	800.000	0.053	0.181
-522.975	-113.411	-0.174	0.034
-521.960	800.000	-0.081	-0.284
-520.945	-32.163	0.095	-0.053
-519.931	141.820	0.148	-0.197
-518.916	-168.852	-0.161	0.006
-517.902	-200.000	0.012	0.333
-516.887	30.028	0.161	0.138
-515.872	-148.980	0.136	-0.011
-514.858	-111.028	0.246	0.051
-513.843	80.215	-0.037	0.039
-512.829	800.000	0.012	0.037
-511.814	-200.000	0.008	-0.419
-510.799	-64.911	-0.377	-0.153
-509.785	54.088	-0.186	-0.180
-508.770	-122.376	-0.080	0.013
-507.756	104.670	0.256	-0.302
-506.741	800.000	0.034	0.109
-505.726	53.315	-0.410	-0.394
-504.712	-57.843	0.089	-0.039
-503.697	-200.000	-0.019	0.306
-502.683	800.000	0.111	0.315
-501.668	43.308	-0.226	0.207
-500.653	800.000	0.061	-0.202
-499.639	-200.000	0.021	-0.187
-498.624	111.310	-0.036	0.044
-497.610	80.435	-0.224	0.242
-496.595	-200.000	-0.005	-0.065
-495.581	-86.487	0.466	0.144
-494.566	105.427	-0.162	0.192
-493.551	-43.063	-0.195	0.099
-492.537	800.000	-0.012	-0.054
-491.522	-35.147	0.131	0.072
-490.508	-200.000	0.020	-0.204
-489.493	-92.015	-0.351	0.100
-488.478	-200.000	0.031	0.206
-487.464	-200.000	0.004	-0.216
-486.449	-115.022	-0.301	0.057
-485.435	-200.000	-0.048	-0.214
-484.420	-35.424	0.118	0.064
-483.405	-155.199	-0.530	0.035
-482.391	14.188	0.172	0.134
-481.376	209.240	0.095	0.149
-480.362	-200.000	0.014	-0.075
-479.347	624.531	0.094	-0.237
-478.332	-85.410	0.120	-0.037
-477.318	-48.315	0.306	-0.148
-476.303	388.998	-0.083	-0.171
-475.289	800.000	0.069	0.247
-474.274	-200.000	0.004	-0.317
-473.259	62.693	0.141	-0.141
-472.245	388.562	0.120	0.248
-471.230	-129.278	-0.112	-0.016
-470.216	408.199	0.059	-0.124
-469.201	-125.396	0.500	0.076
-468.186	-85.334	0.094	-0.029
-467.172	-1.556	-0.128	0.091
-466.157	-162.434	0.248	0.012
-465.143	54.293	-0.165	-0.159
-464.128	95.603	-0.164	-0.187
-463.113	-80.242	-0.197	-0.066
-462.099	-200.000	-0.046	0.325
-461.084	-154.908	-0.114	0.008
-460.070	-28.943	0.064	0.037
-459.055	-31.616	0.029	0.016
-458.040	-85.165	-0.193	-0.060
-457.026	-200.000	0.064	-0.282
-456.011	27.506	0.266	0.224
-454.997	-139.925	0.207	-0.022
-453.982	91.723	0.227	0.256
-452.968	-200.000	-0.009	0.209
-451.953	-124.642	0.430	-0.067
-450.938	-200.000	-0.004	0.022
-449.924	-20.756	-0.108	-0.067
-448.909	5.900	0.335	-0.248
-447.895	800.000	-0.065	-0.240
-446.880	-200.000	-0.022	0.105
-445.865	94.440	-0.071	0.081
-444.851	-166.808	-0.072	-0.003
-443.836	509.380	0.045	0.105
-442.822	101.166	-0.163	0.190
-441.807	27.078	0.325	0.273
-440.792	373.651	0.074	0.152
-439.778	25.255	-0.027	-0.023
-438.763	-200.000	0.009	-0.301
-437.749	15.491	0.066	0.052
-436.734	-79.480	0.210	-0.071
-435.719	-200.000	0.037	-0.229
-434.705	400.701	0.053	0.110
-433.690	-155.664	0.332	0.021
-432.676	117.366	0.092	-0.113
-431.661	-37.246	0.225	0.121
-430.646	32.209	0.364	0.315
-429.632	63.325	-0.053	-0.054
-428.617	72.858	-0.138	0.144
-427.603	800.000	-0.036	-0.133
-426.588	89.145	0.144	0.161
-425.573	-120.358	-0.478	-0.082
-424.559	650.720	-0.125	0.320
-423.544	-44.075	0.263	-0.132
-422.530	-156.060	-0.183	-0.012
-421.515	-38.470	-0.245	-0.130
-420.500	165.581	0.155	-0.219
-419.486	98.224	0.132	-0.152
-418.471	-113.041	0.404	0.080
-417.457	-200.000	0.015	0.233
-416.442	107.039	0.314	0.373
-415.428	427.718	-0.133	0.287
-414.413	423.042	-0.148	-0.318
-413.398	800.000	0.016	-0.067
-412.384	-134.134	-0.348	-0.043
-411.369	-200.000	-0.006	0.187
-410.355	42.722	-0.228	-0.208
-409.340	116.500	-0.220	-0.270
-408.325	-10.150	-0.252	0.168
-407.311	-90.442	-0.226	-0.065
-406.296	-109.841	-0.074	-0.016
-405.282	-135.258	-0.465	-0.056
-404.267	10.428	0.225	0.171
-403.252	430.038	0.114	0.247
-402.238	-111.400	-0.162	-0.033
-401.223	-85.883	-0.051	0.016
-400.209	75.573	0.097	0.102
-399.194	64.594	0.052	-0.052
-398.179	359.275	-0.132	0.264
-397.165	-74.912	-0.145	0.052
-396.150	130.577	-0.150	0.192
-395.136	-200.000	0.007	-0.208
-394.121	79.218	-0.012	0.013
-393.106	800.000	-0.141	-0.461
-392.092	55.602	-0.116	-0.113
-391.077	583.556	-0.104	-0.256
-390.063	712.784	0.045	0.118
-389.048	-200.000	-0.011	0.161
-388.033	371.110	-0.109	0.221
-387.019	-47.454	-0.289	0.141
-386.004	-28.037	0.254	0.147
-384.990	-62.316	-0.271	0.113
-383.975	-200.000	0.004	-0.204
-382.960	-27.217	-0.022	-0.013
-381.946	-33.639	-0.252	-0.139
-380.931	53.352	-0.183	0.176
-379.917	-200.000	0.001	-0.267
-378.902	199.632	-0.050	-0.077
-377.888	-169.705	0.373	-0.013
-376.873	-200.000	0.017	0.186
-375.858	333.293	-0.144	0.278
-374.844	552.663	-0.155	-0.372
-373.829	-146.662	0.343	-0.030
-372.815	68.051	-0.253	-0.258
-371.800	-68.957	-0.045	0.017
-370.785	-200.000	0.026	0.187
-369.771	-200.000	-0.004	0.191
-368.756	-83.680	0.279	0.089
-367.742	-56.682	-0.362	-0.160
-366.727	235.107	0.074	-0.122
-365.712	-200.000	0.019	0.390
-364.698	73.701	-0.133	0.139
-363.683	583.241	0.156	-0.382
-362.669	-200.000	0.032	0.142
-361.654	-200.000	-0.042	-0.242
-360.639	-113.773	-0.146	-0.028
-359.625	-55.507	-0.202	-0.090
-358.610	-146.258	0.423	-0.037
-357.596	-200.000	0.013	-0.280
-356.581	-79.573	0.165	0.056
-355.566	800.000	-0.043	0.134
-354.552	262.538	0.198	0.343
-353.537	-128.623	-0.499	0.070
-352.523	-200.000	0.009	0.059
-351.508	-14.212	-0.222	0.143
-350.493	-55.798	0.159	-0.071
-349.479	-145.020	0.344	0.031
-348.464	-200.000	-0.009	0.113
-347.450	593.625	-0.134	-0.332
-346.435	41.685	-0.097	0.087
-345.420	112.042	-0.106	0.128
-344.406	74.040	-0.249	0.260
-343.391	177.738	0.068	-0.099
-342.377	676.038	-0.106	0.273
-341.362	-200.000	-0.262	-0.000
-340.348	11.344	0.036	0.027
-339.333	235.439	-0.139	0.229
-338.318	89.650	0.205	0.228
-337.304	-200.000	-0.106	-0.563
-336.289	-13.584	0.293	-0.189
-335.275	90.112	-0.246	0.274
-334.260	-72.769	-0.190	-0.070
-333.245	-7.754	0.317	0.213
-332.231	-34.738	0.136	-0.074
-331.216	-173.095	-0.043	-0.001
-330.202	-112.982	0.232	-0.046
-329.187	-40.257	-0.157	-0.082
-328.172	199.025	-0.140	0.213
-327.158	-200.000	0.001	0.174
-326.143	129.487	-0.308	0.392
-325.129	219.079	0.125	-0.199
-324.114	159.220	0.063	-0.087
-323.099	21.101	-0.274	-0.221
-322.085	-100.223	0.196	0.048
-321.070	-53.466	0.192	0.088
-320.056	-75.805	0.166	0.059
-319.041	705.246	-0.096	-0.253
-318.026	-119.021	-0.152	0.027
-317.012	-106.426	-0.163	-0.036
-315.997	-61.275	0.159	-0.067
-314.983	-200.000	-0.033	-0.272
-313.968	-200.000	0.019	-0.127
-312.953	15.937	0.187	0.147
-311.939	52.694	-0.033	-0.032
-310.924	-69.847	0.284	-0.108
-309.910	652.176	0.109	0.278
-308.895	-67.594	0.174	0.068
-307.880	36.090	0.243	0.213
-306.866	-27.153	-0.223	0.130
-305.851	186.482	-0.171	-0.253
-304.837	800.000	-0.114	-0.406
-303.822	-128.031	0.224	-0.032
-302.807	147.644	0.094	0.126
-301.793	-74.880	-0.019	-0.007
-300.778	-200.000	-0.010	-0.057
-299.764	10.549	0.055	-0.042
-298.749	596.460	0.028	-0.068
-297.735	-35.199	0.285	-0.154
-296.720	147.327	0.029	0.039
-295.705	-200.000	-0.017	-0.168
-294.691	272.205	0.074	0.130
-293.676	-200.000	-0.025	-0.302
-292.662	199.941	-0.139	0.212
-291.647	-60.392	0.198	0.084
-290.632	-125.056	-0.394	-0.060
-289.618	800.000	-0.031	0.104
-288.603	-23.683	0.258	-0.154
-287.589	-18.934	0.368	-0.228
-286.574	2.399	0.209	-0.151
-285.559	-3.589	0.465	-0.322
-284.545	68.531	0.372	-0.380
-283.530	450.794	-0.059	-0.130
-282.516	232.679	-0.300	-0.490
-281.501	65.180	0.227	0.228
-280.486	-82.649	0.266	0.086
-279.472	-38.083	-0.181	0.095
-278.457	-10.828	0.179	0.118
-277.443	800.000	-0.125	0.404
-276.428	489.388	0.083	0.189
-275.413	-117.060	0.320	0.058
-274.399	800.000	-0.058	-0.184
-273.384	800.000	0.078	-0.340
-272.370	738.212	0.102	0.273
-271.355	278.296	0.089	-0.158
-270.340	151.357	-0.177	-0.240
-269.326	451.354	0.052	0.115
-268.311	-85.268	0.275	0.086
-267.297	-200.000	-0.017	-0.177
-266.282	43.475	0.047	0.043
-265.267	267.609	0.114	0.199
-264.253	800.000	-0.076	0.261
-263.238	-106.985	0.129	0.028
-262.224	-174.935	0.197	0.005
-261.209	-70.737	0.076	0.029
-260.195	-67.480	0.083	0.032
-259.180	116.835	0.211	0.258
-258.165	554.020	-0.029	-0.068
-257.151	-200.000	-0.043	0.374
-256.136	19.684	-0.191	-0.153
-255.122	-25.672	0.141	-0.083
-254.107	-84.555	-0.115	0.036
-253.092	136.409	0.149	0.193
-252.078	-60.381	-0.192	-0.081
-251.063	49.331	-0.117	0.110
-250.049	-26.703	0.104	-0.060
-249.034	-23.426	-0.196	-0.117
-248.019	284.089	-0.165	0.295
-247.005	-93.501	0.308	-0.085
-245.990	-180.476	0.281	0.006
-244.976	-164.679	0.149	-0.007
-243.961	-18.966	0.491	-0.303
-242.946	-129.067	-0.541	-0.075
-241.932	-200.000	-0.016	0.191
-240.917	36.490	0.255	-0.223
-239.903	-23.148	0.093	0.056
-238.888	-200.000	-0.069	0.304
-237.873	185.476	-0.282	-0.416
-236.859	109.132	0.116	-0.138
-235.844	800.000	0.053	-0.197
-234.830	32.146	0.060	-0.052
-233.815	-97.886	0.408	-0.105
-232.800	-190.396	-0.192	0.002
-231.786	203.369	0.183	0.282
-230.771	786.441	0.088	-0.240
-229.757	-19.963	0.165	0.101
-228.742	2.134	0.161	0.115
-227.727	0.699	0.304	-0.216
-226.713	-9.747	0.432	-0.286
-225.698	84.040	0.187	-0.203
-224.684	-75.609	0.281	0.099
-223.669	594.894	-0.131	0.322
-222.655	748.360	-0.005	-0.014
-221.640	-200.000	-0.008	0.222
-220.625	-0.843	-0.192	0.135
-219.611	-51.251	0.334	0.155
-218.596	-200.000	0.029	-0.129
-217.582	-78.870	-0.367	0.124
-216.567	-73.497	-0.048	-0.017
-215.552	-130.883	-0.464	0.062
-214.538	338.615	-0.049	-0.095
-213.523	800.000	-0.001	0.004
-212.509	-12.025	-0.073	-0.048
-211.494	36.946	0.306	0.269
-210.479	-200.000	0.059	0.408
-209.465	-106.553	-0.157	0.035
-208.450	-167.111	-0.364	0.015
-207.436	-200.000	0.197	0.000
-206.421	-112.719	0.457	-0.090
-205.406	-133.422	-0.081	-0.010
-204.392	27.546	-0.069	0.057
-203.377	-91.869	0.081	0.023
-202.363	-200.000	-0.013	0.118
-201.348	124.802	0.100	-0.124
-200.333	618.627	0.137	0.340
-199.319	-200.000	-0.006	0.091
-198.304	117.264	-0.202	-0.247
-197.290	-35.650	-0.137	-0.074
-196.275	-83.111	0.311	0.099
-195.260	-63.479	-0.136	-0.055
-194.246	-66.123	-0.124	0.049
-193.231	180.758	0.037	0.055
-192.217	-200.000	-0.006	0.247
-191.202	-200.000	0.014	-0.062
-190.187	-38.276	0.408	0.214
-189.173	-200.000	-0.005	0.126
-188.158	-18.327	0.189	-0.117
-187.144	8.981	0.085	0.063
-186.129	124.237	0.141	0.176
-185.114	70.728	-0.142	0.145
-184.100	-132.224	-0.050	-0.006
-183.085	-200.000	-0.002	-0.032
-182.071	66.496	0.172	-0.173
-181.056	705.717	0.025	0.066
-180.042	549.589	0.094	0.223
-179.027	-95.779	-0.214	-0.057
-178.012	800.000	0.029	-0.118
-176.998	93.481	-0.270	-0.303
-175.983	-3.959	-0.328	-0.226
-174.969	-66.455	-0.219	-0.086
-173.954	322.635	-0.209	-0.394
-172.939	-200.000	-0.006	0.174
-171.925	105.571	-0.114	0.133
-170.910	-117.358	-0.143	-0.026
-169.896	-133.040	0.169	-0.021
-168.881	558.568	-0.126	-0.302
-167.866	29.842	0.371	0.313
-166.852	-92.329	-0.078	0.022
-165.837	-141.752	0.076	0.008
-164.823	261.556	-0.124	-0.212
-163.808	-139.317	-0.331	0.035
-162.793	664.553	-0.056	0.144
-161.779	45.829	-0.177	-0.162
-160.764	105.523	0.114	-0.134
-159.750	-200.000	-0.212	0.000
-158.735	280.809	0.266	0.471
-157.720	-16.917	-0.067	-0.042
-156.706	-136.069	0.105	0.012
-155.691	251.694	-0.098	-0.166
-154.677	800.000	-0.027	0.092
-153.662	779.456	0.185	-0.500
-152.647	610.156	-0.040	-0.098
-151.633	800.000	-0.081	-0.276
-150.618	800.000	-0.086	0.322
-149.604	102.951	0.113	0.131
-148.589	4.181	0.215	-0.156
-147.574	250.262	-0.144	0.242
-146.560	-96.180	0.299	-0.079
-145.545	219.195	0.058	0.093
-144.531	-157.557	0.248	0.015
-143.516	334.485	-0.179	0.344
-142.502	202.442	0.118	0.181
-141.487	356.111	0.078	0.154
-140.472	494.690	-0.174	0.396
-139.458	-50.560	-0.092	-0.043
-138.443	-200.000	0.007	0.147
-137.429	-163.383	0.173	0.008
-136.414	-200.000	-0.025	0.124
-135.399	-132.090	-0.016	-0.002
-134.385	-78.173	-0.129	-0.044
-133.370	-145.520	0.214	-0.019
-132.356	-200.000	-0.026	0.503
-131.341	73.113	-0.189	0.195
-130.326	60.339	-0.169	0.165
-129.312	-176.135	-0.194	0.005
-128.297	-82.307	-0.233	0.075
-127.283	99.388	-0.117	0.134
-126.268	457.654	-0.090	-0.199
-125.253	-114.928	0.049	-0.009
-124.239	374.786	-0.087	-0.175
-123.224	131.067	-0.239	0.303
-122.210	-102.989	0.153	0.036
-121.195	-132.501	-0.129	0.016
