DTS Sentinel unit serial number:	SN413079Multiplexer serial number:	ORYXHardware model number:	OX4-SRSoftware version number:	ORYX F/W v4.00 Oryx Data Collector v3.7.2.0data status	okinstallation	princeton_trtdifferential loss correction	single-endedforward channel	channel 4reverse channel	N/Adate	2019/09/15time	06:05:35forward acquisition time	60.00reverse acquisition time	0.00gamma	496.2192k internal	0.2311k external	0.2311temperature offset calibration	1.0038default loss term (dB/km)	0.3790temperature slope calibration	1.0000multiplexer offset coefficient	1.0000multiplexer slope coefficient	1.0000fibre end	0.00T internal ref (°C)	30.58T ext. ref 1 (°C)	4.84T ext. ref 2 (°C)	25.14length (m)	temperature (°C)	Stokes	anti-Stokes-747.200	-52.314	-0.084	-0.039
-746.185	800.000	0.053	0.219
-745.171	-28.006	0.083	-0.049
-744.156	311.217	-0.216	0.412
-743.142	-134.975	0.285	0.035
-742.127	-133.987	-0.047	-0.006
-741.112	-81.040	0.203	0.068
-740.098	-37.048	-0.208	-0.113
-739.083	-105.119	0.192	0.045
-738.069	-33.309	0.254	0.143
-737.054	99.904	-0.058	-0.068
-736.039	43.642	-0.142	0.132
-735.025	-73.709	-0.388	0.143
-734.010	-29.051	-0.318	-0.185
-732.996	800.000	0.062	-0.232
-731.981	-200.000	-0.052	-0.235
-730.966	-35.835	-0.160	-0.088
-729.952	800.000	-0.112	0.399
-728.937	154.260	-0.107	-0.149
-727.923	-154.661	-0.327	-0.022
-726.908	-117.931	0.134	0.024
-725.894	-16.784	-0.183	0.118
-724.879	800.000	0.138	0.428
-723.864	-200.000	0.020	0.229
-722.850	-157.304	-0.055	0.003
-721.835	-56.991	-0.163	-0.073
-720.821	-114.082	-0.138	-0.027
-719.806	-72.919	-0.197	-0.073
-718.791	26.121	0.174	-0.148
-717.777	8.238	-0.156	-0.119
-716.762	-200.000	-0.048	0.243
-715.748	-200.000	0.004	-0.204
-714.733	-90.454	0.118	-0.035
-713.718	800.000	-0.131	0.403
-712.704	69.983	-0.222	-0.232
-711.689	-195.345	-0.202	0.002
-710.675	-33.665	0.179	0.100
-709.660	800.000	0.026	-0.092
-708.645	-41.610	-0.217	-0.113
-707.631	30.044	0.234	0.203
-706.616	-200.000	0.006	-0.195
-705.602	-21.237	-0.148	-0.092
-704.587	523.858	0.112	0.266
-703.572	126.439	-0.047	0.061
-702.558	-23.951	-0.033	0.020
-701.543	-200.000	-0.015	0.179
-700.529	35.130	0.124	0.110
-699.514	-60.345	-0.228	-0.098
-698.499	441.333	0.076	0.168
-697.485	-98.571	-0.344	-0.089
-696.470	-104.111	-0.215	0.051
-695.456	175.402	0.124	0.183
-694.441	23.479	0.347	-0.290
-693.426	-125.624	-0.059	0.009
-692.412	-200.000	0.033	0.249
-691.397	-24.251	-0.026	0.016
-690.383	80.535	-0.075	-0.082
-689.368	211.481	0.102	0.162
-688.354	132.540	-0.052	0.068
-687.339	-200.000	-0.043	-0.236
-686.324	83.287	-0.174	0.192
-685.310	-57.323	0.302	0.135
-684.295	117.242	-0.229	0.285
-683.281	169.329	-0.057	0.083
-682.266	-95.962	-0.247	0.067
-681.251	-200.000	-0.006	0.076
-680.237	-82.121	0.418	0.138
-679.222	51.894	0.078	0.076
-678.208	-117.297	-0.082	-0.015
-677.193	-48.427	-0.176	0.086
-676.178	-200.000	0.026	-0.121
-675.164	-200.000	-0.023	-0.221
-674.149	257.277	0.126	-0.219
-673.135	63.873	0.138	-0.140
-672.120	-91.341	0.130	-0.038
-671.105	-144.503	0.315	0.030
-670.091	-38.048	0.175	0.094
-669.076	-200.000	-0.016	-0.103
-668.062	-200.000	-0.017	0.202
-667.047	800.000	0.032	-0.099
-666.032	-200.000	-0.029	-0.166
-665.018	800.000	-0.090	0.336
-664.003	800.000	0.079	-0.270
-662.989	800.000	-0.036	-0.116
-661.974	173.930	-0.245	-0.358
-660.959	14.218	-0.059	-0.047
-659.945	-37.312	-0.191	0.103
-658.930	-62.297	-0.179	0.076
-657.916	141.301	-0.272	0.364
-656.901	98.360	-0.211	0.246
-655.886	214.901	0.232	-0.372
-654.872	327.104	0.061	-0.118
-653.857	-149.539	0.148	-0.012
-652.843	27.092	0.051	0.043
-651.828	-131.694	-0.284	-0.038
-650.814	419.918	0.036	0.079
-649.799	498.646	-0.158	-0.368
-648.784	-200.000	0.022	0.110
-647.770	-82.879	-0.199	0.065
-646.755	-20.235	0.166	-0.103
-645.741	-138.656	-0.171	0.019
-644.726	800.000	-0.113	0.419
-643.711	-185.724	0.291	0.004
-642.697	800.000	-0.070	-0.225
-641.682	147.448	0.042	0.057
-640.668	800.000	0.058	0.177
-639.653	-200.000	-0.012	-0.082
-638.638	179.697	-0.163	0.242
-637.624	-77.510	0.399	-0.140
-636.609	95.144	-0.189	0.218
-635.595	23.075	-0.227	-0.188
-634.580	-200.000	-0.017	-0.077
-633.565	-3.727	0.119	0.084
-632.551	35.379	-0.187	0.166
-631.536	800.000	0.021	-0.080
-630.522	71.572	-0.079	0.083
-629.507	-40.792	-0.201	-0.105
-628.492	-174.559	0.150	0.004
-627.478	-200.000	-0.005	-0.101
-626.463	-200.000	0.013	-0.256
-625.449	-200.000	0.018	-0.097
-624.434	-185.338	0.193	0.003
-623.419	66.003	-0.144	-0.148
-622.405	800.000	0.122	-0.384
-621.390	-56.480	0.069	-0.031
-620.376	115.192	-0.248	0.306
-619.361	412.893	-0.142	-0.305
-618.346	337.544	-0.216	-0.424
-617.332	-23.666	0.156	0.094
-616.317	338.160	0.088	0.173
-615.303	800.000	-0.062	0.263
-614.288	-129.273	0.138	-0.019
-613.273	-10.473	0.017	0.012
-612.259	-128.203	0.188	0.027
-611.244	90.543	-0.117	0.132
-610.230	704.244	0.167	-0.444
-609.215	800.000	0.046	0.179
-608.201	-109.730	0.370	-0.079
-607.186	27.821	-0.113	-0.096
-606.171	-130.220	0.381	0.052
-605.157	-107.607	0.095	0.021
-604.142	213.156	0.143	0.228
-603.128	148.285	0.093	-0.127
-602.113	38.216	-0.083	0.074
-601.098	269.557	0.175	0.310
-600.084	-12.100	-0.211	0.140
-599.069	220.918	0.060	-0.097
-598.055	0.570	0.167	-0.121
-597.040	13.127	-0.363	0.284
-596.025	128.469	-0.089	0.115
-595.011	-200.000	0.001	0.107
-593.996	67.501	-0.160	-0.165
-592.982	-200.000	0.017	0.105
-591.967	-23.772	-0.225	-0.136
-590.952	61.546	-0.115	0.115
-589.938	-200.000	-0.036	-0.256
-588.923	23.386	0.051	-0.043
-587.909	800.000	0.048	0.197
-586.894	210.065	0.157	-0.249
-585.879	-43.322	0.224	0.114
-584.865	-8.065	-0.272	0.185
-583.850	-17.567	-0.198	0.126
-582.836	800.000	0.046	-0.148
-581.821	-154.718	-0.147	0.010
-580.806	71.467	-0.133	-0.139
-579.792	27.745	0.149	0.126
-578.777	5.495	0.038	-0.029
-577.763	-180.160	-0.298	-0.006
-576.748	-102.245	0.178	-0.043
-575.733	190.308	0.172	0.261
-574.719	-70.707	-0.315	-0.120
-573.704	-49.474	0.338	-0.162
-572.690	-26.248	-0.097	-0.057
-571.675	-178.995	-0.109	-0.002
-570.661	49.900	0.171	0.163
-569.646	-200.000	0.062	0.325
-568.631	-46.118	0.191	0.095
-567.617	213.181	-0.079	-0.126
-566.602	-62.632	-0.195	0.082
-565.588	562.161	-0.090	0.220
-564.573	-106.400	-0.174	-0.039
-563.558	465.852	-0.051	-0.116
-562.544	678.150	-0.044	-0.116
-561.529	202.271	0.205	-0.319
-560.515	128.039	-0.044	0.056
-559.500	-200.000	0.065	0.374
-558.485	197.394	-0.168	0.259
-557.471	127.913	-0.231	0.297
-556.456	316.373	-0.065	0.124
-555.442	-26.389	0.102	0.060
-554.427	-200.000	-0.039	-0.316
-553.412	-131.395	-0.055	0.007
-552.398	-100.979	0.262	-0.065
-551.383	47.030	-0.283	0.265
-550.369	-184.756	0.238	0.004
-549.354	-1.324	-0.282	-0.201
-548.339	-154.112	0.577	0.039
-547.325	-200.000	-0.004	-0.039
-546.310	387.592	-0.037	-0.077
-545.296	303.502	0.119	-0.222
-544.281	109.391	0.187	-0.226
-543.266	135.515	-0.169	0.221
-542.252	-127.949	0.119	0.017
-541.237	-76.768	-0.112	0.040
-540.223	-113.301	-0.153	0.030
-539.208	-86.881	-0.093	-0.029
-538.193	-138.526	0.095	0.011
-537.179	3.661	0.142	-0.104
-536.164	545.641	0.038	0.092
-535.150	-200.000	0.018	0.133
-534.135	139.233	-0.201	0.266
-533.121	53.663	-0.087	0.084
-532.106	544.798	-0.020	-0.047
-531.091	-13.388	-0.335	0.219
-530.077	-154.331	-0.215	-0.015
-529.062	-99.844	0.119	0.030
-528.048	-98.703	0.068	0.017
-527.033	123.727	-0.193	0.244
-526.018	-49.573	0.225	0.108
-525.004	-126.570	0.113	-0.017
-523.989	45.314	-0.149	0.138
-522.975	-158.413	0.215	-0.013
-521.960	-139.585	0.269	0.029
-520.945	56.877	-0.145	-0.142
-519.931	-70.060	-0.140	-0.054
-518.916	-138.423	-0.450	0.050
-517.902	800.000	-0.114	0.345
-516.887	486.727	0.059	0.136
-515.872	-200.000	-0.029	-0.130
-514.858	-53.373	0.215	-0.099
-513.843	13.670	0.187	0.146
-512.829	-119.077	-0.123	-0.022
-511.814	87.064	0.318	-0.353
-510.799	176.403	0.158	0.231
-509.785	-106.639	-0.171	0.038
-508.770	-200.000	0.077	0.342
-507.756	-11.175	-0.112	-0.074
-506.741	-74.351	-0.310	-0.112
-505.726	2.045	-0.052	-0.038
-504.712	185.466	-0.034	-0.051
-503.697	263.537	-0.206	-0.360
-502.683	107.519	0.111	-0.133
-501.668	269.440	-0.097	0.172
-500.653	-200.000	-0.012	0.327
-499.639	-44.059	-0.095	-0.048
-498.624	56.121	-0.301	-0.294
-497.610	680.838	-0.029	-0.076
-496.595	-91.161	-0.191	-0.055
-495.581	162.249	0.267	0.377
-494.566	-58.142	-0.405	-0.177
-493.551	59.255	0.317	-0.314
-492.537	34.192	-0.297	-0.260
-491.522	-115.471	0.224	-0.042
-490.508	-16.219	-0.134	-0.086
-489.493	-71.695	0.161	-0.060
-488.478	-23.928	-0.226	0.136
-487.464	800.000	-0.061	0.193
-486.449	-154.391	-0.053	0.004
-485.435	-181.392	0.142	0.003
-484.420	31.742	-0.028	0.024
-483.405	-78.427	-0.373	0.129
-482.391	-200.000	0.018	-0.441
-481.376	20.073	-0.275	-0.223
-480.362	800.000	0.046	-0.182
-479.347	-75.314	0.211	0.076
-478.332	-134.063	0.374	0.046
-477.318	234.733	-0.084	0.139
-476.303	-140.393	0.169	-0.018
-475.289	-77.171	0.196	0.069
-474.274	189.649	-0.235	-0.354
-473.259	-200.000	0.025	0.201
-472.245	-102.079	-0.242	-0.059
-471.230	-200.000	-0.003	0.056
-470.216	-24.820	-0.208	0.124
-469.201	-200.000	-0.039	-0.291
-468.186	63.317	0.188	0.190
-467.172	-101.065	0.317	-0.078
-466.157	800.000	0.026	-0.104
-465.143	-82.789	0.113	-0.037
-464.128	557.301	0.098	-0.238
-463.113	-200.000	0.002	0.031
-462.099	-111.325	-0.033	0.007
-461.084	800.000	-0.084	0.289
-460.070	95.358	-0.100	-0.115
-459.055	19.475	0.366	-0.295
-458.040	53.523	0.088	0.085
-457.026	17.713	-0.180	-0.144
-456.011	61.523	-0.169	0.169
-454.997	318.935	0.068	-0.129
-453.982	-59.856	-0.130	0.056
-452.968	173.962	0.057	0.082
-451.953	-200.000	-0.061	0.273
-450.938	195.602	-0.101	-0.154
-449.924	-65.534	-0.159	0.064
-448.909	-200.000	-0.043	0.356
-447.895	170.760	0.037	0.054
-446.880	-105.641	0.060	-0.014
-445.865	322.088	-0.088	0.168
-444.851	76.497	-0.220	-0.234
-443.836	-200.000	0.101	-0.578
-442.822	409.797	-0.126	-0.267
-441.807	-200.000	-0.001	0.006
-440.792	-45.589	0.247	-0.123
-439.778	-200.000	0.049	0.289
-438.763	-200.000	0.023	0.189
-437.749	-47.841	-0.222	0.108
-436.734	-200.000	0.044	-0.306
-435.719	-200.000	0.075	-0.421
-434.705	-69.514	-0.187	-0.072
-433.690	94.351	0.034	-0.038
-432.676	-86.354	-0.434	0.134
-431.661	327.183	-0.196	-0.377
-430.646	-200.000	0.008	0.052
-429.632	-200.000	-0.009	-0.149
-428.617	779.763	-0.063	-0.172
-427.603	-200.000	0.014	-0.259
-426.588	-124.942	-0.105	-0.016
-425.573	-71.779	-0.314	0.117
-424.559	800.000	-0.092	0.278
-423.544	291.821	-0.094	-0.172
-422.530	-200.000	-0.020	-0.168
-421.515	800.000	-0.067	0.205
-420.500	-105.173	0.321	-0.073
-419.486	-111.673	0.378	0.077
-418.471	-136.303	-0.157	-0.018
-417.457	-200.000	0.014	-0.153
-416.442	-200.000	-0.037	-0.216
-415.428	-139.482	0.418	0.045
-414.413	796.408	-0.035	-0.098
-413.398	267.356	-0.060	0.105
-412.384	34.590	0.016	0.014
-411.369	-169.398	-0.273	-0.010
-410.355	-169.562	0.133	0.005
-409.340	347.541	0.199	-0.393
-408.325	108.304	0.194	0.232
-407.311	-67.316	0.348	-0.137
-406.296	-200.000	0.011	0.227
-405.282	-200.000	-0.052	0.272
-404.267	-188.521	0.334	-0.004
-403.252	686.964	0.045	-0.117
-402.238	-12.834	0.105	-0.069
-401.223	297.475	-0.112	0.206
-400.209	800.000	-0.056	-0.201
-399.194	-200.000	-0.018	0.339
-398.179	800.000	0.069	0.254
-397.165	-110.062	0.190	0.040
-396.150	300.796	-0.097	0.180
-395.136	11.905	-0.323	0.249
-394.121	-63.560	-0.136	-0.056
-393.106	-6.530	-0.333	-0.227
-392.092	40.169	-0.143	0.128
-391.077	-200.000	0.004	-0.074
-390.063	-149.914	-0.252	0.020
-389.048	-86.168	0.240	-0.074
-388.033	248.940	0.131	-0.222
-387.019	565.012	0.029	0.071
-386.004	146.022	-0.056	0.075
-384.990	-200.000	-0.004	0.125
-383.975	124.443	0.060	-0.075
-382.960	-15.610	-0.336	0.215
-381.946	-168.046	-0.034	0.001
-380.931	-200.000	0.008	0.045
-379.917	-61.340	0.298	0.126
-378.902	-83.259	0.263	-0.085
-377.888	-1.233	-0.108	-0.076
-376.873	-44.842	0.059	-0.029
-375.858	-64.630	0.432	-0.175
-374.844	115.433	-0.075	-0.092
-373.829	800.000	-0.054	0.172
-372.815	-164.787	0.297	0.013
-371.800	562.225	-0.187	0.452
-370.785	-200.000	-0.037	-0.171
-369.771	796.007	0.099	0.272
-368.756	800.000	-0.084	-0.250
-367.742	-68.820	0.152	-0.059
-366.727	-200.000	0.009	-0.079
-365.712	-164.506	0.237	0.011
-364.698	4.124	0.375	-0.274
-363.683	-45.719	0.268	0.132
-362.669	-132.910	0.226	0.029
-361.654	-84.937	-0.209	-0.066
-360.639	249.449	-0.091	-0.154
-359.625	19.151	0.252	-0.203
-358.610	-118.522	0.201	-0.036
-357.596	-155.958	-0.277	0.018
-356.581	-31.797	-0.256	-0.143
-355.566	752.345	0.079	0.214
-354.552	576.047	0.110	-0.268
-353.537	231.910	0.081	-0.133
-352.523	218.162	0.241	-0.385
-351.508	128.859	-0.224	-0.286
-350.493	800.000	0.030	0.125
-349.479	80.742	0.138	-0.149
-348.464	-200.000	-0.045	-0.262
-347.450	-89.713	-0.262	-0.077
-346.435	-35.818	0.185	-0.100
-345.420	800.000	-0.082	0.263
-344.406	-50.869	-0.219	-0.103
-343.391	-83.843	0.478	-0.152
-342.377	-200.000	0.053	0.290
-341.362	83.364	0.066	0.072
-340.348	-25.622	-0.249	0.147
-339.333	-123.839	-0.121	0.019
-338.318	374.635	-0.153	0.312
-337.304	-35.418	0.260	-0.141
-336.289	-114.011	-0.363	-0.070
-335.275	43.887	0.165	0.151
-334.260	-55.137	0.252	0.113
-333.245	800.000	-0.032	-0.111
-332.231	-27.333	0.130	-0.076
-331.216	-147.771	-0.286	-0.024
-330.202	529.062	0.145	0.342
-329.187	-59.471	0.068	0.029
-328.172	244.817	0.104	0.175
-327.158	-200.000	0.012	-0.097
-326.143	-200.000	0.014	0.113
-325.129	-200.000	-0.049	-0.301
-324.114	-67.582	0.088	0.034
-323.099	4.313	0.011	0.008
-322.085	-200.000	-0.032	0.334
-321.070	-38.964	-0.215	0.113
-320.056	116.157	0.152	0.186
-319.041	-126.344	-0.157	0.023
-318.026	198.279	-0.033	-0.051
-317.012	-125.597	-0.306	-0.046
-315.997	800.000	0.060	-0.250
-314.983	-144.006	0.136	-0.013
-313.968	210.017	-0.108	-0.170
-312.953	-183.878	-0.203	-0.003
-311.939	-70.310	-0.297	0.113
-310.924	-99.855	0.095	0.024
-309.910	152.178	-0.106	0.145
-308.895	-47.959	-0.265	0.128
-307.880	261.543	0.188	0.326
-306.866	55.794	-0.264	0.256
-305.851	-101.905	0.093	0.022
-304.837	63.607	-0.164	0.165
-303.822	-77.722	-0.048	-0.016
-302.807	550.377	0.161	-0.386
-301.793	74.682	0.107	0.112
-300.778	-200.000	-0.020	-0.180
-299.764	-200.000	-0.008	-0.390
-298.749	-57.974	0.081	-0.035
-297.735	-24.608	0.313	-0.186
-296.720	-200.000	-0.029	-0.235
-295.705	-84.095	-0.191	0.060
-294.691	758.998	-0.031	-0.085
-293.676	217.587	0.032	0.051
-292.662	434.153	0.077	-0.166
-291.647	95.500	-0.097	-0.110
-290.632	19.488	-0.077	-0.062
-289.618	-200.000	0.035	-0.162
-288.603	-200.000	0.242	-0.001
-287.589	-36.315	-0.135	0.073
-286.574	653.509	0.019	-0.048
-285.559	-59.709	-0.197	-0.084
-284.545	-171.621	-0.248	-0.008
-283.530	160.213	-0.145	0.202
-282.516	14.029	0.117	-0.091
-281.501	-200.000	-0.010	0.273
-280.486	26.089	0.325	0.270
-279.472	248.296	0.117	0.197
-278.457	-200.000	0.010	-0.249
-277.443	-29.097	0.380	-0.217
-276.428	-41.650	-0.122	0.063
-275.413	-166.019	0.039	0.002
-274.399	-38.388	-0.085	-0.045
-273.384	411.876	-0.120	0.255
-272.370	774.042	-0.052	-0.141
-271.355	-93.020	0.266	0.074
-270.340	-144.928	-0.272	0.025
-269.326	293.542	-0.107	0.194
-268.311	-142.440	0.249	0.024
-267.297	-80.917	-0.232	-0.077
-266.282	85.333	-0.173	-0.189
-265.267	19.440	-0.117	-0.094
-264.253	-135.303	-0.047	-0.006
-263.238	13.742	-0.142	0.110
-262.224	-140.444	-0.246	-0.026
-261.209	-94.021	0.365	0.100
-260.195	800.000	-0.049	-0.203
-259.180	33.289	0.122	0.106
-258.165	800.000	-0.053	-0.169
-257.151	-57.908	0.250	0.109
-256.136	-200.000	-0.016	-0.091
-255.122	-17.184	0.126	0.079
-254.107	-45.954	0.094	-0.046
-253.092	-106.795	0.236	-0.052
-252.078	-121.491	0.318	-0.053
-251.063	2.768	-0.158	0.114
-250.049	26.748	0.129	0.108
-249.034	-200.000	-0.038	-0.407
-248.019	-164.644	0.394	0.018
-247.005	112.651	-0.032	-0.038
-245.990	800.000	0.088	-0.243
-244.976	-24.188	0.228	-0.135
-243.961	800.000	0.056	0.222
-242.946	-146.547	0.110	0.010
-241.932	-25.426	-0.323	0.190
-240.917	94.592	0.126	-0.142
-239.903	800.000	-0.080	-0.252
-238.888	-141.046	-0.317	-0.032
-237.873	628.446	-0.076	-0.191
-236.859	-173.615	0.247	-0.007
-235.844	-115.111	0.233	0.044
-234.830	-70.392	-0.399	-0.151
-233.815	-101.820	0.311	-0.075
-232.800	800.000	-0.020	-0.084
-231.786	-64.336	0.300	-0.121
-230.771	72.748	0.067	-0.069
-229.757	310.856	-0.313	0.583
-228.742	-200.000	-0.058	0.279
-227.727	113.578	0.010	-0.012
-226.713	-200.000	-0.018	-0.335
-225.698	-185.672	-0.486	-0.007
-224.684	-70.883	-0.236	-0.088
-223.669	10.666	-0.163	-0.124
-222.655	58.613	0.259	-0.253
-221.640	337.229	0.186	0.360
-220.625	-200.000	0.005	-0.025
-219.611	-200.000	0.024	0.244
-218.596	458.091	0.096	-0.211
-217.582	39.245	-0.239	0.212
-216.567	31.942	0.221	0.189
-215.552	501.441	0.171	0.393
-214.538	-68.346	0.150	-0.058
-213.523	277.217	0.012	-0.022
-212.509	366.290	-0.103	0.207
-211.494	-161.499	-0.197	-0.010
-210.479	-200.000	-0.033	-0.168
-209.465	-17.005	-0.180	0.113
-208.450	87.661	-0.090	0.099
-207.436	-200.000	0.079	0.578
-206.421	-123.291	-0.048	0.008
-205.406	293.745	0.132	0.240
-204.392	720.401	0.051	-0.134
-203.377	-200.000	0.010	0.166
-202.363	15.293	0.145	0.113
-201.348	-145.332	0.251	-0.023
-200.333	128.076	0.082	0.104
-199.319	224.351	0.060	0.096
-198.304	800.000	-0.019	0.072
-197.290	-75.370	-0.342	0.121
-196.275	179.243	0.049	0.071
-195.260	-81.221	-0.078	0.025
-194.246	-128.548	0.177	0.025
-193.231	146.448	-0.083	0.110
-192.217	36.247	0.274	-0.240
-191.202	-63.928	-0.061	0.025
-190.187	-200.000	0.026	0.219
-189.173	39.695	0.236	0.211
-188.158	-91.406	0.297	0.084
-187.144	222.967	-0.023	0.037
-186.129	359.035	0.043	0.086
-185.114	47.559	0.035	-0.032
-184.100	-200.000	0.003	0.185
-183.085	-77.463	0.257	-0.089
-182.071	-89.464	0.155	0.045
-181.056	-9.892	-0.269	0.178
-180.042	-9.828	0.198	-0.131
-179.027	-12.383	-0.100	-0.065
-178.012	-143.248	0.441	-0.042
-176.998	-51.702	-0.264	-0.122
-175.983	184.826	-0.061	-0.091
-174.969	-45.184	-0.333	-0.164
-173.954	-200.000	0.294	0.000
-172.939	-103.664	-0.238	-0.055
-171.925	800.000	-0.107	0.334
-170.910	800.000	-0.118	-0.331
-169.896	800.000	0.023	-0.074
-168.881	-55.834	0.203	0.090
-167.866	164.538	-0.203	-0.284
-166.852	800.000	0.105	-0.290
-165.837	69.326	0.028	0.029
-164.823	24.524	0.101	-0.083
-163.808	-38.741	-0.281	-0.147
-162.793	-28.927	-0.238	-0.136
-161.779	94.133	-0.046	-0.052
-160.764	379.100	-0.095	0.192
-159.750	800.000	-0.073	-0.238
-158.735	800.000	0.059	0.242
-157.720	274.322	0.150	0.263
-156.706	64.025	0.087	-0.087
-155.691	79.071	-0.115	0.122
-154.677	491.996	0.143	0.325
-153.662	-200.000	0.017	-0.135
-152.647	-101.877	0.218	-0.052
-151.633	-170.255	-0.294	0.010
-150.618	87.441	0.108	0.119
-149.604	800.000	0.039	0.161
-148.589	-200.000	0.031	-0.261
-147.574	553.320	-0.132	-0.314
-146.560	-86.805	0.093	0.028
-145.545	24.958	-0.200	0.165
-144.531	749.113	0.105	-0.281
-143.516	-146.796	-0.281	0.024
-142.502	585.970	-0.075	0.182
-141.487	-118.209	0.116	-0.021
-140.472	23.092	0.135	0.110
-139.458	-86.373	0.055	0.017
-138.443	-62.726	-0.191	0.079
-137.429	344.732	0.151	-0.293
-136.414	-149.637	-0.121	0.009
-135.399	-37.634	-0.267	0.141
-134.385	-101.044	-0.290	0.071
-133.370	800.000	0.022	0.079
-132.356	-200.000	0.058	-0.463
-131.341	50.283	0.200	-0.187
-130.326	158.076	-0.225	0.310
-129.312	-127.896	0.192	-0.027
-128.297	10.651	0.243	0.184
-127.283	366.440	-0.131	-0.263
-126.268	278.563	0.081	0.142
-125.253	-200.000	-0.014	0.166
-124.239	36.885	0.381	0.334
-123.224	-156.716	0.343	-0.021
-122.210	-200.000	-0.065	-0.337
