DTS Sentinel unit serial number:	SN413079Multiplexer serial number:	ORYXHardware model number:	OX4-SRSoftware version number:	ORYX F/W v4.00 Oryx Data Collector v3.7.2.0data status	okinstallation	princeton_trtdifferential loss correction	single-endedforward channel	channel 4reverse channel	N/Adate	2019/09/18time	00:33:34forward acquisition time	60.00reverse acquisition time	0.00gamma	496.2192k internal	0.2333k external	0.2333temperature offset calibration	0.9998default loss term (dB/km)	0.3790temperature slope calibration	1.0000multiplexer offset coefficient	1.0000multiplexer slope coefficient	1.0000fibre end	0.00T internal ref (°C)	23.50T ext. ref 1 (°C)	0.17T ext. ref 2 (°C)	17.16length (m)	temperature (°C)	Stokes	anti-Stokes-747.200	253.018	0.107	0.184
-746.185	800.000	0.088	0.379
-745.171	-123.827	-0.271	0.043
-744.156	104.845	-0.195	-0.231
-743.142	144.771	0.167	0.224
-742.127	-200.000	-0.010	-0.302
-741.112	-164.563	0.382	-0.017
-740.098	-28.994	-0.225	0.130
-739.083	44.416	-0.118	0.109
-738.069	367.022	-0.113	0.230
-737.054	-137.968	-0.340	-0.038
-736.039	-156.119	-0.105	-0.007
-735.025	530.889	0.061	0.146
-734.010	132.366	-0.052	-0.068
-732.996	269.959	-0.073	-0.128
-731.981	800.000	-0.111	0.442
-730.966	-30.621	0.200	0.114
-729.952	-139.167	-0.093	-0.010
-728.937	-149.515	-0.208	0.017
-727.923	126.595	-0.149	0.190
-726.908	-101.654	-0.075	0.018
-725.894	106.535	-0.111	0.133
-724.879	288.225	-0.076	0.138
-723.864	108.995	0.244	-0.293
-722.850	-200.000	-0.051	-0.296
-721.835	-106.765	0.310	0.069
-720.821	-111.832	-0.134	-0.027
-719.806	-200.000	0.034	-0.179
-718.791	800.000	0.065	0.202
-717.777	63.905	-0.092	0.093
-716.762	800.000	0.016	-0.057
-715.748	109.849	0.183	-0.221
-714.733	-158.623	-0.294	0.017
-713.718	-150.486	0.169	0.013
-712.704	-6.055	-0.104	0.071
-711.689	-200.000	0.020	-0.255
-710.675	350.921	0.128	-0.255
-709.660	800.000	0.097	-0.388
-708.645	800.000	-0.038	-0.149
-707.631	-200.000	0.012	0.124
-706.616	-116.326	-0.082	-0.015
-705.602	-128.820	-0.243	0.034
-704.587	475.909	-0.156	-0.353
-703.572	380.601	0.094	0.194
-702.558	-50.402	-0.321	-0.152
-701.543	-149.604	-0.032	-0.003
-700.529	80.444	0.134	0.144
-699.514	230.106	0.048	-0.079
-698.499	-92.883	-0.320	0.090
-697.485	-17.758	0.140	0.088
-696.470	-200.000	0.034	0.279
-695.456	225.412	0.139	0.225
-694.441	800.000	-0.059	-0.212
-693.426	244.955	-0.038	-0.064
-692.412	31.054	0.183	-0.157
-691.397	800.000	-0.031	0.112
-690.383	206.646	-0.062	0.097
-689.368	-56.015	-0.246	0.110
-688.354	-85.918	0.225	0.070
-687.339	-8.542	-0.147	-0.099
-686.324	364.940	-0.057	-0.114
-685.310	-200.000	-0.006	0.161
-684.295	800.000	0.038	-0.119
-683.281	253.860	-0.022	0.038
-682.266	-127.609	-0.157	0.023
-681.251	-80.685	0.098	0.033
-680.237	239.109	-0.269	-0.448
-679.222	-200.000	-0.007	0.163
-678.208	-200.000	-0.050	0.297
-677.193	-92.484	-0.074	0.021
-676.178	-32.245	0.176	-0.098
-675.164	343.182	-0.106	-0.208
-674.149	90.807	-0.232	-0.261
-673.135	-200.000	0.008	-0.054
-672.120	-49.801	0.305	0.145
-671.105	43.487	-0.030	-0.027
-670.091	-127.036	0.122	0.018
-669.076	-109.738	0.283	0.060
-668.062	-101.047	-0.109	0.027
-667.047	800.000	-0.079	0.297
-666.032	105.370	0.085	0.100
-665.018	274.979	-0.183	0.325
-664.003	-200.000	-0.020	-0.190
-662.989	19.451	-0.095	0.077
-661.974	-99.246	-0.076	-0.019
-660.959	695.614	-0.120	0.316
-659.945	-200.000	-0.046	0.322
-658.930	148.360	0.080	-0.108
-657.916	-91.926	-0.437	0.124
-656.901	-57.771	0.054	-0.024
-655.886	734.411	0.034	0.092
-654.872	452.104	0.173	0.383
-653.857	196.377	-0.022	0.033
-652.843	161.250	0.060	-0.084
-651.828	26.730	-0.063	0.053
-650.814	-200.000	-0.047	-0.214
-649.799	79.213	0.066	0.071
-648.784	122.257	-0.113	-0.142
-647.770	-65.508	-0.060	0.024
-646.755	-140.293	0.102	0.011
-645.741	-200.000	0.000	-0.373
-644.726	1.775	-0.124	-0.090
-643.711	800.000	-0.009	-0.031
-642.697	234.881	-0.069	-0.114
-641.682	-120.181	-0.178	0.030
-640.668	800.000	0.107	0.346
-639.653	-200.000	0.041	-0.248
-638.638	-11.604	-0.086	0.057
-637.624	800.000	0.026	0.079
-636.609	-1.691	0.057	0.040
-635.595	-200.000	0.033	-0.616
-634.580	-200.000	-0.011	-0.280
-633.565	-200.000	-0.033	-0.203
-632.551	-200.000	-0.030	-0.177
-631.536	-87.412	0.169	0.051
-630.522	800.000	-0.037	-0.114
-629.507	529.353	0.097	-0.229
-628.492	789.134	0.037	0.102
-627.478	147.838	-0.153	0.206
-626.463	379.087	-0.211	0.432
-625.449	-85.718	-0.420	-0.130
-624.434	-200.000	0.075	-0.406
-623.419	800.000	0.060	0.247
-622.405	30.443	-0.050	-0.043
-621.390	35.287	0.138	-0.121
-620.376	93.891	-0.162	0.184
-619.361	-48.097	-0.355	0.172
-618.346	162.028	0.077	0.107
-617.332	-3.271	0.124	-0.086
-616.317	-200.000	0.021	-0.197
-615.303	546.675	0.154	-0.368
-614.288	190.726	0.239	-0.360
-613.273	-141.793	-0.190	-0.019
-612.259	67.684	-0.108	0.110
-611.244	-28.905	-0.199	0.114
-610.230	75.119	-0.279	-0.294
-609.215	160.207	-0.130	0.181
-608.201	27.123	-0.270	0.226
-607.186	-75.369	0.379	0.135
-606.171	337.419	-0.121	-0.235
-605.157	-125.038	0.111	-0.017
-604.142	-200.000	-0.033	-0.262
-603.128	17.466	0.239	-0.190
-602.113	-200.000	-0.004	0.083
-601.098	-17.000	0.153	-0.097
-600.084	607.583	-0.092	0.228
-599.069	451.470	-0.096	0.211
-598.055	800.000	-0.154	-0.514
-597.040	158.511	0.137	0.190
-596.025	234.406	0.232	-0.382
-595.011	360.702	0.102	0.204
-593.996	15.567	-0.184	0.144
-592.982	-56.631	-0.157	0.070
-591.967	-120.658	-0.116	0.020
-590.952	-33.643	-0.179	-0.099
-589.938	-200.000	-0.038	-0.309
-588.923	-94.422	0.187	0.051
-587.909	48.701	-0.151	0.141
-586.894	71.434	0.159	-0.164
-585.879	76.000	0.073	-0.077
-584.865	60.469	0.042	0.042
-583.850	170.050	0.084	0.120
-582.836	-14.445	-0.131	0.084
-581.821	-18.676	0.161	0.100
-580.806	-86.649	-0.266	-0.081
-579.792	-90.333	-0.264	0.076
-578.777	-164.496	0.145	-0.007
-577.763	36.028	0.242	-0.213
-576.748	8.100	-0.239	0.179
-575.733	-44.199	0.427	-0.214
-574.719	800.000	-0.111	-0.391
-573.704	-30.249	-0.115	-0.065
-572.690	-104.677	0.243	0.056
-571.675	42.439	-0.129	0.117
-570.661	448.632	-0.178	-0.392
-569.646	348.094	0.176	-0.346
-568.631	138.452	-0.287	0.377
-567.617	59.299	0.101	0.099
-566.602	198.704	0.071	0.109
-565.588	0.145	-0.077	-0.055
-564.573	18.296	-0.201	-0.160
-563.558	800.000	-0.049	-0.168
-562.544	120.771	0.079	-0.098
-561.529	182.446	0.049	0.072
-560.515	3.417	0.335	0.243
-559.500	18.291	-0.272	0.217
-558.485	800.000	-0.075	-0.272
-557.471	-200.000	0.028	0.132
-556.456	-42.539	0.100	-0.051
-555.442	-31.768	-0.124	0.069
-554.427	3.405	0.246	-0.179
-553.412	164.116	0.028	0.039
-552.398	340.761	0.033	0.065
-551.383	65.575	-0.128	0.129
-550.369	200.951	-0.092	0.141
-549.354	-65.841	-0.695	-0.278
-548.339	178.673	0.166	-0.243
-547.325	160.501	0.362	0.503
-546.310	-200.000	0.024	0.436
-545.296	3.928	-0.050	-0.037
-544.281	800.000	-0.084	-0.256
-543.266	597.870	0.178	-0.441
-542.252	-119.112	0.177	0.031
-541.237	-111.937	0.194	0.039
-540.223	-39.497	0.302	0.158
-539.208	-8.570	0.098	0.065
-538.193	-200.000	0.000	0.080
-537.179	-138.834	-0.461	0.050
-536.164	198.654	0.202	-0.309
-535.150	800.000	0.054	0.170
-534.135	-200.000	0.004	0.069
-533.121	-193.769	0.297	0.003
-532.106	68.269	0.111	0.113
-531.091	-200.000	-0.000	0.185
-530.077	17.405	-0.273	-0.216
-529.062	-81.466	0.081	0.027
-528.048	30.463	-0.147	-0.126
-527.033	-163.121	0.263	-0.013
-526.018	-84.108	-0.308	-0.097
-525.004	-141.671	-0.383	-0.038
-523.989	-149.249	-0.442	0.035
-522.975	-59.961	-0.236	-0.101
-521.960	370.879	-0.011	-0.022
-520.945	488.321	-0.134	-0.305
-519.931	621.530	0.031	0.079
-518.916	-126.898	0.287	0.042
-517.902	189.462	-0.200	0.299
-516.887	224.405	0.156	0.250
-515.872	-166.672	-0.260	-0.011
-514.858	428.357	0.072	0.154
-513.843	-200.000	-0.004	0.034
-512.829	566.335	-0.108	0.262
-511.814	-200.000	0.013	0.097
-510.799	-200.000	-0.012	-0.127
-509.785	-99.801	0.326	-0.081
-508.770	-44.712	0.203	0.101
-507.756	-48.474	-0.219	-0.105
-506.741	-42.338	0.371	0.189
-505.726	-105.875	-0.373	-0.084
-504.712	12.566	0.122	-0.094
-503.697	-200.000	-0.004	-0.225
-502.683	82.510	-0.111	0.120
-501.668	-200.000	0.047	-0.237
-500.653	79.560	-0.192	-0.206
-499.639	-81.734	0.235	0.077
-498.624	-60.102	0.346	-0.147
-497.610	-200.000	0.051	0.368
-496.595	-200.000	0.040	0.175
-495.581	-101.037	0.295	0.072
-494.566	800.000	-0.074	0.248
-493.551	-25.045	0.294	0.174
-492.537	16.136	-0.061	0.048
-491.522	50.048	-0.324	0.304
-490.508	153.102	0.097	-0.132
-489.493	321.495	-0.072	-0.136
-488.478	17.403	-0.199	0.157
-487.464	-54.820	0.377	0.169
-486.449	157.895	0.154	-0.213
-485.435	-200.000	-0.055	0.259
-484.420	-119.967	0.392	0.067
-483.405	800.000	0.092	-0.278
-482.391	800.000	0.033	0.092
-481.376	33.879	-0.234	0.203
-480.362	26.734	0.101	0.084
-479.347	91.003	0.338	-0.377
-478.332	800.000	-0.044	-0.153
-477.318	-105.813	-0.275	-0.062
-476.303	-200.000	-0.003	-0.082
-475.289	-184.461	0.114	0.002
-474.274	545.671	0.038	0.091
-473.259	800.000	-0.084	-0.343
-472.245	189.102	0.109	0.162
-471.230	203.805	-0.330	0.509
-470.216	-60.329	0.146	-0.062
-469.201	375.981	0.113	-0.230
-468.186	-200.000	0.015	0.263
-467.172	-200.000	-0.009	-0.217
-466.157	-47.712	0.256	-0.123
-465.143	25.338	0.138	0.114
-464.128	54.454	-0.219	-0.210
-463.113	5.720	0.090	-0.066
-462.099	82.466	-0.170	-0.184
-461.084	-23.864	0.408	0.243
-460.070	388.259	-0.088	-0.182
-459.055	-105.872	-0.193	0.043
-458.040	146.550	0.133	0.177
-457.026	167.526	-0.102	0.144
-456.011	-38.661	0.234	0.123
-454.997	52.690	-0.098	0.093
-453.982	-200.000	0.006	0.112
-452.968	23.824	-0.211	0.173
-451.953	-55.468	-0.164	0.073
-450.938	-200.000	-0.020	0.198
-449.924	-78.912	0.361	0.122
-448.909	-122.274	-0.166	0.027
-447.895	79.305	0.131	0.139
-446.880	15.814	-0.119	0.093
-445.865	157.021	0.095	0.131
-444.851	-178.749	0.199	-0.005
-443.836	-200.000	0.018	0.255
-442.822	-200.000	0.049	-0.242
-441.807	439.037	0.147	0.319
-440.792	-200.000	-0.007	-0.237
-439.778	-40.398	-0.577	-0.298
-438.763	19.948	0.220	0.176
-437.749	41.038	0.134	-0.120
-436.734	307.478	-0.163	0.301
-435.719	113.632	0.290	0.350
-434.705	289.174	-0.122	0.219
-433.690	737.182	-0.095	0.252
-432.676	-86.480	0.040	0.012
-431.661	-24.803	0.174	0.103
-430.646	161.122	0.116	-0.161
-429.632	800.000	0.087	0.344
-428.617	84.668	-0.054	0.059
-427.603	404.825	-0.032	0.067
-426.588	-64.948	0.205	-0.082
-425.573	80.570	-0.255	-0.273
-424.559	145.944	0.243	-0.323
-423.544	654.034	-0.031	-0.079
-422.530	-200.000	0.059	-0.300
-421.515	116.533	0.169	0.206
-420.500	-200.000	0.023	-0.245
-419.486	800.000	-0.036	0.111
-418.471	-87.697	-0.076	-0.023
-417.457	23.230	0.064	0.052
-416.442	-148.679	-0.221	0.018
-415.428	3.614	-0.189	0.137
-414.413	467.829	-0.143	0.317
-413.398	-200.000	0.029	0.221
-412.384	-200.000	-0.033	-0.170
-411.369	-200.000	-0.007	-0.083
-410.355	800.000	-0.016	-0.065
-409.340	800.000	-0.009	0.032
-408.325	230.439	0.059	-0.096
-407.311	800.000	0.050	0.178
-406.296	-200.000	0.011	0.179
-405.282	-59.855	-0.237	0.100
-404.267	800.000	-0.093	0.385
-403.252	-200.000	-0.056	-0.339
-402.238	800.000	0.040	-0.122
-401.223	800.000	-0.057	-0.201
-400.209	13.185	-0.153	0.117
-399.194	-45.464	0.168	-0.083
-398.179	-81.814	0.212	0.069
-397.165	56.658	-0.106	-0.102
-396.150	-200.000	-0.093	0.419
-395.136	80.055	-0.254	0.271
-394.121	-200.000	0.009	0.177
-393.106	9.725	-0.279	0.210
-392.092	331.732	-0.195	0.374
-391.077	-200.000	-0.010	0.068
-390.063	5.946	-0.196	0.144
-389.048	800.000	-0.048	0.207
-388.033	420.721	-0.144	0.306
-387.019	58.413	-0.238	-0.231
-386.004	-70.716	0.210	0.079
-384.990	-200.000	0.065	-0.341
-383.975	-128.448	0.247	-0.035
-382.960	548.609	-0.022	0.053
-381.946	-139.691	-0.335	-0.035
-380.931	-60.383	0.188	0.079
-379.917	-200.000	-0.012	0.132
-378.902	49.825	0.215	0.201
-377.888	-43.829	-0.310	-0.155
-376.873	48.732	-0.126	-0.117
-375.858	-34.216	0.155	-0.084
-374.844	23.914	-0.242	0.198
-373.829	-200.000	-0.031	0.331
-372.815	72.020	0.118	-0.122
-371.800	-200.000	0.005	0.164
-370.785	-182.481	0.253	-0.005
-369.771	800.000	0.029	-0.080
-368.756	-110.704	-0.157	-0.032
-367.742	-89.980	0.301	-0.087
-366.727	439.711	0.084	0.181
-365.712	-3.790	0.218	-0.150
-364.698	-124.180	-0.197	-0.031
-363.683	232.277	-0.248	-0.403
-362.669	-170.176	0.170	-0.006
-361.654	176.334	0.092	-0.132
-360.639	-1.119	0.195	-0.137
-359.625	227.512	0.160	0.258
-358.610	800.000	-0.047	0.142
-357.596	-148.578	0.105	-0.009
-356.581	81.134	-0.276	-0.295
-355.566	-112.673	0.239	-0.047
-354.552	280.877	0.166	0.294
-353.537	21.600	-0.115	-0.093
-352.523	-200.000	-0.047	-0.347
-351.508	-71.959	0.071	0.026
-350.493	127.717	-0.133	0.168
-349.479	800.000	0.052	-0.216
-348.464	-89.767	-0.289	-0.084
-347.450	64.107	0.226	-0.225
-346.435	-129.073	0.163	-0.023
-345.420	-71.913	0.213	-0.078
-344.406	561.042	0.009	-0.021
-343.391	147.672	0.042	-0.056
-342.377	161.532	-0.166	-0.229
-341.362	800.000	0.097	0.408
-340.348	800.000	0.112	0.360
-339.333	-75.063	-0.190	0.067
-338.318	-122.192	0.200	0.032
-337.304	-27.755	-0.162	-0.093
-336.289	-27.353	0.075	0.043
-335.275	-68.259	-0.222	-0.085
-334.260	99.340	-0.284	-0.325
-333.245	-107.843	0.067	-0.014
-332.231	-114.319	0.325	0.062
-331.216	-200.000	-0.045	0.309
-330.202	94.550	0.175	-0.197
-329.187	341.372	-0.105	0.204
-328.172	178.983	-0.277	0.400
-327.158	-200.000	0.011	-0.103
-326.143	15.642	-0.318	0.248
-325.129	-200.000	-0.017	0.106
-324.114	-118.248	-0.099	-0.018
-323.099	-137.169	-0.254	0.029
-322.085	148.632	0.146	-0.195
-321.070	66.407	-0.357	0.359
-320.056	341.894	-0.071	-0.137
-319.041	-200.000	0.000	-0.072
-318.026	30.740	0.064	-0.054
-317.012	55.309	-0.129	-0.124
-315.997	83.991	-0.062	-0.067
-314.983	-59.894	0.211	0.089
-313.968	-134.635	-0.127	-0.015
-312.953	1.553	0.161	0.115
-311.939	187.491	0.054	-0.080
-310.924	50.850	-0.086	-0.081
-309.910	-2.977	0.112	0.077
-308.895	41.561	-0.184	-0.164
-307.880	800.000	0.056	0.212
-306.866	-97.088	0.266	-0.069
-305.851	800.000	0.122	-0.417
-304.837	-200.000	-0.020	0.086
-303.822	52.085	-0.297	0.280
-302.807	-93.765	0.229	0.062
-301.793	163.694	0.033	-0.045
-300.778	-61.901	0.092	0.038
-299.764	407.182	0.071	-0.147
-298.749	-83.451	0.344	0.109
-297.735	-47.324	0.107	0.051
-296.720	-200.000	0.028	-0.274
-295.705	-65.332	-0.076	0.030
-294.691	800.000	0.027	0.084
-293.676	-82.644	-0.297	0.095
-292.662	800.000	0.089	-0.329
-291.647	-16.278	0.073	0.046
-290.632	-200.000	-0.041	0.345
-289.618	800.000	-0.135	0.452
-288.603	-80.733	0.315	0.103
-287.589	800.000	0.032	-0.098
-286.574	-128.986	0.116	0.016
-285.559	778.745	-0.055	0.148
-284.545	-11.435	-0.285	0.185
-283.530	-176.878	0.088	0.002
-282.516	-87.113	-0.117	-0.035
-281.501	665.441	-0.024	-0.060
-280.486	-78.672	0.187	-0.063
-279.472	-100.611	0.202	0.049
-278.457	-155.260	-0.253	-0.016
-277.443	-181.904	0.158	-0.003
-276.428	363.676	-0.196	0.390
-275.413	-200.000	0.058	0.398
-274.399	800.000	0.079	0.232
-273.384	-200.000	-0.011	0.494
-272.370	-81.199	-0.224	-0.073
-271.355	302.231	0.114	0.209
-270.340	56.500	0.170	0.163
-269.326	18.278	0.360	-0.284
-268.311	-200.000	-0.006	-0.199
-267.297	97.109	-0.190	0.215
-266.282	158.299	0.067	0.092
-265.267	-200.000	-0.039	-0.227
-264.253	-139.811	0.191	-0.020
-263.238	800.000	-0.096	-0.304
-262.224	-37.282	0.115	0.061
-261.209	74.748	0.038	0.039
-260.195	-72.041	0.355	-0.130
-259.180	5.940	0.045	0.033
-258.165	-115.712	0.116	0.021
-257.151	-102.739	-0.171	0.040
-256.136	161.483	0.251	0.347
-255.122	-189.207	0.065	-0.001
-254.107	451.041	-0.185	-0.403
-253.092	697.026	-0.058	0.150
-252.078	-14.017	-0.302	-0.192
-251.063	-69.011	-0.239	0.091
-250.049	-200.000	0.014	0.136
-249.034	-72.879	-0.279	0.101
-248.019	201.703	-0.085	0.129
-247.005	51.785	-0.190	0.178
-245.990	-160.429	-0.340	-0.018
-244.976	638.878	0.114	-0.286
-243.961	-161.468	0.115	-0.006
-242.946	-51.615	-0.099	-0.046
-241.932	-158.696	0.255	0.014
-240.917	-173.180	0.398	-0.012
-239.903	-200.000	0.011	0.100
-238.888	-100.091	0.248	-0.061
-237.873	-200.000	-0.035	-0.224
-236.859	-65.855	-0.115	-0.045
-235.844	-88.263	0.061	0.018
-234.830	-200.000	0.057	-0.393
-233.815	-200.000	0.045	-0.246
-232.800	-109.957	0.283	-0.058
-231.786	446.531	0.016	-0.036
-230.771	-8.829	-0.124	0.082
-229.757	226.150	-0.076	0.121
-228.742	-100.524	0.145	-0.035
-227.727	49.893	0.161	-0.150
-226.713	-200.000	0.074	-0.333
-225.698	-102.110	0.290	-0.069
-224.684	115.398	0.139	-0.167
-223.669	800.000	-0.028	-0.093
-222.655	19.893	-0.068	0.054
-221.640	421.036	-0.063	-0.133
-220.625	176.016	0.081	-0.115
-219.611	-200.000	0.006	0.224
-218.596	53.786	0.080	0.076
-217.582	-200.000	0.022	-0.112
-216.567	123.593	-0.023	-0.028
-215.552	-110.422	-0.112	0.023
-214.538	102.804	0.175	0.202
-213.523	-134.634	-0.195	-0.023
-212.509	-46.766	-0.054	0.026
-211.494	626.040	0.066	-0.165
-210.479	-199.887	0.093	-0.000
-209.465	-200.000	0.016	0.336
-208.450	43.288	0.200	-0.180
-207.436	-146.959	-0.076	0.006
-206.421	800.000	0.083	0.298
-205.406	-61.682	-0.362	-0.149
-204.392	81.988	-0.110	-0.117
-203.377	-22.977	-0.490	0.291
-202.363	-119.980	-0.126	-0.021
-201.348	235.457	0.139	0.226
-200.333	-5.264	-0.223	-0.151
-199.319	278.220	-0.198	-0.347
-198.304	-200.000	-0.046	-0.226
-197.290	79.622	-0.105	0.111
-196.275	-200.000	-0.008	-0.083
-195.260	-200.000	0.011	-0.063
-194.246	800.000	0.039	-0.136
-193.231	-79.821	0.066	0.022
-192.217	345.250	-0.048	-0.092
-191.202	-200.000	0.009	-0.047
-190.187	-41.467	0.254	0.129
-189.173	-177.613	-0.046	0.001
-188.158	644.307	0.056	-0.140
-187.144	35.227	0.038	0.033
-186.129	130.151	0.152	-0.191
-185.114	-85.233	0.101	0.031
-184.100	-105.108	-0.415	-0.093
-183.085	800.000	-0.132	-0.524
-182.071	-200.000	0.002	0.169
-181.056	-138.003	-0.066	-0.007
-180.042	-200.000	0.025	-0.220
-179.027	15.531	0.228	-0.176
-178.012	8.762	-0.242	-0.179
-176.998	-200.000	-0.013	-0.121
-175.983	-46.994	0.476	-0.229
-174.969	-159.742	-0.040	-0.002
-173.954	115.453	0.123	0.147
-172.939	-12.918	0.281	0.180
-171.925	-40.467	-0.183	-0.094
-170.910	-200.000	0.009	-0.267
-169.896	-84.556	0.055	-0.017
-168.881	-71.427	-0.127	0.047
-167.866	800.000	0.042	0.162
-166.852	-200.000	-0.005	0.208
-165.837	-129.610	-0.141	-0.019
-164.823	409.777	0.069	-0.144
-163.808	87.892	-0.022	-0.024
-162.793	-32.390	0.091	0.050
-161.779	800.000	-0.040	0.141
-160.764	800.000	0.046	-0.158
-159.750	-175.347	-0.215	-0.006
-158.735	322.250	0.140	-0.262
-157.720	-89.914	0.167	-0.048
-156.706	-200.000	-0.082	0.000
-155.691	220.861	-0.157	0.247
-154.677	-125.550	0.205	-0.031
-153.662	800.000	-0.098	-0.407
-152.647	-34.925	-0.394	-0.211
-151.633	-200.000	0.032	-0.192
-150.618	30.556	0.074	-0.062
-149.604	743.702	-0.098	0.258
-148.589	184.046	0.017	0.025
-147.574	-63.498	-0.031	-0.013
-146.560	57.153	-0.163	0.156
-145.545	800.000	-0.053	-0.154
-144.531	800.000	-0.030	0.110
-143.516	396.383	0.028	0.057
-142.502	-147.197	-0.277	0.023
-141.487	536.114	0.079	0.183
-140.472	-200.000	0.010	-0.231
-139.458	382.259	0.022	0.043
-138.443	91.315	0.120	-0.132
-137.429	-94.792	-0.362	0.096
-136.414	614.533	0.077	0.189
-135.399	-71.683	0.161	0.059
-134.385	330.711	0.218	0.412
-133.370	123.931	0.117	0.144
-132.356	-126.109	-0.266	0.039
-131.341	-200.000	0.017	-0.074
-130.326	-58.703	0.237	-0.101
-129.312	54.410	-0.168	-0.159
-128.297	800.000	0.108	-0.385
-127.283	169.489	0.281	0.394
-126.268	-106.623	-0.239	-0.052
-125.253	34.105	-0.323	-0.277
-124.239	387.386	0.157	0.319
-123.224	470.884	-0.075	0.166
-122.210	-200.000	0.021	-0.185
-121.195	-79.480	0.131	0.043
-120.180	24.123	-0.052	-0.042
