DTS Sentinel unit serial number:	SN413079Multiplexer serial number:	ORYXHardware model number:	OX4-SRSoftware version number:	ORYX F/W v4.00 Oryx Data Collector v3.7.2.0data status	okinstallation	princeton_trtdifferential loss correction	single-endedforward channel	channel 4reverse channel	N/Adate	2019/09/13time	14:29:35forward acquisition time	60.00reverse acquisition time	0.00gamma	496.2192k internal	0.2296k external	0.2296temperature offset calibration	1.0209default loss term (dB/km)	0.3790temperature slope calibration	1.0000multiplexer offset coefficient	1.0000multiplexer slope coefficient	1.0000fibre end	0.00T internal ref (°C)	35.27T ext. ref 1 (°C)	4.63T ext. ref 2 (°C)	30.96length (m)	temperature (°C)	Stokes	anti-Stokes-747.200	410.777	0.138	-0.300
-746.185	61.305	-0.026	-0.026
-745.171	-37.602	0.186	0.101
-744.156	-147.881	-0.110	0.009
-743.142	800.000	0.069	-0.302
-742.127	-41.028	-0.256	0.135
-741.112	172.965	-0.076	-0.112
-740.098	-54.943	-0.257	0.118
-739.083	575.638	-0.150	0.374
-738.069	-200.000	-0.001	0.194
-737.054	-61.487	-0.284	0.122
-736.039	-76.411	-0.079	0.029
-735.025	60.519	0.163	0.165
-734.010	-103.078	0.286	0.069
-732.996	-200.000	-0.043	-0.197
-731.981	122.710	0.094	-0.120
-730.966	17.604	-0.227	-0.184
-729.952	287.971	-0.201	-0.371
-728.937	175.892	-0.055	0.081
-727.923	-200.000	0.013	0.118
-726.908	-77.075	-0.038	0.014
-725.894	591.171	-0.057	0.145
-724.879	-17.873	-0.421	0.269
-723.864	35.934	-0.108	0.097
-722.850	-76.117	-0.083	0.030
-721.835	78.864	0.044	-0.048
-720.821	-157.626	-0.231	-0.014
-719.806	62.361	0.051	-0.052
-718.791	55.849	-0.087	-0.087
-717.777	397.615	0.126	-0.269
-716.762	-96.612	-0.258	-0.069
-715.748	-78.332	-0.187	-0.066
-714.733	-200.000	-0.021	0.251
-713.718	113.356	0.040	0.049
-712.704	77.560	-0.206	-0.223
-711.689	800.000	-0.126	-0.536
-710.675	349.330	-0.140	-0.281
-709.660	-131.558	-0.635	-0.085
-708.645	139.828	-0.067	-0.090
-707.631	-200.000	-0.052	0.389
-706.616	-200.000	0.034	0.266
-705.602	359.816	-0.099	-0.202
-704.587	-113.096	0.136	-0.027
-703.572	397.240	0.213	-0.454
-702.558	800.000	-0.025	0.109
-701.543	-57.127	-0.258	0.116
-700.529	49.291	0.110	0.105
-699.514	293.145	0.126	0.234
-698.499	-5.736	0.305	-0.213
-697.485	324.526	0.105	-0.204
-696.470	800.000	-0.108	-0.365
-695.456	-200.000	0.080	-0.445
-694.441	39.548	-0.225	-0.205
-693.426	-54.402	-0.510	-0.236
-692.412	-200.000	0.036	-0.308
-691.397	-178.806	-0.404	0.009
-690.383	-200.000	0.022	0.288
-689.368	-71.130	0.061	0.023
-688.354	-78.681	0.096	0.034
-687.339	-93.399	-0.094	-0.027
-686.324	16.927	-0.083	-0.067
-685.310	-200.000	-0.017	0.368
-684.295	-58.433	0.337	-0.149
-683.281	-59.134	-0.197	0.087
-682.266	-107.099	-0.345	-0.078
-681.251	-140.376	-0.249	-0.026
-680.237	-61.050	0.059	0.025
-679.222	800.000	-0.099	0.395
-678.208	-56.765	0.032	0.014
-677.193	-200.000	0.029	0.293
-676.178	-200.000	-0.024	0.110
-675.164	702.661	-0.063	-0.170
-674.149	113.781	-0.119	0.147
-673.135	325.969	-0.094	-0.183
-672.120	800.000	-0.033	0.143
-671.105	800.000	-0.053	-0.172
-670.091	-200.000	-0.005	-0.316
-669.076	227.241	0.076	-0.125
-668.062	-51.763	-0.120	-0.057
-667.047	-10.702	0.082	-0.056
-666.032	-147.676	0.353	-0.030
-665.018	60.643	-0.223	0.225
-664.003	256.354	-0.181	0.316
-662.989	-200.000	0.027	-0.228
-661.974	-200.000	-0.079	-0.368
-660.959	-200.000	0.005	0.125
-659.945	-138.873	-0.170	0.019
-658.930	29.662	-0.118	-0.103
-657.916	139.561	-0.110	0.147
-656.901	-164.055	0.246	0.012
-655.886	-12.068	0.129	0.086
-654.872	175.637	-0.085	-0.126
-653.857	-24.555	0.051	-0.031
-652.843	443.868	-0.147	-0.329
-651.828	337.131	0.100	0.197
-650.814	-4.892	-0.154	-0.108
-649.799	212.837	0.046	0.074
-648.784	-46.260	0.140	-0.070
-647.770	412.432	0.052	-0.113
-646.755	-137.347	0.123	-0.014
-645.741	800.000	-0.008	0.025
-644.726	-16.614	-0.419	-0.270
-643.711	242.033	-0.142	-0.241
-642.697	137.993	0.133	-0.177
-641.682	-200.000	0.015	0.094
-640.668	-200.000	-0.022	-0.139
-639.653	236.951	-0.176	-0.297
-638.638	-111.793	-0.134	-0.028
-637.624	-144.196	-0.186	0.018
-636.609	203.071	0.035	0.055
-635.595	800.000	0.079	0.234
-634.580	67.124	-0.158	-0.164
-633.565	-200.000	-0.028	-0.317
-632.551	-200.000	0.019	-0.204
-631.536	800.000	0.098	-0.353
-630.522	129.070	-0.145	0.189
-629.507	206.581	0.077	0.122
-628.492	-57.141	-0.162	-0.073
-627.478	-122.329	0.178	0.030
-626.463	738.468	0.054	0.148
-625.449	-125.415	-0.157	0.024
-624.434	-200.000	-0.005	0.079
-623.419	-200.000	-0.009	-0.265
-622.405	49.230	-0.221	-0.211
-621.390	246.503	-0.084	0.144
-620.376	15.748	-0.048	-0.038
-619.361	-75.202	0.123	-0.045
-618.346	-127.768	-0.186	-0.027
-617.332	90.271	0.182	-0.207
-616.317	-114.427	0.163	0.032
-615.303	334.494	0.045	-0.089
-614.288	-69.249	-0.256	-0.100
-613.273	74.209	0.078	-0.083
-612.259	-82.585	0.148	0.049
-611.244	93.865	0.121	0.140
-610.230	-72.042	-0.054	-0.020
-609.215	149.648	-0.183	-0.252
-608.201	55.293	0.152	-0.150
-607.186	800.000	-0.084	-0.290
-606.171	-103.002	-0.158	0.038
-605.157	-66.223	0.043	-0.017
-604.142	800.000	0.061	-0.253
-603.128	168.712	0.112	0.162
-602.113	213.454	-0.036	0.058
-601.098	283.185	0.061	0.112
-600.084	468.547	-0.023	-0.053
-599.069	-200.000	-0.017	-0.157
-598.055	42.846	-0.121	-0.112
-597.040	-67.138	-0.131	-0.052
-596.025	304.504	0.133	0.252
-595.011	-200.000	0.038	-0.229
-593.996	-169.997	0.449	-0.016
-592.982	29.584	-0.384	-0.332
-591.967	30.190	-0.154	0.133
-590.952	116.962	-0.084	0.105
-589.938	95.701	-0.058	-0.068
-588.923	184.727	-0.048	0.073
-587.909	20.141	-0.073	0.060
-586.894	-13.125	-0.334	0.220
-585.879	110.837	0.042	0.051
-584.865	-200.000	-0.013	-0.329
-583.850	-200.000	0.038	-0.332
-582.836	-126.193	-0.225	-0.034
-581.821	43.860	0.165	0.153
-580.806	800.000	0.117	0.343
-579.792	-26.395	0.156	-0.093
-578.777	-128.503	-0.282	-0.041
-577.763	-188.165	0.060	0.001
-576.748	225.961	0.151	0.248
-575.733	108.237	-0.128	-0.155
-574.719	-133.892	0.098	0.012
-573.704	-200.000	-0.002	-0.083
-572.690	800.000	0.026	0.095
-571.675	-34.765	0.167	0.093
-570.661	800.000	0.062	-0.228
-569.646	-41.982	-0.155	0.081
-568.631	88.296	-0.277	0.313
-567.617	-200.000	-0.036	0.237
-566.602	396.260	0.161	-0.342
-565.588	125.383	-0.162	-0.207
-564.573	-200.000	0.018	-0.117
-563.558	-200.000	0.001	0.064
-562.544	-106.321	-0.214	0.049
-561.529	-135.411	0.251	0.030
-560.515	5.346	-0.301	-0.225
-559.500	-200.000	-0.032	0.277
-558.485	-22.796	-0.088	-0.054
-557.471	-200.000	0.054	0.265
-556.456	-126.316	-0.048	-0.007
-555.442	-200.000	0.022	0.136
-554.427	-61.258	0.095	-0.041
-553.412	-152.658	-0.075	-0.005
-552.398	-139.243	0.037	0.004
-551.383	-97.549	0.031	0.008
-550.369	-200.000	-0.036	-0.239
-549.354	-19.238	0.243	-0.153
-548.339	-38.148	-0.066	-0.036
-547.325	129.685	-0.118	0.153
-546.310	-164.014	-0.182	-0.009
-545.296	-200.000	0.022	0.174
-544.281	-31.299	0.092	0.053
-543.266	-63.111	0.282	-0.118
-542.252	53.548	-0.210	0.205
-541.237	-8.228	0.103	-0.070
-540.223	-94.456	-0.106	-0.029
-539.208	242.641	0.044	0.076
-538.193	142.269	-0.112	0.151
-537.179	-174.969	0.176	-0.005
-536.164	-147.603	-0.080	-0.007
-535.150	-88.389	-0.242	-0.073
-534.135	-85.967	0.106	-0.033
-533.121	-30.534	-0.051	-0.029
-532.106	241.043	0.223	-0.377
-531.091	22.191	0.155	0.129
-530.077	-92.298	-0.461	-0.132
-529.062	800.000	0.056	-0.189
-528.048	227.821	-0.033	0.054
-527.033	-108.269	0.049	0.011
-526.018	-200.000	0.012	0.092
-525.004	-200.000	-0.044	-0.247
-523.989	284.831	-0.021	-0.038
-522.975	96.969	-0.070	-0.082
-521.960	-200.000	0.011	0.064
-520.945	-62.688	-0.221	-0.093
-519.931	516.668	0.067	-0.159
-518.916	308.384	0.059	-0.111
-517.902	49.940	0.140	0.134
-516.887	355.714	-0.058	0.117
-515.872	15.909	0.207	-0.165
-514.858	-54.463	0.376	-0.173
-513.843	-101.243	-0.196	-0.048
-512.829	-200.000	-0.022	0.113
-511.814	-36.749	0.178	-0.097
-510.799	-200.000	-0.031	-0.439
-509.785	52.618	0.159	0.154
-508.770	-5.361	0.138	0.096
-507.756	-85.767	0.120	0.038
-506.741	-88.013	0.288	0.088
-505.726	800.000	0.101	0.293
-504.712	800.000	0.096	-0.371
-503.697	800.000	-0.098	0.316
-502.683	-28.707	0.265	0.155
-501.668	-181.191	-0.399	0.008
-500.653	-200.000	0.055	0.356
-499.639	-22.469	0.093	0.057
-498.624	-47.285	0.236	0.116
-497.610	-46.925	0.248	0.122
-496.595	-43.445	-0.357	0.183
-495.581	800.000	0.119	0.334
-494.566	800.000	0.040	0.116
-493.551	-200.000	-0.076	0.385
-492.537	2.200	-0.044	-0.032
-491.522	69.068	0.092	0.096
-490.508	-39.484	-0.109	0.058
-489.493	-200.000	-0.004	0.124
-488.478	-32.156	0.257	-0.145
-487.464	-82.619	-0.279	-0.092
-486.449	-81.195	-0.467	-0.156
-485.435	-23.959	0.206	-0.125
-484.420	178.378	0.041	-0.060
-483.405	-85.434	-0.150	-0.047
-482.391	-133.246	0.142	-0.018
-481.376	152.964	-0.078	0.107
-480.362	86.330	0.062	0.070
-479.347	-200.000	-0.026	-0.131
-478.332	-200.000	-0.067	-0.338
-477.318	-176.852	0.579	0.015
-476.303	-133.069	-0.199	-0.025
-475.289	-200.000	0.023	-0.294
-474.274	153.354	0.206	-0.285
-473.259	-200.000	-0.068	-0.319
-472.245	800.000	0.014	0.045
-471.230	70.361	0.161	0.169
-470.216	-64.651	0.281	0.115
-469.201	146.605	-0.139	0.188
-468.186	348.426	-0.160	0.319
-467.172	-1.978	-0.337	-0.240
-466.157	223.066	-0.145	-0.236
-465.143	-3.073	-0.315	0.222
-464.128	-196.106	0.131	0.001
-463.113	31.124	-0.227	-0.197
-462.099	84.084	0.241	0.266
-461.084	-95.840	-0.372	0.100
-460.070	-200.000	-0.002	0.380
-459.055	132.885	-0.311	0.406
-458.040	77.700	0.174	-0.187
-457.026	-122.784	-0.217	-0.035
-456.011	360.818	-0.118	0.239
-454.997	-73.643	0.228	0.084
-453.982	-200.000	0.015	0.249
-452.968	800.000	0.144	-0.553
-451.953	-130.778	-0.405	-0.055
-450.938	-200.000	-0.044	-0.214
-449.924	-200.000	0.010	-0.209
-448.909	-7.459	-0.015	-0.010
-447.895	-3.293	0.029	0.020
-446.880	-138.441	-0.164	0.018
-445.865	-200.000	0.040	0.210
-444.851	28.424	0.246	-0.210
-443.836	-117.859	-0.042	-0.008
-442.822	-46.995	0.235	-0.116
-441.807	596.181	0.049	0.123
-440.792	800.000	0.057	-0.160
-439.778	800.000	0.055	-0.181
-438.763	41.269	-0.187	-0.171
-437.749	87.549	-0.127	0.142
-436.734	-56.495	-0.272	-0.122
-435.719	-200.000	0.004	0.294
-434.705	-83.922	0.060	-0.019
-433.690	319.042	0.191	0.365
-432.676	-101.303	-0.244	0.060
-431.661	26.440	-0.382	-0.322
-430.646	-104.334	0.138	0.032
-429.632	176.138	0.016	-0.024
-428.617	-36.116	-0.056	-0.030
-427.603	800.000	0.010	0.045
-426.588	491.911	0.129	-0.299
-425.573	-101.652	-0.110	-0.027
-424.559	-51.017	-0.010	0.005
-423.544	-101.863	0.100	-0.024
-422.530	-104.730	0.171	0.040
-421.515	214.719	-0.068	-0.108
-420.500	5.486	-0.177	-0.132
-419.486	471.651	0.035	-0.079
-418.471	-5.453	0.227	-0.157
-417.457	-200.000	0.034	0.246
-416.442	-107.961	-0.058	0.013
-415.428	-102.454	0.140	0.034
-414.413	-200.000	-0.032	-0.241
-413.398	508.160	0.106	-0.247
-412.384	-76.498	0.354	-0.126
-411.369	-27.701	0.096	-0.056
-410.355	-13.721	0.106	0.069
-409.340	29.173	-0.015	-0.013
-408.325	-197.566	0.497	-0.003
-407.311	-200.000	-0.031	-0.322
-406.296	800.000	0.031	-0.110
-405.282	-36.872	-0.250	-0.135
-404.267	4.514	0.224	0.166
-403.252	-200.000	-0.006	0.186
-402.238	-200.000	0.046	0.286
-401.223	800.000	-0.140	0.391
-400.209	-127.510	0.341	-0.050
-399.194	800.000	-0.078	0.276
-398.179	-138.358	-0.327	0.036
-397.165	87.525	0.075	-0.084
-396.150	-200.000	0.045	-0.220
-395.136	-49.429	-0.305	-0.147
-394.121	-47.879	0.205	0.100
-393.106	-44.027	0.384	-0.194
-392.092	74.967	-0.010	0.011
-391.077	130.080	0.315	0.406
-390.063	-71.895	0.142	-0.053
-389.048	52.205	0.172	-0.165
-388.033	800.000	-0.028	0.110
-387.019	25.560	-0.204	-0.171
-386.004	519.312	0.179	-0.423
-384.990	57.766	-0.230	-0.227
-383.975	42.922	-0.036	-0.033
-382.960	-71.402	-0.197	-0.074
-381.946	-55.480	0.399	0.180
-380.931	-200.000	-0.024	0.133
-379.917	104.975	-0.154	-0.183
-378.902	-133.027	0.273	-0.035
-377.888	116.746	-0.129	-0.159
-376.873	-52.196	0.275	0.128
-375.858	381.124	0.131	0.271
-374.844	-40.783	-0.170	-0.088
-373.829	-184.125	0.371	-0.006
-372.815	-200.000	-0.022	-0.160
-371.800	180.642	0.197	-0.291
-370.785	734.656	-0.051	-0.138
-369.771	-47.511	-0.063	-0.031
-368.756	45.886	-0.244	0.227
-367.742	-151.690	-0.332	0.025
-366.727	-43.068	-0.356	0.182
-365.712	-200.000	-0.037	0.184
-364.698	688.993	-0.088	-0.231
-363.683	177.057	0.177	-0.259
-362.669	449.411	-0.094	-0.208
-361.654	-154.714	-0.178	0.012
-360.639	-179.544	-0.076	0.002
-359.625	-200.000	0.001	0.216
-358.610	-200.000	0.013	0.058
-357.596	-99.918	-0.270	0.068
-356.581	614.252	0.185	0.466
-355.566	-178.417	-0.235	0.006
-354.552	48.227	0.168	-0.159
-353.537	238.744	-0.115	0.193
-352.523	-68.951	-0.097	0.038
-351.508	-117.739	0.248	-0.045
-350.493	185.795	-0.092	0.137
-349.479	436.919	-0.073	0.160
-348.464	-113.958	0.240	-0.047
-347.450	357.280	0.169	0.339
-346.435	83.500	0.079	-0.087
-345.420	-169.773	-0.224	-0.008
-344.406	22.019	0.224	0.184
-343.391	-200.000	0.012	0.087
-342.377	-200.000	0.014	0.126
-341.362	-200.000	0.020	0.169
-340.348	88.258	-0.115	-0.129
-339.333	-3.844	0.207	0.144
-338.318	-160.194	-0.227	0.012
-337.304	800.000	0.062	-0.184
-336.289	-148.726	-0.231	0.019
-335.275	-200.000	0.000	0.041
-334.260	800.000	0.151	0.578
-333.245	-177.833	-0.031	0.001
-332.231	-200.000	-0.022	-0.173
-331.216	3.111	-0.061	-0.044
-330.202	91.112	0.156	-0.176
-329.187	800.000	0.053	-0.203
-328.172	800.000	0.027	-0.098
-327.158	15.081	0.204	0.161
-326.143	-47.337	0.268	-0.131
-325.129	-200.000	-0.038	0.201
-324.114	9.826	-0.279	-0.213
-323.099	-200.000	0.002	-0.030
-322.085	169.039	-0.254	0.365
-321.070	203.039	-0.084	0.131
-320.056	149.340	-0.207	0.281
-319.041	-179.567	0.122	0.003
-318.026	-200.000	0.023	0.206
-317.012	-58.205	-0.322	0.141
-315.997	187.982	-0.147	-0.221
-314.983	800.000	-0.035	0.121
-313.968	-94.591	0.115	-0.032
-312.953	-93.510	0.291	0.081
-311.939	13.207	-0.147	-0.114
-310.924	761.680	0.042	-0.114
-309.910	-200.000	-0.047	0.244
-308.895	800.000	0.063	-0.199
-307.880	-98.453	-0.451	0.116
-306.866	-182.721	-0.202	-0.004
-305.851	-135.660	0.048	0.006
-304.837	423.364	0.051	-0.110
-303.822	-200.000	-0.052	-0.268
-302.807	-30.666	0.235	0.134
-301.793	-200.000	-0.038	0.365
-300.778	-165.578	0.017	0.001
-299.764	-36.477	-0.090	-0.049
-298.749	-59.967	-0.087	0.038
-297.735	-200.000	-0.008	0.320
-296.720	800.000	0.011	0.048
-295.705	-200.000	-0.083	0.484
-294.691	448.918	-0.022	-0.048
-293.676	140.077	-0.224	0.297
-292.662	152.096	0.092	0.126
-291.647	-24.169	-0.222	-0.133
-290.632	800.000	0.024	0.090
-289.618	4.710	-0.145	-0.107
-288.603	634.290	-0.075	0.190
-287.589	27.123	0.260	0.219
-286.574	34.274	0.207	0.182
-285.559	-119.700	0.191	0.033
-284.545	-78.901	-0.092	-0.031
-283.530	484.800	0.050	-0.115
-282.516	379.801	0.033	0.068
-281.501	800.000	0.078	0.230
-280.486	800.000	0.079	0.324
-279.472	-200.000	-0.003	-0.041
-278.457	0.785	-0.179	-0.129
-277.443	-50.983	-0.158	0.074
-276.428	-200.000	0.030	0.134
-275.413	556.261	-0.060	0.145
-274.399	-200.000	-0.011	0.259
-273.384	-80.096	-0.398	-0.134
-272.370	39.263	0.166	-0.149
-271.355	26.186	-0.172	-0.144
-270.340	198.436	0.135	-0.207
-269.326	-200.000	0.065	-0.458
-268.311	-1.795	-0.161	-0.114
-267.297	-82.049	0.348	-0.114
-266.282	-200.000	-0.015	-0.100
-265.267	-200.000	-0.063	-0.463
-264.253	26.583	-0.106	0.089
-263.238	-200.000	0.016	-0.129
-262.224	146.432	-0.238	-0.321
-261.209	-145.619	0.235	0.021
-260.195	-97.750	0.164	-0.043
-259.180	-7.586	0.042	0.028
-258.165	-88.638	-0.289	-0.086
-257.151	575.945	0.171	0.419
-256.136	-102.335	-0.353	0.085
-255.122	-67.886	0.194	0.076
-254.107	83.800	-0.253	0.277
-253.092	3.692	-0.091	-0.066
-252.078	202.750	0.062	-0.095
-251.063	-71.026	0.242	-0.091
-250.049	212.677	-0.069	-0.110
-249.034	5.870	0.191	0.141
-248.019	284.860	0.065	-0.117
-247.005	41.829	0.121	-0.110
-245.990	-19.369	-0.217	0.135
-244.976	299.688	0.062	0.114
-243.961	-32.155	-0.227	-0.127
-242.946	189.565	-0.046	-0.069
-241.932	-141.051	0.188	0.019
-240.917	22.217	0.351	-0.287
-239.903	115.800	0.022	0.027
-238.888	771.878	-0.038	0.103
-237.873	-59.408	0.216	0.093
-236.859	311.668	0.052	0.099
-235.844	-77.342	0.161	-0.056
-234.830	-32.234	0.029	0.016
-233.815	26.110	0.455	0.381
-232.800	115.480	0.061	-0.074
-231.786	97.802	0.220	0.254
-230.771	-200.000	-0.060	0.336
-229.757	-72.237	-0.272	0.101
-228.742	-128.696	-0.216	-0.031
-227.727	128.589	0.160	0.204
-226.713	-52.436	-0.310	0.144
-225.698	-42.892	0.252	0.128
-224.684	160.426	0.275	-0.385
-223.669	-145.391	-0.112	0.010
-222.655	-43.246	-0.158	-0.080
-221.640	800.000	-0.062	0.203
-220.625	-112.823	-0.186	0.037
-219.611	150.540	-0.058	0.079
-218.596	151.681	0.067	-0.092
-217.582	-74.385	0.317	-0.114
-216.567	-121.866	0.146	-0.024
-215.552	-61.264	-0.187	0.079
-214.538	-48.512	0.180	-0.087
-213.523	712.247	-0.028	0.075
-212.509	-43.891	-0.388	0.195
-211.494	-200.000	0.007	-0.151
-210.479	207.314	-0.012	-0.018
-209.465	-93.616	0.187	0.052
-208.450	-7.650	0.114	0.077
-207.436	-181.770	-0.153	-0.003
-206.421	-116.351	0.193	0.036
-205.406	-114.352	0.125	-0.024
-204.392	-18.365	-0.069	-0.043
-203.377	199.254	0.101	0.155
-202.363	-160.001	0.154	-0.008
-201.348	-200.000	-0.003	0.049
-200.333	-117.488	-0.300	-0.054
-199.319	438.212	0.031	0.067
-198.304	-7.676	0.009	0.006
-197.290	112.921	0.221	-0.268
-196.275	-200.000	0.008	0.071
-195.260	110.378	-0.221	0.266
-194.246	-55.191	0.339	-0.152
-193.231	60.527	0.208	-0.206
-192.217	15.168	0.290	0.227
-191.202	-48.710	-0.412	0.198
-190.187	174.480	-0.122	-0.176
-189.173	-200.000	-0.007	-0.138
-188.158	800.000	-0.089	-0.270
-187.144	-54.175	0.184	0.083
-186.129	-200.000	0.001	0.488
-185.114	-20.067	-0.283	0.175
-184.100	-39.446	0.143	-0.075
-183.085	-27.859	0.376	-0.218
-182.071	800.000	0.114	-0.331
-181.056	-136.017	-0.091	-0.011
-180.042	-155.050	-0.181	0.012
-179.027	-147.712	0.322	0.027
-178.012	44.009	-0.113	0.103
-176.998	-200.000	-0.033	0.183
-175.983	230.211	-0.039	-0.064
-174.969	247.293	-0.150	0.254
-173.954	224.151	-0.118	0.190
-172.939	-200.000	-0.031	-0.244
-171.925	557.920	-0.019	0.046
-170.910	132.756	-0.071	0.091
-169.896	330.791	0.084	-0.162
-168.881	-21.750	-0.129	-0.079
-167.866	-60.888	-0.049	-0.021
-166.852	-21.665	0.251	-0.153
-165.837	-161.900	0.196	-0.010
-164.823	79.944	0.122	0.132
-163.808	0.479	0.321	-0.229
-162.793	-99.996	0.035	0.009
-161.779	-200.000	0.008	0.322
-160.764	-200.000	-0.014	-0.126
-159.750	-119.119	-0.151	-0.026
-158.735	-118.332	0.255	0.045
-157.720	191.191	0.104	-0.156
-156.706	44.139	-0.225	0.206
-155.691	800.000	-0.036	-0.142
-154.677	-7.811	-0.129	-0.087
-153.662	23.528	-0.402	-0.331
-152.647	-200.000	-0.003	0.173
-151.633	-120.672	0.016	-0.003
-150.618	800.000	0.026	0.074
-149.604	800.000	0.023	-0.081
-148.589	-34.299	0.133	0.073
-147.574	298.844	0.258	0.473
-146.560	800.000	0.086	-0.339
-145.545	-65.016	0.118	-0.048
-144.531	-77.656	0.430	-0.149
-143.516	-51.539	-0.219	0.102
-142.502	722.784	0.141	0.374
-141.487	282.513	0.316	0.565
-140.472	1.986	-0.189	-0.136
-139.458	-135.430	0.476	-0.057
-138.443	-86.796	0.302	0.092
-137.429	132.576	0.133	0.171
-136.414	-126.173	0.246	0.037
-135.399	-147.959	0.135	-0.011
-134.385	-10.691	0.204	0.134
-133.370	754.138	0.039	-0.105
-132.356	-200.000	0.012	0.308
-131.341	-200.000	0.078	-0.366
-130.326	-200.000	-0.001	-0.220
-129.312	-79.437	0.161	-0.054
-128.297	-36.851	0.083	-0.044
-127.283	-71.030	0.179	-0.067
-126.268	-140.876	-0.196	-0.020
-125.253	800.000	-0.018	-0.065
-124.239	49.874	-0.202	-0.190
-123.224	800.000	0.055	-0.234
-122.210	138.741	-0.200	0.261
