DTS Sentinel unit serial number:	SN413079Multiplexer serial number:	ORYXHardware model number:	OX4-SRSoftware version number:	ORYX F/W v4.00 Oryx Data Collector v3.7.2.0data status	okinstallation	princeton_trtdifferential loss correction	single-endedforward channel	channel 4reverse channel	N/Adate	2019/09/18time	18:37:35forward acquisition time	60.00reverse acquisition time	0.00gamma	496.2192k internal	0.2295k external	0.2295temperature offset calibration	1.0025default loss term (dB/km)	0.3790temperature slope calibration	1.0000multiplexer offset coefficient	1.0000multiplexer slope coefficient	1.0000fibre end	0.00T internal ref (°C)	37.95T ext. ref 1 (°C)	0.93T ext. ref 2 (°C)	29.84length (m)	temperature (°C)	Stokes	anti-Stokes-747.200	-55.103	-0.209	0.096
-746.185	278.880	0.023	-0.041
-745.171	-131.980	0.219	0.029
-744.156	105.887	-0.137	0.166
-743.142	-200.000	-0.017	-0.192
-742.127	660.370	-0.154	-0.406
-741.112	-185.859	-0.220	0.003
-740.098	128.371	-0.265	0.345
-739.083	-87.131	0.396	0.123
-738.069	20.528	-0.184	0.152
-737.054	-70.679	0.087	0.034
-736.039	144.294	0.068	-0.093
-735.025	-144.800	0.118	-0.011
-734.010	308.583	-0.073	-0.139
-732.996	800.000	-0.126	-0.420
-731.981	479.411	0.031	0.071
-730.966	-48.696	-0.179	0.088
-729.952	43.812	0.195	0.182
-728.937	-200.000	0.026	-0.186
-727.923	-155.974	-0.157	0.010
-726.908	-200.000	0.010	-0.216
-725.894	800.000	-0.170	-0.542
-724.879	543.326	0.052	0.128
-723.864	-30.684	-0.132	0.076
-722.850	104.496	-0.405	-0.487
-721.835	35.383	0.181	-0.162
-720.821	-155.154	-0.197	0.013
-719.806	-200.000	0.019	0.226
-718.791	-166.802	-0.378	-0.016
-717.777	-101.390	0.102	0.025
-716.762	-12.568	0.029	0.019
-715.748	182.833	0.267	-0.403
-714.733	88.018	0.082	-0.092
-713.718	-112.766	0.017	0.003
-712.704	118.546	0.194	0.244
-711.689	800.000	0.058	0.177
-710.675	-58.856	-0.322	-0.142
-709.660	742.038	-0.029	0.079
-708.645	38.159	-0.230	0.209
-707.631	634.475	-0.132	-0.341
-706.616	68.890	-0.227	0.238
-705.602	-200.000	0.017	0.324
-704.587	800.000	-0.046	0.163
-703.572	51.652	0.095	-0.092
-702.558	-11.631	0.142	-0.095
-701.543	69.056	0.165	0.173
-700.529	68.441	0.219	0.229
-699.514	-149.229	0.099	0.008
-698.499	133.572	-0.255	-0.337
-697.485	-42.777	0.252	-0.131
-696.470	-117.354	-0.052	-0.010
-695.456	-87.581	0.128	0.039
-694.441	-200.000	0.016	-0.179
-693.426	-74.251	-0.285	0.105
-692.412	-100.532	-0.213	-0.054
-691.397	-85.674	0.341	-0.108
-690.383	-97.664	0.229	0.061
-689.368	-41.667	0.246	-0.129
-688.354	13.118	-0.158	0.125
-687.339	-200.000	0.027	0.262
-686.324	800.000	-0.060	0.209
-685.310	-200.000	0.004	0.074
-684.295	800.000	-0.037	0.110
-683.281	584.157	0.069	-0.173
-682.266	-58.207	0.144	0.064
-681.251	415.652	-0.120	0.262
-680.237	-107.370	0.061	0.014
-679.222	7.997	-0.123	0.094
-678.208	-111.114	-0.220	-0.046
-677.193	298.658	-0.222	-0.417
-676.178	-200.000	-0.007	-0.139
-675.164	181.523	-0.046	0.068
-674.149	-125.072	-0.169	-0.026
-673.135	-43.447	0.301	0.155
-672.120	800.000	-0.051	0.160
-671.105	-200.000	0.077	-0.395
-670.091	-200.000	-0.052	-0.379
-669.076	-96.349	-0.144	-0.039
-668.062	136.103	-0.199	-0.264
-667.047	-66.237	0.058	0.023
-666.032	-158.289	-0.191	-0.011
-665.018	-200.000	-0.047	0.354
-664.003	44.525	-0.220	-0.206
-662.989	800.000	0.029	-0.100
-661.974	-82.335	0.087	-0.029
-660.959	-138.807	-0.336	0.037
-659.945	-92.338	0.283	0.081
-658.930	-81.687	-0.273	-0.091
-657.916	-13.490	-0.214	0.141
-656.901	800.000	0.034	0.137
-655.886	-43.893	-0.412	-0.211
-654.872	-114.029	0.506	0.100
-653.857	-200.000	0.004	0.250
-652.843	-200.000	0.031	0.367
-651.828	85.405	-0.089	0.100
-650.814	647.463	-0.118	0.307
-649.799	120.019	0.107	0.135
-648.784	579.248	-0.050	0.125
-647.770	712.757	-0.197	-0.531
-646.755	-66.686	-0.498	0.201
-645.741	-62.861	0.240	-0.101
-644.726	42.486	0.136	0.126
-643.711	54.542	0.087	0.085
-642.697	-38.066	-0.053	-0.029
-641.682	507.793	0.037	0.087
-640.668	36.327	0.206	-0.184
-639.653	383.672	-0.064	-0.134
-638.638	-80.602	-0.341	0.116
-637.624	800.000	0.024	-0.098
-636.609	-96.281	0.173	0.047
-635.595	-38.908	-0.119	-0.064
-634.580	665.196	0.086	0.225
-633.565	-34.495	-0.007	0.004
-632.551	-200.000	-0.009	-0.139
-631.536	-41.564	0.337	0.176
-630.522	-32.148	0.162	-0.092
-629.507	-106.200	-0.316	0.072
-628.492	-200.000	0.001	0.034
-627.478	120.375	-0.148	0.186
-626.463	-32.960	-0.295	0.167
-625.449	74.430	-0.212	0.226
-624.434	-11.531	-0.047	0.032
-623.419	-145.963	-0.182	0.016
-622.405	211.433	0.030	-0.048
-621.390	22.305	-0.119	-0.099
-620.376	-200.000	0.019	0.174
-619.361	-51.936	-0.144	0.068
-618.346	78.006	0.013	0.014
-617.332	-35.960	0.469	0.258
-616.317	-157.004	-0.099	0.006
-615.303	800.000	0.011	-0.035
-614.288	-200.000	-0.022	0.111
-613.273	-200.000	-0.038	0.256
-612.259	82.826	-0.196	-0.217
-611.244	-200.000	0.002	-0.106
-610.230	272.361	0.226	-0.406
-609.215	5.542	-0.220	0.166
-608.201	-9.722	0.242	0.164
-607.186	134.154	0.120	0.158
-606.171	30.975	0.138	-0.121
-605.157	800.000	0.041	0.145
-604.142	800.000	-0.011	-0.036
-603.128	-31.849	0.112	0.064
-602.113	-16.153	-0.153	0.099
-601.098	-200.000	0.001	-0.075
-600.084	-200.000	-0.018	0.122
-599.069	-81.413	-0.214	0.072
-598.055	286.047	-0.086	-0.157
-597.040	-81.976	0.504	-0.168
-596.025	-14.545	-0.282	-0.184
-595.011	-101.127	-0.381	0.095
-593.996	-119.011	-0.028	-0.005
-592.982	-42.341	0.370	-0.192
-591.967	800.000	-0.054	-0.178
-590.952	-37.890	0.388	-0.210
-589.938	33.884	0.041	0.036
-588.923	-200.000	-0.034	-0.264
-587.909	-64.834	0.165	0.068
-586.894	-90.024	-0.330	-0.098
-585.879	-98.578	-0.191	0.049
-584.865	-21.511	-0.158	-0.098
-583.850	-92.800	-0.169	0.048
-582.836	-105.093	0.460	0.107
-581.821	-81.563	-0.227	-0.076
-580.806	-110.399	0.174	0.037
-579.792	-200.000	-0.093	-0.420
-578.777	-200.000	-0.021	-0.099
-577.763	37.418	-0.082	-0.074
-576.748	46.253	-0.358	-0.337
-575.733	-200.000	-0.011	0.073
-574.719	85.373	0.160	-0.178
-573.704	-126.639	-0.219	0.033
-572.690	257.332	0.156	-0.273
-571.675	-139.158	0.205	-0.022
-570.661	-82.142	0.164	-0.054
-569.646	-133.734	0.188	0.024
-568.631	-200.000	0.002	-0.191
-567.617	800.000	0.025	0.071
-566.602	-200.000	0.003	0.082
-565.588	800.000	-0.100	0.304
-564.573	-200.000	0.002	-0.121
-563.558	80.249	0.132	0.145
-562.544	-200.000	-0.025	0.496
-561.529	-200.000	0.006	-0.143
-560.515	-129.810	-0.186	0.026
-559.500	-200.000	-0.050	-0.246
-558.485	-200.000	-0.064	0.304
-557.471	144.863	-0.098	-0.133
-556.456	-200.000	0.027	0.242
-555.442	800.000	0.029	0.095
-554.427	-200.000	0.014	-0.482
-553.412	-79.382	-0.411	-0.141
-552.398	800.000	-0.114	0.324
-551.383	800.000	0.021	-0.086
-550.369	-200.000	0.029	0.150
-549.354	152.196	-0.068	-0.094
-548.339	201.058	0.056	0.087
-547.325	800.000	0.068	-0.190
-546.310	346.309	-0.102	0.203
-545.296	115.762	0.103	-0.128
-544.281	-33.594	-0.306	0.171
-543.266	-81.913	-0.274	-0.091
-542.252	39.026	-0.218	0.197
-541.237	-13.777	-0.163	-0.107
-540.223	442.112	0.114	-0.253
-539.208	-116.921	0.264	0.049
-538.193	168.601	-0.341	0.493
-537.179	-200.000	0.005	-0.146
-536.164	169.347	0.158	0.228
-535.150	-54.836	-0.227	-0.104
-534.135	-200.000	-0.009	-0.256
-533.121	-22.013	0.355	0.219
-532.106	79.579	-0.027	-0.029
-531.091	-1.997	-0.142	-0.101
-530.077	-32.158	0.245	-0.139
-529.062	-200.000	0.035	-0.360
-528.048	-200.000	0.011	0.367
-527.033	18.559	-0.342	0.277
-526.018	-200.000	0.009	-0.222
-525.004	67.824	0.231	0.239
-523.989	-61.473	0.246	0.105
-522.975	-156.791	0.139	0.009
-521.960	398.553	0.210	0.446
-520.945	800.000	0.043	0.132
-519.931	200.259	0.124	-0.193
-518.916	-200.000	0.048	-0.247
-517.902	-198.558	0.378	0.002
-516.887	-61.834	-0.106	-0.045
-515.872	192.087	0.107	-0.164
-514.858	800.000	0.071	-0.305
-513.843	114.764	-0.035	0.044
-512.829	-79.727	-0.324	0.110
-511.814	-158.511	-0.394	0.023
-510.799	203.593	0.106	0.166
-509.785	-200.000	0.013	0.117
-508.770	-99.505	0.198	-0.051
-507.756	103.827	-0.106	-0.126
-506.741	39.839	-0.273	0.248
-505.726	-128.474	-0.305	0.044
-504.712	12.134	-0.165	-0.129
-503.697	-88.250	0.256	0.078
-502.683	63.490	0.150	0.153
-501.668	33.086	-0.270	-0.237
-500.653	-200.000	-0.002	-0.312
-499.639	55.458	0.327	-0.321
-498.624	91.567	0.127	-0.145
-497.610	8.834	0.130	0.099
-496.595	-165.391	-0.263	0.012
-495.581	-71.262	-0.119	-0.045
-494.566	-55.252	-0.092	0.042
-493.551	61.667	0.232	-0.234
-492.537	-13.913	0.256	-0.167
-491.522	-200.000	0.024	0.176
-490.508	-110.441	-0.359	0.075
-489.493	-20.342	0.112	0.070
-488.478	-27.796	-0.370	0.217
-487.464	-91.112	-0.108	-0.031
-486.449	41.414	0.251	-0.230
-485.435	-200.000	-0.008	-0.053
-484.420	-23.278	-0.137	0.083
-483.405	-119.244	-0.335	0.059
-482.391	23.175	-0.157	-0.131
-481.376	-200.000	-0.007	-0.148
-480.362	17.062	0.028	0.023
-479.347	-200.000	0.014	0.085
-478.332	22.713	-0.134	0.111
-477.318	-50.576	0.168	0.080
-476.303	800.000	0.075	-0.242
-475.289	8.305	0.087	-0.066
-474.274	-24.725	-0.064	-0.038
-473.259	-200.000	0.014	0.095
-472.245	800.000	0.132	0.451
-471.230	-200.000	0.024	0.210
-470.216	-42.695	0.141	-0.072
-469.201	-155.462	0.271	-0.018
-468.186	164.636	-0.162	0.232
-467.172	-200.000	-0.018	0.319
-466.157	305.014	0.168	0.316
-465.143	-105.300	-0.393	0.090
-464.128	-44.711	-0.053	0.027
-463.113	800.000	0.063	-0.182
-462.099	-200.000	-0.070	-0.349
-461.084	-114.473	0.141	-0.027
-460.070	800.000	-0.118	0.448
-459.055	800.000	0.066	0.248
-458.040	-25.580	0.222	-0.132
-457.026	-106.768	0.183	0.041
-456.011	42.151	-0.067	-0.062
-454.997	-200.000	-0.011	0.345
-453.982	657.188	0.031	-0.082
-452.968	301.915	-0.062	-0.115
-451.953	-71.134	0.160	0.061
-450.938	18.959	-0.059	-0.048
-449.924	537.061	0.121	-0.291
-448.909	800.000	-0.033	-0.126
-447.895	-200.000	-0.021	-0.391
-446.880	-11.648	-0.159	0.106
-445.865	-17.485	0.225	-0.143
-444.851	-59.161	0.136	0.059
-443.836	-60.216	-0.105	-0.045
-442.822	420.627	-0.102	0.221
-441.807	533.697	0.074	0.178
-440.792	-121.477	-0.079	0.013
-439.778	240.264	0.087	-0.146
-438.763	11.228	0.139	-0.107
-437.749	-131.782	-0.248	0.033
-436.734	-18.382	0.132	0.083
-435.719	-54.775	0.178	0.081
-434.705	-13.282	0.162	0.106
-433.690	-200.000	-0.016	0.077
-432.676	85.978	-0.135	-0.149
-431.661	66.364	0.099	0.101
-430.646	-48.649	-0.202	0.098
-429.632	-102.795	-0.086	0.021
-428.617	-81.029	-0.293	-0.098
-427.603	-49.676	0.162	0.078
-426.588	-89.699	-0.220	0.065
-425.573	161.786	-0.167	-0.236
-424.559	-200.000	0.029	0.205
-423.544	17.383	0.180	-0.144
-422.530	-77.767	0.093	0.032
-421.515	-200.000	0.010	-0.181
-420.500	62.936	0.027	-0.028
-419.486	143.270	0.101	-0.135
-418.471	-111.503	-0.164	-0.034
-417.457	193.900	-0.115	0.175
-416.442	423.088	0.223	-0.483
-415.428	-12.301	0.173	0.114
-414.413	417.003	-0.035	-0.075
-413.398	296.140	0.121	-0.224
-412.384	-105.867	-0.116	0.027
-411.369	217.188	0.162	0.261
-410.355	-53.078	0.170	0.079
-409.340	-156.456	-0.180	-0.011
-408.325	-147.339	-0.367	0.031
-407.311	-137.080	-0.147	-0.017
-406.296	-200.000	0.003	-0.092
-405.282	-36.926	0.188	-0.102
-404.267	152.887	0.245	-0.337
-403.252	800.000	-0.045	0.142
-402.238	9.391	0.048	0.036
-401.223	738.117	0.156	-0.423
-400.209	-194.803	-0.068	0.001
-399.194	-40.552	-0.054	-0.028
-398.179	-165.034	0.131	0.006
-397.165	219.348	-0.158	0.254
-396.150	23.607	-0.217	-0.180
-395.136	-200.000	0.047	0.323
-394.121	-65.450	-0.200	0.081
-393.106	-168.457	0.133	0.005
-392.092	-162.001	-0.066	0.003
-391.077	-126.310	0.240	0.036
-390.063	800.000	-0.078	-0.326
-389.048	-200.000	-0.058	0.395
-388.033	-200.000	-0.020	-0.113
-387.019	-54.405	-0.215	0.098
-386.004	96.918	0.168	0.194
-384.990	-149.762	0.169	-0.013
-383.975	-11.708	-0.195	-0.129
-382.960	800.000	-0.070	-0.253
-381.946	251.507	-0.069	-0.118
-380.931	197.883	0.125	-0.192
-379.917	216.325	0.171	-0.275
-378.902	-147.709	-0.115	0.010
-377.888	56.368	-0.362	-0.354
-376.873	60.919	-0.154	-0.154
-375.858	607.544	0.077	0.193
-374.844	46.475	0.120	-0.112
-373.829	-70.630	0.065	-0.025
-372.815	-200.000	0.024	-0.189
-371.800	490.881	-0.210	-0.485
-370.785	34.998	0.107	-0.094
-369.771	319.324	0.123	-0.236
-368.756	117.533	-0.036	0.045
-367.742	-119.451	0.109	0.019
-366.727	432.293	-0.162	-0.353
-365.712	8.214	0.085	0.064
-364.698	-52.846	-0.484	0.224
-363.683	-13.345	-0.313	0.204
-362.669	-156.496	0.470	-0.029
-361.654	114.154	0.110	-0.135
-360.639	-200.000	0.077	-0.507
-359.625	-11.664	-0.335	0.221
-358.610	800.000	-0.007	0.028
-357.596	-35.251	-0.098	-0.054
-356.581	-62.935	-0.259	0.108
-355.566	800.000	-0.050	-0.143
-354.552	-94.061	-0.021	-0.006
-353.537	800.000	-0.093	0.306
-352.523	-123.518	0.141	-0.023
-351.508	-40.907	0.106	0.055
-350.493	-23.154	-0.324	0.197
-349.479	-121.278	-0.231	0.039
-348.464	193.609	-0.162	-0.246
-347.450	-200.000	0.079	-0.443
-346.435	-117.666	-0.206	-0.037
-345.420	-140.564	-0.134	0.014
-344.406	291.817	0.133	0.243
-343.391	-200.000	0.001	0.171
-342.377	266.659	-0.028	-0.050
-341.362	-98.772	-0.308	-0.079
-340.348	327.208	-0.237	0.456
-339.333	-45.905	0.439	0.218
-338.318	-63.319	-0.095	-0.039
-337.304	569.910	0.168	-0.411
-336.289	800.000	0.134	0.538
-335.275	800.000	0.141	0.421
-334.260	-58.233	0.018	-0.008
-333.245	-95.344	0.092	-0.025
-332.231	-200.000	0.017	-0.180
-331.216	-200.000	0.014	-0.304
-330.202	5.535	-0.098	0.072
-329.187	56.323	0.224	-0.218
-328.172	271.231	0.269	0.477
-327.158	-101.736	-0.266	0.065
-326.143	84.034	0.133	-0.146
-325.129	-43.373	-0.121	0.062
-324.114	-27.454	0.191	-0.112
-323.099	800.000	0.030	-0.131
-322.085	-128.733	-0.140	0.020
-321.070	-72.379	-0.173	-0.064
-320.056	-200.000	0.004	0.283
-319.041	-53.192	0.150	-0.069
-318.026	800.000	-0.133	-0.539
-317.012	439.484	-0.076	0.168
-315.997	800.000	-0.078	0.259
-314.983	800.000	0.071	-0.275
-313.968	39.722	0.235	-0.212
-312.953	-200.000	0.032	-0.148
-311.939	-66.336	0.332	-0.133
-310.924	324.807	0.093	-0.178
-309.910	53.035	0.163	-0.157
-308.895	-200.000	0.003	-0.019
-307.880	-47.102	0.155	-0.076
-306.866	-164.606	-0.435	-0.020
-305.851	-10.633	0.383	0.255
-304.837	-117.053	0.168	-0.031
-303.822	27.484	0.271	-0.229
-302.807	-3.388	0.154	-0.107
-301.793	-74.225	-0.273	0.099
-300.778	-1.714	-0.148	0.104
-299.764	-200.000	0.004	-0.056
-298.749	71.318	-0.053	0.055
-297.735	-200.000	-0.035	-0.222
-296.720	7.794	0.146	0.110
-295.705	800.000	0.082	0.228
-294.691	64.641	-0.102	-0.103
-293.676	-128.106	0.310	-0.045
-292.662	-200.000	-0.000	-0.212
-291.647	52.487	0.118	-0.113
-290.632	-137.944	0.133	0.015
-289.618	-125.242	-0.099	-0.015
-288.603	-200.000	0.014	-0.079
-287.589	606.220	-0.102	0.255
-286.574	800.000	0.031	0.116
-285.559	-101.985	-0.113	0.027
-284.545	81.473	-0.127	0.137
-283.530	-190.311	0.181	-0.002
-282.516	-114.875	-0.077	-0.015
-281.501	-71.141	0.067	0.025
-280.486	-27.653	-0.125	-0.073
-279.472	70.622	0.082	0.085
-278.457	800.000	0.055	-0.190
-277.443	253.516	0.195	-0.335
-276.428	-58.074	0.095	-0.042
-275.413	-30.731	-0.286	-0.163
-274.399	-69.068	0.356	0.138
-273.384	237.415	0.166	0.277
-272.370	-100.589	-0.198	0.049
-271.355	-200.000	0.050	0.296
-270.340	109.364	0.057	0.069
-269.326	88.309	-0.131	0.146
-268.311	2.864	-0.171	0.125
-267.297	-200.000	0.062	0.289
-266.282	206.670	0.106	-0.166
-265.267	79.005	0.069	0.074
-264.253	-163.442	0.297	0.014
-263.238	-135.318	0.132	-0.016
-262.224	800.000	-0.075	-0.211
-261.209	28.404	-0.152	0.129
-260.195	-200.000	-0.007	0.131
-259.180	55.153	0.062	-0.060
-258.165	7.963	-0.255	-0.192
-257.151	-155.007	0.253	-0.017
-256.136	131.889	-0.179	0.231
-255.122	561.351	0.195	-0.474
-254.107	72.142	0.033	-0.035
-253.092	179.331	-0.236	-0.346
-252.078	-53.888	0.053	-0.024
-251.063	-200.000	-0.012	-0.275
-250.049	-200.000	-0.043	-0.202
-249.034	-200.000	-0.050	0.642
-248.019	-173.555	0.141	0.004
-247.005	76.335	0.092	0.097
-245.990	-200.000	0.186	0.000
-244.976	317.326	-0.030	-0.057
-243.961	83.091	0.098	-0.107
-242.946	-131.185	0.109	0.014
-241.932	-59.123	0.062	0.027
-240.917	-200.000	0.026	0.138
-239.903	-59.761	-0.257	-0.110
-238.888	-142.006	0.148	0.015
-237.873	800.000	0.125	0.431
-236.859	-200.000	-0.019	0.238
-235.844	737.355	-0.102	-0.273
-234.830	-200.000	0.053	0.292
-233.815	-122.136	0.154	-0.025
-232.800	-46.198	0.077	0.038
-231.786	-104.752	-0.237	0.055
-230.771	-132.401	-0.157	-0.020
-229.757	-142.833	0.119	-0.012
-228.742	800.000	0.015	0.050
-227.727	-59.648	-0.163	0.070
-226.713	651.771	0.134	-0.343
-225.698	86.069	0.058	-0.064
-224.684	-145.612	-0.211	0.019
-223.669	472.545	0.171	0.385
-222.655	520.252	-0.064	-0.150
-221.640	179.257	0.248	-0.364
-220.625	425.940	0.090	0.195
-219.611	-95.437	0.171	-0.046
-218.596	156.943	-0.194	0.269
-217.582	-200.000	-0.017	-0.153
-216.567	-124.264	0.179	-0.028
-215.552	48.275	-0.172	0.161
-214.538	38.591	-0.138	0.123
-213.523	-63.849	-0.130	-0.053
-212.509	-12.212	0.310	0.203
-211.494	104.417	-0.135	0.159
-210.479	800.000	-0.061	0.219
-209.465	24.269	0.105	0.087
-208.450	185.771	-0.098	-0.147
-207.436	127.703	-0.142	0.181
-206.421	-51.075	-0.147	0.069
-205.406	-148.072	0.399	-0.033
-204.392	-68.819	-0.266	-0.103
-203.377	123.309	0.135	0.169
-202.363	401.913	-0.090	-0.188
-201.348	-200.000	0.053	0.323
-200.333	-14.395	0.236	0.152
-199.319	215.954	0.243	0.386
-198.304	-52.231	0.391	0.181
-197.290	-109.247	-0.121	-0.026
-196.275	54.818	0.077	-0.074
-195.260	-190.228	0.116	0.001
-194.246	-75.610	0.109	-0.039
-193.231	131.416	-0.134	-0.172
-192.217	800.000	0.095	-0.341
-191.202	-4.686	-0.231	0.160
-190.187	-23.857	-0.190	0.114
-189.173	-116.072	-0.309	0.058
-188.158	-200.000	-0.004	0.148
-187.144	800.000	0.070	-0.221
-186.129	208.170	-0.069	-0.108
-185.114	202.495	0.078	-0.121
-184.100	-200.000	0.025	-0.135
-183.085	-165.461	-0.103	-0.005
-182.071	-64.956	-0.168	0.068
-181.056	-200.000	0.039	0.235
-180.042	-189.656	-0.136	0.002
-179.027	6.751	0.075	-0.056
-178.012	-200.000	0.021	-0.126
-176.998	92.966	0.214	0.242
-175.983	-113.524	-0.154	-0.030
-174.969	44.782	-0.170	-0.157
-173.954	101.041	0.008	-0.010
-172.939	722.968	-0.012	0.033
-171.925	-200.000	0.003	0.179
-170.910	380.866	0.030	-0.062
-169.896	-149.139	-0.125	-0.010
-168.881	79.757	-0.133	-0.143
-167.866	-66.406	-0.206	-0.082
-166.852	54.174	0.170	0.163
-165.837	25.734	-0.195	0.162
-164.823	-200.000	-0.032	-0.165
-163.808	-12.009	0.275	-0.180
-162.793	-28.779	-0.160	-0.092
-161.779	800.000	-0.043	0.188
-160.764	-200.000	-0.014	0.205
-159.750	182.400	0.208	0.306
-158.735	-102.612	0.240	0.057
-157.720	10.242	0.282	0.214
-156.706	800.000	0.075	0.299
-155.691	-200.000	-0.051	-0.248
-154.677	-114.350	-0.161	0.031
-153.662	143.902	-0.071	0.095
-152.647	-49.652	0.217	0.103
-151.633	-126.327	0.057	0.009
-150.618	-56.774	-0.172	0.076
-149.604	-131.033	0.149	-0.020
-148.589	-146.219	-0.299	0.026
-147.574	-155.841	-0.024	-0.002
-146.560	800.000	-0.090	0.320
-145.545	-34.533	-0.151	0.083
-144.531	-54.028	0.159	0.072
-143.516	-128.639	-0.222	-0.031
-142.502	-178.372	0.442	-0.010
-141.487	159.479	0.271	0.377
-140.472	-117.883	-0.182	0.033
-139.458	334.005	0.170	-0.329
-138.443	-80.841	-0.058	-0.019
-137.429	-121.861	0.321	0.053
-136.414	11.745	0.084	0.064
-135.399	-86.958	-0.195	0.059
-134.385	-200.000	0.002	-0.175
-133.370	-12.920	0.171	0.111
-132.356	27.714	-0.254	0.213
-131.341	-35.924	-0.118	0.064
-130.326	-65.459	0.504	-0.202
-129.312	64.702	0.074	0.074
-128.297	-200.000	0.050	-0.323
-127.283	274.848	-0.031	0.055
-126.268	-123.041	0.160	0.026
-125.253	-40.437	-0.263	-0.136
-124.239	-2.396	0.109	-0.076
-123.224	-107.208	0.045	-0.010
-122.210	-121.532	-0.228	-0.038
-121.195	-72.865	0.084	-0.031
