DTS Sentinel unit serial number:	SN413079Multiplexer serial number:	ORYXHardware model number:	OX4-SRSoftware version number:	ORYX F/W v4.00 Oryx Data Collector v3.7.2.0data status	okinstallation	princeton_trtdifferential loss correction	single-endedforward channel	channel 4reverse channel	N/Adate	2019/09/15time	17:41:35forward acquisition time	60.00reverse acquisition time	0.00gamma	496.2192k internal	0.2275k external	0.2275temperature offset calibration	0.9923default loss term (dB/km)	0.3790temperature slope calibration	1.0000multiplexer offset coefficient	1.0000multiplexer slope coefficient	1.0000fibre end	0.00T internal ref (°C)	44.87T ext. ref 1 (°C)	6.26T ext. ref 2 (°C)	39.67length (m)	temperature (°C)	Stokes	anti-Stokes-747.200	11.179	-0.215	-0.170
-746.185	36.985	0.116	0.106
-745.171	-200.000	0.000	0.029
-744.156	355.086	0.174	0.357
-743.142	-33.316	0.096	0.055
-742.127	-107.127	-0.198	0.045
-741.112	149.241	-0.126	0.175
-740.098	73.887	-0.283	-0.306
-739.083	-60.271	-0.350	0.154
-738.069	157.168	0.060	-0.085
-737.054	-128.411	-0.286	0.042
-736.039	-35.613	0.190	0.106
-735.025	-67.553	-0.191	0.077
-734.010	-31.914	-0.309	-0.178
-732.996	653.262	0.047	-0.125
-731.981	-200.000	-0.017	0.227
-730.966	228.733	0.119	0.201
-729.952	-200.000	-0.231	-0.001
-728.937	-14.266	0.086	-0.057
-727.923	-27.955	-0.139	-0.083
-726.908	273.160	-0.214	0.390
-725.894	-174.080	0.025	-0.001
-724.879	-172.374	0.288	0.009
-723.864	-102.703	-0.186	-0.046
-722.850	-5.527	0.316	0.223
-721.835	-138.397	0.276	0.031
-720.821	-65.903	-0.283	-0.117
-719.806	206.526	0.072	0.115
-718.791	-131.780	-0.032	0.004
-717.777	-124.034	-0.134	0.022
-716.762	-169.055	0.086	-0.003
-715.748	256.464	0.131	-0.233
-714.733	110.425	-0.151	0.187
-713.718	347.908	0.092	0.186
-712.704	202.199	-0.296	-0.471
-711.689	-87.313	-0.226	0.071
-710.675	69.996	-0.149	0.158
-709.660	204.060	0.121	0.194
-708.645	107.570	0.123	0.151
-707.631	-200.000	0.003	-0.093
-706.616	-200.000	-0.001	-0.254
-705.602	-52.869	-0.358	-0.170
-704.587	184.656	-0.229	-0.349
-703.572	364.333	-0.169	-0.349
-702.558	-58.238	-0.352	-0.158
-701.543	800.000	0.054	0.170
-700.529	-200.000	-0.015	0.203
-699.514	93.165	-0.032	0.038
-698.499	62.365	0.316	-0.325
-697.485	-198.985	-0.029	-0.000
-696.470	-43.564	-0.707	-0.367
-695.456	-114.271	0.168	-0.033
-694.441	510.997	-0.075	0.181
-693.426	-200.000	-0.045	-0.326
-692.412	-200.000	-0.047	-0.253
-691.397	47.352	-0.258	0.248
-690.383	-200.000	-0.014	0.109
-689.368	-200.000	-0.080	-0.401
-688.354	800.000	0.035	-0.116
-687.339	178.624	-0.107	-0.161
-686.324	655.187	0.108	-0.286
-685.310	-139.226	-0.216	0.024
-684.295	76.169	-0.076	0.082
-683.281	-34.572	0.140	-0.079
-682.266	-9.850	-0.110	-0.075
-681.251	-107.819	-0.385	0.086
-680.237	800.000	0.048	-0.209
-679.222	16.572	-0.176	-0.143
-678.208	228.743	0.066	-0.110
-677.193	58.651	0.153	0.155
-676.178	-157.638	0.241	-0.015
-675.164	-126.514	0.067	0.010
-674.149	28.343	0.136	-0.118
-673.135	-94.874	0.068	0.019
-672.120	-66.929	-0.337	-0.137
-671.105	28.710	0.030	0.026
-670.091	-75.652	-0.227	-0.083
-669.076	-33.255	0.054	0.031
-668.062	51.494	0.197	0.192
-667.047	15.826	-0.067	0.054
-666.032	-47.840	-0.160	-0.080
-665.018	-102.013	-0.235	-0.058
-664.003	88.246	0.042	0.047
-662.989	3.573	-0.089	0.067
-661.974	800.000	-0.016	0.065
-660.959	-200.000	0.057	-0.270
-659.945	235.772	-0.183	-0.311
-658.930	182.761	-0.115	-0.174
-657.916	-60.408	-0.183	-0.080
-656.901	-20.935	-0.070	0.044
-655.886	-81.040	0.227	0.077
-654.872	-55.511	0.329	0.152
-653.857	800.000	-0.103	-0.299
-652.843	-55.887	-0.219	-0.101
-651.828	-46.760	0.307	0.154
-650.814	550.887	0.128	0.317
-649.799	800.000	-0.028	0.113
-648.784	-27.549	-0.239	-0.143
-647.770	800.000	0.124	-0.389
-646.755	184.375	0.011	0.016
-645.741	211.837	-0.107	-0.173
-644.726	-31.675	0.128	0.074
-643.711	-111.185	0.230	-0.048
-642.697	161.427	-0.049	0.070
-641.682	-200.000	-0.020	0.225
-640.668	-80.569	0.125	-0.043
-639.653	-200.000	-0.036	-0.352
-638.638	72.230	-0.091	-0.098
-637.624	119.155	0.152	-0.193
-636.609	538.584	0.062	0.151
-635.595	131.669	-0.176	-0.232
-634.580	66.530	-0.034	-0.035
-633.565	-38.577	-0.106	-0.057
-632.551	-153.741	0.101	-0.007
-631.536	20.636	-0.150	0.125
-630.522	-200.000	-0.049	-0.285
-629.507	14.491	-0.102	-0.082
-628.492	-136.780	-0.200	0.024
-627.478	153.634	-0.175	0.246
-626.463	-152.576	-0.039	-0.003
-625.449	-60.692	0.253	0.110
-624.434	-137.911	-0.152	0.017
-623.419	32.415	-0.359	-0.318
-622.405	103.070	-0.229	0.276
-621.390	-200.000	-0.032	0.232
-620.376	-188.708	-0.334	0.004
-619.361	-200.000	-0.007	0.165
-618.346	414.109	-0.100	-0.219
-617.332	55.321	0.241	0.239
-616.317	235.019	0.139	0.235
-615.303	220.212	-0.153	0.252
-614.288	-42.471	0.288	0.151
-613.273	377.255	-0.146	-0.307
-612.259	-59.859	-0.195	-0.086
-611.244	800.000	0.069	0.272
-610.230	-200.000	-0.009	-0.139
-609.215	-200.000	0.026	0.290
-608.201	441.319	-0.157	-0.352
-607.186	-130.420	0.107	0.015
-606.171	800.000	0.009	-0.029
-605.157	179.213	0.218	-0.327
-604.142	-200.000	-0.052	-0.283
-603.128	-39.995	0.179	0.096
-602.113	141.955	0.044	0.060
-601.098	-200.000	0.159	0.000
-600.084	-200.000	0.003	0.206
-599.069	-67.356	0.264	0.107
-598.055	-149.678	-0.227	0.018
-597.040	-200.000	0.025	-0.165
-596.025	-126.016	-0.218	0.034
-595.011	-200.000	0.060	0.350
-593.996	-76.217	-0.425	0.154
-592.982	800.000	-0.047	-0.148
-591.967	5.855	0.256	-0.194
-590.952	-143.232	-0.106	-0.010
-589.938	800.000	0.011	0.037
-588.923	-200.000	-0.017	-0.162
-587.909	31.270	-0.186	-0.164
-586.894	159.884	-0.141	-0.201
-585.879	764.045	-0.059	0.165
-584.865	-97.263	-0.380	-0.102
-583.850	800.000	-0.060	0.200
-582.836	1.987	0.063	-0.047
-581.821	-37.112	0.169	0.093
-580.806	-91.790	-0.456	0.133
-579.792	-38.726	0.159	-0.086
-578.777	-200.000	0.045	0.241
-577.763	-145.994	0.444	-0.040
-576.748	236.964	0.119	0.203
-575.733	13.161	-0.103	0.082
-574.719	127.914	-0.246	-0.321
-573.704	253.119	-0.152	-0.265
-572.690	800.000	-0.037	0.122
-571.675	32.394	0.171	-0.152
-570.661	392.540	0.120	-0.255
-569.646	0.898	-0.115	0.085
-568.631	237.939	-0.150	0.255
-567.617	-39.575	0.378	0.203
-566.602	-200.000	0.013	-0.152
-565.588	-108.651	0.119	-0.026
-564.573	331.730	0.104	-0.206
-563.558	0.168	-0.316	-0.231
-562.544	-110.393	-0.282	-0.060
-561.529	-200.000	-0.014	0.181
-560.515	-97.942	-0.105	0.028
-559.500	457.861	0.073	-0.166
-558.485	124.607	0.126	0.163
-557.471	-60.681	-0.199	-0.086
-556.456	-200.000	0.005	-0.038
-555.442	800.000	-0.024	0.079
-554.427	-22.614	0.259	-0.161
-553.412	55.359	0.258	-0.255
-552.398	10.029	0.113	-0.088
-551.383	800.000	0.120	-0.507
-550.369	-200.000	0.037	-0.233
-549.354	800.000	0.044	-0.180
-548.339	-150.643	-0.451	0.035
-547.325	-66.079	0.468	0.191
-546.310	14.345	0.129	-0.103
-545.296	-200.000	0.013	0.221
-544.281	9.186	0.082	-0.063
-543.266	-12.985	-0.229	-0.153
-542.252	-154.047	-0.488	0.034
-541.237	6.059	0.149	-0.113
-540.223	268.291	0.173	0.309
-539.208	190.746	-0.117	0.181
-538.193	-10.910	-0.132	-0.089
-537.179	26.017	-0.322	0.275
-536.164	286.273	0.068	0.126
-535.150	-113.902	0.193	-0.038
-534.135	-200.000	-0.048	-0.284
-533.121	800.000	0.139	-0.510
-532.106	-76.617	-0.226	-0.081
-531.091	292.446	0.144	-0.269
-530.077	800.000	-0.030	-0.128
-529.062	800.000	0.035	0.125
-528.048	-73.496	0.289	-0.108
-527.033	-96.614	0.332	0.089
-526.018	-178.301	-0.132	0.003
-525.004	-200.000	0.062	0.334
-523.989	177.904	-0.217	-0.323
-522.975	-42.118	0.197	0.103
-521.960	-200.000	-0.020	-0.110
-520.945	-200.000	0.014	0.103
-519.931	-102.924	-0.210	0.051
-518.916	-127.126	0.266	-0.040
-517.902	309.644	-0.106	-0.202
-516.887	-77.561	0.333	-0.118
-515.872	522.702	0.032	0.076
-514.858	-64.623	0.064	0.027
-513.843	95.948	-0.177	0.207
-512.829	-17.712	0.150	0.097
-511.814	-200.000	-0.002	0.314
-510.799	12.440	0.196	-0.155
-509.785	196.843	0.119	0.185
-508.770	277.595	0.247	0.449
-507.756	261.695	0.079	-0.140
-506.741	139.207	-0.196	0.264
-505.726	-56.605	0.064	-0.029
-504.712	-184.075	0.304	0.005
-503.697	800.000	0.057	-0.229
-502.683	-61.154	0.150	-0.065
-501.668	-75.839	-0.247	-0.089
-500.653	205.604	0.166	-0.264
-499.639	-76.630	-0.176	0.063
-498.624	800.000	0.059	0.227
-497.610	-82.943	-0.315	0.104
-496.595	676.919	-0.038	-0.100
-495.581	-171.797	0.156	-0.005
-494.566	-143.598	0.072	-0.007
-493.551	-200.000	0.022	-0.414
-492.537	120.290	-0.165	0.210
-491.522	103.373	0.141	0.168
-490.508	152.014	0.146	0.204
-489.493	800.000	-0.054	0.237
-488.478	14.257	0.149	-0.119
-487.464	-57.366	-0.357	0.160
-486.449	-90.557	-0.159	0.047
-485.435	-57.684	-0.216	0.097
-484.420	337.751	0.012	-0.024
-483.405	-21.553	0.332	0.207
-482.391	-200.000	0.008	-0.056
-481.376	-200.000	-0.007	0.134
-480.362	32.989	0.130	-0.115
-479.347	39.926	0.072	-0.066
-478.332	95.000	0.111	-0.128
-477.318	-200.000	0.001	0.017
-476.303	-200.000	0.051	-0.443
-475.289	-22.928	0.276	0.170
-474.274	8.319	-0.242	0.186
-473.259	75.543	-0.073	-0.078
-472.245	-200.000	0.023	-0.129
-471.230	614.782	0.049	-0.125
-470.216	-182.559	-0.179	-0.003
-469.201	-90.873	-0.256	-0.075
-468.186	-102.077	0.138	-0.034
-467.172	291.948	-0.028	-0.052
-466.157	190.338	-0.160	-0.245
-465.143	-143.752	0.310	0.030
-464.128	41.734	0.039	-0.036
-463.113	-7.819	-0.349	0.240
-462.099	-9.013	-0.193	0.132
-461.084	-108.148	-0.095	0.021
-460.070	-97.235	-0.157	0.042
-459.055	-42.900	-0.131	0.068
-458.040	-100.612	-0.290	0.073
-457.026	-150.397	-0.353	0.028
-456.011	73.420	-0.134	0.143
-454.997	112.452	0.201	-0.248
-453.982	115.103	0.242	-0.301
-452.968	82.567	-0.093	0.103
-451.953	507.725	0.044	0.104
-450.938	565.145	0.072	-0.177
-449.924	-135.493	0.301	-0.037
-448.909	158.121	0.085	0.120
-447.895	-112.897	-0.212	0.043
-446.880	127.384	0.196	-0.254
-445.865	88.929	-0.311	-0.353
-444.851	745.151	-0.080	0.219
-443.836	-45.185	-0.137	-0.070
-442.822	800.000	-0.044	0.175
-441.807	-200.000	-0.014	-0.332
-440.792	306.186	-0.106	0.200
-439.778	-110.747	0.259	0.054
-438.763	0.755	-0.050	0.036
-437.749	253.832	0.158	-0.275
-436.734	800.000	-0.047	-0.135
-435.719	-200.000	0.007	-0.055
-434.705	800.000	-0.033	-0.128
-433.690	-40.229	-0.179	-0.095
-432.676	-137.155	-0.090	0.010
-431.661	-113.725	-0.307	0.061
-430.646	233.514	-0.111	-0.185
-429.632	800.000	0.045	-0.166
-428.617	107.132	0.085	-0.102
-427.603	-134.245	0.068	0.009
-426.588	519.599	-0.136	-0.324
-425.573	263.148	0.064	-0.113
-424.559	-200.000	-0.008	-0.091
-423.544	352.787	0.121	0.245
-422.530	-200.000	-0.018	-0.169
-421.515	-200.000	-0.020	-0.219
-420.500	14.828	-0.200	0.159
-419.486	-67.509	-0.239	-0.095
-418.471	557.106	0.118	-0.289
-417.457	-60.382	0.313	-0.136
-416.442	-108.261	0.140	0.031
-415.428	-138.908	-0.245	-0.027
-414.413	93.478	0.050	0.058
-413.398	225.299	-0.149	0.245
-412.384	-176.080	-0.288	0.008
-411.369	-130.920	0.111	-0.015
-410.355	-200.000	-0.005	0.083
-409.340	51.610	-0.101	-0.098
-408.325	800.000	0.085	-0.336
-407.311	-92.239	-0.073	-0.021
-406.296	-200.000	0.025	-0.205
-405.282	-200.000	-0.008	-0.046
-404.267	325.023	0.189	0.367
-403.252	-200.000	-0.013	0.218
-402.238	-200.000	0.045	0.346
-401.223	500.407	-0.149	0.349
-400.209	16.588	-0.108	0.087
-399.194	123.702	0.066	-0.085
-398.179	800.000	-0.102	0.287
-397.165	360.797	0.165	-0.337
-396.150	-200.000	0.036	0.162
-395.136	-125.478	0.132	-0.020
-394.121	-103.891	-0.167	-0.040
-393.106	508.417	0.044	-0.103
-392.092	-40.743	0.103	0.054
-391.077	800.000	0.070	-0.260
-390.063	160.753	-0.123	0.175
-389.048	-200.000	-0.014	0.090
-388.033	372.354	0.142	0.294
-387.019	800.000	0.057	0.168
-386.004	-11.437	0.087	-0.058
-384.990	52.259	0.309	0.300
-383.975	348.701	0.069	0.139
-382.960	438.107	-0.071	0.157
-381.946	-79.030	-0.103	-0.036
-380.931	-110.744	-0.279	-0.059
-379.917	-200.000	0.073	0.473
-378.902	-141.451	-0.106	0.011
-377.888	-200.000	0.039	0.334
-376.873	579.981	-0.121	-0.302
-375.858	-105.140	-0.329	-0.076
-374.844	-200.000	-0.037	0.240
-373.829	119.321	-0.024	0.030
-372.815	568.900	-0.019	-0.046
-371.800	1.964	0.131	0.096
-370.785	-169.851	0.177	-0.006
-369.771	420.995	0.161	0.351
-368.756	-200.000	-0.038	0.218
-367.742	685.271	0.075	-0.199
-366.727	99.256	-0.042	-0.049
-365.712	-200.000	-0.096	-0.442
-364.698	-58.002	0.157	-0.070
-363.683	38.525	-0.107	-0.097
-362.669	800.000	-0.033	-0.132
-361.654	-15.182	0.179	-0.116
-360.639	197.854	-0.113	-0.176
-359.625	-167.251	0.149	-0.006
-358.610	800.000	-0.036	-0.121
-357.596	56.335	-0.105	-0.104
-356.581	-75.164	0.194	-0.070
-355.566	364.003	0.046	0.095
-354.552	239.836	-0.080	-0.136
-353.537	-121.501	-0.276	-0.047
-352.523	409.819	-0.111	0.240
-351.508	-200.000	0.009	-0.095
-350.493	-200.000	0.008	-0.094
-349.479	-69.067	-0.245	-0.096
-348.464	-53.227	0.205	0.096
-347.450	-200.000	-0.037	0.225
-346.435	-200.000	0.029	0.259
-345.420	-200.000	0.010	-0.212
-344.406	-200.000	0.072	0.374
-343.391	-200.000	-0.015	-0.156
-342.377	-200.000	-0.051	-0.246
-341.362	-65.517	0.186	0.076
-340.348	-165.697	0.118	0.005
-339.333	-200.000	0.065	0.300
-338.318	-200.000	0.041	0.219
-337.304	800.000	-0.056	-0.161
-336.289	800.000	-0.078	0.281
-335.275	-200.000	0.069	0.353
-334.260	-92.704	-0.149	0.042
-333.245	419.466	-0.164	0.357
-332.231	-200.000	-0.011	0.328
-331.216	-200.000	0.015	-0.147
-330.202	-123.839	0.552	-0.088
-329.187	-68.466	0.087	0.034
-328.172	590.508	-0.056	0.141
-327.158	-200.000	-0.013	-0.160
-326.143	-98.746	-0.122	0.031
-325.129	800.000	0.067	0.229
-324.114	-125.116	0.086	0.013
-323.099	800.000	0.051	0.184
-322.085	295.084	0.096	0.179
-321.070	-200.000	-0.011	-0.260
-320.056	536.740	-0.048	0.115
-319.041	41.494	0.194	-0.179
-318.026	-149.614	0.124	0.010
-317.012	445.525	-0.096	0.215
-315.997	-94.220	0.371	0.103
-314.983	-19.469	0.148	0.093
-313.968	133.983	0.244	-0.320
-312.953	170.516	0.162	-0.236
-311.939	42.823	0.369	0.341
-310.924	-71.395	0.177	0.067
-309.910	-116.951	-0.171	-0.032
-308.895	-126.076	-0.215	-0.033
-307.880	-30.353	-0.159	0.091
-306.866	-133.129	0.239	-0.031
-305.851	229.417	-0.117	0.194
-304.837	51.375	-0.219	-0.211
-303.822	-34.163	-0.149	0.083
-302.807	127.545	-0.107	-0.138
-301.793	-155.852	-0.494	0.032
-300.778	-53.820	-0.030	0.014
-299.764	47.878	0.136	0.129
-298.749	58.941	-0.157	-0.156
-297.735	-1.331	-0.198	-0.141
-296.720	-155.828	0.309	-0.020
-295.705	-96.029	-0.167	-0.045
-294.691	-64.315	0.137	0.057
-293.676	-145.459	0.130	-0.012
-292.662	231.619	0.039	-0.064
-291.647	275.482	0.205	-0.369
-290.632	54.707	-0.059	-0.058
-289.618	362.739	-0.060	-0.122
-288.603	-133.453	0.237	-0.030
-287.589	9.645	-0.170	0.130
-286.574	-62.973	-0.495	-0.207
-285.559	516.013	-0.076	-0.180
-284.545	800.000	0.075	0.228
-283.530	-66.974	0.073	0.029
-282.516	-200.000	0.022	0.140
-281.501	-31.663	-0.082	0.047
-280.486	647.358	0.077	-0.198
-279.472	800.000	0.068	0.236
-278.457	18.751	-0.259	0.210
-277.443	154.925	-0.189	0.264
-276.428	11.923	0.137	0.107
-275.413	327.147	-0.092	0.178
-274.399	-85.778	0.282	0.089
-273.384	371.529	-0.061	0.126
-272.370	191.688	0.075	-0.115
-271.355	-200.000	-0.040	-0.241
-270.340	-200.000	-0.019	0.290
-269.326	224.831	-0.079	0.129
-268.311	-200.000	-0.038	-0.214
-267.297	-59.857	-0.187	-0.081
-266.282	1.791	0.150	-0.110
-265.267	-66.643	0.273	-0.109
-264.253	107.503	0.162	-0.195
-263.238	-200.000	0.025	-0.118
-262.224	-150.250	0.078	-0.006
-261.209	-200.000	0.073	-0.432
-260.195	-122.740	0.305	-0.050
-259.180	-11.604	-0.643	0.427
-258.165	-200.000	0.007	0.075
-257.151	688.655	-0.034	0.090
-256.136	-104.017	-0.248	0.058
-255.122	-200.000	-0.016	-0.170
-254.107	-9.094	-0.178	-0.120
-253.092	373.145	-0.156	-0.320
-252.078	-144.207	0.415	0.039
-251.063	-200.000	0.008	0.213
-250.049	-84.299	0.204	-0.065
-249.034	41.300	0.167	-0.153
-248.019	800.000	-0.056	-0.195
-247.005	139.872	-0.216	-0.287
-245.990	443.884	-0.049	0.109
-244.976	297.909	-0.083	-0.155
-243.961	20.212	0.247	-0.201
-242.946	2.838	0.261	0.192
-241.932	-43.160	-0.258	0.132
-240.917	69.528	0.153	-0.159
-239.903	-126.474	0.127	0.019
-238.888	-109.866	-0.139	-0.029
-237.873	227.609	-0.071	0.117
-236.859	800.000	0.072	0.231
-235.844	167.072	-0.130	-0.187
-234.830	-200.000	-0.015	0.182
-233.815	-200.000	-0.004	0.057
-232.800	-157.591	0.269	0.016
-231.786	-92.749	0.174	0.049
-230.771	342.843	0.097	-0.192
-229.757	64.561	-0.121	0.123
-228.742	-78.713	-0.263	0.091
-227.727	48.770	-0.119	-0.112
-226.713	-115.297	-0.035	0.007
-225.698	-200.000	0.010	0.134
-224.684	-200.000	-0.028	0.263
-223.669	-41.115	-0.030	-0.015
-222.655	-136.522	-0.410	0.048
-221.640	800.000	0.121	0.366
-220.625	224.593	0.050	-0.081
-219.611	76.485	0.389	0.417
-218.596	800.000	-0.087	-0.250
-217.582	-113.352	-0.182	0.036
-216.567	-30.840	-0.098	0.056
-215.552	303.795	0.063	-0.118
-214.538	-137.692	-0.046	-0.005
-213.523	-78.631	0.230	-0.079
-212.509	73.972	-0.273	0.289
-211.494	-17.271	0.040	-0.026
-210.479	-20.040	-0.123	-0.077
-209.465	189.037	0.101	-0.152
-208.450	800.000	-0.078	-0.270
-207.436	232.950	-0.168	0.278
-206.421	800.000	-0.087	0.362
-205.406	-66.969	-0.237	0.094
-204.392	613.335	0.081	0.204
-203.377	40.685	0.222	-0.202
-202.363	-200.000	0.017	-0.094
-201.348	800.000	-0.049	0.143
-200.333	-36.392	-0.025	0.013
-199.319	-42.594	0.380	-0.195
-198.304	-118.776	0.088	0.016
-197.290	240.668	-0.064	0.107
-196.275	768.425	-0.103	-0.283
-195.260	-144.906	0.229	-0.021
-194.246	-12.146	0.232	-0.153
-193.231	-135.025	-0.056	-0.007
-192.217	-26.075	0.092	0.055
-191.202	-200.000	0.024	-0.323
-190.187	-35.247	0.104	0.057
-189.173	-106.543	0.225	0.051
-188.158	-200.000	0.041	0.189
-187.144	143.426	-0.046	0.062
-186.129	231.854	0.107	0.177
-185.114	40.404	0.071	0.065
-184.100	229.061	0.045	-0.075
-183.085	-31.760	-0.158	0.090
-182.071	535.720	-0.111	0.266
-181.056	65.407	-0.228	0.233
-180.042	-186.541	0.185	0.003
-179.027	289.302	0.090	-0.164
-178.012	-4.708	0.227	-0.158
-176.998	-34.131	0.347	0.192
-175.983	573.762	0.084	-0.206
-174.969	-0.765	-0.074	0.053
-173.954	71.898	-0.072	-0.076
-172.939	-83.840	0.193	0.062
-171.925	-2.320	0.305	0.216
-170.910	426.458	0.148	-0.322
-169.896	-109.548	-0.447	0.095
-168.881	180.154	0.007	-0.011
-167.866	-42.444	-0.220	-0.113
-166.852	55.306	0.236	-0.230
-165.837	94.269	-0.265	0.304
-164.823	686.546	0.030	-0.079
-163.808	-200.000	0.013	0.184
-162.793	547.983	0.103	0.248
-161.779	3.577	-0.007	0.005
-160.764	-17.330	-0.116	-0.073
-159.750	-105.403	0.208	0.048
-158.735	-111.706	0.143	0.029
-157.720	6.169	0.155	0.116
-156.706	207.712	-0.157	0.247
-155.691	-200.000	-0.008	-0.335
-154.677	-200.000	0.072	-0.393
-153.662	675.375	0.074	0.195
-152.647	-200.000	-0.010	-0.200
-151.633	-132.117	-0.252	0.033
-150.618	-78.196	-0.150	0.052
-149.604	-122.981	0.133	0.022
-148.589	499.500	-0.069	0.161
-147.574	-200.000	-0.010	-0.255
-146.560	-200.000	-0.041	-0.198
-145.545	703.219	0.111	-0.296
-144.531	62.540	0.180	0.182
-143.516	24.153	0.178	-0.148
-142.502	-82.283	0.299	0.098
-141.487	-118.188	-0.253	-0.045
-140.472	-200.000	-0.013	0.141
-139.458	-200.000	-0.094	0.698
-138.443	171.933	-0.178	-0.258
-137.429	109.755	-0.034	-0.041
-136.414	-200.000	-0.018	-0.218
-135.399	91.996	0.170	-0.193
-134.385	-200.000	0.018	-0.189
-133.370	73.079	0.248	-0.261
-132.356	-151.867	0.353	0.026
-131.341	18.047	-0.186	-0.150
-130.326	193.644	-0.140	0.214
-129.312	-200.000	0.032	-0.152
-128.297	-19.056	0.117	0.073
-127.283	10.987	0.244	0.188
-126.268	-138.610	-0.074	0.008
-125.253	-125.044	-0.108	-0.017
-124.239	11.504	0.110	0.085
-123.224	-30.082	-0.252	0.144
-122.210	129.524	0.205	-0.264
