DTS Sentinel unit serial number:	SN413079Multiplexer serial number:	ORYXHardware model number:	OX4-SRSoftware version number:	ORYX F/W v4.00 Oryx Data Collector v3.7.2.0data status	okinstallation	princeton_trtdifferential loss correction	single-endedforward channel	channel 4reverse channel	N/Adate	2019/09/16time	14:17:35forward acquisition time	60.00reverse acquisition time	0.00gamma	496.2192k internal	0.2286k external	0.2286temperature offset calibration	0.9933default loss term (dB/km)	0.3790temperature slope calibration	1.0000multiplexer offset coefficient	1.0000multiplexer slope coefficient	1.0000fibre end	0.00T internal ref (°C)	42.19T ext. ref 1 (°C)	14.15T ext. ref 2 (°C)	36.97length (m)	temperature (°C)	Stokes	anti-Stokes-747.200	54.986	0.143	-0.142
-746.185	-200.000	0.053	0.615
-745.171	-88.977	-0.131	-0.040
-744.156	800.000	-0.052	0.162
-743.142	0.319	0.280	0.205
-742.127	-200.000	0.046	-0.261
-741.112	109.941	0.043	-0.053
-740.098	-47.351	-0.092	0.046
-739.083	190.947	-0.109	0.169
-738.069	153.799	0.085	0.120
-737.054	800.000	0.059	0.222
-736.039	290.343	0.089	-0.165
-735.025	416.781	0.015	0.033
-734.010	371.234	0.094	-0.195
-732.996	-200.000	-0.013	-0.095
-731.981	1.277	0.188	-0.138
-730.966	-87.429	0.153	0.047
-729.952	-200.000	0.004	0.099
-728.937	-165.671	-0.229	-0.010
-727.923	-86.947	0.106	0.033
-726.908	-200.000	-0.006	-0.203
-725.894	-123.920	0.286	0.046
-724.879	164.792	0.156	0.226
-723.864	-129.406	-0.089	-0.013
-722.850	-92.374	-0.368	-0.106
-721.835	411.808	-0.102	-0.223
-720.821	-106.854	-0.189	0.043
-719.806	290.811	-0.063	0.118
-718.791	680.509	-0.055	0.147
-717.777	-109.982	0.138	-0.030
-716.762	-23.370	-0.099	-0.061
-715.748	-84.025	-0.067	0.022
-714.733	-200.000	0.002	-0.035
-713.718	58.087	-0.167	0.167
-712.704	-52.702	-0.294	-0.139
-711.689	-44.353	0.408	-0.210
-710.675	125.257	0.113	-0.146
-709.660	-28.124	0.069	0.041
-708.645	-8.131	-0.123	0.085
-707.631	-98.988	0.359	-0.093
-706.616	800.000	-0.140	-0.453
-705.602	-89.846	0.280	0.084
-704.587	33.760	0.275	-0.245
-703.572	-200.000	0.001	0.222
-702.558	149.868	0.184	-0.255
-701.543	76.241	-0.257	-0.279
-700.529	250.852	-0.081	-0.141
-699.514	-31.753	-0.131	-0.075
-698.499	800.000	-0.067	0.279
-697.485	-20.287	-0.159	-0.100
-696.470	-44.627	-0.066	-0.034
-695.456	184.121	0.080	-0.122
-694.441	-200.000	-0.013	-0.211
-693.426	-89.298	-0.241	0.073
-692.412	-93.446	0.163	0.046
-691.397	800.000	-0.015	0.061
-690.383	-126.874	0.492	0.074
-689.368	399.791	-0.082	-0.177
-688.354	9.776	-0.191	-0.149
-687.339	-66.228	-0.084	-0.034
-686.324	-97.936	0.183	0.048
-685.310	573.164	0.083	-0.206
-684.295	-50.974	-0.186	0.089
-683.281	139.512	-0.194	0.261
-682.266	-8.484	0.115	0.079
-681.251	-16.301	-0.168	0.109
-680.237	-200.000	0.015	0.088
-679.222	-23.399	0.248	-0.152
-678.208	753.313	-0.119	0.330
-677.193	-200.000	0.031	-0.183
-676.178	-101.602	-0.220	-0.055
-675.164	-200.000	0.030	0.157
-674.149	-10.287	0.183	-0.125
-673.135	800.000	-0.054	0.170
-672.120	-141.704	-0.072	-0.007
-671.105	-200.000	0.021	0.123
-670.091	503.031	0.128	0.303
-669.076	512.353	0.096	-0.229
-668.062	800.000	-0.025	-0.078
-667.047	-22.646	-0.098	-0.061
-666.032	219.552	0.046	-0.076
-665.018	800.000	0.039	-0.140
-664.003	191.817	0.156	-0.240
-662.989	222.212	0.136	0.224
-661.974	15.280	-0.188	-0.150
-660.959	-78.128	-0.162	0.057
-659.945	-200.000	-0.014	-0.064
-658.930	-15.723	0.346	0.226
-657.916	-8.662	-0.180	-0.123
-656.901	-95.674	-0.161	0.044
-655.886	800.000	0.051	-0.197
-654.872	-198.911	-0.143	-0.001
-653.857	-73.464	0.327	0.122
-652.843	107.746	-0.024	0.029
-651.828	321.639	0.086	0.168
-650.814	-88.659	0.262	0.080
-649.799	279.726	-0.075	-0.137
-648.784	8.774	-0.298	0.230
-647.770	-118.738	-0.235	0.042
-646.755	-200.000	0.014	-0.092
-645.741	154.636	-0.240	-0.336
-644.726	-124.255	0.239	-0.038
-643.711	-200.000	0.052	-0.317
-642.697	-200.000	0.052	-0.286
-641.682	-72.988	0.364	-0.137
-640.668	14.284	-0.265	0.211
-639.653	-151.477	-0.059	0.004
-638.638	107.629	-0.122	0.148
-637.624	-88.501	-0.117	-0.036
-636.609	16.499	0.016	0.013
-635.595	800.000	-0.081	0.340
-634.580	15.694	-0.156	-0.126
-633.565	134.000	-0.029	0.038
-632.551	-200.000	0.023	-0.336
-631.536	-200.000	-0.006	0.243
-630.522	625.999	-0.138	-0.355
-629.507	-123.610	-0.315	0.051
-628.492	62.942	0.089	0.091
-627.478	203.257	-0.093	0.147
-626.463	280.210	0.173	0.316
-625.449	-200.000	0.002	-0.282
-624.434	274.701	0.130	-0.236
-623.419	-79.239	0.383	0.133
-622.405	-200.000	0.009	-0.054
-621.390	5.296	-0.209	0.157
-620.376	201.655	-0.070	0.110
-619.361	360.740	-0.009	-0.019
-618.346	466.818	-0.091	0.209
-617.332	-138.627	-0.066	-0.007
-616.317	33.498	0.186	-0.165
-615.303	219.881	0.081	-0.133
-614.288	-93.692	0.270	0.076
-613.273	12.747	-0.034	0.027
-612.259	-14.683	0.124	-0.081
-611.244	486.455	0.031	-0.073
-610.230	67.736	0.166	0.173
-609.215	204.138	-0.011	0.017
-608.201	-75.736	0.035	-0.013
-607.186	-89.442	-0.382	0.115
-606.171	-159.937	0.062	-0.003
-605.157	35.896	-0.245	0.220
-604.142	800.000	0.029	0.120
-603.128	800.000	0.055	0.213
-602.113	-200.000	-0.045	-0.280
-601.098	473.296	0.065	-0.149
-600.084	418.772	0.117	-0.256
-599.069	-200.000	0.022	-0.274
-598.055	-0.530	-0.266	-0.193
-597.040	388.567	0.070	0.148
-596.025	-193.785	-0.162	-0.001
-595.011	-49.359	-0.041	0.020
-593.996	-200.000	0.027	-0.199
-592.982	22.422	0.083	0.069
-591.967	38.838	-0.259	0.236
-590.952	578.470	-0.092	0.230
-589.938	-200.000	0.021	0.334
-588.923	-200.000	0.010	0.193
-587.909	-42.697	0.102	0.053
-586.894	-27.574	0.122	-0.072
-585.879	20.033	0.325	-0.267
-584.865	-56.986	-0.219	-0.098
-583.850	212.659	0.039	-0.062
-582.836	800.000	0.021	0.089
-581.821	61.277	-0.140	0.142
-580.806	-82.320	-0.186	0.062
-579.792	-0.417	0.105	-0.076
-578.777	382.711	-0.139	0.291
-577.763	-90.645	0.204	-0.060
-576.748	219.971	0.271	0.442
-575.733	-129.620	0.310	-0.044
-574.719	-109.417	0.305	0.066
-573.704	572.858	0.043	0.108
-572.690	-200.000	-0.004	-0.029
-571.675	-200.000	-0.064	-0.293
-570.661	-100.153	-0.065	0.016
-569.646	72.389	-0.170	0.181
-568.631	-21.827	-0.180	0.112
-567.617	-139.789	0.140	-0.015
-566.602	782.823	0.020	-0.055
-565.588	-200.000	0.017	0.127
-564.573	-30.679	-0.382	-0.220
-563.558	-200.000	0.026	0.161
-562.544	-178.798	-0.362	-0.008
-561.529	-200.000	-0.039	-0.268
-560.515	143.564	-0.090	0.122
-559.500	12.044	0.138	0.108
-558.485	795.350	-0.043	-0.120
-557.471	-106.959	-0.254	0.057
-556.456	-200.000	-0.004	-0.470
-555.442	242.455	-0.063	0.107
-554.427	-200.000	0.007	-0.054
-553.412	-83.701	-0.235	-0.076
-552.398	-84.217	-0.132	-0.042
-551.383	23.949	-0.114	0.096
-550.369	-176.596	0.344	-0.009
-549.354	-200.000	-0.008	-0.157
-548.339	-46.247	0.326	-0.164
-547.325	-15.971	0.141	0.092
-546.310	165.487	-0.267	0.385
-545.296	-49.115	-0.184	-0.090
-544.281	-200.000	0.031	-0.341
-543.266	246.503	0.096	-0.165
-542.252	-66.852	0.163	-0.066
-541.237	-200.000	0.032	0.189
-540.223	800.000	0.030	0.106
-539.208	-200.000	0.032	-0.202
-538.193	170.483	-0.051	-0.075
-537.179	-11.103	-0.362	0.243
-536.164	-152.811	-0.284	0.020
-535.150	-147.957	-0.097	-0.008
-534.135	-63.196	-0.179	0.075
-533.121	-0.131	-0.193	0.140
-532.106	-61.416	-0.220	0.094
-531.091	-33.341	0.118	0.066
-530.077	-128.658	-0.297	0.043
-529.062	-11.756	0.063	0.042
-528.048	-44.846	0.306	-0.155
-527.033	-200.000	0.001	0.133
-526.018	-17.914	0.088	0.056
-525.004	800.000	0.082	0.289
-523.989	-89.646	-0.230	-0.069
-522.975	-83.921	-0.229	0.074
-521.960	800.000	0.039	-0.150
-520.945	44.577	-0.088	0.082
-519.931	-165.861	0.283	0.012
-518.916	40.112	0.252	0.230
-517.902	-200.000	-0.001	-0.062
-516.887	94.810	0.231	-0.268
-515.872	-200.000	-0.017	-0.279
-514.858	-104.631	0.045	0.010
-513.843	-84.086	-0.109	-0.035
-512.829	355.788	-0.039	-0.079
-511.814	-200.000	0.030	-0.262
-510.799	-74.140	-0.047	0.017
-509.785	-80.236	0.192	-0.065
-508.770	800.000	0.067	-0.210
-507.756	-118.287	-0.214	-0.039
-506.741	-67.324	0.450	-0.180
-505.726	81.735	0.108	-0.119
-504.712	-136.727	0.065	0.008
-503.697	631.787	-0.041	0.105
-502.683	60.766	-0.196	-0.197
-501.668	-77.637	-0.090	0.032
-500.653	174.485	-0.042	-0.062
-499.639	-200.000	0.005	0.174
-498.624	157.143	-0.053	-0.074
-497.610	-200.000	-0.022	0.151
-496.595	-134.960	0.184	-0.023
-495.581	101.912	-0.068	-0.081
-494.566	-15.618	0.076	0.050
-493.551	-123.871	0.292	0.047
-492.537	-200.000	-0.010	0.135
-491.522	498.184	0.055	-0.129
-490.508	-75.964	-0.290	0.104
-489.493	800.000	0.033	-0.131
-488.478	-127.269	-0.296	-0.044
-487.464	-6.058	-0.160	0.111
-486.449	150.041	0.083	-0.114
-485.435	171.085	-0.100	-0.146
-484.420	161.630	-0.210	0.299
-483.405	-200.000	0.046	0.327
-482.391	-195.350	0.126	-0.001
-481.376	137.215	0.081	0.107
-480.362	52.745	-0.053	0.051
-479.347	-21.943	-0.095	-0.059
-478.332	-200.000	-0.020	0.340
-477.318	-133.792	-0.060	0.008
-476.303	485.844	-0.105	-0.244
-475.289	-200.000	-0.017	0.131
-474.274	800.000	-0.101	0.293
-473.259	-92.048	0.114	-0.033
-472.245	-200.000	0.031	0.222
-471.230	181.780	-0.127	0.190
-470.216	-66.540	0.245	-0.099
-469.201	-200.000	-0.008	0.078
-468.186	40.768	0.083	0.076
-467.172	-200.000	0.030	-0.147
-466.157	-22.729	-0.251	0.154
-465.143	388.372	0.161	-0.338
-464.128	800.000	0.078	-0.339
-463.113	-0.307	0.126	-0.091
-462.099	5.552	0.075	0.056
-461.084	191.337	-0.121	0.185
-460.070	45.157	-0.139	0.130
-459.055	-71.788	0.153	-0.058
-458.040	800.000	-0.080	-0.278
-457.026	371.585	0.056	-0.115
-456.011	56.128	0.086	-0.085
-454.997	12.255	-0.096	-0.075
-453.982	-128.909	0.208	-0.030
-452.968	-172.470	0.243	-0.008
-451.953	-25.343	0.459	-0.276
-450.938	92.748	-0.137	-0.157
-449.924	-118.207	-0.131	-0.024
-448.909	668.110	0.062	0.162
-447.895	-80.568	0.073	0.025
-446.880	-95.458	0.124	-0.034
-445.865	-200.000	0.032	-0.392
-444.851	47.615	0.122	-0.116
-443.836	800.000	0.027	-0.082
-442.822	360.806	-0.091	0.185
-441.807	-200.000	0.005	-0.305
-440.792	-26.575	0.297	0.176
-439.778	-56.954	0.249	0.111
-438.763	254.852	-0.185	-0.322
-437.749	333.390	-0.020	0.040
-436.734	-108.007	0.128	-0.028
-435.719	-100.937	-0.100	0.025
-434.705	69.545	-0.179	0.187
-433.690	-19.117	-0.204	-0.129
-432.676	-200.000	-0.014	0.092
-431.661	239.794	-0.080	0.134
-430.646	-37.570	-0.310	-0.168
-429.632	103.217	-0.122	0.145
-428.617	-66.376	-0.038	0.015
-427.603	-105.725	-0.310	-0.071
-426.588	642.870	0.019	-0.050
-425.573	291.001	-0.044	0.081
-424.559	-200.000	0.014	-0.231
-423.544	-153.033	0.196	0.014
-422.530	-200.000	0.024	0.262
-421.515	46.238	0.244	0.229
-420.500	-22.428	-0.284	0.174
-419.486	-107.670	-0.371	0.082
-418.471	799.506	0.009	0.026
-417.457	656.458	-0.056	0.146
-416.442	800.000	0.069	0.198
-415.428	-127.489	0.364	0.054
-414.413	-200.000	-0.003	0.177
-413.398	-56.734	-0.211	0.095
-412.384	417.783	-0.172	0.373
-411.369	800.000	0.066	-0.199
-410.355	7.900	0.283	-0.215
-409.340	20.586	-0.326	-0.267
-408.325	800.000	0.031	0.104
-407.311	-7.648	0.331	0.227
-406.296	-97.702	0.233	-0.061
-405.282	452.698	0.125	0.280
-404.267	152.182	-0.075	0.103
-403.252	148.811	0.084	0.115
-402.238	-89.965	0.050	0.015
-401.223	-63.539	-0.120	0.050
-400.209	-34.109	-0.071	-0.040
-399.194	-0.148	-0.262	0.189
-398.179	-73.936	-0.203	0.074
-397.165	-28.277	0.279	0.163
-396.150	261.796	0.135	-0.237
-395.136	-47.804	-0.048	-0.024
-394.121	-200.000	-0.010	0.316
-393.106	-74.724	-0.287	-0.105
-392.092	412.983	0.045	-0.098
-391.077	-200.000	0.027	0.174
-390.063	-200.000	-0.060	-0.403
-389.048	146.686	-0.064	0.088
-388.033	130.817	0.126	-0.164
-387.019	-16.293	-0.103	-0.066
-386.004	299.560	-0.234	-0.436
-384.990	-56.544	0.147	0.066
-383.975	45.893	-0.072	-0.068
-382.960	-22.974	0.289	-0.177
-381.946	-200.000	0.013	-0.128
-380.931	3.244	0.168	-0.124
-379.917	-124.993	-0.302	-0.047
-378.902	-200.000	-0.023	0.327
-377.888	-74.642	0.347	0.126
-376.873	-148.561	-0.346	0.029
-375.858	-200.000	-0.072	-0.322
-374.844	-43.543	0.135	0.069
-373.829	-107.255	0.035	0.008
-372.815	224.924	-0.085	-0.138
-371.800	-1.219	0.206	-0.147
-370.785	184.721	0.201	0.301
-369.771	800.000	-0.078	-0.344
-368.756	145.820	0.094	0.128
-367.742	8.492	-0.197	-0.150
-366.727	695.006	0.035	-0.093
-365.712	-35.987	-0.070	-0.038
-364.698	-112.077	0.306	0.062
-363.683	84.444	-0.086	0.095
-362.669	800.000	0.077	-0.276
-361.654	75.374	-0.132	0.141
-360.639	-92.624	0.149	-0.042
-359.625	-200.000	0.031	0.144
-358.610	-60.476	-0.343	0.147
-357.596	-95.309	-0.147	0.040
-356.581	42.974	0.200	0.184
-355.566	-139.803	-0.155	0.017
-354.552	198.997	-0.053	0.081
-353.537	93.648	0.076	-0.087
-352.523	68.731	0.184	-0.191
-351.508	-200.000	0.062	-0.429
-350.493	-120.763	-0.166	0.028
-349.479	22.688	-0.141	-0.117
-348.464	-158.761	0.134	-0.008
-347.450	-112.136	0.288	-0.058
-346.435	-93.603	-0.271	0.076
-345.420	10.554	-0.282	0.217
-344.406	-117.466	-0.211	0.039
-343.391	-11.780	0.237	0.157
-342.377	800.000	0.015	0.067
-341.362	800.000	0.113	0.440
-340.348	595.111	-0.087	0.216
-339.333	438.490	-0.080	0.175
-338.318	159.234	0.055	0.077
-337.304	-200.000	-0.078	0.399
-336.289	186.426	-0.095	0.143
-335.275	161.957	-0.111	-0.157
-334.260	-200.000	-0.001	0.027
-333.245	-45.390	0.135	0.068
-332.231	124.668	0.183	-0.233
-331.216	79.868	-0.083	0.090
-330.202	46.488	-0.137	-0.129
-329.187	-200.000	0.082	0.387
-328.172	-6.726	-0.227	-0.156
-327.158	295.883	0.050	0.093
-326.143	3.613	0.289	0.213
-325.129	55.847	0.083	0.081
-324.114	800.000	0.036	-0.113
-323.099	115.077	0.140	-0.173
-322.085	17.268	0.215	0.172
-321.070	-84.051	-0.195	-0.062
-320.056	-72.520	-0.210	0.078
-319.041	21.297	0.222	0.182
-318.026	721.764	-0.095	-0.254
-317.012	800.000	-0.047	0.156
-315.997	408.533	0.052	0.111
-314.983	169.809	-0.074	-0.107
-313.968	131.856	-0.084	-0.109
-312.953	3.585	-0.087	-0.064
-311.939	-81.673	-0.087	-0.029
-310.924	-200.000	-0.017	0.164
-309.910	-69.154	0.492	0.191
-308.895	281.496	-0.034	-0.061
-307.880	375.288	-0.167	0.343
-306.866	800.000	0.077	0.227
-305.851	800.000	0.145	0.510
-304.837	800.000	-0.030	-0.132
-303.822	-176.744	0.251	0.006
-302.807	184.021	-0.094	0.141
-301.793	-200.000	0.061	0.305
-300.778	-44.395	0.216	0.109
-299.764	-200.000	0.093	-0.523
-298.749	-130.222	-0.315	-0.043
-297.735	-130.145	0.094	0.013
-296.720	800.000	0.044	0.127
-295.705	-21.267	-0.158	0.097
-294.691	431.175	0.192	0.419
-293.676	23.762	0.190	0.158
-292.662	-95.026	-0.067	0.018
-291.647	207.332	0.130	0.205
-290.632	-28.439	0.171	-0.100
-289.618	800.000	-0.087	-0.253
-288.603	-75.945	-0.160	0.057
-287.589	-163.160	-0.179	0.009
-286.574	405.465	-0.106	-0.225
-285.559	331.098	-0.178	0.345
-284.545	-132.195	0.480	-0.063
-283.530	-150.116	0.122	-0.010
-282.516	-176.486	0.180	-0.005
-281.501	92.711	0.286	-0.325
-280.486	352.716	0.142	-0.284
-279.472	304.643	-0.059	-0.111
-278.457	-66.385	-0.415	-0.166
-277.443	-85.450	-0.139	-0.044
-276.428	267.936	-0.108	0.191
-275.413	800.000	-0.035	0.108
-274.399	-16.747	0.053	0.034
-273.384	-156.846	0.109	-0.007
-272.370	112.846	-0.114	0.139
-271.355	76.890	0.312	-0.333
-270.340	-200.000	-0.001	-0.276
-269.326	136.875	-0.190	-0.250
-268.311	79.168	-0.119	-0.129
-267.297	-200.000	-0.037	0.172
-266.282	800.000	-0.057	0.165
-265.267	-27.375	0.113	-0.066
-264.253	38.345	0.220	-0.197
-263.238	-44.881	-0.123	0.062
-262.224	138.673	-0.191	0.253
-261.209	-47.250	-0.053	0.026
-260.195	29.743	0.068	0.059
-259.180	-200.000	-0.029	-0.215
-258.165	-200.000	-0.001	-0.412
-257.151	1.658	-0.148	-0.107
-256.136	-78.807	0.192	0.066
-255.122	800.000	0.059	0.169
-254.107	800.000	0.079	-0.274
-253.092	63.087	0.254	-0.256
-252.078	-126.820	0.184	0.027
-251.063	170.730	-0.212	-0.305
-250.049	6.924	-0.163	-0.122
-249.034	800.000	-0.039	0.132
-248.019	-200.000	0.041	-0.353
-247.005	-131.024	0.089	0.012
-245.990	-200.000	0.002	0.359
-244.976	-200.000	-0.009	0.243
-243.961	-30.984	0.122	-0.069
-242.946	-76.422	-0.124	0.044
-241.932	196.270	-0.096	-0.147
-240.917	-42.989	0.244	-0.125
-239.903	-200.000	-0.035	0.226
-238.888	-9.726	-0.031	-0.021
-237.873	-99.656	0.186	0.047
-236.859	-56.623	0.007	-0.003
-235.844	800.000	0.057	0.193
-234.830	-200.000	-0.037	0.259
-233.815	800.000	-0.052	0.222
-232.800	-89.184	0.030	0.009
-231.786	712.539	0.032	-0.085
-230.771	-81.557	-0.022	0.007
-229.757	800.000	0.164	-0.495
-228.742	-186.348	-0.302	0.004
-227.727	-39.223	0.274	0.145
-226.713	-101.149	0.207	0.051
-225.698	800.000	-0.072	-0.204
-224.684	99.462	0.131	0.153
-223.669	-30.883	0.242	-0.138
-222.655	177.430	-0.196	-0.286
-221.640	249.365	0.054	-0.093
-220.625	-47.322	-0.315	0.154
-219.611	87.074	-0.069	-0.077
-218.596	-60.521	-0.247	-0.105
-217.582	64.348	0.050	0.051
-216.567	702.216	-0.122	0.323
-215.552	108.362	0.091	-0.109
-214.538	-200.000	0.004	-0.096
-213.523	-87.385	0.369	-0.112
-212.509	-200.000	0.029	-0.257
-211.494	-200.000	0.003	-0.198
-210.479	10.288	0.192	-0.147
-209.465	800.000	-0.051	0.153
-208.450	-119.596	-0.349	-0.061
-207.436	218.710	-0.107	0.172
-206.421	-200.000	0.032	-0.183
-205.406	-92.149	0.239	0.068
-204.392	-171.042	0.185	0.006
-203.377	155.431	-0.137	0.190
-202.363	-183.032	-0.070	-0.001
-201.348	19.401	-0.368	-0.297
-200.333	800.000	-0.043	-0.154
-199.319	-71.999	-0.383	0.143
-198.304	-139.202	0.252	0.027
-197.290	-36.967	0.393	-0.212
-196.275	-200.000	0.029	0.162
-195.260	132.192	0.143	0.185
-194.246	800.000	0.071	0.208
-193.231	37.482	-0.334	-0.298
-192.217	78.491	-0.317	-0.340
-191.202	-89.970	0.445	-0.130
-190.187	800.000	0.182	-0.558
-189.173	800.000	-0.042	0.126
-188.158	-200.000	0.008	0.081
-187.144	424.244	-0.119	-0.258
-186.129	711.489	0.053	0.142
-185.114	99.852	0.343	-0.399
-184.100	182.346	0.175	-0.259
-183.085	94.135	0.195	0.222
-182.071	187.045	0.110	-0.164
-181.056	17.129	-0.268	0.214
-180.042	-200.000	0.001	-0.143
-179.027	-200.000	0.008	0.191
-178.012	200.606	-0.058	-0.090
-176.998	318.813	0.090	-0.171
-175.983	-51.211	-0.375	-0.176
-174.969	7.282	-0.217	-0.162
-173.954	179.727	-0.099	0.145
-172.939	350.755	-0.081	-0.161
-171.925	210.828	0.098	0.154
-170.910	59.985	0.410	0.407
-169.896	-30.747	-0.055	0.031
-168.881	-84.504	-0.292	0.093
-167.866	207.740	0.020	-0.031
-166.852	107.060	0.259	0.309
-165.837	107.595	0.097	-0.116
-164.823	357.538	0.050	-0.100
-163.808	114.698	0.032	-0.039
-162.793	90.688	-0.195	-0.219
-161.779	800.000	-0.054	-0.224
-160.764	-34.275	0.177	0.097
-159.750	73.791	-0.194	-0.204
-158.735	99.628	0.297	0.344
-157.720	0.796	-0.173	0.124
-156.706	634.383	-0.121	0.307
-155.691	-40.588	-0.129	0.067
-154.677	80.410	0.166	0.179
-153.662	79.545	0.075	0.081
-152.647	-86.241	0.213	0.066
-151.633	-111.415	-0.198	0.040
-150.618	379.900	0.248	0.510
-149.604	-28.588	0.045	0.026
-148.589	23.771	0.166	-0.137
-147.574	444.724	0.071	0.155
-146.560	-59.288	0.256	-0.111
-145.545	-200.000	-0.025	-0.157
-144.531	369.445	-0.088	0.179
-143.516	-80.079	0.120	0.040
-142.502	599.848	0.090	0.223
-141.487	800.000	-0.025	0.089
-140.472	-134.738	-0.048	0.006
-139.458	21.300	0.223	-0.182
-138.443	-45.896	-0.022	-0.011
-137.429	-200.000	-0.073	-0.455
-136.414	-101.747	0.329	0.080
-135.399	439.679	-0.195	-0.427
-134.385	-123.553	0.172	0.027
-133.370	-25.698	0.119	-0.071
-132.356	800.000	-0.006	-0.022
-131.341	357.565	0.235	-0.469
-130.326	172.627	-0.163	-0.236
-129.312	-200.000	-0.032	0.174
-128.297	100.661	0.186	0.216
-127.283	-93.830	0.233	0.064
-126.268	-97.841	0.244	-0.063
-125.253	287.435	-0.101	0.184
-124.239	-15.713	0.060	0.038
-123.224	12.449	0.110	0.085
-122.210	-200.000	0.010	-0.249
-121.195	-57.149	-0.233	-0.103
-120.180	-200.000	0.029	0.207
