DTS Sentinel unit serial number:	SN413079Multiplexer serial number:	ORYXHardware model number:	OX4-SRSoftware version number:	ORYX F/W v4.00 Oryx Data Collector v3.7.2.0data status	okinstallation	princeton_trtdifferential loss correction	single-endedforward channel	channel 4reverse channel	N/Adate	2019/09/17time	20:53:34forward acquisition time	60.00reverse acquisition time	0.00gamma	496.2192k internal	0.2322k external	0.2322temperature offset calibration	0.9990default loss term (dB/km)	0.3790temperature slope calibration	1.0000multiplexer offset coefficient	1.0000multiplexer slope coefficient	1.0000fibre end	0.00T internal ref (°C)	29.03T ext. ref 1 (°C)	0.20T ext. ref 2 (°C)	20.47length (m)	temperature (°C)	Stokes	anti-Stokes-747.200	83.861	0.136	0.150
-746.185	75.273	-0.101	0.108
-745.171	326.235	0.107	0.206
-744.156	286.248	0.153	0.279
-743.142	536.254	-0.061	-0.146
-742.127	172.093	-0.158	0.230
-741.112	627.256	-0.086	-0.220
-740.098	53.188	-0.183	0.177
-739.083	800.000	0.038	0.111
-738.069	-59.388	0.217	-0.094
-737.054	-129.455	-0.363	-0.051
-736.039	-200.000	-0.061	-0.430
-735.025	-200.000	0.001	0.029
-734.010	-40.533	0.078	0.041
-732.996	-200.000	-0.020	-0.300
-731.981	-69.069	-0.381	0.148
-730.966	800.000	-0.056	0.223
-729.952	268.169	-0.071	0.125
-728.937	-146.721	-0.044	-0.004
-727.923	800.000	0.053	0.207
-726.908	-34.714	0.013	0.007
-725.894	-83.305	0.450	-0.146
-724.879	-35.027	-0.070	0.039
-723.864	-63.023	0.104	0.043
-722.850	-85.693	-0.080	-0.025
-721.835	452.504	-0.136	-0.304
-720.821	-102.700	0.208	0.050
-719.806	800.000	-0.036	-0.121
-718.791	-55.954	-0.173	0.078
-717.777	-200.000	-0.004	0.196
-716.762	-148.706	0.143	0.012
-715.748	192.453	0.254	-0.386
-714.733	85.568	0.095	0.105
-713.718	69.254	-0.218	-0.227
-712.704	800.000	0.024	-0.071
-711.689	442.000	-0.033	0.072
-710.675	-126.892	0.252	0.038
-709.660	-92.272	-0.145	-0.041
-708.645	173.282	0.129	0.187
-707.631	-189.917	0.344	0.004
-706.616	-17.092	-0.430	0.274
-705.602	-200.000	-0.051	-0.252
-704.587	260.383	-0.068	0.119
-703.572	-117.507	0.212	-0.039
-702.558	-200.000	-0.008	0.216
-701.543	800.000	-0.027	-0.096
-700.529	-194.345	0.273	-0.002
-699.514	-200.000	0.002	-0.178
-698.499	320.220	0.162	-0.310
-697.485	-200.000	0.019	0.193
-696.470	-200.000	-0.012	0.061
-695.456	225.035	-0.142	0.231
-694.441	132.348	0.093	-0.121
-693.426	94.364	-0.092	-0.105
-692.412	-4.596	-0.174	-0.121
-691.397	-106.542	-0.089	0.020
-690.383	-88.959	-0.325	0.097
-689.368	-115.384	0.442	-0.084
-688.354	513.901	0.145	-0.340
-687.339	-46.054	0.124	0.062
-686.324	322.885	-0.123	-0.237
-685.310	800.000	0.040	-0.123
-684.295	-160.244	0.163	-0.009
-683.281	-200.000	0.018	-0.267
-682.266	681.502	-0.081	-0.213
-681.251	14.092	-0.305	0.239
-680.237	-200.000	0.022	0.384
-679.222	365.382	-0.164	0.334
-678.208	44.010	-0.090	0.083
-677.193	-59.215	0.284	0.123
-676.178	472.649	-0.105	0.239
-675.164	-200.000	-0.002	0.018
-674.149	-102.258	0.257	0.062
-673.135	133.323	0.123	-0.161
-672.120	-25.689	-0.100	-0.059
-671.105	58.242	0.352	-0.348
-670.091	-34.313	-0.189	0.105
-669.076	-200.000	-0.004	0.130
-668.062	800.000	0.009	-0.026
-667.047	-9.478	-0.248	-0.167
-666.032	115.034	-0.050	-0.061
-665.018	800.000	0.085	-0.244
-664.003	24.620	-0.323	-0.269
-662.989	-147.637	-0.083	-0.007
-661.974	-103.887	0.240	0.056
-660.959	126.199	0.075	-0.095
-659.945	-45.304	-0.540	-0.270
-658.930	70.910	0.170	-0.177
-657.916	-126.450	-0.197	0.030
-656.901	-97.755	-0.441	-0.115
-655.886	800.000	0.016	-0.067
-654.872	158.309	0.253	0.354
-653.857	800.000	-0.117	0.422
-652.843	-200.000	-0.019	-0.183
-651.828	46.188	-0.115	-0.107
-650.814	-66.339	-0.035	-0.014
-649.799	88.412	0.049	-0.055
-648.784	-200.000	-0.037	-0.248
-647.770	-105.538	0.200	0.046
-646.755	-200.000	-0.075	0.380
-645.741	201.632	0.041	0.064
-644.726	-200.000	-0.010	0.064
-643.711	-61.445	-0.466	0.197
-642.697	272.970	0.090	-0.160
-641.682	-200.000	-0.007	-0.082
-640.668	4.303	0.221	0.163
-639.653	115.029	0.167	0.205
-638.638	-87.596	-0.188	0.057
-637.624	238.559	-0.051	-0.086
-636.609	-200.000	0.020	0.157
-635.595	-74.945	0.213	0.077
-634.580	64.615	-0.268	-0.272
-633.565	73.747	0.200	-0.211
-632.551	-130.015	-0.275	0.038
-631.536	-48.295	-0.190	-0.092
-630.522	32.864	-0.106	0.092
-629.507	375.488	0.102	-0.209
-628.492	301.456	0.045	0.084
-627.478	-200.000	0.038	-0.227
-626.463	-174.276	-0.334	-0.010
-625.449	88.318	0.147	0.164
-624.434	577.976	-0.116	-0.284
-623.419	-200.000	-0.011	-0.291
-622.405	-96.819	0.261	0.069
-621.390	33.916	0.231	0.203
-620.376	-75.807	0.189	0.067
-619.361	96.886	-0.155	0.179
-618.346	800.000	0.093	-0.265
-617.332	-24.011	-0.162	-0.097
-616.317	-200.000	-0.061	-0.406
-615.303	139.345	-0.030	0.039
-614.288	1.216	0.275	-0.199
-613.273	-182.372	-0.112	0.002
-612.259	62.502	-0.281	0.282
-611.244	119.425	-0.119	-0.149
-610.230	800.000	-0.040	-0.152
-609.215	-108.463	0.414	0.090
-608.201	800.000	-0.063	-0.234
-607.186	-165.442	0.192	0.008
-606.171	90.821	0.385	0.434
-605.157	13.476	-0.099	0.077
-604.142	-200.000	0.036	-0.168
-603.128	3.894	0.065	0.048
-602.113	-200.000	-0.005	-0.389
-601.098	87.748	-0.139	-0.154
-600.084	147.914	0.243	-0.329
-599.069	-54.376	-0.244	0.111
-598.055	-200.000	-0.048	-0.272
-597.040	310.315	0.175	-0.329
-596.025	-200.000	-0.037	0.415
-595.011	235.677	0.071	-0.118
-593.996	-74.795	0.069	0.025
-592.982	510.397	-0.103	0.240
-591.967	800.000	-0.065	0.275
-590.952	-200.000	0.025	-0.145
-589.938	-44.248	-0.308	-0.155
-588.923	-85.994	-0.514	-0.160
-587.909	-34.605	0.248	-0.136
-586.894	184.315	-0.018	-0.027
-585.879	-12.959	-0.052	0.034
-584.865	-200.000	-0.002	0.180
-583.850	800.000	0.073	-0.230
-582.836	-123.821	0.114	0.018
-581.821	-103.181	-0.189	-0.045
-580.806	193.407	0.290	-0.441
-579.792	-200.000	-0.005	0.132
-578.777	-117.975	-0.219	-0.039
-577.763	800.000	-0.067	-0.197
-576.748	-200.000	0.035	-0.166
-575.733	159.055	-0.105	0.146
-574.719	-200.000	-0.012	0.086
-573.704	-9.795	0.124	0.083
-572.690	-50.024	-0.483	-0.230
-571.675	-200.000	0.028	0.174
-570.661	66.855	0.229	-0.234
-569.646	-72.123	-0.332	0.124
-568.631	800.000	0.080	0.347
-567.617	800.000	-0.026	-0.103
-566.602	129.612	0.114	0.146
-565.588	149.717	-0.180	0.245
-564.573	551.749	0.132	-0.319
-563.558	-111.455	-0.316	0.065
-562.544	-55.113	0.160	0.072
-561.529	-200.000	-0.018	-0.153
-560.515	-102.578	-0.216	-0.052
-559.500	740.718	0.080	-0.216
-558.485	-200.000	0.041	-0.218
-557.471	800.000	-0.119	-0.365
-556.456	800.000	0.088	0.326
-555.442	800.000	0.019	0.065
-554.427	-59.177	0.169	-0.073
-553.412	-200.000	0.012	0.112
-552.398	-200.000	0.003	0.136
-551.383	274.508	0.090	-0.161
-550.369	161.394	0.187	-0.263
-549.354	-75.813	0.137	-0.049
-548.339	-200.000	-0.011	0.107
-547.325	-200.000	-0.042	-0.338
-546.310	-51.264	-0.400	-0.188
-545.296	800.000	0.104	-0.331
-544.281	170.656	-0.007	0.010
-543.266	-200.000	-0.031	0.156
-542.252	64.678	-0.104	0.105
-541.237	4.083	0.196	0.143
-540.223	-199.509	0.115	0.001
-539.208	0.788	-0.232	-0.167
-538.193	-135.285	-0.143	0.017
-537.179	-101.125	-0.299	-0.073
-536.164	61.514	0.119	0.118
-535.150	239.711	-0.174	-0.290
-534.135	90.235	-0.167	-0.187
-533.121	630.301	0.109	0.277
-532.106	66.047	0.048	0.049
-531.091	800.000	-0.033	0.116
-530.077	-59.886	0.219	-0.094
-529.062	-122.430	-0.417	-0.068
-528.048	-200.000	0.014	-0.311
-527.033	-200.000	0.002	0.084
-526.018	-200.000	-0.025	0.228
-525.004	260.208	0.141	0.244
-523.989	-200.000	0.011	-0.251
-522.975	-72.773	-0.232	0.086
-521.960	120.006	0.140	0.175
-520.945	188.124	-0.210	-0.315
-519.931	800.000	-0.054	-0.195
-518.916	157.724	-0.052	-0.073
-517.902	800.000	-0.050	0.165
-516.887	147.827	0.045	0.061
-515.872	7.191	0.268	-0.201
-514.858	-28.152	-0.127	0.074
-513.843	800.000	0.033	0.110
-512.829	139.513	0.305	0.403
-511.814	140.375	-0.256	-0.338
-510.799	291.474	0.105	-0.191
-509.785	-67.325	0.104	-0.041
-508.770	12.466	-0.197	-0.152
-507.756	760.236	-0.123	-0.333
-506.741	-138.565	0.356	-0.039
-505.726	800.000	-0.015	0.048
-504.712	207.339	-0.039	-0.061
-503.697	78.703	0.119	0.127
-502.683	508.463	-0.155	-0.360
-501.668	53.515	0.302	0.290
-500.653	259.231	-0.161	-0.278
-499.639	-200.000	0.031	0.159
-498.624	10.990	0.065	0.050
-497.610	-125.014	0.209	0.032
-496.595	-41.186	-0.025	-0.013
-495.581	-200.000	-0.021	-0.252
-494.566	280.171	-0.128	-0.230
-493.551	235.169	-0.016	-0.027
-492.537	-105.306	-0.235	0.054
-491.522	46.991	-0.243	0.226
-490.508	-169.857	0.105	0.004
-489.493	-182.481	-0.145	0.003
-488.478	20.773	-0.236	-0.191
-487.464	800.000	-0.079	-0.288
-486.449	166.099	0.041	0.058
-485.435	-135.339	-0.042	0.005
-484.420	713.210	-0.139	0.367
-483.405	504.242	-0.106	-0.245
-482.391	-27.069	0.372	0.217
-481.376	-200.000	-0.044	0.200
-480.362	-91.620	0.161	0.046
-479.347	242.429	0.059	0.099
-478.332	73.800	-0.079	0.083
-477.318	800.000	-0.028	0.116
-476.303	795.489	-0.015	0.042
-475.289	106.458	-0.059	-0.070
-474.274	171.242	0.066	0.095
-473.259	688.202	-0.052	0.135
-472.245	-108.047	0.112	0.024
-471.230	0.001	0.095	-0.067
-470.216	-21.030	-0.266	0.163
-469.201	119.403	-0.132	-0.164
-468.186	-58.832	-0.117	-0.050
-467.172	-157.727	-0.601	-0.036
-466.157	-180.648	0.134	-0.003
-465.143	-165.392	0.057	-0.003
-464.128	-105.466	-0.220	-0.050
-463.113	800.000	0.119	0.421
-462.099	-200.000	0.004	0.053
-461.084	453.327	0.005	-0.012
-460.070	-189.276	-0.170	-0.002
-459.055	-23.486	0.147	0.088
-458.040	-60.852	-0.069	0.029
-457.026	76.145	-0.172	-0.182
-456.011	264.784	0.193	-0.336
-454.997	46.686	0.169	0.157
-453.982	-3.406	0.153	0.106
-452.968	-43.870	0.128	0.064
-451.953	130.579	0.246	0.315
-450.938	-85.200	-0.223	0.070
-449.924	800.000	-0.065	0.242
-448.909	-73.683	0.151	0.055
-447.895	-200.000	-0.024	0.173
-446.880	206.392	-0.198	-0.308
-445.865	412.916	0.142	0.302
-444.851	324.149	-0.091	-0.174
-443.836	341.969	0.032	0.062
-442.822	20.945	-0.323	0.262
-441.807	800.000	0.051	-0.218
-440.792	-200.000	0.041	-0.248
-439.778	-128.870	0.349	0.049
-438.763	17.869	0.126	0.100
-437.749	-119.394	0.069	-0.012
-436.734	173.451	-0.222	0.319
-435.719	359.624	-0.037	0.075
-434.705	165.379	-0.102	-0.144
-433.690	2.711	0.113	0.082
-432.676	54.479	-0.141	-0.135
-431.661	-77.216	-0.340	-0.118
-430.646	182.174	-0.100	0.148
-429.632	-200.000	0.014	-0.139
-428.617	-39.768	0.214	-0.112
-427.603	800.000	0.061	-0.181
-426.588	-200.000	-0.026	0.181
-425.573	-137.906	-0.281	-0.031
-424.559	196.174	-0.039	-0.059
-423.544	800.000	-0.044	0.136
-422.530	-113.987	-0.179	-0.035
-421.515	800.000	0.084	-0.253
-420.500	-140.715	0.170	0.017
-419.486	483.550	-0.045	0.103
-418.471	-6.686	0.181	-0.123
-417.457	253.288	-0.092	0.156
-416.442	66.527	-0.144	-0.146
-415.428	-112.972	0.333	-0.066
-414.413	-200.000	-0.033	0.239
-413.398	-106.787	-0.193	0.043
-412.384	111.014	0.200	-0.241
-411.369	155.814	0.237	-0.325
-410.355	80.450	0.147	-0.158
-409.340	-200.000	0.013	-0.117
-408.325	-186.827	-0.234	0.003
-407.311	766.988	0.178	-0.482
-406.296	-71.716	-0.357	0.133
-405.282	-144.669	-0.238	0.022
-404.267	40.038	-0.084	0.076
-403.252	-200.000	0.006	-0.145
-402.238	157.871	-0.062	0.086
-401.223	-200.000	0.059	0.269
-400.209	-197.032	0.185	0.001
-399.194	-200.000	-0.011	-0.097
-398.179	800.000	-0.065	-0.275
-397.165	-200.000	0.052	0.284
-396.150	-146.550	0.133	-0.012
-395.136	-37.186	0.116	-0.062
-394.121	-73.258	-0.135	-0.049
-393.106	-169.015	0.277	-0.010
-392.092	-144.563	-0.270	-0.025
-391.077	-58.306	0.128	-0.056
-390.063	319.834	-0.107	0.202
-389.048	242.822	-0.157	-0.262
-388.033	116.011	-0.110	0.134
-387.019	-43.638	-0.045	-0.022
-386.004	-48.823	0.056	-0.027
-384.990	645.564	-0.080	0.203
-383.975	158.441	-0.209	0.289
-382.960	-145.202	0.030	0.003
-381.946	-97.651	-0.171	0.044
-380.931	-200.000	-0.021	0.177
-379.917	-18.513	-0.245	-0.152
-378.902	725.100	0.036	-0.096
-377.888	76.908	-0.025	-0.026
-376.873	152.354	0.163	0.222
-375.858	-117.607	-0.286	-0.051
-374.844	364.991	0.211	-0.422
-373.829	800.000	-0.045	0.158
-372.815	-155.431	-0.510	-0.033
-371.800	800.000	0.088	-0.327
-370.785	102.340	-0.176	0.204
-369.771	596.315	-0.068	-0.168
-368.756	-70.309	-0.089	-0.034
-367.742	176.899	0.096	-0.139
-366.727	279.168	-0.067	-0.120
-365.712	62.159	0.035	-0.034
-364.698	180.031	-0.063	-0.092
-363.683	-176.553	-0.474	-0.012
-362.669	13.051	-0.108	0.083
-361.654	-12.729	-0.093	-0.060
-360.639	-200.000	0.002	-0.073
-359.625	-35.341	0.271	0.147
-358.610	10.213	-0.200	0.151
-357.596	-133.046	-0.244	0.031
-356.581	75.551	-0.090	-0.095
-355.566	83.597	-0.247	-0.268
-354.552	-47.513	-0.263	0.127
-353.537	-150.625	0.330	-0.025
-352.523	-36.884	-0.225	-0.120
-351.508	79.381	0.099	0.105
-350.493	-77.071	-0.336	0.116
-349.479	-200.000	-0.005	0.158
-348.464	-53.679	0.290	0.132
-347.450	-88.252	-0.174	0.052
-346.435	134.087	0.192	0.248
-345.420	-101.227	-0.190	0.046
-344.406	36.020	0.138	0.121
-343.391	-102.121	0.033	0.008
-342.377	75.212	0.229	0.240
-341.362	-80.791	-0.186	-0.061
-340.348	626.597	-0.026	0.065
-339.333	-54.238	-0.163	0.074
-338.318	183.938	0.119	0.175
-337.304	800.000	0.114	-0.341
-336.289	-96.931	-0.299	-0.078
-335.275	-55.081	-0.138	-0.062
-334.260	-113.888	-0.271	0.052
-333.245	84.733	0.106	0.115
-332.231	-200.000	0.030	-0.354
-331.216	130.923	0.288	0.367
-330.202	800.000	-0.100	-0.290
-329.187	-37.153	-0.234	-0.124
-328.172	-157.472	0.297	-0.018
-327.158	7.364	0.099	-0.074
-326.143	-200.000	-0.040	-0.316
-325.129	556.213	-0.119	-0.286
-324.114	100.449	0.442	-0.510
-323.099	-14.902	0.056	-0.036
-322.085	-59.335	0.085	-0.036
-321.070	800.000	-0.021	-0.083
-320.056	-200.000	0.010	0.307
-319.041	800.000	-0.030	-0.090
-318.026	65.237	0.167	0.168
-317.012	59.451	0.111	0.109
-315.997	-81.875	-0.396	0.129
-314.983	-39.453	0.198	0.103
-313.968	-119.606	0.073	0.013
-312.953	-146.696	-0.245	0.021
-311.939	-45.196	-0.340	-0.168
-310.924	44.096	0.166	-0.151
-309.910	-118.186	0.378	0.067
-308.895	-53.152	0.307	0.140
-307.880	32.260	-0.373	0.319
-306.866	188.219	-0.129	-0.191
-305.851	307.955	-0.076	0.141
-304.837	44.389	-0.187	0.171
-303.822	-0.775	-0.188	0.132
-302.807	-200.000	-0.030	-0.253
-301.793	22.456	-0.108	0.088
-300.778	-101.966	-0.382	-0.092
-299.764	95.538	0.097	-0.109
-298.749	165.300	-0.175	-0.245
-297.735	328.676	0.034	-0.064
-296.720	-200.000	0.058	0.330
-295.705	-200.000	0.007	-0.250
-294.691	295.814	-0.097	0.176
-293.676	-200.000	-0.036	-0.376
-292.662	94.333	-0.217	-0.244
-291.647	48.604	0.172	0.160
-290.632	63.662	-0.103	0.102
-289.618	-85.492	-0.057	-0.018
-288.603	-200.000	0.008	0.216
-287.589	-200.000	-0.019	-0.161
-286.574	-50.324	-0.245	-0.115
-285.559	-200.000	0.020	-0.288
-284.545	-200.000	-0.010	0.190
-283.530	-130.361	0.203	-0.027
-282.516	273.092	0.122	0.214
-281.501	84.586	0.188	0.205
-280.486	111.590	-0.042	-0.050
-279.472	169.164	0.212	-0.300
-278.457	-49.838	0.230	0.108
-277.443	-21.441	-0.057	0.035
-276.428	134.505	-0.075	-0.096
-275.413	-168.968	0.254	-0.009
-274.399	604.085	-0.066	-0.162
-273.384	-166.084	0.269	-0.011
-272.370	-110.002	0.249	0.052
-271.355	-137.473	0.274	0.031
-270.340	-116.175	0.134	0.025
-269.326	-200.000	0.028	0.213
-268.311	-141.103	0.265	0.027
-267.297	-83.004	-0.134	0.043
-266.282	254.083	0.200	-0.338
-265.267	-27.662	0.144	0.083
-264.253	-200.000	0.028	0.159
-263.238	-67.485	-0.091	-0.036
-262.224	-36.028	0.257	0.138
-261.209	-10.605	0.190	0.125
-260.195	-50.095	-0.055	-0.026
-259.180	-173.377	-0.240	-0.007
-258.165	67.122	0.077	0.078
-257.151	-81.896	-0.198	-0.064
-256.136	800.000	0.083	-0.265
-255.122	708.601	0.043	-0.113
-254.107	100.062	-0.108	0.124
-253.092	248.390	0.275	-0.461
-252.078	-200.000	0.026	0.184
-251.063	48.842	-0.165	0.154
-250.049	-200.000	0.023	0.164
-249.034	-20.887	-0.210	0.127
-248.019	-12.277	-0.063	-0.041
-247.005	-153.343	-0.093	0.006
-245.990	-116.330	0.112	0.020
-244.976	-200.000	0.000	0.301
-243.961	800.000	-0.114	-0.340
-242.946	214.372	-0.196	0.307
-241.932	142.467	0.089	-0.117
-240.917	-200.000	0.019	-0.112
-239.903	31.058	-0.213	-0.181
-238.888	461.522	0.145	0.320
-237.873	-200.000	-0.100	0.560
-236.859	-13.835	-0.039	-0.025
-235.844	32.180	-0.071	-0.060
-234.830	49.979	0.189	0.177
-233.815	-36.776	0.076	-0.040
-232.800	-72.283	0.329	0.121
-231.786	-200.000	-0.014	0.277
-230.771	164.180	-0.085	0.119
-229.757	5.766	0.169	-0.124
-228.742	311.852	-0.069	-0.129
-227.727	251.217	0.146	-0.246
-226.713	-2.433	-0.239	0.166
-225.698	53.562	-0.066	0.063
-224.684	-88.271	0.201	0.060
-223.669	-2.895	0.216	-0.149
-222.655	34.263	-0.196	0.169
-221.640	-77.991	-0.239	0.081
-220.625	162.933	-0.204	0.284
-219.611	97.151	0.046	-0.053
-218.596	597.896	-0.051	0.126
-217.582	226.298	0.224	0.360
-216.567	-200.000	-0.018	0.122
-215.552	-119.142	-0.486	-0.084
-214.538	-87.938	0.241	-0.072
-213.523	-200.000	-0.023	0.108
-212.509	800.000	0.034	0.144
-211.494	800.000	0.088	0.240
-210.479	200.981	0.104	-0.158
-209.465	409.362	-0.027	0.056
-208.450	800.000	0.065	-0.273
-207.436	476.350	0.017	0.038
-206.421	-43.573	0.123	0.061
-205.406	-3.734	0.302	0.208
-204.392	800.000	-0.129	-0.433
-203.377	-61.229	0.313	0.131
-202.363	-200.000	-0.008	-0.112
-201.348	-200.000	0.062	0.395
-200.333	800.000	-0.114	0.352
-199.319	-200.000	-0.134	0.000
-198.304	-200.000	0.076	-0.387
-197.290	-131.484	0.345	-0.045
-196.275	-131.089	0.187	0.025
-195.260	95.074	0.251	0.283
-194.246	98.043	0.277	0.316
-193.231	92.925	0.225	0.251
-192.217	-106.518	0.053	0.012
-191.202	-200.000	-0.010	0.229
-190.187	55.448	-0.128	0.122
-189.173	26.509	-0.142	0.117
-188.158	800.000	-0.073	0.283
-187.144	-28.861	0.068	-0.039
-186.129	800.000	-0.027	0.081
-185.114	596.592	0.083	-0.202
-184.100	-200.000	0.018	0.371
-183.085	800.000	-0.066	0.269
-182.071	-6.705	0.302	0.203
-181.056	35.180	0.223	-0.193
-180.042	48.367	0.257	-0.238
-179.027	253.516	0.125	0.211
-178.012	800.000	0.057	0.198
-176.998	-1.511	0.174	0.121
-175.983	800.000	-0.060	0.198
-174.969	203.102	0.104	-0.159
-173.954	-59.864	0.117	0.050
-172.939	-200.000	0.012	-0.157
-171.925	-157.236	0.229	0.014
-170.910	-65.527	0.108	-0.043
-169.896	-5.701	0.148	0.100
-168.881	269.064	-0.078	0.136
-167.866	-200.000	-0.010	-0.107
-166.852	-166.598	0.473	-0.019
-165.837	-53.756	0.257	0.116
-164.823	-200.000	-0.055	0.288
-163.808	-10.136	-0.228	-0.150
-162.793	-82.421	0.232	0.074
-161.779	-200.000	0.046	-0.356
-160.764	2.541	0.263	0.188
-159.750	-200.000	-0.007	0.056
-158.735	1.814	-0.143	0.102
-157.720	208.718	0.033	0.051
-156.706	-74.997	0.447	-0.158
-155.691	-14.571	0.262	-0.166
-154.677	280.912	-0.134	-0.236
-153.662	-93.921	-0.185	0.050
-152.647	-127.842	0.156	-0.022
-151.633	800.000	0.068	0.206
-150.618	-158.592	-0.083	-0.005
-149.604	-61.581	0.048	-0.020
-148.589	-99.496	-0.351	0.087
-147.574	-136.485	0.280	0.032
-146.560	-4.893	-0.097	0.066
-145.545	247.195	-0.117	0.195
-144.531	-200.000	-0.002	0.141
-143.516	-20.475	0.128	-0.077
-142.502	-56.488	0.102	-0.045
-141.487	73.065	0.091	-0.094
-140.472	-1.297	0.197	0.137
-139.458	-200.000	0.014	0.124
-138.443	-12.580	-0.086	-0.055
-137.429	-144.938	0.321	0.029
-136.414	-200.000	-0.008	0.169
-135.399	-60.561	-0.359	0.151
-134.385	-200.000	-0.039	0.207
-133.370	-104.834	0.322	-0.073
-132.356	-121.714	0.111	-0.018
-131.341	-92.401	-0.170	-0.047
-130.326	-57.005	-0.074	-0.032
-129.312	-9.862	0.367	-0.241
-128.297	51.476	0.089	-0.083
-127.283	-109.103	0.043	-0.009
-126.268	-50.900	-0.132	0.061
-125.253	-8.527	0.262	0.174
-124.239	-200.000	0.028	0.167
-123.224	426.690	0.156	0.332
-122.210	55.809	-0.186	0.178
-121.195	800.000	-0.079	-0.283
