DTS Sentinel unit serial number:	SN413079Multiplexer serial number:	ORYXHardware model number:	OX4-SRSoftware version number:	ORYX F/W v4.00 Oryx Data Collector v3.7.2.0data status	okinstallation	princeton_trtdifferential loss correction	single-endedforward channel	channel 4reverse channel	N/Adate	2019/09/18time	17:57:35forward acquisition time	60.00reverse acquisition time	0.00gamma	496.2192k internal	0.2292k external	0.2292temperature offset calibration	1.0020default loss term (dB/km)	0.3790temperature slope calibration	1.0000multiplexer offset coefficient	1.0000multiplexer slope coefficient	1.0000fibre end	0.00T internal ref (°C)	39.80T ext. ref 1 (°C)	0.93T ext. ref 2 (°C)	30.65length (m)	temperature (°C)	Stokes	anti-Stokes-747.200	-98.822	-0.126	0.033
-746.185	513.452	-0.130	0.310
-745.171	549.772	-0.015	0.037
-744.156	800.000	0.019	-0.057
-743.142	-24.720	-0.184	-0.112
-742.127	710.085	-0.071	0.192
-741.112	-200.000	0.001	0.209
-740.098	316.307	-0.078	-0.151
-739.083	-2.346	-0.086	-0.062
-738.069	-200.000	0.006	-0.072
-737.054	800.000	0.026	0.087
-736.039	-6.487	0.021	-0.015
-735.025	-200.000	0.017	0.200
-734.010	179.988	-0.138	0.207
-732.996	17.641	-0.171	0.139
-731.981	-107.887	-0.171	-0.038
-730.966	75.694	-0.176	0.191
-729.952	800.000	-0.132	0.404
-728.937	28.940	-0.161	0.139
-727.923	-200.000	0.053	-0.319
-726.908	61.458	-0.179	-0.182
-725.894	-94.873	0.071	-0.020
-724.879	-200.000	-0.018	0.110
-723.864	-65.881	-0.222	-0.091
-722.850	-200.000	-0.014	-0.162
-721.835	-24.644	-0.264	0.161
-720.821	-63.264	-0.371	0.156
-719.806	157.597	-0.042	-0.060
-718.791	379.021	-0.119	-0.250
-717.777	-119.318	-0.151	0.027
-716.762	-142.662	0.194	0.019
-715.748	-72.512	-0.178	0.067
-714.733	-25.645	0.327	-0.197
-713.718	503.891	-0.058	0.138
-712.704	-80.909	-0.300	0.102
-711.689	-200.000	0.006	-0.060
-710.675	-71.906	0.287	-0.109
-709.660	-89.663	-0.154	-0.046
-708.645	-52.307	0.177	0.084
-707.631	-200.000	-0.008	0.070
-706.616	45.106	-0.416	0.392
-705.602	303.903	0.166	-0.314
-704.587	665.826	-0.028	-0.074
-703.572	800.000	-0.072	-0.253
-702.558	-200.000	0.018	0.255
-701.543	66.207	-0.104	0.108
-700.529	-200.000	-0.032	0.237
-699.514	-129.480	-0.166	-0.023
-698.499	341.145	0.050	0.099
-697.485	-30.928	0.310	0.179
-696.470	129.481	0.173	-0.226
-695.456	137.647	-0.196	-0.262
-694.441	-200.000	0.007	0.070
-693.426	-22.150	0.146	0.090
-692.412	-149.923	-0.183	0.015
-691.397	34.849	-0.219	-0.196
-690.383	-200.000	-0.025	-0.162
-689.368	-183.156	-0.212	0.004
-688.354	48.733	0.084	0.080
-687.339	800.000	0.077	-0.311
-686.324	-12.471	-0.177	0.118
-685.310	-200.000	-0.054	0.336
-684.295	30.559	-0.080	-0.070
-683.281	-7.619	-0.041	0.028
-682.266	132.925	-0.271	-0.357
-681.251	78.044	-0.196	-0.214
-680.237	800.000	0.059	-0.215
-679.222	-200.000	0.046	-0.223
-678.208	-200.000	0.036	0.258
-677.193	430.047	-0.094	-0.208
-676.178	13.040	-0.327	-0.258
-675.164	115.567	-0.212	0.265
-674.149	800.000	-0.027	0.104
-673.135	-200.000	-0.034	-0.264
-672.120	-96.345	-0.134	-0.036
-671.105	275.278	0.092	-0.167
-670.091	124.771	0.156	-0.200
-669.076	-101.137	-0.127	-0.032
-668.062	800.000	-0.032	0.124
-667.047	-168.658	-0.095	0.004
-666.032	-200.000	0.004	-0.310
-665.018	75.528	-0.066	0.071
-664.003	356.110	0.038	-0.078
-662.989	-200.000	0.015	0.122
-661.974	800.000	-0.116	0.376
-660.959	181.746	-0.065	0.097
-659.945	-70.546	0.385	0.149
-658.930	-145.532	-0.136	0.012
-657.916	-95.471	0.265	-0.072
-656.901	-104.741	-0.229	0.054
-655.886	800.000	-0.057	-0.193
-654.872	-200.000	0.009	-0.396
-653.857	414.877	-0.021	-0.045
-652.843	157.859	-0.060	-0.084
-651.828	-9.423	0.289	-0.197
-650.814	121.329	0.091	0.116
-649.799	-151.363	-0.271	0.021
-648.784	15.651	0.098	-0.079
-647.770	54.760	-0.127	0.125
-646.755	170.016	-0.235	0.343
-645.741	134.473	-0.087	0.116
-644.726	-200.000	0.257	0.000
-643.711	5.627	0.219	0.165
-642.697	100.194	0.072	0.085
-641.682	-25.937	-0.142	-0.085
-640.668	139.447	0.224	0.300
-639.653	195.888	-0.032	-0.050
-638.638	51.116	-0.294	0.284
-637.624	12.112	-0.033	-0.026
-636.609	-27.595	0.316	0.187
-635.595	800.000	-0.074	0.326
-634.580	41.768	-0.185	-0.171
-633.565	-36.575	-0.336	0.184
-632.551	228.179	-0.022	-0.036
-631.536	70.637	-0.208	0.219
-630.522	-100.663	0.192	0.048
-629.507	-69.058	-0.174	0.068
-628.492	800.000	-0.021	-0.087
-627.478	-52.545	-0.074	0.035
-626.463	-41.472	-0.147	-0.077
-625.449	99.251	0.320	-0.377
-624.434	83.914	0.180	0.200
-623.419	-146.201	0.281	0.025
-622.405	12.441	-0.325	-0.255
-621.390	-56.940	0.230	-0.103
-620.376	-57.225	0.322	0.144
-619.361	737.043	0.116	-0.317
-618.346	-200.000	-0.021	0.208
-617.332	24.208	0.171	-0.144
-616.317	57.437	-0.203	-0.202
-615.303	207.128	-0.134	-0.213
-614.288	49.056	0.181	0.173
-613.273	-84.786	0.206	0.066
-612.259	-11.956	0.118	0.079
-611.244	800.000	-0.055	-0.193
-610.230	-102.760	-0.196	-0.047
-609.215	800.000	0.048	-0.187
-608.201	-66.514	-0.124	0.050
-607.186	-128.229	0.219	-0.032
-606.171	226.447	-0.173	0.285
-605.157	-83.909	-0.056	-0.018
-604.142	-48.478	-0.341	-0.167
-603.128	-200.000	-0.008	0.337
-602.113	-3.554	0.043	-0.031
-601.098	800.000	-0.055	-0.201
-600.084	-140.160	-0.383	-0.041
-599.069	321.061	0.095	-0.184
-598.055	-200.000	-0.012	0.231
-597.040	-200.000	-0.007	0.187
-596.025	-91.187	-0.279	-0.081
-595.011	-200.000	-0.021	-0.224
-593.996	31.765	0.035	0.030
-592.982	-21.239	-0.169	-0.105
-591.967	-200.000	-0.006	0.363
-590.952	-200.000	-0.033	-0.231
-589.938	-200.000	0.006	-0.225
-588.923	10.227	-0.192	-0.149
-587.909	52.634	-0.244	-0.237
-586.894	81.165	0.210	-0.231
-585.879	-44.423	-0.274	-0.140
-584.865	256.322	0.068	-0.118
-583.850	-170.645	-0.378	0.013
-582.836	205.487	-0.088	-0.138
-581.821	800.000	0.059	-0.217
-580.806	-39.846	-0.306	-0.163
-579.792	-85.703	-0.260	-0.082
-578.777	531.837	-0.267	-0.642
-577.763	328.516	-0.122	-0.239
-576.748	26.422	-0.170	-0.144
-575.733	-76.899	-0.054	0.019
-574.719	425.845	-0.090	-0.198
-573.704	-116.990	0.382	0.071
-572.690	-84.930	0.206	0.066
-571.675	-20.988	-0.220	0.137
-570.661	-96.488	0.288	-0.077
-569.646	800.000	0.079	0.299
-568.631	-59.082	-0.260	0.114
-567.617	92.202	-0.103	0.117
-566.602	-66.656	-0.266	0.107
-565.588	800.000	-0.112	0.338
-564.573	56.933	0.169	0.167
-563.558	46.514	-0.055	-0.052
-562.544	232.579	-0.256	-0.427
-561.529	800.000	0.068	0.302
-560.515	-200.000	-0.025	0.215
-559.500	305.263	-0.050	-0.094
-558.485	-97.344	0.160	-0.042
-557.471	-136.056	-0.214	-0.026
-556.456	41.927	0.146	-0.135
-555.442	-72.196	-0.347	-0.131
-554.427	-73.242	0.049	-0.018
-553.412	-82.093	0.199	-0.066
-552.398	-114.212	0.341	0.067
-551.383	62.249	0.102	-0.103
-550.369	128.771	0.035	0.045
-549.354	-104.357	-0.175	0.041
-548.339	-0.263	-0.130	0.094
-547.325	-200.000	-0.018	0.261
-546.310	-137.649	0.085	-0.010
-545.296	-131.465	0.506	-0.068
-544.281	-131.234	0.305	-0.041
-543.266	283.245	-0.186	-0.339
-542.252	19.956	-0.106	-0.087
-541.237	68.677	0.202	0.210
-540.223	-53.102	0.160	-0.075
-539.208	-108.465	-0.431	-0.094
-538.193	5.862	-0.198	-0.149
-537.179	176.541	0.094	-0.139
-536.164	259.876	0.079	-0.139
-535.150	-120.094	-0.280	0.049
-534.135	65.399	0.039	0.040
-533.121	578.389	0.069	-0.170
-532.106	800.000	0.061	0.261
-531.091	-200.000	-0.010	0.102
-530.077	-190.716	0.366	0.004
-529.062	109.096	-0.190	-0.231
-528.048	-82.126	-0.297	0.098
-527.033	207.917	-0.100	0.159
-526.018	800.000	0.122	0.410
-525.004	-158.447	0.270	-0.016
-523.989	288.318	0.170	-0.313
-522.975	18.010	0.242	-0.196
-521.960	-200.000	-0.027	-0.273
-520.945	-200.000	-0.000	0.183
-519.931	-167.057	0.188	-0.008
-518.916	-50.794	0.196	0.094
-517.902	175.467	0.155	0.229
-516.887	160.865	0.192	-0.272
-515.872	-58.052	-0.115	0.051
-514.858	-200.000	0.053	0.270
-513.843	47.710	0.193	-0.182
-512.829	176.949	0.075	0.111
-511.814	-200.000	0.007	0.132
-510.799	192.750	-0.087	0.133
-509.785	-28.842	0.154	-0.090
-508.770	26.365	-0.128	-0.108
-507.756	-22.194	-0.142	-0.088
-506.741	404.878	0.030	0.063
-505.726	-200.000	0.016	-0.076
-504.712	287.326	-0.173	0.318
-503.697	-79.319	0.247	0.085
-502.683	-130.657	-0.060	0.008
-501.668	669.054	0.045	0.118
-500.653	800.000	-0.121	0.511
-499.639	287.313	-0.131	-0.240
-498.624	-200.000	0.010	0.095
-497.610	-114.274	-0.067	0.013
-496.595	293.882	0.185	-0.342
-495.581	-200.000	0.051	-0.354
-494.566	-200.000	0.005	0.203
-493.551	-81.058	0.153	0.051
-492.537	-200.000	0.022	0.284
-491.522	108.691	0.143	0.173
-490.508	-55.700	0.151	0.068
-489.493	-108.243	-0.317	-0.069
-488.478	-5.851	0.144	0.100
-487.464	-93.070	-0.489	-0.138
-486.449	490.488	-0.139	-0.321
-485.435	-200.000	0.066	-0.395
-484.420	-22.915	0.154	0.094
-483.405	87.024	0.225	0.252
-482.391	-166.690	0.109	0.005
-481.376	90.033	-0.046	-0.052
-480.362	384.150	0.138	-0.289
-479.347	176.995	0.058	0.085
-478.332	662.257	0.073	-0.191
-477.318	2.594	0.171	0.126
-476.303	77.639	0.184	-0.198
-475.289	-39.765	0.259	0.137
-474.274	-105.332	-0.222	-0.051
-473.259	-184.849	-0.255	0.004
-472.245	108.459	0.207	-0.250
-471.230	374.175	-0.107	0.221
-470.216	-200.000	-0.014	0.258
-469.201	-200.000	0.007	0.246
-468.186	-99.077	-0.334	-0.086
-467.172	172.927	-0.260	-0.380
-466.157	800.000	-0.016	-0.057
-465.143	754.507	0.077	-0.211
-464.128	-200.000	0.022	-0.360
-463.113	105.064	0.150	0.180
-462.099	-200.000	0.005	0.152
-461.084	800.000	0.074	0.260
-460.070	800.000	0.076	0.220
-459.055	-103.829	0.065	-0.015
-458.040	368.329	-0.043	-0.089
-457.026	338.044	-0.118	0.231
-456.011	58.672	0.263	-0.262
-454.997	103.260	-0.184	-0.219
-453.982	167.612	0.049	0.070
-452.968	194.038	0.193	-0.296
-451.953	-18.765	-0.197	-0.124
-450.938	-48.044	-0.152	0.074
-449.924	-28.040	-0.345	-0.202
-448.909	-200.000	0.017	0.394
-447.895	114.786	-0.168	0.207
-446.880	57.268	-0.163	0.161
-445.865	-87.740	-0.351	-0.107
-444.851	-200.000	-0.007	0.128
-443.836	125.922	-0.117	0.149
-442.822	-200.000	-0.002	0.174
-441.807	-113.773	0.324	0.064
-440.792	51.996	-0.068	0.066
-439.778	-200.000	0.018	0.278
-438.763	-73.429	-0.124	0.046
-437.749	800.000	0.014	-0.043
-436.734	-200.000	-0.011	-0.111
-435.719	185.424	0.143	-0.215
-434.705	62.494	-0.098	-0.099
-433.690	98.827	0.135	0.157
-432.676	800.000	0.072	0.218
-431.661	50.760	-0.149	0.142
-430.646	398.852	0.026	-0.054
-429.632	-73.323	0.023	-0.008
-428.617	220.394	-0.070	0.113
-427.603	-85.709	-0.317	0.099
-426.588	75.037	0.137	0.146
-425.573	-127.517	0.238	-0.035
-424.559	57.947	0.160	-0.158
-423.544	-137.996	-0.353	-0.040
-422.530	-164.257	0.272	-0.013
-421.515	-43.806	0.041	0.021
-420.500	324.635	-0.087	0.167
-419.486	800.000	0.010	0.032
-418.471	-200.000	-0.011	0.098
-417.457	800.000	-0.033	-0.122
-416.442	800.000	-0.107	-0.334
-415.428	211.553	-0.289	-0.460
-414.413	314.872	-0.022	0.042
-413.398	154.147	0.208	-0.288
-412.384	180.712	0.213	0.316
-411.369	-178.371	0.152	-0.004
-410.355	432.043	-0.133	0.291
-409.340	-17.183	0.345	-0.220
-408.325	-118.785	0.140	-0.025
-407.311	-200.000	0.007	-0.216
-406.296	583.659	-0.035	0.086
-405.282	800.000	-0.178	-0.502
-404.267	498.313	-0.060	0.139
-403.252	85.199	0.177	0.196
-402.238	-119.021	0.141	0.025
-401.223	-58.858	-0.115	0.050
-400.209	-19.178	-0.050	-0.031
-399.194	-89.883	-0.213	-0.063
-398.179	46.849	-0.074	0.070
-397.165	-68.987	-0.183	0.071
-396.150	-51.848	0.205	-0.096
-395.136	127.553	-0.062	-0.079
-394.121	245.668	-0.056	0.094
-393.106	-51.150	-0.152	0.072
-392.092	-62.809	-0.147	0.061
-391.077	-155.015	-0.202	-0.013
-390.063	-130.588	0.131	-0.018
-389.048	342.533	0.160	-0.316
-388.033	387.250	-0.095	-0.198
-387.019	69.336	0.100	0.104
-386.004	182.513	-0.270	-0.403
-384.990	-200.000	0.008	0.233
-383.975	-14.712	0.210	0.136
-382.960	-190.229	-0.250	0.003
-381.946	-73.449	-0.531	-0.196
-380.931	-142.354	-0.106	-0.011
-379.917	-44.076	0.315	0.160
-378.902	-52.292	0.117	-0.055
-377.888	-21.144	-0.083	-0.051
-376.873	251.056	-0.098	-0.168
-375.858	-200.000	-0.035	-0.266
-374.844	62.898	-0.068	0.069
-373.829	800.000	0.109	0.306
-372.815	445.738	0.122	0.271
-371.800	800.000	-0.036	-0.127
-370.785	148.131	0.092	0.125
-369.771	-37.165	0.127	0.068
-368.756	-140.789	-0.189	0.020
-367.742	-59.393	0.217	-0.094
-366.727	-36.443	-0.289	-0.157
-365.712	800.000	0.095	-0.371
-364.698	403.713	-0.011	0.023
-363.683	-74.877	0.267	0.097
-362.669	800.000	0.146	0.506
-361.654	68.085	0.185	0.191
-360.639	160.389	0.167	-0.234
-359.625	205.853	0.168	-0.264
-358.610	-134.647	-0.067	0.008
-357.596	-200.000	-0.071	0.378
-356.581	42.604	0.175	0.160
-355.566	156.630	0.136	0.189
-354.552	-41.583	-0.082	-0.042
-353.537	-92.493	0.168	0.048
-352.523	546.462	0.035	-0.084
-351.508	100.405	-0.040	0.047
-350.493	63.784	0.123	-0.124
-349.479	-200.000	-0.022	-0.173
-348.464	-0.438	-0.254	0.182
-347.450	403.783	-0.182	0.387
-346.435	-200.000	-0.012	0.367
-345.420	-144.206	0.218	-0.021
-344.406	216.975	0.134	0.215
-343.391	-70.046	0.202	-0.077
-342.377	290.725	0.252	-0.461
-341.362	431.661	0.050	-0.110
-340.348	229.442	-0.087	0.143
-339.333	-89.055	0.187	0.056
-338.318	-12.726	0.356	-0.234
-337.304	97.248	0.088	0.102
-336.289	-200.000	-0.019	0.368
-335.275	800.000	-0.011	0.032
-334.260	211.932	0.096	0.152
-333.245	339.292	-0.031	-0.061
-332.231	-115.577	-0.289	0.055
-331.216	-166.477	-0.270	0.011
-330.202	-200.000	-0.016	-0.189
-329.187	-20.805	-0.189	-0.116
-328.172	-125.004	-0.106	0.016
-327.158	-200.000	0.019	0.298
-326.143	-34.359	-0.186	0.103
-325.129	-89.303	-0.340	-0.101
-324.114	346.616	-0.038	0.076
-323.099	-200.000	0.015	0.285
-322.085	-182.737	-0.169	0.003
-321.070	-69.894	-0.509	-0.195
-320.056	800.000	0.010	-0.032
-319.041	52.350	0.254	0.244
-318.026	119.637	-0.023	-0.029
-317.012	-200.000	0.008	-0.098
-315.997	-119.563	0.092	-0.016
-314.983	-52.138	-0.414	-0.194
-313.968	79.213	-0.039	0.042
-312.953	313.619	0.081	0.153
-311.939	-200.000	-0.005	0.102
-310.924	218.978	0.146	0.234
-309.910	-89.276	0.250	0.074
-308.895	-82.684	0.148	-0.048
-307.880	-68.272	-0.186	-0.073
-306.866	-200.000	0.061	-0.363
-305.851	-200.000	0.005	-0.150
-304.837	64.650	0.143	0.145
-303.822	-200.000	-0.021	-0.156
-302.807	-106.706	0.291	-0.065
-301.793	98.900	0.219	-0.254
-300.778	463.647	-0.091	-0.205
-299.764	439.827	-0.034	-0.075
-298.749	-200.000	0.020	0.138
-297.735	71.351	0.195	-0.203
-296.720	310.737	0.223	-0.421
-295.705	130.577	0.189	0.244
-294.691	28.649	-0.081	0.069
-293.676	-57.354	-0.059	-0.026
-292.662	-200.000	-0.001	-0.177
-291.647	-8.659	0.191	-0.129
-290.632	-102.121	-0.168	0.041
-289.618	-120.008	-0.105	-0.018
-288.603	196.414	-0.075	0.115
-287.589	181.213	-0.185	-0.274
-286.574	154.423	0.091	0.125
-285.559	-124.165	-0.094	0.015
-284.545	287.091	-0.007	0.012
-283.530	-16.244	0.278	-0.177
-282.516	-17.382	-0.339	0.214
-281.501	341.823	-0.176	0.346
-280.486	68.837	-0.087	-0.089
-279.472	800.000	-0.048	-0.138
-278.457	139.452	-0.048	0.063
-277.443	-191.521	0.459	-0.005
-276.428	41.459	-0.231	0.210
-275.413	-86.430	0.216	0.067
-274.399	-59.115	-0.212	-0.092
-273.384	-118.183	-0.262	-0.047
-272.370	541.452	0.121	0.290
-271.355	800.000	-0.034	-0.107
-270.340	160.972	-0.200	0.281
-269.326	800.000	-0.050	-0.202
-268.311	296.620	0.096	0.178
-267.297	-5.450	0.112	0.077
-266.282	-78.070	0.076	-0.026
-265.267	-43.945	-0.119	0.060
-264.253	435.607	-0.180	0.392
-263.238	-40.619	-0.082	0.043
-262.224	57.610	-0.034	-0.034
-261.209	117.493	0.007	-0.008
-260.195	-159.504	-0.097	0.005
-259.180	-200.000	0.034	0.252
-258.165	-27.787	-0.228	0.133
-257.151	-6.054	0.473	-0.325
-256.136	-117.284	0.252	0.046
-255.122	-77.947	-0.210	0.073
-254.107	800.000	0.077	0.242
-253.092	800.000	-0.041	-0.121
-252.078	-200.000	0.076	-0.412
-251.063	-200.000	0.009	-0.176
-250.049	800.000	0.053	-0.203
-249.034	9.724	-0.179	0.136
-248.019	-35.230	-0.165	-0.090
-247.005	-200.000	0.032	-0.189
-245.990	-200.000	-0.013	0.233
-244.976	800.000	-0.096	0.407
-243.961	-177.603	-0.257	-0.006
-242.946	-38.615	0.182	0.096
-241.932	-85.211	-0.264	-0.083
-240.917	115.834	-0.153	-0.188
-239.903	-200.000	-0.005	0.023
-238.888	288.173	0.189	-0.343
-237.873	164.874	-0.092	-0.131
-236.859	397.142	-0.081	0.170
-235.844	-200.000	0.021	-0.201
-234.830	19.646	-0.067	0.054
-233.815	-66.165	0.153	0.061
-232.800	-118.905	-0.046	-0.008
-231.786	-54.640	0.189	-0.086
-230.771	77.693	0.089	0.095
-229.757	-56.831	-0.253	0.112
-228.742	253.663	-0.137	0.235
-227.727	-200.000	-0.006	0.116
-226.713	-200.000	0.041	0.422
-225.698	439.505	0.073	0.160
-224.684	-14.905	-0.151	0.097
-223.669	-5.317	-0.165	0.114
-222.655	-200.000	-0.009	0.294
-221.640	26.869	0.215	-0.181
-220.625	609.383	0.106	0.265
-219.611	-42.578	0.172	0.088
-218.596	-140.191	-0.107	-0.011
-217.582	-200.000	0.034	-0.244
-216.567	683.231	0.046	-0.120
-215.552	-37.692	0.449	0.240
-214.538	-37.397	0.075	0.040
-213.523	-200.000	-0.020	-0.209
-212.509	-13.859	0.156	-0.101
-211.494	-200.000	0.014	0.083
-210.479	-154.146	0.286	0.019
-209.465	-63.402	0.090	-0.037
-208.450	15.744	0.098	-0.078
-207.436	800.000	-0.038	-0.108
-206.421	391.307	-0.034	-0.070
-205.406	-114.696	-0.307	0.059
-204.392	-59.115	0.302	0.131
-203.377	-154.074	0.200	0.014
-202.363	507.067	0.029	-0.068
-201.348	-121.154	-0.231	-0.039
-200.333	-27.708	0.285	-0.166
-199.319	-200.000	-0.013	-0.275
-198.304	98.226	0.210	-0.243
-197.290	-28.234	-0.148	0.085
-196.275	-53.313	0.167	-0.077
-195.260	-54.494	0.127	-0.057
-194.246	800.000	0.039	-0.116
-193.231	-50.745	0.054	-0.026
-192.217	108.201	0.154	-0.184
-191.202	800.000	0.030	-0.091
-190.187	-88.836	-0.141	-0.042
-189.173	-61.503	-0.273	-0.115
-188.158	228.837	0.088	-0.144
-187.144	-92.593	-0.448	-0.126
-186.129	780.347	-0.007	-0.018
-185.114	64.804	0.072	0.073
-184.100	-200.000	-0.016	0.329
-183.085	-133.671	0.242	-0.030
-182.071	-200.000	0.016	0.322
-181.056	144.057	-0.085	-0.114
-180.042	-23.913	0.141	0.084
-179.027	-22.085	-0.087	-0.053
-178.012	253.536	0.151	-0.258
-176.998	-200.000	0.069	0.384
-175.983	260.507	0.083	0.144
-174.969	197.192	0.142	-0.216
-173.954	81.685	0.087	0.095
-172.939	800.000	0.045	0.170
-171.925	455.183	0.043	0.095
-170.910	-200.000	0.006	-0.086
-169.896	-200.000	-0.052	-0.350
-168.881	154.585	0.232	0.320
-167.866	-200.000	0.009	-0.202
-166.852	119.688	-0.106	0.131
-165.837	-200.000	-0.016	-0.144
-164.823	316.592	0.096	0.182
-163.808	-200.000	0.075	-0.366
-162.793	44.088	0.255	-0.234
-161.779	54.504	-0.137	-0.132
-160.764	181.666	-0.173	0.254
-159.750	-118.043	0.363	-0.065
-158.735	-130.306	-0.344	-0.047
-157.720	703.502	-0.103	0.272
-156.706	800.000	-0.093	0.365
-155.691	41.179	0.369	-0.333
-154.677	86.627	0.160	-0.177
-153.662	800.000	-0.059	0.258
-152.647	800.000	-0.035	-0.137
-151.633	9.545	0.026	0.019
-150.618	464.956	-0.077	-0.172
-149.604	0.347	0.313	0.224
-148.589	149.349	-0.077	-0.104
-147.574	26.536	-0.150	0.126
-146.560	126.411	-0.193	-0.244
-145.545	206.598	0.074	-0.115
-144.531	-18.656	-0.132	-0.082
-143.516	21.468	-0.275	0.223
-142.502	-11.467	0.236	0.156
-141.487	166.950	0.088	-0.125
-140.472	124.083	0.170	-0.214
-139.458	-42.671	-0.196	-0.100
-138.443	121.320	0.124	0.155
-137.429	-177.366	0.140	-0.003
-136.414	-109.359	0.180	0.038
-135.399	-200.000	0.015	0.262
-134.385	-176.812	-0.068	0.002
-133.370	400.917	-0.046	-0.097
-132.356	-68.675	-0.098	0.038
-131.341	-200.000	-0.015	-0.131
-130.326	-74.534	0.169	-0.061
-129.312	-66.163	-0.303	-0.121
-128.297	164.183	0.080	0.112
-127.283	-200.000	-0.001	0.227
-126.268	-200.000	0.015	-0.101
-125.253	99.014	-0.108	0.125
-124.239	258.835	-0.211	0.364
-123.224	800.000	0.101	-0.417
-122.210	-200.000	0.009	-0.089
