DTS Sentinel unit serial number:	SN413079Multiplexer serial number:	ORYXHardware model number:	OX4-SRSoftware version number:	ORYX F/W v4.00 Oryx Data Collector v3.7.2.0data status	okinstallation	princeton_trtdifferential loss correction	single-endedforward channel	channel 4reverse channel	N/Adate	2019/09/12time	06:11:11forward acquisition time	60.00reverse acquisition time	0.00gamma	496.2192k internal	0.2308k external	0.2308temperature offset calibration	1.0061default loss term (dB/km)	0.3790temperature slope calibration	1.0000multiplexer offset coefficient	1.0000multiplexer slope coefficient	1.0000fibre end	0.00T internal ref (°C)	32.12T ext. ref 1 (°C)	1.54T ext. ref 2 (°C)	27.34length (m)	temperature (°C)	Stokes	anti-Stokes-747.200	481.557	-0.030	-0.068
-746.185	800.000	0.037	0.149
-745.171	-99.073	0.179	0.046
-744.156	60.376	-0.164	0.165
-743.142	-145.183	0.230	0.021
-742.127	100.004	-0.179	0.211
-741.112	-59.886	0.259	-0.113
-740.098	800.000	-0.067	0.284
-739.083	-200.000	-0.008	0.133
-738.069	-181.462	0.117	-0.002
-737.054	5.009	0.058	-0.043
-736.039	-200.000	-0.102	0.630
-735.025	-76.722	0.220	0.078
-734.010	133.893	0.296	-0.390
-732.996	-200.000	-0.048	-0.408
-731.981	26.062	0.194	0.165
-730.966	35.565	0.137	0.123
-729.952	-200.000	0.031	-0.184
-728.937	85.551	0.153	0.171
-727.923	-52.697	0.295	-0.138
-726.908	106.377	0.122	-0.147
-725.894	168.060	-0.043	-0.062
-724.879	7.767	-0.014	0.010
-723.864	7.575	-0.428	-0.325
-722.850	800.000	-0.080	-0.303
-721.835	105.005	0.171	0.205
-720.821	93.810	0.225	-0.258
-719.806	-23.728	0.135	0.082
-718.791	-200.000	0.025	0.187
-717.777	160.124	-0.246	-0.349
-716.762	-62.407	0.201	-0.085
-715.748	-99.860	-0.359	-0.091
-714.733	791.759	-0.151	-0.421
-713.718	-127.273	0.036	-0.005
-712.704	-200.000	0.037	-0.172
-711.689	65.414	0.053	0.055
-710.675	-107.108	0.116	0.026
-709.660	-70.348	0.139	-0.053
-708.645	23.081	0.124	-0.104
-707.631	-8.369	0.104	-0.071
-706.616	-200.000	-0.013	-0.267
-705.602	124.555	0.077	0.099
-704.587	-151.510	0.311	0.023
-703.572	-99.565	0.214	-0.054
-702.558	-95.591	-0.213	-0.058
-701.543	80.133	0.303	-0.330
-700.529	101.461	0.066	0.078
-699.514	-30.965	-0.249	0.142
-698.499	-172.802	0.337	-0.011
-697.485	-132.465	0.367	0.048
-696.470	-56.065	0.098	-0.044
-695.456	-200.000	-0.002	0.072
-694.441	-76.862	-0.071	0.025
-693.426	800.000	-0.048	0.177
-692.412	-64.590	-0.149	0.062
-691.397	65.136	0.071	-0.073
-690.383	800.000	-0.026	0.095
-689.368	-132.429	-0.091	0.012
-688.354	-85.834	-0.261	-0.082
-687.339	32.565	0.165	0.145
-686.324	-117.507	-0.060	0.011
-685.310	64.595	-0.197	-0.201
-684.295	16.819	0.479	0.385
-683.281	-81.956	-0.356	0.118
-682.266	-200.000	-0.007	-0.152
-681.251	236.888	0.151	0.254
-680.237	-43.394	-0.152	-0.078
-679.222	391.841	-0.073	0.153
-678.208	-200.000	-0.022	-0.229
-677.193	800.000	-0.040	-0.145
-676.178	-5.328	0.090	0.063
-675.164	144.842	-0.206	0.279
-674.149	-78.102	0.256	-0.089
-673.135	-69.211	-0.316	0.123
-672.120	208.609	0.202	0.321
-671.105	-200.000	0.045	-0.277
-670.091	133.225	-0.320	-0.419
-669.076	-95.126	0.109	0.030
-668.062	-200.000	-0.034	0.375
-667.047	-200.000	-0.042	0.463
-666.032	-63.198	0.119	0.050
-665.018	-34.309	-0.392	0.218
-664.003	-44.454	-0.205	-0.104
-662.989	-158.753	0.211	-0.012
-661.974	449.260	0.179	0.399
-660.959	-96.555	0.086	-0.023
-659.945	800.000	0.026	-0.089
-658.930	12.839	-0.230	0.180
-657.916	800.000	-0.153	-0.466
-656.901	-173.281	-0.208	0.006
-655.886	52.570	0.068	0.066
-654.872	-200.000	0.007	-0.405
-653.857	233.244	0.067	-0.112
-652.843	357.728	0.106	0.215
-651.828	-53.242	0.145	-0.068
-650.814	34.657	0.271	-0.240
-649.799	800.000	-0.016	-0.056
-648.784	-127.290	0.137	-0.020
-647.770	-105.899	-0.221	0.050
-646.755	-200.000	-0.015	-0.143
-645.741	-63.845	0.151	0.062
-644.726	303.416	-0.248	0.465
-643.711	-200.000	0.009	0.061
-642.697	800.000	-0.020	-0.075
-641.682	-200.000	0.002	-0.033
-640.668	-111.504	-0.290	-0.060
-639.653	128.952	0.060	-0.078
-638.638	-200.000	0.030	-0.192
-637.624	252.014	0.265	0.457
-636.609	-98.029	0.417	-0.109
-635.595	-7.262	-0.149	0.102
-634.580	-200.000	-0.043	0.331
-633.565	-200.000	0.020	-0.135
-632.551	-13.450	-0.357	0.234
-631.536	170.763	-0.133	0.192
-630.522	15.210	0.053	-0.042
-629.507	53.777	0.137	0.133
-628.492	204.831	-0.059	-0.092
-627.478	-200.000	-0.022	0.286
-626.463	469.972	-0.138	-0.314
-625.449	-108.084	-0.285	-0.063
-624.434	-14.973	0.082	0.053
-623.419	-30.775	-0.200	0.114
-622.405	63.370	-0.109	0.111
-621.390	800.000	-0.020	0.064
-620.376	176.112	-0.033	0.049
-619.361	-38.539	0.233	-0.124
-618.346	637.942	-0.079	-0.203
-617.332	-200.000	0.048	-0.310
-616.317	-101.710	-0.188	0.046
-615.303	-90.830	0.109	0.032
-614.288	-200.000	-0.000	-0.139
-613.273	-101.143	-0.281	-0.070
-612.259	85.625	-0.210	-0.234
-611.244	-91.438	-0.098	-0.028
-610.230	-37.082	-0.180	0.098
-609.215	225.551	-0.298	0.488
-608.201	-200.000	0.005	-0.466
-607.186	-200.000	0.030	-0.252
-606.171	-133.113	-0.082	-0.010
-605.157	-200.000	0.014	0.106
-604.142	22.980	-0.301	0.249
-603.128	154.183	-0.037	-0.051
-602.113	232.407	-0.064	0.106
-601.098	629.175	-0.043	-0.110
-600.084	669.194	-0.068	0.177
-599.069	81.293	-0.127	-0.138
-598.055	106.996	0.125	0.151
-597.040	-37.179	-0.210	-0.114
-596.025	800.000	0.045	-0.141
-595.011	-200.000	0.001	-0.030
-593.996	-50.384	0.233	-0.111
-592.982	800.000	-0.017	-0.058
-591.967	-200.000	0.035	-0.344
-590.952	800.000	0.024	-0.097
-589.938	590.678	0.106	-0.264
-588.923	44.507	0.041	0.038
-587.909	-200.000	0.042	-0.275
-586.894	800.000	0.088	-0.269
-585.879	272.380	0.082	0.145
-584.865	210.893	-0.028	0.045
-583.850	-169.899	0.141	0.005
-582.836	-200.000	-0.016	-0.119
-581.821	-200.000	0.037	-0.403
-580.806	-200.000	-0.032	0.347
-579.792	-200.000	0.024	0.115
-578.777	-166.260	0.083	-0.004
-577.763	800.000	0.037	-0.134
-576.748	54.620	0.327	0.319
-575.733	477.817	0.103	-0.235
-574.719	475.909	-0.077	-0.176
-573.704	800.000	-0.051	-0.144
-572.690	-149.635	0.177	0.014
-571.675	378.654	0.220	-0.454
-570.661	-163.543	0.214	-0.010
-569.646	214.962	0.090	-0.143
-568.631	-200.000	-0.011	-0.126
-567.617	181.448	-0.019	0.029
-566.602	61.467	0.189	0.190
-565.588	712.896	-0.056	-0.151
-564.573	116.310	0.037	-0.046
-563.558	49.535	-0.123	0.117
-562.544	695.662	-0.146	0.387
-561.529	52.730	-0.050	-0.048
-560.515	800.000	-0.074	0.239
-559.500	69.541	0.158	-0.165
-558.485	314.031	-0.169	-0.320
-557.471	-89.624	-0.351	-0.104
-556.456	447.296	-0.139	-0.310
-555.442	202.703	0.149	-0.233
-554.427	-200.000	-0.002	0.357
-553.412	-131.109	-0.175	-0.024
-552.398	800.000	0.004	0.019
-551.383	179.569	0.104	0.154
-550.369	800.000	0.106	-0.327
-549.354	17.780	-0.248	0.199
-548.339	152.575	0.225	-0.311
-547.325	-16.330	-0.088	0.056
-546.310	-103.936	0.418	-0.098
-545.296	-103.441	-0.274	-0.065
-544.281	-86.429	-0.213	0.066
-543.266	8.041	0.099	-0.075
-542.252	418.084	0.046	0.099
-541.237	419.489	-0.057	-0.122
-540.223	-117.626	0.288	-0.052
-539.208	305.847	0.106	-0.199
-538.193	764.404	-0.035	-0.097
-537.179	-51.647	-0.033	-0.016
-536.164	27.614	-0.076	-0.064
-535.150	-117.835	0.254	0.046
-534.135	60.969	0.048	0.048
-533.121	193.094	0.078	0.118
-532.106	-19.010	-0.399	-0.250
-531.091	-72.145	-0.337	-0.126
-530.077	-170.715	0.179	0.006
-529.062	-88.365	0.373	0.112
-528.048	-200.000	0.008	0.120
-527.033	-200.000	-0.049	-0.314
-526.018	-114.242	-0.139	0.027
-525.004	800.000	0.051	0.192
-523.989	-107.314	0.212	0.047
-522.975	395.562	-0.237	0.499
-521.960	-200.000	-0.037	-0.263
-520.945	504.082	-0.142	0.331
-519.931	800.000	0.060	-0.205
-518.916	-179.546	0.326	0.007
-517.902	-44.853	-0.182	-0.091
-516.887	-123.069	-0.175	0.028
-515.872	112.055	0.051	-0.062
-514.858	70.761	-0.180	-0.187
-513.843	-86.264	-0.047	0.015
-512.829	-69.330	-0.315	-0.122
-511.814	800.000	0.142	-0.440
-510.799	80.523	0.099	0.107
-509.785	-102.327	-0.131	-0.032
-508.770	208.392	0.120	0.189
-507.756	-107.006	0.176	0.039
-506.741	-6.511	0.078	0.054
-505.726	-39.107	0.223	0.118
-504.712	-142.472	-0.044	-0.004
-503.697	51.648	-0.228	-0.219
-502.683	-18.746	0.199	-0.125
-501.668	-107.503	-0.261	-0.058
-500.653	37.585	0.201	0.179
-499.639	-147.405	0.337	0.029
-498.624	36.202	0.197	0.175
-497.610	-110.216	0.314	0.066
-496.595	59.360	-0.224	0.222
-495.581	278.689	0.181	-0.324
-494.566	-15.025	-0.216	-0.140
-493.551	19.782	-0.086	-0.070
-492.537	800.000	-0.110	0.377
-491.522	53.312	-0.391	0.377
-490.508	-183.233	-0.288	0.005
-489.493	328.468	-0.178	0.344
-488.478	-34.560	0.340	0.187
-487.464	-200.000	-0.056	-0.296
-486.449	183.185	-0.021	0.032
-485.435	116.916	0.164	0.203
-484.420	-30.044	0.192	0.110
-483.405	242.074	-0.088	-0.148
-482.391	245.201	-0.135	-0.228
-481.376	-48.067	0.209	0.102
-480.362	13.754	0.077	-0.060
-479.347	-135.407	0.598	0.072
-478.332	-5.527	0.339	0.234
-477.318	96.917	0.191	-0.221
-476.303	-54.343	-0.352	-0.161
-475.289	-200.000	-0.012	-0.201
-474.274	-200.000	0.059	0.337
-473.259	-200.000	0.018	-0.167
-472.245	92.286	-0.116	0.132
-471.230	-39.743	0.094	-0.050
-470.216	166.637	-0.090	0.128
-469.201	-124.683	-0.179	0.028
-468.186	638.996	0.068	0.175
-467.172	87.761	0.169	-0.188
-466.157	76.363	-0.232	-0.247
-465.143	-144.233	-0.005	-0.000
-464.128	-108.344	0.164	-0.036
-463.113	-200.000	0.026	-0.433
-462.099	-102.116	-0.389	-0.094
-461.084	-33.489	-0.362	-0.201
-460.070	66.010	0.224	-0.229
-459.055	73.844	0.085	0.090
-458.040	-3.289	-0.337	0.236
-457.026	-90.016	0.208	-0.061
-456.011	195.607	0.124	0.190
-454.997	800.000	0.016	0.067
-453.982	-200.000	-0.055	-0.374
-452.968	-192.912	0.325	-0.003
-451.953	-84.985	-0.385	0.121
-450.938	27.869	0.117	0.099
-449.924	-164.436	-0.150	0.007
-448.909	-98.630	-0.111	0.028
-447.895	336.011	-0.064	0.125
-446.880	228.910	-0.193	-0.316
-445.865	800.000	0.040	0.136
-444.851	-200.000	-0.002	0.634
-443.836	-53.473	0.251	0.116
-442.822	73.954	-0.162	0.171
-441.807	-54.636	0.144	0.066
-440.792	81.051	0.205	-0.223
-439.778	82.450	0.056	0.061
-438.763	-17.146	-0.232	-0.147
-437.749	2.198	-0.381	-0.277
-436.734	227.729	-0.213	-0.349
-435.719	164.069	-0.099	0.140
-434.705	800.000	-0.093	0.319
-433.690	-200.000	-0.045	-0.233
-432.676	800.000	-0.031	0.133
-431.661	-97.357	-0.054	0.014
-430.646	-96.764	0.355	-0.094
-429.632	374.093	-0.086	-0.176
-428.617	-80.102	0.217	0.073
-427.603	333.360	0.179	0.347
-426.588	-97.586	-0.220	-0.057
-425.573	383.651	0.068	0.140
-424.559	-92.762	0.289	-0.081
-423.544	22.472	-0.096	-0.079
-422.530	-47.011	-0.264	0.129
-421.515	-11.632	-0.105	0.069
-420.500	258.332	0.165	0.286
-419.486	-88.628	0.172	-0.052
-418.471	-107.061	0.095	0.021
-417.457	-133.670	-0.134	-0.017
-416.442	-2.641	0.105	-0.074
-415.428	-74.007	-0.044	-0.016
-414.413	573.135	-0.050	0.123
-413.398	-21.202	-0.164	-0.100
-412.384	-95.263	0.132	-0.036
-411.369	53.466	-0.157	-0.151
-410.355	-127.574	0.061	-0.009
-409.340	22.672	-0.198	0.163
-408.325	-135.604	0.215	0.026
-407.311	-152.986	0.527	-0.037
-406.296	-117.156	0.403	-0.074
-405.282	800.000	-0.190	-0.594
-404.267	124.676	-0.122	-0.154
-403.252	44.231	-0.030	-0.027
-402.238	-200.000	0.070	-0.496
-401.223	-200.000	0.003	-0.066
-400.209	-23.572	-0.294	-0.177
-399.194	-115.330	0.780	-0.148
-398.179	800.000	0.059	-0.238
-397.165	-130.790	0.352	-0.047
-396.150	-9.926	0.053	0.035
-395.136	657.766	0.165	0.426
-394.121	-108.416	-0.529	0.114
-393.106	-200.000	0.006	0.082
-392.092	32.504	-0.227	0.196
-391.077	74.332	0.180	0.189
-390.063	-200.000	-0.006	-0.160
-389.048	188.056	-0.143	0.214
-388.033	-163.646	-0.166	-0.008
-387.019	181.920	0.176	-0.259
-386.004	33.498	-0.094	0.082
-384.990	-131.546	-0.206	-0.027
-383.975	203.371	-0.085	0.132
-382.960	-16.585	0.162	0.103
-381.946	-71.431	-0.182	0.068
-380.931	514.956	0.095	-0.223
-379.917	-200.000	-0.023	0.140
-378.902	-102.952	-0.324	-0.077
-377.888	744.803	-0.047	-0.127
-376.873	800.000	0.018	-0.072
-375.858	118.133	0.109	0.135
-374.844	800.000	-0.163	0.535
-373.829	-200.000	0.051	0.248
-372.815	-144.414	-0.170	0.016
-371.800	-18.941	-0.043	0.027
-370.785	-18.684	-0.370	0.231
-369.771	800.000	0.097	0.273
-368.756	660.287	-0.044	-0.115
-367.742	59.225	-0.065	0.064
-366.727	114.361	0.136	-0.166
-365.712	-45.218	-0.091	0.046
-364.698	-62.211	-0.156	-0.065
-363.683	-90.556	0.179	-0.052
-362.669	-34.176	-0.184	-0.101
-361.654	-200.000	-0.007	0.267
-360.639	-200.000	-0.026	0.270
-359.625	-200.000	0.010	-0.122
-358.610	-200.000	-0.033	-0.201
-357.596	133.541	-0.075	-0.097
-356.581	-49.292	-0.397	-0.190
-355.566	-5.637	0.103	0.071
-354.552	-74.927	0.105	-0.038
-353.537	-28.874	0.145	0.083
-352.523	-200.000	0.002	0.200
-351.508	-102.780	-0.368	0.088
-350.493	-101.176	0.240	0.059
-349.479	173.155	0.175	-0.253
-348.464	-163.235	-0.125	-0.006
-347.450	174.067	0.261	-0.377
-346.435	247.255	-0.152	-0.257
-345.420	-91.801	0.262	0.075
-344.406	-98.432	0.322	0.083
-343.391	-200.000	0.017	0.159
-342.377	415.493	-0.194	-0.414
-341.362	-200.000	0.012	0.074
-340.348	-149.335	-0.206	-0.016
-339.333	-74.880	-0.275	-0.099
-338.318	-118.996	0.473	-0.083
-337.304	-81.999	0.090	0.030
-336.289	32.370	0.160	-0.138
-335.275	42.574	-0.113	0.103
-334.260	-30.769	-0.292	-0.165
-333.245	-200.000	-0.005	0.182
-332.231	218.371	0.224	0.358
-331.216	111.994	0.147	-0.178
-330.202	-118.846	0.273	-0.048
-329.187	-74.769	0.274	-0.098
-328.172	58.640	0.257	-0.253
-327.158	48.576	-0.296	0.277
-326.143	-128.972	-0.074	-0.010
-325.129	3.257	-0.480	-0.350
-324.114	800.000	-0.028	-0.101
-323.099	179.734	0.075	0.110
-322.085	800.000	-0.099	-0.312
-321.070	-200.000	0.001	-0.072
-320.056	-83.431	0.246	-0.079
-319.041	-145.679	-0.146	0.013
-318.026	58.677	0.240	0.236
-317.012	-67.299	0.146	0.058
-315.997	-51.333	-0.287	0.134
-314.983	-55.867	-0.242	0.108
-313.968	165.348	-0.123	-0.174
-312.953	-128.993	0.213	0.030
-311.939	98.761	-0.104	-0.120
-310.924	29.875	0.054	-0.046
-309.910	194.040	-0.090	0.137
-308.895	219.683	0.131	0.210
-307.880	-93.510	-0.167	0.046
-306.866	-124.216	-0.243	-0.038
-305.851	525.496	0.041	0.095
-304.837	-200.000	-0.035	-0.208
-303.822	-48.795	-0.218	-0.104
-302.807	-200.000	-0.053	0.235
-301.793	191.679	0.066	-0.099
-300.778	193.230	0.114	0.172
-299.764	136.889	-0.232	0.303
-298.749	365.484	0.085	0.170
-297.735	-137.781	-0.104	0.012
-296.720	-82.895	-0.149	0.048
-295.705	155.254	0.093	0.127
-294.691	-59.317	0.125	-0.054
-293.676	313.213	-0.065	-0.121
-292.662	-200.000	-0.078	-0.479
-291.647	-200.000	-0.031	0.198
-290.632	-6.042	-0.098	0.067
-289.618	-28.713	0.250	-0.144
-288.603	-85.140	-0.090	0.028
-287.589	4.221	-0.044	-0.032
-286.574	-13.121	-0.318	-0.206
-285.559	60.663	-0.225	-0.222
-284.545	-170.296	-0.333	-0.012
-283.530	141.982	-0.137	-0.181
-282.516	-128.071	-0.253	0.036
-281.501	-200.000	-0.104	0.493
-280.486	137.634	0.082	0.107
-279.472	219.427	0.069	0.110
-278.457	301.009	-0.130	-0.239
-277.443	-200.000	-0.012	0.056
-276.428	800.000	-0.031	-0.093
-275.413	487.562	0.044	-0.100
-274.399	-81.298	0.348	0.114
-273.384	676.625	-0.086	-0.223
-272.370	-200.000	0.020	0.130
-271.355	-81.638	0.443	0.145
-270.340	-200.000	-0.107	0.562
-269.326	191.112	-0.100	0.150
-268.311	-56.429	0.150	0.067
-267.297	-2.459	0.208	-0.146
-266.282	-20.387	-0.235	-0.145
-265.267	380.153	-0.129	-0.264
-264.253	-111.893	0.310	0.062
-263.238	293.301	0.097	-0.176
-262.224	-36.173	0.099	0.053
-261.209	59.690	-0.351	0.345
-260.195	512.848	-0.079	0.183
-259.180	-200.000	0.004	-0.102
-258.165	81.126	-0.103	-0.111
-257.151	-200.000	0.012	-0.087
-256.136	-200.000	0.012	0.227
-255.122	154.621	0.238	0.325
-254.107	296.189	-0.090	-0.164
-253.092	-169.501	0.274	0.010
-252.078	-200.000	0.029	0.179
-251.063	90.959	0.118	0.132
-250.049	-25.342	0.235	0.139
-249.034	-169.170	0.315	-0.012
-248.019	-39.535	-0.117	0.061
-247.005	-172.240	0.326	0.010
-245.990	-96.099	-0.144	0.038
-244.976	509.945	0.076	-0.176
-243.961	354.251	-0.071	-0.141
-242.946	800.000	-0.037	0.138
-241.932	-74.586	0.330	-0.119
-240.917	68.107	-0.108	0.110
-239.903	-72.464	-0.136	-0.050
-238.888	24.295	-0.148	0.122
-237.873	149.917	-0.157	0.213
-236.859	-23.981	0.160	-0.095
-235.844	-68.408	0.227	0.088
-234.830	31.159	0.093	-0.079
-233.815	-162.155	-0.115	-0.006
-232.800	67.096	-0.191	-0.194
-231.786	-200.000	-0.024	0.164
-230.771	-50.084	0.085	-0.040
-229.757	146.899	0.190	0.255
-228.742	-74.187	0.317	-0.114
-227.727	-200.000	0.042	0.302
-226.713	158.579	0.105	-0.146
-225.698	-200.000	0.011	0.148
-224.684	800.000	-0.065	-0.259
-223.669	-165.309	0.159	-0.007
-222.655	7.208	-0.080	0.060
-221.640	-200.000	0.008	-0.117
-220.625	-44.111	0.460	0.230
-219.611	-179.454	0.292	0.006
-218.596	-61.608	-0.300	0.125
-217.582	8.456	0.062	0.046
-216.567	344.419	0.111	0.217
-215.552	-76.188	-0.341	0.120
-214.538	10.604	-0.158	-0.120
-213.523	-5.647	-0.219	-0.149
-212.509	-165.701	0.226	-0.010
-211.494	124.350	-0.096	-0.120
-210.479	82.664	0.158	0.171
-209.465	-153.530	-0.230	-0.016
-208.450	183.811	0.089	0.131
-207.436	800.000	0.064	-0.197
-206.421	-200.000	0.043	0.234
-205.406	429.962	0.151	-0.325
-204.392	1.413	-0.029	-0.021
-203.377	800.000	-0.058	-0.200
-202.363	-200.000	0.013	-0.127
-201.348	-40.083	-0.048	0.025
-200.333	-15.987	0.294	0.186
-199.319	-31.695	0.038	-0.021
-198.304	800.000	-0.148	0.432
-197.290	-200.000	-0.009	0.296
-196.275	-200.000	0.051	0.332
-195.260	-72.344	-0.169	0.062
-194.246	-110.939	0.176	0.036
-193.231	32.731	-0.138	-0.118
-192.217	216.066	0.165	0.261
-191.202	139.797	0.266	0.349
-190.187	-200.000	-0.009	0.042
-189.173	99.992	0.048	-0.056
-188.158	800.000	0.041	-0.168
-187.144	241.407	0.051	0.085
-186.129	492.755	-0.108	-0.247
-185.114	28.161	-0.126	0.106
-184.100	-152.178	0.459	0.033
-183.085	-200.000	-0.012	-0.141
-182.071	-2.800	-0.273	0.190
-181.056	-10.379	-0.219	-0.144
-180.042	-95.276	0.203	0.054
-179.027	-122.219	0.096	-0.016
-178.012	86.865	0.144	0.158
-176.998	38.364	0.196	-0.174
-175.983	-200.000	-0.004	0.141
-174.969	-137.221	-0.278	0.031
-173.954	-125.554	0.106	0.016
-172.939	800.000	0.078	-0.266
-171.925	-200.000	0.004	0.222
-170.910	-123.619	0.216	0.034
-169.896	-67.026	0.327	-0.128
-168.881	5.063	0.041	-0.030
-167.866	436.490	0.045	0.096
-166.852	-182.218	0.303	-0.006
-165.837	190.838	-0.121	0.181
-164.823	123.615	-0.271	0.338
-163.808	141.820	-0.229	-0.301
-162.793	98.247	-0.080	0.091
-161.779	-190.374	-0.278	0.003
-160.764	-67.707	-0.085	-0.033
-159.750	-67.913	-0.187	-0.073
-158.735	43.736	0.104	0.095
-157.720	-200.000	-0.022	0.120
-156.706	-114.939	-0.165	-0.031
-155.691	476.803	-0.059	-0.133
-154.677	-164.055	0.197	0.009
-153.662	800.000	-0.072	-0.219
-152.647	-200.000	-0.018	-0.294
-151.633	-38.636	0.236	0.124
-150.618	-41.381	0.211	-0.108
-149.604	800.000	0.070	0.233
-148.589	800.000	-0.055	0.185
-147.574	143.125	0.037	-0.048
-146.560	0.917	0.317	0.226
-145.545	800.000	-0.074	0.265
-144.531	-70.446	0.029	0.011
-143.516	-155.738	0.307	-0.020
-142.502	-36.129	0.053	-0.028
-141.487	-200.000	0.000	0.057
-140.472	128.461	0.066	0.083
-139.458	99.104	0.077	0.089
-138.443	-200.000	0.033	0.303
-137.429	13.176	0.185	0.142
-136.414	-115.968	0.373	0.069
-135.399	152.440	0.179	-0.242
-134.385	80.811	0.200	-0.214
-133.370	800.000	0.060	-0.243
-132.356	-30.172	0.354	0.200
-131.341	95.218	-0.174	0.197
-130.326	-134.129	-0.140	-0.017
-129.312	15.367	0.274	0.214
-128.297	140.780	-0.161	-0.211
-127.283	-32.449	0.198	-0.110
-126.268	-11.016	-0.113	0.074
-125.253	-65.112	0.075	0.030
-124.239	64.182	0.091	0.091
-123.224	28.763	-0.100	0.084
-122.210	-59.673	0.113	-0.048
-121.195	-200.000	-0.050	0.360
-120.180	591.449	0.131	-0.321
