DTS Sentinel unit serial number:	SN413079Multiplexer serial number:	ORYXHardware model number:	OX4-SRSoftware version number:	ORYX F/W v4.00 Oryx Data Collector v3.7.2.0data status	okinstallation	princeton_trtdifferential loss correction	single-endedforward channel	channel 4reverse channel	N/Adate	2019/09/19time	01:25:35forward acquisition time	60.00reverse acquisition time	0.00gamma	496.2192k internal	0.2339k external	0.2339temperature offset calibration	1.0029default loss term (dB/km)	0.3790temperature slope calibration	1.0000multiplexer offset coefficient	1.0000multiplexer slope coefficient	1.0000fibre end	0.00T internal ref (°C)	21.64T ext. ref 1 (°C)	0.70T ext. ref 2 (°C)	15.01length (m)	temperature (°C)	Stokes	anti-Stokes-747.200	-200.000	-0.029	0.209
-746.185	-200.000	0.036	0.195
-745.171	-84.746	0.345	0.109
-744.156	217.836	-0.105	-0.168
-743.142	-174.828	-0.108	0.003
-742.127	433.073	0.201	0.438
-741.112	46.683	0.085	-0.079
-740.098	-82.045	-0.414	-0.136
-739.083	9.970	0.207	0.158
-738.069	21.466	-0.107	0.087
-737.054	-200.000	0.028	0.524
-736.039	54.805	-0.313	0.303
-735.025	160.952	0.185	-0.258
-734.010	5.886	-0.090	-0.067
-732.996	-10.202	-0.239	-0.159
-731.981	-126.804	0.255	0.038
-730.966	800.000	-0.113	0.460
-729.952	45.324	-0.307	-0.284
-728.937	642.130	-0.050	-0.128
-727.923	-81.820	-0.112	-0.037
-726.908	-200.000	-0.050	-0.364
-725.894	88.458	0.174	-0.193
-724.879	-29.605	-0.282	-0.162
-723.864	800.000	-0.029	0.086
-722.850	97.969	0.180	0.207
-721.835	203.142	-0.076	-0.117
-720.821	302.219	-0.132	0.245
-719.806	800.000	0.075	0.228
-718.791	-79.062	0.120	-0.041
-717.777	-88.594	-0.081	0.024
-716.762	800.000	-0.054	0.182
-715.748	19.375	-0.051	0.041
-714.733	48.430	-0.040	0.037
-713.718	156.074	-0.061	-0.084
-712.704	227.790	-0.263	0.428
-711.689	427.891	0.045	0.097
-710.675	-156.423	-0.264	-0.017
-709.660	-24.657	0.125	-0.075
-708.645	-200.000	0.008	0.064
-707.631	800.000	0.081	-0.229
-706.616	-116.318	-0.404	-0.075
-705.602	396.060	0.072	0.151
-704.587	334.058	0.174	0.337
-703.572	-105.188	-0.292	-0.067
-702.558	170.941	0.127	-0.182
-701.543	-32.778	0.282	-0.157
-700.529	-21.378	0.056	0.034
-699.514	-106.436	0.329	-0.074
-698.499	800.000	0.078	0.301
-697.485	800.000	-0.113	0.359
-696.470	69.218	-0.294	-0.302
-695.456	-21.673	-0.296	-0.180
-694.441	-106.307	-0.663	0.148
-693.426	-200.000	0.015	0.402
-692.412	84.830	0.127	-0.139
-691.397	-28.301	0.125	0.072
-690.383	800.000	-0.074	-0.304
-689.368	-200.000	0.019	-0.243
-688.354	31.082	-0.091	-0.078
-687.339	800.000	-0.049	0.138
-686.324	-35.565	0.128	0.069
-685.310	-200.000	0.008	-0.144
-684.295	800.000	-0.020	-0.076
-683.281	774.524	0.135	-0.369
-682.266	-102.840	0.404	0.096
-681.251	-54.916	-0.224	0.101
-680.237	-108.335	0.062	-0.013
-679.222	240.555	-0.027	-0.045
-678.208	-60.546	-0.260	-0.111
-677.193	134.701	0.088	-0.115
-676.178	-43.687	0.215	-0.108
-675.164	169.574	-0.145	-0.206
-674.149	-167.386	0.157	-0.006
-673.135	-158.920	-0.221	-0.013
-672.120	-25.609	0.140	0.083
-671.105	-148.256	0.565	0.047
-670.091	57.494	-0.286	-0.280
-669.076	-200.000	-0.016	-0.434
-668.062	-108.819	0.278	0.059
-667.047	781.401	-0.122	0.335
-666.032	105.394	0.156	-0.184
-665.018	-43.048	-0.186	0.094
-664.003	531.687	0.050	0.118
-662.989	94.800	0.121	-0.137
-661.974	689.223	-0.104	0.273
-660.959	-109.312	-0.270	-0.057
-659.945	359.311	-0.065	0.130
-658.930	-54.724	0.090	-0.040
-657.916	-200.000	0.023	-0.140
-656.901	800.000	0.072	-0.210
-655.886	237.605	-0.253	-0.419
-654.872	-154.578	0.481	0.032
-653.857	45.525	0.041	0.038
-652.843	-131.590	-0.169	0.022
-651.828	59.774	-0.094	-0.092
-650.814	-74.367	-0.169	-0.061
-649.799	-118.833	-0.266	0.047
-648.784	-41.705	0.180	-0.092
-647.770	662.311	0.053	0.136
-646.755	454.653	-0.054	0.119
-645.741	-165.279	0.140	0.006
-644.726	-136.177	0.143	-0.017
-643.711	-200.000	0.037	-0.191
-642.697	194.805	0.109	0.165
-641.682	-19.469	-0.352	0.218
-640.668	459.318	-0.181	-0.402
-639.653	-200.000	-0.034	-0.204
-638.638	329.067	-0.271	-0.521
-637.624	-94.658	0.285	-0.077
-636.609	-200.000	0.013	0.198
-635.595	-31.424	-0.251	0.141
-634.580	501.643	-0.078	0.179
-633.565	51.000	0.120	0.114
-632.551	103.730	-0.085	-0.100
-631.536	499.314	0.046	-0.106
-630.522	-200.000	-0.034	0.375
-629.507	137.789	0.259	-0.338
-628.492	24.925	0.322	0.266
-627.478	-200.000	-0.013	0.280
-626.463	-200.000	-0.009	0.245
-625.449	90.246	-0.187	0.208
-624.434	145.515	-0.109	0.146
-623.419	17.732	0.348	0.277
-622.405	-135.470	-0.162	0.019
-621.390	-64.877	-0.037	0.015
-620.376	800.000	-0.040	-0.124
-619.361	-200.000	0.008	0.076
-618.346	800.000	0.033	0.119
-617.332	81.673	-0.290	-0.313
-616.317	-77.079	-0.170	-0.059
-615.303	-76.975	-0.350	-0.122
-614.288	-87.134	0.368	0.112
-613.273	63.556	0.179	0.180
-612.259	549.526	-0.133	-0.317
-611.244	254.493	-0.142	-0.243
-610.230	-12.697	0.184	-0.120
-609.215	65.107	0.269	-0.271
-608.201	34.307	0.132	-0.115
-607.186	-37.597	-0.325	0.173
-606.171	296.937	0.157	0.288
-605.157	-167.657	-0.507	-0.020
-604.142	-109.052	0.119	0.025
-603.128	28.772	-0.139	0.117
-602.113	-200.000	-0.035	-0.254
-601.098	585.680	-0.010	0.024
-600.084	162.810	-0.179	0.250
-599.069	-200.000	-0.017	-0.363
-598.055	27.577	0.224	-0.188
-597.040	-98.298	0.351	-0.090
-596.025	-200.000	0.014	-0.166
-595.011	-200.000	0.003	-0.073
-593.996	-185.710	-0.101	0.002
-592.982	42.792	-0.038	-0.035
-591.967	56.443	-0.076	0.074
-590.952	-140.796	0.272	-0.028
-589.938	-102.099	-0.223	-0.053
-588.923	-124.087	0.253	-0.040
-587.909	-110.974	0.134	0.027
-586.894	88.565	-0.044	-0.049
-585.879	-108.705	-0.283	0.060
-584.865	17.332	0.183	-0.145
-583.850	-55.254	-0.276	0.124
-582.836	218.859	-0.064	-0.101
-581.821	295.797	-0.047	-0.085
-580.806	800.000	-0.033	-0.104
-579.792	16.991	0.172	0.136
-578.777	-97.646	0.222	-0.057
-577.763	-2.058	-0.194	-0.136
-576.748	145.541	0.094	0.125
-575.733	-200.000	0.001	-0.093
-574.719	-141.116	-0.059	-0.006
-573.704	-99.862	0.072	-0.018
-572.690	-133.372	-0.274	0.034
-571.675	-120.165	0.324	-0.055
-570.661	-18.499	0.086	-0.054
-569.646	279.200	-0.096	0.170
-568.631	171.762	-0.104	-0.149
-567.617	-49.238	-0.115	0.055
-566.602	151.912	-0.100	-0.136
-565.588	0.741	-0.170	0.121
-564.573	-200.000	0.039	-0.176
-563.558	72.236	-0.020	-0.020
-562.544	-58.623	-0.271	0.117
-561.529	-200.000	-0.065	-0.422
-560.515	122.142	0.153	-0.190
-559.500	491.871	0.014	-0.032
-558.485	-13.503	0.347	-0.224
-557.471	-200.000	0.011	-0.115
-556.456	-133.639	-0.052	0.006
-555.442	-200.000	0.070	0.311
-554.427	-18.348	0.103	-0.064
-553.412	162.238	-0.229	0.319
-552.398	6.853	-0.180	-0.134
-551.383	-57.636	-0.098	-0.043
-550.369	-57.158	0.126	-0.055
-549.354	-115.788	0.158	0.029
-548.339	11.632	-0.401	0.306
-547.325	-99.800	0.338	0.084
-546.310	-28.698	-0.344	0.197
-545.296	-200.000	0.032	-0.337
-544.281	40.907	-0.143	0.129
-543.266	197.462	-0.262	-0.398
-542.252	-200.000	-0.030	0.255
-541.237	190.715	0.169	0.253
-540.223	-200.000	-0.017	-0.312
-539.208	136.806	0.100	-0.130
-538.193	500.859	0.025	-0.057
-537.179	699.196	-0.113	0.296
-536.164	-67.808	0.312	-0.121
-535.150	-122.581	0.181	-0.029
-534.135	14.785	0.089	0.069
-533.121	-59.901	-0.101	0.043
-532.106	265.842	0.110	0.191
-531.091	-192.081	0.168	-0.002
-530.077	-200.000	-0.060	-0.360
-529.062	668.052	-0.031	0.079
-528.048	132.316	-0.074	-0.095
-527.033	-200.000	-0.003	-0.077
-526.018	529.018	0.051	-0.120
-525.004	-128.323	0.347	-0.049
-523.989	147.924	0.126	-0.169
-522.975	157.919	-0.083	-0.115
-521.960	-71.207	-0.225	-0.084
-520.945	639.327	-0.109	-0.274
-519.931	-43.796	-0.139	0.070
-518.916	800.000	0.133	0.453
-517.902	-78.899	0.198	0.067
-516.887	-200.000	0.004	0.171
-515.872	74.406	-0.294	-0.307
-514.858	123.139	0.168	0.209
-513.843	6.864	0.118	0.088
-512.829	800.000	0.064	0.274
-511.814	-160.703	-0.038	0.002
-510.799	4.341	-0.145	0.106
-509.785	800.000	0.075	-0.254
-508.770	-52.869	0.145	0.066
-507.756	153.840	-0.109	-0.148
-506.741	43.661	-0.153	-0.139
-505.726	100.622	0.058	-0.067
-504.712	134.473	0.137	0.176
-503.697	121.782	0.119	0.148
-502.683	-69.897	-0.300	0.114
-501.668	-87.573	0.099	-0.030
-500.653	660.927	-0.070	-0.178
-499.639	-8.398	0.296	-0.198
-498.624	800.000	-0.082	0.236
-497.610	-143.843	-0.323	-0.030
-496.595	-116.881	0.067	-0.012
-495.581	62.034	-0.249	0.246
-494.566	314.104	0.130	0.244
-493.551	-78.279	0.281	-0.096
-492.537	-200.000	0.031	-0.446
-491.522	32.903	0.192	-0.165
-490.508	-94.375	-0.243	-0.066
-489.493	504.076	-0.075	-0.173
-488.478	-16.221	0.219	0.138
-487.464	-21.297	-0.427	0.259
-486.449	701.264	0.103	0.268
-485.435	-147.487	-0.206	0.017
-484.420	4.203	0.087	0.063
-483.405	-35.495	-0.110	-0.059
-482.391	203.477	0.174	-0.267
-481.376	15.871	0.288	0.225
-480.362	-98.440	-0.384	0.098
-479.347	440.905	-0.089	0.193
-478.332	-80.123	-0.161	-0.054
-477.318	-200.000	-0.043	0.300
-476.303	-51.820	-0.131	-0.061
-475.289	-130.204	0.260	0.035
-474.274	106.900	0.140	-0.164
-473.259	23.974	-0.172	-0.141
-472.245	-117.419	-0.259	-0.047
-471.230	90.822	0.224	0.250
-470.216	-70.176	0.056	-0.021
-469.201	20.446	-0.232	-0.186
-468.186	-19.068	0.249	0.154
-467.172	800.000	-0.096	-0.286
-466.157	-21.582	-0.156	-0.094
-465.143	35.888	-0.086	-0.075
-464.128	-90.787	0.265	-0.076
-463.113	58.031	0.049	-0.048
-462.099	635.079	0.058	0.147
-461.084	800.000	0.031	0.125
-460.070	60.828	0.029	-0.029
-459.055	20.644	0.190	-0.152
-458.040	66.429	0.116	0.117
-457.026	-83.509	-0.175	0.056
-456.011	-129.146	0.113	-0.016
-454.997	-200.000	-0.026	0.199
-453.982	-67.197	-0.092	-0.036
-452.968	800.000	-0.076	-0.293
-451.953	-17.462	-0.223	0.139
-450.938	638.194	0.013	-0.032
-449.924	800.000	0.156	0.593
-448.909	53.632	-0.084	0.080
-447.895	39.815	-0.309	0.275
-446.880	-50.809	-0.090	-0.042
-445.865	89.746	-0.210	-0.232
-444.851	-5.238	-0.035	0.024
-443.836	343.933	0.060	0.117
-442.822	-100.210	0.273	0.067
-441.807	-200.000	0.033	-0.363
-440.792	42.047	0.282	-0.254
-439.778	-200.000	0.034	0.166
-438.763	94.882	-0.174	0.196
-437.749	-30.920	-0.263	-0.147
-436.734	789.074	0.004	-0.010
-435.719	-79.417	-0.179	0.060
-434.705	137.707	-0.224	0.291
-433.690	-126.477	-0.293	-0.043
-432.676	106.016	-0.213	0.250
-431.661	43.934	0.228	-0.207
-430.646	68.751	-0.110	0.112
-429.632	-73.396	-0.136	0.049
-428.617	367.963	0.160	-0.321
-427.603	492.082	-0.099	0.225
-426.588	-57.549	-0.093	0.040
-425.573	87.626	0.177	-0.194
-424.559	-159.433	0.179	0.010
-423.544	-92.981	-0.235	-0.065
-422.530	800.000	-0.048	-0.177
-421.515	384.884	-0.086	-0.176
-420.500	235.433	0.089	-0.145
-419.486	-79.954	0.229	0.076
-418.471	736.312	-0.047	0.124
-417.457	8.507	0.321	-0.239
-416.442	-155.348	0.223	0.014
-415.428	47.574	-0.253	0.233
-414.413	800.000	-0.104	-0.330
-413.398	57.951	0.347	-0.336
-412.384	-27.103	-0.195	0.112
-411.369	-200.000	0.016	0.097
-410.355	-13.580	-0.137	0.088
-409.340	-32.402	0.191	-0.106
-408.325	-139.960	-0.402	-0.042
-407.311	-200.000	-0.015	0.224
-406.296	-131.436	-0.262	-0.034
-405.282	17.335	-0.279	0.219
-404.267	159.575	0.082	-0.112
-403.252	115.920	-0.269	-0.326
-402.238	520.532	-0.198	-0.460
-401.223	-79.389	-0.283	-0.095
-400.209	389.417	-0.104	-0.214
-399.194	485.454	0.019	0.043
-398.179	717.104	0.040	0.104
-397.165	-28.869	0.236	0.134
-396.150	800.000	-0.010	0.031
-395.136	-132.353	0.132	-0.017
-394.121	153.481	-0.163	-0.221
-393.106	-79.124	0.202	0.068
-392.092	-200.000	-0.007	-0.254
-391.077	333.702	0.158	-0.302
-390.063	-116.898	-0.201	-0.036
-389.048	219.025	0.065	-0.103
-388.033	-67.512	0.323	0.126
-387.019	800.000	0.149	0.427
-386.004	83.068	0.249	-0.268
-384.990	155.033	0.182	0.247
-383.975	-53.242	0.186	-0.084
-382.960	800.000	0.039	-0.131
-381.946	-200.000	-0.022	0.098
-380.931	-96.598	-0.281	0.073
-379.917	324.875	0.073	0.137
-378.902	-62.580	0.062	0.025
-377.888	377.848	0.054	-0.108
-376.873	800.000	0.159	0.501
-375.858	-200.000	-0.034	0.163
-374.844	18.757	0.114	0.090
-373.829	-200.000	-0.028	-0.173
-372.815	-200.000	-0.014	-0.213
-371.800	-107.245	0.341	0.074
-370.785	800.000	-0.119	0.326
-369.771	-161.446	-0.219	-0.011
-368.756	132.127	-0.128	-0.163
-367.742	-200.000	0.020	0.095
-366.727	-78.466	0.062	-0.021
-365.712	46.055	-0.145	0.133
-364.698	-200.000	0.003	0.304
-363.683	35.326	0.159	-0.138
-362.669	192.728	-0.114	-0.170
-361.654	102.401	0.159	0.183
-360.639	-8.947	-0.193	0.128
-359.625	-59.426	-0.205	0.087
-358.610	800.000	-0.016	-0.052
-357.596	-200.000	-0.057	-0.291
-356.581	33.667	0.119	-0.102
-355.566	145.399	0.210	-0.278
-354.552	-177.025	0.162	0.004
-353.537	-200.000	-0.071	0.313
-352.523	10.165	-0.153	-0.115
-351.508	56.587	-0.176	0.169
-350.493	177.161	0.105	0.152
-349.479	-200.000	0.001	0.354
-348.464	800.000	-0.044	-0.157
-347.450	-8.870	-0.186	0.123
-346.435	625.118	0.111	0.277
-345.420	428.949	0.052	0.111
-344.406	162.309	0.027	0.038
-343.391	800.000	-0.034	0.103
-342.377	224.577	-0.088	0.140
-341.362	-200.000	-0.003	-0.211
-340.348	800.000	-0.056	-0.239
-339.333	21.725	0.106	-0.085
-338.318	731.802	0.148	-0.390
-337.304	-200.000	-0.052	0.247
-336.289	-200.000	-0.021	-0.146
-335.275	-200.000	0.011	0.517
-334.260	257.129	-0.100	0.169
-333.245	-115.226	-0.177	0.033
-332.231	189.173	0.061	0.090
-331.216	-200.000	0.037	-0.296
-330.202	-15.997	0.243	-0.153
-329.187	375.737	-0.086	-0.174
-328.172	-103.008	-0.462	-0.108
-327.158	-200.000	-0.029	0.181
-326.143	-77.255	0.176	-0.060
-325.129	88.369	0.192	-0.210
-324.114	800.000	-0.120	-0.402
-323.099	316.263	0.038	0.071
-322.085	800.000	0.010	-0.043
-321.070	91.948	0.013	0.014
-320.056	-115.769	-0.115	-0.021
-319.041	-62.533	0.286	-0.117
-318.026	770.342	-0.143	-0.385
-317.012	-200.000	0.001	0.254
-315.997	311.202	0.030	-0.055
-314.983	-200.000	-0.036	-0.461
-313.968	-8.725	-0.186	0.123
-312.953	-63.285	0.258	-0.105
-311.939	-120.053	0.233	0.039
-310.924	550.309	0.106	0.251
-309.910	800.000	0.025	0.104
-308.895	-39.734	-0.403	0.207
-307.880	43.821	0.146	0.132
-306.866	-29.626	0.134	-0.076
-305.851	-200.000	0.026	0.145
-304.837	-114.736	0.069	0.013
-303.822	123.791	-0.116	0.144
-302.807	575.821	0.149	-0.359
-301.793	-177.693	-0.355	0.008
-300.778	-139.114	-0.285	0.030
-299.764	-16.129	0.054	0.034
-298.749	-40.464	0.114	0.058
-297.735	42.690	0.103	-0.092
-296.720	211.066	0.228	0.354
-295.705	49.077	-0.056	-0.052
-294.691	47.627	0.144	-0.132
-293.676	0.663	0.291	0.205
-292.662	0.526	0.081	0.057
-291.647	-52.682	0.181	0.082
-290.632	-45.298	0.154	0.075
-289.618	-106.904	0.407	0.089
-288.603	800.000	-0.037	0.133
-287.589	800.000	-0.050	0.158
-286.574	-88.637	-0.519	-0.152
-285.559	-200.000	0.050	-0.360
-284.545	96.127	-0.034	0.038
-283.530	-17.667	-0.113	-0.070
-282.516	2.569	0.152	0.108
-281.501	800.000	0.118	0.394
-280.486	-200.000	-0.046	0.362
-279.472	280.993	0.162	-0.286
-278.457	-200.000	-0.042	0.213
-277.443	-200.000	0.014	0.184
-276.428	-48.526	-0.328	-0.155
-275.413	26.238	0.093	0.077
-274.399	44.834	-0.160	0.145
-273.384	197.183	-0.059	0.088
-272.370	-89.851	0.182	-0.052
-271.355	-142.781	-0.170	0.016
-270.340	-153.707	-0.224	-0.015
-269.326	-106.918	-0.307	-0.067
-268.311	-200.000	0.054	0.294
-267.297	-200.000	-0.008	0.082
-266.282	230.371	0.185	0.299
-265.267	-35.573	0.403	-0.215
-264.253	800.000	-0.069	0.193
-263.238	355.676	-0.187	-0.366
-262.224	800.000	0.131	-0.428
-261.209	-125.270	-0.486	-0.073
-260.195	800.000	0.056	-0.163
-259.180	-88.833	0.289	0.084
-258.165	-55.558	-0.012	-0.005
-257.151	-81.171	-0.153	0.050
-256.136	800.000	-0.120	0.405
-255.122	-92.980	-0.112	0.031
-254.107	-10.792	0.334	-0.217
-253.092	-107.981	-0.143	-0.031
-252.078	0.257	0.213	0.150
-251.063	392.560	-0.161	0.330
-250.049	-22.388	0.129	-0.077
-249.034	-200.000	0.029	-0.248
-248.019	-184.884	-0.175	-0.003
-247.005	-74.516	-0.316	-0.112
-245.990	-200.000	0.007	0.159
-244.976	299.838	0.065	-0.118
-243.961	-70.987	0.157	0.058
-242.946	-9.122	0.127	0.083
-241.932	800.000	0.055	-0.184
-240.917	-200.000	-0.045	-0.440
-239.903	106.409	-0.117	0.136
-238.888	19.822	0.145	0.115
-237.873	170.923	-0.055	0.077
-236.859	-73.970	-0.096	0.034
-235.844	-30.477	-0.126	-0.070
-234.830	-200.000	-0.018	-0.154
-233.815	800.000	-0.037	-0.151
-232.800	-200.000	-0.021	0.168
-231.786	9.899	0.307	0.229
-230.771	104.870	-0.193	-0.224
-229.757	-200.000	-0.019	0.295
-228.742	-200.000	-0.003	0.112
-227.727	117.358	-0.187	-0.226
-226.713	-50.875	0.174	-0.080
-225.698	-32.355	0.465	0.255
-224.684	101.322	-0.113	0.130
-223.669	393.958	0.104	-0.214
-222.655	161.983	0.223	-0.307
-221.640	77.357	0.032	0.033
-220.625	-55.455	-0.235	0.104
-219.611	-48.781	-0.086	0.040
-218.596	-24.043	0.238	-0.139
-217.582	-14.587	0.062	0.039
-216.567	16.987	0.168	0.131
-215.552	101.954	0.117	-0.134
-214.538	281.666	-0.060	-0.106
-213.523	-70.318	0.058	-0.022
-212.509	54.651	-0.281	-0.266
-211.494	77.603	-0.131	0.137
-210.479	-155.173	-0.412	0.026
-209.465	159.044	0.105	0.143
-208.450	491.445	-0.042	0.094
-207.436	391.143	0.056	-0.115
-206.421	-43.919	0.274	0.136
-205.406	35.610	-0.085	0.073
-204.392	-27.636	-0.138	-0.079
-203.377	-163.902	0.270	0.012
-202.363	-200.000	0.026	-0.133
-201.348	-103.192	-0.312	0.072
-200.333	-200.000	-0.005	-0.529
-199.319	-13.543	0.039	0.025
-198.304	-108.493	-0.116	0.024
-197.290	253.637	-0.088	0.148
-196.275	-200.000	0.022	-0.213
-195.260	189.099	0.229	0.336
-194.246	-87.285	0.305	0.091
-193.231	52.323	-0.041	0.038
-192.217	-135.957	0.050	-0.006
-191.202	18.619	0.038	-0.030
-190.187	-200.000	-0.016	0.130
-189.173	-40.000	0.127	0.065
-188.158	768.676	0.053	0.141
-187.144	-28.073	0.226	0.128
-186.129	-91.231	-0.102	0.029
-185.114	-160.613	-0.066	-0.003
-184.100	-200.000	-0.005	0.078
-183.085	-0.820	0.061	0.042
-182.071	-173.083	-0.114	0.003
-181.056	-200.000	-0.013	-0.190
-180.042	800.000	0.067	-0.231
-179.027	98.521	0.052	-0.058
-178.012	221.154	0.078	-0.122
-176.998	800.000	-0.146	-0.417
-175.983	-17.684	0.199	-0.123
-174.969	-200.000	-0.034	0.175
-173.954	68.641	0.099	0.100
-172.939	354.736	-0.240	0.468
-171.925	-69.427	-0.346	0.130
-170.910	-92.905	0.080	0.022
-169.896	800.000	0.059	-0.202
-168.881	-66.042	0.260	0.102
-167.866	65.192	0.165	0.164
-166.852	69.808	-0.102	0.103
-165.837	688.398	0.097	0.249
-164.823	175.271	-0.137	-0.194
-163.808	-97.039	0.154	0.040
-162.793	42.547	-0.048	-0.042
-161.779	237.588	-0.047	-0.077
-160.764	-23.014	0.079	0.047
-159.750	235.339	0.191	0.309
-158.735	-185.764	0.107	0.002
-157.720	-130.915	0.106	0.014
-156.706	16.890	0.168	0.130
-155.691	-88.103	0.225	-0.066
-154.677	-114.608	0.244	-0.046
-153.662	-200.000	-0.196	0.000
-152.647	105.729	-0.013	-0.015
-151.633	-200.000	0.012	-0.335
-150.618	-54.080	-0.100	0.044
-149.604	-114.884	0.363	-0.068
-148.589	-45.706	-0.209	0.101
-147.574	-200.000	0.043	0.277
-146.560	-167.204	-0.241	0.010
-145.545	-87.699	0.198	0.059
-144.531	800.000	-0.067	0.184
-143.516	-200.000	-0.021	-0.221
-142.502	9.361	-0.130	-0.097
-141.487	88.133	-0.210	-0.228
-140.472	354.600	0.162	0.315
-139.458	-42.374	-0.178	0.089
-138.443	-104.108	0.332	-0.076
-137.429	-200.000	0.032	-0.244
-136.414	-7.064	0.178	0.118
-135.399	-106.889	-0.378	0.082
-134.385	-135.867	-0.219	-0.025
-133.370	92.038	0.059	0.066
-132.356	800.000	0.018	0.078
-131.341	19.450	0.207	-0.163
-130.326	-154.888	0.231	-0.015
-129.312	441.160	-0.231	0.494
-128.297	800.000	0.053	-0.171
-127.283	-110.850	0.182	-0.037
-126.268	-71.640	-0.213	0.078
-125.253	-200.000	0.061	0.321
-124.239	-161.565	0.211	-0.011
-123.224	69.049	-0.132	0.133
-122.210	261.290	-0.190	0.321
-121.195	332.673	0.217	-0.410
-120.180	-200.000	0.002	0.099
