DTS Sentinel unit serial number:	SN413079Multiplexer serial number:	ORYXHardware model number:	OX4-SRSoftware version number:	ORYX F/W v4.00 Oryx Data Collector v3.7.2.0data status	okinstallation	princeton_trtdifferential loss correction	single-endedforward channel	channel 4reverse channel	N/Adate	2019/09/13time	02:29:35forward acquisition time	60.00reverse acquisition time	0.00gamma	496.2192k internal	0.2320k external	0.2320temperature offset calibration	1.0186default loss term (dB/km)	0.3790temperature slope calibration	1.0000multiplexer offset coefficient	1.0000multiplexer slope coefficient	1.0000fibre end	0.00T internal ref (°C)	27.50T ext. ref 1 (°C)	3.97T ext. ref 2 (°C)	22.27length (m)	temperature (°C)	Stokes	anti-Stokes-747.200	87.399	0.101	0.114
-746.185	48.602	-0.174	-0.165
-745.171	58.017	0.053	0.053
-744.156	-131.911	-0.150	0.020
-743.142	-3.735	0.306	-0.215
-742.127	-200.000	-0.387	-0.002
-741.112	-107.496	-0.199	-0.044
-740.098	-200.000	0.029	0.303
-739.083	-159.535	0.327	-0.018
-738.069	-62.792	-0.018	0.007
-737.054	-41.119	0.148	-0.077
-736.039	-72.816	-0.318	0.118
-735.025	758.714	-0.074	0.204
-734.010	-5.121	-0.215	-0.149
-732.996	-141.743	0.175	-0.018
-731.981	-134.323	0.094	-0.012
-730.966	36.090	-0.240	0.213
-729.952	227.044	0.155	0.254
-728.937	-200.000	-0.040	-0.358
-727.923	215.167	-0.186	-0.298
-726.908	-182.235	-0.282	0.005
-725.894	800.000	0.005	0.020
-724.879	150.104	-0.226	-0.310
-723.864	-157.547	-0.213	-0.013
-722.850	-95.098	-0.354	-0.097
-721.835	-200.000	-0.004	0.035
-720.821	-200.000	-0.012	0.186
-719.806	55.721	-0.337	0.330
-718.791	499.118	-0.054	-0.126
-717.777	800.000	-0.113	-0.412
-716.762	159.009	0.283	-0.397
-715.748	62.036	-0.222	-0.223
-714.733	37.669	-0.206	-0.185
-713.718	-200.000	0.019	0.128
-712.704	800.000	0.147	-0.432
-711.689	-103.515	0.127	0.030
-710.675	-42.144	-0.283	0.146
-709.660	-112.803	-0.279	-0.056
-708.645	-140.686	-0.107	-0.011
-707.631	-142.582	-0.310	0.031
-706.616	800.000	-0.026	0.109
-705.602	96.543	0.291	-0.336
-704.587	-96.370	0.246	0.066
-703.572	-200.000	-0.015	0.200
-702.558	138.115	-0.120	0.158
-701.543	-114.595	0.120	-0.023
-700.529	-131.600	0.082	0.011
-699.514	-106.067	-0.177	-0.040
-698.499	189.330	-0.057	0.086
-697.485	397.342	0.050	0.106
-696.470	583.273	0.073	-0.181
-695.456	-44.461	0.455	-0.230
-694.441	800.000	-0.012	0.049
-693.426	-189.683	-0.346	-0.004
-692.412	28.392	0.302	-0.258
-691.397	800.000	-0.040	-0.118
-690.383	9.281	-0.348	0.266
-689.368	-107.222	0.047	-0.011
-688.354	-200.000	0.009	0.206
-687.339	367.331	-0.069	-0.141
-686.324	1.523	-0.093	0.068
-685.310	-83.869	0.110	-0.035
-684.295	170.266	0.099	0.143
-683.281	-189.743	-0.039	-0.000
-682.266	-24.509	0.082	-0.049
-681.251	-200.000	-0.018	0.239
-680.237	136.862	-0.226	0.298
-679.222	464.415	-0.024	0.054
-678.208	41.095	0.163	-0.148
-677.193	-129.341	0.212	0.030
-676.178	-200.000	-0.006	0.181
-675.164	294.972	0.071	0.130
-674.149	42.833	0.220	-0.202
-673.135	800.000	0.072	-0.269
-672.120	-200.000	0.008	-0.157
-671.105	-104.626	0.207	-0.048
-670.091	5.900	0.302	-0.226
-669.076	202.414	-0.121	-0.189
-668.062	-51.609	-0.169	-0.080
-667.047	388.631	0.050	-0.105
-666.032	-155.362	-0.134	0.009
-665.018	59.777	-0.160	-0.159
-664.003	128.274	-0.355	0.455
-662.989	109.282	-0.195	0.235
-661.974	-200.000	0.086	0.462
-660.959	-42.023	0.286	0.147
-659.945	800.000	0.035	-0.129
-658.930	602.388	0.078	-0.196
-657.916	-200.000	0.001	-0.185
-656.901	-60.872	-0.372	0.159
-655.886	-30.632	0.126	0.072
-654.872	56.405	-0.213	-0.209
-653.857	-200.000	-0.002	0.336
-652.843	-29.307	0.148	0.086
-651.828	488.021	0.080	0.184
-650.814	-1.111	-0.235	-0.167
-649.799	65.652	-0.160	0.163
-648.784	264.031	0.024	-0.042
-647.770	34.731	0.055	0.049
-646.755	100.525	-0.309	-0.362
-645.741	-200.000	0.023	-0.147
-644.726	-102.360	-0.189	-0.046
-643.711	-76.712	0.171	-0.060
-642.697	340.195	-0.066	-0.130
-641.682	-4.616	-0.394	-0.274
-640.668	800.000	-0.098	-0.311
-639.653	-162.762	-0.503	-0.025
-638.638	190.756	-0.101	-0.152
-637.624	-200.000	-0.040	0.385
-636.609	51.287	-0.206	-0.197
-635.595	-8.791	-0.256	-0.173
-634.580	-85.671	0.180	0.056
-633.565	800.000	0.076	0.248
-632.551	-30.025	-0.167	-0.096
-631.536	-200.000	0.023	-0.143
-630.522	-11.176	0.234	0.155
-629.507	-0.090	-0.029	-0.020
-628.492	-43.719	-0.141	-0.071
-627.478	144.023	0.089	-0.119
-626.463	246.426	0.074	0.125
-625.449	-197.647	-0.050	-0.000
-624.434	800.000	0.077	-0.298
-623.419	280.069	-0.123	0.220
-622.405	-200.000	0.038	-0.297
-621.390	15.247	0.110	0.087
-620.376	46.522	0.136	-0.127
-619.361	304.179	-0.124	-0.232
-618.346	-200.000	0.030	-0.398
-617.332	-103.835	-0.254	0.060
-616.317	-3.701	0.256	0.179
-615.303	-106.049	-0.212	-0.048
-614.288	-200.000	0.051	0.385
-613.273	-200.000	-0.003	-0.058
-612.259	1.376	0.164	-0.118
-611.244	-200.000	0.028	-0.177
-610.230	137.008	0.182	0.240
-609.215	-25.220	-0.261	-0.155
-608.201	800.000	-0.049	-0.165
-607.186	36.845	0.260	0.232
-606.171	27.695	-0.102	0.086
-605.157	-200.000	-0.015	-0.166
-604.142	-200.000	-0.005	-0.058
-603.128	294.447	-0.156	0.288
-602.113	44.165	-0.014	0.013
-601.098	-51.606	0.047	0.022
-600.084	-69.351	-0.115	-0.044
-599.069	58.094	0.112	-0.111
-598.055	800.000	-0.039	-0.123
-597.040	-131.567	0.133	-0.018
-596.025	-76.954	-0.317	-0.111
-595.011	800.000	0.096	-0.319
-593.996	-74.162	-0.256	0.093
-592.982	-131.209	0.328	0.044
-591.967	134.248	-0.126	-0.164
-590.952	518.266	-0.091	-0.215
-589.938	-107.498	-0.143	-0.032
-588.923	14.827	-0.277	-0.218
-587.909	-200.000	-0.051	0.275
-586.894	-71.712	-0.289	0.108
-585.879	800.000	0.144	0.429
-584.865	800.000	0.053	0.164
-583.850	149.446	-0.075	0.102
-582.836	-6.949	-0.060	0.041
-581.821	271.366	0.150	-0.265
-580.806	-131.992	-0.215	-0.028
-579.792	44.181	-0.188	0.174
-578.777	-57.781	0.318	0.140
-577.763	-103.086	0.136	0.032
-576.748	31.185	0.031	0.026
-575.733	-200.000	0.017	-0.248
-574.719	167.652	-0.107	-0.153
-573.704	736.030	0.058	-0.156
-572.690	800.000	0.070	-0.239
-571.675	62.976	-0.125	-0.126
-570.661	584.199	-0.078	-0.192
-569.646	800.000	-0.172	-0.579
-568.631	-28.953	-0.104	0.060
-567.617	-86.366	-0.144	-0.044
-566.602	85.222	-0.143	-0.158
-565.588	319.305	-0.040	0.075
-564.573	-43.735	-0.205	-0.103
-563.558	-2.469	0.165	-0.116
-562.544	-111.993	-0.133	-0.027
-561.529	48.208	-0.208	-0.196
-560.515	628.319	-0.024	-0.060
-559.500	137.398	0.157	0.206
-558.485	725.270	-0.073	0.196
-557.471	366.186	-0.082	-0.167
-556.456	-53.679	0.346	-0.159
-555.442	53.793	-0.117	-0.113
-554.427	-47.509	-0.234	-0.114
-553.412	-28.779	0.127	0.073
-552.398	-200.000	-0.005	-0.111
-551.383	-141.182	0.350	0.036
-550.369	800.000	0.083	-0.350
-549.354	117.283	0.079	0.097
-548.339	-89.028	0.195	-0.058
-547.325	26.944	0.191	-0.160
-546.310	291.124	-0.170	0.310
-545.296	-200.000	0.038	-0.250
-544.281	-77.187	-0.196	0.068
-543.266	-99.999	-0.220	-0.055
-542.252	363.050	-0.179	-0.361
-541.237	-137.579	0.172	-0.019
-540.223	-200.000	0.005	0.145
-539.208	-200.000	0.007	0.142
-538.193	12.577	-0.165	0.128
-537.179	110.926	-0.121	0.146
-536.164	504.051	0.100	-0.232
-535.150	-73.550	-0.171	0.063
-534.135	-51.424	0.280	0.131
-533.121	-124.604	-0.296	-0.046
-532.106	173.794	0.047	-0.068
-531.091	122.826	-0.119	0.149
-530.077	63.399	0.043	-0.043
-529.062	-113.935	0.181	-0.035
-528.048	-200.000	-0.036	0.236
-527.033	137.950	0.163	0.215
-526.018	327.193	-0.071	-0.137
-525.004	70.619	-0.086	0.089
-523.989	-69.443	-0.313	-0.121
-522.975	-200.000	0.018	-0.133
-521.960	-11.927	0.117	0.077
-520.945	-138.473	0.234	0.026
-519.931	-19.371	-0.237	-0.148
-518.916	281.578	0.114	0.204
-517.902	-38.740	0.128	-0.068
-516.887	589.819	0.065	0.161
-515.872	6.048	0.134	0.099
-514.858	135.369	0.173	-0.225
-513.843	-165.564	-0.265	0.012
-512.829	0.551	0.108	0.078
-511.814	-17.261	0.176	0.111
-510.799	-101.318	-0.147	0.036
-509.785	-92.889	0.063	0.018
-508.770	125.944	0.103	-0.130
-507.756	-200.000	-0.017	0.415
-506.741	-142.281	-0.240	-0.024
-505.726	-66.133	-0.276	0.110
-504.712	800.000	-0.061	0.199
-503.697	591.743	-0.186	0.459
-502.683	-33.560	0.336	0.186
-501.668	-120.286	0.130	0.022
-500.653	569.048	0.119	0.290
-499.639	65.843	0.160	-0.162
-498.624	88.310	-0.096	-0.107
-497.610	-141.031	-0.206	0.021
-496.595	-61.349	0.275	-0.116
-495.581	288.708	-0.056	0.102
-494.566	-117.183	0.244	-0.044
-493.551	-175.729	0.187	0.005
-492.537	800.000	-0.057	-0.248
-491.522	800.000	0.125	-0.507
-490.508	-22.174	-0.016	0.009
-489.493	800.000	-0.026	0.096
-488.478	-4.739	-0.272	-0.188
-487.464	25.381	0.184	-0.153
-486.449	85.960	0.079	-0.087
-485.435	16.100	0.038	0.030
-484.420	-34.783	0.178	0.097
-483.405	149.081	0.144	0.195
-482.391	40.887	-0.148	-0.133
-481.376	-85.538	0.238	-0.074
-480.362	-195.452	0.320	0.002
-479.347	-100.523	-0.277	-0.069
-478.332	-200.000	0.010	0.174
-477.318	-11.939	-0.226	-0.148
-476.303	-80.549	0.313	0.104
-475.289	-37.489	-0.269	0.143
-474.274	284.226	0.084	0.152
-473.259	-89.296	0.328	0.097
-472.245	-38.686	-0.304	0.161
-471.230	65.257	0.160	-0.162
-470.216	-139.677	-0.362	-0.039
-469.201	325.612	-0.038	-0.073
-468.186	-200.000	-0.035	0.165
-467.172	-126.711	-0.173	-0.026
-466.157	-119.563	0.231	-0.040
-465.143	-135.801	0.114	-0.014
-464.128	-75.552	0.216	0.077
-463.113	151.024	-0.092	-0.125
-462.099	93.515	0.103	-0.117
-461.084	-200.000	-0.048	0.316
-460.070	374.518	-0.135	-0.274
-459.055	-129.857	0.118	-0.016
-458.040	-4.991	-0.125	-0.086
-457.026	-78.082	0.187	0.064
-456.011	-200.000	0.009	-0.081
-454.997	-162.859	0.249	0.012
-453.982	800.000	0.016	0.048
-452.968	9.104	-0.158	-0.119
-451.953	-146.458	-0.251	0.022
-450.938	-200.000	-0.010	0.169
-449.924	800.000	0.034	0.113
-448.909	-145.875	-0.295	0.026
-447.895	-200.000	-0.072	-0.369
-446.880	180.481	0.131	0.192
-445.865	111.000	-0.309	-0.371
-444.851	-200.000	-0.001	0.151
-443.836	121.736	0.120	0.150
-442.822	60.487	0.251	0.249
-441.807	-84.925	0.118	0.037
-440.792	-92.147	-0.119	0.034
-439.778	627.260	0.050	0.126
-438.763	178.814	0.142	0.207
-437.749	-71.193	-0.342	0.128
-436.734	-12.153	0.275	0.180
-435.719	-83.106	-0.080	-0.026
-434.705	6.652	0.269	0.200
-433.690	765.914	-0.093	0.252
-432.676	-200.000	-0.019	-0.162
-431.661	16.625	0.055	-0.043
-430.646	800.000	0.049	-0.168
-429.632	-186.439	0.197	-0.003
-428.617	561.500	0.114	-0.274
-427.603	-200.000	-0.000	-0.282
-426.588	-200.000	-0.010	-0.048
-425.573	57.917	0.172	0.168
-424.559	800.000	-0.035	-0.112
-423.544	101.137	-0.143	0.166
-422.530	88.831	-0.164	0.183
-421.515	19.243	0.179	0.144
-420.500	146.785	0.084	0.112
-419.486	-35.447	-0.247	-0.134
-418.471	800.000	0.031	-0.086
-417.457	-200.000	-0.031	0.151
-416.442	-63.474	-0.120	-0.049
-415.428	95.533	0.144	-0.165
-414.413	135.199	-0.213	-0.277
-413.398	-84.807	0.214	-0.067
-412.384	-92.748	-0.138	-0.039
-411.369	73.624	-0.103	0.107
-410.355	191.935	0.071	0.108
-409.340	97.997	-0.092	0.106
-408.325	-124.923	0.140	-0.022
-407.311	-103.356	0.236	-0.055
-406.296	-200.000	0.055	0.256
-405.282	290.661	0.034	0.062
-404.267	-120.924	0.161	0.027
-403.252	-200.000	-0.055	0.414
-402.238	249.380	-0.254	0.429
-401.223	615.091	-0.128	0.321
-400.209	223.439	-0.230	0.371
-399.194	-27.685	-0.538	0.311
-398.179	-3.277	-0.307	0.213
-397.165	-200.000	0.055	0.291
-396.150	-200.000	0.004	0.433
-395.136	-67.983	-0.191	-0.074
-394.121	-200.000	0.010	-0.277
-393.106	564.698	-0.057	-0.137
-392.092	-200.000	-0.006	-0.114
-391.077	57.325	0.140	0.137
-390.063	-23.343	-0.394	0.236
-389.048	11.373	0.191	0.146
-388.033	-200.000	-0.070	0.338
-387.019	215.031	-0.085	0.134
-386.004	-200.000	0.016	-0.149
-384.990	327.931	0.147	0.282
-383.975	-59.639	0.103	-0.044
-382.960	-200.000	-0.014	0.221
-381.946	110.111	0.238	-0.284
-380.931	-200.000	0.006	-0.037
-379.917	-9.619	0.248	0.165
-378.902	800.000	-0.120	0.364
-377.888	60.887	0.165	-0.163
-376.873	179.137	0.184	0.268
-375.858	162.158	0.257	0.360
-374.844	-26.860	0.123	-0.072
-373.829	515.476	0.105	-0.245
-372.815	-200.000	0.070	0.335
-371.800	-64.708	-0.181	0.073
-370.785	140.904	-0.142	-0.188
-369.771	14.887	-0.315	0.246
-368.756	-19.838	0.105	-0.065
-367.742	735.717	-0.152	-0.407
-366.727	800.000	0.082	0.341
-365.712	-74.270	0.385	0.139
-364.698	-200.000	-0.009	0.075
-363.683	-200.000	-0.016	-0.171
-362.669	196.573	0.266	-0.404
-361.654	131.558	-0.170	0.218
-360.639	-200.000	0.003	0.285
-359.625	-200.000	-0.011	0.049
-358.610	-200.000	-0.019	-0.191
-357.596	296.476	0.079	-0.145
-356.581	-200.000	0.083	-0.517
-355.566	-68.282	0.026	0.010
-354.552	-175.958	0.129	-0.003
-353.537	153.808	-0.182	0.248
-352.523	-16.870	0.401	-0.252
-351.508	-200.000	0.094	-0.000
-350.493	-71.324	-0.112	-0.042
-349.479	-40.080	-0.168	0.087
-348.464	-141.613	-0.047	0.005
-347.450	8.878	0.360	0.270
-346.435	146.163	-0.146	-0.195
-345.420	-138.771	0.256	0.028
-344.406	-84.389	0.322	-0.101
-343.391	-200.000	0.038	-0.172
-342.377	-200.000	0.037	0.166
-341.362	-13.158	0.213	-0.138
-340.348	-170.485	0.457	0.016
-339.333	800.000	-0.042	0.119
-338.318	800.000	0.039	0.114
-337.304	-112.483	0.141	-0.028
-336.289	56.444	0.224	-0.217
-335.275	173.098	-0.065	-0.094
-334.260	53.746	-0.215	0.206
-333.245	-57.669	-0.208	-0.091
-332.231	798.670	0.152	0.418
-331.216	-103.357	0.111	-0.026
-330.202	-200.000	0.018	-0.179
-329.187	-200.000	0.009	-0.256
-328.172	416.398	0.006	0.014
-327.158	570.038	0.059	0.142
-326.143	-69.620	0.279	-0.106
-325.129	800.000	0.085	0.258
-324.114	-0.420	-0.231	0.163
-323.099	-0.529	0.131	-0.092
-322.085	280.558	-0.036	0.064
-321.070	375.244	0.087	0.176
-320.056	103.827	0.112	-0.131
-319.041	118.463	0.090	-0.110
-318.026	-200.000	-0.023	0.284
-317.012	72.154	0.349	-0.361
-315.997	-149.791	0.093	-0.007
-314.983	-13.022	0.188	-0.122
-313.968	-200.000	-0.034	-0.278
-312.953	800.000	0.137	0.425
-311.939	-100.267	-0.049	-0.012
-310.924	800.000	-0.045	0.140
-309.910	-20.857	0.215	-0.131
-308.895	109.556	-0.136	-0.162
-307.880	146.779	-0.068	-0.091
-306.866	-153.092	0.325	0.023
-305.851	-20.460	0.110	-0.067
-304.837	198.631	-0.092	0.140
-303.822	-84.069	0.140	0.044
-302.807	800.000	0.026	-0.081
-301.793	-100.910	0.207	0.051
-300.778	143.422	0.103	0.136
-299.764	-105.788	-0.273	0.061
-298.749	800.000	0.079	-0.344
-297.735	-102.155	-0.102	-0.024
-296.720	-54.868	-0.192	-0.086
-295.705	-180.104	-0.332	-0.007
-294.691	-50.620	0.286	0.134
-293.676	-200.000	0.000	-0.242
-292.662	372.779	0.018	-0.037
-291.647	104.757	0.138	-0.162
-290.632	-35.244	-0.189	0.102
-289.618	29.090	-0.155	0.131
-288.603	188.648	0.078	0.116
-287.589	-200.000	0.012	-0.095
-286.574	-44.135	-0.187	-0.093
-285.559	-102.623	-0.160	0.038
-284.545	800.000	0.127	0.421
-283.530	45.298	0.127	-0.116
-282.516	146.801	-0.056	0.075
-281.501	800.000	-0.034	0.097
-280.486	-115.664	0.177	0.033
-279.472	13.490	-0.122	-0.094
-278.457	-200.000	-0.001	0.078
-277.443	-158.302	-0.318	-0.018
-276.428	-8.415	-0.118	0.079
-275.413	638.982	-0.163	0.411
-274.399	481.940	0.211	-0.475
-273.384	800.000	-0.037	-0.124
-272.370	12.005	0.248	-0.190
-271.355	-166.472	-0.132	0.005
-270.340	-49.422	-0.111	0.053
-269.326	-187.394	-0.356	-0.005
-268.311	496.753	-0.103	-0.235
-267.297	-101.064	0.100	0.024
-266.282	133.674	0.013	0.016
-265.267	-196.655	-0.091	-0.001
-264.253	-76.772	0.064	0.022
-263.238	207.079	0.228	-0.352
-262.224	239.832	-0.146	0.242
-261.209	485.949	-0.059	0.133
-260.195	-61.004	0.238	-0.100
-259.180	-200.000	0.010	0.251
-258.165	-21.896	-0.313	0.189
-257.151	191.314	0.149	0.223
-256.136	-191.596	-0.178	0.002
-255.122	800.000	-0.063	-0.208
-254.107	-200.000	0.058	0.449
-253.092	800.000	-0.049	0.166
-252.078	7.284	-0.346	-0.257
-251.063	-136.120	-0.195	0.023
-250.049	-123.555	-0.099	0.016
-249.034	34.924	-0.425	-0.369
-248.019	-200.000	-0.051	-0.446
-247.005	20.316	-0.129	-0.103
-245.990	-47.508	0.190	-0.091
-244.976	-123.989	0.285	-0.044
-243.961	-141.725	0.246	-0.024
-242.946	169.152	0.109	-0.155
-241.932	-200.000	0.045	0.274
-240.917	56.266	-0.054	0.052
-239.903	-51.022	0.175	0.081
-238.888	438.961	0.040	-0.087
-237.873	262.789	-0.041	0.071
-236.859	-3.308	-0.237	0.164
-235.844	-27.010	-0.215	-0.125
-234.830	-200.000	-0.027	-0.228
-233.815	277.438	0.077	-0.136
-232.800	-15.321	-0.101	0.064
-231.786	38.658	0.158	-0.140
-230.771	53.261	-0.081	0.076
-229.757	-69.619	0.188	-0.071
-228.742	-200.000	0.002	-0.147
-227.727	-200.000	-0.021	-0.102
-226.713	36.585	-0.027	-0.024
-225.698	-200.000	0.014	-0.104
-224.684	8.363	0.223	0.166
-223.669	-200.000	0.006	0.313
-222.655	100.983	-0.049	0.057
-221.640	-129.351	-0.030	0.004
-220.625	120.429	0.028	-0.034
-219.611	686.650	-0.144	0.372
-218.596	-30.009	-0.030	0.017
-217.582	148.471	0.134	-0.180
-216.567	656.913	-0.056	0.142
-215.552	28.626	0.301	-0.252
-214.538	214.775	0.170	0.267
-213.523	-161.509	0.166	-0.008
-212.509	19.808	0.169	0.135
-211.494	-32.167	0.181	-0.100
-210.479	-162.869	0.227	0.011
-209.465	-200.000	0.060	-0.435
-208.450	-200.000	0.069	-0.394
-207.436	-40.925	-0.119	-0.061
-206.421	-94.963	0.277	0.074
-205.406	-186.847	-0.085	0.001
-204.392	17.294	0.192	-0.151
-203.377	-200.000	-0.040	-0.239
-202.363	-200.000	-0.070	0.510
-201.348	0.938	0.287	-0.203
-200.333	411.695	-0.058	-0.121
-199.319	160.917	0.085	-0.118
-198.304	800.000	0.097	0.323
-197.290	-85.761	-0.032	0.010
-196.275	-92.149	-0.091	0.025
-195.260	268.026	-0.163	0.282
-194.246	-6.332	-0.198	-0.134
-193.231	-150.378	-0.193	-0.015
-192.217	155.847	-0.201	-0.275
-191.202	-116.123	-0.217	-0.040
-190.187	-60.034	0.173	0.073
-189.173	537.530	0.104	-0.245
-188.158	-35.383	-0.260	-0.140
-187.144	309.383	0.129	0.239
-186.129	800.000	0.032	0.087
-185.114	81.290	-0.112	0.120
-184.100	-7.354	0.242	-0.162
-183.085	52.341	-0.147	-0.139
-182.071	-15.799	0.253	0.159
-181.056	-200.000	-0.022	-0.247
-180.042	-200.000	0.010	-0.078
-179.027	212.625	0.125	0.196
-178.012	-83.181	-0.179	0.057
-176.998	653.791	-0.037	0.093
-175.983	-41.025	-0.265	0.135
-174.969	-142.195	-0.221	-0.022
-173.954	220.737	0.098	0.155
-172.939	-160.557	-0.124	-0.007
-171.925	-96.322	0.242	-0.063
-170.910	-35.889	0.100	0.053
-169.896	800.000	0.104	0.396
-168.881	-27.006	0.154	-0.089
-167.866	112.759	-0.253	-0.303
-166.852	103.492	0.136	-0.157
-165.837	25.060	-0.074	-0.061
-164.823	-200.000	0.009	0.170
-163.808	191.891	-0.104	-0.155
-162.793	-48.812	0.122	-0.058
-161.779	-200.000	0.013	0.138
-160.764	800.000	-0.072	-0.204
-159.750	-200.000	-0.041	-0.208
-158.735	-60.464	-0.261	0.110
-157.720	-13.360	0.142	0.091
-156.706	70.492	-0.184	0.188
-155.691	-189.881	-0.279	-0.003
-154.677	122.055	-0.100	0.123
-153.662	107.495	-0.096	-0.113
-152.647	800.000	0.040	-0.153
-151.633	17.521	-0.080	0.063
-150.618	800.000	0.129	0.361
-149.604	218.780	0.048	-0.075
-148.589	370.512	-0.033	0.066
-147.574	-200.000	0.015	0.259
-146.560	-200.000	-0.193	0.000
-145.545	800.000	-0.024	-0.097
-144.531	-200.000	-0.011	0.062
-143.516	-69.193	0.259	-0.098
-142.502	-200.000	0.555	0.001
-141.487	-16.093	0.182	0.115
-140.472	218.443	0.063	0.099
-139.458	-102.523	0.075	0.018
-138.443	-200.000	0.002	-0.151
-137.429	94.249	-0.027	-0.030
-136.414	200.867	-0.105	-0.160
-135.399	-5.294	-0.096	0.065
-134.385	-200.000	0.005	0.220
-133.370	-119.664	0.234	0.040
-132.356	-54.979	-0.188	0.084
-131.341	196.839	-0.204	-0.306
-130.326	-14.219	0.175	-0.111
-129.312	3.908	-0.065	0.047
-128.297	-75.276	-0.203	0.071
-127.283	-200.000	0.021	0.112
-126.268	-200.000	0.004	-0.041
-125.253	-200.000	0.021	0.233
-124.239	606.153	0.100	0.246
-123.224	709.644	-0.035	-0.091
-122.210	-200.000	-0.035	-0.210
-121.195	-65.120	-0.444	0.177
