DTS Sentinel unit serial number:	SN413079Multiplexer serial number:	ORYXHardware model number:	OX4-SRSoftware version number:	ORYX F/W v4.00 Oryx Data Collector v3.7.2.0data status	okinstallation	princeton_trtdifferential loss correction	single-endedforward channel	channel 4reverse channel	N/Adate	2019/09/11time	21:15:10forward acquisition time	60.00reverse acquisition time	0.00gamma	496.2192k internal	0.2305k external	0.2305temperature offset calibration	1.0065default loss term (dB/km)	0.3790temperature slope calibration	1.0000multiplexer offset coefficient	1.0000multiplexer slope coefficient	1.0000fibre end	0.00T internal ref (°C)	36.34T ext. ref 1 (°C)	1.57T ext. ref 2 (°C)	30.49length (m)	temperature (°C)	Stokes	anti-Stokes-747.200	84.425	0.202	0.224
-746.185	459.542	-0.128	0.290
-745.171	244.845	0.052	0.089
-744.156	-112.439	-0.370	0.075
-743.142	800.000	0.031	-0.136
-742.127	222.693	0.033	-0.054
-741.112	-163.110	-0.553	0.027
-740.098	-19.785	-0.356	0.224
-739.083	800.000	0.055	0.182
-738.069	355.094	0.190	0.384
-737.054	31.691	-0.160	-0.140
-736.039	107.394	0.255	-0.309
-735.025	113.236	-0.205	0.253
-734.010	-6.802	0.093	-0.064
-732.996	46.940	-0.213	-0.201
-731.981	-128.774	0.075	0.011
-730.966	800.000	-0.016	-0.064
-729.952	199.459	-0.218	-0.339
-728.937	800.000	-0.038	0.121
-727.923	800.000	-0.073	-0.285
-726.908	800.000	0.100	-0.441
-725.894	308.776	0.121	-0.230
-724.879	-119.555	-0.263	0.046
-723.864	27.533	-0.362	-0.309
-722.850	-129.748	-0.133	-0.019
-721.835	181.110	-0.083	-0.124
-720.821	104.255	0.011	-0.013
-719.806	-34.414	0.249	0.139
-718.791	-155.381	0.182	-0.012
-717.777	-31.238	0.250	0.143
-716.762	-146.554	-0.446	-0.039
-715.748	182.893	-0.201	-0.302
-714.733	-98.965	-0.427	-0.110
-713.718	-128.255	-0.206	0.030
-712.704	170.580	-0.294	0.429
-711.689	-200.000	-0.004	0.225
-710.675	265.744	0.008	-0.014
-709.660	-93.862	0.473	0.132
-708.645	257.142	-0.078	-0.137
-707.631	-200.000	-0.002	-0.092
-706.616	-200.000	-0.029	-0.283
-705.602	-98.099	-0.075	0.020
-704.587	72.352	0.147	0.155
-703.572	-87.879	0.380	0.116
-702.558	147.438	0.105	0.143
-701.543	800.000	-0.045	-0.148
-700.529	358.836	0.106	0.215
-699.514	124.284	0.160	-0.204
-698.499	74.508	0.094	0.101
-697.485	-23.507	0.050	-0.030
-696.470	-200.000	0.009	-0.089
-695.456	135.489	-0.149	-0.197
-694.441	220.670	0.048	0.078
-693.426	-95.373	0.200	-0.055
-692.412	800.000	-0.061	0.272
-691.397	-200.000	-0.011	-0.220
-690.383	-45.737	-0.158	-0.079
-689.368	173.389	0.127	-0.187
-688.354	-200.000	0.001	0.145
-687.339	-33.662	-0.171	0.096
-686.324	-44.460	0.156	-0.079
-685.310	-10.898	-0.147	0.099
-684.295	120.034	-0.112	-0.141
-683.281	18.912	0.201	-0.163
-682.266	518.517	-0.039	0.093
-681.251	21.304	0.188	-0.155
-680.237	223.131	0.198	0.324
-679.222	99.531	0.070	0.082
-678.208	-200.000	0.042	0.249
-677.193	800.000	0.069	-0.245
-676.178	71.320	0.234	0.247
-675.164	768.473	-0.034	-0.094
-674.149	152.270	-0.212	-0.293
-673.135	800.000	-0.040	0.172
-672.120	800.000	-0.035	0.131
-671.105	-181.983	0.082	-0.002
-670.091	-200.000	0.012	-0.104
-669.076	23.379	0.233	-0.194
-668.062	-200.000	-0.084	-0.378
-667.047	119.382	-0.079	-0.099
-666.032	31.960	0.181	0.158
-665.018	610.950	0.116	0.295
-664.003	-83.269	-0.189	-0.062
-662.989	-200.000	-0.088	0.000
-661.974	800.000	0.057	-0.228
-660.959	-200.000	-0.009	-0.153
-659.945	102.090	-0.026	-0.031
-658.930	800.000	-0.021	-0.075
-657.916	800.000	0.021	-0.077
-656.901	65.027	-0.018	-0.018
-655.886	800.000	-0.061	-0.203
-654.872	-92.330	0.232	0.066
-653.857	-7.615	-0.246	0.169
-652.843	-179.516	0.299	-0.007
-651.828	227.991	0.080	-0.133
-650.814	-200.000	-0.020	0.181
-649.799	800.000	-0.033	-0.147
-648.784	-200.000	-0.020	0.169
-647.770	524.646	-0.085	-0.204
-646.755	-8.011	-0.571	-0.391
-645.741	183.721	-0.041	-0.062
-644.726	238.099	0.071	-0.120
-643.711	120.964	-0.160	-0.201
-642.697	-122.224	0.246	-0.041
-641.682	-200.000	0.004	0.030
-640.668	82.446	0.194	-0.214
-639.653	263.651	-0.096	-0.169
-638.638	-38.601	-0.258	-0.138
-637.624	185.220	0.136	0.204
-636.609	0.393	-0.257	0.186
-635.595	243.030	-0.235	0.399
-634.580	-33.800	0.162	-0.091
-633.565	-200.000	0.019	-0.549
-632.551	-74.345	0.163	0.060
-631.536	58.005	-0.258	0.256
-630.522	-33.763	0.091	0.051
-629.507	158.217	-0.092	0.129
-628.492	-200.000	0.024	0.196
-627.478	-159.526	-0.537	-0.030
-626.463	-8.857	-0.296	-0.201
-625.449	-139.742	0.346	0.037
-624.434	33.098	0.091	-0.080
-623.419	290.361	-0.070	0.129
-622.405	-129.037	-0.294	0.042
-621.390	-70.648	0.152	-0.058
-620.376	41.201	0.147	0.135
-619.361	29.975	0.052	0.045
-618.346	800.000	-0.076	-0.282
-617.332	-33.588	0.277	0.155
-616.317	-126.338	-0.352	0.053
-615.303	159.925	0.172	-0.242
-614.288	-99.709	0.216	-0.055
-613.273	-200.000	-0.023	-0.203
-612.259	-127.292	-0.238	0.035
-611.244	-200.000	-0.018	0.229
-610.230	367.450	0.036	0.073
-609.215	-200.000	-0.011	-0.300
-608.201	331.763	0.107	-0.210
-607.186	202.834	0.222	-0.347
-606.171	-141.981	-0.067	0.007
-605.157	18.697	-0.181	-0.147
-604.142	-200.000	0.034	-0.488
-603.128	-200.000	0.040	-0.237
-602.113	-123.592	-0.244	0.039
-601.098	800.000	0.145	0.505
-600.084	-200.000	-0.056	0.266
-599.069	-34.664	-0.088	0.049
-598.055	-141.879	0.244	-0.025
-597.040	40.511	-0.099	0.091
-596.025	195.624	0.047	-0.073
-595.011	-157.385	-0.185	0.011
-593.996	-149.037	0.117	0.010
-592.982	565.742	-0.143	0.351
-591.967	55.457	-0.104	0.102
-590.952	-200.000	0.090	-0.000
-589.938	-200.000	-0.050	0.239
-588.923	193.693	-0.037	-0.057
-587.909	-20.075	-0.061	0.038
-586.894	-200.000	0.005	0.028
-585.879	800.000	0.018	0.058
-584.865	-200.000	0.010	0.134
-583.850	800.000	0.036	-0.145
-582.836	-13.604	-0.166	-0.109
-581.821	-114.467	-0.226	-0.044
-580.806	-118.508	-0.273	0.049
-579.792	-200.000	0.006	-0.188
-578.777	40.581	0.071	0.065
-577.763	-10.128	-0.211	-0.142
-576.748	-89.940	0.169	-0.050
-575.733	257.088	-0.022	0.039
-574.719	494.209	0.066	-0.153
-573.704	-200.000	-0.062	-0.388
-572.690	800.000	-0.131	0.442
-571.675	2.745	-0.040	0.030
-570.661	-128.682	0.348	-0.050
-569.646	-200.000	-0.020	-0.138
-568.631	-200.000	0.020	0.112
-567.617	189.962	0.164	0.249
-566.602	602.945	0.016	0.039
-565.588	-35.181	-0.243	-0.134
-564.573	555.887	-0.126	-0.307
-563.558	800.000	-0.028	0.110
-562.544	800.000	-0.050	-0.177
-561.529	301.178	-0.091	-0.170
-560.515	-53.623	-0.335	0.155
-559.500	59.244	-0.105	0.105
-558.485	725.687	-0.097	-0.260
-557.471	800.000	0.104	-0.346
-556.456	202.111	-0.218	-0.339
-555.442	10.321	0.153	0.118
-554.427	-42.185	0.222	0.115
-553.412	-119.511	-0.241	0.042
-552.398	-79.827	0.192	0.065
-551.383	-80.947	-0.240	-0.080
-550.369	14.524	0.045	0.036
-549.354	-200.000	-0.020	-0.180
-548.339	183.995	0.229	0.343
-547.325	33.812	-0.134	-0.117
-546.310	800.000	0.039	-0.162
-545.296	340.023	-0.158	-0.312
-544.281	-200.000	0.018	-0.142
-543.266	-47.080	0.202	0.100
-542.252	-200.000	0.017	0.483
-541.237	202.774	-0.019	0.030
-540.223	14.374	0.302	0.238
-539.208	73.116	0.141	0.149
-538.193	630.255	0.164	-0.419
-537.179	800.000	-0.058	-0.246
-536.164	-57.475	-0.174	-0.077
-535.150	800.000	0.089	-0.272
-534.135	800.000	0.064	0.188
-533.121	-7.862	0.333	-0.227
-532.106	-19.605	-0.177	-0.111
-531.091	166.602	-0.062	0.089
-530.077	-52.403	-0.134	0.062
-529.062	743.783	-0.038	-0.103
-528.048	104.238	-0.136	-0.162
-527.033	-8.256	0.384	-0.261
-526.018	274.818	-0.029	-0.051
-525.004	-7.223	-0.279	0.191
-523.989	-141.927	0.233	0.023
-522.975	-183.662	-0.191	0.003
-521.960	100.204	-0.201	0.235
-520.945	-124.268	-0.047	0.007
-519.931	-145.058	-0.376	0.035
-518.916	-200.000	0.003	0.079
-517.902	-116.756	-0.178	0.033
-516.887	121.168	-0.259	0.325
-515.872	-68.456	-0.275	0.107
-514.858	-200.000	0.012	-0.150
-513.843	636.711	-0.013	-0.034
-512.829	291.878	0.231	-0.424
-511.814	-37.047	0.170	-0.092
-510.799	-66.216	0.286	0.115
-509.785	11.826	0.123	0.096
-508.770	800.000	-0.046	0.164
-507.756	800.000	0.105	-0.306
-506.741	-200.000	0.014	-0.145
-505.726	-25.752	0.189	0.113
-504.712	-26.804	-0.197	0.116
-503.697	-80.723	0.119	0.040
-502.683	2.007	0.090	-0.066
-501.668	-78.895	-0.239	0.082
-500.653	-52.932	0.140	0.065
-499.639	31.448	-0.199	0.172
-498.624	-120.845	-0.377	-0.064
-497.610	-85.038	-0.183	-0.058
-496.595	-200.000	-0.057	-0.303
-495.581	-200.000	0.000	0.248
-494.566	2.173	-0.114	-0.083
-493.551	272.326	-0.106	-0.189
-492.537	275.804	0.105	0.188
-491.522	800.000	-0.011	0.043
-490.508	14.961	-0.136	-0.107
-489.493	216.459	0.112	-0.180
-488.478	38.759	0.143	0.129
-487.464	-104.320	0.088	-0.021
-486.449	235.368	0.180	0.299
-485.435	34.235	0.123	-0.108
-484.420	-147.872	-0.192	-0.016
-483.405	309.054	0.077	0.146
-482.391	799.242	0.142	0.395
-481.376	-200.000	-0.003	-0.142
-480.362	759.117	-0.042	0.115
-479.347	-88.102	0.332	0.100
-478.332	-29.324	-0.287	0.165
-477.318	-200.000	0.020	-0.182
-476.303	-79.625	-0.360	0.122
-475.289	72.984	-0.081	-0.085
-474.274	800.000	-0.048	-0.197
-473.259	-117.823	0.225	-0.041
-472.245	-23.170	0.203	0.123
-471.230	-26.190	0.116	0.069
-470.216	-68.947	0.103	0.040
-469.201	-200.000	-0.071	-0.391
-468.186	-92.241	0.314	0.089
-467.172	-200.000	0.059	-0.333
-466.157	73.644	-0.188	0.198
-465.143	268.337	-0.194	0.342
-464.128	-200.000	0.015	0.083
-463.113	-200.000	-0.013	-0.075
-462.099	-142.801	0.314	-0.031
-461.084	-53.400	-0.403	0.186
-460.070	-175.585	0.145	-0.004
-459.055	-200.000	0.008	-0.136
-458.040	-67.564	-0.173	-0.068
-457.026	107.859	-0.115	-0.138
-456.011	800.000	-0.060	-0.214
-454.997	-21.019	-0.162	-0.100
-453.982	158.871	0.071	0.100
-452.968	-159.478	0.285	-0.016
-451.953	-116.523	-0.269	0.050
-450.938	800.000	0.101	0.339
-449.924	-200.000	0.023	0.270
-448.909	-64.481	0.151	0.062
-447.895	-54.833	-0.325	0.148
-446.880	33.535	-0.140	-0.122
-445.865	545.085	-0.049	0.117
-444.851	-200.000	0.045	0.280
-443.836	-200.000	0.027	-0.289
-442.822	-200.000	-0.106	0.527
-441.807	-13.255	-0.233	0.152
-440.792	-65.010	0.371	-0.151
-439.778	-18.709	0.169	-0.106
-438.763	-50.302	0.039	-0.018
-437.749	-12.705	0.069	-0.045
-436.734	-124.606	0.320	0.050
-435.719	418.105	0.090	0.193
-434.705	703.069	-0.101	-0.269
-433.690	-106.878	0.221	0.049
-432.676	4.127	-0.229	0.168
-431.661	72.321	-0.185	0.194
-430.646	-26.973	-0.161	0.094
-429.632	-89.555	0.068	0.020
-428.617	205.442	-0.100	0.157
-427.603	-168.707	-0.299	-0.011
-426.588	137.529	-0.091	0.120
-425.573	-128.253	-0.116	-0.017
-424.559	502.896	-0.112	0.260
-423.544	-200.000	0.001	-0.238
-422.530	252.763	0.130	-0.223
-421.515	-136.114	-0.311	0.037
-420.500	-180.475	-0.193	0.004
-419.486	299.167	0.035	-0.066
-418.471	-74.548	0.176	-0.064
-417.457	5.558	-0.063	0.047
-416.442	356.233	-0.113	-0.227
-415.428	-62.266	-0.154	0.065
-414.413	-115.960	-0.199	-0.037
-413.398	-200.000	0.118	-0.558
-412.384	36.156	-0.173	0.153
-411.369	241.010	0.109	-0.182
-410.355	800.000	-0.024	0.073
-409.340	800.000	0.116	0.377
-408.325	-186.399	-0.359	-0.005
-407.311	-48.352	0.149	-0.072
-406.296	26.100	0.171	0.143
-405.282	352.210	-0.130	0.258
-404.267	-44.872	0.255	-0.127
-403.252	-69.390	0.284	0.110
-402.238	-200.000	-0.010	0.366
-401.223	-71.532	0.058	0.022
-400.209	-194.083	0.142	-0.001
-399.194	-200.000	-0.055	0.404
-398.179	800.000	0.089	-0.311
-397.165	-66.621	-0.172	-0.068
-396.150	-200.000	-0.000	-0.202
-395.136	800.000	0.049	0.150
-394.121	-4.692	0.124	0.086
-393.106	-125.412	-0.113	-0.017
-392.092	-136.799	0.339	-0.039
-391.077	58.784	0.120	0.119
-390.063	-124.841	-0.338	-0.052
-389.048	-40.431	-0.191	-0.100
-388.033	-128.635	-0.315	0.045
-387.019	2.652	-0.024	-0.017
-386.004	-76.222	0.239	0.085
-384.990	-200.000	-0.006	0.228
-383.975	-157.128	0.179	-0.011
-382.960	800.000	0.079	-0.231
-381.946	328.788	-0.105	0.202
-380.931	-67.119	0.146	-0.058
-379.917	-121.487	-0.015	0.003
-378.902	-109.950	0.300	0.063
-377.888	800.000	0.068	0.245
-376.873	-55.394	-0.186	0.084
-375.858	-78.159	-0.214	0.074
-374.844	513.311	0.138	0.323
-373.829	-24.831	-0.283	0.168
-372.815	-117.028	0.140	-0.026
-371.800	-119.921	-0.198	0.034
-370.785	356.085	0.049	-0.097
-369.771	-88.915	0.350	-0.104
-368.756	-200.000	-0.010	0.064
-367.742	-55.856	-0.423	-0.190
-366.727	-176.711	0.184	-0.005
-365.712	154.910	-0.103	0.142
-364.698	185.914	-0.195	-0.291
-363.683	-95.826	0.136	0.036
-362.669	-131.433	-0.283	0.038
-361.654	109.568	-0.060	0.072
-360.639	800.000	0.049	0.191
-359.625	555.729	0.088	-0.212
-358.610	197.257	-0.067	-0.103
-357.596	-200.000	0.062	-0.299
-356.581	200.067	0.110	-0.170
-355.566	800.000	-0.006	0.017
-354.552	528.184	-0.124	-0.292
-353.537	800.000	-0.073	-0.314
-352.523	4.595	0.310	0.228
-351.508	800.000	-0.070	0.226
-350.493	-122.351	-0.169	-0.028
-349.479	155.885	-0.165	-0.227
-348.464	-65.770	0.070	-0.028
-347.450	284.127	-0.062	-0.112
-346.435	-131.875	-0.192	-0.025
-345.420	388.822	-0.070	-0.144
-344.406	-200.000	-0.040	0.414
-343.391	-141.157	-0.129	-0.013
-342.377	-49.291	0.151	-0.072
-341.362	-60.496	-0.144	0.061
-340.348	-20.860	0.303	0.186
-339.333	-33.067	0.265	0.148
-338.318	202.098	-0.110	0.170
-337.304	-200.000	-0.012	-0.089
-336.289	-200.000	0.055	0.444
-335.275	-112.963	0.429	0.085
-334.260	800.000	-0.071	-0.305
-333.245	-123.053	0.159	-0.026
-332.231	74.560	0.040	-0.042
-331.216	171.563	-0.120	-0.172
-330.202	-107.182	0.228	0.050
-329.187	58.420	0.235	-0.231
-328.172	-200.000	0.033	0.388
-327.158	132.903	-0.210	0.271
-326.143	87.872	0.103	-0.114
-325.129	36.678	-0.287	-0.253
-324.114	28.538	-0.185	-0.157
-323.099	800.000	0.040	0.132
-322.085	233.289	0.140	-0.230
-321.070	-68.361	0.215	-0.084
-320.056	-200.000	0.015	-0.077
-319.041	-26.683	0.302	0.177
-318.026	247.435	0.073	0.123
-317.012	-200.000	-0.034	0.244
-315.997	800.000	0.054	-0.167
-314.983	-168.771	0.090	-0.003
-313.968	-100.165	-0.173	0.043
-312.953	466.112	0.026	-0.059
-311.939	-200.000	-0.005	0.169
-310.924	-50.439	0.109	0.051
-309.910	155.959	0.085	-0.117
-308.895	-104.494	-0.256	0.059
-307.880	148.880	0.090	0.122
-306.866	495.251	0.122	-0.280
-305.851	312.825	-0.069	-0.130
-304.837	325.880	0.080	0.154
-303.822	-133.391	0.067	0.008
-302.807	-200.000	-0.022	0.164
-301.793	494.815	0.035	0.081
-300.778	293.074	-0.036	0.066
-299.764	-6.972	0.207	-0.141
-298.749	-98.213	0.104	0.027
-297.735	-200.000	0.020	0.163
-296.720	225.803	0.097	-0.158
-295.705	-200.000	-0.044	-0.245
-294.691	-200.000	0.008	-0.142
-293.676	-122.039	0.444	-0.073
-292.662	-36.494	0.144	0.078
-291.647	94.370	0.181	0.206
-290.632	130.524	-0.262	-0.336
-289.618	-35.762	0.132	0.071
-288.603	800.000	0.056	-0.156
-287.589	8.404	0.143	0.108
-286.574	6.731	-0.182	-0.135
-285.559	-200.000	-0.006	-0.124
-284.545	-160.764	-0.258	0.014
-283.530	195.695	0.213	-0.323
-282.516	348.339	-0.117	0.230
-281.501	-134.658	0.266	0.032
-280.486	12.949	0.067	-0.052
-279.472	-79.581	0.218	-0.073
-278.457	-200.000	-0.039	-0.424
-277.443	800.000	-0.051	-0.160
-276.428	-103.322	0.119	-0.028
-275.413	-200.000	0.011	0.198
-274.399	-92.580	-0.167	0.047
-273.384	-38.596	0.035	0.019
-272.370	-200.000	-0.067	-0.306
-271.355	220.964	-0.163	-0.262
-270.340	800.000	0.168	0.477
-269.326	-164.515	-0.397	-0.018
-268.311	-37.252	-0.026	0.014
-267.297	145.313	0.063	-0.084
-266.282	-172.797	0.252	0.008
-265.267	248.874	0.129	-0.218
-264.253	-141.982	0.106	0.011
-263.238	-111.962	0.147	0.030
-262.224	39.021	0.261	-0.233
-261.209	3.985	-0.185	0.135
-260.195	30.732	0.111	0.095
-259.180	800.000	0.037	-0.136
-258.165	70.909	-0.141	0.145
-257.151	-61.336	0.191	0.080
-256.136	-52.786	0.126	0.058
-255.122	123.173	0.244	0.306
-254.107	29.339	0.216	0.183
-253.092	800.000	-0.048	0.160
-252.078	133.674	-0.143	0.184
-251.063	3.343	-0.128	-0.093
-250.049	-40.750	0.083	-0.043
-249.034	-168.542	0.270	0.010
-248.019	-200.000	0.012	0.387
-247.005	150.021	0.129	0.174
-245.990	145.335	0.134	-0.179
-244.976	-40.801	0.142	0.074
-243.961	306.222	0.126	-0.234
-242.946	-14.094	-0.157	0.101
-241.932	-83.397	0.397	0.127
-240.917	-105.904	0.083	0.019
-239.903	-37.791	0.300	0.159
-238.888	-120.052	0.330	0.056
-237.873	800.000	0.062	0.181
-236.859	-151.554	0.116	-0.009
-235.844	270.506	0.124	-0.217
-234.830	-200.000	-0.029	-0.395
-233.815	800.000	0.073	0.212
-232.800	57.860	0.166	-0.162
-231.786	-74.671	0.113	-0.040
-230.771	-138.101	-0.225	0.025
-229.757	-48.632	-0.067	-0.032
-228.742	800.000	0.030	0.123
-227.727	208.907	-0.147	-0.229
-226.713	-27.723	0.331	-0.191
-225.698	-200.000	-0.216	0.000
-224.684	201.498	0.043	0.065
-223.669	-137.433	0.177	0.020
-222.655	-152.463	-0.271	-0.019
-221.640	800.000	-0.142	-0.561
-220.625	81.023	-0.086	0.093
-219.611	-76.929	-0.246	-0.086
-218.596	272.791	0.046	-0.080
-217.582	156.822	-0.049	-0.068
-216.567	491.428	-0.009	0.021
-215.552	198.031	-0.161	0.245
-214.538	-23.795	0.034	0.020
-213.523	58.350	0.145	-0.142
-212.509	-93.041	-0.343	0.095
-211.494	295.901	-0.108	0.197
-210.479	86.485	-0.161	0.177
-209.465	253.313	-0.319	0.544
-208.450	-200.000	0.022	0.106
-207.436	78.702	-0.123	-0.131
-206.421	800.000	0.069	0.268
-205.406	-120.775	0.282	0.047
-204.392	800.000	-0.039	-0.132
-203.377	195.932	0.082	-0.125
-202.363	512.204	-0.120	-0.280
-201.348	-52.779	0.226	0.104
-200.333	13.352	0.221	-0.170
-199.319	-39.950	0.179	-0.093
-198.304	-200.000	0.061	0.534
-197.290	303.057	0.019	0.036
-196.275	-200.000	-0.014	-0.176
-195.260	800.000	0.047	-0.168
-194.246	343.282	0.048	-0.094
-193.231	-114.197	-0.250	0.048
-192.217	800.000	-0.107	0.323
-191.202	-200.000	0.009	-0.058
-190.187	-200.000	-0.023	-0.318
-189.173	554.857	-0.037	0.089
-188.158	4.138	-0.179	-0.130
-187.144	-11.417	0.307	0.201
-186.129	-200.000	-0.061	0.269
-185.114	-200.000	-0.020	-0.175
-184.100	-87.982	-0.426	0.127
-183.085	-200.000	-0.018	0.265
-182.071	-200.000	0.003	0.035
-181.056	117.523	-0.247	-0.302
-180.042	376.086	0.140	0.285
-179.027	800.000	0.060	0.252
-178.012	79.460	0.096	0.103
-176.998	61.169	0.246	0.243
-175.983	66.083	0.117	0.118
-174.969	-28.694	-0.198	-0.113
-173.954	217.309	-0.161	-0.255
-172.939	-163.621	0.183	0.009
-171.925	209.455	-0.165	0.258
-170.910	-197.036	0.229	-0.001
-169.896	-54.487	-0.150	-0.068
-168.881	420.700	-0.115	-0.245
-167.866	60.829	0.074	-0.073
-166.852	-79.719	0.104	-0.035
-165.837	-200.000	-0.000	-0.075
-164.823	215.340	-0.093	0.147
-163.808	800.000	0.035	0.110
-162.793	176.179	0.040	0.058
-161.779	-182.276	-0.210	0.004
-160.764	201.719	-0.171	-0.262
-159.750	-200.000	-0.012	-0.097
-158.735	-46.293	-0.145	0.071
-157.720	-200.000	-0.021	0.200
-156.706	82.057	0.172	0.185
-155.691	723.569	0.093	-0.248
-154.677	-71.990	-0.121	-0.045
-153.662	-59.753	0.206	-0.088
-152.647	252.292	0.064	-0.108
-151.633	38.830	0.111	-0.098
-150.618	-137.780	0.280	-0.031
-149.604	-99.146	-0.056	0.014
-148.589	-132.397	0.157	-0.020
-147.574	415.641	0.042	-0.090
-146.560	31.767	-0.080	-0.068
-145.545	-77.309	-0.319	0.110
-144.531	800.000	-0.016	-0.048
-143.516	800.000	-0.033	-0.106
-142.502	800.000	0.036	0.105
-141.487	94.205	-0.069	-0.078
-140.472	-107.764	0.237	-0.051
-139.458	-107.780	0.309	-0.067
-138.443	167.323	-0.055	0.077
-137.429	147.275	0.116	0.156
-136.414	82.225	-0.174	0.188
-135.399	-200.000	0.012	0.075
-134.385	120.385	-0.152	-0.188
-133.370	800.000	0.040	0.138
-132.356	34.910	-0.311	-0.271
-131.341	68.289	0.365	-0.372
-130.326	-200.000	-0.010	0.126
-129.312	-152.362	0.269	-0.019
-128.297	95.534	-0.145	0.165
-127.283	270.640	-0.140	0.244
-126.268	-200.000	-0.044	0.269
-125.253	-127.790	0.086	0.012
-124.239	155.003	-0.157	0.214
-123.224	-58.412	0.389	0.168
-122.210	-25.441	-0.184	-0.108
-121.195	-32.192	0.071	-0.040
