DTS Sentinel unit serial number:	SN413079Multiplexer serial number:	ORYXHardware model number:	OX4-SRSoftware version number:	ORYX F/W v4.00 Oryx Data Collector v3.7.2.0data status	okinstallation	princeton_trtdifferential loss correction	single-endedforward channel	channel 4reverse channel	N/Adate	2019/09/12time	22:01:35forward acquisition time	60.00reverse acquisition time	0.00gamma	496.2192k internal	0.2315k external	0.2315temperature offset calibration	1.0176default loss term (dB/km)	0.3790temperature slope calibration	1.0000multiplexer offset coefficient	1.0000multiplexer slope coefficient	1.0000fibre end	0.00T internal ref (°C)	30.05T ext. ref 1 (°C)	3.74T ext. ref 2 (°C)	24.55length (m)	temperature (°C)	Stokes	anti-Stokes-747.200	137.534	-0.167	0.221
-746.185	-200.000	-0.008	-0.228
-745.171	373.880	0.091	0.187
-744.156	-107.745	-0.109	-0.024
-743.142	-26.819	-0.251	0.149
-742.127	-200.000	0.022	-0.145
-741.112	43.295	0.339	-0.314
-740.098	-200.000	-0.032	0.191
-739.083	-90.852	-0.395	0.115
-738.069	467.400	-0.145	0.330
-737.054	111.456	-0.138	0.169
-736.039	-158.164	-0.515	0.031
-735.025	-63.887	-0.212	0.088
-734.010	-20.003	-0.124	0.078
-732.996	13.153	-0.070	0.055
-731.981	351.650	-0.078	-0.157
-730.966	-151.183	-0.108	0.008
-729.952	8.535	-0.388	-0.296
-728.937	41.023	0.275	0.251
-727.923	38.753	-0.062	0.056
-726.908	-34.085	-0.323	-0.180
-725.894	343.386	-0.086	0.171
-724.879	-200.000	-0.001	-0.015
-723.864	349.073	0.181	-0.361
-722.850	176.855	0.045	-0.066
-721.835	-59.462	-0.150	0.065
-720.821	800.000	-0.036	-0.155
-719.806	-136.281	-0.193	0.023
-718.791	205.441	-0.036	0.057
-717.777	41.378	-0.093	-0.085
-716.762	-200.000	-0.006	-0.526
-715.748	72.007	-0.466	0.491
-714.733	-99.808	0.199	0.050
-713.718	81.786	0.056	-0.061
-712.704	-108.574	0.404	0.088
-711.689	-27.127	0.271	0.160
-710.675	-99.862	0.071	0.018
-709.660	-85.740	-0.170	0.053
-708.645	-49.445	0.293	0.141
-707.631	148.556	-0.039	0.053
-706.616	23.299	0.202	-0.168
-705.602	-200.000	-0.030	-0.215
-704.587	-185.784	0.255	0.004
-703.572	306.438	-0.186	-0.351
-702.558	156.841	0.189	-0.264
-701.543	-128.738	0.237	-0.034
-700.529	-191.124	0.256	0.003
-699.514	-200.000	0.008	0.055
-698.499	-111.060	0.011	0.002
-697.485	-200.000	0.019	0.104
-696.470	5.154	0.112	-0.083
-695.456	-24.293	0.209	-0.126
-694.441	-29.925	-0.091	0.052
-693.426	-200.000	-0.004	-0.078
-692.412	245.674	0.057	-0.097
-691.397	-64.785	-0.272	0.111
-690.383	-136.298	0.255	0.030
-689.368	-200.000	-0.021	-0.145
-688.354	7.036	0.399	0.301
-687.339	-49.479	-0.326	-0.157
-686.324	457.196	0.141	-0.317
-685.310	-200.000	-0.002	-0.031
-684.295	-200.000	-0.072	-0.441
-683.281	367.198	0.102	-0.209
-682.266	-85.163	-0.298	0.094
-681.251	-200.000	-0.061	0.465
-680.237	800.000	-0.105	-0.367
-679.222	-175.649	-0.064	0.002
-678.208	-8.649	-0.126	0.086
-677.193	-200.000	-0.049	0.271
-676.178	149.007	-0.164	-0.224
-675.164	-134.812	0.178	0.022
-674.149	-83.354	-0.072	0.023
-673.135	-200.000	0.041	-0.205
-672.120	577.058	0.053	-0.131
-671.105	211.185	-0.230	-0.365
-670.091	-86.736	-0.209	0.064
-669.076	-77.182	0.179	-0.063
-668.062	277.089	0.030	-0.054
-667.047	-82.689	-0.122	-0.040
-666.032	-174.115	-0.341	-0.010
-665.018	-20.357	-0.204	0.127
-664.003	-110.936	-0.257	-0.053
-662.989	-25.209	-0.221	-0.132
-661.974	10.763	0.061	-0.047
-660.959	10.576	-0.260	-0.200
-659.945	20.904	0.192	0.157
-658.930	-35.352	-0.221	0.121
-657.916	-18.286	-0.107	-0.068
-656.901	-24.786	0.106	0.063
-655.886	800.000	0.099	0.282
-654.872	13.539	-0.220	-0.172
-653.857	17.590	0.027	0.021
-652.843	-105.040	0.119	-0.027
-651.828	800.000	0.037	0.111
-650.814	-109.056	-0.224	-0.048
-649.799	-200.000	-0.010	-0.069
-648.784	-13.961	-0.023	-0.015
-647.770	17.430	0.229	-0.183
-646.755	115.824	-0.024	-0.030
-645.741	111.101	0.029	0.036
-644.726	37.186	-0.056	-0.050
-643.711	48.578	0.185	0.175
-642.697	49.464	-0.193	0.183
-641.682	590.490	-0.021	-0.052
-640.668	-32.213	0.343	0.193
-639.653	98.952	0.011	-0.013
-638.638	-115.859	0.159	-0.030
-637.624	579.255	-0.072	0.177
-636.609	503.103	0.068	0.159
-635.595	-71.182	0.284	-0.108
-634.580	800.000	-0.036	0.102
-633.565	-55.037	-0.224	-0.102
-632.551	-127.279	0.264	-0.039
-631.536	-200.000	-0.045	0.236
-630.522	70.834	-0.082	0.086
-629.507	-146.691	-0.314	0.027
-628.492	-38.676	-0.210	-0.112
-627.478	449.598	-0.057	-0.127
-626.463	-20.859	0.421	-0.260
-625.449	-125.570	0.278	-0.043
-624.434	-23.327	-0.168	0.102
-623.419	800.000	-0.146	-0.488
-622.405	-200.000	-0.021	0.263
-621.390	-200.000	0.008	-0.150
-620.376	-200.000	0.009	-0.279
-619.361	-195.557	-0.062	0.000
-618.346	343.707	0.089	0.176
-617.332	-200.000	0.012	-0.233
-616.317	-116.847	0.170	0.031
-615.303	530.609	-0.066	0.158
-614.288	-200.000	0.063	0.345
-613.273	91.433	-0.076	-0.087
-612.259	9.410	0.146	-0.111
-611.244	800.000	-0.026	-0.076
-610.230	-33.845	0.126	-0.070
-609.215	-8.952	-0.085	-0.058
-608.201	38.003	-0.279	0.250
-607.186	800.000	0.043	0.131
-606.171	774.441	-0.027	-0.075
-605.157	-99.305	-0.411	-0.105
-604.142	800.000	0.103	0.292
-603.128	368.106	0.101	-0.205
-602.113	456.805	0.060	0.134
-601.098	-23.988	0.082	-0.049
-600.084	-136.305	0.168	-0.020
-599.069	98.650	-0.206	0.239
-598.055	-13.967	-0.067	0.044
-597.040	99.790	0.208	-0.243
-596.025	112.126	-0.088	-0.107
-595.011	-82.525	0.394	-0.129
-593.996	98.290	-0.099	-0.115
-592.982	13.172	0.245	-0.191
-591.967	179.176	-0.053	-0.078
-590.952	-80.454	-0.040	-0.013
-589.938	499.430	-0.056	-0.129
-588.923	-22.019	0.066	-0.040
-587.909	-14.016	0.134	0.087
-586.894	58.996	-0.184	-0.182
-585.879	79.676	0.216	-0.233
-584.865	167.111	-0.063	0.090
-583.850	-200.000	-0.065	0.311
-582.836	-49.905	-0.247	-0.118
-581.821	52.642	0.409	-0.393
-580.806	800.000	0.056	-0.171
-579.792	-200.000	-0.008	0.066
-578.777	20.168	0.084	-0.068
-577.763	-106.359	-0.102	-0.023
-576.748	800.000	0.024	-0.067
-575.733	-42.269	-0.076	0.039
-574.719	20.358	-0.127	0.103
-573.704	-175.827	0.089	-0.002
-572.690	-35.140	0.086	-0.047
-571.675	-200.000	0.004	0.125
-570.661	800.000	0.061	-0.197
-569.646	362.406	0.066	0.134
-568.631	294.410	0.050	-0.092
-567.617	146.050	0.127	-0.171
-566.602	20.511	0.072	0.059
-565.588	223.026	-0.073	0.118
-564.573	-200.000	0.012	0.097
-563.558	800.000	-0.026	0.094
-562.544	-145.551	0.255	0.023
-561.529	338.867	-0.185	0.362
-560.515	-78.258	-0.191	-0.066
-559.500	-131.511	-0.160	-0.021
-558.485	-108.864	-0.406	0.087
-557.471	164.958	0.198	0.281
-556.456	-52.556	-0.058	0.027
-555.442	53.149	-0.291	0.281
-554.427	200.049	-0.176	0.272
-553.412	800.000	0.060	0.197
-552.398	68.114	-0.213	0.219
-551.383	-71.165	-0.281	0.106
-550.369	-113.682	0.274	0.054
-549.354	800.000	-0.021	-0.068
-548.339	79.653	-0.196	-0.212
-547.325	411.094	-0.082	0.175
-546.310	-112.041	0.070	0.014
-545.296	-50.757	0.037	0.017
-544.281	-109.789	0.232	-0.049
-543.266	23.126	-0.235	-0.194
-542.252	-121.272	-0.118	0.020
-541.237	800.000	-0.110	-0.362
-540.223	-200.000	-0.011	0.177
-539.208	345.170	-0.122	0.241
-538.193	-88.026	0.107	0.032
-537.179	800.000	0.077	-0.234
-536.164	800.000	-0.124	0.367
-535.150	-200.000	0.072	0.366
-534.135	-59.610	0.190	0.082
-533.121	238.777	-0.054	-0.090
-532.106	440.632	0.137	0.301
-531.091	-200.000	-0.037	0.261
-530.077	-47.318	-0.307	-0.150
-529.062	-24.436	0.125	-0.075
-528.048	-62.110	0.151	-0.063
-527.033	-200.000	-0.066	0.381
-526.018	427.828	-0.086	0.186
-525.004	-131.974	-0.388	-0.051
-523.989	800.000	0.133	0.400
-522.975	-200.000	-0.003	0.324
-521.960	-200.000	-0.053	-0.280
-520.945	-200.000	0.009	-0.070
-519.931	-200.000	-0.031	0.323
-518.916	800.000	-0.062	-0.223
-517.902	-200.000	0.005	-0.243
-516.887	127.125	0.136	-0.173
-515.872	551.380	-0.013	0.031
-514.858	-125.643	0.120	-0.018
-513.843	-200.000	0.000	0.013
-512.829	-200.000	-0.003	0.029
-511.814	-200.000	-0.030	0.224
-510.799	-115.355	0.460	-0.087
-509.785	-186.066	-0.281	-0.004
-508.770	69.780	-0.172	0.178
-507.756	-200.000	0.021	0.199
-506.741	-114.199	-0.361	-0.070
-505.726	71.553	-0.144	-0.150
-504.712	26.240	0.115	-0.096
-503.697	800.000	-0.054	0.181
-502.683	3.202	-0.298	-0.217
-501.668	-75.354	0.152	-0.054
-500.653	-127.374	0.159	-0.023
-499.639	800.000	0.056	0.205
-498.624	-82.297	-0.381	-0.124
-497.610	-136.957	0.339	-0.039
-496.595	314.733	0.058	0.110
-495.581	19.646	0.089	0.072
-494.566	-112.002	0.170	-0.034
-493.551	-200.000	0.068	-0.337
-492.537	96.011	0.073	-0.084
-491.522	-200.000	0.019	0.133
-490.508	120.033	0.171	0.213
-489.493	-152.233	0.198	0.014
-488.478	344.892	-0.050	0.098
-487.464	-200.000	-0.017	-0.150
-486.449	48.533	0.217	0.204
-485.435	-9.380	0.121	-0.081
-484.420	12.380	0.251	-0.194
-483.405	-200.000	0.050	0.387
-482.391	-27.743	-0.093	0.054
-481.376	-127.212	-0.408	-0.060
-480.362	327.311	-0.066	0.127
-479.347	-120.811	0.240	-0.041
-478.332	212.732	0.319	-0.505
-477.318	166.727	0.136	-0.193
-476.303	-200.000	-0.059	0.396
-475.289	27.733	0.206	0.174
-474.274	-200.000	-0.015	-0.295
-473.259	520.049	-0.163	-0.384
-472.245	-87.158	-0.138	0.042
-471.230	-151.677	-0.135	0.010
-470.216	-87.248	-0.334	0.102
-469.201	334.083	-0.048	-0.092
-468.186	800.000	0.020	-0.064
-467.172	79.734	-0.251	0.270
-466.157	-31.164	0.240	0.136
-465.143	800.000	-0.069	0.256
-464.128	3.368	0.071	-0.052
-463.113	-104.347	-0.401	0.093
-462.099	42.709	0.185	0.169
-461.084	-122.854	0.289	0.047
-460.070	304.848	0.104	-0.194
-459.055	-2.555	0.202	-0.141
-458.040	763.487	0.037	0.100
-457.026	771.031	-0.079	0.215
-456.011	663.982	-0.047	-0.121
-454.997	-200.000	-0.016	-0.113
-453.982	-29.785	-0.278	-0.159
-452.968	-92.759	-0.430	-0.121
-451.953	-106.952	0.205	-0.045
-450.938	-105.955	0.323	0.073
-449.924	-31.701	0.219	-0.123
-448.909	148.518	0.200	-0.271
-447.895	-55.016	-0.187	-0.084
-446.880	-200.000	-0.009	-0.209
-445.865	44.750	-0.185	0.171
-444.851	13.601	-0.064	-0.050
-443.836	-34.944	-0.089	0.048
-442.822	457.812	0.103	0.230
-441.807	210.973	-0.087	0.137
-440.792	642.378	-0.083	-0.212
-439.778	-200.000	0.036	0.250
-438.763	-86.679	-0.285	0.087
-437.749	-84.191	-0.170	0.054
-436.734	-200.000	-0.068	0.316
-435.719	56.225	0.114	0.111
-434.705	96.402	0.143	0.164
-433.690	-200.000	0.015	0.395
-432.676	800.000	0.071	-0.266
-431.661	-200.000	0.028	0.158
-430.646	208.073	-0.252	0.394
-429.632	-79.746	0.099	0.033
-428.617	-12.598	0.195	0.127
-427.603	111.423	-0.141	-0.170
-426.588	-83.658	-0.354	-0.113
-425.573	-72.854	-0.300	0.110
-424.559	-200.000	0.015	0.195
-423.544	143.290	-0.159	0.212
-422.530	626.336	0.080	-0.202
-421.515	53.765	0.246	-0.237
-420.500	82.239	-0.098	-0.106
-419.486	-50.241	-0.121	-0.057
-418.471	-43.890	0.363	-0.183
-417.457	-200.000	0.019	0.268
-416.442	191.241	-0.129	-0.195
-415.428	-20.856	-0.162	-0.100
-414.413	374.166	0.138	-0.281
-413.398	20.558	0.019	-0.016
-412.384	662.293	-0.066	-0.170
-411.369	-200.000	0.051	-0.306
-410.355	178.372	-0.203	0.296
-409.340	551.052	-0.027	-0.066
-408.325	-200.000	0.018	-0.326
-407.311	-102.362	0.205	-0.049
-406.296	156.534	-0.101	0.139
-405.282	-56.669	-0.212	-0.094
-404.267	504.886	0.036	0.083
-403.252	-200.000	-0.014	0.120
-402.238	158.385	-0.053	0.074
-401.223	-200.000	-0.021	0.146
-400.209	-105.614	-0.130	0.030
-399.194	-87.502	-0.020	-0.006
-398.179	58.973	0.127	0.125
-397.165	0.451	-0.177	0.126
-396.150	214.804	-0.107	-0.170
-395.136	150.153	0.255	-0.345
-394.121	-200.000	0.000	-0.184
-393.106	-62.089	0.302	-0.126
-392.092	-68.744	0.323	-0.125
-391.077	-131.454	-0.123	-0.016
-390.063	-200.000	0.010	-0.109
-389.048	-53.883	0.013	-0.006
-388.033	390.042	0.017	-0.034
-387.019	-85.928	0.068	0.021
-386.004	69.852	0.324	-0.333
-384.990	800.000	0.029	-0.111
-383.975	-7.638	0.139	-0.094
-382.960	800.000	-0.085	-0.236
-381.946	-200.000	-0.025	0.114
-380.931	233.996	-0.088	-0.145
-379.917	-200.000	-0.028	0.137
-378.902	152.970	0.098	-0.133
-377.888	-29.355	-0.202	-0.115
-376.873	-200.000	0.010	-0.451
-375.858	-84.784	0.173	0.054
-374.844	-96.753	-0.136	-0.036
-373.829	800.000	-0.047	-0.136
-372.815	-113.558	0.141	-0.027
-371.800	9.849	0.279	0.211
-370.785	375.986	0.115	0.234
-369.771	-121.737	0.300	0.050
-368.756	800.000	0.148	-0.521
-367.742	373.520	0.134	0.272
-366.727	-163.862	-0.152	0.007
-365.712	-42.635	0.410	0.208
-364.698	209.602	-0.096	0.151
-363.683	121.453	0.166	0.206
-362.669	-200.000	0.004	-0.197
-361.654	-112.170	0.120	-0.024
-360.639	-85.128	0.129	-0.040
-359.625	800.000	-0.034	0.144
-358.610	-83.891	-0.368	-0.117
-357.596	-156.280	0.244	0.015
-356.581	29.257	-0.067	-0.057
-355.566	3.440	0.335	0.244
-354.552	-14.993	-0.199	0.127
-353.537	188.546	0.095	0.141
-352.523	-200.000	-0.000	0.220
-351.508	350.558	0.077	0.152
-350.493	-200.000	-0.014	0.083
-349.479	-200.000	-0.206	-0.001
-348.464	86.200	-0.238	-0.262
-347.450	800.000	0.012	-0.043
-346.435	63.096	-0.217	-0.217
-345.420	800.000	-0.075	-0.249
-344.406	-200.000	-0.037	0.278
-343.391	800.000	-0.092	-0.317
-342.377	99.352	-0.240	-0.277
-341.362	67.165	0.083	-0.084
-340.348	-200.000	0.032	-0.248
-339.333	31.480	-0.048	0.041
-338.318	-68.324	0.227	-0.088
-337.304	-43.540	0.189	0.095
-336.289	-200.000	0.006	-0.363
-335.275	367.850	0.149	-0.301
-334.260	-144.935	0.361	-0.033
-333.245	259.956	0.041	-0.071
-332.231	-3.875	0.122	0.085
-331.216	-64.106	-0.388	0.158
-330.202	165.002	0.180	-0.254
-329.187	47.280	-0.120	-0.111
-328.172	800.000	-0.054	0.193
-327.158	-44.692	0.317	-0.158
-326.143	-112.970	-0.157	0.031
-325.129	-200.000	-0.015	0.108
-324.114	-45.432	-0.081	0.040
-323.099	-153.779	-0.054	-0.004
-322.085	-35.663	-0.160	0.087
-321.070	100.473	-0.056	0.065
-320.056	663.317	-0.065	-0.167
-319.041	39.990	0.040	-0.036
-318.026	686.800	-0.093	-0.243
-317.012	-105.089	0.220	-0.050
-315.997	-68.290	0.377	-0.146
-314.983	-200.000	-0.067	-0.419
-313.968	-10.500	-0.162	-0.107
-312.953	654.427	-0.052	0.134
-311.939	186.420	0.175	0.259
-310.924	-200.000	-0.019	0.229
-309.910	800.000	-0.085	-0.313
-308.895	-67.982	-0.196	-0.076
-307.880	70.735	-0.110	-0.113
-306.866	22.395	-0.137	0.111
-305.851	-89.769	-0.147	-0.043
-304.837	234.010	0.107	-0.176
-303.822	-22.237	-0.212	-0.128
-302.807	73.231	-0.065	-0.068
-301.793	70.893	-0.163	0.169
-300.778	-200.000	-0.001	0.132
-299.764	-46.827	0.111	0.054
-298.749	-200.000	0.012	-0.097
-297.735	-64.773	0.337	0.136
-296.720	-200.000	0.013	-0.154
-295.705	-52.398	-0.268	-0.124
-294.691	150.707	-0.190	0.257
-293.676	-71.761	0.250	-0.093
-292.662	-2.880	0.221	0.154
-291.647	800.000	0.052	0.145
-290.632	-77.692	0.101	0.035
-289.618	7.793	0.344	-0.256
-288.603	183.502	-0.045	0.067
-287.589	-53.533	0.203	0.092
-286.574	800.000	-0.129	0.366
-285.559	278.819	0.162	-0.287
-284.545	-140.169	-0.047	0.005
-283.530	-200.000	0.051	0.372
-282.516	1.769	0.251	0.180
-281.501	88.672	-0.053	0.058
-280.486	98.630	-0.052	0.059
-279.472	20.914	-0.032	0.025
-278.457	800.000	0.075	-0.254
-277.443	162.431	0.088	0.123
-276.428	-134.188	-0.190	-0.023
-275.413	514.205	-0.118	0.275
-274.399	-67.106	0.240	-0.094
-273.384	743.400	-0.062	-0.165
-272.370	-45.376	-0.141	0.069
-271.355	96.012	0.083	0.095
-270.340	-100.696	-0.073	0.018
-269.326	-200.000	0.020	0.310
-268.311	136.432	-0.035	0.045
-267.297	-120.200	0.212	0.036
-266.282	-35.842	-0.249	-0.134
-265.267	317.426	-0.019	0.036
-264.253	109.566	-0.198	-0.236
-263.238	300.654	0.118	-0.216
-262.224	65.554	0.358	-0.360
-261.209	-167.696	-0.120	0.005
-260.195	-66.956	-0.143	-0.056
-259.180	177.596	0.026	0.038
-258.165	32.511	-0.267	-0.229
-257.151	-79.255	-0.300	0.101
-256.136	800.000	-0.077	-0.267
-255.122	-98.707	0.429	-0.109
-254.107	-138.925	-0.314	0.034
-253.092	-200.000	0.033	-0.281
-252.078	-15.044	-0.172	-0.109
-251.063	111.674	-0.267	0.321
-250.049	-200.000	-0.030	0.302
-249.034	-148.817	0.138	0.011
-248.019	-86.302	0.076	0.023
-247.005	-200.000	-0.036	-0.202
-245.990	-78.284	-0.199	0.068
-244.976	-62.908	0.259	0.106
-243.961	739.838	-0.073	0.196
-242.946	-188.088	0.103	0.001
-241.932	145.640	0.112	0.149
-240.917	-84.647	-0.459	-0.144
-239.903	119.436	0.045	-0.056
-238.888	683.828	-0.031	0.080
-237.873	64.058	0.118	-0.118
-236.859	669.567	-0.059	-0.152
-235.844	-73.102	0.097	0.035
-234.830	-130.552	0.043	-0.006
-233.815	517.355	0.076	-0.177
-232.800	216.379	-0.153	0.241
-231.786	-200.000	0.003	0.213
-230.771	-5.997	0.144	0.098
-229.757	-40.349	0.103	0.053
-228.742	268.760	-0.195	-0.340
-227.727	-52.178	-0.223	0.103
-226.713	134.700	-0.050	0.064
-225.698	54.120	-0.200	0.191
-224.684	800.000	-0.015	-0.045
-223.669	129.075	-0.126	-0.160
-222.655	45.052	0.249	0.228
-221.640	-39.427	0.042	0.022
-220.625	-81.202	-0.216	-0.071
-219.611	-50.133	-0.202	-0.095
-218.596	800.000	0.061	-0.172
-217.582	-18.049	-0.254	-0.158
-216.567	-200.000	0.048	0.415
-215.552	-114.892	-0.291	-0.055
-214.538	800.000	0.045	-0.183
-213.523	199.849	0.024	-0.036
-212.509	-200.000	-0.036	-0.240
-211.494	408.979	0.028	-0.059
-210.479	73.078	0.047	0.049
-209.465	652.610	-0.076	0.194
-208.450	40.354	-0.146	0.130
-207.436	-167.925	-0.396	0.015
-206.421	166.632	-0.143	0.201
-205.406	-100.719	0.118	0.029
-204.392	-79.559	-0.163	0.055
-203.377	-200.000	-0.010	-0.200
-202.363	-89.190	-0.162	-0.047
-201.348	389.091	0.098	0.201
-200.333	800.000	-0.086	-0.298
-199.319	4.390	0.097	-0.071
-198.304	118.891	-0.182	-0.223
-197.290	602.185	0.042	-0.103
-196.275	110.703	0.225	0.268
-195.260	-200.000	0.034	0.219
-194.246	800.000	0.090	0.321
-193.231	-42.045	0.211	0.107
-192.217	-115.808	0.295	-0.055
-191.202	609.297	-0.159	-0.394
-190.187	50.556	0.265	-0.249
-189.173	-200.000	0.030	-0.154
-188.158	-11.441	0.223	-0.145
-187.144	410.067	0.092	-0.194
-186.129	800.000	-0.050	0.179
-185.114	480.828	0.094	-0.213
-184.100	-82.445	0.246	0.079
-183.085	-9.306	-0.193	0.128
-182.071	-52.156	0.026	0.012
-181.056	205.436	-0.119	0.184
-180.042	201.640	-0.036	-0.055
-179.027	507.710	-0.031	0.071
-178.012	-200.000	-0.027	0.229
-176.998	-60.644	0.145	0.061
-175.983	-104.775	-0.223	0.051
-174.969	-0.121	0.166	-0.117
-173.954	-128.967	0.221	0.031
-172.939	39.553	-0.121	0.108
-171.925	-70.612	0.150	-0.056
-170.910	344.262	-0.053	0.102
-169.896	-2.939	-0.016	0.011
-168.881	358.931	0.170	0.336
-167.866	300.729	-0.125	-0.229
-166.852	97.181	-0.212	-0.241
-165.837	1.302	-0.283	-0.201
-164.823	158.895	0.250	-0.344
-163.808	-103.982	-0.230	0.053
-162.793	800.000	0.069	0.208
-161.779	-194.797	-0.305	0.002
-160.764	314.714	0.076	0.142
-159.750	-81.618	0.305	0.099
-158.735	210.290	0.105	0.164
-157.720	0.972	0.312	-0.221
-156.706	291.904	0.144	0.259
-155.691	-200.000	-0.022	0.185
-154.677	283.485	-0.145	0.258
-153.662	-39.679	-0.182	-0.094
-152.647	-200.000	-0.054	0.343
-151.633	217.568	-0.060	0.095
-150.618	-54.545	0.220	-0.099
-149.604	246.618	-0.219	-0.365
-148.589	324.314	0.150	0.284
-147.574	-200.000	0.013	-0.072
-146.560	-99.473	0.386	0.096
-145.545	166.211	0.054	0.075
-144.531	-200.000	-0.003	0.017
-143.516	-13.528	0.136	0.087
-142.502	94.081	0.039	0.044
-141.487	800.000	0.015	0.059
-140.472	-94.889	-0.106	0.028
-139.458	387.130	-0.026	-0.054
-138.443	625.682	-0.064	-0.159
-137.429	-160.586	0.144	-0.008
-136.414	-72.952	-0.320	-0.116
-135.399	-200.000	0.005	-0.180
-134.385	-89.367	-0.361	-0.105
-133.370	-200.000	0.045	0.277
-132.356	345.890	0.099	0.192
-131.341	458.398	0.078	0.171
-130.326	270.672	0.149	0.259
-129.312	-18.540	0.289	0.178
-128.297	250.622	0.176	0.296
-127.283	-80.203	0.416	-0.138
-126.268	-200.000	-0.045	0.000
-125.253	-47.844	-0.129	0.062
-124.239	299.687	-0.134	0.244
-123.224	261.711	-0.061	0.105
-122.210	182.847	0.115	-0.167
-121.195	-200.000	-0.002	0.021
