DTS Sentinel unit serial number:	SN413079Multiplexer serial number:	ORYXHardware model number:	OX4-SRSoftware version number:	ORYX F/W v4.00 Oryx Data Collector v3.7.2.0data status	okinstallation	princeton_trtdifferential loss correction	single-endedforward channel	channel 4reverse channel	N/Adate	2019/09/12time	16:35:11forward acquisition time	60.00reverse acquisition time	0.00gamma	496.2192k internal	0.2304k external	0.2304temperature offset calibration	1.0117default loss term (dB/km)	0.3790temperature slope calibration	1.0000multiplexer offset coefficient	1.0000multiplexer slope coefficient	1.0000fibre end	0.00T internal ref (°C)	37.03T ext. ref 1 (°C)	2.66T ext. ref 2 (°C)	29.66length (m)	temperature (°C)	Stokes	anti-Stokes-747.200	-59.382	-0.116	-0.051
-746.185	800.000	0.034	-0.133
-745.171	308.156	0.105	-0.200
-744.156	50.388	-0.106	0.102
-743.142	134.025	0.089	0.118
-742.127	-123.394	-0.209	0.034
-741.112	487.082	-0.157	0.364
-740.098	103.367	-0.094	0.112
-739.083	61.168	0.179	0.181
-738.069	35.958	-0.082	-0.073
-737.054	-16.422	0.250	0.162
-736.039	61.009	-0.151	-0.152
-735.025	211.816	0.194	0.311
-734.010	107.833	-0.066	0.080
-732.996	800.000	-0.072	0.311
-731.981	-60.566	-0.211	0.091
-730.966	-135.091	0.278	-0.034
-729.952	29.540	-0.091	0.079
-728.937	800.000	-0.065	0.218
-727.923	800.000	-0.062	0.264
-726.908	-7.307	0.277	0.191
-725.894	-127.095	0.112	0.017
-724.879	-85.325	-0.311	0.099
-723.864	228.817	0.077	0.128
-722.850	107.417	-0.133	-0.161
-721.835	-200.000	-0.038	-0.271
-720.821	550.033	0.096	-0.235
-719.806	-200.000	-0.022	-0.153
-718.791	82.867	-0.191	0.212
-717.777	266.131	0.038	0.068
-716.762	800.000	0.064	-0.186
-715.748	-200.000	0.008	0.265
-714.733	319.048	-0.060	0.116
-713.718	800.000	-0.101	0.372
-712.704	-170.521	-0.240	0.009
-711.689	114.621	-0.394	0.488
-710.675	-142.232	0.239	0.024
-709.660	-200.000	-0.005	-0.243
-708.645	231.721	0.075	0.125
-707.631	96.877	-0.245	-0.286
-706.616	-60.547	-0.168	0.073
-705.602	-200.000	0.005	0.207
-704.587	-200.000	0.063	-0.401
-703.572	-200.000	-0.025	-0.202
-702.558	-200.000	-0.014	-0.119
-701.543	-54.980	0.248	0.114
-700.529	-154.836	0.076	-0.005
-699.514	687.958	-0.016	0.042
-698.499	-125.387	-0.128	-0.020
-697.485	-128.353	0.364	-0.053
-696.470	276.763	0.022	-0.040
-695.456	1.226	-0.217	0.158
-694.441	-72.760	0.055	-0.020
-693.426	-200.000	-0.016	-0.239
-692.412	11.330	0.230	0.179
-691.397	-113.130	0.132	0.026
-690.383	506.275	0.044	-0.103
-689.368	-57.374	0.201	0.090
-688.354	-12.093	-0.262	0.174
-687.339	-200.000	-0.004	-0.152
-686.324	38.901	-0.189	-0.172
-685.310	-54.481	-0.128	0.059
-684.295	-200.000	0.014	-0.126
-683.281	254.061	0.163	0.283
-682.266	28.042	-0.070	0.060
-681.251	43.292	-0.157	-0.146
-680.237	-200.000	0.007	-0.109
-679.222	29.888	-0.045	-0.039
-678.208	159.539	0.308	-0.436
-677.193	44.137	0.336	-0.313
-676.178	-200.000	0.024	-0.242
-675.164	-56.060	0.115	0.052
-674.149	-124.971	0.226	-0.035
-673.135	-140.126	-0.255	0.027
-672.120	12.544	0.101	-0.079
-671.105	-151.764	-0.401	0.030
-670.091	-186.776	-0.257	-0.004
-669.076	-13.557	-0.064	0.042
-668.062	150.005	0.137	0.188
-667.047	78.106	-0.218	0.236
-666.032	102.270	-0.070	-0.083
-665.018	-200.000	-0.029	0.172
-664.003	170.206	0.187	-0.272
-662.989	20.718	-0.171	-0.141
-661.974	-113.249	-0.214	-0.043
-660.959	797.916	0.079	-0.221
-659.945	343.799	-0.091	0.181
-658.930	-86.224	-0.070	0.022
-657.916	249.288	-0.039	-0.067
-656.901	138.627	-0.280	-0.373
-655.886	-112.976	-0.098	0.020
-654.872	162.322	-0.120	-0.171
-653.857	800.000	-0.098	-0.411
-652.843	-69.001	0.152	-0.059
-651.828	281.963	-0.268	-0.488
-650.814	-125.904	0.121	-0.019
-649.799	554.205	-0.074	-0.180
-648.784	-200.000	-0.032	0.183
-647.770	161.581	-0.085	-0.120
-646.755	-152.663	0.054	-0.004
-645.741	-190.318	0.329	-0.004
-644.726	-133.939	0.251	0.032
-643.711	-116.261	-0.166	-0.031
-642.697	-200.000	-0.038	0.183
-641.682	-44.143	0.114	0.058
-640.668	-200.000	-0.001	-0.031
-639.653	-200.000	-0.040	0.208
-638.638	800.000	-0.034	-0.104
-637.624	244.279	-0.101	-0.172
-636.609	-200.000	0.033	0.154
-635.595	-105.987	-0.229	0.052
-634.580	134.942	-0.209	-0.276
-633.565	-200.000	0.020	-0.231
-632.551	-98.379	0.179	-0.046
-631.536	261.456	-0.149	0.262
-630.522	-98.723	-0.063	-0.016
-629.507	-86.445	-0.370	0.115
-628.492	63.036	-0.171	-0.174
-627.478	-23.459	0.204	0.124
-626.463	-200.000	-0.004	0.117
-625.449	800.000	0.050	-0.182
-624.434	-200.000	0.027	0.151
-623.419	-181.308	0.235	-0.005
-622.405	-26.404	0.459	0.273
-621.390	98.854	-0.217	-0.254
-620.376	-167.431	0.138	0.006
-619.361	-40.523	-0.169	0.089
-618.346	268.082	0.020	-0.035
-617.332	400.884	0.061	-0.130
-616.317	-200.000	-0.040	-0.201
-615.303	-117.491	0.122	0.022
-614.288	-200.000	-0.003	0.074
-613.273	-76.992	0.170	-0.060
-612.259	800.000	0.079	-0.240
-611.244	-177.427	-0.211	0.005
-610.230	-200.000	-0.005	-0.107
-609.215	6.737	-0.417	0.314
-608.201	-17.295	0.223	-0.142
-607.186	111.218	-0.130	0.158
-606.171	-82.728	0.122	0.040
-605.157	100.128	-0.270	-0.317
-604.142	46.471	-0.115	0.108
-603.128	-167.992	-0.147	0.006
-602.113	-44.229	-0.115	0.058
-601.098	-200.000	-0.010	0.327
-600.084	34.427	-0.323	0.285
-599.069	-87.929	0.169	-0.052
-598.055	194.990	0.040	-0.061
-597.040	-114.172	-0.140	0.027
-596.025	-101.068	0.140	0.035
-595.011	183.963	0.227	0.340
-593.996	-100.939	0.191	-0.047
-592.982	126.343	-0.072	-0.092
-591.967	323.831	-0.170	0.329
-590.952	-61.405	-0.316	0.135
-589.938	-101.405	0.222	-0.055
-588.923	416.985	-0.196	-0.424
-587.909	390.013	-0.118	0.248
-586.894	-95.154	-0.117	-0.032
-585.879	-135.213	0.188	0.023
-584.865	337.319	0.080	-0.158
-583.850	51.631	0.072	-0.069
-582.836	552.684	0.026	-0.064
-581.821	99.259	0.140	0.164
-580.806	-79.681	-0.240	0.082
-579.792	-125.588	0.033	0.005
-578.777	31.921	-0.137	-0.119
-577.763	-200.000	0.087	-0.443
-576.748	-34.262	-0.035	0.020
-575.733	495.562	0.083	0.193
-574.719	-68.017	0.102	0.040
-573.704	-54.947	0.435	0.198
-572.690	343.584	0.142	-0.282
-571.675	95.458	-0.104	0.120
-570.661	-36.982	0.322	0.175
-569.646	-147.735	-0.250	-0.021
-568.631	530.373	0.073	0.173
-567.617	57.626	0.243	0.240
-566.602	42.758	0.253	0.233
-565.588	50.015	0.138	0.132
-564.573	800.000	0.054	-0.171
-563.558	2.858	-0.385	-0.282
-562.544	-76.469	-0.064	-0.023
-561.529	-147.368	-0.359	0.031
-560.515	9.318	-0.186	-0.142
-559.500	800.000	-0.073	0.262
-558.485	-125.662	0.364	-0.056
-557.471	307.412	-0.141	-0.266
-556.456	-141.977	-0.206	0.021
-555.442	-46.537	0.247	0.122
-554.427	-47.647	-0.130	0.064
-553.412	800.000	0.070	0.233
-552.398	100.470	0.158	-0.185
-551.383	-200.000	0.013	0.211
-550.369	397.726	-0.054	-0.113
-549.354	-116.028	0.209	0.039
-548.339	-110.345	0.133	-0.028
-547.325	11.928	-0.156	0.122
-546.310	-200.000	0.037	0.167
-545.296	292.421	0.110	-0.203
-544.281	-22.128	-0.204	-0.125
-543.266	-27.225	0.110	0.065
-542.252	254.818	-0.055	-0.096
-541.237	-39.866	-0.319	-0.168
-540.223	434.845	0.070	-0.153
-539.208	-5.934	0.356	0.246
-538.193	800.000	0.059	-0.217
-537.179	281.804	-0.096	-0.174
-536.164	-60.863	0.125	0.053
-535.150	40.703	0.177	0.161
-534.135	567.577	-0.047	0.115
-533.121	132.860	0.094	0.122
-532.106	-76.807	-0.087	-0.031
-531.091	-20.571	-0.278	0.172
-530.077	196.557	0.040	0.061
-529.062	-17.541	-0.246	-0.156
-528.048	-82.020	0.182	-0.060
-527.033	-72.886	0.043	0.016
-526.018	800.000	-0.077	0.227
-525.004	-98.801	0.166	0.043
-523.989	25.414	0.098	-0.082
-522.975	-132.174	0.257	-0.034
-521.960	127.200	-0.078	-0.100
-520.945	113.832	-0.295	-0.362
-519.931	-200.000	0.031	-0.256
-518.916	52.936	-0.202	0.195
-517.902	31.752	-0.098	-0.085
-516.887	-200.000	-0.023	-0.290
-515.872	172.630	0.135	-0.196
-514.858	-200.000	-0.043	-0.204
-513.843	58.558	0.257	-0.255
-512.829	800.000	0.052	-0.180
-511.814	-200.000	-0.085	-0.423
-510.799	-175.186	-0.112	-0.003
-509.785	800.000	0.076	-0.247
-508.770	-89.737	0.188	0.056
-507.756	27.791	0.387	-0.329
-506.741	60.598	-0.137	-0.137
-505.726	-6.837	-0.088	-0.060
-504.712	-90.181	0.117	0.034
-503.697	-152.928	-0.409	-0.029
-502.683	-131.088	-0.227	-0.031
-501.668	800.000	-0.205	-0.628
-500.653	255.116	-0.099	-0.170
-499.639	-200.000	-0.096	0.529
-498.624	-98.920	-0.314	-0.080
-497.610	-32.172	-0.134	0.076
-496.595	800.000	0.085	0.249
-495.581	-100.278	0.158	-0.040
-494.566	-200.000	0.001	0.086
-493.551	117.583	0.168	-0.208
-492.537	-1.455	0.249	-0.177
-491.522	-200.000	-0.026	0.367
-490.508	-63.662	-0.302	0.125
-489.493	-129.093	-0.192	-0.027
-488.478	-79.069	-0.271	0.093
-487.464	-58.640	0.275	-0.120
-486.449	-200.000	0.004	0.177
-485.435	-200.000	-0.034	0.172
-484.420	-115.540	0.245	0.047
-483.405	78.847	-0.119	-0.129
-482.391	-1.955	0.183	0.130
-481.376	82.531	-0.240	0.263
-480.362	800.000	0.030	0.122
-479.347	800.000	-0.048	-0.150
-478.332	-33.677	-0.290	0.161
-477.318	-8.847	-0.063	-0.043
-476.303	2.070	-0.207	-0.150
-475.289	424.049	0.088	-0.191
-474.274	-200.000	0.006	0.066
-473.259	-12.402	0.169	0.111
-472.245	-200.000	0.018	-0.406
-471.230	579.149	-0.028	0.070
-470.216	-173.280	-0.101	0.003
-469.201	-200.000	0.021	-0.371
-468.186	-24.606	-0.299	-0.179
-467.172	-122.268	0.044	0.007
-466.157	-91.449	-0.257	-0.074
-465.143	-200.000	0.018	0.139
-464.128	214.089	-0.090	0.143
-463.113	-36.894	0.135	-0.073
-462.099	-200.000	-0.011	-0.199
-461.084	800.000	-0.174	0.512
-460.070	132.956	0.136	-0.176
-459.055	538.969	0.152	-0.363
-458.040	-200.000	-0.017	0.199
-457.026	-200.000	-0.001	-0.019
-456.011	59.154	0.072	-0.072
-454.997	112.644	0.195	-0.238
-453.982	-66.384	-0.067	-0.027
-452.968	-121.512	0.096	0.016
-451.953	49.643	-0.199	-0.189
-450.938	-41.692	0.168	-0.087
-449.924	23.109	-0.135	0.112
-448.909	800.000	-0.061	-0.174
-447.895	-46.242	0.234	-0.116
-446.880	-200.000	-0.049	0.256
-445.865	219.014	0.118	0.189
-444.851	-64.092	-0.208	-0.085
-443.836	800.000	0.018	-0.069
-442.822	126.052	-0.199	-0.254
-441.807	210.866	-0.134	-0.211
-440.792	-63.873	0.165	0.068
-439.778	164.879	0.053	-0.075
-438.763	152.339	-0.153	-0.210
-437.749	-40.105	-0.238	0.125
-436.734	-170.978	-0.111	-0.004
-435.719	57.592	-0.048	-0.047
-434.705	231.207	0.151	0.249
-433.690	-65.854	0.176	0.071
-432.676	-38.406	0.192	0.102
-431.661	121.375	-0.149	0.187
-430.646	-56.186	-0.133	0.059
-429.632	-62.571	0.249	0.104
-428.617	800.000	0.111	0.309
-427.603	-142.583	-0.175	-0.017
-426.588	271.580	-0.098	0.175
-425.573	-200.000	0.038	0.205
-424.559	132.177	-0.263	0.341
-423.544	123.107	-0.045	-0.057
-422.530	-92.009	0.122	-0.035
-421.515	800.000	-0.045	0.137
-420.500	29.851	0.225	0.193
-419.486	32.756	0.231	0.201
-418.471	84.169	-0.203	0.223
-417.457	72.639	0.101	0.106
-416.442	193.170	0.180	0.273
-415.428	355.868	-0.101	-0.202
-414.413	-200.000	0.044	0.261
-413.398	-82.650	-0.504	0.164
-412.384	142.232	-0.175	0.234
-411.369	75.484	-0.171	0.181
-410.355	800.000	-0.022	0.069
-409.340	151.088	-0.185	0.253
-408.325	-2.227	-0.076	0.054
-407.311	192.740	-0.139	-0.211
-406.296	800.000	0.022	-0.078
-405.282	800.000	-0.040	-0.148
-404.267	-50.006	-0.200	0.095
-403.252	-68.242	0.207	0.081
-402.238	427.205	-0.065	0.141
-401.223	-108.730	0.195	0.042
-400.209	579.272	-0.084	0.208
-399.194	-200.000	0.024	-0.310
-398.179	-9.577	0.113	-0.076
-397.165	76.705	0.098	0.104
-396.150	559.597	-0.049	-0.119
-395.136	426.773	0.066	0.143
-394.121	-200.000	0.055	-0.268
-393.106	140.004	-0.283	-0.374
-392.092	-115.917	-0.220	-0.041
-391.077	-168.644	-0.489	0.019
-390.063	-200.000	-0.003	-0.164
-389.048	128.355	0.094	-0.121
-388.033	70.590	-0.070	-0.073
-387.019	-120.083	-0.321	0.055
-386.004	113.132	0.096	0.117
-384.990	376.016	0.027	0.056
-383.975	63.715	-0.243	0.246
-382.960	305.641	0.035	-0.066
-381.946	-98.625	-0.348	-0.089
-380.931	114.412	0.199	-0.244
-379.917	-100.379	-0.199	0.050
-378.902	10.760	0.251	-0.192
-377.888	33.771	0.242	-0.212
-376.873	-115.326	-0.131	-0.025
-375.858	-68.907	-0.295	-0.114
-374.844	209.140	0.152	-0.239
-373.829	-133.495	0.100	0.013
-372.815	4.678	0.124	-0.091
-371.800	800.000	0.051	0.196
-370.785	-103.335	-0.128	-0.030
-369.771	-71.474	0.076	-0.029
-368.756	-97.202	0.243	0.064
-367.742	-113.080	-0.217	-0.043
-366.727	-46.634	0.259	0.127
-365.712	-47.747	-0.178	0.087
-364.698	64.691	-0.188	0.190
-363.683	800.000	-0.083	0.355
-362.669	66.951	0.124	0.127
-361.654	-88.744	0.275	-0.082
-360.639	-9.076	0.352	-0.236
-359.625	-5.334	0.161	-0.111
-358.610	-200.000	0.027	0.188
-357.596	99.268	0.120	-0.139
-356.581	-112.588	0.302	0.060
-355.566	-199.920	-0.158	0.001
-354.552	-69.498	0.285	-0.109
-353.537	-110.555	-0.331	0.069
-352.523	27.334	0.222	0.187
-351.508	237.818	-0.133	0.221
-350.493	4.182	-0.162	0.119
-349.479	443.809	0.079	0.173
-348.464	664.646	0.017	0.044
-347.450	-148.165	-0.004	0.000
-346.435	29.807	0.039	-0.033
-345.420	-45.206	-0.079	-0.039
-344.406	-156.944	-0.297	0.018
-343.391	-200.000	0.009	-0.215
-342.377	800.000	-0.105	-0.358
-341.362	19.365	-0.158	0.128
-340.348	223.098	0.152	0.245
-339.333	-23.762	0.118	-0.071
-338.318	258.106	0.100	0.172
-337.304	-200.000	-0.004	-0.152
-336.289	-31.024	-0.148	0.084
-335.275	11.917	0.162	0.124
-334.260	368.196	-0.131	0.266
-333.245	196.166	0.042	0.065
-332.231	-200.000	-0.068	-0.325
-331.216	38.240	-0.390	0.348
-330.202	-105.481	-0.391	-0.089
-329.187	-24.740	0.276	-0.165
-328.172	-135.883	-0.205	-0.024
-327.158	-132.319	0.083	0.011
-326.143	100.904	-0.102	-0.119
-325.129	-200.000	0.028	0.411
-324.114	155.732	-0.136	-0.188
-323.099	-200.000	0.069	-0.396
-322.085	226.249	-0.133	-0.216
-321.070	682.807	-0.080	0.210
-320.056	-200.000	-0.028	-0.134
-319.041	-200.000	0.001	0.276
-318.026	-158.711	0.407	0.023
-317.012	-65.763	0.097	0.039
-315.997	266.350	0.073	-0.127
-314.983	-88.111	0.275	0.083
-313.968	800.000	0.094	-0.282
-312.953	183.865	0.071	-0.105
-311.939	800.000	0.019	-0.055
-310.924	637.279	-0.017	-0.042
-309.910	318.545	0.113	-0.214
-308.895	-4.577	0.286	-0.198
-307.880	-84.499	0.363	0.115
-306.866	-145.395	-0.319	0.029
-305.851	-53.216	-0.139	-0.064
-304.837	-66.214	0.040	0.016
-303.822	-200.000	-0.003	-0.220
-302.807	-95.562	0.355	-0.095
-301.793	-36.194	-0.130	-0.070
-300.778	-79.059	0.270	0.092
-299.764	800.000	0.024	-0.074
-298.749	62.936	-0.114	-0.114
-297.735	-116.370	-0.364	-0.067
-296.720	-77.283	0.323	0.112
-295.705	-102.582	0.376	0.090
-294.691	64.542	-0.069	0.070
-293.676	-9.813	0.206	0.137
-292.662	-140.502	-0.103	0.011
-291.647	471.202	-0.073	-0.165
-290.632	264.478	-0.053	0.092
-289.618	-116.330	-0.178	-0.033
-288.603	61.652	-0.033	0.033
-287.589	-41.629	-0.215	-0.111
-286.574	-138.579	0.178	-0.020
-285.559	571.610	0.038	-0.093
-284.545	298.868	0.084	0.154
-283.530	30.560	0.165	0.141
-282.516	501.208	0.085	0.196
-281.501	-78.759	-0.300	0.102
-280.486	-200.000	-0.008	0.061
-279.472	-155.927	0.310	-0.020
-278.457	-140.964	-0.209	-0.021
-277.443	226.780	0.119	0.193
-276.428	-56.508	0.231	0.102
-275.413	-26.816	0.223	0.130
-274.399	352.904	0.033	-0.065
-273.384	-47.542	-0.110	-0.053
-272.370	36.644	0.208	-0.183
-271.355	-28.940	0.283	-0.163
-270.340	800.000	0.032	0.137
-269.326	-4.978	-0.266	0.183
-268.311	-171.119	0.178	-0.006
-267.297	-48.430	-0.049	-0.023
-266.282	-200.000	-0.230	-0.001
-265.267	-5.310	-0.470	-0.323
-264.253	790.637	-0.078	0.215
-263.238	-57.779	0.385	-0.169
-262.224	-68.270	0.166	0.064
-261.209	-137.208	0.310	0.035
-260.195	23.150	-0.108	-0.088
-259.180	-37.235	0.050	0.027
-258.165	800.000	0.026	0.110
-257.151	-200.000	0.066	0.342
-256.136	800.000	0.043	0.174
-255.122	-88.655	0.081	0.024
-254.107	71.173	0.225	0.233
-253.092	92.741	0.151	0.171
-252.078	62.562	0.119	0.119
-251.063	11.526	-0.317	0.243
-250.049	-200.000	-0.068	0.423
-249.034	800.000	-0.066	0.194
-248.019	-40.416	0.488	0.253
-247.005	-37.767	0.111	0.059
-245.990	-58.421	-0.104	-0.045
-244.976	241.835	0.225	0.376
-243.961	800.000	-0.059	0.198
-242.946	473.230	-0.040	-0.091
-241.932	-9.097	-0.145	-0.097
-240.917	260.195	-0.160	-0.276
-239.903	272.642	0.061	-0.108
-238.888	-200.000	0.058	-0.327
-237.873	259.147	0.093	0.160
-236.859	-189.209	-0.290	-0.003
-235.844	15.018	0.120	-0.093
-234.830	589.197	0.047	-0.115
-233.815	-200.000	-0.025	-0.229
-232.800	-200.000	0.037	-0.248
-231.786	-31.105	0.116	-0.065
-230.771	-200.000	0.010	-0.148
-229.757	-105.580	0.043	0.010
-228.742	-12.580	0.171	-0.112
-227.727	107.607	-0.064	0.076
-226.713	9.648	0.117	0.089
-225.698	-200.000	0.044	0.294
-224.684	-149.905	0.302	0.024
-223.669	24.453	0.221	-0.183
-222.655	-88.812	-0.185	-0.055
-221.640	-32.733	0.260	-0.144
-220.625	100.161	0.320	-0.370
-219.611	167.347	0.153	-0.217
-218.596	-92.982	-0.157	0.044
-217.582	84.519	-0.060	0.065
-216.567	-181.500	-0.146	-0.003
-215.552	-22.082	-0.133	-0.081
-214.538	-109.795	-0.149	-0.031
-213.523	-168.340	0.168	-0.006
-212.509	-166.900	-0.363	-0.015
-211.494	-200.000	0.064	-0.308
-210.479	380.834	0.103	-0.211
-209.465	800.000	-0.103	-0.314
-208.450	-81.675	0.311	0.102
-207.436	-156.993	-0.169	0.010
-206.421	598.456	0.046	-0.114
-205.406	224.708	0.130	-0.210
-204.392	-107.824	-0.085	-0.018
-203.377	339.447	-0.055	-0.107
-202.363	-89.034	-0.152	0.045
-201.348	65.665	-0.061	0.061
-200.333	-200.000	0.001	-0.054
-199.319	-200.000	-0.036	0.271
-198.304	-88.243	-0.093	0.028
-197.290	-200.000	-0.005	-0.154
-196.275	-29.248	-0.402	0.229
-195.260	-37.479	-0.386	-0.205
-194.246	-200.000	0.044	0.358
-193.231	-180.550	0.190	0.004
-192.217	-200.000	-0.007	0.106
-191.202	-61.376	-0.193	-0.081
-190.187	-81.621	-0.370	-0.121
-189.173	-38.488	-0.207	0.109
-188.158	800.000	0.021	0.073
-187.144	-200.000	0.025	-0.333
-186.129	-200.000	0.055	0.292
-185.114	-83.080	0.220	-0.071
-184.100	100.239	0.076	-0.088
-183.085	-132.305	-0.178	0.023
-182.071	81.610	-0.203	0.218
-181.056	-113.569	-0.225	0.044
-180.042	-95.693	0.079	0.021
-179.027	800.000	-0.122	-0.473
-178.012	800.000	0.117	0.356
-176.998	123.314	0.188	0.235
-175.983	4.085	0.118	0.086
-174.969	256.600	-0.038	0.065
-173.954	-33.754	0.161	-0.089
-172.939	-186.491	0.087	0.001
-171.925	279.851	-0.111	0.198
-170.910	174.702	0.180	-0.260
-169.896	-43.649	-0.062	-0.031
-168.881	97.187	0.197	-0.225
-167.866	-200.000	-0.007	-0.157
-166.852	446.770	0.120	-0.264
-165.837	259.598	0.135	0.232
-164.823	16.997	0.151	0.119
-163.808	-10.524	0.070	0.046
-162.793	71.123	0.072	0.075
-161.779	49.530	0.207	0.194
-160.764	417.740	-0.092	0.196
-159.750	77.277	-0.105	0.111
-158.735	319.090	0.087	0.163
-157.720	435.624	0.041	-0.090
-156.706	800.000	0.064	0.179
-155.691	338.890	-0.106	-0.205
-154.677	-17.838	-0.172	0.108
-153.662	420.602	0.100	-0.213
-152.647	-56.846	-0.175	0.077
-151.633	98.788	0.251	-0.289
-150.618	-184.467	-0.189	-0.003
-149.604	-36.447	0.181	0.097
-148.589	800.000	0.105	0.331
-147.574	-140.510	-0.341	0.035
-146.560	800.000	0.034	-0.101
-145.545	-200.000	0.058	0.283
-144.531	-82.187	0.389	-0.126
-143.516	48.235	0.166	0.154
-142.502	-200.000	0.018	0.263
-141.487	-200.000	-0.022	0.213
-140.472	-75.943	-0.214	-0.075
-139.458	800.000	-0.040	0.125
-138.443	-94.399	0.447	0.121
-137.429	-200.000	-0.055	-0.444
-136.414	-137.736	0.293	-0.033
-135.399	-200.000	-0.045	-0.344
-134.385	147.601	0.173	0.231
-133.370	463.524	0.032	0.071
-132.356	-108.145	-0.408	-0.088
-131.341	62.450	0.179	-0.178
-130.326	188.219	-0.130	-0.194
-129.312	-161.591	-0.390	-0.020
-128.297	148.296	0.098	-0.131
-127.283	36.712	-0.198	0.174
-126.268	-20.852	-0.442	0.269
-125.253	-200.000	-0.007	0.057
-124.239	-200.000	0.083	-0.421
-123.224	-35.355	0.428	0.231
-122.210	-99.093	-0.375	0.094
-121.195	338.949	-0.132	0.256
