DTS Sentinel unit serial number:	SN413079Multiplexer serial number:	ORYXHardware model number:	OX4-SRSoftware version number:	ORYX F/W v4.00 Oryx Data Collector v3.7.2.0data status	okinstallation	princeton_trtdifferential loss correction	single-endedforward channel	channel 4reverse channel	N/Adate	2019/09/18time	22:57:35forward acquisition time	60.00reverse acquisition time	0.00gamma	496.2192k internal	0.2333k external	0.2333temperature offset calibration	1.0030default loss term (dB/km)	0.3790temperature slope calibration	1.0000multiplexer offset coefficient	1.0000multiplexer slope coefficient	1.0000fibre end	0.00T internal ref (°C)	24.03T ext. ref 1 (°C)	0.78T ext. ref 2 (°C)	18.03length (m)	temperature (°C)	Stokes	anti-Stokes-747.200	-147.246	0.301	0.026
-746.185	-57.374	-0.247	0.109
-745.171	-23.485	0.235	-0.142
-744.156	-120.619	-0.310	0.053
-743.142	-102.960	-0.335	-0.080
-742.127	699.133	-0.051	0.135
-741.112	-17.817	-0.075	-0.047
-740.098	-74.300	-0.120	-0.044
-739.083	800.000	-0.017	-0.061
-738.069	-200.000	0.043	0.455
-737.054	-200.000	0.008	-0.448
-736.039	-136.983	-0.251	0.029
-735.025	-146.305	0.482	0.043
-734.010	428.021	-0.066	-0.143
-732.996	-118.918	0.024	-0.004
-731.981	-13.528	-0.251	-0.163
-730.966	327.007	0.091	-0.175
-729.952	-31.660	-0.070	-0.040
-728.937	-36.751	-0.168	-0.091
-727.923	-0.803	-0.137	0.097
-726.908	-102.665	-0.326	-0.078
-725.894	130.157	0.116	0.149
-724.879	-100.187	-0.076	-0.019
-723.864	-200.000	0.005	0.218
-722.850	-49.246	0.200	-0.096
-721.835	-86.365	-0.208	-0.064
-720.821	-28.492	-0.336	0.195
-719.806	-200.000	0.017	0.287
-718.791	800.000	0.048	-0.189
-717.777	78.830	-0.134	0.144
-716.762	-19.720	0.083	0.052
-715.748	-19.185	-0.161	-0.100
-714.733	-126.220	0.328	0.049
-713.718	255.486	-0.155	0.266
-712.704	206.957	-0.185	0.289
-711.689	-200.000	-0.034	0.261
-710.675	-78.036	0.193	0.067
-709.660	800.000	0.036	-0.151
-708.645	582.808	0.068	0.168
-707.631	-1.062	0.087	-0.062
-706.616	63.709	-0.220	-0.222
-705.602	-59.947	-0.308	-0.132
-704.587	-69.470	-0.207	-0.080
-703.572	-59.411	0.091	-0.039
-702.558	-200.000	0.083	-0.419
-701.543	72.981	-0.287	0.301
-700.529	-68.577	-0.134	0.052
-699.514	141.076	-0.121	0.160
-698.499	-40.823	0.138	0.072
-697.485	-51.134	-0.190	-0.089
-696.470	32.253	-0.141	0.122
-695.456	-118.172	0.324	-0.058
-694.441	-44.401	0.225	0.113
-693.426	-112.319	-0.191	-0.038
-692.412	45.548	0.071	0.066
-691.397	414.958	-0.153	-0.327
-690.383	6.808	-0.120	-0.089
-689.368	-29.326	0.118	-0.068
-688.354	-200.000	0.001	0.308
-687.339	266.217	-0.141	0.247
-686.324	18.911	0.348	-0.280
-685.310	-8.262	-0.383	0.259
-684.295	421.428	-0.064	-0.137
-683.281	38.683	0.285	-0.255
-682.266	273.649	-0.084	0.149
-681.251	352.093	0.143	0.284
-680.237	-92.680	0.096	-0.027
-679.222	73.284	0.351	0.369
-678.208	-200.000	0.009	0.214
-677.193	-105.999	-0.086	-0.019
-676.178	-106.958	0.250	0.055
-675.164	81.974	0.110	0.119
-674.149	-200.000	0.018	-0.097
-673.135	-54.654	0.110	0.050
-672.120	19.026	0.439	0.353
-671.105	-112.555	-0.213	-0.043
-670.091	45.560	0.044	0.041
-669.076	800.000	-0.056	-0.226
-668.062	8.841	-0.217	-0.164
-667.047	800.000	0.049	-0.208
-666.032	-77.638	0.205	-0.071
-665.018	86.025	-0.093	-0.102
-664.003	193.993	0.175	-0.266
-662.989	-136.744	-0.276	-0.032
-661.974	-84.468	-0.191	0.060
-660.959	440.385	-0.023	-0.050
-659.945	-75.009	0.170	0.061
-658.930	80.125	0.308	0.332
-657.916	-100.843	-0.283	-0.070
-656.901	713.331	0.017	-0.045
-655.886	-31.420	0.266	-0.150
-654.872	354.804	-0.047	-0.093
-653.857	104.628	0.122	0.143
-652.843	185.123	-0.198	0.294
-651.828	800.000	-0.025	-0.087
-650.814	-200.000	-0.002	0.185
-649.799	527.858	-0.088	0.207
-648.784	541.361	-0.125	-0.298
-647.770	446.946	-0.062	0.136
-646.755	-64.007	0.128	-0.052
-645.741	-200.000	0.002	0.114
-644.726	-200.000	0.024	0.300
-643.711	-153.463	-0.287	-0.020
-642.697	-33.287	-0.198	0.110
-641.682	136.246	0.053	-0.069
-640.668	113.503	-0.164	-0.200
-639.653	-200.000	-0.004	-0.077
-638.638	800.000	0.147	-0.442
-637.624	-130.730	-0.031	-0.004
-636.609	-91.795	0.263	-0.075
-635.595	167.656	0.190	-0.271
-634.580	-200.000	-0.016	0.092
-633.565	-120.498	-0.320	-0.054
-632.551	52.224	-0.043	-0.041
-631.536	8.825	0.126	0.095
-630.522	-200.000	-0.063	0.393
-629.507	91.673	-0.030	0.033
-628.492	204.695	-0.106	-0.164
-627.478	140.379	-0.069	-0.091
-626.463	-164.057	-0.230	0.011
-625.449	-161.728	-0.390	-0.020
-624.434	-166.587	-0.228	0.009
-623.419	-200.000	-0.003	0.238
-622.405	-30.626	0.150	0.085
-621.390	800.000	0.111	-0.353
-620.376	-57.969	0.264	-0.115
-619.361	-200.000	-0.006	-0.170
-618.346	105.253	-0.084	-0.099
-617.332	485.832	0.080	-0.183
-616.317	-187.877	0.182	0.002
-615.303	-106.194	-0.074	-0.017
-614.288	194.330	-0.121	0.184
-613.273	261.336	-0.080	0.139
-612.259	743.796	-0.097	-0.262
-611.244	374.234	0.097	-0.198
-610.230	691.656	0.153	0.401
-609.215	310.029	-0.136	-0.255
-608.201	176.698	-0.269	-0.391
-607.186	-200.000	0.009	0.136
-606.171	-200.000	0.050	-0.297
-605.157	800.000	0.093	0.292
-604.142	-10.369	-0.192	-0.127
-603.128	291.596	0.010	-0.018
-602.113	73.966	-0.132	-0.138
-601.098	157.325	0.083	-0.115
-600.084	-85.529	0.183	-0.057
-599.069	419.823	0.223	-0.477
-598.055	800.000	-0.090	-0.276
-597.040	-200.000	0.010	0.451
-596.025	-200.000	-0.010	0.132
-595.011	150.709	-0.121	-0.164
-593.996	-153.851	0.249	-0.017
-592.982	-141.754	-0.231	0.023
-591.967	-34.334	0.561	0.308
-590.952	96.909	-0.278	0.319
-589.938	800.000	-0.018	0.057
-588.923	800.000	-0.093	-0.265
-587.909	57.395	0.111	-0.108
-586.894	-8.056	0.360	0.243
-585.879	-118.577	0.244	0.043
-584.865	-159.053	-0.311	0.018
-583.850	-70.590	-0.385	-0.145
-582.836	-106.398	0.156	-0.035
-581.821	-200.000	-0.018	-0.238
-580.806	128.004	-0.108	0.138
-579.792	800.000	-0.043	0.158
-578.777	-200.000	-0.019	0.253
-577.763	229.506	-0.255	-0.416
-576.748	57.908	0.183	-0.179
-575.733	-43.997	-0.202	0.101
-574.719	42.799	0.101	0.092
-573.704	46.690	-0.230	0.214
-572.690	56.815	-0.240	0.234
-571.675	219.054	0.115	0.183
-570.661	-98.126	0.484	0.124
-569.646	15.553	0.204	-0.160
-568.631	-74.260	-0.145	0.052
-567.617	78.709	-0.124	-0.132
-566.602	-168.739	-0.132	0.005
-565.588	448.088	-0.232	-0.510
-564.573	-200.000	0.059	0.285
-563.558	92.425	0.111	0.125
-562.544	80.660	-0.129	0.138
-561.529	-200.000	0.049	0.329
-560.515	-200.000	-0.022	0.115
-559.500	-44.351	-0.408	-0.204
-558.485	-67.797	-0.224	-0.087
-557.471	-200.000	-0.002	0.133
-556.456	283.031	0.146	0.262
-555.442	800.000	0.085	-0.321
-554.427	-73.910	0.208	0.075
-553.412	-49.283	0.076	-0.036
-552.398	-200.000	0.006	-0.367
-551.383	12.519	0.426	-0.328
-550.369	-56.652	0.170	0.075
-549.354	-182.531	0.219	0.004
-548.339	186.399	-0.136	-0.202
-547.325	-26.607	0.253	-0.148
-546.310	-133.693	0.144	0.018
-545.296	-18.111	0.252	-0.158
-544.281	724.311	-0.060	-0.159
-543.266	-150.657	-0.378	-0.029
-542.252	104.448	0.179	-0.210
-541.237	-19.928	-0.193	-0.119
-540.223	-200.000	0.025	0.116
-539.208	-109.218	-0.160	-0.034
-538.193	-11.046	0.142	-0.094
-537.179	-35.416	-0.269	0.146
-536.164	-28.563	-0.149	-0.086
-535.150	164.251	0.058	-0.081
-534.135	-17.723	0.243	0.152
-533.121	-61.479	-0.074	-0.031
-532.106	-49.271	0.059	-0.028
-531.091	-200.000	-0.053	0.242
-530.077	157.059	-0.192	0.264
-529.062	-200.000	-0.020	0.342
-528.048	129.579	0.096	-0.122
-527.033	11.041	0.131	0.100
-526.018	77.273	0.140	0.149
-525.004	-2.866	-0.160	0.112
-523.989	-163.473	-0.406	0.019
-522.975	-200.000	-0.028	0.143
-521.960	-200.000	0.020	-0.345
-520.945	94.475	-0.063	-0.072
-519.931	-200.000	0.015	-0.140
-518.916	-29.752	0.207	-0.118
-517.902	356.724	-0.219	-0.436
-516.887	-82.874	-0.272	0.088
-515.872	-154.625	0.191	0.013
-514.858	494.649	-0.078	0.180
-513.843	27.843	-0.052	0.043
-512.829	-116.779	-0.290	0.053
-511.814	-23.429	-0.227	0.136
-510.799	-97.924	-0.040	0.010
-509.785	43.049	-0.189	0.172
-508.770	-147.549	-0.305	-0.026
-507.756	219.376	-0.006	0.010
-506.741	-1.830	-0.153	0.107
-505.726	314.231	0.134	0.252
-504.712	-133.536	-0.336	-0.042
-503.697	-140.757	0.461	0.047
-502.683	61.921	-0.065	-0.065
-501.668	297.542	-0.290	-0.530
-500.653	-120.051	-0.301	0.051
-499.639	112.647	0.050	-0.061
-498.624	-22.827	-0.250	-0.150
-497.610	-117.878	-0.211	0.038
-496.595	16.660	0.331	0.261
-495.581	155.220	-0.078	0.107
-494.566	44.511	-0.086	0.079
-493.551	-127.687	0.298	0.043
-492.537	3.710	0.272	0.198
-491.522	14.727	0.242	-0.188
-490.508	-200.000	-0.022	0.337
-489.493	-200.000	0.030	0.274
-488.478	160.574	0.123	0.171
-487.464	-81.894	0.280	0.091
-486.449	-161.322	-0.106	0.005
-485.435	-200.000	0.008	-0.294
-484.420	-86.970	0.119	-0.036
-483.405	-61.331	-0.178	0.075
-482.391	266.569	0.132	-0.230
-481.376	71.306	0.131	0.136
-480.362	84.331	0.056	-0.060
-479.347	-153.736	-0.101	0.007
-478.332	800.000	0.053	-0.169
-477.318	-154.196	0.151	-0.010
-476.303	187.521	-0.127	-0.189
-475.289	-110.598	0.120	-0.025
-474.274	-128.032	-0.186	0.027
-473.259	23.609	-0.315	0.258
-472.245	-52.318	0.040	-0.018
-471.230	-88.921	0.422	0.124
-470.216	55.519	-0.260	-0.250
-469.201	-200.000	0.025	-0.279
-468.186	171.209	0.154	-0.220
-467.172	230.379	-0.098	0.159
-466.157	123.872	0.179	-0.224
-465.143	-200.000	0.030	-0.398
-464.128	235.090	-0.030	0.048
-463.113	-119.493	-0.146	0.025
-462.099	-45.934	0.368	0.181
-461.084	304.065	0.196	0.362
-460.070	-47.739	0.237	0.114
-459.055	-96.201	0.532	0.140
-458.040	-41.047	0.173	-0.089
-457.026	800.000	0.075	0.214
-456.011	-5.310	0.179	-0.122
-454.997	106.171	-0.130	0.153
-453.982	57.878	0.165	0.160
-452.968	-55.947	0.163	-0.072
-451.953	140.889	-0.015	0.019
-450.938	-159.546	0.417	-0.023
-449.924	-200.000	0.070	0.347
-448.909	-69.379	0.079	-0.030
-447.895	-89.365	0.323	-0.094
-446.880	-126.457	-0.110	0.016
-445.865	481.633	-0.113	-0.255
-444.851	68.058	0.315	-0.320
-443.836	374.802	-0.063	-0.128
-442.822	-200.000	-0.005	0.061
-441.807	-200.000	0.024	-0.494
-440.792	-200.000	0.016	-0.140
-439.778	-60.885	0.236	0.099
-438.763	444.705	0.124	-0.270
-437.749	-200.000	-0.007	-0.384
-436.734	263.757	-0.160	0.277
-435.719	-169.971	-0.305	-0.011
-434.705	-200.000	-0.045	0.362
-433.690	800.000	-0.019	0.055
-432.676	-19.468	0.183	0.113
-431.661	-27.490	0.162	-0.093
-430.646	800.000	-0.050	-0.205
-429.632	800.000	-0.032	0.138
-428.617	-161.906	-0.305	-0.015
-427.603	-73.630	0.185	0.067
-426.588	-63.501	0.158	0.064
-425.573	139.734	0.154	0.201
-424.559	-109.975	-0.429	-0.089
-423.544	-135.167	0.052	-0.006
-422.530	-11.218	0.257	0.168
-421.515	-19.964	-0.151	-0.093
-420.500	749.285	0.079	0.211
-419.486	393.075	-0.033	-0.068
-418.471	-117.698	-0.275	-0.049
-417.457	409.611	-0.113	0.237
-416.442	209.434	-0.032	0.049
-415.428	68.796	0.017	0.017
-414.413	-32.990	0.222	-0.123
-413.398	544.240	0.127	-0.302
-412.384	-2.289	-0.259	-0.181
-411.369	-200.000	0.003	0.052
-410.355	-200.000	0.008	0.068
-409.340	516.969	-0.085	0.198
-408.325	-200.000	-0.012	0.107
-407.311	-49.251	0.183	0.087
-406.296	20.269	0.008	-0.007
-405.282	28.619	0.262	0.220
-404.267	800.000	0.140	-0.454
-403.252	800.000	-0.113	0.326
-402.238	600.139	0.021	-0.051
-401.223	633.483	-0.155	0.390
-400.209	-83.200	-0.449	0.143
-399.194	143.838	0.271	-0.359
-398.179	-200.000	0.066	-0.509
-397.165	203.935	-0.093	0.142
-396.150	-61.570	0.192	0.080
-395.136	-200.000	0.005	-0.114
-394.121	-200.000	-0.031	-0.269
-393.106	7.484	-0.159	-0.118
-392.092	172.761	-0.118	0.169
-391.077	117.839	0.159	-0.194
-390.063	106.054	-0.134	-0.158
-389.048	-74.753	-0.064	-0.023
-388.033	800.000	-0.073	0.238
-387.019	-200.000	-0.049	-0.222
-386.004	-59.984	0.049	-0.021
-384.990	256.826	0.106	0.181
-383.975	-200.000	-0.032	-0.186
-382.960	-99.331	0.323	-0.081
-381.946	-200.000	0.028	0.277
-380.931	-161.065	0.400	-0.021
-379.917	-34.864	-0.047	-0.025
-378.902	96.744	-0.179	-0.203
-377.888	21.246	-0.189	-0.152
-376.873	25.248	0.202	0.167
-375.858	800.000	0.036	0.128
-374.844	618.482	0.103	0.256
-373.829	8.507	0.201	0.150
-372.815	-200.000	0.040	-0.220
-371.800	800.000	0.015	-0.059
-370.785	-200.000	-0.030	-0.333
-369.771	-160.466	-0.093	-0.005
-368.756	-111.331	0.144	0.029
-367.742	800.000	-0.064	-0.225
-366.727	-200.000	-0.002	0.266
-365.712	-200.000	-0.008	-0.169
-364.698	-53.602	-0.164	-0.074
-363.683	-158.609	-0.180	-0.010
-362.669	102.510	-0.156	0.181
-361.654	-68.328	-0.300	0.115
-360.639	122.977	-0.252	-0.313
-359.625	-9.335	-0.141	-0.093
-358.610	-51.941	0.064	0.029
-357.596	519.094	0.095	-0.219
-356.581	-113.423	-0.222	0.043
-355.566	536.340	0.163	-0.382
-354.552	23.403	0.115	-0.094
-353.537	331.602	-0.058	0.111
-352.523	-61.836	0.435	0.180
-351.508	-200.000	-0.007	-0.186
-350.493	27.918	-0.191	-0.159
-349.479	800.000	-0.043	-0.133
-348.464	800.000	-0.070	-0.214
-347.450	2.008	-0.331	-0.236
-346.435	146.817	0.303	0.403
-345.420	-84.063	0.059	0.019
-344.406	149.360	-0.098	-0.132
-343.391	-68.703	-0.042	-0.016
-342.377	-121.103	-0.106	0.018
-341.362	-200.000	0.056	0.269
-340.348	-96.676	0.105	-0.027
-339.333	-53.257	-0.136	0.062
-338.318	50.008	0.074	0.069
-337.304	-200.000	0.027	-0.168
-336.289	24.079	-0.118	-0.097
-335.275	-50.881	-0.266	-0.124
-334.260	-31.180	-0.221	0.123
-333.245	144.421	-0.220	-0.291
-332.231	-200.000	0.012	-0.406
-331.216	48.841	0.183	-0.170
-330.202	-106.109	-0.118	-0.026
-329.187	-61.712	0.211	-0.088
-328.172	589.530	0.059	-0.144
-327.158	-75.988	-0.127	0.044
-326.143	-7.970	-0.122	0.082
-325.129	43.066	0.077	0.070
-324.114	585.625	-0.104	-0.253
-323.099	-148.029	-0.422	0.035
-322.085	-67.654	0.186	0.072
-321.070	-48.163	-0.195	-0.093
-320.056	-200.000	-0.026	-0.382
-319.041	65.235	0.154	0.154
-318.026	120.581	0.165	-0.202
-317.012	-80.842	-0.073	-0.024
-315.997	800.000	-0.032	0.118
-314.983	800.000	-0.159	0.518
-313.968	-121.185	-0.209	-0.035
-312.953	-113.775	-0.148	0.029
-311.939	247.000	0.037	0.062
-310.924	81.339	0.095	-0.101
-309.910	-74.422	0.032	-0.011
-308.895	-96.486	0.093	0.024
-307.880	-193.166	0.034	0.000
-306.866	-130.188	0.354	0.048
-305.851	-24.932	-0.261	0.153
-304.837	-32.380	-0.059	0.032
-303.822	45.173	-0.176	0.160
-302.807	-200.000	-0.008	0.118
-301.793	51.303	0.113	0.106
-300.778	-136.966	-0.027	0.003
-299.764	-25.330	-0.051	0.030
-298.749	-63.236	0.248	0.101
-297.735	-51.717	0.024	0.011
-296.720	800.000	-0.037	-0.107
-295.705	27.118	0.392	0.325
-294.691	800.000	0.106	0.319
-293.676	-123.351	0.102	0.016
-292.662	800.000	0.036	-0.115
-291.647	-200.000	0.019	-0.199
-290.632	-200.000	0.002	0.072
-289.618	31.031	-0.234	0.198
-288.603	-27.452	-0.270	0.155
-287.589	800.000	-0.047	-0.173
-286.574	59.793	-0.297	0.290
-285.559	768.894	-0.191	0.513
-284.545	-43.515	0.109	-0.055
-283.530	-98.523	-0.102	-0.026
-282.516	-55.917	-0.361	0.159
-281.501	-200.000	0.052	0.326
-280.486	101.948	-0.287	-0.331
-279.472	-126.376	0.249	0.037
-278.457	-200.000	0.030	-0.249
-277.443	-200.000	0.001	-0.332
-276.428	-59.942	0.173	0.073
-275.413	800.000	0.032	-0.127
-274.399	-200.000	-0.054	0.243
-273.384	-55.337	0.345	0.153
-272.370	8.873	0.051	-0.038
-271.355	141.294	0.283	0.369
-270.340	-200.000	-0.036	-0.296
-269.326	-45.050	-0.162	0.079
-268.311	-105.999	0.140	0.031
-267.297	235.637	-0.156	0.255
-266.282	-151.777	-0.109	-0.008
-265.267	-2.144	-0.082	0.057
-264.253	725.095	0.065	0.172
-263.238	-107.941	0.143	0.031
-262.224	125.033	-0.117	-0.146
-261.209	-200.000	0.008	-0.231
-260.195	-57.882	-0.241	0.104
-259.180	14.870	-0.278	0.215
-258.165	-200.000	0.007	-0.386
-257.151	-155.966	-0.258	-0.016
-256.136	-27.852	-0.284	0.162
-255.122	800.000	-0.026	0.092
-254.107	451.615	0.196	0.426
-253.092	-125.074	-0.313	-0.047
-252.078	800.000	0.098	-0.349
-251.063	-109.166	-0.266	0.056
-250.049	-46.431	-0.110	0.053
-249.034	-85.577	0.189	-0.058
-248.019	570.646	0.057	-0.138
-247.005	-0.520	0.089	0.062
-245.990	35.833	-0.060	0.052
-244.976	-86.683	0.348	0.105
-243.961	16.802	0.300	0.234
-242.946	-31.243	0.352	0.196
-241.932	-100.512	-0.197	-0.048
-240.917	-84.636	-0.237	-0.074
-239.903	-58.939	0.407	-0.174
-238.888	-200.000	0.084	0.531
-237.873	-153.073	0.166	0.012
-236.859	-153.668	-0.279	-0.019
-235.844	-69.140	-0.181	-0.069
-234.830	800.000	-0.041	-0.153
-233.815	36.938	0.146	-0.127
-232.800	-41.784	-0.342	0.173
-231.786	-200.000	-0.026	0.327
-230.771	800.000	-0.020	-0.065
-229.757	299.144	0.105	-0.191
-228.742	-23.527	0.009	-0.005
-227.727	800.000	0.014	-0.040
-226.713	531.655	-0.092	0.215
-225.698	457.842	0.032	-0.070
-224.684	-200.000	-0.035	-0.385
-223.669	70.550	0.355	0.362
-222.655	90.431	0.192	-0.212
-221.640	800.000	0.034	0.144
-220.625	324.001	0.090	0.170
-219.611	242.317	0.101	-0.167
-218.596	0.798	-0.191	-0.135
-217.582	117.928	0.216	-0.262
-216.567	-200.000	-0.180	0.000
-215.552	-29.632	0.533	0.300
-214.538	-175.736	0.218	-0.006
-213.523	800.000	0.164	0.452
-212.509	-102.239	0.147	-0.035
-211.494	533.965	0.103	-0.241
-210.479	73.093	0.302	0.311
-209.465	-75.562	0.209	-0.073
-208.450	-200.000	-0.030	-0.324
-207.436	364.420	-0.074	0.147
-206.421	-19.108	-0.156	-0.095
-205.406	-200.000	-0.020	-0.270
-204.392	-200.000	-0.014	0.186
-203.377	-94.972	0.007	0.002
-202.363	97.303	0.037	0.041
-201.348	143.735	0.047	0.062
-200.333	41.446	0.230	-0.205
-199.319	-35.340	-0.118	-0.063
-198.304	-138.810	0.108	0.012
-197.290	-181.362	-0.278	-0.005
-196.275	800.000	0.076	0.261
-195.260	-167.484	-0.296	0.012
-194.246	28.854	0.128	0.106
-193.231	54.907	-0.277	0.263
-192.217	-26.887	0.099	-0.057
-191.202	98.235	0.201	0.228
-190.187	579.289	-0.079	0.191
-189.173	464.129	-0.066	-0.146
-188.158	271.265	-0.060	0.103
-187.144	-8.854	-0.313	0.207
-186.129	59.655	0.197	0.191
-185.114	800.000	-0.016	-0.054
-184.100	82.583	0.162	0.174
-183.085	800.000	-0.105	0.348
-182.071	267.660	-0.048	0.083
-181.056	377.400	-0.068	0.136
-180.042	-24.265	0.324	-0.190
-179.027	-50.869	0.159	-0.074
-178.012	-14.546	-0.339	0.215
-176.998	705.159	0.056	-0.145
-175.983	251.774	-0.174	-0.291
-174.969	800.000	-0.062	-0.248
-173.954	-200.000	0.001	-0.057
-172.939	-41.496	0.096	0.049
-171.925	-200.000	0.027	0.126
-170.910	32.876	0.248	-0.211
-169.896	82.904	0.135	-0.144
-168.881	800.000	0.035	-0.106
-167.866	-200.000	0.015	-0.088
-166.852	-67.847	0.208	-0.080
-165.837	142.764	0.177	0.231
-164.823	289.211	-0.198	0.353
-163.808	-200.000	-0.038	0.187
-162.793	252.735	0.178	0.299
-161.779	-84.891	-0.247	0.076
-160.764	800.000	0.071	-0.227
-159.750	357.043	0.021	-0.041
-158.735	800.000	0.071	0.231
-157.720	800.000	-0.039	-0.115
-156.706	-130.793	-0.405	-0.053
-155.691	-69.877	-0.132	0.049
-154.677	-80.342	0.236	-0.077
-153.662	-150.434	-0.194	-0.015
-152.647	229.700	0.076	-0.122
-151.633	-93.790	-0.212	0.058
-150.618	800.000	0.036	0.124
-149.604	477.380	0.096	-0.213
-148.589	-6.525	0.121	-0.081
-147.574	-7.223	-0.032	0.021
-146.560	-200.000	-0.029	0.167
-145.545	45.452	-0.126	-0.114
-144.531	-194.877	0.325	0.002
-143.516	29.573	0.315	0.263
-142.502	-145.828	0.201	-0.018
-141.487	-88.005	0.284	-0.084
-140.472	-97.363	0.145	-0.037
-139.458	125.668	0.137	0.170
-138.443	-77.179	0.290	0.099
-137.429	54.987	-0.320	0.304
-136.414	220.175	-0.094	0.149
-135.399	-106.311	0.150	-0.033
-134.385	-183.816	-0.362	0.006
-133.370	1.980	0.145	0.103
-132.356	537.060	0.036	0.085
-131.341	-82.879	-0.019	-0.006
-130.326	101.570	-0.122	0.140
-129.312	136.162	-0.075	-0.095
-128.297	77.199	0.116	0.121
-127.283	701.059	-0.049	0.127
-126.268	268.725	-0.166	0.286
-125.253	16.030	-0.288	0.223
-124.239	283.667	0.090	0.159
-123.224	55.866	-0.044	0.042
-122.210	-56.051	-0.225	-0.098
-121.195	66.067	0.104	0.104
