DTS Sentinel unit serial number:	SN413079Multiplexer serial number:	ORYXHardware model number:	OX4-SRSoftware version number:	ORYX F/W v4.00 Oryx Data Collector v3.7.2.0data status	okinstallation	princeton_trtdifferential loss correction	single-endedforward channel	channel 4reverse channel	N/Adate	2019/09/19time	13:13:35forward acquisition time	60.00reverse acquisition time	0.00gamma	496.2192k internal	0.2313k external	0.2313temperature offset calibration	1.0018default loss term (dB/km)	0.3790temperature slope calibration	1.0000multiplexer offset coefficient	1.0000multiplexer slope coefficient	1.0000fibre end	0.00T internal ref (°C)	29.30T ext. ref 1 (°C)	0.95T ext. ref 2 (°C)	27.09length (m)	temperature (°C)	Stokes	anti-Stokes-747.200	10.206	-0.148	-0.114
-746.185	-139.257	-0.131	0.014
-745.171	21.972	-0.157	0.130
-744.156	-200.000	-0.022	0.297
-743.142	-200.000	-0.024	0.126
-742.127	-200.000	0.066	0.398
-741.112	-65.410	-0.126	-0.051
-740.098	-13.516	0.187	0.123
-739.083	606.020	-0.162	-0.410
-738.069	189.714	-0.256	0.389
-737.054	-156.928	0.210	0.013
-736.039	-54.782	-0.432	0.198
-735.025	424.598	-0.026	-0.056
-734.010	34.352	0.163	0.144
-732.996	205.089	-0.071	0.112
-731.981	-42.117	-0.386	-0.200
-730.966	215.835	-0.115	-0.185
-729.952	115.853	-0.115	-0.142
-728.937	800.000	-0.047	-0.181
-727.923	15.465	0.139	0.111
-726.908	138.855	-0.228	-0.303
-725.894	-200.000	-0.033	-0.226
-724.879	26.839	-0.210	0.178
-723.864	-200.000	-0.015	0.113
-722.850	134.760	-0.164	0.215
-721.835	407.305	0.119	-0.255
-720.821	-200.000	0.032	-0.371
-719.806	-87.435	-0.250	0.077
-718.791	-55.304	0.264	-0.120
-717.777	187.766	-0.270	-0.409
-716.762	85.458	-0.130	-0.144
-715.748	-137.768	0.093	-0.011
-714.733	-154.436	-0.119	-0.008
-713.718	-15.836	0.090	0.058
-712.704	-142.534	0.448	-0.045
-711.689	5.456	0.075	-0.056
-710.675	-200.000	0.006	0.292
-709.660	14.507	0.346	-0.274
-708.645	800.000	0.086	-0.279
-707.631	-200.000	0.064	-0.425
-706.616	-88.955	0.122	-0.037
-705.602	-140.465	-0.489	-0.052
-704.587	-35.924	-0.459	-0.251
-703.572	800.000	0.068	0.272
-702.558	-11.561	-0.068	0.045
-701.543	7.001	0.065	-0.049
-700.529	-92.217	-0.366	-0.105
-699.514	800.000	0.138	0.403
-698.499	-8.105	-0.133	0.091
-697.485	129.801	0.083	-0.107
-696.470	800.000	0.059	0.217
-695.456	-200.000	0.021	0.140
-694.441	-103.975	-0.127	0.030
-693.426	-32.855	-0.149	-0.084
-692.412	283.512	0.158	-0.287
-691.397	379.407	-0.216	-0.448
-690.383	-200.000	0.018	0.142
-689.368	319.169	-0.047	-0.090
-688.354	800.000	0.042	-0.161
-687.339	-15.759	-0.420	0.271
-686.324	-49.658	-0.097	-0.047
-685.310	59.573	-0.282	-0.281
-684.295	800.000	0.111	-0.370
-683.281	-67.250	0.112	0.045
-682.266	800.000	0.157	-0.520
-681.251	-148.345	0.120	-0.010
-680.237	-172.717	-0.170	-0.005
-679.222	12.812	0.120	-0.094
-678.208	217.694	-0.047	-0.076
-677.193	800.000	0.097	-0.281
-676.178	-74.128	0.024	0.009
-675.164	-59.673	-0.290	0.126
-674.149	800.000	0.049	-0.163
-673.135	-119.940	0.088	0.015
-672.120	-32.784	-0.294	-0.165
-671.105	-17.412	-0.195	-0.124
-670.091	-11.904	-0.374	-0.248
-669.076	-200.000	0.032	-0.324
-668.062	-200.000	-0.020	-0.430
-667.047	355.535	0.021	0.041
-666.032	-200.000	0.012	-0.274
-665.018	800.000	-0.054	0.178
-664.003	-200.000	0.019	-0.120
-662.989	57.294	0.178	0.175
-661.974	-15.472	0.218	-0.141
-660.959	-176.110	0.087	0.002
-659.945	82.334	0.235	-0.258
-658.930	-200.000	0.001	-0.119
-657.916	-134.806	0.227	-0.028
-656.901	-171.672	-0.145	0.005
-655.886	322.003	-0.107	0.206
-654.872	-105.880	0.074	-0.017
-653.857	-200.000	0.017	0.102
-652.843	-47.807	-0.227	-0.111
-651.828	-71.508	-0.185	-0.070
-650.814	6.962	-0.120	0.090
-649.799	-113.673	0.276	0.054
-648.784	482.697	-0.183	0.419
-647.770	10.417	0.110	0.085
-646.755	-152.129	-0.248	0.018
-645.741	145.400	-0.113	-0.153
-644.726	163.554	-0.187	0.266
-643.711	-102.197	0.100	0.024
-642.697	-134.407	-0.255	-0.032
-641.682	-28.970	-0.359	-0.208
-640.668	-200.000	-0.020	-0.256
-639.653	800.000	-0.123	-0.538
-638.638	-200.000	-0.018	-0.283
-637.624	-25.007	-0.105	-0.063
-636.609	-200.000	0.141	0.001
-635.595	319.644	0.037	-0.071
-634.580	-124.707	-0.264	-0.041
-633.565	-18.798	0.408	0.256
-632.551	432.161	-0.064	-0.140
-631.536	-200.000	-0.008	0.251
-630.522	-60.193	0.571	0.246
-629.507	-46.303	0.074	0.037
-628.492	83.163	0.345	-0.379
-627.478	-59.595	-0.068	0.029
-626.463	-54.885	-0.265	0.121
-625.449	88.209	-0.143	0.160
-624.434	-200.000	0.017	-0.094
-623.419	184.287	-0.158	0.236
-622.405	-200.000	0.001	0.199
-621.390	-23.668	0.155	-0.094
-620.376	-124.590	-0.335	-0.052
-619.361	518.337	0.120	-0.284
-618.346	-42.365	0.172	0.088
-617.332	-65.240	0.112	0.045
-616.317	-200.000	0.024	-0.162
-615.303	-98.289	-0.230	-0.060
-614.288	-200.000	0.030	-0.186
-613.273	-175.232	-0.273	-0.008
-612.259	800.000	0.074	-0.286
-611.244	-34.367	0.037	0.020
-610.230	38.210	-0.204	-0.183
-609.215	-13.614	0.032	-0.021
-608.201	20.400	0.212	0.173
-607.186	-26.242	0.330	0.196
-606.171	-156.487	0.140	-0.009
-605.157	800.000	-0.077	-0.314
-604.142	-134.459	0.027	-0.003
-603.128	70.913	0.027	-0.028
-602.113	-200.000	-0.017	0.145
-601.098	-136.796	0.080	-0.009
-600.084	-200.000	-0.027	0.306
-599.069	800.000	0.051	0.165
-598.055	38.049	0.074	-0.066
-597.040	-200.000	0.003	-0.424
-596.025	-200.000	0.038	-0.199
-595.011	-200.000	0.024	-0.275
-593.996	296.251	-0.128	0.237
-592.982	-200.000	-0.040	-0.217
-591.967	135.869	-0.138	0.181
-590.952	-8.800	0.162	-0.110
-589.938	247.432	0.134	-0.228
-588.923	212.863	0.048	0.077
-587.909	327.231	0.061	-0.117
-586.894	-145.403	0.054	-0.005
-585.879	-200.000	-0.015	0.155
-584.865	410.495	-0.053	0.114
-583.850	800.000	-0.051	-0.223
-582.836	-86.322	-0.249	-0.077
-581.821	4.289	0.465	-0.343
-580.806	-19.573	0.181	-0.113
-579.792	-200.000	0.007	-0.245
-578.777	-200.000	-0.020	0.105
-577.763	143.779	0.062	0.083
-576.748	-104.486	-0.228	-0.053
-575.733	4.189	0.149	-0.110
-574.719	800.000	-0.069	0.261
-573.704	-63.242	-0.053	0.022
-572.690	205.331	0.191	0.300
-571.675	-26.304	0.243	-0.143
-570.661	293.358	-0.041	0.076
-569.646	23.408	-0.054	-0.044
-568.631	-62.324	0.209	-0.087
-567.617	-115.979	0.256	0.048
-566.602	-200.000	0.028	0.125
-565.588	-47.281	-0.244	0.120
-564.573	-200.000	0.041	0.327
-563.558	-4.109	0.247	0.172
-562.544	-129.284	0.245	0.034
-561.529	-200.000	-0.027	-0.253
-560.515	-200.000	-0.008	-0.051
-559.500	800.000	-0.056	0.211
-558.485	25.681	-0.040	0.034
-557.471	-200.000	0.029	0.278
-556.456	18.147	-0.168	0.135
-555.442	149.309	0.164	-0.223
-554.427	36.386	-0.293	-0.260
-553.412	296.535	-0.129	0.237
-552.398	-45.978	0.076	-0.038
-551.383	449.293	0.071	-0.159
-550.369	-42.656	0.281	0.144
-549.354	-91.525	-0.181	0.052
-548.339	-83.329	-0.065	0.021
-547.325	-163.605	0.189	0.009
-546.310	-200.000	-0.016	-0.143
-545.296	-183.704	0.047	-0.001
-544.281	113.340	0.147	0.180
-543.266	-43.181	-0.095	-0.048
-542.252	92.665	-0.066	0.074
-541.237	410.508	0.121	0.258
-540.223	-200.000	0.001	0.082
-539.208	44.085	0.134	-0.124
-538.193	-175.861	0.195	-0.005
-537.179	10.273	0.025	-0.019
-536.164	260.817	-0.073	0.126
-535.150	-200.000	-0.061	0.450
-534.135	405.960	-0.122	0.260
-533.121	57.081	-0.171	-0.168
-532.106	-97.216	-0.222	0.058
-531.091	118.204	0.232	-0.287
-530.077	-175.745	0.147	0.004
-529.062	151.343	-0.337	0.462
-528.048	-74.947	-0.232	-0.084
-527.033	-134.987	0.120	-0.015
-526.018	800.000	-0.086	-0.307
-525.004	-200.000	0.094	-0.459
-523.989	508.337	0.195	-0.454
-522.975	-12.508	0.100	-0.066
-521.960	-200.000	0.011	-0.107
-520.945	-43.751	0.269	-0.136
-519.931	-200.000	-0.035	-0.160
-518.916	-109.186	-0.156	0.033
-517.902	-118.516	-0.476	-0.085
-516.887	-200.000	-0.003	0.248
-515.872	-200.000	-0.062	-0.312
-514.858	-33.556	0.230	0.128
-513.843	43.670	-0.110	-0.101
-512.829	371.662	-0.027	-0.056
-511.814	-140.839	-0.235	0.024
-510.799	294.374	-0.140	-0.257
-509.785	800.000	0.028	-0.081
-508.770	-87.349	-0.099	-0.030
-507.756	800.000	0.049	-0.181
-506.741	800.000	-0.048	-0.171
-505.726	-68.947	0.178	0.069
-504.712	800.000	0.074	0.283
-503.697	-12.633	-0.215	0.141
-502.683	-200.000	0.006	-0.130
-501.668	-102.377	0.231	0.056
-500.653	46.814	0.147	0.137
-499.639	-143.742	-0.333	-0.032
-498.624	221.948	-0.051	0.083
-497.610	-140.990	0.218	-0.022
-496.595	-44.325	-0.168	-0.084
-495.581	306.101	0.094	0.176
-494.566	800.000	0.033	-0.096
-493.551	-48.193	-0.269	-0.130
-492.537	-26.504	0.186	-0.110
-491.522	-200.000	0.018	0.165
-490.508	-111.555	-0.098	-0.020
-489.493	428.459	-0.141	0.305
-488.478	308.761	0.192	0.360
-487.464	-200.000	0.018	-0.206
-486.449	-200.000	-0.052	-0.235
-485.435	-73.638	-0.282	-0.103
-484.420	368.255	0.043	-0.087
-483.405	-20.756	0.050	-0.031
-482.391	-86.048	-0.128	-0.040
-481.376	-75.677	-0.277	0.099
-480.362	103.867	0.064	-0.076
-479.347	143.075	-0.171	0.228
-478.332	800.000	0.043	-0.151
-477.318	-200.000	0.007	0.191
-476.303	-84.628	0.221	-0.070
-475.289	-150.282	-0.089	-0.007
-474.274	-48.853	0.094	-0.045
-473.259	-17.619	-0.449	-0.283
-472.245	479.854	-0.112	-0.255
-471.230	459.640	0.064	0.144
-470.216	-7.722	-0.144	0.097
-469.201	-128.934	-0.434	-0.061
-468.186	-195.613	-0.053	0.000
-467.172	-18.094	0.215	0.135
-466.157	-122.305	-0.018	-0.003
-465.143	-161.587	-0.181	0.009
-464.128	-8.703	-0.222	0.149
-463.113	-135.320	0.350	-0.042
-462.099	-31.168	0.087	0.049
-461.084	-88.129	0.448	0.135
-460.070	-200.000	-0.062	-0.394
-459.055	-200.000	-0.068	-0.445
-458.040	-200.000	0.046	-0.531
-457.026	-95.949	-0.180	-0.048
-456.011	-200.000	0.007	-0.088
-454.997	-14.068	-0.249	-0.161
-453.982	312.573	0.119	-0.224
-452.968	800.000	-0.112	0.343
-451.953	108.455	-0.060	0.071
-450.938	-200.000	0.014	0.249
-449.924	71.879	0.310	0.323
-448.909	23.554	-0.120	0.099
-447.895	-109.710	0.034	-0.007
-446.880	58.806	0.144	0.142
-445.865	-91.483	-0.139	0.040
-444.851	-200.000	0.052	0.240
-443.836	-29.142	-0.315	0.181
-442.822	-62.307	0.129	0.054
-441.807	-200.000	-0.013	0.082
-440.792	-92.225	0.153	0.043
-439.778	275.629	0.083	0.148
-438.763	-80.329	-0.312	-0.104
-437.749	-200.000	-0.021	-0.276
-436.734	52.664	0.075	0.071
-435.719	-200.000	0.040	0.337
-434.705	-155.164	0.285	0.019
-433.690	-159.507	-0.395	-0.022
-432.676	177.453	0.178	0.259
-431.661	-200.000	-0.073	0.430
-430.646	751.193	0.073	0.196
-429.632	635.631	-0.031	0.078
-428.617	640.457	-0.093	-0.236
-427.603	-98.275	-0.294	0.075
-426.588	55.533	0.292	0.283
-425.573	703.181	-0.106	-0.280
-424.559	-146.070	-0.354	0.031
-423.544	-138.163	0.177	-0.020
-422.530	456.705	0.211	0.469
-421.515	800.000	0.070	-0.233
-420.500	-26.529	0.121	-0.071
-419.486	108.393	-0.281	0.336
-418.471	141.731	-0.110	-0.145
-417.457	219.249	0.142	0.227
-416.442	-132.120	-0.346	-0.045
-415.428	-200.000	-0.052	-0.310
-414.413	11.367	0.118	0.091
-413.398	-200.000	-0.001	-0.025
-412.384	-93.335	0.238	-0.066
-411.369	15.192	-0.326	-0.256
-410.355	568.469	-0.052	-0.127
-409.340	800.000	0.029	-0.085
-408.325	-87.377	-0.298	-0.090
-407.311	231.363	-0.100	0.165
-406.296	-200.000	-0.023	0.396
-405.282	80.451	0.130	-0.140
-404.267	131.947	0.130	-0.168
-403.252	800.000	-0.035	-0.105
-402.238	-36.867	0.331	-0.178
-401.223	-200.000	0.004	0.056
-400.209	-170.899	-0.667	0.023
-399.194	-52.806	-0.222	0.102
-398.179	-69.643	-0.147	-0.056
-397.165	-57.371	-0.157	-0.069
-396.150	308.634	-0.062	0.116
-395.136	373.826	0.014	-0.029
-394.121	492.938	0.054	0.125
-393.106	300.230	0.099	0.182
-392.092	-200.000	-0.064	0.455
-391.077	-200.000	0.044	-0.324
-390.063	-110.199	-0.577	-0.120
-389.048	-54.955	-0.071	-0.032
-388.033	-21.144	-0.182	-0.111
-387.019	169.005	0.207	-0.295
-386.004	-80.337	0.329	-0.110
-384.990	73.577	-0.100	0.105
-383.975	-157.732	0.223	-0.013
-382.960	-200.000	0.009	-0.163
-381.946	77.186	0.163	-0.174
-380.931	-63.926	-0.211	0.086
-379.917	270.269	-0.094	0.166
-378.902	19.803	-0.136	-0.109
-377.888	-75.334	0.439	0.157
-376.873	-157.709	-0.053	-0.003
-375.858	10.210	-0.164	-0.125
-374.844	-77.900	-0.161	-0.055
-373.829	-106.632	-0.035	-0.008
-372.815	-200.000	0.055	0.330
-371.800	-49.918	-0.327	-0.155
-370.785	112.995	-0.085	-0.103
-369.771	-11.068	0.341	-0.225
-368.756	-111.219	-0.191	-0.039
-367.742	418.693	0.072	0.154
-366.727	-200.000	-0.003	0.183
-365.712	800.000	0.048	0.159
-364.698	286.808	0.079	-0.142
-363.683	235.353	-0.107	0.176
-362.669	274.450	0.127	0.225
-361.654	-80.644	-0.300	-0.100
-360.639	51.234	0.172	-0.163
-359.625	-53.941	-0.300	-0.136
-358.610	-121.204	-0.187	0.031
-357.596	800.000	-0.123	0.368
-356.581	33.436	-0.113	0.098
-355.566	12.311	-0.180	0.138
-354.552	-200.000	0.042	-0.220
-353.537	-200.000	0.022	-0.127
-352.523	-169.705	-0.093	0.003
-351.508	44.189	0.040	0.036
-350.493	800.000	-0.131	-0.395
-349.479	-200.000	0.017	0.188
-348.464	-200.000	0.020	-0.117
-347.450	-106.436	0.143	-0.032
-346.435	-139.762	0.132	-0.014
-345.420	37.616	-0.181	0.161
-344.406	-114.016	-0.117	0.023
-343.391	5.549	0.054	-0.040
-342.377	-200.000	0.020	0.095
-341.362	206.379	0.074	0.115
-340.348	-87.063	0.201	0.061
-339.333	-159.924	0.223	-0.012
-338.318	800.000	0.102	0.299
-337.304	-102.479	0.134	-0.032
-336.289	278.090	-0.028	-0.049
-335.275	800.000	-0.072	-0.219
-334.260	166.297	0.112	-0.158
-333.245	184.599	-0.227	-0.335
-332.231	510.025	0.123	-0.286
-331.216	-200.000	-0.003	0.072
-330.202	-87.482	-0.121	0.037
-329.187	-108.338	0.516	0.111
-328.172	800.000	0.023	-0.081
-327.158	53.869	0.068	-0.065
-326.143	-125.548	0.424	-0.064
-325.129	119.279	-0.172	-0.213
-324.114	216.539	-0.091	-0.144
-323.099	-76.203	-0.104	-0.037
-322.085	6.236	0.030	0.022
-321.070	233.384	-0.058	0.095
-320.056	-28.632	0.449	0.258
-319.041	800.000	0.068	0.245
-318.026	-97.010	0.251	0.066
-317.012	297.329	0.093	0.170
-315.997	-200.000	0.000	0.056
-314.983	800.000	-0.079	0.238
-313.968	-200.000	0.121	0.534
-312.953	-95.445	-0.132	-0.035
-311.939	-200.000	-0.036	0.170
-310.924	743.842	-0.024	0.064
-309.910	-152.028	-0.115	-0.008
-308.895	-110.149	0.044	-0.009
-307.880	107.966	-0.282	0.335
-306.866	800.000	0.080	-0.231
-305.851	-200.000	0.008	-0.543
-304.837	-28.770	0.378	0.217
-303.822	-71.398	-0.238	-0.089
-302.807	266.528	-0.039	-0.068
-301.793	95.642	0.212	0.241
-300.778	-137.362	0.070	-0.008
-299.764	-123.884	-0.214	0.034
-298.749	57.500	0.239	0.233
-297.735	-31.695	0.314	0.176
-296.720	-145.732	-0.404	0.036
-295.705	44.798	0.207	0.190
-294.691	-200.000	0.053	-0.287
-293.676	-79.377	-0.193	0.065
-292.662	-9.895	-0.204	0.135
-291.647	54.047	0.231	-0.221
-290.632	-84.309	0.120	-0.038
-289.618	-19.119	-0.058	0.036
-288.603	-76.649	-0.131	0.046
-287.589	-200.000	-0.108	-0.000
-286.574	-21.039	0.347	0.212
-285.559	110.771	0.035	0.041
-284.545	33.852	0.156	-0.135
-283.530	-200.000	-0.028	-0.141
-282.516	373.124	-0.142	0.288
-281.501	-173.008	-0.321	0.010
-280.486	476.699	-0.057	-0.128
-279.472	-44.827	-0.168	-0.083
-278.457	348.563	-0.110	-0.216
-277.443	-78.998	0.150	0.051
-276.428	257.077	0.086	0.147
-275.413	9.431	0.338	0.255
-274.399	487.084	0.183	-0.416
-273.384	70.082	0.133	-0.137
-272.370	139.787	-0.208	-0.273
-271.355	800.000	-0.082	0.261
-270.340	-25.551	0.172	-0.101
-269.326	11.824	0.216	0.165
-268.311	293.728	-0.127	-0.231
-267.297	800.000	-0.015	0.057
-266.282	310.760	0.085	0.158
-265.267	-152.991	-0.236	0.017
-264.253	55.711	-0.115	-0.111
-263.238	16.679	-0.083	-0.065
-262.224	800.000	0.053	0.193
-261.209	800.000	-0.082	0.275
-260.195	-143.071	0.450	-0.043
-259.180	-200.000	-0.065	-0.321
-258.165	49.063	-0.072	-0.067
-257.151	151.293	0.212	0.287
-256.136	13.715	0.402	-0.310
-255.122	571.251	0.123	0.299
-254.107	-104.740	-0.240	0.055
-253.092	800.000	-0.051	0.195
-252.078	-3.844	0.205	0.142
-251.063	-54.739	-0.172	0.077
-250.049	-200.000	-0.034	0.285
-249.034	-17.419	-0.121	0.076
-248.019	-76.887	-0.103	-0.036
-247.005	-200.000	-0.009	-0.187
-245.990	-32.133	0.522	-0.290
-244.976	-90.069	0.087	-0.025
-243.961	304.782	-0.051	-0.094
-242.946	129.076	0.255	-0.323
-241.932	-191.517	0.175	0.002
-240.917	135.967	0.092	-0.120
-239.903	6.806	-0.124	-0.092
-238.888	193.131	-0.086	0.129
-237.873	-144.096	0.234	0.022
-236.859	-200.000	-0.004	-0.360
-235.844	-19.651	-0.234	-0.144
-234.830	-4.756	-0.034	-0.023
-233.815	388.426	0.147	-0.303
-232.800	-200.000	-0.040	-0.192
-231.786	40.505	-0.228	-0.204
-230.771	800.000	-0.060	0.215
-229.757	295.385	-0.190	-0.345
-228.742	800.000	-0.064	0.196
-227.727	-28.722	-0.087	0.050
-226.713	-50.609	0.334	0.156
-225.698	-200.000	0.029	-0.175
-224.684	135.300	-0.170	0.219
-223.669	-2.826	-0.175	0.122
-222.655	359.300	0.171	0.341
-221.640	176.511	0.115	0.167
-220.625	-200.000	0.048	0.226
-219.611	291.104	0.103	0.185
-218.596	-103.504	0.353	-0.082
-217.582	800.000	0.073	0.290
-216.567	-142.401	-0.321	-0.031
-215.552	-30.878	0.118	-0.066
-214.538	-39.700	0.193	0.100
-213.523	-53.054	-0.186	0.085
-212.509	105.837	0.144	-0.169
-211.494	-170.675	0.215	0.007
-210.479	105.920	-0.005	0.006
-209.465	-200.000	-0.019	0.358
-208.450	66.769	-0.301	-0.304
-207.436	-55.823	0.127	-0.056
-206.421	54.145	-0.229	0.219
-205.406	40.621	0.142	0.127
-204.392	97.275	-0.244	0.279
-203.377	67.787	0.149	-0.152
-202.363	-64.292	0.186	0.075
-201.348	-200.000	-0.025	-0.308
-200.333	-103.972	-0.232	0.054
-199.319	-34.588	0.004	0.002
-198.304	-151.887	-0.121	-0.009
-197.290	598.440	0.164	-0.404
-196.275	5.257	0.335	-0.245
-195.260	19.467	0.124	0.099
-194.246	146.369	-0.026	0.035
-193.231	-200.000	0.014	-0.119
-192.217	507.856	-0.109	0.250
-191.202	800.000	-0.044	0.187
-190.187	-59.809	-0.256	0.109
-189.173	215.045	0.086	0.135
-188.158	21.966	0.281	-0.227
-187.144	194.428	-0.131	0.198
-186.129	-9.200	-0.173	0.115
-185.114	22.639	0.324	0.263
-184.100	47.661	0.098	-0.091
-183.085	58.655	0.138	-0.135
-182.071	10.323	-0.367	0.277
-181.056	-48.753	0.367	0.175
-180.042	800.000	-0.055	-0.187
-179.027	19.129	-0.211	0.168
-178.012	520.364	0.064	-0.150
-176.998	17.904	-0.131	0.103
-175.983	124.295	-0.187	-0.233
-174.969	7.817	-0.149	-0.111
-173.954	-134.306	0.236	0.029
-172.939	128.868	0.172	0.218
-171.925	-30.091	0.121	0.068
-170.910	800.000	0.026	0.102
-169.896	234.443	0.118	-0.192
-168.881	800.000	-0.063	-0.182
-167.866	-200.000	0.003	0.363
-166.852	-98.118	0.341	-0.087
-165.837	4.911	0.173	-0.126
-164.823	11.351	-0.301	-0.228
-163.808	800.000	0.058	-0.160
-162.793	-117.339	-0.056	0.010
-161.779	63.100	-0.126	0.125
-160.764	-129.937	-0.313	0.043
-159.750	-41.227	-0.266	-0.136
-158.735	15.740	0.240	-0.187
-157.720	-100.331	0.110	0.027
-156.706	194.064	-0.201	-0.302
-155.691	34.771	-0.184	0.159
-154.677	-200.000	-0.014	-0.213
-153.662	51.571	0.199	0.188
-152.647	41.283	0.029	0.026
-151.633	209.194	-0.134	-0.209
-150.618	158.554	-0.272	-0.375
-149.604	-43.600	-0.159	0.079
-148.589	-12.004	0.135	-0.088
-147.574	800.000	0.019	-0.064
-146.560	191.889	-0.068	0.102
-145.545	800.000	-0.106	0.382
-144.531	-19.883	0.228	0.140
-143.516	3.373	-0.067	0.048
-142.502	-140.408	-0.229	-0.024
-141.487	-15.668	0.092	0.058
-140.472	188.484	-0.152	-0.224
-139.458	-151.122	-0.378	-0.028
-138.443	13.018	0.024	-0.018
-137.429	-200.000	-0.065	-0.326
-136.414	-47.571	-0.173	-0.083
-135.399	32.271	-0.388	0.332
-134.385	13.020	0.155	0.119
-133.370	-186.664	-0.163	-0.002
-132.356	288.808	0.046	-0.083
-131.341	800.000	-0.066	0.213
-130.326	-135.184	0.196	-0.023
-129.312	-6.275	0.086	0.058
-128.297	800.000	0.011	-0.038
-127.283	-51.651	0.093	0.043
-126.268	374.690	0.094	0.190
-125.253	-145.226	-0.183	0.016
-124.239	-52.467	0.122	0.056
-123.224	-200.000	0.020	-0.185
-122.210	-25.532	-0.262	0.153
