DTS Sentinel unit serial number:	SN413079Multiplexer serial number:	ORYXHardware model number:	OX4-SRSoftware version number:	ORYX F/W v4.00 Oryx Data Collector v3.7.2.0data status	okinstallation	princeton_trtdifferential loss correction	single-endedforward channel	channel 4reverse channel	N/Adate	2019/09/14time	03:09:35forward acquisition time	60.00reverse acquisition time	0.00gamma	496.2192k internal	0.2323k external	0.2323temperature offset calibration	1.0133default loss term (dB/km)	0.3790temperature slope calibration	1.0000multiplexer offset coefficient	1.0000multiplexer slope coefficient	1.0000fibre end	0.00T internal ref (°C)	26.59T ext. ref 1 (°C)	3.26T ext. ref 2 (°C)	21.66length (m)	temperature (°C)	Stokes	anti-Stokes-747.200	411.640	-0.057	0.123
-746.185	416.143	0.064	0.138
-745.171	-78.750	0.305	-0.105
-744.156	-129.020	0.174	-0.025
-743.142	-200.000	0.024	-0.169
-742.127	-102.537	0.114	0.028
-741.112	43.520	0.204	-0.189
-740.098	-86.424	0.190	-0.059
-739.083	-200.000	0.063	0.283
-738.069	104.928	0.097	0.115
-737.054	4.241	-0.338	0.250
-736.039	141.581	0.065	-0.086
-735.025	510.281	0.125	0.293
-734.010	186.300	-0.137	-0.205
-732.996	-200.000	-0.011	-0.292
-731.981	121.990	-0.138	0.175
-730.966	663.641	-0.036	-0.094
-729.952	-34.559	0.243	-0.134
-728.937	-88.151	-0.231	-0.070
-727.923	-200.000	0.027	-0.201
-726.908	-60.007	0.105	-0.045
-725.894	-19.925	-0.223	-0.139
-724.879	-200.000	-0.180	-0.001
-723.864	339.236	-0.044	-0.087
-722.850	24.421	-0.057	-0.048
-721.835	-200.000	-0.007	0.309
-720.821	-50.721	-0.351	0.167
-719.806	103.369	0.199	-0.236
-718.791	370.377	-0.121	-0.248
-717.777	309.413	-0.219	-0.413
-716.762	-200.000	0.003	0.046
-715.748	800.000	-0.063	-0.231
-714.733	308.399	-0.209	-0.393
-713.718	67.921	-0.102	0.106
-712.704	7.600	-0.381	-0.288
-711.689	526.396	0.126	0.300
-710.675	143.119	0.160	-0.214
-709.660	75.294	0.208	0.221
-708.645	-92.483	-0.200	-0.057
-707.631	-111.004	0.360	0.075
-706.616	-37.275	-0.317	0.171
-705.602	-200.000	0.003	0.152
-704.587	-68.525	0.219	-0.086
-703.572	178.223	0.104	0.153
-702.558	157.121	-0.072	-0.101
-701.543	-0.056	0.136	-0.098
-700.529	-200.000	-0.020	0.276
-699.514	-142.127	-0.050	-0.005
-698.499	-200.000	-0.035	0.320
-697.485	102.050	-0.153	-0.180
-696.470	-18.064	-0.181	0.114
-695.456	84.912	0.063	0.070
-694.441	561.147	-0.079	-0.192
-693.426	-26.408	-0.194	-0.115
-692.412	-47.105	-0.241	-0.118
-691.397	-200.000	-0.007	0.171
-690.383	220.254	0.120	-0.193
-689.368	-48.708	0.237	0.115
-688.354	28.926	-0.262	0.224
-687.339	5.548	-0.070	0.052
-686.324	95.355	0.197	-0.226
-685.310	-183.483	0.326	0.006
-684.295	-2.228	-0.110	0.078
-683.281	34.598	0.292	0.257
-682.266	356.033	-0.179	-0.359
-681.251	81.264	0.157	0.171
-680.237	-162.735	0.219	-0.011
-679.222	-45.534	0.101	-0.051
-678.208	-200.000	0.003	-0.074
-677.193	-188.216	-0.054	-0.001
-676.178	-131.110	0.195	-0.026
-675.164	429.204	-0.112	-0.243
-674.149	631.264	0.050	-0.126
-673.135	-200.000	0.049	-0.252
-672.120	12.066	-0.287	-0.222
-671.105	-140.201	-0.401	-0.042
-670.091	-200.000	-0.032	0.253
-669.076	-96.159	0.198	-0.053
-668.062	-136.359	-0.475	0.056
-667.047	-122.902	-0.098	-0.016
-666.032	-200.000	0.003	-0.233
-665.018	-101.372	-0.041	0.010
-664.003	-200.000	0.008	-0.229
-662.989	-65.651	0.136	-0.055
-661.974	734.251	0.059	0.158
-660.959	-200.000	-0.051	-0.283
-659.945	-110.040	-0.374	0.079
-658.930	-139.770	-0.315	0.034
-657.916	-93.899	-0.234	-0.065
-656.901	726.084	-0.068	-0.183
-655.886	-88.341	-0.122	-0.037
-654.872	350.534	0.156	0.311
-653.857	494.348	0.125	0.288
-652.843	-200.000	-0.259	0.000
-651.828	27.942	0.166	0.141
-650.814	-25.904	-0.307	0.182
-649.799	39.602	0.318	0.287
-648.784	-200.000	-0.026	0.282
-647.770	230.436	-0.103	-0.169
-646.755	-200.000	-0.044	-0.244
-645.741	-172.933	-0.289	-0.009
-644.726	107.810	-0.029	-0.035
-643.711	380.807	-0.020	-0.042
-642.697	26.714	-0.159	0.134
-641.682	166.746	-0.120	-0.172
-640.668	-151.421	-0.246	0.018
-639.653	183.355	0.146	-0.217
-638.638	-50.135	0.192	-0.091
-637.624	-200.000	0.034	0.383
-636.609	-149.280	0.323	-0.026
-635.595	131.573	-0.180	0.232
-634.580	54.809	0.101	-0.098
-633.565	104.673	-0.037	-0.044
-632.551	629.311	-0.078	-0.197
-631.536	82.191	-0.129	0.140
-630.522	-116.251	0.103	0.019
-629.507	239.198	-0.111	0.186
-628.492	-200.000	0.096	0.000
-627.478	-83.665	0.080	-0.026
-626.463	19.817	0.069	0.056
-625.449	-73.956	0.234	-0.085
-624.434	-199.876	-0.343	-0.002
-623.419	242.384	0.117	-0.197
-622.405	800.000	0.105	0.296
-621.390	164.242	-0.185	0.262
-620.376	1.887	-0.059	0.043
-619.361	-168.637	0.198	0.008
-618.346	-18.164	0.096	0.061
-617.332	-57.439	0.037	0.016
-616.317	-18.965	-0.083	-0.052
-615.303	-200.000	0.001	-0.144
-614.288	-200.000	0.015	-0.153
-613.273	298.702	0.245	-0.454
-612.259	-80.615	0.013	0.004
-611.244	300.670	-0.140	-0.259
-610.230	16.801	-0.117	-0.093
-609.215	63.748	0.169	0.170
-608.201	223.839	-0.106	-0.172
-607.186	-200.000	0.040	-0.349
-606.171	54.783	0.089	0.086
-605.157	-10.075	-0.151	-0.101
-604.142	-8.975	-0.109	-0.073
-603.128	578.543	0.037	0.092
-602.113	-123.805	0.263	0.042
-601.098	39.464	-0.134	0.121
-600.084	-73.066	0.120	-0.044
-599.069	800.000	-0.040	-0.177
-598.055	-9.720	0.055	-0.037
-597.040	-47.012	-0.172	0.084
-596.025	277.305	0.061	-0.109
-595.011	-200.000	-0.031	-0.311
-593.996	-23.873	-0.066	-0.040
-592.982	-104.473	-0.324	-0.075
-591.967	-8.550	-0.180	-0.121
-590.952	-87.718	0.050	0.015
-589.938	-40.136	0.321	-0.168
-588.923	-125.820	-0.279	-0.042
-587.909	-200.000	0.013	-0.267
-586.894	800.000	0.028	-0.097
-585.879	26.599	-0.215	0.181
-584.865	-75.240	-0.165	0.059
-583.850	800.000	0.078	0.250
-582.836	-80.581	-0.141	0.047
-581.821	20.641	0.194	-0.158
-580.806	-77.385	-0.151	0.053
-579.792	-126.821	0.260	-0.038
-578.777	86.735	-0.188	0.208
-577.763	800.000	0.044	0.122
-576.748	-101.046	-0.075	0.019
-575.733	340.316	-0.175	0.342
-574.719	-128.314	-0.052	0.007
-573.704	-117.816	-0.343	-0.062
-572.690	-29.454	0.389	0.223
-571.675	-40.253	0.019	-0.010
-570.661	40.517	0.181	-0.163
-569.646	23.707	-0.088	-0.073
-568.631	800.000	-0.038	-0.143
-567.617	165.674	-0.111	-0.157
-566.602	-200.000	0.019	0.127
-565.588	5.394	0.463	0.342
-564.573	-101.696	0.125	-0.031
-563.558	-72.696	0.432	-0.160
-562.544	-141.372	0.409	-0.042
-561.529	132.591	0.039	-0.051
-560.515	207.942	0.122	0.192
-559.500	115.722	-0.128	-0.157
-558.485	-141.588	-0.261	0.026
-557.471	114.270	0.128	-0.157
-556.456	800.000	0.054	-0.149
-555.442	-131.412	-0.045	0.006
-554.427	800.000	0.083	-0.252
-553.412	-34.583	-0.231	0.127
-552.398	-29.714	0.274	0.157
-551.383	-80.250	-0.185	-0.062
-550.369	20.021	0.203	-0.164
-549.354	347.994	0.013	0.025
-548.339	-152.178	0.165	0.012
-547.325	-200.000	0.088	0.599
-546.310	-200.000	-0.024	0.180
-545.296	87.311	0.227	-0.251
-544.281	482.779	0.108	-0.247
-543.266	-107.993	0.109	0.024
-542.252	-171.882	-0.064	0.002
-541.237	580.399	-0.168	0.413
-540.223	210.193	-0.129	-0.204
-539.208	-195.087	-0.149	-0.001
-538.193	-60.858	-0.113	-0.048
-537.179	24.135	0.089	0.074
-536.164	-119.946	0.327	0.056
-535.150	-200.000	-0.011	-0.224
-534.135	235.928	0.041	-0.068
-533.121	-3.670	-0.223	0.156
-532.106	-200.000	0.001	-0.403
-531.091	17.593	-0.030	0.024
-530.077	-147.617	-0.095	-0.008
-529.062	13.000	0.090	0.070
-528.048	364.542	-0.151	-0.305
-527.033	-68.449	-0.099	0.038
-526.018	-200.000	0.107	-0.473
-525.004	-200.000	0.000	-0.457
-523.989	-21.660	-0.097	-0.059
-522.975	-158.773	0.267	0.015
-521.960	-44.479	-0.053	0.027
-520.945	-164.392	0.199	0.009
-519.931	363.131	-0.092	0.184
-518.916	110.101	-0.059	0.071
-517.902	-200.000	0.014	0.115
-516.887	-103.773	-0.210	0.049
-515.872	-131.602	-0.186	0.024
-514.858	-200.000	0.021	-0.117
-513.843	-200.000	-0.078	-0.479
-512.829	800.000	-0.030	0.098
-511.814	-110.599	-0.174	-0.036
-510.799	-200.000	0.001	-0.073
-509.785	174.449	0.208	0.302
-508.770	108.588	0.011	-0.014
-507.756	0.457	-0.278	0.199
-506.741	-37.977	-0.302	-0.161
-505.726	109.133	-0.042	-0.050
-504.712	89.163	0.192	0.214
-503.697	94.432	-0.113	-0.129
-502.683	-149.065	-0.340	0.027
-501.668	-116.629	-0.184	0.034
-500.653	92.012	0.131	-0.148
-499.639	-200.000	0.144	-0.001
-498.624	-102.733	0.243	0.058
-497.610	-104.303	-0.175	0.041
-496.595	-89.801	-0.539	0.158
-495.581	-44.843	-0.076	0.038
-494.566	-77.997	0.318	0.110
-493.551	138.298	-0.130	0.170
-492.537	3.950	-0.129	0.094
-491.522	-200.000	-0.011	0.389
-490.508	-31.955	-0.330	0.185
-489.493	-3.859	0.209	-0.145
-488.478	-116.139	0.252	-0.047
-487.464	-67.321	0.146	0.057
-486.449	-3.293	-0.203	-0.142
-485.435	-64.183	-0.064	0.026
-484.420	86.947	0.233	-0.257
-483.405	800.000	-0.051	0.166
-482.391	136.657	-0.231	0.301
-481.376	-168.022	0.269	-0.011
-480.362	74.695	0.210	0.221
-479.347	800.000	-0.030	-0.084
-478.332	800.000	-0.125	0.422
-477.318	-16.250	0.218	0.138
-476.303	-185.191	0.328	0.005
-475.289	800.000	0.123	-0.414
-474.274	-3.599	-0.310	0.216
-473.259	800.000	0.054	0.215
-472.245	-89.121	-0.114	0.034
-471.230	67.863	0.390	0.399
-470.216	800.000	-0.027	-0.080
-469.201	-65.901	0.141	-0.056
-468.186	319.572	0.117	-0.222
-467.172	95.990	-0.250	0.285
-466.157	357.513	0.082	-0.163
-465.143	-200.000	-0.006	0.322
-464.128	41.034	0.115	-0.104
-463.113	477.666	-0.098	-0.222
-462.099	-42.619	-0.301	-0.153
-461.084	49.572	-0.069	-0.065
-460.070	-95.574	-0.018	-0.005
-459.055	-200.000	-0.003	0.029
-458.040	-155.982	-0.228	-0.014
-457.026	415.848	0.038	0.081
-456.011	-4.686	-0.198	-0.136
-454.997	160.707	-0.158	0.220
-453.982	47.040	0.081	-0.076
-452.968	800.000	-0.059	0.207
-451.953	155.615	0.153	0.211
-450.938	192.254	-0.036	-0.055
-449.924	-200.000	0.039	0.238
-448.909	238.703	0.157	0.261
-447.895	-43.388	-0.243	0.123
-446.880	-146.252	-0.203	0.018
-445.865	-49.796	0.298	-0.142
-444.851	48.807	-0.214	-0.201
-443.836	-200.000	0.014	0.102
-442.822	42.999	0.074	-0.067
-441.807	-200.000	-0.031	-0.147
-440.792	257.631	-0.064	-0.109
-439.778	-27.320	-0.139	0.081
-438.763	-200.000	-0.038	0.169
-437.749	-18.895	0.184	-0.114
-436.734	-153.866	0.443	0.030
-435.719	-20.027	0.214	-0.132
-434.705	142.567	0.085	0.112
-433.690	109.715	0.101	0.121
-432.676	146.431	-0.061	0.082
-431.661	-53.800	-0.336	-0.153
-430.646	-188.073	0.210	0.003
-429.632	-149.550	0.323	-0.025
-428.617	2.572	-0.177	-0.128
-427.603	-63.177	-0.283	0.117
-426.588	800.000	-0.191	0.527
-425.573	34.188	-0.042	-0.036
-424.559	-118.714	-0.178	0.031
-423.544	53.565	-0.147	-0.141
-422.530	-200.000	0.047	-0.304
-421.515	-200.000	0.051	-0.252
-420.500	667.936	-0.021	-0.053
-419.486	-79.373	-0.253	-0.085
-418.471	-200.000	0.020	0.177
-417.457	-50.704	-0.145	0.068
-416.442	-186.223	-0.022	0.000
-415.428	-66.034	0.031	-0.012
-414.413	-125.065	-0.271	-0.041
-413.398	800.000	0.084	0.244
-412.384	43.352	-0.149	0.135
-411.369	226.327	-0.150	0.242
-410.355	695.274	0.076	-0.198
-409.340	800.000	-0.045	0.154
-408.325	-83.206	0.253	0.081
-407.311	507.133	-0.046	-0.105
-406.296	-41.196	-0.043	-0.022
-405.282	668.112	0.083	0.213
-404.267	318.155	0.070	-0.131
-403.252	-117.196	0.269	0.049
-402.238	-200.000	0.008	0.102
-401.223	800.000	0.093	0.300
-400.209	-115.366	-0.172	-0.032
-399.194	-3.461	-0.242	0.168
-398.179	800.000	-0.104	0.306
-397.165	-200.000	-0.004	0.028
-396.150	5.238	0.124	-0.091
-395.136	237.938	0.092	0.152
-394.121	-200.000	-0.027	-0.162
-393.106	-112.526	-0.193	-0.038
-392.092	7.699	0.081	0.061
-391.077	-200.000	0.000	-0.259
-390.063	164.930	-0.056	-0.079
-389.048	-105.740	-0.143	-0.032
-388.033	210.274	-0.098	-0.153
-387.019	46.693	-0.282	-0.261
-386.004	-200.000	-0.032	-0.226
-384.990	397.272	0.171	-0.355
-383.975	281.227	0.036	-0.065
-382.960	271.243	-0.224	-0.393
-381.946	95.168	-0.076	0.086
-380.931	-200.000	0.022	0.138
-379.917	161.984	0.168	0.234
-378.902	-40.277	0.044	-0.023
-377.888	163.726	0.107	0.150
-376.873	375.842	-0.085	0.172
-375.858	90.818	-0.159	-0.177
-374.844	800.000	-0.034	-0.142
-373.829	97.599	0.072	0.082
-372.815	-200.000	-0.017	0.089
-371.800	29.762	-0.036	-0.030
-370.785	-118.029	0.463	0.082
-369.771	154.167	-0.192	-0.263
-368.756	-65.011	-0.237	0.095
-367.742	-124.197	-0.104	-0.016
-366.727	175.649	0.168	0.243
-365.712	-55.903	-0.148	-0.066
-364.698	-200.000	-0.007	-0.116
-363.683	62.170	0.176	-0.175
-362.669	75.226	0.260	0.273
-361.654	508.393	-0.040	-0.091
-360.639	-200.000	0.004	-0.063
-359.625	-74.500	0.189	0.068
-358.610	-87.048	-0.018	-0.006
-357.596	459.151	-0.168	0.373
-356.581	-200.000	-0.001	0.233
-355.566	-36.205	-0.429	0.231
-354.552	-157.411	-0.206	0.012
-353.537	494.909	0.080	0.182
-352.523	722.774	-0.020	0.053
-351.508	94.670	0.030	0.034
-350.493	-111.900	0.176	0.035
-349.479	-44.613	-0.335	-0.166
-348.464	-86.044	0.142	0.043
-347.450	-200.000	0.045	-0.316
-346.435	774.800	0.150	-0.407
-345.420	133.570	-0.098	0.126
-344.406	-62.406	-0.520	0.215
-343.391	-84.043	0.113	-0.036
-342.377	52.218	-0.168	0.160
-341.362	274.703	0.220	-0.388
-340.348	-200.000	-0.020	-0.224
-339.333	-102.921	0.409	-0.096
-338.318	-150.946	-0.324	0.024
-337.304	800.000	0.005	0.017
-336.289	-200.000	0.001	0.162
-335.275	790.413	-0.078	0.212
-334.260	-200.000	0.013	0.085
-333.245	436.294	-0.078	-0.170
-332.231	-20.612	-0.178	0.109
-331.216	-105.273	0.180	-0.041
-330.202	-16.221	0.185	0.117
-329.187	107.599	0.183	-0.216
-328.172	-200.000	0.020	0.152
-327.158	348.507	-0.096	0.188
-326.143	142.038	0.193	-0.254
-325.129	-200.000	0.011	0.199
-324.114	301.262	-0.125	0.230
-323.099	-51.246	0.088	0.041
-322.085	-17.749	0.058	0.036
-321.070	-86.846	0.339	0.103
-320.056	-31.135	0.148	0.083
-319.041	21.618	0.208	-0.168
-318.026	-59.347	-0.320	-0.137
-317.012	12.723	0.451	0.346
-315.997	-90.664	0.224	0.064
-314.983	461.153	0.026	0.057
-313.968	60.248	0.357	0.351
-312.953	637.681	0.054	-0.136
-311.939	-102.607	0.249	0.059
-310.924	-7.336	-0.315	0.212
-309.910	-200.000	-0.016	-0.476
-308.895	-200.000	0.032	0.225
-307.880	-200.000	-0.096	0.000
-306.866	-31.559	0.068	-0.038
-305.851	-49.386	-0.326	-0.155
-304.837	205.785	-0.111	-0.171
-303.822	-200.000	-0.029	-0.270
-302.807	50.146	0.178	0.167
-301.793	-81.300	-0.298	-0.098
-300.778	-90.928	0.328	0.094
-299.764	157.021	0.059	-0.080
-298.749	-163.984	-0.293	0.014
-297.735	193.865	0.088	0.133
-296.720	61.014	0.115	-0.114
-295.705	-150.259	-0.280	-0.021
-294.691	-87.691	0.127	-0.038
-293.676	16.226	0.010	0.008
-292.662	41.535	-0.308	-0.276
-291.647	119.348	-0.077	0.094
-290.632	-92.485	0.364	0.102
-289.618	46.061	0.310	0.285
-288.603	-67.895	0.179	0.070
-287.589	41.643	-0.066	0.059
-286.574	-200.000	0.010	0.103
-285.559	141.848	-0.157	0.206
-284.545	-32.597	0.345	-0.191
-283.530	21.736	-0.199	-0.161
-282.516	-155.478	-0.329	0.021
-281.501	362.526	0.136	0.271
-280.486	-156.590	0.149	-0.009
-279.472	-65.351	-0.133	-0.053
-278.457	-200.000	0.034	-0.244
-277.443	349.947	0.091	-0.179
-276.428	395.707	0.210	0.434
-275.413	114.913	-0.138	-0.167
-274.399	60.135	-0.147	0.144
-273.384	-131.783	0.193	0.025
-272.370	248.844	0.146	-0.245
-271.355	341.879	0.107	0.207
-270.340	-93.304	-0.095	0.026
-269.326	323.253	0.091	0.172
-268.311	547.751	0.061	-0.144
-267.297	-200.000	-0.027	0.143
-266.282	-152.577	0.213	-0.015
-265.267	-54.838	-0.335	-0.150
-264.253	-128.783	-0.373	-0.052
-263.238	-89.129	0.095	-0.028
-262.224	174.861	-0.177	-0.254
-261.209	141.383	0.020	0.027
-260.195	276.666	0.076	0.134
-259.180	-111.950	-0.408	-0.082
-258.165	-40.722	-0.237	-0.122
-257.151	-200.000	0.016	0.209
-256.136	269.442	0.279	-0.485
-255.122	94.663	-0.180	0.203
-254.107	-29.587	0.139	0.079
-253.092	9.791	-0.032	0.024
-252.078	-93.167	-0.104	-0.029
-251.063	-200.000	-0.007	0.081
-250.049	-99.122	0.198	-0.050
-249.034	-80.829	-0.414	-0.136
-248.019	20.971	-0.157	-0.126
-247.005	-200.000	0.275	-0.001
-245.990	-200.000	-0.013	-0.253
-244.976	-126.893	-0.230	0.034
-243.961	98.725	-0.039	-0.044
-242.946	-36.304	-0.239	-0.128
-241.932	-200.000	0.042	0.246
-240.917	-56.972	0.277	0.121
-239.903	197.742	-0.065	-0.098
-238.888	52.431	0.060	0.057
-237.873	97.564	-0.214	-0.244
-236.859	-34.741	0.247	-0.134
-235.844	91.853	-0.275	0.306
-234.830	54.561	0.391	0.374
-233.815	-200.000	0.007	-0.114
-232.800	-90.912	-0.174	0.050
-231.786	46.341	-0.152	0.140
-230.771	-200.000	-0.003	-0.061
-229.757	-51.976	0.118	0.054
-228.742	-93.906	0.148	0.040
-227.727	-103.512	0.094	-0.022
-226.713	365.482	0.094	-0.188
-225.698	-53.240	0.129	-0.059
-224.684	0.330	-0.149	0.105
-223.669	-200.000	-0.022	-0.139
-222.655	573.273	0.098	0.236
-221.640	-58.115	0.076	0.033
-220.625	-200.000	0.013	-0.306
-219.611	-110.385	0.058	0.012
-218.596	287.908	0.127	-0.228
-217.582	11.520	0.095	0.072
-216.567	-200.000	-0.011	-0.159
-215.552	95.768	-0.138	0.156
-214.538	174.053	0.024	-0.034
-213.523	-168.559	-0.181	0.007
-212.509	30.639	0.188	-0.159
-211.494	175.716	0.106	0.152
-210.479	626.328	0.176	-0.438
-209.465	138.030	-0.256	-0.332
-208.450	90.433	0.113	-0.126
-207.436	800.000	-0.074	-0.305
-206.421	-145.139	0.322	0.029
-205.406	800.000	-0.037	0.142
-204.392	800.000	-0.059	-0.213
-203.377	797.112	-0.186	0.506
-202.363	60.473	0.206	-0.202
-201.348	51.384	0.072	0.067
-200.333	-200.000	0.017	-0.150
-199.319	800.000	-0.048	-0.152
-198.304	60.292	-0.149	0.146
-197.290	404.531	-0.043	0.089
-196.275	-20.455	-0.212	0.129
-195.260	-99.175	-0.121	-0.030
-194.246	187.653	0.215	-0.318
-193.231	-200.000	0.014	0.355
-192.217	-200.000	0.001	0.105
-191.202	-200.000	-0.006	0.115
-190.187	-155.169	0.304	0.020
-189.173	51.918	-0.190	0.178
-188.158	-200.000	0.006	-0.201
-187.144	-97.447	-0.237	-0.061
-186.129	-200.000	0.037	0.315
-185.114	-200.000	-0.019	0.105
-184.100	800.000	0.063	-0.211
-183.085	357.943	0.129	-0.254
-182.071	304.706	-0.122	-0.223
-181.056	26.163	-0.204	0.168
-180.042	91.496	-0.039	-0.044
-179.027	-69.905	0.196	-0.074
-178.012	-200.000	0.011	-0.096
-176.998	-142.093	-0.085	0.008
-175.983	89.533	0.140	-0.154
-174.969	800.000	-0.026	-0.112
-173.954	-63.407	0.151	-0.061
-172.939	18.382	0.168	-0.133
-171.925	283.779	0.088	0.156
-170.910	-200.000	-0.044	-0.290
-169.896	-200.000	-0.034	-0.258
-168.881	-25.049	0.033	0.019
-167.866	129.727	-0.067	0.084
-166.852	55.763	0.112	0.107
-165.837	-200.000	0.019	-0.255
-164.823	580.372	0.106	0.258
-163.808	-200.000	0.007	0.038
-162.793	-37.700	-0.052	-0.028
-161.779	88.380	0.178	-0.195
-160.764	-200.000	0.018	0.195
-159.750	608.448	0.059	0.146
-158.735	41.696	0.312	0.279
-157.720	800.000	-0.067	0.255
-156.706	-200.000	-0.001	-0.088
-155.691	765.462	0.118	0.318
-154.677	-47.239	-0.259	-0.124
-153.662	-105.787	-0.260	-0.058
-152.647	245.498	0.119	0.198
-151.633	133.563	0.227	-0.290
-150.618	17.737	-0.151	0.118
-149.604	-200.000	-0.007	-0.138
-148.589	37.867	-0.220	0.193
-147.574	-127.342	-0.073	-0.010
-146.560	35.478	0.105	-0.091
-145.545	-52.585	0.053	-0.024
-144.531	100.522	-0.209	0.240
-143.516	-112.004	0.160	-0.032
-142.502	-145.016	0.196	0.018
-141.487	211.054	-0.105	0.163
-140.472	113.379	0.246	-0.295
-139.458	83.134	-0.349	-0.375
-138.443	183.819	0.215	-0.314
-137.429	151.435	0.132	0.177
-136.414	403.386	-0.080	-0.166
-135.399	-128.338	0.280	-0.039
-134.385	-177.785	-0.367	-0.009
-133.370	-200.000	-0.009	-0.201
-132.356	-183.375	-0.215	-0.004
-131.341	-200.000	-0.071	0.380
-130.326	-200.000	-0.050	0.348
-129.312	-200.000	-0.038	0.241
-128.297	800.000	0.056	0.223
-127.283	-66.281	-0.060	-0.024
-126.268	69.062	0.163	0.165
-125.253	-182.079	-0.322	0.006
-124.239	-200.000	-0.022	-0.408
-123.224	107.927	0.120	0.141
-122.210	800.000	0.015	-0.046
-121.195	202.480	0.146	0.222
