DTS Sentinel unit serial number:	SN413079Multiplexer serial number:	ORYXHardware model number:	OX4-SRSoftware version number:	ORYX F/W v4.00 Oryx Data Collector v3.7.2.0data status	okinstallation	princeton_trtdifferential loss correction	single-endedforward channel	channel 4reverse channel	N/Adate	2019/09/12time	23:09:35forward acquisition time	60.00reverse acquisition time	0.00gamma	496.2192k internal	0.2316k external	0.2316temperature offset calibration	1.0176default loss term (dB/km)	0.3790temperature slope calibration	1.0000multiplexer offset coefficient	1.0000multiplexer slope coefficient	1.0000fibre end	0.00T internal ref (°C)	29.19T ext. ref 1 (°C)	3.72T ext. ref 2 (°C)	23.79length (m)	temperature (°C)	Stokes	anti-Stokes-747.200	-117.290	0.115	0.021
-746.185	185.841	0.148	0.222
-745.171	-84.961	0.203	0.064
-744.156	178.786	-0.198	0.293
-743.142	-200.000	0.001	0.257
-742.127	96.056	0.084	-0.097
-741.112	-200.000	0.023	-0.287
-740.098	229.539	-0.112	0.185
-739.083	800.000	-0.032	0.125
-738.069	-200.000	0.049	-0.297
-737.054	685.656	0.165	0.437
-736.039	-180.490	-0.404	0.008
-735.025	-200.000	0.052	0.245
-734.010	38.672	-0.503	0.454
-732.996	-9.608	-0.232	-0.157
-731.981	100.954	-0.260	0.307
-730.966	-200.000	-0.019	0.295
-729.952	-43.256	-0.315	-0.161
-728.937	-111.796	-0.038	-0.008
-727.923	-99.515	-0.189	-0.048
-726.908	-200.000	0.001	0.217
-725.894	-138.356	-0.045	-0.005
-724.879	-200.000	0.002	0.098
-723.864	-131.852	-0.575	0.076
-722.850	-35.320	-0.213	-0.117
-721.835	-29.309	-0.163	0.095
-720.821	800.000	-0.052	0.154
-719.806	-11.970	-0.321	0.213
-718.791	95.084	-0.115	0.132
-717.777	-200.000	0.066	-0.442
-716.762	232.714	0.135	-0.225
-715.748	-118.047	0.046	-0.008
-714.733	800.000	0.066	-0.203
-713.718	-200.000	-0.245	-0.001
-712.704	800.000	-0.087	-0.291
-711.689	3.332	0.072	0.053
-710.675	363.005	0.067	-0.135
-709.660	-200.000	-0.077	-0.528
-708.645	24.503	0.088	0.073
-707.631	-26.994	0.238	0.141
-706.616	74.250	0.061	0.065
-705.602	305.797	0.056	0.105
-704.587	-200.000	0.039	-0.315
-703.572	-29.476	-0.106	0.061
-702.558	-103.010	0.170	0.041
-701.543	-66.607	-0.271	-0.109
-700.529	36.335	-0.042	0.038
-699.514	38.175	-0.082	0.073
-698.499	-73.090	0.403	0.149
-697.485	-200.000	0.047	-0.281
-696.470	638.013	-0.086	-0.220
-695.456	-93.901	0.166	0.046
-694.441	-39.543	-0.351	-0.186
-693.426	235.618	0.066	0.110
-692.412	-109.779	-0.155	0.033
-691.397	800.000	0.033	-0.119
-690.383	67.258	-0.174	-0.179
-689.368	189.404	0.005	-0.008
-688.354	-104.424	-0.337	0.079
-687.339	-116.919	-0.322	0.060
-686.324	-164.025	0.250	0.012
-685.310	-127.881	0.099	-0.014
-684.295	-180.292	-0.264	-0.006
-683.281	68.764	0.040	-0.041
-682.266	-73.423	-0.162	-0.060
-681.251	777.707	0.068	0.188
-680.237	-144.103	0.241	-0.023
-679.222	-96.324	-0.218	-0.058
-678.208	111.488	0.018	-0.022
-677.193	-180.536	-0.200	0.004
-676.178	228.686	-0.059	0.098
-675.164	-200.000	-0.012	0.139
-674.149	-20.994	-0.146	0.090
-673.135	-56.457	-0.129	0.058
-672.120	14.267	0.045	-0.036
-671.105	-200.000	-0.018	0.172
-670.091	-163.575	-0.209	0.010
-669.076	748.393	0.052	-0.142
-668.062	-7.670	-0.205	-0.140
-667.047	-85.543	-0.299	0.094
-666.032	17.955	-0.014	0.011
-665.018	308.751	0.041	0.078
-664.003	52.994	0.167	-0.162
-662.989	129.006	-0.109	-0.141
-661.974	-63.423	0.251	-0.104
-660.959	-170.512	-0.140	0.005
-659.945	279.900	-0.069	0.124
-658.930	-122.352	0.173	-0.028
-657.916	67.140	0.122	-0.126
-656.901	118.091	-0.118	0.147
-655.886	800.000	-0.088	0.289
-654.872	-47.255	0.301	0.148
-653.857	-108.719	-0.207	-0.045
-652.843	-89.198	-0.482	0.143
-651.828	-175.002	-0.246	-0.007
-650.814	164.995	0.070	-0.100
-649.799	-200.000	-0.022	0.098
-648.784	-200.000	-0.071	-0.345
-647.770	619.375	-0.041	-0.103
-646.755	37.252	-0.074	-0.067
-645.741	-200.000	-0.031	-0.140
-644.726	-99.773	-0.213	0.054
-643.711	250.585	0.059	-0.101
-642.697	-124.989	0.352	0.055
-641.682	-150.096	-0.406	-0.032
-640.668	-200.000	-0.016	-0.261
-639.653	-22.172	0.112	-0.068
-638.638	-125.953	-0.271	0.041
-637.624	800.000	-0.067	-0.228
-636.609	372.524	-0.083	-0.170
-635.595	195.405	-0.101	-0.154
-634.580	-200.000	-0.015	-0.105
-633.565	185.201	-0.202	0.303
-632.551	110.091	-0.235	-0.284
-631.536	122.121	-0.116	-0.146
-630.522	-200.000	0.013	-0.100
-629.507	-82.578	0.468	-0.153
-628.492	185.083	-0.168	-0.251
-627.478	128.795	0.030	-0.038
-626.463	-62.821	-0.163	-0.068
-625.449	370.543	-0.152	-0.312
-624.434	88.398	0.363	0.406
-623.419	471.385	-0.189	-0.429
-622.405	-86.919	0.231	0.071
-621.390	800.000	0.058	-0.221
-620.376	405.935	0.007	0.016
-619.361	-147.968	0.158	0.013
-618.346	-44.570	0.073	-0.037
-617.332	579.266	0.057	-0.141
-616.317	-200.000	-0.007	-0.099
-615.303	41.495	-0.046	0.042
-614.288	800.000	0.022	0.076
-613.273	800.000	0.048	-0.187
-612.259	800.000	0.077	-0.320
-611.244	133.827	-0.142	0.185
-610.230	501.934	0.123	0.286
-609.215	800.000	0.118	-0.347
-608.201	-200.000	0.003	-0.268
-607.186	-27.222	-0.058	0.034
-606.171	434.431	0.021	-0.046
-605.157	-195.084	-0.160	0.001
-604.142	-57.473	-0.024	0.011
-603.128	213.853	-0.182	-0.290
-602.113	-200.000	0.018	-0.347
-601.098	-200.000	0.043	0.455
-600.084	-97.258	0.474	0.125
-599.069	384.294	-0.045	0.093
-598.055	-119.066	0.425	0.075
-597.040	19.933	-0.021	0.017
-596.025	-68.030	-0.269	-0.106
-595.011	-127.989	-0.167	-0.024
-593.996	-76.969	-0.267	0.094
-592.982	114.124	0.246	-0.302
-591.967	-102.723	-0.235	-0.056
-590.952	-200.000	0.069	0.469
-589.938	-60.470	0.083	-0.036
-588.923	-103.769	0.100	-0.024
-587.909	-200.000	-0.007	-0.091
-586.894	-51.836	-0.123	-0.057
-585.879	-46.981	-0.236	-0.116
-584.865	-16.818	-0.239	0.152
-583.850	187.078	-0.049	-0.074
-582.836	-200.000	-0.052	-0.256
-581.821	-100.780	0.235	-0.058
-580.806	-59.508	0.268	-0.116
-579.792	-40.802	-0.225	0.117
-578.777	209.237	0.127	-0.201
-577.763	46.066	0.298	-0.277
-576.748	161.816	-0.059	-0.083
-575.733	-95.756	0.333	0.090
-574.719	800.000	0.072	-0.257
-573.704	-146.052	0.129	0.011
-572.690	114.665	-0.199	0.244
-571.675	-200.000	0.028	0.223
-570.661	12.563	-0.279	-0.216
-569.646	-142.201	0.281	-0.028
-568.631	-200.000	-0.004	-0.117
-567.617	-67.607	0.290	0.114
-566.602	-200.000	0.045	0.315
-565.588	-60.838	-0.138	-0.059
-564.573	800.000	0.079	0.263
-563.558	-145.019	0.396	-0.036
-562.544	-18.650	-0.077	-0.048
-561.529	-92.689	0.151	0.043
-560.515	57.717	-0.117	0.116
-559.500	73.339	-0.166	-0.175
-558.485	-200.000	0.003	0.015
-557.471	800.000	-0.084	0.236
-556.456	-137.766	0.370	-0.042
-555.442	800.000	-0.052	0.206
-554.427	605.332	0.150	-0.376
-553.412	-118.614	-0.159	0.028
-552.398	586.765	0.096	-0.239
-551.383	146.110	0.089	-0.120
-550.369	-29.885	-0.358	0.205
-549.354	19.356	-0.199	-0.161
-548.339	-49.634	-0.041	-0.020
-547.325	473.759	0.092	0.210
-546.310	774.592	0.100	0.275
-545.296	112.519	-0.216	0.263
-544.281	-91.496	0.114	-0.033
-543.266	-152.538	0.165	-0.012
-542.252	0.723	0.261	-0.188
-541.237	1.833	0.362	0.262
-540.223	-97.560	-0.077	-0.020
-539.208	-25.768	-0.262	-0.155
-538.193	297.991	-0.050	0.092
-537.179	800.000	-0.023	0.079
-536.164	1.406	0.077	-0.056
-535.150	-18.671	-0.073	0.046
-534.135	-16.601	-0.123	-0.078
-533.121	-126.611	-0.247	-0.037
-532.106	-128.694	-0.175	-0.025
-531.091	800.000	0.142	0.396
-530.077	-200.000	0.001	-0.106
-529.062	-200.000	0.018	0.103
-528.048	100.218	-0.124	0.144
-527.033	-147.114	-0.400	-0.034
-526.018	-62.668	-0.257	-0.107
-525.004	127.316	0.153	0.196
-523.989	457.425	-0.165	-0.369
-522.975	800.000	0.127	-0.438
-521.960	-82.178	-0.144	0.047
-520.945	100.595	0.197	-0.230
-519.931	69.893	-0.037	0.039
-518.916	218.387	0.057	-0.091
-517.902	27.741	0.471	-0.399
-516.887	-164.989	-0.274	-0.012
-515.872	-30.245	0.157	0.089
-514.858	-121.095	0.505	-0.085
-513.843	-133.742	-0.151	-0.019
-512.829	19.141	-0.092	-0.074
-511.814	-200.000	0.040	-0.291
-510.799	32.457	-0.254	-0.220
-509.785	-179.412	0.199	-0.004
-508.770	66.264	0.092	-0.094
-507.756	-36.550	-0.249	0.134
-506.741	172.921	-0.154	-0.222
-505.726	-10.245	0.270	0.180
-504.712	-116.663	-0.296	0.055
-503.697	1.606	0.155	0.112
-502.683	-110.639	0.161	0.033
-501.668	-200.000	-0.001	-0.179
-500.653	105.770	-0.216	-0.257
-499.639	44.312	0.117	0.108
-498.624	-184.788	0.175	-0.003
-497.610	17.870	0.212	-0.170
-496.595	-120.963	-0.126	-0.021
-495.581	-76.452	0.301	0.106
-494.566	-20.341	-0.228	-0.141
-493.551	-86.911	-0.336	-0.103
-492.537	-36.167	0.307	-0.166
-491.522	-200.000	-0.021	0.213
-490.508	-200.000	0.025	0.131
-489.493	24.471	-0.220	0.182
-488.478	157.600	0.206	0.286
-487.464	-93.121	-0.157	-0.044
-486.449	51.457	-0.110	0.105
-485.435	-122.640	0.108	0.018
-484.420	66.737	-0.172	-0.176
-483.405	63.664	-0.193	0.194
-482.391	-32.530	0.339	0.189
-481.376	-58.991	0.147	-0.064
-480.362	391.265	0.066	0.137
-479.347	-0.864	-0.103	0.073
-478.332	-126.127	-0.185	0.028
-477.318	-200.000	-0.219	-0.001
-476.303	-169.916	-0.211	0.008
-475.289	43.661	0.172	-0.158
-474.274	-82.342	-0.146	0.048
-473.259	-9.393	-0.200	-0.134
-472.245	-200.000	0.008	0.247
-471.230	-151.570	0.123	0.009
-470.216	424.688	0.157	0.339
-469.201	393.641	-0.055	-0.115
-468.186	-68.688	0.526	-0.204
-467.172	-92.668	0.041	-0.012
-466.157	180.452	-0.169	-0.249
-465.143	-119.064	0.265	0.046
-464.128	-200.000	0.023	0.264
-463.113	800.000	0.032	-0.131
-462.099	-200.000	0.246	0.001
-461.084	-100.684	-0.327	-0.081
-460.070	132.537	0.113	0.146
-459.055	-200.000	0.020	0.220
-458.040	-135.227	-0.132	-0.016
-457.026	157.939	0.109	0.151
-456.011	-164.102	-0.201	-0.009
-454.997	65.119	0.305	-0.308
-453.982	-88.490	-0.441	-0.132
-452.968	130.345	0.054	-0.070
-451.953	-148.124	0.270	0.022
-450.938	-200.000	0.013	-0.149
-449.924	-15.065	0.081	-0.052
-448.909	-200.000	-0.038	0.303
-447.895	-200.000	-0.008	0.218
-446.880	-165.150	0.225	0.010
-445.865	244.211	0.149	0.250
-444.851	-78.182	-0.107	0.037
-443.836	-32.135	0.121	0.068
-442.822	-45.669	0.127	-0.063
-441.807	-41.069	-0.177	-0.091
-440.792	-200.000	0.002	0.022
-439.778	800.000	0.082	0.239
-438.763	-200.000	0.013	0.275
-437.749	261.120	-0.022	-0.038
-436.734	-200.000	-0.005	0.303
-435.719	-25.394	-0.177	-0.105
-434.705	800.000	-0.034	0.100
-433.690	-122.130	0.483	0.079
-432.676	297.281	-0.096	0.176
-431.661	-33.766	0.061	0.034
-430.646	-49.505	0.230	0.110
-429.632	-139.583	-0.276	0.030
-428.617	-170.111	0.207	-0.007
-427.603	-200.000	0.077	0.000
-426.588	-200.000	-0.010	-0.140
-425.573	111.500	0.219	-0.264
-424.559	222.494	0.127	-0.205
-423.544	-98.602	-0.030	-0.008
-422.530	29.873	0.040	0.034
-421.515	-200.000	-0.066	-0.306
-420.500	800.000	0.029	-0.096
-419.486	-200.000	-0.027	0.158
-418.471	-200.000	0.039	0.351
-417.457	-139.016	-0.264	-0.029
-416.442	-200.000	0.003	0.043
-415.428	-186.077	0.160	-0.002
-414.413	-200.000	0.012	0.202
-413.398	267.157	0.270	0.473
-412.384	-53.824	-0.239	-0.109
-411.369	-200.000	0.023	0.355
-410.355	33.632	0.204	-0.177
-409.340	-52.418	-0.634	0.293
-408.325	-126.790	-0.177	0.026
-407.311	800.000	-0.080	0.300
-406.296	-75.391	-0.139	0.050
-405.282	-27.853	-0.199	0.115
-404.267	-200.000	0.034	0.359
-403.252	800.000	0.056	0.161
-402.238	105.643	0.080	0.095
-401.223	15.834	-0.285	0.224
-400.209	110.527	-0.051	-0.061
-399.194	-82.296	0.474	0.154
-398.179	25.526	0.199	-0.165
-397.165	322.143	-0.117	0.223
-396.150	404.497	0.058	-0.123
-395.136	-200.000	-0.005	0.089
-394.121	-200.000	-0.034	-0.219
-393.106	254.114	-0.093	-0.158
-392.092	800.000	-0.093	-0.303
-391.077	-42.136	0.188	-0.096
-390.063	-80.235	0.279	-0.093
-389.048	-118.517	-0.202	-0.036
-388.033	-38.756	0.175	-0.092
-387.019	175.085	0.104	0.150
-386.004	335.785	-0.130	-0.253
-384.990	2.806	-0.094	-0.068
-383.975	52.958	0.077	-0.073
-382.960	-16.673	0.243	-0.153
-381.946	207.333	0.099	-0.154
-380.931	-49.077	0.252	-0.120
-379.917	-19.266	0.131	0.081
-378.902	194.850	0.105	-0.159
-377.888	-200.000	-0.029	-0.127
-376.873	75.596	-0.136	0.143
-375.858	205.589	-0.044	0.068
-374.844	180.503	0.100	-0.147
-373.829	-200.000	-0.038	0.177
-372.815	-200.000	0.026	-0.133
-371.800	-145.192	-0.176	0.016
-370.785	-70.746	0.152	-0.057
-369.771	-66.490	0.324	-0.128
-368.756	-114.035	0.109	0.021
-367.742	-5.162	0.190	0.130
-366.727	116.442	0.142	-0.174
-365.712	-200.000	0.053	-0.245
-364.698	-200.000	-0.029	0.241
-363.683	-200.000	-0.005	0.025
-362.669	-145.981	0.301	0.027
-361.654	-52.906	-0.115	-0.053
-360.639	311.710	0.113	-0.212
-359.625	-200.000	0.027	-0.147
-358.610	122.162	-0.114	-0.142
-357.596	-154.280	-0.353	0.024
-356.581	-18.312	-0.422	0.263
-355.566	-76.346	-0.269	0.094
-354.552	343.985	-0.022	-0.042
-353.537	154.773	0.094	-0.129
-352.523	65.288	-0.264	-0.266
-351.508	-116.789	0.244	-0.045
-350.493	-118.222	-0.099	-0.018
-349.479	182.791	-0.188	0.277
-348.464	-141.955	-0.228	-0.023
-347.450	38.336	0.124	-0.110
-346.435	-200.000	-0.019	-0.233
-345.420	49.506	0.105	0.099
-344.406	-15.701	0.134	-0.085
-343.391	-95.236	-0.187	0.050
-342.377	113.122	-0.073	-0.088
-341.362	160.064	0.108	-0.150
-340.348	800.000	0.073	0.278
-339.333	-57.619	0.103	-0.045
-338.318	-121.856	-0.262	-0.043
-337.304	168.961	0.112	-0.159
-336.289	-182.081	0.251	-0.005
-335.275	-68.338	-0.101	0.039
-334.260	-39.922	0.195	0.101
-333.245	35.736	-0.145	0.127
-332.231	262.818	0.132	-0.229
-331.216	-59.920	-0.113	0.048
-330.202	-116.507	0.025	-0.005
-329.187	304.845	0.125	0.232
-328.172	182.031	0.053	-0.078
-327.158	-119.077	-0.115	-0.020
-326.143	143.439	0.117	0.155
-325.129	35.368	-0.185	0.162
-324.114	-84.456	-0.369	-0.116
-323.099	-200.000	-0.041	0.242
-322.085	268.847	-0.100	0.175
-321.070	-87.943	0.400	0.120
-320.056	-200.000	-0.030	-0.178
-319.041	277.134	0.137	0.243
-318.026	-200.000	0.005	0.038
-317.012	21.515	-0.349	0.283
-315.997	-42.735	-0.091	0.046
-314.983	-16.061	0.090	0.057
-313.968	87.192	0.129	-0.142
-312.953	90.685	-0.171	0.191
-311.939	-122.996	-0.284	0.046
-310.924	-153.664	0.122	0.008
-309.910	90.947	-0.208	0.232
-308.895	33.428	0.315	0.272
-307.880	-200.000	-0.000	-0.111
-306.866	-135.015	-0.416	0.050
-305.851	-124.500	0.535	-0.083
-304.837	-200.000	0.020	0.121
-303.822	-60.233	-0.153	0.065
-302.807	-200.000	-0.050	0.263
-301.793	-123.447	0.127	-0.020
-300.778	68.442	-0.140	-0.143
-299.764	-4.283	-0.280	0.193
-298.749	88.493	0.210	-0.232
-297.735	222.522	0.200	-0.320
-296.720	800.000	-0.115	-0.322
-295.705	-200.000	0.003	-0.085
-294.691	229.081	0.105	-0.171
-293.676	-111.895	0.103	-0.021
-292.662	-110.733	0.385	0.079
-291.647	-200.000	0.005	-0.209
-290.632	424.031	-0.160	0.343
-289.618	800.000	-0.059	-0.187
-288.603	-88.751	-0.013	-0.004
-287.589	85.232	-0.145	0.159
-286.574	413.117	-0.052	0.110
-285.559	-36.406	-0.149	0.080
-284.545	265.388	-0.113	0.196
-283.530	-150.854	-0.110	-0.008
-282.516	800.000	-0.102	0.333
-281.501	46.450	-0.187	-0.172
-280.486	-114.744	0.535	-0.102
-279.472	-108.879	-0.101	0.021
-278.457	-163.050	-0.283	-0.014
-277.443	800.000	-0.118	-0.427
-276.428	-73.309	-0.288	-0.105
-275.413	-184.328	0.198	-0.003
-274.399	800.000	-0.090	0.291
-273.384	-64.927	-0.132	-0.053
-272.370	37.840	0.190	0.168
-271.355	-148.797	0.315	0.025
-270.340	-81.088	0.221	-0.073
-269.326	141.011	0.066	-0.087
-268.311	-75.549	0.137	-0.049
-267.297	275.596	-0.129	0.228
-266.282	120.443	0.235	0.290
-265.267	-200.000	0.004	0.135
-264.253	161.193	0.188	0.262
-263.238	-114.974	-0.062	-0.012
-262.224	-44.398	-0.250	0.124
-261.209	-165.010	-0.225	0.010
-260.195	310.696	0.117	0.218
-259.180	-73.716	0.159	0.058
-258.165	-200.000	0.012	0.166
-257.151	371.837	0.053	0.107
-256.136	-200.000	-0.035	0.160
-255.122	14.493	0.361	0.280
-254.107	607.691	-0.049	0.122
-253.092	3.657	-0.172	0.125
-252.078	162.143	-0.126	0.176
-251.063	-200.000	-0.010	0.056
-250.049	800.000	0.059	-0.166
-249.034	3.318	-0.097	-0.070
-248.019	108.200	0.171	-0.202
-247.005	-154.747	-0.275	0.018
-245.990	64.417	0.175	-0.175
-244.976	197.399	-0.056	-0.086
-243.961	368.234	0.063	-0.126
-242.946	49.683	0.185	-0.173
-241.932	-41.350	-0.122	0.062
-240.917	67.937	-0.044	-0.045
-239.903	129.108	-0.135	0.171
-238.888	139.605	-0.122	-0.159
-237.873	-200.000	0.072	-0.423
-236.859	148.357	-0.107	-0.144
-235.844	156.551	-0.062	-0.086
-234.830	800.000	-0.061	0.234
-233.815	-122.090	0.052	0.008
-232.800	-125.948	-0.204	0.031
-231.786	269.135	-0.156	0.272
-230.771	416.717	0.144	0.304
-229.757	800.000	-0.022	-0.090
-228.742	-200.000	0.007	0.200
-227.727	549.363	0.054	-0.129
-226.713	-200.000	0.022	-0.293
-225.698	605.216	-0.065	-0.160
-224.684	-136.821	-0.513	0.059
-223.669	180.520	0.095	0.138
-222.655	-69.804	0.203	0.077
-221.640	265.915	0.060	-0.104
-220.625	-93.146	-0.166	0.046
-219.611	-155.554	0.094	-0.006
-218.596	-69.569	-0.208	0.079
-217.582	-99.492	-0.157	-0.039
-216.567	-200.000	-0.024	0.193
-215.552	391.096	0.021	-0.043
-214.538	-200.000	0.046	0.265
-213.523	-76.360	0.215	0.075
-212.509	-25.808	0.130	0.076
-211.494	-51.065	0.071	-0.033
-210.479	-200.000	0.010	0.082
-209.465	94.665	-0.121	-0.136
-208.450	-16.581	-0.207	-0.130
-207.436	-155.009	-0.203	0.013
-206.421	-78.649	-0.523	0.177
-205.406	100.875	-0.256	-0.295
-204.392	28.241	0.244	0.205
-203.377	-200.000	0.013	0.095
-202.363	-194.858	-0.268	-0.002
-201.348	100.010	-0.307	-0.353
-200.333	231.428	0.114	-0.186
-199.319	-20.135	0.461	0.282
-198.304	-63.002	0.368	-0.151
-197.290	235.013	-0.030	-0.049
-196.275	262.154	0.131	0.226
-195.260	-46.591	0.283	0.137
-194.246	-175.934	-0.331	-0.009
-193.231	361.600	0.122	0.243
-192.217	226.108	0.227	0.366
-191.202	159.715	-0.175	0.241
-190.187	84.242	0.046	-0.050
-189.173	540.999	0.020	-0.048
-188.158	99.277	-0.182	-0.208
-187.144	-127.950	-0.407	0.058
-186.129	-200.000	0.078	-0.566
-185.114	-64.577	-0.050	0.020
-184.100	-200.000	0.001	-0.204
-183.085	-88.059	-0.017	-0.005
-182.071	85.450	-0.070	-0.076
-181.056	-200.000	0.010	-0.155
-180.042	10.223	0.028	-0.021
-179.027	248.195	0.055	0.093
-178.012	73.165	0.231	-0.239
-176.998	33.944	-0.176	-0.151
-175.983	138.492	-0.312	0.406
-174.969	-147.589	0.281	0.023
-173.954	-112.589	0.327	-0.064
-172.939	-200.000	0.003	-0.193
-171.925	-132.064	-0.256	0.033
-170.910	800.000	-0.063	0.270
-169.896	428.983	0.085	0.181
-168.881	-200.000	0.010	-0.045
-167.866	18.576	0.049	-0.039
-166.852	-75.953	-0.201	0.070
-165.837	-43.997	-0.239	-0.119
-164.823	-2.863	-0.172	0.119
-163.808	-71.937	0.165	0.061
-162.793	-64.426	0.104	0.042
-161.779	48.614	0.350	0.325
-160.764	164.585	-0.048	0.067
-159.750	423.504	0.042	0.090
-158.735	55.852	0.064	0.062
-157.720	11.633	-0.210	-0.160
-156.706	-17.450	-0.154	-0.096
-155.691	-127.572	0.386	0.055
-154.677	-90.048	-0.446	0.129
-153.662	174.187	0.184	-0.264
-152.647	-200.000	-0.007	-0.088
-151.633	-0.175	-0.119	-0.084
-150.618	-111.994	-0.050	0.010
-149.604	-151.548	0.433	-0.032
-148.589	-24.272	0.139	0.082
-147.574	-200.000	0.025	0.131
-146.560	-40.385	0.268	0.138
-145.545	800.000	-0.052	0.169
-144.531	-28.653	0.264	0.150
-143.516	-6.808	0.126	-0.085
-142.502	114.171	0.122	-0.147
-141.487	-200.000	-0.009	0.101
-140.472	800.000	-0.052	-0.171
-139.458	-55.068	-0.105	-0.047
-138.443	-36.891	-0.199	0.106
-137.429	19.481	0.051	-0.041
-136.414	-200.000	-0.025	-0.478
-135.399	13.955	-0.115	-0.089
-134.385	793.180	0.066	0.181
-133.370	-100.364	0.073	0.018
-132.356	-182.415	-0.079	-0.001
-131.341	2.650	0.126	0.090
-130.326	-200.000	0.020	0.207
-129.312	800.000	-0.014	-0.051
-128.297	-103.378	0.257	0.060
-127.283	-28.984	0.146	-0.083
-126.268	-79.577	0.164	-0.055
-125.253	-200.000	0.032	0.232
-124.239	-103.383	0.216	0.050
-123.224	208.054	0.181	-0.279
-122.210	-169.866	0.156	0.006
