DTS Sentinel unit serial number:	SN413079Multiplexer serial number:	ORYXHardware model number:	OX4-SRSoftware version number:	ORYX F/W v4.00 Oryx Data Collector v3.7.2.0data status	okinstallation	princeton_trtdifferential loss correction	single-endedforward channel	channel 4reverse channel	N/Adate	2019/09/19time	04:13:35forward acquisition time	60.00reverse acquisition time	0.00gamma	496.2192k internal	0.2340k external	0.2340temperature offset calibration	1.0031default loss term (dB/km)	0.3790temperature slope calibration	1.0000multiplexer offset coefficient	1.0000multiplexer slope coefficient	1.0000fibre end	0.00T internal ref (°C)	20.31T ext. ref 1 (°C)	0.64T ext. ref 2 (°C)	13.80length (m)	temperature (°C)	Stokes	anti-Stokes-747.200	-151.024	0.391	-0.030
-746.185	67.345	-0.332	0.340
-745.171	-158.400	-0.158	-0.009
-744.156	-200.000	-0.057	0.262
-743.142	-69.255	0.159	-0.061
-742.127	-26.959	-0.080	0.047
-741.112	-62.958	-0.186	0.077
-740.098	-8.277	0.105	0.071
-739.083	-200.000	0.005	-0.117
-738.069	-24.699	-0.420	0.250
-737.054	34.861	0.168	0.147
-736.039	-133.332	-0.201	0.025
-735.025	604.936	-0.024	0.060
-734.010	-117.442	-0.310	0.056
-732.996	83.753	-0.094	0.102
-731.981	-61.183	0.191	0.081
-730.966	-113.058	-0.476	-0.094
-729.952	-200.000	0.026	-0.146
-728.937	120.828	0.097	0.121
-727.923	-60.095	0.196	0.084
-726.908	-101.301	-0.370	-0.091
-725.894	-162.538	-0.113	0.006
-724.879	800.000	0.109	-0.434
-723.864	145.127	0.053	-0.071
-722.850	800.000	0.004	-0.013
-721.835	38.691	-0.242	-0.216
-720.821	-126.748	-0.280	-0.041
-719.806	800.000	0.109	-0.316
-718.791	38.581	-0.440	-0.393
-717.777	-200.000	-0.004	0.056
-716.762	78.919	0.321	-0.344
-715.748	51.641	-0.178	0.170
-714.733	-200.000	0.018	-0.128
-713.718	135.718	-0.100	0.130
-712.704	-88.236	-0.226	0.068
-711.689	-200.000	0.051	0.247
-710.675	800.000	-0.153	0.438
-709.660	243.009	0.049	0.083
-708.645	366.796	0.167	0.336
-707.631	-34.588	-0.104	0.057
-706.616	-140.082	-0.363	0.038
-705.602	135.495	0.287	-0.373
-704.587	-3.207	-0.300	0.210
-703.572	27.986	0.085	-0.071
-702.558	131.437	0.113	-0.145
-701.543	-68.522	-0.144	-0.056
-700.529	-98.836	-0.413	0.105
-699.514	800.000	0.024	0.069
-698.499	-34.560	-0.337	0.184
-697.485	-200.000	0.004	-0.193
-696.470	-200.000	-0.008	-0.123
-695.456	164.744	-0.110	-0.155
-694.441	212.423	-0.104	-0.165
-693.426	-52.220	-0.125	0.058
-692.412	101.743	-0.145	-0.169
-691.397	-133.871	-0.173	0.021
-690.383	317.756	-0.024	-0.045
-689.368	-200.000	-0.007	-0.106
-688.354	-200.000	0.012	-0.192
-687.339	-27.720	-0.125	0.073
-686.324	394.278	-0.086	-0.180
-685.310	371.748	-0.118	-0.239
-684.295	-87.714	-0.125	-0.038
-683.281	-67.355	0.294	0.115
-682.266	383.825	-0.102	0.210
-681.251	39.338	-0.137	-0.123
-680.237	-28.023	-0.249	0.144
-679.222	-16.907	-0.377	-0.238
-678.208	-139.057	0.165	-0.018
-677.193	-200.000	0.043	0.390
-676.178	241.571	0.096	-0.160
-675.164	263.598	0.199	0.345
-674.149	-36.403	-0.087	-0.047
-673.135	800.000	-0.121	-0.388
-672.120	112.696	0.134	-0.162
-671.105	33.104	-0.183	-0.159
-670.091	43.372	0.100	0.091
-669.076	-200.000	-0.054	0.414
-668.062	116.926	0.123	-0.151
-667.047	-178.720	0.096	0.002
-666.032	204.183	0.022	-0.034
-665.018	-200.000	0.015	0.140
-664.003	51.837	-0.110	0.105
-662.989	-94.818	-0.344	0.093
-661.974	19.502	0.004	-0.004
-660.959	130.693	-0.061	-0.079
-659.945	800.000	-0.070	0.196
-658.930	-105.964	0.060	-0.013
-657.916	66.054	-0.190	0.193
-656.901	10.884	0.045	0.034
-655.886	-200.000	0.004	0.438
-654.872	-113.965	0.495	0.096
-653.857	-54.432	0.168	-0.076
-652.843	599.981	0.073	-0.180
-651.828	18.516	0.122	-0.098
-650.814	-21.354	-0.129	-0.078
-649.799	516.079	0.234	-0.545
-648.784	103.326	0.214	-0.251
-647.770	5.381	-0.005	-0.004
-646.755	-100.272	-0.213	0.053
-645.741	-200.000	-0.007	0.038
-644.726	2.555	0.132	-0.095
-643.711	-200.000	-0.027	0.408
-642.697	-200.000	-0.001	-0.033
-641.682	60.434	0.129	-0.128
-640.668	800.000	0.017	-0.052
-639.653	-84.743	-0.210	0.066
-638.638	71.741	-0.195	0.202
-637.624	-6.691	0.264	0.179
-636.609	800.000	-0.069	-0.227
-635.595	-200.000	-0.032	-0.143
-634.580	598.073	-0.087	-0.216
-633.565	663.740	-0.053	0.135
-632.551	-166.778	0.102	-0.004
-631.536	-200.000	0.004	0.175
-630.522	-200.000	-0.008	-0.112
-629.507	-29.818	-0.080	-0.045
-628.492	240.492	-0.092	-0.153
-627.478	-175.331	0.130	0.004
-626.463	-38.747	-0.043	0.023
-625.449	26.186	-0.127	-0.106
-624.434	390.034	-0.151	-0.312
-623.419	611.316	0.088	-0.219
-622.405	7.258	-0.045	0.034
-621.390	234.996	0.160	-0.264
-620.376	327.822	0.124	0.238
-619.361	-134.395	-0.416	0.051
-618.346	-72.205	-0.168	0.062
-617.332	-200.000	0.006	-0.219
-616.317	-98.914	0.229	0.058
-615.303	-200.000	-0.025	-0.217
-614.288	-200.000	-0.092	-0.564
-613.273	-139.024	-0.246	0.027
-612.259	-109.272	0.100	-0.021
-611.244	-200.000	0.041	0.219
-610.230	340.531	0.072	-0.141
-609.215	-200.000	-0.004	0.049
-608.201	-145.873	0.168	-0.015
-607.186	-28.154	0.291	0.168
-606.171	-75.973	-0.191	0.067
-605.157	607.591	-0.137	-0.340
-604.142	1.510	-0.319	-0.229
-603.128	-59.570	0.115	-0.049
-602.113	-171.008	0.342	-0.012
-601.098	-200.000	0.060	-0.345
-600.084	-200.000	-0.009	-0.454
-599.069	-43.072	0.206	-0.104
-598.055	-200.000	0.031	0.424
-597.040	-200.000	0.016	-0.187
-596.025	800.000	-0.066	-0.233
-595.011	28.852	-0.073	0.061
-593.996	-200.000	0.047	0.216
-592.982	800.000	-0.082	-0.242
-591.967	-28.700	0.161	-0.092
-590.952	487.001	-0.101	0.230
-589.938	-200.000	-0.035	0.241
-588.923	-2.591	0.260	0.181
-587.909	-125.998	-0.013	0.002
-586.894	-121.974	0.193	0.032
-585.879	-44.828	-0.203	0.101
-584.865	11.191	-0.249	-0.190
-583.850	-83.445	-0.281	-0.090
-582.836	90.572	0.107	-0.119
-581.821	-196.518	-0.193	0.001
-580.806	-97.855	-0.208	0.054
-579.792	800.000	-0.099	-0.289
-578.777	800.000	0.138	-0.421
-577.763	-200.000	0.005	0.274
-576.748	-31.510	-0.180	-0.101
-575.733	-142.601	-0.165	-0.016
-574.719	-200.000	-0.052	-0.235
-573.704	-142.313	-0.051	0.005
-572.690	-65.459	-0.231	0.092
-571.675	-122.115	0.034	0.006
-570.661	-200.000	0.029	-0.393
-569.646	-187.348	-0.373	0.005
-568.631	-8.230	0.024	0.016
-567.617	800.000	-0.102	0.408
-566.602	-152.758	0.128	0.009
-565.588	-14.326	-0.203	0.130
-564.573	-3.073	0.179	0.125
-563.558	142.915	0.092	0.122
-562.544	-200.000	-0.037	-0.402
-561.529	-41.344	-0.107	-0.055
-560.515	280.969	0.048	0.086
-559.500	-20.854	0.399	0.243
-558.485	158.319	-0.071	0.098
-557.471	-60.925	0.172	-0.072
-556.456	35.614	-0.318	0.278
-555.442	761.222	-0.040	0.108
-554.427	427.114	-0.178	-0.381
-553.412	90.284	0.146	0.163
-552.398	-57.306	-0.092	0.040
-551.383	260.526	0.120	0.206
-550.369	-85.522	-0.573	-0.178
-549.354	52.185	0.152	-0.145
-548.339	800.000	-0.126	-0.387
-547.325	-121.838	0.212	0.035
-546.310	-200.000	-0.020	-0.133
-545.296	-3.048	0.170	0.118
-544.281	13.960	0.138	0.107
-543.266	35.766	-0.146	-0.128
-542.252	316.387	-0.108	0.202
-541.237	-162.030	0.168	0.008
-540.223	92.348	-0.109	-0.122
-539.208	230.681	-0.288	0.469
-538.193	-200.000	-0.007	-0.034
-537.179	-90.298	-0.234	-0.068
-536.164	621.461	-0.135	0.338
-535.150	137.541	0.156	-0.202
-534.135	-105.138	-0.040	0.009
-533.121	-128.321	0.232	-0.033
-532.106	41.269	-0.213	0.192
-531.091	103.061	0.061	0.071
-530.077	-142.942	0.057	0.005
-529.062	21.241	0.117	0.095
-528.048	-34.709	-0.129	0.070
-527.033	682.127	-0.176	-0.456
-526.018	800.000	-0.050	0.173
-525.004	130.277	0.316	0.402
-523.989	-186.837	0.193	-0.003
-522.975	4.639	-0.181	0.132
-521.960	800.000	-0.014	0.043
-520.945	31.040	0.118	-0.101
-519.931	387.866	-0.207	-0.427
-518.916	87.756	-0.138	-0.152
-517.902	800.000	0.092	0.274
-516.887	-185.586	0.426	-0.006
-515.872	-184.733	0.505	-0.008
-514.858	377.623	0.055	0.112
-513.843	-109.676	-0.214	-0.045
-512.829	-200.000	0.033	-0.197
-511.814	-200.000	-0.011	0.113
-510.799	128.517	0.165	-0.209
-509.785	450.305	0.172	-0.377
-508.770	68.717	-0.089	0.091
-507.756	267.416	-0.081	0.141
-506.741	-200.000	-0.049	-0.368
-505.726	-22.404	-0.418	0.252
-504.712	73.943	-0.047	-0.049
-503.697	134.253	-0.107	0.138
-502.683	800.000	-0.034	0.101
-501.668	604.822	-0.139	0.343
-500.653	194.581	0.086	0.129
-499.639	-200.000	0.005	-0.167
-498.624	-54.938	0.116	-0.052
-497.610	-200.000	-0.016	-0.089
-496.595	-200.000	-0.014	-0.166
-495.581	98.854	-0.320	0.366
-494.566	-115.150	-0.104	0.020
-493.551	-200.000	0.033	0.309
-492.537	-83.987	0.123	0.039
-491.522	-80.545	0.094	-0.031
-490.508	283.502	0.097	-0.174
-489.493	800.000	-0.029	0.093
-488.478	-115.681	-0.245	0.046
-487.464	-47.800	0.110	0.053
-486.449	-6.448	-0.090	0.061
-485.435	-68.853	-0.081	0.031
-484.420	-88.156	-0.157	0.047
-483.405	-159.603	-0.130	-0.007
-482.391	-200.000	-0.015	0.384
-481.376	47.175	-0.372	0.344
-480.362	235.434	-0.109	0.178
-479.347	47.823	0.143	-0.133
-478.332	-200.000	0.057	0.259
-477.318	140.107	-0.057	0.074
-476.303	800.000	-0.073	0.217
-475.289	-200.000	-0.007	0.094
-474.274	11.361	0.149	-0.114
-473.259	53.238	0.179	-0.171
-472.245	-50.358	-0.312	0.146
-471.230	-200.000	-0.004	-0.297
-470.216	536.870	-0.152	0.358
-469.201	208.695	0.147	-0.229
-468.186	800.000	0.071	-0.208
-467.172	38.726	0.234	0.207
-466.157	-191.289	0.245	0.002
-465.143	-115.385	-0.229	-0.043
-464.128	-98.672	0.142	-0.036
-463.113	-49.471	0.373	0.176
-462.099	-152.341	-0.280	0.020
-461.084	382.274	-0.140	0.286
-460.070	-200.000	0.014	-0.071
-459.055	209.084	0.210	-0.327
-458.040	85.883	-0.187	-0.204
-457.026	-27.726	0.137	0.079
-456.011	18.565	-0.100	0.079
-454.997	210.519	0.196	-0.306
-453.982	-83.731	0.247	0.078
-452.968	-200.000	-0.014	0.078
-451.953	-200.000	-0.059	0.392
-450.938	546.955	-0.118	0.280
-449.924	-69.086	-0.155	-0.059
-448.909	-76.297	-0.296	0.103
-447.895	5.284	0.134	0.098
-446.880	-200.000	-0.064	-0.347
-445.865	-29.718	0.126	0.071
-444.851	6.933	0.120	-0.089
-443.836	-200.000	0.020	-0.224
-442.822	800.000	0.181	0.735
-441.807	-98.883	-0.189	-0.048
-440.792	-200.000	0.037	-0.424
-439.778	784.562	-0.008	-0.022
-438.763	16.087	-0.202	0.158
-437.749	-33.764	0.120	-0.065
-436.734	166.917	-0.102	0.143
-435.719	-200.000	0.036	0.165
-434.705	-189.525	-0.066	-0.001
-433.690	261.645	0.085	0.146
-432.676	-48.203	0.026	-0.013
-431.661	-200.000	0.016	0.075
-430.646	-123.733	0.355	0.056
-429.632	308.963	-0.140	-0.258
-428.617	94.075	-0.087	-0.097
-427.603	94.232	0.095	-0.106
-426.588	28.950	-0.164	0.138
-425.573	-10.481	-0.181	0.119
-424.559	-200.000	-0.002	0.157
-423.544	645.651	-0.028	-0.071
-422.530	800.000	-0.045	0.184
-421.515	460.232	-0.011	0.025
-420.500	116.831	-0.172	-0.209
-419.486	222.428	-0.098	-0.156
-418.471	-180.135	-0.270	-0.006
-417.457	-49.209	0.197	0.093
-416.442	46.602	-0.203	0.187
-415.428	-117.267	-0.165	-0.030
-414.413	800.000	-0.042	-0.150
-413.398	-150.728	0.477	-0.036
-412.384	790.652	0.043	0.118
-411.369	-191.486	-0.079	-0.001
-410.355	21.706	-0.083	-0.067
-409.340	-26.943	0.283	0.164
-408.325	-54.674	0.047	0.021
-407.311	166.456	0.180	0.252
-406.296	13.598	-0.174	0.133
-405.282	163.211	0.156	0.216
-404.267	-57.524	-0.308	0.134
-403.252	-46.020	0.185	0.090
-402.238	270.395	-0.047	-0.082
-401.223	-111.895	0.188	0.038
-400.209	592.163	0.034	0.083
-399.194	-130.097	-0.168	0.023
-398.179	-82.398	-0.179	-0.057
-397.165	-153.716	0.318	0.022
-396.150	132.659	-0.098	0.125
-395.136	800.000	0.073	0.230
-394.121	-65.808	0.288	-0.114
-393.106	101.236	-0.065	-0.075
-392.092	80.344	0.089	0.095
-391.077	-82.992	0.457	-0.146
-390.063	-200.000	0.000	-0.035
-389.048	605.208	-0.043	0.105
-388.033	-200.000	0.010	0.146
-387.019	4.180	-0.166	0.120
-386.004	-200.000	-0.069	0.372
-384.990	800.000	-0.032	0.131
-383.975	186.990	-0.211	0.310
-382.960	-200.000	0.065	0.379
-381.946	800.000	0.104	0.374
-380.931	654.325	0.059	0.150
-379.917	378.580	0.131	-0.265
-378.902	99.996	-0.197	0.226
-377.888	-19.713	0.206	-0.126
-376.873	-183.531	0.229	-0.004
-375.858	153.520	0.333	0.451
-374.844	-200.000	-0.048	-0.215
-373.829	-133.769	-0.155	0.019
-372.815	173.689	-0.167	-0.238
-371.800	73.930	0.150	0.156
-370.785	151.990	0.058	-0.078
-369.771	-15.453	-0.061	-0.039
-368.756	800.000	0.036	0.142
-367.742	-169.081	0.218	0.008
-366.727	800.000	0.122	-0.361
-365.712	-143.186	-0.379	-0.036
-364.698	19.853	-0.076	-0.061
-363.683	91.673	-0.266	0.296
-362.669	-200.000	-0.009	0.271
-361.654	-39.008	-0.124	-0.064
-360.639	29.063	-0.285	-0.238
-359.625	-165.873	0.185	0.008
-358.610	471.893	-0.048	0.108
-357.596	-200.000	0.005	-0.028
-356.581	81.807	-0.093	-0.099
-355.566	21.767	0.187	0.150
-354.552	110.122	0.143	-0.170
-353.537	-31.750	-0.296	-0.164
-352.523	177.577	-0.024	0.034
-351.508	800.000	0.100	-0.287
-350.493	-2.812	0.015	0.010
-349.479	378.514	0.073	0.148
-348.464	-104.721	0.320	0.073
-347.450	68.400	0.277	-0.281
-346.435	36.792	0.105	0.092
-345.420	-200.000	-0.011	-0.099
-344.406	-47.154	0.292	-0.141
-343.391	90.418	0.084	0.092
-342.377	127.661	0.071	0.089
-341.362	-180.647	-0.219	0.004
-340.348	-62.104	-0.144	0.059
-339.333	-132.445	-0.511	0.065
-338.318	27.984	-0.052	-0.043
-337.304	22.792	0.229	0.185
-336.289	-170.236	0.223	-0.008
-335.275	45.784	0.134	-0.122
-334.260	39.948	0.117	-0.104
-333.245	-185.662	0.121	-0.002
-332.231	800.000	0.057	0.204
-331.216	-200.000	0.005	0.251
-330.202	7.612	0.070	-0.051
-329.187	-123.142	0.266	0.042
-328.172	-200.000	-0.005	0.187
-327.158	483.755	-0.085	-0.191
-326.143	-57.886	-0.353	0.152
-325.129	-151.819	0.328	0.024
-324.114	-200.000	-0.002	0.204
-323.099	-21.086	-0.432	-0.261
-322.085	-105.759	-0.106	0.024
-321.070	148.868	-0.061	-0.082
-320.056	191.272	0.070	0.104
-319.041	379.327	-0.015	-0.031
-318.026	-200.000	-0.007	-0.054
-317.012	61.324	0.222	-0.218
-315.997	-127.030	-0.154	-0.022
-314.983	-103.238	0.166	0.039
-313.968	-116.920	0.229	0.041
-312.953	-87.820	0.141	-0.042
-311.939	19.368	-0.088	-0.069
-310.924	542.123	0.209	-0.491
-309.910	15.818	-0.087	-0.068
-308.895	199.330	0.120	0.181
-307.880	93.515	0.115	-0.129
-306.866	148.579	-0.183	0.244
-305.851	173.395	0.112	0.160
-304.837	-111.317	0.063	0.013
-303.822	-200.000	-0.001	0.230
-302.807	-101.770	0.176	-0.042
-301.793	16.209	-0.284	0.221
-300.778	-200.000	-0.073	-0.395
-299.764	37.121	-0.046	-0.040
-298.749	-200.000	0.063	-0.286
-297.735	95.700	0.121	-0.136
-296.720	262.441	-0.069	0.118
-295.705	-200.000	0.056	-0.309
-294.691	7.338	0.123	-0.091
-293.676	-19.923	-0.170	-0.103
-292.662	-64.177	-0.221	0.089
-291.647	-36.398	-0.252	0.134
-290.632	13.257	-0.054	-0.041
-289.618	114.960	-0.228	-0.274
-288.603	-200.000	-0.016	-0.246
-287.589	12.550	0.172	0.131
-286.574	-200.000	0.076	-0.364
-285.559	800.000	-0.030	-0.091
-284.545	-142.420	-0.208	0.020
-283.530	199.855	-0.245	-0.371
-282.516	-200.000	0.020	-0.117
-281.501	800.000	-0.082	0.276
-280.486	106.138	-0.126	0.147
-279.472	48.197	0.214	-0.197
-278.457	256.584	0.164	0.278
-277.443	800.000	-0.072	0.197
-276.428	64.937	0.354	0.352
-275.413	-200.000	-0.002	-0.185
-274.399	12.239	-0.182	0.138
-273.384	99.292	-0.200	-0.228
-272.370	150.725	0.094	-0.125
-271.355	211.729	-0.080	0.123
-270.340	-47.361	0.096	0.046
-269.326	4.205	-0.169	-0.122
-268.311	66.416	0.097	-0.097
-267.297	-200.000	-0.008	0.215
-266.282	168.077	0.042	-0.058
-265.267	-20.677	0.106	0.064
-264.253	-152.957	0.134	0.009
-263.238	-138.665	0.225	-0.024
-262.224	-117.929	-0.024	0.004
-261.209	22.362	-0.110	-0.089
-260.195	-23.481	0.175	0.103
-259.180	302.293	0.122	0.223
-258.165	375.412	0.181	0.363
-257.151	-134.013	0.104	-0.013
-256.136	324.568	0.048	0.090
-255.122	122.478	-0.215	-0.264
-254.107	44.318	0.127	-0.114
-253.092	258.500	-0.043	0.073
-252.078	125.477	-0.188	-0.234
-251.063	25.061	0.275	0.224
-250.049	-6.658	-0.231	-0.155
-249.034	-76.423	0.271	-0.094
-248.019	405.572	-0.086	0.178
-247.005	-200.000	-0.030	0.285
-245.990	-98.078	-0.489	0.124
-244.976	71.183	0.296	-0.302
-243.961	318.780	-0.175	-0.325
-242.946	-106.510	0.184	0.040
-241.932	-200.000	-0.014	-0.137
-240.917	73.216	-0.297	-0.305
-239.903	-24.902	0.342	-0.199
-238.888	-46.945	0.345	-0.166
-237.873	392.198	0.076	0.154
-236.859	-81.690	-0.164	0.053
-235.844	800.000	-0.092	0.275
-234.830	-200.000	-0.015	-0.115
-233.815	241.541	0.073	0.120
-232.800	13.662	0.171	0.131
-231.786	57.850	-0.132	-0.126
-230.771	-87.019	0.248	0.074
-229.757	-126.548	-0.038	0.005
-228.742	-200.000	-0.039	0.330
-227.727	-76.840	-0.124	-0.043
-226.713	-98.045	0.250	0.063
-225.698	800.000	0.070	-0.249
-224.684	-120.293	-0.187	-0.031
-223.669	-61.180	0.180	0.075
-222.655	-50.754	0.048	-0.022
-221.640	232.000	0.180	0.291
-220.625	49.598	0.174	-0.161
-219.611	-4.968	-0.378	0.256
-218.596	-82.145	-0.176	-0.056
-217.582	-200.000	0.008	0.123
-216.567	800.000	-0.100	0.309
-215.552	269.749	-0.054	-0.093
-214.538	133.366	0.147	0.186
-213.523	185.119	0.177	-0.257
-212.509	-200.000	-0.038	-0.166
-211.494	12.216	0.114	0.087
-210.479	-73.983	-0.023	-0.008
-209.465	-36.630	0.130	0.069
-208.450	-200.000	-0.011	-0.191
-207.436	730.360	-0.118	0.311
-206.421	324.479	0.198	0.371
-205.406	-46.386	0.357	0.172
-204.392	133.215	0.080	-0.101
-203.377	20.226	0.230	-0.183
-202.363	49.804	0.186	0.172
-201.348	17.118	0.452	0.352
-200.333	-200.000	-0.015	-0.193
-199.319	-200.000	-0.020	0.178
-198.304	800.000	-0.049	-0.197
-197.290	-89.912	0.076	0.022
-196.275	-200.000	0.021	0.139
-195.260	-164.810	-0.266	0.012
-194.246	-73.483	-0.301	0.108
-193.231	800.000	0.145	0.404
-192.217	219.621	0.165	-0.259
-191.202	-56.961	0.143	0.062
-190.187	-149.789	-0.254	0.020
-189.173	69.572	-0.265	0.267
-188.158	-133.376	-0.361	-0.045
-187.144	800.000	0.061	-0.237
-186.129	-80.220	0.068	0.022
-185.114	363.795	-0.182	-0.359
-184.100	465.698	-0.169	-0.372
-183.085	412.400	-0.081	-0.169
-182.071	22.367	-0.078	-0.063
-181.056	-78.076	0.481	-0.162
-180.042	-200.000	0.006	0.036
-179.027	23.216	-0.089	0.072
-178.012	65.189	-0.107	0.106
-176.998	-99.876	-0.159	-0.039
-175.983	-200.000	0.027	0.184
-174.969	-88.531	0.166	-0.049
-173.954	65.106	-0.166	0.165
-172.939	152.444	-0.032	0.043
-171.925	800.000	0.049	0.162
-170.910	-27.806	0.222	-0.126
-169.896	-56.958	-0.381	-0.165
-168.881	40.382	0.477	0.421
-167.866	-200.000	-0.024	-0.315
-166.852	273.899	0.099	-0.171
-165.837	106.780	-0.351	-0.408
-164.823	800.000	0.088	-0.278
-163.808	95.023	-0.190	-0.212
-162.793	-10.618	-0.064	0.042
-161.779	-167.520	0.166	0.006
-160.764	-200.000	-0.006	-0.153
-159.750	-29.662	-0.190	-0.106
-158.735	-200.000	-0.003	-0.326
-157.720	-52.024	0.409	-0.186
-156.706	-64.453	-0.430	-0.171
-155.691	800.000	-0.114	-0.452
-154.677	56.519	0.176	-0.168
-153.662	105.503	-0.230	0.267
-152.647	-17.476	0.180	0.111
-151.633	10.774	-0.333	-0.249
-150.618	-200.000	-0.002	-0.058
-149.604	-49.122	0.157	-0.074
-148.589	5.890	0.165	-0.119
-147.574	-81.333	0.274	-0.088
-146.560	67.053	0.071	-0.071
-145.545	133.597	0.052	0.065
-144.531	-107.415	0.210	0.045
-143.516	587.474	-0.045	-0.109
-142.502	-58.807	0.371	0.157
-141.487	15.273	-0.327	0.251
-140.472	-200.000	0.048	-0.268
-139.458	319.678	-0.164	0.305
-138.443	-200.000	0.004	-0.080
-137.429	-59.616	0.139	0.058
-136.414	313.316	0.115	0.211
-135.399	185.114	0.105	-0.152
-134.385	-63.928	-0.138	0.055
-133.370	800.000	-0.096	0.405
-132.356	606.291	-0.135	0.329
-131.341	-170.011	0.339	0.012
-130.326	-125.608	0.329	-0.049
-129.312	638.880	-0.106	0.264
-128.297	-83.794	0.391	0.122
-127.283	76.214	-0.230	-0.239
-126.268	-200.000	-0.016	-0.119
-125.253	478.864	0.092	-0.204
-124.239	-200.000	0.006	0.274
-123.224	-85.288	-0.260	-0.080
-122.210	403.875	-0.138	-0.284
-121.195	-36.423	0.234	-0.124
