DTS Sentinel unit serial number:	SN413079Multiplexer serial number:	ORYXHardware model number:	OX4-SRSoftware version number:	ORYX F/W v4.00 Oryx Data Collector v3.7.2.0data status	okinstallation	princeton_trtdifferential loss correction	single-endedforward channel	channel 4reverse channel	N/Adate	2019/09/19time	06:13:35forward acquisition time	60.00reverse acquisition time	0.00gamma	496.2192k internal	0.2340k external	0.2340temperature offset calibration	1.0029default loss term (dB/km)	0.3790temperature slope calibration	1.0000multiplexer offset coefficient	1.0000multiplexer slope coefficient	1.0000fibre end	0.00T internal ref (°C)	19.11T ext. ref 1 (°C)	0.58T ext. ref 2 (°C)	12.75length (m)	temperature (°C)	Stokes	anti-Stokes-747.200	331.297	-0.154	0.297
-746.185	-65.128	-0.348	0.141
-745.171	-113.885	0.351	0.068
-744.156	-22.155	-0.292	0.178
-743.142	175.211	0.185	0.269
-742.127	129.719	-0.038	0.049
-741.112	-200.000	0.009	-0.049
-740.098	-167.615	-0.434	0.017
-739.083	-200.000	-0.015	0.242
-738.069	93.412	0.147	0.167
-737.054	183.130	-0.049	-0.073
-736.039	-200.000	0.124	0.000
-735.025	800.000	-0.100	0.337
-734.010	-129.478	-0.465	-0.065
-732.996	132.534	0.315	-0.407
-731.981	519.625	-0.052	-0.122
-730.966	800.000	0.122	-0.404
-729.952	-63.225	0.273	-0.113
-728.937	-200.000	0.045	0.450
-727.923	72.417	0.124	0.130
-726.908	-25.734	-0.222	0.131
-725.894	-70.888	-0.302	0.114
-724.879	-200.000	0.013	-0.259
-723.864	-200.000	0.012	0.130
-722.850	-44.535	-0.130	0.065
-721.835	701.310	-0.107	-0.283
-720.821	800.000	-0.105	-0.305
-719.806	138.899	-0.026	-0.034
-718.791	-78.021	0.118	-0.041
-717.777	-200.000	0.016	-0.195
-716.762	0.847	0.179	0.128
-715.748	-7.494	0.372	0.252
-714.733	117.006	0.095	0.117
-713.718	-200.000	-0.005	0.182
-712.704	-58.227	0.212	0.092
-711.689	-200.000	-0.007	0.078
-710.675	-200.000	0.010	0.105
-709.660	18.083	-0.346	0.276
-708.645	469.375	-0.045	0.102
-707.631	800.000	0.102	-0.392
-706.616	504.207	0.119	0.276
-705.602	800.000	-0.056	0.185
-704.587	680.978	-0.074	-0.193
-703.572	121.370	0.316	0.393
-702.558	800.000	0.059	-0.256
-701.543	580.926	0.055	-0.136
-700.529	334.766	0.113	-0.219
-699.514	-87.476	-0.149	-0.045
-698.499	-3.055	-0.050	-0.035
-697.485	205.838	0.033	0.051
-696.470	-106.512	-0.109	0.024
-695.456	666.745	0.092	0.238
-694.441	16.875	0.107	0.085
-693.426	-84.725	0.336	0.106
-692.412	-55.349	-0.128	0.057
-691.397	-63.316	-0.175	-0.072
-690.383	-200.000	0.003	0.300
-689.368	691.850	0.109	0.285
-688.354	50.948	0.206	0.196
-687.339	332.176	0.164	0.317
-686.324	-3.584	0.129	-0.090
-685.310	17.355	-0.171	-0.136
-684.295	-200.000	0.000	0.471
-683.281	141.399	-0.079	-0.105
-682.266	26.522	0.296	-0.248
-681.251	147.522	-0.133	-0.179
-680.237	-200.000	0.049	0.384
-679.222	-78.611	0.094	-0.032
-678.208	99.596	0.113	0.131
-677.193	294.534	0.063	0.116
-676.178	344.445	-0.110	0.216
-675.164	55.860	-0.213	0.207
-674.149	-63.615	0.351	-0.144
-673.135	-146.467	0.183	-0.016
-672.120	126.999	0.307	-0.389
-671.105	-138.207	-0.049	0.005
-670.091	-17.229	0.140	0.088
-669.076	115.222	-0.234	0.286
-668.062	-188.337	0.053	-0.001
-667.047	-85.877	0.778	-0.241
-666.032	-200.000	-0.033	-0.164
-665.018	-75.135	0.456	0.163
-664.003	16.952	0.338	0.267
-662.989	-64.304	-0.062	-0.025
-661.974	-200.000	-0.017	-0.262
-660.959	173.736	0.094	-0.136
-659.945	-41.595	-0.091	-0.047
-658.930	97.283	-0.068	-0.079
-657.916	-125.542	0.399	0.061
-656.901	395.284	-0.093	0.195
-655.886	385.329	-0.058	-0.120
-654.872	-175.580	0.243	-0.007
-653.857	108.640	-0.234	-0.279
-652.843	154.837	-0.138	-0.190
-651.828	-96.490	0.477	-0.126
-650.814	14.246	-0.045	0.035
-649.799	52.176	-0.204	-0.195
-648.784	-27.854	0.250	-0.145
-647.770	-137.346	-0.176	-0.020
-646.755	800.000	0.040	-0.110
-645.741	8.175	-0.353	0.265
-644.726	-116.197	0.027	-0.005
-643.711	18.131	0.151	-0.120
-642.697	172.282	-0.203	-0.292
-641.682	248.538	0.107	-0.180
-640.668	456.039	0.109	-0.241
-639.653	-22.252	0.153	-0.093
-638.638	-200.000	0.032	0.259
-637.624	18.640	-0.255	0.204
-636.609	150.357	0.200	0.271
-635.595	-114.559	-0.231	-0.044
-634.580	43.918	-0.169	-0.154
-633.565	150.387	0.218	-0.296
-632.551	452.564	0.113	-0.250
-631.536	-11.316	0.210	-0.138
-630.522	-87.954	-0.197	-0.059
-629.507	-200.000	0.101	0.496
-628.492	64.206	-0.106	0.106
-627.478	590.317	-0.075	-0.184
-626.463	-200.000	0.011	-0.144
-625.449	-200.000	-0.001	0.031
-624.434	-125.317	-0.292	-0.045
-623.419	426.133	-0.123	-0.265
-622.405	218.720	-0.135	-0.216
-621.390	-200.000	-0.006	0.142
-620.376	242.410	0.235	0.392
-619.361	316.766	-0.106	-0.200
-618.346	-200.000	-0.063	-0.308
-617.332	506.517	-0.111	0.256
-616.317	800.000	0.036	0.123
-615.303	800.000	-0.069	-0.295
-614.288	262.299	0.182	-0.315
-613.273	-89.375	-0.140	0.041
-612.259	-21.152	-0.024	-0.014
-611.244	101.527	0.312	-0.362
-610.230	-63.123	-0.071	0.029
-609.215	268.831	-0.130	0.228
-608.201	230.162	-0.063	-0.103
-607.186	183.604	0.205	0.302
-606.171	716.905	-0.104	0.275
-605.157	-112.033	0.253	-0.051
-604.142	-200.000	0.098	0.434
-603.128	-21.067	0.223	0.136
-602.113	800.000	0.072	0.224
-601.098	262.985	-0.072	-0.125
-600.084	263.802	0.038	0.066
-599.069	48.604	0.055	0.051
-598.055	-6.929	-0.083	-0.056
-597.040	-200.000	0.011	0.064
-596.025	-74.030	-0.177	-0.064
-595.011	211.793	-0.088	0.138
-593.996	800.000	-0.048	0.183
-592.982	112.118	-0.091	0.110
-591.967	800.000	0.019	-0.069
-590.952	138.221	0.189	-0.247
-589.938	800.000	0.044	-0.173
-588.923	-89.906	0.128	-0.037
-587.909	-200.000	0.004	-0.088
-586.894	440.057	0.178	-0.387
-585.879	-200.000	-0.005	-0.201
-584.865	-51.914	-0.214	0.099
-583.850	-200.000	0.025	-0.177
-582.836	-129.631	-0.224	0.031
-581.821	-59.439	-0.220	0.094
-580.806	712.949	0.076	0.200
-579.792	18.348	0.202	0.161
-578.777	800.000	0.030	-0.111
-577.763	658.849	0.089	-0.227
-576.748	800.000	-0.128	-0.402
-575.733	-200.000	0.007	-0.363
-574.719	630.584	0.107	-0.270
-573.704	-71.905	0.182	-0.067
-572.690	131.186	-0.101	0.129
-571.675	-105.643	0.283	0.064
-570.661	-143.012	-0.175	-0.017
-569.646	478.038	0.063	-0.143
-568.631	-4.111	0.285	-0.196
-567.617	-23.097	-0.072	0.043
-566.602	111.603	0.220	-0.265
-565.588	263.960	0.012	0.020
-564.573	59.822	-0.086	0.084
-563.558	800.000	0.025	0.072
-562.544	9.887	-0.238	0.180
-561.529	-200.000	0.005	-0.067
-560.515	501.068	-0.096	0.221
-559.500	148.650	0.140	-0.188
-558.485	226.190	0.187	-0.302
-557.471	-99.262	-0.380	-0.096
-556.456	35.738	0.214	-0.188
-555.442	-45.405	0.205	-0.101
-554.427	-196.347	-0.315	0.002
-553.412	295.059	0.114	0.208
-552.398	-60.635	0.558	-0.235
-551.383	666.642	-0.145	0.372
-550.369	-55.666	-0.157	-0.070
-549.354	-200.000	-0.055	-0.258
-548.339	-134.590	0.290	0.035
-547.325	-200.000	-0.041	0.209
-546.310	-139.924	-0.260	0.027
-545.296	-19.688	-0.141	0.087
-544.281	-200.000	-0.016	-0.184
-543.266	121.596	0.054	-0.066
-542.252	-83.473	0.337	-0.107
-541.237	-76.370	-0.141	0.049
-540.223	780.057	0.011	-0.029
-539.208	322.857	-0.017	-0.031
-538.193	237.574	0.044	-0.072
-537.179	8.825	-0.115	0.087
-536.164	-114.950	0.213	0.040
-535.150	55.832	-0.049	0.047
-534.135	-0.767	0.177	-0.125
-533.121	535.205	0.115	0.270
-532.106	-66.960	-0.165	-0.065
-531.091	83.514	0.118	-0.128
-530.077	-76.255	-0.150	0.053
-529.062	98.329	0.254	0.291
-528.048	-28.574	0.251	-0.144
-527.033	-126.307	0.299	-0.044
-526.018	-101.062	-0.112	-0.027
-525.004	-156.577	-0.294	-0.018
-523.989	-30.323	-0.254	0.144
-522.975	89.140	-0.093	0.103
-521.960	-172.294	-0.110	-0.003
-520.945	58.014	-0.215	0.209
-519.931	161.757	0.196	-0.273
-518.916	224.435	0.059	0.094
-517.902	-50.609	0.114	-0.053
-516.887	-200.000	0.039	-0.242
-515.872	199.631	-0.165	-0.252
-514.858	800.000	0.067	-0.260
-513.843	-123.220	0.092	-0.015
-512.829	61.995	-0.111	-0.110
-511.814	800.000	0.161	-0.458
-510.799	-163.007	-0.121	-0.006
-509.785	-69.019	-0.059	-0.023
-508.770	-132.810	-0.341	0.043
-507.756	800.000	0.075	0.258
-506.741	800.000	-0.037	-0.132
-505.726	-200.000	-0.026	-0.194
-504.712	94.880	-0.153	-0.172
-503.697	-77.404	0.401	-0.138
-502.683	-200.000	0.006	0.252
-501.668	-200.000	0.055	-0.392
-500.653	380.157	-0.154	-0.315
-499.639	-55.626	-0.166	0.074
-498.624	-200.000	-0.014	-0.173
-497.610	-60.334	0.259	-0.110
-496.595	-75.657	-0.300	-0.106
-495.581	74.084	-0.219	-0.228
-494.566	800.000	-0.052	0.166
-493.551	-61.845	-0.072	-0.030
-492.537	372.620	-0.098	-0.197
-491.522	-88.771	-0.266	-0.078
-490.508	-145.193	0.334	0.030
-489.493	-86.201	-0.235	0.072
-488.478	-142.949	-0.390	-0.038
-487.464	399.826	-0.040	0.083
-486.449	798.906	-0.039	0.108
-485.435	13.314	0.033	0.025
-484.420	800.000	-0.072	-0.308
-483.405	-48.739	-0.197	0.094
-482.391	-72.245	-0.065	-0.024
-481.376	-41.489	-0.343	-0.175
-480.362	435.873	-0.148	0.319
-479.347	65.092	-0.119	0.120
-478.332	635.684	0.068	-0.172
-477.318	623.638	0.038	0.096
-476.303	489.148	0.074	-0.168
-475.289	-200.000	0.019	0.116
-474.274	125.792	0.209	0.262
-473.259	46.006	-0.092	-0.085
-472.245	48.277	-0.134	0.124
-471.230	-132.734	0.150	0.019
-470.216	-98.877	-0.210	-0.053
-469.201	211.277	0.058	0.090
-468.186	-117.185	0.097	-0.018
-467.172	767.723	-0.055	-0.148
-466.157	-107.157	0.118	0.026
-465.143	-200.000	0.013	-0.203
-464.128	393.933	0.090	0.187
-463.113	-200.000	0.057	-0.331
-462.099	-200.000	-0.009	0.208
-461.084	-200.000	0.061	0.557
-460.070	-200.000	0.052	0.340
-459.055	-123.675	0.143	-0.022
-458.040	24.740	0.220	-0.181
-457.026	34.909	-0.053	0.046
-456.011	212.651	0.057	0.089
-454.997	-200.000	-0.028	0.123
-453.982	138.269	0.141	-0.183
-452.968	77.842	-0.092	-0.098
-451.953	800.000	0.038	-0.144
-450.938	2.465	-0.102	-0.073
-449.924	20.094	-0.235	-0.188
-448.909	-200.000	0.018	0.326
-447.895	115.752	-0.051	0.061
-446.880	800.000	-0.052	0.216
-445.865	-200.000	-0.008	0.052
-444.851	32.076	0.261	-0.223
-443.836	-200.000	-0.015	0.130
-442.822	-68.021	0.394	-0.152
-441.807	-200.000	-0.036	0.428
-440.792	109.228	-0.269	0.319
-439.778	-79.190	0.200	-0.067
-438.763	-166.954	-0.134	-0.005
-437.749	297.022	0.084	-0.152
-436.734	-78.269	-0.262	-0.089
-435.719	391.188	-0.069	-0.142
-434.705	704.657	0.102	-0.266
-433.690	319.922	0.019	0.036
-432.676	-176.452	-0.350	-0.009
-431.661	-20.371	-0.174	-0.106
-430.646	-106.507	0.419	-0.092
-429.632	12.647	0.114	-0.087
-428.617	250.314	0.131	0.221
-427.603	-54.071	0.178	0.080
-426.588	116.564	0.088	-0.107
-425.573	-200.000	0.017	-0.089
-424.559	23.939	-0.231	-0.189
-423.544	-90.443	0.241	-0.069
-422.530	-185.948	-0.299	-0.004
-421.515	-164.625	0.231	0.010
-420.500	-160.367	0.313	-0.017
-419.486	73.444	-0.079	0.082
-418.471	57.635	-0.123	0.119
-417.457	-200.000	0.001	-0.061
-416.442	-95.721	0.093	-0.025
-415.428	-200.000	-0.009	-0.164
-414.413	-48.068	0.228	0.109
-413.398	-138.143	-0.278	-0.031
-412.384	-50.954	0.270	-0.126
-411.369	-108.140	-0.112	-0.024
-410.355	800.000	-0.127	-0.396
-409.340	-200.000	-0.011	0.120
-408.325	-200.000	-0.002	-0.418
-407.311	-87.580	-0.247	0.074
-406.296	-138.759	-0.337	-0.036
-405.282	219.749	-0.023	-0.037
-404.267	-134.527	-0.149	-0.018
-403.252	35.386	-0.079	-0.068
-402.238	142.308	0.343	0.451
-401.223	148.720	0.182	0.244
-400.209	-110.716	-0.072	-0.015
-399.194	-153.170	0.340	0.024
-398.179	-137.785	0.341	-0.038
-397.165	-45.714	0.168	-0.082
-396.150	-200.000	0.027	-0.193
-395.136	-200.000	0.348	-0.000
-394.121	102.658	0.021	-0.024
-393.106	-85.790	0.484	-0.148
-392.092	-172.165	-0.175	0.006
-391.077	100.206	0.113	-0.129
-390.063	-151.329	-0.445	0.033
-389.048	27.420	0.142	-0.118
-388.033	-139.342	0.230	0.024
-387.019	63.856	0.238	-0.236
-386.004	-132.206	-0.038	0.005
-384.990	-200.000	0.014	-0.145
-383.975	-46.815	-0.314	0.152
-382.960	800.000	0.035	-0.136
-381.946	-63.985	0.122	0.049
-380.931	-116.315	-0.304	0.056
-379.917	19.902	0.178	0.142
-378.902	800.000	-0.073	0.245
-377.888	-103.653	-0.367	-0.085
-376.873	-200.000	-0.021	0.274
-375.858	-144.202	0.253	-0.023
-374.844	327.284	-0.144	0.273
-373.829	-185.028	-0.254	-0.004
-372.815	19.558	-0.098	-0.078
-371.800	57.266	0.092	0.089
-370.785	800.000	-0.076	0.208
-369.771	-62.536	-0.197	-0.081
-368.756	2.900	-0.075	0.054
-367.742	227.557	0.061	-0.097
-366.727	168.359	0.267	0.375
-365.712	-153.711	-0.320	0.022
-364.698	273.456	0.081	0.142
-363.683	11.861	-0.087	0.066
-362.669	35.545	0.154	-0.134
-361.654	376.048	-0.047	-0.094
-360.639	-200.000	0.020	-0.163
-359.625	-70.027	0.173	0.065
-358.610	-151.055	0.052	-0.004
-357.596	-101.463	-0.192	0.046
-356.581	-135.809	-0.030	-0.003
-355.566	-117.162	-0.139	0.025
-354.552	-94.185	-0.185	-0.050
-353.537	800.000	0.062	0.220
-352.523	153.829	-0.043	0.058
-351.508	27.920	-0.172	0.143
-350.493	433.602	0.124	0.265
-349.479	800.000	-0.042	-0.124
-348.464	-19.165	0.159	0.097
-347.450	800.000	0.041	-0.117
-346.435	-113.373	-0.198	0.038
-345.420	23.559	-0.138	0.112
-344.406	-21.913	0.025	0.015
-343.391	800.000	0.167	0.458
-342.377	90.379	-0.061	0.068
-341.362	54.722	0.056	0.053
-340.348	373.132	-0.008	-0.015
-339.333	-63.993	-0.166	-0.067
-338.318	800.000	0.046	0.132
-337.304	-144.497	-0.293	0.027
-336.289	800.000	0.023	0.087
-335.275	800.000	0.022	0.069
-334.260	800.000	0.031	-0.124
-333.245	176.928	0.176	0.253
-332.231	-200.000	0.058	0.358
-331.216	52.315	0.083	0.078
-330.202	748.993	-0.155	-0.412
-329.187	266.154	-0.039	0.067
-328.172	-58.008	-0.223	-0.096
-327.158	-46.632	0.150	-0.072
-326.143	-53.864	0.093	-0.042
-325.129	77.661	0.173	0.182
-324.114	-200.000	-0.003	-0.214
-323.099	-120.320	0.671	0.113
-322.085	-16.523	-0.230	-0.144
-321.070	9.464	-0.106	-0.079
-320.056	19.743	0.187	0.148
-319.041	89.337	-0.147	0.161
-318.026	-14.567	0.309	0.196
-317.012	-44.150	0.180	0.089
-315.997	-200.000	0.000	-0.131
-314.983	-92.627	-0.348	0.096
-313.968	-200.000	0.017	0.257
-312.953	13.372	0.114	0.087
-311.939	22.782	-0.033	-0.027
-310.924	-96.464	0.229	0.060
-309.910	212.164	-0.082	0.127
-308.895	800.000	0.119	0.459
-307.880	-93.205	-0.287	-0.079
-306.866	75.434	-0.137	-0.143
-305.851	185.137	0.075	-0.110
-304.837	578.580	-0.047	-0.113
-303.822	-200.000	-0.031	0.328
-302.807	91.149	0.181	0.200
-301.793	-200.000	-0.013	-0.080
-300.778	764.423	-0.070	-0.187
-299.764	800.000	-0.044	-0.143
-298.749	132.415	-0.013	-0.017
-297.735	-200.000	0.029	0.386
-296.720	800.000	0.079	-0.315
-295.705	-130.753	-0.269	-0.036
-294.691	239.164	-0.240	0.394
-293.676	-200.000	-0.037	0.167
-292.662	-54.177	0.152	-0.068
-291.647	-99.783	-0.332	-0.082
-290.632	106.084	-0.086	-0.100
-289.618	32.489	-0.137	0.117
-288.603	-200.000	-0.004	0.111
-287.589	800.000	-0.021	-0.071
-286.574	679.033	0.032	0.082
-285.559	800.000	0.078	-0.254
-284.545	-197.698	0.235	-0.001
-283.530	-168.730	0.208	-0.008
-282.516	-127.758	0.373	-0.053
-281.501	-200.000	-0.013	-0.343
-280.486	-8.951	0.114	-0.075
-279.472	800.000	0.090	0.266
-278.457	77.184	0.284	0.297
-277.443	-80.140	-0.459	-0.151
-276.428	32.085	0.284	-0.241
-275.413	-97.021	-0.069	0.018
-274.399	-200.000	-0.110	0.567
-273.384	399.791	-0.137	-0.283
-272.370	97.226	0.165	-0.186
-271.355	-200.000	-0.027	0.429
-270.340	14.654	-0.123	0.094
-269.326	800.000	-0.058	0.236
-268.311	109.550	0.133	-0.157
-267.297	262.257	0.145	-0.247
-266.282	-200.000	0.016	0.080
-265.267	-84.335	0.083	-0.026
-264.253	-105.282	-0.266	0.060
-263.238	-109.300	-0.069	0.014
-262.224	174.791	-0.209	0.297
-261.209	800.000	0.043	0.185
-260.195	-102.629	-0.048	0.011
-259.180	173.999	0.108	0.153
-258.165	283.947	-0.068	-0.121
-257.151	218.350	0.141	-0.222
-256.136	231.261	-0.053	-0.086
-255.122	735.805	-0.079	-0.208
-254.107	-83.182	0.310	0.098
-253.092	-200.000	0.019	-0.105
-252.078	-38.527	-0.129	0.067
-251.063	800.000	-0.015	0.046
-250.049	48.562	0.229	0.211
-249.034	289.147	0.074	0.132
-248.019	11.415	-0.220	-0.166
-247.005	-200.000	-0.048	-0.274
-245.990	13.012	0.157	-0.120
-244.976	-97.828	-0.210	0.053
-243.961	98.581	-0.103	-0.117
-242.946	211.778	0.098	0.152
-241.932	-200.000	-0.074	-0.374
-240.917	-11.492	0.116	-0.075
-239.903	303.799	-0.099	0.180
-238.888	-103.978	0.262	0.060
-237.873	5.785	-0.054	0.039
-236.859	456.547	0.078	0.170
-235.844	43.834	0.198	0.178
-234.830	800.000	-0.068	-0.261
-233.815	262.215	-0.099	-0.169
-232.800	-200.000	0.014	-0.264
-231.786	44.321	0.118	0.107
-230.771	373.743	-0.049	0.099
-229.757	274.571	-0.133	0.232
-228.742	191.909	0.174	0.257
-227.727	-103.629	-0.429	-0.099
-226.713	137.011	-0.275	0.353
-225.698	-200.000	0.031	0.285
-224.684	156.841	0.241	-0.327
-223.669	-200.000	0.027	-0.261
-222.655	33.936	-0.249	0.213
-221.640	220.665	0.040	-0.064
-220.625	159.259	0.101	-0.138
-219.611	-81.574	0.254	0.082
-218.596	800.000	0.092	-0.307
-217.582	118.651	-0.280	0.339
-216.567	-200.000	0.008	0.185
-215.552	545.020	-0.106	0.249
-214.538	19.830	0.196	0.155
-213.523	31.354	-0.204	0.172
-212.509	-200.000	0.036	0.255
-211.494	115.012	-0.127	0.153
-210.479	79.815	-0.047	0.049
-209.465	-200.000	-0.033	0.275
-208.450	330.447	-0.117	0.221
-207.436	-36.892	-0.323	-0.170
-206.421	78.454	-0.095	0.100
-205.406	-66.189	-0.151	-0.059
-204.392	-86.252	-0.138	0.042
-203.377	-126.757	0.226	-0.033
-202.363	229.802	-0.219	-0.351
-201.348	129.498	0.118	0.149
-200.333	-144.517	-0.073	0.007
-199.319	-97.823	0.125	-0.032
-198.304	-200.000	-0.020	-0.283
-197.290	-61.662	0.157	-0.065
-196.275	-135.387	0.193	0.023
-195.260	-13.150	0.355	0.227
-194.246	-164.414	0.337	0.015
-193.231	196.612	-0.136	0.204
-192.217	-200.000	0.027	-0.139
-191.202	350.448	-0.099	0.193
-190.187	731.314	0.125	-0.327
-189.173	-116.952	0.056	-0.010
-188.158	-16.188	-0.151	0.094
-187.144	-190.872	0.136	0.001
-186.129	800.000	-0.087	-0.249
-185.114	-21.193	0.014	-0.009
-184.100	-200.000	0.001	-0.025
-183.085	329.546	-0.141	-0.267
-182.071	-102.994	0.036	0.008
-181.056	-92.534	-0.223	-0.061
-180.042	-153.686	-0.149	0.010
-179.027	-71.791	0.415	-0.152
-178.012	-53.406	0.029	-0.013
-176.998	-84.024	-0.492	0.153
-175.983	-93.807	0.301	-0.081
-174.969	-200.000	-0.010	0.143
-173.954	102.427	-0.223	0.256
-172.939	-151.017	-0.411	-0.030
-171.925	-200.000	0.043	0.219
-170.910	3.228	0.269	0.192
-169.896	179.227	-0.035	-0.050
-168.881	158.370	0.206	-0.280
-167.866	800.000	0.055	-0.226
-166.852	188.443	-0.118	0.172
-165.837	27.711	0.276	0.228
-164.823	95.097	0.107	0.120
-163.808	-88.942	-0.163	-0.047
-162.793	-200.000	-0.005	-0.229
-161.779	-27.860	-0.174	0.099
-160.764	530.797	-0.105	0.243
-159.750	47.495	0.075	0.069
-158.735	5.129	0.227	-0.164
-157.720	-29.523	0.276	-0.154
-156.706	239.292	0.030	-0.049
-155.691	85.309	-0.103	0.111
-154.677	-57.507	-0.097	0.042
-153.662	4.679	0.115	0.083
-152.647	-200.000	-0.006	0.169
-151.633	22.692	-0.137	0.110
-150.618	122.041	-0.117	0.143
-149.604	800.000	0.107	0.330
-148.589	224.893	0.078	0.124
-147.574	593.602	-0.119	-0.288
-146.560	-200.000	-0.009	0.091
-145.545	-125.739	-0.118	-0.018
-144.531	68.457	0.221	0.222
-143.516	-84.106	0.170	0.053
-142.502	484.103	-0.148	-0.330
-141.487	-85.796	0.209	-0.063
-140.472	-90.341	-0.106	0.030
-139.458	-138.558	0.132	-0.014
-138.443	88.440	0.150	0.164
-137.429	-136.947	0.230	-0.026
-136.414	-200.000	-0.009	0.221
-135.399	560.342	-0.118	0.279
-134.385	-200.000	-0.009	0.106
-133.370	192.058	-0.096	-0.142
-132.356	-200.000	-0.013	0.336
-131.341	-94.153	-0.140	0.037
-130.326	-2.455	0.187	0.128
-129.312	648.081	0.087	-0.219
-128.297	-80.633	-0.267	0.087
-127.283	-200.000	0.000	-0.411
-126.268	-13.461	0.213	-0.135
-125.253	-200.000	-0.024	-0.296
-124.239	800.000	0.103	-0.286
-123.224	202.246	-0.131	0.197
-122.210	-200.000	-0.038	-0.373
-121.195	-86.803	-0.258	0.077
