DTS Sentinel unit serial number:	SN413079Multiplexer serial number:	ORYXHardware model number:	OX4-SRSoftware version number:	ORYX F/W v4.00 Oryx Data Collector v3.7.2.0data status	okinstallation	princeton_trtdifferential loss correction	single-endedforward channel	channel 4reverse channel	N/Adate	2019/09/14time	04:29:34forward acquisition time	60.00reverse acquisition time	0.00gamma	496.2192k internal	0.2321k external	0.2321temperature offset calibration	1.0134default loss term (dB/km)	0.3790temperature slope calibration	1.0000multiplexer offset coefficient	1.0000multiplexer slope coefficient	1.0000fibre end	0.00T internal ref (°C)	26.75T ext. ref 1 (°C)	3.34T ext. ref 2 (°C)	21.95length (m)	temperature (°C)	Stokes	anti-Stokes-747.200	-154.875	0.285	-0.019
-746.185	504.563	-0.087	0.203
-745.171	-200.000	-0.060	0.283
-744.156	800.000	0.013	-0.051
-743.142	800.000	-0.073	-0.206
-742.127	-200.000	-0.026	0.156
-741.112	-200.000	-0.024	0.221
-740.098	112.486	-0.145	-0.178
-739.083	-51.933	0.417	0.196
-738.069	-200.000	0.007	0.094
-737.054	-62.763	-0.117	-0.049
-736.039	-90.544	-0.216	-0.063
-735.025	-48.425	0.069	-0.034
-734.010	123.063	-0.302	-0.383
-732.996	-200.000	0.008	-0.178
-731.981	-63.470	0.100	-0.042
-730.966	-32.237	-0.166	0.094
-729.952	-120.344	0.119	-0.021
-728.937	60.664	-0.349	-0.350
-727.923	96.274	0.173	-0.199
-726.908	-200.000	-0.081	-0.455
-725.894	122.345	0.028	-0.036
-724.879	788.764	0.062	-0.172
-723.864	-74.115	-0.255	0.093
-722.850	60.847	-0.060	-0.060
-721.835	228.941	0.037	-0.060
-720.821	-200.000	-0.051	0.240
-719.806	800.000	0.056	-0.229
-718.791	-104.024	-0.245	-0.058
-717.777	19.311	-0.038	-0.031
-716.762	45.141	-0.221	-0.206
-715.748	-88.617	0.248	0.074
-714.733	15.628	0.215	0.171
-713.718	-129.254	-0.231	0.033
-712.704	-41.725	0.078	0.040
-711.689	-200.000	0.004	0.029
-710.675	521.651	-0.044	0.104
-709.660	-144.383	0.129	0.012
-708.645	121.313	-0.151	-0.190
-707.631	-181.814	-0.373	-0.007
-706.616	-21.275	0.161	0.099
-705.602	800.000	-0.061	-0.230
-704.587	800.000	-0.074	0.274
-703.572	800.000	-0.070	0.244
-702.558	228.278	-0.192	-0.315
-701.543	92.091	0.115	-0.131
-700.529	106.093	0.147	-0.176
-699.514	-146.504	-0.123	-0.011
-698.499	800.000	0.054	-0.149
-697.485	330.869	-0.097	-0.189
-696.470	-200.000	-0.042	-0.204
-695.456	-200.000	-0.002	0.130
-694.441	124.561	0.280	-0.356
-693.426	-200.000	0.016	-0.196
-692.412	209.480	-0.302	0.478
-691.397	-62.447	-0.161	-0.067
-690.383	392.166	-0.049	0.103
-689.368	79.058	-0.036	-0.039
-688.354	-200.000	0.009	-0.066
-687.339	800.000	0.077	-0.229
-686.324	-137.724	-0.034	-0.004
-685.310	-84.118	0.182	-0.058
-684.295	800.000	0.042	0.124
-683.281	189.878	-0.125	-0.189
-682.266	-80.713	-0.286	0.096
-681.251	800.000	0.067	0.272
-680.237	127.489	-0.152	-0.194
-679.222	-43.803	0.132	0.067
-678.208	65.122	0.096	0.098
-677.193	-200.000	-0.014	-0.268
-676.178	21.328	-0.090	-0.073
-675.164	-42.904	0.166	0.085
-674.149	-28.744	-0.176	0.102
-673.135	-89.138	-0.160	-0.048
-672.120	420.617	-0.105	-0.227
-671.105	8.681	0.157	0.119
-670.091	21.286	-0.033	-0.027
-669.076	-28.110	-0.235	-0.137
-668.062	-37.045	0.339	-0.183
-667.047	105.187	-0.083	-0.099
-666.032	115.742	0.125	0.154
-665.018	687.409	-0.038	-0.099
-664.003	300.458	0.018	0.034
-662.989	-80.335	-0.259	0.087
-661.974	19.005	-0.118	0.095
-660.959	-200.000	0.002	-0.147
-659.945	-21.333	0.195	0.120
-658.930	-200.000	-0.001	0.079
-657.916	-78.530	0.042	-0.014
-656.901	-32.369	-0.073	0.041
-655.886	800.000	0.066	-0.213
-654.872	265.755	0.056	-0.098
-653.857	4.833	0.276	-0.205
-652.843	-6.679	-0.130	0.089
-651.828	614.675	0.154	-0.389
-650.814	144.831	-0.013	0.018
-649.799	-165.911	0.182	0.008
-648.784	122.125	-0.046	-0.058
-647.770	800.000	-0.128	-0.393
-646.755	349.274	0.026	-0.052
-645.741	-200.000	0.075	0.441
-644.726	-200.000	0.020	-0.098
-643.711	-169.640	-0.227	0.008
-642.697	-25.570	-0.204	0.121
-641.682	736.157	-0.083	-0.224
-640.668	-200.000	0.029	-0.297
-639.653	-37.828	-0.205	0.110
-638.638	800.000	0.023	0.066
-637.624	647.016	0.038	0.097
-636.609	-160.343	-0.532	-0.029
-635.595	647.489	-0.112	-0.289
-634.580	36.592	-0.156	-0.139
-633.565	79.534	0.121	0.131
-632.551	80.474	0.164	-0.178
-631.536	-2.350	0.125	0.088
-630.522	396.070	-0.075	0.158
-629.507	391.065	0.090	-0.188
-628.492	-148.365	-0.252	0.021
-627.478	80.608	-0.219	-0.238
-626.463	-5.987	0.207	0.143
-625.449	210.533	-0.236	0.372
-624.434	-79.958	-0.054	-0.018
-623.419	-200.000	-0.015	0.128
-622.405	187.006	0.044	-0.067
-621.390	800.000	-0.094	-0.327
-620.376	640.408	0.029	0.076
-619.361	-79.602	-0.274	-0.093
-618.346	218.859	-0.108	0.173
-617.332	139.556	0.130	0.173
-616.317	-0.896	-0.095	0.068
-615.303	128.532	-0.116	0.148
-614.288	-157.970	0.258	0.015
-613.273	-200.000	0.032	0.159
-612.259	-11.937	-0.344	0.227
-611.244	173.558	0.275	0.399
-610.230	44.663	-0.050	-0.046
-609.215	800.000	-0.016	0.066
-608.201	192.420	-0.098	-0.148
-607.186	43.228	0.070	-0.064
-606.171	1.080	0.095	0.069
-605.157	90.628	0.162	-0.182
-604.142	134.668	-0.412	-0.537
-603.128	28.851	0.053	0.045
-602.113	-18.803	-0.153	0.096
-601.098	-62.466	-0.262	-0.109
-600.084	-54.272	0.186	0.085
-599.069	-117.412	-0.224	-0.041
-598.055	4.179	-0.195	-0.143
-597.040	437.756	0.031	-0.068
-596.025	475.730	0.031	-0.070
-595.011	800.000	-0.033	-0.097
-593.996	-200.000	0.007	0.368
-592.982	6.363	-0.148	-0.111
-591.967	-200.000	0.163	-0.000
-590.952	91.771	0.093	-0.105
-589.938	-1.494	-0.315	0.223
-588.923	5.406	0.308	-0.228
-587.909	-2.826	0.199	0.140
-586.894	-49.471	-0.391	0.187
-585.879	-200.000	0.236	0.000
-584.865	800.000	-0.015	-0.065
-583.850	-164.053	-0.311	-0.014
-582.836	-188.814	0.340	-0.004
-581.821	-95.956	0.021	-0.006
-580.806	189.637	0.076	-0.114
-579.792	-9.814	-0.099	-0.066
-578.777	-89.247	0.250	-0.074
-577.763	131.182	0.077	-0.099
-576.748	39.991	-0.255	-0.230
-575.733	-172.285	-0.317	-0.010
-574.719	207.751	-0.108	-0.169
-573.704	484.789	-0.117	0.268
-572.690	27.819	0.164	0.139
-571.675	-8.434	-0.094	-0.064
-570.661	-47.665	0.258	0.126
-569.646	-88.349	-0.135	-0.041
-568.631	150.859	0.044	-0.060
-567.617	186.142	0.078	0.116
-566.602	-72.121	-0.150	0.056
-565.588	-200.000	0.028	-0.174
-564.573	248.196	0.160	-0.272
-563.558	72.740	-0.216	-0.227
-562.544	800.000	0.013	0.036
-561.529	800.000	-0.119	-0.501
-560.515	-200.000	-0.009	-0.086
-559.500	-71.008	-0.204	0.077
-558.485	241.309	0.091	-0.153
-557.471	-120.779	0.137	0.023
-556.456	800.000	0.052	-0.194
-555.442	30.586	0.147	0.126
-554.427	-200.000	0.033	0.303
-553.412	-39.192	-0.301	0.159
-552.398	-127.625	-0.291	-0.042
-551.383	75.404	0.111	-0.117
-550.369	26.597	-0.061	0.051
-549.354	-23.075	0.253	-0.153
-548.339	800.000	-0.076	-0.330
-547.325	-161.090	-0.135	-0.007
-546.310	-61.130	0.202	0.086
-545.296	30.014	0.255	-0.218
-544.281	-200.000	0.006	-0.088
-543.266	97.027	-0.128	-0.147
-542.252	800.000	-0.089	-0.306
-541.237	-99.113	0.156	0.040
-540.223	14.232	0.283	-0.221
-539.208	406.617	-0.112	-0.236
-538.193	113.296	0.099	0.121
-537.179	287.855	0.137	0.248
-536.164	800.000	0.063	0.181
-535.150	51.542	-0.200	-0.190
-534.135	65.291	0.163	0.165
-533.121	-29.456	0.258	0.148
-532.106	-4.342	-0.120	0.083
-531.091	-200.000	-0.015	-0.211
-530.077	-49.931	0.404	0.192
-529.062	410.338	-0.142	0.302
-528.048	-134.461	0.011	0.001
-527.033	38.699	0.187	-0.167
-526.018	-200.000	0.006	0.074
-525.004	22.076	0.121	-0.099
-523.989	-29.731	0.155	0.089
-522.975	-64.991	0.163	-0.066
-521.960	-124.841	-0.194	-0.030
-520.945	-59.532	-0.201	0.087
-519.931	-80.251	0.369	0.124
-518.916	312.145	-0.115	-0.216
-517.902	-169.776	0.169	-0.006
-516.887	82.920	0.074	0.080
-515.872	-163.744	-0.220	0.010
-514.858	8.167	-0.203	-0.152
-513.843	-200.000	-0.018	-0.238
-512.829	-151.821	0.089	0.007
-511.814	-126.365	-0.104	0.016
-510.799	-200.000	-0.026	0.150
-509.785	-106.547	0.189	0.042
-508.770	-15.527	-0.237	0.151
-507.756	-78.191	-0.065	0.022
-506.741	-102.024	0.121	0.029
-505.726	-73.407	-0.252	-0.092
-504.712	-191.240	0.207	0.002
-503.697	-45.550	0.062	-0.031
-502.683	-108.966	0.304	-0.065
-501.668	-135.536	-0.134	0.016
-500.653	-68.925	0.374	0.144
-499.639	170.619	-0.325	-0.466
-498.624	474.204	0.201	-0.453
-497.610	422.992	-0.031	0.066
-496.595	116.675	-0.211	0.259
-495.581	9.418	0.389	0.295
-494.566	-101.609	0.208	0.051
-493.551	623.403	0.076	-0.191
-492.537	257.309	-0.090	-0.154
-491.522	-147.022	0.173	0.015
-490.508	-111.493	0.110	0.022
-489.493	55.415	-0.218	-0.211
-488.478	-154.373	-0.178	-0.012
-487.464	-162.922	-0.109	0.005
-486.449	800.000	0.056	0.241
-485.435	114.876	0.043	0.053
-484.420	-123.686	-0.283	0.045
-483.405	800.000	-0.052	-0.173
-482.391	-92.133	0.063	-0.018
-481.376	-92.290	0.431	0.122
-480.362	572.259	0.042	-0.102
-479.347	800.000	-0.080	0.282
-478.332	-36.780	-0.266	0.143
-477.318	183.859	0.052	0.076
-476.303	37.011	0.174	0.154
-475.289	121.311	-0.093	-0.116
-474.274	-64.398	-0.371	0.151
-473.259	450.752	0.076	0.168
-472.245	70.807	0.212	-0.219
-471.230	800.000	-0.094	0.273
-470.216	800.000	0.041	-0.173
-469.201	-47.750	-0.144	0.070
-468.186	800.000	-0.008	0.029
-467.172	287.629	0.049	0.089
-466.157	-81.891	0.201	-0.066
-465.143	-200.000	0.020	-0.331
-464.128	269.604	-0.047	0.082
-463.113	-200.000	0.063	-0.366
-462.099	191.783	-0.234	-0.352
-461.084	403.032	0.038	0.081
-460.070	-200.000	-0.005	-0.035
-459.055	-41.682	-0.179	0.092
-458.040	-152.110	0.190	0.014
-457.026	-75.865	-0.124	-0.044
-456.011	-134.557	0.296	-0.036
-454.997	-200.000	0.022	-0.201
-453.982	800.000	-0.025	0.087
-452.968	-200.000	-0.027	-0.253
-451.953	424.275	-0.067	0.145
-450.938	-167.913	0.208	-0.008
-449.924	800.000	0.062	-0.229
-448.909	518.328	0.135	0.315
-447.895	-106.387	-0.310	0.069
-446.880	28.868	0.219	-0.185
-445.865	66.198	-0.043	0.044
-444.851	213.662	-0.056	0.089
-443.836	44.511	-0.323	0.297
-442.822	-132.053	-0.089	0.012
-441.807	437.855	-0.182	-0.396
-440.792	223.796	0.235	0.379
-439.778	533.796	-0.053	-0.125
-438.763	244.813	-0.140	-0.235
-437.749	22.586	0.147	0.120
-436.734	3.257	-0.038	-0.028
-435.719	-84.754	0.292	0.092
-434.705	-150.865	0.092	-0.007
-433.690	-13.370	-0.214	0.139
-432.676	-200.000	-0.004	0.179
-431.661	-52.006	0.252	-0.117
-430.646	-68.295	0.317	0.123
-429.632	800.000	0.012	0.035
-428.617	-42.206	-0.178	-0.091
-427.603	-26.040	-0.186	-0.109
-426.588	-68.749	-0.277	-0.107
-425.573	-77.998	-0.138	-0.048
-424.559	79.915	0.064	-0.069
-423.544	-20.717	0.275	-0.168
-422.530	-200.000	0.006	0.102
-421.515	-74.364	0.409	0.148
-420.500	-77.353	-0.164	-0.057
-419.486	17.661	-0.067	0.054
-418.471	-200.000	0.043	0.209
-417.457	71.046	0.081	-0.084
-416.442	-200.000	-0.025	-0.201
-415.428	-200.000	0.013	-0.398
-414.413	-98.829	-0.352	-0.089
-413.398	62.581	0.142	0.141
-412.384	443.931	-0.138	0.301
-411.369	-131.049	0.127	0.017
-410.355	-12.948	0.219	-0.142
-409.340	-200.000	0.045	-0.328
-408.325	19.013	-0.214	0.172
-407.311	62.503	0.117	0.116
-406.296	218.983	-0.191	-0.304
-405.282	168.704	-0.072	0.102
-404.267	800.000	-0.084	0.248
-403.252	441.605	0.037	-0.081
-402.238	-70.569	-0.377	-0.142
-401.223	-10.729	0.202	0.133
-400.209	-82.917	0.167	0.054
-399.194	-200.000	0.004	-0.057
-398.179	69.929	-0.204	0.210
-397.165	19.430	0.223	-0.179
-396.150	115.531	0.257	-0.313
-395.136	800.000	-0.065	0.252
-394.121	-20.705	-0.244	0.149
-393.106	-118.839	-0.252	-0.044
-392.092	-144.626	0.121	0.011
-391.077	-58.864	0.273	0.118
-390.063	-66.573	-0.361	0.143
-389.048	-129.564	-0.081	-0.011
-388.033	-161.281	-0.270	-0.014
-387.019	-200.000	0.001	0.268
-386.004	0.067	-0.175	-0.124
-384.990	356.088	-0.009	0.017
-383.975	591.342	0.087	-0.213
-382.960	-141.892	-0.123	-0.012
-381.946	404.490	-0.026	-0.054
-380.931	-122.445	0.224	0.036
-379.917	-13.406	0.121	-0.078
-378.902	690.381	-0.077	0.201
-377.888	800.000	0.102	0.283
-376.873	-78.597	-0.287	-0.098
-375.858	-83.681	-0.398	-0.127
-374.844	-200.000	-0.004	0.126
-373.829	-106.890	-0.073	0.016
-372.815	-115.984	-0.281	0.052
-371.800	197.698	0.137	0.209
-370.785	-200.000	0.018	-0.101
-369.771	15.558	-0.084	0.065
-368.756	-12.472	-0.325	0.211
-367.742	-55.938	-0.346	0.154
-366.727	800.000	0.083	-0.233
-365.712	-174.316	0.241	0.007
-364.698	19.362	-0.298	-0.239
-363.683	-105.187	0.192	-0.044
-362.669	-147.570	-0.136	-0.011
-361.654	35.900	0.064	-0.056
-360.639	-73.693	0.295	-0.107
-359.625	-173.591	0.139	-0.004
-358.610	-47.631	0.126	-0.061
-357.596	242.722	0.056	0.093
-356.581	158.268	0.114	0.158
-355.566	-55.032	0.460	0.206
-354.552	-100.309	-0.387	-0.096
-353.537	-200.000	0.001	0.081
-352.523	21.650	-0.219	0.177
-351.508	-200.000	0.017	-0.097
-350.493	-200.000	0.020	0.125
-349.479	303.363	0.007	-0.012
-348.464	-18.838	-0.268	0.166
-347.450	196.296	-0.034	-0.051
-346.435	294.723	-0.025	0.045
-345.420	800.000	0.078	0.239
-344.406	-200.000	-0.009	0.134
-343.391	-121.715	0.024	-0.004
-342.377	-200.000	-0.044	0.303
-341.362	-54.521	-0.269	-0.121
-340.348	-103.323	0.428	0.100
-339.333	-153.711	-0.317	-0.022
-338.318	-54.099	0.138	-0.063
-337.304	-200.000	-0.025	0.393
-336.289	771.619	-0.065	-0.176
-335.275	683.736	0.027	-0.069
-334.260	-108.218	-0.079	-0.017
-333.245	207.813	0.042	-0.066
-332.231	-15.471	-0.109	0.069
-331.216	-200.000	0.034	-0.249
-330.202	152.534	-0.141	0.191
-329.187	153.831	-0.161	-0.220
-328.172	30.555	0.270	-0.230
-327.158	93.350	0.030	-0.034
-326.143	197.354	-0.164	0.249
-325.129	-108.987	0.241	-0.051
-324.114	96.398	0.191	-0.218
-323.099	-62.018	0.126	-0.052
-322.085	-59.644	-0.427	0.182
-321.070	4.942	-0.159	0.117
-320.056	-200.000	-0.011	-0.054
-319.041	-122.013	0.317	0.052
-318.026	-200.000	-0.014	-0.094
-317.012	129.706	0.163	-0.208
-315.997	147.512	-0.199	0.266
-314.983	178.488	-0.102	0.148
-313.968	-101.854	0.269	0.065
-312.953	800.000	0.070	0.278
-311.939	441.483	0.033	0.073
-310.924	122.968	0.160	-0.200
-309.910	676.908	-0.085	0.219
-308.895	17.257	0.343	-0.271
-307.880	-115.475	-0.232	-0.043
-306.866	800.000	-0.030	0.092
-305.851	-200.000	0.028	0.218
-304.837	-200.000	-0.048	-0.407
-303.822	102.650	-0.134	-0.155
-302.807	-200.000	-0.033	0.433
-301.793	397.513	0.096	-0.199
-300.778	227.918	-0.137	0.221
-299.764	588.963	0.071	-0.175
-298.749	143.660	0.089	0.118
-297.735	176.692	-0.130	0.188
-296.720	99.788	0.161	-0.185
-295.705	-200.000	-0.003	-0.063
-294.691	13.158	0.079	-0.060
-293.676	45.004	0.370	0.338
-292.662	361.294	-0.172	0.343
-291.647	-146.869	0.157	0.013
-290.632	-200.000	0.016	-0.125
-289.618	-33.098	0.209	-0.115
-288.603	-65.986	-0.107	-0.042
-287.589	0.121	0.161	-0.114
-286.574	800.000	-0.042	-0.134
-285.559	800.000	0.081	0.302
-284.545	71.368	-0.194	-0.200
-283.530	187.982	-0.153	-0.227
-282.516	20.926	0.237	0.191
-281.501	-200.000	0.014	-0.081
-280.486	-200.000	-0.053	0.300
-279.472	208.148	0.126	0.195
-278.457	542.072	0.098	0.232
-277.443	-44.331	-0.284	0.141
-276.428	58.275	0.218	-0.212
-275.413	-90.616	0.410	-0.118
-274.399	800.000	0.057	-0.184
-273.384	-142.754	0.387	0.037
-272.370	-112.125	0.132	-0.026
-271.355	-109.752	0.136	0.028
-270.340	-48.781	0.040	0.019
-269.326	-200.000	-0.052	-0.441
-268.311	72.174	-0.097	-0.100
-267.297	-8.303	-0.251	-0.167
-266.282	800.000	0.030	-0.110
-265.267	100.153	0.219	-0.252
-264.253	31.219	0.079	0.067
-263.238	105.196	0.139	0.163
-262.224	-200.000	-0.007	0.083
-261.209	800.000	-0.047	0.145
-260.195	2.423	0.118	0.085
-259.180	241.464	0.141	0.234
-258.165	321.174	-0.163	0.308
-257.151	-200.000	-0.023	-0.122
-256.136	-96.307	-0.278	-0.073
-255.122	-35.950	0.162	0.087
-254.107	231.389	0.228	-0.370
-253.092	800.000	0.013	0.044
-252.078	800.000	-0.030	0.108
-251.063	-186.647	-0.547	-0.008
-250.049	173.948	-0.167	-0.239
-249.034	313.893	0.136	0.254
-248.019	62.832	-0.042	-0.042
-247.005	89.757	-0.191	0.211
-245.990	-200.000	-0.045	-0.364
-244.976	325.036	0.079	-0.150
-243.961	-200.000	0.001	-0.087
-242.946	102.317	-0.097	-0.112
-241.932	676.446	0.092	0.237
-240.917	-200.000	-0.021	-0.098
-239.903	-92.252	-0.568	0.159
-238.888	215.250	0.139	-0.219
-237.873	-110.926	0.169	0.035
-236.859	-17.474	0.136	0.085
-235.844	-200.000	-0.014	0.120
-234.830	17.791	0.146	0.115
-233.815	117.300	0.080	0.097
-232.800	470.427	0.092	0.205
-231.786	51.110	0.210	-0.198
-230.771	18.941	0.247	-0.196
-229.757	-111.369	-0.272	-0.055
-228.742	370.613	-0.074	0.148
-227.727	-85.438	0.214	0.066
-226.713	800.000	-0.073	0.207
-225.698	800.000	-0.106	-0.378
-224.684	-150.645	0.345	-0.026
-223.669	-200.000	0.001	0.031
-222.655	398.354	-0.206	0.427
-221.640	-200.000	0.021	-0.114
-220.625	-200.000	-0.013	-0.175
-219.611	800.000	0.062	-0.249
-218.596	240.355	0.136	-0.225
-217.582	494.421	-0.030	0.069
-216.567	340.670	-0.034	-0.067
-215.552	-200.000	-0.031	0.185
-214.538	439.790	-0.064	0.138
-213.523	348.236	-0.012	0.024
-212.509	-77.415	0.198	0.068
-211.494	800.000	0.121	0.435
-210.479	-147.632	-0.233	-0.019
-209.465	-53.484	-0.130	-0.059
-208.450	457.970	-0.168	-0.371
-207.436	138.823	0.039	0.050
-206.421	244.635	0.024	0.040
-205.406	-128.601	0.062	0.009
-204.392	179.037	0.085	0.122
-203.377	283.851	0.073	0.129
-202.363	46.510	0.162	0.149
-201.348	-90.992	0.146	-0.042
-200.333	-84.074	0.290	-0.091
-199.319	-65.409	0.161	-0.064
-198.304	-200.000	0.012	0.112
-197.290	-200.000	-0.046	0.237
-196.275	-135.717	-0.146	-0.017
-195.260	-124.074	0.027	0.004
-194.246	21.677	0.228	0.184
-193.231	6.234	0.131	0.096
-192.217	-200.000	0.032	0.296
-191.202	-200.000	0.002	-0.146
-190.187	800.000	0.081	-0.241
-189.173	-43.984	0.231	0.115
-188.158	27.787	0.193	0.161
-187.144	800.000	-0.068	0.270
-186.129	-200.000	0.003	0.058
-185.114	-200.000	0.049	0.224
-184.100	-19.023	-0.040	-0.025
-183.085	-13.069	-0.190	0.122
-182.071	-35.569	-0.112	0.060
-181.056	211.627	-0.172	0.268
-180.042	-75.648	0.318	0.112
-179.027	-103.779	0.092	0.021
-178.012	-72.140	0.212	-0.078
-176.998	66.072	-0.123	-0.124
-175.983	211.345	-0.052	-0.081
-174.969	800.000	0.042	-0.138
-173.954	-75.641	0.236	-0.083
-172.939	15.602	0.285	-0.221
-171.925	-200.000	-0.080	-0.391
-170.910	168.589	-0.129	0.182
-169.896	29.688	-0.191	-0.161
-168.881	474.684	-0.080	-0.178
-167.866	-3.339	-0.052	0.036
-166.852	-16.954	0.164	0.102
-165.837	-109.756	-0.231	0.048
-164.823	-174.451	0.319	-0.009
-163.808	-200.000	0.004	-0.283
-162.793	18.463	-0.287	0.227
-161.779	325.795	0.093	0.176
-160.764	117.198	-0.118	-0.143
-159.750	-84.092	-0.229	-0.072
-158.735	800.000	-0.101	0.304
-157.720	594.191	0.027	-0.067
-156.706	-40.446	-0.269	-0.138
-155.691	452.787	0.118	0.258
-154.677	110.915	-0.124	-0.148
-153.662	375.426	-0.187	-0.377
-152.647	-24.964	-0.108	0.063
-151.633	-200.000	-0.001	0.095
-150.618	-114.131	0.333	0.064
-149.604	-95.641	-0.319	-0.084
-148.589	-100.623	0.102	0.025
-147.574	800.000	0.135	-0.374
-146.560	87.687	0.083	-0.091
-145.545	-69.888	0.245	0.092
-144.531	371.322	0.084	-0.169
-143.516	391.626	0.087	-0.178
-142.502	-163.540	0.381	-0.018
-141.487	-200.000	0.018	0.176
-140.472	-20.117	0.173	0.106
-139.458	-162.052	-0.101	-0.005
-138.443	800.000	0.015	-0.063
-137.429	800.000	-0.060	-0.248
-136.414	-37.886	0.189	0.099
-135.399	-49.499	-0.209	-0.098
-134.385	154.295	-0.216	-0.292
-133.370	-200.000	-0.065	-0.327
-132.356	117.314	-0.139	0.169
-131.341	1.456	0.205	0.146
-130.326	285.092	-0.069	0.123
-129.312	-53.829	0.202	0.091
-128.297	800.000	0.061	-0.248
-127.283	-78.215	-0.238	0.081
-126.268	51.108	0.089	-0.083
-125.253	58.614	0.210	-0.204
-124.239	-77.573	0.398	0.136
-123.224	-41.072	-0.188	-0.096
-122.210	-113.812	0.045	-0.009
-121.195	-200.000	0.007	0.089
-120.180	800.000	0.078	-0.324
