DTS Sentinel unit serial number:	SN413079Multiplexer serial number:	ORYXHardware model number:	OX4-SRSoftware version number:	ORYX F/W v4.00 Oryx Data Collector v3.7.2.0data status	okinstallation	princeton_trtdifferential loss correction	single-endedforward channel	channel 4reverse channel	N/Adate	2019/09/18time	14:05:34forward acquisition time	60.00reverse acquisition time	0.00gamma	496.2192k internal	0.2302k external	0.2302temperature offset calibration	0.9995default loss term (dB/km)	0.3790temperature slope calibration	1.0000multiplexer offset coefficient	1.0000multiplexer slope coefficient	1.0000fibre end	0.00T internal ref (°C)	34.44T ext. ref 1 (°C)	0.66T ext. ref 2 (°C)	28.76length (m)	temperature (°C)	Stokes	anti-Stokes-747.200	-51.600	0.198	-0.094
-746.185	255.027	0.237	0.413
-745.171	-133.601	-0.142	0.018
-744.156	63.969	-0.213	0.219
-743.142	26.077	0.090	0.077
-742.127	-145.377	-0.122	0.011
-741.112	-139.999	-0.323	-0.035
-740.098	410.327	0.111	-0.240
-739.083	490.437	0.049	0.114
-738.069	-160.483	0.105	0.006
-737.054	800.000	0.120	0.373
-736.039	530.206	-0.113	-0.272
-735.025	96.116	0.374	0.435
-734.010	-146.590	-0.041	-0.004
-732.996	-200.000	-0.043	-0.225
-731.981	110.096	-0.164	0.200
-730.966	-46.274	0.147	-0.074
-729.952	-200.000	-0.022	0.244
-728.937	-94.179	-0.139	0.039
-727.923	49.072	-0.358	0.342
-726.908	38.527	0.132	-0.120
-725.894	266.431	-0.059	0.105
-724.879	175.460	0.269	0.397
-723.864	42.085	0.066	-0.061
-722.850	10.343	0.096	-0.074
-721.835	-200.000	0.021	0.212
-720.821	800.000	-0.123	0.411
-719.806	800.000	-0.032	0.093
-718.791	429.937	-0.074	0.163
-717.777	40.412	0.085	0.078
-716.762	-53.206	-0.327	-0.153
-715.748	-200.000	-0.017	-0.084
-714.733	800.000	-0.059	0.169
-713.718	-200.000	-0.042	-0.267
-712.704	-116.706	0.286	-0.054
-711.689	-75.274	-0.334	0.121
-710.675	206.683	0.067	0.107
-709.660	-200.000	0.051	0.340
-708.645	-55.980	0.031	-0.014
-707.631	800.000	-0.081	-0.295
-706.616	230.619	0.128	0.214
-705.602	-200.000	-0.034	0.316
-704.587	-76.533	-0.172	0.061
-703.572	108.732	0.138	0.167
-702.558	-36.020	0.090	0.049
-701.543	-122.373	-0.368	-0.061
-700.529	34.209	0.265	-0.235
-699.514	42.737	0.112	-0.104
-698.499	-200.000	0.009	-0.347
-697.485	164.208	0.080	0.115
-696.470	599.484	0.082	0.207
-695.456	-53.751	-0.265	-0.123
-694.441	-44.806	-0.249	0.127
-693.426	15.621	0.285	-0.228
-692.412	-147.072	0.053	0.005
-691.397	510.968	-0.210	-0.498
-690.383	237.724	0.276	-0.466
-689.368	800.000	0.082	0.256
-688.354	68.100	-0.109	-0.113
-687.339	-15.644	0.226	-0.146
-686.324	-99.055	0.334	0.086
-685.310	-63.978	0.198	-0.082
-684.295	-200.000	-0.046	-0.435
-683.281	-85.327	-0.124	-0.039
-682.266	427.855	0.082	0.181
-681.251	-29.229	-0.109	-0.064
-680.237	122.499	0.144	-0.183
-679.222	4.432	0.174	-0.130
-678.208	-4.209	0.090	-0.063
-677.193	-58.591	0.188	-0.083
-676.178	-200.000	-0.032	-0.262
-675.164	-100.228	-0.126	-0.032
-674.149	-200.000	0.000	-0.245
-673.135	800.000	-0.043	-0.130
-672.120	-120.223	0.468	0.081
-671.105	18.820	0.335	0.273
-670.091	-200.000	0.039	0.214
-669.076	-121.033	0.280	-0.048
-668.062	800.000	-0.123	0.347
-667.047	-200.000	0.013	-0.424
-666.032	800.000	-0.135	-0.388
-665.018	-200.000	0.046	0.297
-664.003	-167.176	0.202	0.008
-662.989	205.181	0.049	0.078
-661.974	800.000	0.006	0.024
-660.959	-69.858	-0.303	-0.118
-659.945	29.978	0.126	-0.109
-658.930	-125.644	0.123	0.019
-657.916	132.221	-0.221	-0.289
-656.901	156.429	0.219	0.306
-655.886	82.674	0.150	0.165
-654.872	138.953	-0.174	-0.232
-653.857	-28.348	0.059	-0.035
-652.843	-88.157	-0.205	-0.062
-651.828	-58.030	-0.007	0.003
-650.814	-16.733	0.086	0.055
-649.799	-144.116	-0.077	0.007
-648.784	-125.942	-0.126	-0.019
-647.770	-64.375	-0.260	0.107
-646.755	-75.901	-0.052	-0.019
-645.741	-52.755	0.296	-0.139
-644.726	68.561	0.179	-0.187
-643.711	-200.000	-0.026	-0.198
-642.697	-15.682	-0.172	0.111
-641.682	-156.574	0.080	0.005
-640.668	-64.013	-0.171	0.071
-639.653	-46.244	-0.219	-0.109
-638.638	-200.000	-0.070	-0.348
-637.624	-200.000	0.007	0.177
-636.609	800.000	0.074	0.306
-635.595	800.000	-0.138	0.422
-634.580	389.367	0.141	0.297
-633.565	-59.471	-0.375	-0.164
-632.551	210.185	-0.109	0.173
-631.536	99.942	-0.299	0.352
-630.522	-42.403	0.189	0.098
-629.507	275.644	-0.220	-0.396
-628.492	-20.406	-0.220	0.137
-627.478	-66.312	-0.164	0.066
-626.463	-178.615	0.040	-0.001
-625.449	-28.045	0.277	0.162
-624.434	-54.201	-0.301	0.138
-623.419	800.000	-0.050	-0.185
-622.405	307.899	-0.007	0.013
-621.390	800.000	-0.093	0.314
-620.376	-156.852	-0.142	0.009
-619.361	222.060	-0.119	0.195
-618.346	800.000	0.059	-0.212
-617.332	-33.400	-0.261	-0.146
-616.317	800.000	-0.108	-0.369
-615.303	249.795	0.112	0.192
-614.288	800.000	-0.068	-0.192
-613.273	-49.356	0.422	-0.204
-612.259	-24.076	-0.124	-0.075
-611.244	-126.501	0.510	0.077
-610.230	526.797	0.153	-0.366
-609.215	-137.985	-0.135	-0.015
-608.201	-52.859	-0.192	0.090
-607.186	-200.000	0.009	0.052
-606.171	96.730	0.242	0.281
-605.157	280.798	-0.084	-0.153
-604.142	-55.695	0.236	0.107
-603.128	-81.883	-0.341	0.113
-602.113	328.596	0.171	0.333
-601.098	310.786	0.172	-0.327
-600.084	81.096	-0.310	0.339
-599.069	-43.486	0.173	0.089
-598.055	30.288	0.299	0.259
-597.040	-200.000	0.000	-0.213
-596.025	-200.000	-0.049	0.346
-595.011	-200.000	0.023	0.187
-593.996	-200.000	0.045	0.203
-592.982	44.960	0.125	0.117
-591.967	61.182	-0.131	0.132
-590.952	-200.000	-0.002	0.056
-589.938	8.154	-0.247	0.188
-588.923	-25.231	-0.168	-0.101
-587.909	-200.000	0.035	0.155
-586.894	-34.900	0.387	-0.214
-585.879	291.751	-0.132	-0.243
-584.865	800.000	0.015	-0.050
-583.850	118.926	-0.230	-0.288
-582.836	239.088	0.109	-0.184
-581.821	-100.520	-0.151	-0.038
-580.806	-200.000	0.001	-0.775
-579.792	280.497	-0.093	-0.168
-578.777	7.585	0.116	-0.088
-577.763	800.000	0.059	0.182
-576.748	-200.000	0.065	0.444
-575.733	112.382	-0.036	0.044
-574.719	390.046	0.125	0.262
-573.704	36.658	-0.071	-0.064
-572.690	193.027	0.114	-0.174
-571.675	-76.012	0.315	-0.113
-570.661	-38.770	0.155	-0.083
-569.646	29.560	-0.245	-0.211
-568.631	-66.481	-0.171	0.069
-567.617	800.000	0.083	0.234
-566.602	237.671	-0.107	-0.179
-565.588	-200.000	0.008	-0.092
-564.573	-200.000	0.050	0.224
-563.558	346.584	0.097	-0.194
-562.544	-162.828	-0.276	-0.014
-561.529	71.783	-0.187	0.197
-560.515	-42.153	-0.093	-0.048
-559.500	800.000	0.021	-0.066
-558.485	-8.889	-0.169	0.115
-557.471	800.000	0.025	-0.098
-556.456	-159.745	-0.195	0.011
-555.442	254.827	-0.119	0.207
-554.427	-167.130	-0.246	0.010
-553.412	-103.750	0.395	-0.094
-552.398	383.709	-0.099	-0.207
-551.383	-200.000	-0.248	0.001
-550.369	214.300	-0.101	0.162
-549.354	23.728	0.106	-0.088
-548.339	-87.305	0.105	-0.032
-547.325	608.054	0.107	-0.270
-546.310	44.586	-0.330	-0.307
-545.296	46.321	-0.142	-0.133
-544.281	800.000	-0.054	-0.151
-543.266	-5.561	0.071	-0.049
-542.252	216.079	0.081	0.130
-541.237	800.000	0.078	0.262
-540.223	-200.000	0.006	0.214
-539.208	619.470	0.040	0.103
-538.193	60.606	0.224	0.224
-537.179	-113.778	-0.065	-0.013
-536.164	193.954	-0.165	-0.253
-535.150	800.000	0.058	0.257
-534.135	36.031	-0.223	-0.199
-533.121	-71.138	-0.153	0.058
-532.106	-200.000	0.020	0.131
-531.091	6.908	-0.382	-0.288
-530.077	-26.646	0.284	-0.168
-529.062	-200.000	-0.020	-0.168
-528.048	-50.736	-0.212	0.101
-527.033	800.000	0.076	-0.305
-526.018	-22.055	0.118	0.072
-525.004	-69.773	0.082	-0.032
-523.989	-98.744	0.242	0.062
-522.975	14.805	0.106	-0.083
-521.960	111.694	-0.009	0.011
-520.945	-65.883	-0.127	-0.051
-519.931	56.770	-0.206	0.203
-518.916	-200.000	-0.002	0.146
-517.902	-200.000	0.009	-0.172
-516.887	19.702	-0.031	0.025
-515.872	132.482	0.150	-0.195
-514.858	376.507	0.012	-0.024
-513.843	325.636	0.207	0.399
-512.829	-200.000	-0.003	-0.108
-511.814	718.100	0.131	-0.350
-510.799	-200.000	0.014	-0.124
-509.785	163.633	-0.171	-0.243
-508.770	-137.368	0.373	0.043
-507.756	124.520	-0.040	0.050
-506.741	246.580	0.194	-0.331
-505.726	33.375	0.056	0.049
-504.712	61.346	-0.235	0.236
-503.697	6.901	-0.194	-0.146
-502.683	72.571	-0.031	-0.032
-501.668	40.493	0.120	0.109
-500.653	-68.299	0.186	-0.073
-499.639	490.833	-0.058	0.134
-498.624	-55.565	-0.243	0.110
-497.610	-200.000	-0.024	-0.248
-496.595	77.774	0.088	-0.095
-495.581	-4.938	0.202	-0.140
-494.566	-200.000	0.038	0.311
-493.551	-200.000	-0.051	-0.432
-492.537	121.706	0.201	-0.253
-491.522	-94.675	-0.197	-0.054
-490.508	800.000	0.074	-0.235
-489.493	-24.603	0.173	-0.104
-488.478	141.962	-0.332	-0.444
-487.464	-6.681	-0.182	-0.125
-486.449	-111.396	-0.086	0.018
-485.435	266.335	0.106	0.186
-484.420	-191.890	-0.162	0.002
-483.405	800.000	0.011	-0.036
-482.391	-175.379	0.125	-0.003
-481.376	-172.186	-0.352	-0.011
-480.362	233.508	-0.082	-0.135
-479.347	68.626	-0.284	0.293
-478.332	800.000	-0.106	0.387
-477.318	57.466	-0.279	-0.275
-476.303	-26.976	0.323	-0.190
-475.289	-18.628	-0.197	-0.124
-474.274	-200.000	-0.023	0.235
-473.259	49.492	-0.189	0.179
-472.245	-107.257	-0.400	0.089
-471.230	-200.000	-0.044	-0.236
-470.216	778.215	0.085	0.234
-469.201	-82.416	0.252	-0.082
-468.186	-58.231	0.126	-0.056
-467.172	-79.395	-0.163	-0.056
-466.157	265.154	0.113	0.199
-465.143	-200.000	0.011	0.106
-464.128	116.515	0.104	0.129
-463.113	25.810	-0.255	0.214
-462.099	800.000	0.031	0.122
-461.084	288.877	0.063	0.115
-460.070	-37.410	0.146	-0.079
-459.055	4.872	-0.052	-0.039
-458.040	-158.298	-0.062	0.004
-457.026	-200.000	0.000	0.002
-456.011	-200.000	0.005	-0.165
-454.997	151.587	0.080	0.110
-453.982	35.768	-0.123	-0.109
-452.968	-200.000	0.003	0.102
-451.953	230.333	0.106	0.175
-450.938	-32.738	-0.096	-0.054
-449.924	-112.466	-0.444	-0.089
-448.909	59.950	0.323	0.321
-447.895	-9.373	0.073	0.049
-446.880	-113.446	-0.158	-0.031
-445.865	89.083	0.192	-0.216
-444.851	-26.940	-0.434	0.255
-443.836	171.475	0.118	0.170
-442.822	192.961	-0.096	0.147
-441.807	272.075	-0.129	-0.228
-440.792	122.538	-0.151	0.190
-439.778	82.485	0.139	0.152
-438.763	101.505	0.038	-0.044
-437.749	-123.617	0.058	0.009
-436.734	800.000	0.124	-0.372
-435.719	493.079	-0.060	-0.139
-434.705	-97.429	0.331	-0.087
-433.690	-28.414	-0.154	0.090
-432.676	114.588	0.158	0.194
-431.661	170.815	-0.055	-0.079
-430.646	-64.384	-0.158	-0.065
-429.632	800.000	0.014	-0.039
-428.617	-200.000	-0.246	-0.000
-427.603	-13.690	0.141	-0.092
-426.588	2.585	-0.176	-0.128
-425.573	109.048	0.036	0.043
-424.559	-149.152	0.204	-0.016
-423.544	116.747	-0.245	-0.302
-422.530	9.765	-0.264	0.201
-421.515	-31.877	-0.096	-0.054
-420.500	596.102	-0.073	0.181
-419.486	26.222	0.256	-0.215
-418.471	519.241	-0.026	0.062
-417.457	-200.000	0.051	-0.286
-416.442	-200.000	0.012	0.156
-415.428	3.621	-0.193	0.141
-414.413	-200.000	-0.000	-0.042
-413.398	-58.304	0.238	0.104
-412.384	-200.000	0.040	-0.312
-411.369	-128.135	0.349	-0.050
-410.355	468.701	0.036	-0.082
-409.340	-200.000	0.041	0.314
-408.325	-122.469	-0.196	-0.032
-407.311	449.338	0.004	0.008
-406.296	-4.125	0.042	-0.029
-405.282	695.159	-0.066	-0.176
-404.267	-160.777	0.368	0.020
-403.252	200.725	0.144	-0.222
-402.238	371.913	-0.094	0.191
-401.223	639.651	-0.110	-0.281
-400.209	-200.000	0.011	-0.188
-399.194	97.625	0.202	0.234
-398.179	110.793	-0.120	0.145
-397.165	78.072	-0.047	-0.050
-396.150	-200.000	0.028	0.197
-395.136	-146.999	-0.234	0.020
-394.121	44.443	-0.367	-0.339
-393.106	79.461	-0.205	-0.221
-392.092	229.006	0.148	0.242
-391.077	216.346	-0.231	-0.370
-390.063	-89.419	-0.216	-0.064
-389.048	800.000	0.053	-0.154
-388.033	-25.296	-0.110	-0.066
-387.019	44.666	-0.047	-0.043
-386.004	-200.000	-0.008	0.372
-384.990	-108.555	0.224	-0.048
-383.975	9.434	-0.247	0.188
-382.960	-174.813	0.124	0.004
-381.946	54.690	-0.082	-0.079
-380.931	744.734	0.065	-0.176
-379.917	-10.561	0.213	-0.142
-378.902	250.509	0.137	0.233
-377.888	159.501	-0.055	-0.077
-376.873	21.708	0.336	-0.275
-375.858	-78.804	-0.309	0.106
-374.844	585.194	-0.036	-0.088
-373.829	191.321	-0.122	-0.184
-372.815	-200.000	-0.013	0.235
-371.800	-127.586	0.190	0.028
-370.785	-200.000	-0.008	0.120
-369.771	459.887	0.115	0.256
-368.756	-200.000	-0.002	-0.025
-367.742	-66.379	0.321	-0.128
-366.727	162.677	0.218	-0.307
-365.712	-29.556	-0.194	-0.111
-364.698	97.803	-0.059	0.068
-363.683	-52.182	-0.263	0.122
-362.669	-89.225	-0.239	0.071
-361.654	-35.832	0.396	0.215
-360.639	378.283	0.176	0.361
-359.625	62.849	0.243	0.244
-358.610	13.577	-0.221	0.172
-357.596	-37.586	0.188	-0.100
-356.581	-11.049	-0.128	0.085
-355.566	800.000	0.057	0.163
-354.552	-56.412	0.043	0.019
-353.537	-102.669	0.065	-0.016
-352.523	-164.549	0.336	-0.015
-351.508	226.466	-0.150	-0.244
-350.493	186.196	0.157	-0.235
-349.479	-200.000	-0.019	-0.087
-348.464	191.479	-0.064	0.097
-347.450	-65.666	-0.147	0.059
-346.435	315.742	-0.131	-0.247
-345.420	-28.057	-0.172	0.100
-344.406	-169.437	0.221	0.008
-343.391	-97.603	0.252	0.066
-342.377	-200.000	0.010	-0.267
-341.362	118.630	-0.241	-0.299
-340.348	-200.000	-0.004	0.070
-339.333	-129.015	-0.300	0.042
-338.318	-32.598	-0.171	-0.096
-337.304	4.421	0.105	-0.078
-336.289	-86.865	-0.183	-0.056
-335.275	34.698	0.171	0.150
-334.260	-27.259	0.172	-0.100
-333.245	-200.000	0.000	0.235
-332.231	-124.939	0.116	0.018
-331.216	-151.817	0.244	0.018
-330.202	178.338	0.138	0.202
-329.187	93.738	-0.123	0.140
-328.172	-80.188	0.467	-0.157
-327.158	655.509	0.108	-0.279
-326.143	66.879	-0.071	-0.073
-325.129	76.374	0.064	-0.068
-324.114	800.000	0.023	-0.083
-323.099	80.498	0.239	0.258
-322.085	68.911	-0.166	-0.171
-321.070	-126.023	0.279	0.042
-320.056	-200.000	-0.048	-0.221
-319.041	800.000	0.005	0.018
-318.026	800.000	-0.041	-0.124
-317.012	-200.000	-0.027	0.212
-315.997	-200.000	0.016	0.450
-314.983	-30.685	-0.074	0.042
-313.968	-131.539	0.307	-0.041
-312.953	-90.917	-0.193	-0.056
-311.939	-40.166	0.074	0.039
-310.924	220.716	0.074	-0.120
-309.910	71.330	0.098	0.102
-308.895	481.131	0.139	0.317
-307.880	-154.982	-0.290	0.019
-306.866	-42.240	-0.432	-0.221
-305.851	-106.439	0.090	-0.020
-304.837	-91.665	0.091	0.026
-303.822	-100.158	0.123	-0.031
-302.807	-15.849	-0.266	-0.169
-301.793	284.624	-0.212	-0.381
-300.778	-119.570	0.146	0.025
-299.764	-80.930	0.363	-0.120
-298.749	83.764	-0.071	0.077
-297.735	-200.000	0.049	0.277
-296.720	-9.355	-0.223	0.149
-295.705	-46.412	0.226	-0.111
-294.691	312.038	0.193	-0.362
-293.676	-82.805	-0.371	0.120
-292.662	19.382	-0.161	0.130
-291.647	-200.000	-0.029	-0.301
-290.632	-80.630	0.216	0.072
-289.618	-200.000	0.041	0.215
-288.603	16.881	0.079	-0.062
-287.589	-71.645	-0.194	0.073
-286.574	25.597	0.260	-0.217
-285.559	-200.000	0.005	-0.291
-284.545	-93.314	-0.093	0.026
-283.530	-200.000	0.079	-0.352
-282.516	-35.682	-0.100	0.054
-281.501	-112.909	-0.420	0.083
-280.486	-7.864	0.121	0.082
-279.472	159.335	0.159	0.221
-278.457	714.367	0.072	0.191
-277.443	-200.000	0.012	0.080
-276.428	-39.950	0.159	0.083
-275.413	29.633	-0.018	0.015
-274.399	46.653	-0.137	0.128
-273.384	-102.331	0.326	0.078
-272.370	426.560	-0.128	0.276
-271.355	217.572	-0.182	0.291
-270.340	538.352	0.176	-0.418
-269.326	-59.078	-0.284	0.122
-268.311	59.393	0.032	-0.032
-267.297	-122.852	-0.200	-0.032
-266.282	241.881	-0.077	-0.129
-265.267	-89.279	-0.082	-0.024
-264.253	-25.165	0.070	-0.041
-263.238	342.531	-0.103	0.202
-262.224	316.357	0.115	0.218
-261.209	-99.529	-0.073	-0.018
-260.195	222.320	-0.087	-0.139
-259.180	644.034	0.157	0.402
-258.165	-117.079	0.155	-0.028
-257.151	44.149	-0.114	-0.105
-256.136	-15.478	0.147	-0.094
-255.122	75.307	0.242	0.256
-254.107	525.033	-0.093	-0.218
-253.092	419.507	0.014	0.030
-252.078	-55.772	-0.140	-0.062
-251.063	-200.000	-0.043	-0.307
-250.049	-18.328	-0.209	0.131
-249.034	129.377	0.127	0.162
-248.019	561.158	-0.032	-0.077
-247.005	-65.119	0.190	-0.077
-245.990	108.694	0.125	-0.150
-244.976	-25.674	0.317	-0.187
-243.961	-200.000	0.033	0.420
-242.946	-63.541	-0.298	0.122
-241.932	60.999	0.139	0.138
-240.917	-103.381	0.253	-0.060
-239.903	-76.291	-0.325	0.114
-238.888	-12.458	0.032	0.021
-237.873	-17.789	-0.057	0.036
-236.859	-200.000	-0.010	0.358
-235.844	-110.508	-0.202	-0.042
-234.830	-23.343	0.221	-0.133
-233.815	9.728	0.018	0.014
-232.800	-125.246	0.148	-0.023
-231.786	317.180	0.013	0.025
-230.771	158.055	-0.074	0.103
-229.757	170.462	0.068	-0.097
-228.742	524.855	-0.072	-0.168
-227.727	800.000	-0.055	0.158
-226.713	-12.695	-0.333	0.217
-225.698	-200.000	-0.027	-0.181
-224.684	-200.000	-0.019	-0.167
-223.669	68.183	0.273	0.279
-222.655	34.455	0.067	0.058
-221.640	488.322	-0.040	0.092
-220.625	800.000	-0.039	0.124
-219.611	510.423	-0.068	0.158
-218.596	120.589	0.079	0.098
-217.582	-2.321	-0.311	0.218
-216.567	21.825	-0.244	0.198
-215.552	93.809	0.179	0.202
-214.538	-23.350	-0.274	-0.164
-213.523	800.000	-0.064	-0.225
-212.509	-40.375	0.090	0.047
-211.494	396.885	-0.097	-0.203
-210.479	-113.854	-0.368	-0.071
-209.465	3.564	0.117	-0.085
-208.450	-132.908	0.130	-0.017
-207.436	77.396	0.060	-0.064
-206.421	-37.086	0.339	0.181
-205.406	-142.448	0.211	-0.021
-204.392	61.064	0.077	0.076
-203.377	703.779	-0.063	-0.167
-202.363	33.979	-0.288	-0.251
-201.348	-173.204	0.398	-0.012
-200.333	100.215	-0.048	-0.056
-199.319	-147.982	0.231	0.019
-198.304	-200.000	-0.024	0.194
-197.290	523.650	0.095	0.222
-196.275	-200.000	-0.018	0.291
-195.260	-24.741	0.211	-0.125
-194.246	97.463	0.109	-0.124
-193.231	-200.000	0.005	0.215
-192.217	-179.316	0.224	-0.005
-191.202	628.996	-0.176	0.443
-190.187	12.398	-0.100	-0.077
-189.173	-89.144	0.275	-0.081
-188.158	-173.685	-0.153	0.005
-187.144	800.000	0.115	-0.479
-186.129	-121.845	0.056	-0.009
-185.114	-200.000	0.032	0.232
-184.100	263.060	0.085	0.148
-183.085	-49.863	0.498	-0.236
-182.071	-61.073	-0.079	-0.033
-181.056	67.567	0.139	-0.141
-180.042	767.305	-0.165	0.448
-179.027	-200.000	0.022	0.162
-178.012	-87.153	-0.306	0.093
-176.998	160.694	-0.042	0.059
-175.983	-87.222	-0.177	-0.054
-174.969	484.896	0.113	-0.257
-173.954	-200.000	0.037	0.268
-172.939	71.088	0.080	-0.083
-171.925	251.748	-0.114	-0.193
-170.910	-30.373	0.249	-0.141
-169.896	-89.242	0.420	0.123
-168.881	104.879	0.121	0.143
-167.866	14.865	0.256	-0.199
-166.852	-200.000	-0.027	-0.127
-165.837	41.000	-0.389	0.350
-164.823	21.634	0.122	-0.099
-163.808	-118.101	0.066	0.012
-162.793	800.000	-0.019	-0.068
-161.779	175.099	0.093	0.133
-160.764	-77.313	0.322	-0.112
-159.750	-200.000	0.019	0.151
-158.735	-7.499	-0.126	-0.085
-157.720	-91.892	-0.029	0.008
-156.706	-200.000	0.029	0.145
-155.691	18.733	0.165	-0.131
-154.677	-71.915	0.232	-0.086
-153.662	-141.066	0.249	-0.025
-152.647	-106.057	0.184	-0.041
-151.633	2.409	-0.186	-0.134
-150.618	-128.837	0.122	0.017
-149.604	-138.057	0.259	0.029
-148.589	-34.122	0.189	0.104
-147.574	-200.000	0.031	0.236
-146.560	365.115	0.168	0.337
-145.545	-171.512	0.064	-0.002
-144.531	188.701	-0.068	0.101
-143.516	-200.000	-0.051	-0.364
-142.502	-7.712	-0.291	0.196
-141.487	-200.000	0.049	0.265
-140.472	17.620	0.370	0.293
-139.458	-200.000	0.002	0.234
-138.443	-94.227	0.299	0.081
-137.429	265.964	-0.153	0.266
-136.414	237.228	-0.032	0.054
-135.399	134.444	0.178	-0.229
-134.385	88.593	0.213	0.236
-133.370	101.986	0.155	0.180
-132.356	800.000	-0.025	-0.083
-131.341	-35.127	-0.097	0.053
-130.326	-7.203	0.121	0.082
-129.312	93.641	0.128	-0.145
-128.297	124.443	0.175	0.220
-127.283	378.512	0.073	0.148
-126.268	710.502	0.030	-0.080
-125.253	-70.016	-0.192	-0.073
-124.239	307.404	0.051	0.094
-123.224	800.000	0.031	-0.091
-122.210	-29.101	0.211	0.120
-121.195	-73.918	0.543	-0.196
-120.180	104.976	0.111	-0.130
-119.166	-75.209	0.191	0.068
