DTS Sentinel unit serial number:	SN413079Multiplexer serial number:	ORYXHardware model number:	OX4-SRSoftware version number:	ORYX F/W v4.00 Oryx Data Collector v3.7.2.0data status	okinstallation	princeton_trtdifferential loss correction	single-endedforward channel	channel 4reverse channel	N/Adate	2019/09/17time	07:17:35forward acquisition time	60.00reverse acquisition time	0.00gamma	496.2192k internal	0.2320k external	0.2320temperature offset calibration	0.9984default loss term (dB/km)	0.3790temperature slope calibration	1.0000multiplexer offset coefficient	1.0000multiplexer slope coefficient	1.0000fibre end	0.00T internal ref (°C)	27.25T ext. ref 1 (°C)	0.12T ext. ref 2 (°C)	21.32length (m)	temperature (°C)	Stokes	anti-Stokes-747.200	674.088	-0.032	0.083
-746.185	-84.008	-0.246	-0.079
-745.171	64.342	-0.172	0.175
-744.156	-200.000	0.044	0.368
-743.142	-151.541	-0.166	-0.012
-742.127	800.000	-0.073	0.269
-741.112	247.318	0.223	0.381
-740.098	103.019	0.025	0.030
-739.083	-109.006	-0.253	0.055
-738.069	-200.000	-0.037	0.264
-737.054	-200.000	-0.051	-0.450
-736.039	-90.779	-0.300	0.088
-735.025	800.000	0.077	0.328
-734.010	-51.661	-0.230	0.108
-732.996	102.331	-0.113	-0.133
-731.981	96.214	0.278	-0.321
-730.966	60.713	-0.157	-0.158
-729.952	-200.000	-0.004	0.328
-728.937	226.013	-0.075	-0.124
-727.923	116.149	0.238	-0.294
-726.908	112.626	0.079	-0.097
-725.894	800.000	-0.022	-0.088
-724.879	-14.357	0.279	-0.182
-723.864	140.229	-0.101	0.135
-722.850	-200.000	0.069	-0.336
-721.835	-169.523	-0.250	-0.009
-720.821	-200.000	0.047	-0.216
-719.806	84.233	0.035	-0.039
-718.791	800.000	0.052	-0.155
-717.777	-92.458	-0.174	-0.050
-716.762	-200.000	0.025	-0.162
-715.748	361.260	-0.236	-0.478
-714.733	178.745	0.134	0.199
-713.718	-97.458	-0.303	0.080
-712.704	381.511	-0.122	0.253
-711.689	-79.972	0.534	0.181
-710.675	-200.000	-0.016	0.137
-709.660	268.980	-0.146	0.258
-708.645	-65.894	0.283	-0.114
-707.631	-55.738	0.109	-0.049
-706.616	747.193	-0.024	-0.066
-705.602	-78.992	0.126	0.043
-704.587	55.997	0.107	-0.105
-703.572	249.502	-0.011	0.019
-702.558	-65.548	-0.208	-0.084
-701.543	-200.000	0.013	0.094
-700.529	-80.016	-0.264	0.089
-699.514	-200.000	-0.016	0.151
-698.499	-200.000	0.009	0.070
-697.485	31.888	-0.183	-0.159
-696.470	-186.400	-0.273	-0.004
-695.456	75.946	-0.027	0.029
-694.441	-200.000	0.066	-0.616
-693.426	45.782	-0.103	-0.096
-692.412	-200.000	-0.011	-0.148
-691.397	74.744	-0.251	0.267
-690.383	-200.000	-0.009	-0.164
-689.368	796.206	0.124	-0.346
-688.354	-200.000	0.017	-0.100
-687.339	-104.629	-0.305	-0.071
-686.324	-14.145	-0.117	-0.076
-685.310	46.530	0.117	-0.110
-684.295	-200.000	0.007	0.106
-683.281	24.737	-0.238	-0.199
-682.266	-91.779	-0.112	0.032
-681.251	-77.929	0.439	-0.153
-680.237	86.295	-0.298	-0.331
-679.222	-64.253	-0.344	-0.141
-678.208	279.596	-0.115	-0.208
-677.193	800.000	-0.066	-0.269
-676.178	226.747	-0.099	-0.161
-675.164	62.147	-0.115	-0.116
-674.149	-40.888	-0.448	-0.234
-673.135	154.792	0.250	-0.346
-672.120	-113.190	-0.070	-0.014
-671.105	65.265	-0.381	-0.389
-670.091	-200.000	-0.017	-0.173
-669.076	416.707	0.110	0.237
-668.062	800.000	-0.082	-0.296
-667.047	-167.749	-0.421	-0.017
-666.032	-125.031	0.155	0.024
-665.018	-62.585	-0.255	0.107
-664.003	20.356	0.086	0.070
-662.989	-141.283	-0.231	0.024
-661.974	-128.263	0.132	0.019
-660.959	-52.679	0.092	-0.043
-659.945	124.525	-0.149	-0.189
-658.930	-95.411	-0.188	-0.051
-657.916	800.000	0.028	0.104
-656.901	-134.733	-0.237	0.029
-655.886	-180.427	-0.207	0.004
-654.872	134.451	0.093	-0.122
-653.857	35.037	0.097	0.086
-652.843	348.782	-0.166	0.329
-651.828	-28.624	0.071	-0.041
-650.814	-103.501	-0.089	0.021
-649.799	-99.956	0.084	-0.021
-648.784	371.025	-0.188	-0.385
-647.770	-169.395	-0.227	-0.008
-646.755	15.733	-0.153	0.121
-645.741	-26.114	-0.189	-0.112
-644.726	85.763	0.166	0.183
-643.711	-4.380	-0.136	0.095
-642.697	-49.553	-0.318	-0.153
-641.682	800.000	-0.080	-0.291
-640.668	-200.000	-0.046	-0.216
-639.653	-21.627	-0.059	0.036
-638.638	321.993	0.052	-0.099
-637.624	-13.705	-0.173	-0.113
-636.609	102.700	0.131	-0.154
-635.595	576.794	0.057	0.140
-634.580	-200.000	0.041	0.230
-633.565	-148.998	-0.312	-0.025
-632.551	-144.494	0.025	0.002
-631.536	-131.918	0.360	0.047
-630.522	-200.000	-0.020	-0.291
-629.507	-100.169	0.121	-0.030
-628.492	305.899	0.065	0.122
-627.478	-200.000	-0.052	-0.246
-626.463	-120.066	0.139	-0.024
-625.449	608.115	0.063	-0.159
-624.434	-161.931	-0.271	-0.014
-623.419	554.183	0.161	0.390
-622.405	-200.000	0.061	-0.275
-621.390	33.541	-0.239	-0.209
-620.376	-200.000	-0.075	0.353
-619.361	-53.182	0.337	0.156
-618.346	-200.000	-0.007	-0.264
-617.332	57.175	-0.097	-0.095
-616.317	486.261	-0.061	-0.140
-615.303	256.460	-0.060	-0.103
-614.288	-150.880	-0.347	-0.026
-613.273	-172.506	0.250	-0.008
-612.259	-200.000	0.018	-0.353
-611.244	-129.565	0.014	-0.002
-610.230	-109.326	-0.347	-0.074
-609.215	-200.000	0.045	0.329
-608.201	604.009	-0.087	-0.217
-607.186	193.755	-0.242	-0.368
-606.171	44.829	0.072	-0.067
-605.157	-44.882	0.309	0.155
-604.142	-26.766	-0.044	-0.026
-603.128	-200.000	0.043	-0.229
-602.113	-200.000	0.079	0.356
-601.098	24.148	0.138	-0.115
-600.084	-129.415	0.194	-0.027
-599.069	-96.739	0.200	-0.053
-598.055	4.103	0.275	0.202
-597.040	-13.747	-0.273	-0.178
-596.025	-91.293	-0.288	-0.083
-595.011	-47.748	0.111	-0.054
-593.996	-26.532	0.261	0.154
-592.982	401.645	0.054	0.114
-591.967	218.275	-0.207	-0.331
-590.952	52.376	0.176	-0.169
-589.938	24.139	0.351	-0.292
-588.923	800.000	0.042	0.118
-587.909	800.000	-0.065	0.198
-586.894	66.095	0.151	-0.154
-585.879	-27.256	-0.274	-0.161
-584.865	409.022	0.073	0.155
-583.850	-130.202	0.479	0.065
-582.836	121.775	0.080	-0.100
-581.821	-20.896	-0.018	-0.011
-580.806	152.420	0.035	0.049
-579.792	38.938	-0.140	0.126
-578.777	-200.000	0.332	0.001
-577.763	326.027	-0.029	0.056
-576.748	-126.237	0.096	-0.014
-575.733	49.032	0.077	-0.073
-574.719	-66.258	0.053	-0.021
-573.704	-200.000	-0.009	0.050
-572.690	220.573	-0.096	-0.154
-571.675	300.310	-0.017	0.032
-570.661	233.822	0.098	-0.161
-569.646	5.973	0.327	0.243
-568.631	504.390	-0.057	-0.133
-567.617	-200.000	-0.026	-0.123
-566.602	353.725	-0.053	0.105
-565.588	-26.662	-0.381	-0.224
-564.573	350.332	0.023	0.045
-563.558	87.943	-0.079	-0.088
-562.544	48.509	0.160	0.150
-561.529	-142.901	0.079	-0.008
-560.515	531.247	0.061	0.144
-559.500	-136.101	0.350	0.041
-558.485	748.451	-0.065	0.175
-557.471	-116.745	-0.120	0.022
-556.456	800.000	-0.006	0.022
-555.442	368.188	0.037	-0.074
-554.427	800.000	-0.085	0.251
-553.412	-48.475	-0.137	-0.066
-552.398	441.213	0.054	-0.118
-551.383	601.573	-0.073	-0.183
-550.369	-16.935	0.184	0.117
-549.354	-55.912	0.170	-0.076
-548.339	-25.432	0.287	-0.170
-547.325	-118.920	-0.157	0.028
-546.310	45.129	-0.223	-0.206
-545.296	-12.496	0.403	0.264
-544.281	411.881	0.060	-0.128
-543.266	-114.501	-0.151	-0.029
-542.252	264.272	-0.217	-0.379
-541.237	-122.069	0.246	0.040
-540.223	-139.710	0.321	0.034
-539.208	254.907	-0.346	0.594
-538.193	214.464	0.179	0.285
-537.179	164.989	-0.260	0.368
-536.164	-92.319	-0.299	0.085
-535.150	-12.887	0.368	-0.240
-534.135	531.005	0.073	0.173
-533.121	-200.000	0.234	-0.001
-532.106	-200.000	-0.022	0.121
-531.091	69.418	0.098	0.101
-530.077	6.090	-0.186	0.138
-529.062	-200.000	-0.028	-0.129
-528.048	-44.680	0.114	-0.057
-527.033	3.127	-0.240	0.175
-526.018	-0.835	-0.062	-0.044
-525.004	737.612	-0.112	0.301
-523.989	-143.636	0.275	-0.026
-522.975	-127.949	0.281	0.040
-521.960	-123.706	-0.139	-0.022
-520.945	-94.079	-0.292	0.080
-519.931	199.946	0.102	-0.157
-518.916	692.072	0.068	0.178
-517.902	-200.000	0.033	0.000
-516.887	-125.010	0.246	0.038
-515.872	-200.000	0.011	0.206
-514.858	-12.007	-0.231	-0.152
-513.843	800.000	0.046	0.197
-512.829	-24.654	-0.127	0.075
-511.814	61.242	-0.185	0.184
-510.799	464.625	-0.088	0.197
-509.785	12.853	0.156	-0.120
-508.770	-129.872	0.578	-0.079
-507.756	800.000	-0.103	0.360
-506.741	493.235	-0.136	0.312
-505.726	36.520	0.136	0.120
-504.712	87.839	-0.125	0.139
-503.697	30.994	-0.086	-0.074
-502.683	-135.620	-0.153	-0.018
-501.668	-200.000	0.030	-0.173
-500.653	-200.000	0.054	-0.423
-499.639	-95.466	0.259	0.070
-498.624	209.346	-0.079	-0.124
-497.610	-200.000	0.010	-0.133
-496.595	33.463	-0.119	0.104
-495.581	413.039	-0.070	0.149
-494.566	-143.383	0.395	-0.038
-493.551	-35.949	0.235	-0.127
-492.537	-66.837	0.126	0.050
-491.522	483.543	-0.199	0.453
-490.508	44.153	0.219	0.201
-489.493	-124.096	0.060	-0.009
-488.478	800.000	-0.072	-0.208
-487.464	267.047	0.138	-0.242
-486.449	526.477	-0.141	0.333
-485.435	-200.000	0.056	0.386
-484.420	60.211	0.168	-0.167
-483.405	41.617	0.206	-0.187
-482.391	379.666	-0.078	0.160
-481.376	-12.262	0.220	-0.144
-480.362	800.000	0.063	-0.217
-479.347	-35.369	0.113	-0.061
-478.332	104.691	0.104	0.122
-477.318	-175.573	0.073	0.002
-476.303	447.046	-0.049	-0.107
-475.289	31.014	0.205	0.176
-474.274	800.000	-0.039	0.108
-473.259	-31.310	-0.221	0.124
-472.245	-95.868	0.042	-0.011
-471.230	302.131	0.154	-0.286
-470.216	17.201	-0.084	-0.067
-469.201	800.000	-0.081	0.238
-468.186	-200.000	-0.015	0.202
-467.172	-200.000	0.090	-0.423
-466.157	-42.589	-0.268	0.136
-465.143	-200.000	0.000	0.062
-464.128	-200.000	0.007	0.174
-463.113	-65.174	-0.295	0.119
-462.099	-74.489	-0.087	0.031
-461.084	119.358	-0.181	0.224
-460.070	173.237	0.168	0.242
-459.055	-77.351	-0.240	0.083
-458.040	102.599	-0.029	-0.034
-457.026	-200.000	0.004	0.100
-456.011	50.960	0.110	0.104
-454.997	-165.791	0.360	-0.016
-453.982	800.000	0.047	-0.133
-452.968	289.037	-0.099	-0.179
-451.953	-61.851	0.185	-0.077
-450.938	-44.904	0.148	0.074
-449.924	-104.899	0.249	0.057
-448.909	-2.178	-0.108	-0.076
-447.895	-200.000	0.006	-0.307
-446.880	204.975	0.041	0.064
-445.865	800.000	-0.033	-0.107
-444.851	-59.217	-0.173	-0.075
-443.836	127.094	0.180	0.228
-442.822	-200.000	-0.051	0.253
-441.807	488.295	-0.119	-0.271
-440.792	64.737	0.090	0.091
-439.778	-200.000	0.007	0.350
-438.763	-200.000	0.017	-0.083
-437.749	131.802	0.061	0.078
-436.734	-200.000	-0.056	-0.392
-435.719	-135.438	0.273	0.033
-434.705	-76.253	0.075	0.026
-433.690	-29.466	0.146	-0.084
-432.676	248.774	-0.127	-0.215
-431.661	260.643	-0.078	-0.134
-430.646	362.915	-0.125	-0.250
-429.632	-200.000	-0.029	-0.228
-428.617	-134.768	-0.226	-0.027
-427.603	300.517	0.051	-0.094
-426.588	-22.456	-0.105	-0.063
-425.573	-59.394	-0.045	-0.019
-424.559	-200.000	-0.028	0.198
-423.544	-171.988	-0.104	0.003
-422.530	172.245	-0.072	-0.103
-421.515	-1.210	0.181	0.127
-420.500	318.014	0.075	-0.142
-419.486	-200.000	-0.055	0.429
-418.471	-109.919	-0.114	0.024
-417.457	800.000	-0.033	-0.109
-416.442	-111.194	0.111	0.023
-415.428	800.000	0.017	0.059
-414.413	-200.000	-0.019	0.099
-413.398	-83.285	0.065	-0.021
-412.384	-80.120	0.189	0.063
-411.369	27.467	-0.250	-0.209
-410.355	-43.619	0.110	-0.055
-409.340	800.000	0.028	0.090
-408.325	-66.072	0.218	-0.087
-407.311	110.419	-0.237	-0.284
-406.296	-16.965	0.101	-0.064
-405.282	-90.570	0.280	-0.081
-404.267	379.859	0.147	0.300
-403.252	79.077	-0.010	-0.011
-402.238	377.484	-0.163	-0.332
-401.223	55.532	0.126	0.121
-400.209	-200.000	0.019	0.102
-399.194	-200.000	-0.052	0.252
-398.179	800.000	0.018	-0.064
-397.165	156.532	-0.308	0.425
-396.150	-48.001	0.243	0.117
-395.136	-200.000	0.032	0.145
-394.121	7.210	-0.354	0.264
-393.106	144.655	-0.119	-0.158
-392.092	-1.973	-0.198	-0.139
-391.077	-200.000	-0.003	-0.308
-390.063	123.944	-0.110	0.138
-389.048	24.337	-0.198	0.163
-388.033	-77.372	0.206	-0.071
-387.019	-70.913	-0.265	-0.099
-386.004	-200.000	-0.022	0.154
-384.990	634.264	0.105	0.266
-383.975	-200.000	-0.020	0.147
-382.960	-13.565	-0.368	-0.238
-381.946	-49.953	0.293	0.138
-380.931	-45.098	0.106	0.053
-379.917	91.248	-0.239	-0.267
-378.902	81.954	-0.138	-0.149
-377.888	134.115	-0.272	-0.352
-376.873	-68.552	-0.258	-0.100
-375.858	153.063	-0.145	-0.197
-374.844	-200.000	0.023	0.152
-373.829	-200.000	0.010	-0.184
-372.815	3.953	0.375	0.273
-371.800	-200.000	0.023	0.273
-370.785	387.000	0.109	0.225
-369.771	25.601	-0.156	-0.130
-368.756	-147.145	0.140	-0.012
-367.742	27.856	0.105	0.088
-366.727	42.787	-0.060	-0.054
-365.712	800.000	-0.024	0.097
-364.698	-200.000	-0.002	-0.104
-363.683	-200.000	0.009	0.057
-362.669	-57.399	0.102	0.045
-361.654	279.037	0.057	0.102
-360.639	-1.615	0.178	-0.125
-359.625	-47.683	0.221	-0.107
-358.610	-200.000	0.003	0.092
-357.596	-200.000	-0.037	-0.304
-356.581	800.000	-0.092	-0.295
-355.566	-70.051	-0.131	-0.050
-354.552	244.497	0.221	0.369
-353.537	49.024	-0.149	-0.139
-352.523	-200.000	0.004	0.079
-351.508	130.315	-0.102	-0.130
-350.493	-200.000	0.038	-0.187
-349.479	74.960	0.255	0.267
-348.464	-200.000	-0.010	0.144
-347.450	144.906	0.130	0.173
-346.435	-47.833	-0.310	-0.150
-345.420	185.807	0.156	-0.230
-344.406	-200.000	-0.001	0.169
-343.391	-155.303	-0.219	-0.014
-342.377	146.408	0.049	0.065
-341.362	458.531	0.084	0.187
-340.348	439.944	0.091	-0.197
-339.333	56.166	-0.173	-0.167
-338.318	66.094	0.063	0.063
-337.304	-23.354	-0.045	-0.027
-336.289	27.091	-0.203	-0.169
-335.275	-131.701	0.110	-0.014
-334.260	-38.834	0.274	0.144
-333.245	-200.000	0.000	0.195
-332.231	-177.121	-0.231	0.006
-331.216	-200.000	0.022	0.243
-330.202	-53.099	0.291	0.133
-329.187	-200.000	0.044	-0.288
-328.172	-66.671	-0.097	-0.038
-327.158	113.670	-0.076	0.092
-326.143	-78.380	0.208	0.071
-325.129	-168.745	-0.204	-0.008
-324.114	-65.417	-0.353	-0.141
-323.099	-32.645	-0.054	0.030
-322.085	-200.000	0.006	0.216
-321.070	210.963	0.069	0.109
-320.056	-86.447	-0.334	-0.102
-319.041	325.060	-0.073	-0.139
-318.026	-63.026	-0.274	-0.112
-317.012	-5.033	-0.089	0.061
-315.997	668.279	-0.110	0.282
-314.983	419.125	-0.081	0.172
-313.968	165.225	0.139	0.195
-312.953	23.371	-0.201	0.164
-311.939	-200.000	0.009	-0.137
-310.924	-57.903	0.144	0.063
-309.910	-143.451	-0.255	-0.024
-308.895	-200.000	0.036	0.318
-307.880	-39.472	-0.152	0.079
-306.866	61.323	-0.199	-0.196
-305.851	800.000	-0.019	0.057
-304.837	256.251	0.055	0.093
-303.822	394.567	-0.025	0.051
-302.807	-95.970	0.207	0.055
-301.793	11.315	-0.192	-0.146
-300.778	642.824	0.051	-0.129
-299.764	800.000	-0.043	0.184
-298.749	647.643	-0.066	-0.167
-297.735	-200.000	-0.060	-0.328
-296.720	44.219	-0.122	0.111
-295.705	98.903	0.068	-0.078
-294.691	800.000	0.011	-0.038
-293.676	800.000	-0.079	-0.249
-292.662	-118.614	-0.322	-0.057
-291.647	800.000	0.072	0.271
-290.632	-138.638	0.198	0.022
-289.618	166.750	-0.313	0.440
-288.603	-38.308	-0.251	-0.132
-287.589	47.173	0.152	-0.141
-286.574	21.665	0.207	0.167
-285.559	-200.000	-0.036	-0.307
-284.545	266.532	-0.082	-0.142
-283.530	-200.000	-0.001	-0.201
-282.516	-151.057	0.070	0.005
-281.501	-60.589	-0.150	-0.063
-280.486	87.250	0.149	0.164
-279.472	-22.056	0.343	-0.207
-278.457	-200.000	-0.001	-0.216
-277.443	282.803	0.109	-0.195
-276.428	-50.729	-0.423	-0.198
-275.413	-200.000	0.213	0.001
-274.399	71.919	-0.174	0.180
-273.384	-179.429	0.087	0.002
-272.370	124.705	0.112	-0.140
-271.355	-133.066	-0.100	0.013
-270.340	-159.702	-0.601	0.033
-269.326	168.304	0.089	0.126
-268.311	236.136	-0.082	0.135
-267.297	-145.797	0.292	-0.026
-266.282	-57.537	-0.132	-0.058
-265.267	-9.455	0.203	-0.134
-264.253	119.760	0.187	0.230
-263.238	-74.498	0.166	0.059
-262.224	800.000	-0.097	-0.302
-261.209	-137.504	0.180	0.020
-260.195	19.739	-0.148	0.119
-259.180	-138.784	0.091	-0.010
-258.165	265.569	0.190	0.329
-257.151	45.971	0.289	0.266
-256.136	-200.000	0.015	-0.303
-255.122	-200.000	0.002	-0.170
-254.107	-200.000	-0.010	-0.230
-253.092	227.300	-0.101	-0.162
-252.078	180.456	0.096	-0.140
-251.063	23.307	-0.509	0.415
-250.049	-200.000	-0.034	0.185
-249.034	62.101	0.018	-0.018
-248.019	-200.000	0.022	0.098
-247.005	49.725	0.133	0.124
-245.990	5.510	-0.091	-0.067
-244.976	67.539	0.043	-0.043
-243.961	-115.000	0.312	-0.059
-242.946	93.810	-0.204	0.229
-241.932	-200.000	-0.031	-0.403
-240.917	-200.000	-0.014	-0.255
-239.903	360.603	-0.080	-0.159
-238.888	-200.000	-0.056	-0.360
-237.873	-121.501	0.161	0.027
-236.859	-128.445	0.301	-0.042
-235.844	800.000	0.094	0.351
-234.830	-157.799	-0.221	0.013
-233.815	251.432	0.179	-0.302
-232.800	52.182	0.279	0.264
-231.786	-97.027	-0.404	-0.105
-230.771	-137.520	0.066	-0.007
-229.757	-61.279	0.092	-0.038
-228.742	309.665	-0.158	-0.292
-227.727	139.016	-0.040	0.053
-226.713	72.288	-0.184	0.190
-225.698	210.611	-0.062	0.096
-224.684	-87.530	-0.472	0.141
-223.669	-143.690	0.212	-0.020
-222.655	4.322	-0.216	0.157
-221.640	-138.469	-0.111	0.012
-220.625	238.665	-0.100	-0.165
-219.611	-200.000	-0.025	-0.328
-218.596	495.200	-0.100	-0.228
-217.582	-200.000	-0.050	0.334
-216.567	-200.000	-0.001	-0.243
-215.552	-129.989	0.298	-0.040
-214.538	353.453	-0.101	0.199
-213.523	-64.105	0.098	-0.040
-212.509	56.709	-0.146	-0.141
-211.494	209.261	0.156	-0.242
-210.479	47.485	0.291	0.269
-209.465	-200.000	-0.056	0.289
-208.450	9.627	0.141	0.106
-207.436	575.064	-0.055	0.132
-206.421	263.449	-0.167	-0.287
-205.406	139.303	-0.158	0.206
-204.392	800.000	-0.093	0.324
-203.377	416.951	-0.176	0.372
-202.363	-200.000	-0.006	0.100
-201.348	46.089	-0.105	-0.096
-200.333	-200.000	0.092	0.000
-199.319	800.000	0.108	0.370
-198.304	800.000	-0.052	-0.188
-197.290	-195.338	0.247	0.002
-196.275	69.368	0.217	0.221
-195.260	-78.740	-0.310	0.105
-194.246	113.097	0.188	-0.225
-193.231	-158.300	0.210	-0.012
-192.217	-200.000	0.008	0.123
-191.202	800.000	-0.057	-0.164
-190.187	800.000	-0.065	-0.228
-189.173	-30.035	0.142	-0.080
-188.158	-200.000	0.031	-0.160
-187.144	-200.000	0.053	-0.300
-186.129	-20.965	0.224	-0.136
-185.114	316.376	0.170	-0.317
-184.100	-107.209	-0.239	-0.052
-183.085	-33.281	-0.286	0.156
-182.071	95.348	-0.122	0.138
-181.056	-200.000	-0.006	0.274
-180.042	-200.000	-0.004	0.186
-179.027	-66.902	0.189	0.074
-178.012	800.000	-0.031	0.095
-176.998	-155.251	0.157	0.010
-175.983	122.337	0.172	-0.213
-174.969	-182.185	-0.218	0.004
-173.954	455.726	0.208	-0.457
-172.939	234.181	0.150	-0.245
-171.925	52.020	0.170	-0.160
-170.910	-108.782	-0.281	-0.060
-169.896	262.182	-0.038	0.065
-168.881	253.817	-0.080	0.136
-167.866	514.618	-0.165	-0.381
-166.852	-35.814	-0.382	-0.205
-165.837	800.000	-0.086	0.352
-164.823	-190.086	-0.198	-0.002
-163.808	514.135	0.077	-0.178
-162.793	161.893	-0.138	0.191
-161.779	-79.089	0.255	0.086
-160.764	313.732	-0.157	0.293
-159.750	800.000	-0.050	0.150
-158.735	-72.345	0.357	0.131
-157.720	45.263	0.162	0.148
-156.706	-104.984	-0.214	0.048
-155.691	365.099	0.117	-0.233
-154.677	233.708	-0.116	0.189
-153.662	36.355	-0.132	0.115
-152.647	140.553	0.075	-0.097
-151.633	-83.904	-0.071	-0.022
-150.618	-169.586	0.430	0.015
-149.604	-148.385	0.223	0.018
-148.589	-200.000	0.011	-0.070
-147.574	129.351	-0.159	-0.201
-146.560	-146.182	0.191	-0.017
-145.545	-86.452	0.141	0.043
-144.531	38.128	-0.162	0.143
-143.516	98.759	0.103	0.118
-142.502	800.000	-0.038	0.109
-141.487	78.530	0.196	-0.207
-140.472	84.362	-0.157	-0.170
-139.458	800.000	-0.062	0.241
-138.443	800.000	0.041	0.153
-137.429	147.725	-0.091	-0.121
-136.414	208.927	0.104	-0.161
-135.399	-119.985	-0.277	-0.047
-134.385	-76.752	0.205	-0.071
-133.370	15.630	-0.143	0.111
-132.356	217.715	0.175	0.276
-131.341	26.090	0.380	-0.313
-130.326	-132.890	0.196	-0.025
-129.312	-39.113	-0.233	0.121
-128.297	-138.565	-0.244	0.026
-127.283	184.035	-0.228	0.333
-126.268	-200.000	0.029	-0.264
-125.253	27.747	-0.322	0.268
-124.239	800.000	0.017	0.063
-123.224	194.218	-0.208	0.311
-122.210	-200.000	-0.034	-0.207
