DTS Sentinel unit serial number:	SN413079Multiplexer serial number:	ORYXHardware model number:	OX4-SRSoftware version number:	ORYX F/W v4.00 Oryx Data Collector v3.7.2.0data status	okinstallation	princeton_trtdifferential loss correction	single-endedforward channel	channel 4reverse channel	N/Adate	2019/09/13time	22:33:34forward acquisition time	60.00reverse acquisition time	0.00gamma	496.2192k internal	0.2321k external	0.2321temperature offset calibration	1.0136default loss term (dB/km)	0.3790temperature slope calibration	1.0000multiplexer offset coefficient	1.0000multiplexer slope coefficient	1.0000fibre end	0.00T internal ref (°C)	27.75T ext. ref 1 (°C)	3.23T ext. ref 2 (°C)	22.07length (m)	temperature (°C)	Stokes	anti-Stokes-747.200	-200.000	0.044	0.281
-746.185	-65.670	0.116	0.047
-745.171	-76.678	0.448	-0.159
-744.156	404.760	-0.147	0.312
-743.142	60.517	0.202	-0.202
-742.127	-63.509	-0.216	0.090
-741.112	208.762	0.157	-0.248
-740.098	-109.413	-0.216	-0.046
-739.083	228.956	0.147	-0.242
-738.069	-175.544	-0.329	-0.009
-737.054	-131.299	0.319	0.043
-736.039	-200.000	0.011	0.131
-735.025	800.000	0.100	0.414
-734.010	-90.732	-0.209	-0.061
-732.996	-200.000	0.026	-0.314
-731.981	-169.577	-0.174	0.006
-730.966	-200.000	0.011	0.112
-729.952	-186.487	-0.093	0.001
-728.937	75.568	0.195	0.208
-727.923	106.461	0.174	-0.209
-726.908	-105.048	-0.151	0.035
-725.894	-3.768	0.137	-0.096
-724.879	-52.446	-0.079	0.037
-723.864	335.038	-0.119	0.232
-722.850	-112.900	-0.089	0.018
-721.835	800.000	-0.041	-0.131
-720.821	-83.633	0.153	-0.049
-719.806	-128.517	0.066	-0.009
-718.791	-125.364	0.339	-0.052
-717.777	-130.318	0.181	0.025
-716.762	-124.257	0.396	-0.063
-715.748	12.226	-0.175	-0.136
-714.733	-101.293	-0.176	0.043
-713.718	7.227	-0.165	0.124
-712.704	-200.000	0.060	-0.400
-711.689	-200.000	-0.004	0.172
-710.675	-116.235	0.166	0.031
-709.660	-72.044	-0.258	-0.097
-708.645	71.262	0.373	0.391
-707.631	128.216	0.136	-0.175
-706.616	568.086	0.134	-0.329
-705.602	722.616	0.059	-0.158
-704.587	800.000	0.079	0.275
-703.572	55.085	0.080	0.078
-702.558	384.520	0.058	0.120
-701.543	183.606	-0.074	-0.111
-700.529	644.403	-0.063	-0.163
-699.514	-59.763	0.276	-0.119
-698.499	309.918	-0.050	-0.095
-697.485	800.000	-0.035	0.115
-696.470	-200.000	-0.041	0.231
-695.456	-200.000	0.012	0.084
-694.441	-200.000	-0.011	0.157
-693.426	-200.000	0.005	-0.229
-692.412	1.335	-0.113	-0.082
-691.397	-55.641	-0.266	-0.120
-690.383	407.320	0.170	0.362
-689.368	-200.000	-0.028	0.137
-688.354	-200.000	0.029	-0.294
-687.339	281.216	0.108	-0.194
-686.324	-169.269	0.277	0.010
-685.310	552.908	-0.018	-0.045
-684.295	154.574	-0.078	0.107
-683.281	86.582	0.156	-0.174
-682.266	138.304	0.168	0.222
-681.251	-81.042	-0.229	-0.076
-680.237	-118.968	0.197	-0.035
-679.222	92.907	0.116	0.132
-678.208	800.000	0.017	0.050
-677.193	-100.106	0.198	0.050
-676.178	45.606	-0.031	0.029
-675.164	800.000	-0.037	-0.157
-674.149	99.311	-0.154	-0.180
-673.135	53.572	-0.220	0.213
-672.120	-159.700	-0.123	-0.007
-671.105	166.190	0.165	-0.236
-670.091	272.239	0.077	-0.137
-669.076	-200.000	-0.013	-0.166
-668.062	-154.211	-0.461	0.031
-667.047	119.860	-0.262	-0.327
-666.032	793.751	0.222	0.617
-665.018	-200.000	0.014	0.130
-664.003	183.005	0.042	-0.062
-662.989	-200.000	-0.015	-0.128
-661.974	47.975	0.248	-0.233
-660.959	39.339	0.167	0.151
-659.945	-127.033	0.125	0.018
-658.930	-200.000	-0.062	-0.455
-657.916	-43.074	-0.091	0.046
-656.901	551.154	0.017	-0.042
-655.886	-67.130	-0.159	0.063
-654.872	130.892	0.201	-0.260
-653.857	-105.080	-0.303	-0.070
-652.843	800.000	-0.056	0.245
-651.828	-193.283	-0.213	0.002
-650.814	-20.246	0.314	0.195
-649.799	-46.261	-0.105	-0.052
-648.784	800.000	0.098	-0.348
-647.770	60.585	-0.181	-0.181
-646.755	800.000	-0.051	-0.150
-645.741	800.000	0.041	-0.132
-644.726	-200.000	0.019	0.263
-643.711	-98.466	-0.249	-0.064
-642.697	-96.102	-0.175	0.047
-641.682	-18.761	-0.126	0.079
-640.668	79.089	0.152	0.164
-639.653	-110.765	0.253	-0.053
-638.638	-25.169	-0.165	-0.098
-637.624	-200.000	-0.016	0.088
-636.609	153.386	-0.202	-0.279
-635.595	-148.091	-0.095	-0.008
-634.580	-5.545	-0.143	0.099
-633.565	48.483	-0.180	0.170
-632.551	-200.000	-0.001	-0.088
-631.536	357.755	-0.192	-0.386
-630.522	47.573	-0.202	0.189
-629.507	-106.826	-0.096	0.021
-628.492	139.557	0.092	0.122
-627.478	800.000	0.019	0.071
-626.463	20.911	-0.042	-0.035
-625.449	-27.574	-0.293	0.171
-624.434	-116.890	-0.431	0.079
-623.419	-28.954	-0.326	-0.188
-622.405	-53.205	-0.184	-0.085
-621.390	-200.000	-0.003	-0.015
-620.376	20.546	0.099	-0.081
-619.361	-192.845	0.297	-0.003
-618.346	-4.887	-0.206	-0.143
-617.332	-33.832	-0.227	-0.126
-616.317	800.000	0.034	-0.136
-615.303	-200.000	0.022	-0.110
-614.288	-91.718	-0.331	-0.095
-613.273	377.445	0.118	0.242
-612.259	800.000	-0.048	0.146
-611.244	-27.373	-0.188	-0.110
-610.230	-200.000	0.007	-0.227
-609.215	-153.291	0.153	-0.011
-608.201	-38.202	-0.153	-0.082
-607.186	-126.662	-0.100	0.015
-606.171	-165.338	0.114	0.005
-605.157	133.196	-0.118	-0.153
-604.142	211.246	0.106	0.168
-603.128	8.829	0.063	-0.048
-602.113	28.965	-0.159	-0.136
-601.098	71.598	0.284	0.297
-600.084	-181.024	-0.390	0.008
-599.069	-21.866	0.207	-0.126
-598.055	80.774	-0.202	-0.219
-597.040	-31.224	-0.141	0.080
-596.025	249.246	0.044	-0.075
-595.011	-132.511	-0.327	-0.042
-593.996	-200.000	-0.014	0.111
-592.982	516.844	-0.090	-0.212
-591.967	-200.000	-0.004	-0.127
-590.952	317.609	0.194	0.370
-589.938	6.069	-0.227	-0.169
-588.923	68.685	-0.098	0.101
-587.909	-115.374	0.168	0.032
-586.894	-140.115	0.225	-0.024
-585.879	-200.000	-0.007	0.299
-584.865	-32.624	-0.157	-0.088
-583.850	143.353	-0.062	0.083
-582.836	-28.182	-0.173	0.100
-581.821	-138.859	0.076	-0.008
-580.806	-176.393	-0.098	-0.003
-579.792	490.315	0.029	-0.068
-578.777	-200.000	-0.024	-0.306
-577.763	-200.000	0.029	0.291
-576.748	-200.000	-0.011	0.544
-575.733	263.183	-0.063	-0.111
-574.719	74.160	-0.075	0.079
-573.704	636.963	0.064	-0.163
-572.690	146.515	0.070	0.094
-571.675	-32.256	-0.261	-0.146
-570.661	420.150	0.055	0.119
-569.646	-87.850	0.262	-0.079
-568.631	-146.659	0.248	-0.022
-567.617	-200.000	0.053	-0.260
-566.602	-200.000	-0.018	-0.377
-565.588	203.420	0.050	0.078
-564.573	-139.162	0.455	0.049
-563.558	-19.614	-0.167	-0.104
-562.544	36.673	0.256	0.227
-561.529	-5.215	-0.396	0.273
-560.515	70.840	0.252	0.262
-559.500	23.666	0.307	0.253
-558.485	800.000	-0.031	0.129
-557.471	89.761	-0.191	-0.214
-556.456	5.812	-0.211	-0.157
-555.442	137.640	-0.075	-0.098
-554.427	148.252	0.169	0.228
-553.412	34.620	-0.066	-0.058
-552.398	124.924	-0.275	-0.347
-551.383	472.239	-0.045	0.101
-550.369	-179.814	0.064	-0.001
-549.354	-63.257	0.219	-0.091
-548.339	-84.712	-0.257	0.081
-547.325	72.323	0.110	-0.115
-546.310	15.527	-0.255	-0.201
-545.296	72.623	-0.221	-0.232
-544.281	49.538	-0.141	-0.133
-543.266	-26.342	-0.213	0.125
-542.252	-159.339	-0.097	0.005
-541.237	-200.000	0.014	0.391
-540.223	-54.803	0.191	0.086
-539.208	-48.364	-0.242	-0.117
-538.193	112.481	-0.094	-0.114
-537.179	800.000	-0.063	-0.207
-536.164	-18.481	-0.154	-0.096
-535.150	86.466	0.265	-0.293
-534.135	432.849	0.134	0.290
-533.121	-200.000	-0.002	-0.171
-532.106	259.514	-0.047	0.081
-531.091	-161.847	-0.076	-0.004
-530.077	-59.847	0.245	0.105
-529.062	-34.898	-0.096	-0.053
-528.048	-152.245	-0.194	0.014
-527.033	189.480	-0.183	0.275
-526.018	-19.861	0.047	-0.029
-525.004	258.230	-0.169	0.292
-523.989	171.495	0.164	-0.236
-522.975	-107.501	0.091	-0.020
-521.960	30.558	-0.169	-0.145
-520.945	-69.518	0.121	0.046
-519.931	-142.535	0.247	0.024
-518.916	800.000	0.056	-0.190
-517.902	800.000	-0.060	0.176
-516.887	52.544	-0.184	-0.176
-515.872	408.897	-0.069	-0.146
-514.858	-41.471	0.183	-0.094
-513.843	124.039	0.105	-0.132
-512.829	-119.118	-0.242	0.042
-511.814	-86.726	-0.100	-0.031
-510.799	159.910	0.146	0.203
-509.785	-61.795	-0.310	0.130
-508.770	-40.733	0.140	0.072
-507.756	-200.000	-0.001	-0.275
-506.741	84.778	-0.094	0.103
-505.726	-7.134	-0.222	0.151
-504.712	-30.958	-0.382	0.216
-503.697	-80.154	0.329	0.111
-502.683	73.059	-0.176	-0.184
-501.668	-53.871	0.250	0.114
-500.653	-143.779	-0.185	0.018
-499.639	-200.000	0.049	-0.264
-498.624	-43.342	-0.030	0.015
-497.610	-200.000	-0.007	-0.417
-496.595	-119.199	-0.092	0.016
-495.581	259.640	0.161	-0.278
-494.566	10.508	0.148	0.113
-493.551	-200.000	-0.035	-0.170
-492.537	58.888	0.229	-0.225
-491.522	-30.455	0.209	-0.119
-490.508	-91.741	-0.029	-0.008
-489.493	177.787	0.052	-0.077
-488.478	578.664	0.066	-0.162
-487.464	70.670	-0.110	0.114
-486.449	-200.000	-0.006	0.153
-485.435	-39.303	-0.157	-0.082
-484.420	77.711	0.251	0.268
-483.405	91.461	0.206	0.232
-482.391	384.001	0.061	-0.127
-481.376	603.846	-0.060	-0.148
-480.362	800.000	0.022	-0.086
-479.347	-112.904	-0.222	0.044
-478.332	106.850	-0.111	-0.132
-477.318	168.832	-0.043	-0.062
-476.303	-200.000	-0.017	0.081
-475.289	-57.103	-0.105	-0.046
-474.274	12.182	-0.107	-0.083
-473.259	736.478	-0.037	0.098
-472.245	-200.000	0.008	0.350
-471.230	358.296	-0.036	0.071
-470.216	-154.056	0.399	0.027
-469.201	-158.531	0.124	-0.007
-468.186	246.499	0.053	0.089
-467.172	248.182	-0.116	0.196
-466.157	274.619	0.139	-0.246
-465.143	-200.000	0.006	-0.155
-464.128	-133.864	-0.209	-0.026
-463.113	-200.000	0.034	-0.273
-462.099	-200.000	-0.029	0.166
-461.084	-101.640	0.352	-0.085
-460.070	368.781	0.074	-0.150
-459.055	-64.279	0.165	0.067
-458.040	-126.994	0.179	-0.026
-457.026	-71.994	-0.139	0.052
-456.011	-200.000	-0.042	0.216
-454.997	800.000	-0.119	0.356
-453.982	-124.965	0.158	-0.024
-452.968	800.000	-0.060	0.178
-451.953	-59.099	-0.206	0.089
-450.938	716.941	-0.037	-0.099
-449.924	500.602	0.075	0.173
-448.909	19.574	0.136	-0.109
-447.895	-200.000	0.027	0.221
-446.880	-26.605	-0.235	0.137
-445.865	800.000	0.029	0.083
-444.851	-6.704	0.079	-0.054
-443.836	-120.002	0.021	0.004
-442.822	22.549	0.225	-0.184
-441.807	9.456	0.178	0.135
-440.792	-4.450	0.199	-0.138
-439.778	19.358	-0.183	-0.147
-438.763	800.000	-0.093	-0.274
-437.749	800.000	-0.022	-0.071
-436.734	320.719	0.115	0.217
-435.719	800.000	0.007	-0.020
-434.705	-88.328	0.071	0.021
-433.690	189.605	0.004	0.006
-432.676	-200.000	-0.014	0.096
-431.661	800.000	-0.025	0.075
-430.646	-150.776	-0.300	-0.023
-429.632	-151.002	-0.158	0.012
-428.617	179.540	0.062	-0.091
-427.603	800.000	0.057	-0.171
-426.588	800.000	-0.035	0.122
-425.573	-200.000	-0.002	-0.012
-424.559	-136.614	0.166	0.019
-423.544	378.958	0.109	-0.222
-422.530	1.835	0.388	0.280
-421.515	800.000	-0.054	0.173
-420.500	-110.963	-0.105	0.021
-419.486	800.000	-0.010	0.043
-418.471	-81.575	-0.197	0.065
-417.457	-200.000	0.007	0.168
-416.442	-171.480	0.305	-0.010
-415.428	-136.483	0.132	-0.015
-414.413	92.452	0.244	-0.275
-413.398	-200.000	0.065	-0.323
-412.384	-73.243	0.088	0.032
-411.369	-200.000	-0.011	0.172
-410.355	-96.800	-0.190	0.050
-409.340	-8.350	-0.271	-0.182
-408.325	-200.000	-0.002	-0.102
-407.311	453.906	-0.175	0.387
-406.296	-48.201	-0.260	0.125
-405.282	800.000	-0.092	0.260
-404.267	590.243	0.012	-0.030
-403.252	-200.000	-0.038	-0.297
-402.238	-200.000	-0.019	0.106
-401.223	-78.900	0.006	0.002
-400.209	-200.000	-0.123	-0.551
-399.194	-70.844	0.143	-0.054
-398.179	-57.106	0.295	0.130
-397.165	-172.170	0.227	0.007
-396.150	-78.610	-0.174	-0.059
-395.136	-108.053	0.108	-0.023
-394.121	38.860	-0.284	-0.253
-393.106	104.170	-0.142	-0.166
-392.092	-87.103	-0.170	0.052
-391.077	-200.000	0.010	0.309
-390.063	-200.000	-0.036	0.190
-389.048	1.657	0.111	-0.079
-388.033	-200.000	-0.037	-0.188
-387.019	68.833	-0.254	-0.260
-386.004	800.000	0.045	0.183
-384.990	-44.945	0.434	-0.215
-383.975	-82.289	0.077	-0.025
-382.960	-8.330	-0.115	0.077
-381.946	-200.000	-0.025	-0.341
-380.931	407.848	-0.036	0.075
-379.917	431.337	0.081	-0.174
-378.902	11.017	-0.309	0.236
-377.888	39.171	-0.150	0.133
-376.873	185.668	-0.087	-0.129
-375.858	-140.793	0.075	0.008
-374.844	-200.000	-0.008	0.219
-373.829	211.049	-0.135	0.212
-372.815	222.544	0.049	-0.079
-371.800	-200.000	0.023	-0.164
-370.785	-27.811	0.075	-0.043
-369.771	-75.803	0.098	0.034
-368.756	21.920	-0.310	0.252
-367.742	-200.000	0.009	0.159
-366.727	182.975	0.071	0.104
-365.712	-112.303	-0.110	-0.022
-364.698	101.787	0.068	-0.079
-363.683	-94.201	0.173	-0.047
-362.669	-113.689	0.394	0.076
-361.654	263.471	-0.061	0.105
-360.639	-70.350	-0.128	0.048
-359.625	-138.591	0.145	0.016
-358.610	-28.127	-0.310	0.179
-357.596	800.000	-0.006	0.024
-356.581	-200.000	0.015	0.261
-355.566	6.324	-0.212	0.156
-354.552	264.471	-0.075	0.130
-353.537	-106.329	-0.315	0.070
-352.523	227.536	-0.243	0.393
-351.508	-70.107	0.365	-0.138
-350.493	359.451	0.047	-0.093
-349.479	167.029	-0.126	-0.179
-348.464	-200.000	0.047	-0.271
-347.450	800.000	0.067	-0.281
-346.435	537.016	-0.040	-0.095
-345.420	401.478	-0.077	-0.162
-344.406	-108.131	-0.312	0.067
-343.391	-190.089	0.338	-0.004
-342.377	800.000	-0.078	-0.281
-341.362	-200.000	0.023	-0.124
-340.348	124.390	0.241	0.302
-339.333	-36.358	-0.062	-0.033
-338.318	90.146	0.181	0.202
-337.304	-72.908	-0.087	0.032
-336.289	-68.635	-0.159	-0.061
-335.275	-200.000	-0.011	-0.153
-334.260	38.248	-0.138	0.122
-333.245	-24.683	-0.191	-0.113
-332.231	98.856	-0.159	-0.183
-331.216	12.284	0.241	0.185
-330.202	-38.243	-0.294	0.155
-329.187	-173.707	-0.068	0.002
-328.172	81.945	0.043	0.047
-327.158	800.000	0.117	0.333
-326.143	-200.000	0.057	0.257
-325.129	-200.000	-0.057	0.267
-324.114	98.872	0.116	0.133
-323.099	-67.346	-0.205	0.080
-322.085	227.289	-0.142	0.230
-321.070	-166.697	-0.559	-0.023
-320.056	387.036	-0.146	-0.300
-319.041	-51.179	0.131	0.061
-318.026	7.361	-0.282	-0.210
-317.012	231.206	-0.006	0.010
-315.997	423.717	0.152	0.324
-314.983	-200.000	-0.036	0.350
-313.968	27.847	-0.135	-0.113
-312.953	23.577	0.224	-0.184
-311.939	749.596	0.047	0.127
-310.924	-200.000	-0.002	0.079
-309.910	-44.182	-0.147	-0.073
-308.895	242.007	-0.125	0.208
-307.880	274.966	0.150	-0.264
-306.866	29.517	-0.277	-0.234
-305.851	-69.187	0.272	-0.104
-304.837	19.545	-0.172	-0.137
-303.822	41.377	0.094	0.085
-302.807	98.748	0.159	-0.183
-301.793	-141.469	0.137	-0.014
-300.778	30.486	0.194	-0.165
-299.764	-81.572	0.081	0.027
-298.749	79.175	-0.115	-0.123
-297.735	-109.095	0.364	-0.077
-296.720	-10.337	0.143	-0.094
-295.705	-3.259	-0.299	-0.207
-294.691	800.000	-0.095	0.266
-293.676	37.233	-0.257	0.226
-292.662	-54.235	0.233	0.105
-291.647	-9.414	-0.114	-0.076
-290.632	-47.736	-0.192	0.092
-289.618	-86.860	-0.114	0.035
-288.603	-200.000	-0.021	0.187
-287.589	-200.000	0.013	0.311
-286.574	-2.406	0.150	-0.105
-285.559	107.584	0.158	-0.186
-284.545	800.000	-0.053	0.191
-283.530	1.003	0.169	0.121
-282.516	800.000	-0.019	-0.057
-281.501	-6.530	0.233	-0.158
-280.486	-155.054	-0.294	-0.019
-279.472	-149.393	0.453	-0.036
-278.457	-48.695	-0.066	0.032
-277.443	-83.780	0.356	0.113
-276.428	-200.000	0.002	-0.135
-275.413	-136.501	-0.198	-0.023
-274.399	114.370	-0.039	0.048
-273.384	128.767	0.070	-0.088
-272.370	238.497	0.171	-0.282
-271.355	150.049	-0.133	-0.179
-270.340	-200.000	0.069	-0.385
-269.326	276.040	0.075	0.132
-268.311	800.000	0.136	0.394
-267.297	-64.831	0.218	0.087
-266.282	-121.497	0.191	0.032
-265.267	-200.000	-0.001	0.300
-264.253	-30.677	0.221	0.124
-263.238	-198.815	0.083	0.000
-262.224	-52.184	-0.115	0.053
-261.209	110.000	-0.086	-0.102
-260.195	65.704	-0.135	0.135
-259.180	-92.353	0.410	0.115
-258.165	-200.000	-0.034	0.320
-257.151	131.913	-0.139	0.177
-256.136	196.591	0.148	-0.224
-255.122	800.000	0.068	0.290
-254.107	-51.879	-0.196	0.090
-253.092	300.463	0.045	-0.083
-252.078	-23.541	0.128	-0.076
-251.063	38.786	-0.223	0.197
-250.049	248.361	-0.130	0.218
-249.034	552.247	0.155	-0.368
-248.019	-79.960	0.121	-0.040
-247.005	-16.149	-0.109	0.069
-245.990	-99.439	-0.245	0.061
-244.976	-200.000	-0.006	-0.112
-243.961	-17.993	-0.283	0.176
-242.946	-60.136	-0.133	-0.056
-241.932	-138.193	0.186	0.020
-240.917	-174.016	0.463	-0.013
-239.903	-200.000	0.055	0.348
-238.888	12.030	0.056	-0.043
-237.873	-200.000	0.089	-0.551
-236.859	-104.202	-0.035	-0.008
-235.844	-200.000	0.055	0.315
-234.830	65.528	0.301	-0.302
-233.815	265.501	-0.157	0.272
-232.800	-59.415	0.333	0.142
-231.786	-100.208	0.056	-0.014
-230.771	204.145	0.058	-0.090
-229.757	-46.533	0.186	-0.091
-228.742	623.271	-0.052	-0.130
-227.727	-200.000	0.051	0.306
-226.713	2.592	0.086	-0.062
-225.698	-109.057	0.048	-0.010
-224.684	800.000	-0.022	0.062
-223.669	146.093	-0.152	-0.201
-222.655	-200.000	-0.049	0.221
-221.640	-104.344	0.242	-0.055
-220.625	-95.898	-0.319	0.084
-219.611	-200.000	0.031	0.166
-218.596	800.000	0.059	0.176
-217.582	239.487	0.075	0.124
-216.567	-85.648	0.162	0.050
-215.552	-72.529	0.090	0.033
-214.538	-11.511	0.372	0.242
-213.523	800.000	0.055	0.154
-212.509	-200.000	-0.001	-0.009
-211.494	-134.447	0.031	0.004
-210.479	308.129	0.017	-0.032
-209.465	546.296	-0.159	-0.376
-208.450	-35.101	0.103	0.055
-207.436	-76.974	-0.215	0.074
-206.421	-166.531	0.417	0.017
-205.406	12.626	0.129	-0.099
-204.392	80.487	-0.185	0.197
-203.377	-9.182	0.212	-0.141
-202.363	-19.181	0.287	-0.176
-201.348	-44.259	0.279	0.138
-200.333	152.239	0.109	-0.148
-199.319	13.809	-0.160	0.123
-198.304	319.167	-0.119	-0.223
-197.290	19.756	0.081	0.065
-196.275	768.605	0.103	-0.278
-195.260	290.418	-0.047	0.084
-194.246	800.000	-0.044	-0.138
-193.231	-142.317	0.339	0.033
-192.217	-200.000	-0.030	0.280
-191.202	-94.770	0.122	0.033
-190.187	13.671	0.155	0.119
-189.173	800.000	-0.043	0.119
-188.158	800.000	0.064	0.225
-187.144	-63.575	0.150	0.061
-186.129	197.778	0.114	0.172
-185.114	-84.150	-0.109	0.034
-184.100	255.518	-0.147	-0.250
-183.085	-46.207	0.234	-0.114
-182.071	-33.097	-0.175	-0.096
-181.056	17.482	0.112	-0.088
-180.042	-64.438	-0.200	-0.080
-179.027	800.000	0.082	0.279
-178.012	124.800	0.071	-0.088
-176.998	-127.591	-0.104	-0.015
-175.983	9.047	0.250	-0.187
-174.969	-200.000	0.004	0.048
-173.954	-44.980	0.155	0.076
-172.939	-63.932	-0.367	0.148
-171.925	444.446	0.151	-0.327
-170.910	800.000	0.097	0.343
-169.896	192.733	0.220	0.328
-168.881	267.985	-0.175	-0.303
-167.866	-178.155	0.196	-0.005
-166.852	-110.478	0.188	-0.039
-165.837	-109.779	0.281	0.058
-164.823	-200.000	-0.012	-0.074
-163.808	242.636	-0.053	-0.088
-162.793	82.974	0.100	-0.108
-161.779	-200.000	-0.004	0.095
-160.764	-44.239	0.101	-0.050
-159.750	800.000	0.118	-0.360
-158.735	800.000	0.055	-0.222
-157.720	-4.575	0.322	-0.220
-156.706	800.000	-0.031	0.132
-155.691	210.959	-0.078	-0.122
-154.677	-200.000	0.016	-0.102
-153.662	-64.974	-0.188	-0.075
-152.647	406.325	0.041	-0.086
-151.633	62.626	-0.242	-0.239
-150.618	-2.898	0.196	0.135
-149.604	22.615	-0.106	0.086
-148.589	165.026	-0.121	-0.169
-147.574	-169.335	-0.122	-0.004
-146.560	-137.642	0.200	0.022
-145.545	-89.861	0.155	-0.045
-144.531	-126.246	0.241	-0.036
-143.516	6.483	-0.183	-0.135
-142.502	339.029	0.179	-0.344
-141.487	-28.865	0.092	-0.052
-140.472	156.228	-0.087	0.118
-139.458	-26.088	-0.236	-0.137
-138.443	800.000	-0.073	-0.311
-137.429	-200.000	-0.068	0.331
-136.414	-34.855	0.168	-0.091
-135.399	68.633	-0.356	0.361
-134.385	230.812	0.119	-0.192
-133.370	800.000	0.090	0.375
-132.356	-200.000	-0.014	0.242
-131.341	190.673	0.119	-0.177
-130.326	714.491	0.050	-0.131
-129.312	315.929	-0.105	-0.195
-128.297	-144.258	0.394	0.036
-127.283	-106.655	-0.502	-0.110
-126.268	748.762	0.078	-0.208
-125.253	800.000	-0.024	-0.092
-124.239	800.000	0.038	0.144
-123.224	-111.084	-0.175	0.035
-122.210	300.777	-0.225	0.410
-121.195	451.263	-0.173	-0.376
