DTS Sentinel unit serial number:	SN413079Multiplexer serial number:	ORYXHardware model number:	OX4-SRSoftware version number:	ORYX F/W v4.00 Oryx Data Collector v3.7.2.0data status	okinstallation	princeton_trtdifferential loss correction	single-endedforward channel	channel 4reverse channel	N/Adate	2019/09/17time	10:57:35forward acquisition time	60.00reverse acquisition time	0.00gamma	496.2192k internal	0.2309k external	0.2309temperature offset calibration	0.9980default loss term (dB/km)	0.3790temperature slope calibration	1.0000multiplexer offset coefficient	1.0000multiplexer slope coefficient	1.0000fibre end	0.00T internal ref (°C)	30.27T ext. ref 1 (°C)	0.19T ext. ref 2 (°C)	25.83length (m)	temperature (°C)	Stokes	anti-Stokes-747.200	-200.000	-0.007	0.138
-746.185	32.673	0.115	-0.101
-745.171	85.620	0.103	0.115
-744.156	-5.908	-0.212	0.147
-743.142	-178.650	-0.132	-0.003
-742.127	-200.000	-0.023	0.349
-741.112	72.972	0.089	0.094
-740.098	227.325	-0.230	0.380
-739.083	178.761	0.004	0.006
-738.069	-200.000	-0.015	0.466
-737.054	20.732	0.193	-0.159
-736.039	-100.082	-0.285	0.072
-735.025	-43.080	0.101	-0.052
-734.010	-200.000	0.008	0.206
-732.996	490.672	0.093	-0.217
-731.981	130.508	-0.193	-0.252
-730.966	161.678	0.095	0.136
-729.952	-137.268	-0.236	-0.027
-728.937	-35.268	-0.158	-0.087
-727.923	800.000	-0.092	0.312
-726.908	184.663	-0.214	0.322
-725.894	800.000	-0.018	-0.077
-724.879	-47.944	-0.102	-0.050
-723.864	-200.000	-0.042	-0.347
-722.850	18.259	0.238	-0.193
-721.835	120.413	0.138	-0.174
-720.821	-200.000	-0.057	-0.577
-719.806	-200.000	0.001	-0.156
-718.791	286.329	-0.052	-0.096
-717.777	-152.236	-0.115	0.008
-716.762	-66.465	-0.265	-0.107
-715.748	-47.036	0.202	-0.100
-714.733	-128.270	0.381	0.055
-713.718	800.000	0.119	-0.384
-712.704	-121.265	0.259	0.044
-711.689	-144.451	-0.106	-0.010
-710.675	-100.475	-0.449	0.113
-709.660	185.462	-0.087	-0.131
-708.645	170.673	-0.359	-0.522
-707.631	215.996	0.196	-0.315
-706.616	-200.000	-0.047	-0.230
-705.602	-150.235	-0.146	0.011
-704.587	-28.340	0.178	-0.104
-703.572	-25.145	-0.103	-0.062
-702.558	-115.434	-0.275	0.053
-701.543	-45.994	-0.128	0.064
-700.529	-116.227	0.349	-0.066
-699.514	-83.981	0.270	0.087
-698.499	28.110	0.195	-0.167
-697.485	-57.936	-0.181	0.080
-696.470	-200.000	-0.002	0.124
-695.456	-30.993	-0.270	0.155
-694.441	-66.179	0.362	0.146
-693.426	-14.785	-0.073	-0.048
-692.412	-200.000	-0.013	-0.179
-691.397	-153.373	0.198	0.014
-690.383	264.446	0.134	0.236
-689.368	-200.000	0.011	0.161
-688.354	800.000	0.086	0.245
-687.339	-94.884	0.046	-0.013
-686.324	800.000	0.052	0.174
-685.310	191.666	0.111	0.169
-684.295	-200.000	0.015	-0.159
-683.281	-200.000	-0.006	-0.055
-682.266	-125.672	0.244	-0.038
-681.251	-75.264	-0.348	0.126
-680.237	120.761	0.037	-0.047
-679.222	-59.328	0.098	-0.043
-678.208	-200.000	-0.019	0.089
-677.193	-200.000	-0.000	0.195
-676.178	54.729	-0.151	-0.147
-675.164	121.604	0.224	-0.283
-674.149	-136.698	0.122	0.014
-673.135	-200.000	0.014	-0.061
-672.120	-39.754	0.318	0.168
-671.105	-200.000	-0.040	0.351
-670.091	226.809	0.053	-0.087
-669.076	-59.064	0.090	0.039
-668.062	-43.985	0.066	-0.034
-667.047	673.849	-0.056	-0.148
-666.032	-159.496	-0.119	0.007
-665.018	-30.290	0.137	-0.079
-664.003	-62.949	-0.096	0.040
-662.989	-22.668	-0.124	-0.076
-661.974	-200.000	0.023	-0.253
-660.959	-37.022	-0.442	-0.240
-659.945	-200.000	0.015	0.312
-658.930	-35.811	0.159	-0.087
-657.916	-143.365	0.140	0.014
-656.901	-200.000	-0.025	-0.240
-655.886	-12.655	-0.383	-0.253
-654.872	-105.677	-0.318	-0.073
-653.857	200.010	0.124	0.193
-652.843	-15.841	-0.112	0.072
-651.828	116.100	-0.068	-0.085
-650.814	-36.971	-0.232	0.126
-649.799	800.000	-0.068	0.258
-648.784	-58.247	0.166	-0.073
-647.770	-82.744	-0.152	-0.050
-646.755	726.960	-0.214	-0.579
-645.741	-133.281	0.063	-0.008
-644.726	270.342	-0.064	-0.114
-643.711	209.934	-0.154	0.244
-642.697	800.000	-0.065	0.281
-641.682	180.225	-0.085	-0.127
-640.668	-87.558	-0.268	0.082
-639.653	94.874	0.107	0.123
-638.638	800.000	-0.083	-0.360
-637.624	-114.935	-0.119	-0.023
-636.609	-115.152	0.366	0.070
-635.595	206.789	-0.195	0.307
-634.580	800.000	0.036	0.107
-633.565	-61.376	-0.418	-0.178
-632.551	-200.000	-0.063	-0.487
-631.536	114.832	0.050	-0.061
-630.522	-159.582	-0.254	0.014
-629.507	800.000	0.042	-0.172
-628.492	41.479	-0.044	-0.040
-627.478	-35.852	0.100	0.055
-626.463	14.064	0.067	-0.052
-625.449	-147.845	-0.116	0.010
-624.434	-3.606	-0.399	-0.280
-623.419	-0.521	0.127	-0.091
-622.405	242.734	-0.152	-0.257
-621.390	193.445	-0.142	-0.217
-620.376	-16.863	0.410	0.262
-619.361	76.012	-0.272	0.291
-618.346	9.275	0.302	0.231
-617.332	121.704	-0.225	-0.284
-616.317	-200.000	-0.022	-0.249
-615.303	800.000	0.142	0.430
-614.288	-110.215	-0.444	0.094
-613.273	-89.471	0.135	0.040
-612.259	-15.649	-0.374	-0.241
-611.244	178.080	0.134	-0.198
-610.230	-93.724	0.333	0.093
-609.215	800.000	-0.024	0.080
-608.201	165.508	0.130	0.186
-607.186	209.070	0.086	0.135
-606.171	-200.000	0.073	-0.325
-605.157	158.294	0.110	0.154
-604.142	-200.000	0.022	0.136
-603.128	-61.552	-0.301	-0.128
-602.113	-29.227	0.189	0.109
-601.098	573.602	-0.079	-0.194
-600.084	-165.061	0.218	0.010
-599.069	87.842	-0.173	0.194
-598.055	12.054	0.238	0.185
-597.040	-66.902	-0.231	0.092
-596.025	-200.000	-0.008	0.070
-595.011	0.465	0.159	0.114
-593.996	-24.511	-0.168	0.101
-592.982	3.315	0.178	-0.131
-591.967	-65.648	0.133	0.054
-590.952	-72.537	0.411	-0.153
-589.938	64.609	-0.081	-0.082
-588.923	42.918	0.155	-0.142
-587.909	263.021	0.065	-0.115
-586.894	-78.878	-0.300	0.103
-585.879	-80.977	-0.152	-0.051
-584.865	371.147	-0.022	0.044
-583.850	-89.229	0.191	-0.057
-582.836	-163.242	-0.223	-0.011
-581.821	744.565	0.009	-0.023
-580.806	396.654	-0.088	-0.186
-579.792	-76.891	0.154	0.054
-578.777	-200.000	0.017	-0.111
-577.763	-138.107	-0.217	-0.024
-576.748	47.978	-0.209	-0.197
-575.733	64.325	-0.206	-0.210
-574.719	-55.767	0.308	-0.139
-573.704	-200.000	-0.055	-0.306
-572.690	-89.467	-0.018	0.005
-571.675	106.740	-0.130	-0.156
-570.661	-72.050	0.428	0.160
-569.646	-9.296	0.156	0.105
-568.631	-46.371	0.124	0.062
-567.617	-200.000	-0.025	0.298
-566.602	57.703	-0.053	-0.053
-565.588	440.604	-0.196	0.433
-564.573	-200.000	-0.009	-0.326
-563.558	-98.995	-0.249	-0.064
-562.544	3.198	-0.241	-0.177
-561.529	-104.080	0.421	0.099
-560.515	788.611	-0.036	0.099
-559.500	-8.771	0.276	0.187
-558.485	-41.855	-0.197	0.102
-557.471	135.427	-0.182	0.239
-556.456	-200.000	0.006	-0.140
-555.442	153.852	-0.107	-0.148
-554.427	430.749	-0.143	-0.312
-553.412	22.057	-0.184	-0.152
-552.398	-41.343	-0.162	0.084
-551.383	800.000	0.042	-0.170
-550.369	-200.000	-0.033	0.325
-549.354	21.432	0.048	-0.039
-548.339	-77.850	-0.320	-0.111
-547.325	-21.876	-0.493	0.302
-546.310	1.691	-0.106	-0.077
-545.296	127.522	0.160	0.205
-544.281	-83.361	-0.174	-0.056
-543.266	-200.000	-0.051	0.350
-542.252	42.226	0.288	0.264
-541.237	-145.383	-0.047	-0.004
-540.223	-50.968	0.200	0.095
-539.208	-115.394	0.101	0.019
-538.193	109.232	0.146	-0.176
-537.179	800.000	-0.017	-0.057
-536.164	800.000	-0.061	-0.226
-535.150	-200.000	0.086	-0.397
-534.135	-43.029	0.302	-0.154
-533.121	81.452	-0.169	-0.184
-532.106	800.000	0.059	-0.207
-531.091	-200.000	-0.063	0.455
-530.077	64.181	0.109	-0.111
-529.062	-82.208	0.244	0.080
-528.048	263.250	0.074	0.129
-527.033	92.595	-0.093	-0.106
-526.018	270.232	-0.111	-0.196
-525.004	70.125	-0.071	0.074
-523.989	-152.219	-0.091	-0.007
-522.975	-54.695	-0.136	0.062
-521.960	-156.330	0.118	0.007
-520.945	232.311	-0.207	-0.343
-519.931	-86.631	0.567	0.175
-518.916	-178.786	0.070	-0.002
-517.902	-168.225	-0.203	0.008
-516.887	184.177	0.121	-0.180
-515.872	254.300	-0.110	-0.189
-514.858	-37.563	-0.297	-0.160
-513.843	-194.152	0.273	0.002
-512.829	9.136	-0.235	0.179
-511.814	214.626	0.008	-0.013
-510.799	56.913	0.094	0.092
-509.785	-47.865	-0.285	-0.139
-508.770	25.422	0.201	-0.168
-507.756	-100.253	-0.232	-0.058
-506.741	-182.125	0.242	-0.005
-505.726	1.170	-0.037	0.026
-504.712	344.656	-0.053	0.104
-503.697	-200.000	-0.029	0.269
-502.683	12.960	0.075	-0.058
-501.668	-200.000	-0.072	-0.454
-500.653	-110.526	-0.504	-0.105
-499.639	-200.000	-0.018	0.340
-498.624	-106.132	0.200	-0.045
-497.610	296.587	0.191	0.352
-496.595	113.370	-0.101	0.123
-495.581	800.000	-0.055	0.204
-494.566	16.323	-0.100	0.079
-493.551	-33.647	-0.437	0.243
-492.537	-200.000	-0.000	0.135
-491.522	-135.050	0.378	0.046
-490.508	-67.620	-0.119	0.047
-489.493	800.000	0.064	0.220
-488.478	196.121	-0.136	-0.209
-487.464	800.000	0.055	-0.180
-486.449	800.000	-0.062	0.270
-485.435	315.182	0.105	0.200
-484.420	-187.138	0.303	0.004
-483.405	-11.502	0.211	0.140
-482.391	-1.579	-0.091	-0.065
-481.376	97.257	-0.268	-0.309
-480.362	-84.214	0.288	0.092
-479.347	-94.926	0.240	-0.065
-478.332	-64.190	0.308	0.126
-477.318	433.599	0.072	0.158
-476.303	172.464	0.087	-0.126
-475.289	-54.620	-0.104	0.047
-474.274	-58.298	-0.325	-0.142
-473.259	125.662	-0.087	-0.110
-472.245	-200.000	0.033	0.280
-471.230	104.479	-0.109	0.129
-470.216	112.068	0.151	-0.183
-469.201	-200.000	0.036	0.183
-468.186	-59.052	-0.170	0.074
-467.172	7.202	-0.093	-0.070
-466.157	800.000	-0.076	0.235
-465.143	705.755	0.039	-0.103
-464.128	120.590	0.095	0.119
-463.113	-200.000	-0.026	0.151
-462.099	-200.000	-0.015	0.203
-461.084	-93.809	-0.101	-0.028
-460.070	-72.533	-0.080	0.030
-459.055	-0.584	-0.139	0.099
-458.040	-61.610	-0.367	-0.155
-457.026	-164.905	0.559	0.025
-456.011	800.000	0.035	-0.124
-454.997	-83.866	-0.245	-0.078
-453.982	-119.913	0.288	-0.050
-452.968	83.203	-0.139	0.152
-451.953	301.352	0.024	0.044
-450.938	148.267	0.215	0.292
-449.924	151.947	0.137	0.188
-448.909	-105.114	-0.217	0.050
-447.895	800.000	-0.051	-0.159
-446.880	800.000	-0.073	0.267
-445.865	230.974	-0.080	-0.131
-444.851	81.152	0.061	0.066
-443.836	-17.132	0.343	-0.218
-442.822	49.299	0.107	0.101
-441.807	-200.000	0.003	0.268
-440.792	-136.178	-0.340	-0.040
-439.778	134.995	0.090	-0.118
-438.763	140.508	0.071	0.094
-437.749	-85.910	-0.298	-0.093
-436.734	-168.812	-0.160	-0.006
-435.719	41.827	-0.071	-0.065
-434.705	-158.590	0.182	-0.011
-433.690	119.896	0.136	-0.169
-432.676	-200.000	-0.001	-0.226
-431.661	104.623	0.270	0.319
-430.646	255.406	0.083	0.143
-429.632	100.565	-0.170	-0.198
-428.617	-200.000	0.011	-0.158
-427.603	800.000	-0.066	0.223
-426.588	-28.319	0.183	0.106
-425.573	125.570	0.056	-0.070
-424.559	190.704	0.149	0.225
-423.544	-100.356	-0.141	-0.035
-422.530	-31.589	-0.124	-0.070
-421.515	-50.533	0.077	0.037
-420.500	-94.980	-0.124	0.034
-419.486	730.168	-0.106	0.284
-418.471	-200.000	-0.015	0.182
-417.457	800.000	-0.017	0.068
-416.442	-88.982	0.375	-0.111
-415.428	800.000	-0.133	-0.553
-414.413	467.667	0.098	-0.221
-413.398	-200.000	0.001	0.101
-412.384	-150.899	0.283	-0.021
-411.369	81.112	-0.118	-0.128
-410.355	654.107	0.212	0.545
-409.340	-200.000	0.013	-0.123
-408.325	353.398	-0.066	-0.132
-407.311	-163.294	0.177	0.008
-406.296	55.327	-0.076	0.074
-405.282	-60.928	-0.311	-0.132
-404.267	-200.000	-0.005	0.037
-403.252	686.508	-0.123	-0.323
-402.238	587.058	0.131	-0.323
-401.223	37.638	0.134	-0.119
-400.209	-200.000	0.023	0.101
-399.194	-145.206	0.327	-0.030
-398.179	-113.528	-0.221	0.043
-397.165	68.320	-0.110	-0.113
-396.150	-84.825	-0.059	0.019
-395.136	254.882	0.134	-0.231
-394.121	177.143	0.121	0.176
-393.106	800.000	-0.087	0.314
-392.092	-98.477	0.353	0.090
-391.077	146.472	-0.106	0.142
-390.063	-114.383	0.085	0.016
-389.048	-10.609	0.071	0.047
-388.033	44.764	0.243	0.224
-387.019	-25.266	-0.129	0.077
-386.004	-177.139	0.129	-0.003
-384.990	152.988	-0.121	0.165
-383.975	-135.519	0.055	0.007
-382.960	-200.000	-0.025	0.192
-381.946	-41.825	-0.065	-0.033
-380.931	232.844	0.068	0.113
-379.917	186.789	-0.163	-0.244
-378.902	4.575	0.310	0.228
-377.888	169.897	0.150	0.215
-376.873	800.000	0.007	0.024
-375.858	-28.675	-0.293	-0.169
-374.844	-30.158	-0.196	0.112
-373.829	-101.538	-0.465	-0.113
-372.815	-123.480	-0.219	-0.035
-371.800	-200.000	0.004	0.158
-370.785	-154.231	-0.395	0.027
-369.771	9.384	0.019	-0.015
-368.756	-14.855	-0.213	-0.137
-367.742	172.379	-0.118	-0.170
-366.727	-101.406	0.158	0.039
-365.712	-102.706	-0.052	0.012
-364.698	-200.000	0.000	-0.158
-363.683	76.303	-0.170	-0.181
-362.669	21.613	-0.348	0.284
-361.654	-200.000	0.007	-0.296
-360.639	-48.589	-0.242	-0.116
-359.625	194.861	-0.136	-0.206
-358.610	42.512	0.083	0.076
-357.596	-65.380	-0.105	-0.042
-356.581	269.557	0.117	0.206
-355.566	271.332	0.023	0.040
-354.552	-200.000	-0.071	0.407
-353.537	464.166	0.188	0.419
-352.523	800.000	-0.079	0.317
-351.508	286.234	-0.108	0.194
-350.493	-111.395	-0.191	0.039
-349.479	-200.000	-0.175	-0.000
-348.464	-138.946	-0.127	-0.014
-347.450	-110.400	0.272	-0.057
-346.435	-68.666	0.484	-0.187
-345.420	-54.339	0.232	0.105
-344.406	800.000	-0.044	0.178
-343.391	-200.000	-0.051	0.334
-342.377	-134.833	-0.182	-0.022
-341.362	165.247	0.100	-0.142
-340.348	40.545	-0.147	-0.132
-339.333	800.000	-0.065	0.184
-338.318	800.000	-0.023	-0.097
-337.304	78.879	0.062	-0.066
-336.289	132.006	0.239	0.307
-335.275	138.502	-0.373	-0.490
-334.260	17.795	0.384	-0.306
-333.245	-118.608	0.170	-0.030
-332.231	-74.587	0.158	0.057
-331.216	800.000	0.037	-0.129
-330.202	800.000	0.040	0.123
-329.187	-33.832	0.187	0.103
-328.172	-47.570	0.232	-0.112
-327.158	-146.398	0.078	-0.007
-326.143	-200.000	-0.025	0.145
-325.129	-109.754	0.133	-0.028
-324.114	-86.367	-0.289	0.089
-323.099	-170.269	-0.307	-0.011
-322.085	188.962	-0.071	0.107
-321.070	-200.000	-0.004	0.136
-320.056	168.577	0.211	-0.301
-319.041	70.293	0.090	0.093
-318.026	-200.000	0.019	0.343
-317.012	197.319	-0.109	0.166
-315.997	800.000	-0.122	-0.390
-314.983	-129.769	-0.135	0.019
-313.968	-17.902	0.229	0.144
-312.953	-150.139	-0.332	0.026
-311.939	-44.641	-0.206	0.103
-310.924	655.000	-0.096	-0.246
-309.910	185.413	-0.153	0.227
-308.895	-87.179	0.443	-0.135
-307.880	-200.000	0.005	0.096
-306.866	128.569	0.184	-0.234
-305.851	68.109	0.152	0.156
-304.837	-133.065	0.199	0.025
-303.822	-200.000	0.012	0.367
-302.807	84.079	-0.039	0.042
-301.793	201.709	-0.153	0.236
-300.778	800.000	-0.109	-0.301
-299.764	-93.686	0.124	0.034
-298.749	-16.381	0.185	-0.117
-297.735	-200.000	0.049	-0.229
-296.720	11.227	0.135	0.103
-295.705	-22.639	-0.082	-0.050
-294.691	-19.638	0.226	0.140
-293.676	800.000	0.116	-0.447
-292.662	-46.880	-0.213	0.104
-291.647	48.983	0.102	0.095
-290.632	600.034	0.058	-0.145
-289.618	-135.690	0.281	-0.033
-288.603	159.503	0.242	-0.336
-287.589	800.000	0.071	-0.208
-286.574	176.153	0.125	-0.182
-285.559	541.791	-0.166	0.395
-284.545	-200.000	-0.020	0.132
-283.530	-200.000	0.007	-0.152
-282.516	-67.806	0.198	-0.077
-281.501	800.000	-0.013	0.051
-280.486	800.000	0.032	-0.120
-279.472	-92.573	0.200	0.056
-278.457	-200.000	-0.029	0.159
-277.443	145.774	0.162	0.217
-276.428	208.569	0.108	-0.169
-275.413	357.296	0.120	-0.238
-274.399	259.122	0.175	0.301
-273.384	-12.783	-0.107	-0.069
-272.370	-144.402	-0.270	-0.025
-271.355	-131.322	0.317	-0.042
-270.340	-94.106	0.161	-0.044
-269.326	214.372	-0.117	-0.185
-268.311	800.000	-0.034	-0.119
-267.297	-200.000	0.009	-0.046
-266.282	-59.834	0.175	0.075
-265.267	746.224	0.080	0.214
-264.253	-107.326	0.063	-0.014
-263.238	-86.424	0.123	0.038
-262.224	644.800	-0.099	-0.253
-261.209	800.000	-0.061	0.205
-260.195	-200.000	0.124	0.563
-259.180	-84.504	-0.309	-0.097
-258.165	611.070	-0.034	0.084
-257.151	12.588	-0.286	-0.220
-256.136	-200.000	-0.115	-0.001
-255.122	7.355	0.413	0.308
-254.107	800.000	-0.025	0.087
-253.092	-200.000	-0.005	0.136
-252.078	274.573	0.030	-0.054
-251.063	-111.312	0.198	0.040
-250.049	-75.857	-0.115	0.041
-249.034	-200.000	-0.005	0.084
-248.019	-50.043	0.413	0.195
-247.005	-57.983	0.446	0.194
-245.990	230.968	-0.288	0.471
-244.976	39.601	0.056	0.050
-243.961	-152.989	-0.262	-0.018
-242.946	282.218	-0.154	-0.274
-241.932	566.049	-0.039	0.094
-240.917	-200.000	0.001	-0.003
-239.903	-200.000	-0.007	-0.061
-238.888	-200.000	0.006	0.299
-237.873	204.874	-0.093	0.144
-236.859	306.866	-0.076	0.140
-235.844	186.880	0.134	-0.199
-234.830	-6.540	-0.131	0.089
-233.815	174.078	0.048	-0.069
-232.800	-39.484	0.078	0.041
-231.786	-57.625	0.326	-0.142
-230.771	84.265	0.097	0.106
-229.757	-200.000	-0.003	-0.342
-228.742	38.202	0.128	-0.114
-227.727	-120.165	-0.382	0.065
-226.713	-200.000	0.033	-0.151
-225.698	-121.590	-0.363	0.060
-224.684	207.531	-0.112	-0.174
-223.669	360.333	-0.064	0.128
-222.655	298.305	-0.113	-0.207
-221.640	-152.527	0.313	0.022
-220.625	-69.464	0.180	0.069
-219.611	-46.225	-0.306	0.150
-218.596	-164.932	-0.100	0.004
-217.582	-144.386	-0.143	0.013
-216.567	18.477	-0.099	0.078
-215.552	-200.000	-0.034	-0.150
-214.538	379.822	-0.114	0.232
-213.523	800.000	0.156	-0.433
-212.509	-200.000	0.001	-0.147
-211.494	-200.000	0.000	-0.239
-210.479	-125.901	0.348	0.052
-209.465	-200.000	-0.020	-0.374
-208.450	202.206	0.185	-0.284
-207.436	-200.000	0.047	0.239
-206.421	800.000	-0.047	0.200
-205.406	-57.896	-0.061	-0.027
-204.392	41.997	0.197	-0.178
-203.377	-84.284	0.224	-0.071
-202.363	-111.410	-0.352	-0.071
-201.348	-45.602	-0.165	-0.081
-200.333	-152.635	0.437	0.031
-199.319	-200.000	0.009	-0.086
-198.304	-164.370	0.254	-0.012
-197.290	59.687	0.052	-0.051
-196.275	-200.000	-0.063	-0.390
-195.260	100.734	-0.151	0.175
-194.246	-59.220	0.075	0.032
-193.231	145.009	0.238	0.316
-192.217	202.458	0.137	-0.210
-191.202	-85.208	-0.055	-0.017
-190.187	8.444	-0.039	0.029
-189.173	800.000	0.081	0.253
-188.158	-49.674	-0.235	0.111
-187.144	75.140	-0.004	-0.004
-186.129	-95.268	-0.310	0.083
-185.114	-200.000	0.003	-0.143
-184.100	800.000	0.087	-0.361
-183.085	-180.718	0.108	-0.002
-182.071	161.500	-0.113	-0.157
-181.056	-23.696	-0.351	-0.209
-180.042	-200.000	-0.010	0.107
-179.027	-97.467	0.361	-0.093
-178.012	800.000	-0.106	0.311
-176.998	90.922	-0.111	-0.123
-175.983	-52.731	0.098	0.045
-174.969	404.519	0.058	0.121
-173.954	71.803	-0.113	0.117
-172.939	376.161	-0.057	-0.116
-171.925	-14.659	-0.106	-0.067
-170.910	-55.895	-0.139	-0.062
-169.896	-200.000	0.002	-0.126
-168.881	-39.997	0.130	0.068
-167.866	-37.492	-0.143	-0.076
-166.852	219.015	-0.202	-0.321
-165.837	-78.385	0.371	-0.126
-164.823	-12.596	0.272	0.176
-163.808	-38.835	0.147	-0.077
-162.793	-118.975	0.309	-0.054
-161.779	-200.000	-0.037	-0.399
-160.764	-200.000	0.006	-0.077
-159.750	-67.533	0.218	0.085
-158.735	-71.560	-0.323	0.120
-157.720	-82.304	-0.225	-0.073
-156.706	-105.878	-0.154	0.034
-155.691	534.909	-0.046	-0.108
-154.677	-120.144	-0.041	-0.007
-153.662	-82.651	0.296	-0.095
-152.647	21.390	-0.190	-0.154
-151.633	205.645	-0.136	-0.210
-150.618	11.849	-0.195	-0.149
-149.604	-200.000	-0.058	0.421
-148.589	-200.000	0.007	0.159
-147.574	-200.000	0.081	0.391
-146.560	-14.735	-0.242	0.154
-145.545	49.342	0.322	0.300
-144.531	-200.000	0.012	-0.098
-143.516	-115.155	-0.270	0.051
-142.502	279.348	-0.083	0.147
-141.487	-9.600	0.094	-0.062
-140.472	149.461	-0.098	-0.132
-139.458	-145.277	-0.169	0.015
-138.443	-126.244	-0.330	0.049
-137.429	-200.000	0.000	-0.209
-136.414	-96.638	0.165	-0.043
-135.399	800.000	-0.032	0.098
-134.385	800.000	0.078	-0.221
-133.370	-175.079	-0.241	-0.007
-132.356	378.257	-0.066	0.134
-131.341	-45.773	-0.046	-0.023
-130.326	-31.885	0.044	0.024
-129.312	-22.803	-0.258	-0.155
-128.297	15.144	0.196	-0.152
-127.283	35.838	0.287	-0.250
-126.268	-134.464	-0.268	-0.032
-125.253	111.652	0.113	-0.135
-124.239	75.069	0.133	-0.139
-123.224	187.787	-0.133	0.197
-122.210	263.707	-0.048	0.083
