DTS Sentinel unit serial number:	SN413079Multiplexer serial number:	ORYXHardware model number:	OX4-SRSoftware version number:	ORYX F/W v4.00 Oryx Data Collector v3.7.2.0data status	okinstallation	princeton_trtdifferential loss correction	single-endedforward channel	channel 4reverse channel	N/Adate	2019/09/14time	01:13:35forward acquisition time	60.00reverse acquisition time	0.00gamma	496.2192k internal	0.2323k external	0.2323temperature offset calibration	1.0130default loss term (dB/km)	0.3790temperature slope calibration	1.0000multiplexer offset coefficient	1.0000multiplexer slope coefficient	1.0000fibre end	0.00T internal ref (°C)	26.37T ext. ref 1 (°C)	3.19T ext. ref 2 (°C)	21.39length (m)	temperature (°C)	Stokes	anti-Stokes-747.200	2.939	0.149	-0.109
-746.185	-34.166	-0.145	0.080
-745.171	-62.381	0.080	-0.033
-744.156	-146.227	-0.159	-0.014
-743.142	2.790	0.402	0.295
-742.127	34.836	0.138	-0.122
-741.112	201.549	-0.091	-0.142
-740.098	-92.469	-0.212	0.060
-739.083	-77.251	0.255	-0.090
-738.069	-200.000	-0.029	0.349
-737.054	-109.478	-0.126	0.027
-736.039	-130.477	-0.216	-0.029
-735.025	800.000	-0.079	0.232
-734.010	115.161	-0.180	-0.221
-732.996	-25.548	-0.017	-0.010
-731.981	27.526	-0.265	0.225
-730.966	-200.000	-0.026	-0.317
-729.952	800.000	0.048	-0.192
-728.937	63.811	0.097	-0.098
-727.923	-200.000	-0.027	0.260
-726.908	-55.904	-0.232	-0.105
-725.894	-21.843	-0.100	-0.061
-724.879	75.618	-0.115	0.122
-723.864	-200.000	0.031	0.286
-722.850	-95.670	0.162	-0.044
-721.835	-156.345	-0.608	0.038
-720.821	154.114	0.213	-0.294
-719.806	-24.045	-0.053	0.032
-718.791	213.811	0.149	-0.238
-717.777	92.892	0.124	-0.142
-716.762	800.000	-0.064	-0.203
-715.748	-59.862	-0.094	-0.041
-714.733	-200.000	-0.027	-0.192
-713.718	49.553	-0.106	-0.101
-712.704	337.845	-0.048	-0.095
-711.689	-200.000	0.027	-0.133
-710.675	-200.000	-0.025	0.274
-709.660	-81.470	0.019	0.006
-708.645	-144.722	-0.229	-0.021
-707.631	-126.193	0.142	0.021
-706.616	-200.000	-0.030	0.321
-705.602	272.929	0.076	-0.135
-704.587	-31.033	-0.117	0.066
-703.572	-154.986	0.081	-0.005
-702.558	-87.872	-0.440	-0.133
-701.543	301.422	0.074	-0.139
-700.529	-92.038	0.098	0.028
-699.514	49.291	-0.271	-0.257
-698.499	-123.831	0.269	-0.043
-697.485	29.196	0.184	-0.158
-696.470	527.511	0.063	0.149
-695.456	461.309	0.177	-0.398
-694.441	758.770	-0.100	-0.274
-693.426	-0.235	0.162	-0.116
-692.412	-116.555	-0.331	-0.061
-691.397	-86.214	-0.344	-0.107
-690.383	75.696	0.116	0.124
-689.368	104.915	-0.283	-0.336
-688.354	-112.543	0.223	-0.045
-687.339	-51.415	0.151	-0.071
-686.324	90.636	-0.122	0.138
-685.310	-200.000	-0.012	0.088
-684.295	-125.277	-0.305	0.047
-683.281	-88.393	0.199	-0.060
-682.266	80.356	0.070	0.076
-681.251	-200.000	-0.004	-0.061
-680.237	-25.696	0.161	0.096
-679.222	-20.297	-0.347	-0.215
-678.208	22.707	0.046	-0.038
-677.193	203.939	-0.192	-0.300
-676.178	485.939	-0.148	0.339
-675.164	-118.304	-0.355	0.064
-674.149	800.000	0.053	-0.181
-673.135	-200.000	-0.024	-0.424
-672.120	176.546	-0.235	-0.344
-671.105	570.856	-0.070	0.171
-670.091	-190.451	0.091	0.001
-669.076	-200.000	-0.031	-0.221
-668.062	-30.371	-0.142	0.081
-667.047	-200.000	0.015	-0.121
-666.032	-200.000	0.061	-0.466
-665.018	-200.000	-0.032	-0.233
-664.003	-200.000	0.007	-0.090
-662.989	800.000	0.029	-0.082
-661.974	-36.397	-0.043	0.023
-660.959	-200.000	-0.042	0.220
-659.945	-66.734	-0.342	-0.136
-658.930	371.462	-0.150	-0.306
-657.916	183.908	0.148	0.221
-656.901	-73.295	-0.272	-0.100
-655.886	-13.840	0.211	-0.137
-654.872	-97.630	-0.159	-0.041
-653.857	-58.659	0.075	0.033
-652.843	-2.591	0.161	-0.113
-651.828	-149.537	-0.181	-0.014
-650.814	-109.264	-0.294	-0.063
-649.799	-200.000	0.021	0.096
-648.784	-98.944	-0.093	0.024
-647.770	-200.000	-0.023	-0.230
-646.755	-45.003	-0.200	0.100
-645.741	43.426	0.310	0.285
-644.726	-186.022	-0.358	0.005
-643.711	-36.103	0.093	-0.051
-642.697	70.286	0.194	0.201
-641.682	143.302	0.175	0.235
-640.668	642.813	-0.151	0.388
-639.653	-146.029	-0.265	0.024
-638.638	-200.000	0.038	-0.371
-637.624	41.290	-0.078	-0.071
-636.609	-200.000	0.060	-0.345
-635.595	434.213	-0.035	0.076
-634.580	75.238	-0.175	-0.185
-633.565	-200.000	0.019	-0.266
-632.551	254.476	0.059	0.102
-631.536	14.792	0.207	-0.163
-630.522	800.000	-0.043	-0.136
-629.507	23.691	0.242	-0.200
-628.492	-19.151	0.052	0.032
-627.478	-200.000	0.030	-0.342
-626.463	-124.934	-0.189	0.029
-625.449	-46.049	-0.118	0.059
-624.434	-67.235	-0.069	0.027
-623.419	-200.000	0.029	0.229
-622.405	136.860	-0.175	-0.229
-621.390	-200.000	-0.029	0.148
-620.376	-112.670	0.075	0.015
-619.361	-187.027	-0.153	-0.002
-618.346	800.000	-0.039	0.146
-617.332	-59.602	-0.451	-0.194
-616.317	119.434	-0.108	0.134
-615.303	-117.571	0.118	0.021
-614.288	-117.772	0.439	-0.079
-613.273	-44.723	-0.446	-0.224
-612.259	-133.116	-0.504	0.064
-611.244	48.811	0.145	0.137
-610.230	-200.000	-0.041	0.231
-609.215	-63.720	-0.205	0.085
-608.201	-98.219	0.042	0.011
-607.186	-111.414	0.058	-0.012
-606.171	-200.000	0.026	0.177
-605.157	800.000	-0.098	0.337
-604.142	303.978	-0.066	-0.123
-603.128	-11.442	-0.333	-0.220
-602.113	-80.701	-0.145	0.048
-601.098	730.888	0.057	0.153
-600.084	189.961	-0.146	-0.220
-599.069	-119.382	0.177	0.031
-598.055	-14.591	0.464	-0.300
-597.040	-60.678	0.156	0.067
-596.025	-70.585	-0.163	0.062
-595.011	28.061	-0.136	0.115
-593.996	800.000	0.099	0.291
-592.982	-72.001	-0.139	-0.052
-591.967	-200.000	-0.051	0.320
-590.952	547.090	-0.030	-0.072
-589.938	-19.599	-0.178	-0.110
-588.923	800.000	0.057	-0.246
-587.909	180.527	0.166	-0.244
-586.894	-182.877	0.010	-0.000
-585.879	102.692	0.049	-0.058
-584.865	800.000	0.042	-0.176
-583.850	47.406	-0.070	0.066
-582.836	-87.041	-0.182	0.055
-581.821	-83.846	0.252	0.081
-580.806	-94.190	-0.240	0.066
-579.792	47.423	-0.172	-0.160
-578.777	-20.810	0.256	0.157
-577.763	256.753	0.064	0.110
-576.748	-200.000	0.002	-0.125
-575.733	-5.998	-0.182	-0.125
-574.719	426.640	-0.084	-0.182
-573.704	-110.378	-0.078	-0.016
-572.690	-112.061	-0.199	0.040
-571.675	-78.123	0.090	0.031
-570.661	14.073	-0.096	0.075
-569.646	106.379	0.310	-0.368
-568.631	297.218	0.139	-0.256
-567.617	122.175	0.107	-0.135
-566.602	-158.574	-0.192	0.011
-565.588	142.598	-0.124	-0.165
-564.573	91.849	-0.201	0.227
-563.558	-18.139	-0.158	-0.099
-562.544	-11.839	-0.304	0.200
-561.529	800.000	0.083	0.361
-560.515	29.031	-0.076	-0.065
-559.500	-105.772	0.201	0.046
-558.485	-116.270	0.158	-0.029
-557.471	-85.065	0.053	-0.017
-556.456	-200.000	-0.041	-0.226
-555.442	-200.000	0.007	-0.270
-554.427	-200.000	0.036	-0.256
-553.412	-58.812	0.373	-0.162
-552.398	-123.777	-0.203	0.032
-551.383	-0.686	0.165	0.117
-550.369	-66.512	0.040	-0.016
-549.354	5.946	0.264	-0.196
-548.339	-200.000	-0.056	-0.396
-547.325	231.637	-0.093	-0.153
-546.310	-200.000	-0.030	-0.157
-545.296	800.000	-0.025	0.092
-544.281	-121.899	0.364	-0.060
-543.266	314.629	-0.051	-0.095
-542.252	-50.793	-0.202	0.095
-541.237	800.000	-0.138	0.470
-540.223	-200.000	-0.019	-0.147
-539.208	-200.000	-0.028	-0.144
-538.193	-103.026	0.172	-0.041
-537.179	0.019	0.134	0.095
-536.164	112.198	0.049	0.059
-535.150	-31.822	-0.245	-0.138
-534.135	-200.000	0.027	0.219
-533.121	-14.033	-0.181	-0.117
-532.106	-184.154	-0.118	-0.002
-531.091	-75.203	0.234	-0.084
-530.077	359.034	-0.154	-0.308
-529.062	71.972	-0.094	0.097
-528.048	-200.000	-0.048	-0.217
-527.033	-0.076	-0.161	0.115
-526.018	-103.071	-0.255	0.060
-525.004	193.853	0.040	-0.061
-523.989	-15.017	0.425	0.273
-522.975	-28.256	-0.341	-0.197
-521.960	-43.023	0.138	0.070
-520.945	5.333	0.078	-0.058
-519.931	165.367	0.120	0.169
-518.916	-21.982	-0.100	-0.061
-517.902	357.287	0.154	-0.308
-516.887	379.037	0.071	0.145
-515.872	178.034	-0.134	0.195
-514.858	434.509	0.052	-0.113
-513.843	-86.675	0.089	-0.027
-512.829	-172.338	0.108	-0.003
-511.814	800.000	-0.065	0.261
-510.799	-200.000	-0.028	-0.386
-509.785	100.601	0.164	0.191
-508.770	20.643	0.070	-0.056
-507.756	-31.483	0.276	0.155
-506.741	61.013	0.020	0.020
-505.726	61.085	0.096	0.096
-504.712	-200.000	-0.050	0.270
-503.697	43.027	-0.147	-0.134
-502.683	-200.000	-0.002	0.065
-501.668	-187.031	0.256	0.004
-500.653	107.946	0.226	0.269
-499.639	-138.642	0.047	0.005
-498.624	-46.413	-0.151	0.074
-497.610	-110.205	0.025	-0.005
-496.595	140.196	-0.064	0.084
-495.581	-200.000	-0.022	0.201
-494.566	-200.000	-0.011	0.093
-493.551	453.040	0.097	0.214
-492.537	-88.968	-0.205	0.061
-491.522	211.346	0.066	-0.104
-490.508	-121.981	-0.178	0.029
-489.493	-78.135	0.080	0.027
-488.478	339.456	0.129	0.252
-487.464	41.801	0.284	0.258
-486.449	-116.917	-0.208	0.038
-485.435	639.683	0.065	0.165
-484.420	147.230	0.085	0.114
-483.405	-47.362	-0.106	0.051
-482.391	-74.286	0.112	-0.041
-481.376	52.040	0.305	0.291
-480.362	-48.815	-0.217	0.104
-479.347	334.012	-0.113	-0.219
-478.332	284.355	0.067	0.121
-477.318	2.278	-0.040	0.029
-476.303	-63.698	0.068	-0.028
-475.289	-168.638	-0.193	-0.007
-474.274	-7.048	0.164	-0.111
-473.259	62.313	-0.178	0.177
-472.245	12.005	-0.134	0.103
-471.230	129.308	-0.119	-0.152
-470.216	359.750	-0.102	0.203
-469.201	60.493	-0.153	0.152
-468.186	-138.456	-0.095	-0.010
-467.172	-96.146	0.136	0.036
-466.157	800.000	-0.065	0.205
-465.143	-54.038	-0.371	-0.169
-464.128	246.936	0.174	-0.294
-463.113	-200.000	0.004	-0.112
-462.099	75.583	-0.009	0.010
-461.084	800.000	-0.082	0.246
-460.070	-92.982	0.046	0.013
-459.055	-93.501	-0.155	0.043
-458.040	192.008	0.072	0.108
-457.026	47.799	-0.277	-0.259
-456.011	17.837	0.114	-0.091
-454.997	-200.000	0.028	0.296
-453.982	447.617	-0.215	-0.472
-452.968	-200.000	-0.020	-0.162
-451.953	51.266	-0.261	-0.247
-450.938	382.473	0.067	0.137
-449.924	65.672	0.279	0.282
-448.909	11.856	-0.025	0.019
-447.895	-41.193	0.068	0.035
-446.880	379.548	0.119	-0.244
-445.865	60.956	0.374	-0.371
-444.851	-136.027	0.291	0.034
-443.836	-200.000	-0.016	0.090
-442.822	54.910	-0.106	0.102
-441.807	302.033	-0.058	-0.107
-440.792	-78.126	0.345	-0.119
-439.778	-2.322	0.043	-0.030
-438.763	198.273	0.175	-0.267
-437.749	-94.023	0.212	-0.058
-436.734	-104.321	-0.149	0.034
-435.719	-45.251	-0.179	0.089
-434.705	332.755	-0.040	-0.077
-433.690	185.398	0.030	0.044
-432.676	-33.747	0.333	0.183
-431.661	33.054	0.124	0.107
-430.646	47.860	0.222	0.207
-429.632	-7.424	-0.094	0.063
-428.617	19.494	-0.266	-0.214
-427.603	133.616	-0.189	-0.244
-426.588	-89.169	0.082	0.024
-425.573	231.729	-0.012	-0.020
-424.559	-130.307	0.041	-0.006
-423.544	-152.276	0.062	-0.004
-422.530	-72.394	-0.121	0.045
-421.515	-27.284	0.114	0.066
-420.500	-25.566	0.367	-0.216
-419.486	-119.036	0.166	-0.029
-418.471	24.092	-0.061	0.050
-417.457	218.804	-0.040	-0.064
-416.442	-200.000	0.046	-0.271
-415.428	-156.047	0.252	-0.016
-414.413	178.205	0.093	-0.136
-413.398	-119.544	-0.266	0.046
-412.384	-35.231	-0.146	-0.079
-411.369	-137.947	0.202	0.023
-410.355	14.188	-0.147	0.114
-409.340	347.079	-0.150	-0.295
-408.325	130.043	0.119	-0.151
-407.311	-50.266	0.142	-0.067
-406.296	-121.652	0.162	-0.027
-405.282	-87.407	-0.163	0.049
-404.267	84.158	0.212	-0.231
-403.252	-119.129	0.213	-0.037
-402.238	-160.653	-0.328	-0.017
-401.223	-115.843	0.274	-0.051
-400.209	453.904	0.034	-0.075
-399.194	163.676	-0.188	-0.264
-398.179	800.000	0.083	-0.283
-397.165	-73.152	-0.112	0.041
-396.150	-23.222	0.314	0.188
-395.136	120.502	0.145	0.180
-394.121	-171.020	0.349	0.012
-393.106	5.749	-0.171	-0.126
-392.092	-118.003	-0.051	0.009
-391.077	800.000	0.123	0.428
-390.063	-200.000	-0.039	-0.177
-389.048	-175.221	0.252	0.007
-388.033	-200.000	-0.072	-0.418
-387.019	241.591	-0.197	-0.327
-386.004	-200.000	-0.065	0.297
-384.990	82.350	0.063	0.068
-383.975	-200.000	0.033	-0.153
-382.960	-158.696	0.214	-0.012
-381.946	141.435	-0.086	-0.113
-380.931	-52.549	0.321	-0.148
-379.917	-199.861	0.289	0.001
-378.902	-18.580	-0.166	-0.103
-377.888	800.000	0.052	-0.189
-376.873	27.585	-0.284	-0.238
-375.858	174.017	0.166	-0.238
-374.844	-200.000	0.002	-0.242
-373.829	800.000	0.038	0.159
-372.815	-200.000	0.034	0.415
-371.800	120.100	-0.182	-0.224
-370.785	-25.209	0.246	-0.145
-369.771	-79.154	0.168	0.057
-368.756	-82.292	0.187	-0.060
-367.742	-4.898	0.223	-0.153
-366.727	95.484	0.117	0.133
-365.712	-104.605	0.254	0.058
-364.698	173.057	0.110	-0.158
-363.683	-200.000	-0.012	0.058
-362.669	-15.765	-0.162	-0.103
-361.654	531.477	-0.011	0.025
-360.639	36.034	-0.191	-0.167
-359.625	-200.000	-0.035	-0.462
-358.610	800.000	-0.081	-0.266
-357.596	33.086	0.141	0.122
-356.581	-162.562	0.152	-0.007
-355.566	-27.171	0.198	0.115
-354.552	-200.000	-0.007	-0.064
-353.537	-200.000	0.012	0.241
-352.523	565.065	0.027	-0.065
-351.508	-103.020	-0.109	-0.026
-350.493	-83.970	-0.146	-0.046
-349.479	317.178	0.206	0.387
-348.464	443.970	-0.097	0.211
-347.450	-200.000	0.049	-0.268
-346.435	-76.357	-0.100	-0.035
-345.420	800.000	-0.087	-0.357
-344.406	51.597	-0.048	0.045
-343.391	222.357	-0.105	-0.168
-342.377	-144.365	-0.235	-0.022
-341.362	-200.000	0.003	-0.190
-340.348	-123.813	0.165	0.026
-339.333	-25.694	-0.091	0.053
-338.318	-54.779	0.277	-0.124
-337.304	-200.000	-0.056	-0.305
-336.289	262.623	-0.046	0.080
-335.275	-26.740	0.218	0.127
-334.260	281.150	-0.244	0.434
-333.245	-23.833	-0.097	-0.057
-332.231	636.153	-0.140	-0.353
-331.216	108.767	-0.164	-0.195
-330.202	261.494	0.061	0.105
-329.187	800.000	0.050	0.144
-328.172	279.116	-0.032	0.057
-327.158	-29.522	0.198	-0.113
-326.143	19.631	-0.164	0.131
-325.129	-81.695	-0.215	-0.070
-324.114	-140.951	0.531	0.054
-323.099	-115.690	0.256	0.048
-322.085	-200.000	0.015	-0.306
-321.070	-100.911	-0.106	0.026
-320.056	103.708	0.101	0.118
-319.041	800.000	-0.077	0.211
-318.026	800.000	0.008	-0.026
-317.012	-61.709	-0.180	0.075
-315.997	220.671	0.095	0.152
-314.983	58.651	0.059	-0.057
-313.968	55.096	-0.207	0.199
-312.953	-200.000	0.037	0.234
-311.939	-36.914	-0.149	-0.079
-310.924	34.070	-0.027	0.023
-309.910	730.286	-0.042	0.112
-308.895	0.496	-0.187	0.132
-307.880	80.429	0.099	0.106
-306.866	317.481	-0.113	-0.213
-305.851	298.824	0.137	0.250
-304.837	-200.000	0.005	-0.215
-303.822	-153.827	0.067	0.005
-302.807	31.791	0.237	0.202
-301.793	-96.544	0.110	0.029
-300.778	-87.610	0.527	0.158
-299.764	-94.494	-0.310	-0.084
-298.749	195.858	0.096	-0.144
-297.735	800.000	0.035	0.110
-296.720	326.786	-0.098	0.186
-295.705	-200.000	0.013	-0.265
-294.691	-200.000	0.027	-0.249
-293.676	-5.492	-0.106	0.072
-292.662	800.000	-0.058	-0.200
-291.647	-49.885	-0.145	-0.068
-290.632	-63.870	-0.436	-0.177
-289.618	-50.641	-0.268	0.125
-288.603	-99.380	-0.268	0.067
-287.589	171.715	0.055	-0.079
-286.574	-200.000	0.003	0.111
-285.559	-200.000	-0.009	0.108
-284.545	221.170	-0.151	-0.240
-283.530	381.707	0.062	0.126
-282.516	-49.536	0.192	-0.091
-281.501	246.801	0.075	0.125
-280.486	212.113	0.107	-0.167
-279.472	-93.295	-0.320	-0.088
-278.457	-63.255	0.223	-0.091
-277.443	-117.777	0.217	-0.039
-276.428	665.236	0.110	0.281
-275.413	800.000	-0.065	0.250
-274.399	-91.916	0.348	-0.098
-273.384	-200.000	-0.020	0.154
-272.370	-31.448	-0.196	-0.109
-271.355	276.703	-0.072	0.126
-270.340	315.433	-0.115	0.214
-269.326	-97.394	-0.470	0.121
-268.311	234.289	0.056	0.091
-267.297	636.550	-0.026	-0.065
-266.282	-164.700	0.102	0.005
-265.267	-64.295	0.144	-0.058
-264.253	121.807	0.029	0.035
-263.238	800.000	-0.058	-0.162
-262.224	800.000	-0.021	0.058
-261.209	118.707	0.089	-0.109
-260.195	-200.000	0.019	0.172
-259.180	5.193	0.159	0.116
-258.165	800.000	0.079	0.293
-257.151	-200.000	-0.028	0.207
-256.136	298.874	0.068	-0.124
-255.122	800.000	-0.073	0.210
-254.107	-124.109	-0.389	0.061
-253.092	733.197	-0.183	0.486
-252.078	-200.000	0.045	0.317
-251.063	800.000	-0.063	-0.202
-250.049	178.556	-0.140	0.202
-249.034	-81.798	0.027	-0.009
-248.019	-79.002	-0.308	-0.104
-247.005	-96.406	0.127	-0.033
-245.990	76.198	-0.075	-0.078
-244.976	741.608	-0.126	-0.336
-243.961	-26.888	-0.153	0.088
-242.946	10.210	-0.075	-0.057
-241.932	21.331	-0.190	-0.153
-240.917	800.000	0.068	0.266
-239.903	800.000	-0.020	0.061
-238.888	800.000	0.091	0.379
-237.873	-200.000	-0.035	0.243
-236.859	-120.092	0.070	-0.012
-235.844	305.154	0.031	-0.058
-234.830	405.090	-0.128	0.268
-233.815	-200.000	-0.043	0.283
-232.800	-83.094	0.150	0.048
-231.786	800.000	-0.103	0.415
-230.771	151.164	-0.147	0.199
-229.757	-200.000	-0.019	-0.110
-228.742	2.497	-0.400	-0.287
-227.727	-111.815	-0.094	-0.019
-226.713	-200.000	0.059	-0.340
-225.698	-72.202	-0.022	-0.008
-224.684	205.608	-0.089	0.137
-223.669	65.854	0.078	0.078
-222.655	-3.673	0.272	0.187
-221.640	-36.151	-0.258	-0.138
-220.625	-92.724	-0.261	0.072
-219.611	-200.000	-0.010	-0.196
-218.596	-97.726	-0.078	-0.020
-217.582	-3.881	-0.115	-0.079
-216.567	76.894	0.197	-0.207
-215.552	-200.000	0.004	0.018
-214.538	-102.096	-0.200	0.048
-213.523	-200.000	0.045	-0.301
-212.509	-200.000	-0.060	-0.292
-211.494	-200.000	0.010	-0.300
-210.479	279.026	-0.106	0.188
-209.465	-44.806	-0.309	-0.152
-208.450	-200.000	-0.005	-0.264
-207.436	-13.944	-0.021	-0.014
-206.421	-78.811	-0.113	0.038
-205.406	-41.232	-0.252	0.128
-204.392	-200.000	-0.014	-0.122
-203.377	-142.250	0.334	-0.033
-202.363	-24.928	-0.248	0.146
-201.348	-41.929	-0.392	0.199
-200.333	565.067	0.090	-0.215
-199.319	236.874	-0.113	-0.185
-198.304	-193.675	0.065	0.001
-197.290	-200.000	0.052	-0.342
-196.275	-200.000	-0.041	0.197
-195.260	-200.000	0.062	0.475
-194.246	-151.706	0.095	0.007
-193.231	800.000	-0.126	0.394
-192.217	-36.854	0.044	-0.023
-191.202	25.744	0.202	0.166
-190.187	800.000	0.028	0.091
-189.173	-86.846	0.116	0.035
-188.158	111.754	-0.132	-0.158
-187.144	800.000	-0.057	0.166
-186.129	-99.907	0.088	-0.022
-185.114	77.707	-0.315	0.331
-184.100	52.806	0.156	-0.147
-183.085	211.944	0.066	0.103
-182.071	445.262	0.047	-0.103
-181.056	365.289	-0.142	0.283
-180.042	-94.492	-0.182	-0.049
-179.027	424.018	0.023	0.050
-178.012	-165.272	-0.124	-0.005
-176.998	-81.134	0.206	-0.067
-175.983	-81.330	-0.175	0.057
-174.969	34.123	-0.176	-0.152
-173.954	-60.889	0.213	-0.089
-172.939	-127.373	-0.356	0.051
-171.925	-49.750	0.303	0.142
-170.910	800.000	0.042	0.148
-169.896	7.063	-0.076	0.056
-168.881	84.159	0.052	0.056
-167.866	292.248	-0.177	0.318
-166.852	-97.255	0.417	0.107
-165.837	44.294	0.103	0.093
-164.823	-200.000	-0.026	-0.271
-163.808	-90.418	0.302	-0.086
-162.793	663.623	0.163	0.414
-161.779	-87.235	0.283	0.085
-160.764	-50.728	0.341	-0.158
-159.750	-200.000	-0.039	-0.290
-158.735	-200.000	-0.006	-0.106
-157.720	-176.271	0.171	0.004
-156.706	-200.000	0.037	0.199
-155.691	-49.522	0.365	-0.172
-154.677	97.875	-0.339	0.385
-153.662	-78.917	0.061	-0.020
-152.647	-81.694	0.211	0.068
-151.633	90.170	0.381	0.421
-150.618	800.000	0.047	-0.149
-149.604	47.575	0.365	-0.336
-148.589	-200.000	0.096	0.000
-147.574	56.411	-0.141	-0.136
-146.560	-200.000	-0.017	0.112
-145.545	-168.579	-0.080	-0.003
-144.531	54.022	0.036	0.034
-143.516	-200.000	0.039	-0.202
-142.502	800.000	-0.061	0.199
-141.487	-127.154	0.336	0.048
-140.472	-14.058	-0.197	0.125
-139.458	-200.000	0.007	0.043
-138.443	471.227	0.104	-0.231
-137.429	771.391	0.058	0.157
-136.414	-116.800	0.361	-0.065
-135.399	-40.533	0.143	0.073
-134.385	140.806	0.040	0.051
-133.370	-72.103	-0.278	0.102
-132.356	82.001	-0.100	0.107
-131.341	57.960	0.270	-0.261
-130.326	-94.596	0.079	-0.021
-129.312	-200.000	0.006	-0.149
-128.297	800.000	0.087	-0.363
-127.283	409.925	-0.113	-0.236
-126.268	-63.792	0.288	0.116
-125.253	-115.485	-0.551	0.102
-124.239	271.089	-0.171	-0.297
-123.224	300.274	-0.098	0.179
-122.210	-62.830	0.147	0.060
-121.195	-12.129	0.203	0.131
