DTS Sentinel unit serial number:	SN413079Multiplexer serial number:	ORYXHardware model number:	OX4-SRSoftware version number:	ORYX F/W v4.00 Oryx Data Collector v3.7.2.0data status	okinstallation	princeton_trtdifferential loss correction	single-endedforward channel	channel 4reverse channel	N/Adate	2019/09/18time	20:37:35forward acquisition time	60.00reverse acquisition time	0.00gamma	496.2192k internal	0.2325k external	0.2325temperature offset calibration	1.0039default loss term (dB/km)	0.3790temperature slope calibration	1.0000multiplexer offset coefficient	1.0000multiplexer slope coefficient	1.0000fibre end	0.00T internal ref (°C)	27.81T ext. ref 1 (°C)	1.02T ext. ref 2 (°C)	18.81length (m)	temperature (°C)	Stokes	anti-Stokes-747.200	93.061	0.320	0.366
-746.185	89.644	-0.252	0.283
-745.171	-131.204	0.057	0.008
-744.156	-124.350	0.036	-0.006
-743.142	46.357	0.243	0.227
-742.127	466.857	0.113	0.256
-741.112	-159.591	-0.229	-0.013
-740.098	-0.922	0.237	-0.169
-739.083	668.262	-0.077	-0.202
-738.069	-113.021	-0.183	0.036
-737.054	800.000	0.044	-0.133
-736.039	-7.418	-0.340	0.232
-735.025	800.000	0.081	0.256
-734.010	163.370	-0.083	0.118
-732.996	-165.227	-0.350	0.016
-731.981	-31.361	-0.096	-0.055
-730.966	85.366	-0.279	-0.308
-729.952	800.000	0.030	0.085
-728.937	-52.159	-0.168	-0.079
-727.923	-36.348	0.260	-0.141
-726.908	368.457	0.099	-0.203
-725.894	800.000	-0.100	-0.314
-724.879	-200.000	-0.050	0.221
-723.864	-18.349	0.243	-0.153
-722.850	297.480	0.173	0.321
-721.835	237.223	-0.104	0.173
-720.821	800.000	-0.093	-0.329
-719.806	-78.935	0.401	-0.138
-718.791	72.306	0.206	-0.216
-717.777	800.000	-0.077	-0.282
-716.762	-200.000	0.033	0.453
-715.748	-200.000	0.001	-0.190
-714.733	18.767	-0.301	-0.242
-713.718	-118.378	-0.086	0.015
-712.704	-73.770	0.228	0.084
-711.689	800.000	-0.063	-0.206
-710.675	-200.000	-0.011	0.256
-709.660	-79.112	0.270	-0.092
-708.645	-89.558	0.192	0.057
-707.631	-200.000	0.019	0.083
-706.616	-200.000	-0.028	-0.151
-705.602	800.000	-0.183	-0.534
-704.587	9.488	-0.142	0.108
-703.572	-146.596	-0.220	-0.019
-702.558	-200.000	-0.012	-0.219
-701.543	766.649	0.081	0.222
-700.529	-27.534	0.382	0.224
-699.514	-85.415	-0.256	0.080
-698.499	15.932	0.088	-0.070
-697.485	-94.735	-0.083	0.023
-696.470	-200.000	-0.083	-0.378
-695.456	800.000	-0.023	0.068
-694.441	-38.499	0.073	0.039
-693.426	-186.140	-0.044	-0.001
-692.412	-200.000	0.014	-0.122
-691.397	-200.000	0.035	-0.229
-690.383	-172.819	-0.089	0.003
-689.368	737.285	-0.102	0.276
-688.354	159.084	0.251	0.351
-687.339	231.760	-0.330	-0.545
-686.324	-179.346	0.335	-0.007
-685.310	-62.372	0.056	0.023
-684.295	-64.554	0.271	0.111
-683.281	92.893	0.093	-0.105
-682.266	-116.346	-0.166	0.031
-681.251	-118.612	-0.539	-0.096
-680.237	800.000	-0.096	-0.295
-679.222	-26.946	-0.238	-0.140
-678.208	-47.013	-0.326	-0.160
-677.193	800.000	-0.163	0.511
-676.178	-33.249	-0.168	0.094
-675.164	225.788	0.032	-0.052
-674.149	-150.029	0.190	-0.015
-673.135	-200.000	0.044	-0.316
-672.120	-200.000	0.013	-0.159
-671.105	-49.870	-0.056	0.027
-670.091	613.174	0.167	-0.420
-669.076	89.094	0.074	0.083
-668.062	89.834	-0.241	0.271
-667.047	171.788	0.228	0.330
-666.032	138.646	-0.169	0.223
-665.018	351.081	-0.135	-0.269
-664.003	-18.383	0.234	-0.147
-662.989	-104.168	-0.159	-0.037
-661.974	203.549	-0.141	-0.219
-660.959	-51.890	0.187	-0.088
-659.945	90.188	0.258	-0.290
-658.930	-200.000	0.047	-0.412
-657.916	-151.569	-0.281	0.021
-656.901	112.275	-0.070	0.085
-655.886	-89.702	-0.290	-0.085
-654.872	-200.000	-0.019	0.096
-653.857	800.000	-0.085	-0.276
-652.843	36.659	-0.261	0.232
-651.828	-200.000	-0.010	0.405
-650.814	103.066	0.067	-0.079
-649.799	-200.000	-0.024	0.173
-648.784	32.355	0.110	0.096
-647.770	-200.000	-0.014	-0.206
-646.755	7.292	0.131	-0.098
-645.741	320.115	0.178	0.340
-644.726	-109.643	0.183	-0.039
-643.711	-200.000	-0.045	0.225
-642.697	17.608	-0.111	-0.089
-641.682	-200.000	-0.016	-0.160
-640.668	-98.398	0.083	0.021
-639.653	176.494	0.099	-0.144
-638.638	-184.001	0.129	0.002
-637.624	416.184	-0.028	-0.059
-636.609	163.402	-0.137	-0.194
-635.595	-110.847	-0.088	-0.018
-634.580	-132.020	0.246	0.032
-633.565	15.948	-0.166	-0.132
-632.551	179.612	0.029	0.043
-631.536	8.158	-0.218	-0.164
-630.522	-46.418	-0.165	0.081
-629.507	-179.854	-0.104	-0.002
-628.492	357.145	-0.063	-0.126
-627.478	173.099	0.183	-0.265
-626.463	-95.469	0.368	0.099
-625.449	-162.967	0.083	-0.004
-624.434	800.000	0.024	0.074
-623.419	-124.183	-0.392	0.062
-622.405	66.794	-0.023	0.024
-621.390	-6.007	0.197	0.135
-620.376	1.621	0.078	0.057
-619.361	7.022	-0.161	0.121
-618.346	724.453	0.076	0.203
-617.332	19.425	0.232	-0.188
-616.317	261.936	0.149	0.259
-615.303	154.517	0.112	-0.154
-614.288	293.351	-0.063	-0.116
-613.273	-200.000	-0.011	-0.168
-612.259	271.131	0.145	-0.256
-611.244	128.582	-0.213	-0.272
-610.230	179.871	-0.090	-0.132
-609.215	71.385	-0.173	0.180
-608.201	800.000	-0.105	-0.300
-607.186	-97.323	0.292	0.076
-606.171	744.525	-0.054	0.147
-605.157	800.000	-0.085	0.263
-604.142	171.201	0.122	-0.175
-603.128	-200.000	0.003	-0.092
-602.113	-17.522	0.188	-0.119
-601.098	-97.389	-0.196	0.051
-600.084	15.957	-0.025	-0.020
-599.069	136.940	-0.054	0.071
-598.055	-113.213	0.141	-0.028
-597.040	8.667	-0.069	0.052
-596.025	119.701	-0.207	-0.257
-595.011	-75.814	0.113	-0.040
-593.996	-11.058	-0.232	-0.153
-592.982	800.000	0.115	0.332
-591.967	-39.285	-0.081	0.043
-590.952	-63.929	-0.185	0.076
-589.938	535.253	0.050	0.119
-588.923	62.496	0.202	-0.202
-587.909	-75.494	-0.250	-0.089
-586.894	-200.000	0.047	0.249
-585.879	-77.840	0.200	-0.069
-584.865	-166.575	0.103	0.004
-583.850	402.719	0.012	0.026
-582.836	800.000	-0.018	-0.070
-581.821	-46.860	-0.033	-0.016
-580.806	-58.589	0.136	-0.059
-579.792	-164.224	-0.288	0.013
-578.777	713.901	-0.075	0.199
-577.763	745.164	0.105	-0.283
-576.748	-119.185	-0.169	-0.030
-575.733	-39.741	-0.040	0.021
-574.719	431.421	0.157	-0.340
-573.704	-147.772	0.336	0.028
-572.690	13.938	-0.228	0.178
-571.675	565.627	-0.089	-0.217
-570.661	-142.632	0.250	-0.025
-569.646	232.023	0.099	-0.163
-568.631	-200.000	-0.015	-0.243
-567.617	273.246	-0.064	0.114
-566.602	-102.322	-0.238	-0.057
-565.588	45.103	-0.133	-0.123
-564.573	-128.358	-0.340	0.049
-563.558	188.169	0.074	-0.110
-562.544	235.154	0.079	-0.131
-561.529	581.193	0.015	0.038
-560.515	58.867	-0.131	0.129
-559.500	406.851	0.176	0.372
-558.485	800.000	-0.036	-0.123
-557.471	190.078	0.120	0.180
-556.456	18.740	0.240	0.193
-555.442	-200.000	-0.040	-0.293
-554.427	31.964	0.085	-0.073
-553.412	-116.602	0.074	0.014
-552.398	244.779	-0.152	0.256
-551.383	800.000	-0.103	0.396
-550.369	-127.290	-0.224	0.033
-549.354	-82.920	0.179	0.058
-548.339	-57.896	-0.211	-0.093
-547.325	548.494	-0.085	-0.204
-546.310	-108.452	0.515	0.111
-545.296	-125.176	-0.239	-0.037
-544.281	-116.139	-0.378	0.070
-543.266	39.181	-0.130	-0.117
-542.252	126.127	-0.044	0.056
-541.237	619.045	-0.041	-0.103
-540.223	-101.302	-0.122	-0.030
-539.208	-112.483	-0.414	0.083
-538.193	-27.690	0.024	-0.014
-537.179	-85.549	0.333	0.104
-536.164	-200.000	0.003	-0.046
-535.150	62.198	-0.161	-0.161
-534.135	-37.694	-0.142	-0.076
-533.121	800.000	0.075	0.253
-532.106	671.661	0.167	0.433
-531.091	-30.573	0.165	-0.094
-530.077	-107.957	0.270	0.059
-529.062	-153.549	0.280	0.019
-528.048	-48.096	0.162	-0.078
-527.033	-49.338	0.265	0.127
-526.018	12.963	0.174	0.135
-525.004	563.709	-0.110	0.268
-523.989	-200.000	-0.002	-0.053
-522.975	33.381	-0.311	-0.270
-521.960	65.419	0.187	0.189
-520.945	-200.000	-0.000	0.075
-519.931	800.000	0.049	0.157
-518.916	44.802	-0.135	-0.124
-517.902	612.250	-0.130	0.324
-516.887	-9.328	-0.207	0.138
-515.872	-184.407	0.335	0.005
-514.858	-200.000	0.021	-0.133
-513.843	-15.924	0.201	0.128
-512.829	19.594	0.163	-0.131
-511.814	800.000	-0.055	-0.157
-510.799	-82.572	0.156	0.051
-509.785	800.000	0.109	0.320
-508.770	-151.475	-0.221	-0.016
-507.756	-136.348	-0.047	0.005
-506.741	-181.835	0.121	0.002
-505.726	800.000	0.111	-0.411
-504.712	74.370	-0.066	-0.069
-503.697	-37.070	-0.289	0.155
-502.683	-80.492	-0.271	0.090
-501.668	103.136	0.017	0.020
-500.653	800.000	-0.053	-0.232
-499.639	-200.000	-0.008	-0.159
-498.624	21.254	-0.158	-0.128
-497.610	-143.993	0.171	-0.016
-496.595	37.643	-0.205	0.182
-495.581	366.557	0.055	-0.112
-494.566	554.337	0.049	0.118
-493.551	-119.529	-0.305	-0.053
-492.537	-80.500	-0.197	-0.066
-491.522	-113.031	-0.250	0.049
-490.508	-143.303	-0.146	-0.014
-489.493	-3.200	-0.081	0.057
-488.478	800.000	-0.041	0.133
-487.464	800.000	0.114	-0.417
-486.449	-13.939	0.247	0.159
-485.435	-200.000	-0.016	0.169
-484.420	-68.800	-0.344	0.133
-483.405	-85.685	-0.051	0.016
-482.391	394.441	-0.149	-0.310
-481.376	-110.851	-0.323	0.066
-480.362	486.007	0.083	0.188
-479.347	-66.390	0.261	0.104
-478.332	-200.000	0.029	0.184
-477.318	401.004	-0.093	-0.194
-476.303	46.883	-0.115	-0.107
-475.289	-47.969	-0.435	-0.210
-474.274	-200.000	-0.001	0.088
-473.259	85.631	-0.298	0.326
-472.245	371.882	-0.130	0.264
-471.230	11.923	-0.167	0.128
-470.216	-146.639	0.244	-0.021
-469.201	-106.169	-0.129	-0.029
-468.186	-200.000	0.007	-0.127
-467.172	17.946	-0.261	-0.208
-466.157	1.220	-0.100	-0.072
-465.143	-1.663	-0.176	-0.123
-464.128	-88.985	-0.117	0.035
-463.113	84.951	-0.154	0.169
-462.099	13.972	0.123	0.096
-461.084	-32.362	0.069	0.039
-460.070	125.174	-0.061	-0.077
-459.055	460.535	0.123	0.273
-458.040	-39.738	-0.344	0.179
-457.026	-31.986	-0.146	-0.082
-456.011	594.005	-0.132	-0.327
-454.997	-200.000	0.043	0.240
-453.982	-108.634	-0.162	-0.035
-452.968	-200.000	-0.001	0.249
-451.953	574.983	-0.041	-0.099
-450.938	-141.593	-0.223	-0.022
-449.924	-12.232	0.273	-0.178
-448.909	800.000	0.092	-0.371
-447.895	-200.000	-0.005	-0.056
-446.880	200.689	0.091	0.139
-445.865	87.906	-0.061	0.068
-444.851	-200.000	0.025	0.237
-443.836	-98.739	-0.162	0.041
-442.822	800.000	0.066	0.233
-441.807	-93.103	0.252	0.070
-440.792	324.467	-0.089	-0.170
-439.778	521.268	-0.080	-0.188
-438.763	800.000	0.034	0.135
-437.749	318.450	0.065	0.123
-436.734	14.708	0.106	0.083
-435.719	261.263	-0.091	0.158
-434.705	-173.561	0.138	0.004
-433.690	-200.000	-0.007	0.043
-432.676	369.343	0.015	-0.031
-431.661	800.000	-0.059	-0.164
-430.646	58.572	0.189	-0.185
-429.632	-200.000	0.013	0.256
-428.617	58.708	-0.123	0.120
-427.603	41.078	-0.139	-0.125
-426.588	-116.114	0.249	-0.046
-425.573	44.697	0.249	0.228
-424.559	277.430	-0.048	0.084
-423.544	-54.073	0.199	-0.090
-422.530	-43.986	0.293	0.147
-421.515	632.995	0.063	0.159
-420.500	115.331	0.186	-0.226
-419.486	-200.000	-0.028	-0.259
-418.471	54.319	-0.136	0.130
-417.457	-6.812	-0.213	-0.145
-416.442	-63.710	-0.194	-0.079
-415.428	108.541	-0.205	0.244
-414.413	104.502	0.077	-0.090
-413.398	303.316	-0.038	0.070
-412.384	251.559	-0.084	0.143
-411.369	-200.000	0.024	-0.254
-410.355	34.269	-0.200	0.174
-409.340	7.530	-0.191	0.142
-408.325	-200.000	0.033	0.338
-407.311	330.701	-0.094	0.180
-406.296	-138.997	0.269	0.029
-405.282	-30.146	0.329	-0.186
-404.267	114.508	0.079	0.096
-403.252	800.000	0.048	0.155
-402.238	-138.273	0.020	-0.002
-401.223	-59.799	-0.242	-0.103
-400.209	93.243	0.073	-0.082
-399.194	-165.748	-0.306	0.013
-398.179	-200.000	0.012	0.052
-397.165	-95.569	-0.112	0.030
-396.150	-10.400	0.106	0.070
-395.136	-89.782	0.069	-0.020
-394.121	-90.527	0.113	0.032
-393.106	134.215	0.149	0.193
-392.092	57.201	-0.164	-0.159
-391.077	-54.743	0.078	-0.035
-390.063	-92.877	0.372	0.103
-389.048	-200.000	0.029	-0.269
-388.033	800.000	0.069	0.262
-387.019	627.653	0.100	-0.251
-386.004	-151.813	-0.097	0.007
-384.990	176.458	0.139	-0.201
-383.975	396.810	0.098	0.203
-382.960	77.773	-0.135	0.143
-381.946	-26.055	0.373	-0.218
-380.931	-46.320	0.081	-0.040
-379.917	-54.072	0.129	-0.058
-378.902	-74.930	0.300	-0.107
-377.888	-47.853	0.093	0.045
-376.873	26.296	-0.230	-0.191
-375.858	-110.851	-0.120	-0.025
-374.844	233.307	0.081	0.132
-373.829	-15.774	-0.167	0.106
-372.815	-70.813	0.194	-0.073
-371.800	-64.950	0.109	0.044
-370.785	739.902	-0.140	0.373
-369.771	-23.867	0.244	0.145
-368.756	-122.346	-0.292	0.047
-367.742	159.211	0.130	0.179
-366.727	-71.729	-0.260	0.096
-365.712	-137.248	0.353	-0.040
-364.698	238.813	0.080	-0.132
-363.683	-200.000	0.007	-0.251
-362.669	66.780	-0.105	-0.107
-361.654	643.857	0.068	-0.172
-360.639	591.438	0.066	-0.161
-359.625	-27.448	-0.422	-0.244
-358.610	-109.669	0.369	0.077
-357.596	51.147	-0.214	0.202
-356.581	78.740	0.091	-0.097
-355.566	47.375	-0.034	-0.032
-354.552	537.457	-0.048	-0.113
-353.537	-153.256	0.057	0.004
-352.523	-107.493	-0.087	-0.019
-351.508	7.945	-0.247	-0.184
-350.493	279.016	-0.090	-0.159
-349.479	71.293	-0.106	-0.109
-348.464	800.000	-0.123	0.373
-347.450	-200.000	0.049	0.355
-346.435	9.748	0.167	0.126
-345.420	27.961	-0.096	0.081
-344.406	120.431	-0.161	0.198
-343.391	67.411	0.092	-0.094
-342.377	213.474	0.105	-0.164
-341.362	146.433	0.142	0.190
-340.348	49.876	-0.233	0.218
-339.333	-80.185	-0.347	0.115
-338.318	121.657	0.015	0.019
-337.304	-17.493	0.211	-0.132
-336.289	800.000	0.103	-0.392
-335.275	206.974	-0.065	0.100
-334.260	800.000	-0.110	0.350
-333.245	555.632	-0.039	0.094
-332.231	800.000	0.066	0.256
-331.216	120.540	-0.174	0.215
-330.202	-53.048	0.169	-0.077
-329.187	-200.000	0.043	-0.240
-328.172	-62.289	0.085	0.035
-327.158	-200.000	-0.045	-0.222
-326.143	-13.006	0.136	0.088
-325.129	-13.519	-0.236	0.152
-324.114	66.557	0.255	0.257
-323.099	35.294	0.057	-0.049
-322.085	-34.522	0.214	0.116
-321.070	-200.000	-0.019	0.127
-320.056	800.000	0.047	0.155
-319.041	-81.310	0.197	-0.065
-318.026	782.230	0.109	0.295
-317.012	-200.000	-0.029	-0.225
-315.997	-105.979	0.111	-0.025
-314.983	800.000	-0.104	-0.374
-313.968	14.987	0.148	0.115
-312.953	105.262	0.189	-0.221
-311.939	-200.000	0.048	-0.218
-310.924	-90.061	0.171	0.050
-309.910	23.826	-0.222	0.182
-308.895	-154.560	0.175	-0.012
-307.880	348.256	-0.109	0.213
-306.866	555.387	0.045	0.108
-305.851	154.141	-0.083	0.112
-304.837	-163.579	-0.205	0.010
-303.822	-147.044	0.373	0.032
-302.807	-64.588	0.346	-0.139
-301.793	784.018	-0.078	0.212
-300.778	428.153	0.070	0.150
-299.764	287.906	-0.086	0.153
-298.749	62.989	-0.192	0.190
-297.735	386.836	-0.047	-0.096
-296.720	-25.091	-0.209	0.123
-295.705	287.004	0.023	-0.041
-294.691	-47.320	-0.192	-0.093
-293.676	215.482	-0.157	-0.246
-292.662	-200.000	-0.004	0.141
-291.647	1.454	-0.133	-0.095
-290.632	236.477	0.137	-0.224
-289.618	-109.558	0.361	0.076
-288.603	44.134	-0.247	0.224
-287.589	-4.620	0.048	0.033
-286.574	-200.000	0.056	0.258
-285.559	800.000	0.044	0.144
-284.545	-200.000	-0.037	-0.177
-283.530	-28.279	0.164	-0.094
-282.516	281.791	-0.110	-0.195
-281.501	280.350	0.041	-0.073
-280.486	77.823	0.158	-0.167
-279.472	-175.156	-0.229	-0.006
-278.457	281.095	-0.034	-0.061
-277.443	157.000	-0.029	0.040
-276.428	100.708	0.273	-0.314
-275.413	311.369	0.245	-0.454
-274.399	-200.000	0.004	-0.222
-273.384	-2.245	-0.113	0.078
-272.370	122.085	-0.201	-0.249
-271.355	-200.000	0.080	0.378
-270.340	-200.000	-0.064	0.688
-269.326	-8.285	-0.257	-0.171
-268.311	-200.000	-0.006	0.285
-267.297	-84.600	0.176	0.055
-266.282	22.470	-0.348	0.282
-265.267	24.963	-0.090	-0.074
-264.253	352.132	-0.197	-0.386
-263.238	-164.375	0.132	-0.006
-262.224	-123.156	0.393	0.062
-261.209	43.320	-0.123	0.112
-260.195	800.000	0.090	-0.254
-259.180	65.859	-0.226	0.227
-258.165	-42.157	0.096	0.049
-257.151	167.039	-0.043	0.061
-256.136	364.986	0.220	0.439
-255.122	175.693	-0.038	-0.054
-254.107	263.016	-0.082	-0.140
-253.092	26.384	-0.166	-0.137
-252.078	519.379	0.121	0.280
-251.063	297.939	-0.113	0.205
-250.049	-200.000	-0.052	-0.277
-249.034	174.359	0.065	-0.093
-248.019	576.906	-0.096	0.231
-247.005	-21.308	-0.368	0.223
-245.990	-200.000	-0.001	-0.258
-244.976	-200.000	-0.012	-0.244
-243.961	-10.276	-0.228	-0.150
-242.946	-200.000	-0.003	0.016
-241.932	-70.822	-0.188	0.070
-240.917	800.000	0.006	0.017
-239.903	26.640	0.152	-0.126
-238.888	800.000	0.093	0.308
-237.873	-66.984	-0.270	-0.106
-236.859	95.156	0.388	0.437
-235.844	-189.089	0.178	-0.002
-234.830	330.026	0.096	0.182
-233.815	800.000	-0.004	0.012
-232.800	509.551	0.096	0.220
-231.786	-200.000	-0.018	-0.198
-230.771	541.147	0.122	-0.288
-229.757	-200.000	0.046	-0.351
-228.742	-73.967	-0.190	0.068
-227.727	31.508	-0.215	-0.182
-226.713	-200.000	-0.002	-0.163
-225.698	800.000	-0.125	-0.388
-224.684	443.661	0.028	0.061
-223.669	-159.610	-0.152	-0.008
-222.655	139.521	0.083	-0.107
-221.640	-182.538	-0.018	-0.000
-220.625	-53.268	-0.182	-0.083
-219.611	10.927	0.357	0.269
-218.596	-78.168	0.439	0.149
-217.582	-146.742	-0.186	0.016
-216.567	-200.000	0.017	-0.274
-215.552	108.883	-0.011	-0.013
-214.538	-114.795	0.240	0.045
-213.523	-200.000	-0.045	0.257
-212.509	-112.729	0.195	-0.038
-211.494	194.680	0.168	0.253
-210.479	-119.421	0.283	0.049
-209.465	-38.665	0.023	-0.012
-208.450	-200.000	-0.035	-0.154
-207.436	243.451	0.083	0.137
-206.421	-99.683	-0.243	0.060
-205.406	142.566	0.110	-0.144
-204.392	-128.492	-0.148	0.021
-203.377	-200.000	0.028	0.186
-202.363	-125.170	-0.158	0.024
-201.348	669.713	-0.068	-0.173
-200.333	-200.000	-0.004	0.156
-199.319	289.532	0.029	-0.053
-198.304	140.797	-0.076	-0.099
-197.290	26.245	0.253	-0.209
-196.275	124.977	-0.174	0.216
-195.260	-200.000	-0.002	-0.235
-194.246	227.733	0.132	-0.212
-193.231	149.521	0.095	0.127
-192.217	174.206	-0.154	-0.219
-191.202	800.000	0.127	-0.517
-190.187	-200.000	0.035	-0.404
-189.173	276.265	0.042	0.074
-188.158	-150.366	-0.193	0.015
-187.144	407.295	-0.066	0.138
-186.129	254.781	0.099	-0.167
-185.114	163.429	-0.170	0.236
-184.100	-102.789	0.144	-0.034
-183.085	180.282	-0.316	-0.457
-182.071	181.363	0.162	-0.235
-181.056	-200.000	0.008	-0.180
-180.042	-6.399	-0.265	-0.179
-179.027	35.492	0.081	0.070
-178.012	152.777	-0.212	-0.286
-176.998	800.000	0.072	0.302
-175.983	800.000	0.033	0.106
-174.969	82.923	-0.348	-0.373
-173.954	392.646	0.097	-0.198
-172.939	-51.667	0.344	-0.158
-171.925	800.000	-0.040	-0.143
-170.910	-200.000	0.005	-0.056
-169.896	-200.000	-0.058	0.355
-168.881	800.000	0.076	-0.217
-167.866	-6.038	0.174	0.117
-166.852	-96.602	0.240	-0.063
-165.837	-176.500	0.289	0.007
-164.823	87.351	0.088	0.096
-163.808	116.640	0.155	-0.188
-162.793	-200.000	0.016	0.306
-161.779	2.854	0.148	-0.106
-160.764	800.000	0.058	0.167
-159.750	362.393	-0.133	0.262
-158.735	-200.000	-0.058	-0.276
-157.720	-21.129	-0.214	-0.129
-156.706	274.654	0.289	-0.504
-155.691	-126.642	0.376	-0.055
-154.677	-30.900	-0.224	0.125
-153.662	-19.395	-0.365	0.223
-152.647	-4.151	0.255	-0.174
-151.633	-66.388	0.098	-0.038
-150.618	-21.730	0.166	-0.099
-149.604	-200.000	-0.014	0.117
-148.589	185.779	-0.303	-0.444
-147.574	-200.000	-0.020	0.314
-146.560	-93.880	-0.095	-0.026
-145.545	-23.995	-0.263	-0.155
-144.531	-161.612	0.177	-0.009
-143.516	77.539	0.080	-0.084
-142.502	-200.000	0.012	-0.384
-141.487	116.533	0.274	0.331
-140.472	-200.000	-0.028	0.166
-139.458	-0.172	-0.072	-0.050
-138.443	41.533	0.133	0.119
-137.429	-83.531	0.256	-0.081
-136.414	9.672	-0.110	0.082
-135.399	526.899	0.117	-0.272
-134.385	47.210	-0.123	0.113
-133.370	-130.966	-0.055	0.007
-132.356	-101.049	0.263	0.064
-131.341	26.811	0.290	0.239
-130.326	47.918	0.210	0.193
-129.312	265.312	0.174	0.299
-128.297	441.518	0.077	0.166
-127.283	203.870	0.032	0.048
-126.268	-94.533	-0.169	0.045
-125.253	85.839	0.103	0.112
-124.239	52.324	0.258	-0.243
-123.224	15.009	-0.223	-0.172
-122.210	-200.000	0.005	-0.059
-121.195	148.519	0.271	0.360
-120.180	16.210	-0.146	0.114
