DTS Sentinel unit serial number:	SN413079Multiplexer serial number:	ORYXHardware model number:	OX4-SRSoftware version number:	ORYX F/W v4.00 Oryx Data Collector v3.7.2.0data status	okinstallation	princeton_trtdifferential loss correction	single-endedforward channel	channel 4reverse channel	N/Adate	2019/09/16time	04:53:34forward acquisition time	60.00reverse acquisition time	0.00gamma	496.2192k internal	0.2321k external	0.2321temperature offset calibration	0.9980default loss term (dB/km)	0.3790temperature slope calibration	1.0000multiplexer offset coefficient	1.0000multiplexer slope coefficient	1.0000fibre end	0.00T internal ref (°C)	27.14T ext. ref 1 (°C)	10.96T ext. ref 2 (°C)	21.68length (m)	temperature (°C)	Stokes	anti-Stokes-747.200	-51.694	-0.205	-0.097
-746.185	800.000	-0.080	0.342
-745.171	800.000	0.059	0.226
-744.156	-0.817	-0.154	0.111
-743.142	-139.535	0.367	-0.040
-742.127	800.000	-0.040	0.158
-741.112	320.190	-0.068	-0.131
-740.098	-61.591	0.161	0.068
-739.083	30.202	-0.077	0.067
-738.069	61.548	-0.148	0.149
-737.054	67.632	-0.113	-0.117
-736.039	-38.143	-0.221	-0.118
-735.025	125.438	0.141	-0.179
-734.010	-7.301	-0.247	-0.169
-732.996	-18.792	-0.105	0.066
-731.981	-200.000	0.016	0.284
-730.966	-28.395	0.206	-0.120
-729.952	400.252	0.082	0.174
-728.937	22.330	-0.333	0.275
-727.923	178.165	-0.242	-0.356
-726.908	-38.929	-0.082	-0.044
-725.894	800.000	0.067	0.206
-724.879	-99.948	-0.071	0.018
-723.864	-76.265	0.463	0.165
-722.850	-0.571	-0.124	0.089
-721.835	-82.564	-0.220	0.072
-720.821	127.016	-0.097	0.125
-719.806	2.790	0.108	0.079
-718.791	-200.000	-0.028	0.143
-717.777	403.649	0.154	-0.328
-716.762	-31.669	0.085	-0.048
-715.748	-68.771	-0.235	0.092
-714.733	-129.727	-0.508	-0.071
-713.718	-127.696	0.092	-0.013
-712.704	30.126	0.182	0.157
-711.689	9.365	0.166	0.127
-710.675	59.990	0.067	-0.067
-709.660	68.041	0.147	-0.152
-708.645	529.746	0.019	0.046
-707.631	-81.577	-0.308	0.102
-706.616	77.568	0.180	0.194
-705.602	42.922	0.086	-0.079
-704.587	-200.000	0.020	0.097
-703.572	-122.509	-0.150	-0.025
-702.558	-200.000	0.003	0.283
-701.543	473.579	0.061	0.139
-700.529	649.538	-0.110	-0.284
-699.514	163.382	0.258	-0.367
-698.499	800.000	0.062	-0.175
-697.485	63.084	-0.244	0.246
-696.470	-100.067	0.235	-0.059
-695.456	-116.780	-0.159	-0.029
-694.441	-88.351	-0.118	0.036
-693.426	5.067	-0.287	0.213
-692.412	-200.000	-0.018	0.189
-691.397	-119.387	0.077	0.013
-690.383	38.018	0.209	-0.187
-689.368	-62.590	-0.080	-0.034
-688.354	73.220	-0.091	-0.096
-687.339	190.032	0.081	-0.122
-686.324	-146.098	0.221	-0.020
-685.310	-130.758	-0.247	0.033
-684.295	-43.215	-0.088	0.045
-683.281	-23.932	0.052	-0.031
-682.266	139.455	-0.099	0.131
-681.251	-200.000	0.025	0.147
-680.237	373.268	-0.124	0.255
-679.222	-200.000	-0.022	0.278
-678.208	-58.651	-0.118	0.052
-677.193	-23.001	0.104	-0.063
-676.178	277.447	-0.212	0.381
-675.164	148.778	0.204	-0.278
-674.149	-22.777	-0.448	-0.273
-673.135	-200.000	0.007	-0.257
-672.120	-20.112	-0.061	-0.038
-671.105	-142.069	0.206	-0.021
-670.091	-38.093	0.157	0.084
-669.076	44.574	-0.062	0.057
-668.062	117.104	0.205	-0.254
-667.047	32.126	0.127	0.110
-666.032	553.634	-0.094	0.227
-665.018	-98.037	-0.173	-0.045
-664.003	-82.280	-0.352	0.115
-662.989	-200.000	-0.061	0.279
-661.974	7.564	-0.097	-0.073
-660.959	-149.356	0.183	0.015
-659.945	800.000	0.037	-0.147
-658.930	2.184	0.262	0.191
-657.916	5.917	-0.091	-0.068
-656.901	285.054	0.063	-0.114
-655.886	65.955	-0.132	0.135
-654.872	-200.000	-0.012	0.073
-653.857	130.824	0.119	-0.154
-652.843	-17.869	0.078	-0.049
-651.828	-200.000	0.009	0.265
-650.814	-200.000	0.002	0.231
-649.799	15.728	0.344	0.272
-648.784	-30.234	0.112	-0.064
-647.770	370.508	-0.180	-0.366
-646.755	-81.042	-0.298	0.099
-645.741	-200.000	0.043	0.370
-644.726	-200.000	0.011	-0.107
-643.711	-200.000	0.066	-0.340
-642.697	-79.968	0.180	-0.061
-641.682	800.000	0.088	0.314
-640.668	42.031	-0.072	-0.066
-639.653	-12.680	-0.173	0.114
-638.638	-9.232	-0.098	0.066
-637.624	62.554	-0.118	-0.119
-636.609	-26.962	-0.110	-0.065
-635.595	-79.536	0.135	0.046
-634.580	-88.254	0.456	-0.137
-633.565	-61.151	-0.147	-0.062
-632.551	-130.070	0.445	0.061
-631.536	-200.000	0.076	-0.575
-630.522	-21.143	0.238	-0.146
-629.507	-156.536	0.329	-0.021
-628.492	-91.051	-0.318	-0.092
-627.478	-85.923	0.416	-0.129
-626.463	472.156	-0.126	-0.285
-625.449	-200.000	0.048	-0.490
-624.434	140.115	-0.101	0.134
-623.419	-97.215	-0.131	-0.034
-622.405	800.000	0.088	0.310
-621.390	-200.000	0.022	0.126
-620.376	531.918	0.070	-0.166
-619.361	371.099	0.118	-0.240
-618.346	-200.000	0.030	0.205
-617.332	607.868	0.148	0.371
-616.317	800.000	-0.032	0.096
-615.303	-80.373	0.078	0.026
-614.288	-74.958	-0.285	0.103
-613.273	466.806	-0.103	-0.233
-612.259	-200.000	0.035	-0.165
-611.244	-200.000	-0.003	-0.114
-610.230	-44.304	-0.291	-0.147
-609.215	800.000	-0.106	0.313
-608.201	-66.404	0.122	-0.049
-607.186	22.668	-0.283	0.233
-606.171	-102.922	0.354	-0.085
-605.157	-200.000	-0.087	0.548
-604.142	-58.242	0.134	0.059
-603.128	-116.180	0.187	-0.035
-602.113	-103.036	0.172	0.041
-601.098	319.778	0.130	0.248
-600.084	-56.104	0.348	0.156
-599.069	-200.000	-0.045	0.273
-598.055	-7.189	0.265	-0.180
-597.040	-200.000	0.001	-0.030
-596.025	-52.604	-0.262	0.122
-595.011	47.940	-0.077	0.072
-593.996	-128.869	-0.138	0.020
-592.982	800.000	-0.059	0.218
-591.967	503.255	-0.062	-0.143
-590.952	21.050	-0.166	0.136
-589.938	-200.000	-0.017	0.088
-588.923	800.000	-0.038	0.129
-587.909	436.739	0.046	-0.100
-586.894	86.488	0.076	0.085
-585.879	25.974	-0.029	-0.025
-584.865	2.273	0.134	-0.098
-583.850	119.471	-0.111	0.138
-582.836	308.372	-0.054	0.102
-581.821	-200.000	0.070	-0.346
-580.806	-125.313	-0.421	0.065
-579.792	195.854	-0.103	-0.157
-578.777	-16.759	-0.239	0.152
-577.763	-200.000	0.041	-0.244
-576.748	-200.000	0.005	-0.088
-575.733	-200.000	0.005	0.073
-574.719	-103.589	-0.117	0.027
-573.704	-200.000	0.054	-0.334
-572.690	-43.241	0.367	-0.187
-571.675	-66.015	-0.237	-0.095
-570.661	87.404	0.203	0.225
-569.646	-9.606	-0.274	0.183
-568.631	-57.257	-0.349	-0.154
-567.617	-200.000	0.033	-0.168
-566.602	122.220	-0.180	0.226
-565.588	105.695	0.056	-0.067
-564.573	800.000	-0.071	0.199
-563.558	216.419	-0.169	-0.270
-562.544	-122.188	-0.232	0.038
-561.529	-200.000	-0.025	-0.338
-560.515	-27.685	-0.055	-0.032
-559.500	-33.237	0.355	0.197
-558.485	-200.000	-0.033	0.162
-557.471	800.000	0.035	0.148
-556.456	-121.351	-0.168	-0.028
-555.442	-12.422	0.203	-0.133
-554.427	-118.902	-0.057	0.010
-553.412	-117.111	0.336	0.061
-552.398	-200.000	0.036	-0.198
-551.383	-200.000	0.131	-0.630
-550.369	-200.000	0.047	0.239
-549.354	314.097	0.044	0.083
-548.339	-200.000	0.025	0.138
-547.325	71.487	-0.117	-0.122
-546.310	288.202	0.010	0.018
-545.296	190.977	0.102	0.154
-544.281	-94.782	-0.256	-0.070
-543.266	-33.741	-0.278	0.154
-542.252	65.915	0.077	-0.079
-541.237	-200.000	-0.020	-0.116
-540.223	-200.000	-0.057	-0.400
-539.208	36.388	0.163	-0.144
-538.193	206.743	0.107	-0.167
-537.179	-2.047	-0.102	-0.072
-536.164	-74.373	0.196	0.071
-535.150	185.305	0.183	0.272
-534.135	-200.000	-0.021	0.153
-533.121	16.151	0.257	0.203
-532.106	800.000	0.047	0.151
-531.091	220.257	-0.132	0.213
-530.077	6.718	0.145	0.108
-529.062	-115.771	-0.342	0.064
-528.048	-1.170	-0.244	-0.173
-527.033	-200.000	0.003	-0.320
-526.018	195.170	-0.193	-0.294
-525.004	-200.000	-0.042	-0.189
-523.989	469.086	-0.138	-0.310
-522.975	-104.070	0.201	-0.047
-521.960	-94.870	-0.094	0.025
-520.945	-94.848	-0.116	0.032
-519.931	-83.026	-0.292	0.094
-518.916	138.836	0.297	-0.391
-517.902	-200.000	-0.005	-0.192
-516.887	-29.060	0.239	0.137
-515.872	-47.726	0.200	-0.097
-514.858	800.000	-0.042	0.135
-513.843	-200.000	0.035	-0.306
-512.829	-119.555	-0.283	-0.049
-511.814	2.413	0.128	-0.093
-510.799	-200.000	0.021	0.162
-509.785	-200.000	0.022	0.163
-508.770	-67.906	0.118	0.046
-507.756	800.000	-0.025	0.077
-506.741	-57.761	0.102	0.045
-505.726	-200.000	-0.002	-0.134
-504.712	412.695	0.186	0.396
-503.697	800.000	-0.106	-0.314
-502.683	-200.000	0.032	-0.339
-501.668	65.692	0.035	0.036
-500.653	396.524	-0.168	0.351
-499.639	294.412	-0.288	-0.527
-498.624	-105.642	0.324	-0.074
-497.610	-200.000	-0.018	0.156
-496.595	-200.000	0.033	-0.330
-495.581	-18.768	-0.192	0.120
-494.566	-78.167	-0.430	-0.148
-493.551	-87.582	-0.226	-0.068
-492.537	-75.789	-0.226	-0.080
-491.522	90.076	0.100	0.112
-490.508	-76.693	-0.368	0.129
-489.493	-126.719	0.206	-0.030
-488.478	800.000	0.026	-0.100
-487.464	16.095	-0.205	0.161
-486.449	800.000	0.049	0.204
-485.435	-99.360	-0.159	-0.040
-484.420	800.000	-0.088	0.263
-483.405	10.440	0.155	-0.118
-482.391	-32.681	0.212	0.118
-481.376	-200.000	0.046	-0.241
-480.362	320.454	-0.119	0.226
-479.347	8.229	0.183	-0.138
-478.332	14.838	0.091	-0.071
-477.318	-30.381	0.163	0.093
-476.303	-200.000	-0.266	0.000
-475.289	504.996	-0.093	-0.216
-474.274	-33.302	-0.357	-0.198
-473.259	-77.958	0.267	-0.092
-472.245	-24.990	0.136	0.081
-471.230	3.189	-0.098	-0.071
-470.216	-200.000	-0.043	-0.349
-469.201	253.168	0.088	0.151
-468.186	800.000	0.072	0.273
-467.172	-200.000	-0.029	-0.130
-466.157	-200.000	0.034	0.238
-465.143	-116.473	-0.126	0.023
-464.128	55.870	0.106	0.103
-463.113	-200.000	0.008	-0.285
-462.099	-37.977	0.134	-0.071
-461.084	-99.907	-0.280	0.070
-460.070	35.516	0.039	-0.034
-459.055	-107.561	-0.509	-0.111
-458.040	561.045	-0.264	0.638
-457.026	129.396	-0.262	0.335
-456.011	-200.000	0.060	-0.603
-454.997	522.736	0.125	-0.294
-453.982	-92.446	-0.266	0.075
-452.968	800.000	-0.051	0.167
-451.953	-16.269	0.276	-0.175
-450.938	-55.962	-0.091	-0.041
-449.924	34.660	-0.057	0.050
-448.909	-87.586	0.063	-0.019
-447.895	260.830	0.030	-0.053
-446.880	-200.000	-0.012	0.060
-445.865	800.000	-0.164	-0.458
-444.851	147.126	-0.132	0.177
-443.836	54.340	0.131	0.126
-442.822	760.413	-0.065	0.176
-441.807	777.187	-0.162	-0.442
-440.792	633.351	0.145	-0.368
-439.778	800.000	0.020	-0.059
-438.763	-44.717	0.164	0.082
-437.749	-200.000	-0.039	-0.296
-436.734	-138.966	0.334	0.036
-435.719	-200.000	0.008	-0.057
-434.705	800.000	0.047	0.156
-433.690	756.003	-0.054	-0.146
-432.676	-7.582	-0.057	-0.038
-431.661	224.819	0.033	-0.054
-430.646	-52.778	0.087	-0.040
-429.632	-162.052	-0.172	-0.009
-428.617	315.382	0.051	0.096
-427.603	588.228	-0.021	-0.052
-426.588	312.172	-0.065	-0.122
-425.573	107.760	0.107	0.127
-424.559	-200.000	-0.034	0.292
-423.544	-125.772	0.105	0.016
-422.530	24.724	-0.209	0.173
-421.515	473.087	-0.124	0.280
-420.500	-43.584	-0.111	-0.056
-419.486	-200.000	0.050	-0.318
-418.471	99.692	-0.124	-0.143
-417.457	244.795	-0.193	0.323
-416.442	-51.641	-0.094	-0.044
-415.428	154.741	0.042	0.058
-414.413	121.938	0.147	0.183
-413.398	276.411	0.024	0.042
-412.384	-200.000	-0.016	-0.126
-411.369	-191.832	-0.034	-0.000
-410.355	-200.000	0.059	0.347
-409.340	-144.211	-0.195	-0.018
-408.325	64.638	-0.090	-0.091
-407.311	-200.000	0.023	-0.285
-406.296	800.000	0.093	0.293
-405.282	12.958	-0.178	-0.137
-404.267	14.492	-0.221	0.172
-403.252	-11.230	-0.074	-0.048
-402.238	-18.907	-0.325	0.202
-401.223	117.975	-0.234	-0.287
-400.209	-185.281	0.349	0.005
-399.194	-38.985	-0.199	0.105
-398.179	800.000	0.099	0.308
-397.165	-132.336	0.157	0.020
-396.150	-46.639	0.101	-0.049
-395.136	5.119	0.269	0.197
-394.121	22.489	0.115	-0.094
-393.106	19.838	-0.168	-0.135
-392.092	534.573	0.037	0.088
-391.077	9.518	0.079	-0.060
-390.063	27.568	0.213	-0.179
-389.048	83.345	0.040	0.044
-388.033	800.000	-0.164	-0.510
-387.019	-200.000	-0.018	-0.103
-386.004	-200.000	-0.012	-0.205
-384.990	800.000	-0.091	0.290
-383.975	6.679	-0.180	0.133
-382.960	-117.893	0.181	-0.032
-381.946	-200.000	0.031	-0.196
-380.931	800.000	0.042	-0.147
-379.917	-200.000	0.029	-0.218
-378.902	-23.116	0.127	0.076
-377.888	79.639	-0.108	-0.115
-376.873	27.642	-0.127	0.106
-375.858	-92.533	0.354	0.099
-374.844	-200.000	0.261	0.001
-373.829	-200.000	0.045	-0.242
-372.815	-146.562	0.186	0.016
-371.800	-121.836	0.275	0.045
-370.785	-200.000	-0.026	-0.239
-369.771	428.056	-0.037	-0.079
-368.756	600.362	0.128	0.318
-367.742	26.404	-0.150	-0.125
-366.727	555.047	-0.097	-0.232
-365.712	-33.846	0.280	-0.153
-364.698	-103.264	0.285	0.067
-363.683	800.000	-0.042	0.118
-362.669	-99.921	0.337	-0.084
-361.654	-127.633	-0.226	-0.033
-360.639	-200.000	-0.061	0.358
-359.625	-200.000	-0.001	0.171
-358.610	788.073	0.004	0.012
-357.596	-149.554	0.280	-0.022
-356.581	-159.797	0.097	0.005
-355.566	-200.000	0.041	0.549
-354.552	-47.327	-0.129	-0.063
-353.537	157.053	0.156	-0.215
-352.523	-200.000	0.002	0.043
-351.508	-154.651	0.255	-0.017
-350.493	-115.089	-0.128	-0.024
-349.479	-73.647	0.246	-0.089
-348.464	71.928	0.079	-0.082
-347.450	22.873	0.113	0.092
-346.435	98.616	0.033	-0.038
-345.420	-200.000	-0.035	-0.206
-344.406	276.193	-0.260	-0.460
-343.391	-126.719	0.199	0.029
-342.377	-200.000	0.002	0.589
-341.362	36.888	-0.185	-0.163
-340.348	101.760	0.197	0.229
-339.333	-200.000	-0.030	-0.259
-338.318	800.000	-0.139	0.419
-337.304	56.487	0.089	0.086
-336.289	54.050	0.052	-0.050
-335.275	800.000	-0.136	0.424
-334.260	-125.060	-0.327	-0.050
-333.245	-200.000	-0.030	0.156
-332.231	117.107	0.269	0.329
-331.216	148.572	0.065	-0.087
-330.202	271.421	0.085	-0.148
-329.187	-89.624	0.230	0.067
-328.172	-200.000	0.004	0.027
-327.158	-8.749	0.329	0.219
-326.143	-125.191	-0.141	0.021
-325.129	-200.000	0.000	0.264
-324.114	74.751	0.327	0.342
-323.099	103.696	0.052	-0.061
-322.085	21.477	0.180	-0.145
-321.070	362.645	-0.124	-0.247
-320.056	25.267	-0.158	0.131
-319.041	31.417	-0.086	-0.073
-318.026	-200.000	0.045	0.252
-317.012	-100.204	-0.224	-0.055
-315.997	105.771	-0.147	0.173
-314.983	33.607	-0.065	0.056
-313.968	353.381	-0.116	-0.229
-312.953	-200.000	-0.031	0.277
-311.939	-75.915	-0.170	-0.060
-310.924	-127.096	0.310	0.045
-309.910	-3.767	0.170	-0.118
-308.895	-56.471	-0.184	-0.081
-307.880	-10.476	-0.270	0.178
-306.866	-200.000	-0.004	-0.142
-305.851	-121.214	0.180	-0.030
-304.837	262.077	0.056	-0.097
-303.822	597.928	-0.043	0.106
-302.807	-200.000	-0.016	0.239
-301.793	60.552	-0.029	-0.029
-300.778	28.054	-0.109	-0.092
-299.764	329.227	0.128	-0.244
-298.749	800.000	0.073	0.294
-297.735	656.818	0.077	0.198
-296.720	-22.807	0.218	-0.131
-295.705	800.000	-0.035	0.131
-294.691	-99.571	-0.446	0.111
-293.676	800.000	0.171	0.572
-292.662	437.562	-0.050	0.108
-291.647	-96.330	0.237	-0.062
-290.632	277.404	-0.077	-0.135
-289.618	26.949	-0.296	0.246
-288.603	-134.038	0.185	0.023
-287.589	-57.659	0.131	0.057
-286.574	649.536	-0.110	0.279
-285.559	-1.370	-0.197	-0.138
-284.545	116.869	-0.090	0.110
-283.530	78.927	0.128	0.136
-282.516	-200.000	-0.013	-0.281
-281.501	-200.000	0.012	-0.458
-280.486	62.516	-0.060	-0.060
-279.472	-34.341	0.310	0.169
-278.457	-200.000	0.036	-0.171
-277.443	661.850	0.047	0.121
-276.428	334.248	0.038	-0.073
-275.413	800.000	-0.103	0.338
-274.399	276.407	-0.102	0.180
-273.384	-35.543	-0.085	-0.046
-272.370	708.066	-0.122	0.321
-271.355	171.926	-0.175	0.249
-270.340	-200.000	0.021	0.093
-269.326	2.827	-0.223	0.160
-268.311	-44.222	0.129	0.064
-267.297	686.142	0.042	0.109
-266.282	-30.715	-0.142	-0.080
-265.267	-32.961	-0.127	0.070
-264.253	21.891	0.198	-0.160
-263.238	46.507	-0.081	0.075
-262.224	800.000	-0.068	0.244
-261.209	163.418	0.125	0.175
-260.195	-156.628	-0.143	0.009
-259.180	-70.219	-0.229	-0.086
-258.165	-100.634	0.162	0.040
-257.151	-127.970	-0.276	-0.039
-256.136	408.802	-0.130	-0.273
-255.122	323.427	0.265	-0.502
-254.107	800.000	-0.130	-0.390
-253.092	299.636	0.134	0.244
-252.078	-57.817	-0.247	0.107
-251.063	456.000	0.041	-0.090
-250.049	-64.942	0.277	-0.111
-249.034	15.782	0.167	-0.130
-248.019	600.536	-0.105	0.259
-247.005	150.398	-0.071	-0.095
-245.990	-200.000	0.057	0.408
-244.976	-84.881	0.234	-0.073
-243.961	-168.164	0.095	-0.004
-242.946	32.527	-0.341	-0.292
-241.932	11.619	-0.231	0.176
-240.917	-200.000	-0.011	-0.189
-239.903	141.338	-0.136	-0.179
-238.888	29.599	-0.293	0.247
-237.873	68.561	0.241	0.245
-236.859	-200.000	-0.001	0.269
-235.844	77.022	0.101	-0.106
-234.830	-200.000	0.044	-0.366
-233.815	-200.000	-0.085	0.511
-232.800	82.168	0.082	0.088
-231.786	27.847	0.237	0.198
-230.771	-200.000	0.001	0.139
-229.757	-16.613	-0.082	-0.051
-228.742	3.144	0.183	-0.132
-227.727	-200.000	-0.017	-0.238
-226.713	209.492	-0.054	0.084
-225.698	-85.163	0.105	0.033
-224.684	-162.024	-0.093	-0.005
-223.669	-60.539	0.252	0.106
-222.655	792.167	0.060	0.163
-221.640	-200.000	-0.009	0.110
-220.625	209.761	0.107	0.165
-219.611	-36.481	-0.329	0.175
-218.596	-200.000	0.036	-0.310
-217.582	-200.000	0.010	0.145
-216.567	-78.508	0.438	0.149
-215.552	-200.000	-0.008	-0.161
-214.538	-200.000	0.014	0.272
-213.523	-200.000	0.060	-0.398
-212.509	800.000	0.036	0.119
-211.494	255.498	0.169	0.287
-210.479	-200.000	0.034	0.155
-209.465	-200.000	0.013	-0.163
-208.450	-23.434	0.135	0.080
-207.436	-6.983	-0.089	-0.060
-206.421	394.554	0.113	0.233
-205.406	-0.176	0.280	0.197
-204.392	-168.914	-0.350	0.013
-203.377	24.918	-0.099	-0.081
-202.363	25.472	0.115	0.095
-201.348	-200.000	0.008	-0.156
-200.333	89.998	-0.203	-0.225
-199.319	108.359	-0.029	-0.034
-198.304	-75.087	-0.207	-0.073
-197.290	145.794	0.067	0.088
-196.275	-44.078	-0.255	0.127
-195.260	112.394	0.187	0.224
-194.246	100.399	0.309	0.355
-193.231	21.353	0.116	0.093
-192.217	-36.483	0.249	-0.132
-191.202	-200.000	-0.001	-0.258
-190.187	-138.179	0.243	0.027
-189.173	-0.055	-0.302	-0.213
-188.158	-200.000	0.001	-0.105
-187.144	144.988	0.150	0.198
-186.129	-200.000	-0.013	-0.229
-185.114	569.062	0.052	0.124
-184.100	411.221	-0.104	0.218
-183.085	341.974	0.152	-0.295
-182.071	-200.000	-0.007	-0.171
-181.056	255.222	-0.126	-0.213
-180.042	89.647	-0.161	0.178
-179.027	-200.000	-0.039	-0.398
-178.012	800.000	-0.118	0.331
-176.998	369.237	-0.136	-0.271
-175.983	-103.821	-0.060	-0.014
-174.969	93.536	0.142	-0.158
-173.954	-141.311	-0.201	-0.020
-172.939	26.390	0.183	-0.151
-171.925	-2.596	-0.216	-0.149
-170.910	-200.000	0.011	-0.080
-169.896	140.748	0.067	-0.087
-168.881	5.017	-0.373	-0.271
-167.866	109.833	-0.097	-0.115
-166.852	-72.398	0.334	-0.122
-165.837	-82.715	-0.164	0.053
-164.823	800.000	0.024	0.070
-163.808	-70.319	-0.244	-0.092
-162.793	-200.000	-0.037	-0.291
-161.779	248.357	-0.065	-0.108
-160.764	-200.000	-0.067	0.420
-159.750	94.189	0.033	-0.037
-158.735	-90.651	0.253	0.072
-157.720	-99.033	-0.340	0.085
-156.706	-150.177	0.343	0.026
-155.691	-5.299	0.171	-0.116
-154.677	-58.304	-0.289	-0.124
-153.662	800.000	0.025	-0.079
-152.647	-200.000	0.019	0.267
-151.633	46.263	0.165	-0.151
-150.618	800.000	0.037	-0.115
-149.604	-51.363	-0.260	0.120
-148.589	-6.796	-0.069	0.046
-147.574	12.128	0.126	0.096
-146.560	-200.000	0.042	0.239
-145.545	222.017	-0.193	-0.306
-144.531	177.045	-0.151	0.217
-143.516	-191.399	0.182	-0.002
-142.502	345.543	-0.292	0.566
-141.487	800.000	0.065	0.265
-140.472	81.139	-0.160	0.171
-139.458	800.000	-0.025	0.071
-138.443	136.612	-0.177	0.229
-137.429	388.462	0.053	-0.107
-136.414	68.911	-0.028	-0.029
-135.399	800.000	0.151	-0.450
-134.385	800.000	-0.021	0.071
-133.370	-86.769	-0.062	-0.019
-132.356	155.471	-0.079	0.108
-131.341	-82.916	0.082	-0.026
-130.326	-200.000	-0.006	-0.164
-129.312	-200.000	0.006	-0.171
-128.297	-163.739	0.114	-0.005
-127.283	-162.080	-0.228	-0.011
-126.268	217.483	-0.198	-0.311
-125.253	116.682	-0.042	0.051
-124.239	91.461	-0.117	-0.130
-123.224	-133.316	0.156	0.019
-122.210	-177.220	0.174	-0.004
-121.195	61.233	-0.168	0.165
-120.180	-70.637	-0.211	0.079
