DTS Sentinel unit serial number:	SN413079Multiplexer serial number:	ORYXHardware model number:	OX4-SRSoftware version number:	ORYX F/W v4.00 Oryx Data Collector v3.7.2.0data status	okinstallation	princeton_trtdifferential loss correction	single-endedforward channel	channel 4reverse channel	N/Adate	2019/09/19time	13:25:34forward acquisition time	60.00reverse acquisition time	0.00gamma	496.2192k internal	0.2312k external	0.2312temperature offset calibration	1.0018default loss term (dB/km)	0.3790temperature slope calibration	1.0000multiplexer offset coefficient	1.0000multiplexer slope coefficient	1.0000fibre end	0.00T internal ref (°C)	29.81T ext. ref 1 (°C)	0.97T ext. ref 2 (°C)	27.04length (m)	temperature (°C)	Stokes	anti-Stokes-747.200	-135.908	-0.091	-0.011
-746.185	50.261	-0.257	0.246
-745.171	120.498	0.274	0.346
-744.156	-200.000	0.017	0.096
-743.142	800.000	0.059	0.202
-742.127	105.450	0.293	0.351
-741.112	165.962	-0.102	0.146
-740.098	800.000	-0.067	0.254
-739.083	-178.683	0.262	-0.006
-738.069	-200.000	-0.037	0.187
-737.054	111.760	-0.304	0.372
-736.039	-11.943	0.119	-0.079
-735.025	800.000	0.063	0.222
-734.010	-47.365	-0.238	-0.118
-732.996	-200.000	0.025	-0.116
-731.981	-75.184	-0.204	-0.074
-730.966	119.165	-0.187	-0.235
-729.952	-200.000	0.026	0.160
-728.937	-80.333	0.239	-0.081
-727.923	-89.873	-0.211	0.062
-726.908	787.840	0.090	-0.249
-725.894	-141.302	-0.067	-0.007
-724.879	54.086	-0.117	0.115
-723.864	18.702	-0.076	-0.061
-722.850	-69.715	-0.148	0.057
-721.835	16.193	-0.205	-0.164
-720.821	465.426	0.081	0.183
-719.806	-126.451	0.034	-0.005
-718.791	65.156	-0.081	-0.083
-717.777	81.098	-0.275	-0.301
-716.762	-200.000	0.004	-0.136
-715.748	24.260	-0.193	-0.162
-714.733	-200.000	-0.010	0.223
-713.718	80.565	0.150	-0.164
-712.704	667.928	-0.117	0.305
-711.689	800.000	-0.048	0.169
-710.675	307.129	0.031	-0.059
-709.660	-46.692	0.084	0.042
-708.645	-44.807	0.233	-0.118
-707.631	-81.111	0.182	-0.061
-706.616	-24.301	-0.103	-0.062
-705.602	307.966	0.115	0.218
-704.587	-85.229	-0.253	-0.080
-703.572	59.653	-0.254	-0.254
-702.558	508.614	-0.026	0.062
-701.543	-84.246	0.034	0.011
-700.529	-178.275	0.312	0.007
-699.514	-0.597	0.209	0.150
-698.499	190.189	0.057	-0.087
-697.485	150.843	-0.076	0.105
-696.470	-200.000	0.004	0.294
-695.456	250.359	-0.207	0.355
-694.441	-200.000	0.027	0.166
-693.426	-200.000	-0.038	0.391
-692.412	-200.000	-0.013	-0.091
-691.397	185.104	-0.166	-0.249
-690.383	243.169	0.136	-0.231
-689.368	-200.000	-0.035	0.246
-688.354	383.513	-0.175	0.365
-687.339	-173.590	0.363	-0.011
-686.324	6.724	-0.059	-0.044
-685.310	-168.976	0.326	-0.012
-684.295	-37.735	-0.285	-0.154
-683.281	94.718	-0.150	0.173
-682.266	-38.250	-0.372	-0.200
-681.251	207.829	-0.061	-0.096
-680.237	-63.445	0.097	-0.040
-679.222	56.233	-0.202	-0.199
-678.208	209.403	0.085	0.136
-677.193	-200.000	-0.093	-0.454
-676.178	179.762	-0.190	0.282
-675.164	71.144	-0.239	0.251
-674.149	-46.904	-0.160	0.079
-673.135	-13.929	-0.473	0.309
-672.120	27.645	0.135	-0.115
-671.105	-77.223	0.164	0.058
-670.091	133.110	0.119	0.155
-669.076	132.468	0.195	0.254
-668.062	-200.000	0.005	-0.063
-667.047	-151.402	-0.111	-0.008
-666.032	-54.637	-0.165	-0.076
-665.018	-11.430	-0.083	0.055
-664.003	47.869	-0.128	0.121
-662.989	-200.000	-0.011	0.256
-661.974	-10.588	0.196	-0.131
-660.959	800.000	0.079	-0.285
-659.945	-79.295	0.254	-0.087
-658.930	242.498	-0.099	0.167
-657.916	800.000	-0.084	0.333
-656.901	318.022	0.096	-0.184
-655.886	302.823	0.113	0.212
-654.872	-200.000	0.011	-0.081
-653.857	24.429	-0.243	0.203
-652.843	49.758	-0.134	0.128
-651.828	-147.610	-0.234	-0.020
-650.814	533.051	-0.046	0.110
-649.799	39.945	0.080	0.072
-648.784	-191.145	0.223	0.002
-647.770	-200.000	-0.009	-0.078
-646.755	81.022	0.103	0.112
-645.741	800.000	0.057	0.174
-644.726	800.000	0.028	-0.109
-643.711	-98.728	0.142	0.036
-642.697	800.000	-0.068	-0.224
-641.682	130.876	-0.136	0.176
-640.668	116.217	0.183	0.226
-639.653	-200.000	0.004	-0.135
-638.638	42.255	0.100	-0.092
-637.624	800.000	0.123	-0.453
-636.609	107.106	0.219	-0.263
-635.595	116.201	-0.070	-0.086
-634.580	-89.810	0.167	0.049
-633.565	-1.159	0.109	0.078
-632.551	-200.000	-0.001	0.083
-631.536	-200.000	-0.083	0.376
-630.522	800.000	0.077	0.320
-629.507	85.654	0.176	-0.195
-628.492	602.826	0.037	-0.093
-627.478	33.051	-0.299	0.262
-626.463	800.000	0.037	-0.131
-625.449	323.545	0.062	-0.119
-624.434	611.368	-0.081	-0.205
-623.419	116.718	-0.080	0.099
-622.405	-56.235	0.065	-0.029
-621.390	623.932	0.042	0.106
-620.376	6.298	-0.164	-0.123
-619.361	-1.815	0.326	-0.232
-618.346	580.829	-0.161	-0.397
-617.332	800.000	-0.150	-0.494
-616.317	-168.665	0.148	-0.006
-615.303	133.670	0.116	0.152
-614.288	-200.000	-0.070	0.349
-613.273	-11.975	0.135	0.089
-612.259	-28.880	-0.136	-0.079
-611.244	-200.000	-0.028	0.266
-610.230	95.512	-0.164	-0.189
-609.215	-200.000	0.022	-0.183
-608.201	335.829	-0.107	-0.210
-607.186	-48.263	-0.127	-0.062
-606.171	40.078	0.078	0.071
-605.157	346.909	0.029	-0.057
-604.142	-200.000	-0.024	0.152
-603.128	-200.000	-0.005	0.364
-602.113	800.000	-0.026	-0.102
-601.098	800.000	0.058	-0.196
-600.084	-83.763	-0.405	0.130
-599.069	-47.912	0.180	0.088
-598.055	113.122	0.024	-0.030
-597.040	155.916	0.156	0.217
-596.025	-85.639	-0.299	-0.094
-595.011	800.000	0.149	0.426
-593.996	452.727	0.130	0.290
-592.982	800.000	0.075	-0.226
-591.967	85.597	0.156	-0.173
-590.952	136.916	-0.122	-0.160
-589.938	120.460	-0.185	-0.232
-588.923	734.066	0.046	-0.125
-587.909	800.000	-0.037	0.141
-586.894	-79.784	-0.196	0.066
-585.879	800.000	0.118	0.406
-584.865	-200.000	-0.016	-0.386
-583.850	593.206	-0.067	-0.166
-582.836	-77.421	-0.361	-0.127
-581.821	20.444	0.169	-0.137
-580.806	287.917	-0.133	-0.242
-579.792	153.280	-0.102	-0.140
-578.777	760.797	0.072	0.196
-577.763	-200.000	0.031	0.235
-576.748	-72.631	-0.440	-0.163
-575.733	251.540	-0.097	-0.167
-574.719	-102.239	-0.236	0.057
-573.704	-200.000	-0.030	0.207
-572.690	18.790	0.121	0.098
-571.675	-106.064	0.049	0.011
-570.661	68.845	-0.176	0.182
-569.646	2.003	-0.243	-0.177
-568.631	-6.431	-0.213	-0.146
-567.617	0.190	-0.319	-0.229
-566.602	-200.000	0.007	0.318
-565.588	161.315	-0.306	0.431
-564.573	-21.938	0.143	0.088
-563.558	78.921	-0.102	-0.110
-562.544	80.389	-0.020	0.022
-561.529	-81.377	0.130	-0.043
-560.515	53.263	0.244	-0.236
-559.500	800.000	0.040	0.160
-558.485	166.537	0.103	0.147
-557.471	-116.106	0.378	-0.071
-556.456	650.406	-0.059	-0.152
-555.442	-16.602	0.175	0.112
-554.427	-130.703	0.055	-0.007
-553.412	-102.406	-0.167	-0.040
-552.398	-200.000	0.024	-0.157
-551.383	-98.327	0.347	-0.089
-550.369	466.122	0.155	-0.349
-549.354	206.482	0.121	-0.190
-548.339	800.000	0.100	-0.365
-547.325	20.490	0.336	0.273
-546.310	1.836	-0.167	0.121
-545.296	-58.077	0.349	-0.153
-544.281	-170.110	-0.091	0.003
-543.266	29.458	-0.046	0.039
-542.252	558.974	-0.135	0.329
-541.237	51.576	-0.092	0.088
-540.223	-3.938	-0.189	0.132
-539.208	-51.931	0.193	0.090
-538.193	212.144	0.108	0.172
-537.179	59.497	0.206	0.205
-536.164	172.557	-0.139	-0.202
-535.150	30.203	0.176	0.151
-534.135	-146.309	-0.209	-0.018
-533.121	121.093	-0.148	0.186
-532.106	303.798	-0.053	0.100
-531.091	-108.536	-0.098	-0.021
-530.077	58.081	0.147	-0.145
-529.062	-71.410	-0.117	0.044
-528.048	-60.300	0.476	-0.204
-527.033	-7.738	0.140	0.095
-526.018	495.462	-0.132	0.305
-525.004	-121.588	-0.335	-0.056
-523.989	-200.000	-0.002	0.196
-522.975	800.000	-0.081	-0.231
-521.960	-200.000	-0.008	0.216
-520.945	76.559	-0.251	0.267
-519.931	-2.655	-0.201	0.141
-518.916	800.000	0.028	-0.115
-517.902	-87.442	0.141	-0.043
-516.887	86.073	0.210	-0.233
-515.872	88.807	0.202	0.226
-514.858	98.041	-0.288	0.333
-513.843	800.000	-0.028	0.077
-512.829	427.154	0.086	0.187
-511.814	-17.573	0.250	0.158
-510.799	197.400	-0.154	0.237
-509.785	800.000	-0.044	-0.192
-508.770	-130.380	-0.358	0.049
-507.756	46.436	-0.157	0.147
-506.741	121.610	0.041	-0.051
-505.726	124.678	-0.086	0.109
-504.712	-119.047	0.107	-0.019
-503.697	-170.270	-0.256	-0.009
-502.683	341.944	0.036	0.072
-501.668	800.000	0.013	-0.056
-500.653	4.248	0.342	-0.252
-499.639	32.351	-0.150	0.130
-498.624	361.119	-0.102	-0.205
-497.610	800.000	-0.163	0.484
-496.595	-127.464	-0.450	-0.066
-495.581	26.297	-0.141	0.119
-494.566	800.000	0.068	-0.266
-493.551	251.366	-0.034	0.059
-492.537	-200.000	-0.013	-0.121
-491.522	-131.595	0.141	-0.019
-490.508	96.791	-0.059	-0.068
-489.493	-102.248	-0.089	0.022
-488.478	66.747	-0.188	0.192
-487.464	218.607	-0.043	0.069
-486.449	-76.960	0.179	0.063
-485.435	-25.389	0.058	-0.035
-484.420	-101.281	0.360	0.088
-483.405	-83.903	0.146	-0.047
-482.391	-0.228	-0.138	-0.099
-481.376	800.000	0.071	0.236
-480.362	-200.000	-0.011	0.163
-479.347	-63.030	-0.228	0.094
-478.332	52.648	0.136	-0.130
-477.318	-39.414	0.237	-0.125
-476.303	800.000	-0.028	0.092
-475.289	-200.000	-0.037	-0.341
-474.274	-160.189	-0.315	0.017
-473.259	285.670	-0.086	-0.156
-472.245	-200.000	-0.001	-0.243
-471.230	-71.748	0.313	-0.117
-470.216	171.304	-0.197	-0.283
-469.201	800.000	-0.052	-0.178
-468.186	50.861	-0.114	0.109
-467.172	-41.167	0.226	-0.117
-466.157	50.119	-0.321	0.305
-465.143	482.032	0.077	-0.175
-464.128	54.773	-0.228	0.221
-463.113	-152.104	-0.020	-0.001
-462.099	57.558	0.221	0.217
-461.084	-50.400	0.291	0.138
-460.070	125.614	0.132	-0.167
-459.055	-65.480	-0.134	-0.054
-458.040	-97.693	0.040	-0.010
-457.026	800.000	-0.023	-0.080
-456.011	-191.559	0.108	-0.001
-454.997	-117.930	0.196	0.035
-453.982	178.900	-0.052	-0.077
-452.968	180.622	-0.070	0.104
-451.953	632.136	-0.163	0.414
-450.938	-143.603	0.182	0.017
-449.924	213.074	0.282	-0.447
-448.909	-200.000	0.000	0.201
-447.895	-200.000	-0.078	-0.410
-446.880	199.382	0.188	-0.288
-445.865	9.013	-0.221	-0.167
-444.851	800.000	0.064	-0.253
-443.836	-58.302	0.474	0.207
-442.822	-107.160	0.172	0.038
-441.807	-145.029	-0.182	-0.017
-440.792	-100.592	-0.153	-0.038
-439.778	-200.000	-0.005	0.107
-438.763	14.274	-0.094	-0.074
-437.749	-200.000	-0.042	-0.204
-436.734	29.096	-0.151	-0.128
-435.719	52.739	0.148	0.142
-434.705	-111.922	-0.219	0.044
-433.690	-22.929	-0.262	0.159
-432.676	-42.875	0.153	-0.078
-431.661	800.000	0.047	0.160
-430.646	-200.000	0.057	0.253
-429.632	305.751	-0.134	-0.250
-428.617	2.482	0.137	-0.099
-427.603	-200.000	-0.017	-0.075
-426.588	612.901	-0.109	-0.274
-425.573	-67.414	0.127	-0.050
-424.559	800.000	-0.101	-0.338
-423.544	-67.087	-0.056	-0.022
-422.530	41.118	-0.093	0.085
-421.515	46.247	0.268	-0.249
-420.500	496.529	-0.128	-0.295
-419.486	458.081	-0.077	-0.171
-418.471	-118.471	-0.295	0.052
-417.457	-48.446	0.369	-0.178
-416.442	211.075	0.064	-0.101
-415.428	180.231	-0.110	0.162
-414.413	800.000	0.024	0.097
-413.398	-200.000	-0.021	-0.100
-412.384	-11.373	0.232	-0.153
-411.369	-28.046	-0.071	0.041
-410.355	-134.235	0.348	-0.043
-409.340	216.106	0.031	-0.049
-408.325	65.628	-0.119	-0.121
-407.311	-31.749	-0.238	-0.134
-406.296	-61.515	-0.386	0.162
-405.282	-41.100	0.236	-0.122
-404.267	800.000	0.089	0.283
-403.252	536.016	-0.187	0.444
-402.238	-88.630	-0.041	-0.012
-401.223	300.048	0.090	0.166
-400.209	-56.482	-0.059	-0.026
-399.194	-136.915	0.204	0.023
-398.179	51.631	0.149	0.142
-397.165	160.816	0.160	0.224
-396.150	778.902	0.025	0.068
-395.136	1.316	-0.102	0.073
-394.121	113.070	-0.093	-0.113
-393.106	26.318	0.235	0.197
-392.092	-133.324	0.116	-0.015
-391.077	-21.253	-0.312	-0.191
-390.063	-7.144	-0.157	-0.107
-389.048	153.236	-0.203	0.277
-388.033	-66.497	0.146	-0.058
-387.019	800.000	-0.067	-0.188
-386.004	-200.000	-0.012	-0.100
-384.990	-21.863	0.244	0.148
-383.975	-1.543	0.351	-0.248
-382.960	-200.000	0.008	0.153
-381.946	-200.000	-0.005	-0.253
-380.931	144.826	0.048	-0.064
-379.917	17.293	-0.197	-0.156
-378.902	32.216	-0.210	0.181
-377.888	-200.000	-0.015	-0.183
-376.873	-200.000	0.068	-0.587
-375.858	-78.849	0.280	0.095
-374.844	-104.469	0.356	0.082
-373.829	477.741	-0.040	0.092
-372.815	-200.000	-0.003	-0.125
-371.800	-105.932	0.132	0.030
-370.785	22.044	-0.252	-0.206
-369.771	-200.000	-0.045	0.199
-368.756	-200.000	-0.008	-0.162
-367.742	-165.428	-0.170	-0.007
-366.727	-120.584	-0.291	0.049
-365.712	-51.445	-0.153	0.071
-364.698	-104.375	0.097	-0.022
-363.683	-200.000	-0.031	-0.226
-362.669	227.853	0.106	0.173
-361.654	-200.000	0.030	0.202
-360.639	-11.611	-0.466	0.306
-359.625	282.935	-0.111	-0.200
-358.610	-21.966	0.339	-0.206
-357.596	41.374	-0.242	-0.219
-356.581	-14.677	0.121	0.078
-355.566	720.130	0.168	0.446
-354.552	-79.663	0.226	-0.076
-353.537	-29.791	-0.438	-0.249
-352.523	177.205	0.120	0.175
-351.508	487.019	-0.080	0.182
-350.493	-78.713	-0.270	-0.092
-349.479	91.208	-0.074	0.083
-348.464	-69.005	0.242	-0.093
-347.450	-95.551	-0.159	0.043
-346.435	661.763	-0.073	-0.188
-345.420	-200.000	-0.024	-0.312
-344.406	26.556	-0.139	0.116
-343.391	800.000	0.120	-0.419
-342.377	-7.513	-0.195	-0.131
-341.362	19.448	0.295	0.237
-340.348	-200.000	0.018	-0.312
-339.333	-200.000	-0.052	-0.297
-338.318	-41.867	-0.335	-0.172
-337.304	-200.000	0.004	-0.148
-336.289	-89.452	-0.311	0.091
-335.275	22.622	-0.037	-0.030
-334.260	-40.494	0.306	-0.159
-333.245	512.634	-0.056	0.130
-332.231	-130.241	0.130	-0.018
-331.216	161.566	0.115	0.161
-330.202	800.000	0.104	0.321
-329.187	-149.488	-0.214	0.017
-328.172	601.453	0.069	0.171
-327.158	-69.100	-0.332	-0.128
-326.143	800.000	0.032	-0.138
-325.129	0.181	-0.274	0.195
-324.114	108.843	0.196	0.234
-323.099	800.000	-0.030	0.118
-322.085	-200.000	-0.013	-0.076
-321.070	-99.691	-0.338	0.085
-320.056	-200.000	-0.089	0.000
-319.041	27.588	-0.273	0.229
-318.026	-16.933	0.299	-0.188
-317.012	-107.646	0.049	-0.011
-315.997	-91.244	0.125	-0.036
-314.983	-86.812	0.069	0.021
-313.968	-200.000	0.000	-0.018
-312.953	12.767	0.254	-0.196
-311.939	108.193	-0.099	-0.118
-310.924	-124.848	-0.201	-0.031
-309.910	26.688	-0.075	0.062
-308.895	25.158	-0.223	0.185
-307.880	-200.000	0.008	0.243
-306.866	-152.628	-0.365	0.026
-305.851	377.147	-0.041	-0.084
-304.837	-200.000	0.010	-0.127
-303.822	-95.385	-0.243	-0.065
-302.807	245.674	-0.115	-0.193
-301.793	12.196	-0.116	0.089
-300.778	-28.088	0.108	0.062
-299.764	156.068	0.118	0.163
-298.749	518.768	-0.079	0.185
-297.735	-104.695	0.157	-0.036
-296.720	135.233	-0.111	-0.144
-295.705	-76.035	-0.162	-0.057
-294.691	70.787	0.224	0.232
-293.676	-32.799	0.133	-0.074
-292.662	-60.518	0.120	0.051
-291.647	-39.701	0.086	0.045
-290.632	800.000	0.070	-0.242
-289.618	800.000	-0.081	0.291
-288.603	199.404	0.142	-0.217
-287.589	-200.000	-0.019	0.160
-286.574	100.950	-0.159	0.184
-285.559	-72.296	-0.209	0.077
-284.545	-200.000	0.023	0.190
-283.530	150.222	0.072	0.097
-282.516	-11.241	-0.276	0.181
-281.501	248.396	0.349	0.588
-280.486	34.455	-0.113	0.098
-279.472	170.175	0.121	0.172
-278.457	141.484	0.046	-0.061
-277.443	-200.000	-0.011	0.430
-276.428	68.141	0.191	0.195
-275.413	232.250	-0.087	-0.142
-274.399	-174.881	-0.111	-0.003
-273.384	425.377	-0.108	0.232
-272.370	-200.000	0.032	0.270
-271.355	-147.343	0.152	0.013
-270.340	-100.839	0.390	-0.096
-269.326	159.697	0.191	-0.265
-268.311	13.180	0.182	0.141
-267.297	209.248	0.225	-0.351
-266.282	288.197	0.154	-0.277
-265.267	-24.462	0.220	-0.131
-264.253	159.965	0.236	0.328
-263.238	-200.000	0.055	-0.322
-262.224	129.461	-0.145	-0.184
-261.209	-129.903	0.040	0.005
-260.195	13.851	0.461	0.357
-259.180	239.614	0.095	0.157
-258.165	431.327	-0.050	-0.108
-257.151	12.878	-0.124	0.095
-256.136	-116.619	-0.119	-0.022
-255.122	-51.580	-0.287	0.133
-254.107	107.916	0.170	-0.201
-253.092	76.732	-0.268	0.283
-252.078	-49.678	-0.490	-0.232
-251.063	800.000	-0.031	0.115
-250.049	188.559	0.183	-0.273
-249.034	-200.000	-0.009	0.120
-248.019	511.463	-0.120	0.279
-247.005	-52.334	0.167	-0.077
-245.990	17.682	0.054	-0.042
-244.976	-55.549	-0.155	0.069
-243.961	-65.519	-0.369	-0.147
-242.946	-200.000	0.005	-0.088
-241.932	167.579	0.072	-0.101
-240.917	-38.806	0.256	0.134
-239.903	525.317	0.076	0.177
-238.888	219.417	0.174	-0.277
-237.873	19.012	-0.127	0.101
-236.859	61.601	-0.060	-0.059
-235.844	476.635	-0.048	0.108
-234.830	-9.030	-0.345	-0.230
-233.815	-15.235	0.200	0.128
-232.800	-5.329	-0.158	0.108
-231.786	800.000	0.032	-0.090
-230.771	-200.000	0.008	-0.095
-229.757	37.273	0.302	-0.266
-228.742	800.000	-0.018	-0.061
-227.727	800.000	0.047	-0.135
-226.713	-38.473	-0.221	0.116
-225.698	-4.143	-0.181	0.125
-224.684	134.074	0.187	-0.241
-223.669	800.000	-0.083	-0.270
-222.655	55.525	-0.317	-0.305
-221.640	655.857	0.122	-0.310
-220.625	-124.226	0.476	0.074
-219.611	-200.000	-0.004	0.404
-218.596	-65.397	-0.202	-0.081
-217.582	-141.964	0.307	0.030
-216.567	-100.920	0.344	0.084
-215.552	314.693	0.288	0.539
-214.538	150.944	-0.148	-0.200
-213.523	24.596	-0.176	-0.145
-212.509	-200.000	0.006	0.171
-211.494	-56.634	-0.092	-0.041
-210.479	-164.451	0.287	0.013
-209.465	-96.493	-0.118	-0.031
-208.450	308.391	0.178	0.330
-207.436	-200.000	0.003	-0.198
-206.421	-45.514	0.103	-0.051
-205.406	28.644	-0.180	0.151
-204.392	800.000	-0.112	-0.310
-203.377	-91.226	0.027	-0.008
-202.363	218.333	-0.126	-0.199
-201.348	40.196	-0.201	-0.179
-200.333	140.583	0.092	0.121
-199.319	-57.314	-0.219	-0.096
-198.304	-86.453	0.097	0.030
-197.290	800.000	0.085	0.338
-196.275	-55.025	-0.206	0.092
-195.260	-18.969	0.426	-0.263
-194.246	-146.136	-0.094	0.008
-193.231	-119.283	-0.116	-0.020
-192.217	542.434	0.121	-0.286
-191.202	800.000	-0.037	-0.156
-190.187	-200.000	-0.013	0.189
-189.173	-200.000	-0.001	-0.028
-188.158	22.243	-0.146	0.119
-187.144	-14.319	0.194	-0.124
-186.129	37.871	-0.181	-0.160
-185.114	-166.670	-0.155	0.006
-184.100	406.714	0.096	0.202
-183.085	-85.256	0.231	0.071
-182.071	203.677	-0.105	0.161
-181.056	-200.000	-0.014	0.118
-180.042	83.819	0.198	0.215
-179.027	259.673	0.041	0.071
-178.012	45.411	-0.119	0.109
-176.998	-192.339	-0.159	-0.001
-175.983	25.766	0.040	-0.033
-174.969	214.456	0.278	0.437
-173.954	-102.831	-0.093	-0.022
-172.939	33.769	0.138	-0.119
-171.925	102.936	-0.138	-0.161
-170.910	230.026	0.103	-0.166
-169.896	800.000	-0.112	-0.316
-168.881	-53.745	0.249	-0.113
-167.866	411.652	-0.218	-0.458
-166.852	-200.000	-0.024	0.187
-165.837	-200.000	-0.001	0.217
-164.823	303.248	0.196	0.360
-163.808	-28.289	-0.063	0.036
-162.793	126.083	0.076	0.096
-161.779	-200.000	-0.002	-0.343
-160.764	800.000	0.176	0.541
-159.750	-200.000	-0.008	0.242
-158.735	-200.000	0.032	0.256
-157.720	134.984	0.058	0.075
-156.706	-200.000	-0.001	-0.155
-155.691	-128.036	0.281	0.040
-154.677	-200.000	-0.007	-0.334
-153.662	-121.656	-0.095	-0.016
-152.647	-200.000	0.002	0.032
-151.633	-17.965	0.224	0.139
-150.618	228.905	0.036	-0.059
-149.604	20.735	0.103	-0.083
-148.589	-92.549	-0.141	-0.039
-147.574	45.228	-0.108	0.099
-146.560	167.641	0.284	0.399
-145.545	-161.300	-0.321	-0.017
-144.531	44.167	-0.164	0.149
-143.516	190.406	0.102	0.152
-142.502	104.661	0.239	-0.280
-141.487	-81.938	0.265	0.086
-140.472	-200.000	-0.024	0.245
-139.458	-155.712	-0.349	-0.022
-138.443	-200.000	0.030	0.164
-137.429	36.608	-0.045	-0.040
-136.414	-129.934	-0.154	-0.021
-135.399	183.767	0.228	0.334
-134.385	576.293	0.090	-0.218
-133.370	129.110	-0.124	0.156
-132.356	58.434	0.102	0.100
-131.341	14.636	-0.201	-0.156
-130.326	-69.514	-0.093	0.035
-129.312	-152.015	-0.168	0.012
-128.297	-200.000	-0.033	0.207
-127.283	200.764	0.172	0.262
-126.268	140.517	0.103	0.135
-125.253	-77.365	0.204	-0.070
-124.239	7.726	-0.066	0.049
-123.224	22.213	0.097	-0.079
-122.210	-200.000	0.072	0.377
-121.195	-200.000	-0.006	-0.035
-120.180	241.153	0.098	-0.162
