DTS Sentinel unit serial number:	SN413079Multiplexer serial number:	ORYXHardware model number:	OX4-SRSoftware version number:	ORYX F/W v4.00 Oryx Data Collector v3.7.2.0data status	okinstallation	princeton_trtdifferential loss correction	single-endedforward channel	channel 4reverse channel	N/Adate	2019/09/13time	08:09:34forward acquisition time	60.00reverse acquisition time	0.00gamma	496.2192k internal	0.2318k external	0.2318temperature offset calibration	1.0198default loss term (dB/km)	0.3790temperature slope calibration	1.0000multiplexer offset coefficient	1.0000multiplexer slope coefficient	1.0000fibre end	0.00T internal ref (°C)	27.05T ext. ref 1 (°C)	4.25T ext. ref 2 (°C)	23.20length (m)	temperature (°C)	Stokes	anti-Stokes-747.200	800.000	-0.030	-0.101
-746.185	-200.000	0.008	0.181
-745.171	800.000	0.026	0.105
-744.156	13.972	-0.449	0.353
-743.142	234.707	0.131	0.218
-742.127	430.374	-0.115	0.251
-741.112	-176.040	0.055	0.001
-740.098	800.000	0.082	0.346
-739.083	215.057	0.088	0.141
-738.069	252.287	0.100	-0.172
-737.054	-86.333	-0.070	0.022
-736.039	-78.948	-0.545	0.188
-735.025	-200.000	-0.010	0.291
-734.010	553.568	-0.080	0.195
-732.996	800.000	0.078	-0.236
-731.981	208.586	0.070	0.111
-730.966	282.614	-0.192	-0.348
-729.952	178.940	0.140	-0.207
-728.937	-37.332	0.168	-0.091
-727.923	81.007	-0.063	-0.069
-726.908	160.175	0.141	-0.199
-725.894	-67.735	-0.188	-0.075
-724.879	80.541	-0.173	-0.188
-723.864	-141.272	-0.323	0.033
-722.850	2.451	-0.275	0.202
-721.835	-200.000	-0.020	0.138
-720.821	-35.961	-0.053	-0.029
-719.806	61.052	-0.131	-0.131
-718.791	207.752	0.264	-0.417
-717.777	161.407	-0.071	-0.100
-716.762	-54.023	0.041	0.019
-715.748	357.287	0.123	-0.248
-714.733	-200.000	0.007	0.152
-713.718	-200.000	-0.057	0.309
-712.704	85.486	-0.169	-0.187
-711.689	-200.000	-0.017	0.239
-710.675	-20.015	0.236	0.147
-709.660	-200.000	0.001	-0.056
-708.645	237.199	0.105	0.175
-707.631	260.008	0.062	0.108
-706.616	-143.289	0.249	-0.024
-705.602	-19.914	0.074	-0.046
-704.587	-148.707	0.532	0.044
-703.572	-200.000	-0.052	-0.310
-702.558	-4.324	-0.147	0.103
-701.543	-82.529	0.349	0.114
-700.529	5.363	0.189	-0.141
-699.514	148.934	0.108	0.148
-698.499	-200.000	-0.006	-0.105
-697.485	-79.808	0.309	-0.105
-696.470	271.142	0.108	-0.191
-695.456	27.928	-0.326	0.277
-694.441	-13.792	0.312	0.204
-693.426	-150.189	0.263	-0.021
-692.412	-89.633	0.137	-0.040
-691.397	-200.000	-0.024	-0.108
-690.383	-75.127	0.329	0.119
-689.368	800.000	-0.034	0.114
-688.354	90.656	0.154	-0.174
-687.339	800.000	-0.009	-0.033
-686.324	800.000	-0.026	-0.095
-685.310	-200.000	-0.032	0.150
-684.295	165.391	-0.164	-0.233
-683.281	3.041	0.187	-0.137
-682.266	-81.605	-0.221	-0.073
-681.251	469.231	0.122	-0.276
-680.237	-54.189	0.076	0.035
-679.222	-139.980	-0.171	-0.018
-678.208	588.824	0.091	0.226
-677.193	273.845	-0.075	0.134
-676.178	40.318	-0.147	-0.133
-675.164	-132.814	-0.104	-0.013
-674.149	648.201	-0.016	-0.041
-673.135	800.000	-0.087	-0.289
-672.120	-200.000	0.036	0.350
-671.105	-200.000	-0.006	-0.069
-670.091	68.609	0.144	0.149
-669.076	-46.638	0.143	-0.071
-668.062	70.869	-0.275	-0.287
-667.047	199.881	0.208	-0.322
-666.032	-75.582	-0.315	-0.113
-665.018	-109.497	-0.252	-0.054
-664.003	-99.823	-0.099	-0.025
-662.989	12.772	0.109	-0.085
-661.974	-40.397	-0.270	-0.142
-660.959	438.182	-0.061	0.135
-659.945	12.671	-0.109	-0.085
-658.930	412.973	-0.027	0.057
-657.916	-116.233	-0.310	-0.058
-656.901	-124.826	-0.138	-0.021
-655.886	-149.203	0.180	0.015
-654.872	-200.000	0.040	0.186
-653.857	-159.892	-0.306	0.017
-652.843	96.981	0.088	0.102
-651.828	66.070	-0.142	-0.145
-650.814	-80.661	-0.188	0.063
-649.799	434.819	-0.055	0.120
-648.784	19.615	0.184	-0.149
-647.770	800.000	0.025	-0.089
-646.755	-51.591	0.227	0.107
-645.741	-110.409	-0.300	-0.063
-644.726	537.401	-0.108	-0.259
-643.711	-144.196	0.066	0.006
-642.697	-166.483	-0.219	0.009
-641.682	-133.415	0.074	-0.009
-640.668	132.554	0.080	0.104
-639.653	-55.556	0.161	0.072
-638.638	115.775	0.190	-0.234
-637.624	5.809	-0.207	0.155
-636.609	-160.124	-0.336	0.018
-635.595	-17.937	0.072	0.046
-634.580	-101.576	0.088	-0.021
-633.565	145.867	-0.213	-0.288
-632.551	11.485	0.262	-0.202
-631.536	-45.878	-0.188	-0.093
-630.522	800.000	-0.075	-0.219
-629.507	-200.000	0.012	0.220
-628.492	-167.923	0.230	0.009
-627.478	-169.336	0.148	-0.005
-626.463	385.600	0.083	0.172
-625.449	-200.000	-0.022	0.119
-624.434	94.523	0.090	-0.103
-623.419	-116.833	0.407	-0.075
-622.405	-83.188	-0.270	-0.088
-621.390	-126.754	0.223	-0.033
-620.376	4.984	-0.264	-0.196
-619.361	208.427	0.251	-0.395
-618.346	-200.000	-0.064	0.443
-617.332	-62.724	-0.172	-0.072
-616.317	-0.035	-0.372	-0.267
-615.303	-117.608	0.165	-0.030
-614.288	55.312	0.153	0.149
-613.273	-200.000	-0.063	0.326
-612.259	22.138	-0.074	0.061
-611.244	800.000	0.079	0.272
-610.230	-200.000	-0.001	-0.257
-609.215	23.715	-0.049	0.040
-608.201	197.546	0.160	-0.246
-607.186	25.596	-0.264	0.221
-606.171	65.793	0.125	0.128
-605.157	-64.006	0.214	-0.088
-604.142	-200.000	-0.008	0.098
-603.128	-63.718	-0.270	0.111
-602.113	217.729	0.182	0.292
-601.098	-200.000	-0.011	0.072
-600.084	-162.397	0.105	0.005
-599.069	60.687	0.204	-0.203
-598.055	-200.000	-0.010	-0.115
-597.040	164.088	-0.159	-0.225
-596.025	11.486	-0.284	-0.219
-595.011	-41.358	-0.127	-0.066
-593.996	17.165	0.264	-0.210
-592.982	-100.608	-0.127	0.032
-591.967	72.979	0.087	0.091
-590.952	148.390	-0.361	0.490
-589.938	-18.275	-0.124	0.078
-588.923	-137.937	-0.265	-0.030
-587.909	75.661	0.101	-0.107
-586.894	213.158	0.088	0.140
-585.879	215.922	-0.145	0.231
-584.865	-113.359	-0.351	0.069
-583.850	202.298	-0.152	-0.235
-582.836	-200.000	-0.000	-0.446
-581.821	-58.807	-0.132	0.057
-580.806	46.793	-0.198	-0.185
-579.792	41.634	-0.415	-0.378
-578.777	-200.000	-0.003	-0.073
-577.763	-171.790	0.129	-0.004
-576.748	-200.000	-0.009	-0.054
-575.733	90.019	-0.231	-0.259
-574.719	-85.748	-0.160	-0.050
-573.704	-8.766	0.232	0.156
-572.690	800.000	0.037	-0.139
-571.675	-200.000	-0.020	0.094
-570.661	66.115	0.170	0.173
-569.646	54.253	-0.167	-0.162
-568.631	-102.315	-0.120	-0.029
-567.617	-47.406	0.422	-0.206
-566.602	-103.073	-0.131	0.031
-565.588	-9.610	-0.174	0.117
-564.573	2.210	0.157	-0.114
-563.558	136.111	-0.101	-0.132
-562.544	-149.819	0.141	0.011
-561.529	-63.380	-0.275	0.114
-560.515	189.655	-0.137	-0.206
-559.500	641.039	0.065	0.166
-558.485	800.000	-0.049	0.186
-557.471	-22.439	0.393	0.239
-556.456	-82.922	0.050	0.016
-555.442	-200.000	-0.010	-0.144
-554.427	-200.000	-0.012	-0.096
-553.412	-48.234	-0.227	-0.110
-552.398	232.623	-0.059	0.098
-551.383	186.418	0.134	0.200
-550.369	-117.277	-0.402	0.073
-549.354	-143.161	-0.131	-0.013
-548.339	57.714	0.404	0.397
-547.325	-40.106	0.208	-0.109
-546.310	-76.249	-0.217	-0.077
-545.296	312.873	-0.139	-0.262
-544.281	83.903	-0.340	-0.373
-543.266	245.225	0.041	-0.070
-542.252	370.951	-0.185	0.378
-541.237	-77.727	0.078	-0.027
-540.223	577.240	0.029	0.072
-539.208	236.135	-0.103	0.171
-538.193	-85.034	-0.312	-0.098
-537.179	202.816	-0.093	-0.144
-536.164	800.000	0.032	0.123
-535.150	113.385	-0.174	0.212
-534.135	109.298	-0.112	0.134
-533.121	-200.000	0.035	-0.351
-532.106	664.582	0.142	-0.368
-531.091	162.815	-0.075	-0.106
-530.077	38.006	-0.171	-0.152
-529.062	26.338	0.492	-0.412
-528.048	-59.676	0.037	-0.016
-527.033	-200.000	-0.015	-0.172
-526.018	211.751	0.064	-0.101
-525.004	56.558	0.228	0.223
-523.989	-44.494	-0.320	0.160
-522.975	713.387	0.068	0.182
-521.960	-83.794	0.078	0.025
-520.945	55.626	-0.065	0.063
-519.931	-21.444	0.166	-0.102
-518.916	187.693	-0.150	-0.225
-517.902	117.877	0.150	0.186
-516.887	164.972	-0.089	0.125
-515.872	800.000	0.167	-0.599
-514.858	-7.610	-0.131	0.089
-513.843	-67.907	0.016	0.006
-512.829	557.609	-0.101	-0.244
-511.814	2.184	0.357	0.259
-510.799	-200.000	0.006	-0.250
-509.785	-100.460	-0.264	-0.066
-508.770	-15.964	-0.153	0.098
-507.756	177.481	-0.208	-0.304
-506.741	-94.571	-0.234	-0.064
-505.726	131.822	0.074	-0.095
-504.712	-129.171	0.376	-0.053
-503.697	-13.098	0.149	0.097
-502.683	235.278	-0.024	0.040
-501.668	-200.000	-0.031	-0.164
-500.653	53.015	-0.337	-0.324
-499.639	550.281	0.160	-0.385
-498.624	-42.677	-0.147	0.075
-497.610	115.220	0.133	0.163
-496.595	-81.823	-0.369	0.121
-495.581	-3.861	0.140	0.098
-494.566	606.323	-0.026	0.065
-493.551	800.000	0.076	-0.331
-492.537	40.499	-0.263	-0.237
-491.522	-91.081	-0.328	-0.094
-490.508	129.961	0.107	0.137
-489.493	117.298	-0.254	-0.313
-488.478	800.000	0.066	0.231
-487.464	-139.645	-0.210	-0.022
-486.449	60.335	0.086	0.085
-485.435	-74.436	0.116	0.042
-484.420	800.000	-0.041	0.171
-483.405	331.787	0.171	0.331
-482.391	-200.000	-0.044	-0.567
-481.376	-84.293	-0.132	0.042
-480.362	-1.115	-0.024	-0.017
-479.347	173.559	0.255	0.368
-478.332	-67.591	0.015	-0.006
-477.318	-69.971	-0.046	0.017
-476.303	96.586	-0.100	-0.115
-475.289	800.000	-0.066	-0.203
-474.274	800.000	-0.086	-0.312
-473.259	136.982	-0.216	0.282
-472.245	138.924	0.073	-0.096
-471.230	-17.620	-0.181	-0.114
-470.216	0.534	0.154	-0.110
-469.201	-175.044	-0.201	0.006
-468.186	800.000	0.064	-0.262
-467.172	37.470	0.054	0.048
-466.157	-143.271	-0.202	-0.019
-465.143	800.000	-0.061	-0.178
-464.128	572.324	-0.137	0.335
-463.113	458.358	0.076	0.168
-462.099	55.370	0.124	-0.120
-461.084	-7.792	0.018	-0.012
-460.070	-112.307	0.110	0.022
-459.055	-43.439	0.109	-0.055
-458.040	-68.267	-0.210	0.082
-457.026	-41.464	0.004	0.002
-456.011	-2.068	0.374	0.263
-454.997	85.006	0.193	0.211
-453.982	-139.331	0.143	-0.015
-452.968	752.600	-0.119	0.322
-451.953	66.060	-0.114	0.116
-450.938	-39.393	0.389	-0.204
-449.924	-86.968	0.148	-0.045
-448.909	-148.718	0.361	-0.029
-447.895	352.582	-0.053	0.106
-446.880	-54.253	0.139	-0.063
-445.865	282.816	0.089	0.159
-444.851	-200.000	-0.027	0.313
-443.836	-200.000	-0.086	0.406
-442.822	-58.392	-0.290	-0.126
-441.807	-200.000	0.081	-0.393
-440.792	-100.017	0.448	0.112
-439.778	-150.406	0.128	0.010
-438.763	-161.271	0.108	0.006
-437.749	243.760	0.141	-0.236
-436.734	411.711	0.037	0.079
-435.719	-200.000	0.003	-0.199
-434.705	-46.021	-0.287	-0.141
-433.690	-81.166	0.166	-0.055
-432.676	173.744	-0.023	-0.033
-431.661	-156.135	-0.346	0.022
-430.646	-107.197	-0.015	0.003
-429.632	-113.650	0.232	0.045
-428.617	-200.000	-0.011	0.208
-427.603	99.232	0.142	-0.164
-426.588	504.806	0.085	0.197
-425.573	52.642	-0.114	-0.109
-424.559	-191.824	-0.059	0.001
-423.544	-26.991	0.074	0.043
-422.530	-200.000	-0.015	-0.302
-421.515	800.000	-0.029	0.092
-420.500	-200.000	0.041	-0.484
-419.486	23.795	-0.116	-0.096
-418.471	245.637	-0.072	-0.121
-417.457	-65.093	-0.093	0.038
-416.442	-200.000	0.366	0.001
-415.428	466.683	-0.198	0.443
-414.413	166.968	0.184	0.261
-413.398	-10.902	-0.108	-0.071
-412.384	-6.873	-0.159	-0.108
-411.369	-106.347	-0.392	0.087
-410.355	402.431	-0.158	0.331
-409.340	-102.000	-0.227	-0.055
-408.325	1.475	-0.174	0.125
-407.311	41.336	0.027	-0.024
-406.296	6.871	0.045	-0.034
-405.282	-180.418	-0.216	0.004
-404.267	41.146	0.086	-0.078
-403.252	-200.000	-0.061	0.315
-402.238	-48.814	-0.131	0.063
-401.223	32.427	-0.257	0.221
-400.209	232.257	-0.022	0.036
-399.194	-97.301	-0.200	-0.052
-398.179	-81.386	0.395	0.130
-397.165	183.496	0.117	0.172
-396.150	-200.000	-0.013	0.140
-395.136	-45.190	-0.335	-0.166
-394.121	23.861	-0.101	0.083
-393.106	-200.000	-0.026	-0.169
-392.092	800.000	-0.020	0.070
-391.077	138.968	0.027	0.035
-390.063	421.965	-0.037	-0.079
-389.048	-30.644	0.155	-0.088
-388.033	-177.772	0.227	0.005
-387.019	279.213	0.065	0.116
-386.004	166.432	0.099	-0.140
-384.990	165.232	-0.141	0.199
-383.975	-80.657	0.083	0.028
-382.960	-33.583	0.232	0.128
-381.946	-30.020	-0.351	-0.199
-380.931	-129.239	-0.321	0.045
-379.917	-7.747	-0.183	0.123
-378.902	-137.138	0.318	0.036
-377.888	160.679	0.148	-0.206
-376.873	188.963	-0.140	-0.210
-375.858	68.151	-0.245	0.250
-374.844	20.494	0.365	0.295
-373.829	-160.530	0.228	0.012
-372.815	378.156	-0.063	0.128
-371.800	137.200	0.063	-0.083
-370.785	-69.539	-0.288	-0.110
-369.771	-91.332	0.213	-0.061
-368.756	-109.079	-0.310	0.066
-367.742	-118.115	-0.294	0.052
-366.727	-77.139	0.206	-0.072
-365.712	175.423	0.067	-0.097
-364.698	-200.000	0.001	0.087
-363.683	455.742	-0.083	-0.183
-362.669	-4.626	0.167	0.115
-361.654	-87.087	0.057	0.017
-360.639	527.218	0.105	0.246
-359.625	-90.541	0.136	-0.039
-358.610	573.816	0.135	0.329
-357.596	-200.000	-0.031	0.225
-356.581	-44.145	0.088	-0.044
-355.566	-200.000	-0.043	0.189
-354.552	800.000	0.063	-0.269
-353.537	-123.653	-0.456	-0.072
-352.523	800.000	-0.042	-0.127
-351.508	-200.000	-0.021	-0.134
-350.493	-200.000	-0.036	-0.310
-349.479	-36.808	-0.147	-0.079
-348.464	61.802	0.060	0.059
-347.450	-200.000	0.008	0.215
-346.435	-52.464	0.104	0.048
-345.420	8.046	-0.168	0.126
-344.406	-33.628	0.293	0.161
-343.391	800.000	0.152	0.492
-342.377	-101.574	-0.335	0.081
-341.362	267.079	-0.098	-0.171
-340.348	-40.590	-0.101	-0.052
-339.333	-116.205	0.265	-0.049
-338.318	800.000	-0.036	0.110
-337.304	553.553	-0.065	0.155
-336.289	-180.403	-0.349	-0.007
-335.275	-200.000	-0.011	0.170
-334.260	108.824	-0.064	-0.076
-333.245	-46.018	-0.055	-0.027
-332.231	-200.000	0.026	0.295
-331.216	-200.000	-0.016	-0.190
-330.202	-119.212	0.163	-0.028
-329.187	-103.646	-0.051	-0.012
-328.172	-145.004	0.086	-0.008
-327.158	800.000	0.031	-0.104
-326.143	-74.526	0.278	0.100
-325.129	51.522	0.277	-0.262
-324.114	-11.487	0.255	0.167
-323.099	-76.607	0.119	-0.042
-322.085	-137.458	0.109	-0.012
-321.070	-127.089	-0.157	-0.023
-320.056	-137.490	0.119	0.013
-319.041	224.259	0.035	-0.056
-318.026	-56.141	-0.422	0.187
-317.012	-12.169	-0.140	-0.091
-315.997	-1.594	0.017	-0.012
-314.983	-100.347	-0.237	0.058
-313.968	-41.017	-0.219	0.113
-312.953	-12.589	0.196	0.127
-311.939	623.919	0.029	0.073
-310.924	301.364	0.125	-0.230
-309.910	293.629	-0.155	-0.282
-308.895	-65.580	0.227	0.091
-307.880	-139.491	0.201	0.021
-306.866	71.893	-0.235	0.244
-305.851	-51.146	0.263	0.123
-304.837	-72.186	0.140	0.052
-303.822	-134.672	0.312	-0.038
-302.807	-10.370	-0.141	-0.093
-301.793	47.322	0.045	-0.042
-300.778	-12.117	0.169	0.110
-299.764	406.513	-0.034	0.071
-298.749	-94.753	-0.176	0.048
-297.735	-200.000	-0.013	0.140
-296.720	146.150	0.106	0.141
-295.705	-16.012	0.226	0.143
-294.691	-200.000	0.000	0.357
-293.676	484.167	-0.003	-0.007
-292.662	-85.011	0.473	-0.147
-291.647	59.444	0.059	0.058
-290.632	-90.926	0.087	0.025
-289.618	26.896	-0.007	0.006
-288.603	-118.129	-0.163	-0.029
-287.589	126.035	0.112	-0.140
-286.574	-200.000	0.033	-0.299
-285.559	-200.000	-0.014	0.088
-284.545	172.535	0.103	0.148
-283.530	-98.211	-0.260	0.066
-282.516	182.966	-0.222	-0.326
-281.501	800.000	0.079	-0.294
-280.486	-129.248	0.090	0.012
-279.472	-59.812	0.263	0.112
-278.457	-200.000	-0.005	-0.135
-277.443	800.000	-0.013	-0.047
-276.428	49.629	-0.035	0.033
-275.413	800.000	0.039	-0.138
-274.399	-200.000	-0.047	0.243
-273.384	-200.000	-0.016	-0.082
-272.370	-50.809	0.065	-0.030
-271.355	31.725	0.105	-0.089
-270.340	800.000	0.058	0.190
-269.326	-18.369	-0.096	0.060
-268.311	800.000	0.099	-0.304
-267.297	800.000	0.047	-0.144
-266.282	-200.000	-0.026	-0.327
-265.267	-99.307	-0.139	0.035
-264.253	-176.344	0.131	0.003
-263.238	653.438	-0.125	-0.319
-262.224	-91.987	-0.196	0.055
-261.209	450.690	0.027	0.060
-260.195	26.542	0.015	0.012
-259.180	-59.159	-0.098	-0.042
-258.165	-91.741	-0.239	0.067
-257.151	-131.197	-0.225	0.030
-256.136	-91.036	-0.370	-0.106
-255.122	-44.271	-0.066	-0.033
-254.107	-117.786	0.145	-0.026
-253.092	-200.000	0.010	0.165
-252.078	-200.000	0.033	0.289
-251.063	184.941	0.219	0.323
-250.049	91.073	0.242	-0.269
-249.034	-55.621	0.429	-0.191
-248.019	-104.383	-0.734	-0.169
-247.005	-200.000	0.023	-0.178
-245.990	174.397	0.153	-0.220
-244.976	-108.687	0.254	-0.054
-243.961	-37.746	-0.240	-0.127
-242.946	-168.834	0.440	-0.016
-241.932	800.000	0.043	0.132
-240.917	-135.933	-0.216	0.025
-239.903	-97.008	-0.217	0.056
-238.888	-99.750	-0.215	-0.053
-237.873	-65.800	0.295	0.117
-236.859	-108.603	-0.214	-0.046
-235.844	-44.646	-0.085	0.042
-234.830	-63.894	0.259	-0.105
-233.815	195.209	0.265	-0.399
-232.800	-143.515	0.163	0.015
-231.786	8.952	0.361	-0.270
-230.771	23.805	0.088	0.072
-229.757	725.352	0.108	0.285
-228.742	-168.141	0.507	-0.020
-227.727	2.215	-0.177	-0.127
-226.713	-200.000	-0.053	0.395
-225.698	-200.000	0.019	0.169
-224.684	-163.040	0.278	-0.013
-223.669	-73.418	0.131	-0.047
-222.655	16.834	-0.085	-0.067
-221.640	92.211	0.031	-0.034
-220.625	717.672	-0.084	-0.221
-219.611	-47.023	0.138	-0.067
-218.596	23.853	0.389	-0.318
-217.582	-74.157	-0.208	-0.075
-216.567	-45.813	-0.287	0.140
-215.552	-101.167	0.259	0.063
-214.538	759.163	-0.006	0.016
-213.523	164.978	0.126	-0.177
-212.509	-63.102	0.202	0.083
-211.494	178.473	-0.125	0.181
-210.479	800.000	-0.076	0.301
-209.465	43.655	0.022	0.020
-208.450	44.900	0.180	-0.164
-207.436	-184.319	0.190	0.003
-206.421	408.860	0.216	0.453
-205.406	75.995	-0.135	0.142
-204.392	800.000	0.016	0.061
-203.377	-20.773	0.180	0.109
-202.363	-200.000	0.002	0.192
-201.348	-200.000	0.012	-0.102
-200.333	-183.443	-0.136	-0.002
-199.319	540.662	0.079	0.186
-198.304	496.069	0.054	0.123
-197.290	213.467	0.220	-0.345
-196.275	-41.951	-0.128	0.065
-195.260	164.561	0.182	0.255
-194.246	-111.025	-0.022	0.004
-193.231	-17.363	0.309	0.193
-192.217	164.360	0.197	0.275
-191.202	169.299	-0.067	0.095
-190.187	-173.941	-0.065	-0.002
-189.173	18.038	0.243	-0.192
-188.158	326.426	-0.100	0.190
-187.144	207.956	-0.159	0.246
-186.129	105.981	-0.151	0.177
-185.114	612.524	-0.140	0.346
-184.100	613.282	-0.061	-0.150
-183.085	138.778	0.119	0.155
-182.071	23.075	0.113	0.092
-181.056	-78.033	-0.445	0.152
-180.042	-147.653	-0.072	0.006
-179.027	-7.194	-0.177	-0.119
-178.012	-97.128	0.155	0.040
-176.998	-154.017	0.306	-0.021
-175.983	-200.000	-0.055	-0.260
-174.969	121.063	0.217	-0.267
-173.954	-62.118	0.133	-0.055
-172.939	43.914	-0.020	-0.019
-171.925	800.000	-0.031	0.116
-170.910	-200.000	-0.032	0.397
-169.896	-130.109	-0.071	0.010
-168.881	10.026	-0.253	0.190
-167.866	302.547	0.031	0.057
-166.852	800.000	0.055	-0.164
-165.837	-200.000	0.010	-0.090
-164.823	-99.341	0.239	0.060
-163.808	-45.758	-0.194	-0.095
-162.793	-4.341	0.099	-0.068
-161.779	195.894	-0.185	0.279
-160.764	-26.354	-0.199	0.116
-159.750	-28.073	0.069	0.039
-158.735	79.770	-0.141	-0.150
-157.720	-97.742	-0.201	-0.051
-156.706	415.652	-0.103	-0.217
-155.691	-79.678	-0.087	0.029
-154.677	-200.000	0.012	0.068
-153.662	-151.380	0.177	-0.013
-152.647	-90.591	0.482	-0.138
-151.633	-4.165	-0.220	0.150
-150.618	-200.000	0.007	0.382
-149.604	532.590	0.015	-0.036
-148.589	168.911	0.090	0.126
-147.574	119.120	0.087	0.107
-146.560	-62.600	-0.143	-0.059
-145.545	-200.000	-0.087	0.399
-144.531	800.000	0.030	0.127
-143.516	-200.000	-0.010	-0.230
-142.502	-200.000	-0.009	-0.105
-141.487	288.766	0.116	0.208
-140.472	-85.262	-0.118	-0.036
-139.458	561.617	-0.137	0.327
-138.443	-200.000	-0.016	-0.075
-137.429	-175.682	-0.135	0.004
-136.414	246.894	-0.087	-0.145
-135.399	-19.929	0.175	0.106
-134.385	-56.590	0.357	-0.156
-133.370	401.251	-0.197	-0.408
-132.356	-89.869	0.268	-0.077
-131.341	800.000	-0.063	-0.269
-130.326	-93.789	-0.069	-0.019
-129.312	-3.794	0.085	0.058
-128.297	800.000	0.054	0.188
-127.283	-148.999	-0.393	-0.031
-126.268	100.740	-0.182	-0.208
-125.253	-148.164	-0.232	-0.019
-124.239	-200.000	0.022	0.326
-123.224	-64.443	-0.112	-0.045
-122.210	-101.823	0.130	-0.031
-121.195	27.897	0.261	-0.218
