DTS Sentinel unit serial number:	SN413079Multiplexer serial number:	ORYXHardware model number:	OX4-SRSoftware version number:	ORYX F/W v4.00 Oryx Data Collector v3.7.2.0data status	okinstallation	princeton_trtdifferential loss correction	single-endedforward channel	channel 4reverse channel	N/Adate	2019/09/14time	04:57:35forward acquisition time	60.00reverse acquisition time	0.00gamma	496.2192k internal	0.2321k external	0.2321temperature offset calibration	1.0133default loss term (dB/km)	0.3790temperature slope calibration	1.0000multiplexer offset coefficient	1.0000multiplexer slope coefficient	1.0000fibre end	0.00T internal ref (°C)	26.87T ext. ref 1 (°C)	3.37T ext. ref 2 (°C)	21.99length (m)	temperature (°C)	Stokes	anti-Stokes-747.200	70.355	0.023	0.024
-746.185	-59.070	0.037	-0.016
-745.171	289.482	0.185	-0.340
-744.156	-200.000	0.043	0.350
-743.142	39.967	-0.202	0.183
-742.127	18.288	0.147	0.118
-741.112	-108.287	-0.057	-0.012
-740.098	74.097	0.169	-0.179
-739.083	127.905	0.230	-0.296
-738.069	800.000	-0.042	-0.169
-737.054	-71.438	-0.302	-0.114
-736.039	-176.362	0.225	0.006
-735.025	250.231	0.185	0.317
-734.010	800.000	-0.024	0.081
-732.996	800.000	0.057	0.200
-731.981	-200.000	-0.032	0.200
-730.966	-107.935	0.021	-0.005
-729.952	56.219	-0.205	-0.201
-728.937	59.081	-0.179	0.178
-727.923	0.359	-0.093	0.067
-726.908	-75.915	-0.370	0.132
-725.894	357.242	-0.050	-0.101
-724.879	23.796	0.195	-0.162
-723.864	-152.273	-0.327	-0.024
-722.850	-200.000	0.001	0.132
-721.835	397.163	-0.128	-0.271
-720.821	-124.286	-0.692	0.109
-719.806	300.035	0.023	0.044
-718.791	-58.504	0.376	0.165
-717.777	-200.000	0.050	-0.297
-716.762	800.000	-0.064	-0.181
-715.748	35.365	-0.104	0.092
-714.733	704.379	0.096	-0.255
-713.718	679.482	-0.050	-0.132
-712.704	-80.029	-0.097	-0.033
-711.689	96.034	-0.049	-0.057
-710.675	782.334	0.084	0.233
-709.660	250.828	0.166	-0.284
-708.645	-30.197	-0.158	0.091
-707.631	-66.793	0.231	-0.092
-706.616	247.472	0.174	-0.297
-705.602	800.000	-0.063	-0.188
-704.587	-200.000	-0.013	0.122
-703.572	-94.610	0.167	0.046
-702.558	-200.000	0.003	0.253
-701.543	224.646	-0.138	-0.225
-700.529	181.205	-0.148	-0.219
-699.514	-200.000	-0.043	0.237
-698.499	-193.026	-0.251	0.002
-697.485	399.226	-0.180	-0.381
-696.470	-200.000	-0.011	-0.067
-695.456	-122.020	0.060	-0.010
-694.441	-2.399	-0.014	-0.010
-693.426	93.070	-0.161	-0.183
-692.412	-126.100	-0.016	0.002
-691.397	97.623	0.160	-0.186
-690.383	20.715	-0.366	-0.299
-689.368	23.705	-0.273	-0.227
-688.354	-44.886	0.113	-0.057
-687.339	-193.700	-0.154	0.001
-686.324	399.257	-0.137	0.290
-685.310	-116.734	-0.427	0.079
-684.295	-200.000	0.009	-0.083
-683.281	-200.000	-0.030	-0.225
-682.266	179.572	-0.148	-0.219
-681.251	37.256	0.107	0.095
-680.237	-159.000	0.246	-0.014
-679.222	-118.258	0.255	-0.046
-678.208	35.640	-0.198	-0.175
-677.193	86.913	0.113	-0.126
-676.178	-141.913	-0.089	0.009
-675.164	-63.711	0.177	0.073
-674.149	4.771	-0.111	0.082
-673.135	346.087	-0.018	-0.035
-672.120	148.358	-0.139	-0.189
-671.105	-16.111	0.044	-0.028
-670.091	800.000	-0.036	0.116
-669.076	-113.746	-0.128	0.025
-668.062	776.001	-0.045	-0.125
-667.047	72.804	0.006	0.006
-666.032	49.885	0.080	-0.076
-665.018	-200.000	0.006	0.227
-664.003	800.000	0.054	-0.183
-662.989	-91.158	0.120	-0.035
-661.974	558.816	0.015	0.036
-660.959	-200.000	0.032	0.176
-659.945	-200.000	0.020	0.339
-658.930	-49.961	0.102	-0.049
-657.916	101.744	-0.029	-0.034
-656.901	800.000	0.042	0.135
-655.886	85.840	-0.111	0.123
-654.872	6.561	0.091	-0.068
-653.857	800.000	0.155	-0.436
-652.843	-82.250	0.288	0.095
-651.828	-200.000	0.007	-0.152
-650.814	247.421	-0.119	-0.202
-649.799	-32.354	0.365	-0.205
-648.784	-68.942	-0.269	-0.105
-647.770	-98.848	0.311	-0.080
-646.755	190.359	-0.127	0.192
-645.741	190.352	0.120	0.182
-644.726	353.589	-0.162	0.323
-643.711	-19.105	-0.265	0.166
-642.697	-122.142	-0.066	-0.011
-641.682	-94.608	-0.207	-0.057
-640.668	-200.000	0.054	-0.484
-639.653	331.701	0.013	-0.026
-638.638	87.460	0.116	-0.129
-637.624	-57.874	0.156	-0.068
-636.609	-14.600	0.299	-0.193
-635.595	98.809	0.052	0.061
-634.580	112.079	0.147	0.178
-633.565	-175.285	-0.159	-0.004
-632.551	36.939	-0.027	-0.024
-631.536	294.326	-0.032	-0.058
-630.522	-91.708	-0.301	-0.086
-629.507	-200.000	0.014	0.143
-628.492	800.000	0.015	0.045
-627.478	-200.000	-0.034	0.227
-626.463	50.572	-0.203	-0.194
-625.449	480.429	0.086	-0.195
-624.434	-200.000	-0.014	-0.185
-623.419	57.104	-0.014	-0.014
-622.405	800.000	0.058	-0.170
-621.390	-52.072	0.268	0.125
-620.376	-200.000	-0.009	0.116
-619.361	1.274	-0.441	-0.319
-618.346	17.867	0.093	-0.074
-617.332	-105.517	0.374	-0.085
-616.317	-200.000	0.042	0.208
-615.303	-69.322	0.081	0.031
-614.288	-185.088	-0.171	-0.003
-613.273	232.953	0.195	-0.322
-612.259	-200.000	-0.018	0.141
-611.244	130.104	-0.064	-0.083
-610.230	46.807	0.097	0.091
-609.215	177.030	-0.171	0.250
-608.201	-180.186	0.440	0.009
-607.186	-61.106	-0.245	0.104
-606.171	-87.777	-0.123	-0.037
-605.157	121.792	-0.068	-0.086
-604.142	-82.193	0.105	0.035
-603.128	800.000	-0.024	0.071
-602.113	-88.813	0.134	-0.040
-601.098	-156.312	-0.093	-0.006
-600.084	259.260	-0.087	0.151
-599.069	673.392	0.099	-0.258
-598.055	64.552	-0.135	-0.137
-597.040	-173.217	-0.248	0.008
-596.025	-105.166	-0.262	-0.060
-595.011	-200.000	-0.031	0.328
-593.996	-80.936	0.317	-0.106
-592.982	-11.549	-0.170	-0.112
-591.967	-200.000	-0.156	0.001
-590.952	-47.999	-0.184	0.089
-589.938	110.178	-0.222	0.268
-588.923	116.845	0.063	-0.078
-587.909	225.606	-0.057	-0.093
-586.894	-200.000	-0.034	-0.201
-585.879	-200.000	0.001	0.175
-584.865	194.880	0.058	0.088
-583.850	-112.475	0.128	0.026
-582.836	155.853	-0.127	0.176
-581.821	800.000	0.045	0.174
-580.806	800.000	-0.086	0.334
-579.792	-200.000	-0.018	-0.141
-578.777	-200.000	-0.019	-0.286
-577.763	-105.567	-0.186	0.042
-576.748	6.995	0.085	-0.064
-575.733	-158.834	-0.267	-0.015
-574.719	-200.000	0.043	-0.195
-573.704	800.000	-0.085	-0.341
-572.690	-137.591	-0.340	0.038
-571.675	800.000	0.096	-0.309
-570.661	-32.987	0.262	-0.146
-569.646	800.000	-0.056	0.193
-568.631	-115.436	-0.351	0.066
-567.617	68.223	-0.116	-0.120
-566.602	-31.401	0.160	-0.091
-565.588	-200.000	-0.024	-0.183
-564.573	-200.000	-0.055	-0.246
-563.558	282.122	-0.130	0.233
-562.544	-200.000	-0.039	-0.311
-561.529	50.800	0.066	0.063
-560.515	54.768	-0.111	-0.108
-559.500	800.000	-0.074	0.296
-558.485	-200.000	0.006	-0.212
-557.471	341.834	0.089	0.175
-556.456	-200.000	0.032	0.168
-555.442	800.000	-0.048	-0.181
-554.427	-200.000	0.028	-0.236
-553.412	800.000	-0.084	-0.276
-552.398	202.224	0.166	-0.257
-551.383	45.957	0.095	-0.088
-550.369	-200.000	-0.010	-0.090
-549.354	100.486	0.252	-0.294
-548.339	800.000	0.092	-0.302
-547.325	-128.490	-0.227	0.032
-546.310	47.087	-0.199	-0.186
-545.296	44.145	0.162	-0.149
-544.281	-200.000	-0.002	-0.107
-543.266	-90.591	-0.299	-0.087
-542.252	-102.355	0.103	-0.025
-541.237	-200.000	-0.025	-0.129
-540.223	-130.733	0.164	-0.022
-539.208	-93.678	0.421	-0.117
-538.193	335.061	0.034	-0.067
-537.179	-1.643	0.326	-0.230
-536.164	-167.918	0.276	0.011
-535.150	50.727	0.087	0.083
-534.135	-10.444	-0.296	-0.197
-533.121	-37.582	-0.286	0.153
-532.106	364.760	-0.072	-0.146
-531.091	-49.687	0.281	0.134
-530.077	64.918	-0.145	0.146
-529.062	-132.383	0.210	-0.027
-528.048	-200.000	0.014	-0.142
-527.033	-102.340	0.187	-0.045
-526.018	-76.315	-0.139	0.049
-525.004	800.000	-0.062	-0.257
-523.989	-186.377	0.291	0.004
-522.975	-200.000	0.023	0.106
-521.960	-51.909	-0.404	-0.188
-520.945	-200.000	-0.014	0.074
-519.931	-200.000	-0.002	-0.295
-518.916	-132.957	0.283	-0.036
-517.902	49.214	-0.043	-0.040
-516.887	55.984	0.079	0.077
-515.872	3.620	0.261	-0.191
-514.858	-200.000	0.052	-0.364
-513.843	-200.000	0.024	-0.264
-512.829	-131.830	0.231	0.030
-511.814	-124.242	0.094	0.015
-510.799	800.000	0.058	-0.240
-509.785	-18.218	-0.073	-0.045
-508.770	-200.000	0.000	0.096
-507.756	-200.000	-0.023	-0.110
-506.741	800.000	0.133	-0.372
-505.726	-200.000	0.022	0.116
-504.712	-200.000	-0.006	0.025
-503.697	-89.363	-0.160	-0.047
-502.683	186.670	0.132	0.197
-501.668	-40.515	-0.105	0.055
-500.653	-13.647	0.212	-0.138
-499.639	-25.628	0.159	0.094
-498.624	-152.895	-0.199	0.014
-497.610	800.000	-0.046	0.153
-496.595	16.213	-0.104	0.082
-495.581	115.783	0.137	0.168
-494.566	800.000	0.044	0.126
-493.551	-134.125	0.280	-0.035
-492.537	-79.890	0.489	0.165
-491.522	-200.000	-0.089	0.487
-490.508	245.626	-0.119	0.201
-489.493	70.752	-0.115	0.119
-488.478	800.000	-0.050	-0.197
-487.464	584.514	-0.043	-0.106
-486.449	-15.144	0.177	0.113
-485.435	-34.651	-0.047	0.026
-484.420	800.000	0.061	-0.187
-483.405	-82.279	-0.140	0.046
-482.391	13.400	0.239	-0.186
-481.376	-72.894	0.297	-0.109
-480.362	735.511	0.065	0.175
-479.347	-200.000	0.036	0.198
-478.332	187.100	-0.052	-0.078
-477.318	22.879	0.285	-0.234
-476.303	315.692	-0.147	0.278
-475.289	10.923	-0.229	0.175
-474.274	-30.473	-0.284	-0.161
-473.259	9.454	-0.113	0.086
-472.245	-200.000	-0.076	-0.373
-471.230	36.987	0.216	-0.191
-470.216	-20.625	-0.112	-0.069
-469.201	-125.821	-0.038	-0.006
-468.186	32.322	0.208	-0.179
-467.172	-12.239	0.255	0.167
-466.157	-29.073	-0.363	0.208
-465.143	108.493	-0.083	0.099
-464.128	107.228	0.146	0.173
-463.113	239.284	0.089	-0.149
-462.099	-200.000	0.015	0.071
-461.084	-200.000	0.001	-0.098
-460.070	-39.588	-0.189	0.099
-459.055	110.966	-0.255	0.307
-458.040	-200.000	-0.218	-0.001
-457.026	56.959	-0.047	0.046
-456.011	-14.224	-0.309	0.199
-454.997	-40.244	0.066	-0.035
-453.982	38.923	0.173	0.154
-452.968	738.673	0.021	0.055
-451.953	800.000	-0.082	-0.238
-450.938	800.000	-0.061	-0.189
-449.924	-200.000	0.003	0.246
-448.909	56.801	0.304	0.295
-447.895	8.291	-0.231	0.173
-446.880	736.332	-0.071	-0.191
-445.865	-158.475	-0.069	0.004
-444.851	-200.000	-0.078	-0.356
-443.836	-67.387	0.123	-0.048
-442.822	49.007	-0.361	-0.339
-441.807	-87.274	0.076	-0.023
-440.792	-200.000	0.034	0.164
-439.778	-8.106	-0.089	0.060
-438.763	-141.786	0.311	-0.031
-437.749	800.000	0.026	-0.110
-436.734	-92.204	-0.101	0.028
-435.719	-30.105	-0.133	0.075
-434.705	-148.002	0.079	0.007
-433.690	-35.215	0.331	0.180
-432.676	549.461	0.051	0.121
-431.661	-145.006	0.091	0.008
-430.646	-160.529	0.252	-0.013
-429.632	180.303	0.066	-0.096
-428.617	-98.507	-0.068	0.017
-427.603	77.237	0.170	-0.180
-426.588	-123.449	-0.250	0.040
-425.573	-200.000	-0.026	-0.251
-424.559	67.124	-0.201	0.205
-423.544	-200.000	0.002	-0.109
-422.530	-95.873	0.102	-0.027
-421.515	-18.432	0.119	-0.074
-420.500	-127.761	0.238	0.034
-419.486	-200.000	-0.030	0.275
-418.471	229.902	0.272	0.444
-417.457	800.000	-0.082	0.295
-416.442	125.914	-0.014	-0.018
-415.428	88.459	0.182	-0.202
-414.413	68.409	-0.103	0.105
-413.398	800.000	0.047	0.149
-412.384	-101.105	-0.050	-0.012
-411.369	-78.767	0.206	-0.070
-410.355	-78.212	-0.268	-0.092
-409.340	14.398	-0.097	-0.075
-408.325	-46.921	-0.185	-0.090
-407.311	452.381	-0.047	-0.105
-406.296	-200.000	-0.000	-0.319
-405.282	-200.000	-0.013	-0.113
-404.267	276.536	-0.111	-0.197
-403.252	-52.903	0.408	-0.188
-402.238	-111.798	-0.119	-0.024
-401.223	800.000	-0.037	0.137
-400.209	-128.914	-0.208	-0.029
-399.194	279.033	-0.040	0.072
-398.179	129.484	0.236	0.300
-397.165	433.902	0.101	0.219
-396.150	-200.000	0.009	-0.170
-395.136	-134.884	-0.096	-0.012
-394.121	-145.947	-0.360	0.032
-393.106	-162.036	-0.159	0.008
-392.092	-115.168	0.229	-0.043
-391.077	88.994	-0.252	0.280
-390.063	621.799	-0.066	0.165
-389.048	34.447	0.066	0.058
-388.033	216.252	-0.068	-0.108
-387.019	65.245	-0.223	0.225
-386.004	-200.000	-0.012	0.299
-384.990	-97.346	-0.324	-0.084
-383.975	-200.000	0.002	0.190
-382.960	40.399	-0.120	0.108
-381.946	800.000	0.117	0.364
-380.931	593.230	0.069	-0.171
-379.917	-200.000	0.015	0.272
-378.902	18.584	0.103	-0.082
-377.888	16.465	-0.193	0.152
-376.873	512.961	-0.065	-0.152
-375.858	-14.725	-0.282	-0.181
-374.844	106.805	0.223	0.263
-373.829	-109.688	-0.223	-0.047
-372.815	-49.784	-0.237	0.112
-371.800	63.778	0.151	0.151
-370.785	65.876	0.198	-0.200
-369.771	-24.559	0.306	-0.182
-368.756	-200.000	-0.030	0.148
-367.742	178.385	0.055	0.080
-366.727	-60.239	0.263	-0.112
-365.712	-108.404	-0.343	0.074
-364.698	18.483	0.205	0.163
-363.683	-200.000	0.008	-0.090
-362.669	258.660	-0.120	-0.206
-361.654	-79.223	0.242	0.082
-360.639	-200.000	-0.029	-0.129
-359.625	126.057	0.100	-0.126
-358.610	1.142	-0.034	0.025
-357.596	-53.570	-0.171	-0.078
-356.581	83.229	0.387	0.419
-355.566	-41.894	-0.188	0.096
-354.552	166.052	-0.043	0.061
-353.537	704.392	-0.158	-0.415
-352.523	-80.767	-0.235	0.078
-351.508	61.579	0.181	-0.179
-350.493	104.659	-0.076	-0.090
-349.479	27.446	-0.097	0.082
-348.464	-47.986	0.231	0.111
-347.450	144.330	-0.155	0.206
-346.435	-83.734	0.142	-0.045
-345.420	-114.700	0.378	-0.072
-344.406	-97.669	0.140	0.036
-343.391	-200.000	0.052	0.257
-342.377	-138.164	0.204	-0.023
-341.362	-165.101	0.142	0.006
-340.348	-17.241	-0.065	-0.041
-339.333	-30.892	0.091	-0.051
-338.318	-149.289	0.215	-0.017
-337.304	800.000	-0.084	-0.355
-336.289	-92.749	0.212	0.059
-335.275	800.000	0.072	0.219
-334.260	-48.248	-0.060	0.029
-333.245	106.816	-0.156	-0.184
-332.231	-200.000	0.037	0.215
-331.216	41.833	0.349	0.315
-330.202	333.200	0.186	-0.358
-329.187	33.344	0.043	-0.037
-328.172	-122.754	-0.387	0.062
-327.158	-200.000	0.008	0.053
-326.143	-149.355	-0.270	-0.021
-325.129	471.031	0.075	0.167
-324.114	1.151	-0.156	0.111
-323.099	-75.590	0.284	0.100
-322.085	759.999	0.083	-0.224
-321.070	-107.982	-0.091	0.020
-320.056	27.467	-0.163	0.136
-319.041	271.389	-0.112	0.197
-318.026	-200.000	0.002	0.067
-317.012	-107.384	0.214	0.047
-315.997	16.949	-0.218	0.171
-314.983	-26.606	-0.225	-0.131
-313.968	143.951	0.117	-0.155
-312.953	-1.966	-0.125	0.087
-311.939	511.747	-0.074	-0.170
-310.924	138.089	-0.049	-0.063
-309.910	5.003	-0.268	0.196
-308.895	-82.599	-0.072	-0.023
-307.880	30.574	-0.139	-0.118
-306.866	-200.000	-0.017	0.179
-305.851	800.000	0.138	-0.511
-304.837	341.227	-0.074	-0.143
-303.822	248.481	-0.220	-0.370
-302.807	-200.000	-0.031	-0.238
-301.793	345.501	0.091	-0.178
-300.778	90.275	-0.074	-0.082
-299.764	-200.000	0.073	-0.396
-298.749	800.000	-0.036	0.145
-297.735	800.000	-0.081	0.293
-296.720	-200.000	0.020	0.308
-295.705	-200.000	-0.001	0.068
-294.691	58.660	-0.222	-0.216
-293.676	-105.233	-0.022	0.005
-292.662	-200.000	-0.033	0.313
-291.647	-21.268	0.280	0.170
-290.632	284.731	-0.063	-0.113
-289.618	-65.952	-0.260	0.103
-288.603	-137.821	0.191	0.021
-287.589	-93.830	0.215	0.059
-286.574	-69.581	-0.219	-0.083
-285.559	-115.597	-0.052	-0.010
-284.545	44.678	0.093	-0.085
-283.530	-60.169	0.077	0.033
-282.516	-200.000	-0.021	-0.233
-281.501	666.245	-0.051	0.130
-280.486	505.642	-0.053	0.122
-279.472	323.472	-0.080	0.151
-278.457	25.946	-0.141	-0.117
-277.443	-200.000	0.055	-0.476
-276.428	-200.000	0.003	0.019
-275.413	107.457	0.090	-0.106
-274.399	216.243	0.108	0.171
-273.384	-26.285	-0.409	0.238
-272.370	-200.000	-0.042	-0.217
-271.355	-200.000	0.035	0.221
-270.340	-68.620	0.283	0.109
-269.326	59.182	0.094	-0.092
-268.311	800.000	0.061	0.224
-267.297	167.042	-0.109	0.153
-266.282	-113.433	-0.273	-0.053
-265.267	-121.792	-0.186	-0.030
-264.253	35.263	0.019	-0.017
-263.238	-200.000	0.035	0.371
-262.224	-104.513	0.186	-0.043
-261.209	-200.000	0.010	0.297
-260.195	86.822	-0.075	-0.082
-259.180	-127.295	0.436	0.063
-258.165	-77.571	-0.166	-0.057
-257.151	-43.828	-0.175	-0.087
-256.136	52.962	0.014	-0.013
-255.122	-109.047	-0.114	0.024
-254.107	329.831	-0.132	0.251
-253.092	91.353	0.157	0.174
-252.078	-13.303	0.150	0.096
-251.063	-33.193	-0.136	0.075
-250.049	-87.151	-0.111	0.034
-249.034	-59.066	0.049	-0.021
-248.019	800.000	0.102	-0.326
-247.005	248.124	-0.083	-0.139
-245.990	49.008	-0.046	0.042
-244.976	245.040	0.057	0.095
-243.961	-168.955	-0.061	0.002
-242.946	-156.423	0.060	-0.004
-241.932	211.749	0.147	0.229
-240.917	800.000	0.102	-0.285
-239.903	-59.644	0.244	0.104
-238.888	-8.231	-0.138	0.092
-237.873	-73.797	0.513	-0.185
-236.859	304.320	0.095	-0.175
-235.844	-200.000	0.013	0.132
-234.830	800.000	0.044	-0.158
-233.815	410.867	-0.085	0.178
-232.800	166.901	-0.165	0.233
-231.786	149.227	-0.020	-0.027
-230.771	211.813	-0.204	-0.318
-229.757	-77.506	-0.210	-0.072
-228.742	318.031	0.034	-0.064
-227.727	-67.472	-0.285	0.111
-226.713	515.690	0.077	-0.179
-225.698	280.315	0.164	-0.290
-224.684	-14.551	0.108	0.069
-223.669	800.000	-0.047	0.186
-222.655	-200.000	0.007	-0.045
-221.640	-35.730	0.024	-0.013
-220.625	75.832	-0.205	0.215
-219.611	354.693	0.067	-0.131
-218.596	536.100	-0.246	0.578
-217.582	-77.089	-0.200	0.069
-216.567	-200.000	-0.029	0.178
-215.552	800.000	0.042	-0.139
-214.538	-125.901	0.177	-0.026
-213.523	800.000	-0.047	0.198
-212.509	-26.110	-0.279	-0.163
-211.494	87.190	0.194	0.213
-210.479	-4.963	-0.223	0.152
-209.465	124.785	0.013	0.016
-208.450	-200.000	-0.020	-0.235
-207.436	-160.201	0.327	0.018
-206.421	-58.077	-0.078	-0.034
-205.406	-30.121	-0.121	0.068
-204.392	61.741	0.122	0.120
-203.377	165.798	0.070	0.097
-202.363	800.000	0.114	0.331
-201.348	133.094	0.200	0.255
-200.333	181.929	0.141	0.206
-199.319	277.349	0.105	0.185
-198.304	136.936	-0.038	-0.049
-197.290	5.901	-0.302	-0.221
-196.275	-200.000	0.032	0.258
-195.260	-22.910	-0.291	0.174
-194.246	-71.350	0.119	0.044
-193.231	-78.564	0.248	0.084
-192.217	-77.849	0.105	-0.036
-191.202	-87.749	0.166	-0.050
-190.187	-105.304	-0.394	-0.089
-189.173	-200.000	0.054	0.257
-188.158	208.920	0.049	-0.075
-187.144	800.000	0.074	0.212
-186.129	93.209	0.185	0.207
-185.114	54.498	0.123	0.118
-184.100	90.088	0.118	0.131
-183.085	-125.239	-0.180	0.027
-182.071	-3.468	-0.223	0.153
-181.056	-112.273	0.152	0.030
-180.042	-141.583	0.137	-0.014
-179.027	-153.174	0.105	0.007
-178.012	-150.165	0.169	-0.013
-176.998	591.721	-0.110	0.268
-175.983	800.000	0.046	0.196
-174.969	-200.000	0.022	-0.299
-173.954	-85.919	0.230	-0.070
-172.939	775.902	-0.032	0.085
-171.925	472.428	0.082	-0.183
-170.910	5.875	0.203	-0.149
-169.896	-26.013	0.157	-0.091
-168.881	-87.146	0.106	-0.032
-167.866	189.220	0.132	0.196
-166.852	122.815	-0.088	-0.109
-165.837	-125.692	-0.248	0.037
-164.823	-169.797	-0.080	0.003
-163.808	275.806	0.128	-0.225
-162.793	-154.988	0.290	0.019
-161.779	-200.000	-0.053	-0.256
-160.764	-144.383	-0.300	-0.028
-159.750	-200.000	-0.010	0.129
-158.735	-200.000	0.196	-0.001
-157.720	-86.186	-0.357	-0.109
-156.706	-51.145	0.176	-0.082
-155.691	-29.782	-0.322	-0.181
-154.677	-43.819	-0.244	-0.121
-153.662	114.396	-0.212	-0.255
-152.647	-200.000	0.023	0.239
-151.633	-200.000	0.001	0.256
-150.618	132.272	-0.233	-0.296
-149.604	62.169	-0.072	0.071
-148.589	800.000	0.129	0.434
-147.574	233.156	0.062	-0.101
-146.560	-22.638	-0.246	-0.147
-145.545	-134.625	0.127	-0.015
-144.531	-200.000	-0.042	0.203
-143.516	4.247	0.194	0.141
-142.502	-61.451	0.080	-0.033
-141.487	-85.843	-0.118	0.036
-140.472	-123.634	0.149	-0.023
-139.458	800.000	-0.049	-0.190
-138.443	-107.536	0.101	-0.022
-137.429	-41.541	0.146	0.074
-136.414	-200.000	-0.023	-0.103
-135.399	-200.000	-0.052	0.231
-134.385	800.000	0.078	-0.265
-133.370	-20.980	-0.197	-0.119
-132.356	-29.748	-0.108	-0.061
-131.341	511.020	0.088	0.201
-130.326	-200.000	0.021	-0.120
-129.312	146.053	0.019	0.025
-128.297	-200.000	0.025	-0.143
-127.283	51.462	-0.164	0.154
-126.268	244.703	0.118	-0.195
-125.253	-200.000	0.003	0.068
-124.239	-200.000	-0.005	0.175
-123.224	-126.137	-0.104	-0.015
-122.210	228.445	-0.078	0.125
