DTS Sentinel unit serial number:	SN413079Multiplexer serial number:	ORYXHardware model number:	OX4-SRSoftware version number:	ORYX F/W v4.00 Oryx Data Collector v3.7.2.0data status	okinstallation	princeton_trtdifferential loss correction	single-endedforward channel	channel 4reverse channel	N/Adate	2019/09/14time	16:13:35forward acquisition time	60.00reverse acquisition time	0.00gamma	496.2192k internal	0.2294k external	0.2294temperature offset calibration	1.0133default loss term (dB/km)	0.3790temperature slope calibration	1.0000multiplexer offset coefficient	1.0000multiplexer slope coefficient	1.0000fibre end	0.00T internal ref (°C)	38.28T ext. ref 1 (°C)	5.08T ext. ref 2 (°C)	32.88length (m)	temperature (°C)	Stokes	anti-Stokes-747.200	67.985	-0.108	0.113
-746.185	132.700	0.134	0.177
-745.171	800.000	0.070	-0.307
-744.156	18.954	-0.248	0.203
-743.142	53.864	0.144	0.142
-742.127	197.211	-0.276	0.431
-741.112	-102.576	-0.202	-0.049
-740.098	800.000	0.025	0.090
-739.083	-200.000	0.043	0.311
-738.069	800.000	-0.128	0.535
-737.054	-6.418	-0.403	0.281
-736.039	-55.252	-0.178	0.082
-735.025	67.819	-0.058	-0.061
-734.010	-200.000	0.045	-0.212
-732.996	463.257	-0.189	-0.432
-731.981	735.671	-0.123	-0.336
-730.966	800.000	-0.041	-0.127
-729.952	55.363	-0.087	-0.086
-728.937	-200.000	0.045	-0.262
-727.923	-200.000	0.009	-0.172
-726.908	800.000	-0.037	0.166
-725.894	84.141	-0.183	-0.205
-724.879	-40.563	-0.189	0.100
-723.864	-150.152	0.491	0.039
-722.850	447.771	0.076	0.171
-721.835	-200.000	-0.056	-0.291
-720.821	53.234	0.231	0.226
-719.806	96.780	0.113	-0.132
-718.791	-34.362	0.088	-0.049
-717.777	396.221	0.068	0.145
-716.762	36.267	0.109	-0.098
-715.748	-46.951	0.240	-0.120
-714.733	-123.008	0.093	0.015
-713.718	38.301	0.158	-0.144
-712.704	800.000	-0.082	0.273
-711.689	-62.908	0.291	-0.123
-710.675	-200.000	-0.061	-0.397
-709.660	95.723	-0.050	0.058
-708.645	-33.679	-0.258	0.146
-707.631	58.045	-0.267	-0.267
-706.616	488.753	0.044	0.104
-705.602	-151.054	0.161	-0.012
-704.587	-200.000	-0.013	-0.069
-703.572	21.193	0.097	-0.081
-702.558	75.296	0.045	0.048
-701.543	-124.060	0.189	0.030
-700.529	-200.000	-0.009	0.081
-699.514	800.000	-0.071	-0.208
-698.499	-200.000	-0.007	-0.071
-697.485	74.733	-0.131	-0.140
-696.470	-200.000	-0.014	-0.323
-695.456	-128.227	0.124	0.018
-694.441	800.000	-0.075	-0.244
-693.426	227.737	-0.228	-0.379
-692.412	-121.597	0.133	0.022
-691.397	173.758	-0.197	-0.290
-690.383	-200.000	0.016	0.213
-689.368	430.160	-0.109	-0.242
-688.354	-200.000	-0.002	0.022
-687.339	-177.048	-0.158	-0.004
-686.324	-73.283	-0.051	0.019
-685.310	-6.255	0.234	0.163
-684.295	227.671	0.196	0.326
-683.281	-170.072	0.160	-0.006
-682.266	-181.898	-0.095	-0.002
-681.251	334.034	0.121	0.238
-680.237	229.540	-0.149	0.248
-679.222	-38.792	0.379	0.204
-678.208	-73.580	0.204	0.076
-677.193	-200.000	-0.001	0.157
-676.178	2.240	0.227	0.168
-675.164	739.651	0.079	-0.216
-674.149	-200.000	-0.052	-0.235
-673.135	95.323	0.189	-0.220
-672.120	-152.359	-0.126	0.009
-671.105	111.906	0.289	-0.356
-670.091	151.843	-0.114	0.158
-669.076	-103.074	0.076	-0.018
-668.062	143.611	-0.189	-0.256
-667.047	800.000	0.119	-0.507
-666.032	-170.041	-0.218	-0.008
-665.018	-200.000	-0.003	-0.104
-664.003	-200.000	-0.009	-0.172
-662.989	-99.340	0.450	-0.116
-661.974	17.167	0.181	-0.147
-660.959	-200.000	-0.019	0.190
-659.945	301.066	-0.104	-0.196
-658.930	-200.000	-0.006	-0.541
-657.916	-200.000	-0.010	0.114
-656.901	594.867	0.124	0.312
-655.886	-15.083	-0.214	0.140
-654.872	583.043	-0.083	0.206
-653.857	134.136	0.253	0.333
-652.843	321.467	0.075	-0.146
-651.828	-200.000	-0.020	-0.128
-650.814	800.000	0.065	-0.209
-649.799	800.000	0.090	-0.326
-648.784	152.536	0.204	-0.283
-647.770	416.489	0.053	0.114
-646.755	-117.410	-0.278	0.051
-645.741	-143.093	-0.188	0.018
-644.726	-200.000	-0.037	-0.223
-643.711	132.997	-0.363	-0.477
-642.697	-134.678	0.395	0.049
-641.682	405.949	-0.076	-0.162
-640.668	-200.000	0.052	0.597
-639.653	-62.843	0.099	0.042
-638.638	800.000	0.050	-0.157
-637.624	-165.625	-0.290	0.013
-636.609	-200.000	0.058	-0.290
-635.595	-5.049	0.188	0.132
-634.580	-74.951	0.090	0.033
-633.565	297.645	0.054	0.101
-632.551	-50.324	-0.290	0.140
-631.536	2.566	0.083	-0.061
-630.522	76.672	-0.166	-0.179
-629.507	225.281	-0.114	-0.188
-628.492	-83.738	0.260	-0.084
-627.478	-6.395	-0.013	-0.009
-626.463	-35.128	-0.151	0.084
-625.449	-200.000	0.054	-0.468
-624.434	800.000	-0.080	-0.353
-623.419	273.432	0.064	-0.115
-622.405	-200.000	-0.055	-0.246
-621.390	-200.000	0.023	-0.190
-620.376	800.000	0.065	0.244
-619.361	-200.000	-0.020	-0.207
-618.346	114.264	0.135	0.167
-617.332	-47.377	-0.503	-0.249
-616.317	-115.222	-0.229	0.044
-615.303	291.799	0.189	0.351
-614.288	91.658	-0.100	0.114
-613.273	-91.418	0.202	0.059
-612.259	-71.407	0.108	-0.041
-611.244	111.930	-0.089	-0.109
-610.230	-59.489	-0.389	-0.170
-609.215	138.047	0.152	0.202
-608.201	-25.702	0.174	-0.105
-607.186	800.000	-0.098	0.340
-606.171	-24.337	-0.184	0.112
-605.157	-185.464	-0.233	-0.004
-604.142	-19.308	0.209	0.132
-603.128	263.654	-0.015	-0.027
-602.113	123.311	0.213	0.271
-601.098	82.552	0.186	-0.205
-600.084	800.000	-0.119	-0.356
-599.069	-176.377	0.211	0.006
-598.055	387.699	0.116	-0.244
-597.040	112.952	-0.153	-0.188
-596.025	-38.699	-0.153	0.082
-595.011	-200.000	0.004	-0.167
-593.996	-158.977	0.188	-0.011
-592.982	7.503	-0.118	-0.090
-591.967	32.737	-0.205	0.180
-590.952	-88.081	0.367	-0.112
-589.938	-75.812	-0.174	-0.063
-588.923	56.983	0.111	0.110
-587.909	-200.000	-0.051	-0.601
-586.894	532.010	-0.077	-0.186
-585.879	-64.166	-0.109	0.045
-584.865	267.465	-0.116	0.207
-583.850	800.000	-0.102	0.418
-582.836	-200.000	0.001	0.143
-581.821	-200.000	0.020	0.214
-580.806	-200.000	-0.037	0.235
-579.792	-16.176	0.086	0.055
-578.777	800.000	0.091	-0.263
-577.763	1.544	0.211	-0.155
-576.748	800.000	-0.080	0.355
-575.733	-86.409	-0.310	-0.097
-574.719	20.797	-0.229	-0.188
-573.704	99.731	-0.164	0.193
-572.690	11.372	0.393	0.306
-571.675	-59.412	0.520	-0.227
-570.661	407.101	-0.056	-0.120
-569.646	438.646	0.095	0.211
-568.631	614.645	-0.134	-0.342
-567.617	-17.049	0.090	-0.058
-566.602	-135.042	-0.308	-0.038
-565.588	198.738	0.064	-0.100
-564.573	800.000	-0.117	-0.406
-563.558	-44.304	-0.048	-0.025
-562.544	-200.000	-0.047	-0.259
-561.529	-200.000	-0.051	-0.393
-560.515	800.000	0.068	-0.199
-559.500	-154.390	-0.086	0.006
-558.485	323.079	0.075	-0.144
-557.471	239.125	-0.238	0.401
-556.456	6.255	0.505	-0.381
-555.442	-190.258	0.209	0.002
-554.427	301.945	0.022	0.041
-553.412	0.626	0.356	0.258
-552.398	-3.219	-0.404	-0.286
-551.383	12.668	0.156	-0.122
-550.369	267.833	0.106	0.189
-549.354	-25.678	-0.022	-0.013
-548.339	-132.307	-0.125	-0.016
-547.325	-69.136	-0.235	-0.092
-546.310	-55.945	-0.194	-0.088
-545.296	47.287	0.050	0.047
-544.281	307.784	-0.091	0.172
-543.266	800.000	0.034	0.131
-542.252	-94.790	-0.311	0.085
-541.237	232.657	-0.183	-0.305
-540.223	-120.445	-0.311	-0.054
-539.208	-105.345	0.153	-0.035
-538.193	-176.054	-0.263	0.007
-537.179	-120.791	-0.087	-0.015
-536.164	211.120	-0.204	0.325
-535.150	-200.000	-0.117	-0.580
-534.135	-17.612	0.160	0.102
-533.121	-93.979	0.469	0.131
-532.106	-153.915	0.104	-0.007
-531.091	-12.401	0.185	-0.122
-530.077	-200.000	-0.006	0.226
-529.062	-94.404	0.240	0.067
-528.048	-200.000	0.022	0.250
-527.033	-124.463	-0.240	-0.038
-526.018	107.695	0.086	-0.104
-525.004	-98.538	0.157	-0.041
-523.989	-89.050	-0.250	0.075
-522.975	-72.052	-0.295	0.111
-521.960	-74.239	0.248	-0.091
-520.945	-53.873	-0.169	-0.078
-519.931	-200.000	-0.007	-0.059
-518.916	22.128	-0.298	0.247
-517.902	800.000	-0.025	-0.091
-516.887	800.000	-0.102	-0.428
-515.872	18.410	-0.123	-0.099
-514.858	800.000	-0.031	-0.113
-513.843	285.235	0.053	0.097
-512.829	-200.000	0.022	-0.265
-511.814	243.169	-0.075	-0.127
-510.799	11.302	-0.125	0.097
-509.785	40.420	-0.109	-0.099
-508.770	-117.312	-0.271	0.050
-507.756	-143.434	0.168	0.016
-506.741	-178.623	-0.291	0.007
-505.726	-70.377	-0.230	0.088
-504.712	-101.727	0.129	0.032
-503.697	-123.944	0.122	0.020
-502.683	462.649	0.049	0.110
-501.668	-24.969	0.197	0.118
-500.653	-192.115	0.270	0.003
-499.639	-103.498	-0.308	-0.073
-498.624	41.771	0.199	-0.183
-497.610	-200.000	-0.003	0.205
-496.595	69.279	0.060	-0.062
-495.581	45.493	-0.231	0.216
-494.566	0.246	0.133	-0.096
-493.551	-6.150	-0.247	-0.171
-492.537	-63.876	0.062	0.026
-491.522	-11.626	0.262	-0.174
-490.508	-143.603	-0.254	0.024
-489.493	44.949	0.138	-0.129
-488.478	800.000	-0.045	0.136
-487.464	-18.903	0.285	-0.180
-486.449	78.092	0.114	0.123
-485.435	177.265	-0.103	0.152
-484.420	800.000	-0.124	-0.396
-483.405	-98.345	-0.075	-0.019
-482.391	4.005	-0.181	-0.134
-481.376	122.239	0.061	-0.077
-480.362	-200.000	0.065	-0.476
-479.347	-200.000	0.020	-0.108
-478.332	64.672	0.223	0.228
-477.318	-55.732	-0.050	-0.022
-476.303	145.556	0.172	0.233
-475.289	-200.000	-0.007	-0.104
-474.274	-2.839	-0.054	-0.038
-473.259	472.354	0.117	0.266
-472.245	-79.654	-0.072	0.024
-471.230	-200.000	-0.012	0.142
-470.216	-135.278	0.319	0.039
-469.201	-23.583	-0.286	-0.174
-468.186	324.067	0.081	-0.156
-467.172	-106.248	0.332	-0.075
-466.157	800.000	0.082	-0.249
-465.143	-116.702	-0.323	0.060
-464.128	314.667	0.070	0.134
-463.113	-200.000	0.055	0.296
-462.099	170.790	0.141	0.205
-461.084	519.658	0.040	0.095
-460.070	-200.000	0.008	0.098
-459.055	800.000	-0.005	0.017
-458.040	-20.651	-0.331	-0.205
-457.026	800.000	0.084	-0.320
-456.011	274.977	-0.050	-0.090
-454.997	-67.942	-0.172	0.068
-453.982	-200.000	0.065	0.361
-452.968	-200.000	0.002	-0.098
-451.953	14.433	0.091	-0.072
-450.938	-105.420	0.122	0.028
-449.924	-200.000	0.000	-0.414
-448.909	59.984	0.264	-0.263
-447.895	144.767	-0.250	-0.338
-446.880	-17.858	0.126	-0.080
-445.865	-113.971	-0.375	0.073
-444.851	-151.026	-0.063	0.005
-443.836	800.000	-0.021	-0.075
-442.822	-200.000	-0.017	0.347
-441.807	267.042	-0.114	0.201
-440.792	-74.694	-0.253	-0.092
-439.778	106.505	0.097	0.116
-438.763	455.215	-0.024	0.054
-437.749	-200.000	-0.011	0.100
-436.734	265.765	0.228	-0.402
-435.719	166.783	-0.226	-0.324
-434.705	-88.752	0.085	0.025
-433.690	-114.081	-0.324	0.063
-432.676	-22.548	-0.175	-0.107
-431.661	2.184	-0.285	0.208
-430.646	20.077	0.304	0.248
-429.632	-114.207	0.221	0.043
-428.617	293.602	0.018	-0.034
-427.603	-149.807	0.269	0.021
-426.588	4.337	0.067	-0.049
-425.573	-79.376	0.269	-0.092
-424.559	-133.118	0.177	0.023
-423.544	27.037	0.307	0.261
-422.530	-66.780	0.364	0.146
-421.515	-200.000	0.030	-0.264
-420.500	198.291	0.192	-0.297
-419.486	-200.000	0.019	0.104
-418.471	9.031	0.185	0.141
-417.457	577.260	-0.095	0.235
-416.442	-76.816	0.204	-0.072
-415.428	317.007	-0.226	0.432
-414.413	96.384	0.223	0.257
-413.398	-71.922	-0.017	0.006
-412.384	-72.216	0.163	0.061
-411.369	315.830	0.064	-0.123
-410.355	243.264	0.061	0.104
-409.340	169.243	-0.114	0.164
-408.325	-109.326	-0.143	0.031
-407.311	800.000	-0.125	0.538
-406.296	-200.000	0.005	0.193
-405.282	800.000	-0.062	-0.176
-404.267	-57.867	0.369	-0.163
-403.252	98.894	-0.113	0.132
-402.238	358.438	0.139	-0.279
-401.223	39.697	-0.281	-0.254
-400.209	-181.006	-0.063	0.001
-399.194	-200.000	0.003	0.054
-398.179	297.307	0.067	0.123
-397.165	-160.644	0.216	-0.012
-396.150	397.935	-0.071	-0.151
-395.136	-163.530	0.362	0.017
-394.121	-33.908	0.065	-0.036
-393.106	164.258	0.118	0.167
-392.092	-30.860	0.298	0.170
-391.077	174.356	0.154	-0.224
-390.063	-133.941	-0.278	-0.035
-389.048	25.531	0.223	-0.187
-388.033	-200.000	0.010	0.231
-387.019	-89.893	0.178	0.052
-386.004	-62.197	0.200	-0.084
-384.990	-118.024	-0.179	-0.032
-383.975	-69.575	-0.188	-0.073
-382.960	-185.757	0.292	0.004
-381.946	-200.000	0.022	-0.222
-380.931	-200.000	-0.045	-0.201
-379.917	-105.179	0.293	-0.067
-378.902	30.825	-0.109	0.094
-377.888	119.308	0.139	0.173
-376.873	58.849	-0.215	0.213
-375.858	-159.384	0.719	-0.041
-374.844	-130.692	0.259	0.035
-373.829	-121.500	-0.202	-0.034
-372.815	-21.082	-0.285	-0.176
-371.800	-152.465	-0.294	-0.021
-370.785	800.000	0.025	0.076
-369.771	145.568	0.053	0.072
-368.756	-200.000	0.027	0.220
-367.742	-97.868	-0.244	-0.064
-366.727	47.674	-0.143	-0.134
-365.712	-106.908	0.260	0.058
-364.698	14.252	0.114	-0.090
-363.683	-127.614	0.326	0.048
-362.669	-200.000	-0.036	0.282
-361.654	-11.337	-0.085	0.056
-360.639	-80.198	-0.162	-0.055
-359.625	38.937	0.308	-0.277
-358.610	-109.472	-0.137	-0.029
-357.596	290.254	-0.080	-0.146
-356.581	-83.493	-0.226	0.073
-355.566	-60.152	0.077	0.033
-354.552	447.230	0.123	-0.273
-353.537	378.806	0.057	0.117
-352.523	800.000	-0.094	0.303
-351.508	282.256	0.247	0.446
-350.493	173.440	-0.020	0.029
-349.479	93.384	-0.158	0.180
-348.464	142.816	-0.084	-0.113
-347.450	51.453	0.034	0.032
-346.435	356.389	-0.079	0.159
-345.420	-48.218	-0.241	-0.117
-344.406	-120.584	0.213	-0.036
-343.391	-133.187	0.305	0.039
-342.377	-183.209	-0.370	-0.007
-341.362	-28.296	0.284	0.165
-340.348	-35.756	0.224	0.122
-339.333	-11.691	-0.116	-0.077
-338.318	58.076	-0.048	-0.047
-337.304	-147.810	-0.290	-0.024
-336.289	-50.867	-0.332	0.157
-335.275	-200.000	-0.014	-0.078
-334.260	-37.604	-0.211	-0.113
-333.245	800.000	0.029	-0.095
-332.231	-40.679	0.059	0.031
-331.216	286.463	0.075	-0.136
-330.202	-200.000	0.002	-0.025
-329.187	97.401	-0.213	-0.246
-328.172	-200.000	-0.028	-0.156
-327.158	435.617	0.227	-0.497
-326.143	-10.381	0.072	0.048
-325.129	497.822	-0.046	-0.107
-324.114	-126.646	0.188	0.028
-323.099	11.620	0.223	-0.172
-322.085	83.648	-0.169	-0.185
-321.070	-200.000	0.034	0.182
-320.056	-87.779	-0.195	-0.059
-319.041	-200.000	-0.025	0.135
-318.026	787.467	0.073	0.202
-317.012	111.038	0.084	-0.101
-315.997	-77.431	0.305	0.107
-314.983	-200.000	-0.013	0.121
-313.968	-130.678	-0.129	0.017
-312.953	22.543	-0.069	0.057
-311.939	587.073	0.044	0.109
-310.924	-197.492	0.322	0.002
-309.910	-200.000	0.003	-0.022
-308.895	261.310	-0.089	-0.155
-307.880	800.000	0.039	-0.125
-306.866	-135.301	0.125	-0.015
-305.851	-200.000	0.003	0.164
-304.837	-200.000	-0.074	0.343
-303.822	800.000	-0.037	-0.104
-302.807	44.922	-0.263	0.243
-301.793	-29.035	-0.143	0.083
-300.778	12.262	-0.399	-0.309
-299.764	-200.000	0.029	-0.302
-298.749	392.883	-0.175	-0.366
-297.735	-200.000	0.030	-0.139
-296.720	-200.000	0.047	0.316
-295.705	450.579	0.112	0.249
-294.691	-141.093	-0.209	0.021
-293.676	-120.644	0.441	0.075
-292.662	100.111	0.076	0.088
-291.647	800.000	0.065	0.193
-290.632	-2.677	0.019	0.013
-289.618	-164.704	-0.050	-0.002
-288.603	-200.000	-0.039	-0.334
-287.589	-88.905	-0.177	-0.053
-286.574	-200.000	0.045	0.404
-285.559	-64.641	0.214	-0.087
-284.545	198.660	0.035	-0.053
-283.530	52.285	0.140	0.134
-282.516	-72.345	-0.019	0.007
-281.501	-200.000	0.043	0.294
-280.486	-5.361	0.163	-0.112
-279.472	286.660	-0.081	-0.148
-278.457	726.921	-0.085	0.228
-277.443	-20.711	-0.044	-0.027
-276.428	-130.403	0.042	0.006
-275.413	-78.816	0.210	-0.072
-274.399	-18.435	0.234	0.147
-273.384	248.045	-0.159	-0.270
-272.370	-148.825	-0.201	-0.016
-271.355	-200.000	0.007	0.288
-270.340	43.899	-0.081	0.075
-269.326	-142.610	0.169	-0.017
-268.311	33.539	-0.273	0.238
-267.297	247.219	-0.144	-0.245
-266.282	525.343	0.069	0.162
-265.267	122.517	-0.144	-0.181
-264.253	-158.974	0.295	-0.017
-263.238	-160.731	0.250	0.013
-262.224	-69.538	0.046	0.018
-261.209	-21.930	0.284	-0.173
-260.195	20.505	-0.173	-0.141
-259.180	-125.710	0.100	-0.015
-258.165	-62.850	0.116	0.048
-257.151	-121.326	0.184	-0.031
-256.136	229.882	0.065	-0.107
-255.122	-162.105	-0.401	-0.020
-254.107	34.138	0.189	-0.165
-253.092	-131.549	-0.184	-0.024
-252.078	800.000	-0.075	0.292
-251.063	-28.312	-0.106	-0.061
-250.049	108.813	0.143	0.172
-249.034	-200.000	0.022	-0.118
-248.019	-200.000	-0.009	-0.077
-247.005	23.091	0.183	-0.151
-245.990	-200.000	-0.001	0.193
-244.976	-44.146	0.247	-0.124
-243.961	-200.000	-0.075	0.335
-242.946	-200.000	0.028	0.171
-241.932	77.260	-0.244	0.260
-240.917	276.154	-0.293	0.522
-239.903	217.812	-0.080	0.128
-238.888	254.430	0.161	-0.275
-237.873	459.416	0.052	0.115
-236.859	-200.000	0.046	0.248
-235.844	-7.771	-0.222	0.151
-234.830	-144.939	-0.123	0.011
-233.815	-129.689	-0.231	-0.032
-232.800	-162.816	-0.361	-0.018
-231.786	-54.983	0.306	0.138
-230.771	199.933	-0.132	-0.204
-229.757	-45.054	0.196	0.098
-228.742	-39.354	0.267	0.140
-227.727	18.894	-0.124	-0.100
-226.713	-200.000	-0.009	0.044
-225.698	-47.778	-0.160	-0.078
-224.684	336.029	0.052	-0.100
-223.669	-92.295	-0.074	0.021
-222.655	800.000	0.064	0.263
-221.640	528.872	0.070	0.165
-220.625	-50.213	0.506	0.240
-219.611	-53.149	-0.131	0.060
-218.596	-117.976	-0.047	-0.008
-217.582	-200.000	0.080	0.408
-216.567	-200.000	-0.004	0.080
-215.552	-134.273	-0.345	0.042
-214.538	701.933	0.027	-0.072
-213.523	6.311	-0.234	-0.174
-212.509	-200.000	0.025	-0.114
-211.494	36.950	-0.130	-0.115
-210.479	362.991	0.040	0.080
-209.465	-72.210	0.268	0.099
-208.450	65.282	-0.190	-0.193
-207.436	-158.113	-0.458	-0.027
-206.421	144.440	-0.178	0.237
-205.406	800.000	-0.050	0.148
-204.392	-28.320	0.158	0.091
-203.377	-24.676	-0.078	-0.046
-202.363	3.103	-0.059	0.043
-201.348	287.615	-0.086	-0.156
-200.333	800.000	-0.028	-0.118
-199.319	73.000	0.058	0.061
-198.304	-121.379	0.058	-0.010
-197.290	105.358	0.062	0.073
-196.275	-200.000	-0.058	0.334
-195.260	800.000	-0.062	0.186
-194.246	13.880	-0.244	-0.190
-193.231	800.000	-0.014	0.039
-192.217	-155.018	0.130	0.009
-191.202	60.918	-0.149	0.148
-190.187	-200.000	-0.048	0.279
-189.173	-200.000	-0.053	-0.259
-188.158	354.694	-0.095	0.189
-187.144	-8.351	-0.403	-0.272
-186.129	5.564	-0.076	0.056
-185.114	-200.000	0.010	0.075
-184.100	498.867	-0.045	-0.104
-183.085	-200.000	0.009	0.074
-182.071	421.388	0.041	-0.089
-181.056	-200.000	0.006	0.087
-180.042	-200.000	0.004	0.162
-179.027	-93.199	0.203	-0.057
-178.012	465.744	-0.080	-0.179
-176.998	-14.893	-0.123	-0.079
-175.983	-200.000	-0.013	-0.076
-174.969	-77.047	-0.177	0.062
-173.954	65.990	-0.233	0.237
-172.939	800.000	0.007	0.020
-171.925	-200.000	0.053	0.346
-170.910	-158.618	0.220	-0.013
-169.896	-117.102	0.202	-0.037
-168.881	-114.232	0.116	-0.022
-167.866	800.000	0.029	-0.105
-166.852	144.175	-0.161	-0.215
-165.837	-200.000	0.027	-0.124
-164.823	50.114	-0.222	0.210
-163.808	214.296	0.090	-0.143
-162.793	37.548	-0.113	0.100
-161.779	-31.734	0.159	0.089
-160.764	-200.000	0.030	0.356
-159.750	19.058	-0.025	-0.020
-158.735	175.956	0.230	0.333
-157.720	800.000	-0.024	0.075
-156.706	271.166	0.077	-0.135
-155.691	-200.000	0.013	-0.124
-154.677	800.000	-0.139	-0.522
-153.662	-39.991	-0.256	0.134
-152.647	615.186	0.183	0.459
-151.633	28.667	0.298	0.252
-150.618	-93.514	0.224	-0.062
-149.604	-122.728	-0.387	-0.063
-148.589	-68.318	0.180	-0.070
-147.574	-167.258	-0.548	-0.022
-146.560	-65.735	-0.144	-0.058
-145.545	-36.089	0.235	-0.127
-144.531	800.000	-0.046	0.128
-143.516	158.651	-0.124	0.172
-142.502	-200.000	-0.001	-0.006
-141.487	-19.674	-0.346	-0.214
-140.472	-148.012	0.167	0.014
-139.458	-57.199	0.093	0.041
-138.443	-40.743	0.138	-0.071
-137.429	-176.885	-0.192	0.005
-136.414	-175.928	0.031	0.001
-135.399	150.623	-0.218	0.296
-134.385	232.602	0.059	0.097
-133.370	-97.270	0.045	0.012
-132.356	28.345	0.137	0.116
-131.341	768.353	-0.090	-0.245
-130.326	-111.577	0.108	0.022
-129.312	75.353	-0.183	0.193
-128.297	-16.828	0.274	0.173
-127.283	-109.022	-0.087	-0.019
-126.268	103.269	0.203	0.237
-125.253	-75.446	-0.121	0.043
-124.239	-4.543	0.122	-0.084
-123.224	-106.163	-0.054	-0.012
-122.210	71.848	0.261	-0.271
