DTS Sentinel unit serial number:	SN413079Multiplexer serial number:	ORYXHardware model number:	OX4-SRSoftware version number:	ORYX F/W v4.00 Oryx Data Collector v3.7.2.0data status	okinstallation	princeton_trtdifferential loss correction	single-endedforward channel	channel 4reverse channel	N/Adate	2019/09/15time	15:25:35forward acquisition time	60.00reverse acquisition time	0.00gamma	496.2192k internal	0.2285k external	0.2285temperature offset calibration	0.9957default loss term (dB/km)	0.3790temperature slope calibration	1.0000multiplexer offset coefficient	1.0000multiplexer slope coefficient	1.0000fibre end	0.00T internal ref (°C)	41.05T ext. ref 1 (°C)	5.07T ext. ref 2 (°C)	38.44length (m)	temperature (°C)	Stokes	anti-Stokes-747.200	800.000	0.036	0.119
-746.185	-200.000	0.077	0.371
-745.171	-78.437	0.183	0.064
-744.156	-61.974	0.235	0.101
-743.142	20.874	-0.348	-0.289
-742.127	-200.000	-0.026	0.155
-741.112	91.826	0.091	-0.105
-740.098	-200.000	0.016	0.212
-739.083	-79.306	0.180	0.063
-738.069	102.800	-0.396	0.476
-737.054	299.037	0.076	0.143
-736.039	16.021	0.271	-0.219
-735.025	-70.854	-0.191	0.074
-734.010	-23.833	-0.106	-0.065
-732.996	641.604	-0.131	-0.343
-731.981	-72.213	-0.359	0.137
-730.966	309.047	-0.199	0.382
-729.952	-136.816	-0.268	0.032
-728.937	-162.366	-0.306	-0.016
-727.923	800.000	-0.038	0.113
-726.908	-200.000	-0.014	-0.143
-725.894	-151.584	0.324	-0.025
-724.879	-53.456	0.123	-0.058
-723.864	-200.000	0.080	-0.391
-722.850	611.199	0.127	0.327
-721.835	-90.486	-0.231	0.069
-720.821	-77.783	0.077	-0.027
-719.806	-137.991	-0.056	0.006
-718.791	518.753	0.102	0.246
-717.777	52.920	0.074	0.072
-716.762	-50.483	0.149	0.072
-715.748	177.260	0.046	0.069
-714.733	-43.678	-0.176	-0.091
-713.718	-200.000	-0.090	0.466
-712.704	113.702	0.064	-0.080
-711.689	-66.046	-0.158	0.065
-710.675	184.610	-0.104	0.158
-709.660	60.218	-0.164	0.166
-708.645	-38.474	-0.183	-0.099
-707.631	-200.000	-0.031	-0.238
-706.616	800.000	-0.033	-0.112
-705.602	84.482	-0.259	0.291
-704.587	-25.674	0.141	0.085
-703.572	-200.000	0.003	-0.398
-702.558	-47.392	0.229	0.114
-701.543	-47.761	0.270	-0.134
-700.529	-109.824	0.171	-0.037
-699.514	-102.152	0.090	0.022
-698.499	-109.036	-0.073	0.016
-697.485	-39.886	0.043	-0.023
-696.470	-10.203	0.409	0.279
-695.456	194.081	-0.176	0.273
-694.441	800.000	-0.053	0.216
-693.426	171.681	0.128	0.188
-692.412	8.215	0.085	0.065
-691.397	-96.256	-0.178	0.048
-690.383	-81.768	-0.175	0.059
-689.368	-200.000	-0.012	-0.360
-688.354	77.826	-0.097	-0.106
-687.339	-22.587	-0.024	-0.015
-686.324	659.032	0.071	-0.187
-685.310	800.000	-0.073	-0.314
-684.295	800.000	0.022	-0.091
-683.281	16.798	-0.213	0.173
-682.266	-83.965	-0.138	0.045
-681.251	-98.136	0.169	-0.045
-680.237	-200.000	0.018	0.205
-679.222	-131.296	-0.200	-0.027
-678.208	217.479	-0.096	0.157
-677.193	413.660	-0.124	-0.269
-676.178	-83.184	-0.146	0.048
-675.164	49.115	0.100	-0.096
-674.149	-27.311	-0.087	-0.052
-673.135	703.290	0.089	0.239
-672.120	-109.099	0.018	0.004
-671.105	2.113	0.273	-0.202
-670.091	800.000	0.071	0.277
-669.076	-200.000	0.070	0.327
-668.062	-200.000	-0.014	-0.086
-667.047	-200.000	-0.009	0.056
-666.032	527.663	-0.069	-0.166
-665.018	800.000	0.071	-0.251
-664.003	16.334	-0.070	0.056
-662.989	-29.800	-0.107	-0.062
-661.974	268.836	-0.163	0.292
-660.959	-190.059	-0.466	-0.005
-659.945	-200.000	-0.006	0.037
-658.930	-152.951	-0.175	0.013
-657.916	-67.782	0.052	0.021
-656.901	360.740	0.135	-0.277
-655.886	-200.000	-0.011	-0.113
-654.872	-58.896	0.094	0.042
-653.857	249.868	0.048	-0.084
-652.843	-5.830	0.189	-0.132
-651.828	-32.327	-0.072	-0.041
-650.814	-200.000	-0.047	0.306
-649.799	-200.000	0.024	0.279
-648.784	-200.000	0.016	0.265
-647.770	-200.000	-0.097	-0.445
-646.755	1.304	-0.288	0.211
-645.741	158.624	-0.229	0.325
-644.726	800.000	0.037	-0.119
-643.711	133.285	0.046	-0.061
-642.697	-50.966	-0.267	0.128
-641.682	418.945	-0.098	0.215
-640.668	433.565	-0.093	0.206
-639.653	-200.000	0.015	-0.174
-638.638	-13.806	0.241	0.159
-637.624	-115.099	-0.128	-0.025
-636.609	61.861	0.180	-0.183
-635.595	-155.056	-0.178	-0.012
-634.580	545.422	-0.023	-0.057
-633.565	24.791	0.150	0.127
-632.551	143.038	0.029	0.040
-631.536	-21.544	-0.261	0.163
-630.522	56.993	-0.185	-0.184
-629.507	35.029	-0.211	-0.188
-628.492	16.097	-0.316	-0.255
-627.478	-47.902	-0.165	-0.082
-626.463	-124.160	-0.283	0.045
-625.449	-24.387	-0.214	-0.130
-624.434	0.569	0.277	-0.203
-623.419	800.000	0.060	-0.243
-622.405	-200.000	-0.032	-0.152
-621.390	-94.632	-0.037	0.010
-620.376	800.000	-0.029	0.089
-619.361	800.000	-0.097	0.304
-618.346	-85.018	0.168	-0.054
-617.332	-200.000	-0.054	0.359
-616.317	-67.136	0.190	0.076
-615.303	-116.426	-0.321	-0.061
-614.288	-55.930	-0.160	0.073
-613.273	-163.667	0.048	0.002
-612.259	-200.000	-0.009	-0.166
-611.244	-80.706	0.049	-0.016
-610.230	-192.015	0.269	-0.003
-609.215	-183.609	-0.357	-0.006
-608.201	-16.454	-0.341	-0.221
-607.186	-200.000	0.052	-0.255
-606.171	137.226	0.149	-0.199
-605.157	293.698	-0.151	0.281
-604.142	8.219	-0.179	-0.137
-603.128	-200.000	-0.007	-0.123
-602.113	-200.000	-0.038	-0.332
-601.098	338.546	0.265	-0.526
-600.084	-200.000	-0.046	-0.257
-599.069	776.362	-0.153	-0.426
-598.055	29.227	-0.102	-0.088
-597.040	52.173	0.049	0.048
-596.025	-200.000	-0.024	-0.134
-595.011	-200.000	-0.002	0.282
-593.996	-59.370	0.167	0.073
-592.982	-8.425	0.060	0.041
-591.967	-200.000	0.046	-0.434
-590.952	208.000	-0.033	-0.053
-589.938	263.278	0.057	-0.102
-588.923	-135.933	0.420	0.051
-587.909	45.778	0.213	0.201
-586.894	66.773	0.285	0.296
-585.879	-108.979	-0.070	0.015
-584.865	546.886	0.173	-0.423
-583.850	18.701	0.052	-0.043
-582.836	-145.327	-0.174	-0.016
-581.821	-122.600	0.089	0.015
-580.806	131.464	0.194	-0.255
-579.792	-110.502	0.203	0.043
-578.777	95.639	-0.018	0.021
-577.763	69.857	0.061	-0.065
-576.748	-200.000	0.001	0.033
-575.733	-95.179	0.429	-0.118
-574.719	187.826	-0.201	0.306
-573.704	-90.052	-0.198	0.059
-572.690	189.713	-0.137	-0.209
-571.675	103.966	0.284	-0.340
-570.661	-200.000	-0.009	-0.112
-569.646	192.625	-0.061	0.093
-568.631	-137.983	-0.026	-0.003
-567.617	-64.069	0.293	-0.122
-566.602	102.006	0.220	-0.261
-565.588	22.283	-0.233	-0.194
-564.573	7.099	0.107	-0.082
-563.558	-200.000	0.006	0.036
-562.544	124.542	-0.104	0.133
-561.529	-200.000	0.044	0.673
-560.515	306.176	-0.034	-0.064
-559.500	800.000	-0.054	-0.194
-558.485	10.335	0.131	0.102
-557.471	-200.000	-0.045	-0.387
-556.456	570.574	0.021	-0.053
-555.442	-96.431	-0.223	0.060
-554.427	800.000	0.026	-0.088
-553.412	-200.000	-0.041	-0.482
-552.398	-116.762	-0.332	0.062
-551.383	-200.000	0.036	-0.421
-550.369	79.558	-0.177	0.193
-549.354	228.892	-0.074	0.122
-548.339	-200.000	-0.044	0.242
-547.325	-33.850	-0.256	0.144
-546.310	660.294	-0.033	-0.086
-545.296	437.555	0.085	-0.188
-544.281	-81.557	0.242	0.081
-543.266	262.447	-0.229	-0.406
-542.252	800.000	-0.101	0.318
-541.237	70.219	0.155	-0.164
-540.223	404.118	0.032	-0.068
-539.208	301.182	-0.085	0.159
-538.193	-8.447	-0.155	-0.106
-537.179	459.637	0.095	-0.215
-536.164	371.538	0.071	-0.147
-535.150	-115.929	-0.101	-0.019
-534.135	-200.000	-0.005	0.022
-533.121	133.786	0.245	-0.322
-532.106	-27.221	0.272	-0.161
-531.091	-200.000	0.018	0.083
-530.077	33.211	0.136	0.120
-529.062	-76.105	0.171	0.062
-528.048	31.221	-0.162	-0.142
-527.033	-65.719	0.157	0.064
-526.018	109.803	0.198	-0.242
-525.004	180.691	-0.143	0.214
-523.989	-200.000	-0.038	-0.198
-522.975	-200.000	-0.010	-0.308
-521.960	800.000	0.012	-0.040
-520.945	-43.926	0.128	-0.066
-519.931	-16.244	-0.229	0.148
-518.916	-88.192	0.046	-0.014
-517.902	-72.908	-0.081	-0.030
-516.887	-17.015	-0.245	0.157
-515.872	357.437	0.040	-0.081
-514.858	456.933	0.107	0.242
-513.843	188.172	0.049	-0.074
-512.829	800.000	-0.076	0.215
-511.814	370.981	-0.129	0.266
-510.799	800.000	0.075	0.225
-509.785	110.355	0.165	-0.201
-508.770	385.618	0.041	0.086
-507.756	-100.341	-0.325	0.082
-506.741	6.780	-0.339	0.257
-505.726	800.000	-0.050	0.196
-504.712	50.462	-0.061	-0.058
-503.697	-200.000	-0.014	0.095
-502.683	-65.156	0.129	-0.053
-501.668	-7.782	0.193	0.133
-500.653	83.592	0.113	0.125
-499.639	-200.000	0.008	-0.106
-498.624	46.254	-0.192	0.180
-497.610	20.835	0.146	0.120
-496.595	-165.008	-0.272	0.012
-495.581	129.814	-0.101	-0.132
-494.566	-57.968	0.175	-0.078
-493.551	97.425	0.104	0.122
-492.537	173.438	0.027	0.039
-491.522	-150.036	0.119	-0.009
-490.508	-38.251	-0.254	0.137
-489.493	-116.165	0.154	-0.029
-488.478	316.878	-0.083	0.159
-487.464	45.836	0.126	0.118
-486.449	-110.593	0.231	0.049
-485.435	724.515	-0.161	-0.436
-484.420	-62.262	-0.140	-0.059
-483.405	-77.929	0.297	0.104
-482.391	-89.736	0.124	-0.037
-481.376	56.119	-0.144	-0.142
-480.362	-37.200	0.362	0.197
-479.347	-200.000	0.006	-0.040
-478.332	-65.208	0.315	0.129
-477.318	103.132	-0.117	0.139
-476.303	-63.544	0.046	-0.019
-475.289	221.563	-0.099	-0.161
-474.274	-200.000	0.028	-0.158
-473.259	584.774	0.092	-0.230
-472.245	317.825	-0.126	-0.242
-471.230	-185.216	-0.298	0.005
-470.216	-72.523	-0.165	0.062
-469.201	55.113	-0.249	-0.245
-468.186	429.703	0.140	0.308
-467.172	121.017	-0.052	0.066
-466.157	-200.000	-0.013	0.286
-465.143	-10.110	0.242	0.163
-464.128	800.000	-0.039	-0.128
-463.113	-134.069	-0.233	-0.029
-462.099	-200.000	-0.071	0.398
-461.084	-200.000	0.002	-0.041
-460.070	284.861	-0.189	-0.346
-459.055	96.555	0.056	-0.065
-458.040	-200.000	-0.024	-0.282
-457.026	-113.732	-0.093	0.018
-456.011	-55.579	-0.239	0.109
-454.997	-130.500	0.179	0.025
-453.982	269.720	-0.076	-0.136
-452.968	-18.068	-0.205	0.131
-451.953	349.914	0.082	-0.164
-450.938	20.514	-0.214	0.176
-449.924	36.883	-0.377	-0.338
-448.909	-170.818	-0.095	-0.003
-447.895	-200.000	0.030	0.317
-446.880	-109.406	0.392	-0.084
-445.865	-154.420	-0.179	0.012
-444.851	-67.419	-0.206	0.082
-443.836	-175.827	-0.159	0.004
-442.822	-88.930	-0.344	0.103
-441.807	-156.613	0.038	-0.002
-440.792	-200.000	0.022	0.151
-439.778	-58.692	-0.158	-0.069
-438.763	541.460	0.104	0.251
-437.749	456.778	0.052	0.118
-436.734	61.695	-0.096	0.097
-435.719	-159.409	0.194	-0.011
-434.705	201.347	0.084	0.132
-433.690	1.165	-0.145	-0.106
-432.676	-188.069	0.099	0.001
-431.661	-24.126	-0.132	-0.080
-430.646	-58.950	0.311	0.136
-429.632	-73.851	0.247	0.091
-428.617	38.539	-0.189	-0.171
-427.603	147.796	-0.149	0.203
-426.588	-181.550	0.081	0.002
-425.573	-147.327	0.078	0.007
-424.559	-200.000	-0.070	-0.442
-423.544	-111.236	-0.436	0.090
-422.530	25.714	0.106	-0.090
-421.515	800.000	0.111	0.378
-420.500	-50.335	-0.088	0.042
-419.486	-33.659	0.104	0.058
-418.471	-200.000	0.002	0.273
-417.457	-27.562	0.036	-0.021
-416.442	-151.372	0.184	0.014
-415.428	215.817	0.161	0.259
-414.413	-200.000	-0.018	0.179
-413.398	-92.377	0.228	-0.065
-412.384	112.271	-0.131	-0.160
-411.369	-200.000	0.023	0.234
-410.355	-14.630	-0.472	0.307
-409.340	-200.000	-0.010	-0.250
-408.325	-57.749	0.521	-0.231
-407.311	-24.572	-0.200	-0.121
-406.296	34.922	0.200	-0.177
-405.282	-34.805	-0.296	0.164
-404.267	99.747	-0.103	-0.120
-403.252	722.926	0.090	0.242
-402.238	-200.000	0.009	-0.085
-401.223	123.650	-0.165	0.210
-400.209	-119.946	0.114	-0.020
-399.194	639.892	0.069	0.177
-398.179	-158.505	0.346	0.020
-397.165	-146.928	-0.095	-0.008
-396.150	-22.422	0.214	0.131
-395.136	99.693	-0.225	-0.263
-394.121	800.000	-0.072	-0.267
-393.106	563.219	0.016	-0.039
-392.092	338.602	-0.083	0.164
-391.077	368.405	0.104	0.213
-390.063	27.333	0.249	0.212
-389.048	-177.646	0.326	0.008
-388.033	-141.836	0.186	-0.019
-387.019	-97.978	0.195	-0.051
-386.004	-19.783	-0.176	-0.110
-384.990	-70.784	0.319	0.122
-383.975	-4.139	0.330	-0.231
-382.960	-135.142	0.340	0.041
-381.946	592.946	-0.067	-0.167
-380.931	-17.783	0.153	-0.097
-379.917	-158.180	-0.132	0.008
-378.902	-200.000	-0.034	-0.335
-377.888	-4.296	-0.040	0.028
-376.873	800.000	-0.039	-0.118
-375.858	-77.032	-0.228	-0.081
-374.844	-158.921	-0.247	0.014
-373.829	800.000	-0.154	0.430
-372.815	-170.639	-0.118	-0.004
-371.800	15.710	-0.154	0.122
-370.785	261.405	0.070	0.122
-369.771	566.281	0.052	-0.127
-368.756	25.162	0.208	0.175
-367.742	-15.001	-0.138	-0.089
-366.727	-68.564	0.227	-0.089
-365.712	57.223	0.142	-0.140
-364.698	-200.000	0.000	-0.026
-363.683	-107.543	0.149	-0.033
-362.669	-200.000	0.037	-0.224
-361.654	82.584	0.137	-0.150
-360.639	306.038	-0.026	-0.050
-359.625	69.036	-0.045	-0.047
-358.610	-200.000	0.006	-0.111
-357.596	-106.428	0.310	0.070
-356.581	-137.875	-0.100	-0.011
-355.566	125.765	-0.174	-0.222
-354.552	-142.889	-0.026	-0.003
-353.537	47.657	-0.144	-0.136
-352.523	-6.118	-0.108	-0.074
-351.508	-7.211	-0.140	0.096
-350.493	-80.538	-0.160	0.054
-349.479	466.449	-0.046	-0.104
-348.464	800.000	-0.050	-0.183
-347.450	-137.909	0.224	0.025
-346.435	43.410	0.277	-0.256
-345.420	-200.000	0.006	-0.287
-344.406	-87.068	-0.163	0.050
-343.391	-14.132	-0.074	-0.048
-342.377	-148.091	0.241	0.020
-341.362	-200.000	0.103	-0.476
-340.348	10.038	0.454	-0.349
-339.333	-123.900	0.223	0.036
-338.318	-171.090	0.169	0.006
-337.304	-99.080	-0.185	0.047
-336.289	52.968	0.314	0.304
-335.275	-15.317	0.181	0.117
-334.260	212.823	-0.101	0.160
-333.245	63.835	0.195	0.198
-332.231	3.994	-0.212	0.157
-331.216	-200.000	-0.022	-0.166
-330.202	-130.422	-0.105	-0.014
-329.187	-98.565	-0.118	0.031
-328.172	214.079	-0.072	-0.116
-327.158	248.831	-0.046	-0.079
-326.143	102.611	0.018	-0.021
-325.129	-200.000	0.021	-0.150
-324.114	-200.000	-0.036	-0.361
-323.099	33.613	0.211	0.185
-322.085	54.969	0.249	-0.242
-321.070	-51.004	-0.076	-0.036
-320.056	204.048	0.006	-0.010
-319.041	-133.967	0.283	-0.035
-318.026	-92.562	-0.119	0.034
-317.012	3.350	0.398	-0.293
-315.997	384.197	0.064	-0.132
-314.983	-134.398	0.368	-0.046
-313.968	-109.187	-0.180	-0.039
-312.953	-108.876	0.334	0.072
-311.939	-81.203	-0.141	-0.047
-310.924	4.465	0.066	0.049
-309.910	333.413	0.049	0.095
-308.895	-138.142	-0.420	-0.047
-307.880	159.025	-0.295	0.414
-306.866	73.945	0.089	0.094
-305.851	-18.543	-0.153	-0.097
-304.837	-101.429	-0.493	0.121
-303.822	-101.736	-0.162	-0.040
-302.807	188.880	-0.164	0.248
-301.793	-200.000	-0.021	-0.113
-300.778	-16.739	0.271	0.173
-299.764	-173.311	0.179	0.005
-298.749	-74.141	-0.301	0.110
-297.735	45.971	0.126	-0.118
-296.720	243.968	-0.160	0.272
-295.705	-42.657	0.059	0.030
-294.691	-200.000	0.032	0.166
-293.676	800.000	-0.027	-0.103
-292.662	104.167	0.187	-0.222
-291.647	-130.064	-0.117	-0.016
-290.632	-200.000	-0.017	-0.259
-289.618	47.150	0.064	0.060
-288.603	437.414	-0.128	0.281
-287.589	220.609	0.252	-0.408
-286.574	-114.171	0.198	-0.039
-285.559	-59.573	0.223	-0.097
-284.545	-16.113	0.051	-0.033
-283.530	31.682	-0.177	0.154
-282.516	800.000	0.071	0.212
-281.501	10.844	0.158	-0.122
-280.486	-107.653	0.093	-0.021
-279.472	-140.723	0.209	0.022
-278.457	91.622	-0.087	-0.098
-277.443	-10.542	0.318	-0.212
-276.428	272.632	-0.172	-0.307
-275.413	53.845	-0.017	-0.016
-274.399	800.000	0.034	-0.143
-273.384	-200.000	0.044	0.408
-272.370	342.457	-0.118	0.233
-271.355	112.657	-0.439	0.535
-270.340	-137.863	0.201	0.023
-269.326	-94.645	-0.082	-0.023
-268.311	-64.017	-0.300	0.124
-267.297	80.196	-0.165	0.179
-266.282	-125.940	0.310	0.047
-265.267	-200.000	0.013	-0.241
-264.253	-181.622	0.150	0.003
-263.238	-18.565	0.184	0.116
-262.224	105.924	0.213	0.254
-261.209	406.051	-0.017	-0.037
-260.195	5.402	0.212	0.158
-259.180	-200.000	0.041	-0.303
-258.165	-8.269	-0.076	0.052
-257.151	-82.228	0.139	-0.046
-256.136	215.694	-0.105	-0.168
-255.122	-12.023	0.137	0.090
-254.107	-18.912	0.122	0.076
-253.092	-39.144	-0.109	-0.058
-252.078	-79.624	-0.035	-0.012
-251.063	-21.828	-0.353	0.216
-250.049	126.445	-0.160	0.204
-249.034	173.433	-0.188	0.273
-248.019	23.958	-0.224	0.186
-247.005	202.219	0.082	0.127
-245.990	-200.000	0.017	0.155
-244.976	-28.725	-0.127	0.073
-243.961	196.068	0.172	0.263
-242.946	342.663	0.125	0.247
-241.932	-10.091	-0.285	0.191
-240.917	800.000	0.068	-0.212
-239.903	66.154	-0.299	-0.305
-238.888	246.634	-0.155	0.262
-237.873	-110.009	0.349	0.074
-236.859	-120.206	-0.135	0.023
-235.844	9.176	0.074	0.056
-234.830	82.726	-0.138	-0.151
-233.815	800.000	-0.049	0.147
-232.800	227.970	0.130	0.213
-231.786	-200.000	-0.021	-0.129
-230.771	7.754	-0.168	0.127
-229.757	162.865	0.120	-0.170
-228.742	-54.930	0.343	-0.156
-227.727	800.000	-0.053	-0.165
-226.713	-200.000	0.002	0.104
-225.698	-75.276	0.169	-0.061
-224.684	-200.000	0.061	-0.272
-223.669	324.737	0.170	-0.326
-222.655	251.717	-0.107	-0.183
-221.640	-200.000	0.004	-0.432
-220.625	-89.270	0.087	0.026
-219.611	422.104	0.141	0.303
-218.596	-84.106	-0.223	0.071
-217.582	800.000	0.111	0.406
-216.567	47.878	-0.150	0.141
-215.552	-157.673	-0.145	0.009
-214.538	548.273	0.069	-0.166
-213.523	3.448	0.418	0.306
-212.509	145.167	-0.231	-0.310
-211.494	-200.000	0.002	0.214
-210.479	-200.000	0.075	0.391
-209.465	67.034	0.204	-0.209
-208.450	552.912	-0.123	-0.296
-207.436	800.000	-0.072	-0.259
-206.421	-200.000	-0.021	0.161
-205.406	39.632	-0.305	0.275
-204.392	38.844	-0.250	0.225
-203.377	-32.307	-0.240	0.135
-202.363	-107.212	0.344	0.076
-201.348	60.427	-0.061	-0.061
-200.333	-93.986	-0.138	0.038
-199.319	-200.000	-0.043	0.188
-198.304	18.514	0.149	-0.120
-197.290	-200.000	0.048	0.274
-196.275	209.651	0.152	-0.239
-195.260	112.795	-0.119	-0.145
-194.246	-200.000	-0.009	-0.062
-193.231	200.023	-0.110	0.170
-192.217	479.573	-0.150	0.342
-191.202	-81.023	-0.257	-0.086
-190.187	-200.000	-0.053	0.333
-189.173	-71.942	-0.287	0.107
-188.158	510.986	0.154	-0.360
-187.144	44.273	0.238	-0.219
-186.129	-200.000	0.050	0.317
-185.114	-127.822	-0.340	0.049
-184.100	-200.000	-0.006	-0.249
-183.085	193.366	-0.289	-0.439
-182.071	557.804	0.088	0.212
-181.056	-61.236	0.193	0.082
-180.042	64.917	-0.046	-0.047
-179.027	-83.100	0.180	-0.058
-178.012	795.791	0.070	0.195
-176.998	291.221	0.066	-0.120
-175.983	-124.435	-0.348	0.054
-174.969	158.301	0.043	-0.059
-173.954	-122.357	0.331	-0.054
-172.939	-47.119	0.182	0.089
-171.925	-18.545	0.126	0.079
-170.910	66.572	0.157	0.160
-169.896	306.798	0.142	0.265
-168.881	168.926	-0.236	-0.337
-167.866	259.284	0.053	0.092
-166.852	-88.791	-0.240	-0.072
-165.837	-120.678	0.113	-0.019
-164.823	-114.351	-0.192	0.037
-163.808	800.000	-0.141	0.405
-162.793	317.206	-0.092	0.175
-161.779	86.584	-0.404	0.447
-160.764	233.001	0.106	-0.175
-159.750	-16.539	0.110	0.070
-158.735	75.012	0.013	0.014
-157.720	-105.025	-0.256	-0.059
-156.706	143.579	0.277	0.370
-155.691	-93.449	0.168	-0.047
-154.677	-9.423	0.239	0.160
-153.662	-20.775	0.149	-0.092
-152.647	697.331	-0.058	0.152
-151.633	590.689	-0.020	0.049
-150.618	-102.377	0.232	0.056
-149.604	800.000	-0.063	-0.186
-148.589	-200.000	0.005	-0.043
-147.574	244.451	-0.044	0.075
-146.560	-93.253	-0.133	0.037
-145.545	-144.799	0.121	-0.011
-144.531	3.636	0.424	0.310
-143.516	-25.383	0.117	-0.070
-142.502	345.935	-0.064	-0.126
-141.487	-166.536	0.198	-0.008
-140.472	-71.168	-0.201	-0.076
-139.458	6.292	0.244	0.181
-138.443	539.586	0.113	0.269
-137.429	47.014	0.258	0.241
-136.414	287.915	0.069	-0.124
-135.399	151.451	-0.150	-0.205
-134.385	-138.694	0.290	0.032
-133.370	-172.735	-0.137	-0.004
-132.356	-200.000	0.001	-0.037
-131.341	-28.302	0.117	0.068
-130.326	-44.650	-0.130	0.065
-129.312	-88.364	-0.062	0.019
-128.297	800.000	-0.058	0.220
-127.283	-18.791	-0.129	0.081
-126.268	-122.777	-0.153	0.025
-125.253	-28.770	0.332	0.191
-124.239	637.531	0.081	-0.205
-123.224	-115.034	0.350	-0.067
-122.210	-134.182	0.111	0.014
-121.195	591.655	-0.063	0.156
