DTS Sentinel unit serial number:	SN413079Multiplexer serial number:	ORYXHardware model number:	OX4-SRSoftware version number:	ORYX F/W v4.00 Oryx Data Collector v3.7.2.0data status	okinstallation	princeton_trtdifferential loss correction	single-endedforward channel	channel 4reverse channel	N/Adate	2019/09/12time	16:19:11forward acquisition time	60.00reverse acquisition time	0.00gamma	496.2192k internal	0.2301k external	0.2301temperature offset calibration	1.0109default loss term (dB/km)	0.3790temperature slope calibration	1.0000multiplexer offset coefficient	1.0000multiplexer slope coefficient	1.0000fibre end	0.00T internal ref (°C)	37.94T ext. ref 1 (°C)	2.57T ext. ref 2 (°C)	30.71length (m)	temperature (°C)	Stokes	anti-Stokes-747.200	-76.352	0.331	-0.119
-746.185	-112.426	-0.312	-0.064
-745.171	532.730	-0.163	0.394
-744.156	-200.000	0.013	0.378
-743.142	655.150	-0.079	-0.206
-742.127	-111.826	0.186	-0.038
-741.112	-30.702	0.314	-0.181
-740.098	800.000	0.095	0.366
-739.083	800.000	-0.068	0.225
-738.069	-200.000	0.041	0.331
-737.054	247.660	-0.116	0.199
-736.039	-35.742	-0.256	-0.141
-735.025	800.000	-0.097	0.389
-734.010	-43.514	-0.193	0.100
-732.996	800.000	-0.037	-0.157
-731.981	-127.713	-0.311	-0.046
-730.966	-46.342	-0.399	-0.200
-729.952	-200.000	-0.005	-0.171
-728.937	-94.846	-0.284	-0.078
-727.923	-141.339	-0.353	0.037
-726.908	-82.546	-0.421	0.139
-725.894	-162.843	0.175	-0.009
-724.879	23.810	0.330	0.277
-723.864	-200.000	0.030	0.229
-722.850	-200.000	-0.031	-0.242
-721.835	-169.012	0.235	0.009
-720.821	-136.014	0.237	-0.028
-719.806	108.092	-0.077	-0.093
-718.791	-200.000	0.010	0.078
-717.777	-53.130	-0.173	0.081
-716.762	-100.316	-0.180	0.046
-715.748	-161.074	-0.110	-0.006
-714.733	-200.000	-0.005	-0.176
-713.718	-58.884	0.187	-0.082
-712.704	-86.742	0.168	-0.052
-711.689	-85.252	-0.321	-0.102
-710.675	-163.327	-0.352	0.017
-709.660	800.000	0.096	0.324
-708.645	80.601	0.055	-0.061
-707.631	-64.404	0.280	-0.116
-706.616	72.664	-0.163	0.173
-705.602	-73.220	-0.164	0.061
-704.587	-200.000	0.021	-0.116
-703.572	-109.144	-0.136	-0.029
-702.558	-18.558	0.054	0.034
-701.543	113.450	0.243	0.301
-700.529	-101.801	-0.171	-0.042
-699.514	-107.460	-0.119	0.027
-698.499	-71.426	0.054	-0.021
-697.485	-1.190	-0.218	-0.156
-696.470	217.258	0.050	-0.082
-695.456	559.371	-0.041	-0.100
-694.441	-34.004	0.280	0.157
-693.426	-100.934	-0.172	0.043
-692.412	-200.000	-0.014	-0.263
-691.397	84.157	-0.004	-0.005
-690.383	383.484	-0.218	-0.456
-689.368	800.000	-0.034	-0.095
-688.354	800.000	-0.057	-0.217
-687.339	118.595	-0.190	0.239
-686.324	224.619	0.173	0.285
-685.310	-110.161	0.266	0.057
-684.295	229.401	0.068	-0.113
-683.281	800.000	-0.033	0.127
-682.266	-151.885	0.143	0.011
-681.251	-200.000	-0.026	-0.295
-680.237	366.418	0.176	-0.361
-679.222	19.201	0.074	0.061
-678.208	-143.769	-0.258	0.025
-677.193	-95.621	-0.352	0.096
-676.178	-85.206	-0.067	0.021
-675.164	-200.000	0.004	0.149
-674.149	-139.846	-0.232	-0.025
-673.135	135.629	-0.148	-0.195
-672.120	59.130	0.057	-0.057
-671.105	-16.618	0.080	-0.052
-670.091	-94.821	-0.111	0.030
-669.076	-148.141	-0.339	0.029
-668.062	-59.897	0.141	0.061
-667.047	-64.689	0.049	0.020
-666.032	-106.818	0.254	0.057
-665.018	800.000	-0.065	-0.199
-664.003	-200.000	-0.041	-0.206
-662.989	420.482	-0.044	0.095
-661.974	-67.126	-0.114	0.046
-660.959	-200.000	-0.037	0.348
-659.945	57.083	0.045	-0.045
-658.930	-200.000	0.025	-0.136
-657.916	-61.282	-0.299	0.128
-656.901	146.746	0.098	0.133
-655.886	-15.258	0.096	-0.062
-654.872	-88.963	0.192	-0.058
-653.857	54.048	0.095	-0.093
-652.843	-84.201	0.205	0.066
-651.828	119.714	0.154	-0.193
-650.814	38.473	0.217	-0.196
-649.799	-57.865	-0.412	0.183
-648.784	800.000	-0.028	-0.090
-647.770	-57.708	0.085	-0.038
-646.755	800.000	0.092	-0.314
-645.741	164.208	0.165	-0.237
-644.726	800.000	0.031	-0.101
-643.711	-91.871	-0.292	0.084
-642.697	69.964	-0.365	0.382
-641.682	-141.954	0.028	-0.003
-640.668	800.000	-0.125	-0.385
-639.653	493.376	0.136	-0.317
-638.638	246.969	-0.070	0.121
-637.624	-43.848	0.118	-0.060
-636.609	457.708	0.060	-0.135
-635.595	-118.243	0.496	0.090
-634.580	-194.355	-0.283	-0.002
-633.565	542.789	-0.029	-0.071
-632.551	0.314	-0.076	-0.055
-631.536	-160.634	0.312	0.017
-630.522	707.918	-0.096	0.257
-629.507	10.285	0.085	0.066
-628.492	56.773	0.117	0.116
-627.478	32.465	0.172	-0.151
-626.463	-14.003	-0.132	0.087
-625.449	-104.790	0.305	0.071
-624.434	319.309	0.092	0.176
-623.419	406.722	-0.096	0.206
-622.405	-92.493	-0.149	0.043
-621.390	-75.976	-0.306	0.110
-620.376	87.125	0.271	-0.304
-619.361	52.989	-0.131	-0.127
-618.346	258.547	-0.087	0.152
-617.332	800.000	-0.045	-0.141
-616.317	-17.920	0.188	0.120
-615.303	-56.522	0.306	0.138
-614.288	-120.813	-0.337	0.058
-613.273	259.283	0.092	0.161
-612.259	800.000	0.009	-0.025
-611.244	19.078	-0.164	-0.133
-610.230	-150.308	0.190	0.015
-609.215	-62.426	-0.152	-0.064
-608.201	197.047	0.047	-0.073
-607.186	493.018	0.079	0.185
-606.171	-200.000	0.082	0.383
-605.157	60.158	-0.037	0.037
-604.142	800.000	0.029	-0.128
-603.128	800.000	0.061	0.202
-602.113	660.172	0.073	-0.192
-601.098	-157.449	0.383	-0.023
-600.084	-43.460	-0.232	0.119
-599.069	18.969	-0.269	0.219
-598.055	-168.263	0.241	-0.009
-597.040	800.000	0.044	0.146
-596.025	440.068	0.095	-0.210
-595.011	800.000	0.037	0.119
-593.996	-161.627	0.325	-0.017
-592.982	-149.700	-0.395	-0.031
-591.967	56.831	-0.081	-0.080
-590.952	-200.000	0.011	-0.103
-589.938	104.563	0.144	0.172
-588.923	615.008	0.075	-0.190
-587.909	-136.245	0.150	-0.018
-586.894	227.851	0.070	0.115
-585.879	373.846	-0.051	-0.106
-584.865	-69.934	-0.161	-0.062
-583.850	-10.436	-0.301	0.202
-582.836	67.636	-0.062	0.064
-581.821	-200.000	-0.014	-0.061
-580.806	262.059	-0.049	-0.086
-579.792	800.000	0.048	-0.191
-578.777	-200.000	-0.024	-0.114
-577.763	-8.853	0.092	0.063
-576.748	-88.580	0.438	-0.132
-575.733	-74.693	-0.087	0.032
-574.719	-200.000	-0.011	0.159
-573.704	167.829	0.132	-0.191
-572.690	-91.654	0.258	-0.074
-571.675	-200.000	-0.030	-0.199
-570.661	-63.574	0.238	0.099
-569.646	800.000	0.080	0.239
-568.631	98.756	0.071	-0.084
-567.617	-169.028	0.213	0.008
-566.602	179.343	-0.142	0.211
-565.588	-31.473	0.310	0.177
-564.573	82.663	-0.106	-0.116
-563.558	-36.702	-0.233	0.127
-562.544	800.000	0.051	0.158
-561.529	-200.000	0.010	-0.093
-560.515	787.683	0.128	0.357
-559.500	-94.711	0.318	0.087
-558.485	-91.024	-0.343	0.100
-557.471	-89.061	0.280	0.084
-556.456	364.240	-0.092	-0.187
-555.442	800.000	0.065	0.227
-554.427	356.140	0.258	0.520
-553.412	800.000	-0.025	-0.105
-552.398	-132.440	-0.130	-0.017
-551.383	-200.000	-0.215	0.001
-550.369	-200.000	0.017	-0.125
-549.354	-61.148	-0.101	0.043
-548.339	-96.981	0.353	0.094
-547.325	-200.000	0.002	0.163
-546.310	326.706	0.081	0.157
-545.296	187.081	0.088	-0.133
-544.281	-200.000	-0.004	0.107
-543.266	761.794	0.079	-0.216
-542.252	-200.000	-0.012	-0.104
-541.237	-200.000	0.012	-0.251
-540.223	-40.076	-0.198	-0.104
-539.208	-17.150	-0.352	0.225
-538.193	-2.588	-0.118	0.084
-537.179	303.894	0.064	0.120
-536.164	332.727	0.102	-0.200
-535.150	-200.000	0.028	-0.320
-534.135	800.000	0.100	-0.396
-533.121	-177.509	-0.098	0.002
-532.106	719.907	0.047	-0.125
-531.091	209.882	0.048	-0.076
-530.077	-121.255	0.132	-0.022
-529.062	-5.829	-0.271	-0.188
-528.048	-157.019	0.294	-0.018
-527.033	182.038	0.109	0.162
-526.018	-101.744	0.152	0.037
-525.004	-96.943	0.165	0.044
-523.989	-200.000	-0.009	0.180
-522.975	392.244	-0.134	0.281
-521.960	-160.753	-0.281	0.015
-520.945	-200.000	-0.005	-0.161
-519.931	-116.666	0.224	0.042
-518.916	88.624	0.025	-0.029
-517.902	141.921	0.102	0.137
-516.887	31.904	0.102	0.089
-515.872	94.786	-0.135	0.156
-514.858	46.735	0.046	0.043
-513.843	275.417	-0.069	0.123
-512.829	196.299	-0.076	-0.117
-511.814	445.918	-0.163	-0.362
-510.799	115.350	-0.072	0.089
-509.785	281.836	-0.066	0.119
-508.770	5.539	-0.089	0.067
-507.756	-27.554	0.315	0.185
-506.741	-68.230	0.120	0.047
-505.726	75.990	-0.167	-0.179
-504.712	151.684	-0.216	-0.297
-503.697	-7.029	0.105	0.072
-502.683	-128.528	-0.128	0.018
-501.668	-66.898	-0.236	0.094
-500.653	-125.235	0.145	0.022
-499.639	-137.439	0.097	0.011
-498.624	754.537	0.039	-0.106
-497.610	-180.157	0.102	0.002
-496.595	500.874	-0.057	-0.133
-495.581	-200.000	-0.007	-0.124
-494.566	-107.964	0.462	0.101
-493.551	-18.252	-0.145	-0.091
-492.537	-161.341	-0.237	-0.012
-491.522	800.000	0.054	0.205
-490.508	-200.000	-0.009	-0.264
-489.493	493.829	-0.089	-0.207
-488.478	-200.000	-0.027	-0.456
-487.464	-89.858	-0.235	-0.069
-486.449	31.269	0.049	-0.042
-485.435	163.431	-0.060	-0.085
-484.420	-71.257	0.178	0.068
-483.405	98.642	-0.191	-0.222
-482.391	800.000	0.057	0.192
-481.376	-130.184	-0.073	0.010
-480.362	386.618	-0.111	-0.232
-479.347	54.072	-0.174	-0.169
-478.332	-96.148	0.143	-0.038
-477.318	164.231	-0.121	-0.172
-476.303	-200.000	0.021	0.194
-475.289	215.688	0.023	0.037
-474.274	45.723	-0.187	0.175
-473.259	-4.000	-0.254	0.178
-472.245	-140.932	0.227	-0.024
-471.230	-152.201	0.045	-0.003
-470.216	800.000	-0.061	0.176
-469.201	10.506	-0.220	-0.169
-468.186	-200.000	0.006	0.032
-467.172	-200.000	0.052	0.249
-466.157	-200.000	-0.005	-0.089
-465.143	-123.423	-0.365	-0.059
-464.128	-6.909	-0.153	-0.105
-463.113	337.846	-0.126	-0.247
-462.099	-101.015	0.270	0.067
-461.084	42.039	0.190	-0.174
-460.070	-83.507	0.073	-0.024
-459.055	56.507	0.150	0.147
-458.040	800.000	0.064	0.282
-457.026	20.727	0.215	-0.176
-456.011	-0.593	-0.164	-0.117
-454.997	-118.143	0.234	-0.042
-453.982	-74.819	-0.260	0.094
-452.968	-110.604	0.148	0.031
-451.953	800.000	0.039	0.163
-450.938	800.000	0.119	0.399
-449.924	-200.000	0.038	-0.324
-448.909	-0.752	0.158	-0.113
-447.895	12.410	-0.140	0.109
-446.880	123.113	-0.077	0.097
-445.865	800.000	-0.075	0.278
-444.851	793.264	-0.095	-0.263
-443.836	-200.000	0.023	0.000
-442.822	15.550	-0.295	-0.234
-441.807	662.451	-0.083	0.216
-440.792	800.000	0.058	0.254
-439.778	13.300	0.107	-0.083
-438.763	800.000	0.014	0.045
-437.749	-200.000	-0.034	0.302
-436.734	233.495	-0.161	-0.266
-435.719	-33.782	-0.214	0.119
-434.705	157.762	-0.016	0.022
-433.690	-112.160	-0.065	0.013
-432.676	-199.751	0.192	0.001
-431.661	-200.000	0.006	-0.056
-430.646	800.000	-0.060	0.182
-429.632	21.189	-0.123	0.101
-428.617	-144.412	0.083	-0.008
-427.603	149.561	0.171	-0.233
-426.588	-200.000	-0.007	0.503
-425.573	86.518	-0.358	0.397
-424.559	-200.000	0.149	0.000
-423.544	-106.287	0.349	-0.079
-422.530	-94.740	-0.385	-0.105
-421.515	30.281	0.132	0.114
-420.500	346.972	-0.087	-0.172
-419.486	11.189	0.059	-0.045
-418.471	-131.113	0.086	0.012
-417.457	128.725	0.127	0.163
-416.442	800.000	0.051	-0.151
-415.428	168.211	-0.094	0.135
-414.413	615.286	-0.104	0.262
-413.398	-64.076	0.167	-0.068
-412.384	-200.000	0.028	-0.204
-411.369	-90.871	-0.334	-0.097
-410.355	-135.005	-0.320	-0.039
-409.340	-72.637	0.036	-0.013
-408.325	-200.000	-0.003	0.243
-407.311	25.976	-0.194	0.163
-406.296	119.660	0.065	0.081
-405.282	-41.396	0.221	0.115
-404.267	-200.000	0.018	-0.322
-403.252	-0.511	0.162	0.116
-402.238	14.960	-0.170	-0.134
-401.223	-200.000	0.047	-0.389
-400.209	-150.322	-0.387	0.030
-399.194	-19.333	-0.186	-0.116
-398.179	28.451	0.119	-0.101
-397.165	-51.690	-0.363	-0.170
-396.150	193.298	-0.219	-0.334
-395.136	-200.000	-0.010	0.126
-394.121	12.320	0.146	-0.113
-393.106	-65.376	0.327	0.132
-392.092	-200.000	-0.042	-0.186
-391.077	800.000	0.081	-0.334
-390.063	161.344	0.094	-0.132
-389.048	2.630	0.196	0.143
-388.033	-200.000	-0.001	-0.290
-387.019	800.000	-0.131	-0.405
-386.004	800.000	-0.055	-0.175
-384.990	124.000	-0.136	-0.172
-383.975	800.000	-0.067	-0.291
-382.960	309.677	-0.128	-0.241
-381.946	102.138	-0.120	-0.141
-380.931	138.450	0.078	-0.102
-379.917	54.302	0.122	0.118
-378.902	-53.795	-0.225	-0.103
-377.888	106.074	-0.165	0.196
-376.873	344.673	-0.037	0.072
-375.858	-200.000	-0.005	0.167
-374.844	-127.148	0.378	-0.056
-373.829	-58.093	-0.146	-0.064
-372.815	-11.158	0.022	0.015
-371.800	146.250	-0.252	0.340
-370.785	-198.120	-0.160	0.001
-369.771	277.284	-0.175	-0.312
-368.756	82.226	-0.197	-0.214
-367.742	-200.000	0.014	-0.085
-366.727	-115.911	0.061	0.011
-365.712	-29.160	0.264	-0.152
-364.698	-200.000	-0.013	-0.208
-363.683	-200.000	-0.015	0.151
-362.669	-4.535	0.304	-0.211
-361.654	800.000	-0.078	0.218
-360.639	-61.715	0.090	0.038
-359.625	800.000	0.021	0.065
-358.610	75.512	0.069	-0.073
-357.596	69.762	-0.313	0.324
-356.581	-43.399	0.080	0.041
-355.566	-6.712	-0.063	-0.043
-354.552	37.218	-0.087	-0.077
-353.537	604.018	-0.138	0.346
-352.523	-29.953	-0.227	0.130
-351.508	209.471	-0.132	-0.207
-350.493	311.411	0.022	0.042
-349.479	-73.361	0.199	0.073
-348.464	43.083	-0.175	-0.160
-347.450	135.095	-0.029	0.038
-346.435	-68.057	-0.431	0.169
-345.420	-100.170	0.076	0.019
-344.406	800.000	-0.038	-0.140
-343.391	-175.766	-0.475	-0.013
-342.377	-68.667	0.121	0.047
-341.362	425.477	-0.027	0.059
-340.348	-8.855	-0.096	-0.064
-339.333	118.139	-0.340	0.421
-338.318	573.727	0.085	-0.208
-337.304	-90.726	-0.552	0.160
-336.289	-67.734	0.190	-0.075
-335.275	790.436	-0.101	-0.278
-334.260	585.542	0.063	-0.156
-333.245	-200.000	0.015	-0.078
-332.231	800.000	-0.033	-0.098
-331.216	-170.212	0.294	-0.010
-330.202	262.132	-0.132	0.230
-329.187	138.170	0.151	-0.199
-328.172	173.659	0.100	-0.144
-327.158	27.956	-0.147	0.125
-326.143	539.599	-0.116	-0.277
-325.129	-97.403	-0.300	0.078
-324.114	61.069	-0.149	0.149
-323.099	-200.000	-0.008	0.198
-322.085	-76.371	-0.215	0.076
-321.070	712.293	-0.097	0.257
-320.056	-93.808	0.218	0.060
-319.041	61.477	0.099	-0.098
-318.026	-152.543	-0.133	0.010
-317.012	-44.240	-0.322	0.162
-315.997	779.158	-0.067	0.185
-314.983	-200.000	-0.019	-0.487
-313.968	-83.807	0.009	0.003
-312.953	-113.024	0.369	-0.073
-311.939	-73.770	-0.166	-0.061
-310.924	101.385	0.203	0.237
-309.910	-200.000	0.074	0.491
-308.895	-49.918	-0.133	0.063
-307.880	800.000	-0.030	0.118
-306.866	421.114	0.114	-0.246
-305.851	-169.700	-0.418	0.015
-304.837	-15.458	0.043	-0.028
-303.822	412.298	-0.105	0.223
-302.807	28.144	0.093	0.079
-301.793	-28.778	-0.044	0.025
-300.778	-73.257	0.200	0.073
-299.764	244.757	0.072	0.121
-298.749	-66.030	0.145	0.058
-297.735	-3.806	-0.153	0.106
-296.720	-17.244	-0.244	-0.154
-295.705	800.000	0.060	0.221
-294.691	800.000	0.052	0.193
-293.676	-23.037	0.322	0.194
-292.662	-55.292	0.268	-0.120
-291.647	25.304	0.097	-0.081
-290.632	-133.252	0.228	0.029
-289.618	28.583	0.131	-0.111
-288.603	-200.000	-0.020	-0.201
-287.589	77.756	-0.192	0.204
-286.574	-200.000	-0.061	0.370
-285.559	570.807	-0.093	0.226
-284.545	-200.000	0.057	-0.288
-283.530	14.561	-0.150	0.117
-282.516	584.583	0.066	0.162
-281.501	-110.578	0.221	-0.046
-280.486	186.397	0.046	0.068
-279.472	79.256	0.134	-0.144
-278.457	-200.000	0.012	0.246
-277.443	-200.000	0.001	0.036
-276.428	-200.000	0.038	-0.298
-275.413	-91.993	0.090	0.025
-274.399	800.000	-0.068	-0.194
-273.384	269.967	-0.258	0.454
-272.370	-78.339	0.083	-0.029
-271.355	27.960	0.101	0.085
-270.340	-11.792	-0.116	-0.076
-269.326	-64.966	0.079	0.032
-268.311	-28.667	-0.208	0.120
-267.297	-27.267	0.153	0.089
-266.282	-86.759	-0.234	0.072
-265.267	-146.718	0.092	-0.008
-264.253	-109.341	-0.440	0.093
-263.238	106.021	0.223	-0.265
-262.224	24.973	0.129	0.107
-261.209	-120.152	0.156	-0.027
-260.195	161.970	0.155	-0.217
-259.180	-200.000	0.000	-0.073
-258.165	-108.470	0.303	0.065
-257.151	-79.218	-0.160	-0.054
-256.136	-40.266	-0.127	0.066
-255.122	-80.776	0.068	0.022
-254.107	-85.232	0.167	0.052
-253.092	648.635	-0.083	-0.212
-252.078	21.085	0.380	-0.308
-251.063	47.020	0.285	0.266
-250.049	62.525	-0.136	-0.136
-249.034	424.366	0.031	-0.067
-248.019	-82.644	-0.178	-0.058
-247.005	-200.000	0.004	0.091
-245.990	156.868	0.106	-0.147
-244.976	50.849	0.268	0.254
-243.961	-200.000	0.068	0.388
-242.946	-58.186	0.163	0.071
-241.932	-104.639	-0.162	0.037
-240.917	800.000	-0.039	-0.123
-239.903	-200.000	-0.010	0.106
-238.888	800.000	0.071	-0.220
-237.873	-200.000	0.022	0.099
-236.859	800.000	0.044	-0.189
-235.844	167.638	0.064	-0.091
-234.830	-143.640	0.222	0.021
-233.815	-200.000	0.066	-0.299
-232.800	-1.590	0.107	-0.076
-231.786	-116.385	0.283	-0.052
-230.771	-152.183	-0.357	0.026
-229.757	-14.077	-0.201	0.129
-228.742	-147.805	-0.143	0.012
-227.727	-51.319	0.343	0.160
-226.713	27.369	0.184	0.155
-225.698	-200.000	-0.000	0.244
-224.684	39.968	0.158	0.142
-223.669	-64.521	-0.102	-0.041
-222.655	-200.000	0.002	-0.180
-221.640	-24.825	-0.185	0.110
-220.625	-200.000	-0.033	-0.231
-219.611	-65.135	0.113	0.045
-218.596	-66.984	0.256	-0.101
-217.582	-65.055	-0.131	0.053
-216.567	-113.347	0.267	0.052
-215.552	-200.000	-0.017	-0.235
-214.538	800.000	-0.119	0.414
-213.523	-78.067	0.318	-0.109
-212.509	86.936	-0.145	-0.160
-211.494	-183.202	0.140	0.002
-210.479	18.563	-0.164	-0.131
-209.465	529.529	0.033	0.078
-208.450	324.700	0.096	0.183
-207.436	-200.000	-0.017	0.131
-206.421	-53.184	-0.220	-0.101
-205.406	-18.404	-0.083	0.052
-204.392	-200.000	0.000	-0.186
-203.377	151.839	0.132	-0.180
-202.363	373.656	0.207	0.420
-201.348	-20.501	0.301	-0.185
-200.333	101.593	-0.049	-0.057
-199.319	-122.323	-0.291	-0.047
-198.304	-152.237	-0.363	-0.026
-197.290	298.552	0.148	0.271
-196.275	-162.226	-0.186	-0.009
-195.260	-200.000	-0.027	0.130
-194.246	487.842	-0.151	-0.343
-193.231	188.407	0.178	-0.265
-192.217	752.550	0.052	-0.140
-191.202	-109.272	0.212	-0.045
-190.187	-25.110	0.029	0.017
-189.173	26.561	0.054	0.045
-188.158	-12.155	-0.113	0.074
-187.144	-85.537	-0.242	0.075
-186.129	-200.000	-0.029	-0.206
-185.114	-29.739	0.189	0.107
-184.100	800.000	0.066	-0.228
-183.085	-1.793	0.238	-0.167
-182.071	-84.859	-0.249	0.078
-181.056	101.213	0.217	-0.252
-180.042	-125.148	-0.091	0.014
-179.027	-13.142	0.254	0.165
-178.012	311.007	0.079	0.147
-176.998	-141.729	-0.159	-0.016
-175.983	-200.000	0.018	0.150
-174.969	-200.000	-0.022	-0.235
-173.954	800.000	-0.074	-0.266
-172.939	-162.315	-0.136	0.007
-171.925	-134.378	0.546	-0.067
-170.910	800.000	-0.032	0.136
-169.896	800.000	0.057	-0.184
-168.881	800.000	-0.028	-0.096
-167.866	-200.000	0.006	-0.048
-166.852	-120.344	0.343	0.058
-165.837	267.717	0.176	-0.307
-164.823	421.144	-0.076	-0.163
-163.808	-200.000	0.013	0.232
-162.793	-186.444	-0.294	-0.004
-161.779	-200.000	-0.027	-0.250
-160.764	-200.000	-0.017	-0.103
-159.750	-24.631	-0.227	0.135
-158.735	-104.871	0.171	0.039
-157.720	359.745	-0.158	0.315
-156.706	-200.000	0.031	0.213
-155.691	-91.181	-0.181	0.052
-154.677	-37.406	-0.164	-0.087
-153.662	-43.551	-0.081	0.041
-152.647	104.446	0.246	0.289
-151.633	-200.000	0.014	0.095
-150.618	474.227	0.031	-0.069
-149.604	202.214	-0.128	0.197
-148.589	-33.529	-0.235	0.129
-147.574	800.000	0.104	0.353
-146.560	800.000	0.055	0.201
-145.545	57.118	0.150	-0.146
-144.531	285.777	-0.037	-0.066
-143.516	-200.000	0.034	-0.339
-142.502	-200.000	0.060	-0.318
-141.487	-175.807	0.213	0.006
-140.472	122.040	-0.258	0.320
-139.458	-98.007	-0.283	-0.073
-138.443	27.993	-0.251	-0.211
-137.429	65.089	0.292	-0.294
-136.414	-200.000	0.003	0.036
-135.399	-61.878	0.255	0.106
-134.385	-54.000	-0.095	0.043
-133.370	31.898	-0.056	0.048
-132.356	132.856	-0.068	0.088
-131.341	15.609	0.179	-0.140
-130.326	-138.736	-0.408	-0.044
-129.312	464.224	0.185	0.412
-128.297	93.692	0.092	0.104
-127.283	-28.615	0.169	-0.097
-126.268	-52.336	0.321	0.148
-125.253	-173.912	-0.109	-0.003
-124.239	-145.470	-0.236	-0.021
-123.224	-80.967	0.158	0.052
-122.210	23.233	0.168	-0.137
-121.195	-146.337	-0.098	-0.009
