DTS Sentinel unit serial number:	SN413079Multiplexer serial number:	ORYXHardware model number:	OX4-SRSoftware version number:	ORYX F/W v4.00 Oryx Data Collector v3.7.2.0data status	okinstallation	princeton_trtdifferential loss correction	single-endedforward channel	channel 4reverse channel	N/Adate	2019/09/19time	06:01:35forward acquisition time	60.00reverse acquisition time	0.00gamma	496.2192k internal	0.2340k external	0.2340temperature offset calibration	1.0027default loss term (dB/km)	0.3790temperature slope calibration	1.0000multiplexer offset coefficient	1.0000multiplexer slope coefficient	1.0000fibre end	0.00T internal ref (°C)	19.14T ext. ref 1 (°C)	0.58T ext. ref 2 (°C)	12.80length (m)	temperature (°C)	Stokes	anti-Stokes-747.200	-4.826	-0.054	0.037
-746.185	57.794	0.311	0.305
-745.171	-200.000	-0.012	-0.225
-744.156	103.533	-0.177	-0.209
-743.142	-29.468	-0.321	-0.184
-742.127	-155.868	0.399	0.026
-741.112	334.681	-0.075	-0.145
-740.098	-84.175	-0.224	-0.071
-739.083	249.899	0.206	0.351
-738.069	13.307	-0.104	0.081
-737.054	-5.393	-0.069	-0.048
-736.039	-200.000	-0.001	0.196
-735.025	-200.000	0.042	0.208
-734.010	115.900	0.033	-0.041
-732.996	800.000	-0.031	0.091
-731.981	55.723	-0.051	0.050
-730.966	-113.409	0.335	0.066
-729.952	617.383	-0.126	0.316
-728.937	-99.591	-0.306	-0.077
-727.923	-24.935	0.229	0.136
-726.908	-200.000	0.006	-0.363
-725.894	-16.771	0.232	-0.147
-724.879	240.252	0.055	0.093
-723.864	-200.000	-0.053	-0.343
-722.850	-114.133	-0.684	0.133
-721.835	800.000	-0.064	0.246
-720.821	-127.356	-0.412	0.060
-719.806	-200.000	0.025	-0.199
-718.791	-37.685	-0.128	-0.068
-717.777	-58.649	0.301	-0.131
-716.762	-7.260	-0.309	-0.210
-715.748	414.477	0.163	-0.349
-714.733	684.071	-0.110	-0.287
-713.718	-31.711	-0.217	-0.122
-712.704	201.996	0.149	-0.230
-711.689	-158.251	-0.269	0.016
-710.675	366.735	0.062	0.126
-709.660	155.674	0.255	-0.352
-708.645	-200.000	0.289	-0.001
-707.631	30.690	0.123	-0.106
-706.616	168.404	-0.133	0.189
-705.602	-200.000	-0.040	-0.245
-704.587	800.000	0.084	-0.324
-703.572	800.000	-0.074	0.260
-702.558	177.325	0.177	0.258
-701.543	-97.507	0.246	0.064
-700.529	760.365	-0.127	0.346
-699.514	-121.867	-0.368	-0.061
-698.499	-70.886	-0.154	0.058
-697.485	-200.000	0.001	0.093
-696.470	-150.085	-0.213	0.017
-695.456	258.213	0.145	-0.250
-694.441	-118.556	-0.071	-0.013
-693.426	-200.000	-0.009	0.059
-692.412	-200.000	0.072	-0.354
-691.397	-79.904	-0.067	0.023
-690.383	-21.741	0.232	-0.142
-689.368	116.537	-0.192	0.236
-688.354	800.000	-0.067	-0.280
-687.339	284.558	0.042	-0.076
-686.324	-200.000	0.032	-0.161
-685.310	800.000	-0.036	0.157
-684.295	-112.293	-0.269	-0.054
-683.281	304.313	-0.097	-0.179
-682.266	800.000	-0.114	-0.342
-681.251	-127.555	0.242	-0.035
-680.237	-100.447	0.117	-0.029
-679.222	-11.831	0.323	-0.212
-678.208	-72.563	-0.317	0.117
-677.193	-40.837	-0.097	0.050
-676.178	-144.156	0.296	0.028
-675.164	-200.000	0.002	-0.139
-674.149	361.914	0.035	-0.071
-673.135	-200.000	0.013	-0.142
-672.120	40.694	-0.325	-0.293
-671.105	503.672	-0.080	0.186
-670.091	38.041	0.077	-0.069
-669.076	160.740	-0.040	0.055
-668.062	-35.480	-0.064	0.035
-667.047	12.136	-0.122	-0.094
-666.032	519.958	0.015	-0.036
-665.018	-162.170	0.273	0.014
-664.003	-113.067	-0.066	-0.013
-662.989	-130.576	-0.077	0.010
-661.974	800.000	0.103	0.303
-660.959	47.221	-0.249	-0.232
-659.945	-153.873	0.090	-0.006
-658.930	-145.838	0.317	-0.028
-657.916	-97.549	-0.246	-0.064
-656.901	-143.765	-0.096	0.009
-655.886	165.109	0.126	0.178
-654.872	53.598	0.115	0.111
-653.857	-87.244	-0.359	0.109
-652.843	-17.045	-0.178	-0.112
-651.828	-200.000	0.004	0.428
-650.814	-103.613	0.067	0.016
-649.799	-65.808	0.130	0.052
-648.784	25.980	0.119	-0.099
-647.770	-41.855	0.206	-0.106
-646.755	-200.000	0.057	0.322
-645.741	-152.546	0.242	0.017
-644.726	-200.000	0.004	0.205
-643.711	141.732	0.180	-0.238
-642.697	-76.140	-0.137	0.048
-641.682	-106.614	-0.253	0.056
-640.668	117.604	0.123	0.151
-639.653	97.025	0.136	0.155
-638.638	265.320	0.130	-0.226
-637.624	444.858	0.071	-0.155
-636.609	-185.957	0.081	-0.001
-635.595	800.000	0.114	-0.345
-634.580	194.371	0.233	-0.352
-633.565	-93.475	0.061	0.017
-632.551	17.521	-0.199	-0.158
-631.536	-200.000	-0.015	-0.256
-630.522	-35.698	-0.215	0.116
-629.507	346.875	-0.097	0.191
-628.492	800.000	-0.046	-0.136
-627.478	800.000	-0.132	0.458
-626.463	700.552	0.092	-0.242
-625.449	231.439	-0.055	0.091
-624.434	-69.533	-0.192	0.073
-623.419	-124.988	-0.257	0.039
-622.405	-61.911	0.128	-0.054
-621.390	697.282	0.100	0.262
-620.376	288.822	-0.059	-0.106
-619.361	-102.869	-0.328	0.078
-618.346	167.933	0.125	-0.177
-617.332	-200.000	-0.032	0.172
-616.317	-109.524	-0.118	-0.025
-615.303	-200.000	-0.044	-0.198
-614.288	-101.305	-0.125	0.031
-613.273	-130.114	-0.390	-0.053
-612.259	37.595	-0.212	-0.187
-611.244	153.726	0.151	-0.207
-610.230	68.455	0.125	0.128
-609.215	384.219	-0.152	-0.312
-608.201	800.000	0.036	-0.115
-607.186	-90.269	-0.290	0.084
-606.171	-200.000	-0.024	-0.189
-605.157	466.266	0.033	0.075
-604.142	254.868	0.125	0.213
-603.128	-200.000	-0.015	0.153
-602.113	-95.671	0.423	-0.113
-601.098	3.661	0.088	-0.064
-600.084	-120.879	-0.240	0.040
-599.069	-63.057	0.094	0.039
-598.055	-200.000	-0.008	0.127
-597.040	10.223	-0.116	0.088
-596.025	-57.976	-0.212	-0.092
-595.011	580.881	0.066	0.162
-593.996	137.942	-0.092	-0.120
-592.982	123.892	0.113	-0.141
-591.967	57.827	0.215	0.210
-590.952	-110.899	0.192	0.039
-589.938	-14.357	-0.280	0.180
-588.923	-7.592	0.121	0.081
-587.909	66.007	-0.179	-0.181
-586.894	71.268	-0.103	-0.107
-585.879	-200.000	0.006	0.444
-584.865	47.975	-0.171	-0.159
-583.850	649.008	0.088	-0.224
-582.836	800.000	0.057	-0.214
-581.821	800.000	-0.069	0.221
-580.806	73.526	0.153	-0.159
-579.792	800.000	-0.056	0.185
-578.777	-200.000	-0.014	-0.209
-577.763	-131.432	-0.236	0.031
-576.748	-31.134	-0.054	-0.030
-575.733	304.295	0.099	0.182
-574.719	67.322	-0.023	-0.023
-573.704	-200.000	0.000	0.115
-572.690	66.102	-0.245	0.248
-571.675	-200.000	0.054	0.301
-570.661	-107.983	-0.353	-0.076
-569.646	-39.235	0.267	0.140
-568.631	-200.000	-0.004	-0.023
-567.617	574.082	-0.164	0.399
-566.602	113.393	-0.117	0.142
-565.588	-31.810	0.062	-0.035
-564.573	800.000	0.054	-0.160
-563.558	18.010	-0.126	-0.100
-562.544	-25.968	0.076	0.045
-561.529	800.000	-0.042	0.181
-560.515	-200.000	-0.002	0.025
-559.500	302.895	-0.079	-0.146
-558.485	287.486	0.152	-0.273
-557.471	68.556	-0.208	0.212
-556.456	-71.839	-0.131	0.048
-555.442	6.028	0.143	-0.105
-554.427	-104.228	0.205	0.047
-553.412	-7.975	0.053	0.036
-552.398	393.232	-0.056	0.116
-551.383	350.273	0.072	-0.142
-550.369	255.837	0.304	-0.519
-549.354	-159.669	0.205	-0.011
-548.339	676.185	-0.055	-0.143
-547.325	-200.000	-0.021	-0.205
-546.310	17.660	0.256	-0.203
-545.296	363.852	-0.081	0.162
-544.281	-128.558	-0.204	0.029
-543.266	800.000	-0.071	0.254
-542.252	-45.009	-0.300	0.149
-541.237	207.726	-0.142	0.220
-540.223	-163.727	-0.094	0.004
-539.208	800.000	0.076	-0.308
-538.193	135.313	-0.248	-0.321
-537.179	-70.331	-0.043	-0.016
-536.164	-159.712	-0.131	-0.007
-535.150	-200.000	-0.025	0.122
-534.135	800.000	0.126	-0.407
-533.121	800.000	-0.109	-0.371
-532.106	-110.848	-0.198	-0.041
-531.091	-63.293	0.216	0.088
-530.077	98.633	0.177	-0.203
-529.062	-87.019	0.198	0.060
-528.048	-200.000	-0.047	-0.316
-527.033	-200.000	-0.034	0.389
-526.018	220.196	0.074	0.118
-525.004	35.998	0.157	-0.137
-523.989	27.226	0.212	-0.177
-522.975	-98.524	-0.284	0.072
-521.960	-74.247	0.301	-0.108
-520.945	-21.957	0.280	0.169
-519.931	-200.000	0.001	-0.159
-518.916	17.708	-0.546	-0.432
-517.902	122.399	-0.208	0.258
-516.887	20.570	-0.148	-0.119
-515.872	492.502	0.067	0.152
-514.858	49.385	-0.080	0.074
-513.843	-152.946	0.122	0.009
-512.829	-200.000	0.017	-0.222
-511.814	201.362	0.178	-0.273
-510.799	-200.000	0.066	-0.348
-509.785	-122.810	0.332	0.053
-508.770	146.889	-0.131	0.175
-507.756	-133.551	-0.259	-0.032
-506.741	4.452	-0.098	-0.071
-505.726	49.362	0.173	0.161
-504.712	194.592	0.055	0.083
-503.697	-178.578	0.320	-0.007
-502.683	-117.461	-0.048	-0.009
-501.668	67.137	-0.092	0.093
-500.653	-200.000	0.018	-0.124
-499.639	-109.081	-0.026	-0.006
-498.624	-100.793	-0.275	0.067
-497.610	120.632	-0.167	0.206
-496.595	-200.000	0.009	-0.125
-495.581	-97.402	-0.121	0.031
-494.566	316.523	0.126	-0.236
-493.551	7.482	-0.161	0.119
-492.537	581.435	0.084	-0.205
-491.522	-64.295	0.077	-0.031
-490.508	-55.016	0.228	-0.102
-489.493	125.302	-0.090	0.113
-488.478	-73.240	-0.332	-0.121
-487.464	-200.000	-0.015	0.176
-486.449	-28.888	-0.069	-0.039
-485.435	800.000	-0.075	0.230
-484.420	130.729	0.133	-0.170
-483.405	26.369	0.056	0.047
-482.391	800.000	0.064	-0.270
-481.376	-200.000	-0.013	-0.174
-480.362	800.000	0.060	-0.205
-479.347	43.776	0.075	0.068
-478.332	145.283	0.151	-0.200
-477.318	-200.000	0.047	-0.370
-476.303	154.140	-0.185	0.251
-475.289	800.000	0.113	-0.480
-474.274	-200.000	-0.004	0.058
-473.259	-25.612	0.300	-0.176
-472.245	-21.011	-0.320	0.194
-471.230	102.313	-0.076	0.088
-470.216	154.281	-0.133	0.182
-469.201	-200.000	-0.053	-0.261
-468.186	46.069	0.118	0.108
-467.172	483.167	-0.115	0.258
-466.157	-200.000	-0.014	-0.062
-465.143	-142.301	-0.443	0.043
-464.128	379.931	0.118	0.241
-463.113	800.000	0.040	0.130
-462.099	-186.474	0.345	0.005
-461.084	57.245	0.501	-0.485
-460.070	8.022	-0.204	0.152
-459.055	-79.610	-0.095	-0.032
-458.040	272.716	0.085	0.149
-457.026	3.405	-0.116	-0.084
-456.011	27.574	-0.128	0.107
-454.997	-38.468	0.354	-0.185
-453.982	-46.895	-0.086	0.042
-452.968	-45.920	-0.355	-0.174
-451.953	-92.922	0.031	-0.008
-450.938	-31.812	0.062	-0.035
-449.924	696.591	0.074	0.192
-448.909	-200.000	0.020	0.206
-447.895	-77.916	0.237	-0.081
-446.880	183.113	0.053	0.077
-445.865	519.275	0.113	0.261
-444.851	-176.882	0.239	-0.006
-443.836	-65.356	-0.042	0.017
-442.822	-200.000	0.080	-0.422
-441.807	11.602	-0.116	-0.088
-440.792	242.337	0.034	-0.056
-439.778	-111.473	0.388	0.078
-438.763	570.787	0.063	-0.152
-437.749	-87.502	0.180	0.054
-436.734	568.524	-0.044	0.107
-435.719	665.582	0.098	-0.250
-434.705	96.877	-0.072	-0.081
-433.690	114.124	-0.237	-0.285
-432.676	-200.000	0.026	0.356
-431.661	800.000	0.079	-0.260
-430.646	559.665	-0.158	0.377
-429.632	-200.000	0.026	-0.229
-428.617	101.444	-0.071	-0.082
-427.603	-169.919	0.326	-0.012
-426.588	800.000	0.055	0.153
-425.573	613.399	0.138	-0.342
-424.559	15.588	-0.159	0.123
-423.544	800.000	0.037	-0.126
-422.530	40.167	0.094	-0.084
-421.515	-200.000	0.032	-0.170
-420.500	29.000	0.266	-0.223
-419.486	64.186	0.082	-0.081
-418.471	-72.373	0.177	-0.065
-417.457	-91.322	0.057	-0.016
-416.442	-166.006	0.188	-0.008
-415.428	-13.271	-0.260	-0.167
-414.413	437.876	0.066	0.143
-413.398	306.825	-0.049	0.090
-412.384	-0.194	-0.133	0.094
-411.369	42.066	0.058	0.053
-410.355	2.367	0.095	-0.068
-409.340	-100.168	0.234	0.058
-408.325	-200.000	-0.050	0.294
-407.311	77.598	-0.347	-0.366
-406.296	-200.000	-0.015	-0.240
-405.282	-146.090	0.467	-0.041
-404.267	-83.484	-0.271	-0.086
-403.252	31.570	-0.206	-0.176
-402.238	-200.000	-0.038	0.266
-401.223	-128.177	-0.127	-0.018
-400.209	89.102	0.090	0.099
-399.194	-77.451	0.287	0.098
-398.179	-83.334	-0.223	0.071
-397.165	-25.990	-0.064	0.037
-396.150	209.863	-0.137	0.212
-395.136	-161.478	-0.154	-0.008
-394.121	480.222	0.149	-0.335
-393.106	-53.549	0.196	0.089
-392.092	545.641	-0.076	-0.180
-391.077	40.735	0.171	0.153
-390.063	98.549	-0.275	0.313
-389.048	-145.717	0.338	0.030
-388.033	64.607	-0.266	-0.265
-387.019	-200.000	-0.048	0.240
-386.004	-200.000	-0.020	-0.110
-384.990	218.622	-0.042	0.067
-383.975	-102.737	0.419	0.099
-382.960	-200.000	0.037	-0.215
-381.946	-15.832	0.082	0.052
-380.931	-200.000	-0.008	-0.126
-379.917	-135.464	0.566	-0.067
-378.902	-128.672	-0.360	0.050
-377.888	94.939	-0.139	0.156
-376.873	-200.000	-0.048	-0.254
-375.858	-200.000	0.071	0.324
-374.844	558.660	-0.169	0.404
-373.829	-200.000	0.005	0.203
-372.815	-92.506	-0.391	0.108
-371.800	-200.000	0.007	0.466
-370.785	-200.000	-0.012	0.132
-369.771	-19.725	0.130	-0.079
-368.756	632.095	0.131	-0.327
-367.742	342.089	0.054	0.104
-366.727	-28.565	0.106	0.060
-365.712	120.283	-0.132	0.161
-364.698	260.856	-0.182	0.312
-363.683	70.402	-0.401	0.410
-362.669	800.000	-0.071	-0.287
-361.654	-200.000	0.037	-0.180
-360.639	-13.899	-0.250	-0.160
-359.625	567.195	0.080	-0.192
-358.610	800.000	0.100	-0.344
-357.596	356.129	0.122	0.240
-356.581	3.999	0.258	-0.186
-355.566	800.000	-0.013	0.037
-354.552	48.524	-0.152	-0.141
-353.537	89.388	0.092	-0.101
-352.523	362.920	-0.163	-0.324
-351.508	800.000	-0.110	0.401
-350.493	-65.170	0.193	-0.077
-349.479	614.830	0.052	-0.129
-348.464	-18.258	0.208	0.128
-347.450	-62.299	-0.463	-0.190
-346.435	188.408	-0.185	-0.273
-345.420	-16.942	-0.168	-0.105
-344.406	-200.000	-0.000	0.065
-343.391	63.064	0.163	-0.161
-342.377	-90.521	-0.054	0.015
-341.362	218.637	0.165	0.260
-340.348	129.647	0.145	0.182
-339.333	-120.936	-0.127	-0.021
-338.318	63.239	0.136	0.135
-337.304	85.802	0.116	0.126
-336.289	-85.700	-0.313	0.096
-335.275	800.000	-0.069	-0.208
-334.260	-46.869	-0.210	-0.101
-333.245	-98.312	-0.030	0.008
-332.231	800.000	0.022	0.080
-331.216	-200.000	0.032	-0.178
-330.202	-7.570	-0.195	-0.130
-329.187	513.394	-0.143	-0.328
-328.172	44.425	0.156	0.142
-327.158	111.549	0.123	-0.146
-326.143	87.434	-0.075	-0.082
-325.129	338.283	-0.220	0.422
-324.114	-84.236	0.161	-0.050
-323.099	-30.243	-0.188	-0.105
-322.085	96.809	0.070	-0.079
-321.070	-9.613	-0.171	0.113
-320.056	-200.000	-0.059	-0.367
-319.041	-69.888	0.189	-0.071
-318.026	-200.000	0.042	0.303
-317.012	92.485	-0.174	-0.194
-315.997	17.035	-0.043	0.033
-314.983	-76.213	0.304	-0.106
-313.968	-84.053	-0.123	0.038
-312.953	-105.272	-0.303	-0.068
-311.939	-200.000	0.000	0.109
-310.924	-33.195	-0.098	0.054
-309.910	-55.893	0.373	-0.164
-308.895	310.534	0.137	0.253
-307.880	-200.000	0.022	0.108
-306.866	-94.721	-0.186	0.050
-305.851	-58.277	-0.127	0.055
-304.837	18.247	-0.099	0.078
-303.822	134.664	-0.387	0.495
-302.807	72.630	0.183	0.188
-301.793	-200.000	0.020	0.187
-300.778	-200.000	-0.011	0.303
-299.764	-116.577	-0.162	0.029
-298.749	-200.000	-0.007	-0.308
-297.735	-102.236	0.196	0.046
-296.720	-72.274	0.120	0.044
-295.705	-116.294	-0.067	-0.012
-294.691	-65.192	0.190	-0.076
-293.676	126.107	0.281	0.350
-292.662	-141.176	0.206	0.021
-291.647	-64.182	0.164	0.066
-290.632	470.292	-0.027	-0.059
-289.618	421.253	-0.082	-0.174
-288.603	-35.031	-0.058	-0.031
-287.589	-118.904	0.115	-0.020
-286.574	-75.224	-0.457	0.161
-285.559	50.335	0.094	0.088
-284.545	-14.011	-0.340	0.216
-283.530	149.541	-0.127	0.170
-282.516	19.513	-0.096	0.076
-281.501	5.626	0.305	-0.222
-280.486	-37.178	-0.360	-0.190
-279.472	-31.552	-0.342	-0.189
-278.457	-13.861	-0.225	0.143
-277.443	-63.055	-0.196	0.080
-276.428	93.493	0.244	-0.272
-275.413	800.000	0.071	0.234
-274.399	129.615	0.244	0.307
-273.384	70.411	-0.197	0.200
-272.370	-63.499	0.417	0.169
-271.355	473.455	0.060	0.132
-270.340	-50.150	0.191	0.089
-269.326	-200.000	-0.004	0.234
-268.311	154.227	-0.042	-0.057
-267.297	-99.250	0.207	0.051
-266.282	155.140	0.123	-0.166
-265.267	150.218	0.166	0.222
-264.253	161.065	-0.085	-0.117
-263.238	189.877	-0.187	-0.275
-262.224	-83.669	-0.259	0.081
-261.209	360.353	-0.185	0.364
-260.195	155.488	-0.262	0.355
-259.180	429.377	0.041	-0.087
-258.165	-166.698	-0.159	0.006
-257.151	786.533	-0.069	-0.187
-256.136	800.000	-0.140	0.389
-255.122	-51.082	0.180	0.083
-254.107	34.336	0.060	0.052
-253.092	79.446	0.084	-0.088
-252.078	-7.990	0.090	0.060
-251.063	272.733	-0.114	-0.198
-250.049	-200.000	-0.025	0.133
-249.034	-200.000	0.017	0.085
-248.019	639.067	0.053	-0.132
-247.005	452.284	0.018	0.039
-245.990	-59.535	-0.161	-0.068
-244.976	416.888	0.201	-0.422
-243.961	-132.381	0.136	0.017
-242.946	161.126	0.128	0.177
-241.932	-94.700	0.321	-0.086
-240.917	69.753	-0.258	-0.261
-239.903	-25.643	0.210	-0.122
-238.888	-92.501	0.154	0.043
-237.873	-98.427	0.214	0.054
-236.859	-155.272	-0.290	0.019
-235.844	-6.592	-0.165	0.110
-234.830	800.000	0.073	-0.224
-233.815	11.799	-0.185	0.139
-232.800	-41.367	-0.421	0.213
-231.786	-200.000	0.019	-0.276
-230.771	800.000	-0.089	0.260
-229.757	-116.034	0.110	-0.020
-228.742	201.732	-0.142	-0.215
-227.727	421.606	0.054	0.115
-226.713	800.000	-0.096	0.348
-225.698	800.000	-0.082	0.250
-224.684	-18.493	0.151	0.093
-223.669	800.000	-0.049	0.180
-222.655	362.702	-0.160	0.316
-221.640	-80.089	-0.384	0.126
-220.625	-200.000	-0.042	0.200
-219.611	133.699	0.103	0.130
-218.596	-64.882	0.046	0.018
-217.582	260.277	0.070	0.119
-216.567	770.077	0.126	0.338
-215.552	-200.000	-0.044	0.312
-214.538	20.060	0.278	-0.220
-213.523	184.006	0.156	-0.227
-212.509	800.000	0.056	-0.181
-211.494	3.080	-0.138	0.098
-210.479	-200.000	-0.005	-0.115
-209.465	800.000	-0.091	-0.254
-208.450	82.934	0.131	-0.140
-207.436	39.006	0.445	0.391
-206.421	-200.000	-0.062	-0.306
-205.406	-132.828	-0.307	-0.038
-204.392	-140.508	0.360	-0.037
-203.377	39.535	-0.274	0.241
-202.363	197.361	0.196	0.294
-201.348	74.011	-0.037	-0.038
-200.333	-121.691	-0.222	0.036
-199.319	51.666	-0.090	-0.084
-198.304	69.918	0.373	0.378
-197.290	414.947	0.111	0.231
-196.275	-200.000	-0.034	0.341
-195.260	-200.000	-0.010	0.056
-194.246	-111.266	0.228	-0.046
-193.231	800.000	0.123	0.389
-192.217	-200.000	-0.002	-0.293
-191.202	130.787	0.123	0.155
-190.187	-200.000	0.011	0.112
-189.173	415.253	0.028	-0.059
-188.158	-81.107	0.144	-0.047
-187.144	95.345	0.323	-0.362
-186.129	-93.080	-0.083	0.023
-185.114	134.302	0.155	-0.198
-184.100	-200.000	-0.057	0.314
-183.085	-16.024	-0.163	0.102
-182.071	145.397	-0.112	0.147
-181.056	-200.000	0.015	0.233
-180.042	-53.742	0.187	0.084
-179.027	-57.102	0.386	-0.167
-178.012	209.441	-0.073	-0.113
-176.998	-115.179	0.235	-0.044
-175.983	800.000	0.103	0.392
-174.969	-109.522	-0.190	-0.039
-173.954	-200.000	0.023	-0.195
-172.939	-142.748	0.168	-0.016
-171.925	-92.236	-0.375	-0.104
-170.910	582.537	-0.122	-0.294
-169.896	800.000	-0.087	-0.326
-168.881	64.487	-0.386	-0.381
-167.866	800.000	0.040	0.129
-166.852	-7.098	0.062	-0.041
-165.837	-200.000	-0.010	-0.325
-164.823	157.882	0.252	-0.342
-163.808	-200.000	0.024	-0.161
-162.793	442.408	0.073	-0.157
-161.779	-200.000	0.033	0.159
-160.764	45.323	0.308	0.279
-159.750	411.736	-0.127	-0.265
-158.735	-200.000	0.039	-0.211
-157.720	-8.002	0.201	0.133
-156.706	-31.531	0.330	0.182
-155.691	-85.627	0.063	-0.019
-154.677	-47.212	-0.211	-0.101
-153.662	145.100	-0.186	-0.244
-152.647	-90.631	-0.303	-0.086
-151.633	164.532	0.036	0.049
-150.618	130.448	0.180	0.226
-149.604	-200.000	-0.002	0.025
-148.589	-103.819	-0.314	0.072
-147.574	-200.000	-0.026	0.128
-146.560	-135.593	-0.347	0.040
-145.545	-105.495	-0.193	-0.043
-144.531	-26.833	0.248	-0.142
-143.516	-31.144	0.142	0.078
-142.502	110.955	0.166	-0.196
-141.487	-70.548	0.304	0.113
-140.472	800.000	0.069	0.218
-139.458	-200.000	0.027	-0.182
-138.443	-17.259	-0.210	-0.129
-137.429	-61.154	-0.131	-0.054
-136.414	-200.000	-0.011	-0.122
-135.399	-106.934	0.138	0.030
-134.385	-200.000	0.003	0.286
-133.370	272.941	-0.118	-0.204
-132.356	-200.000	0.028	-0.416
-131.341	800.000	0.046	-0.172
-130.326	-200.000	-0.009	0.119
-129.312	780.606	0.051	0.136
-128.297	-74.572	-0.223	0.078
-127.283	74.976	0.129	-0.133
-126.268	27.712	-0.291	0.240
-125.253	6.904	0.191	0.139
-124.239	160.027	0.174	0.237
-123.224	-200.000	0.015	0.160
-122.210	392.017	-0.199	0.405
-121.195	-200.000	-0.027	0.216
