DTS Sentinel unit serial number:	SN413079Multiplexer serial number:	ORYXHardware model number:	OX4-SRSoftware version number:	ORYX F/W v4.00 Oryx Data Collector v3.7.2.0data status	okinstallation	princeton_trtdifferential loss correction	single-endedforward channel	channel 4reverse channel	N/Adate	2019/09/16time	20:13:35forward acquisition time	60.00reverse acquisition time	0.00gamma	496.2192k internal	0.2311k external	0.2311temperature offset calibration	0.9968default loss term (dB/km)	0.3790temperature slope calibration	1.0000multiplexer offset coefficient	1.0000multiplexer slope coefficient	1.0000fibre end	0.00T internal ref (°C)	33.00T ext. ref 1 (°C)	0.09T ext. ref 2 (°C)	26.66length (m)	temperature (°C)	Stokes	anti-Stokes-747.200	12.484	0.225	0.176
-746.185	-49.391	0.189	0.092
-745.171	-140.900	0.328	-0.034
-744.156	18.405	-0.348	0.282
-743.142	-121.867	-0.351	0.059
-742.127	-48.592	0.292	0.143
-741.112	89.722	0.140	-0.158
-740.098	800.000	0.047	0.198
-739.083	21.983	-0.059	-0.049
-738.069	109.368	-0.268	0.326
-737.054	800.000	0.079	0.304
-736.039	-200.000	0.041	0.313
-735.025	451.653	-0.065	0.146
-734.010	-92.017	-0.206	-0.059
-732.996	-144.628	-0.166	-0.015
-731.981	12.299	0.271	-0.212
-730.966	-29.422	-0.460	-0.267
-729.952	-127.467	0.233	-0.034
-728.937	-92.527	-0.018	-0.005
-727.923	-200.000	-0.013	-0.132
-726.908	20.075	0.140	-0.114
-725.894	-110.127	-0.344	-0.073
-724.879	329.976	-0.075	-0.146
-723.864	73.195	0.204	-0.216
-722.850	800.000	-0.080	-0.277
-721.835	265.342	-0.132	-0.234
-720.821	447.743	-0.101	-0.226
-719.806	-200.000	-0.054	-0.454
-718.791	-6.983	-0.234	-0.161
-717.777	-167.062	-0.379	0.016
-716.762	-200.000	-0.341	-0.001
-715.748	-200.000	0.017	0.276
-714.733	19.452	-0.269	0.219
-713.718	-106.371	-0.223	-0.051
-712.704	-90.569	-0.105	0.031
-711.689	69.809	-0.198	0.207
-710.675	-55.449	0.386	0.176
-709.660	772.100	0.076	-0.211
-708.645	51.628	-0.256	-0.247
-707.631	-200.000	-0.025	-0.401
-706.616	-100.889	0.218	0.054
-705.602	233.701	-0.186	0.310
-704.587	-38.350	0.261	0.140
-703.572	50.024	-0.383	-0.366
-702.558	-54.653	0.120	-0.055
-701.543	573.064	0.061	-0.151
-700.529	23.316	0.155	-0.129
-699.514	38.106	0.111	-0.100
-698.499	-20.730	0.210	0.131
-697.485	46.913	-0.075	-0.071
-696.470	800.000	0.074	-0.222
-695.456	13.532	0.252	-0.198
-694.441	-73.349	0.209	-0.078
-693.426	70.628	0.195	0.205
-692.412	-10.694	0.103	0.069
-691.397	484.894	0.087	-0.201
-690.383	93.941	0.114	0.131
-689.368	186.040	-0.061	0.093
-688.354	-200.000	0.062	0.679
-687.339	114.206	0.222	-0.273
-686.324	55.772	-0.214	-0.210
-685.310	-177.065	0.225	-0.006
-684.295	-29.988	-0.249	0.144
-683.281	-87.591	-0.280	-0.086
-682.266	-62.012	-0.345	0.146
-681.251	-4.778	-0.269	0.188
-680.237	100.998	-0.193	0.227
-679.222	-120.357	0.162	0.028
-678.208	14.976	-0.317	0.251
-677.193	-200.000	-0.060	0.302
-676.178	409.896	-0.078	-0.168
-675.164	-28.587	-0.371	-0.216
-674.149	-90.374	-0.081	-0.024
-673.135	800.000	-0.082	0.281
-672.120	-9.085	-0.331	-0.224
-671.105	257.613	-0.126	-0.220
-670.091	-68.854	0.281	-0.110
-669.076	-73.913	-0.256	-0.094
-668.062	-167.248	-0.379	-0.015
-667.047	-143.554	-0.249	-0.024
-666.032	-53.490	-0.229	0.106
-665.018	-22.999	0.028	-0.017
-664.003	96.913	-0.237	-0.275
-662.989	-89.213	0.222	-0.066
-661.974	47.239	-0.137	-0.129
-660.959	-200.000	0.020	0.282
-659.945	38.072	0.121	0.109
-658.930	-71.011	-0.277	-0.106
-657.916	267.498	-0.161	0.285
-656.901	-49.751	-0.248	-0.119
-655.886	172.721	0.159	-0.231
-654.872	-200.000	-0.021	-0.257
-653.857	58.856	-0.271	-0.270
-652.843	-26.051	0.127	-0.076
-651.828	-68.195	0.198	-0.078
-650.814	37.820	0.074	0.067
-649.799	-123.236	0.244	0.039
-648.784	134.028	0.157	-0.205
-647.770	1.558	0.297	-0.216
-646.755	-33.761	0.159	-0.088
-645.741	800.000	0.053	0.207
-644.726	-53.855	0.069	-0.032
-643.711	-200.000	0.028	-0.165
-642.697	33.202	0.183	-0.160
-641.682	800.000	0.067	0.209
-640.668	-200.000	0.005	0.124
-639.653	-33.479	-0.092	-0.052
-638.638	-145.412	-0.164	-0.015
-637.624	-104.532	-0.244	0.057
-636.609	398.799	0.194	0.411
-635.595	800.000	-0.070	-0.269
-634.580	-178.177	0.209	-0.005
-633.565	-37.009	0.178	0.097
-632.551	160.486	0.194	-0.273
-631.536	-200.000	-0.040	-0.231
-630.522	800.000	-0.094	0.298
-629.507	800.000	0.055	-0.171
-628.492	-35.871	-0.259	-0.142
-627.478	314.166	0.044	0.083
-626.463	160.001	-0.110	-0.155
-625.449	-120.677	0.136	-0.023
-624.434	-95.732	0.094	-0.025
-623.419	117.018	-0.162	-0.201
-622.405	-200.000	-0.002	-0.246
-621.390	508.239	-0.103	-0.242
-620.376	-200.000	0.007	-0.147
-619.361	-27.516	0.238	-0.140
-618.346	800.000	0.029	0.082
-617.332	155.412	-0.092	0.127
-616.317	-64.978	-0.065	0.026
-615.303	174.245	0.051	0.074
-614.288	34.057	0.106	0.093
-613.273	-125.788	-0.401	-0.061
-612.259	-138.555	-0.219	-0.024
-611.244	-200.000	0.100	-0.453
-610.230	38.755	-0.029	-0.026
-609.215	-200.000	-0.031	0.266
-608.201	25.756	0.330	0.278
-607.186	77.297	-0.034	-0.036
-606.171	174.031	-0.096	-0.140
-605.157	-97.204	-0.383	0.101
-604.142	800.000	-0.041	0.119
-603.128	-200.000	0.050	0.248
-602.113	-102.301	-0.342	-0.083
-601.098	-107.527	0.177	0.039
-600.084	82.874	-0.066	0.073
-599.069	-104.108	-0.209	-0.049
-598.055	-32.788	-0.220	0.123
-597.040	800.000	0.107	-0.353
-596.025	-17.359	0.131	-0.083
-595.011	102.250	-0.329	-0.388
-593.996	-171.236	-0.225	0.008
-592.982	-142.397	0.234	0.023
-591.967	-26.278	0.124	-0.074
-590.952	288.396	0.203	-0.370
-589.938	-200.000	0.013	-0.392
-588.923	-141.686	-0.341	-0.035
-587.909	800.000	-0.025	-0.106
-586.894	-0.959	-0.101	-0.072
-585.879	137.837	-0.369	-0.488
-584.865	-104.254	-0.031	-0.007
-583.850	612.982	0.061	0.154
-582.836	-16.198	-0.288	0.185
-581.821	448.873	-0.118	-0.263
-580.806	186.706	-0.190	0.285
-579.792	5.616	0.339	0.253
-578.777	29.176	-0.093	0.080
-577.763	-200.000	-0.004	-0.181
-576.748	260.571	0.125	0.218
-575.733	-104.317	0.122	-0.028
-574.719	-111.676	0.275	0.056
-573.704	-171.357	0.103	0.003
-572.690	94.729	-0.182	0.209
-571.675	800.000	0.041	0.159
-570.661	-200.000	-0.033	0.304
-569.646	-12.630	0.119	0.078
-568.631	40.311	0.054	-0.049
-567.617	142.210	0.025	-0.034
-566.602	-200.000	0.050	0.304
-565.588	800.000	-0.023	-0.085
-564.573	-31.231	0.041	0.024
-563.558	10.973	-0.202	0.156
-562.544	45.342	-0.325	-0.302
-561.529	-95.783	-0.503	0.135
-560.515	-200.000	-0.010	0.101
-559.500	800.000	-0.028	-0.080
-558.485	-200.000	-0.020	-0.215
-557.471	-87.662	-0.344	-0.105
-556.456	761.907	0.145	0.396
-555.442	199.832	0.081	0.125
-554.427	11.779	-0.154	-0.119
-553.412	91.378	-0.129	0.146
-552.398	800.000	0.096	-0.296
-551.383	-118.884	-0.257	-0.045
-550.369	-16.607	-0.463	0.295
-549.354	-42.834	-0.307	-0.157
-548.339	-124.502	0.352	-0.055
-547.325	36.295	0.149	0.132
-546.310	157.094	-0.139	-0.193
-545.296	211.895	-0.046	0.074
-544.281	-148.080	-0.314	0.026
-543.266	75.239	0.132	-0.141
-542.252	-63.754	-0.480	0.198
-541.237	29.665	0.210	0.180
-540.223	-84.451	0.223	0.071
-539.208	-138.069	0.096	0.011
-538.193	-111.664	0.202	-0.041
-537.179	800.000	-0.021	0.088
-536.164	-10.475	0.084	-0.056
-535.150	-200.000	-0.015	0.175
-534.135	-200.000	-0.013	0.486
-533.121	-0.699	0.180	-0.128
-532.106	-35.070	0.037	-0.021
-531.091	-200.000	0.004	-0.278
-530.077	259.305	-0.230	-0.399
-529.062	205.486	0.221	-0.345
-528.048	14.789	-0.102	0.080
-527.033	800.000	0.090	-0.263
-526.018	800.000	0.038	0.163
-525.004	93.415	0.079	0.090
-523.989	352.180	-0.134	-0.268
-522.975	250.805	0.048	0.081
-521.960	-147.989	0.027	-0.002
-520.945	-40.041	0.141	0.074
-519.931	800.000	-0.023	0.070
-518.916	538.297	-0.016	-0.039
-517.902	147.314	-0.303	0.410
-516.887	-153.197	0.245	0.017
-515.872	-200.000	-0.057	-0.531
-514.858	800.000	-0.022	0.067
-513.843	-200.000	0.071	-0.418
-512.829	265.101	-0.175	0.307
-511.814	-200.000	0.010	0.098
-510.799	322.107	-0.079	-0.151
-509.785	800.000	-0.098	-0.324
-508.770	-91.346	0.160	0.046
-507.756	569.233	-0.153	0.373
-506.741	-1.958	-0.085	-0.060
-505.726	47.616	-0.142	0.133
-504.712	800.000	-0.062	0.189
-503.697	342.927	0.072	0.141
-502.683	800.000	-0.072	0.265
-501.668	-24.768	-0.065	-0.039
-500.653	-161.764	0.190	0.010
-499.639	800.000	-0.059	0.224
-498.624	12.097	-0.207	0.160
-497.610	-121.267	0.362	-0.061
-496.595	-50.200	-0.305	-0.145
-495.581	31.190	-0.051	-0.044
-494.566	-88.532	-0.412	-0.123
-493.551	800.000	-0.063	-0.205
-492.537	800.000	-0.068	-0.297
-491.522	-81.849	-0.370	-0.122
-490.508	58.538	-0.182	0.179
-489.493	800.000	0.049	-0.175
-488.478	493.834	-0.045	0.104
-487.464	-200.000	0.033	-0.356
-486.449	15.807	0.069	-0.055
-485.435	-200.000	-0.008	0.119
-484.420	800.000	0.032	0.138
-483.405	118.411	-0.144	0.179
-482.391	205.600	-0.254	0.397
-481.376	427.973	0.217	0.470
-480.362	244.365	-0.031	0.052
-479.347	800.000	0.125	0.393
-478.332	-200.000	0.012	-0.151
-477.318	31.701	-0.439	-0.380
-476.303	271.557	-0.111	-0.196
-475.289	689.217	0.062	0.163
-474.274	-28.108	-0.187	0.109
-473.259	-26.796	0.145	-0.085
-472.245	800.000	0.088	-0.291
-471.230	406.763	0.032	-0.067
-470.216	-125.565	0.287	-0.044
-469.201	-181.255	0.085	-0.002
-468.186	-42.159	-0.034	-0.017
-467.172	298.295	0.072	-0.132
-466.157	-72.895	0.206	-0.076
-465.143	-115.747	-0.134	0.025
-464.128	-37.555	-0.074	-0.039
-463.113	-48.442	0.118	-0.057
-462.099	39.255	-0.241	0.216
-461.084	-170.146	-0.053	0.002
-460.070	-40.828	0.219	-0.114
-459.055	-43.287	-0.285	0.145
-458.040	65.333	-0.122	-0.124
-457.026	140.698	0.272	0.361
-456.011	-89.609	-0.103	0.030
-454.997	800.000	0.061	0.190
-453.982	-200.000	-0.012	0.094
-452.968	23.237	-0.141	-0.117
-451.953	-200.000	0.004	-0.253
-450.938	-61.584	0.214	-0.090
-449.924	-49.863	0.092	0.044
-448.909	65.608	0.221	-0.225
-447.895	-36.940	-0.117	-0.063
-446.880	104.421	0.063	0.074
-445.865	201.829	0.068	0.105
-444.851	-61.610	-0.074	0.031
-443.836	-2.384	-0.217	0.152
-442.822	-200.000	0.005	-0.043
-441.807	194.162	-0.145	-0.221
-440.792	40.928	-0.126	-0.114
-439.778	-165.791	-0.215	0.009
-438.763	57.844	0.166	0.163
-437.749	-114.680	-0.243	0.047
-436.734	-6.695	0.153	0.105
-435.719	405.857	0.118	-0.250
-434.705	226.470	0.108	0.176
-433.690	42.988	-0.233	-0.213
-432.676	60.769	0.201	-0.200
-431.661	-109.699	-0.144	0.030
-430.646	-200.000	-0.022	-0.165
-429.632	-200.000	0.010	-0.094
-428.617	800.000	0.151	-0.470
-427.603	800.000	0.073	-0.306
-426.588	84.661	-0.227	-0.250
-425.573	-135.795	0.301	0.036
-424.559	484.372	-0.096	-0.219
-423.544	-200.000	0.004	-0.106
-422.530	-52.396	-0.150	-0.070
-421.515	-87.835	0.255	0.077
-420.500	-54.699	-0.256	-0.116
-419.486	-173.629	0.186	-0.006
-418.471	11.559	0.323	-0.248
-417.457	-200.000	0.096	0.472
-416.442	-200.000	0.035	-0.191
-415.428	-42.268	0.130	0.067
-414.413	-45.157	-0.142	0.071
-413.398	800.000	0.035	0.104
-412.384	481.281	0.124	-0.282
-411.369	-75.504	-0.389	0.139
-410.355	800.000	-0.030	0.117
-409.340	800.000	0.063	-0.232
-408.325	454.748	0.134	0.298
-407.311	800.000	0.086	0.304
-406.296	-82.089	0.147	-0.048
-405.282	108.034	0.081	0.097
-404.267	-160.872	-0.159	0.008
-403.252	-66.647	-0.377	-0.150
-402.238	131.983	-0.113	0.146
-401.223	485.726	-0.085	-0.194
-400.209	-106.297	0.181	-0.041
-399.194	43.951	0.169	0.155
-398.179	-200.000	-0.026	-0.270
-397.165	-44.713	0.045	-0.023
-396.150	-160.494	-0.265	0.014
-395.136	-172.079	-0.232	-0.007
-394.121	-106.273	-0.296	-0.066
-393.106	53.471	-0.211	-0.202
-392.092	60.399	0.212	-0.210
-391.077	311.848	-0.091	-0.170
-390.063	-100.289	0.093	-0.023
-389.048	16.604	-0.124	-0.098
-388.033	79.784	-0.386	0.415
-387.019	-200.000	-0.005	-0.124
-386.004	162.611	-0.044	-0.062
-384.990	196.508	-0.303	-0.463
-383.975	-200.000	0.003	0.109
-382.960	249.890	0.074	0.125
-381.946	-3.995	-0.053	0.037
-380.931	-63.041	-0.240	-0.099
-379.917	-200.000	-0.021	0.196
-378.902	36.092	-0.137	-0.120
-377.888	234.367	0.138	0.228
-376.873	-200.000	-0.019	0.158
-375.858	26.290	0.215	-0.180
-374.844	370.449	0.135	-0.273
-373.829	800.000	0.101	-0.350
-372.815	-125.439	0.130	0.020
-371.800	768.921	-0.153	-0.417
-370.785	-200.000	-0.022	0.127
-369.771	-200.000	-0.036	-0.310
-368.756	800.000	-0.046	0.183
-367.742	27.273	0.200	0.168
-366.727	-200.000	0.031	-0.137
-365.712	-200.000	-0.039	0.341
-364.698	800.000	-0.058	-0.170
-363.683	226.663	-0.203	0.330
-362.669	482.408	0.139	0.315
-361.654	55.029	-0.347	-0.335
-360.639	-28.526	-0.167	0.096
-359.625	-13.163	-0.229	-0.148
-358.610	722.799	-0.042	0.111
-357.596	-200.000	0.019	-0.317
-356.581	19.419	0.230	0.185
-355.566	-113.045	0.098	0.019
-354.552	-182.541	0.166	-0.003
-353.537	25.391	0.041	-0.034
-352.523	-66.374	0.184	0.073
-351.508	-108.690	0.194	-0.042
-350.493	800.000	-0.095	0.352
-349.479	46.567	0.088	-0.082
-348.464	137.746	0.114	0.149
-347.450	-200.000	0.033	0.278
-346.435	-93.761	0.403	0.111
-345.420	-105.821	-0.159	-0.036
-344.406	51.363	0.127	-0.120
-343.391	-64.183	-0.053	0.022
-342.377	139.832	-0.159	-0.209
-341.362	-119.321	0.175	0.030
-340.348	-200.000	0.026	0.200
-339.333	-22.336	0.045	0.027
-338.318	-87.321	-0.150	0.045
-337.304	-88.363	0.159	-0.048
-336.289	-109.524	-0.262	-0.055
-335.275	451.609	0.071	-0.156
-334.260	-158.112	-0.100	0.006
-333.245	219.208	-0.066	0.105
-332.231	-200.000	-0.004	0.153
-331.216	-145.457	-0.179	-0.016
-330.202	800.000	0.055	0.185
-329.187	54.610	-0.073	0.070
-328.172	-35.027	-0.298	-0.162
-327.158	4.887	0.074	-0.055
-326.143	-44.114	0.162	-0.081
-325.129	-152.661	0.185	0.013
-324.114	-106.359	-0.127	0.028
-323.099	1.441	0.065	-0.047
-322.085	-65.456	0.055	0.022
-321.070	-93.559	-0.236	-0.065
-320.056	4.392	0.184	0.134
-319.041	-200.000	-0.025	-0.352
-318.026	50.952	-0.089	0.085
-317.012	-200.000	-0.013	-0.140
-315.997	800.000	-0.096	0.390
-314.983	-0.886	0.169	0.119
-313.968	138.207	0.083	-0.109
-312.953	-41.579	0.405	-0.208
-311.939	-129.245	0.110	0.015
-310.924	-126.578	0.178	0.026
-309.910	-64.861	0.090	-0.036
-308.895	-5.675	0.354	0.242
-307.880	-194.426	0.362	-0.003
-306.866	227.038	0.140	0.227
-305.851	8.177	0.070	-0.052
-304.837	-200.000	-0.063	-0.502
-303.822	-9.047	-0.108	0.072
-302.807	-120.462	0.382	0.065
-301.793	-68.280	-0.263	-0.102
-300.778	800.000	0.116	-0.359
-299.764	357.381	-0.034	0.068
-298.749	49.009	-0.067	-0.062
-297.735	-200.000	0.034	0.203
-296.720	-93.272	-0.057	0.016
-295.705	363.552	0.164	-0.330
-294.691	108.919	-0.146	0.174
-293.676	800.000	0.015	0.058
-292.662	85.941	-0.048	0.053
-291.647	490.645	-0.185	-0.422
-290.632	-200.000	-0.030	-0.153
-289.618	-106.719	0.234	0.052
-288.603	-20.432	0.177	0.108
-287.589	-12.838	0.117	-0.076
-286.574	-200.000	0.015	0.131
-285.559	-146.458	-0.252	0.022
-284.545	164.114	0.136	0.190
-283.530	91.127	0.175	0.196
-282.516	8.598	-0.193	-0.145
-281.501	-118.370	0.304	-0.054
-280.486	-200.000	-0.048	0.509
-279.472	-19.615	-0.353	0.218
-278.457	1.648	-0.042	-0.030
-277.443	-73.409	0.107	-0.039
-276.428	-109.261	0.157	0.033
-275.413	-200.000	0.001	0.185
-274.399	-90.646	-0.024	0.007
-273.384	-23.229	-0.100	0.060
-272.370	72.658	-0.051	-0.053
-271.355	800.000	-0.058	0.176
-270.340	703.727	-0.037	0.097
-269.326	-58.301	-0.220	0.095
-268.311	187.740	-0.181	0.269
-267.297	-38.317	0.163	0.086
-266.282	159.629	-0.070	0.097
-265.267	-200.000	-0.045	0.224
-264.253	491.967	-0.049	0.112
-263.238	-200.000	0.041	0.192
-262.224	643.179	0.095	-0.240
-261.209	-200.000	-0.003	-0.069
-260.195	-81.772	0.300	0.098
-259.180	-131.632	0.355	-0.047
-258.165	419.880	0.039	-0.083
-257.151	341.626	0.189	0.368
-256.136	-165.817	0.216	-0.009
-255.122	-121.373	-0.240	0.040
-254.107	800.000	-0.077	0.326
-253.092	800.000	0.045	-0.138
-252.078	-102.206	-0.198	0.047
-251.063	105.871	0.319	0.376
-250.049	-200.000	0.020	-0.287
-249.034	-43.618	-0.174	-0.087
-248.019	262.724	-0.107	0.185
-247.005	293.566	0.109	0.197
-245.990	-200.000	-0.062	-0.277
-244.976	-200.000	-0.055	-0.246
-243.961	-77.236	0.220	0.076
-242.946	-46.098	0.369	-0.181
-241.932	-47.714	0.215	0.104
-240.917	64.458	-0.129	0.130
-239.903	-10.594	-0.145	0.095
-238.888	-23.943	-0.182	-0.108
-237.873	-137.517	0.059	-0.007
-236.859	292.007	0.033	0.060
-235.844	-43.813	0.292	0.146
-234.830	800.000	0.043	-0.120
-233.815	-200.000	0.030	0.318
-232.800	645.809	0.046	0.118
-231.786	-200.000	0.015	0.207
-230.771	42.989	-0.065	-0.059
-229.757	-118.439	-0.134	-0.024
-228.742	-60.337	0.425	-0.180
-227.727	-200.000	-0.042	0.244
-226.713	-200.000	0.067	-0.295
-225.698	-37.373	0.320	0.170
-224.684	10.397	0.170	0.129
-223.669	-101.025	0.146	0.036
-222.655	-147.956	-0.180	0.015
-221.640	-52.376	-0.204	0.094
-220.625	78.733	0.152	0.162
-219.611	-55.716	-0.141	-0.063
-218.596	-110.882	0.034	-0.007
-217.582	-46.537	0.379	-0.185
-216.567	-200.000	-0.059	0.333
-215.552	-152.244	-0.009	0.001
-214.538	-79.296	-0.050	0.017
-213.523	-26.896	0.309	0.179
-212.509	147.148	-0.154	0.205
-211.494	-153.542	-0.392	0.027
-210.479	120.996	0.021	-0.026
-209.465	30.262	0.159	-0.135
-208.450	591.382	-0.077	-0.190
-207.436	-125.060	0.058	0.009
-206.421	-171.520	0.335	0.011
-205.406	-200.000	0.043	-0.212
-204.392	800.000	0.033	-0.102
-203.377	-6.958	0.121	-0.082
-202.363	-149.882	0.377	0.029
-201.348	16.062	-0.154	-0.121
-200.333	800.000	-0.088	-0.261
-199.319	305.729	-0.112	-0.207
-198.304	800.000	-0.071	-0.263
-197.290	-200.000	0.001	-0.045
-196.275	-68.444	-0.165	0.064
-195.260	-81.931	0.251	0.082
-194.246	597.656	-0.167	0.410
-193.231	-112.802	0.244	0.048
-192.217	635.517	-0.124	-0.312
-191.202	27.957	0.220	-0.184
-190.187	14.002	0.174	-0.135
-189.173	6.709	-0.053	-0.039
-188.158	-97.035	-0.033	0.009
-187.144	-113.997	-0.235	0.045
-186.129	32.122	-0.138	0.118
-185.114	5.293	0.202	0.148
-184.100	-200.000	0.009	-0.105
-183.085	-67.922	-0.151	-0.059
-182.071	-84.030	0.208	-0.066
-181.056	710.476	0.171	0.449
-180.042	-109.020	-0.282	0.060
-179.027	124.288	-0.026	-0.033
-178.012	-170.643	0.136	0.005
-176.998	-128.825	-0.209	0.029
-175.983	-137.087	0.074	0.008
-174.969	800.000	-0.069	0.211
-173.954	-147.945	-0.141	-0.012
-172.939	-115.146	0.191	0.036
-171.925	269.947	0.201	-0.350
-170.910	114.144	0.227	0.275
-169.896	-200.000	0.030	0.193
-168.881	-200.000	-0.037	0.266
-167.866	-11.145	0.144	0.094
-166.852	800.000	0.148	0.501
-165.837	125.703	0.144	0.181
-164.823	-26.504	0.183	0.106
-163.808	-12.014	-0.283	-0.184
-162.793	46.608	-0.240	-0.221
-161.779	800.000	-0.043	-0.148
-160.764	6.776	-0.288	0.213
-159.750	272.696	0.106	-0.185
-158.735	-52.295	-0.379	-0.174
-157.720	18.418	0.233	-0.185
-156.706	-101.676	-0.145	0.035
-155.691	-117.078	0.164	-0.030
-154.677	-62.234	0.187	-0.077
-153.662	-104.652	0.466	0.106
-152.647	-48.637	-0.094	0.045
-151.633	800.000	-0.077	0.299
-150.618	-200.000	-0.044	0.195
-149.604	-108.761	-0.327	0.070
-148.589	-122.106	0.294	0.048
-147.574	-53.845	0.297	0.134
-146.560	800.000	-0.015	-0.064
-145.545	-111.573	0.431	-0.087
-144.531	-200.000	0.007	-0.151
-143.516	-179.287	0.273	0.006
-142.502	-200.000	0.018	-0.142
-141.487	60.708	-0.158	-0.155
-140.472	87.091	-0.108	0.119
-139.458	592.962	0.090	0.221
-138.443	-200.000	-0.016	-0.229
-137.429	-200.000	0.016	-0.116
-136.414	48.313	-0.029	-0.027
-135.399	-26.603	-0.144	-0.084
-134.385	-122.103	0.168	0.027
-133.370	73.213	0.087	-0.090
-132.356	-1.232	-0.385	0.270
-131.341	759.762	-0.057	-0.153
-130.326	109.938	-0.183	0.217
-129.312	47.545	-0.071	0.066
-128.297	554.056	0.117	0.279
-127.283	-80.690	-0.203	0.067
-126.268	-91.876	0.281	0.079
-125.253	800.000	0.035	0.139
-124.239	109.948	-0.147	-0.174
-123.224	-78.210	0.106	0.036
-122.210	-145.370	0.257	0.023
-121.195	-182.635	-0.193	-0.003
