DTS Sentinel unit serial number:	SN413079Multiplexer serial number:	ORYXHardware model number:	OX4-SRSoftware version number:	ORYX F/W v4.00 Oryx Data Collector v3.7.2.0data status	okinstallation	princeton_trtdifferential loss correction	single-endedforward channel	channel 4reverse channel	N/Adate	2019/09/13time	10:17:35forward acquisition time	60.00reverse acquisition time	0.00gamma	496.2192k internal	0.2307k external	0.2307temperature offset calibration	1.0189default loss term (dB/km)	0.3790temperature slope calibration	1.0000multiplexer offset coefficient	1.0000multiplexer slope coefficient	1.0000fibre end	0.00T internal ref (°C)	30.75T ext. ref 1 (°C)	4.53T ext. ref 2 (°C)	28.01length (m)	temperature (°C)	Stokes	anti-Stokes-747.200	-49.843	-0.261	-0.126
-746.185	800.000	-0.050	0.184
-745.171	-200.000	-0.023	0.173
-744.156	800.000	0.083	0.244
-743.142	242.743	0.166	0.283
-742.127	-200.000	0.038	0.283
-741.112	-200.000	0.025	-0.199
-740.098	-200.000	-0.090	0.425
-739.083	800.000	0.093	-0.270
-738.069	-131.089	-0.107	0.014
-737.054	-19.489	-0.395	-0.249
-736.039	-132.276	-0.238	-0.031
-735.025	165.635	-0.095	0.136
-734.010	-200.000	-0.009	0.070
-732.996	366.650	-0.126	-0.258
-731.981	-16.726	0.021	-0.014
-730.966	-159.777	-0.354	0.020
-729.952	-150.792	-0.050	-0.004
-728.937	37.457	-0.262	0.236
-727.923	800.000	-0.046	0.193
-726.908	206.303	-0.333	0.527
-725.894	66.729	-0.147	-0.152
-724.879	-200.000	0.042	-0.438
-723.864	510.209	-0.051	0.121
-722.850	-146.832	-0.363	-0.032
-721.835	246.814	0.108	-0.185
-720.821	67.933	-0.103	-0.107
-719.806	13.169	-0.265	0.209
-718.791	64.890	-0.111	0.114
-717.777	-200.000	-0.002	-0.057
-716.762	175.673	-0.097	0.143
-715.748	-101.158	0.112	-0.028
-714.733	170.744	-0.054	-0.079
-713.718	18.325	0.150	-0.122
-712.704	178.709	0.088	0.130
-711.689	10.789	0.370	0.287
-710.675	-62.945	-0.146	-0.061
-709.660	-200.000	-0.082	0.407
-708.645	70.327	-0.115	-0.121
-707.631	482.425	0.079	0.182
-706.616	-48.758	-0.095	-0.046
-705.602	-99.042	0.028	-0.007
-704.587	800.000	0.058	0.213
-703.572	-87.444	-0.060	-0.019
-702.558	800.000	0.026	-0.097
-701.543	-92.148	-0.102	0.029
-700.529	-52.642	-0.062	0.029
-699.514	88.819	-0.030	-0.033
-698.499	-77.723	0.159	-0.056
-697.485	567.641	-0.183	0.451
-696.470	-200.000	0.027	-0.235
-695.456	496.358	-0.164	-0.382
-694.441	-30.034	-0.210	0.121
-693.426	78.897	0.100	0.109
-692.412	-41.984	0.148	0.077
-691.397	-76.135	-0.223	-0.080
-690.383	189.884	-0.135	-0.206
-689.368	-69.796	-0.194	0.075
-688.354	-90.295	0.152	-0.045
-687.339	-72.800	0.077	-0.029
-686.324	160.808	0.121	-0.171
-685.310	-128.741	-0.040	-0.006
-684.295	-45.236	-0.107	0.054
-683.281	16.538	-0.070	0.056
-682.266	3.568	-0.161	-0.119
-681.251	-24.878	-0.247	-0.149
-680.237	-97.514	-0.123	-0.032
-679.222	98.045	-0.185	-0.216
-678.208	800.000	0.070	-0.269
-677.193	-34.567	-0.098	0.054
-676.178	-161.865	-0.186	0.010
-675.164	23.751	0.198	0.165
-674.149	-50.925	-0.230	0.110
-673.135	62.435	-0.084	0.085
-672.120	27.519	0.115	-0.098
-671.105	605.824	0.074	0.186
-670.091	294.499	-0.034	-0.062
-669.076	-200.000	0.047	0.219
-668.062	-80.187	0.162	-0.055
-667.047	189.241	-0.201	0.305
-666.032	-200.000	0.006	-0.072
-665.018	-14.830	-0.082	0.053
-664.003	126.816	0.122	0.157
-662.989	91.348	-0.116	0.132
-661.974	-109.797	-0.283	-0.060
-660.959	88.112	0.228	-0.257
-659.945	250.501	0.045	-0.077
-658.930	-61.519	-0.070	0.030
-657.916	-3.879	0.148	-0.104
-656.901	198.074	-0.133	-0.206
-655.886	800.000	0.048	-0.189
-654.872	102.347	-0.086	-0.102
-653.857	236.155	0.259	-0.433
-652.843	-43.110	-0.116	-0.059
-651.828	126.588	-0.281	-0.360
-650.814	800.000	0.018	-0.069
-649.799	134.679	0.155	0.204
-648.784	350.480	0.112	-0.224
-647.770	155.612	-0.141	0.197
-646.755	-80.486	0.151	0.051
-645.741	315.535	-0.086	-0.165
-644.726	244.287	0.195	0.332
-643.711	227.966	0.086	-0.142
-642.697	774.474	0.063	-0.173
-641.682	-67.009	-0.093	-0.037
-640.668	0.148	-0.137	0.099
-639.653	800.000	-0.054	0.230
-638.638	-28.116	0.100	0.059
-637.624	-200.000	-0.039	-0.284
-636.609	34.427	0.087	-0.077
-635.595	-200.000	0.018	-0.092
-634.580	-152.868	-0.117	0.008
-633.565	35.966	-0.376	-0.335
-632.551	405.713	0.112	0.240
-631.536	-164.228	-0.409	0.019
-630.522	-83.638	-0.193	-0.062
-629.507	-159.216	-0.228	-0.013
-628.492	53.513	0.149	-0.145
-627.478	38.262	-0.257	0.231
-626.463	270.842	-0.049	-0.088
-625.449	-200.000	0.010	-0.167
-624.434	5.734	-0.054	-0.041
-623.419	6.464	-0.167	-0.126
-622.405	22.301	0.049	0.041
-621.390	-200.000	-0.037	-0.203
-620.376	32.207	-0.237	-0.207
-619.361	92.834	0.200	0.229
-618.346	508.519	-0.196	0.462
-617.332	152.642	0.119	0.164
-616.317	84.531	-0.093	0.103
-615.303	-200.000	0.034	-0.377
-614.288	-125.788	0.063	0.010
-613.273	430.878	-0.117	-0.255
-612.259	-135.572	0.305	0.037
-611.244	78.545	-0.154	-0.166
-610.230	-158.623	-0.026	-0.002
-609.215	-200.000	-0.010	-0.142
-608.201	-5.066	-0.143	0.099
-607.186	-125.064	0.365	-0.057
-606.171	60.870	-0.132	-0.133
-605.157	13.104	-0.145	-0.113
-604.142	651.751	-0.030	0.078
-603.128	290.413	0.022	-0.041
-602.113	127.784	-0.055	0.071
-601.098	-120.267	0.152	0.026
-600.084	-41.811	0.108	-0.056
-599.069	-200.000	0.001	0.155
-598.055	12.326	0.016	0.012
-597.040	130.021	0.146	0.189
-596.025	476.641	0.131	0.299
-595.011	-200.000	-0.009	-0.232
-593.996	85.723	0.168	-0.186
-592.982	-8.666	-0.129	0.088
-591.967	-200.000	0.003	0.136
-590.952	81.568	-0.180	-0.197
-589.938	-23.601	-0.221	-0.134
-588.923	-200.000	-0.051	0.312
-587.909	62.217	-0.084	-0.085
-586.894	800.000	0.138	-0.436
-585.879	86.846	-0.180	-0.201
-584.865	139.027	0.169	-0.224
-583.850	800.000	-0.069	0.301
-582.836	-150.408	-0.409	0.032
-581.821	341.432	0.179	-0.353
-580.806	88.508	0.080	-0.089
-579.792	30.844	0.169	-0.146
-578.777	100.278	0.049	-0.057
-577.763	800.000	-0.111	0.378
-576.748	-65.976	-0.167	0.067
-575.733	-167.137	-0.236	-0.010
-574.719	-107.550	-0.324	0.072
-573.704	-44.335	-0.222	0.112
-572.690	77.576	0.081	-0.087
-571.675	-200.000	0.020	-0.118
-570.661	-200.000	0.013	-0.340
-569.646	139.274	0.060	0.079
-568.631	386.966	-0.106	-0.221
-567.617	-200.000	-0.013	0.175
-566.602	-98.120	-0.325	-0.084
-565.588	-128.818	0.219	0.031
-564.573	-200.000	-0.022	0.274
-563.558	800.000	-0.086	0.300
-562.544	-130.144	-0.361	-0.050
-561.529	28.611	0.134	-0.115
-560.515	800.000	-0.005	-0.017
-559.500	-101.349	-0.173	0.043
-558.485	-66.808	-0.318	0.127
-557.471	204.247	0.034	-0.053
-556.456	-200.000	0.020	-0.129
-555.442	144.718	-0.074	0.100
-554.427	550.708	-0.174	0.422
-553.412	-200.000	0.019	-0.095
-552.398	-200.000	0.007	-0.147
-551.383	-107.253	-0.517	-0.115
-550.369	-89.955	0.319	-0.094
-549.354	63.029	0.224	-0.226
-548.339	-200.000	0.084	-0.422
-547.325	-84.075	-0.363	-0.116
-546.310	-54.375	-0.121	0.055
-545.296	800.000	-0.057	0.206
-544.281	-101.653	0.233	-0.057
-543.266	-200.000	-0.011	0.049
-542.252	-18.963	-0.152	-0.095
-541.237	-79.213	-0.248	-0.085
-540.223	-63.348	0.244	0.101
-539.208	-200.000	-0.013	0.369
-538.193	-79.967	-0.048	-0.016
-537.179	-200.000	-0.027	-0.314
-536.164	-21.122	-0.189	0.117
-535.150	-200.000	0.044	0.266
-534.135	-97.424	0.246	0.065
-533.121	-200.000	-0.016	0.355
-532.106	-110.557	0.081	-0.017
-531.091	223.797	0.056	0.092
-530.077	1.208	-0.260	0.188
-529.062	-200.000	0.032	0.277
-528.048	-110.558	0.125	-0.026
-527.033	-105.666	0.352	0.080
-526.018	511.538	0.044	-0.102
-525.004	800.000	0.091	-0.340
-523.989	280.184	0.090	-0.163
-522.975	-103.090	0.258	0.062
-521.960	-50.717	0.368	0.175
-520.945	-31.192	-0.222	-0.126
-519.931	10.508	-0.085	-0.065
-518.916	459.683	-0.086	-0.193
-517.902	-68.596	0.197	0.077
-516.887	-128.152	-0.173	-0.025
-515.872	51.143	-0.188	0.180
-514.858	58.939	0.061	0.061
-513.843	-80.817	-0.441	0.148
-512.829	73.330	-0.159	0.168
-511.814	23.408	-0.130	0.108
-510.799	-90.919	-0.280	-0.081
-509.785	-81.915	0.202	0.066
-508.770	-16.202	0.230	-0.147
-507.756	457.467	-0.129	-0.288
-506.741	800.000	-0.056	0.170
-505.726	-75.982	-0.016	-0.006
-504.712	-200.000	0.014	-0.149
-503.697	-67.645	0.167	-0.066
-502.683	116.007	0.111	0.137
-501.668	-200.000	-0.009	0.062
-500.653	157.758	-0.134	0.186
-499.639	174.328	-0.239	0.347
-498.624	-103.064	0.102	-0.024
-497.610	-53.565	-0.219	0.101
-496.595	177.023	0.030	0.044
-495.581	2.194	0.318	0.231
-494.566	246.753	0.065	-0.111
-493.551	800.000	-0.063	-0.251
-492.537	-7.161	-0.173	0.118
-491.522	-32.816	0.130	0.073
-490.508	-3.787	0.120	-0.084
-489.493	-165.124	0.241	0.011
-488.478	-11.045	0.166	-0.110
-487.464	-200.000	0.022	-0.234
-486.449	-200.000	-0.070	-0.335
-485.435	-69.143	-0.071	0.028
-484.420	-37.435	-0.366	-0.197
-483.405	-200.000	0.055	0.314
-482.391	508.166	0.035	-0.082
-481.376	800.000	-0.085	-0.278
-480.362	800.000	-0.056	-0.204
-479.347	684.199	-0.127	-0.334
-478.332	192.686	0.155	-0.236
-477.318	602.352	0.098	-0.245
-476.303	80.133	0.178	-0.193
-475.289	-118.121	0.241	-0.043
-474.274	105.095	-0.105	0.125
-473.259	-92.041	-0.255	0.073
-472.245	800.000	0.021	-0.088
-471.230	-133.980	0.162	0.020
-470.216	-200.000	0.089	0.392
-469.201	-53.922	0.049	0.023
-468.186	209.430	0.073	-0.115
-467.172	-148.279	0.029	0.002
-466.157	19.422	-0.149	0.120
-465.143	-30.803	-0.212	0.121
-464.128	-114.655	0.265	-0.051
-463.113	65.844	0.128	0.130
-462.099	49.742	0.050	0.048
-461.084	111.377	0.078	0.095
-460.070	-154.449	0.203	-0.014
-459.055	-136.870	0.124	-0.014
-458.040	193.400	0.160	-0.243
-457.026	34.303	-0.243	-0.214
-456.011	-200.000	-0.007	0.442
-454.997	337.634	-0.067	0.130
-453.982	-86.548	0.371	-0.114
-452.968	-200.000	0.015	-0.124
-451.953	-10.134	-0.160	0.107
-450.938	91.715	-0.250	0.283
-449.924	546.254	0.282	0.678
-448.909	-200.000	0.023	-0.124
-447.895	452.313	0.163	-0.362
-446.880	408.600	0.104	0.222
-445.865	69.781	0.297	0.308
-444.851	-139.262	-0.121	-0.013
-443.836	660.205	-0.080	0.208
-442.822	-103.649	0.102	-0.024
-441.807	-200.000	0.032	-0.303
-440.792	-107.450	0.072	0.016
-439.778	-200.000	0.071	0.336
-438.763	-200.000	0.001	-0.294
-437.749	29.170	0.255	0.218
-436.734	95.556	-0.195	0.224
-435.719	-95.041	0.412	0.112
-434.705	284.239	-0.201	0.363
-433.690	-22.014	0.096	-0.058
-432.676	-94.259	0.088	-0.024
-431.661	-200.000	0.247	-0.001
-430.646	-124.888	0.284	-0.044
-429.632	-200.000	-0.017	-0.386
-428.617	-95.409	0.156	-0.042
-427.603	-94.152	-0.092	-0.025
-426.588	771.173	0.037	-0.100
-425.573	344.228	0.184	-0.363
-424.559	65.701	-0.189	0.192
-423.544	2.122	0.258	0.187
-422.530	-200.000	-0.002	-0.361
-421.515	-70.094	0.228	0.087
-420.500	-102.166	0.199	-0.048
-419.486	300.318	-0.061	-0.112
-418.471	2.538	0.157	-0.114
-417.457	-200.000	-0.004	0.049
-416.442	-0.635	0.145	-0.103
-415.428	-200.000	0.051	-0.322
-414.413	-132.632	-0.256	0.033
-413.398	-104.701	-0.416	-0.096
-412.384	-141.941	-0.348	0.035
-411.369	-200.000	0.063	0.283
-410.355	-14.526	0.220	0.142
-409.340	-58.510	0.127	-0.055
-408.325	800.000	0.096	0.271
-407.311	-32.422	0.117	0.065
-406.296	-12.165	0.426	-0.280
-405.282	-99.309	-0.111	-0.028
-404.267	191.621	-0.045	-0.068
-403.252	-173.536	-0.375	-0.011
-402.238	-51.767	-0.414	0.193
-401.223	-75.096	0.254	-0.091
-400.209	364.344	0.164	-0.332
-399.194	375.693	-0.157	0.322
-398.179	-73.133	-0.362	0.133
-397.165	549.912	0.043	-0.103
-396.150	453.354	0.125	-0.277
-395.136	-182.386	0.181	0.003
-394.121	45.810	0.200	0.186
-393.106	-52.877	0.109	0.050
-392.092	-200.000	-0.008	0.144
-391.077	696.822	-0.106	0.279
-390.063	-58.771	-0.098	-0.043
-389.048	-114.802	0.124	-0.024
-388.033	44.651	-0.156	0.143
-387.019	93.187	0.205	0.233
-386.004	273.535	-0.034	-0.060
-384.990	30.726	0.101	-0.086
-383.975	-135.734	-0.356	-0.042
-382.960	-193.709	0.440	-0.004
-381.946	36.942	-0.242	-0.214
-380.931	306.062	-0.213	-0.398
-379.917	73.450	-0.076	-0.079
-378.902	-200.000	0.042	-0.268
-377.888	-103.896	-0.106	0.025
-376.873	93.038	0.039	0.045
-375.858	643.419	0.074	-0.190
-374.844	800.000	0.062	0.235
-373.829	175.796	-0.041	0.059
-372.815	-19.335	-0.257	-0.160
-371.800	800.000	-0.063	0.242
-370.785	-200.000	0.013	-0.117
-369.771	686.512	0.052	-0.136
-368.756	-4.095	-0.064	-0.045
-367.742	-200.000	-0.028	-0.190
-366.727	-111.938	-0.305	0.062
-365.712	800.000	0.055	-0.217
-364.698	-200.000	-0.003	-0.168
-363.683	-15.747	0.240	-0.153
-362.669	-99.211	0.159	-0.040
-361.654	-103.652	0.104	-0.025
-360.639	21.502	0.101	0.082
-359.625	-19.777	-0.337	-0.209
-358.610	-200.000	-0.053	0.243
-357.596	-63.180	0.180	0.074
-356.581	225.467	0.136	-0.221
-355.566	-171.447	-0.064	0.002
-354.552	-11.976	-0.077	-0.051
-353.537	374.538	-0.131	0.266
-352.523	-28.620	-0.183	0.105
-351.508	161.438	0.138	0.193
-350.493	155.888	0.090	0.124
-349.479	-100.740	0.265	-0.065
-348.464	35.119	-0.214	-0.188
-347.450	110.843	0.034	0.041
-346.435	-200.000	0.042	0.290
-345.420	-55.890	0.011	0.005
-344.406	39.488	-0.128	0.115
-343.391	-200.000	0.011	0.294
-342.377	190.238	-0.145	-0.218
-341.362	-65.886	0.159	0.064
-340.348	28.197	-0.243	-0.205
-339.333	158.396	-0.110	-0.153
-338.318	-25.473	-0.034	0.020
-337.304	326.717	0.140	0.268
-336.289	-0.121	-0.256	-0.182
-335.275	-5.592	-0.141	-0.097
-334.260	-200.000	-0.011	-0.163
-333.245	41.362	0.186	-0.168
-332.231	-200.000	-0.004	-0.437
-331.216	-105.509	0.370	0.084
-330.202	131.356	0.159	-0.205
-329.187	-200.000	-0.000	-0.137
-328.172	-65.202	-0.267	-0.108
-327.158	-121.399	-0.213	0.035
-326.143	330.054	0.026	0.051
-325.129	196.308	0.164	0.250
-324.114	123.407	0.106	0.133
-323.099	800.000	0.025	-0.077
-322.085	-150.849	0.181	0.014
-321.070	-193.748	-0.253	0.002
-320.056	-60.991	-0.073	-0.031
-319.041	381.788	0.124	0.255
-318.026	-74.762	0.122	0.044
-317.012	17.517	0.225	0.179
-315.997	363.582	0.042	0.084
-314.983	57.006	-0.157	-0.153
-313.968	-200.000	0.008	-0.079
-312.953	-49.179	0.247	-0.118
-311.939	168.602	-0.259	0.370
-310.924	-200.000	0.021	0.127
-309.910	-45.151	0.145	0.072
-308.895	79.710	0.066	-0.071
-307.880	71.250	-0.077	0.080
-306.866	651.608	0.029	0.074
-305.851	-58.642	-0.196	0.085
-304.837	-172.314	0.086	-0.003
-303.822	225.497	-0.114	0.185
-302.807	-17.976	-0.309	0.194
-301.793	168.676	0.109	-0.155
-300.778	210.234	-0.051	0.079
-299.764	24.472	-0.093	-0.077
-298.749	800.000	0.104	0.293
-297.735	-97.168	0.109	0.028
-296.720	74.784	0.180	0.189
-295.705	116.087	0.160	-0.195
-294.691	-160.436	-0.416	0.022
-293.676	-6.813	-0.398	-0.270
-292.662	0.253	0.248	-0.177
-291.647	48.080	-0.153	-0.143
-290.632	-200.000	0.029	0.258
-289.618	128.958	0.147	0.187
-288.603	685.853	-0.027	-0.072
-287.589	-126.386	-0.257	0.038
-286.574	-136.196	0.111	0.013
-285.559	92.529	-0.218	0.246
-284.545	-200.000	0.040	-0.424
-283.530	800.000	-0.053	0.184
-282.516	690.811	0.073	0.192
-281.501	-200.000	0.012	0.070
-280.486	-200.000	-0.013	-0.235
-279.472	16.907	-0.094	-0.075
-278.457	192.206	0.147	-0.222
-277.443	17.297	-0.265	-0.210
-276.428	-200.000	0.033	0.270
-275.413	-67.232	-0.361	-0.142
-274.399	-120.938	-0.207	0.035
-273.384	-200.000	0.047	0.223
-272.370	67.616	0.203	0.207
-271.355	-107.600	0.023	0.005
-270.340	-26.839	-0.015	-0.009
-269.326	-200.000	-0.000	0.001
-268.311	594.573	0.036	-0.088
-267.297	69.749	-0.174	-0.179
-266.282	-131.597	0.202	-0.026
-265.267	-200.000	-0.000	-0.123
-264.253	75.762	-0.169	0.178
-263.238	-200.000	-0.011	-0.314
-262.224	-39.519	0.118	0.062
-261.209	-35.666	0.392	0.212
-260.195	-200.000	0.051	0.274
-259.180	23.053	-0.176	-0.144
-258.165	800.000	0.075	0.288
-257.151	-200.000	-0.007	0.046
-256.136	-90.092	0.209	-0.061
-255.122	366.034	0.132	0.265
-254.107	800.000	0.063	0.237
-253.092	458.095	0.018	0.039
-252.078	141.897	0.092	-0.122
-251.063	-37.327	0.092	0.049
-250.049	-200.000	0.011	0.082
-249.034	748.009	0.075	0.201
-248.019	-70.798	0.372	-0.140
-247.005	-145.183	-0.244	0.022
-245.990	-118.014	-0.372	-0.066
-244.976	-90.469	0.241	-0.070
-243.961	49.654	-0.236	0.222
-242.946	138.125	0.101	-0.132
-241.932	800.000	0.068	0.279
-240.917	-49.251	-0.268	0.128
-239.903	299.077	0.138	0.254
-238.888	760.472	0.092	-0.248
-237.873	-200.000	0.014	0.126
-236.859	95.531	0.085	0.096
-235.844	413.400	-0.180	0.382
-234.830	240.666	0.106	-0.176
-233.815	-144.553	-0.141	0.013
-232.800	-63.963	-0.232	0.095
-231.786	-200.000	0.014	0.109
-230.771	-3.269	0.140	-0.097
-229.757	120.491	0.143	-0.177
-228.742	-125.465	-0.307	0.046
-227.727	800.000	-0.118	-0.345
-226.713	263.264	-0.085	-0.148
-225.698	25.945	-0.137	-0.113
-224.684	80.226	0.180	0.192
-223.669	800.000	0.078	0.291
-222.655	-200.000	0.009	-0.234
-221.640	-36.826	0.293	0.157
-220.625	-68.283	0.106	-0.041
-219.611	-68.659	-0.206	0.080
-218.596	-70.403	0.292	-0.110
-217.582	725.852	-0.120	-0.319
-216.567	151.352	0.177	0.241
-215.552	-74.717	0.282	0.101
-214.538	79.983	-0.130	-0.139
-213.523	226.525	-0.090	-0.145
-212.509	800.000	-0.058	-0.211
-211.494	694.365	-0.063	-0.165
-210.479	96.291	-0.149	0.169
-209.465	430.726	0.161	0.347
-208.450	172.238	0.294	-0.421
-207.436	697.810	0.081	-0.212
-206.421	-54.689	-0.283	0.128
-205.406	800.000	-0.026	0.106
-204.392	800.000	-0.035	0.120
-203.377	-200.000	0.045	-0.251
-202.363	-200.000	-0.031	0.155
-201.348	-145.483	0.443	-0.040
-200.333	57.259	0.227	0.220
-199.319	244.630	0.095	-0.158
-198.304	-200.000	-0.009	-0.102
-197.290	312.687	0.071	-0.133
-196.275	-40.096	-0.398	-0.206
-195.260	-103.753	0.246	0.057
-194.246	-105.977	0.102	0.023
-193.231	-135.979	-0.240	0.028
-192.217	-200.000	0.031	0.388
-191.202	-100.333	0.112	-0.028
-190.187	30.651	0.124	-0.105
-189.173	800.000	0.031	-0.102
-188.158	1.970	0.090	0.064
-187.144	-156.359	0.087	0.005
-186.129	-160.243	-0.319	0.017
-185.114	15.880	0.103	0.081
-184.100	553.849	0.068	0.163
-183.085	-171.079	-0.161	-0.005
-182.071	-169.599	0.181	-0.007
-181.056	71.589	0.084	-0.087
-180.042	130.340	-0.092	0.117
-179.027	-11.049	-0.110	0.072
-178.012	67.477	0.022	0.022
-176.998	741.441	-0.091	-0.243
-175.983	-45.738	0.299	0.147
-174.969	48.017	-0.075	0.070
-173.954	-50.032	-0.271	0.128
-172.939	800.000	0.098	0.289
-171.925	111.725	0.144	-0.173
-170.910	83.438	0.074	0.081
-169.896	800.000	-0.039	-0.116
-168.881	122.559	0.114	0.142
-167.866	-97.047	-0.288	0.075
-166.852	343.250	-0.031	-0.061
-165.837	-143.583	-0.141	-0.013
-164.823	6.781	0.231	0.171
-163.808	-200.000	0.004	-0.130
-162.793	2.931	-0.037	-0.026
-161.779	92.966	0.139	0.156
-160.764	36.050	-0.067	-0.059
-159.750	-97.457	0.283	0.073
-158.735	273.006	-0.073	0.128
-157.720	800.000	-0.147	-0.452
-156.706	775.202	-0.103	-0.279
-155.691	-200.000	0.015	-0.146
-154.677	68.905	0.144	-0.147
-153.662	-67.984	-0.158	-0.061
-152.647	124.637	-0.089	0.111
-151.633	287.087	0.038	-0.069
-150.618	-200.000	-0.042	0.220
-149.604	565.450	-0.035	-0.084
-148.589	507.897	-0.061	-0.141
-147.574	-133.872	-0.174	0.021
-146.560	111.563	0.036	-0.043
-145.545	-101.487	0.114	-0.027
-144.531	-115.424	0.174	-0.033
-143.516	-200.000	-0.011	-0.117
-142.502	125.646	-0.042	-0.052
-141.487	-135.774	-0.443	-0.052
-140.472	-200.000	0.096	0.554
-139.458	448.924	0.162	-0.355
-138.443	-75.477	0.257	0.091
-137.429	-143.382	0.280	-0.027
-136.414	800.000	-0.166	-0.493
-135.399	-137.883	-0.304	0.034
-134.385	-132.421	0.277	-0.036
-133.370	24.378	-0.218	-0.179
-132.356	-94.292	0.240	-0.065
-131.341	-20.677	0.238	0.145
-130.326	-200.000	-0.028	-0.129
-129.312	37.783	-0.141	0.125
-128.297	161.426	-0.199	-0.276
-127.283	102.450	-0.033	0.038
-126.268	338.778	0.154	0.298
-125.253	63.610	-0.213	-0.212
-124.239	-82.700	0.160	0.051
-123.224	753.046	0.010	-0.026
-122.210	-126.515	0.070	-0.010
-121.195	-75.450	0.159	-0.056
