DTS Sentinel unit serial number:	SN413079Multiplexer serial number:	ORYXHardware model number:	OX4-SRSoftware version number:	ORYX F/W v4.00 Oryx Data Collector v3.7.2.0data status	okinstallation	princeton_trtdifferential loss correction	single-endedforward channel	channel 4reverse channel	N/Adate	2019/09/11time	04:35:11forward acquisition time	60.00reverse acquisition time	0.00gamma	496.2192k internal	0.2315k external	0.2315temperature offset calibration	0.9947default loss term (dB/km)	0.3790temperature slope calibration	1.0000multiplexer offset coefficient	1.0000multiplexer slope coefficient	1.0000fibre end	0.00T internal ref (°C)	29.52T ext. ref 1 (°C)	-0.29T ext. ref 2 (°C)	23.39length (m)	temperature (°C)	Stokes	anti-Stokes-747.200	214.303	-0.098	-0.157
-746.185	299.481	-0.071	-0.133
-745.171	76.328	0.118	-0.127
-744.156	-77.924	-0.111	-0.039
-743.142	308.364	-0.072	-0.136
-742.127	51.195	-0.273	0.263
-741.112	-95.469	0.091	-0.025
-740.098	132.281	-0.248	0.324
-739.083	68.235	-0.156	0.162
-738.069	-200.000	0.007	-0.180
-737.054	-87.586	0.084	0.026
-736.039	-29.575	0.065	0.038
-735.025	-85.502	0.222	0.070
-734.010	-50.540	-0.408	-0.195
-732.996	5.216	-0.152	-0.113
-731.981	800.000	-0.056	-0.183
-730.966	-200.000	0.004	-0.131
-729.952	-200.000	-0.078	-0.519
-728.937	-200.000	0.032	0.173
-727.923	55.064	-0.153	-0.150
-726.908	-144.758	-0.363	0.034
-725.894	-69.003	0.386	-0.151
-724.879	134.966	-0.075	0.098
-723.864	-134.260	-0.594	0.074
-722.850	-89.957	-0.174	-0.051
-721.835	540.294	-0.086	0.208
-720.821	-99.406	-0.055	-0.014
-719.806	800.000	0.080	0.250
-718.791	406.289	0.010	-0.022
-717.777	185.621	-0.171	-0.258
-716.762	-100.563	0.136	0.034
-715.748	-21.243	-0.222	0.137
-714.733	-76.030	-0.280	-0.100
-713.718	-121.216	0.364	0.062
-712.704	63.859	-0.153	0.155
-711.689	-58.399	0.132	-0.058
-710.675	168.391	-0.300	0.432
-709.660	355.010	-0.133	0.268
-708.645	42.823	0.320	0.295
-707.631	11.615	0.118	-0.091
-706.616	539.866	-0.124	-0.298
-705.602	167.609	-0.104	0.150
-704.587	-113.851	-0.090	0.018
-703.572	-82.208	-0.154	-0.051
-702.558	-91.831	-0.126	-0.036
-701.543	479.766	-0.065	-0.150
-700.529	219.921	-0.091	-0.147
-699.514	-49.667	0.099	0.047
-698.499	-200.000	0.024	0.384
-697.485	-200.000	0.034	0.209
-696.470	-2.420	-0.362	-0.256
-695.456	-50.220	0.045	0.021
-694.441	-171.214	-0.298	-0.010
-693.426	310.901	-0.092	-0.174
-692.412	-200.000	0.012	-0.291
-691.397	631.717	-0.067	0.171
-690.383	373.495	-0.075	0.153
-689.368	414.493	0.074	-0.159
-688.354	-50.837	0.171	0.081
-687.339	-79.124	-0.134	0.046
-686.324	-29.443	-0.307	0.177
-685.310	219.435	-0.015	-0.024
-684.295	-200.000	-0.034	-0.209
-683.281	-65.163	-0.183	0.074
-682.266	800.000	0.078	0.306
-681.251	51.907	0.274	0.263
-680.237	207.626	-0.183	-0.289
-679.222	50.303	-0.142	0.136
-678.208	-132.202	0.328	0.043
-677.193	800.000	-0.082	0.250
-676.178	306.182	0.083	0.156
-675.164	341.563	-0.161	0.318
-674.149	412.720	-0.171	0.368
-673.135	89.380	0.140	-0.158
-672.120	-200.000	-0.033	-0.208
-671.105	175.965	-0.204	-0.300
-670.091	-200.000	0.005	0.239
-669.076	-88.693	-0.165	-0.049
-668.062	-200.000	-0.030	-0.211
-667.047	-122.929	-0.215	0.035
-666.032	-77.871	0.119	0.041
-665.018	-68.127	0.205	-0.081
-664.003	85.665	0.029	-0.032
-662.989	-200.000	0.013	-0.115
-661.974	45.843	0.321	-0.300
-660.959	-102.303	-0.308	-0.075
-659.945	82.249	-0.111	-0.122
-658.930	-1.332	-0.289	-0.206
-657.916	800.000	0.059	-0.184
-656.901	-200.000	-0.015	-0.232
-655.886	42.906	0.077	0.071
-654.872	-105.077	-0.110	0.025
-653.857	-150.096	-0.271	-0.021
-652.843	119.353	0.126	0.157
-651.828	0.431	-0.273	0.197
-650.814	415.138	-0.085	-0.183
-649.799	-75.010	0.188	0.068
-648.784	-200.000	-0.000	-0.129
-647.770	-59.801	-0.116	-0.050
-646.755	-41.564	-0.150	0.078
-645.741	-200.000	-0.035	-0.261
-644.726	-51.212	0.158	0.075
-643.711	448.832	-0.062	0.138
-642.697	-11.896	-0.334	0.221
-641.682	-71.511	-0.280	0.106
-640.668	-40.138	0.121	0.064
-639.653	167.898	-0.115	0.165
-638.638	-141.881	0.049	-0.005
-637.624	-101.970	-0.182	0.044
-636.609	-110.701	0.087	0.018
-635.595	100.386	0.155	0.182
-634.580	-13.924	-0.141	-0.092
-633.565	-99.199	0.234	-0.060
-632.551	307.186	-0.015	0.028
-631.536	-195.912	-0.339	-0.002
-630.522	41.327	-0.247	0.226
-629.507	33.248	-0.088	0.077
-628.492	281.909	-0.011	0.020
-627.478	-66.265	0.139	-0.056
-626.463	775.407	-0.032	0.087
-625.449	-91.495	-0.117	0.034
-624.434	101.630	-0.230	-0.271
-623.419	-200.000	0.017	0.340
-622.405	-142.057	0.172	0.017
-621.390	-14.314	-0.107	-0.070
-620.376	800.000	-0.055	-0.169
-619.361	800.000	-0.081	0.233
-618.346	-150.115	-0.100	0.008
-617.332	44.804	0.042	-0.039
-616.317	139.049	0.075	0.100
-615.303	-33.012	0.094	0.053
-614.288	-200.000	-0.034	-0.292
-613.273	800.000	-0.049	0.165
-612.259	-200.000	0.014	0.146
-611.244	469.566	0.081	0.184
-610.230	412.143	0.088	-0.189
-609.215	247.396	-0.099	0.169
-608.201	732.008	-0.053	-0.143
-607.186	32.627	-0.378	0.329
-606.171	800.000	-0.098	-0.305
-605.157	-200.000	-0.014	-0.189
-604.142	800.000	-0.043	-0.128
-603.128	-200.000	0.018	0.104
-602.113	76.312	0.226	0.241
-601.098	-70.235	-0.122	0.047
-600.084	-200.000	0.262	-0.001
-599.069	5.953	-0.248	-0.185
-598.055	-42.285	-0.043	0.022
-597.040	280.311	0.137	-0.247
-596.025	38.542	0.166	0.149
-595.011	60.048	0.108	0.108
-593.996	427.204	0.199	-0.432
-592.982	122.546	-0.131	-0.165
-591.967	-43.576	0.250	-0.127
-590.952	-200.000	0.006	-0.091
-589.938	-23.901	0.214	-0.129
-588.923	116.837	0.248	-0.307
-587.909	145.597	-0.294	0.396
-586.894	-155.090	0.177	0.012
-585.879	69.963	-0.053	0.055
-584.865	800.000	-0.071	0.249
-583.850	-200.000	0.007	0.405
-582.836	188.160	0.223	-0.335
-581.821	26.697	-0.293	0.247
-580.806	129.276	-0.084	-0.108
-579.792	24.886	-0.150	-0.125
-578.777	226.640	-0.051	0.084
-577.763	759.068	0.106	-0.288
-576.748	90.714	0.231	0.260
-575.733	-157.063	-0.243	-0.015
-574.719	-30.374	0.094	-0.053
-573.704	800.000	-0.042	-0.143
-572.690	220.975	-0.031	-0.050
-571.675	-119.059	-0.245	-0.043
-570.661	570.617	0.096	-0.234
-569.646	-16.493	0.047	-0.030
-568.631	-34.938	0.314	-0.172
-567.617	-88.188	-0.213	-0.064
-566.602	100.341	0.046	-0.054
-565.588	-111.690	0.193	-0.039
-564.573	-88.273	-0.042	0.013
-563.558	124.350	0.161	-0.204
-562.544	800.000	-0.083	-0.243
-561.529	75.725	-0.334	-0.355
-560.515	-200.000	-0.006	0.093
-559.500	-33.291	-0.188	-0.105
-558.485	-103.681	-0.281	-0.066
-557.471	-124.428	0.111	-0.017
-556.456	-200.000	-0.033	-0.150
-555.442	38.696	-0.136	0.123
-554.427	107.409	0.244	-0.292
-553.412	-103.483	-0.442	-0.105
-552.398	-92.530	0.046	-0.013
-551.383	-200.000	-0.035	-0.181
-550.369	800.000	0.054	-0.214
-549.354	27.295	-0.202	-0.171
-548.339	-134.412	0.187	0.023
-547.325	-70.447	0.472	-0.180
-546.310	-91.621	-0.334	0.096
-545.296	184.169	0.131	0.195
-544.281	-70.071	-0.236	-0.090
-543.266	118.426	0.095	-0.117
-542.252	-117.839	0.222	-0.040
-541.237	-200.000	-0.000	0.097
-540.223	-149.646	0.143	-0.011
-539.208	8.330	-0.296	0.223
-538.193	276.229	-0.069	0.124
-537.179	-23.431	0.275	-0.166
-536.164	16.771	0.109	0.087
-535.150	-64.278	0.210	-0.086
-534.135	-28.436	-0.200	0.116
-533.121	32.665	0.211	-0.183
-532.106	-132.787	-0.144	-0.018
-531.091	-200.000	0.007	-0.200
-530.077	-83.901	0.205	-0.065
-529.062	-200.000	0.088	0.000
-528.048	129.153	-0.237	-0.304
-527.033	-127.930	-0.193	0.028
-526.018	-98.600	0.377	0.097
-525.004	302.118	-0.115	-0.214
-523.989	-164.975	-0.385	-0.017
-522.975	689.643	0.175	0.459
-521.960	218.862	-0.221	0.354
-520.945	231.807	0.044	0.073
-519.931	68.045	-0.231	-0.237
-518.916	-200.000	-0.015	-0.260
-517.902	-124.643	-0.261	0.041
-516.887	246.840	-0.169	0.286
-515.872	-75.303	0.270	-0.097
-514.858	89.028	-0.085	0.095
-513.843	-129.077	0.237	0.033
-512.829	-200.000	-0.014	-0.088
-511.814	800.000	0.034	-0.110
-510.799	110.653	-0.065	-0.078
-509.785	800.000	-0.055	-0.202
-508.770	205.936	-0.095	-0.148
-507.756	29.093	-0.078	-0.066
-506.741	-41.874	0.192	0.099
-505.726	39.413	-0.382	-0.343
-504.712	164.291	-0.050	0.070
-503.697	-16.462	0.166	-0.106
-502.683	110.210	-0.120	-0.144
-501.668	136.084	0.261	0.342
-500.653	206.419	-0.135	0.211
-499.639	-96.842	-0.086	0.023
-498.624	288.881	-0.126	0.229
-497.610	301.270	-0.108	0.200
-496.595	263.284	-0.102	0.178
-495.581	729.998	0.026	0.070
-494.566	167.456	0.128	-0.183
-493.551	33.359	0.381	0.332
-492.537	-37.326	0.153	-0.082
-491.522	607.640	-0.069	-0.173
-490.508	-200.000	-0.009	0.092
-489.493	70.773	-0.105	-0.109
-488.478	-160.758	0.178	0.009
-487.464	-200.000	0.003	-0.166
-486.449	800.000	-0.029	0.103
-485.435	-84.502	-0.397	-0.126
-484.420	341.210	-0.030	-0.059
-483.405	800.000	0.049	-0.149
-482.391	197.132	0.113	0.173
-481.376	-131.413	0.187	0.025
-480.362	-115.339	0.120	-0.023
-479.347	99.511	0.070	-0.081
-478.332	-103.006	0.140	0.033
-477.318	84.085	-0.213	0.233
-476.303	800.000	-0.043	0.125
-475.289	-68.104	-0.324	-0.126
-474.274	35.703	0.073	-0.065
-473.259	755.282	0.015	0.041
-472.245	-169.525	-0.298	-0.011
-471.230	198.669	-0.141	-0.217
-470.216	51.963	-0.262	0.250
-469.201	-14.338	0.289	-0.186
-468.186	-11.297	-0.101	-0.067
-467.172	650.937	-0.283	0.727
-466.157	800.000	0.068	0.206
-465.143	-200.000	0.000	0.008
-464.128	-200.000	-0.002	-0.122
-463.113	372.523	-0.153	-0.312
-462.099	800.000	-0.098	-0.343
-461.084	139.881	0.248	0.327
-460.070	784.442	0.039	0.108
-459.055	402.677	-0.099	0.209
-458.040	225.937	-0.114	-0.186
-457.026	-20.357	0.076	0.047
-456.011	800.000	-0.115	-0.374
-454.997	221.777	-0.146	0.235
-453.982	-58.495	0.197	0.086
-452.968	-141.692	-0.276	0.028
-451.953	8.789	0.012	0.009
-450.938	800.000	-0.114	-0.332
-449.924	-84.770	0.104	0.033
-448.909	-12.114	0.076	-0.050
-447.895	-120.264	-0.145	-0.025
-446.880	220.508	0.112	-0.180
-445.865	-200.000	-0.008	-0.217
-444.851	358.022	0.068	-0.136
-443.836	-200.000	0.001	-0.245
-442.822	-200.000	-0.039	-0.252
-441.807	-200.000	-0.001	0.284
-440.792	137.414	-0.070	-0.092
-439.778	433.826	0.105	0.228
-438.763	-200.000	-0.022	-0.208
-437.749	338.600	-0.015	-0.029
-436.734	800.000	0.044	0.130
-435.719	800.000	0.049	0.137
-434.705	164.919	-0.125	0.176
-433.690	-30.414	0.160	-0.091
-432.676	-74.831	-0.339	0.122
-431.661	356.537	-0.108	-0.216
-430.646	-200.000	-0.031	-0.160
-429.632	40.165	-0.338	0.304
-428.617	-43.977	-0.028	0.014
-427.603	800.000	-0.134	-0.422
-426.588	-164.426	-0.187	0.009
-425.573	50.505	-0.172	0.163
-424.559	800.000	0.053	0.202
-423.544	492.474	-0.157	0.360
-422.530	75.912	0.334	0.354
-421.515	420.376	-0.136	-0.292
-420.500	-80.363	0.185	-0.062
-419.486	107.583	-0.050	0.060
-418.471	138.771	-0.065	-0.085
-417.457	-91.117	0.187	-0.054
-416.442	7.624	0.162	0.122
-415.428	-20.831	0.195	0.120
-414.413	310.482	0.165	-0.309
-413.398	-34.728	-0.117	-0.064
-412.384	800.000	-0.064	-0.220
-411.369	-125.333	0.088	-0.013
-410.355	800.000	-0.092	0.269
-409.340	-16.672	-0.273	0.173
-408.325	663.583	0.085	-0.219
-407.311	-68.109	0.291	-0.113
-406.296	8.502	-0.267	-0.201
-405.282	3.894	-0.440	-0.322
-404.267	6.274	-0.104	0.077
-403.252	283.897	0.204	0.366
-402.238	145.221	0.265	-0.355
-401.223	-163.406	0.189	0.009
-400.209	180.324	-0.050	-0.073
-399.194	29.704	0.093	-0.079
-398.179	663.128	-0.016	-0.042
-397.165	47.342	0.058	-0.054
-396.150	-116.054	-0.251	0.047
-395.136	-200.000	0.059	0.361
-394.121	800.000	0.088	0.357
-393.106	800.000	0.046	-0.142
-392.092	-200.000	0.007	0.129
-391.077	29.804	0.258	0.219
-390.063	56.816	-0.198	-0.193
-389.048	172.144	-0.148	0.212
-388.033	-200.000	-0.001	0.109
-387.019	-200.000	-0.076	0.412
-386.004	356.134	-0.026	-0.051
-384.990	734.955	-0.067	0.179
-383.975	-115.574	0.150	0.028
-382.960	800.000	0.037	-0.108
-381.946	-108.423	0.350	-0.075
-380.931	-105.456	-0.258	-0.059
-379.917	-200.000	0.027	-0.342
-378.902	302.876	0.086	0.158
-377.888	-123.034	-0.472	0.076
-376.873	436.537	0.087	0.189
-375.858	-27.936	-0.222	0.128
-374.844	-118.060	0.116	0.021
-373.829	-17.790	0.139	0.087
-372.815	800.000	0.041	-0.159
-371.800	258.423	-0.177	0.305
-370.785	784.530	-0.062	-0.170
-369.771	33.748	0.104	0.090
-368.756	3.473	-0.323	-0.235
-367.742	5.425	0.082	-0.060
-366.727	-157.264	-0.272	0.016
-365.712	-92.979	0.238	-0.066
-364.698	-64.225	-0.033	-0.013
-363.683	3.660	0.131	0.095
-362.669	504.944	-0.089	-0.206
-361.654	399.704	0.150	0.313
-360.639	41.318	0.140	0.126
-359.625	-129.890	-0.146	0.020
-358.610	-79.585	-0.224	0.076
-357.596	-127.751	0.377	-0.054
-356.581	469.440	-0.078	0.175
-355.566	-200.000	0.032	0.219
-354.552	-51.308	-0.319	-0.149
-353.537	18.584	0.218	-0.174
-352.523	800.000	-0.059	0.173
-351.508	-200.000	-0.003	-0.151
-350.493	-24.567	-0.051	0.030
-349.479	-6.525	0.337	-0.229
-348.464	-200.000	0.018	0.165
-347.450	9.186	-0.059	0.045
-346.435	-114.416	-0.148	-0.028
-345.420	84.186	0.254	-0.277
-344.406	467.444	-0.060	0.133
-343.391	100.292	-0.164	0.189
-342.377	-153.966	0.265	-0.018
-341.362	-140.630	0.290	0.030
-340.348	60.187	0.093	0.091
-339.333	-200.000	-0.061	-0.288
-338.318	239.344	-0.079	-0.132
-337.304	-200.000	-0.058	0.306
-336.289	-139.577	0.307	-0.033
-335.275	-61.762	0.044	0.018
-334.260	-103.883	-0.107	0.025
-333.245	62.587	-0.104	0.104
-332.231	-200.000	0.006	0.039
-331.216	-15.657	0.423	0.269
-330.202	352.242	0.079	-0.157
-329.187	-200.000	0.023	-0.462
-328.172	-42.883	0.291	-0.148
-327.158	-90.545	0.305	0.088
-326.143	-136.105	-0.313	0.037
-325.129	-200.000	0.031	-0.521
-324.114	38.195	-0.193	-0.171
-323.099	-69.802	0.363	-0.138
-322.085	-22.121	-0.373	0.226
-321.070	-123.478	0.166	0.026
-320.056	60.829	0.212	-0.210
-319.041	-175.136	-0.164	0.005
-318.026	268.887	-0.104	-0.181
-317.012	-125.711	-0.425	-0.064
-315.997	19.821	0.142	-0.114
-314.983	571.088	0.072	-0.176
-313.968	-109.612	0.334	0.070
-312.953	-49.780	-0.214	0.101
-311.939	-0.380	0.292	0.207
-310.924	159.713	-0.025	-0.034
-309.910	85.927	0.112	0.123
-308.895	-200.000	0.004	0.150
-307.880	-68.706	0.284	0.109
-306.866	-200.000	-0.021	0.159
-305.851	-200.000	-0.012	0.310
-304.837	8.123	0.287	-0.215
-303.822	-34.545	-0.146	-0.079
-302.807	-157.384	0.202	0.012
-301.793	-31.078	0.211	-0.118
-300.778	-200.000	0.019	-0.276
-299.764	305.028	0.060	0.111
-298.749	128.423	0.159	-0.201
-297.735	242.601	0.160	0.267
-296.720	47.530	-0.130	-0.121
-295.705	800.000	0.045	-0.175
-294.691	-155.809	0.167	0.011
-293.676	386.722	-0.084	-0.172
-292.662	206.097	0.086	0.133
-291.647	310.187	-0.028	0.052
-290.632	148.599	-0.150	-0.202
-289.618	203.777	0.152	0.234
-288.603	-155.381	0.280	0.018
-287.589	110.308	0.216	-0.258
-286.574	-150.284	0.128	-0.010
-285.559	119.124	-0.073	0.089
-284.545	194.894	-0.132	-0.199
-283.530	800.000	-0.021	-0.082
-282.516	-200.000	0.006	0.123
-281.501	-140.780	0.272	-0.028
-280.486	541.374	0.184	0.437
-279.472	-188.451	-0.231	-0.003
-278.457	149.689	0.110	0.149
-277.443	133.293	0.209	0.269
-276.428	-200.000	-0.027	0.239
-275.413	-108.708	-0.133	0.028
-274.399	-199.646	0.244	-0.001
-273.384	50.848	0.104	0.098
-272.370	39.366	-0.089	0.079
-271.355	64.108	-0.163	0.163
-270.340	30.538	0.309	0.263
-269.326	-200.000	-0.032	0.549
-268.311	-200.000	0.037	0.282
-267.297	-200.000	0.293	-0.000
-266.282	-47.979	-0.193	-0.093
-265.267	485.326	-0.028	-0.064
-264.253	-76.948	0.401	0.139
-263.238	800.000	-0.075	-0.210
-262.224	-55.813	-0.328	-0.145
-261.209	58.961	-0.315	0.308
-260.195	-168.953	0.213	-0.008
-259.180	247.336	0.145	-0.244
-258.165	-200.000	0.002	0.243
-257.151	409.038	-0.164	-0.346
-256.136	324.608	0.062	0.118
-255.122	-200.000	0.111	-0.528
-254.107	5.910	-0.295	0.217
-253.092	-97.525	-0.235	-0.061
-252.078	-200.000	0.004	0.186
-251.063	5.101	-0.055	0.041
-250.049	-86.134	0.232	0.071
-249.034	-106.672	0.351	-0.078
-248.019	-98.636	-0.226	-0.057
-247.005	-200.000	-0.029	-0.515
-245.990	-200.000	-0.015	-0.168
-244.976	-119.187	0.125	-0.022
-243.961	728.617	-0.103	0.274
-242.946	-200.000	-0.051	0.274
-241.932	-200.000	0.028	-0.237
-240.917	-30.976	-0.281	-0.158
-239.903	-200.000	0.000	-0.204
-238.888	67.902	-0.073	0.074
-237.873	-156.435	0.087	-0.005
-236.859	-99.652	-0.311	0.077
-235.844	-111.760	-0.321	-0.065
-234.830	-200.000	0.064	0.464
-233.815	-97.260	-0.418	-0.108
-232.800	-200.000	-0.014	-0.346
-231.786	137.819	-0.028	-0.036
-230.771	6.696	0.061	0.045
-229.757	-120.335	0.293	0.050
-228.742	-147.607	-0.177	0.015
-227.727	-200.000	-0.038	0.299
-226.713	-200.000	-0.020	-0.158
-225.698	124.305	0.241	0.301
-224.684	-19.908	0.180	0.110
-223.669	116.380	-0.323	0.393
-222.655	10.222	0.074	-0.056
-221.640	-200.000	0.009	0.087
-220.625	-200.000	-0.019	-0.088
-219.611	-112.876	-0.207	0.041
-218.596	-17.258	0.384	0.240
-217.582	175.587	0.093	0.135
-216.567	-200.000	-0.016	-0.097
-215.552	203.203	0.203	-0.311
-214.538	-114.603	-0.533	0.101
-213.523	32.981	0.108	-0.093
-212.509	652.013	0.048	0.123
-211.494	-83.104	-0.178	0.057
-210.479	-103.789	0.268	0.062
-209.465	-112.055	0.244	-0.049
-208.450	63.020	0.106	0.105
-207.436	-55.944	-0.181	-0.080
-206.421	800.000	0.040	-0.170
-205.406	59.200	0.053	0.052
-204.392	-152.244	0.307	0.022
-203.377	217.140	0.066	0.105
-202.363	184.175	-0.030	-0.044
-201.348	58.630	-0.140	0.136
-200.333	-12.514	0.126	0.081
-199.319	-6.464	0.154	-0.104
-198.304	299.346	0.149	0.272
-197.290	800.000	0.093	0.266
-196.275	-142.262	0.285	-0.028
-195.260	-43.722	-0.076	-0.038
-194.246	95.886	-0.088	0.100
-193.231	400.639	-0.019	-0.039
-192.217	473.803	-0.059	-0.132
-191.202	-128.497	-0.359	-0.051
-190.187	-200.000	-0.008	-0.059
-189.173	-200.000	-0.073	0.344
-188.158	91.898	-0.071	-0.080
-187.144	-40.239	0.220	0.114
-186.129	158.518	-0.234	-0.322
-185.114	338.396	0.144	-0.278
-184.100	363.573	0.097	-0.193
-183.085	5.386	-0.325	0.238
-182.071	340.440	0.104	-0.202
-181.056	204.608	0.134	-0.206
-180.042	-56.985	-0.329	0.144
-179.027	-65.352	0.245	0.098
-178.012	-200.000	0.040	0.231
-176.998	489.875	-0.143	-0.324
-175.983	-200.000	0.024	0.149
-174.969	-136.505	-0.178	0.020
-173.954	254.624	0.167	0.283
-172.939	-120.316	-0.141	0.024
-171.925	265.793	0.311	-0.538
-170.910	-200.000	-0.033	0.257
-169.896	31.992	0.251	0.215
-168.881	-60.919	-0.181	-0.076
-167.866	259.027	-0.038	0.064
-166.852	-8.048	-0.090	-0.060
-165.837	-96.022	0.160	-0.042
-164.823	209.073	-0.103	-0.159
-163.808	-200.000	0.021	0.329
-162.793	-49.155	0.142	0.067
-161.779	-200.000	-0.047	-0.251
-160.764	697.030	-0.089	-0.232
-159.750	-35.930	-0.163	0.087
-158.735	-37.411	-0.091	0.048
-157.720	-200.000	0.020	0.188
-156.706	106.634	-0.175	-0.206
-155.691	800.000	0.065	-0.272
-154.677	204.697	0.108	-0.166
-153.662	525.538	0.087	0.203
-152.647	-87.969	0.184	0.055
-151.633	-172.246	0.302	0.010
-150.618	-157.796	-0.200	-0.012
-149.604	20.239	0.160	0.128
-148.589	-118.872	-0.301	-0.052
-147.574	-200.000	-0.046	0.236
-146.560	38.167	0.286	0.252
-145.545	421.287	0.110	-0.234
-144.531	-120.098	-0.437	0.074
-143.516	-200.000	-0.030	0.282
-142.502	69.941	0.204	0.208
-141.487	-200.000	0.044	-0.301
-140.472	-13.787	0.129	-0.083
-139.458	222.946	-0.062	-0.099
-138.443	-200.000	-0.053	-0.253
-137.429	-147.444	0.304	-0.025
-136.414	800.000	-0.057	0.188
-135.399	-138.433	-0.189	0.021
-134.385	75.674	0.182	-0.191
-133.370	800.000	-0.047	0.134
-132.356	-79.813	0.191	-0.064
-131.341	-112.679	-0.146	0.029
-130.326	390.787	-0.069	0.141
-129.312	64.036	0.191	0.190
-128.297	170.733	0.139	0.197
-127.283	-90.716	-0.245	-0.070
-126.268	-156.757	-0.199	0.012
-125.253	-200.000	-0.062	0.457
-124.239	426.510	-0.041	0.087
-123.224	800.000	0.108	0.324
-122.210	-142.323	-0.294	-0.029
