DTS Sentinel unit serial number:	SN413079Multiplexer serial number:	ORYXHardware model number:	OX4-SRSoftware version number:	ORYX F/W v4.00 Oryx Data Collector v3.7.2.0data status	okinstallation	princeton_trtdifferential loss correction	single-endedforward channel	channel 4reverse channel	N/Adate	2019/09/14time	19:05:34forward acquisition time	60.00reverse acquisition time	0.00gamma	496.2192k internal	0.2302k external	0.2302temperature offset calibration	1.0098default loss term (dB/km)	0.3790temperature slope calibration	1.0000multiplexer offset coefficient	1.0000multiplexer slope coefficient	1.0000fibre end	0.00T internal ref (°C)	35.48T ext. ref 1 (°C)	4.87T ext. ref 2 (°C)	29.37length (m)	temperature (°C)	Stokes	anti-Stokes-747.200	627.010	0.039	-0.100
-746.185	258.726	-0.173	0.304
-745.171	-129.105	0.146	0.021
-744.156	204.845	0.093	0.147
-743.142	-111.273	0.314	-0.065
-742.127	-115.260	-0.105	0.020
-741.112	189.565	0.067	0.103
-740.098	800.000	-0.041	0.143
-739.083	-74.582	-0.191	-0.070
-738.069	70.686	-0.148	0.156
-737.054	464.249	-0.123	-0.280
-736.039	-134.757	0.215	-0.027
-735.025	117.607	0.071	0.089
-734.010	586.618	0.154	-0.387
-732.996	690.242	0.074	0.197
-731.981	161.688	0.212	0.302
-730.966	-105.320	-0.144	0.033
-729.952	-35.937	-0.248	0.137
-728.937	800.000	0.032	-0.119
-727.923	-11.590	-0.212	-0.142
-726.908	33.560	0.094	0.083
-725.894	-44.557	0.327	-0.166
-724.879	-200.000	-0.058	-0.441
-723.864	8.860	-0.103	0.079
-722.850	800.000	0.036	0.121
-721.835	-69.143	0.228	0.089
-720.821	800.000	0.086	-0.358
-719.806	-98.575	-0.101	-0.026
-718.791	-118.834	-0.228	0.041
-717.777	-114.915	-0.182	0.035
-716.762	33.117	0.222	0.196
-715.748	-200.000	0.042	0.247
-714.733	44.242	-0.050	0.046
-713.718	-47.472	-0.073	0.036
-712.704	-105.568	-0.355	-0.082
-711.689	-65.461	-0.117	0.048
-710.675	-58.677	0.518	-0.229
-709.660	-84.578	0.230	0.074
-708.645	700.657	0.091	-0.244
-707.631	-200.000	-0.017	-0.265
-706.616	421.669	0.063	-0.137
-705.602	412.681	0.064	-0.139
-704.587	18.246	0.205	0.167
-703.572	-40.534	0.327	-0.173
-702.558	69.502	-0.206	-0.215
-701.543	327.668	-0.033	0.064
-700.529	800.000	0.028	0.099
-699.514	173.073	-0.148	-0.218
-698.499	-41.124	0.184	-0.097
-697.485	-200.000	-0.013	-0.121
-696.470	-20.786	-0.100	0.062
-695.456	-12.625	0.270	-0.179
-694.441	-200.000	-0.025	-0.157
-693.426	-82.971	-0.144	0.047
-692.412	690.785	-0.148	-0.394
-691.397	2.297	-0.155	-0.114
-690.383	84.196	0.138	0.154
-689.368	800.000	-0.038	0.147
-688.354	-95.323	-0.103	0.028
-687.339	800.000	-0.125	-0.485
-686.324	-140.914	0.043	-0.005
-685.310	-25.550	-0.331	0.199
-684.295	-70.224	-0.092	0.036
-683.281	-129.959	-0.281	0.039
-682.266	-106.227	-0.594	-0.135
-681.251	-200.000	0.038	0.421
-680.237	-133.760	-0.329	0.042
-679.222	-14.285	-0.190	0.124
-678.208	-150.538	0.266	0.021
-677.193	-192.121	-0.493	0.005
-676.178	-78.221	-0.300	0.105
-675.164	340.721	0.080	-0.159
-674.149	-200.000	-0.022	0.202
-673.135	-102.147	-0.313	-0.077
-672.120	90.757	-0.051	0.058
-671.105	-104.866	-0.303	0.071
-670.091	800.000	-0.030	0.086
-669.076	50.294	-0.187	-0.180
-668.062	194.178	-0.160	0.246
-667.047	-200.000	0.019	0.223
-666.032	45.227	-0.241	-0.226
-665.018	200.330	0.084	-0.131
-664.003	-0.434	0.172	-0.124
-662.989	-200.000	0.022	0.130
-661.974	212.101	0.135	0.216
-660.959	800.000	-0.026	-0.085
-659.945	-156.729	-0.190	0.012
-658.930	-200.000	-0.017	0.134
-657.916	-106.784	-0.190	-0.043
-656.901	-200.000	-0.016	-0.153
-655.886	-125.539	-0.184	0.028
-654.872	-77.651	-0.335	-0.118
-653.857	380.674	-0.153	-0.318
-652.843	-144.236	-0.168	-0.016
-651.828	-200.000	-0.043	-0.301
-650.814	-200.000	-0.023	0.197
-649.799	-105.682	0.221	-0.051
-648.784	-129.405	0.020	0.003
-647.770	77.197	-0.118	-0.127
-646.755	-103.068	0.130	0.031
-645.741	-73.006	-0.258	0.096
-644.726	-63.617	-0.159	-0.066
-643.711	800.000	-0.025	0.098
-642.697	-20.502	-0.189	-0.118
-641.682	211.520	0.189	0.302
-640.668	23.514	-0.123	-0.103
-639.653	-105.129	-0.261	0.061
-638.638	199.681	-0.099	0.153
-637.624	128.337	-0.112	0.145
-636.609	209.179	-0.245	-0.389
-635.595	440.333	0.132	-0.292
-634.580	-200.000	0.018	0.195
-633.565	21.488	0.159	-0.131
-632.551	-64.995	-0.049	0.020
-631.536	-200.000	0.029	0.377
-630.522	-127.813	-0.131	0.019
-629.507	-38.292	0.168	-0.090
-628.492	-200.000	-0.021	-0.096
-627.478	34.494	-0.049	0.044
-626.463	-200.000	-0.014	0.094
-625.449	-200.000	0.037	0.258
-624.434	-122.139	0.252	0.042
-623.419	-200.000	-0.002	-0.202
-622.405	-29.235	-0.227	-0.132
-621.390	-1.902	-0.206	0.147
-620.376	-200.000	-0.021	0.255
-619.361	-200.000	-0.028	-0.172
-618.346	-70.716	0.118	0.045
-617.332	-184.551	0.049	0.001
-616.317	91.227	-0.145	-0.165
-615.303	509.412	-0.100	0.235
-614.288	443.255	0.136	0.303
-613.273	-74.901	0.182	-0.066
-612.259	-49.043	0.115	-0.056
-611.244	-200.000	0.043	-0.282
-610.230	-90.960	-0.347	-0.101
-609.215	-95.446	-0.239	0.065
-608.201	-17.416	-0.151	-0.096
-607.186	-15.573	0.244	-0.158
-606.171	-200.000	0.001	-0.267
-605.157	157.495	0.041	-0.057
-604.142	-200.000	0.038	0.170
-603.128	463.847	0.098	-0.222
-602.113	139.173	-0.151	-0.202
-601.098	206.102	-0.158	-0.249
-600.084	476.900	-0.055	-0.125
-599.069	800.000	0.045	0.154
-598.055	800.000	0.037	-0.149
-597.040	146.556	-0.330	0.449
-596.025	35.735	-0.108	0.096
-595.011	-200.000	-0.010	0.225
-593.996	139.971	-0.295	0.394
-592.982	121.447	-0.155	0.195
-591.967	-73.818	0.152	0.056
-590.952	93.042	-0.096	-0.110
-589.938	-133.325	-0.214	0.027
-588.923	202.288	-0.103	-0.161
-587.909	250.699	-0.166	0.286
-586.894	-25.817	0.252	-0.151
-585.879	123.165	-0.125	0.159
-584.865	289.835	-0.167	-0.307
-583.850	181.507	0.013	-0.020
-582.836	305.512	0.098	-0.184
-581.821	-200.000	-0.072	-0.483
-580.806	-127.670	-0.214	0.031
-579.792	-153.618	0.370	-0.026
-578.777	-17.925	0.251	0.160
-577.763	179.282	0.080	0.119
-576.748	-124.625	-0.514	0.081
-575.733	61.976	0.237	-0.239
-574.719	-15.929	0.090	0.058
-573.704	151.526	0.110	0.152
-572.690	-16.390	-0.181	0.116
-571.675	800.000	0.012	-0.052
-570.661	92.427	0.172	-0.196
-569.646	-25.618	-0.067	0.040
-568.631	104.895	-0.169	-0.202
-567.617	-139.843	0.042	0.005
-566.602	324.374	-0.171	0.330
-565.588	-36.150	-0.249	0.136
-564.573	-200.000	-0.063	0.338
-563.558	195.771	-0.061	0.093
-562.544	222.468	-0.284	-0.463
-561.529	-49.121	-0.263	-0.127
-560.515	-200.000	0.007	-0.112
-559.500	-108.424	0.214	0.047
-558.485	-39.511	-0.107	0.057
-557.471	2.817	0.140	-0.103
-556.456	85.145	-0.150	0.166
-555.442	800.000	0.050	0.210
-554.427	-29.384	0.404	0.234
-553.412	242.482	0.155	-0.262
-552.398	-200.000	-0.060	-0.280
-551.383	118.056	-0.133	0.165
-550.369	-132.476	-0.232	-0.030
-549.354	-200.000	-0.013	0.138
-548.339	8.933	0.133	-0.101
-547.325	-45.186	0.237	-0.119
-546.310	-108.006	-0.260	0.057
-545.296	-200.000	0.011	0.216
-544.281	-16.073	-0.074	0.048
-543.266	176.962	-0.075	0.110
-542.252	32.872	-0.307	0.269
-541.237	-200.000	0.031	0.247
-540.223	-8.158	0.157	-0.107
-539.208	-200.000	0.006	0.064
-538.193	-200.000	0.005	0.081
-537.179	800.000	-0.093	-0.364
-536.164	244.363	0.064	-0.108
-535.150	-200.000	0.016	-0.103
-534.135	-93.545	0.185	0.052
-533.121	-3.549	0.123	-0.087
-532.106	75.957	0.153	-0.163
-531.091	-65.019	-0.216	0.088
-530.077	-200.000	-0.035	-0.268
-529.062	-200.000	-0.000	-0.150
-528.048	800.000	-0.073	-0.292
-527.033	-125.113	0.162	0.025
-526.018	-200.000	0.030	0.247
-525.004	-9.322	0.241	-0.163
-523.989	-92.261	-0.136	0.039
-522.975	-200.000	0.006	-0.089
-521.960	186.744	0.070	-0.106
-520.945	-92.902	0.195	0.055
-519.931	407.645	-0.168	-0.359
-518.916	150.485	0.213	-0.293
-517.902	641.649	0.115	0.296
-516.887	-51.126	-0.037	0.017
-515.872	129.604	0.054	-0.070
-514.858	800.000	0.082	-0.323
-513.843	50.928	0.173	0.166
-512.829	198.412	0.084	0.130
-511.814	233.193	-0.106	-0.176
-510.799	59.334	-0.184	-0.183
-509.785	-24.560	0.165	-0.099
-508.770	14.374	-0.046	-0.037
-507.756	-200.000	-0.012	-0.250
-506.741	235.438	-0.185	-0.309
-505.726	-200.000	0.025	0.127
-504.712	-57.773	-0.179	-0.079
-503.697	73.553	-0.326	0.345
-502.683	800.000	0.022	-0.081
-501.668	-93.080	-0.191	0.054
-500.653	-70.846	-0.339	0.129
-499.639	-166.102	0.275	-0.012
-498.624	132.236	-0.046	-0.059
-497.610	-73.357	-0.170	0.063
-496.595	-92.843	-0.072	-0.020
-495.581	-200.000	0.041	0.376
-494.566	170.574	0.084	-0.121
-493.551	800.000	0.061	0.188
-492.537	86.933	-0.124	-0.138
-491.522	44.280	-0.277	-0.256
-490.508	356.226	0.146	-0.293
-489.493	25.941	0.223	0.188
-488.478	283.246	0.145	0.262
-487.464	-139.017	-0.147	0.016
-486.449	542.957	-0.100	-0.241
-485.435	-200.000	0.061	-0.429
-484.420	47.411	-0.103	0.097
-483.405	90.861	-0.169	-0.191
-482.391	-53.398	-0.082	-0.038
-481.376	-44.264	-0.280	0.141
-480.362	-78.247	0.137	0.047
-479.347	-107.914	-0.041	0.009
-478.332	800.000	0.057	-0.180
-477.318	-200.000	-0.025	-0.310
-476.303	800.000	0.055	0.181
-475.289	77.887	0.148	0.159
-474.274	-17.983	-0.025	-0.016
-473.259	-113.980	-0.123	0.024
-472.245	332.100	0.131	-0.254
-471.230	-200.000	-0.003	0.175
-470.216	139.597	0.089	-0.119
-469.201	264.452	-0.138	0.242
-468.186	480.269	-0.030	0.069
-467.172	-200.000	0.009	-0.382
-466.157	167.525	-0.063	-0.090
-465.143	-162.133	0.233	0.012
-464.128	-24.398	-0.077	0.046
-463.113	229.712	-0.150	-0.247
-462.099	-4.768	-0.128	-0.089
-461.084	102.722	-0.302	0.356
-460.070	-1.964	0.173	-0.123
-459.055	-200.000	-0.002	-0.371
-458.040	194.496	0.156	-0.238
-457.026	158.489	0.122	0.171
-456.011	-44.945	0.114	0.057
-454.997	4.750	0.345	-0.255
-453.982	-0.438	-0.477	-0.341
-452.968	-200.000	-0.014	-0.194
-451.953	-150.108	-0.088	-0.007
-450.938	102.265	0.023	0.027
-449.924	-65.877	-0.210	0.085
-448.909	-200.000	-0.008	0.315
-447.895	800.000	-0.169	0.484
-446.880	44.511	-0.151	0.140
-445.865	-13.464	0.393	0.257
-444.851	437.899	-0.100	-0.220
-443.836	110.980	-0.173	-0.209
-442.822	-57.058	0.130	-0.058
-441.807	-200.000	0.047	-0.233
-440.792	-63.834	0.208	-0.086
-439.778	26.775	-0.234	0.197
-438.763	800.000	-0.064	-0.278
-437.749	132.388	-0.169	-0.220
-436.734	-200.000	0.038	-0.222
-435.719	48.955	0.080	0.076
-434.705	-113.375	0.243	-0.048
-433.690	-75.165	0.173	-0.062
-432.676	3.078	0.066	-0.048
-431.661	344.988	-0.206	0.408
-430.646	800.000	-0.011	-0.041
-429.632	-122.157	-0.222	-0.037
-428.617	-200.000	-0.010	0.108
-427.603	-21.531	0.139	-0.086
-426.588	511.351	-0.072	0.168
-425.573	83.508	-0.163	0.178
-424.559	159.905	-0.149	0.209
-423.544	-30.537	0.100	-0.057
-422.530	800.000	-0.056	0.176
-421.515	-88.546	-0.083	-0.025
-420.500	-26.455	0.228	0.134
-419.486	800.000	0.046	-0.204
-418.471	-200.000	0.002	-0.164
-417.457	38.869	0.367	-0.329
-416.442	109.985	-0.058	0.070
-415.428	25.565	0.302	-0.253
-414.413	171.469	0.141	0.204
-413.398	-0.529	0.189	0.135
-412.384	-200.000	-0.073	0.377
-411.369	-138.222	0.155	0.017
-410.355	-127.063	0.263	0.039
-409.340	-53.612	0.291	0.134
-408.325	791.407	0.073	0.203
-407.311	-149.024	-0.146	0.012
-406.296	-100.184	-0.217	-0.054
-405.282	173.891	0.028	0.041
-404.267	448.016	-0.092	0.204
-403.252	-200.000	-0.014	0.086
-402.238	800.000	0.054	0.162
-401.223	800.000	0.096	0.343
-400.209	800.000	-0.078	0.247
-399.194	-182.932	-0.185	0.003
-398.179	140.277	0.064	0.085
-397.165	-8.092	0.216	0.146
-396.150	333.322	0.083	0.161
-395.136	35.117	0.093	0.082
-394.121	-6.506	-0.173	0.119
-393.106	-1.386	-0.126	0.090
-392.092	-200.000	0.007	0.237
-391.077	55.826	0.183	0.179
-390.063	25.076	-0.065	-0.054
-389.048	145.195	0.177	0.238
-388.033	61.560	0.131	0.131
-387.019	-108.834	0.266	-0.057
-386.004	800.000	-0.127	-0.357
-384.990	705.027	0.059	0.157
-383.975	10.430	0.294	-0.225
-382.960	-68.536	0.262	0.102
-381.946	-79.824	0.312	0.105
-380.931	-30.000	-0.297	-0.170
-379.917	-200.000	0.049	-0.289
-378.902	455.523	0.076	0.169
-377.888	71.795	0.290	-0.303
-376.873	141.713	0.136	0.181
-375.858	275.490	-0.074	0.132
-374.844	112.043	0.027	0.032
-373.829	654.407	0.073	-0.188
-372.815	54.266	0.176	-0.170
-371.800	-39.486	-0.160	-0.084
-370.785	-189.957	-0.150	0.002
-369.771	-16.252	0.160	0.102
-368.756	122.605	-0.099	0.125
-367.742	-54.060	0.223	0.102
-366.727	22.529	-0.367	-0.301
-365.712	800.000	0.047	0.186
-364.698	74.702	-0.048	0.051
-363.683	-104.695	0.211	0.049
-362.669	-200.000	-0.006	0.159
-361.654	204.198	0.183	0.285
-360.639	-200.000	-0.052	0.251
-359.625	230.613	0.134	0.220
-358.610	-90.378	0.365	-0.106
-357.596	800.000	0.121	-0.458
-356.581	800.000	-0.048	0.162
-355.566	-200.000	-0.013	-0.083
-354.552	-35.544	-0.108	-0.059
-353.537	98.186	-0.072	-0.084
-352.523	-200.000	-0.006	-0.120
-351.508	800.000	-0.120	-0.422
-350.493	-200.000	-0.046	-0.346
-349.479	-126.067	-0.368	0.056
-348.464	-19.559	-0.165	-0.103
-347.450	352.802	0.038	0.077
-346.435	179.592	0.161	-0.237
-345.420	-200.000	0.055	0.327
-344.406	68.074	-0.262	0.269
-343.391	-123.586	0.375	0.060
-342.377	62.071	0.228	-0.229
-341.362	1.171	-0.237	0.171
-340.348	-78.130	0.291	0.100
-339.333	-200.000	-0.043	0.336
-338.318	227.118	0.039	-0.064
-337.304	416.635	0.081	-0.173
-336.289	-200.000	-0.021	0.216
-335.275	-150.016	-0.325	0.025
-334.260	785.388	-0.099	0.273
-333.245	-117.721	0.299	0.054
-332.231	-59.214	0.208	0.090
-331.216	69.182	0.186	-0.192
-330.202	-66.226	0.217	0.087
-329.187	800.000	-0.053	-0.150
-328.172	-99.632	-0.285	0.072
-327.158	189.708	0.163	0.246
-326.143	-84.757	0.379	0.120
-325.129	-140.445	-0.205	-0.021
-324.114	-200.000	0.006	0.077
-323.099	-135.335	0.308	0.037
-322.085	48.541	0.213	-0.200
-321.070	62.143	0.094	0.094
-320.056	130.960	0.032	-0.041
-319.041	-99.712	-0.144	-0.036
-318.026	-50.867	0.095	-0.045
-317.012	-57.967	0.254	-0.111
-315.997	-103.999	-0.150	0.035
-314.983	-130.821	0.132	0.018
-313.968	-100.334	0.261	-0.065
-312.953	78.797	-0.204	0.218
-311.939	-200.000	-0.048	-0.215
-310.924	-200.000	-0.016	-0.078
-309.910	-30.589	-0.040	-0.022
-308.895	-200.000	0.026	0.475
-307.880	800.000	0.057	0.240
-306.866	23.464	0.181	0.149
-305.851	-169.970	0.449	0.016
-304.837	6.932	-0.340	-0.253
-303.822	-200.000	-0.010	0.127
-302.807	543.571	0.091	0.218
-301.793	800.000	0.061	-0.266
-300.778	72.523	-0.064	-0.066
-299.764	-139.667	-0.319	-0.034
-298.749	800.000	-0.035	0.109
-297.735	481.950	-0.153	0.347
-296.720	119.291	-0.159	0.197
-295.705	195.822	0.316	-0.481
-294.691	-160.364	0.221	0.012
-293.676	-70.105	0.067	-0.026
-292.662	-6.388	0.062	0.042
-291.647	-200.000	-0.072	0.380
-290.632	-184.680	-0.234	0.004
-289.618	-200.000	-0.065	-0.508
-288.603	22.138	-0.061	0.050
-287.589	213.573	0.062	0.098
-286.574	-200.000	0.047	-0.318
-285.559	-15.165	0.389	-0.249
-284.545	602.700	-0.050	0.125
-283.530	-156.028	-0.144	-0.009
-282.516	146.724	-0.161	0.217
-281.501	-200.000	-0.036	0.220
-280.486	525.716	0.155	0.364
-279.472	449.579	0.051	-0.113
-278.457	800.000	-0.088	0.382
-277.443	-200.000	0.039	-0.233
-276.428	-174.848	0.429	0.012
-275.413	800.000	-0.023	-0.072
-274.399	44.101	-0.179	-0.165
-273.384	80.683	-0.205	0.221
-272.370	-31.011	0.288	0.163
-271.355	96.938	-0.110	0.127
-270.340	152.107	-0.088	-0.120
-269.326	800.000	-0.024	0.104
-268.311	-163.269	-0.460	-0.022
-267.297	-117.069	0.278	-0.051
-266.282	668.625	0.042	0.110
-265.267	429.719	0.059	0.129
-264.253	800.000	-0.094	0.362
-263.238	30.373	-0.148	0.127
-262.224	-82.281	0.265	-0.086
-261.209	393.967	0.076	0.159
-260.195	410.068	0.110	-0.233
-259.180	-200.000	0.033	0.183
-258.165	-200.000	0.048	-0.513
-257.151	91.054	0.304	-0.341
-256.136	-200.000	0.032	-0.296
-255.122	23.464	0.213	-0.175
-254.107	81.221	-0.128	0.138
-253.092	-4.456	-0.164	-0.113
-252.078	-15.079	0.016	-0.010
-251.063	91.209	0.191	0.215
-250.049	-200.000	-0.029	-0.175
-249.034	-11.476	-0.137	-0.090
-248.019	74.387	0.176	0.185
-247.005	-85.757	-0.387	-0.120
-245.990	268.034	0.103	-0.179
-244.976	800.000	-0.032	0.113
-243.961	800.000	-0.136	0.381
-242.946	-200.000	-0.046	0.277
-241.932	-157.835	-0.562	0.033
-240.917	331.505	-0.172	0.331
-239.903	-194.535	-0.291	-0.002
-238.888	-136.136	0.094	0.011
-237.873	29.634	0.149	0.127
-236.859	453.070	-0.083	-0.184
-235.844	-48.364	-0.198	0.095
-234.830	-14.393	0.289	-0.186
-233.815	-200.000	-0.027	-0.367
-232.800	-200.000	0.004	0.088
-231.786	800.000	-0.094	0.354
-230.771	-109.720	-0.388	-0.082
-229.757	31.876	0.158	-0.136
-228.742	-200.000	-0.017	-0.110
-227.727	800.000	0.039	0.166
-226.713	-129.170	-0.165	0.023
-225.698	-61.448	0.181	0.076
-224.684	-200.000	-0.022	0.164
-223.669	148.167	0.246	0.331
-222.655	-129.121	-0.204	0.029
-221.640	51.233	-0.048	0.046
-220.625	-46.922	-0.111	0.054
-219.611	397.959	-0.115	-0.240
-218.596	-200.000	0.039	0.251
-217.582	306.684	0.163	-0.304
-216.567	-200.000	-0.030	-0.152
-215.552	55.056	-0.129	-0.124
-214.538	-71.534	-0.163	-0.061
-213.523	95.597	0.067	-0.077
-212.509	267.684	-0.094	-0.163
-211.494	800.000	-0.158	0.449
-210.479	-45.336	-0.155	-0.077
-209.465	-67.249	-0.349	-0.137
-208.450	-200.000	-0.015	0.097
-207.436	-17.197	-0.116	-0.073
-206.421	114.732	-0.131	0.159
-205.406	-126.407	-0.244	-0.036
-204.392	139.353	0.186	0.244
-203.377	16.161	-0.133	-0.105
-202.363	800.000	0.087	-0.279
-201.348	-62.022	0.254	-0.106
-200.333	-29.775	-0.097	0.055
-199.319	73.230	0.202	-0.211
-198.304	-36.094	0.160	0.086
-197.290	389.890	0.125	-0.259
-196.275	-13.603	0.035	0.023
-195.260	41.398	0.138	0.125
-194.246	-71.168	0.070	-0.026
-193.231	-200.000	0.005	0.307
-192.217	-26.315	-0.309	0.181
-191.202	-115.146	0.348	-0.066
-190.187	160.362	-0.142	0.197
-189.173	-200.000	0.040	0.183
-188.158	-19.055	-0.153	-0.095
-187.144	451.234	-0.206	-0.453
-186.129	-19.926	0.185	-0.114
-185.114	405.350	-0.104	-0.218
-184.100	32.135	-0.045	-0.039
-183.085	800.000	-0.011	0.036
-182.071	-97.129	-0.060	-0.016
-181.056	48.150	-0.149	0.139
-180.042	-106.863	0.232	0.051
-179.027	98.650	0.063	-0.073
-178.012	-40.357	-0.110	-0.057
-176.998	419.569	0.154	-0.328
-175.983	-71.870	0.209	-0.077
-174.969	-80.912	0.344	-0.114
-173.954	-156.714	0.090	-0.006
-172.939	-10.806	0.241	0.159
-171.925	-125.595	0.284	0.043
-170.910	770.077	0.088	-0.239
-169.896	-200.000	-0.070	-0.363
-168.881	-200.000	-0.003	-0.253
-167.866	-200.000	-0.010	-0.147
-166.852	-200.000	-0.015	-0.129
-165.837	6.478	-0.387	0.286
-164.823	-161.351	0.179	0.009
-163.808	800.000	-0.099	0.314
-162.793	-148.901	0.123	-0.010
-161.779	-200.000	0.058	-0.343
-160.764	-200.000	0.025	-0.189
-159.750	-200.000	0.032	0.313
-158.735	76.237	0.095	-0.100
-157.720	194.745	-0.125	0.189
-156.706	40.697	-0.299	-0.268
-155.691	-135.971	0.201	-0.024
-154.677	800.000	-0.116	-0.342
-153.662	51.207	-0.136	0.129
-152.647	-200.000	-0.014	-0.106
-151.633	-200.000	-0.012	0.253
-150.618	-70.118	0.183	0.069
-149.604	-200.000	0.029	0.213
-148.589	273.255	-0.061	0.108
-147.574	-200.000	0.065	-0.290
-146.560	-150.000	-0.364	0.028
-145.545	154.058	0.089	0.121
-144.531	-55.696	0.173	0.077
-143.516	-143.487	0.096	0.009
-142.502	97.747	0.130	0.149
-141.487	24.667	0.210	0.173
-140.472	-185.145	0.407	-0.006
-139.458	-96.554	-0.035	0.009
-138.443	-200.000	0.022	-0.142
-137.429	-95.779	0.288	0.077
-136.414	-69.394	0.152	-0.058
-135.399	-66.386	-0.072	0.029
-134.385	105.889	0.119	-0.140
-133.370	610.817	-0.041	0.102
-132.356	-49.893	-0.215	0.102
-131.341	-88.767	0.165	-0.049
-130.326	-25.672	0.076	0.045
-129.312	-24.266	-0.113	-0.067
-128.297	121.188	-0.112	0.139
-127.283	800.000	0.034	0.146
-126.268	-54.655	-0.289	-0.130
-125.253	-119.415	0.120	0.021
-124.239	114.995	0.158	0.192
-123.224	210.719	0.036	0.057
-122.210	83.505	-0.100	0.109
-121.195	-151.911	0.188	0.014
