DTS Sentinel unit serial number:	SN413079Multiplexer serial number:	ORYXHardware model number:	OX4-SRSoftware version number:	ORYX F/W v4.00 Oryx Data Collector v3.7.2.0data status	okinstallation	princeton_trtdifferential loss correction	single-endedforward channel	channel 4reverse channel	N/Adate	2019/09/17time	21:49:35forward acquisition time	60.00reverse acquisition time	0.00gamma	496.2192k internal	0.2328k external	0.2328temperature offset calibration	0.9995default loss term (dB/km)	0.3790temperature slope calibration	1.0000multiplexer offset coefficient	1.0000multiplexer slope coefficient	1.0000fibre end	0.00T internal ref (°C)	26.39T ext. ref 1 (°C)	0.18T ext. ref 2 (°C)	19.03length (m)	temperature (°C)	Stokes	anti-Stokes-747.200	800.000	-0.080	0.228
-746.185	800.000	-0.081	0.305
-745.171	248.647	-0.165	0.281
-744.156	-26.640	-0.406	0.240
-743.142	-200.000	-0.026	0.297
-742.127	800.000	0.092	0.360
-741.112	-9.582	0.191	0.129
-740.098	-200.000	-0.043	0.233
-739.083	800.000	0.086	0.310
-738.069	232.608	-0.361	0.597
-737.054	144.011	0.098	-0.132
-736.039	-104.153	-0.211	0.049
-735.025	213.554	-0.051	0.081
-734.010	-105.937	-0.115	0.026
-732.996	148.031	0.120	-0.162
-731.981	27.842	-0.134	-0.113
-730.966	264.315	0.055	0.097
-729.952	11.771	-0.312	-0.242
-728.937	37.378	-0.203	0.182
-727.923	208.181	-0.142	-0.223
-726.908	273.608	0.031	-0.055
-725.894	-10.382	-0.228	0.153
-724.879	23.916	0.274	0.228
-723.864	-80.772	-0.342	0.115
-722.850	-150.714	-0.328	-0.025
-721.835	-200.000	-0.044	0.327
-720.821	275.407	0.085	0.151
-719.806	578.490	-0.049	-0.122
-718.791	132.606	0.176	-0.228
-717.777	-44.514	0.116	0.058
-716.762	800.000	0.048	-0.134
-715.748	137.698	-0.020	0.026
-714.733	43.514	-0.169	0.156
-713.718	21.407	0.297	-0.243
-712.704	7.027	-0.179	-0.134
-711.689	127.891	-0.088	0.113
-710.675	145.829	0.136	-0.183
-709.660	-200.000	0.112	-0.579
-708.645	96.635	-0.314	-0.362
-707.631	319.824	0.168	0.320
-706.616	-44.428	0.229	-0.115
-705.602	800.000	-0.107	0.371
-704.587	-200.000	-0.062	0.339
-703.572	-50.001	-0.194	0.093
-702.558	221.111	-0.180	0.291
-701.543	-91.336	-0.301	-0.087
-700.529	-200.000	-0.022	-0.231
-699.514	-79.907	0.279	0.094
-698.499	519.166	-0.072	-0.169
-697.485	-200.000	0.064	-0.296
-696.470	-92.755	-0.241	0.068
-695.456	307.787	-0.232	0.435
-694.441	651.528	0.125	-0.323
-693.426	448.070	0.109	0.242
-692.412	800.000	-0.072	-0.287
-691.397	-101.959	0.278	0.067
-690.383	66.230	-0.331	0.338
-689.368	-99.716	-0.136	0.034
-688.354	116.617	-0.088	0.108
-687.339	-200.000	0.019	0.260
-686.324	-200.000	0.003	0.295
-685.310	-108.036	-0.209	-0.046
-684.295	548.160	0.081	-0.194
-683.281	800.000	-0.149	-0.428
-682.266	800.000	0.103	0.357
-681.251	-150.513	-0.357	0.028
-680.237	632.367	0.144	-0.366
-679.222	203.792	-0.182	-0.282
-678.208	231.683	-0.162	0.267
-677.193	-105.329	0.203	-0.047
-676.178	-45.966	-0.084	-0.042
-675.164	-200.000	-0.001	-0.121
-674.149	190.207	-0.247	-0.373
-673.135	-77.316	-0.143	-0.050
-672.120	26.197	-0.196	0.165
-671.105	-200.000	-0.061	0.341
-670.091	-200.000	-0.007	-0.060
-669.076	800.000	-0.037	0.139
-668.062	759.480	0.102	0.278
-667.047	-97.992	0.272	0.070
-666.032	800.000	-0.086	-0.317
-665.018	-126.285	0.318	0.048
-664.003	-17.990	-0.200	-0.126
-662.989	800.000	-0.100	0.316
-661.974	-81.729	-0.260	-0.086
-660.959	-200.000	0.057	0.366
-659.945	28.767	-0.118	-0.100
-658.930	529.510	-0.076	-0.180
-657.916	-200.000	-0.176	0.000
-656.901	202.620	0.106	-0.165
-655.886	59.181	-0.120	-0.118
-654.872	-29.048	-0.039	-0.022
-653.857	800.000	0.076	-0.319
-652.843	491.620	0.102	0.235
-651.828	-69.493	0.334	-0.129
-650.814	4.055	-0.143	0.105
-649.799	78.672	0.183	-0.197
-648.784	-200.000	-0.031	0.416
-647.770	-167.438	0.191	0.008
-646.755	-98.931	0.213	0.054
-645.741	77.604	0.056	-0.060
-644.726	-79.016	-0.026	0.009
-643.711	-60.416	-0.340	0.145
-642.697	-11.268	0.114	0.075
-641.682	-77.199	0.430	0.150
-640.668	221.499	0.055	-0.089
-639.653	249.496	0.036	0.062
-638.638	-200.000	0.042	-0.184
-637.624	273.777	-0.185	0.329
-636.609	800.000	0.128	-0.488
-635.595	-200.000	0.041	0.218
-634.580	-30.254	-0.048	-0.028
-633.565	-65.640	0.120	0.048
-632.551	-169.577	0.194	-0.007
-631.536	-200.000	-0.010	0.236
-630.522	-79.354	0.162	0.055
-629.507	-148.884	0.105	-0.009
-628.492	-200.000	-0.004	0.034
-627.478	155.558	-0.121	-0.168
-626.463	800.000	-0.041	-0.173
-625.449	238.849	-0.139	0.233
-624.434	289.913	-0.064	-0.117
-623.419	-200.000	0.032	-0.338
-622.405	161.163	0.075	-0.105
-621.390	-58.309	-0.073	-0.032
-620.376	-48.635	-0.042	0.020
-619.361	-39.836	-0.072	-0.038
-618.346	168.810	-0.071	0.102
-617.332	800.000	0.068	-0.231
-616.317	-130.322	0.227	0.031
-615.303	-7.017	-0.231	-0.157
-614.288	-65.787	-0.357	0.143
-613.273	45.073	-0.122	0.113
-612.259	-117.516	0.244	0.044
-611.244	-200.000	-0.027	0.128
-610.230	-46.012	0.152	-0.075
-609.215	-37.533	-0.188	0.101
-608.201	-184.245	0.030	0.000
-607.186	-74.164	-0.224	-0.081
-606.171	118.314	-0.225	-0.278
-605.157	724.258	-0.049	0.130
-604.142	-13.916	-0.195	-0.127
-603.128	29.795	0.060	-0.051
-602.113	-116.870	0.219	0.040
-601.098	113.554	0.276	-0.336
-600.084	-123.957	0.124	0.019
-599.069	133.538	0.131	0.170
-598.055	-46.895	-0.255	0.125
-597.040	-127.870	-0.367	0.053
-596.025	195.719	0.189	-0.288
-595.011	56.933	0.138	-0.135
-593.996	-127.324	-0.095	0.014
-592.982	-55.565	0.143	0.064
-591.967	-64.997	0.320	0.130
-590.952	206.176	-0.115	0.179
-589.938	129.037	0.047	0.059
-588.923	-200.000	-0.041	-0.315
-587.909	101.773	-0.073	0.085
-586.894	286.912	0.092	-0.166
-585.879	550.138	-0.125	-0.300
-584.865	117.181	-0.111	-0.136
-583.850	-96.379	0.101	-0.027
-582.836	-200.000	-0.010	0.086
-581.821	58.940	-0.194	-0.191
-580.806	-200.000	-0.006	0.082
-579.792	294.600	0.097	-0.178
-578.777	102.265	0.149	-0.174
-577.763	-200.000	-0.006	-0.121
-576.748	-24.855	0.189	-0.112
-575.733	136.399	-0.076	0.099
-574.719	800.000	-0.067	-0.217
-573.704	442.758	0.052	-0.115
-572.690	208.804	0.222	0.348
-571.675	-15.123	0.371	0.238
-570.661	-35.924	-0.225	0.122
-569.646	247.227	0.055	0.092
-568.631	269.394	-0.199	0.349
-567.617	91.638	-0.213	0.240
-566.602	486.064	-0.182	0.415
-565.588	9.228	0.122	-0.092
-564.573	180.661	0.127	0.187
-563.558	-93.667	-0.153	-0.042
-562.544	65.024	-0.094	-0.095
-561.529	54.786	-0.118	0.114
-560.515	800.000	-0.077	0.273
-559.500	-196.513	0.095	0.001
-558.485	-200.000	0.010	-0.144
-557.471	24.606	-0.069	0.057
-556.456	-200.000	-0.046	-0.204
-555.442	29.479	-0.179	0.152
-554.427	464.724	0.048	-0.107
-553.412	181.703	-0.066	-0.098
-552.398	-200.000	0.033	0.395
-551.383	-108.625	-0.307	0.066
-550.369	800.000	-0.046	-0.130
-549.354	491.287	-0.042	-0.096
-548.339	25.384	0.151	0.126
-547.325	-29.682	0.194	0.111
-546.310	-200.000	0.007	0.035
-545.296	-123.985	0.224	0.035
-544.281	87.677	-0.102	0.113
-543.266	-200.000	-0.052	-0.269
-542.252	794.934	0.128	0.353
-541.237	-48.705	0.182	0.087
-540.223	-110.713	0.144	-0.030
-539.208	7.013	-0.314	-0.234
-538.193	4.217	0.156	0.114
-537.179	-200.000	0.042	-0.213
-536.164	-75.303	-0.058	-0.021
-535.150	-200.000	0.042	0.256
-534.135	107.083	0.138	-0.163
-533.121	-47.017	-0.149	0.073
-532.106	344.005	-0.135	-0.265
-531.091	280.889	-0.160	-0.287
-530.077	-116.945	0.108	-0.020
-529.062	289.706	-0.026	0.048
-528.048	90.035	-0.079	-0.088
-527.033	-87.245	0.144	0.044
-526.018	-155.561	-0.245	-0.016
-525.004	-60.090	0.091	0.039
-523.989	-200.000	0.003	-0.044
-522.975	-169.094	0.093	0.003
-521.960	794.819	0.038	-0.105
-520.945	-93.922	-0.283	-0.078
-519.931	-38.498	-0.131	0.069
-518.916	86.878	0.086	-0.095
-517.902	315.733	0.105	-0.197
-516.887	-76.717	-0.209	0.073
-515.872	-3.211	-0.147	-0.102
-514.858	260.918	-0.103	-0.177
-513.843	-60.936	-0.252	-0.106
-512.829	-104.792	-0.121	0.028
-511.814	800.000	0.050	-0.198
-510.799	-200.000	-0.023	-0.240
-509.785	-181.067	0.367	-0.007
-508.770	81.545	-0.122	-0.132
-507.756	800.000	0.073	0.232
-506.741	-200.000	0.012	-0.138
-505.726	-200.000	-0.025	0.450
-504.712	-200.000	-0.030	-0.173
-503.697	-200.000	-0.012	0.052
-502.683	800.000	-0.075	0.291
-501.668	-200.000	0.024	0.335
-500.653	-200.000	-0.036	-0.338
-499.639	-125.314	-0.321	-0.049
-498.624	-136.847	0.334	0.038
-497.610	-94.209	0.085	0.023
-496.595	800.000	-0.046	-0.156
-495.581	-169.224	0.090	-0.003
-494.566	-93.876	-0.209	-0.057
-493.551	800.000	0.052	0.223
-492.537	45.131	0.116	-0.106
-491.522	400.173	0.078	0.164
-490.508	-56.421	0.459	-0.203
-489.493	490.609	0.041	0.094
-488.478	-160.932	-0.176	0.009
-487.464	60.952	0.217	0.215
-486.449	6.035	0.100	0.074
-485.435	-76.088	0.254	-0.089
-484.420	-21.738	0.110	0.067
-483.405	-200.000	-0.073	-0.365
-482.391	-96.726	-0.384	0.101
-481.376	-200.000	-0.008	0.154
-480.362	-111.603	0.051	0.010
-479.347	-139.283	0.193	0.021
-478.332	-45.448	0.352	-0.174
-477.318	680.022	-0.047	0.123
-476.303	169.983	-0.221	0.315
-475.289	-151.004	0.327	-0.025
-474.274	-200.000	-0.016	0.186
-473.259	231.874	-0.216	0.353
-472.245	28.027	-0.074	0.062
-471.230	-117.246	-0.290	-0.052
-470.216	-101.534	-0.301	0.073
-469.201	-200.000	0.033	-0.148
-468.186	-106.744	-0.173	-0.038
-467.172	184.265	-0.101	0.149
-466.157	225.318	0.223	-0.360
-465.143	-200.000	0.024	-0.219
-464.128	-13.900	-0.295	0.190
-463.113	-200.000	0.026	-0.288
-462.099	-129.721	0.169	-0.023
-461.084	-44.615	-0.153	0.076
-460.070	93.887	0.152	0.172
-459.055	124.809	0.193	0.242
-458.040	-200.000	-0.012	0.308
-457.026	-61.374	0.179	0.075
-456.011	-200.000	0.001	-0.173
-454.997	8.640	-0.067	-0.050
-453.982	421.322	-0.079	0.169
-452.968	-200.000	0.041	0.227
-451.953	-200.000	0.086	0.408
-450.938	319.768	0.122	0.231
-449.924	800.000	0.073	0.214
-448.909	31.329	0.162	-0.139
-447.895	-200.000	0.015	-0.321
-446.880	378.585	0.100	0.204
-445.865	228.271	-0.070	0.114
-444.851	-73.134	-0.343	0.125
-443.836	443.502	0.123	0.268
-442.822	800.000	-0.080	0.300
-441.807	-39.880	0.143	0.074
-440.792	-72.134	-0.110	-0.041
-439.778	662.288	-0.138	-0.354
-438.763	182.079	0.183	-0.268
-437.749	-12.531	0.409	-0.266
-436.734	-200.000	0.016	-0.087
-435.719	63.364	-0.043	0.043
-434.705	-134.992	-0.312	-0.037
-433.690	-153.701	-0.424	-0.029
-432.676	800.000	-0.040	-0.136
-431.661	-118.495	-0.183	0.032
-430.646	82.526	0.257	-0.278
-429.632	12.164	-0.334	0.256
-428.617	-200.000	-0.045	0.304
-427.603	134.926	0.127	-0.164
-426.588	-128.969	-0.392	-0.055
-425.573	-48.112	0.118	0.057
-424.559	-135.366	0.381	-0.045
-423.544	-37.396	-0.196	0.104
-422.530	10.079	-0.179	-0.135
-421.515	378.528	0.157	-0.320
-420.500	-93.122	0.180	-0.050
-419.486	-104.853	0.218	0.050
-418.471	-58.496	0.230	-0.099
-417.457	800.000	0.081	0.253
-416.442	0.465	-0.267	0.190
-415.428	-154.237	-0.160	0.011
-414.413	-100.380	-0.210	-0.052
-413.398	-184.800	-0.418	-0.007
-412.384	192.311	0.116	-0.173
-411.369	119.170	-0.151	-0.186
-410.355	143.706	0.302	-0.400
-409.340	-52.825	0.327	-0.150
-408.325	89.404	-0.177	0.197
-407.311	16.133	-0.277	0.217
-406.296	-200.000	-0.023	-0.206
-405.282	800.000	0.088	-0.340
-404.267	105.189	0.108	-0.126
-403.252	-52.513	0.343	0.158
-402.238	-80.170	-0.076	-0.025
-401.223	-1.478	-0.102	0.072
-400.209	43.543	0.234	-0.213
-399.194	139.479	-0.024	0.032
-398.179	-24.353	0.309	0.183
-397.165	9.090	-0.298	-0.224
-396.150	-43.306	0.152	0.077
-395.136	79.092	0.104	-0.111
-394.121	472.869	-0.080	-0.179
-393.106	134.576	0.162	-0.209
-392.092	-99.203	0.156	0.039
-391.077	-49.701	-0.074	0.035
-390.063	-92.722	0.311	0.086
-389.048	128.525	-0.102	-0.129
-388.033	96.554	0.123	-0.140
-387.019	-178.157	0.211	0.005
-386.004	-200.000	0.016	0.076
-384.990	169.164	0.086	0.122
-383.975	139.506	0.207	0.271
-382.960	46.008	0.089	0.081
-381.946	155.250	0.134	0.183
-380.931	-200.000	-0.001	-0.028
-379.917	-55.344	0.138	0.061
-378.902	146.615	0.110	0.147
-377.888	-87.445	-0.256	0.077
-376.873	27.623	0.291	-0.243
-375.858	63.191	0.195	-0.194
-374.844	-196.803	0.084	-0.001
-373.829	800.000	-0.092	-0.293
-372.815	-2.127	0.253	0.177
-371.800	-100.796	-0.413	-0.101
-370.785	-200.000	0.012	-0.341
-369.771	800.000	0.076	0.217
-368.756	800.000	0.045	0.184
-367.742	284.620	0.083	-0.148
-366.727	2.097	0.123	-0.088
-365.712	87.651	0.094	0.104
-364.698	199.701	-0.097	0.148
-363.683	800.000	-0.047	0.187
-362.669	-105.749	-0.379	0.085
-361.654	190.777	-0.060	-0.090
-360.639	800.000	-0.030	0.129
-359.625	270.428	0.129	-0.225
-358.610	-200.000	-0.021	0.415
-357.596	-3.950	-0.241	0.166
-356.581	-103.629	0.391	-0.091
-355.566	-200.000	-0.035	-0.373
-354.552	-200.000	0.002	-0.055
-353.537	125.666	-0.143	0.179
-352.523	81.732	-0.113	0.122
-351.508	800.000	0.113	-0.396
-350.493	-187.845	-0.199	0.003
-349.479	-83.058	-0.182	-0.058
-348.464	535.152	0.069	-0.161
-347.450	-200.000	-0.001	-0.221
-346.435	48.673	0.236	0.219
-345.420	-135.678	0.027	-0.003
-344.406	-200.000	0.025	0.160
-343.391	-20.816	0.214	0.130
-342.377	-63.855	-0.419	0.170
-341.362	-119.147	0.174	-0.030
-340.348	-200.000	-0.016	-0.161
-339.333	800.000	-0.081	0.295
-338.318	800.000	0.071	0.230
-337.304	-2.958	-0.154	0.107
-336.289	-85.965	-0.212	0.065
-335.275	568.134	0.118	-0.284
-334.260	315.073	-0.054	0.100
-333.245	-94.358	-0.167	-0.045
-332.231	51.130	0.156	-0.147
-331.216	800.000	-0.210	-0.579
-330.202	-115.327	0.186	0.035
-329.187	-200.000	-0.032	-0.357
-328.172	600.624	0.041	-0.100
-327.158	-200.000	-0.035	0.176
-326.143	-168.832	0.136	0.005
-325.129	-9.979	0.176	-0.116
-324.114	-2.403	0.168	0.117
-323.099	185.956	-0.139	0.206
-322.085	-32.760	0.049	-0.027
-321.070	-12.407	-0.257	-0.166
-320.056	-200.000	-0.003	0.136
-319.041	249.732	-0.120	0.202
-318.026	37.678	0.172	0.151
-317.012	16.768	-0.149	-0.117
-315.997	-69.133	-0.021	-0.008
-314.983	-77.939	-0.103	-0.035
-313.968	-159.704	-0.227	-0.012
-312.953	175.279	-0.142	-0.204
-311.939	-70.255	0.249	-0.094
-310.924	-184.624	-0.192	0.003
-309.910	-65.041	0.281	-0.112
-308.895	346.147	-0.071	-0.138
-307.880	-135.624	-0.180	0.021
-306.866	800.000	-0.187	-0.524
-305.851	54.102	0.273	0.260
-304.837	800.000	-0.079	-0.285
-303.822	-200.000	-0.020	-0.089
-302.807	50.113	0.176	-0.165
-301.793	-112.916	0.265	0.052
-300.778	-175.304	0.231	-0.006
-299.764	-103.237	-0.107	0.025
-298.749	198.310	0.081	0.123
-297.735	-43.758	0.038	0.019
-296.720	-1.733	0.131	0.092
-295.705	281.095	-0.228	0.405
-294.691	281.181	-0.124	0.219
-293.676	36.984	0.081	0.071
-292.662	-200.000	-0.016	0.255
-291.647	3.532	-0.116	-0.084
-290.632	-0.907	0.134	0.094
-289.618	436.704	-0.082	0.176
-288.603	-48.600	-0.104	-0.050
-287.589	430.548	0.074	0.158
-286.574	800.000	-0.055	-0.189
-285.559	38.809	0.075	0.067
-284.545	-200.000	0.058	-0.278
-283.530	189.414	0.086	-0.128
-282.516	-200.000	0.005	0.065
-281.501	15.720	-0.276	-0.215
-280.486	800.000	-0.025	-0.094
-279.472	-4.973	0.152	-0.103
-278.457	800.000	-0.020	-0.055
-277.443	-165.888	-0.305	0.013
-276.428	-200.000	-0.028	-0.225
-275.413	218.840	0.076	-0.121
-274.399	800.000	0.117	-0.335
-273.384	-200.000	-0.001	-0.024
-272.370	-200.000	-0.007	0.138
-271.355	214.575	-0.035	0.054
-270.340	-135.549	-0.312	-0.037
-269.326	-108.843	0.306	0.065
-268.311	-200.000	0.041	0.225
-267.297	-112.207	0.302	-0.060
-266.282	67.858	-0.237	0.240
-265.267	800.000	-0.024	0.095
-264.253	-116.826	-0.054	-0.010
-263.238	-200.000	0.094	-0.440
-262.224	-80.990	-0.194	0.063
-261.209	-99.947	-0.174	0.043
-260.195	85.994	-0.059	-0.064
-259.180	-200.000	-0.015	-0.290
-258.165	11.774	0.037	0.028
-257.151	607.665	0.103	-0.254
-256.136	-200.000	0.003	0.356
-255.122	-66.859	-0.230	0.090
-254.107	27.289	-0.199	-0.165
-253.092	-200.000	-0.012	-0.124
-252.078	-200.000	0.006	0.150
-251.063	26.094	0.112	-0.093
-250.049	-27.613	-0.153	0.088
-249.034	-90.919	0.333	0.095
-248.019	-177.328	0.083	0.002
-247.005	283.806	0.165	-0.293
-245.990	84.013	-0.086	0.093
-244.976	-189.245	-0.029	0.000
-243.961	-200.000	-0.011	-0.436
-242.946	-45.811	-0.044	0.022
-241.932	532.872	0.109	-0.254
-240.917	571.495	0.048	-0.115
-239.903	42.256	-0.199	-0.179
-238.888	-200.000	-0.012	0.083
-237.873	369.915	-0.080	0.159
-236.859	384.629	-0.088	-0.179
-235.844	800.000	0.062	0.216
-234.830	-145.855	-0.346	0.030
-233.815	178.582	-0.025	0.036
-232.800	94.974	-0.059	0.067
-231.786	80.800	0.130	-0.138
-230.771	-200.000	-0.008	0.068
-229.757	25.434	0.177	0.145
-228.742	638.358	-0.117	0.294
-227.727	205.804	-0.064	0.098
-226.713	-83.372	0.137	-0.043
-225.698	-55.497	-0.329	0.146
-224.684	-129.932	-0.395	-0.053
-223.669	791.465	-0.058	-0.159
-222.655	84.223	-0.069	0.074
-221.640	73.451	-0.151	0.156
-220.625	15.053	0.268	-0.207
-219.611	-39.580	0.260	-0.135
-218.596	800.000	-0.080	0.243
-217.582	211.899	0.098	0.153
-216.567	-151.486	-0.333	0.024
-215.552	-8.038	-0.204	-0.136
-214.538	-82.565	0.474	0.152
-213.523	-200.000	0.035	0.305
-212.509	47.623	-0.239	0.220
-211.494	-200.000	-0.008	-0.037
-210.479	602.829	0.030	0.074
-209.465	-200.000	0.032	0.202
-208.450	-68.640	0.094	-0.036
-207.436	-200.000	0.079	-0.348
-206.421	-26.066	-0.337	-0.196
-205.406	457.213	-0.128	-0.281
-204.392	321.408	0.088	0.165
-203.377	100.304	-0.122	0.140
-202.363	-200.000	-0.060	-0.524
-201.348	800.000	0.046	-0.192
-200.333	22.740	0.158	0.128
-199.319	-200.000	-0.003	-0.073
-198.304	800.000	0.037	-0.104
-197.290	-200.000	0.003	-0.229
-196.275	180.627	-0.028	0.041
-195.260	800.000	0.080	0.238
-194.246	800.000	-0.036	-0.103
-193.231	376.534	0.143	0.287
-192.217	28.186	-0.229	0.191
-191.202	361.373	0.065	0.129
-190.187	12.835	-0.129	0.098
-189.173	-200.000	-0.034	-0.175
-188.158	-55.523	0.005	-0.002
-187.144	184.142	0.029	0.043
-186.129	-26.167	-0.166	0.096
-185.114	-100.015	0.227	-0.056
-184.100	138.939	-0.109	0.142
-183.085	488.229	0.089	0.201
-182.071	-200.000	-0.041	-0.187
-181.056	295.013	0.179	-0.322
-180.042	-200.000	-0.004	-0.473
-179.027	319.806	-0.057	0.106
-178.012	321.103	0.088	0.166
-176.998	800.000	0.031	-0.108
-175.983	136.682	-0.050	0.064
-174.969	800.000	-0.069	0.254
-173.954	-145.571	-0.159	0.014
-172.939	586.132	0.090	0.219
-171.925	64.173	0.034	0.034
-170.910	76.518	-0.220	0.230
-169.896	-98.726	-0.202	0.051
-168.881	800.000	0.056	0.195
-167.866	-200.000	-0.009	0.353
-166.852	-42.719	0.216	-0.108
-165.837	540.305	0.058	0.137
-164.823	-28.674	0.127	0.072
-163.808	-133.930	-0.263	0.032
-162.793	-19.651	-0.403	-0.246
-161.779	416.695	-0.048	0.100
-160.764	90.273	0.048	-0.053
-159.750	-125.256	0.270	0.041
-158.735	-87.339	0.382	0.114
-157.720	-92.351	-0.167	-0.046
-156.706	17.957	0.062	-0.049
-155.691	166.969	0.104	0.146
-154.677	253.157	0.108	0.182
-153.662	-200.000	0.014	-0.084
-152.647	800.000	-0.015	0.058
-151.633	800.000	0.052	0.197
-150.618	-99.232	-0.117	0.029
-149.604	-196.032	-0.251	-0.002
-148.589	6.787	-0.102	-0.075
-147.574	-11.089	-0.159	0.103
-146.560	117.459	-0.057	0.069
-145.545	599.271	0.114	0.278
-144.531	-80.449	0.156	0.051
-143.516	800.000	-0.055	-0.155
-142.502	-16.885	0.243	0.151
-141.487	-89.928	0.095	0.027
-140.472	-200.000	-0.003	-0.031
-139.458	131.585	0.135	0.171
-138.443	-24.372	-0.106	0.062
-137.429	-65.557	-0.048	-0.019
-136.414	-25.238	0.351	-0.204
-135.399	-200.000	0.108	-0.477
-134.385	96.963	0.098	0.110
-133.370	-49.591	0.237	-0.111
-132.356	-149.327	0.301	0.024
-131.341	-109.313	-0.138	-0.029
-130.326	117.948	-0.102	-0.124
-129.312	74.649	-0.038	-0.039
-128.297	-200.000	-0.002	-0.035
-127.283	672.494	0.066	0.167
-126.268	-146.598	0.050	0.004
-125.253	-24.097	0.099	0.058
-124.239	699.031	-0.109	-0.283
-123.224	800.000	-0.078	-0.239
-122.210	4.257	0.210	-0.151
-121.195	-6.774	0.187	0.125
