DTS Sentinel unit serial number:	SN413079Multiplexer serial number:	ORYXHardware model number:	OX4-SRSoftware version number:	ORYX F/W v4.00 Oryx Data Collector v3.7.2.0data status	okinstallation	princeton_trtdifferential loss correction	single-endedforward channel	channel 4reverse channel	N/Adate	2019/09/18time	13:41:34forward acquisition time	60.00reverse acquisition time	0.00gamma	496.2192k internal	0.2302k external	0.2302temperature offset calibration	0.9996default loss term (dB/km)	0.3790temperature slope calibration	1.0000multiplexer offset coefficient	1.0000multiplexer slope coefficient	1.0000fibre end	0.00T internal ref (°C)	34.44T ext. ref 1 (°C)	0.63T ext. ref 2 (°C)	30.26length (m)	temperature (°C)	Stokes	anti-Stokes-747.200	-95.637	0.082	0.022
-746.185	181.961	0.101	0.151
-745.171	800.000	0.023	-0.102
-744.156	186.719	0.102	-0.154
-743.142	445.674	0.166	0.371
-742.127	-166.169	0.255	0.011
-741.112	-111.949	0.101	-0.021
-740.098	-31.977	-0.060	0.034
-739.083	-150.313	0.242	0.019
-738.069	395.891	-0.129	0.274
-737.054	-8.378	-0.164	0.112
-736.039	-200.000	-0.021	0.222
-735.025	-200.000	-0.018	0.102
-734.010	28.174	-0.131	0.112
-732.996	208.594	-0.093	0.147
-731.981	323.885	-0.042	0.081
-730.966	-79.217	0.220	-0.076
-729.952	434.464	0.162	-0.359
-728.937	-147.963	-0.086	0.007
-727.923	-115.198	-0.281	-0.054
-726.908	217.018	-0.054	-0.088
-725.894	565.019	-0.064	-0.158
-724.879	-77.438	-0.038	0.014
-723.864	673.112	-0.132	0.349
-722.850	43.760	0.127	0.119
-721.835	800.000	-0.111	-0.430
-720.821	800.000	0.042	-0.160
-719.806	-90.297	0.199	-0.059
-718.791	639.305	-0.158	-0.408
-717.777	105.189	-0.245	-0.294
-716.762	-3.093	-0.064	0.046
-715.748	-139.606	-0.307	-0.033
-714.733	-64.852	-0.138	-0.057
-713.718	800.000	0.055	-0.218
-712.704	46.489	-0.149	-0.141
-711.689	-19.875	-0.190	-0.120
-710.675	218.334	0.127	0.207
-709.660	274.919	-0.121	0.218
-708.645	253.357	0.194	0.337
-707.631	-200.000	0.068	-0.341
-706.616	-56.053	0.079	-0.036
-705.602	-200.000	-0.108	-0.000
-704.587	-200.000	-0.003	0.189
-703.572	-200.000	-0.012	-0.122
-702.558	-200.000	-0.026	0.271
-701.543	218.819	0.113	0.183
-700.529	-200.000	0.052	-0.271
-699.514	78.132	0.300	-0.326
-698.499	278.929	-0.202	0.367
-697.485	-46.796	0.135	-0.067
-696.470	-184.067	0.333	0.006
-695.456	-200.000	-0.002	0.093
-694.441	800.000	0.085	0.285
-693.426	31.666	0.313	0.274
-692.412	415.377	-0.134	0.290
-691.397	-200.000	0.033	-0.235
-690.383	636.240	-0.112	0.288
-689.368	-31.551	-0.145	0.083
-688.354	-64.415	0.210	0.087
-687.339	95.799	0.048	0.055
-686.324	212.938	0.179	-0.288
-685.310	36.677	0.075	0.067
-684.295	-109.138	-0.298	-0.065
-683.281	43.544	0.422	0.392
-682.266	-81.654	0.034	-0.011
-681.251	-83.950	0.286	0.092
-680.237	-200.000	-0.022	0.243
-679.222	800.000	0.060	0.247
-678.208	-72.694	-0.248	0.093
-677.193	-152.002	0.278	-0.021
-676.178	-200.000	0.003	-0.120
-675.164	-200.000	-0.012	-0.176
-674.149	-25.408	0.265	0.159
-673.135	-49.440	0.092	0.045
-672.120	211.119	0.209	-0.335
-671.105	-200.000	-0.018	-0.122
-670.091	-144.084	-0.321	0.031
-669.076	800.000	-0.057	0.199
-668.062	800.000	0.018	-0.055
-667.047	-42.131	-0.233	-0.121
-666.032	-12.050	0.141	-0.094
-665.018	-200.000	0.042	-0.190
-664.003	-38.594	0.140	-0.075
-662.989	-200.000	-0.065	-0.431
-661.974	146.661	-0.097	-0.132
-660.959	-127.090	-0.132	0.020
-659.945	-200.000	0.013	0.077
-658.930	-90.368	0.158	0.046
-657.916	-200.000	-0.002	0.181
-656.901	-167.166	0.163	0.007
-655.886	-52.611	-0.111	-0.052
-654.872	-93.499	-0.204	0.057
-653.857	6.642	0.115	-0.087
-652.843	94.463	0.033	-0.038
-651.828	-200.000	0.011	0.263
-650.814	-47.595	-0.258	0.127
-649.799	-200.000	0.008	0.100
-648.784	-200.000	0.001	0.114
-647.770	-91.105	0.344	-0.100
-646.755	0.455	0.209	0.151
-645.741	-38.229	0.220	-0.119
-644.726	-19.880	-0.167	0.105
-643.711	-166.889	0.391	-0.016
-642.697	-91.371	-0.187	0.054
-641.682	-158.189	-0.122	-0.007
-640.668	-138.634	0.224	0.025
-639.653	-200.000	-0.027	-0.239
-638.638	800.000	-0.037	0.131
-637.624	64.129	0.317	-0.323
-636.609	-18.796	-0.134	-0.085
-635.595	-144.450	-0.142	-0.013
-634.580	22.911	-0.272	-0.226
-633.565	29.205	0.112	-0.096
-632.551	186.709	-0.032	0.049
-631.536	494.403	0.117	-0.272
-630.522	288.215	0.098	-0.179
-629.507	266.509	0.079	-0.141
-628.492	-15.528	0.062	-0.040
-627.478	271.934	-0.053	-0.095
-626.463	-200.000	0.010	0.113
-625.449	276.501	-0.125	-0.226
-624.434	-200.000	0.010	-0.248
-623.419	-200.000	-0.007	-0.157
-622.405	-200.000	-0.029	0.391
-621.390	-82.609	-0.251	0.082
-620.376	349.902	0.059	-0.118
-619.361	-53.238	-0.310	0.144
-618.346	800.000	0.160	-0.515
-617.332	-200.000	0.010	-0.249
-616.317	43.796	0.148	0.138
-615.303	5.946	-0.238	-0.179
-614.288	-45.190	-0.338	0.170
-613.273	800.000	0.021	0.077
-612.259	-22.188	0.095	0.058
-611.244	-115.494	-0.067	-0.013
-610.230	-39.510	-0.240	0.127
-609.215	800.000	-0.093	-0.320
-608.201	124.418	-0.106	-0.135
-607.186	-183.169	-0.239	-0.004
-606.171	-200.000	-0.007	0.132
-605.157	-16.730	0.133	0.085
-604.142	800.000	-0.096	0.277
-603.128	113.731	-0.133	0.163
-602.113	514.640	-0.059	0.138
-601.098	758.331	-0.096	-0.265
-600.084	800.000	-0.059	0.232
-599.069	-42.276	-0.220	0.114
-598.055	-86.226	0.132	-0.041
-597.040	98.236	0.053	0.062
-596.025	494.528	-0.091	0.213
-595.011	-18.855	0.232	-0.146
-593.996	-130.897	-0.268	0.036
-592.982	-75.021	0.086	0.031
-591.967	-47.112	-0.208	0.103
-590.952	-97.835	-0.267	-0.070
-589.938	39.153	-0.037	-0.034
-588.923	-138.403	0.205	0.023
-587.909	-56.199	0.239	-0.108
-586.894	-112.022	-0.440	-0.090
-585.879	-51.358	-0.227	0.107
-584.865	-21.810	-0.261	-0.161
-583.850	-200.000	0.041	-0.200
-582.836	0.787	0.377	-0.273
-581.821	-200.000	0.010	-0.361
-580.806	-0.753	-0.167	-0.120
-579.792	800.000	-0.064	0.190
-578.777	-22.882	-0.248	-0.151
-577.763	-146.582	-0.135	0.012
-576.748	-150.540	0.314	0.024
-575.733	800.000	0.061	0.206
-574.719	175.720	0.255	0.375
-573.704	169.918	-0.151	-0.219
-572.690	-200.000	-0.015	0.070
-571.675	160.241	0.149	0.210
-570.661	-115.114	0.467	0.090
-569.646	-63.431	-0.477	-0.199
-568.631	-8.469	0.054	-0.037
-567.617	64.436	0.064	0.066
-566.602	498.380	-0.076	0.178
-565.588	83.051	-0.263	-0.289
-564.573	-71.480	0.181	-0.069
-563.558	246.459	-0.160	-0.273
-562.544	166.677	-0.036	-0.052
-561.529	26.337	-0.236	0.200
-560.515	417.395	-0.135	0.291
-559.500	-124.448	0.201	-0.032
-558.485	800.000	-0.020	0.061
-557.471	-200.000	0.317	0.000
-556.456	592.846	0.163	-0.407
-555.442	-200.000	-0.038	0.255
-554.427	736.245	0.025	0.068
-553.412	-96.046	0.253	0.068
-552.398	-18.856	0.138	0.087
-551.383	688.826	0.078	-0.206
-550.369	-27.817	0.082	-0.048
-549.354	-200.000	-0.032	0.306
-548.339	-108.117	-0.194	-0.043
-547.325	-116.231	0.099	-0.019
-546.310	-75.276	-0.028	0.010
-545.296	800.000	0.103	0.305
-544.281	-70.626	-0.106	0.040
-543.266	-53.088	-0.006	-0.003
-542.252	-66.935	-0.318	0.127
-541.237	-185.789	-0.188	0.003
-540.223	-188.446	-0.142	0.002
-539.208	193.260	0.183	0.280
-538.193	216.816	-0.043	0.070
-537.179	400.796	-0.088	0.187
-536.164	55.165	0.068	-0.066
-535.150	20.109	-0.078	-0.063
-534.135	-176.102	0.072	-0.002
-533.121	-45.671	0.111	-0.056
-532.106	14.335	-0.214	-0.168
-531.091	60.920	0.034	0.034
-530.077	556.336	-0.065	0.157
-529.062	-90.419	0.174	0.051
-528.048	11.093	-0.239	0.185
-527.033	-166.044	-0.254	-0.011
-526.018	-116.290	0.344	-0.064
-525.004	800.000	0.074	-0.226
-523.989	121.427	-0.015	0.019
-522.975	50.757	0.184	0.176
-521.960	794.401	0.067	0.186
-520.945	113.527	-0.077	-0.095
-519.931	726.298	-0.106	0.286
-518.916	340.501	0.143	0.282
-517.902	117.063	-0.250	-0.310
-516.887	-92.250	-0.043	0.012
-515.872	-200.000	0.000	0.229
-514.858	-200.000	-0.023	0.194
-513.843	-200.000	0.003	0.196
-512.829	-49.190	0.350	0.169
-511.814	307.814	0.037	-0.069
-510.799	800.000	0.040	-0.131
-509.785	-87.770	-0.293	0.089
-508.770	188.195	0.094	-0.141
-507.756	211.971	-0.092	0.146
-506.741	-200.000	0.043	-0.229
-505.726	95.883	0.027	0.031
-504.712	720.006	-0.047	0.125
-503.697	42.180	0.113	0.104
-502.683	-12.610	0.146	0.096
-501.668	-128.819	0.182	0.026
-500.653	-200.000	-0.078	0.348
-499.639	308.698	-0.123	-0.231
-498.624	71.920	-0.122	-0.128
-497.610	-61.959	0.125	-0.053
-496.595	744.218	0.038	0.104
-495.581	232.468	0.047	-0.078
-494.566	4.005	0.152	-0.112
-493.551	767.336	-0.100	0.275
-492.537	145.656	0.084	0.114
-491.522	297.976	0.084	-0.157
-490.508	800.000	0.006	0.025
-489.493	139.555	0.156	0.207
-488.478	800.000	-0.063	-0.204
-487.464	52.913	-0.238	0.229
-486.449	-200.000	0.018	0.177
-485.435	419.455	-0.105	0.226
-484.420	-76.548	-0.120	-0.043
-483.405	800.000	0.033	-0.139
-482.391	800.000	-0.013	0.054
-481.376	-134.455	0.410	0.051
-480.362	-200.000	-0.079	-0.362
-479.347	-41.989	-0.154	0.080
-478.332	-96.565	-0.048	-0.013
-477.318	-200.000	-0.003	-0.098
-476.303	130.341	-0.111	0.143
-475.289	-200.000	0.011	-0.226
-474.274	583.212	0.041	0.101
-473.259	-200.000	-0.051	0.271
-472.245	714.943	-0.171	-0.458
-471.230	201.134	0.157	-0.243
-470.216	202.482	0.037	-0.057
-469.201	-8.166	-0.094	0.064
-468.186	-47.133	-0.037	0.018
-467.172	800.000	-0.108	-0.395
-466.157	-46.578	-0.064	-0.032
-465.143	-200.000	-0.004	-0.096
-464.128	-200.000	0.048	-0.341
-463.113	362.926	0.170	-0.345
-462.099	-81.688	-0.099	-0.033
-461.084	-200.000	0.037	-0.446
-460.070	212.471	0.141	-0.224
-459.055	-83.657	-0.419	-0.135
-458.040	186.145	-0.076	-0.115
-457.026	33.957	0.050	-0.044
-456.011	-200.000	-0.042	-0.371
-454.997	395.506	0.123	0.258
-453.982	-84.349	-0.147	-0.047
-452.968	-66.083	-0.186	-0.075
-451.953	160.117	-0.081	-0.113
-450.938	31.250	-0.169	0.146
-449.924	-72.037	-0.226	0.085
-448.909	800.000	0.031	0.106
-447.895	159.293	-0.080	-0.112
-446.880	-112.262	-0.218	0.044
-445.865	-43.135	-0.205	0.105
-444.851	-200.000	-0.020	0.103
-443.836	729.637	-0.034	-0.091
-442.822	-42.354	-0.094	-0.048
-441.807	496.389	0.108	-0.250
-440.792	-33.917	-0.320	0.177
-439.778	109.842	-0.111	-0.135
-438.763	-200.000	-0.016	0.148
-437.749	-18.134	0.408	0.257
-436.734	33.877	0.163	-0.143
-435.719	124.065	0.147	-0.186
-434.705	-124.593	-0.167	0.026
-433.690	-43.357	0.145	0.074
-432.676	-158.790	0.096	0.006
-431.661	-200.000	-0.002	0.166
-430.646	-140.440	0.140	0.015
-429.632	-96.525	-0.344	0.092
-428.617	200.874	-0.068	0.106
-427.603	-87.265	-0.080	-0.025
-426.588	236.259	0.099	0.166
-425.573	-200.000	-0.029	0.267
-424.559	800.000	-0.091	0.319
-423.544	154.124	-0.104	-0.143
-422.530	38.892	0.177	0.159
-421.515	-200.000	-0.001	-0.008
-420.500	103.089	-0.053	0.063
-419.486	0.932	0.083	-0.060
-418.471	-200.000	0.035	0.229
-417.457	-200.000	-0.020	-0.307
-416.442	-160.303	0.140	0.008
-415.428	800.000	-0.019	0.065
-414.413	-114.907	-0.103	0.020
-413.398	198.689	0.110	-0.170
-412.384	-29.395	-0.167	-0.096
-411.369	95.926	0.151	-0.174
-410.355	-200.000	-0.036	-0.294
-409.340	-200.000	0.023	0.314
-408.325	-200.000	0.475	-0.000
-407.311	12.469	0.221	-0.172
-406.296	-67.438	-0.231	0.091
-405.282	394.384	-0.101	0.212
-404.267	-184.523	0.256	0.004
-403.252	800.000	-0.014	-0.053
-402.238	-92.120	0.281	0.080
-401.223	430.776	0.134	0.291
-400.209	800.000	-0.058	0.246
-399.194	-150.518	-0.104	0.008
-398.179	31.401	0.071	-0.062
-397.165	-103.085	0.175	0.042
-396.150	21.910	-0.129	0.106
-395.136	-140.902	0.072	0.007
-394.121	0.505	0.147	0.105
-393.106	39.481	-0.033	0.030
-392.092	-200.000	-0.015	-0.178
-391.077	800.000	-0.038	0.148
-390.063	-22.770	0.099	-0.060
-389.048	95.858	0.080	0.092
-388.033	-185.757	-0.366	0.006
-387.019	-83.524	-0.190	0.061
-386.004	80.075	-0.074	-0.079
-384.990	-164.642	0.352	-0.016
-383.975	30.692	-0.137	0.118
-382.960	335.050	-0.172	0.334
-381.946	-46.155	-0.234	0.116
-380.931	474.630	-0.083	0.189
-379.917	-123.975	0.274	-0.043
-378.902	285.615	0.069	0.125
-377.888	36.543	-0.268	0.238
-376.873	-22.914	-0.092	0.056
-375.858	177.306	0.107	0.157
-374.844	120.168	-0.202	-0.252
-373.829	-51.133	-0.261	-0.123
-372.815	117.881	0.058	-0.071
-371.800	623.980	0.051	-0.128
-370.785	-16.518	-0.239	0.152
-369.771	16.847	0.237	-0.189
-368.756	516.910	0.071	0.166
-367.742	-79.769	0.197	-0.067
-366.727	800.000	0.017	0.070
-365.712	-40.485	-0.200	-0.104
-364.698	-167.107	0.128	0.005
-363.683	265.724	-0.034	-0.059
-362.669	160.485	0.029	-0.041
-361.654	-106.780	0.458	0.102
-360.639	484.125	0.028	-0.064
-359.625	-34.453	0.180	0.099
-358.610	30.402	0.190	0.163
-357.596	-126.955	0.343	0.051
-356.581	437.880	-0.115	0.251
-355.566	-169.703	-0.204	-0.007
-354.552	-200.000	-0.021	-0.102
-353.537	140.233	0.062	-0.082
-352.523	123.051	0.251	0.316
-351.508	-200.000	-0.031	0.138
-350.493	439.555	-0.122	-0.267
-349.479	-149.150	-0.273	-0.022
-348.464	-200.000	-0.069	0.387
-347.450	800.000	-0.049	0.194
-346.435	-200.000	-0.039	0.234
-345.420	-123.231	-0.138	0.022
-344.406	69.901	-0.160	0.165
-343.391	73.852	0.045	0.048
-342.377	120.445	0.137	0.170
-341.362	-200.000	-0.074	-0.384
-340.348	-160.936	-0.323	-0.017
-339.333	290.685	0.124	-0.226
-338.318	-14.799	-0.071	0.045
-337.304	-5.024	0.263	0.182
-336.289	-42.707	-0.093	0.047
-335.275	58.541	-0.347	-0.342
-334.260	-200.000	0.003	0.067
-333.245	-112.223	0.254	-0.051
-332.231	-200.000	0.007	-0.348
-331.216	237.665	0.073	-0.121
-330.202	800.000	0.031	-0.110
-329.187	165.159	0.129	-0.182
-328.172	294.911	0.090	0.166
-327.158	62.876	0.195	-0.196
-326.143	127.799	0.075	-0.095
-325.129	282.702	-0.135	-0.243
-324.114	-200.000	0.011	-0.180
-323.099	365.687	-0.024	-0.048
-322.085	20.821	0.113	0.092
-321.070	-73.062	0.237	-0.087
-320.056	93.280	-0.221	-0.250
-319.041	-126.903	-0.179	-0.026
-318.026	-56.122	-0.101	0.045
-317.012	15.914	-0.146	0.115
-315.997	-200.000	0.001	0.032
-314.983	800.000	0.051	-0.142
-313.968	698.161	0.095	-0.250
-312.953	-56.365	0.373	0.166
-311.939	-60.822	-0.186	-0.079
-310.924	106.333	-0.082	0.097
-309.910	184.928	0.175	0.260
-308.895	-200.000	-0.046	-0.211
-307.880	800.000	-0.123	-0.392
-306.866	-95.496	-0.134	0.036
-305.851	-68.395	0.298	-0.116
-304.837	-24.739	0.232	-0.138
-303.822	292.787	-0.108	0.197
-302.807	157.436	0.109	-0.151
-301.793	-200.000	-0.018	-0.370
-300.778	-157.346	0.327	0.020
-299.764	-200.000	0.024	-0.200
-298.749	318.882	0.192	-0.364
-297.735	-28.256	0.027	0.016
-296.720	192.674	-0.094	0.142
-295.705	221.058	0.141	0.226
-294.691	-200.000	-0.011	-0.288
-293.676	73.826	-0.185	-0.194
-292.662	-38.955	-0.346	0.182
-291.647	-61.836	0.106	-0.045
-290.632	668.373	-0.026	0.067
-289.618	555.172	-0.095	-0.228
-288.603	800.000	0.093	0.318
-287.589	91.851	0.273	-0.308
-286.574	-200.000	0.002	0.144
-285.559	800.000	-0.056	-0.179
-284.545	-103.616	-0.092	-0.022
-283.530	-27.020	-0.168	-0.098
-282.516	24.590	0.113	-0.093
-281.501	-93.956	-0.152	-0.042
-280.486	73.080	0.272	0.285
-279.472	-5.406	-0.040	0.027
-278.457	3.792	-0.215	0.157
-277.443	46.671	0.134	-0.124
-276.428	800.000	-0.072	-0.272
-275.413	-85.523	-0.271	-0.085
-274.399	47.109	-0.211	0.196
-273.384	-35.863	-0.153	-0.083
-272.370	205.410	-0.111	0.173
-271.355	-200.000	0.001	-0.033
-270.340	83.038	-0.063	0.068
-269.326	-13.182	0.272	-0.177
-268.311	-200.000	0.003	0.014
-267.297	-200.000	0.001	0.537
-266.282	-30.766	-0.218	0.123
-265.267	-200.000	0.076	-0.360
-264.253	294.271	0.191	0.349
-263.238	800.000	0.079	-0.244
-262.224	-29.592	-0.099	-0.056
-261.209	-121.387	0.188	0.031
-260.195	128.066	0.114	0.145
-259.180	76.688	-0.128	0.136
-258.165	800.000	0.057	-0.173
-257.151	800.000	0.062	0.175
-256.136	-20.099	-0.088	0.054
-255.122	-6.248	-0.094	-0.064
-254.107	733.237	0.126	-0.338
-253.092	-90.225	0.166	0.048
-252.078	800.000	0.027	-0.087
-251.063	-200.000	0.003	-0.114
-250.049	796.864	-0.063	-0.174
-249.034	-200.000	-0.078	0.349
-248.019	-200.000	-0.004	-0.054
-247.005	169.533	-0.182	0.260
-245.990	-22.975	0.231	-0.139
-244.976	800.000	-0.089	-0.286
-243.961	80.186	-0.148	0.160
-242.946	104.853	0.229	0.270
-241.932	44.344	0.281	-0.258
-240.917	-5.452	-0.279	-0.191
-239.903	-143.113	0.263	0.025
-238.888	-200.000	0.044	-0.193
-237.873	93.899	-0.135	0.153
-236.859	218.790	-0.136	0.218
-235.844	157.694	-0.121	0.168
-234.830	800.000	-0.016	0.063
-233.815	-163.267	-0.403	0.019
-232.800	-152.488	-0.299	0.021
-231.786	-113.625	-0.326	-0.064
-230.771	736.875	0.072	-0.194
-229.757	215.902	-0.121	0.192
-228.742	-89.194	0.319	-0.094
-227.727	183.223	-0.116	0.170
-226.713	499.629	-0.103	0.238
-225.698	800.000	0.080	0.297
-224.684	219.380	-0.068	0.109
-223.669	-115.043	-0.219	0.042
-222.655	-126.619	0.029	-0.004
-221.640	174.401	-0.191	0.275
-220.625	800.000	0.058	0.243
-219.611	800.000	-0.060	0.202
-218.596	-27.192	0.070	-0.041
-217.582	48.859	-0.271	-0.254
-216.567	-200.000	0.002	-0.102
-215.552	-41.375	-0.076	0.039
-214.538	395.192	0.021	-0.044
-213.523	-200.000	0.014	-0.296
-212.509	-73.842	0.348	0.126
-211.494	-70.149	-0.253	-0.096
-210.479	-89.766	-0.529	-0.155
-209.465	-37.314	0.232	-0.124
-208.450	-90.358	0.184	0.053
-207.436	-34.024	0.275	0.151
-206.421	-62.145	0.311	0.130
-205.406	-57.493	0.126	-0.055
-204.392	31.779	0.165	0.141
-203.377	-200.000	0.014	0.119
-202.363	112.537	0.251	-0.303
-201.348	-200.000	0.002	0.032
-200.333	-135.679	0.405	0.048
-199.319	156.621	-0.224	-0.309
-198.304	-151.010	0.327	-0.025
-197.290	-200.000	-0.015	0.075
-196.275	-123.182	0.074	0.012
-195.260	352.509	0.071	-0.140
-194.246	-19.858	0.114	-0.070
-193.231	-193.266	0.234	-0.002
-192.217	-61.724	-0.200	0.084
-191.202	800.000	0.029	-0.115
-190.187	57.589	0.187	-0.183
-189.173	-146.100	0.154	0.014
-188.158	25.438	-0.157	0.130
-187.144	42.677	0.241	-0.219
-186.129	507.952	-0.145	0.336
-185.114	800.000	-0.040	-0.154
-184.100	-200.000	-0.006	-0.262
-183.085	-200.000	0.065	0.398
-182.071	120.057	0.087	0.108
-181.056	-200.000	0.042	0.450
-180.042	-36.966	0.181	-0.097
-179.027	-200.000	0.037	0.257
-178.012	146.519	-0.281	0.376
-176.998	-106.025	0.184	-0.041
-175.983	58.575	0.207	-0.203
-174.969	-82.582	0.184	0.059
-173.954	61.792	-0.198	-0.197
-172.939	-200.000	-0.041	0.357
-171.925	-200.000	0.028	-0.322
-170.910	-56.981	-0.163	0.072
-169.896	-13.785	0.208	-0.134
-168.881	800.000	0.087	-0.245
-167.866	-29.572	0.143	0.081
-166.852	-104.112	0.220	0.051
-165.837	541.743	0.090	-0.213
-164.823	-40.844	0.024	0.012
-163.808	372.116	0.074	-0.149
-162.793	-103.942	0.127	-0.029
-161.779	280.973	-0.171	0.304
-160.764	50.416	0.133	0.125
-159.750	80.432	0.164	0.176
-158.735	135.369	-0.066	0.086
-157.720	800.000	0.145	-0.424
-156.706	9.168	0.106	-0.080
-155.691	-58.753	-0.328	-0.141
-154.677	-157.571	-0.229	-0.014
-153.662	82.817	-0.044	-0.047
-152.647	-200.000	-0.076	0.348
-151.633	280.599	0.107	0.191
-150.618	626.075	-0.048	0.120
-149.604	27.700	-0.327	0.274
-148.589	-115.847	-0.238	0.044
-147.574	138.316	-0.154	0.202
-146.560	143.911	0.073	0.097
-145.545	-74.772	-0.336	0.120
-144.531	-182.172	0.054	-0.001
-143.516	197.740	-0.110	0.168
-142.502	-51.565	-0.171	0.080
-141.487	136.351	-0.267	0.347
-140.472	-151.972	-0.045	-0.003
-139.458	-149.808	-0.230	-0.018
-138.443	40.768	-0.102	0.092
-137.429	66.835	-0.241	0.244
-136.414	-33.960	0.121	0.066
-135.399	-80.339	0.339	-0.113
-134.385	-200.000	-0.039	0.204
-133.370	-83.852	-0.276	-0.088
-132.356	21.683	0.111	-0.090
-131.341	118.253	0.135	-0.165
-130.326	-96.035	0.271	0.072
-129.312	-200.000	-0.050	-0.368
-128.297	-200.000	-0.000	-0.289
-127.283	-34.534	-0.144	-0.078
-126.268	800.000	-0.069	0.218
-125.253	-135.353	-0.096	-0.011
-124.239	-200.000	0.016	0.215
-123.224	-142.385	0.238	0.023
-122.210	121.302	-0.075	-0.093
-121.195	-24.898	-0.165	-0.097
