DTS Sentinel unit serial number:	SN413079Multiplexer serial number:	ORYXHardware model number:	OX4-SRSoftware version number:	ORYX F/W v4.00 Oryx Data Collector v3.7.2.0data status	okinstallation	princeton_trtdifferential loss correction	single-endedforward channel	channel 4reverse channel	N/Adate	2019/09/13time	00:25:35forward acquisition time	60.00reverse acquisition time	0.00gamma	496.2192k internal	0.2317k external	0.2317temperature offset calibration	1.0170default loss term (dB/km)	0.3790temperature slope calibration	1.0000multiplexer offset coefficient	1.0000multiplexer slope coefficient	1.0000fibre end	0.00T internal ref (°C)	28.44T ext. ref 1 (°C)	3.73T ext. ref 2 (°C)	22.99length (m)	temperature (°C)	Stokes	anti-Stokes-747.200	-133.076	0.327	-0.042
-746.185	8.086	-0.069	0.052
-745.171	-56.641	-0.210	-0.094
-744.156	367.663	-0.250	-0.510
-743.142	-200.000	0.026	-0.273
-742.127	144.180	-0.081	0.110
-741.112	-200.000	0.041	-0.203
-740.098	232.497	-0.232	0.386
-739.083	104.509	-0.080	-0.095
-738.069	-200.000	0.061	0.318
-737.054	787.018	-0.037	-0.103
-736.039	-141.702	-0.504	-0.051
-735.025	-200.000	0.023	-0.190
-734.010	-10.250	0.266	-0.178
-732.996	65.317	-0.315	0.322
-731.981	-137.387	0.145	-0.017
-730.966	-3.562	0.194	-0.137
-729.952	-200.000	-0.021	-0.300
-728.937	-32.101	-0.482	-0.273
-727.923	-108.743	-0.211	-0.046
-726.908	-200.000	0.019	-0.105
-725.894	93.971	-0.321	-0.369
-724.879	-51.302	-0.366	-0.173
-723.864	-53.902	-0.360	-0.166
-722.850	23.765	0.151	-0.126
-721.835	-40.644	-0.135	-0.071
-720.821	108.528	-0.131	0.158
-719.806	59.913	-0.265	-0.264
-718.791	38.488	-0.223	-0.201
-717.777	-200.000	0.004	-0.125
-716.762	481.172	-0.126	-0.288
-715.748	-78.706	-0.418	0.144
-714.733	97.787	0.118	-0.137
-713.718	-59.021	-0.289	-0.126
-712.704	-116.707	0.196	0.036
-711.689	-75.343	-0.075	0.027
-710.675	-200.000	-0.001	-0.095
-709.660	57.930	0.208	-0.206
-708.645	5.746	-0.186	-0.139
-707.631	154.720	-0.095	-0.132
-706.616	188.613	-0.162	-0.246
-705.602	-38.554	-0.144	-0.077
-704.587	-50.867	-0.448	0.213
-703.572	-200.000	-0.018	-0.111
-702.558	139.452	0.080	0.107
-701.543	-48.725	-0.194	-0.094
-700.529	42.104	0.076	0.070
-699.514	387.099	0.043	0.090
-698.499	3.900	-0.090	-0.066
-697.485	-51.914	0.188	-0.088
-696.470	94.486	-0.071	-0.082
-695.456	-72.913	0.178	-0.066
-694.441	-200.000	0.046	-0.367
-693.426	-156.700	-0.353	0.022
-692.412	306.835	-0.134	0.252
-691.397	428.973	0.025	-0.054
-690.383	-100.195	-0.179	0.045
-689.368	-200.000	-0.224	-0.001
-688.354	-200.000	0.018	-0.160
-687.339	-106.969	-0.368	0.082
-686.324	-49.537	0.280	0.135
-685.310	-200.000	0.006	-0.190
-684.295	-53.531	0.059	0.027
-683.281	111.728	0.265	-0.323
-682.266	78.032	-0.140	0.151
-681.251	-138.988	0.182	0.020
-680.237	284.416	0.102	-0.186
-679.222	148.320	-0.080	-0.109
-678.208	107.316	0.074	0.089
-677.193	-15.087	-0.227	0.147
-676.178	-38.384	0.133	-0.071
-675.164	-110.760	-0.306	-0.064
-674.149	604.140	0.048	-0.120
-673.135	-200.000	0.027	0.166
-672.120	117.674	0.291	-0.362
-671.105	625.292	-0.064	0.163
-670.091	-132.287	0.179	-0.023
-669.076	67.712	-0.236	0.243
-668.062	327.717	-0.107	-0.208
-667.047	305.458	0.119	-0.223
-666.032	100.526	-0.332	-0.389
-665.018	562.853	-0.096	-0.235
-664.003	-200.000	0.043	-0.232
-662.989	18.725	-0.344	-0.278
-661.974	49.635	-0.357	0.339
-660.959	-200.000	0.050	0.291
-659.945	-50.212	0.056	-0.027
-658.930	654.006	-0.049	-0.127
-657.916	-200.000	-0.008	-0.286
-656.901	-103.766	0.424	-0.100
-655.886	-84.327	0.110	-0.035
-654.872	13.716	-0.086	-0.067
-653.857	-62.272	-0.163	-0.068
-652.843	-73.475	0.247	0.091
-651.828	49.940	-0.156	-0.148
-650.814	5.347	-0.250	-0.186
-649.799	-200.000	-0.005	0.274
-648.784	112.235	0.093	-0.113
-647.770	-13.818	-0.150	-0.098
-646.755	206.379	-0.049	-0.077
-645.741	-10.284	-0.203	-0.136
-644.726	-100.996	0.348	0.086
-643.711	787.388	-0.026	-0.072
-642.697	223.613	-0.057	-0.093
-641.682	-56.424	-0.184	-0.082
-640.668	98.538	0.073	0.084
-639.653	326.135	0.047	0.092
-638.638	-8.005	0.167	-0.114
-637.624	-25.848	-0.028	0.017
-636.609	798.429	0.076	-0.210
-635.595	-189.367	0.176	-0.002
-634.580	-200.000	-0.008	-0.366
-633.565	-138.695	-0.184	-0.020
-632.551	-127.619	-0.335	0.049
-631.536	-128.539	-0.093	0.013
-630.522	77.990	-0.088	-0.094
-629.507	-20.975	-0.170	0.105
-628.492	-46.899	-0.123	0.061
-627.478	800.000	-0.047	-0.161
-626.463	-149.247	-0.358	-0.029
-625.449	184.374	0.065	-0.097
-624.434	-200.000	-0.008	-0.129
-623.419	-150.826	0.248	-0.019
-622.405	800.000	-0.113	-0.327
-621.390	-190.868	-0.111	0.001
-620.376	11.788	0.049	0.038
-619.361	-20.713	0.110	-0.068
-618.346	165.041	-0.148	-0.211
-617.332	304.483	-0.068	-0.127
-616.317	27.458	-0.104	-0.088
-615.303	800.000	-0.016	0.051
-614.288	-200.000	0.018	0.281
-613.273	-7.118	0.190	-0.130
-612.259	46.953	-0.119	0.111
-611.244	800.000	-0.075	-0.297
-610.230	-70.955	0.019	-0.007
-609.215	42.005	-0.288	-0.263
-608.201	-126.647	0.457	-0.068
-607.186	367.207	0.138	-0.280
-606.171	338.035	-0.072	-0.142
-605.157	331.185	-0.108	0.210
-604.142	800.000	0.030	-0.119
-603.128	383.912	0.141	-0.293
-602.113	-200.000	-0.029	0.210
-601.098	-6.583	-0.097	-0.066
-600.084	753.820	-0.062	-0.168
-599.069	-200.000	0.000	-0.247
-598.055	-200.000	0.011	-0.188
-597.040	20.322	0.190	-0.154
-596.025	-200.000	-0.063	-0.368
-595.011	-87.579	0.068	0.021
-593.996	-128.469	-0.488	0.070
-592.982	30.728	0.087	0.075
-591.967	-200.000	-0.003	0.176
-590.952	-80.283	0.229	-0.077
-589.938	-97.373	-0.134	-0.035
-588.923	-155.367	-0.259	-0.017
-587.909	169.747	0.081	0.116
-586.894	-40.225	0.252	-0.132
-585.879	16.116	-0.140	-0.111
-584.865	-48.851	-0.021	0.010
-583.850	212.359	-0.024	-0.039
-582.836	-114.358	0.081	0.016
-581.821	-200.000	0.011	-0.143
-580.806	-95.509	0.267	-0.072
-579.792	28.773	0.276	0.235
-578.777	-200.000	0.002	-0.199
-577.763	-200.000	-0.009	0.275
-576.748	-200.000	0.039	-0.178
-575.733	800.000	-0.078	-0.290
-574.719	800.000	-0.075	-0.250
-573.704	-52.667	-0.050	0.023
-572.690	-146.711	-0.058	-0.005
-571.675	800.000	-0.073	0.260
-570.661	-200.000	-0.014	0.163
-569.646	-126.071	0.234	-0.035
-568.631	6.569	-0.262	-0.196
-567.617	-1.494	0.294	0.209
-566.602	-68.873	-0.316	0.123
-565.588	-200.000	-0.007	-0.091
-564.573	-200.000	0.012	-0.056
-563.558	800.000	-0.049	-0.140
-562.544	-59.541	0.111	-0.048
-561.529	-39.959	-0.377	0.198
-560.515	394.253	0.201	0.421
-559.500	800.000	0.019	0.057
-558.485	-200.000	0.007	-0.137
-557.471	-200.000	0.014	-0.286
-556.456	-66.779	-0.074	-0.029
-555.442	-153.626	0.082	0.006
-554.427	-72.127	-0.169	0.063
-553.412	-12.735	0.043	0.028
-552.398	34.195	-0.126	-0.110
-551.383	98.927	-0.260	0.302
-550.369	-33.976	0.150	-0.083
-549.354	154.569	-0.248	-0.342
-548.339	609.240	0.053	0.133
-547.325	800.000	0.042	0.135
-546.310	-15.274	0.128	0.082
-545.296	800.000	-0.053	0.201
-544.281	800.000	-0.081	0.277
-543.266	22.822	-0.243	0.200
-542.252	256.105	-0.115	0.199
-541.237	-200.000	-0.015	0.078
-540.223	-200.000	-0.084	0.530
-539.208	-200.000	-0.002	0.120
-538.193	35.907	0.100	0.088
-537.179	213.810	0.090	-0.143
-536.164	-102.367	0.194	0.047
-535.150	-52.929	-0.063	-0.029
-534.135	3.714	0.277	-0.203
-533.121	-110.444	0.160	-0.033
-532.106	-59.911	0.322	-0.138
-531.091	32.898	-0.205	0.178
-530.077	-184.860	-0.409	0.007
-529.062	-200.000	-0.014	0.081
-528.048	800.000	0.088	0.306
-527.033	-95.920	0.237	-0.063
-526.018	230.059	-0.052	-0.086
-525.004	597.017	0.097	-0.241
-523.989	169.858	-0.173	0.248
-522.975	-40.464	0.140	0.073
-521.960	-119.474	0.026	-0.005
-520.945	259.892	0.058	0.100
-519.931	-84.128	-0.253	-0.081
-518.916	-42.698	-0.124	-0.064
-517.902	115.401	-0.192	0.236
-516.887	-200.000	-0.015	0.298
-515.872	155.876	0.066	-0.091
-514.858	-133.697	0.147	-0.018
-513.843	-200.000	0.027	-0.217
-512.829	13.155	0.140	0.109
-511.814	111.714	0.147	-0.178
-510.799	74.222	-0.081	0.085
-509.785	-151.351	-0.228	0.017
-508.770	800.000	0.051	0.193
-507.756	229.138	0.098	0.161
-506.741	-200.000	-0.012	-0.329
-505.726	-110.552	0.290	-0.060
-504.712	800.000	0.028	-0.099
-503.697	-55.701	0.258	-0.116
-502.683	800.000	0.015	-0.057
-501.668	135.063	0.055	-0.071
-500.653	-200.000	-0.014	0.334
-499.639	800.000	0.065	0.186
-498.624	17.185	-0.346	-0.275
-497.610	-112.572	-0.260	0.052
-496.595	-200.000	0.005	0.229
-495.581	339.951	0.108	0.211
-494.566	42.561	-0.101	0.092
-493.551	233.458	-0.071	0.117
-492.537	67.856	0.034	0.034
-491.522	-117.821	-0.255	0.046
-490.508	-116.513	-0.057	-0.010
-489.493	-144.834	0.460	-0.042
-488.478	-200.000	-0.011	-0.063
-487.464	-200.000	-0.005	-0.184
-486.449	800.000	-0.085	-0.263
-485.435	-200.000	-0.036	-0.234
-484.420	-33.081	-0.227	0.126
-483.405	44.331	0.089	0.082
-482.391	100.215	-0.137	0.159
-481.376	-86.999	0.131	-0.040
-480.362	-100.929	0.173	-0.043
-479.347	800.000	-0.073	-0.239
-478.332	23.708	-0.122	-0.101
-477.318	463.502	-0.038	-0.085
-476.303	-200.000	0.021	-0.156
-475.289	800.000	0.142	-0.420
-474.274	-200.000	-0.048	-0.459
-473.259	-200.000	0.051	-0.261
-472.245	-146.597	0.188	-0.016
-471.230	-200.000	-0.026	-0.226
-470.216	-200.000	-0.007	0.079
-469.201	166.783	-0.094	0.134
-468.186	-44.913	0.143	-0.071
-467.172	-151.233	0.148	-0.011
-466.157	-105.008	-0.200	0.046
-465.143	-52.262	-0.161	-0.075
-464.128	-35.579	0.058	-0.032
-463.113	25.511	0.150	-0.125
-462.099	800.000	-0.070	0.199
-461.084	-141.184	-0.266	-0.027
-460.070	-200.000	0.006	0.286
-459.055	-200.000	-0.032	0.273
-458.040	234.667	0.040	-0.067
-457.026	-115.210	-0.493	0.093
-456.011	-38.698	0.379	0.200
-454.997	-2.326	-0.254	0.179
-453.982	115.803	0.028	-0.034
-452.968	662.045	-0.110	-0.283
-451.953	-122.727	-0.191	-0.031
-450.938	-21.310	0.147	0.090
-449.924	-41.483	0.239	0.123
-448.909	-147.105	-0.163	-0.014
-447.895	-200.000	-0.056	0.269
-446.880	100.223	0.116	0.135
-445.865	131.257	-0.138	-0.177
-444.851	10.619	-0.278	-0.212
-443.836	54.191	0.101	0.097
-442.822	-23.627	-0.284	0.171
-441.807	-82.127	0.038	-0.013
-440.792	-54.147	0.194	0.088
-439.778	-117.838	0.060	0.011
-438.763	-200.000	0.028	-0.284
-437.749	109.359	-0.168	-0.201
-436.734	-113.709	0.144	-0.028
-435.719	-98.295	-0.162	0.041
-434.705	-36.693	0.439	-0.236
-433.690	-200.000	-0.031	0.175
-432.676	-6.284	0.327	0.223
-431.661	-147.148	-0.301	0.026
-430.646	-20.335	0.214	0.132
-429.632	-170.022	-0.194	0.007
-428.617	130.334	0.128	0.164
-427.603	298.141	-0.024	-0.044
-426.588	-50.048	0.268	0.127
-425.573	233.380	-0.133	0.219
-424.559	-0.845	0.136	0.097
-423.544	8.285	-0.123	0.093
-422.530	241.178	-0.155	-0.259
-421.515	-200.000	-0.041	0.256
-420.500	-42.136	-0.139	-0.071
-419.486	800.000	-0.031	0.122
-418.471	-79.878	0.214	-0.072
-417.457	215.327	-0.059	0.094
-416.442	-44.958	-0.096	-0.048
-415.428	347.893	0.055	-0.108
-414.413	372.354	-0.084	0.171
-413.398	25.764	0.281	0.234
-412.384	-45.419	0.053	0.026
-411.369	182.902	0.118	0.173
-410.355	102.796	0.101	0.118
-409.340	714.208	-0.016	0.044
-408.325	410.947	-0.136	-0.289
-407.311	-149.585	-0.151	0.012
-406.296	434.569	-0.186	0.404
-405.282	-200.000	0.078	0.379
-404.267	107.368	0.053	0.063
-403.252	-72.056	0.168	-0.062
-402.238	-99.167	-0.155	-0.039
-401.223	-110.882	-0.300	-0.062
-400.209	-163.764	0.180	-0.008
-399.194	-84.216	0.161	-0.051
-398.179	-200.000	0.022	0.160
-397.165	-75.258	0.251	0.089
-396.150	-174.377	0.288	0.008
-395.136	65.858	-0.051	0.052
-394.121	-20.952	-0.165	0.101
-393.106	-119.054	-0.218	-0.038
-392.092	59.834	0.044	0.043
-391.077	-41.539	0.133	0.068
-390.063	49.905	0.270	0.254
-389.048	-200.000	0.053	0.251
-388.033	-38.436	0.094	-0.050
-387.019	-72.047	-0.197	-0.073
-386.004	143.139	-0.276	0.367
-384.990	-84.805	0.262	0.082
-383.975	588.418	0.063	0.155
-382.960	800.000	0.072	-0.232
-381.946	-200.000	-0.048	0.269
-380.931	189.941	0.055	-0.082
-379.917	-200.000	-0.005	0.138
-378.902	-103.745	0.191	0.045
-377.888	-28.707	0.075	0.043
-376.873	-14.713	0.070	-0.045
-375.858	530.742	0.045	-0.106
-374.844	-200.000	0.001	0.224
-373.829	-200.000	-0.012	-0.159
-372.815	-200.000	0.089	-0.458
-371.800	584.451	0.100	-0.245
-370.785	311.709	0.090	-0.169
-369.771	-17.379	0.238	0.150
-368.756	-77.242	0.212	0.074
-367.742	-25.447	-0.077	0.045
-366.727	356.755	-0.101	-0.200
-365.712	-170.647	-0.193	-0.007
-364.698	225.441	-0.085	-0.137
-363.683	800.000	-0.047	0.151
-362.669	-91.139	0.377	0.108
-361.654	22.253	-0.164	0.134
-360.639	800.000	-0.027	-0.092
-359.625	79.881	0.153	-0.164
-358.610	-200.000	-0.020	-0.111
-357.596	77.365	0.124	0.132
-356.581	-200.000	0.044	0.348
-355.566	-200.000	-0.011	-0.332
-354.552	-4.513	0.175	-0.120
-353.537	23.221	0.243	0.199
-352.523	315.735	-0.108	-0.204
-351.508	218.027	-0.120	0.190
-350.493	683.870	-0.052	-0.135
-349.479	-200.000	-0.027	-0.189
-348.464	-54.375	-0.282	-0.128
-347.450	-200.000	-0.031	-0.150
-346.435	232.813	0.065	-0.107
-345.420	429.949	-0.048	0.103
-344.406	-34.100	-0.291	0.159
-343.391	800.000	-0.064	-0.208
-342.377	-70.727	0.411	0.155
-341.362	-40.437	-0.247	-0.128
-340.348	-200.000	-0.014	-0.096
-339.333	-50.868	0.425	0.199
-338.318	134.573	0.164	-0.212
-337.304	-200.000	0.230	0.000
-336.289	-95.332	-0.337	0.090
-335.275	-7.048	0.074	0.050
-334.260	171.702	0.117	-0.167
-333.245	-20.152	0.096	-0.059
-332.231	328.532	0.041	-0.079
-331.216	182.991	-0.116	-0.171
-330.202	523.394	-0.058	0.135
-329.187	-52.069	-0.166	0.077
-328.172	800.000	0.071	-0.256
-327.158	-200.000	0.004	0.058
-326.143	-117.620	0.090	0.016
-325.129	-200.000	-0.041	-0.211
-324.114	82.689	-0.098	-0.106
-323.099	117.641	0.096	-0.117
-322.085	134.524	0.092	-0.119
-321.070	64.436	0.039	-0.039
-320.056	-111.855	-0.218	-0.044
-319.041	44.563	0.201	-0.184
-318.026	217.571	0.120	0.191
-317.012	53.137	0.093	0.089
-315.997	42.993	-0.095	-0.086
-314.983	-131.212	-0.281	-0.037
-313.968	-200.000	0.071	-0.342
-312.953	165.392	0.124	-0.174
-311.939	485.975	0.147	-0.333
-310.924	800.000	0.039	-0.135
-309.910	139.708	0.171	0.225
-308.895	341.113	0.075	0.147
-307.880	-200.000	-0.004	-0.027
-306.866	-200.000	-0.004	-0.108
-305.851	-110.624	-0.314	-0.065
-304.837	-32.208	-0.075	0.042
-303.822	-134.320	0.065	0.008
-302.807	6.651	-0.172	0.128
-301.793	77.150	0.288	-0.304
-300.778	-64.966	-0.143	0.058
-299.764	634.017	0.087	0.219
-298.749	36.031	0.173	-0.152
-297.735	15.636	-0.045	0.035
-296.720	800.000	-0.088	-0.244
-295.705	-24.310	-0.019	-0.011
-294.691	310.387	0.102	-0.189
-293.676	145.034	-0.168	-0.223
-292.662	472.092	-0.072	0.161
-291.647	-90.836	0.214	0.061
-290.632	-200.000	-0.005	-0.072
-289.618	372.261	-0.059	-0.120
-288.603	-200.000	-0.025	-0.215
-287.589	-200.000	-0.024	-0.172
-286.574	-29.153	-0.029	0.016
-285.559	236.148	-0.030	-0.050
-284.545	108.294	-0.217	-0.258
-283.530	411.420	-0.134	-0.283
-282.516	651.834	-0.040	-0.101
-281.501	83.237	-0.264	0.286
-280.486	800.000	0.034	0.146
-279.472	465.012	0.087	-0.194
-278.457	-45.109	-0.158	0.078
-277.443	-66.891	0.176	-0.069
-276.428	-200.000	0.053	0.261
-275.413	182.238	-0.173	0.253
-274.399	-94.841	-0.096	-0.026
-273.384	94.454	0.045	-0.051
-272.370	51.366	0.170	-0.160
-271.355	194.470	0.068	-0.102
-270.340	800.000	-0.012	-0.033
-269.326	168.323	0.052	-0.074
-268.311	31.214	0.203	-0.173
-267.297	-6.299	-0.043	-0.029
-266.282	-88.346	-0.216	-0.064
-265.267	211.542	0.075	-0.117
-264.253	-161.071	-0.154	0.008
-263.238	-97.872	0.218	-0.056
-262.224	-41.289	-0.202	0.104
-261.209	184.752	0.141	0.208
-260.195	-46.863	0.319	-0.155
-259.180	-65.428	-0.384	0.153
-258.165	56.053	0.158	-0.152
-257.151	-200.000	-0.004	0.193
-256.136	800.000	0.060	0.209
-255.122	428.294	-0.085	0.182
-254.107	515.170	0.055	-0.128
-253.092	59.448	-0.096	-0.094
-252.078	73.686	-0.048	-0.050
-251.063	28.370	0.463	0.388
-250.049	616.195	0.061	0.152
-249.034	81.759	-0.157	-0.169
-248.019	172.339	0.011	-0.015
-247.005	800.000	0.064	0.256
-245.990	-13.805	0.119	0.077
-244.976	45.187	-0.062	0.057
-243.961	-80.747	-0.234	0.077
-242.946	118.300	0.204	-0.250
-241.932	-161.007	0.040	-0.002
-240.917	-40.746	-0.414	-0.213
-239.903	165.581	0.130	0.182
-238.888	20.314	0.117	0.094
-237.873	-41.542	-0.157	-0.080
-236.859	139.344	0.076	-0.099
-235.844	-44.433	-0.088	-0.044
-234.830	-15.388	0.199	0.126
-233.815	800.000	-0.070	0.217
-232.800	-103.921	-0.466	0.108
-231.786	-19.270	0.186	0.115
-230.771	-40.126	-0.226	0.117
-229.757	-11.067	0.248	0.163
-228.742	152.393	0.026	-0.035
-227.727	-177.656	-0.444	-0.011
-226.713	-200.000	-0.002	-0.048
-225.698	58.995	0.271	0.265
-224.684	248.518	-0.026	0.044
-223.669	-200.000	-0.010	-0.070
-222.655	-200.000	0.017	0.246
-221.640	-67.048	0.158	-0.062
-220.625	232.442	-0.227	0.370
-219.611	800.000	0.034	0.145
-218.596	800.000	-0.060	0.230
-217.582	-200.000	0.025	0.288
-216.567	-200.000	0.024	0.217
-215.552	500.440	-0.052	0.118
-214.538	-119.054	0.325	-0.056
-213.523	462.951	-0.007	-0.016
-212.509	-150.844	0.153	-0.011
-211.494	-17.585	-0.220	0.137
-210.479	-39.197	0.100	0.052
-209.465	334.684	0.219	0.420
-208.450	295.231	-0.073	-0.132
-207.436	0.507	-0.226	0.160
-206.421	-125.433	0.148	0.022
-205.406	65.807	0.028	-0.028
-204.392	800.000	-0.080	-0.219
-203.377	137.229	0.114	-0.148
-202.363	-155.362	0.209	0.013
-201.348	174.511	-0.064	0.092
-200.333	-3.740	-0.102	-0.070
-199.319	-200.000	0.018	0.221
-198.304	590.093	-0.102	0.249
-197.290	-35.119	0.183	-0.099
-196.275	25.720	-0.181	-0.149
-195.260	800.000	-0.003	-0.009
-194.246	494.761	-0.093	0.211
-193.231	335.973	-0.157	0.301
-192.217	98.356	0.119	-0.136
-191.202	441.127	-0.090	0.194
-190.187	305.916	0.129	0.238
-189.173	-200.000	0.015	0.080
-188.158	800.000	0.062	-0.204
-187.144	680.694	-0.138	-0.355
-186.129	212.392	0.117	0.182
-185.114	-71.116	-0.216	0.080
-184.100	97.512	-0.116	-0.132
-183.085	-33.128	-0.221	0.121
-182.071	420.011	-0.050	-0.107
-181.056	291.746	0.100	0.181
-180.042	-194.391	0.456	-0.004
-179.027	-149.364	0.367	-0.029
-178.012	-35.133	-0.214	0.115
-176.998	706.192	-0.061	0.160
-175.983	7.542	-0.232	0.172
-174.969	7.883	-0.327	0.243
-173.954	800.000	0.066	-0.221
-172.939	-60.976	-0.160	-0.067
-171.925	144.960	0.232	-0.307
-170.910	176.955	0.114	-0.164
-169.896	-57.980	0.175	0.076
-168.881	38.820	-0.106	0.094
-167.866	-61.678	0.373	0.155
-166.852	-200.000	0.050	-0.254
-165.837	36.268	0.350	-0.306
-164.823	52.993	-0.126	-0.119
-163.808	395.057	-0.070	-0.145
-162.793	800.000	0.118	-0.484
-161.779	-24.160	-0.202	0.119
-160.764	-50.632	-0.211	0.098
-159.750	-48.580	-0.182	0.086
-158.735	-141.610	0.174	0.017
-157.720	-185.323	0.170	-0.003
-156.706	118.950	-0.175	-0.214
-155.691	800.000	0.066	0.283
-154.677	800.000	-0.029	0.083
-153.662	17.494	-0.104	-0.082
-152.647	191.572	-0.241	0.358
-151.633	-200.000	0.026	0.127
-150.618	185.534	0.250	0.367
-149.604	44.951	0.182	-0.166
-148.589	800.000	0.045	-0.146
-147.574	-60.525	-0.233	-0.098
-146.560	-97.963	-0.239	0.061
-145.545	800.000	-0.050	-0.146
-144.531	-99.203	0.274	-0.069
-143.516	-200.000	0.020	-0.134
-142.502	38.573	0.235	0.207
-141.487	-71.626	0.011	0.004
-140.472	210.730	0.034	-0.053
-139.458	-53.770	-0.230	0.104
-138.443	241.273	0.050	0.083
-137.429	70.323	-0.146	-0.149
-136.414	-64.115	0.190	-0.077
-135.399	-49.046	-0.094	0.045
-134.385	800.000	-0.038	-0.142
-133.370	25.834	0.388	-0.319
-132.356	-29.102	-0.190	0.108
-131.341	-127.568	-0.158	0.023
-130.326	-200.000	-0.019	0.096
-129.312	-13.100	0.062	0.040
-128.297	14.964	-0.187	-0.144
-127.283	145.085	0.362	-0.478
-126.268	605.369	-0.014	-0.035
-125.253	-23.515	-0.141	-0.084
-124.239	112.388	-0.021	-0.025
-123.224	-200.000	0.138	0.729
-122.210	689.006	0.061	0.158
