DTS Sentinel unit serial number:	SN413079Multiplexer serial number:	ORYXHardware model number:	OX4-SRSoftware version number:	ORYX F/W v4.00 Oryx Data Collector v3.7.2.0data status	okinstallation	princeton_trtdifferential loss correction	single-endedforward channel	channel 4reverse channel	N/Adate	2019/09/19time	01:09:35forward acquisition time	60.00reverse acquisition time	0.00gamma	496.2192k internal	0.2338k external	0.2338temperature offset calibration	1.0035default loss term (dB/km)	0.3790temperature slope calibration	1.0000multiplexer offset coefficient	1.0000multiplexer slope coefficient	1.0000fibre end	0.00T internal ref (°C)	21.81T ext. ref 1 (°C)	0.71T ext. ref 2 (°C)	15.30length (m)	temperature (°C)	Stokes	anti-Stokes-747.200	-113.376	-0.101	-0.020
-746.185	-71.290	-0.404	0.152
-745.171	-63.560	0.141	-0.058
-744.156	800.000	0.109	0.343
-743.142	-200.000	-0.073	0.426
-742.127	114.021	-0.197	0.240
-741.112	-19.048	0.246	0.153
-740.098	-76.606	-0.213	0.075
-739.083	-200.000	-0.040	0.444
-738.069	441.376	-0.114	0.250
-737.054	19.888	-0.144	0.117
-736.039	-123.220	-0.158	0.025
-735.025	209.527	-0.079	0.124
-734.010	-20.887	-0.219	-0.134
-732.996	-65.538	-0.187	-0.075
-731.981	247.729	0.083	0.141
-730.966	-200.000	-0.009	-0.082
-729.952	-200.000	0.022	-0.240
-728.937	39.889	0.112	0.100
-727.923	-160.885	0.152	-0.008
-726.908	71.602	0.133	0.138
-725.894	-200.000	-0.020	-0.246
-724.879	-35.100	0.250	-0.137
-723.864	77.975	0.169	0.181
-722.850	-108.978	0.195	0.042
-721.835	-200.000	-0.016	0.111
-720.821	800.000	0.135	-0.386
-719.806	800.000	-0.047	-0.193
-718.791	433.440	0.070	0.151
-717.777	800.000	0.040	-0.134
-716.762	59.361	-0.105	-0.104
-715.748	-71.252	0.074	-0.028
-714.733	6.229	0.301	-0.224
-713.718	-200.000	-0.057	0.265
-712.704	11.978	-0.150	0.116
-711.689	252.282	0.089	-0.151
-710.675	623.518	0.083	0.210
-709.660	-49.267	0.287	-0.137
-708.645	24.428	0.060	-0.050
-707.631	800.000	-0.096	0.373
-706.616	-200.000	0.019	-0.180
-705.602	-67.700	-0.230	-0.090
-704.587	-131.646	0.297	0.039
-703.572	-43.103	-0.665	-0.338
-702.558	800.000	0.112	-0.452
-701.543	-200.000	0.012	-0.058
-700.529	-67.308	-0.051	0.020
-699.514	-200.000	0.027	-0.270
-698.499	800.000	-0.097	-0.316
-697.485	134.128	0.099	0.128
-696.470	-120.745	0.264	0.045
-695.456	-200.000	0.004	0.085
-694.441	194.629	0.154	-0.233
-693.426	-88.811	-0.092	-0.027
-692.412	800.000	-0.072	0.199
-691.397	-200.000	-0.001	0.046
-690.383	89.746	-0.018	0.020
-689.368	473.574	-0.119	-0.268
-688.354	800.000	-0.050	-0.177
-687.339	-97.619	0.514	-0.133
-686.324	513.056	0.150	0.351
-685.310	177.299	0.084	0.122
-684.295	-19.096	0.287	-0.178
-683.281	-118.643	-0.051	0.009
-682.266	-200.000	0.036	-0.206
-681.251	17.770	0.048	-0.038
-680.237	-114.986	-0.066	-0.013
-679.222	-135.871	-0.088	-0.010
-678.208	-200.000	-0.000	-0.120
-677.193	800.000	-0.043	-0.163
-676.178	-71.887	-0.318	0.118
-675.164	800.000	-0.107	-0.323
-674.149	-18.910	-0.337	-0.210
-673.135	-200.000	0.036	0.364
-672.120	461.156	0.073	0.163
-671.105	-43.504	-0.118	0.060
-670.091	-138.637	-0.050	0.005
-669.076	-200.000	0.021	-0.205
-668.062	749.512	0.105	-0.283
-667.047	294.342	-0.081	0.148
-666.032	800.000	-0.058	-0.220
-665.018	-92.688	-0.336	0.094
-664.003	-95.173	-0.335	0.090
-662.989	266.184	-0.167	0.292
-661.974	800.000	-0.027	-0.100
-660.959	92.561	-0.263	0.297
-659.945	800.000	0.073	-0.268
-658.930	-200.000	0.017	0.138
-657.916	16.833	-0.215	0.171
-656.901	-16.211	-0.185	-0.117
-655.886	800.000	0.144	-0.407
-654.872	609.785	0.161	-0.401
-653.857	-8.228	0.185	-0.125
-652.843	37.843	-0.089	0.079
-651.828	-110.663	-0.361	-0.075
-650.814	800.000	-0.062	0.217
-649.799	-67.676	0.350	-0.137
-648.784	-41.331	0.148	-0.076
-647.770	-27.760	0.432	-0.251
-646.755	89.946	-0.152	-0.170
-645.741	-22.698	-0.154	-0.093
-644.726	-104.098	-0.456	-0.106
-643.711	800.000	0.108	-0.310
-642.697	78.806	0.206	-0.220
-641.682	21.903	-0.181	0.148
-640.668	764.969	0.030	-0.082
-639.653	-78.165	-0.395	-0.136
-638.638	49.085	-0.086	-0.081
-637.624	318.615	-0.083	0.157
-636.609	-200.000	-0.042	-0.359
-635.595	56.071	0.020	0.019
-634.580	48.674	-0.259	-0.242
-633.565	-133.831	-0.184	-0.023
-632.551	92.420	-0.124	-0.140
-631.536	306.532	0.052	-0.096
-630.522	81.139	-0.281	-0.303
-629.507	146.639	0.043	0.057
-628.492	-60.387	-0.228	-0.097
-627.478	800.000	-0.072	-0.254
-626.463	-33.801	0.281	0.155
-625.449	104.398	-0.180	0.212
-624.434	-169.237	-0.136	0.005
-623.419	262.119	-0.044	0.076
-622.405	20.150	0.187	-0.151
-621.390	-51.917	-0.230	-0.107
-620.376	-98.484	0.154	-0.039
-619.361	476.615	-0.040	0.090
-618.346	592.700	0.114	-0.282
-617.332	-117.432	0.147	0.027
-616.317	-200.000	-0.000	0.034
-615.303	-10.243	-0.031	-0.020
-614.288	-56.613	-0.182	-0.080
-613.273	-92.898	0.246	-0.069
-612.259	299.194	0.099	0.183
-611.244	-30.458	0.027	-0.015
-610.230	-99.135	0.133	-0.034
-609.215	-116.758	-0.497	-0.091
-608.201	-153.200	-0.043	-0.003
-607.186	-6.499	0.054	0.037
-606.171	-56.967	-0.250	0.110
-605.157	93.934	0.211	0.239
-604.142	110.319	-0.121	-0.145
-603.128	9.068	0.093	-0.070
-602.113	-4.307	0.139	0.096
-601.098	336.302	-0.189	0.367
-600.084	-98.452	-0.190	0.048
-599.069	34.403	-0.076	-0.066
-598.055	216.836	-0.153	-0.244
-597.040	-181.687	0.267	0.005
-596.025	-200.000	-0.031	0.302
-595.011	800.000	-0.074	0.255
-593.996	56.732	0.263	0.255
-592.982	-76.989	0.141	0.049
-591.967	-200.000	-0.011	0.236
-590.952	-72.918	0.048	-0.018
-589.938	-156.852	-0.070	-0.004
-588.923	-136.333	0.100	0.012
-587.909	800.000	-0.062	-0.217
-586.894	422.688	-0.039	0.083
-585.879	48.360	-0.167	0.156
-584.865	-200.000	0.012	-0.248
-583.850	-27.357	-0.055	0.032
-582.836	67.709	-0.375	0.382
-581.821	64.787	0.241	0.242
-580.806	-200.000	-0.051	-0.234
-579.792	-47.688	-0.180	0.087
-578.777	-35.377	0.156	-0.085
-577.763	-200.000	0.070	-0.430
-576.748	110.422	-0.251	-0.300
-575.733	-132.683	-0.342	0.044
-574.719	550.424	-0.097	0.233
-573.704	-59.919	0.255	-0.109
-572.690	800.000	-0.066	-0.227
-571.675	-200.000	-0.058	-0.318
-570.661	-200.000	-0.000	0.110
-569.646	-200.000	-0.055	-0.279
-568.631	-43.668	-0.239	-0.120
-567.617	-7.327	0.341	-0.230
-566.602	21.758	0.072	0.058
-565.588	800.000	0.040	0.159
-564.573	800.000	0.061	0.169
-563.558	-88.775	0.050	-0.015
-562.544	676.088	0.070	0.182
-561.529	503.967	0.001	-0.003
-560.515	-177.551	0.315	0.008
-559.500	-101.211	0.240	-0.058
-558.485	800.000	0.095	0.277
-557.471	-51.668	0.408	-0.190
-556.456	202.692	0.010	0.016
-555.442	800.000	0.010	-0.043
-554.427	-28.549	-0.232	0.133
-553.412	152.747	-0.093	0.127
-552.398	-20.546	-0.128	0.078
-551.383	-200.000	0.057	0.284
-550.369	800.000	-0.083	0.298
-549.354	800.000	0.037	0.161
-548.339	292.721	-0.157	0.284
-547.325	-200.000	-0.028	0.249
-546.310	-34.690	-0.067	-0.037
-545.296	8.821	0.036	-0.027
-544.281	-156.335	-0.368	0.023
-543.266	68.730	0.087	0.089
-542.252	800.000	0.024	-0.071
-541.237	111.874	-0.081	-0.098
-540.223	-98.290	0.277	0.071
-539.208	-101.052	-0.179	0.044
-538.193	69.914	-0.063	0.065
-537.179	-200.000	0.018	0.195
-536.164	107.804	-0.163	-0.194
-535.150	111.970	-0.166	-0.200
-534.135	-200.000	-0.057	-0.287
-533.121	4.229	0.155	0.113
-532.106	-63.831	0.235	-0.096
-531.091	109.566	-0.112	-0.134
-530.077	-50.070	-0.021	0.010
-529.062	-65.801	0.289	0.115
-528.048	-9.205	-0.089	0.059
-527.033	-40.348	0.240	0.124
-526.018	704.900	-0.101	-0.265
-525.004	76.054	-0.273	-0.287
-523.989	260.213	0.153	-0.262
-522.975	17.837	-0.082	0.065
-521.960	334.514	0.050	-0.096
-520.945	800.000	0.028	-0.100
-519.931	-101.468	-0.314	-0.076
-518.916	800.000	0.078	0.326
-517.902	800.000	-0.062	0.217
-516.887	-24.599	0.282	-0.167
-515.872	107.903	-0.204	0.241
-514.858	16.588	0.345	0.272
-513.843	-200.000	0.007	-0.124
-512.829	302.874	-0.201	0.370
-511.814	34.344	-0.289	-0.251
-510.799	-35.985	0.107	-0.057
-509.785	190.783	-0.074	-0.111
-508.770	800.000	0.067	0.272
-507.756	768.011	0.047	0.128
-506.741	-49.052	0.205	-0.098
-505.726	-2.489	-0.320	-0.223
-504.712	-67.080	-0.069	0.027
-503.697	554.142	-0.139	-0.333
-502.683	8.427	-0.171	-0.128
-501.668	-38.435	-0.036	-0.019
-500.653	1.230	0.248	-0.177
-499.639	-7.181	-0.118	-0.080
-498.624	-46.398	0.367	-0.179
-497.610	-153.594	0.358	0.025
-496.595	-113.956	-0.211	0.041
-495.581	-200.000	0.003	-0.229
-494.566	-200.000	-0.001	-0.013
-493.551	-5.308	0.055	-0.038
-492.537	800.000	-0.094	0.274
-491.522	250.174	-0.079	-0.133
-490.508	-164.276	0.176	-0.008
-489.493	-169.063	-0.400	0.015
-488.478	146.585	-0.094	0.126
-487.464	-134.380	-0.130	0.016
-486.449	-200.000	0.007	-0.092
-485.435	-27.320	0.172	0.099
-484.420	-113.575	-0.077	-0.015
-483.405	800.000	0.143	-0.396
-482.391	-87.377	-0.165	0.050
-481.376	404.019	-0.091	-0.190
-480.362	144.780	-0.076	-0.101
-479.347	98.321	0.128	0.146
-478.332	-121.439	0.302	0.050
-477.318	-67.236	-0.132	-0.051
-476.303	69.967	-0.258	0.265
-475.289	-26.404	-0.309	-0.180
-474.274	-92.864	-0.084	-0.023
-473.259	-200.000	-0.008	-0.220
-472.245	-94.578	-0.141	-0.038
-471.230	800.000	-0.097	-0.292
-470.216	83.051	0.256	0.276
-469.201	-44.620	0.257	0.128
-468.186	-112.719	-0.132	0.026
-467.172	11.796	0.179	-0.137
-466.157	95.829	0.123	-0.139
-465.143	-50.670	-0.375	0.175
-464.128	-177.929	-0.024	0.001
-463.113	-65.899	-0.124	-0.049
-462.099	326.227	0.127	0.241
-461.084	0.148	0.237	0.168
-460.070	-77.659	-0.111	-0.038
-459.055	56.330	-0.354	0.342
-458.040	247.585	-0.040	-0.067
-457.026	412.654	-0.138	0.292
-456.011	43.144	-0.203	-0.184
-454.997	209.568	-0.164	0.255
-453.982	-88.882	0.223	0.066
-452.968	800.000	0.032	0.135
-451.953	-126.992	-0.271	-0.040
-450.938	-200.000	-0.006	-0.194
-449.924	-53.761	-0.165	-0.075
-448.909	-20.751	-0.294	0.179
-447.895	-135.876	-0.402	-0.047
-446.880	137.387	0.005	0.006
-445.865	-12.325	0.215	-0.140
-444.851	-144.380	0.470	0.043
-443.836	-13.016	-0.207	-0.134
-442.822	335.888	-0.096	-0.184
-441.807	-18.759	0.050	-0.031
-440.792	-9.278	0.170	0.112
-439.778	144.806	-0.193	0.255
-438.763	118.289	-0.147	0.180
-437.749	-54.658	-0.362	-0.162
-436.734	800.000	0.062	-0.190
-435.719	-80.658	-0.014	0.005
-434.705	-134.552	-0.081	-0.010
-433.690	186.828	-0.058	0.086
-432.676	200.694	0.115	-0.175
-431.661	8.713	0.228	0.170
-430.646	149.710	-0.168	-0.225
-429.632	800.000	0.067	-0.228
-428.617	800.000	-0.067	0.209
-427.603	-200.000	-0.022	0.178
-426.588	-111.718	-0.071	0.014
-425.573	-29.869	-0.060	-0.034
-424.559	-160.423	0.521	0.028
-423.544	362.504	0.113	0.225
-422.530	-154.201	0.130	0.009
-421.515	11.944	0.102	-0.078
-420.500	477.643	-0.071	0.160
-419.486	-82.914	-0.123	0.039
-418.471	-200.000	-0.014	-0.472
-417.457	-200.000	0.016	-0.261
-416.442	-200.000	0.048	-0.257
-415.428	33.416	0.268	0.230
-414.413	273.075	-0.134	-0.234
-413.398	-64.262	0.244	-0.098
-412.384	376.289	-0.084	0.170
-411.369	-200.000	0.044	-0.356
-410.355	480.897	0.026	-0.058
-409.340	47.952	0.231	0.213
-408.325	49.520	-0.082	0.077
-407.311	54.874	0.347	0.331
-406.296	-200.000	-0.012	-0.252
-405.282	-200.000	0.049	0.243
-404.267	-22.145	0.237	-0.143
-403.252	146.882	0.135	0.179
-402.238	696.185	0.095	-0.247
-401.223	-200.000	0.048	0.328
-400.209	-103.149	0.272	-0.064
-399.194	399.793	-0.027	0.056
-398.179	-102.026	-0.678	0.162
-397.165	-12.259	0.122	0.079
-396.150	-55.765	0.246	-0.109
-395.136	561.311	0.063	0.150
-394.121	471.959	-0.033	-0.074
-393.106	-94.647	-0.120	-0.032
-392.092	299.996	-0.232	-0.424
-391.077	-109.356	0.150	-0.031
-390.063	9.786	0.278	0.209
-389.048	-7.496	-0.343	-0.229
-388.033	103.435	0.125	-0.146
-387.019	-139.049	0.164	-0.018
-386.004	-59.829	-0.051	-0.022
-384.990	-45.787	0.260	0.127
-383.975	199.051	0.257	0.390
-382.960	-8.897	-0.116	-0.077
-381.946	800.000	-0.062	-0.171
-380.931	-44.578	0.172	-0.085
-379.917	301.680	0.175	-0.320
-378.902	-200.000	0.089	0.387
-377.888	-200.000	-0.044	-0.313
-376.873	155.441	-0.110	-0.150
-375.858	-26.184	0.284	-0.165
-374.844	-21.330	-0.292	0.176
-373.829	147.428	0.119	-0.158
-372.815	-200.000	0.002	0.030
-371.800	-200.000	-0.055	0.251
-370.785	259.358	-0.147	0.251
-369.771	-184.211	0.321	-0.005
-368.756	-200.000	0.040	-0.294
-367.742	-48.811	0.183	0.087
-366.727	67.021	-0.153	-0.154
-365.712	800.000	0.056	0.177
-364.698	-153.997	0.212	0.014
-363.683	-200.000	0.029	-0.147
-362.669	-200.000	0.003	-0.055
-361.654	-93.153	0.352	-0.097
-360.639	67.518	-0.183	0.185
-359.625	-39.277	-0.051	0.026
-358.610	-1.854	-0.246	-0.171
-357.596	-82.438	0.394	-0.127
-356.581	-25.970	-0.111	-0.064
-355.566	-105.840	0.212	0.047
-354.552	800.000	-0.084	0.337
-353.537	-155.052	-0.132	0.009
-352.523	168.139	-0.080	-0.112
-351.508	343.456	0.073	0.142
-350.493	129.732	-0.108	0.136
-349.479	800.000	0.081	0.265
-348.464	66.407	0.110	-0.110
-347.450	-200.000	0.017	0.301
-346.435	-62.099	0.382	-0.158
-345.420	165.179	0.349	-0.487
-344.406	38.795	-0.159	-0.140
-343.391	-39.170	0.190	0.099
-342.377	-25.246	-0.208	-0.122
-341.362	-109.403	0.058	0.012
-340.348	3.379	0.151	0.109
-339.333	-99.915	0.427	-0.105
-338.318	800.000	0.087	0.258
-337.304	53.212	0.140	-0.133
-336.289	-75.455	0.180	0.063
-335.275	120.376	-0.231	0.284
-334.260	125.446	0.292	-0.364
-333.245	667.923	-0.082	0.209
-332.231	-68.016	0.196	-0.076
-331.216	-200.000	0.006	0.152
-330.202	-22.896	-0.129	-0.077
-329.187	231.034	0.096	-0.154
-328.172	296.674	-0.149	-0.270
-327.158	-200.000	-0.026	-0.193
-326.143	-100.801	0.251	0.061
-325.129	-100.225	0.245	0.060
-324.114	-136.701	0.293	-0.033
-323.099	164.537	0.205	0.285
-322.085	-45.730	0.147	-0.072
-321.070	-53.269	0.051	0.023
-320.056	-60.831	-0.404	0.169
-319.041	-200.000	-0.010	0.153
-318.026	-17.475	0.262	0.162
-317.012	-105.874	-0.124	-0.028
-315.997	-177.947	-0.221	-0.005
-314.983	-24.272	-0.026	0.015
-313.968	800.000	-0.114	-0.404
-312.953	-200.000	-0.015	-0.089
-311.939	-25.174	-0.243	0.142
-310.924	-57.999	0.285	0.123
-309.910	-83.687	-0.153	0.048
-308.895	-200.000	0.004	0.232
-307.880	245.468	0.308	-0.511
-306.866	-82.872	0.178	-0.057
-305.851	754.961	0.015	-0.041
-304.837	181.351	0.233	0.338
-303.822	-200.000	-0.220	0.000
-302.807	-200.000	0.084	0.422
-301.793	61.676	0.171	0.168
-300.778	800.000	0.012	-0.047
-299.764	128.536	0.014	0.017
-298.749	-10.661	0.042	-0.027
-297.735	137.950	-0.120	0.155
-296.720	-76.481	-0.210	-0.073
-295.705	-4.425	0.067	0.046
-294.691	334.453	-0.073	0.140
-293.676	177.231	0.050	0.072
-292.662	187.392	0.149	0.220
-291.647	-140.630	-0.071	-0.007
-290.632	51.908	0.212	0.199
-289.618	-200.000	0.040	-0.265
-288.603	800.000	-0.072	-0.278
-287.589	31.000	-0.078	-0.066
-286.574	-150.930	-0.250	-0.019
-285.559	-179.784	-0.314	0.007
-284.545	218.384	0.136	0.214
-283.530	42.969	-0.220	0.198
-282.516	-200.000	-0.011	-0.082
-281.501	-200.000	0.013	0.159
-280.486	-200.000	-0.053	0.396
-279.472	-95.137	-0.059	0.016
-278.457	21.848	0.240	-0.192
-277.443	-110.450	-0.039	-0.008
-276.428	44.370	-0.198	0.179
-275.413	-73.611	0.258	0.092
-274.399	-5.462	-0.128	-0.087
-273.384	-200.000	0.000	0.013
-272.370	191.085	-0.118	0.175
-271.355	-200.000	0.006	0.330
-270.340	-74.879	0.073	-0.026
-269.326	-126.522	-0.232	0.034
-268.311	56.393	0.063	-0.061
-267.297	-100.336	-0.124	0.030
-266.282	46.218	-0.061	-0.056
-265.267	61.017	-0.233	0.228
-264.253	800.000	-0.080	-0.222
-263.238	255.852	0.130	0.220
-262.224	19.617	-0.173	0.137
-261.209	800.000	0.113	-0.400
-260.195	-200.000	0.019	-0.262
-259.180	334.478	-0.031	0.059
-258.165	-74.892	-0.140	-0.049
-257.151	759.620	0.164	0.438
-256.136	-200.000	-0.023	-0.104
-255.122	800.000	0.025	0.081
-254.107	-102.309	-0.344	0.081
-253.092	-200.000	0.003	-0.296
-252.078	77.634	0.148	-0.155
-251.063	-200.000	0.027	0.193
-250.049	13.662	0.215	0.164
-249.034	-200.000	0.249	-0.001
-248.019	-107.412	0.194	-0.042
-247.005	34.693	-0.319	0.274
-245.990	202.376	-0.104	-0.157
-244.976	66.855	-0.196	0.197
-243.961	-200.000	0.041	0.273
-242.946	-185.596	-0.159	0.002
-241.932	-75.625	-0.044	0.016
-240.917	-31.386	-0.101	-0.056
-239.903	-96.334	-0.232	0.061
-238.888	30.467	0.121	0.101
-237.873	800.000	0.103	-0.379
-236.859	-96.716	0.161	-0.042
-235.844	-96.361	-0.174	0.045
-234.830	-51.382	0.416	-0.191
-233.815	-140.261	0.079	0.008
-232.800	-189.582	-0.103	0.001
-231.786	-131.971	-0.149	-0.019
-230.771	12.806	-0.180	-0.136
-229.757	51.096	0.053	0.049
-228.742	800.000	0.010	0.030
-227.727	-136.093	-0.047	-0.005
-226.713	-200.000	0.002	-0.217
-225.698	-200.000	-0.010	0.262
-224.684	245.349	0.103	-0.171
-223.669	-200.000	0.062	-0.296
-222.655	-200.000	0.047	-0.467
-221.640	-177.181	0.253	0.006
-220.625	164.471	-0.199	0.276
-219.611	18.479	0.154	0.121
-218.596	-200.000	-0.008	-0.241
-217.582	284.666	0.204	-0.362
-216.567	39.468	0.096	0.085
-215.552	186.028	0.181	0.265
-214.538	-62.468	-0.341	0.139
-213.523	-155.442	-0.200	0.013
-212.509	800.000	-0.079	0.270
-211.494	-147.478	-0.310	-0.026
-210.479	642.527	0.180	0.451
-209.465	-200.000	-0.018	-0.324
-208.450	162.367	0.019	-0.026
-207.436	366.252	-0.042	-0.083
-206.421	121.812	0.090	0.110
-205.406	112.614	-0.273	0.325
-204.392	396.515	0.056	0.115
-203.377	-2.571	0.101	-0.069
-202.363	-121.669	-0.178	-0.029
-201.348	-200.000	0.017	0.355
-200.333	-200.000	-0.014	0.142
-199.319	-97.232	-0.030	0.008
-198.304	-19.974	0.023	0.014
-197.290	-27.040	0.128	-0.074
-196.275	-171.732	-0.151	0.005
-195.260	97.815	0.209	0.236
-194.246	350.652	-0.077	-0.150
-193.231	-110.670	-0.181	0.037
-192.217	181.155	-0.042	-0.060
-191.202	54.379	-0.165	0.156
-190.187	-117.431	-0.159	0.028
-189.173	162.098	-0.068	-0.093
-188.158	71.753	-0.149	-0.152
-187.144	65.655	-0.155	-0.154
-186.129	-94.104	-0.198	0.053
-185.114	7.545	0.118	0.086
-184.100	247.459	-0.044	0.074
-183.085	231.460	-0.247	-0.398
-182.071	-200.000	-0.012	-0.055
-181.056	-200.000	-0.051	0.221
-180.042	89.939	0.218	0.239
-179.027	215.646	0.081	-0.125
-178.012	-200.000	-0.028	0.181
-176.998	15.952	-0.255	0.197
-175.983	77.688	0.260	-0.272
-174.969	-7.095	-0.328	-0.219
-173.954	-93.680	0.210	0.057
-172.939	293.486	0.134	0.241
-171.925	-200.000	-0.020	-0.336
-170.910	-46.235	-0.316	0.152
-169.896	-200.000	0.026	-0.284
-168.881	50.538	0.103	-0.096
-167.866	800.000	0.108	0.314
-166.852	187.802	0.146	0.213
-165.837	-30.982	0.232	-0.128
-164.823	800.000	0.052	0.165
-163.808	137.391	-0.054	-0.069
-162.793	-7.165	0.244	0.162
-161.779	-200.000	-0.017	-0.192
-160.764	126.958	-0.157	0.195
-159.750	481.190	0.069	0.154
-158.735	-108.390	-0.059	0.013
-157.720	553.050	0.124	-0.291
-156.706	-125.967	0.145	-0.021
-155.691	-77.532	0.143	-0.049
-154.677	-149.892	0.173	-0.013
-153.662	282.186	-0.317	-0.557
-152.647	721.079	0.083	0.216
-151.633	151.391	0.143	0.190
-150.618	-91.945	-0.131	0.036
-149.604	0.506	-0.280	-0.196
-148.589	608.225	0.037	0.090
-147.574	680.568	0.093	0.237
-146.560	103.796	0.254	0.293
-145.545	-200.000	-0.004	0.264
-144.531	576.168	-0.147	0.351
-143.516	-200.000	0.089	0.451
-142.502	162.070	0.018	-0.025
-141.487	-14.358	-0.127	-0.080
-140.472	-200.000	0.060	-0.351
-139.458	324.081	0.224	-0.418
-138.443	-10.130	0.255	0.166
-137.429	100.240	-0.067	-0.076
-136.414	32.441	0.034	0.029
-135.399	180.180	0.286	-0.411
-134.385	619.284	-0.051	0.126
-133.370	-90.906	-0.113	0.032
-132.356	-200.000	-0.025	0.199
-131.341	100.967	-0.036	0.042
-130.326	359.454	-0.127	-0.248
-129.312	9.935	-0.183	-0.136
-128.297	355.323	-0.069	0.135
-127.283	-4.300	0.060	0.040
-126.268	363.428	-0.056	0.110
-125.253	-200.000	0.003	-0.072
-124.239	11.035	0.178	0.133
-123.224	330.985	-0.094	0.177
-122.210	217.613	0.063	0.098
-121.195	-121.997	0.333	0.054
-120.180	-35.644	0.527	0.280
