DTS Sentinel unit serial number:	SN413079Multiplexer serial number:	ORYXHardware model number:	OX4-SRSoftware version number:	ORYX F/W v4.00 Oryx Data Collector v3.7.2.0data status	okinstallation	princeton_trtdifferential loss correction	single-endedforward channel	channel 4reverse channel	N/Adate	2019/09/12time	19:35:18forward acquisition time	15.00reverse acquisition time	0.00gamma	496.2192k internal	0.2310k external	0.2310temperature offset calibration	1.0152default loss term (dB/km)	0.3790temperature slope calibration	1.0000multiplexer offset coefficient	1.0000multiplexer slope coefficient	1.0000fibre end	0.00T internal ref (°C)	32.19T ext. ref 1 (°C)	3.38T ext. ref 2 (°C)	26.73length (m)	temperature (°C)	Stokes	anti-Stokes-747.200	409.303	0.511	-1.098
-746.185	6.413	0.180	0.136
-745.171	-109.090	0.945	0.204
-744.156	-159.131	1.074	0.062
-743.142	68.193	-0.305	0.317
-742.127	178.763	-0.093	-0.139
-741.112	-87.843	-0.343	0.105
-740.098	-83.213	-0.341	0.111
-739.083	-81.019	0.176	0.059
-738.069	652.623	-0.152	-0.395
-737.054	-97.970	0.357	-0.093
-736.039	-200.000	-0.042	-0.241
-735.025	462.325	-0.169	0.383
-734.010	66.675	0.423	-0.437
-732.996	800.000	-0.052	-0.193
-731.981	29.167	0.317	0.273
-730.966	-50.999	0.315	-0.150
-729.952	-148.873	0.552	-0.045
-728.937	4.186	-0.272	0.202
-727.923	495.913	-0.197	0.459
-726.908	-102.539	-0.109	0.026
-725.894	196.565	-0.194	0.300
-724.879	-146.248	1.365	0.122
-723.864	800.000	-0.103	0.320
-722.850	-200.000	0.007	0.481
-721.835	-32.964	0.134	0.075
-720.821	262.204	-0.247	-0.435
-719.806	58.157	-0.501	-0.498
-718.791	15.748	-0.571	-0.456
-717.777	-3.465	1.044	-0.737
-716.762	-162.957	-0.618	-0.030
-715.748	51.111	0.230	-0.221
-714.733	-119.145	0.244	0.043
-713.718	555.209	0.116	-0.283
-712.704	-121.324	0.306	-0.052
-711.689	-200.000	0.036	0.893
-710.675	-144.409	-0.826	0.078
-709.660	-200.000	-0.030	0.142
-708.645	350.463	-0.145	0.290
-707.631	-200.000	-0.022	-0.707
-706.616	387.995	0.089	0.186
-705.602	-82.068	0.179	-0.059
-704.587	154.448	-0.474	-0.660
-703.572	18.546	0.572	0.464
-702.558	-127.064	-0.688	0.102
-701.543	-102.462	-0.750	-0.182
-700.529	187.807	0.596	0.903
-699.514	-98.524	0.598	-0.155
-698.499	521.000	0.417	0.992
-697.485	-200.000	0.173	-0.807
-696.470	-34.264	0.521	-0.290
-695.456	80.371	0.467	-0.509
-694.441	-200.000	0.087	-0.513
-693.426	150.675	0.187	-0.257
-692.412	253.337	-0.416	0.720
-691.397	800.000	0.184	-0.520
-690.383	-154.153	0.722	0.050
-689.368	-82.342	-0.331	0.109
-688.354	54.781	-0.443	-0.433
-687.339	252.183	0.279	0.482
-686.324	-115.436	0.417	0.080
-685.310	78.494	-0.436	0.472
-684.295	-93.344	-0.764	0.215
-683.281	-66.998	0.181	-0.073
-682.266	-12.504	-0.437	-0.289
-681.251	-26.496	-0.459	0.273
-680.237	27.519	-0.043	0.036
-679.222	0.094	0.449	-0.324
-678.208	-122.415	-0.957	0.158
-677.193	-185.624	-0.424	-0.006
-676.178	-27.903	-0.636	0.373
-675.164	26.865	0.053	-0.045
-674.149	-94.708	-0.341	-0.094
-673.135	800.000	-0.212	0.625
-672.120	238.931	-0.526	-0.886
-671.105	115.236	-0.366	0.453
-670.091	115.729	-0.166	-0.205
-669.076	25.590	-0.582	-0.491
-668.062	-200.000	0.068	0.387
-667.047	-40.918	0.359	0.188
-666.032	-29.151	0.500	-0.290
-665.018	32.970	0.309	0.271
-664.003	-113.886	0.098	-0.019
-662.989	-163.783	-0.316	0.015
-661.974	-23.200	0.970	0.591
-660.959	-160.702	0.209	0.011
-659.945	-130.528	-0.348	0.048
-658.930	260.060	-0.265	0.463
-657.916	800.000	-0.285	-0.934
-656.901	110.533	-1.053	1.281
-655.886	-106.912	-0.322	0.072
-654.872	800.000	0.106	0.390
-653.857	68.176	-0.379	0.393
-652.843	-200.000	-0.027	0.185
-651.828	-25.483	-0.404	-0.242
-650.814	46.661	-0.404	0.379
-649.799	-200.000	0.080	0.482
-648.784	315.895	-0.108	-0.206
-647.770	-32.369	-0.717	-0.405
-646.755	800.000	0.134	0.530
-645.741	177.613	0.114	-0.168
-644.726	505.509	0.138	-0.323
-643.711	800.000	0.064	0.193
-642.697	15.089	-0.244	-0.193
-641.682	10.007	0.891	-0.685
-640.668	149.478	0.670	0.918
-639.653	800.000	-0.258	0.804
-638.638	-126.533	-0.947	0.142
-637.624	496.211	-0.162	-0.378
-636.609	-72.818	-0.357	0.133
-635.595	126.895	-0.695	-0.891
-634.580	-20.108	0.612	-0.381
-633.565	264.903	0.367	-0.647
-632.551	-98.959	-0.393	0.101
-631.536	-200.000	0.053	-0.240
-630.522	791.018	0.051	-0.142
-629.507	45.468	0.319	0.298
-628.492	293.104	0.122	-0.226
-627.478	-200.000	-0.055	-0.336
-626.463	-117.802	-0.858	-0.156
-625.449	63.301	-0.307	-0.311
-624.434	18.731	-0.722	-0.584
-623.419	773.510	-0.204	-0.562
-622.405	-200.000	-0.044	0.264
-621.390	241.734	-0.384	0.648
-620.376	800.000	0.079	-0.261
-619.361	-200.000	0.019	-0.678
-618.346	-200.000	-0.039	-0.663
-617.332	395.627	-0.206	-0.433
-616.317	115.298	-0.404	0.499
-615.303	-200.000	0.122	-0.570
-614.288	-1.974	0.119	-0.085
-613.273	-104.593	-0.681	-0.159
-612.259	25.514	-0.418	-0.352
-611.244	-47.259	0.968	-0.476
-610.230	800.000	-0.149	-0.541
-609.215	-2.760	0.310	-0.219
-608.201	45.190	0.143	0.133
-607.186	-144.435	-0.903	0.085
-606.171	-111.243	0.877	0.181
-605.157	-165.852	-0.649	0.028
-604.142	-102.229	0.212	-0.051
-603.128	-138.976	0.587	-0.064
-602.113	-144.238	-0.893	0.084
-601.098	-16.345	0.394	-0.253
-600.084	-170.841	-0.200	0.007
-599.069	109.072	0.597	0.721
-598.055	65.080	-0.208	-0.212
-597.040	377.013	0.122	0.253
-596.025	37.262	-0.678	-0.606
-595.011	258.756	0.110	-0.191
-593.996	68.999	0.150	-0.156
-592.982	355.079	-0.496	-0.996
-591.967	-136.067	-1.081	-0.128
-590.952	57.994	0.148	-0.147
-589.938	263.244	0.296	0.519
-588.923	277.504	0.139	0.249
-587.909	-134.036	-0.589	-0.074
-586.894	719.540	0.332	-0.892
-585.879	16.923	-0.476	-0.380
-584.865	-30.660	0.544	0.311
-583.850	-115.749	0.903	-0.171
-582.836	-121.694	-0.659	0.110
-581.821	392.376	-0.457	0.959
-580.806	26.482	-0.349	0.294
-579.792	-28.719	0.828	-0.481
-578.777	208.563	0.328	0.518
-577.763	130.215	-0.323	0.417
-576.748	-13.421	0.316	0.207
-575.733	-49.110	0.780	0.376
-574.719	98.823	0.437	0.509
-573.704	40.258	-0.448	0.407
-572.690	666.676	-0.167	-0.437
-571.675	59.456	-0.131	-0.130
-570.661	735.240	0.275	0.743
-569.646	-102.611	-0.527	-0.127
-568.631	-133.659	-0.178	0.022
-567.617	-113.531	-0.214	0.042
-566.602	600.437	-0.269	-0.673
-565.588	234.892	0.167	0.278
-564.573	524.322	-0.108	0.257
-563.558	192.830	0.251	0.382
-562.544	-200.000	0.072	-0.700
-561.529	250.326	-0.201	-0.344
-560.515	162.559	-0.333	-0.470
-559.500	410.476	-0.294	-0.628
-558.485	-96.080	0.229	0.061
-557.471	800.000	-0.088	-0.359
-556.456	104.364	-0.321	0.381
-555.442	-101.262	0.375	0.092
-554.427	800.000	-0.108	0.476
-553.412	-179.974	0.163	-0.004
-552.398	-27.347	-0.344	0.202
-551.383	377.670	0.150	0.308
-550.369	800.000	0.172	0.564
-549.354	-16.309	-0.310	0.198
-548.339	-43.382	0.620	-0.316
-547.325	-54.393	0.472	0.216
-546.310	564.456	-0.125	0.305
-545.296	241.204	-0.225	0.379
-544.281	-200.000	-0.046	-0.852
-543.266	49.823	-0.155	-0.147
-542.252	800.000	-0.191	-0.553
-541.237	-200.000	0.129	-0.634
-540.223	-200.000	-0.063	-0.762
-539.208	-82.168	-0.705	-0.232
-538.193	27.091	-0.168	-0.142
-537.179	-146.749	-0.237	0.021
-536.164	-95.128	-0.307	0.083
-535.150	111.465	-0.797	0.969
-534.135	-200.000	0.008	-0.840
-533.121	12.347	-0.553	-0.430
-532.106	-7.260	-0.228	0.156
-531.091	-33.720	0.098	0.054
-530.077	-72.810	0.669	0.248
-529.062	-59.090	-0.996	0.433
-528.048	-103.484	-0.304	0.072
-527.033	168.166	0.482	-0.691
-526.018	98.473	-0.340	-0.395
-525.004	-200.000	0.012	0.647
-523.989	-20.891	-0.222	-0.137
-522.975	-200.000	0.138	-0.645
-521.960	-84.730	0.935	-0.296
-520.945	-77.970	-0.521	-0.181
-519.931	1.908	-0.787	0.572
-518.916	38.079	0.337	0.302
-517.902	-200.000	0.044	0.386
-516.887	-140.719	0.759	-0.079
-515.872	800.000	-0.162	-0.487
-514.858	-200.000	0.076	0.764
-513.843	800.000	0.206	-0.671
-512.829	-27.967	-0.254	-0.148
-511.814	-77.259	0.532	-0.186
-510.799	-200.000	-0.186	-1.053
-509.785	126.752	-0.097	-0.124
-508.770	-200.000	0.162	-0.734
-507.756	-59.463	-1.034	0.447
-506.741	-200.000	-0.081	-0.399
-505.726	-31.206	-0.399	0.227
-504.712	-200.000	-0.079	1.053
-503.697	18.948	0.273	0.220
-502.683	-26.629	-0.211	0.124
-501.668	360.205	0.118	-0.238
-500.653	-200.000	0.021	-0.180
-499.639	125.404	0.225	0.286
-498.624	-84.326	0.560	-0.178
-497.610	732.956	-0.183	-0.493
-496.595	-200.000	0.002	-0.400
-495.581	800.000	-0.243	0.711
-494.566	800.000	-0.188	0.660
-493.551	800.000	0.076	0.240
-492.537	-101.170	-0.393	-0.097
-491.522	-135.334	0.601	-0.072
-490.508	-110.888	-0.696	0.144
-489.493	33.787	-0.300	0.263
-488.478	-1.848	0.128	0.091
-487.464	-163.712	-0.197	0.009
-486.449	-4.840	0.794	0.551
-485.435	-170.991	-0.349	-0.012
-484.420	-159.285	-0.250	0.014
-483.405	-101.072	-0.236	0.058
-482.391	-200.000	-0.102	0.706
-481.376	89.416	0.132	0.148
-480.362	442.081	0.224	-0.493
-479.347	-200.000	-0.031	0.776
-478.332	-66.834	0.691	-0.275
-477.318	-27.373	0.455	-0.266
-476.303	85.508	0.475	0.524
-475.289	393.150	-0.169	0.354
-474.274	800.000	-0.234	0.702
-473.259	156.158	-0.291	-0.404
-472.245	800.000	-0.110	0.425
-471.230	-68.587	-0.256	0.100
-470.216	-79.462	0.597	-0.203
-469.201	285.177	0.590	1.069
-468.186	-70.953	-0.578	-0.219
-467.172	-14.208	0.305	-0.198
-466.157	608.038	0.167	-0.419
-465.143	-21.137	0.212	-0.130
-464.128	-200.000	-0.049	0.223
-463.113	-1.527	0.380	-0.269
-462.099	-200.000	0.131	-0.683
-461.084	136.631	-0.124	0.163
-460.070	136.780	0.580	0.760
-459.055	-44.196	-0.224	0.113
-458.040	203.451	-0.306	-0.475
-457.026	800.000	0.228	0.905
-456.011	-200.000	-0.002	0.563
-454.997	6.695	-0.553	0.413
-453.982	-200.000	-0.011	-0.074
-452.968	19.970	-0.379	-0.307
-451.953	79.959	0.436	-0.470
-450.938	-69.891	-0.210	0.081
-449.924	234.948	0.516	-0.854
-448.909	174.138	-0.208	-0.301
-447.895	160.686	-0.235	-0.329
-446.880	69.804	-0.433	0.449
-445.865	-106.010	-1.133	0.256
-444.851	751.143	-0.155	-0.420
-443.836	84.557	0.527	0.579
-442.822	-6.449	0.176	0.120
-441.807	-200.000	-0.194	1.402
-440.792	-200.000	0.001	0.032
-439.778	-68.996	0.145	0.056
-438.763	-138.848	-0.267	0.029
-437.749	800.000	-0.139	-0.534
-436.734	39.594	-0.170	0.153
-435.719	398.352	-0.183	-0.384
-434.705	-81.361	-0.616	0.204
-433.690	595.464	-0.030	-0.075
-432.676	-200.000	0.084	-0.386
-431.661	68.435	0.535	0.551
-430.646	-199.989	0.963	0.005
-429.632	-95.604	-0.366	0.098
-428.617	-192.508	-0.727	0.007
-427.603	-200.000	-0.241	-1.085
-426.588	-93.769	0.472	-0.131
-425.573	-133.837	-0.485	-0.061
-424.559	599.806	0.334	0.830
-423.544	-200.000	-0.066	0.370
-422.530	-200.000	-0.003	-0.123
-421.515	73.573	0.359	0.378
-420.500	-182.490	0.341	-0.006
-419.486	-200.000	0.010	1.067
-418.471	-200.000	0.002	0.175
-417.457	163.996	-0.323	0.457
-416.442	-163.982	0.546	-0.025
-415.428	-200.000	-0.012	0.066
-414.413	-108.006	-0.900	-0.196
-413.398	13.459	-0.226	-0.176
-412.384	278.826	-0.109	-0.196
-411.369	-134.198	0.700	0.086
-410.355	277.762	-0.451	0.804
-409.340	800.000	0.273	0.866
-408.325	127.012	-0.394	0.501
-407.311	-26.216	0.451	0.266
-406.296	-196.037	-0.530	-0.004
-405.282	-85.186	0.463	0.145
-404.267	-62.051	-0.065	0.027
-403.252	-127.371	-0.817	0.119
-402.238	124.386	-0.372	0.468
-401.223	-200.000	-0.092	-0.845
-400.209	393.626	0.257	-0.536
-399.194	226.551	0.058	0.094
-398.179	800.000	-0.041	-0.153
-397.165	-200.000	0.003	-0.293
-396.150	-58.572	0.933	0.405
-395.136	86.029	0.400	0.441
-394.121	65.711	-0.598	0.607
-393.106	117.842	-0.352	0.434
-392.092	-101.569	-0.043	-0.010
-391.077	-157.242	0.379	-0.023
-390.063	-200.000	-0.011	-0.270
-389.048	-2.075	-0.891	-0.627
-388.033	65.232	0.116	0.117
-387.019	304.304	0.341	0.634
-386.004	393.994	-0.114	-0.239
-384.990	356.688	0.268	-0.535
-383.975	-47.588	-0.510	0.248
-382.960	800.000	-0.085	0.363
-381.946	-176.288	-0.052	0.001
-380.931	-181.770	0.528	-0.010
-379.917	31.537	-0.235	0.203
-378.902	-63.772	-0.469	-0.192
-377.888	49.238	0.388	0.365
-376.873	-96.981	0.080	-0.021
-375.858	228.312	0.232	-0.379
-374.844	800.000	-0.138	-0.437
-373.829	-34.716	0.732	-0.400
-372.815	-80.180	-0.490	0.164
-371.800	-86.045	0.126	0.039
-370.785	800.000	-0.192	0.566
-369.771	-200.000	0.197	-1.031
-368.756	139.171	0.283	-0.372
-367.742	-161.757	0.879	0.045
-366.727	754.731	0.228	-0.617
-365.712	681.716	-0.197	0.515
-364.698	-200.000	-0.104	-0.904
-363.683	-70.891	0.362	-0.137
-362.669	305.348	0.228	0.424
-361.654	-150.475	-0.568	0.044
-360.639	41.101	-0.355	-0.321
-359.625	-200.000	0.008	-0.263
-358.610	-102.074	0.854	0.206
-357.596	-117.957	0.702	-0.126
-356.581	121.576	-0.532	-0.663
-355.566	-200.000	0.084	-0.823
-354.552	-200.000	0.038	0.327
-353.537	-200.000	0.031	0.361
-352.523	-87.219	-0.090	-0.027
-351.508	-29.578	0.270	0.154
-350.493	-41.143	-0.507	0.262
-349.479	-200.000	-0.162	0.754
-348.464	-6.475	0.484	-0.330
-347.450	-55.047	0.555	0.250
-346.435	800.000	0.184	-0.770
-345.420	-200.000	0.172	0.850
-344.406	92.887	0.257	-0.290
-343.391	308.865	-0.125	0.233
-342.377	-94.305	0.719	0.196
-341.362	476.814	-0.205	0.464
-340.348	-200.000	0.500	-0.001
-339.333	-36.043	0.306	0.165
-338.318	-200.000	0.004	0.189
-337.304	499.329	-0.160	0.369
-336.289	117.457	-0.707	0.869
-335.275	-8.050	0.352	-0.237
-334.260	-200.000	-0.058	0.255
-333.245	-54.591	-0.540	0.244
-332.231	-5.583	-0.657	-0.450
-331.216	-62.747	-0.261	-0.108
-330.202	155.349	-0.340	-0.468
-329.187	-128.318	-0.959	-0.136
-328.172	-50.492	0.604	0.285
-327.158	-132.372	0.424	-0.055
-326.143	-5.601	0.569	0.390
-325.129	67.444	0.232	-0.237
-324.114	800.000	-0.132	0.369
-323.099	-55.100	0.222	0.100
-322.085	-140.418	0.089	0.009
-321.070	24.363	-0.312	-0.258
-320.056	-200.000	0.016	-0.643
-319.041	-61.061	0.030	-0.013
-318.026	58.332	0.387	0.379
-317.012	220.111	0.081	-0.129
-315.997	233.029	-0.470	-0.772
-314.983	-147.080	0.238	-0.020
-313.968	253.469	0.172	-0.293
-312.953	800.000	0.299	-1.267
-311.939	-147.831	0.454	-0.038
-310.924	800.000	-0.203	0.807
-309.910	-152.982	0.416	0.029
-308.895	-200.000	-0.026	0.216
-307.880	-58.680	-0.664	-0.287
-306.866	-162.915	0.203	-0.010
-305.851	368.860	-0.145	0.294
-304.837	-200.000	-0.009	-0.466
-303.822	-28.071	-0.750	0.433
-302.807	-49.510	-0.465	-0.221
-301.793	467.411	0.409	0.915
-300.778	222.934	-0.518	0.834
-299.764	166.158	-0.510	-0.721
-298.749	94.617	-0.158	0.180
-297.735	400.918	0.310	0.650
-296.720	-159.932	-0.676	0.037
-295.705	-200.000	0.004	0.535
-294.691	-78.559	-0.662	0.226
-293.676	112.841	0.328	-0.397
-292.662	147.877	0.586	0.789
-291.647	-69.872	0.318	-0.121
-290.632	-200.000	0.081	-0.365
-289.618	-45.316	0.110	-0.055
-288.603	-200.000	-0.045	-0.211
-287.589	-48.121	0.698	0.337
-286.574	-126.358	0.388	-0.058
-285.559	113.375	-0.358	0.434
-284.545	83.819	0.588	-0.641
-283.530	51.949	0.153	0.146
-282.516	101.826	-0.387	-0.450
-281.501	-97.949	0.792	-0.204
-280.486	119.347	-0.413	0.510
-279.472	-200.000	0.056	0.456
-278.457	800.000	-0.233	0.951
-277.443	-139.991	1.059	-0.111
-276.428	97.495	0.193	0.221
-275.413	-21.340	0.625	-0.381
-274.399	-84.780	0.586	0.184
-273.384	-1.548	0.244	0.171
-272.370	-200.000	0.035	-0.650
-271.355	517.688	-0.458	-1.068
-270.340	-200.000	0.169	0.948
-269.326	141.329	0.344	-0.454
-268.311	-200.000	-0.064	0.861
-267.297	458.695	0.335	-0.742
-266.282	-1.310	0.629	-0.443
-265.267	-1.812	0.174	0.122
-264.253	-27.928	-0.265	0.153
-263.238	-37.706	-0.233	0.124
-262.224	378.473	0.288	0.587
-261.209	-200.000	-0.045	0.747
-260.195	196.864	0.221	-0.336
-259.180	-200.000	0.025	0.733
-258.165	-129.967	0.456	-0.062
-257.151	69.403	0.162	0.167
-256.136	85.758	-0.150	-0.165
-255.122	800.000	-0.107	0.422
-254.107	-175.949	-0.625	0.017
-253.092	-83.000	-0.814	-0.262
-252.078	-200.000	-0.005	-0.429
-251.063	-166.108	0.922	0.039
-250.049	-200.000	0.033	-0.524
-249.034	231.560	-0.551	-0.901
-248.019	6.518	0.266	-0.197
-247.005	-38.742	-0.798	-0.420
-245.990	-200.000	-0.052	-0.252
-244.976	-102.035	0.643	-0.154
-243.961	-119.161	-0.584	-0.102
-242.946	-200.000	-0.032	0.745
-241.932	-66.827	1.324	0.522
-240.917	-23.726	-0.451	-0.269
-239.903	-45.137	-0.855	-0.423
-238.888	-6.485	-0.818	-0.555
-237.873	554.309	-0.212	0.508
-236.859	159.579	0.240	-0.332
-235.844	134.976	-0.197	0.255
-234.830	-21.656	0.183	-0.111
-233.815	-81.936	0.168	0.055
-232.800	-65.393	-0.160	0.064
-231.786	-0.496	0.565	0.399
-230.771	800.000	-0.070	0.213
-229.757	-200.000	-0.041	-0.255
-228.742	-200.000	0.007	-0.343
-227.727	-45.978	-0.356	0.175
-226.713	58.699	0.250	0.245
-225.698	-40.870	-0.257	0.132
-224.684	100.547	0.287	-0.332
-223.669	-116.032	0.458	-0.085
-222.655	254.376	0.326	0.556
-221.640	-23.867	-0.168	0.100
-220.625	186.836	0.354	0.524
-219.611	628.118	0.207	-0.520
-218.596	153.757	-0.199	0.272
-217.582	103.131	-0.177	0.206
-216.567	-177.755	0.634	0.015
-215.552	126.072	0.515	-0.648
-214.538	-112.492	-0.292	-0.058
-213.523	214.576	0.269	0.424
-212.509	-199.636	-0.469	-0.002
-211.494	207.280	-0.234	0.364
-210.479	-200.000	-0.099	0.656
-209.465	-15.423	0.474	0.301
-208.450	-86.101	0.583	0.179
-207.436	-187.844	-0.613	-0.008
-206.421	-43.506	0.284	0.143
-205.406	102.339	-0.374	0.435
-204.392	-200.000	-0.002	-1.430
-203.377	800.000	0.209	-0.672
-202.363	-200.000	0.088	-0.796
-201.348	248.816	-0.111	0.187
-200.333	101.780	-0.270	0.313
-199.319	271.219	0.448	-0.785
-198.304	-200.000	0.023	0.163
-197.290	-173.412	0.305	-0.009
-196.275	-82.320	0.552	-0.179
-195.260	-98.993	0.221	0.056
-194.246	-200.000	-0.015	-0.142
-193.231	800.000	-0.178	-0.610
-192.217	-114.071	0.475	-0.091
-191.202	-121.006	-0.632	-0.106
-190.187	-200.000	0.073	0.434
-189.173	515.848	0.113	0.262
-188.158	-116.600	0.899	-0.164
-187.144	52.245	-0.639	0.605
-186.129	-200.000	0.080	0.406
-185.114	40.405	0.036	-0.032
-184.100	105.313	0.368	0.432
-183.085	-41.946	0.486	-0.247
-182.071	75.960	-0.482	0.506
-181.056	-200.000	-0.080	0.777
-180.042	800.000	0.161	-0.626
-179.027	177.396	-0.288	-0.417
-178.012	800.000	-0.229	-0.771
-176.998	-200.000	0.136	-0.860
-175.983	-161.913	0.583	-0.029
-174.969	-47.857	0.235	-0.113
-173.954	-200.000	-0.071	-0.737
-172.939	39.231	0.092	-0.082
-171.925	-87.566	-0.635	-0.191
-170.910	-152.625	0.356	-0.025
-169.896	-55.769	-0.146	-0.065
-168.881	800.000	-0.105	0.325
-167.866	21.802	0.567	0.458
-166.852	-160.779	0.159	0.008
-165.837	159.138	-0.212	0.293
-164.823	160.734	0.249	-0.345
-163.808	800.000	-0.140	-0.386
-162.793	247.920	0.223	0.374
-161.779	-74.267	-0.451	0.162
-160.764	-47.952	-0.171	-0.082
-159.750	368.551	-0.165	-0.331
-158.735	-143.121	0.536	-0.051
-157.720	800.000	0.038	0.129
-156.706	-77.490	-0.124	-0.043
-155.691	327.353	-0.097	-0.185
-154.677	-113.414	-0.512	-0.100
-153.662	-200.000	0.015	0.295
-152.647	-64.599	0.761	-0.307
-151.633	441.055	-0.220	0.478
-150.618	-42.717	-0.352	-0.178
-149.604	-200.000	-0.176	-0.833
-148.589	-129.805	0.969	0.132
-147.574	-70.780	0.050	0.019
-146.560	800.000	0.205	-0.628
-145.545	-87.708	0.657	-0.197
-144.531	79.997	-0.450	0.480
-143.516	88.624	-0.481	0.530
-142.502	-97.134	0.542	0.140
-141.487	800.000	-0.175	0.683
-140.472	-200.000	0.014	0.330
-139.458	92.416	-0.630	0.704
-138.443	-92.326	-1.028	0.287
-137.429	800.000	-0.013	-0.054
-136.414	-200.000	0.128	-0.706
-135.399	147.764	0.226	0.302
-134.385	703.049	0.147	-0.383
-133.370	800.000	-0.279	-0.845
-132.356	800.000	0.044	-0.132
-131.341	491.411	-0.394	0.896
-130.326	-134.169	0.205	-0.025
-129.312	25.229	-0.257	0.212
-128.297	-200.000	-0.132	-0.638
-127.283	800.000	-0.216	-0.733
-126.268	-128.414	-0.668	0.094
-125.253	717.392	-0.071	-0.187
-124.239	44.554	0.175	0.160
-123.224	45.934	-0.331	-0.304
-122.210	112.362	-0.761	-0.912
