DTS Sentinel unit serial number:	SN413079Multiplexer serial number:	ORYXHardware model number:	OX4-SRSoftware version number:	ORYX F/W v4.00 Oryx Data Collector v3.7.2.0data status	okinstallation	princeton_trtdifferential loss correction	single-endedforward channel	channel 4reverse channel	N/Adate	2019/09/19time	07:25:35forward acquisition time	60.00reverse acquisition time	0.00gamma	496.2192k internal	0.2339k external	0.2339temperature offset calibration	1.0023default loss term (dB/km)	0.3790temperature slope calibration	1.0000multiplexer offset coefficient	1.0000multiplexer slope coefficient	1.0000fibre end	0.00T internal ref (°C)	19.19T ext. ref 1 (°C)	0.55T ext. ref 2 (°C)	13.73length (m)	temperature (°C)	Stokes	anti-Stokes-747.200	57.238	-0.210	0.206
-746.185	-98.078	-0.294	0.076
-745.171	-4.974	-0.185	-0.128
-744.156	-200.000	-0.009	0.110
-743.142	800.000	0.081	0.266
-742.127	527.428	0.188	0.445
-741.112	-127.658	-0.209	0.030
-740.098	-200.000	0.024	0.181
-739.083	-200.000	0.021	-0.228
-738.069	-137.694	-0.230	0.026
-737.054	-168.676	0.673	0.026
-736.039	-200.000	0.002	-0.121
-735.025	22.460	0.062	-0.051
-734.010	-200.000	-0.072	0.421
-732.996	-40.823	-0.279	-0.145
-731.981	-150.733	0.076	-0.006
-730.966	-88.460	-0.190	-0.057
-729.952	-200.000	0.053	-0.281
-728.937	84.363	-0.310	-0.340
-727.923	63.798	0.141	-0.142
-726.908	-118.485	-0.115	0.020
-725.894	328.527	-0.130	-0.251
-724.879	-5.168	-0.315	-0.217
-723.864	-100.633	-0.271	-0.067
-722.850	-47.789	-0.219	0.107
-721.835	126.616	-0.136	-0.173
-720.821	-18.704	0.464	-0.290
-719.806	-68.469	0.132	-0.051
-718.791	800.000	-0.091	0.273
-717.777	-55.221	-0.268	0.121
-716.762	649.375	0.095	-0.243
-715.748	-200.000	-0.009	-0.043
-714.733	29.786	0.077	-0.066
-713.718	-82.764	0.255	0.083
-712.704	-200.000	0.028	-0.242
-711.689	-76.125	0.159	0.056
-710.675	-74.129	0.117	-0.042
-709.660	-61.739	-0.234	-0.098
-708.645	800.000	-0.064	-0.182
-707.631	-109.880	-0.419	0.088
-706.616	-14.450	-0.181	-0.116
-705.602	-200.000	0.030	-0.242
-704.587	62.977	-0.041	-0.041
-703.572	-134.957	-0.171	0.021
-702.558	77.023	-0.121	-0.128
-701.543	-91.504	0.404	0.115
-700.529	306.618	0.063	0.117
-699.514	-102.229	-0.096	-0.023
-698.499	800.000	0.029	0.095
-697.485	146.131	-0.058	0.079
-696.470	146.138	0.136	-0.182
-695.456	18.813	-0.235	-0.188
-694.441	-30.220	0.311	-0.177
-693.426	-61.914	-0.083	-0.035
-692.412	-67.898	0.295	0.115
-691.397	-137.955	0.203	0.023
-690.383	188.707	-0.071	-0.106
-689.368	800.000	0.030	-0.104
-688.354	162.861	-0.269	-0.378
-687.339	-200.000	0.065	-0.402
-686.324	158.384	-0.035	0.049
-685.310	126.997	-0.091	-0.115
-684.295	358.933	-0.032	-0.064
-683.281	165.954	0.107	0.152
-682.266	59.697	0.134	0.132
-681.251	343.655	0.113	0.221
-680.237	221.740	-0.087	-0.141
-679.222	50.734	0.309	-0.293
-678.208	239.865	0.044	-0.073
-677.193	18.971	-0.230	-0.184
-676.178	800.000	-0.040	-0.144
-675.164	15.397	0.118	0.093
-674.149	-200.000	-0.008	0.041
-673.135	-79.549	-0.325	-0.110
-672.120	178.599	-0.180	0.263
-671.105	620.013	-0.082	-0.205
-670.091	341.841	-0.272	-0.531
-669.076	198.611	0.141	0.215
-668.062	200.768	0.066	-0.101
-667.047	-110.046	-0.411	-0.086
-666.032	-29.109	0.154	-0.088
-665.018	89.491	-0.090	-0.100
-664.003	-125.000	0.360	0.055
-662.989	40.386	-0.147	0.133
-661.974	-200.000	0.014	0.131
-660.959	-172.844	0.200	0.006
-659.945	-95.570	0.322	0.086
-658.930	458.052	-0.198	-0.440
-657.916	-75.670	-0.226	0.080
-656.901	-200.000	0.000	-0.185
-655.886	-200.000	0.085	0.492
-654.872	80.749	0.187	-0.201
-653.857	800.000	-0.053	0.214
-652.843	800.000	0.049	-0.170
-651.828	-137.543	-0.402	0.045
-650.814	101.192	0.140	-0.162
-649.799	204.318	0.138	0.214
-648.784	-72.075	-0.215	0.080
-647.770	106.415	0.079	-0.094
-646.755	10.052	-0.134	-0.102
-645.741	-12.418	-0.106	0.069
-644.726	-94.313	-0.108	-0.029
-643.711	-200.000	0.034	-0.332
-642.697	571.898	-0.102	0.247
-641.682	-84.843	-0.429	-0.135
-640.668	190.732	0.137	-0.205
-639.653	164.289	-0.118	-0.166
-638.638	448.974	0.044	-0.098
-637.624	301.122	-0.062	-0.114
-636.609	-152.625	-0.333	-0.024
-635.595	286.679	0.111	-0.201
-634.580	-200.000	-0.039	0.196
-633.565	-166.610	-0.430	-0.018
-632.551	-2.447	0.344	-0.240
-631.536	-152.168	0.181	-0.013
-630.522	-160.596	-0.254	-0.013
-629.507	-164.799	-0.074	-0.003
-628.492	-150.554	0.202	0.015
-627.478	800.000	0.053	-0.162
-626.463	197.035	0.115	-0.176
-625.449	241.558	0.184	-0.307
-624.434	-200.000	-0.054	-0.319
-623.419	-60.911	-0.314	0.132
-622.405	-200.000	-0.060	-0.606
-621.390	214.303	0.221	-0.349
-620.376	-200.000	0.034	0.148
-619.361	25.477	0.156	0.129
-618.346	-200.000	-0.042	0.194
-617.332	-114.778	0.144	-0.027
-616.317	83.217	0.035	0.038
-615.303	-159.113	-0.246	0.014
-614.288	800.000	0.043	-0.123
-613.273	35.472	0.294	-0.258
-612.259	800.000	0.055	0.215
-611.244	800.000	-0.024	-0.069
-610.230	-115.241	-0.339	0.064
-609.215	800.000	0.090	-0.335
-608.201	-153.212	0.125	0.009
-607.186	434.579	-0.077	0.166
-606.171	-45.741	-0.036	-0.018
-605.157	-84.648	-0.104	-0.033
-604.142	566.198	0.053	-0.129
-603.128	-78.737	-0.347	-0.118
-602.113	-37.584	0.386	-0.205
-601.098	7.763	-0.090	-0.068
-600.084	800.000	0.108	-0.321
-599.069	-200.000	-0.008	-0.078
-598.055	213.791	-0.124	-0.195
-597.040	207.394	0.083	-0.129
-596.025	-166.585	0.082	0.003
-595.011	109.904	0.148	-0.177
-593.996	-200.000	0.017	0.168
-592.982	-56.279	0.159	0.071
-591.967	463.885	0.147	-0.326
-590.952	-200.000	-0.069	-0.370
-589.938	123.833	-0.119	-0.149
-588.923	321.768	0.080	-0.152
-587.909	36.193	-0.246	-0.216
-586.894	234.476	-0.106	-0.174
-585.879	474.982	0.015	0.035
-584.865	-80.497	0.175	0.058
-583.850	800.000	0.023	0.098
-582.836	168.088	0.252	0.358
-581.821	800.000	0.077	-0.283
-580.806	72.636	-0.325	-0.337
-579.792	-200.000	-0.048	-0.528
-578.777	199.386	-0.107	0.163
-577.763	-200.000	-0.044	0.279
-576.748	-57.773	-0.090	0.039
-575.733	-11.666	0.099	-0.065
-574.719	-92.947	-0.217	0.060
-573.704	800.000	0.066	-0.265
-572.690	-14.824	-0.217	-0.139
-571.675	-48.444	-0.390	-0.187
-570.661	228.197	0.157	-0.254
-569.646	92.706	-0.140	0.157
-568.631	-19.797	-0.307	-0.189
-567.617	-116.638	0.061	0.011
-566.602	96.142	0.075	0.086
-565.588	-129.711	-0.060	0.008
-564.573	34.591	-0.137	-0.119
-563.558	-28.716	0.254	0.146
-562.544	-200.000	0.008	0.273
-561.529	145.418	-0.032	-0.042
-560.515	-33.888	-0.072	-0.040
-559.500	3.840	-0.206	-0.150
-558.485	11.917	0.091	-0.070
-557.471	384.729	-0.034	-0.070
-556.456	181.050	0.137	0.200
-555.442	-128.283	-0.138	0.020
-554.427	-124.607	0.213	-0.033
-553.412	-112.816	-0.309	-0.061
-552.398	800.000	0.096	0.320
-551.383	-19.345	-0.170	0.105
-550.369	391.935	0.057	0.118
-549.354	-111.671	-0.159	-0.032
-548.339	800.000	0.118	-0.326
-547.325	-168.543	0.211	0.008
-546.310	213.480	-0.058	-0.091
-545.296	800.000	0.099	-0.379
-544.281	800.000	-0.091	-0.275
-543.266	-126.805	0.282	-0.041
-542.252	-181.668	0.158	-0.003
-541.237	-129.134	-0.396	-0.055
-540.223	-95.581	-0.392	-0.105
-539.208	153.393	0.246	-0.336
-538.193	166.388	-0.047	0.066
-537.179	800.000	-0.080	-0.225
-536.164	-108.829	-0.335	0.071
-535.150	-65.193	0.227	0.091
-534.135	-200.000	-0.006	-0.071
-533.121	-200.000	-0.060	0.269
-532.106	800.000	-0.051	-0.214
-531.091	247.138	0.093	-0.156
-530.077	287.524	0.078	-0.140
-529.062	-71.323	0.354	-0.132
-528.048	-111.691	0.228	-0.046
-527.033	83.409	0.127	-0.138
-526.018	-200.000	0.014	-0.069
-525.004	-57.748	-0.230	-0.100
-523.989	-144.806	-0.232	0.021
-522.975	-31.304	0.313	-0.175
-521.960	-200.000	-0.023	0.140
-520.945	-66.895	0.408	-0.160
-519.931	19.723	-0.054	0.043
-518.916	800.000	-0.069	0.198
-517.902	5.759	-0.230	0.169
-516.887	506.257	-0.167	-0.385
-515.872	556.318	0.056	0.134
-514.858	-114.797	0.345	0.065
-513.843	79.063	0.070	-0.074
-512.829	-148.177	0.222	-0.018
-511.814	800.000	-0.025	-0.087
-510.799	800.000	-0.034	-0.130
-509.785	473.700	0.101	-0.225
-508.770	249.366	-0.121	-0.204
-507.756	-46.859	-0.339	0.165
-506.741	-200.000	0.032	0.141
-505.726	-29.427	-0.180	0.103
-504.712	20.629	0.416	-0.335
-503.697	800.000	0.083	-0.278
-502.683	26.954	-0.435	0.362
-501.668	11.069	0.108	0.082
-500.653	727.431	-0.049	0.129
-499.639	-20.096	-0.214	0.131
-498.624	188.935	-0.060	-0.090
-497.610	800.000	0.027	0.084
-496.595	327.864	0.080	-0.152
-495.581	-114.872	-0.147	0.028
-494.566	800.000	0.027	0.078
-493.551	-28.811	-0.208	0.119
-492.537	31.470	-0.050	0.043
-491.522	122.732	-0.349	-0.434
-490.508	-52.490	0.092	0.042
-489.493	800.000	0.116	0.379
-488.478	-103.573	0.037	0.009
-487.464	-111.544	-0.025	-0.005
-486.449	-200.000	-0.011	0.117
-485.435	-200.000	-0.010	0.235
-484.420	-70.043	-0.175	0.066
-483.405	-68.219	-0.290	0.112
-482.391	184.755	-0.095	-0.140
-481.376	149.785	0.129	-0.174
-480.362	-14.152	-0.267	-0.171
-479.347	-76.619	0.353	-0.123
-478.332	414.713	0.151	0.320
-477.318	-138.720	-0.226	-0.025
-476.303	-76.509	-0.331	-0.115
-475.289	800.000	0.054	0.211
-474.274	-108.905	0.082	-0.017
-473.259	-92.067	0.247	-0.069
-472.245	-200.000	-0.034	0.342
-471.230	-57.249	-0.112	0.049
-470.216	166.831	-0.099	0.139
-469.201	267.197	-0.180	-0.313
-468.186	204.407	0.193	0.297
-467.172	109.594	-0.260	-0.310
-466.157	-177.662	-0.050	-0.001
-465.143	88.924	0.082	-0.090
-464.128	-151.873	0.163	-0.012
-463.113	364.544	0.105	0.210
-462.099	341.026	0.094	0.183
-461.084	800.000	-0.028	-0.082
-460.070	-200.000	0.060	0.352
-459.055	-41.486	-0.204	-0.104
-458.040	-58.478	0.033	0.014
-457.026	123.690	0.189	0.235
-456.011	-43.692	0.094	-0.047
-454.997	223.077	0.076	-0.121
-453.982	800.000	0.110	0.306
-452.968	-17.135	0.057	0.036
-451.953	303.629	-0.212	-0.389
-450.938	325.307	-0.087	0.165
-449.924	800.000	-0.122	0.335
-448.909	569.495	-0.045	-0.108
-447.895	-19.509	0.028	0.017
-446.880	216.202	-0.194	-0.305
-445.865	-107.407	0.265	-0.058
-444.851	17.446	0.079	-0.062
-443.836	247.417	0.217	0.363
-442.822	-113.989	-0.263	0.050
-441.807	141.675	0.275	0.361
-440.792	-71.522	-0.110	0.041
-439.778	-113.379	0.058	0.011
-438.763	-200.000	0.028	0.155
-437.749	-43.642	-0.093	-0.046
-436.734	99.600	0.105	-0.121
-435.719	-160.830	0.136	0.007
-434.705	-200.000	-0.023	0.167
-433.690	176.073	-0.132	-0.189
-432.676	-55.312	-0.088	0.039
-431.661	-200.000	0.046	0.323
-430.646	37.578	-0.299	0.263
-429.632	10.123	0.241	-0.181
-428.617	-86.788	0.206	0.062
-427.603	-110.980	-0.108	-0.022
-426.588	-200.000	-0.026	0.160
-425.573	-46.710	-0.186	0.090
-424.559	69.541	0.292	0.298
-423.544	-118.382	0.165	-0.029
-422.530	-109.056	0.248	0.052
-421.515	-72.618	-0.375	0.137
-420.500	46.663	-0.168	0.154
-419.486	141.987	-0.119	-0.156
-418.471	800.000	-0.056	0.192
-417.457	51.352	0.095	0.090
-416.442	317.227	0.069	0.130
-415.428	667.054	-0.092	0.235
-414.413	-8.879	-0.274	0.182
-413.398	111.808	0.143	-0.170
-412.384	-134.154	-0.200	-0.024
-411.369	-81.683	0.056	0.018
-410.355	333.036	-0.080	-0.153
-409.340	78.793	-0.137	-0.145
-408.325	800.000	0.088	-0.333
-407.311	-200.000	-0.064	0.397
-406.296	-200.000	-0.075	0.542
-405.282	353.416	0.201	-0.395
-404.267	280.863	0.099	0.175
-403.252	30.612	0.111	-0.094
-402.238	-54.680	-0.146	0.065
-401.223	-48.776	-0.214	-0.101
-400.209	658.475	-0.053	0.134
-399.194	800.000	-0.039	0.126
-398.179	-176.063	-0.389	0.010
-397.165	88.745	0.240	0.264
-396.150	-32.541	0.166	0.092
-395.136	-200.000	-0.009	0.235
-394.121	800.000	0.116	0.384
-393.106	800.000	-0.109	-0.297
-392.092	-200.000	0.023	0.352
-391.077	-87.457	0.095	-0.028
-390.063	20.989	-0.065	0.052
-389.048	703.685	-0.123	-0.321
-388.033	-200.000	0.017	0.171
-387.019	-14.934	0.161	-0.102
-386.004	-200.000	-0.013	-0.131
-384.990	800.000	0.077	-0.236
-383.975	98.180	0.253	-0.288
-382.960	228.848	-0.044	0.070
-381.946	325.431	-0.093	-0.175
-380.931	-200.000	-0.163	-0.001
-379.917	-137.771	-0.241	-0.027
-378.902	122.656	0.270	0.334
-377.888	143.515	-0.140	0.184
-376.873	477.927	0.080	-0.178
-375.858	-150.678	0.337	-0.025
-374.844	-20.161	-0.021	-0.013
-373.829	31.065	0.128	-0.109
-372.815	-18.059	-0.354	0.219
-371.800	-128.033	-0.134	0.019
-370.785	-17.597	0.082	0.051
-369.771	-168.051	-0.290	-0.011
-368.756	-57.813	0.239	0.103
-367.742	-94.941	0.201	-0.054
-366.727	-164.890	-0.218	0.010
-365.712	-80.887	-0.161	0.053
-364.698	-49.436	-0.250	-0.118
-363.683	-3.526	0.106	0.073
-362.669	-200.000	-0.011	0.179
-361.654	179.219	0.111	0.160
-360.639	-200.000	0.059	0.280
-359.625	65.772	-0.368	0.369
-358.610	308.834	0.144	-0.266
-357.596	-126.834	-0.089	0.013
-356.581	-200.000	0.005	0.250
-355.566	334.494	0.108	0.207
-354.552	155.376	-0.184	-0.250
-353.537	-142.717	-0.428	0.041
-352.523	-100.037	-0.307	-0.076
-351.508	-20.204	-0.228	-0.139
-350.493	-12.875	0.018	-0.012
-349.479	800.000	0.048	0.191
-348.464	-25.505	-0.119	0.070
-347.450	-3.588	-0.328	-0.225
-346.435	-175.648	0.350	0.009
-345.420	-121.783	0.391	0.064
-344.406	4.612	-0.165	0.119
-343.391	-21.046	0.234	-0.142
-342.377	-104.647	-0.205	-0.047
-341.362	302.052	0.045	-0.082
-340.348	-68.718	-0.174	-0.066
-339.333	800.000	0.074	-0.228
-338.318	8.629	-0.185	-0.138
-337.304	43.055	-0.146	-0.132
-336.289	-14.981	0.186	0.118
-335.275	-88.336	0.193	-0.057
-334.260	-62.709	-0.235	-0.096
-333.245	-160.882	0.095	-0.005
-332.231	800.000	-0.114	0.446
-331.216	765.030	0.118	0.318
-330.202	142.713	0.142	0.186
-329.187	44.570	0.318	0.288
-328.172	142.254	0.296	-0.388
-327.158	-98.592	0.151	-0.038
-326.143	176.843	-0.180	0.258
-325.129	412.058	0.125	0.261
-324.114	800.000	-0.081	0.296
-323.099	-48.714	0.068	-0.032
-322.085	-101.749	0.137	0.033
-321.070	-57.870	0.428	0.184
-320.056	-84.622	-0.010	-0.003
-319.041	186.559	-0.186	0.274
-318.026	-200.000	0.018	0.172
-317.012	35.039	0.133	-0.115
-315.997	-200.000	-0.050	-0.309
-314.983	20.790	0.106	-0.085
-313.968	-200.000	-0.004	0.095
-312.953	-164.527	-0.164	0.007
-311.939	-112.645	-0.023	0.005
-310.924	-28.025	0.194	-0.111
-309.910	-152.788	0.267	-0.019
-308.895	-182.298	0.182	-0.003
-307.880	-107.937	-0.128	-0.027
-306.866	-200.000	0.256	0.001
-305.851	-102.942	0.132	0.031
-304.837	315.359	0.190	0.353
-303.822	390.788	0.079	-0.161
-302.807	-93.491	-0.153	-0.042
-301.793	87.436	-0.040	0.043
-300.778	3.961	0.161	-0.116
-299.764	477.844	0.076	-0.170
-298.749	116.347	-0.177	0.214
-297.735	800.000	-0.044	-0.149
-296.720	26.764	0.032	-0.026
-295.705	-200.000	-0.060	-0.295
-294.691	-68.025	0.092	-0.035
-293.676	123.909	0.055	-0.068
-292.662	-81.177	0.105	0.034
-291.647	-0.977	0.181	0.126
-290.632	10.346	0.149	0.111
-289.618	95.423	-0.319	0.359
-288.603	-40.231	0.267	0.137
-287.589	3.372	-0.154	0.110
-286.574	-46.323	0.052	0.025
-285.559	-200.000	0.027	-0.182
-284.545	-200.000	-0.016	0.166
-283.530	-47.000	-0.225	0.108
-282.516	504.804	0.146	-0.334
-281.501	744.734	-0.064	-0.170
-280.486	-101.101	0.254	0.061
-279.472	-4.564	-0.129	-0.087
-278.457	26.049	-0.152	-0.125
-277.443	13.103	-0.115	0.088
-276.428	634.976	-0.075	0.188
-275.413	-136.071	0.261	-0.030
-274.399	-80.266	0.081	0.027
-273.384	-200.000	0.030	-0.205
-272.370	-49.723	-0.364	-0.170
-271.355	47.730	0.187	0.172
-270.340	-200.000	-0.011	-0.303
-269.326	78.193	-0.072	-0.075
-268.311	800.000	0.099	0.304
-267.297	-80.097	0.531	-0.175
-266.282	-56.916	0.216	-0.094
-265.267	708.457	0.025	0.066
-264.253	-164.887	0.446	0.020
-263.238	135.803	-0.054	0.069
-262.224	-105.150	0.327	0.074
-261.209	-111.214	-0.473	-0.095
-260.195	-156.450	0.293	-0.018
-259.180	564.752	-0.058	0.139
-258.165	800.000	-0.069	0.188
-257.151	-191.771	0.078	-0.001
-256.136	-110.535	-0.496	-0.101
-255.122	-83.443	0.271	0.086
-254.107	-114.064	0.095	0.018
-253.092	-110.471	-0.093	-0.019
-252.078	-88.409	0.047	-0.014
-251.063	31.417	0.169	0.143
-250.049	-107.310	-0.242	-0.052
-249.034	-3.792	-0.245	0.167
-248.019	428.602	-0.059	0.126
-247.005	800.000	0.025	-0.104
-245.990	104.329	0.124	0.143
-244.976	-14.479	0.229	0.145
-243.961	-200.000	0.012	0.076
-242.946	-68.354	-0.182	0.070
-241.932	88.903	0.232	-0.254
-240.917	1.751	-0.068	0.048
-239.903	-200.000	-0.079	-0.353
-238.888	414.300	-0.079	0.166
-237.873	-200.000	-0.072	0.436
-236.859	730.410	-0.183	0.480
-235.844	800.000	0.067	0.269
-234.830	-200.000	0.026	-0.196
-233.815	-87.623	-0.094	-0.028
-232.800	613.503	-0.148	0.365
-231.786	47.331	0.054	-0.049
-230.771	49.640	0.101	0.093
-229.757	-117.425	0.158	0.028
-228.742	633.022	-0.037	-0.092
-227.727	-200.000	-0.021	-0.130
-226.713	-160.359	-0.320	-0.017
-225.698	233.009	0.138	0.223
-224.684	63.917	0.091	0.090
-223.669	-200.000	0.087	-0.382
-222.655	-84.436	-0.175	0.054
-221.640	-112.645	0.133	-0.026
-220.625	-44.023	-0.183	0.091
-219.611	59.688	-0.074	-0.072
-218.596	196.943	0.308	0.461
-217.582	-200.000	-0.022	-0.218
-216.567	-160.128	-0.139	-0.007
-215.552	-200.000	-0.022	0.292
-214.538	-200.000	-0.026	-0.192
-213.523	-131.098	-0.106	0.014
-212.509	347.911	-0.090	-0.174
-211.494	172.080	-0.120	-0.169
-210.479	-58.286	0.103	0.044
-209.465	-114.242	0.129	0.024
-208.450	-150.911	0.323	0.024
-207.436	777.521	0.153	0.412
-206.421	180.571	0.127	0.183
-205.406	-175.318	-0.096	-0.003
-204.392	49.836	-0.123	0.114
-203.377	65.498	0.088	0.088
-202.363	34.203	0.251	-0.215
-201.348	-26.492	-0.232	-0.134
-200.333	32.783	0.048	0.041
-199.319	-51.213	0.246	-0.113
-198.304	658.644	0.105	0.264
-197.290	-82.571	-0.336	-0.107
-196.275	195.660	-0.096	0.143
-195.260	273.977	-0.113	0.196
-194.246	97.049	0.237	-0.267
-193.231	-200.000	0.003	0.108
-192.217	665.033	0.146	0.370
-191.202	-14.074	-0.244	-0.154
-190.187	52.501	-0.156	-0.146
-189.173	-144.379	-0.152	0.014
-188.158	-27.504	0.061	-0.035
-187.144	50.046	0.288	0.266
-186.129	2.716	0.250	0.178
-185.114	-200.000	0.008	0.118
-184.100	-92.821	0.192	0.053
-183.085	69.708	-0.090	-0.090
-182.071	424.602	0.048	0.102
-181.056	11.359	-0.243	0.182
-180.042	-72.492	0.204	0.074
-179.027	-180.365	-0.177	-0.004
-178.012	-128.044	0.285	-0.040
-176.998	-105.886	0.296	-0.066
-175.983	-31.554	-0.321	0.177
-174.969	-111.135	0.197	-0.040
-173.954	-83.917	-0.220	-0.069
-172.939	500.187	-0.141	-0.320
-171.925	-150.667	-0.183	-0.014
-170.910	29.439	0.358	-0.298
-169.896	-64.264	-0.440	-0.176
-168.881	-156.042	0.207	-0.013
-167.866	483.557	-0.072	-0.160
-166.852	-89.049	-0.272	-0.079
-165.837	-200.000	0.007	-0.098
-164.823	116.251	-0.048	0.058
-163.808	11.644	-0.017	0.013
-162.793	-176.572	0.526	0.013
-161.779	800.000	0.038	0.157
-160.764	800.000	0.058	-0.200
-159.750	-24.958	-0.109	-0.063
-158.735	114.041	-0.160	-0.191
-157.720	16.620	0.169	0.131
-156.706	9.653	0.079	0.059
-155.691	-100.575	0.152	-0.037
-154.677	489.855	-0.121	0.272
-153.662	49.248	-0.075	0.069
-152.647	-3.764	0.397	-0.270
-151.633	800.000	0.045	-0.183
-150.618	134.784	0.211	0.268
-149.604	-61.035	0.206	0.085
-148.589	188.036	0.052	0.076
-147.574	-200.000	-0.027	0.243
-146.560	-91.505	0.125	-0.035
-145.545	-81.022	-0.250	-0.081
-144.531	-35.682	0.209	0.111
-143.516	-200.000	-0.072	-0.403
-142.502	-200.000	-0.043	0.370
-141.487	473.095	-0.062	-0.137
-140.472	133.570	-0.120	-0.152
-139.458	800.000	0.082	0.258
-138.443	14.851	0.120	-0.092
-137.429	-63.726	0.188	-0.075
-136.414	-22.231	0.241	0.143
-135.399	-82.375	-0.101	0.032
-134.385	-200.000	0.006	-0.037
-133.370	104.141	-0.109	-0.126
-132.356	-171.046	-0.243	0.008
-131.341	112.376	-0.107	0.127
-130.326	800.000	-0.013	-0.047
-129.312	-23.777	0.254	-0.149
-128.297	45.691	0.272	-0.246
-127.283	-200.000	0.020	0.144
-126.268	-119.848	-0.139	0.023
-125.253	-200.000	0.012	-0.195
-124.239	783.037	-0.073	0.197
-123.224	-20.741	-0.112	0.067
-122.210	43.601	0.118	-0.106
