DTS Sentinel unit serial number:	SN413079Multiplexer serial number:	ORYXHardware model number:	OX4-SRSoftware version number:	ORYX F/W v4.00 Oryx Data Collector v3.7.2.0data status	okinstallation	princeton_trtdifferential loss correction	single-endedforward channel	channel 4reverse channel	N/Adate	2019/09/18time	15:49:35forward acquisition time	60.00reverse acquisition time	0.00gamma	496.2192k internal	0.2293k external	0.2293temperature offset calibration	1.0004default loss term (dB/km)	0.3790temperature slope calibration	1.0000multiplexer offset coefficient	1.0000multiplexer slope coefficient	1.0000fibre end	0.00T internal ref (°C)	36.62T ext. ref 1 (°C)	0.80T ext. ref 2 (°C)	34.74length (m)	temperature (°C)	Stokes	anti-Stokes-747.200	101.377	-0.018	-0.021
-746.185	800.000	-0.094	0.312
-745.171	-116.106	-0.248	-0.047
-744.156	-149.110	-0.254	0.021
-743.142	434.947	-0.116	0.257
-742.127	8.149	-0.322	0.247
-741.112	144.080	-0.330	0.451
-740.098	62.247	-0.306	0.312
-739.083	-63.327	-0.309	0.130
-738.069	800.000	-0.072	-0.261
-737.054	83.867	-0.142	-0.158
-736.039	-46.965	-0.370	-0.185
-735.025	-200.000	0.042	0.426
-734.010	-200.000	-0.037	-0.323
-732.996	486.118	-0.064	-0.150
-731.981	175.411	-0.053	-0.078
-730.966	-118.598	0.088	0.016
-729.952	178.425	0.138	-0.206
-728.937	2.477	-0.095	0.070
-727.923	417.168	0.118	-0.257
-726.908	-200.000	0.052	-0.318
-725.894	-61.062	-0.302	0.130
-724.879	-17.966	-0.157	-0.100
-723.864	26.847	-0.216	0.185
-722.850	800.000	0.019	0.066
-721.835	-200.000	0.002	-0.153
-720.821	-116.255	-0.183	-0.035
-719.806	-105.103	-0.389	-0.091
-718.791	-130.690	-0.540	-0.074
-717.777	-29.315	-0.234	0.137
-716.762	-71.160	0.068	0.026
-715.748	-17.345	-0.055	0.035
-714.733	-108.135	0.345	0.076
-713.718	49.544	0.037	-0.036
-712.704	-18.720	-0.091	-0.058
-711.689	-132.467	-0.200	0.026
-710.675	106.840	-0.193	-0.234
-709.660	16.843	-0.094	0.076
-708.645	-68.773	-0.293	-0.116
-707.631	800.000	-0.153	-0.454
-706.616	-70.656	-0.039	0.015
-705.602	31.309	-0.177	0.155
-704.587	165.871	0.143	-0.206
-703.572	-151.985	0.212	-0.016
-702.558	74.505	0.194	-0.208
-701.543	-100.021	-0.334	-0.085
-700.529	173.755	-0.082	0.121
-699.514	176.465	0.088	0.131
-698.499	-74.997	0.075	0.028
-697.485	-178.841	0.126	-0.003
-696.470	613.053	-0.031	-0.079
-695.456	335.890	-0.109	0.216
-694.441	59.078	-0.056	0.056
-693.426	800.000	0.116	0.379
-692.412	-146.925	0.109	-0.010
-691.397	89.709	-0.099	-0.113
-690.383	38.051	0.182	0.166
-689.368	368.900	-0.079	0.164
-688.354	488.267	0.155	-0.361
-687.339	39.545	-0.319	-0.292
-686.324	-200.000	0.015	-0.141
-685.310	-51.035	-0.197	0.095
-684.295	-200.000	0.017	-0.222
-683.281	-200.000	-0.065	0.320
-682.266	123.989	0.075	0.096
-681.251	153.330	0.118	-0.165
-680.237	-200.000	0.018	-0.213
-679.222	94.754	-0.052	-0.060
-678.208	-84.949	-0.294	0.094
-677.193	-200.000	-0.027	0.247
-676.178	-200.000	0.009	0.073
-675.164	-50.051	-0.252	-0.122
-674.149	-45.495	0.062	-0.031
-673.135	800.000	0.063	0.274
-672.120	-142.606	0.264	0.026
-671.105	-16.370	-0.277	-0.179
-670.091	800.000	-0.029	-0.110
-669.076	-89.233	-0.155	0.047
-668.062	-200.000	-0.011	-0.150
-667.047	83.352	-0.094	-0.104
-666.032	-200.000	0.003	-0.266
-665.018	-163.606	0.453	0.022
-664.003	38.491	-0.059	0.054
-662.989	696.342	0.031	-0.084
-661.974	158.299	-0.174	-0.246
-660.959	-94.215	0.100	-0.028
-659.945	-117.745	0.179	0.033
-658.930	254.429	-0.032	0.056
-657.916	19.162	-0.262	-0.214
-656.901	-111.202	-0.269	-0.056
-655.886	263.329	-0.164	0.290
-654.872	-16.862	-0.220	-0.142
-653.857	-54.170	0.189	-0.087
-652.843	176.147	0.076	-0.112
-651.828	-57.415	0.046	0.021
-650.814	800.000	0.137	-0.474
-649.799	-200.000	-0.049	0.242
-648.784	-109.543	-0.202	-0.043
-647.770	800.000	0.079	-0.248
-646.755	-46.708	0.355	0.177
-645.741	-99.636	0.116	-0.030
-644.726	-11.101	0.318	-0.214
-643.711	-4.466	-0.050	-0.035
-642.697	70.918	0.191	-0.202
-641.682	-89.644	0.471	-0.141
-640.668	22.356	0.068	-0.056
-639.653	-200.000	0.005	-0.041
-638.638	800.000	0.037	-0.130
-637.624	8.485	-0.042	-0.033
-636.609	104.831	-0.165	-0.198
-635.595	800.000	0.033	0.118
-634.580	248.495	-0.173	0.298
-633.565	626.124	0.059	-0.151
-632.551	-139.081	-0.403	-0.044
-631.536	74.502	0.025	0.027
-630.522	46.490	0.133	-0.126
-629.507	106.429	-0.200	0.241
-628.492	-200.000	-0.033	-0.188
-627.478	4.954	-0.054	-0.041
-626.463	102.872	-0.256	-0.305
-625.449	154.939	-0.137	-0.192
-624.434	217.498	0.137	-0.222
-623.419	58.236	-0.205	-0.204
-622.405	240.203	-0.099	-0.168
-621.390	800.000	0.157	-0.451
-620.376	-200.000	0.004	0.489
-619.361	-33.997	-0.210	0.118
-618.346	-7.080	-0.087	0.060
-617.332	764.023	0.038	0.106
-616.317	209.790	0.065	-0.103
-615.303	239.626	0.113	0.192
-614.288	-92.494	-0.113	0.032
-613.273	-147.500	-0.210	0.018
-612.259	-91.573	-0.071	-0.021
-611.244	800.000	0.040	0.172
-610.230	-200.000	0.008	0.141
-609.215	-126.883	-0.275	-0.041
-608.201	518.610	0.136	-0.324
-607.186	97.403	0.188	0.220
-606.171	-40.970	0.132	-0.069
-605.157	-111.547	-0.205	-0.042
-604.142	-200.000	-0.005	0.096
-603.128	-200.000	-0.019	0.088
-602.113	405.735	-0.071	-0.153
-601.098	86.327	0.281	-0.315
-600.084	60.142	-0.225	0.226
-599.069	-79.864	0.121	0.041
-598.055	-63.810	-0.068	0.029
-597.040	-58.610	-0.088	-0.039
-596.025	158.519	-0.171	0.241
-595.011	-38.785	-0.411	0.221
-593.996	-177.283	0.031	0.001
-592.982	-61.135	0.125	0.054
-591.967	-21.458	0.205	0.127
-590.952	-200.000	0.057	-0.501
-589.938	445.276	0.123	-0.275
-588.923	-28.269	0.315	-0.185
-587.909	800.000	0.019	-0.083
-586.894	800.000	-0.056	0.206
-585.879	500.288	0.043	0.101
-584.865	-49.441	-0.191	0.093
-583.850	-117.274	-0.222	0.041
-582.836	-37.228	-0.332	-0.181
-581.821	143.338	-0.154	-0.208
-580.806	-188.445	-0.166	-0.002
-579.792	-69.567	0.123	-0.048
-578.777	-200.000	-0.037	-0.320
-577.763	20.023	-0.102	0.084
-576.748	19.958	-0.092	0.075
-575.733	-8.879	-0.198	0.135
-574.719	-56.814	-0.345	0.155
-573.704	-200.000	0.012	-0.101
-572.690	69.257	-0.181	-0.189
-571.675	-56.029	0.174	-0.079
-570.661	-89.273	0.225	0.067
-569.646	800.000	0.120	-0.412
-568.631	800.000	0.012	0.047
-567.617	271.827	0.121	-0.217
-566.602	634.994	0.062	0.160
-565.588	2.334	-0.008	-0.006
-564.573	-38.452	-0.198	0.106
-563.558	-122.221	0.100	-0.017
-562.544	-200.000	0.042	0.318
-561.529	800.000	-0.016	-0.063
-560.515	-200.000	-0.010	0.067
-559.500	332.318	-0.110	0.216
-558.485	161.774	-0.158	-0.225
-557.471	-24.700	0.107	0.064
-556.456	-9.813	-0.070	0.047
-555.442	-130.672	-0.380	0.052
-554.427	-141.288	0.208	0.021
-553.412	469.090	-0.047	-0.108
-552.398	-200.000	0.014	-0.148
-551.383	326.422	0.055	-0.108
-550.369	-41.847	-0.067	0.035
-549.354	89.949	-0.226	-0.256
-548.339	800.000	-0.057	0.221
-547.325	-34.687	-0.099	-0.055
-546.310	-53.418	0.113	0.052
-545.296	290.467	0.147	0.272
-544.281	0.658	0.048	-0.035
-543.266	800.000	-0.018	0.066
-542.252	316.743	-0.125	-0.241
-541.237	538.186	0.043	-0.103
-540.223	213.216	-0.018	-0.029
-539.208	-122.317	0.173	-0.029
-538.193	800.000	0.043	-0.167
-537.179	200.429	-0.162	0.253
-536.164	-43.452	-0.086	0.044
-535.150	90.087	0.099	0.112
-534.135	-200.000	0.005	0.156
-533.121	57.287	0.165	0.164
-532.106	253.092	0.073	-0.126
-531.091	-91.177	0.311	0.090
-530.077	129.019	0.248	0.321
-529.062	32.963	0.056	-0.049
-528.048	69.200	0.273	-0.285
-527.033	304.376	0.120	0.225
-526.018	-158.591	0.130	-0.008
-525.004	-110.075	-0.347	0.073
-523.989	40.837	0.159	0.145
-522.975	422.696	0.034	-0.073
-521.960	-200.000	0.013	-0.219
-520.945	-110.894	0.083	0.017
-519.931	275.281	0.097	-0.174
-518.916	230.422	-0.178	-0.296
-517.902	39.782	0.175	0.159
-516.887	-32.799	-0.139	0.078
-515.872	-101.517	-0.196	0.048
-514.858	-147.308	0.285	-0.025
-513.843	-76.488	0.296	0.106
-512.829	149.502	0.131	0.180
-511.814	65.296	0.064	0.065
-510.799	-164.580	-0.254	-0.012
-509.785	-200.000	-0.001	-0.225
-508.770	-74.909	-0.015	-0.006
-507.756	-200.000	0.004	-0.076
-506.741	21.361	0.437	0.360
-505.726	800.000	0.026	-0.089
-504.712	258.639	-0.097	0.169
-503.697	22.172	-0.126	0.104
-502.683	-154.041	0.225	-0.016
-501.668	-98.099	-0.045	0.012
-500.653	162.893	0.251	-0.357
-499.639	-43.954	-0.311	-0.158
-498.624	800.000	-0.036	-0.113
-497.610	-50.975	0.117	0.056
-496.595	-200.000	-0.015	-0.121
-495.581	-97.686	-0.330	-0.087
-494.566	218.931	-0.115	-0.187
-493.551	45.703	-0.130	-0.121
-492.537	-200.000	-0.033	0.369
-491.522	-173.744	0.208	-0.006
-490.508	-31.175	-0.080	0.046
-489.493	95.300	-0.213	-0.246
-488.478	-200.000	-0.010	-0.353
-487.464	285.398	-0.186	-0.340
-486.449	-156.826	-0.340	-0.021
-485.435	406.992	-0.079	-0.169
-484.420	-200.000	0.053	-0.265
-483.405	2.345	0.258	-0.189
-482.391	800.000	0.091	-0.291
-481.376	-22.480	0.160	0.098
-480.362	66.229	-0.180	-0.185
-479.347	-143.526	0.285	-0.027
-478.332	47.764	-0.292	0.276
-477.318	30.885	0.233	0.202
-476.303	139.357	0.261	0.348
-475.289	-93.725	0.130	-0.036
-474.274	800.000	0.082	-0.334
-473.259	403.469	0.159	-0.339
-472.245	105.050	0.155	-0.186
-471.230	800.000	-0.035	0.101
-470.216	800.000	-0.092	0.326
-469.201	273.060	0.159	0.285
-468.186	-60.406	-0.273	0.117
-467.172	800.000	-0.052	0.174
-466.157	-121.775	0.103	-0.017
-465.143	-200.000	0.007	-0.085
-464.128	48.096	0.178	0.169
-463.113	147.846	0.041	0.056
-462.099	800.000	-0.029	-0.124
-461.084	-200.000	0.030	0.132
-460.070	-200.000	-0.007	-0.108
-459.055	17.204	-0.097	-0.078
-458.040	364.756	0.090	0.183
-457.026	133.088	-0.180	-0.235
-456.011	-96.992	0.266	-0.071
-454.997	14.145	-0.199	0.157
-453.982	-200.000	0.003	0.079
-452.968	-34.633	-0.198	0.110
-451.953	27.510	0.177	-0.151
-450.938	-200.000	0.040	0.359
-449.924	481.485	-0.110	-0.254
-448.909	302.357	0.036	-0.068
-447.895	800.000	0.006	0.019
-446.880	-125.244	-0.195	-0.030
-445.865	-200.000	0.021	-0.244
-444.851	29.022	0.043	0.037
-443.836	-112.711	0.342	-0.069
-442.822	638.360	-0.106	-0.273
-441.807	541.074	-0.097	0.234
-440.792	-13.151	-0.203	-0.133
-439.778	-99.524	0.317	-0.081
-438.763	209.582	0.129	0.204
-437.749	21.282	0.142	-0.117
-436.734	-200.000	0.082	-0.391
-435.719	-93.366	-0.316	-0.089
-434.705	27.869	-0.030	-0.025
-433.690	-6.227	-0.226	0.156
-432.676	662.983	0.058	-0.151
-431.661	-8.968	-0.247	0.167
-430.646	800.000	-0.074	-0.227
-429.632	52.393	0.234	-0.226
-428.617	724.269	-0.040	-0.107
-427.603	431.290	0.034	0.075
-426.588	-200.000	0.002	0.222
-425.573	38.564	0.029	-0.026
-424.559	288.909	0.144	-0.264
-423.544	-118.704	-0.190	0.034
-422.530	-200.000	0.010	0.098
-421.515	-144.567	0.167	0.016
-420.500	221.537	0.015	-0.024
-419.486	388.961	-0.159	-0.333
-418.471	-200.000	-0.034	-0.329
-417.457	-49.941	-0.097	-0.047
-416.442	68.711	0.280	0.291
-415.428	-200.000	-0.014	0.154
-414.413	-164.628	0.178	0.008
-413.398	-200.000	0.034	-0.277
-412.384	-102.338	0.143	-0.035
-411.369	-109.212	0.245	-0.053
-410.355	429.671	-0.092	0.201
-409.340	64.179	0.078	-0.079
-408.325	-200.000	0.011	0.129
-407.311	451.741	-0.041	-0.091
-406.296	800.000	0.033	0.112
-405.282	85.852	-0.262	-0.291
-404.267	800.000	0.070	0.285
-403.252	250.781	-0.073	-0.126
-402.238	-200.000	-0.019	0.090
-401.223	276.787	0.099	0.178
-400.209	528.968	-0.149	0.355
-399.194	-0.002	0.272	0.196
-398.179	-28.883	-0.124	-0.072
-397.165	-33.133	0.074	-0.041
-396.150	-91.691	0.310	0.089
-395.136	-200.000	-0.027	0.313
-394.121	-200.000	-0.041	0.219
-393.106	800.000	0.107	-0.387
-392.092	-138.100	0.336	0.038
-391.077	-15.914	0.370	0.238
-390.063	800.000	0.115	0.341
-389.048	-149.904	0.223	-0.018
-388.033	-10.317	-0.094	-0.063
-387.019	-31.970	0.105	0.059
-386.004	114.782	-0.063	0.078
-384.990	89.320	-0.204	-0.230
-383.975	800.000	0.080	-0.251
-382.960	199.768	-0.149	0.230
-381.946	102.479	0.125	-0.148
-380.931	-200.000	0.000	0.121
-379.917	294.469	0.255	0.470
-378.902	166.962	-0.194	0.278
-377.888	-200.000	-0.031	0.235
-376.873	113.607	0.138	-0.169
-375.858	-200.000	-0.045	0.403
-374.844	412.486	0.064	0.138
-373.829	-200.000	0.029	-0.309
-372.815	800.000	0.087	-0.336
-371.800	-44.064	0.159	0.081
-370.785	-200.000	-0.010	-0.120
-369.771	521.230	-0.161	0.380
-368.756	-59.674	-0.154	0.067
-367.742	-146.144	-0.186	-0.016
-366.727	48.899	0.206	0.195
-365.712	182.979	-0.157	0.234
-364.698	-8.690	0.279	0.189
-363.683	463.804	-0.082	0.185
-362.669	-13.817	0.333	-0.217
-361.654	-35.140	-0.098	-0.054
-360.639	800.000	-0.055	0.169
-359.625	258.912	0.105	-0.183
-358.610	-33.965	-0.342	0.190
-357.596	0.538	0.208	-0.150
-356.581	-108.031	-0.087	0.019
-355.566	-121.664	-0.208	-0.035
-354.552	341.584	-0.035	0.069
-353.537	596.011	-0.207	-0.516
-352.523	-177.117	0.299	-0.008
-351.508	438.646	0.088	0.194
-350.493	-53.282	-0.207	0.096
-349.479	121.351	-0.128	0.161
-348.464	-151.850	-0.370	0.027
-347.450	-62.175	-0.051	0.022
-346.435	82.162	0.123	0.134
-345.420	-28.488	-0.208	0.121
-344.406	-200.000	0.031	0.326
-343.391	751.400	-0.098	0.267
-342.377	800.000	-0.113	0.440
-341.362	-200.000	-0.016	-0.130
-340.348	800.000	-0.076	-0.287
-339.333	-178.731	0.324	-0.007
-338.318	-200.000	0.012	-0.134
-337.304	800.000	-0.013	0.049
-336.289	-24.096	0.269	-0.162
-335.275	-200.000	-0.003	0.209
-334.260	76.582	0.093	0.099
-333.245	-96.345	0.194	-0.052
-332.231	-162.501	0.184	-0.009
-331.216	173.378	0.076	-0.110
-330.202	-166.196	0.208	-0.009
-329.187	-77.442	-0.186	0.065
-328.172	288.846	0.033	0.060
-327.158	-15.520	-0.330	0.212
-326.143	17.711	-0.151	0.121
-325.129	-55.900	0.186	0.083
-324.114	760.731	-0.025	-0.068
-323.099	113.450	-0.147	0.180
-322.085	-20.614	0.167	-0.103
-321.070	-168.425	0.097	-0.004
-320.056	594.766	-0.055	-0.137
-319.041	89.809	0.231	-0.260
-318.026	-63.733	-0.298	-0.123
-317.012	27.635	0.031	-0.026
-315.997	-200.000	0.043	0.406
-314.983	-200.000	0.003	-0.194
-313.968	-83.941	0.168	-0.054
-312.953	102.228	-0.139	-0.163
-311.939	251.659	-0.232	-0.397
-310.924	-131.148	0.282	-0.038
-309.910	-200.000	0.027	-0.572
-308.895	-127.489	-0.219	0.032
-307.880	-200.000	-0.011	-0.070
-306.866	96.202	-0.103	-0.119
-305.851	-66.595	0.094	-0.037
-304.837	258.446	0.203	-0.351
-303.822	-200.000	-0.013	0.162
-302.807	114.896	-0.240	0.295
-301.793	402.931	-0.020	0.043
-300.778	-64.480	0.213	0.087
-299.764	-140.797	0.221	0.023
-298.749	-0.385	0.143	0.102
-297.735	800.000	0.060	0.191
-296.720	-74.734	-0.086	-0.031
-295.705	-200.000	0.000	0.032
-294.691	17.131	0.085	-0.067
-293.676	-105.637	0.070	0.016
-292.662	177.867	0.098	-0.143
-291.647	-3.435	0.018	-0.012
-290.632	146.415	-0.113	-0.152
-289.618	-107.226	-0.068	0.015
-288.603	-200.000	-0.028	-0.300
-287.589	47.052	-0.097	0.090
-286.574	80.968	0.302	0.328
-285.559	-32.213	-0.118	-0.066
-284.545	-170.728	0.072	0.002
-283.530	75.083	-0.096	-0.101
-282.516	77.413	-0.096	0.103
-281.501	300.957	0.075	0.138
-280.486	-200.000	0.016	-0.357
-279.472	-74.285	0.164	0.060
-278.457	-96.969	-0.380	-0.100
-277.443	-200.000	-0.038	0.336
-276.428	-40.110	0.053	-0.027
-275.413	238.348	-0.050	-0.083
-274.399	133.054	-0.077	-0.100
-273.384	61.863	0.147	-0.147
-272.370	-33.958	0.282	0.156
-271.355	-200.000	-0.012	0.223
-270.340	56.552	-0.037	-0.036
-269.326	800.000	-0.034	0.112
-268.311	-70.900	-0.384	-0.145
-267.297	-94.043	-0.159	0.044
-266.282	59.593	0.138	0.137
-265.267	-28.269	-0.151	-0.088
-264.253	241.338	-0.072	-0.120
-263.238	19.136	-0.284	-0.229
-262.224	-176.883	0.291	0.007
-261.209	-10.239	-0.064	0.042
-260.195	207.381	0.105	0.165
-259.180	800.000	0.030	-0.103
-258.165	-71.461	0.126	-0.047
-257.151	-200.000	0.000	0.350
-256.136	83.892	0.124	0.136
-255.122	-200.000	-0.008	0.051
-254.107	-139.593	-0.094	0.010
-253.092	-117.012	0.037	0.007
-252.078	-200.000	0.017	0.291
-251.063	154.819	-0.166	-0.229
-250.049	-200.000	0.029	0.136
-249.034	321.706	-0.126	0.240
-248.019	-60.868	0.163	0.069
-247.005	-200.000	-0.021	0.176
-245.990	125.987	0.083	-0.105
-244.976	81.780	0.330	0.358
-243.961	-90.974	-0.425	0.122
-242.946	-130.565	0.159	0.022
-241.932	52.305	-0.225	-0.216
-240.917	615.875	-0.098	0.248
-239.903	-200.000	0.002	0.233
-238.888	291.069	-0.264	0.482
-237.873	800.000	0.028	-0.084
-236.859	-200.000	-0.024	0.285
-235.844	4.265	0.249	-0.183
-234.830	148.449	0.062	-0.084
-233.815	-16.405	-0.064	0.041
-232.800	-200.000	-0.022	0.138
-231.786	141.177	0.235	0.312
-230.771	14.185	0.125	-0.098
-229.757	15.413	-0.070	-0.055
-228.742	257.301	0.016	0.028
-227.727	-84.626	-0.183	-0.058
-226.713	-200.000	-0.046	-0.248
-225.698	-200.000	-0.002	0.455
-224.684	65.832	0.189	-0.192
-223.669	-200.000	0.005	-0.485
-222.655	43.803	-0.100	0.092
-221.640	310.349	-0.068	-0.128
-220.625	671.010	-0.049	-0.127
-219.611	32.414	0.062	0.054
-218.596	800.000	0.054	-0.176
-217.582	-34.633	0.122	0.067
-216.567	149.210	-0.044	-0.059
-215.552	-200.000	0.373	-0.000
-214.538	-48.835	0.247	0.119
-213.523	-68.982	-0.262	-0.101
-212.509	25.019	-0.029	-0.024
-211.494	-67.728	0.085	-0.033
-210.479	121.394	-0.234	-0.293
-209.465	73.258	-0.350	0.366
-208.450	800.000	-0.123	0.464
-207.436	-116.520	0.161	0.030
-206.421	-200.000	0.022	0.200
-205.406	61.069	-0.033	0.033
-204.392	-76.166	-0.119	-0.042
-203.377	-136.932	-0.123	-0.014
-202.363	-169.051	0.035	-0.001
-201.348	800.000	0.055	-0.189
-200.333	374.715	0.101	-0.207
-199.319	800.000	-0.066	-0.200
-198.304	235.797	0.165	0.273
-197.290	-49.404	0.153	0.073
-196.275	69.100	-0.091	-0.094
-195.260	168.190	-0.087	0.124
-194.246	-26.478	-0.136	-0.080
-193.231	-200.000	0.020	-0.280
-192.217	-21.810	0.241	0.147
-191.202	-152.051	-0.315	0.023
-190.187	155.289	-0.153	0.211
-189.173	-200.000	0.022	0.100
-188.158	-22.237	0.033	-0.020
-187.144	712.077	-0.075	0.199
-186.129	-200.000	0.000	-0.284
-185.114	-17.909	0.117	-0.073
-184.100	-21.728	0.226	0.138
-183.085	-81.447	0.219	-0.072
-182.071	620.522	0.123	-0.310
-181.056	-147.073	-0.303	0.026
-180.042	-200.000	-0.010	0.124
-179.027	-3.687	0.057	-0.039
-178.012	-89.855	-0.242	0.071
-176.998	283.968	0.153	-0.276
-175.983	-96.712	-0.462	0.122
-174.969	-20.648	-0.122	0.075
-173.954	-178.869	-0.325	-0.007
-172.939	800.000	0.054	-0.158
-171.925	91.894	-0.024	-0.027
-170.910	-104.576	-0.262	-0.060
-169.896	-165.411	0.182	-0.008
-168.881	144.412	-0.100	0.134
-167.866	-35.449	-0.161	0.087
-166.852	-135.591	-0.115	0.014
-165.837	319.780	-0.045	-0.085
-164.823	-50.963	0.152	0.071
-163.808	-200.000	0.000	-0.226
-162.793	161.512	0.052	0.073
-161.779	-149.800	-0.356	0.028
-160.764	129.976	-0.047	0.060
-159.750	504.120	0.029	-0.067
-158.735	-23.290	-0.148	-0.089
-157.720	248.008	-0.073	0.123
-156.706	800.000	0.042	-0.158
-155.691	-111.389	-0.060	0.012
-154.677	200.773	-0.154	-0.237
-153.662	-27.288	0.223	-0.130
-152.647	145.618	0.202	0.270
-151.633	264.707	-0.121	0.210
-150.618	103.816	-0.177	0.208
-149.604	-65.264	0.302	-0.121
-148.589	76.219	0.095	-0.101
-147.574	-3.130	0.122	-0.085
-146.560	81.321	0.034	-0.037
-145.545	274.430	0.171	-0.303
-144.531	113.017	-0.250	0.303
-143.516	16.371	-0.267	0.211
-142.502	-74.227	0.176	-0.064
-141.487	-85.661	0.340	-0.105
-140.472	16.517	0.130	0.103
-139.458	-15.236	-0.188	-0.120
-138.443	537.438	-0.156	0.371
-137.429	0.532	0.206	0.147
-136.414	43.125	-0.255	0.233
-135.399	-45.125	-0.268	0.133
-134.385	-200.000	-0.022	0.162
-133.370	99.608	0.024	-0.028
-132.356	125.614	0.131	-0.165
-131.341	69.510	-0.144	0.148
-130.326	-64.320	0.274	-0.111
-129.312	-78.154	-0.310	-0.106
-128.297	-200.000	-0.038	0.260
-127.283	-200.000	0.102	-0.606
-126.268	251.498	0.162	-0.274
-125.253	-200.000	-0.003	0.029
-124.239	-180.826	-0.284	0.006
-123.224	665.417	0.055	-0.142
-122.210	-34.245	0.096	-0.053
-121.195	156.156	0.152	0.209
