DTS Sentinel unit serial number:	SN413079Multiplexer serial number:	ORYXHardware model number:	OX4-SRSoftware version number:	ORYX F/W v4.00 Oryx Data Collector v3.7.2.0data status	okinstallation	princeton_trtdifferential loss correction	single-endedforward channel	channel 4reverse channel	N/Adate	2019/09/12time	09:51:11forward acquisition time	60.00reverse acquisition time	0.00gamma	496.2192k internal	0.2297k external	0.2297temperature offset calibration	1.0070default loss term (dB/km)	0.3790temperature slope calibration	1.0000multiplexer offset coefficient	1.0000multiplexer slope coefficient	1.0000fibre end	0.00T internal ref (°C)	36.06T ext. ref 1 (°C)	1.84T ext. ref 2 (°C)	32.34length (m)	temperature (°C)	Stokes	anti-Stokes-747.200	-200.000	0.019	-0.088
-746.185	640.977	-0.080	0.207
-745.171	60.401	-0.334	0.337
-744.156	800.000	-0.081	0.240
-743.142	182.546	0.084	0.126
-742.127	10.875	-0.316	0.246
-741.112	-200.000	-0.072	0.348
-740.098	-15.947	-0.260	0.169
-739.083	55.645	0.127	-0.126
-738.069	-189.717	-0.164	0.002
-737.054	-200.000	-0.008	-0.041
-736.039	800.000	0.058	-0.163
-735.025	-159.298	0.358	-0.020
-734.010	-200.000	-0.008	0.166
-732.996	-51.473	-0.096	-0.046
-731.981	-200.000	-0.006	-0.178
-730.966	140.098	0.038	0.051
-729.952	226.389	0.115	0.191
-728.937	-108.382	0.024	0.005
-727.923	582.472	-0.075	0.188
-726.908	48.800	-0.202	-0.194
-725.894	-115.980	0.237	0.045
-724.879	-72.693	-0.145	0.055
-723.864	366.905	-0.121	-0.250
-722.850	-200.000	0.001	-0.265
-721.835	211.580	-0.198	-0.317
-720.821	69.968	-0.070	0.074
-719.806	-46.739	-0.246	0.123
-718.791	800.000	0.104	0.389
-717.777	-200.000	-0.101	-0.486
-716.762	95.072	-0.116	-0.134
-715.748	-99.353	-0.145	0.037
-714.733	461.546	0.013	0.030
-713.718	-6.414	-0.174	-0.121
-712.704	698.654	-0.043	0.116
-711.689	-23.513	-0.204	0.125
-710.675	-139.739	-0.142	0.015
-709.660	703.546	-0.047	0.126
-708.645	-200.000	-0.002	0.050
-707.631	273.577	-0.064	-0.116
-706.616	300.873	-0.081	-0.152
-705.602	-59.315	0.180	0.079
-704.587	-200.000	0.027	0.408
-703.572	-105.194	-0.150	0.035
-702.558	41.389	-0.078	-0.072
-701.543	-131.424	-0.231	-0.031
-700.529	65.439	-0.116	0.120
-699.514	-156.396	0.244	0.016
-698.499	28.894	-0.104	-0.089
-697.485	-190.369	-0.345	0.004
-696.470	10.130	0.157	0.122
-695.456	290.471	0.186	0.344
-694.441	-22.243	-0.215	-0.133
-693.426	-200.000	0.022	0.352
-692.412	-96.183	-0.144	0.039
-691.397	-109.869	0.192	-0.041
-690.383	229.129	0.247	-0.410
-689.368	149.297	-0.064	-0.088
-688.354	800.000	-0.082	-0.301
-687.339	800.000	0.040	-0.131
-686.324	-200.000	0.052	-0.279
-685.310	-10.006	-0.144	0.098
-684.295	-128.330	-0.285	-0.041
-683.281	-123.470	0.152	-0.025
-682.266	-25.738	-0.096	-0.058
-681.251	395.045	-0.026	-0.056
-680.237	-47.196	0.178	-0.088
-679.222	-200.000	-0.019	-0.126
-678.208	412.479	0.071	0.153
-677.193	-179.070	0.311	0.007
-676.178	-200.000	0.041	-0.399
-675.164	58.565	-0.116	-0.116
-674.149	-200.000	0.080	-0.411
-673.135	5.351	-0.141	-0.106
-672.120	224.253	0.090	-0.148
-671.105	372.542	-0.017	0.035
-670.091	11.795	0.209	-0.164
-669.076	26.323	-0.097	-0.082
-668.062	107.034	0.201	-0.244
-667.047	-200.000	-0.068	-0.514
-666.032	330.825	0.167	0.327
-665.018	11.231	0.062	-0.049
-664.003	-154.413	-0.174	0.012
-662.989	170.510	-0.019	-0.028
-661.974	-83.303	-0.111	-0.036
-660.959	-5.914	-0.249	-0.173
-659.945	28.528	0.180	-0.155
-658.930	-82.401	0.086	0.029
-657.916	799.406	-0.024	-0.066
-656.901	-149.504	-0.232	-0.019
-655.886	-84.235	-0.384	-0.124
-654.872	-200.000	-0.010	0.054
-653.857	-28.458	-0.315	0.185
-652.843	551.981	-0.062	-0.153
-651.828	77.946	0.069	-0.075
-650.814	-166.742	-0.112	0.005
-649.799	-69.239	0.118	0.046
-648.784	-69.991	-0.385	-0.149
-647.770	-41.430	0.244	0.128
-646.755	-53.765	-0.490	-0.227
-645.741	-200.000	-0.024	0.220
-644.726	9.105	0.326	-0.251
-643.711	127.033	0.103	-0.132
-642.697	179.530	-0.204	0.304
-641.682	-14.661	-0.103	0.067
-640.668	-200.000	-0.011	-0.402
-639.653	-53.269	-0.329	-0.153
-638.638	51.451	0.231	0.223
-637.624	246.095	0.105	0.180
-636.609	-32.760	-0.099	0.056
-635.595	-200.000	-0.010	-0.147
-634.580	-86.972	0.343	0.106
-633.565	-62.340	-0.217	0.092
-632.551	-34.592	-0.014	0.008
-631.536	112.767	-0.179	0.220
-630.522	399.907	-0.175	-0.374
-629.507	800.000	-0.087	0.270
-628.492	286.646	-0.192	-0.353
-627.478	-31.293	-0.323	0.185
-626.463	-35.347	-0.038	-0.021
-625.449	-192.508	0.234	0.002
-624.434	800.000	-0.081	0.267
-623.419	-103.406	-0.213	-0.051
-622.405	-155.203	0.186	-0.012
-621.390	-90.885	-0.178	-0.052
-620.376	800.000	-0.074	-0.235
-619.361	-48.050	0.069	-0.034
-618.346	800.000	0.150	0.450
-617.332	70.370	0.055	0.058
-616.317	-200.000	0.033	0.192
-615.303	-200.000	0.028	-0.235
-614.288	-60.781	0.077	-0.033
-613.273	-155.599	0.465	-0.030
-612.259	81.388	0.119	0.131
-611.244	80.002	0.103	-0.112
-610.230	574.285	0.088	-0.219
-609.215	80.588	0.037	0.041
-608.201	-176.440	-0.023	-0.001
-607.186	260.184	-0.038	0.066
-606.171	-12.266	0.379	-0.252
-605.157	800.000	0.028	-0.098
-604.142	38.093	0.077	-0.070
-603.128	169.013	-0.225	-0.326
-602.113	461.476	-0.151	-0.342
-601.098	298.580	0.056	-0.104
-600.084	-200.000	0.003	0.100
-599.069	-30.997	0.104	0.059
-598.055	70.968	0.235	0.247
-597.040	554.504	0.099	0.241
-596.025	800.000	0.166	-0.550
-595.011	-200.000	0.043	-0.215
-593.996	-78.502	0.022	-0.008
-592.982	314.396	-0.119	-0.228
-591.967	-200.000	-0.049	-0.290
-590.952	-83.838	0.154	0.050
-589.938	405.096	0.113	-0.242
-588.923	102.623	0.050	-0.060
-587.909	166.550	-0.104	0.150
-586.894	-200.000	-0.021	0.117
-585.879	98.760	-0.231	0.270
-584.865	178.325	0.102	0.151
-583.850	800.000	0.104	0.437
-582.836	83.482	0.074	0.081
-581.821	-200.000	-0.016	-0.111
-580.806	-200.000	-0.019	0.127
-579.792	259.391	-0.035	0.062
-578.777	631.713	0.080	-0.205
-577.763	800.000	0.117	0.344
-576.748	-200.000	-0.012	-0.111
-575.733	253.054	-0.223	-0.386
-574.719	-200.000	-0.017	0.166
-573.704	19.700	-0.163	-0.134
-572.690	-87.929	0.145	-0.044
-571.675	-158.460	-0.235	-0.014
-570.661	-69.684	0.216	0.084
-569.646	-200.000	-0.019	0.111
-568.631	46.676	-0.159	0.149
-567.617	-113.075	-0.276	-0.055
-566.602	-100.754	-0.263	-0.066
-565.588	-113.098	0.096	-0.019
-564.573	-133.964	-0.217	-0.027
-563.558	-131.684	-0.226	-0.030
-562.544	-62.001	-0.294	0.125
-561.529	800.000	0.060	0.188
-560.515	800.000	-0.054	-0.176
-559.500	-150.972	-0.198	-0.015
-558.485	-42.083	-0.149	0.077
-557.471	-123.455	-0.098	0.016
-556.456	-116.115	0.333	-0.063
-555.442	15.475	0.246	0.196
-554.427	-200.000	-0.018	-0.171
-553.412	-91.966	0.144	0.041
-552.398	800.000	0.087	-0.251
-551.383	272.921	-0.136	-0.243
-550.369	800.000	0.099	-0.277
-549.354	-17.355	-0.151	0.096
-548.339	-123.459	-0.288	0.046
-547.325	-200.000	0.012	0.273
-546.310	-137.605	-0.169	0.019
-545.296	-200.000	-0.025	-0.390
-544.281	-53.115	-0.218	0.102
-543.266	594.151	0.204	0.512
-542.252	-104.522	0.191	-0.045
-541.237	-52.470	0.300	-0.141
-540.223	532.558	-0.152	0.364
-539.208	118.963	-0.022	0.027
-538.193	-2.752	-0.136	-0.097
-537.179	-200.000	0.047	-0.422
-536.164	-51.061	-0.071	-0.034
-535.150	719.798	0.089	-0.241
-534.135	162.125	-0.047	-0.067
-533.121	308.743	-0.095	-0.179
-532.106	18.918	-0.094	-0.076
-531.091	-200.000	0.007	-0.041
-530.077	-33.909	-0.160	-0.089
-529.062	168.212	-0.270	0.390
-528.048	329.820	0.018	-0.036
-527.033	-200.000	0.046	0.339
-526.018	523.079	-0.055	-0.131
-525.004	800.000	-0.073	0.225
-523.989	-200.000	-0.021	0.172
-522.975	800.000	0.043	0.122
-521.960	-44.379	-0.212	-0.108
-520.945	106.226	-0.044	-0.053
-519.931	-200.000	-0.024	-0.403
-518.916	525.262	0.048	-0.115
-517.902	187.321	-0.170	0.256
-516.887	-82.972	-0.190	0.062
-515.872	800.000	-0.032	0.102
-514.858	-200.000	0.099	0.530
-513.843	-83.417	-0.585	0.190
-512.829	-79.842	-0.388	-0.132
-511.814	50.153	0.255	-0.244
-510.799	-200.000	-0.024	0.113
-509.785	111.933	0.125	-0.153
-508.770	677.540	0.083	0.219
-507.756	274.949	0.095	0.171
-506.741	800.000	0.079	0.265
-505.726	553.124	0.059	-0.143
-504.712	373.977	-0.142	-0.292
-503.697	-66.333	-0.325	-0.131
-502.683	-167.653	-0.281	-0.011
-501.668	-18.048	-0.317	-0.201
-500.653	-146.124	-0.231	-0.021
-499.639	800.000	-0.008	0.026
-498.624	-50.735	-0.096	-0.046
-497.610	174.462	-0.166	0.242
-496.595	800.000	0.076	0.318
-495.581	-107.447	0.418	-0.093
-494.566	-200.000	0.054	-0.319
-493.551	21.404	0.117	-0.096
-492.537	-71.801	-0.092	-0.035
-491.522	239.820	0.152	0.255
-490.508	-98.646	0.410	0.106
-489.493	59.715	0.158	-0.157
-488.478	-151.977	-0.199	0.015
-487.464	101.581	-0.136	0.160
-486.449	110.851	-0.198	-0.240
-485.435	-52.093	0.108	0.051
-484.420	-200.000	0.009	-0.224
-483.405	135.499	0.151	-0.199
-482.391	800.000	0.048	-0.136
-481.376	-200.000	-0.099	-0.516
-480.362	-152.598	0.256	0.019
-479.347	440.039	0.034	-0.075
-478.332	-102.234	-0.170	0.041
-477.318	800.000	-0.125	0.410
-476.303	-8.549	0.223	0.151
-475.289	-200.000	0.018	-0.105
-474.274	-96.306	0.238	0.064
-473.259	-200.000	-0.036	0.400
-472.245	259.887	-0.091	0.159
-471.230	-200.000	-0.017	0.135
-470.216	-76.423	0.247	0.088
-469.201	-50.627	0.050	-0.024
-468.186	-88.230	-0.110	0.033
-467.172	-92.534	0.243	0.069
-466.157	-99.791	0.456	-0.115
-465.143	102.309	0.098	-0.116
-464.128	-71.636	0.154	0.058
-463.113	11.223	0.075	0.058
-462.099	111.385	0.067	0.081
-461.084	689.398	0.110	-0.290
-460.070	-16.034	0.247	0.158
-459.055	556.822	0.161	-0.393
-458.040	-2.135	0.091	-0.064
-457.026	24.281	-0.210	0.175
-456.011	159.868	-0.090	-0.127
-454.997	195.591	0.062	-0.095
-453.982	248.076	0.113	-0.193
-452.968	91.246	0.204	0.231
-451.953	-200.000	-0.005	-0.228
-450.938	-130.944	-0.042	0.006
-449.924	-152.510	-0.164	0.012
-448.909	172.699	-0.038	0.055
-447.895	800.000	0.105	0.344
-446.880	15.157	0.265	-0.209
-445.865	-66.363	0.171	-0.069
-444.851	-200.000	-0.039	-0.246
-443.836	-200.000	0.026	-0.166
-442.822	-168.256	0.080	-0.003
-441.807	800.000	-0.058	-0.177
-440.792	-126.311	-0.234	0.035
-439.778	-200.000	-0.021	-0.111
-438.763	-109.320	-0.259	0.055
-437.749	37.964	0.219	0.196
-436.734	800.000	-0.039	0.113
-435.719	284.757	-0.174	-0.317
-434.705	-200.000	-0.006	0.126
-433.690	800.000	-0.086	0.369
-432.676	141.748	-0.200	0.268
-431.661	-5.344	0.291	-0.202
-430.646	106.112	0.297	-0.355
-429.632	-118.108	0.192	0.035
-428.617	200.145	-0.159	0.247
-427.603	-38.522	-0.223	-0.119
-426.588	-45.774	0.425	0.212
-425.573	514.264	-0.167	0.394
-424.559	-114.669	-0.116	0.022
-423.544	-138.612	-0.453	0.050
-422.530	800.000	-0.169	0.501
-421.515	682.245	0.070	0.185
-420.500	4.984	0.284	-0.211
-419.486	-102.698	-0.185	-0.045
-418.471	305.758	-0.150	-0.280
-417.457	131.586	-0.132	0.171
-416.442	136.297	-0.132	0.174
-415.428	800.000	-0.024	0.080
-414.413	-200.000	0.043	0.203
-413.398	-130.240	-0.525	0.072
-412.384	-21.841	0.269	0.165
-411.369	315.653	0.123	-0.233
-410.355	105.577	-0.059	0.070
-409.340	149.829	0.159	-0.217
-408.325	-200.000	0.024	0.289
-407.311	-103.915	0.306	-0.072
-406.296	67.252	-0.112	-0.115
-405.282	15.793	-0.096	-0.076
-404.267	-4.313	0.083	-0.058
-403.252	-200.000	0.016	0.157
-402.238	40.442	0.234	-0.213
-401.223	-200.000	0.008	-0.069
-400.209	-200.000	-0.020	0.252
-399.194	-82.333	0.317	0.104
-398.179	793.499	-0.083	0.229
-397.165	-36.987	-0.403	0.218
-396.150	130.458	0.147	0.190
-395.136	201.580	-0.248	-0.385
-394.121	-76.179	-0.389	-0.138
-393.106	98.418	-0.149	-0.173
-392.092	-7.681	0.285	0.194
-391.077	7.349	0.020	-0.015
-390.063	-38.104	0.133	-0.071
-389.048	-163.168	-0.174	0.008
-388.033	-23.214	0.038	-0.023
-387.019	140.002	0.180	0.239
-386.004	-9.562	0.314	0.211
-384.990	-101.037	0.069	-0.017
-383.975	440.222	-0.036	0.080
-382.960	2.538	0.124	0.090
-381.946	64.483	-0.062	-0.063
-380.931	1.077	-0.160	0.116
-379.917	22.600	-0.156	-0.128
-378.902	-200.000	0.009	0.190
-377.888	-121.567	-0.271	0.045
-376.873	-88.436	0.283	0.085
-375.858	504.015	0.165	0.385
-374.844	143.030	0.058	0.078
-373.829	-15.597	-0.208	0.134
-372.815	800.000	-0.045	-0.146
-371.800	-200.000	-0.031	0.197
-370.785	-137.903	-0.155	0.017
-369.771	-92.638	-0.204	-0.058
-368.756	97.625	0.081	-0.094
-367.742	10.281	-0.163	-0.125
-366.727	-45.102	-0.350	0.175
-365.712	800.000	0.075	-0.300
-364.698	54.166	0.160	0.155
-363.683	800.000	-0.046	-0.200
-362.669	-109.177	-0.115	-0.024
-361.654	-91.500	0.188	-0.054
-360.639	-126.012	0.307	-0.046
-359.625	-110.877	0.328	-0.068
-358.610	-38.816	0.306	0.162
-357.596	-38.677	0.116	0.062
-356.581	-23.005	0.334	0.203
-355.566	29.504	-0.097	-0.083
-354.552	-141.795	-0.387	0.039
-353.537	-87.137	0.065	-0.020
-352.523	280.299	-0.062	0.111
-351.508	74.474	-0.258	0.273
-350.493	-200.000	0.000	-0.226
-349.479	-200.000	0.004	-0.068
-348.464	-200.000	-0.011	-0.154
-347.450	-189.533	-0.215	0.003
-346.435	-79.565	0.204	0.069
-345.420	-200.000	0.051	0.274
-344.406	146.942	0.168	0.227
-343.391	297.856	0.025	0.046
-342.377	-151.876	-0.286	-0.021
-341.362	38.704	0.276	-0.248
-340.348	-200.000	-0.007	0.276
-339.333	800.000	-0.041	0.115
-338.318	-200.000	0.042	-0.225
-337.304	50.341	0.107	-0.102
-336.289	-77.026	-0.058	0.020
-335.275	-39.613	-0.187	0.098
-334.260	-29.278	-0.194	-0.112
-333.245	431.610	-0.072	0.156
-332.231	-17.951	0.069	0.044
-331.216	-172.151	0.233	0.008
-330.202	22.621	-0.062	0.051
-329.187	-49.947	-0.194	-0.092
-328.172	46.377	-0.157	-0.146
-327.158	-200.000	-0.007	0.150
-326.143	0.471	0.185	0.133
-325.129	800.000	-0.043	-0.177
-324.114	-165.774	0.360	-0.016
-323.099	36.483	0.100	-0.088
-322.085	51.811	-0.176	-0.168
-321.070	508.452	-0.060	0.140
-320.056	-73.759	0.250	-0.091
-319.041	85.916	-0.048	0.053
-318.026	18.443	0.350	-0.281
-317.012	10.324	-0.380	0.291
-315.997	-44.310	-0.237	0.119
-314.983	-72.876	0.200	-0.074
-313.968	191.333	0.078	0.118
-312.953	431.366	0.050	-0.109
-311.939	-177.235	0.273	0.007
-310.924	338.210	0.174	-0.339
-309.910	-61.422	-0.156	0.066
-308.895	-135.787	-0.116	-0.014
-307.880	-31.793	0.212	-0.119
-306.866	390.721	0.081	0.168
-305.851	-1.554	0.088	0.063
-304.837	-200.000	0.004	-0.055
-303.822	-25.808	0.196	0.116
-302.807	800.000	0.012	0.042
-301.793	-79.150	0.154	-0.053
-300.778	-200.000	0.018	-0.194
-299.764	144.485	0.070	-0.093
-298.749	-200.000	0.001	-0.140
-297.735	-165.762	0.421	0.018
-296.720	-38.675	0.139	-0.074
-295.705	-18.474	0.182	-0.114
-294.691	-200.000	0.002	-0.158
-293.676	-17.799	0.065	0.041
-292.662	-200.000	0.003	-0.015
-291.647	458.523	-0.066	0.148
-290.632	477.981	0.127	0.289
-289.618	-200.000	-0.111	-0.515
-288.603	-73.208	0.212	0.078
-287.589	-94.590	0.123	0.034
-286.574	45.157	-0.065	-0.060
-285.559	800.000	-0.094	-0.352
-284.545	-15.080	0.051	0.033
-283.530	-79.785	-0.150	-0.051
-282.516	-15.919	-0.280	0.179
-281.501	-74.973	-0.095	-0.034
-280.486	445.889	-0.042	-0.093
-279.472	-200.000	-0.001	0.146
-278.457	152.406	0.063	0.086
-277.443	-70.511	-0.148	-0.056
-276.428	7.454	-0.200	-0.150
-275.413	-1.385	-0.278	-0.197
-274.399	451.710	-0.122	-0.270
-273.384	800.000	0.135	-0.449
-272.370	-123.945	-0.279	-0.044
-271.355	-200.000	0.018	-0.409
-270.340	480.253	-0.075	-0.172
-269.326	15.394	0.133	-0.105
-268.311	-59.881	0.213	0.091
-267.297	-71.109	-0.285	0.107
-266.282	800.000	0.101	0.310
-265.267	158.098	0.103	0.143
-264.253	318.148	-0.034	-0.065
-263.238	-200.000	-0.001	-0.004
-262.224	-200.000	0.062	0.281
-261.209	-70.436	0.042	-0.016
-260.195	102.486	0.202	-0.236
-259.180	-9.249	-0.080	-0.054
-258.165	-12.064	-0.531	-0.348
-257.151	621.953	-0.078	0.196
-256.136	-143.923	0.215	-0.020
-255.122	78.419	-0.126	0.135
-254.107	-27.450	-0.117	-0.068
-253.092	103.303	-0.182	0.214
-252.078	204.556	0.151	-0.235
-251.063	-108.068	-0.181	0.039
-250.049	-64.235	-0.203	-0.083
-249.034	152.141	-0.305	-0.417
-248.019	800.000	0.082	0.356
-247.005	-118.559	-0.224	0.040
-245.990	-68.471	-0.099	0.039
-244.976	-200.000	-0.005	0.037
-243.961	800.000	-0.037	-0.155
-242.946	27.539	-0.315	0.266
-241.932	-40.428	0.320	-0.166
-240.917	-89.259	-0.265	0.078
-239.903	-200.000	-0.013	-0.269
-238.888	-105.277	-0.378	-0.086
-237.873	800.000	-0.062	0.239
-236.859	-8.033	-0.118	-0.080
-235.844	-80.042	0.171	-0.058
-234.830	13.427	-0.329	0.255
-233.815	-55.521	-0.197	0.088
-232.800	800.000	-0.017	-0.070
-231.786	477.347	0.069	-0.157
-230.771	361.043	0.071	0.142
-229.757	219.007	0.170	0.272
-228.742	-200.000	0.042	0.591
-227.727	-91.691	0.108	-0.031
-226.713	-47.621	0.269	0.131
-225.698	800.000	-0.047	-0.160
-224.684	17.373	0.060	-0.048
-223.669	800.000	0.033	0.123
-222.655	-200.000	0.125	0.000
-221.640	158.477	0.181	0.251
-220.625	-175.696	-0.116	-0.003
-219.611	191.334	0.160	0.241
-218.596	-200.000	0.002	-0.137
-217.582	-152.154	0.227	0.016
-216.567	105.410	0.150	0.177
-215.552	-200.000	0.016	0.437
-214.538	176.723	0.127	0.185
-213.523	-135.321	0.134	0.016
-212.509	-37.724	-0.023	-0.012
-211.494	-200.000	0.056	-0.335
-210.479	-5.464	-0.145	0.100
-209.465	7.883	0.055	-0.041
-208.450	-200.000	-0.023	0.167
-207.436	-140.395	-0.120	-0.012
-206.421	800.000	0.038	-0.116
-205.406	-33.336	-0.265	-0.147
-204.392	-62.028	-0.173	0.072
-203.377	-200.000	0.057	-0.467
-202.363	-3.325	0.184	0.128
-201.348	-200.000	-0.017	-0.215
-200.333	-41.409	-0.198	0.102
-199.319	21.789	-0.118	0.096
-198.304	-200.000	-0.018	0.180
-197.290	-200.000	-0.010	0.074
-196.275	12.893	0.162	-0.125
-195.260	-200.000	-0.020	0.137
-194.246	-109.176	0.258	0.055
-193.231	20.616	-0.222	-0.180
-192.217	40.646	0.303	-0.273
-191.202	36.328	-0.040	0.035
-190.187	-14.325	-0.199	0.128
-189.173	31.875	0.122	-0.105
-188.158	190.051	0.178	0.268
-187.144	-157.059	0.190	0.012
-186.129	277.188	0.133	-0.236
-185.114	-27.574	0.304	-0.176
-184.100	-200.000	0.015	0.124
-183.085	-58.377	-0.187	-0.081
-182.071	-68.515	0.372	0.144
-181.056	-116.078	-0.083	-0.015
-180.042	800.000	-0.074	0.221
-179.027	-200.000	-0.048	-0.287
-178.012	1.157	0.093	-0.067
-176.998	34.501	0.311	0.271
-175.983	-115.472	-0.219	0.041
-174.969	800.000	0.043	0.150
-173.954	800.000	-0.067	-0.282
-172.939	66.665	-0.304	-0.309
-171.925	-200.000	-0.061	0.284
-170.910	-72.691	0.210	-0.077
-169.896	-45.784	-0.192	-0.095
-168.881	300.855	0.191	0.352
-167.866	456.741	-0.045	0.100
-166.852	37.600	0.189	-0.168
-165.837	-71.886	0.109	0.040
-164.823	497.733	-0.084	-0.192
-163.808	-200.000	0.012	-0.181
-162.793	-200.000	0.077	0.390
-161.779	-200.000	0.029	-0.206
-160.764	289.002	0.049	0.088
-159.750	-200.000	0.072	-0.492
-158.735	-54.731	0.087	-0.039
-157.720	-113.666	0.490	-0.096
-156.706	-123.838	0.029	-0.005
-155.691	509.311	-0.135	-0.314
-154.677	108.841	-0.158	0.189
-153.662	-104.175	0.403	-0.093
-152.647	-80.813	-0.145	-0.048
-151.633	-106.296	-0.262	0.059
-150.618	-200.000	0.037	0.247
-149.604	-22.573	0.268	0.162
-148.589	-102.989	-0.188	0.044
-147.574	477.118	0.062	-0.140
-146.560	800.000	0.051	-0.196
-145.545	-93.255	-0.058	-0.016
-144.531	-200.000	0.040	0.240
-143.516	296.606	-0.160	0.292
-142.502	-200.000	-0.009	-0.099
-141.487	-120.754	-0.251	0.042
-140.472	177.013	0.175	0.254
-139.458	-115.506	0.161	0.030
-138.443	232.870	-0.032	0.052
-137.429	56.692	0.113	0.110
-136.414	-51.532	-0.266	0.124
-135.399	437.351	0.116	-0.252
-134.385	123.705	0.018	0.022
-133.370	-200.000	-0.003	-0.048
-132.356	-20.071	0.190	-0.117
-131.341	-31.826	0.047	0.027
-130.326	-15.819	0.209	0.133
-129.312	800.000	-0.042	-0.180
-128.297	-35.591	-0.163	0.088
-127.283	-95.132	0.176	0.047
-126.268	-72.090	-0.153	-0.057
-125.253	740.277	0.191	0.512
-124.239	-200.000	-0.022	-0.222
-123.224	-165.972	0.146	0.006
-122.210	45.375	-0.216	-0.199
