DTS Sentinel unit serial number:	SN413079Multiplexer serial number:	ORYXHardware model number:	OX4-SRSoftware version number:	ORYX F/W v4.00 Oryx Data Collector v3.7.2.0data status	okinstallation	princeton_trtdifferential loss correction	single-endedforward channel	channel 4reverse channel	N/Adate	2019/09/14time	19:45:35forward acquisition time	60.00reverse acquisition time	0.00gamma	496.2192k internal	0.2304k external	0.2304temperature offset calibration	1.0096default loss term (dB/km)	0.3790temperature slope calibration	1.0000multiplexer offset coefficient	1.0000multiplexer slope coefficient	1.0000fibre end	0.00T internal ref (°C)	34.42T ext. ref 1 (°C)	4.89T ext. ref 2 (°C)	28.59length (m)	temperature (°C)	Stokes	anti-Stokes-747.200	-27.654	-0.097	-0.058
-746.185	-119.553	0.318	0.056
-745.171	-191.315	0.170	-0.002
-744.156	271.157	-0.025	0.044
-743.142	-155.997	-0.165	-0.011
-742.127	-142.996	-0.245	0.024
-741.112	50.842	-0.097	-0.094
-740.098	-158.550	-0.220	-0.013
-739.083	333.845	0.037	-0.073
-738.069	0.610	-0.246	-0.179
-737.054	101.417	0.052	-0.062
-736.039	21.025	-0.194	0.160
-735.025	201.999	0.054	-0.085
-734.010	100.355	-0.120	0.142
-732.996	-200.000	-0.031	-0.323
-731.981	-116.398	-0.326	0.061
-730.966	19.125	0.062	0.051
-729.952	-200.000	-0.036	-0.399
-728.937	399.199	-0.086	-0.184
-727.923	64.314	0.080	-0.082
-726.908	-7.179	0.151	0.104
-725.894	4.922	-0.376	-0.282
-724.879	-200.000	0.052	0.549
-723.864	43.475	-0.219	0.204
-722.850	-99.087	-0.172	-0.044
-721.835	-127.907	-0.031	-0.005
-720.821	-200.000	-0.052	-0.287
-719.806	-200.000	0.014	-0.175
-718.791	-54.410	0.161	0.074
-717.777	800.000	-0.062	0.223
-716.762	-200.000	0.006	-0.138
-715.748	209.775	-0.191	0.305
-714.733	164.111	-0.043	-0.061
-713.718	-95.244	0.086	-0.024
-712.704	-200.000	-0.025	0.243
-711.689	-200.000	0.001	-0.127
-710.675	183.589	-0.025	-0.037
-709.660	-173.827	0.290	-0.009
-708.645	215.623	0.087	-0.140
-707.631	73.148	-0.089	-0.094
-706.616	178.000	0.193	0.286
-705.602	-27.925	0.150	0.088
-704.587	-120.087	-0.107	-0.019
-703.572	101.199	0.214	0.254
-702.558	32.391	0.110	0.097
-701.543	-97.619	0.196	0.052
-700.529	216.414	-0.104	0.168
-699.514	121.362	-0.109	0.138
-698.499	-200.000	-0.010	-0.175
-697.485	237.366	0.021	-0.035
-696.470	-56.337	0.233	0.105
-695.456	-71.590	0.190	-0.072
-694.441	518.316	0.075	-0.177
-693.426	-26.669	0.047	0.028
-692.412	226.118	0.102	0.168
-691.397	-68.535	-0.113	-0.044
-690.383	468.257	-0.115	-0.263
-689.368	259.299	0.052	-0.091
-688.354	-25.551	-0.272	-0.163
-687.339	-200.000	-0.003	0.080
-686.324	216.045	-0.127	-0.204
-685.310	417.848	-0.053	-0.114
-684.295	-200.000	-0.033	0.153
-683.281	-2.988	-0.137	-0.097
-682.266	98.082	-0.104	-0.122
-681.251	251.693	-0.129	0.224
-680.237	-200.000	-0.112	0.000
-679.222	199.183	0.154	-0.239
-678.208	6.007	0.122	-0.092
-677.193	-103.417	-0.335	-0.080
-676.178	579.677	0.044	-0.110
-675.164	-11.692	-0.263	0.175
-674.149	-168.169	-0.350	0.014
-673.135	-12.399	0.186	-0.123
-672.120	-200.000	0.036	-0.190
-671.105	166.732	0.074	-0.106
-670.091	-131.764	-0.051	-0.007
-669.076	184.140	-0.083	-0.124
-668.062	119.276	-0.161	-0.203
-667.047	147.807	-0.084	0.115
-666.032	-11.842	-0.153	0.102
-665.018	354.086	-0.114	-0.229
-664.003	-105.114	-0.144	-0.033
-662.989	80.142	0.115	0.126
-661.974	-200.000	0.021	-0.100
-660.959	800.000	0.062	-0.223
-659.945	77.701	0.128	-0.139
-658.930	-50.497	0.272	0.130
-657.916	-128.976	-0.146	-0.021
-656.901	-71.397	0.093	0.035
-655.886	-116.801	0.237	0.044
-654.872	-46.718	0.394	0.196
-653.857	-54.695	-0.126	-0.058
-652.843	-123.324	-0.386	0.063
-651.828	-200.000	0.050	0.425
-650.814	494.677	0.070	-0.163
-649.799	-29.822	0.193	0.112
-648.784	123.971	0.161	-0.206
-647.770	474.789	0.037	0.085
-646.755	-199.143	0.407	0.002
-645.741	53.349	-0.146	-0.142
-644.726	224.556	0.153	-0.251
-643.711	-130.455	-0.105	0.014
-642.697	-200.000	-0.020	0.151
-641.682	261.573	0.134	-0.235
-640.668	60.825	-0.096	0.096
-639.653	-200.000	0.010	-0.090
-638.638	-140.303	0.254	0.027
-637.624	-200.000	0.011	-0.215
-636.609	-61.988	-0.181	-0.077
-635.595	244.376	-0.149	-0.254
-634.580	-15.398	-0.243	-0.158
-633.565	44.191	-0.151	0.140
-632.551	486.574	0.054	-0.125
-631.536	60.689	-0.217	0.218
-630.522	395.601	0.040	-0.084
-629.507	800.000	-0.060	-0.239
-628.492	-200.000	0.047	-0.386
-627.478	800.000	-0.053	0.226
-626.463	147.315	-0.223	-0.304
-625.449	-37.849	-0.068	0.037
-624.434	-82.682	0.221	-0.073
-623.419	-200.000	-0.045	-0.316
-622.405	-196.639	0.308	-0.002
-621.390	236.239	0.073	-0.122
-620.376	445.404	0.055	-0.122
-619.361	61.545	-0.309	-0.311
-618.346	-19.950	-0.351	-0.219
-617.332	800.000	0.089	-0.367
-616.317	-16.049	0.129	-0.083
-615.303	-200.000	0.030	0.215
-614.288	-200.000	0.012	0.134
-613.273	286.414	0.103	-0.189
-612.259	-99.718	-0.105	-0.027
-611.244	800.000	-0.056	-0.167
-610.230	-95.979	-0.463	-0.125
-609.215	-74.950	0.077	-0.028
-608.201	-200.000	0.030	0.363
-607.186	52.003	-0.156	-0.151
-606.171	180.459	0.170	-0.253
-605.157	-27.349	-0.209	-0.123
-604.142	-79.697	-0.128	0.044
-603.128	-31.176	-0.242	-0.138
-602.113	94.134	-0.118	-0.136
-601.098	-99.636	-0.117	0.030
-600.084	65.027	0.139	-0.142
-599.069	-94.997	0.099	0.027
-598.055	145.125	-0.235	0.319
-597.040	444.270	-0.167	-0.370
-596.025	258.879	0.123	0.214
-595.011	179.539	0.288	-0.427
-593.996	800.000	0.103	-0.291
-592.982	249.650	0.161	0.277
-591.967	800.000	-0.060	-0.255
-590.952	-46.403	0.100	-0.050
-589.938	800.000	-0.079	-0.264
-588.923	800.000	0.092	-0.323
-587.909	10.797	0.217	-0.167
-586.894	800.000	-0.023	-0.100
-585.879	625.312	-0.052	0.132
-584.865	-97.273	-0.297	-0.078
-583.850	-150.656	0.146	-0.011
-582.836	188.825	-0.211	-0.320
-581.821	-48.069	-0.157	0.077
-580.806	800.000	0.054	-0.170
-579.792	-164.740	0.410	0.019
-578.777	-21.010	0.054	0.033
-577.763	16.934	0.062	-0.049
-576.748	800.000	-0.128	0.357
-575.733	-200.000	0.025	-0.208
-574.719	-200.000	0.007	0.216
-573.704	-47.545	-0.225	0.111
-572.690	-9.331	-0.090	-0.061
-571.675	52.634	-0.150	-0.145
-570.661	-161.491	0.319	0.017
-569.646	-4.540	-0.368	-0.257
-568.631	-56.123	0.437	-0.197
-567.617	-125.689	-0.295	-0.045
-566.602	16.355	-0.230	0.184
-565.588	-89.759	0.140	-0.041
-564.573	50.802	-0.109	0.104
-563.558	-200.000	-0.028	0.153
-562.544	800.000	0.050	-0.193
-561.529	189.763	0.156	0.237
-560.515	211.244	0.060	0.095
-559.500	800.000	-0.012	0.045
-558.485	800.000	0.026	0.094
-557.471	-200.000	-0.027	0.128
-556.456	68.168	-0.148	0.153
-555.442	69.045	0.120	0.124
-554.427	-26.261	-0.054	-0.032
-553.412	-50.549	0.299	-0.142
-552.398	-17.869	-0.098	0.062
-551.383	800.000	-0.093	-0.346
-550.369	124.020	-0.164	-0.208
-549.354	-150.846	-0.316	-0.024
-548.339	800.000	-0.067	-0.239
-547.325	-43.144	-0.128	0.066
-546.310	-120.017	-0.373	0.065
-545.296	60.035	-0.203	-0.203
-544.281	-86.164	0.217	0.068
-543.266	-20.415	-0.113	-0.070
-542.252	-151.048	-0.135	0.010
-541.237	173.845	0.104	-0.151
-540.223	341.749	0.062	0.122
-539.208	800.000	0.064	0.219
-538.193	-200.000	-0.010	-0.144
-537.179	-82.586	0.057	0.019
-536.164	651.146	-0.043	0.110
-535.150	-76.216	-0.227	-0.081
-534.135	-56.396	-0.202	-0.090
-533.121	185.126	0.047	-0.070
-532.106	125.181	-0.194	-0.246
-531.091	800.000	0.064	-0.213
-530.077	247.114	0.147	-0.251
-529.062	244.323	-0.006	0.010
-528.048	800.000	-0.059	-0.243
-527.033	-200.000	0.040	-0.435
-526.018	-115.437	0.174	-0.033
-525.004	54.705	-0.086	-0.084
-523.989	-145.464	-0.395	-0.036
-522.975	16.303	-0.194	-0.154
-521.960	-63.289	0.183	0.076
-520.945	184.661	-0.090	-0.134
-519.931	-200.000	0.030	-0.162
-518.916	71.197	0.150	-0.157
-517.902	-55.273	-0.236	0.107
-516.887	-200.000	0.018	0.186
-515.872	800.000	-0.028	-0.079
-514.858	176.876	-0.106	0.156
-513.843	-180.722	-0.188	0.004
-512.829	-49.833	0.188	0.090
-511.814	-35.229	-0.283	-0.155
-510.799	-50.693	-0.363	-0.173
-509.785	-99.840	-0.251	0.063
-508.770	42.116	0.379	0.347
-507.756	-84.837	-0.047	-0.015
-506.741	-200.000	0.016	0.177
-505.726	-67.840	0.228	0.090
-504.712	-162.049	0.181	0.009
-503.697	800.000	-0.016	0.048
-502.683	-200.000	-0.043	0.233
-501.668	-200.000	-0.001	0.013
-500.653	131.014	-0.284	-0.368
-499.639	22.980	-0.194	-0.161
-498.624	-120.165	-0.130	0.022
-497.610	800.000	-0.057	-0.181
-496.595	-200.000	-0.011	-0.074
-495.581	-200.000	-0.023	-0.156
-494.566	-145.481	-0.308	-0.028
-493.551	-124.029	-0.383	-0.061
-492.537	800.000	0.032	-0.135
-491.522	204.830	-0.057	-0.089
-490.508	-200.000	0.016	0.177
-489.493	20.426	-0.095	0.077
-488.478	-69.155	-0.257	0.100
-487.464	-78.012	-0.058	-0.020
-486.449	-27.761	-0.419	-0.245
-485.435	800.000	-0.105	-0.385
-484.420	-41.223	0.129	-0.067
-483.405	139.468	0.102	0.136
-482.391	800.000	0.076	0.215
-481.376	355.009	-0.123	-0.246
-480.362	25.645	0.087	-0.073
-479.347	124.954	0.095	-0.120
-478.332	47.145	-0.103	-0.097
-477.318	66.710	0.143	0.146
-476.303	-200.000	0.015	-0.171
-475.289	-16.445	0.105	0.067
-474.274	44.020	-0.124	-0.115
-473.259	800.000	0.086	0.244
-472.245	527.533	0.095	-0.225
-471.230	588.647	0.114	-0.283
-470.216	20.156	-0.103	-0.084
-469.201	-200.000	0.032	0.410
-468.186	-33.989	-0.086	-0.048
-467.172	117.124	-0.095	0.118
-466.157	-101.184	0.173	0.043
-465.143	-200.000	0.020	0.098
-464.128	-200.000	0.013	-0.200
-463.113	-88.154	-0.230	-0.069
-462.099	32.596	0.154	-0.134
-461.084	69.419	-0.060	-0.062
-460.070	46.949	0.118	0.111
-459.055	-68.839	-0.048	-0.019
-458.040	-88.543	-0.504	-0.151
-457.026	-76.454	0.360	0.127
-456.011	-200.000	-0.055	-0.279
-454.997	-157.584	-0.273	0.016
-453.982	-164.339	0.296	-0.014
-452.968	-8.536	-0.058	-0.039
-451.953	-96.581	-0.271	-0.072
-450.938	-36.884	0.164	0.089
-449.924	-78.968	-0.105	0.036
-448.909	-48.103	-0.130	0.063
-447.895	-141.547	-0.105	-0.011
-446.880	-200.000	-0.040	-0.300
-445.865	-200.000	0.019	0.207
-444.851	786.545	-0.116	0.321
-443.836	-154.454	0.347	0.023
-442.822	-200.000	0.013	-0.431
-441.807	-200.000	0.036	-0.191
-440.792	766.506	0.022	-0.060
-439.778	-71.704	-0.208	-0.078
-438.763	91.566	0.237	0.268
-437.749	-195.135	0.096	0.001
-436.734	202.353	0.168	0.260
-435.719	-200.000	-0.030	-0.269
-434.705	800.000	-0.104	0.317
-433.690	-73.170	0.054	-0.020
-432.676	89.854	-0.141	-0.159
-431.661	-165.656	-0.248	-0.011
-430.646	-161.280	-0.091	0.005
-429.632	134.135	0.136	0.177
-428.617	-47.856	0.101	0.049
-427.603	-116.456	-0.152	0.028
-426.588	-200.000	0.001	0.220
-425.573	112.169	-0.009	0.011
-424.559	134.019	0.035	0.046
-423.544	236.434	-0.164	-0.273
-422.530	673.049	-0.098	0.255
-421.515	-177.411	-0.144	0.004
-420.500	84.809	-0.115	-0.127
-419.486	-86.090	0.247	0.077
-418.471	188.765	-0.106	0.159
-417.457	-111.975	0.363	0.074
-416.442	-170.536	0.335	0.012
-415.428	800.000	-0.048	0.151
-414.413	332.380	-0.089	-0.173
-413.398	-53.383	-0.256	-0.118
-412.384	-54.214	-0.077	0.035
-411.369	-83.847	0.278	0.089
-410.355	-118.536	0.146	-0.026
-409.340	-63.620	-0.207	0.085
-408.325	-200.000	0.017	-0.096
-407.311	202.803	-0.278	0.431
-406.296	41.790	0.156	-0.142
-405.282	-200.000	0.248	-0.001
-404.267	701.138	0.056	0.147
-403.252	535.548	0.035	0.084
-402.238	34.745	0.049	-0.043
-401.223	-200.000	0.017	0.144
-400.209	-41.522	-0.194	-0.100
-399.194	-166.762	-0.307	-0.013
-398.179	38.761	-0.068	-0.061
-397.165	70.988	0.212	0.220
-396.150	510.048	0.128	0.299
-395.136	545.895	-0.096	-0.229
-394.121	659.790	0.045	-0.117
-393.106	800.000	0.038	0.136
-392.092	-151.836	-0.129	-0.009
-391.077	387.176	0.030	0.063
-390.063	312.910	-0.263	0.495
-389.048	238.440	0.085	0.141
-388.033	1.854	0.138	-0.100
-387.019	35.595	0.134	-0.118
-386.004	142.405	-0.082	0.110
-384.990	-142.088	-0.065	0.007
-383.975	423.907	-0.048	-0.104
-382.960	219.683	0.158	0.253
-381.946	800.000	0.063	0.231
-380.931	-200.000	0.007	0.084
-379.917	-76.153	0.054	-0.019
-378.902	-111.242	0.151	-0.031
-377.888	-153.163	-0.080	0.006
-376.873	666.916	-0.086	0.224
-375.858	51.425	-0.048	0.046
-374.844	602.811	-0.107	-0.267
-373.829	-143.739	-0.104	-0.010
-372.815	-70.973	-0.137	0.052
-371.800	35.604	0.163	0.144
-370.785	99.071	0.186	0.216
-369.771	647.935	0.101	0.260
-368.756	53.594	0.457	-0.440
-367.742	-154.263	0.179	-0.012
-366.727	437.424	0.127	0.277
-365.712	800.000	-0.117	0.409
-364.698	-24.696	0.210	0.125
-363.683	-170.399	0.224	0.008
-362.669	-38.835	-0.198	-0.105
-361.654	113.103	0.128	-0.155
-360.639	138.706	-0.097	0.128
-359.625	-200.000	-0.010	0.501
-358.610	-200.000	0.005	0.079
-357.596	44.736	-0.182	0.168
-356.581	176.638	-0.131	0.190
-355.566	-200.000	-0.012	-0.100
-354.552	-137.169	-0.187	0.021
-353.537	166.771	0.127	0.180
-352.523	-200.000	-0.033	0.218
-351.508	96.069	-0.075	0.086
-350.493	-104.687	-0.194	0.045
-349.479	6.018	-0.048	0.036
-348.464	800.000	0.102	0.352
-347.450	160.788	-0.139	0.194
-346.435	-2.360	0.143	-0.101
-345.420	20.250	-0.058	0.047
-344.406	206.616	-0.089	0.140
-343.391	-104.758	0.369	-0.085
-342.377	-200.000	-0.006	0.152
-341.362	245.545	0.064	0.107
-340.348	57.616	0.172	-0.169
-339.333	-100.868	0.323	-0.080
-338.318	284.308	-0.100	0.180
-337.304	-200.000	0.013	0.174
-336.289	-71.581	0.159	0.059
-335.275	282.402	0.147	0.263
-334.260	-112.530	0.107	-0.021
-333.245	800.000	-0.053	-0.153
-332.231	-105.054	-0.014	0.003
-331.216	290.814	0.135	-0.245
-330.202	75.324	0.079	0.083
-329.187	240.908	0.086	-0.143
-328.172	41.156	-0.091	-0.082
-327.158	-33.234	-0.235	-0.130
-326.143	-200.000	-0.070	0.306
-325.129	-200.000	0.016	0.257
-324.114	69.792	0.074	0.076
-323.099	-154.263	0.305	0.021
-322.085	300.134	0.183	0.338
-321.070	-136.263	-0.114	0.013
-320.056	353.476	0.126	0.251
-319.041	163.852	0.249	0.352
-318.026	-74.119	0.235	0.085
-317.012	119.752	0.110	-0.136
-315.997	4.955	-0.299	0.220
-314.983	800.000	-0.071	-0.255
-313.968	-31.416	0.153	0.086
-312.953	49.982	0.074	-0.070
-311.939	-86.709	-0.206	0.063
-310.924	388.694	-0.058	0.121
-309.910	-76.846	0.033	0.011
-308.895	-165.091	-0.150	0.007
-307.880	-76.353	-0.117	-0.041
-306.866	-84.632	0.195	0.061
-305.851	79.627	0.106	-0.114
-304.837	673.384	0.020	0.051
-303.822	779.195	0.043	-0.117
-302.807	34.648	-0.205	0.179
-301.793	-30.308	0.075	-0.043
-300.778	-200.000	0.011	0.286
-299.764	-109.296	-0.266	-0.056
-298.749	-82.665	0.259	-0.084
-297.735	-200.000	-0.011	0.137
-296.720	550.490	0.135	0.325
-295.705	397.304	0.066	0.138
-294.691	415.041	0.056	0.119
-293.676	-105.620	0.070	0.016
-292.662	-119.610	0.196	-0.034
-291.647	-67.113	-0.124	0.049
-290.632	-70.046	-0.322	0.122
-289.618	-25.938	0.153	0.090
-288.603	86.937	-0.191	-0.211
-287.589	800.000	-0.023	-0.071
-286.574	800.000	0.055	0.169
-285.559	40.600	-0.260	0.234
-284.545	-200.000	-0.010	0.056
-283.530	-118.358	-0.025	-0.004
-282.516	121.428	0.116	-0.145
-281.501	-69.872	-0.099	0.038
-280.486	50.352	-0.151	0.143
-279.472	-95.917	-0.248	-0.066
-278.457	-136.470	0.115	0.013
-277.443	364.498	0.147	-0.296
-276.428	-46.814	0.427	-0.209
-275.413	-200.000	0.009	0.209
-274.399	-200.000	0.005	-0.257
-273.384	-85.714	0.142	-0.044
-272.370	-103.182	-0.240	-0.057
-271.355	8.579	0.255	-0.192
-270.340	-102.759	0.291	-0.069
-269.326	-175.209	-0.290	-0.008
-268.311	108.635	0.104	-0.124
-267.297	-200.000	-0.032	0.160
-266.282	538.187	0.048	-0.113
-265.267	800.000	-0.046	0.159
-264.253	-112.340	-0.042	0.008
-263.238	145.178	-0.169	0.226
-262.224	-96.313	-0.188	0.050
-261.209	43.923	0.043	0.040
-260.195	199.407	-0.101	0.155
-259.180	317.822	0.110	-0.208
-258.165	-46.631	0.234	-0.115
-257.151	102.692	0.155	-0.181
-256.136	61.579	0.069	-0.069
-255.122	-26.728	-0.399	-0.233
-254.107	-99.494	-0.088	0.022
-253.092	103.609	0.305	0.358
-252.078	-200.000	-0.047	0.225
-251.063	-90.224	0.235	-0.068
-250.049	-18.389	-0.104	-0.065
-249.034	398.391	-0.066	0.139
-248.019	708.628	-0.074	0.196
-247.005	159.941	-0.063	0.087
-245.990	-200.000	-0.010	-0.274
-244.976	554.530	0.103	-0.248
-243.961	-24.603	0.135	-0.080
-242.946	-200.000	0.007	0.068
-241.932	-108.770	0.187	0.040
-240.917	-120.986	0.336	-0.056
-239.903	68.016	0.057	0.059
-238.888	800.000	-0.089	0.291
-237.873	-93.248	0.187	0.052
-236.859	201.648	0.052	0.080
-235.844	383.722	0.115	-0.236
-234.830	-0.161	-0.219	-0.155
-233.815	89.118	-0.194	-0.215
-232.800	800.000	-0.094	-0.295
-231.786	427.735	0.086	-0.185
-230.771	-112.376	0.217	-0.043
-229.757	-127.063	0.160	-0.023
-228.742	52.363	0.017	-0.017
-227.727	-200.000	0.006	0.128
-226.713	-200.000	-0.003	0.047
-225.698	-170.066	0.301	0.011
-224.684	-154.563	0.320	0.021
-223.669	-121.524	0.189	0.031
-222.655	800.000	0.056	0.240
-221.640	253.913	0.065	0.111
-220.625	132.993	0.071	-0.091
-219.611	-98.494	-0.088	0.022
-218.596	-19.060	-0.249	0.154
-217.582	-200.000	0.005	0.288
-216.567	335.484	-0.194	0.376
-215.552	800.000	-0.056	0.167
-214.538	-132.687	-0.138	0.018
-213.523	-48.438	0.033	-0.016
-212.509	-108.565	-0.461	0.099
-211.494	265.125	0.082	-0.143
-210.479	800.000	0.079	0.302
-209.465	65.094	0.242	0.244
-208.450	-92.183	0.232	-0.065
-207.436	-135.583	0.092	-0.011
-206.421	-200.000	-0.014	-0.114
-205.406	-80.063	-0.412	-0.138
-204.392	78.055	0.181	0.192
-203.377	420.817	-0.107	-0.228
-202.363	-50.545	0.160	-0.075
-201.348	410.977	0.060	-0.127
-200.333	322.830	-0.119	0.226
-199.319	183.136	-0.160	0.236
-198.304	149.066	0.064	-0.086
-197.290	-74.350	0.121	-0.044
-196.275	-200.000	-0.031	-0.156
-195.260	800.000	0.029	0.086
-194.246	63.361	0.176	0.176
-193.231	-45.059	-0.072	0.036
-192.217	474.239	-0.171	-0.385
-191.202	199.041	0.134	0.205
-190.187	800.000	-0.045	-0.185
-189.173	37.388	-0.187	0.165
-188.158	-116.607	0.140	-0.026
-187.144	-200.000	0.004	0.104
-186.129	-111.214	0.177	-0.036
-185.114	-80.716	-0.195	-0.065
-184.100	-59.650	0.112	0.048
-183.085	-71.670	0.237	0.088
-182.071	-94.601	-0.048	-0.013
-181.056	-44.047	0.249	-0.125
-180.042	149.761	-0.124	0.167
-179.027	397.067	0.048	0.101
-178.012	-200.000	-0.001	0.128
-176.998	-130.647	0.142	0.019
-175.983	-83.521	0.167	-0.053
-174.969	-200.000	-0.014	-0.115
-173.954	-14.156	0.090	0.058
-172.939	-200.000	0.018	-0.148
-171.925	38.450	0.208	0.184
-170.910	608.252	0.062	-0.153
-169.896	-200.000	0.018	0.117
-168.881	-200.000	-0.006	0.044
-167.866	435.433	0.136	-0.294
-166.852	-200.000	-0.003	-0.103
-165.837	40.423	0.007	-0.006
-164.823	405.945	-0.012	-0.026
-163.808	-78.999	0.279	-0.095
-162.793	-127.988	-0.143	0.020
-161.779	-64.990	-0.111	-0.045
-160.764	185.145	0.247	0.364
-159.750	800.000	-0.068	0.203
-158.735	-6.334	-0.122	-0.083
-157.720	800.000	-0.052	0.166
-156.706	288.715	0.178	0.320
-155.691	-200.000	-0.006	-0.166
-154.677	549.598	0.071	-0.169
-153.662	179.344	0.071	0.104
-152.647	-200.000	-0.044	0.286
-151.633	210.564	0.057	-0.089
-150.618	-200.000	-0.051	-0.276
-149.604	75.665	-0.206	-0.217
-148.589	-200.000	-0.006	-0.072
-147.574	-200.000	-0.000	-0.252
-146.560	124.741	0.048	-0.060
-145.545	-17.910	0.243	-0.152
-144.531	-200.000	-0.020	0.248
-143.516	449.437	-0.107	0.235
-142.502	286.424	-0.161	0.289
-141.487	265.552	-0.224	0.388
-140.472	-66.261	0.181	0.072
-139.458	-99.388	0.098	-0.024
-138.443	-36.662	0.043	-0.023
-137.429	463.851	-0.121	-0.269
-136.414	117.179	0.136	0.167
-135.399	-200.000	0.022	0.135
-134.385	68.304	-0.054	-0.055
-133.370	0.896	0.155	0.110
-132.356	259.767	-0.050	-0.086
-131.341	800.000	-0.103	0.435
-130.326	-92.706	0.148	-0.041
-129.312	-70.174	-0.318	0.120
-128.297	316.097	-0.077	0.145
-127.283	-104.481	-0.161	-0.037
-126.268	-101.466	-0.110	0.027
-125.253	-200.000	0.007	0.218
-124.239	17.929	-0.094	-0.075
-123.224	-87.073	0.200	0.061
-122.210	-152.445	-0.229	0.016
