DTS Sentinel unit serial number:	SN413079Multiplexer serial number:	ORYXHardware model number:	OX4-SRSoftware version number:	ORYX F/W v4.00 Oryx Data Collector v3.7.2.0data status	okinstallation	princeton_trtdifferential loss correction	single-endedforward channel	channel 4reverse channel	N/Adate	2019/09/12time	00:23:10forward acquisition time	60.00reverse acquisition time	0.00gamma	496.2192k internal	0.2308k external	0.2308temperature offset calibration	1.0088default loss term (dB/km)	0.3790temperature slope calibration	1.0000multiplexer offset coefficient	1.0000multiplexer slope coefficient	1.0000fibre end	0.00T internal ref (°C)	33.50T ext. ref 1 (°C)	2.05T ext. ref 2 (°C)	27.62length (m)	temperature (°C)	Stokes	anti-Stokes-747.200	-36.519	0.101	0.055
-746.185	304.410	-0.160	0.301
-745.171	-200.000	0.032	-0.150
-744.156	-200.000	-0.052	0.534
-743.142	-200.000	0.020	0.181
-742.127	326.272	-0.057	0.110
-741.112	-106.861	0.134	-0.030
-740.098	46.424	0.069	-0.065
-739.083	383.797	-0.122	0.254
-738.069	800.000	0.065	0.206
-737.054	-9.815	0.022	-0.015
-736.039	-132.531	-0.562	0.073
-735.025	-200.000	-0.003	0.043
-734.010	119.767	-0.212	0.267
-732.996	-80.829	-0.141	-0.048
-731.981	-200.000	0.022	0.270
-730.966	192.562	0.100	-0.153
-729.952	-132.491	0.387	0.051
-728.937	316.645	-0.100	-0.192
-727.923	-4.058	-0.398	-0.280
-726.908	-44.490	0.118	0.060
-725.894	36.996	-0.177	-0.159
-724.879	644.539	0.162	0.419
-723.864	-178.583	-0.199	0.005
-722.850	-200.000	-0.024	0.119
-721.835	-200.000	-0.001	-0.112
-720.821	-7.272	-0.093	0.064
-719.806	-104.573	-0.623	-0.146
-718.791	-98.827	-0.123	0.032
-717.777	-200.000	-0.003	-0.184
-716.762	-133.169	-0.146	0.019
-715.748	54.002	0.259	0.253
-714.733	-116.154	0.147	0.028
-713.718	-7.783	-0.221	0.151
-712.704	-107.653	-0.279	-0.062
-711.689	3.580	-0.115	-0.085
-710.675	-200.000	-0.095	0.444
-709.660	800.000	-0.029	-0.085
-708.645	-200.000	0.036	-0.581
-707.631	-42.310	0.259	0.134
-706.616	-42.738	-0.484	0.250
-705.602	53.057	0.072	-0.070
-704.587	293.842	-0.133	-0.247
-703.572	184.987	0.158	-0.238
-702.558	800.000	-0.083	0.234
-701.543	-9.333	0.409	0.277
-700.529	800.000	-0.090	-0.380
-699.514	-91.039	-0.292	-0.085
-698.499	-113.784	0.339	-0.067
-697.485	800.000	-0.030	0.118
-696.470	-200.000	0.018	-0.278
-695.456	-35.048	0.258	-0.143
-694.441	-80.864	0.199	0.067
-693.426	677.716	0.045	-0.118
-692.412	-74.192	0.085	-0.031
-691.397	-200.000	-0.474	0.001
-690.383	24.075	0.147	0.123
-689.368	-192.685	0.039	0.000
-688.354	-155.255	0.344	0.023
-687.339	600.753	0.029	-0.072
-686.324	-200.000	-0.002	-0.229
-685.310	-27.155	-0.258	0.153
-684.295	-2.870	-0.052	-0.037
-683.281	-200.000	0.041	-0.285
-682.266	292.031	-0.104	0.192
-681.251	800.000	-0.061	-0.209
-680.237	800.000	0.067	-0.220
-679.222	232.501	-0.083	-0.139
-678.208	-200.000	-0.002	0.264
-677.193	301.266	0.206	-0.385
-676.178	-6.289	-0.451	-0.312
-675.164	479.436	-0.109	0.250
-674.149	-200.000	-0.015	0.153
-673.135	91.952	-0.133	0.151
-672.120	800.000	0.100	-0.362
-671.105	62.580	0.187	-0.190
-670.091	131.134	0.012	-0.016
-669.076	273.783	-0.109	-0.196
-668.062	-14.614	-0.162	0.106
-667.047	42.528	0.093	-0.085
-666.032	94.993	-0.284	0.328
-665.018	-200.000	-0.012	-0.170
-664.003	-90.222	-0.280	0.083
-662.989	9.915	-0.196	-0.151
-661.974	-165.107	-0.171	-0.008
-660.959	-149.221	0.250	0.020
-659.945	-55.223	0.212	-0.097
-658.930	-200.000	-0.057	-0.255
-657.916	800.000	-0.017	0.061
-656.901	-200.000	0.034	0.221
-655.886	800.000	-0.033	-0.138
-654.872	-151.607	0.128	0.010
-653.857	-4.783	0.130	0.091
-652.843	376.645	-0.036	0.074
-651.828	0.272	-0.140	0.101
-650.814	-200.000	-0.026	-0.202
-649.799	27.613	0.141	0.120
-648.784	-22.391	-0.092	-0.056
-647.770	146.250	0.119	-0.161
-646.755	10.044	0.168	0.129
-645.741	333.049	-0.050	0.098
-644.726	-21.104	0.074	0.046
-643.711	-181.542	-0.225	-0.004
-642.697	-79.724	0.347	0.118
-641.682	-200.000	-0.016	0.224
-640.668	-80.451	0.101	0.034
-639.653	-133.397	-0.308	-0.039
-638.638	549.824	0.150	-0.365
-637.624	-83.729	0.019	0.006
-636.609	800.000	-0.094	-0.352
-635.595	-200.000	0.038	-0.174
-634.580	80.695	-0.224	-0.244
-633.565	52.713	0.141	0.136
-632.551	236.498	0.141	-0.237
-631.536	18.666	-0.219	-0.177
-630.522	113.843	-0.110	-0.135
-629.507	110.419	-0.156	0.190
-628.492	59.847	-0.147	0.147
-627.478	178.953	0.135	-0.199
-626.463	152.364	0.064	-0.089
-625.449	800.000	-0.048	0.192
-624.434	-134.659	0.193	-0.024
-623.419	800.000	0.104	-0.332
-622.405	-165.265	0.178	-0.008
-621.390	-101.164	-0.119	-0.029
-620.376	2.966	-0.069	-0.050
-619.361	495.384	0.081	-0.189
-618.346	137.447	0.124	0.164
-617.332	87.325	-0.231	0.258
-616.317	30.240	-0.054	0.047
-615.303	96.445	0.062	0.072
-614.288	-79.609	0.229	-0.078
-613.273	154.585	0.107	0.149
-612.259	-143.957	-0.295	0.028
-611.244	-153.040	0.159	0.011
-610.230	90.456	0.123	-0.139
-609.215	-200.000	-0.065	0.517
-608.201	800.000	0.049	-0.203
-607.186	68.471	0.092	0.096
-606.171	-107.335	0.187	-0.041
-605.157	-51.113	0.261	-0.124
-604.142	81.606	-0.236	0.258
-603.128	800.000	0.070	-0.301
-602.113	32.495	0.209	-0.183
-601.098	510.356	0.217	0.511
-600.084	-109.223	-0.062	0.013
-599.069	-192.877	0.289	-0.003
-598.055	62.365	0.135	-0.136
-597.040	-200.000	-0.029	-0.202
-596.025	80.531	-0.196	-0.213
-595.011	-19.893	0.313	-0.196
-593.996	34.450	0.157	0.139
-592.982	96.332	0.114	0.132
-591.967	4.823	-0.280	-0.208
-590.952	-76.950	-0.336	0.119
-589.938	182.287	0.155	0.230
-588.923	-97.070	-0.239	0.063
-587.909	18.915	0.166	-0.134
-586.894	1.404	0.107	0.078
-585.879	-200.000	-0.007	0.058
-584.865	233.554	-0.113	0.187
-583.850	-33.931	-0.208	0.116
-582.836	17.867	-0.162	0.130
-581.821	-4.919	-0.020	-0.014
-580.806	366.000	0.144	-0.294
-579.792	128.466	-0.170	-0.219
-578.777	127.944	0.189	0.242
-577.763	37.352	0.125	-0.112
-576.748	-155.549	0.080	0.005
-575.733	-200.000	0.021	-0.403
-574.719	-187.812	0.159	0.002
-573.704	800.000	0.007	0.026
-572.690	543.970	-0.086	0.208
-571.675	-74.933	-0.121	0.044
-570.661	480.614	-0.122	0.279
-569.646	-127.500	-0.229	-0.034
-568.631	800.000	-0.153	-0.454
-567.617	92.606	-0.144	-0.164
-566.602	226.171	-0.146	0.238
-565.588	3.816	-0.083	0.061
-564.573	-200.000	0.013	0.314
-563.558	800.000	0.040	-0.130
-562.544	77.807	-0.103	-0.111
-561.529	-200.000	-0.039	0.201
-560.515	-87.446	-0.487	0.149
-559.500	-60.315	0.264	-0.113
-558.485	237.817	-0.242	0.405
-557.471	800.000	0.078	-0.236
-556.456	-200.000	0.056	-0.391
-555.442	-17.099	0.235	0.149
-554.427	-89.700	-0.247	0.073
-553.412	-48.304	-0.062	-0.030
-552.398	-200.000	0.000	0.298
-551.383	478.492	-0.125	-0.286
-550.369	-82.001	0.459	-0.151
-549.354	319.221	0.061	0.117
-548.339	-200.000	0.003	0.448
-547.325	-200.000	-0.011	0.185
-546.310	-64.807	-0.246	-0.100
-545.296	750.528	-0.084	-0.227
-544.281	800.000	0.026	0.096
-543.266	24.685	-0.313	-0.262
-542.252	-153.265	0.341	-0.024
-541.237	24.256	0.207	-0.172
-540.223	134.938	-0.205	0.269
-539.208	-74.332	0.066	-0.024
-538.193	-117.897	0.387	-0.070
-537.179	55.938	0.200	-0.195
-536.164	800.000	-0.049	0.197
-535.150	296.063	0.264	0.488
-534.135	-16.537	-0.195	-0.124
-533.121	-3.019	-0.230	0.162
-532.106	-118.143	0.148	0.027
-531.091	166.767	0.174	-0.249
-530.077	-200.000	-0.059	-0.289
-529.062	88.503	0.214	-0.240
-528.048	19.069	0.109	-0.088
-527.033	-47.154	-0.254	0.125
-526.018	111.593	-0.088	-0.107
-525.004	627.598	-0.121	-0.308
-523.989	-56.772	0.118	-0.053
-522.975	-200.000	-0.032	0.168
-521.960	389.338	0.060	0.124
-520.945	-200.000	0.008	0.060
-519.931	18.229	-0.399	0.321
-518.916	5.203	0.065	0.048
-517.902	-11.668	-0.073	-0.048
-516.887	317.461	-0.099	-0.189
-515.872	-200.000	-0.032	-0.543
-514.858	-36.202	0.322	0.175
-513.843	-200.000	-0.042	-0.293
-512.829	-200.000	0.070	-0.320
-511.814	77.394	-0.286	-0.306
-510.799	-200.000	0.016	0.097
-509.785	800.000	-0.146	-0.446
-508.770	-200.000	-0.029	-0.186
-507.756	-106.646	-0.105	0.024
-506.741	161.033	0.111	-0.156
-505.726	-142.726	-0.051	-0.005
-504.712	-200.000	0.014	0.252
-503.697	157.069	-0.088	-0.123
-502.683	-200.000	-0.031	0.176
-501.668	-200.000	-0.004	-0.047
-500.653	-0.405	0.054	0.038
-499.639	-200.000	0.045	0.284
-498.624	-91.351	-0.164	0.047
-497.610	-45.161	0.208	0.104
-496.595	-200.000	0.044	0.197
-495.581	800.000	0.028	0.110
-494.566	-200.000	0.012	0.154
-493.551	49.868	0.152	0.144
-492.537	167.271	0.156	-0.223
-491.522	-200.000	0.007	0.136
-490.508	188.317	0.063	0.095
-489.493	-27.868	0.090	-0.053
-488.478	61.008	0.091	-0.091
-487.464	-120.739	0.252	-0.043
-486.449	54.179	0.171	-0.166
-485.435	-127.920	-0.345	-0.050
-484.420	-200.000	-0.045	0.343
-483.405	459.878	0.180	0.404
-482.391	-97.886	-0.164	0.043
-481.376	-149.939	-0.151	-0.012
-480.362	10.944	-0.134	-0.103
-479.347	-134.051	-0.243	-0.030
-478.332	-58.942	-0.361	0.157
-477.318	-185.844	0.226	-0.003
-476.303	-46.439	-0.113	-0.056
-475.289	-200.000	0.010	-0.089
-474.274	111.454	0.171	0.207
-473.259	-200.000	-0.005	-0.089
-472.245	-119.076	0.205	-0.036
-471.230	-200.000	-0.011	0.135
-470.216	-64.813	-0.126	-0.051
-469.201	-130.950	-0.270	-0.036
-468.186	250.104	0.067	0.115
-467.172	97.259	0.096	0.111
-466.157	800.000	0.071	-0.297
-465.143	-200.000	-0.005	0.204
-464.128	-85.563	0.198	0.062
-463.113	8.258	-0.172	-0.130
-462.099	-200.000	0.085	-0.429
-461.084	359.713	0.080	-0.161
-460.070	101.379	-0.174	0.203
-459.055	171.094	-0.094	-0.135
-458.040	133.741	-0.024	-0.031
-457.026	408.296	-0.105	-0.223
-456.011	-37.876	0.196	-0.105
-454.997	438.152	0.047	0.103
-453.982	97.851	0.122	0.141
-452.968	182.970	0.095	0.140
-451.953	153.277	0.123	0.169
-450.938	-131.803	0.151	-0.020
-449.924	62.677	-0.429	0.431
-448.909	-124.816	0.433	0.067
-447.895	-200.000	-0.096	0.533
-446.880	17.602	-0.159	0.127
-445.865	-200.000	-0.056	-0.298
-444.851	281.152	-0.095	-0.171
-443.836	-4.401	0.160	-0.111
-442.822	443.031	0.059	-0.129
-441.807	-193.342	-0.330	-0.003
-440.792	-200.000	0.029	-0.379
-439.778	-74.683	-0.245	0.089
-438.763	-130.301	-0.166	-0.023
-437.749	-67.030	-0.155	0.061
-436.734	102.906	0.162	0.190
-435.719	72.367	0.128	-0.134
-434.705	-200.000	-0.009	0.074
-433.690	-200.000	0.008	0.096
-432.676	-200.000	-0.022	-0.198
-431.661	23.787	0.264	0.218
-430.646	342.928	0.023	-0.045
-429.632	-125.641	-0.213	0.032
-428.617	-200.000	0.000	0.231
-427.603	-74.955	0.173	-0.062
-426.588	636.698	0.055	0.140
-425.573	67.213	0.355	-0.363
-424.559	800.000	-0.152	-0.457
-423.544	176.811	0.066	-0.097
-422.530	-200.000	-0.013	0.215
-421.515	68.496	-0.390	-0.401
-420.500	230.544	-0.005	0.009
-419.486	117.767	-0.132	-0.163
-418.471	-200.000	0.015	0.185
-417.457	-36.706	0.189	-0.102
-416.442	-200.000	0.049	0.534
-415.428	236.283	0.074	-0.123
-414.413	39.035	-0.077	0.069
-413.398	-9.093	-0.153	0.103
-412.384	800.000	0.036	-0.154
-411.369	-115.684	-0.122	-0.023
-410.355	-200.000	-0.001	-0.071
-409.340	-52.765	-0.080	-0.037
-408.325	-72.151	0.398	0.148
-407.311	-162.530	-0.133	-0.007
-406.296	-200.000	-0.007	-0.062
-405.282	-116.523	0.218	0.040
-404.267	-200.000	-0.041	-0.216
-403.252	800.000	-0.137	0.414
-402.238	-114.855	-0.344	0.066
-401.223	17.422	-0.105	-0.084
-400.209	91.908	0.123	-0.138
-399.194	-22.769	-0.316	-0.191
-398.179	274.481	0.130	-0.231
-397.165	441.248	0.074	-0.163
-396.150	368.589	0.103	0.210
-395.136	-87.398	0.391	0.119
-394.121	120.015	-0.058	0.072
-393.106	800.000	0.111	0.322
-392.092	148.448	-0.051	0.069
-391.077	231.723	-0.108	-0.177
-390.063	84.844	-0.058	-0.064
-389.048	-68.923	0.163	-0.063
-388.033	-51.387	0.293	0.137
-387.019	703.641	0.072	0.191
-386.004	-104.366	-0.330	-0.077
-384.990	-122.733	-0.192	-0.031
-383.975	-46.896	-0.107	-0.053
-382.960	-200.000	-0.023	0.584
-381.946	-12.181	-0.020	-0.013
-380.931	118.311	0.048	0.059
-379.917	458.518	-0.068	-0.152
-378.902	-104.441	-0.220	-0.051
-377.888	800.000	-0.116	0.441
-376.873	-80.029	-0.369	0.124
-375.858	800.000	-0.074	-0.220
-374.844	137.952	0.197	0.258
-373.829	800.000	0.025	0.095
-372.815	180.231	-0.185	-0.272
-371.800	19.095	0.185	-0.149
-370.785	-200.000	0.084	0.415
-369.771	-63.571	-0.354	-0.146
-368.756	214.492	0.100	0.159
-367.742	-200.000	-0.059	-0.366
-366.727	2.937	-0.129	-0.094
-365.712	137.791	-0.173	0.227
-364.698	432.717	-0.096	0.208
-363.683	54.121	0.220	-0.212
-362.669	109.967	0.289	0.348
-361.654	111.717	0.152	-0.183
-360.639	-74.526	0.067	-0.024
-359.625	64.633	0.197	0.198
-358.610	-18.262	0.241	0.151
-357.596	446.209	-0.091	0.201
-356.581	215.533	0.110	-0.175
-355.566	-93.903	-0.063	-0.017
-354.552	27.191	0.189	-0.159
-353.537	-24.506	-0.349	0.208
-352.523	686.947	-0.120	0.313
-351.508	789.637	-0.060	-0.165
-350.493	-105.176	0.094	0.022
-349.479	-200.000	-0.054	-0.287
-348.464	-0.299	-0.239	-0.170
-347.450	-13.796	0.206	-0.133
-346.435	133.215	-0.183	0.237
-345.420	459.108	0.179	-0.398
-344.406	-200.000	-0.009	0.123
-343.391	517.976	0.073	-0.171
-342.377	-200.000	-0.007	0.062
-341.362	800.000	0.091	-0.256
-340.348	85.377	-0.074	0.081
-339.333	800.000	0.067	-0.238
-338.318	-109.663	-0.309	-0.065
-337.304	84.986	-0.127	-0.139
-336.289	276.681	0.135	-0.239
-335.275	-200.000	-0.006	0.129
-334.260	117.085	0.134	0.165
-333.245	276.614	-0.101	-0.179
-332.231	-57.969	-0.178	-0.078
-331.216	-28.688	0.353	-0.203
-330.202	-91.136	0.307	-0.088
-329.187	74.550	-0.181	0.190
-328.172	-200.000	-0.020	0.093
-327.158	109.718	0.077	0.093
-326.143	-82.091	0.181	-0.059
-325.129	-98.813	0.264	-0.067
-324.114	-153.352	-0.105	0.007
-323.099	-127.182	-0.096	-0.014
-322.085	67.402	0.170	-0.174
-321.070	800.000	0.027	-0.112
-320.056	-85.809	0.153	-0.047
-319.041	-22.559	0.020	0.012
-318.026	-200.000	-0.064	0.290
-317.012	353.983	0.111	-0.221
-315.997	-123.747	0.285	0.045
-314.983	-135.347	-0.393	0.047
-313.968	62.043	0.362	0.360
-312.953	137.642	0.124	0.162
-311.939	800.000	-0.018	-0.058
-310.924	-101.090	0.236	-0.058
-309.910	800.000	-0.082	0.287
-308.895	328.402	0.093	0.178
-307.880	-200.000	-0.012	0.393
-306.866	108.792	0.027	0.032
-305.851	-59.663	-0.116	0.050
-304.837	-67.098	0.107	0.042
-303.822	-125.990	-0.079	0.012
-302.807	54.793	-0.104	0.100
-301.793	800.000	-0.046	0.195
-300.778	800.000	0.090	-0.350
-299.764	-200.000	-0.032	0.235
-298.749	-64.430	0.087	0.035
-297.735	161.899	-0.177	-0.248
-296.720	-200.000	0.039	0.229
-295.705	61.052	-0.172	0.170
-294.691	-116.186	-0.069	-0.013
-293.676	-47.162	0.030	-0.015
-292.662	-171.967	-0.407	0.013
-291.647	-200.000	-0.002	-0.103
-290.632	800.000	-0.088	0.273
-289.618	-43.933	0.097	-0.049
-288.603	115.754	-0.110	-0.135
-287.589	-15.129	-0.146	0.093
-286.574	-55.643	0.216	-0.096
-285.559	800.000	-0.034	-0.137
-284.545	-90.637	0.140	0.040
-283.530	-126.770	0.240	0.035
-282.516	-109.915	-0.112	-0.023
-281.501	-61.837	0.195	-0.081
-280.486	-1.560	0.090	-0.064
-279.472	-200.000	0.033	0.343
-278.457	-200.000	0.000	-0.251
-277.443	166.871	0.092	0.130
-276.428	145.376	-0.187	0.250
-275.413	764.656	-0.079	0.214
-274.399	-179.393	0.181	-0.004
-273.384	139.253	-0.137	0.180
-272.370	-200.000	0.017	-0.155
-271.355	-115.697	0.453	0.085
-270.340	201.453	-0.072	-0.111
-269.326	800.000	0.032	0.113
-268.311	124.520	-0.314	-0.394
-267.297	-5.406	-0.031	-0.021
-266.282	-200.000	-0.027	0.401
-265.267	-200.000	0.043	-0.220
-264.253	-107.897	-0.136	-0.029
-263.238	-200.000	-0.055	-0.272
-262.224	72.899	-0.123	-0.128
-261.209	79.222	-0.140	0.150
-260.195	-87.641	-0.215	-0.065
-259.180	-200.000	0.044	-0.235
-258.165	800.000	-0.034	0.126
-257.151	800.000	-0.059	-0.201
-256.136	-9.811	0.229	0.152
-255.122	49.165	0.228	-0.213
-254.107	-121.288	-0.148	-0.025
-253.092	-28.330	-0.500	0.288
-252.078	48.592	-0.164	-0.153
-251.063	-45.801	-0.181	-0.089
-250.049	35.791	0.168	0.148
-249.034	-160.856	-0.109	-0.006
-248.019	-193.595	-0.119	-0.001
-247.005	93.068	0.060	0.067
-245.990	-88.841	0.329	-0.097
-244.976	-27.593	-0.335	0.194
-243.961	-183.755	0.138	-0.002
-242.946	-114.268	0.164	0.031
-241.932	-200.000	-0.012	-0.113
-240.917	775.832	0.093	0.252
-239.903	800.000	0.073	-0.244
-238.888	40.081	-0.231	-0.207
-237.873	249.533	0.112	-0.190
-236.859	800.000	0.125	-0.382
-235.844	646.134	-0.027	0.069
-234.830	-115.590	-0.111	-0.021
-233.815	-200.000	-0.014	-0.151
-232.800	-65.211	-0.312	-0.125
-231.786	-200.000	0.014	-0.080
-230.771	782.242	-0.103	0.282
-229.757	-156.680	0.164	0.010
-228.742	170.829	-0.077	-0.110
-227.727	83.074	0.098	-0.106
-226.713	-200.000	0.006	0.203
-225.698	165.804	0.103	0.145
-224.684	-64.683	0.317	0.128
-223.669	-137.452	0.172	-0.019
-222.655	327.001	0.090	-0.171
-221.640	-93.243	0.049	0.014
-220.625	357.346	-0.017	-0.033
-219.611	-200.000	-0.056	0.424
-218.596	123.320	0.202	-0.252
-217.582	-74.922	-0.187	-0.067
-216.567	-44.014	-0.112	0.056
-215.552	-135.895	0.197	0.023
-214.538	-200.000	0.008	0.135
-213.523	140.798	0.016	0.021
-212.509	-95.210	0.402	0.108
-211.494	59.799	0.130	0.128
-210.479	681.059	0.124	0.321
-209.465	-200.000	0.041	-0.329
-208.450	210.350	-0.180	0.282
-207.436	-117.498	-0.360	-0.065
-206.421	-200.000	0.014	0.108
-205.406	576.946	-0.168	0.408
-204.392	-41.267	0.215	-0.110
-203.377	800.000	0.116	0.329
-202.363	-134.954	-0.281	-0.034
-201.348	-142.608	-0.103	-0.010
-200.333	85.770	0.199	0.218
-199.319	243.361	-0.058	-0.096
-198.304	-42.719	0.241	0.122
-197.290	343.757	-0.126	0.246
-196.275	111.682	-0.160	-0.193
-195.260	-200.000	0.057	-0.293
-194.246	29.724	-0.180	0.152
-193.231	103.358	-0.196	0.229
-192.217	397.342	0.060	-0.124
-191.202	414.562	-0.120	-0.253
-190.187	-200.000	-0.075	-0.499
-189.173	-59.914	-0.406	0.173
-188.158	-74.622	0.162	-0.058
-187.144	322.433	0.053	0.100
-186.129	41.130	-0.457	-0.410
-185.114	-176.771	0.368	-0.009
-184.100	800.000	0.086	-0.273
-183.085	314.412	-0.039	0.073
-182.071	-200.000	-0.051	0.335
-181.056	800.000	0.055	-0.188
-180.042	-200.000	-0.022	-0.143
-179.027	26.003	-0.305	0.253
-178.012	-23.928	-0.238	0.142
-176.998	800.000	0.075	-0.221
-175.983	800.000	0.042	-0.152
-174.969	3.959	0.179	-0.130
-173.954	-200.000	0.030	-0.155
-172.939	763.248	0.089	0.240
-171.925	800.000	0.121	0.332
-170.910	441.534	0.103	0.224
-169.896	-95.040	-0.130	-0.035
-168.881	-17.027	0.309	-0.194
-167.866	-162.627	-0.226	-0.011
-166.852	-20.873	0.070	0.043
-165.837	800.000	0.068	-0.195
-164.823	219.071	0.114	-0.181
-163.808	129.698	-0.152	-0.193
-162.793	22.740	0.121	-0.099
-161.779	-84.760	-0.384	-0.120
-160.764	-200.000	0.073	-0.407
-159.750	20.392	0.187	-0.150
-158.735	-111.945	0.359	-0.072
-157.720	167.861	-0.074	0.104
-156.706	-200.000	0.019	0.455
-155.691	-157.523	-0.208	0.012
-154.677	-27.917	-0.325	0.187
-153.662	-63.736	0.130	0.053
-152.647	800.000	0.051	0.208
-151.633	800.000	0.049	-0.210
-150.618	-38.795	-0.070	-0.037
-149.604	400.672	0.115	0.240
-148.589	115.790	0.296	-0.359
-147.574	62.805	0.084	-0.084
-146.560	-50.239	0.107	-0.050
-145.545	186.008	0.236	-0.349
-144.531	740.522	-0.203	-0.541
-143.516	-200.000	0.000	0.169
-142.502	-200.000	-0.007	-0.270
-141.487	787.513	-0.225	-0.612
-140.472	-200.000	0.018	-0.157
-139.458	208.979	-0.036	0.056
-138.443	-200.000	0.004	-0.097
-137.429	84.248	-0.187	-0.203
-136.414	-108.116	-0.292	-0.063
-135.399	-161.269	-0.243	-0.013
-134.385	-27.561	-0.085	-0.049
-133.370	25.509	0.194	-0.160
-132.356	-37.062	-0.338	-0.180
-131.341	800.000	0.068	-0.292
-130.326	-59.516	-0.076	0.032
-129.312	-32.139	0.055	0.030
-128.297	31.388	-0.113	0.096
-127.283	-130.828	-0.305	0.041
-126.268	38.759	0.149	-0.132
-125.253	-200.000	0.049	0.362
-124.239	23.614	0.234	0.191
-123.224	-22.545	-0.041	-0.025
-122.210	80.769	0.144	-0.154
