DTS Sentinel unit serial number:	SN413079Multiplexer serial number:	ORYXHardware model number:	OX4-SRSoftware version number:	ORYX F/W v4.00 Oryx Data Collector v3.7.2.0data status	okinstallation	princeton_trtdifferential loss correction	single-endedforward channel	channel 4reverse channel	N/Adate	2019/09/13time	08:17:34forward acquisition time	60.00reverse acquisition time	0.00gamma	496.2192k internal	0.2318k external	0.2318temperature offset calibration	1.0202default loss term (dB/km)	0.3790temperature slope calibration	1.0000multiplexer offset coefficient	1.0000multiplexer slope coefficient	1.0000fibre end	0.00T internal ref (°C)	27.19T ext. ref 1 (°C)	4.28T ext. ref 2 (°C)	23.10length (m)	temperature (°C)	Stokes	anti-Stokes-747.200	-128.598	0.214	-0.031
-746.185	-118.246	-0.290	0.052
-745.171	-63.308	0.186	-0.078
-744.156	-200.000	-0.009	-0.074
-743.142	427.355	-0.221	-0.483
-742.127	185.581	-0.155	0.233
-741.112	-121.761	0.143	0.024
-740.098	-168.237	-0.343	-0.013
-739.083	-200.000	0.008	-0.157
-738.069	160.310	-0.061	0.086
-737.054	314.601	0.078	0.149
-736.039	6.940	-0.218	-0.164
-735.025	-200.000	-0.040	0.230
-734.010	0.632	-0.166	-0.120
-732.996	-200.000	0.056	-0.333
-731.981	-137.036	-0.212	-0.025
-730.966	370.870	-0.130	0.266
-729.952	617.174	-0.060	0.153
-728.937	-134.267	0.402	0.050
-727.923	-80.731	-0.431	-0.145
-726.908	682.519	-0.089	0.235
-725.894	-131.901	0.223	0.029
-724.879	-58.354	-0.299	-0.131
-723.864	-42.130	0.087	0.045
-722.850	-99.121	0.347	0.089
-721.835	45.443	-0.222	0.207
-720.821	188.154	0.211	0.319
-719.806	731.032	-0.156	-0.422
-718.791	38.881	-0.197	-0.178
-717.777	-81.217	0.077	-0.026
-716.762	172.888	0.066	-0.096
-715.748	398.562	0.118	0.249
-714.733	-129.833	-0.406	0.056
-713.718	-157.041	0.179	-0.011
-712.704	46.787	-0.232	-0.218
-711.689	800.000	-0.054	-0.229
-710.675	-115.079	0.269	0.052
-709.660	406.365	0.041	0.088
-708.645	103.551	0.112	-0.133
-707.631	-91.785	0.127	-0.037
-706.616	-78.821	-0.309	-0.107
-705.602	-19.511	-0.252	-0.158
-704.587	-149.667	-0.257	-0.020
-703.572	-53.784	0.237	-0.109
-702.558	52.137	0.161	-0.155
-701.543	7.443	0.090	0.068
-700.529	-125.604	-0.076	-0.012
-699.514	-92.759	-0.212	0.060
-698.499	-183.383	0.411	-0.007
-697.485	800.000	0.061	-0.230
-696.470	358.902	-0.130	-0.262
-695.456	233.741	0.012	0.020
-694.441	555.610	-0.081	-0.197
-693.426	-27.889	0.087	-0.051
-692.412	507.839	-0.103	-0.241
-691.397	-49.176	0.331	0.160
-690.383	-94.543	0.143	0.039
-689.368	-126.062	0.134	0.020
-688.354	-86.003	0.153	0.048
-687.339	-144.444	-0.354	0.033
-686.324	-147.653	-0.154	0.013
-685.310	94.098	-0.192	0.221
-684.295	192.877	0.224	-0.341
-683.281	50.280	0.249	0.237
-682.266	-146.215	0.234	-0.021
-681.251	-8.575	-0.104	-0.070
-680.237	-200.000	-0.005	0.148
-679.222	800.000	0.054	0.188
-678.208	-81.812	-0.202	-0.067
-677.193	643.349	0.070	0.180
-676.178	-200.000	-0.050	-0.267
-675.164	800.000	0.027	0.113
-674.149	134.099	0.189	-0.247
-673.135	7.610	-0.268	0.202
-672.120	-129.928	-0.093	0.013
-671.105	-112.344	0.097	0.020
-670.091	70.017	0.161	-0.168
-669.076	145.627	-0.117	-0.158
-668.062	-200.000	0.082	0.397
-667.047	317.564	0.105	0.201
-666.032	11.484	0.334	0.258
-665.018	-200.000	0.013	-0.072
-664.003	34.890	-0.212	-0.187
-662.989	-4.910	0.241	-0.168
-661.974	800.000	0.031	-0.098
-660.959	191.880	0.115	-0.174
-659.945	103.795	-0.230	-0.272
-658.930	100.245	-0.218	0.255
-657.916	-97.289	0.141	-0.037
-656.901	62.289	0.171	-0.172
-655.886	-146.153	-0.187	0.017
-654.872	71.669	0.172	0.180
-653.857	800.000	-0.137	-0.460
-652.843	347.988	-0.075	0.149
-651.828	-127.604	0.124	-0.018
-650.814	-38.796	0.171	0.091
-649.799	18.626	-0.350	0.282
-648.784	-80.486	-0.155	-0.052
-647.770	-89.798	-0.059	0.017
-646.755	52.126	-0.102	-0.098
-645.741	-49.574	-0.289	0.139
-644.726	12.090	-0.069	0.054
-643.711	222.980	-0.143	-0.233
-642.697	190.607	0.151	0.229
-641.682	146.962	-0.152	0.206
-640.668	-200.000	0.039	-0.238
-639.653	-200.000	-0.034	0.178
-638.638	-95.690	0.268	-0.072
-637.624	-200.000	0.026	-0.249
-636.609	267.666	-0.023	-0.040
-635.595	-67.373	-0.199	0.079
-634.580	525.739	-0.018	-0.042
-633.565	246.864	0.149	-0.254
-632.551	-127.915	0.173	-0.025
-631.536	192.773	-0.125	-0.190
-630.522	-162.915	0.101	0.005
-629.507	35.224	-0.266	-0.235
-628.492	-200.000	0.013	0.126
-627.478	192.169	0.045	0.068
-626.463	-200.000	0.004	0.076
-625.449	308.409	0.043	-0.081
-624.434	68.079	-0.034	-0.035
-623.419	-200.000	-0.017	-0.379
-622.405	3.439	-0.060	0.044
-621.390	-200.000	-0.018	0.156
-620.376	414.873	-0.119	0.255
-619.361	800.000	-0.148	-0.496
-618.346	-200.000	0.033	-0.320
-617.332	17.654	-0.348	0.279
-616.317	-110.540	-0.464	-0.097
-615.303	-56.633	-0.197	0.088
-614.288	-200.000	-0.020	0.177
-613.273	-29.614	-0.369	-0.212
-612.259	-21.710	0.089	-0.055
-611.244	-62.176	0.182	-0.077
-610.230	54.305	0.175	0.170
-609.215	337.461	-0.177	0.347
-608.201	-177.463	-0.171	-0.004
-607.186	7.090	0.211	-0.159
-606.171	202.761	-0.127	-0.197
-605.157	99.843	0.176	-0.205
-604.142	-99.786	-0.140	0.035
-603.128	-156.789	-0.301	-0.019
-602.113	800.000	0.014	0.045
-601.098	800.000	-0.027	-0.087
-600.084	-66.457	-0.130	-0.052
-599.069	800.000	-0.034	0.103
-598.055	-134.093	-0.467	0.058
-597.040	800.000	-0.075	-0.319
-596.025	556.873	-0.025	0.062
-595.011	-39.983	-0.242	0.127
-593.996	-200.000	-0.019	-0.182
-592.982	-23.214	0.069	-0.042
-591.967	-144.287	-0.292	-0.027
-590.952	-200.000	-0.057	0.288
-589.938	-68.716	0.321	-0.125
-588.923	106.618	-0.152	-0.181
-587.909	-200.000	0.003	0.077
-586.894	-81.027	0.051	0.017
-585.879	-58.325	0.339	-0.148
-584.865	22.790	-0.122	-0.101
-583.850	450.026	-0.022	0.048
-582.836	11.762	0.137	0.106
-581.821	145.937	0.113	-0.152
-580.806	-43.608	-0.083	0.042
-579.792	-16.799	0.193	-0.123
-578.777	-161.265	-0.483	0.025
-577.763	800.000	0.092	0.271
-576.748	-83.647	-0.174	-0.056
-575.733	99.167	0.056	-0.065
-574.719	-148.329	-0.097	0.008
-573.704	-77.846	-0.176	-0.061
-572.690	800.000	0.015	-0.057
-571.675	382.320	-0.089	-0.184
-570.661	117.719	0.070	0.087
-569.646	-168.418	-0.332	0.013
-568.631	212.178	-0.192	0.305
-567.617	17.857	-0.220	-0.176
-566.602	800.000	0.095	0.320
-565.588	-37.469	-0.130	0.070
-564.573	87.294	-0.286	0.318
-563.558	-77.285	-0.086	-0.030
-562.544	-28.974	0.232	-0.134
-561.529	-148.068	0.220	0.018
-560.515	800.000	-0.059	-0.200
-559.500	25.294	-0.020	0.016
-558.485	88.848	-0.102	0.114
-557.471	114.990	0.133	-0.163
-556.456	-200.000	0.041	0.255
-555.442	-200.000	0.012	0.198
-554.427	-200.000	-0.006	0.124
-553.412	800.000	0.110	-0.384
-552.398	6.586	0.174	0.130
-551.383	504.072	-0.127	-0.295
-550.369	725.012	-0.029	0.078
-549.354	22.018	0.337	-0.276
-548.339	-59.289	-0.374	-0.162
-547.325	-200.000	-0.008	-0.083
-546.310	-200.000	0.021	-0.192
-545.296	134.482	-0.149	0.195
-544.281	-63.569	-0.175	-0.072
-543.266	-0.013	-0.060	0.043
-542.252	153.561	0.126	0.173
-541.237	800.000	-0.053	-0.203
-540.223	800.000	0.108	-0.347
-539.208	-200.000	0.004	-0.271
-538.193	-61.547	0.224	0.094
-537.179	-81.058	-0.224	0.074
-536.164	800.000	-0.061	-0.187
-535.150	-183.198	0.164	-0.003
-534.135	-78.859	0.394	0.135
-533.121	-22.769	-0.167	-0.101
-532.106	280.014	0.043	0.078
-531.091	53.607	0.327	0.315
-530.077	-200.000	0.001	0.092
-529.062	-18.651	0.150	0.094
-528.048	201.592	0.108	-0.167
-527.033	-0.109	0.090	-0.065
-526.018	-69.400	0.072	-0.028
-525.004	-72.618	0.405	0.150
-523.989	-200.000	0.003	0.195
-522.975	-200.000	-0.024	0.195
-521.960	-106.465	-0.143	0.032
-520.945	267.374	0.036	0.063
-519.931	73.138	0.361	-0.378
-518.916	800.000	-0.053	-0.168
-517.902	-34.242	0.366	-0.202
-516.887	31.448	-0.020	-0.017
-515.872	-12.336	-0.193	-0.127
-514.858	2.496	-0.285	-0.207
-513.843	-49.015	0.350	-0.168
-512.829	7.906	0.174	-0.131
-511.814	161.525	0.066	-0.092
-510.799	-200.000	-0.047	0.223
-509.785	21.757	-0.136	0.111
-508.770	-43.244	-0.055	0.028
-507.756	23.849	0.171	0.141
-506.741	-162.476	-0.214	-0.011
-505.726	800.000	0.079	0.301
-504.712	-200.000	-0.017	0.343
-503.697	131.804	0.079	-0.102
-502.683	-113.121	-0.181	-0.036
-501.668	43.747	0.318	0.292
-500.653	-106.189	0.273	-0.061
-499.639	-200.000	0.000	-0.068
-498.624	91.485	0.028	-0.032
-497.610	106.507	0.107	-0.127
-496.595	59.533	-0.188	-0.186
-495.581	128.667	-0.109	-0.139
-494.566	230.053	0.031	0.051
-493.551	67.869	0.042	-0.043
-492.537	-100.100	-0.025	-0.006
-491.522	-132.702	0.280	0.036
-490.508	63.552	-0.208	0.209
-489.493	-118.679	0.243	0.043
-488.478	-85.241	-0.127	0.040
-487.464	-135.416	-0.130	-0.016
-486.449	-91.614	-0.189	0.054
-485.435	593.595	0.135	0.335
-484.420	800.000	-0.029	-0.081
-483.405	-14.923	-0.221	-0.142
-482.391	169.656	0.258	-0.369
-481.376	183.683	-0.060	0.089
-480.362	-200.000	0.058	-0.306
-479.347	-200.000	0.030	-0.191
-478.332	-19.386	0.143	0.089
-477.318	215.829	0.073	-0.116
-476.303	106.203	-0.065	0.077
-475.289	-27.220	0.202	0.118
-474.274	185.711	0.037	-0.056
-473.259	-200.000	0.019	-0.472
-472.245	78.953	0.323	-0.346
-471.230	110.181	-0.147	0.177
-470.216	-200.000	-0.014	0.118
-469.201	-165.202	-0.200	-0.009
-468.186	1.172	0.015	-0.011
-467.172	273.727	-0.060	-0.106
-466.157	-74.839	-0.158	0.057
-465.143	62.188	0.082	0.082
-464.128	94.906	0.219	0.250
-463.113	380.984	0.029	0.059
-462.099	-106.749	0.374	-0.083
-461.084	-121.911	-0.248	0.041
-460.070	-108.934	-0.131	-0.028
-459.055	-200.000	0.048	-0.491
-458.040	112.120	-0.186	0.225
-457.026	42.275	0.255	-0.232
-456.011	-56.494	-0.296	-0.132
-454.997	160.658	0.154	-0.215
-453.982	-7.999	0.249	0.168
-452.968	-43.475	-0.089	-0.045
-451.953	725.192	-0.083	0.222
-450.938	-156.909	0.227	-0.014
-449.924	-136.781	0.387	0.045
-448.909	479.076	0.068	0.153
-447.895	-94.574	-0.367	0.100
-446.880	-7.855	-0.201	0.136
-445.865	-100.779	-0.125	-0.031
-444.851	-106.486	-0.268	0.060
-443.836	-41.378	-0.242	0.125
-442.822	367.382	-0.086	-0.174
-441.807	-200.000	0.012	0.055
-440.792	-119.272	-0.152	0.027
-439.778	-200.000	0.006	0.070
-438.763	-100.208	0.151	-0.038
-437.749	55.346	0.087	-0.084
-436.734	-24.539	0.158	-0.094
-435.719	288.736	0.155	0.281
-434.705	-2.917	-0.157	0.110
-433.690	40.121	0.104	0.094
-432.676	368.771	-0.076	-0.154
-431.661	12.564	-0.083	0.064
-430.646	221.335	0.122	-0.196
-429.632	800.000	-0.139	-0.409
-428.617	-103.195	-0.122	-0.029
-427.603	27.414	0.069	-0.058
-426.588	-200.000	0.059	0.279
-425.573	361.693	-0.127	0.254
-424.559	-34.092	0.143	0.079
-423.544	30.710	-0.409	-0.350
-422.530	-200.000	0.016	-0.359
-421.515	400.509	-0.121	-0.254
-420.500	-10.560	-0.028	0.019
-419.486	-147.414	-0.344	0.029
-418.471	-82.587	0.322	0.104
-417.457	60.186	-0.210	0.208
-416.442	245.919	0.169	0.284
-415.428	21.878	-0.144	0.118
-414.413	-200.000	-0.022	0.190
-413.398	-58.670	0.117	0.051
-412.384	47.690	-0.169	-0.158
-411.369	236.706	0.081	-0.135
-410.355	-87.673	0.066	-0.020
-409.340	38.378	0.074	-0.066
-408.325	724.611	0.033	-0.087
-407.311	-0.676	-0.171	-0.121
-406.296	-42.435	0.083	0.042
-405.282	-200.000	-0.029	0.335
-404.267	390.350	0.100	0.208
-403.252	800.000	0.073	0.269
-402.238	-171.766	0.185	-0.006
-401.223	-11.848	0.213	-0.139
-400.209	23.085	0.168	-0.138
-399.194	-200.000	0.005	0.126
-398.179	593.422	0.025	0.061
-397.165	-200.000	-0.007	0.266
-396.150	-200.000	0.002	0.444
-395.136	-88.667	0.285	0.085
-394.121	-200.000	0.004	-0.345
-393.106	-75.436	-0.225	-0.080
-392.092	-9.709	0.128	-0.085
-391.077	-81.296	-0.379	0.125
-390.063	-185.933	0.192	0.003
-389.048	0.782	0.162	-0.116
-388.033	-146.447	0.109	-0.009
-387.019	422.816	0.040	-0.087
-386.004	420.963	0.049	-0.105
-384.990	-200.000	-0.043	0.205
-383.975	231.956	0.065	-0.106
-382.960	-135.261	0.050	-0.006
-381.946	339.379	0.039	0.076
-380.931	-31.600	0.156	-0.088
-379.917	-91.274	0.091	0.026
-378.902	-200.000	0.006	-0.168
-377.888	-126.513	-0.187	-0.028
-376.873	174.492	0.217	0.312
-375.858	3.749	0.093	-0.068
-374.844	-200.000	0.017	-0.095
-373.829	373.532	-0.172	0.348
-372.815	-119.246	-0.272	-0.047
-371.800	-200.000	0.034	-0.319
-370.785	16.360	0.229	-0.181
-369.771	-105.843	0.368	0.083
-368.756	16.166	-0.291	-0.229
-367.742	-96.529	0.298	-0.079
-366.727	800.000	-0.065	-0.226
-365.712	-133.020	-0.299	-0.038
-364.698	800.000	0.122	0.346
-363.683	800.000	-0.080	-0.330
-362.669	82.230	-0.201	0.217
-361.654	-61.065	0.212	0.089
-360.639	-13.440	0.149	-0.096
-359.625	-35.273	0.350	0.190
-358.610	-200.000	-0.006	-0.136
-357.596	0.531	-0.175	0.125
-356.581	800.000	0.020	-0.070
-355.566	-24.411	-0.165	0.098
-354.552	153.181	0.265	0.362
-353.537	269.177	0.060	0.105
-352.523	-12.161	-0.039	0.025
-351.508	127.886	0.176	0.223
-350.493	-200.000	-0.002	0.086
-349.479	-200.000	0.006	0.043
-348.464	167.250	-0.053	-0.075
-347.450	-18.795	-0.199	-0.123
-346.435	-111.270	-0.377	-0.077
-345.420	158.870	-0.098	0.135
-344.406	15.445	-0.178	-0.139
-343.391	-56.770	0.226	-0.100
-342.377	12.300	0.036	0.027
-341.362	-49.875	-0.237	-0.112
-340.348	-77.277	0.227	-0.079
-339.333	-121.325	0.088	0.015
-338.318	103.470	-0.062	0.073
-337.304	184.227	-0.107	0.158
-336.289	800.000	0.066	-0.260
-335.275	-18.897	-0.197	-0.122
-334.260	-154.597	-0.289	0.019
-333.245	-117.424	0.149	-0.027
-332.231	-200.000	0.053	0.236
-331.216	-126.578	0.149	0.022
-330.202	336.295	0.110	-0.213
-329.187	176.599	0.174	-0.252
-328.172	87.581	-0.217	0.239
-327.158	-107.661	-0.292	-0.064
-326.143	-100.932	0.168	-0.041
-325.129	714.135	-0.124	-0.327
-324.114	498.205	-0.073	0.167
-323.099	-200.000	-0.054	0.311
-322.085	-200.000	0.052	0.284
-321.070	704.485	0.078	-0.204
-320.056	-152.159	-0.040	-0.003
-319.041	-11.638	-0.132	-0.086
-318.026	-59.517	0.232	-0.099
-317.012	-200.000	-0.042	-0.296
-315.997	-155.555	-0.068	-0.004
-314.983	-10.764	-0.148	0.097
-313.968	-47.616	0.283	-0.137
-312.953	47.566	-0.266	0.247
-311.939	-200.000	0.015	0.069
-310.924	-79.903	-0.234	-0.078
-309.910	-87.906	-0.215	-0.064
-308.895	-9.402	0.196	-0.130
-307.880	82.638	0.146	0.158
-306.866	-53.241	-0.225	0.103
-305.851	156.647	0.092	0.126
-304.837	-100.094	0.094	-0.023
-303.822	463.030	-0.106	0.235
-302.807	15.337	-0.136	-0.106
-301.793	-100.565	-0.200	0.049
-300.778	40.101	-0.280	0.250
-299.764	-58.452	0.123	0.053
-298.749	327.751	0.245	0.468
-297.735	163.075	-0.104	-0.145
-296.720	118.272	0.036	0.044
-295.705	-169.066	0.142	-0.005
-294.691	-144.096	-0.141	-0.013
-293.676	570.718	0.130	-0.315
-292.662	-200.000	0.015	0.194
-291.647	-198.535	-0.119	-0.001
-290.632	-35.887	0.147	0.079
-289.618	800.000	0.088	0.256
-288.603	-200.000	0.038	-0.280
-287.589	226.052	0.078	0.126
-286.574	800.000	0.048	0.176
-285.559	-87.934	0.207	0.062
-284.545	-200.000	0.024	-0.252
-283.530	148.332	-0.012	0.016
-282.516	356.932	-0.068	-0.135
-281.501	-150.179	0.280	-0.022
-280.486	52.081	0.237	0.224
-279.472	31.121	0.149	-0.127
-278.457	800.000	-0.032	0.138
-277.443	-125.492	0.379	0.057
-276.428	-200.000	-0.018	0.169
-275.413	-200.000	0.030	0.195
-274.399	329.933	-0.010	0.020
-273.384	344.480	-0.050	-0.098
-272.370	-18.915	-0.219	0.136
-271.355	800.000	-0.053	-0.166
-270.340	-84.206	-0.050	-0.016
-269.326	-53.948	-0.338	-0.153
-268.311	800.000	0.078	0.218
-267.297	800.000	-0.042	0.121
-266.282	358.779	-0.031	0.061
-265.267	-200.000	0.014	0.121
-264.253	-182.849	-0.142	0.003
-263.238	193.090	-0.057	-0.086
-262.224	799.690	0.044	0.121
-261.209	118.101	-0.089	0.109
-260.195	-200.000	0.016	-0.399
-259.180	-3.228	0.151	-0.105
-258.165	-200.000	-0.018	-0.334
-257.151	-136.637	-0.251	-0.029
-256.136	204.508	0.254	0.391
-255.122	-84.948	-0.161	0.050
-254.107	562.197	-0.017	-0.040
-253.092	6.019	-0.049	0.036
-252.078	101.109	-0.202	0.234
-251.063	-120.666	0.177	0.030
-250.049	176.289	0.091	0.131
-249.034	-200.000	-0.002	-0.133
-248.019	-93.989	0.236	0.064
-247.005	585.722	0.063	0.154
-245.990	800.000	0.009	0.035
-244.976	132.173	0.178	-0.227
-243.961	800.000	-0.031	0.098
-242.946	584.396	-0.082	-0.200
-241.932	6.067	0.185	0.136
-240.917	-174.951	-0.296	-0.008
-239.903	93.417	0.296	-0.333
-238.888	37.965	0.241	-0.212
-237.873	7.503	0.031	0.023
-236.859	185.392	0.189	0.278
-235.844	254.138	-0.149	0.253
-234.830	-80.456	0.088	-0.029
-233.815	-171.352	0.280	-0.009
-232.800	-46.388	-0.113	0.055
-231.786	-196.200	-0.255	-0.002
-230.771	188.458	0.189	0.281
-229.757	496.908	-0.013	0.030
-228.742	18.360	-0.136	-0.108
-227.727	-200.000	0.075	-0.329
-226.713	-102.157	-0.197	0.047
-225.698	-112.840	-0.128	0.025
-224.684	-29.796	0.354	-0.200
-223.669	209.935	0.102	0.159
-222.655	235.502	0.076	-0.124
-221.640	62.255	0.186	-0.184
-220.625	-196.214	0.205	0.001
-219.611	242.582	-0.069	0.114
-218.596	91.152	0.058	0.064
-217.582	-32.300	0.113	-0.063
-216.567	135.390	-0.179	-0.231
-215.552	-118.954	-0.198	0.034
-214.538	2.490	0.208	0.149
-213.523	-86.254	0.202	-0.062
-212.509	5.482	0.173	-0.127
-211.494	49.801	-0.032	0.030
-210.479	-30.350	0.263	0.148
-209.465	373.165	-0.172	0.347
-208.450	297.984	-0.068	-0.124
-207.436	-45.034	0.275	-0.136
-206.421	42.801	-0.197	0.178
-205.406	-77.653	-0.312	0.107
-204.392	65.414	-0.282	0.283
-203.377	-200.000	0.004	0.467
-202.363	-31.084	0.107	-0.060
-201.348	-27.656	0.014	-0.008
-200.333	800.000	0.060	0.229
-199.319	-60.791	0.173	-0.073
-198.304	-104.391	-0.139	0.032
-197.290	-84.141	0.131	-0.041
-196.275	-200.000	0.079	0.459
-195.260	296.006	-0.169	0.307
-194.246	429.413	-0.112	-0.239
-193.231	182.725	-0.063	-0.092
-192.217	-54.028	-0.112	-0.050
-191.202	69.027	0.358	-0.364
-190.187	43.372	0.097	-0.088
-189.173	-136.444	-0.080	-0.009
-188.158	-161.164	0.225	0.012
-187.144	-19.863	-0.256	-0.157
-186.129	-39.315	0.084	-0.044
-185.114	142.023	0.112	0.147
-184.100	800.000	0.062	0.223
-183.085	174.752	0.034	0.049
-182.071	5.684	-0.170	-0.124
-181.056	152.501	-0.060	0.081
-180.042	285.608	0.074	0.131
-179.027	54.976	-0.099	-0.095
-178.012	361.987	0.114	-0.225
-176.998	-200.000	-0.024	-0.209
-175.983	-87.371	-0.285	-0.085
-174.969	195.402	0.125	0.189
-173.954	-200.000	-0.043	-0.222
-172.939	-43.577	0.181	0.091
-171.925	76.241	0.049	0.051
-170.910	-66.361	0.233	0.092
-169.896	800.000	0.073	-0.205
-168.881	-46.905	-0.295	0.142
-167.866	-106.391	-0.293	0.065
-166.852	-200.000	-0.020	-0.139
-165.837	16.484	0.154	0.120
-164.823	117.818	0.127	-0.155
-163.808	-2.802	-0.071	-0.049
-162.793	152.115	0.176	0.237
-161.779	-50.315	-0.042	0.020
-160.764	-25.002	-0.103	0.060
-159.750	18.723	0.346	0.274
-158.735	-200.000	-0.031	-0.541
-157.720	66.426	0.220	0.221
-156.706	-6.382	-0.044	-0.030
-155.691	-200.000	-0.047	-0.244
-154.677	377.594	0.045	0.090
-153.662	17.345	-0.218	-0.171
-152.647	-126.374	-0.362	0.053
-151.633	-171.107	0.312	-0.010
-150.618	123.484	0.175	-0.217
-149.604	-200.000	-0.076	-0.452
-148.589	263.143	-0.050	-0.086
-147.574	-5.425	-0.145	-0.099
-146.560	147.338	-0.091	0.121
-145.545	-200.000	-0.005	-0.232
-144.531	71.870	0.244	0.251
-143.516	240.375	0.123	-0.202
-142.502	-70.489	-0.168	-0.063
-141.487	-1.315	-0.085	0.059
-140.472	20.984	0.204	-0.163
-139.458	-45.497	-0.104	0.051
-138.443	172.045	-0.143	-0.203
-137.429	800.000	0.031	0.091
-136.414	-59.717	-0.222	0.094
-135.399	800.000	-0.084	-0.299
-134.385	27.845	0.186	0.155
-133.370	-4.642	-0.471	0.321
-132.356	-127.534	-0.400	0.057
-131.341	-102.100	0.246	-0.058
-130.326	153.668	0.153	0.207
-129.312	800.000	-0.083	0.324
-128.297	285.266	0.053	-0.095
-127.283	-136.897	0.241	-0.027
-126.268	-43.797	-0.190	-0.094
-125.253	-186.724	-0.187	0.003
-124.239	-147.049	-0.192	-0.016
-123.224	-38.776	-0.214	0.112
-122.210	-138.699	-0.169	-0.018
-121.195	-108.989	-0.215	0.045
-120.180	252.747	0.153	0.258
