DTS Sentinel unit serial number:	SN413079Multiplexer serial number:	ORYXHardware model number:	OX4-SRSoftware version number:	ORYX F/W v4.00 Oryx Data Collector v3.7.2.0data status	okinstallation	princeton_trtdifferential loss correction	single-endedforward channel	channel 4reverse channel	N/Adate	2019/09/19time	03:49:35forward acquisition time	60.00reverse acquisition time	0.00gamma	496.2192k internal	0.2340k external	0.2340temperature offset calibration	1.0028default loss term (dB/km)	0.3790temperature slope calibration	1.0000multiplexer offset coefficient	1.0000multiplexer slope coefficient	1.0000fibre end	0.00T internal ref (°C)	20.50T ext. ref 1 (°C)	0.64T ext. ref 2 (°C)	14.35length (m)	temperature (°C)	Stokes	anti-Stokes-747.200	-104.611	-0.116	0.027
-746.185	286.378	0.156	0.281
-745.171	109.605	0.071	-0.085
-744.156	-13.874	0.215	0.139
-743.142	285.547	-0.075	-0.135
-742.127	-200.000	0.013	0.112
-741.112	51.683	0.181	-0.173
-740.098	4.439	0.135	0.099
-739.083	-44.680	-0.056	0.028
-738.069	800.000	-0.064	-0.188
-737.054	175.544	-0.048	-0.070
-736.039	215.863	-0.179	-0.285
-735.025	-11.447	0.019	0.012
-734.010	-86.455	-0.337	0.104
-732.996	-64.820	-0.229	0.093
-731.981	-9.176	-0.055	0.037
-730.966	-97.762	0.132	0.034
-729.952	-63.635	-0.284	0.117
-728.937	-22.831	-0.235	0.142
-727.923	-51.516	-0.253	-0.118
-726.908	111.784	0.074	-0.089
-725.894	107.361	-0.101	0.121
-724.879	8.294	0.129	-0.097
-723.864	114.072	-0.233	0.283
-722.850	-97.284	0.255	0.067
-721.835	-49.189	0.193	-0.093
-720.821	46.500	0.109	-0.101
-719.806	283.753	-0.030	-0.055
-718.791	-8.573	-0.097	-0.065
-717.777	-23.132	-0.225	0.136
-716.762	9.546	0.226	-0.171
-715.748	800.000	-0.086	-0.259
-714.733	-77.925	0.178	0.061
-713.718	-200.000	-0.018	-0.262
-712.704	17.807	0.189	0.151
-711.689	245.002	0.052	0.088
-710.675	-200.000	0.041	0.295
-709.660	800.000	-0.106	-0.398
-708.645	800.000	-0.054	0.230
-707.631	90.991	0.246	0.276
-706.616	128.131	0.067	0.086
-705.602	122.190	-0.220	0.276
-704.587	-51.545	0.162	-0.076
-703.572	201.848	0.108	-0.167
-702.558	-29.966	0.044	-0.025
-701.543	-26.800	-0.180	-0.105
-700.529	91.722	0.168	0.189
-699.514	113.092	-0.190	-0.231
-698.499	-9.836	-0.161	0.108
-697.485	7.201	0.078	-0.058
-696.470	-50.805	-0.119	-0.056
-695.456	-60.361	0.124	0.053
-694.441	-52.051	0.093	0.043
-693.426	-135.923	0.039	0.005
-692.412	244.868	-0.092	0.155
-691.397	800.000	0.033	-0.115
-690.383	-109.648	-0.299	-0.063
-689.368	411.397	-0.093	0.198
-688.354	119.986	0.067	0.083
-687.339	24.698	-0.136	-0.113
-686.324	-60.026	0.147	0.063
-685.310	-200.000	0.008	-0.102
-684.295	-93.408	-0.310	-0.086
-683.281	-200.000	0.021	0.233
-682.266	-200.000	-0.050	-0.228
-681.251	8.157	0.060	-0.045
-680.237	63.038	-0.165	-0.165
-679.222	-78.102	-0.242	-0.083
-678.208	-59.142	0.092	-0.040
-677.193	-66.771	0.102	0.040
-676.178	-146.223	0.219	-0.019
-675.164	3.547	-0.152	-0.110
-674.149	-50.692	-0.383	0.180
-673.135	800.000	0.098	-0.303
-672.120	-200.000	-0.026	0.153
-671.105	-1.984	-0.241	-0.170
-670.091	-31.923	-0.103	0.058
-669.076	-200.000	0.028	-0.181
-668.062	-200.000	0.027	-0.216
-667.047	0.990	0.191	0.137
-666.032	-70.200	0.068	-0.026
-665.018	-200.000	-0.011	0.052
-664.003	-200.000	0.024	0.214
-662.989	584.229	0.163	-0.400
-661.974	204.751	-0.132	-0.205
-660.959	181.639	0.112	0.165
-659.945	-200.000	0.037	-0.323
-658.930	-117.115	-0.301	0.055
-657.916	301.610	-0.073	0.136
-656.901	800.000	0.037	0.109
-655.886	4.899	-0.073	0.054
-654.872	-69.133	-0.249	0.096
-653.857	-91.212	-0.142	0.041
-652.843	-88.681	0.220	0.065
-651.828	800.000	-0.072	0.242
-650.814	-3.935	0.168	-0.116
-649.799	492.897	-0.137	-0.314
-648.784	800.000	-0.148	-0.450
-647.770	30.279	0.266	-0.227
-646.755	98.696	-0.145	0.167
-645.741	-159.723	0.300	-0.017
-644.726	-189.840	0.201	-0.002
-643.711	284.066	0.083	0.149
-642.697	-121.337	-0.208	0.035
-641.682	-92.233	0.216	-0.061
-640.668	-6.878	0.347	-0.235
-639.653	-178.351	0.162	-0.004
-638.638	0.261	-0.228	0.162
-637.624	5.808	-0.156	0.115
-636.609	-71.513	0.306	0.114
-635.595	20.285	-0.180	-0.145
-634.580	81.058	-0.259	0.279
-633.565	-200.000	0.018	-0.215
-632.551	800.000	-0.064	0.228
-631.536	-144.518	0.224	0.021
-630.522	121.274	-0.313	0.389
-629.507	589.929	-0.182	0.448
-628.492	104.014	-0.215	0.252
-627.478	-110.286	0.118	-0.025
-626.463	800.000	0.100	-0.277
-625.449	-62.624	-0.176	-0.073
-624.434	34.465	0.169	-0.147
-623.419	800.000	0.019	-0.079
-622.405	-47.557	0.238	-0.115
-621.390	295.796	0.018	0.033
-620.376	141.240	-0.112	-0.148
-619.361	168.538	-0.171	0.243
-618.346	-85.622	0.042	-0.013
-617.332	-123.438	0.257	0.041
-616.317	107.606	0.144	-0.171
-615.303	250.374	0.054	-0.092
-614.288	254.463	0.207	-0.353
-613.273	248.878	-0.135	0.228
-612.259	28.688	0.220	-0.186
-611.244	227.788	-0.226	0.367
-610.230	55.040	-0.104	-0.101
-609.215	-48.592	0.190	-0.091
-608.201	-108.715	-0.213	-0.046
-607.186	-80.820	0.307	-0.102
-606.171	-102.942	-0.287	-0.068
-605.157	-200.000	-0.049	-0.506
-604.142	277.085	-0.155	-0.274
-603.128	16.272	-0.290	-0.228
-602.113	143.759	0.278	0.369
-601.098	-170.495	-0.301	0.010
-600.084	77.786	0.292	0.311
-599.069	-200.000	-0.024	-0.227
-598.055	800.000	0.081	-0.245
-597.040	79.530	0.105	0.113
-596.025	-137.836	0.147	-0.016
-595.011	800.000	0.024	0.104
-593.996	-200.000	0.004	0.264
-592.982	-97.321	-0.368	0.096
-591.967	330.324	-0.045	-0.087
-590.952	800.000	0.087	0.254
-589.938	-200.000	0.036	-0.181
-588.923	800.000	-0.099	0.290
-587.909	-200.000	0.029	-0.128
-586.894	-31.712	-0.121	-0.067
-585.879	183.098	-0.207	0.305
-584.865	-182.510	-0.352	-0.006
-583.850	-106.139	-0.176	0.039
-582.836	204.201	0.188	0.290
-581.821	63.076	-0.182	-0.182
-580.806	187.706	-0.198	0.294
-579.792	800.000	0.015	-0.064
-578.777	-200.000	-0.010	-0.048
-577.763	-125.176	-0.023	-0.003
-576.748	-200.000	0.038	-0.395
-575.733	-60.234	-0.154	-0.065
-574.719	135.919	-0.040	0.052
-573.704	-111.136	-0.406	0.083
-572.690	-21.462	-0.046	-0.028
-571.675	-28.862	0.248	-0.142
-570.661	800.000	0.044	0.191
-569.646	-54.469	-0.108	-0.049
-568.631	49.425	-0.311	-0.292
-567.617	69.650	0.237	-0.243
-566.602	630.246	0.071	0.179
-565.588	800.000	-0.059	-0.183
-564.573	800.000	0.100	0.329
-563.558	106.188	0.115	0.135
-562.544	51.627	0.102	-0.097
-561.529	9.581	0.213	-0.160
-560.515	242.384	0.161	-0.269
-559.500	-2.966	-0.160	0.111
-558.485	-200.000	-0.000	0.157
-557.471	111.659	-0.172	0.207
-556.456	-112.651	-0.138	0.027
-555.442	-74.898	-0.168	0.060
-554.427	482.848	-0.143	-0.323
-553.412	702.809	-0.120	0.315
-552.398	-119.629	0.266	-0.046
-551.383	800.000	0.084	-0.233
-550.369	-200.000	-0.020	0.326
-549.354	139.316	0.279	-0.365
-548.339	376.823	0.038	0.077
-547.325	-200.000	0.030	-0.333
-546.310	615.682	0.069	-0.171
-545.296	-200.000	-0.050	-0.239
-544.281	-27.630	-0.403	-0.233
-543.266	129.782	-0.048	0.061
-542.252	-25.225	0.148	0.087
-541.237	-200.000	0.005	0.180
-540.223	-79.626	-0.147	-0.049
-539.208	-52.509	-0.167	-0.077
-538.193	-167.607	-0.253	-0.010
-537.179	109.942	-0.191	0.228
-536.164	266.050	0.091	0.158
-535.150	72.690	-0.061	0.064
-534.135	16.822	0.274	-0.216
-533.121	366.897	-0.057	0.115
-532.106	-120.967	-0.567	0.095
-531.091	62.954	0.263	0.261
-530.077	200.427	0.102	-0.156
-529.062	363.094	0.115	0.229
-528.048	-181.090	0.160	-0.003
-527.033	-122.873	-0.445	-0.071
-526.018	-62.663	-0.073	0.030
-525.004	-81.683	-0.146	0.048
-523.989	192.451	0.132	0.198
-522.975	-155.432	0.211	0.014
-521.960	-200.000	0.057	-0.268
-520.945	-108.239	-0.272	0.058
-519.931	-16.932	0.133	0.084
-518.916	-200.000	0.016	0.272
-517.902	49.790	-0.139	0.130
-516.887	310.860	0.081	0.150
-515.872	-43.732	-0.126	-0.063
-514.858	-200.000	-0.007	-0.185
-513.843	42.580	0.223	0.201
-512.829	-29.619	0.288	-0.163
-511.814	-100.452	0.064	0.016
-510.799	26.014	-0.137	0.114
-509.785	76.313	-0.226	-0.238
-508.770	185.418	0.238	-0.352
-507.756	662.201	-0.125	-0.320
-506.741	178.438	-0.095	-0.138
-505.726	-80.817	0.250	-0.083
-504.712	113.507	0.080	-0.096
-503.697	-9.828	-0.366	-0.242
-502.683	-200.000	0.039	-0.218
-501.668	-68.675	0.495	-0.190
-500.653	122.555	-0.253	-0.314
-499.639	-200.000	-0.023	0.233
-498.624	-200.000	-0.044	0.233
-497.610	-70.062	-0.177	-0.067
-496.595	1.789	-0.261	-0.187
-495.581	106.204	0.196	0.230
-494.566	-15.704	0.247	-0.156
-493.551	-52.751	0.107	0.049
-492.537	159.899	0.080	0.110
-491.522	372.994	-0.139	-0.280
-490.508	85.737	0.318	0.347
-489.493	-69.665	-0.134	0.051
-488.478	-200.000	-0.001	0.062
-487.464	-22.340	-0.166	-0.100
-486.449	-200.000	-0.025	-0.170
-485.435	800.000	0.013	0.038
-484.420	-1.706	-0.092	-0.064
-483.405	-200.000	-0.011	-0.218
-482.391	41.588	0.091	0.082
-481.376	521.885	-0.087	-0.204
-480.362	307.213	-0.112	0.208
-479.347	-21.677	0.015	0.009
-478.332	13.598	0.232	-0.179
-477.318	359.446	-0.130	0.258
-476.303	403.731	-0.083	-0.173
-475.289	93.320	-0.046	-0.051
-474.274	24.629	0.245	-0.201
-473.259	203.151	0.084	-0.129
-472.245	-200.000	0.029	-0.271
-471.230	-43.866	0.092	0.046
-470.216	-150.182	0.337	0.026
-469.201	23.740	-0.070	-0.057
-468.186	-13.578	-0.292	-0.188
-467.172	-82.608	-0.180	-0.058
-466.157	-200.000	0.010	-0.342
-465.143	-72.048	-0.110	0.040
-464.128	373.675	-0.089	0.180
-463.113	-4.507	-0.101	-0.069
-462.099	63.530	0.110	-0.109
-461.084	121.599	-0.046	0.057
-460.070	800.000	0.005	0.020
-459.055	-178.426	0.409	0.009
-458.040	-127.023	0.245	-0.036
-457.026	464.902	-0.048	-0.107
-456.011	-200.000	0.029	0.150
-454.997	-200.000	0.004	-0.119
-453.982	-98.469	-0.376	-0.095
-452.968	56.650	0.070	0.067
-451.953	-200.000	-0.011	-0.060
-450.938	-124.411	-0.035	0.005
-449.924	-125.508	0.161	-0.024
-448.909	124.524	-0.257	0.320
-447.895	800.000	-0.065	-0.251
-446.880	-121.849	-0.194	0.032
-445.865	306.998	-0.091	0.168
-444.851	800.000	-0.068	0.190
-443.836	-20.003	0.122	-0.074
-442.822	-200.000	0.020	0.130
-441.807	-200.000	-0.023	0.136
-440.792	800.000	0.059	-0.246
-439.778	-42.199	0.020	-0.010
-438.763	800.000	0.043	-0.171
-437.749	-18.056	0.140	-0.087
-436.734	-136.966	-0.123	-0.014
-435.719	-200.000	0.034	-0.215
-434.705	-35.682	-0.251	0.135
-433.690	7.652	-0.282	-0.209
-432.676	-76.766	0.154	-0.053
-431.661	-16.716	0.146	0.092
-430.646	188.109	-0.072	-0.106
-429.632	-200.000	-0.033	0.228
-428.617	-60.281	0.287	-0.121
-427.603	110.719	-0.055	-0.066
-426.588	517.343	-0.116	0.269
-425.573	44.368	0.152	0.139
-424.559	-200.000	0.020	0.255
-423.544	58.625	-0.258	0.251
-422.530	800.000	0.078	-0.271
-421.515	172.805	-0.177	-0.253
-420.500	-76.380	0.288	0.100
-419.486	415.055	-0.021	-0.044
-418.471	-4.276	0.442	0.303
-417.457	-200.000	0.027	-0.180
-416.442	-42.065	-0.080	-0.041
-415.428	310.000	0.028	0.052
-414.413	163.242	0.065	0.090
-413.398	800.000	-0.049	-0.135
-412.384	-116.188	-0.255	0.047
-411.369	194.606	0.104	0.155
-410.355	-21.892	0.303	-0.182
-409.340	-135.785	-0.494	0.058
-408.325	800.000	0.032	0.126
-407.311	290.004	0.090	0.161
-406.296	569.594	0.074	0.179
-405.282	-116.410	-0.182	-0.033
-404.267	192.910	0.084	-0.125
-403.252	691.699	0.096	0.248
-402.238	-200.000	0.061	-0.626
-401.223	800.000	0.056	-0.159
-400.209	-200.000	0.023	-0.201
-399.194	-200.000	-0.032	-0.233
-398.179	-200.000	0.036	0.216
-397.165	36.017	0.126	-0.109
-396.150	-104.079	-0.348	-0.080
-395.136	-30.293	-0.289	0.162
-394.121	319.886	0.114	0.215
-393.106	120.677	0.164	0.201
-392.092	45.722	0.160	0.146
-391.077	-11.523	0.237	0.154
-390.063	-130.669	0.127	0.017
-389.048	148.891	-0.263	-0.351
-388.033	-151.153	0.351	0.026
-387.019	-38.940	0.123	0.064
-386.004	-103.192	-0.253	-0.059
-384.990	8.720	-0.202	-0.150
-383.975	39.010	0.118	0.104
-382.960	-54.133	-0.198	0.089
-381.946	35.273	0.161	0.140
-380.931	104.189	-0.152	0.177
-379.917	155.757	-0.198	-0.270
-378.902	374.447	-0.182	0.367
-377.888	60.480	-0.238	-0.233
-376.873	-37.244	-0.200	-0.106
-375.858	800.000	-0.050	0.204
-374.844	214.981	0.185	0.290
-373.829	-61.532	0.169	-0.070
-372.815	100.068	0.155	0.177
-371.800	-200.000	-0.033	-0.322
-370.785	101.559	-0.229	-0.264
-369.771	766.680	-0.016	-0.042
-368.756	-157.953	0.164	-0.010
-367.742	-200.000	-0.005	-0.321
-366.727	-90.760	0.236	0.067
-365.712	325.494	-0.149	0.281
-364.698	719.657	0.159	0.418
-363.683	800.000	0.150	0.425
-362.669	-200.000	-0.010	0.390
-361.654	-151.823	-0.085	-0.006
-360.639	-98.629	0.123	0.031
-359.625	-110.031	-0.281	0.058
-358.610	476.011	-0.083	0.184
-357.596	127.387	-0.082	-0.102
-356.581	800.000	0.020	0.065
-355.566	-200.000	-0.022	-0.172
-354.552	-200.000	-0.022	-0.188
-353.537	195.261	-0.062	0.093
-352.523	-82.420	0.225	0.072
-351.508	253.168	0.047	0.079
-350.493	-109.663	0.198	-0.041
-349.479	-137.156	0.052	-0.006
-348.464	-141.983	0.173	0.017
-347.450	25.841	-0.164	-0.135
-346.435	12.427	0.174	-0.133
-345.420	110.289	-0.148	-0.175
-344.406	-77.755	0.106	0.036
-343.391	-200.000	-0.020	0.095
-342.377	280.457	0.116	-0.204
-341.362	-200.000	0.076	0.338
-340.348	585.598	0.074	-0.179
-339.333	73.416	-0.174	-0.180
-338.318	428.391	-0.015	-0.032
-337.304	-119.542	0.128	0.022
-336.289	90.657	0.200	0.221
-335.275	619.874	-0.111	0.276
-334.260	-200.000	-0.018	0.151
-333.245	-165.531	0.247	0.011
-332.231	-156.933	0.214	-0.013
-331.216	-96.347	0.177	0.046
-330.202	-152.393	-0.093	0.007
-329.187	-19.800	0.272	-0.166
-328.172	437.230	0.032	0.070
-327.158	227.418	-0.148	-0.238
-326.143	56.968	0.047	0.045
-325.129	79.208	-0.018	0.019
-324.114	121.368	0.140	0.172
-323.099	-3.360	-0.226	-0.155
-322.085	-200.000	0.004	0.158
-321.070	242.510	-0.039	-0.064
-320.056	194.308	-0.089	-0.132
-319.041	-60.546	0.257	-0.108
-318.026	313.994	-0.081	-0.150
-317.012	800.000	0.061	-0.177
-315.997	19.057	0.100	0.079
-314.983	112.338	-0.155	0.185
-313.968	152.764	-0.152	0.204
-312.953	215.540	-0.017	0.027
-311.939	-29.014	0.213	0.121
-310.924	-42.830	-0.093	-0.047
-309.910	-200.000	-0.010	0.051
-308.895	-166.717	0.144	0.006
-307.880	-102.368	-0.232	-0.055
-306.866	-156.038	0.132	-0.008
-305.851	-31.674	0.205	-0.113
-304.837	-54.525	-0.444	0.198
-303.822	782.855	0.095	0.257
-302.807	-33.588	-0.221	0.120
-301.793	649.469	-0.007	0.018
-300.778	-116.581	0.148	-0.027
-299.764	-50.173	-0.188	-0.088
-298.749	800.000	0.047	0.140
-297.735	-200.000	-0.012	0.136
-296.720	74.741	-0.136	-0.141
-295.705	-200.000	-0.003	-0.274
-294.691	-200.000	-0.058	0.288
-293.676	-200.000	-0.053	-0.237
-292.662	-184.145	0.330	-0.005
-291.647	388.755	-0.146	0.297
-290.632	-128.115	0.206	0.029
-289.618	70.906	-0.159	0.162
-288.603	299.777	0.073	0.132
-287.589	599.276	0.079	0.194
-286.574	-200.000	0.056	0.317
-285.559	-80.833	0.276	0.090
-284.545	4.941	-0.113	0.082
-283.530	68.316	-0.246	0.248
-282.516	-200.000	0.020	-0.170
-281.501	-200.000	-0.020	0.152
-280.486	362.912	-0.138	-0.273
-279.472	38.231	0.110	-0.097
-278.457	-79.865	0.172	-0.057
-277.443	-99.801	0.117	0.029
-276.428	634.247	-0.055	0.137
-275.413	800.000	-0.038	-0.109
-274.399	-68.783	0.037	0.014
-273.384	-79.982	0.240	-0.079
-272.370	-200.000	-0.036	0.167
-271.355	800.000	-0.034	-0.120
-270.340	-200.000	0.016	-0.142
-269.326	800.000	0.141	0.400
-268.311	224.592	-0.167	-0.266
-267.297	-200.000	0.005	0.153
-266.282	-0.590	0.386	-0.269
-265.267	-132.071	-0.139	0.018
-264.253	-200.000	0.010	-0.057
-263.238	-112.974	0.254	-0.049
-262.224	599.013	0.050	0.122
-261.209	90.416	0.231	-0.255
-260.195	356.942	-0.119	-0.233
-259.180	-23.603	-0.376	-0.222
-258.165	-61.221	0.031	0.013
-257.151	-200.000	-0.019	-0.294
-256.136	8.949	-0.143	0.106
-255.122	-200.000	0.173	-0.001
-254.107	41.954	0.113	0.100
-253.092	-41.043	-0.085	0.043
-252.078	-53.778	0.064	-0.029
-251.063	-105.107	0.045	-0.010
-250.049	135.593	-0.298	-0.381
-249.034	-200.000	0.006	0.299
-248.019	173.712	0.172	-0.244
-247.005	547.970	-0.141	0.332
-245.990	633.474	-0.131	0.326
-244.976	-200.000	-0.001	-0.187
-243.961	-144.513	0.384	0.035
-242.946	-200.000	-0.001	0.272
-241.932	319.776	-0.013	0.025
-240.917	-138.269	0.148	0.016
-239.903	800.000	0.038	-0.159
-238.888	-184.448	-0.133	-0.002
-237.873	-113.884	-0.349	0.067
-236.859	218.609	0.151	0.237
-235.844	-63.837	-0.187	0.075
-234.830	-200.000	0.011	0.214
-233.815	192.668	-0.165	-0.245
-232.800	-32.569	-0.234	-0.128
-231.786	-88.705	0.182	0.053
-230.771	624.610	0.076	-0.187
-229.757	252.140	-0.060	0.101
-228.742	-198.704	0.497	-0.003
-227.727	31.495	-0.277	-0.234
-226.713	-91.879	0.471	-0.131
-225.698	337.323	0.154	0.294
-224.684	131.687	-0.154	0.195
-223.669	-200.000	0.035	-0.364
-222.655	201.466	0.151	0.228
-221.640	-88.660	0.086	0.025
-220.625	598.884	-0.068	-0.166
-219.611	375.464	0.055	-0.110
-218.596	-145.568	0.399	0.035
-217.582	41.695	-0.219	0.194
-216.567	198.050	0.087	0.131
-215.552	800.000	0.060	-0.216
-214.538	-200.000	-0.013	-0.495
-213.523	8.960	-0.157	0.116
-212.509	-130.308	-0.434	-0.058
-211.494	800.000	-0.107	-0.381
-210.479	-87.619	-0.302	0.089
-209.465	-63.799	0.209	0.084
-208.450	764.633	0.071	0.189
-207.436	-200.000	0.008	-0.042
-206.421	-20.364	0.152	-0.092
-205.406	-200.000	-0.012	0.136
-204.392	-40.070	0.053	0.027
-203.377	243.673	-0.086	0.142
-202.363	131.584	-0.063	0.079
-201.348	-200.000	0.003	0.293
-200.333	105.180	-0.143	-0.165
-199.319	800.000	-0.016	-0.055
-198.304	-200.000	0.002	-0.036
-197.290	-164.041	0.177	-0.008
-196.275	99.962	0.084	0.096
-195.260	280.449	-0.091	0.159
-194.246	-146.429	-0.195	0.017
-193.231	-121.736	-0.052	0.008
-192.217	35.957	-0.144	-0.124
-191.202	-200.000	0.012	0.244
-190.187	56.541	-0.194	-0.185
-189.173	-200.000	0.033	0.144
-188.158	-169.866	-0.074	0.003
-187.144	97.649	-0.240	0.270
-186.129	-92.217	0.225	0.062
-185.114	-74.140	-0.303	-0.108
-184.100	118.122	0.201	0.243
-183.085	140.524	0.214	0.278
-182.071	537.593	-0.145	-0.339
-181.056	610.299	0.105	-0.258
-180.042	-1.950	-0.134	0.092
-179.027	-47.444	0.247	0.118
-178.012	800.000	-0.055	-0.187
-176.998	161.872	0.041	0.056
-175.983	516.434	0.186	-0.427
-174.969	-121.174	0.361	0.059
-173.954	371.413	-0.062	0.123
-172.939	-14.130	0.261	-0.165
-171.925	-18.899	-0.302	0.184
-170.910	-54.833	-0.170	-0.075
-169.896	-200.000	-0.007	0.165
-168.881	-130.582	0.180	0.024
-167.866	-102.300	-0.105	-0.025
-166.852	-200.000	0.005	-0.127
-165.837	616.449	-0.121	-0.297
-164.823	456.697	0.135	0.294
-163.808	-55.019	0.034	0.015
-162.793	-200.000	0.002	0.216
-161.779	-22.850	-0.206	0.122
-160.764	153.155	0.137	-0.183
-159.750	227.326	0.051	-0.081
-158.735	-134.413	-0.155	0.019
-157.720	17.110	-0.026	0.020
-156.706	-80.769	0.301	0.098
-155.691	35.488	-0.119	-0.103
-154.677	237.138	0.062	0.101
-153.662	-200.000	0.020	0.228
-152.647	-200.000	-0.009	0.239
-151.633	-64.656	-0.176	-0.070
-150.618	38.681	0.043	0.038
-149.604	203.088	0.235	0.355
-148.589	33.360	0.287	-0.244
-147.574	800.000	-0.070	-0.211
-146.560	-125.645	0.294	-0.044
-145.545	340.206	0.105	0.201
-144.531	-9.952	0.089	0.058
-143.516	591.466	-0.058	-0.140
-142.502	452.167	0.060	0.131
-141.487	-200.000	-0.069	0.549
-140.472	-132.528	-0.122	0.015
-139.458	-59.971	0.144	0.060
-138.443	-138.493	-0.223	0.024
-137.429	-104.637	0.227	-0.051
-136.414	164.403	-0.157	-0.216
-135.399	-134.886	-0.271	0.032
-134.385	79.725	0.346	0.364
-133.370	-200.000	-0.062	0.339
-132.356	568.590	0.025	-0.059
-131.341	-45.151	0.300	-0.146
-130.326	51.137	-0.104	0.097
-129.312	24.498	-0.142	0.115
-128.297	-185.021	-0.149	-0.002
-127.283	-200.000	-0.005	0.028
-126.268	96.472	0.161	0.181
-125.253	-200.000	-0.000	-0.112
-124.239	-200.000	-0.004	0.171
-123.224	450.337	0.032	-0.069
-122.210	-60.998	0.183	-0.076
-121.195	800.000	0.085	-0.274
-120.180	-109.931	0.200	-0.041
