DTS Sentinel unit serial number:	SN413079Multiplexer serial number:	ORYXHardware model number:	OX4-SRSoftware version number:	ORYX F/W v4.00 Oryx Data Collector v3.7.2.0data status	okinstallation	princeton_trtdifferential loss correction	single-endedforward channel	channel 4reverse channel	N/Adate	2019/09/15time	04:53:35forward acquisition time	60.00reverse acquisition time	0.00gamma	496.2192k internal	0.2311k external	0.2311temperature offset calibration	1.0040default loss term (dB/km)	0.3790temperature slope calibration	1.0000multiplexer offset coefficient	1.0000multiplexer slope coefficient	1.0000fibre end	0.00T internal ref (°C)	30.75T ext. ref 1 (°C)	4.82T ext. ref 2 (°C)	25.25length (m)	temperature (°C)	Stokes	anti-Stokes-747.200	-8.451	0.189	-0.129
-746.185	-200.000	-0.057	-0.369
-745.171	-74.261	0.474	0.174
-744.156	500.543	-0.217	0.508
-743.142	-120.113	-0.287	-0.050
-742.127	-86.716	-0.197	0.061
-741.112	52.301	-0.167	-0.161
-740.098	266.792	0.044	-0.078
-739.083	75.837	0.029	-0.031
-738.069	-75.979	-0.371	0.133
-737.054	-149.984	0.343	-0.027
-736.039	-66.270	-0.338	-0.136
-735.025	143.152	-0.097	0.131
-734.010	-106.268	-0.303	0.069
-732.996	8.560	-0.112	-0.085
-731.981	-110.839	0.149	0.031
-730.966	607.580	0.074	-0.186
-729.952	50.503	-0.122	0.117
-728.937	322.534	-0.076	0.146
-727.923	162.250	-0.067	0.095
-726.908	561.014	-0.103	0.254
-725.894	15.389	-0.108	-0.086
-724.879	63.571	-0.091	-0.092
-723.864	234.094	0.166	-0.277
-722.850	102.475	-0.227	0.269
-721.835	-200.000	0.001	-0.243
-720.821	-22.046	-0.107	0.066
-719.806	62.526	-0.124	-0.126
-718.791	-96.100	0.227	-0.061
-717.777	-73.997	-0.194	-0.071
-716.762	64.382	-0.139	-0.142
-715.748	322.456	0.047	-0.090
-714.733	-86.473	-0.306	-0.095
-713.718	800.000	-0.182	-0.548
-712.704	90.772	-0.085	0.096
-711.689	800.000	0.051	-0.194
-710.675	-57.582	-0.187	-0.083
-709.660	163.178	0.184	0.263
-708.645	6.891	0.181	0.137
-707.631	-107.382	0.077	-0.017
-706.616	800.000	-0.061	0.199
-705.602	789.353	-0.130	0.362
-704.587	507.514	0.044	0.104
-703.572	170.300	-0.170	-0.246
-702.558	-59.514	-0.163	0.071
-701.543	-103.885	-0.015	-0.004
-700.529	-92.833	-0.218	0.062
-699.514	-4.257	0.089	0.063
-698.499	-72.826	-0.186	0.069
-697.485	56.007	0.150	0.148
-696.470	18.473	-0.148	-0.120
-695.456	587.379	0.099	-0.247
-694.441	180.773	0.060	0.089
-693.426	32.449	0.123	-0.108
-692.412	-29.715	0.192	-0.111
-691.397	202.746	0.047	0.073
-690.383	-73.247	-0.148	0.055
-689.368	800.000	0.068	-0.286
-688.354	213.523	0.151	-0.241
-687.339	1.376	0.158	0.115
-686.324	-200.000	-0.046	0.244
-685.310	403.359	-0.144	-0.306
-684.295	-200.000	0.061	-0.316
-683.281	110.877	0.136	-0.166
-682.266	201.934	-0.218	-0.340
-681.251	-164.017	0.209	-0.010
-680.237	-200.000	0.006	-0.367
-679.222	384.127	0.080	0.167
-678.208	34.792	-0.098	-0.087
-677.193	-33.688	-0.095	-0.053
-676.178	251.718	0.246	0.424
-675.164	-52.964	0.092	-0.043
-674.149	-6.286	0.089	0.062
-673.135	46.576	0.097	-0.091
-672.120	800.000	-0.017	0.065
-671.105	434.002	-0.033	0.073
-670.091	227.494	0.063	-0.104
-669.076	-200.000	-0.043	0.299
-668.062	711.142	0.025	-0.068
-667.047	192.802	-0.197	-0.301
-666.032	-200.000	0.034	0.181
-665.018	800.000	0.018	-0.073
-664.003	107.158	-0.223	-0.268
-662.989	189.795	-0.117	-0.177
-661.974	108.690	-0.209	0.253
-660.959	800.000	-0.046	-0.194
-659.945	-185.831	-0.371	0.006
-658.930	-152.964	0.358	-0.026
-657.916	-145.714	-0.163	-0.015
-656.901	-66.852	-0.227	-0.091
-655.886	800.000	0.077	0.273
-654.872	-168.102	-0.468	-0.018
-653.857	-23.116	-0.093	-0.057
-652.843	45.325	-0.080	0.075
-651.828	699.802	-0.045	0.120
-650.814	-15.014	-0.231	0.150
-649.799	-145.214	-0.286	0.026
-648.784	-157.337	0.048	0.003
-647.770	24.589	0.121	0.101
-646.755	22.549	0.138	-0.114
-645.741	168.334	0.121	0.174
-644.726	-58.436	0.208	-0.091
-643.711	800.000	0.072	-0.299
-642.697	-200.000	0.012	-0.093
-641.682	-111.812	-0.331	-0.068
-640.668	-18.282	-0.270	-0.171
-639.653	618.568	0.033	-0.083
-638.638	349.836	0.087	-0.174
-637.624	54.220	0.180	0.175
-636.609	790.316	-0.082	-0.228
-635.595	-200.000	-0.049	-0.366
-634.580	-94.360	0.276	-0.076
-633.565	65.082	-0.120	-0.122
-632.551	650.244	-0.074	0.192
-631.536	-56.987	0.277	-0.124
-630.522	461.241	0.055	-0.125
-629.507	-13.996	-0.056	0.037
-628.492	497.385	-0.031	0.072
-627.478	800.000	0.055	-0.163
-626.463	-42.687	-0.303	0.156
-625.449	735.164	-0.058	-0.156
-624.434	-95.522	0.371	0.100
-623.419	-200.000	-0.044	-0.248
-622.405	800.000	-0.050	-0.190
-621.390	800.000	-0.098	0.352
-620.376	144.909	-0.301	0.406
-619.361	-59.075	0.169	0.074
-618.346	57.057	-0.204	-0.201
-617.332	-200.000	0.008	0.192
-616.317	329.942	0.095	0.184
-615.303	-200.000	-0.008	0.345
-614.288	114.364	0.177	0.218
-613.273	-76.641	0.336	-0.119
-612.259	-126.117	-0.274	0.041
-611.244	-90.398	0.208	-0.061
-610.230	15.515	-0.070	-0.056
-609.215	82.222	-0.091	-0.099
-608.201	-123.302	0.133	-0.022
-607.186	-200.000	0.025	-0.314
-606.171	-200.000	-0.008	0.231
-605.157	21.735	0.167	0.137
-604.142	-189.826	-0.235	-0.003
-603.128	349.299	-0.076	0.151
-602.113	-152.504	0.027	-0.002
-601.098	-19.615	-0.181	0.113
-600.084	89.011	-0.046	-0.051
-599.069	-101.670	0.151	-0.037
-598.055	-200.000	-0.007	-0.094
-597.040	-132.517	-0.236	0.031
-596.025	800.000	0.079	0.339
-595.011	-61.210	0.131	-0.056
-593.996	-106.844	0.061	-0.014
-592.982	-38.067	0.170	-0.091
-591.967	-72.326	-0.128	0.048
-590.952	194.156	-0.170	-0.259
-589.938	-38.847	-0.153	0.081
-588.923	-169.420	0.153	-0.006
-587.909	763.723	0.010	0.026
-586.894	-59.606	-0.146	-0.063
-585.879	66.894	0.070	0.072
-584.865	-73.538	0.119	0.044
-583.850	-43.540	-0.359	-0.183
-582.836	-200.000	0.113	-0.508
-581.821	468.394	0.112	-0.254
-580.806	130.462	-0.050	0.065
-579.792	373.628	-0.054	-0.112
-578.777	-105.917	-0.244	0.055
-577.763	-200.000	-0.009	0.257
-576.748	613.062	0.081	-0.205
-575.733	800.000	-0.100	-0.296
-574.719	-25.847	0.078	0.046
-573.704	-77.026	-0.172	-0.060
-572.690	145.044	-0.209	0.282
-571.675	-200.000	-0.022	0.119
-570.661	-28.268	0.384	0.224
-569.646	-200.000	0.033	0.148
-568.631	-61.962	-0.221	-0.093
-567.617	262.406	0.092	0.161
-566.602	-97.582	-0.232	-0.061
-565.588	-37.092	-0.170	-0.092
-564.573	182.089	-0.107	0.160
-563.558	-200.000	0.002	-0.020
-562.544	140.672	-0.153	0.204
-561.529	339.919	-0.207	-0.407
-560.515	212.290	-0.178	-0.282
-559.500	-200.000	0.009	-0.492
-558.485	-200.000	0.020	-0.312
-557.471	-139.072	-0.173	-0.019
-556.456	62.747	0.114	0.115
-555.442	800.000	0.006	0.021
-554.427	200.771	0.039	-0.060
-553.412	800.000	0.024	0.087
-552.398	-47.585	0.146	0.071
-551.383	-27.521	-0.131	-0.077
-550.369	30.485	-0.155	0.134
-549.354	-75.893	-0.170	-0.061
-548.339	-17.048	0.148	0.094
-547.325	40.776	-0.135	0.122
-546.310	-3.986	0.061	-0.042
-545.296	-200.000	-0.024	-0.146
-544.281	-138.022	-0.353	-0.040
-543.266	756.677	0.022	-0.060
-542.252	84.524	-0.261	0.288
-541.237	23.893	0.067	0.056
-540.223	-6.825	0.433	0.296
-539.208	800.000	-0.064	-0.258
-538.193	-58.956	0.168	-0.073
-537.179	-50.335	-0.038	0.018
-536.164	-135.520	0.091	-0.011
-535.150	-105.684	0.066	-0.015
-534.135	187.480	-0.106	0.159
-533.121	-21.208	-0.152	0.094
-532.106	-200.000	0.043	-0.408
-531.091	-200.000	-0.057	-0.675
-530.077	-45.418	0.185	0.092
-529.062	800.000	0.063	0.192
-528.048	546.832	0.054	-0.129
-527.033	-200.000	-0.037	-0.409
-526.018	-80.482	0.338	-0.114
-525.004	115.801	-0.148	0.182
-523.989	-200.000	0.002	-0.223
-522.975	-33.721	0.263	0.146
-521.960	68.637	0.103	-0.106
-520.945	-87.551	0.193	-0.059
-519.931	-16.339	0.125	0.080
-518.916	503.053	-0.174	0.406
-517.902	48.072	0.015	0.014
-516.887	-99.000	-0.206	-0.052
-515.872	-89.418	0.201	-0.060
-514.858	-103.181	0.148	0.035
-513.843	-45.636	-0.154	-0.077
-512.829	800.000	0.064	0.253
-511.814	-161.230	-0.145	-0.008
-510.799	145.134	0.055	0.074
-509.785	299.916	0.015	0.028
-508.770	-81.094	0.107	0.036
-507.756	-60.861	-0.415	0.177
-506.741	800.000	0.049	-0.178
-505.726	-100.367	0.156	0.039
-504.712	800.000	0.030	0.130
-503.697	22.363	-0.207	-0.170
-502.683	-73.668	-0.190	0.070
-501.668	439.566	-0.163	0.358
-500.653	156.101	-0.256	0.356
-499.639	212.693	0.062	-0.098
-498.624	-116.483	-0.135	0.025
-497.610	408.383	0.074	0.157
-496.595	-171.562	0.210	-0.007
-495.581	800.000	0.069	0.244
-494.566	-16.511	0.067	-0.043
-493.551	-113.680	-0.208	0.041
-492.537	-78.670	0.323	-0.111
-491.522	91.427	0.025	-0.028
-490.508	-54.464	0.052	-0.024
-489.493	-52.740	-0.349	-0.162
-488.478	10.680	0.117	-0.089
-487.464	62.626	0.031	0.031
-486.449	85.385	-0.080	0.088
-485.435	29.541	-0.014	0.012
-484.420	-5.686	-0.221	0.153
-483.405	-38.789	0.195	0.104
-482.391	121.447	0.098	0.122
-481.376	-16.070	-0.128	0.082
-480.362	409.839	-0.207	-0.441
-479.347	115.342	-0.267	0.328
-478.332	85.068	-0.159	0.175
-477.318	-153.450	-0.134	-0.009
-476.303	494.575	0.072	-0.167
-475.289	-200.000	0.002	-0.171
-474.274	-200.000	-0.030	0.452
-473.259	800.000	-0.011	0.045
-472.245	33.982	-0.117	-0.102
-471.230	-60.176	-0.249	-0.107
-470.216	800.000	-0.103	0.363
-469.201	101.046	-0.096	-0.112
-468.186	-184.014	0.237	0.004
-467.172	-42.020	0.320	-0.164
-466.157	136.576	-0.123	-0.161
-465.143	11.522	0.147	-0.113
-464.128	-67.851	-0.464	0.182
-463.113	-72.699	-0.263	0.097
-462.099	-200.000	-0.030	-0.297
-461.084	287.373	-0.105	-0.191
-460.070	23.637	0.066	0.054
-459.055	-125.561	0.128	-0.019
-458.040	36.860	0.108	-0.095
-457.026	291.346	0.049	-0.089
-456.011	63.817	0.190	0.192
-454.997	475.549	0.046	0.105
-453.982	-81.359	0.086	0.028
-452.968	-200.000	-0.036	0.201
-451.953	-200.000	-0.011	0.238
-450.938	800.000	0.039	0.148
-449.924	6.427	0.234	-0.175
-448.909	277.546	0.093	-0.166
-447.895	-123.121	-0.320	-0.051
-446.880	16.632	0.019	0.015
-445.865	-74.150	0.276	0.100
-444.851	179.544	-0.003	-0.004
-443.836	360.386	-0.211	-0.424
-442.822	536.247	0.169	-0.403
-441.807	439.880	-0.074	-0.161
-440.792	-141.236	0.219	0.022
-439.778	-49.699	0.339	0.162
-438.763	800.000	0.032	0.129
-437.749	-11.439	-0.267	-0.176
-436.734	-200.000	0.005	-0.221
-435.719	158.805	-0.063	-0.088
-434.705	-20.138	0.100	0.062
-433.690	-124.557	0.125	-0.019
-432.676	26.822	-0.259	-0.217
-431.661	-200.000	-0.003	0.052
-430.646	-7.501	0.249	0.169
-429.632	800.000	-0.028	0.095
-428.617	426.997	0.221	0.478
-427.603	-111.055	-0.323	0.066
-426.588	800.000	0.054	0.227
-425.573	800.000	-0.082	0.289
-424.559	-200.000	0.005	-0.154
-423.544	-64.264	0.205	0.084
-422.530	-62.983	0.267	-0.111
-421.515	51.464	-0.192	-0.183
-420.500	-69.300	0.152	0.058
-419.486	-56.057	0.136	0.061
-418.471	-200.000	0.047	0.223
-417.457	194.967	0.263	-0.401
-416.442	-78.917	-0.145	0.049
-415.428	-200.000	0.032	0.338
-414.413	59.153	-0.161	-0.159
-413.398	-161.401	0.376	-0.019
-412.384	-200.000	0.033	0.147
-411.369	80.669	0.166	-0.179
-410.355	-200.000	0.020	0.262
-409.340	780.676	-0.078	0.213
-408.325	-30.726	-0.006	0.003
-407.311	-113.285	-0.245	-0.048
-406.296	-30.409	-0.212	0.120
-405.282	596.482	0.091	0.226
-404.267	447.620	0.019	-0.042
-403.252	-200.000	-0.008	0.264
-402.238	-200.000	0.049	-0.300
-401.223	-200.000	-0.050	-0.222
-400.209	73.404	-0.137	0.144
-399.194	-104.249	0.138	-0.032
-398.179	292.510	0.103	-0.188
-397.165	800.000	0.064	-0.257
-396.150	-61.920	0.175	-0.073
-395.136	-200.000	0.003	0.301
-394.121	72.486	0.057	0.060
-393.106	-142.613	0.262	-0.026
-392.092	-103.794	-0.275	0.064
-391.077	-8.444	0.092	0.062
-390.063	3.473	-0.352	0.257
-389.048	-16.500	-0.090	-0.057
-388.033	-8.824	0.187	0.126
-387.019	-82.358	-0.174	-0.057
-386.004	-171.428	0.150	0.005
-384.990	113.114	-0.068	-0.083
-383.975	-93.125	-0.328	0.091
-382.960	226.678	0.051	0.083
-381.946	-6.130	0.265	0.181
-380.931	-159.379	0.106	-0.006
-379.917	202.564	-0.231	-0.356
-378.902	-67.522	0.408	0.160
-377.888	395.350	-0.040	0.083
-376.873	800.000	-0.084	-0.315
-375.858	28.034	0.137	-0.116
-374.844	-200.000	0.023	-0.194
-373.829	-22.473	0.068	-0.041
-372.815	-71.437	0.255	0.096
-371.800	151.579	0.056	0.076
-370.785	234.718	-0.111	-0.184
-369.771	-22.611	-0.091	-0.055
-368.756	-200.000	-0.003	-0.174
-367.742	260.762	0.050	-0.087
-366.727	-121.357	0.026	-0.004
-365.712	67.320	-0.307	-0.313
-364.698	560.275	0.161	-0.389
-363.683	-8.461	0.081	-0.055
-362.669	100.783	-0.020	-0.023
-361.654	176.783	0.088	-0.127
-360.639	196.187	0.126	-0.192
-359.625	-77.985	0.216	0.075
-358.610	-127.095	0.074	0.011
-357.596	138.396	-0.111	-0.145
-356.581	-200.000	0.052	-0.420
-355.566	401.356	0.137	-0.288
-354.552	65.080	-0.178	-0.180
-353.537	800.000	0.026	0.078
-352.523	-200.000	0.053	-0.318
-351.508	-154.467	0.250	0.017
-350.493	-36.981	0.263	0.141
-349.479	14.730	-0.111	0.087
-348.464	-200.000	-0.038	-0.328
-347.450	294.047	0.213	-0.389
-346.435	800.000	-0.078	-0.240
-345.420	-101.902	-0.140	0.034
-344.406	800.000	0.101	0.289
-343.391	-158.412	0.070	-0.004
-342.377	-145.914	0.210	0.019
-341.362	154.239	-0.075	-0.102
-340.348	-176.805	-0.396	0.010
-339.333	547.212	-0.177	-0.424
-338.318	800.000	0.046	-0.173
-337.304	-200.000	-0.031	0.352
-336.289	-111.978	0.482	-0.097
-335.275	-76.673	0.060	0.021
-334.260	0.218	-0.228	0.162
-333.245	-61.829	0.242	0.101
-332.231	-121.387	-0.178	0.030
-331.216	-135.003	-0.243	-0.029
-330.202	438.650	-0.183	0.399
-329.187	71.798	-0.201	-0.209
-328.172	-200.000	-0.063	0.293
-327.158	-200.000	0.004	0.029
-326.143	800.000	0.086	-0.244
-325.129	-94.394	0.068	0.018
-324.114	-46.687	0.117	0.057
-323.099	-7.775	0.219	-0.148
-322.085	29.749	0.074	0.063
-321.070	-97.596	0.095	0.025
-320.056	367.947	0.060	0.121
-319.041	182.393	0.097	0.142
-318.026	-84.119	0.145	0.046
-317.012	154.803	-0.041	-0.056
-315.997	-155.049	-0.188	-0.012
-314.983	4.806	-0.305	0.224
-313.968	68.450	-0.116	-0.118
-312.953	-200.000	0.008	0.544
-311.939	267.521	0.196	0.342
-310.924	396.076	-0.133	0.276
-309.910	55.325	-0.189	0.182
-308.895	-116.204	-0.345	0.064
-307.880	376.304	-0.117	0.237
-306.866	43.315	-0.313	-0.285
-305.851	-65.981	-0.066	-0.026
-304.837	263.498	-0.063	0.110
-303.822	-67.180	0.121	0.047
-302.807	126.979	-0.133	0.168
-301.793	37.203	0.242	0.214
-300.778	610.684	-0.025	0.063
-299.764	-104.877	0.300	0.069
-298.749	-91.982	-0.084	-0.024
-297.735	-165.337	-0.183	-0.008
-296.720	-116.830	0.111	-0.020
-295.705	-91.181	-0.202	0.058
-294.691	29.187	-0.202	0.171
-293.676	-44.110	0.263	-0.132
-292.662	-31.874	0.319	0.178
-291.647	332.404	-0.102	0.197
-290.632	-118.394	-0.083	0.015
-289.618	-200.000	0.019	0.209
-288.603	-104.830	0.355	-0.081
-287.589	104.864	0.225	0.265
-286.574	-120.401	-0.362	0.061
-285.559	29.815	-0.244	0.207
-284.545	232.340	-0.294	-0.482
-283.530	112.656	0.115	-0.139
-282.516	1.086	-0.263	0.188
-281.501	-148.823	0.398	0.032
-280.486	343.490	-0.065	0.127
-279.472	800.000	0.052	-0.188
-278.457	-79.977	-0.229	0.077
-277.443	-145.039	-0.462	-0.042
-276.428	-37.862	0.073	0.039
-275.413	165.448	-0.139	0.196
-274.399	-70.671	0.250	0.094
-273.384	-200.000	0.000	-0.275
-272.370	-7.940	0.169	-0.114
-271.355	800.000	-0.160	0.510
-270.340	-200.000	-0.016	-0.199
-269.326	-108.232	0.350	0.075
-268.311	-126.039	-0.353	-0.053
-267.297	-200.000	-0.026	-0.237
-266.282	460.676	0.115	-0.255
-265.267	15.983	-0.070	-0.055
-264.253	6.510	-0.165	-0.122
-263.238	129.565	0.160	-0.203
-262.224	-168.629	0.177	-0.007
-261.209	284.987	0.117	0.210
-260.195	64.034	0.164	0.164
-259.180	800.000	0.028	0.106
-258.165	34.523	0.225	-0.196
-257.151	-200.000	0.002	0.011
-256.136	-200.000	0.018	-0.208
-255.122	594.211	-0.051	-0.126
-254.107	-34.082	-0.077	-0.042
-253.092	-38.597	0.130	0.069
-252.078	196.937	0.122	-0.186
-251.063	228.716	0.083	-0.134
-250.049	-86.660	-0.271	0.083
-249.034	64.142	0.185	-0.185
-248.019	-200.000	0.011	-0.247
-247.005	-200.000	-0.021	-0.207
-245.990	800.000	-0.094	-0.296
-244.976	750.224	-0.075	-0.201
-243.961	-169.982	-0.479	0.017
-242.946	800.000	-0.047	-0.196
-241.932	800.000	0.085	-0.247
-240.917	29.227	0.223	0.188
-239.903	22.093	0.336	0.273
-238.888	516.995	-0.055	-0.128
-237.873	-53.978	0.200	-0.091
-236.859	-19.544	-0.089	-0.055
-235.844	344.817	-0.094	0.183
-234.830	-35.282	-0.314	-0.170
-233.815	-144.648	0.215	0.020
-232.800	5.541	-0.121	-0.089
-231.786	800.000	0.057	-0.225
-230.771	-91.765	0.076	0.022
-229.757	-200.000	-0.009	-0.167
-228.742	187.021	-0.098	-0.145
-227.727	-200.000	-0.014	0.097
-226.713	-154.677	0.222	0.015
-225.698	22.827	0.143	0.116
-224.684	-98.526	0.174	-0.044
-223.669	-200.000	-0.041	0.400
-222.655	-123.469	-0.432	0.068
-221.640	-136.892	0.295	-0.034
-220.625	62.749	0.213	-0.212
-219.611	-200.000	0.009	0.104
-218.596	644.686	-0.062	0.157
-217.582	171.921	0.033	-0.048
-216.567	-96.365	-0.219	0.057
-215.552	45.553	0.122	0.112
-214.538	38.190	-0.295	0.261
-213.523	137.738	-0.128	0.167
-212.509	-118.782	-0.382	-0.067
-211.494	23.221	0.162	0.132
-210.479	-144.214	-0.107	0.010
-209.465	-91.046	-0.299	0.085
-208.450	99.536	-0.079	0.091
-207.436	242.770	-0.073	-0.122
-206.421	800.000	0.072	0.267
-205.406	98.176	0.093	-0.106
-204.392	439.025	-0.107	0.233
-203.377	-105.067	-0.266	-0.061
-202.363	-200.000	0.027	0.134
-201.348	89.013	0.116	0.128
-200.333	-200.000	-0.009	0.159
-199.319	218.823	-0.089	0.142
-198.304	18.409	0.323	-0.257
-197.290	45.524	-0.087	0.080
-196.275	-43.214	0.438	0.221
-195.260	-23.685	-0.145	0.086
-194.246	-200.000	-0.001	-0.124
-193.231	56.558	-0.138	0.134
-192.217	-47.645	-0.340	0.164
-191.202	-200.000	-0.010	0.063
-190.187	-200.000	0.005	-0.253
-189.173	800.000	0.049	0.204
-188.158	238.567	0.075	-0.124
-187.144	-87.235	0.242	-0.073
-186.129	-51.611	0.133	-0.061
-185.114	-46.541	-0.320	-0.156
-184.100	67.932	0.276	-0.280
-183.085	433.151	-0.201	-0.432
-182.071	-153.590	0.248	0.017
-181.056	109.061	-0.099	-0.117
-180.042	124.278	0.061	-0.076
-179.027	483.027	0.073	0.164
-178.012	-200.000	0.024	0.327
-176.998	-200.000	0.019	-0.216
-175.983	-86.396	-0.078	0.024
-174.969	-38.272	0.314	0.165
-173.954	-72.278	0.116	0.043
-172.939	-98.954	-0.172	0.043
-171.925	41.004	0.335	-0.300
-170.910	113.279	-0.098	0.118
-169.896	-57.315	-0.262	-0.114
-168.881	-200.000	-0.043	-0.231
-167.866	206.770	-0.132	0.204
-166.852	0.659	0.156	0.111
-165.837	-167.883	0.088	-0.003
-164.823	137.608	0.062	0.080
-163.808	-55.213	0.209	0.093
-162.793	514.927	0.018	-0.041
-161.779	-137.885	-0.395	0.044
-160.764	-200.000	0.034	0.246
-159.750	800.000	-0.113	0.329
-158.735	-200.000	0.174	0.000
-157.720	-13.108	0.188	0.121
-156.706	-118.964	0.209	0.036
-155.691	506.870	-0.047	-0.108
-154.677	52.321	0.190	0.180
-153.662	142.916	0.098	0.129
-152.647	9.213	0.339	0.254
-151.633	144.010	-0.217	0.287
-150.618	43.010	0.163	0.147
-149.604	-44.522	-0.189	0.094
-148.589	242.495	0.071	0.118
-147.574	378.476	0.097	0.198
-146.560	-200.000	0.020	0.177
-145.545	-95.724	0.319	0.084
-144.531	-9.930	0.172	-0.113
-143.516	666.054	-0.065	-0.167
-142.502	-116.902	0.330	0.060
-141.487	-99.190	-0.189	0.047
-140.472	800.000	0.053	-0.211
-139.458	39.151	-0.123	-0.109
-138.443	370.927	0.081	-0.164
-137.429	-71.745	0.099	-0.036
-136.414	-65.927	0.286	-0.113
-135.399	140.521	-0.190	0.248
-134.385	-17.876	-0.199	-0.124
-133.370	31.277	-0.149	0.127
-132.356	145.467	0.061	-0.081
-131.341	-200.000	0.005	-0.234
-130.326	143.549	0.119	-0.157
-129.312	52.139	-0.184	-0.174
-128.297	337.944	0.075	0.145
-127.283	-200.000	-0.004	-0.332
-126.268	-200.000	-0.006	0.168
-125.253	129.401	0.067	-0.085
-124.239	-121.825	-0.206	0.034
-123.224	-200.000	-0.025	-0.191
-122.210	-200.000	-0.044	0.226
-121.195	45.921	0.204	-0.187
-120.180	227.671	0.030	-0.048
