DTS Sentinel unit serial number:	SN413079Multiplexer serial number:	ORYXHardware model number:	OX4-SRSoftware version number:	ORYX F/W v4.00 Oryx Data Collector v3.7.2.0data status	okinstallation	princeton_trtdifferential loss correction	single-endedforward channel	channel 4reverse channel	N/Adate	2019/09/17time	12:25:35forward acquisition time	60.00reverse acquisition time	0.00gamma	496.2192k internal	0.2304k external	0.2304temperature offset calibration	0.9992default loss term (dB/km)	0.3790temperature slope calibration	1.0000multiplexer offset coefficient	1.0000multiplexer slope coefficient	1.0000fibre end	0.00T internal ref (°C)	31.77T ext. ref 1 (°C)	0.43T ext. ref 2 (°C)	28.90length (m)	temperature (°C)	Stokes	anti-Stokes-747.200	-123.781	0.145	0.023
-746.185	147.229	-0.186	0.255
-745.171	218.800	-0.131	-0.213
-744.156	-166.382	0.205	-0.009
-743.142	-83.296	0.121	-0.039
-742.127	7.282	-0.155	0.118
-741.112	-200.000	0.004	0.314
-740.098	-41.312	-0.072	0.038
-739.083	-99.625	0.028	0.007
-738.069	-114.728	-0.038	-0.007
-737.054	56.346	-0.105	0.104
-736.039	-156.697	-0.313	-0.020
-735.025	-126.206	-0.096	-0.015
-734.010	73.357	-0.287	0.306
-732.996	800.000	-0.101	-0.381
-731.981	-6.087	-0.150	-0.105
-730.966	236.273	0.115	-0.194
-729.952	108.690	-0.259	-0.315
-728.937	-129.393	-0.520	-0.073
-727.923	-84.920	-0.457	-0.146
-726.908	-20.508	0.135	0.084
-725.894	-200.000	0.013	-0.084
-724.879	207.902	-0.076	0.121
-723.864	-130.717	0.105	0.014
-722.850	-200.000	-0.037	-0.235
-721.835	86.611	-0.136	0.152
-720.821	234.685	-0.140	-0.235
-719.806	-200.000	-0.023	-0.178
-718.791	-200.000	-0.057	0.281
-717.777	800.000	0.059	-0.192
-716.762	211.650	0.039	-0.063
-715.748	-26.989	-0.295	0.175
-714.733	-16.888	-0.214	-0.138
-713.718	800.000	0.063	0.198
-712.704	-125.398	-0.302	-0.047
-711.689	-88.772	0.044	-0.013
-710.675	157.488	-0.080	0.112
-709.660	-152.732	-0.381	-0.028
-708.645	-160.224	0.130	-0.007
-707.631	-5.677	-0.299	-0.209
-706.616	222.458	0.145	-0.238
-705.602	-36.987	0.276	-0.150
-704.587	26.805	0.220	0.187
-703.572	-49.506	0.299	-0.145
-702.558	-131.798	-0.181	-0.024
-701.543	-67.259	0.102	0.041
-700.529	-200.000	0.014	0.073
-699.514	112.596	-0.241	-0.296
-698.499	-115.016	-0.303	-0.058
-697.485	-200.000	0.046	-0.236
-696.470	75.510	-0.130	-0.140
-695.456	-200.000	-0.024	-0.144
-694.441	84.192	-0.241	-0.268
-693.426	-74.083	0.206	-0.076
-692.412	240.117	0.164	-0.278
-691.397	336.727	0.044	-0.087
-690.383	-200.000	0.028	0.128
-689.368	-200.000	0.029	-0.179
-688.354	-123.697	0.143	0.023
-687.339	-25.542	0.165	-0.099
-686.324	-119.591	-0.354	-0.062
-685.310	-95.965	-0.068	0.019
-684.295	393.874	-0.120	-0.255
-683.281	9.349	-0.422	-0.325
-682.266	-200.000	0.019	-0.262
-681.251	-118.581	0.119	0.021
-680.237	-99.989	-0.322	-0.082
-679.222	-71.149	-0.207	-0.079
-678.208	-55.297	-0.282	0.129
-677.193	-65.414	0.176	-0.072
-676.178	176.557	-0.020	0.030
-675.164	213.632	-0.178	-0.287
-674.149	375.497	-0.140	-0.291
-673.135	-200.000	-0.059	0.323
-672.120	-92.966	0.204	-0.058
-671.105	66.611	-0.082	0.084
-670.091	41.251	-0.240	-0.220
-669.076	32.920	0.264	-0.232
-668.062	-200.000	0.187	0.000
-667.047	148.578	0.075	-0.103
-666.032	630.435	-0.119	-0.307
-665.018	5.093	-0.031	-0.023
-664.003	8.980	0.145	-0.111
-662.989	124.741	-0.211	0.270
-661.974	800.000	-0.136	0.415
-660.959	-77.494	-0.208	-0.073
-659.945	377.173	-0.107	0.223
-658.930	-146.057	0.093	-0.008
-657.916	-3.938	-0.113	-0.080
-656.901	-20.925	-0.147	0.092
-655.886	119.301	-0.095	0.119
-654.872	-82.704	-0.230	0.076
-653.857	-66.850	0.407	-0.163
-652.843	417.401	0.114	-0.246
-651.828	-63.863	-0.195	-0.081
-650.814	800.000	0.058	-0.168
-649.799	-200.000	0.071	-0.344
-648.784	-119.598	-0.030	0.005
-647.770	184.560	0.124	0.186
-646.755	-34.822	0.112	0.062
-645.741	-188.404	-0.101	0.001
-644.726	-90.584	0.392	0.115
-643.711	800.000	-0.078	-0.296
-642.697	308.763	-0.086	0.162
-641.682	-175.276	-0.150	-0.004
-640.668	-62.553	0.108	0.046
-639.653	-200.000	0.024	0.113
-638.638	79.738	-0.165	-0.180
-637.624	86.525	0.127	-0.142
-636.609	201.284	-0.023	-0.036
-635.595	196.386	0.008	-0.012
-634.580	702.766	0.012	-0.032
-633.565	-136.115	-0.252	0.030
-632.551	43.817	-0.126	-0.117
-631.536	59.424	0.215	-0.215
-630.522	-22.895	0.206	0.126
-629.507	800.000	-0.141	0.461
-628.492	-60.606	0.110	0.047
-627.478	-200.000	0.049	0.227
-626.463	524.033	-0.122	-0.290
-625.449	92.655	-0.224	-0.256
-624.434	-93.024	-0.219	0.062
-623.419	-30.705	0.012	0.007
-622.405	156.414	0.181	0.254
-621.390	-115.815	-0.291	-0.055
-620.376	-200.000	0.030	0.154
-619.361	-99.814	-0.061	-0.015
-618.346	16.075	-0.115	0.092
-617.332	42.404	-0.140	0.129
-616.317	103.323	0.130	0.154
-615.303	-134.861	-0.168	0.021
-614.288	79.676	-0.166	0.180
-613.273	294.954	-0.138	0.256
-612.259	4.299	0.132	0.098
-611.244	-55.048	0.097	-0.044
-610.230	237.939	0.039	0.065
-609.215	277.550	-0.228	-0.412
-608.201	184.571	0.088	0.133
-607.186	-200.000	0.022	-0.116
-606.171	-200.000	-0.021	0.200
-605.157	-102.155	0.132	-0.032
-604.142	-61.140	0.105	-0.045
-603.128	-0.797	-0.169	0.121
-602.113	58.318	-0.231	0.229
-601.098	56.172	-0.049	0.049
-600.084	204.020	0.103	0.162
-599.069	65.373	-0.134	-0.138
-598.055	-110.578	0.337	-0.071
-597.040	49.532	-0.153	0.146
-596.025	-200.000	-0.002	-0.119
-595.011	74.014	-0.093	-0.099
-593.996	-161.998	-0.238	-0.012
-592.982	35.382	0.231	-0.205
-591.967	-34.219	-0.230	0.128
-590.952	-85.665	0.369	-0.116
-589.938	56.576	0.058	-0.057
-588.923	183.043	0.035	0.052
-587.909	43.582	-0.084	0.078
-586.894	800.000	0.087	0.335
-585.879	-140.023	0.359	-0.038
-584.865	266.176	-0.145	0.256
-583.850	-38.469	0.072	0.038
-582.836	-115.058	0.434	-0.083
-581.821	32.556	-0.168	-0.147
-580.806	-200.000	0.340	0.001
-579.792	36.138	-0.256	-0.228
-578.777	-200.000	-0.008	0.150
-577.763	-83.564	-0.308	0.100
-576.748	-158.796	-0.396	-0.023
-575.733	238.669	0.159	-0.268
-574.719	54.604	0.173	0.169
-573.704	-42.699	0.194	-0.100
-572.690	215.187	-0.071	0.115
-571.675	-80.718	-0.254	0.086
-570.661	117.037	0.074	-0.092
-569.646	87.034	-0.241	0.269
-568.631	-200.000	-0.029	-0.351
-567.617	-67.791	-0.208	0.082
-566.602	-123.995	0.344	0.055
-565.588	800.000	-0.042	0.133
-564.573	178.618	-0.150	-0.221
-563.558	-28.947	0.138	-0.080
-562.544	-40.797	-0.490	0.256
-561.529	99.021	-0.090	0.105
-560.515	3.452	-0.201	-0.148
-559.500	64.700	0.128	0.131
-558.485	428.737	-0.120	-0.261
-557.471	460.263	-0.067	0.151
-556.456	-117.629	-0.188	-0.034
-555.442	174.872	0.237	0.346
-554.427	24.723	-0.294	0.246
-553.412	7.045	0.094	0.071
-552.398	346.173	-0.178	-0.354
-551.383	0.949	0.107	0.078
-550.369	616.770	-0.088	0.223
-549.354	800.000	0.024	-0.104
-548.339	377.632	0.075	-0.154
-547.325	-200.000	-0.022	0.139
-546.310	-10.888	0.160	-0.107
-545.296	427.127	0.149	0.324
-544.281	-200.000	0.019	-0.130
-543.266	-5.160	-0.149	0.103
-542.252	-200.000	0.060	-0.361
-541.237	63.913	-0.182	-0.185
-540.223	800.000	0.072	0.209
-539.208	95.329	0.079	-0.091
-538.193	-200.000	-0.001	0.520
-537.179	354.873	-0.161	0.323
-536.164	151.680	-0.190	-0.261
-535.150	210.565	-0.083	-0.132
-534.135	-159.469	-0.099	0.006
-533.121	712.399	-0.031	-0.082
-532.106	-48.963	-0.291	0.141
-531.091	-188.412	0.152	-0.002
-530.077	-123.360	0.231	-0.037
-529.062	-177.948	0.221	0.005
-528.048	800.000	0.110	-0.326
-527.033	-64.215	-0.276	-0.114
-526.018	-112.009	0.241	0.049
-525.004	-68.195	-0.234	-0.092
-523.989	22.659	0.078	-0.065
-522.975	231.268	-0.093	0.154
-521.960	120.130	-0.068	0.085
-520.945	-104.534	0.174	0.040
-519.931	-43.713	0.119	-0.061
-518.916	63.091	0.176	0.178
-517.902	157.239	-0.179	0.249
-516.887	-69.159	-0.203	0.079
-515.872	-106.450	0.234	-0.053
-514.858	800.000	0.040	-0.173
-513.843	289.575	-0.101	0.184
-512.829	471.842	0.299	-0.680
-511.814	589.397	-0.080	-0.198
-510.799	-167.061	0.159	-0.007
-509.785	800.000	0.012	0.043
-508.770	456.935	0.091	0.203
-507.756	522.486	-0.109	0.258
-506.741	-143.137	0.210	0.020
-505.726	-54.128	-0.186	-0.085
-504.712	-200.000	0.017	0.114
-503.697	243.318	0.060	0.102
-502.683	-117.400	-0.245	0.045
-501.668	94.508	0.115	-0.132
-500.653	-200.000	-0.009	0.356
-499.639	-200.000	-0.038	-0.311
-498.624	-106.330	-0.201	-0.045
-497.610	12.153	-0.177	0.138
-496.595	-2.307	0.184	-0.130
-495.581	-69.071	-0.097	-0.038
-494.566	18.323	-0.155	-0.125
-493.551	97.565	0.166	0.192
-492.537	380.312	-0.075	-0.154
-491.522	-144.060	0.417	-0.039
-490.508	-34.305	0.020	-0.011
-489.493	144.496	-0.128	-0.172
-488.478	-104.249	0.308	-0.072
-487.464	7.674	-0.193	0.146
-486.449	28.940	-0.074	0.064
-485.435	391.786	0.089	0.186
-484.420	-92.915	-0.139	0.039
-483.405	289.507	-0.119	-0.218
-482.391	-92.202	0.273	-0.078
-481.376	-200.000	0.044	-0.234
-480.362	-177.256	0.386	-0.010
-479.347	-85.009	0.178	-0.056
-478.332	800.000	-0.074	0.300
-477.318	-107.935	-0.147	0.032
-476.303	14.461	0.035	0.027
-475.289	-63.307	-0.173	0.072
-474.274	541.290	0.026	-0.062
-473.259	215.108	0.144	0.231
-472.245	293.183	0.045	-0.082
-471.230	-200.000	0.018	-0.086
-470.216	-109.308	-0.201	-0.043
-469.201	-200.000	0.019	0.559
-468.186	-8.756	-0.232	-0.157
-467.172	-160.672	0.210	0.011
-466.157	250.098	-0.160	-0.273
-465.143	-200.000	0.007	-0.211
-464.128	14.506	-0.220	0.173
-463.113	800.000	0.013	0.036
-462.099	800.000	-0.049	0.206
-461.084	106.180	0.150	0.179
-460.070	-18.640	0.076	0.048
-459.055	-200.000	-0.013	0.073
-458.040	-2.626	0.152	0.107
-457.026	21.195	0.260	0.212
-456.011	61.909	-0.275	-0.276
-454.997	221.009	-0.148	0.239
-453.982	-47.567	0.193	-0.095
-452.968	-155.041	-0.026	0.002
-451.953	-88.024	0.105	-0.032
-450.938	-200.000	0.022	-0.122
-449.924	80.168	0.038	0.041
-448.909	-138.460	0.154	-0.017
-447.895	161.903	0.090	0.127
-446.880	-62.802	0.209	0.087
-445.865	71.191	-0.115	-0.120
-444.851	-25.338	0.226	0.135
-443.836	11.672	0.308	0.238
-442.822	-67.668	0.175	-0.069
-441.807	-60.654	0.116	0.050
-440.792	-164.358	0.108	0.005
-439.778	-200.000	-0.015	0.350
-438.763	-8.937	-0.085	0.057
-437.749	800.000	0.118	-0.432
-436.734	-103.645	0.496	-0.117
-435.719	-200.000	0.019	0.117
-434.705	-62.496	-0.092	0.038
-433.690	95.627	0.146	-0.167
-432.676	-200.000	-0.044	0.459
-431.661	800.000	-0.031	0.134
-430.646	-200.000	-0.018	0.145
-429.632	187.432	-0.136	-0.204
-428.617	-175.105	0.105	0.003
-427.603	13.500	-0.305	-0.238
-426.588	-200.000	0.029	-0.172
-425.573	-200.000	0.012	0.155
-424.559	-200.000	0.059	-0.306
-423.544	-200.000	-0.032	0.304
-422.530	-175.293	-0.090	0.002
-421.515	46.483	0.130	-0.121
-420.500	-62.831	0.083	0.034
-419.486	72.444	0.077	-0.081
-418.471	-2.507	-0.221	0.155
-417.457	-200.000	-0.025	0.405
-416.442	202.167	-0.073	-0.113
-415.428	-119.145	0.221	-0.039
-414.413	-82.113	-0.221	0.073
-413.398	135.916	0.074	0.097
-412.384	422.339	-0.054	0.116
-411.369	88.535	0.154	-0.172
-410.355	-99.137	-0.495	0.126
-409.340	-33.078	0.186	-0.104
-408.325	-57.609	-0.378	0.167
-407.311	800.000	0.037	-0.103
-406.296	800.000	0.130	0.396
-405.282	224.137	-0.055	0.089
-404.267	12.831	-0.263	-0.204
-403.252	800.000	0.059	-0.243
-402.238	-200.000	-0.069	0.308
-401.223	63.797	0.158	0.159
-400.209	-91.335	-0.045	0.013
-399.194	2.998	-0.226	-0.165
-398.179	-78.577	-0.173	0.059
-397.165	12.319	0.222	-0.172
-396.150	120.636	-0.304	-0.379
-395.136	800.000	0.131	-0.367
-394.121	-200.000	-0.004	-0.272
-393.106	249.776	0.098	-0.166
-392.092	174.901	-0.055	0.080
-391.077	405.826	0.141	-0.299
-390.063	-200.000	-0.039	-0.174
-389.048	-200.000	-0.075	0.428
-388.033	-146.276	0.278	-0.025
-387.019	36.143	0.194	0.171
-386.004	-111.326	0.190	-0.039
-384.990	800.000	0.060	-0.179
-383.975	-121.168	-0.234	0.039
-382.960	-88.081	0.160	-0.048
-381.946	-200.000	0.003	0.478
-380.931	31.850	-0.162	0.140
-379.917	88.077	-0.175	-0.195
-378.902	76.454	-0.107	-0.114
-377.888	-90.316	-0.319	-0.093
-376.873	-12.609	-0.133	-0.087
-375.858	-200.000	0.044	0.286
-374.844	-33.409	0.178	0.099
-373.829	-200.000	0.000	-0.289
-372.815	-113.608	0.052	-0.010
-371.800	65.490	0.213	-0.216
-370.785	-200.000	-0.004	-0.101
-369.771	19.078	0.117	0.094
-368.756	437.887	0.058	-0.126
-367.742	-200.000	-0.003	-0.015
-366.727	509.956	0.074	0.173
-365.712	-87.603	0.152	-0.046
-364.698	214.478	0.138	-0.219
-363.683	-200.000	0.022	-0.124
-362.669	92.266	0.158	-0.179
-361.654	311.675	-0.043	-0.081
-360.639	-161.954	0.272	-0.014
-359.625	-63.299	-0.054	0.022
-358.610	-50.535	-0.280	0.133
-357.596	72.279	0.247	-0.258
-356.581	595.816	-0.017	-0.043
-355.566	-200.000	0.022	-0.170
-354.552	800.000	0.029	-0.097
-353.537	-179.415	0.079	0.002
-352.523	800.000	0.067	0.268
-351.508	-161.107	0.146	0.008
-350.493	-97.227	0.304	0.080
-349.479	125.053	0.168	0.213
-348.464	90.494	-0.099	-0.111
-347.450	-200.000	-0.054	0.258
-346.435	-9.113	-0.392	-0.263
-345.420	107.421	-0.056	0.067
-344.406	-65.724	0.154	0.062
-343.391	-200.000	0.001	-0.329
-342.377	661.239	-0.088	0.227
-341.362	-9.824	0.363	0.242
-340.348	51.757	-0.118	0.113
-339.333	-120.038	0.280	0.048
-338.318	30.732	-0.383	0.328
-337.304	253.391	0.177	0.304
-336.289	-13.698	-0.188	-0.122
-335.275	-200.000	-0.086	-0.383
-334.260	3.616	-0.181	0.132
-333.245	800.000	-0.044	0.135
-332.231	-200.000	-0.038	0.207
-331.216	-147.480	-0.396	-0.034
-330.202	315.779	-0.104	-0.197
-329.187	-200.000	0.007	0.238
-328.172	800.000	0.061	-0.209
-327.158	-74.202	0.330	-0.120
-326.143	-200.000	0.002	0.057
-325.129	800.000	0.040	-0.137
-324.114	-164.541	0.143	-0.007
-323.099	-113.441	-0.651	-0.128
-322.085	-200.000	0.040	-0.335
-321.070	334.722	0.015	-0.029
-320.056	-200.000	0.071	0.360
-319.041	84.934	-0.165	0.181
-318.026	-183.521	-0.026	0.000
-317.012	-44.444	-0.217	-0.109
-315.997	-127.031	-0.337	-0.050
-314.983	800.000	0.039	0.137
-313.968	89.319	-0.027	-0.030
-312.953	-200.000	-0.012	0.320
-311.939	-24.027	0.159	0.095
-310.924	-22.099	0.209	0.127
-309.910	-200.000	0.062	-0.305
-308.895	-5.834	-0.289	-0.198
-307.880	-200.000	-0.012	0.176
-306.866	406.082	0.133	-0.281
-305.851	-35.885	-0.322	-0.174
-304.837	-12.005	-0.172	-0.113
-303.822	-59.563	0.238	0.102
-302.807	-115.002	0.140	-0.027
-301.793	307.269	0.147	0.274
-300.778	-47.192	0.147	0.072
-299.764	-40.335	0.237	0.123
-298.749	-67.098	0.150	-0.059
-297.735	800.000	0.004	0.012
-296.720	-200.000	0.027	0.205
-295.705	-187.347	-0.077	0.001
-294.691	-74.430	0.258	-0.093
-293.676	-163.925	0.273	-0.013
-292.662	-132.955	-0.273	-0.035
-291.647	13.330	-0.121	0.094
-290.632	20.946	0.196	-0.159
-289.618	-23.198	-0.104	0.063
-288.603	-21.678	0.313	-0.191
-287.589	23.843	-0.239	-0.197
-286.574	68.849	0.060	0.062
-285.559	12.574	-0.063	0.049
-284.545	639.353	0.034	0.085
-283.530	-39.687	0.209	-0.109
-282.516	-200.000	0.036	0.260
-281.501	184.412	0.178	0.263
-280.486	800.000	0.091	-0.269
-279.472	-190.562	-0.262	-0.003
-278.457	-200.000	0.014	0.068
-277.443	-122.346	0.215	-0.035
-276.428	800.000	-0.061	0.184
-275.413	-200.000	-0.048	-0.248
-274.399	126.076	0.296	0.373
-273.384	800.000	0.017	0.076
-272.370	800.000	0.065	0.218
-271.355	69.887	0.058	0.059
-270.340	800.000	0.151	0.426
-269.326	-138.711	0.406	-0.044
-268.311	-200.000	0.005	0.425
-267.297	44.380	-0.047	-0.043
-266.282	-86.584	-0.163	0.050
-265.267	-64.790	-0.154	-0.062
-264.253	75.605	-0.139	-0.147
-263.238	-144.391	0.171	-0.016
-262.224	-4.583	-0.327	0.226
-261.209	103.473	0.044	0.051
-260.195	-22.054	0.182	0.111
-259.180	104.452	-0.138	0.162
-258.165	-200.000	-0.017	0.177
-257.151	800.000	-0.034	0.113
-256.136	800.000	-0.104	-0.389
-255.122	-104.506	-0.311	0.072
-254.107	23.607	0.093	0.077
-253.092	-200.000	-0.081	0.481
-252.078	-200.000	0.015	-0.113
-251.063	144.294	-0.209	0.278
-250.049	18.191	0.050	0.040
-249.034	-112.827	-0.280	-0.055
-248.019	-139.220	-0.161	0.017
-247.005	-89.141	-0.095	-0.028
-245.990	-36.700	0.217	0.116
-244.976	-47.891	-0.076	0.037
-243.961	-200.000	-0.023	-0.158
-242.946	-135.641	0.063	-0.007
-241.932	-200.000	0.015	0.300
-240.917	5.757	0.212	-0.157
-239.903	-59.493	-0.194	-0.083
-238.888	-28.673	-0.118	-0.068
-237.873	35.751	0.044	0.038
-236.859	-40.287	0.212	0.110
-235.844	-92.255	-0.584	-0.164
-234.830	-0.110	0.099	0.071
-233.815	-65.493	0.305	-0.122
-232.800	199.410	-0.088	0.135
-231.786	209.393	0.096	-0.150
-230.771	244.965	0.109	0.182
-229.757	253.797	-0.083	-0.141
-228.742	-13.524	-0.086	-0.056
-227.727	-200.000	-0.050	-0.224
-226.713	219.756	-0.090	-0.143
-225.698	-161.393	0.140	0.007
-224.684	192.635	0.103	0.155
-223.669	6.391	-0.136	-0.101
-222.655	374.778	-0.174	-0.353
-221.640	29.940	0.118	-0.101
-220.625	-6.345	-0.252	0.172
-219.611	-22.009	-0.146	-0.089
-218.596	-200.000	0.017	-0.382
-217.582	-58.845	-0.192	-0.083
-216.567	-200.000	0.064	-0.313
-215.552	156.664	0.121	-0.166
-214.538	-39.756	0.073	-0.038
-213.523	305.455	-0.135	-0.250
-212.509	128.588	0.054	-0.069
-211.494	75.322	-0.029	-0.030
-210.479	800.000	-0.073	-0.228
-209.465	514.869	0.079	-0.183
-208.450	23.058	-0.126	0.103
-207.436	-80.985	0.318	0.105
-206.421	118.220	0.090	0.110
-205.406	-71.812	-0.305	-0.113
-204.392	550.325	-0.095	-0.226
-203.377	800.000	0.007	0.022
-202.363	-200.000	-0.051	-0.237
-201.348	-67.900	0.255	0.099
-200.333	-49.998	-0.379	-0.179
-199.319	-93.876	0.054	-0.015
-198.304	800.000	0.071	-0.294
-197.290	-200.000	0.012	0.123
-196.275	-55.467	-0.047	-0.021
-195.260	-81.876	-0.121	-0.039
-194.246	-60.046	-0.247	0.105
-193.231	-200.000	-0.006	-0.124
-192.217	3.069	0.552	-0.399
-191.202	-113.409	0.299	0.059
-190.187	49.532	0.131	0.123
-189.173	-57.791	0.202	-0.088
-188.158	120.914	-0.063	0.078
-187.144	800.000	0.019	0.077
-186.129	-13.450	0.098	0.063
-185.114	-183.443	-0.058	0.001
-184.100	-22.939	0.043	0.026
-183.085	-61.456	0.203	-0.085
-182.071	-141.809	0.077	0.008
-181.056	800.000	0.075	-0.284
-180.042	91.253	-0.114	-0.128
-179.027	773.706	-0.116	0.314
-178.012	310.135	0.072	-0.134
-176.998	154.547	0.303	-0.414
-175.983	-24.225	-0.578	-0.343
-174.969	-97.053	0.210	0.055
-173.954	36.215	0.041	-0.036
-172.939	-200.000	0.023	-0.262
-171.925	-200.000	0.024	0.113
-170.910	20.250	0.148	0.119
-169.896	-200.000	-0.022	0.244
-168.881	800.000	0.027	-0.080
-167.866	-200.000	0.028	-0.142
-166.852	-107.275	-0.191	0.042
-165.837	462.945	-0.218	-0.484
-164.823	800.000	0.174	-0.487
-163.808	-101.427	-0.237	0.057
-162.793	-105.943	-0.355	0.080
-161.779	-57.179	0.221	-0.097
-160.764	6.491	-0.207	-0.153
-159.750	-104.276	-0.091	-0.021
-158.735	-119.603	0.298	0.051
-157.720	-138.458	-0.229	-0.025
-156.706	2.818	-0.126	0.091
-155.691	70.535	0.118	-0.121
-154.677	-66.428	0.190	0.075
-153.662	-167.457	-0.115	-0.005
-152.647	139.371	-0.127	0.167
-151.633	-57.347	-0.065	0.028
-150.618	-200.000	-0.027	0.163
-149.604	144.346	0.174	0.232
-148.589	-73.235	0.349	-0.127
-147.574	127.344	0.139	-0.176
-146.560	-5.994	-0.358	-0.243
-145.545	167.848	0.086	-0.121
-144.531	-76.313	0.385	-0.135
-143.516	-96.555	0.108	-0.028
-142.502	-200.000	-0.034	-0.169
-141.487	175.825	0.104	-0.150
-140.472	-200.000	0.023	-0.268
-139.458	-164.555	0.108	-0.005
-138.443	160.844	-0.036	0.049
-137.429	-108.346	-0.073	0.016
-136.414	2.015	0.236	0.169
-135.399	-143.628	0.319	-0.030
-134.385	101.213	-0.057	-0.065
-133.370	-121.104	0.012	0.002
-132.356	-45.802	-0.123	-0.060
-131.341	301.261	0.256	-0.470
-130.326	-24.893	0.207	-0.122
-129.312	723.338	0.070	0.186
-128.297	32.475	-0.493	0.423
-127.283	-147.232	0.201	-0.017
-126.268	800.000	0.055	0.235
-125.253	-200.000	-0.021	-0.126
-124.239	-33.794	0.343	0.188
-123.224	459.197	-0.148	-0.327
-122.210	6.965	-0.087	0.064
-121.195	12.062	-0.131	-0.101
