DTS Sentinel unit serial number:	SN413079Multiplexer serial number:	ORYXHardware model number:	OX4-SRSoftware version number:	ORYX F/W v4.00 Oryx Data Collector v3.7.2.0data status	okinstallation	princeton_trtdifferential loss correction	single-endedforward channel	channel 4reverse channel	N/Adate	2019/09/15time	06:49:35forward acquisition time	60.00reverse acquisition time	0.00gamma	496.2192k internal	0.2311k external	0.2311temperature offset calibration	1.0031default loss term (dB/km)	0.3790temperature slope calibration	1.0000multiplexer offset coefficient	1.0000multiplexer slope coefficient	1.0000fibre end	0.00T internal ref (°C)	30.50T ext. ref 1 (°C)	4.82T ext. ref 2 (°C)	25.51length (m)	temperature (°C)	Stokes	anti-Stokes-747.200	113.945	-0.145	-0.179
-746.185	-4.049	-0.050	-0.035
-745.171	62.400	0.087	-0.088
-744.156	800.000	0.023	0.073
-743.142	126.099	0.131	0.168
-742.127	-200.000	0.013	0.081
-741.112	-200.000	0.007	0.273
-740.098	-200.000	0.056	0.285
-739.083	186.199	0.132	-0.200
-738.069	580.033	0.113	0.282
-737.054	189.178	0.060	-0.091
-736.039	-2.908	-0.323	-0.229
-735.025	-19.148	0.200	-0.126
-734.010	440.091	-0.073	-0.161
-732.996	223.282	0.066	0.108
-731.981	-167.775	0.217	0.009
-730.966	-200.000	-0.046	0.282
-729.952	83.589	0.273	-0.302
-728.937	-18.479	-0.383	-0.243
-727.923	-114.654	0.307	0.060
-726.908	349.105	-0.067	0.134
-725.894	800.000	0.009	-0.026
-724.879	-135.371	0.061	0.007
-723.864	-148.316	0.205	-0.017
-722.850	22.883	-0.514	-0.427
-721.835	475.280	-0.054	-0.125
-720.821	-45.292	0.148	-0.075
-719.806	-152.691	-0.319	-0.023
-718.791	-200.000	-0.016	-0.200
-717.777	800.000	0.123	-0.394
-716.762	73.209	-0.130	-0.137
-715.748	-25.080	-0.228	-0.137
-714.733	-78.248	0.347	-0.121
-713.718	-200.000	-0.015	-0.118
-712.704	-22.782	-0.126	0.077
-711.689	423.212	0.085	0.184
-710.675	30.920	0.299	-0.260
-709.660	-200.000	-0.005	-0.146
-708.645	591.012	0.081	0.202
-707.631	-95.361	-0.299	-0.081
-706.616	87.459	0.169	-0.190
-705.602	97.167	-0.137	-0.160
-704.587	-200.000	-0.000	-0.012
-703.572	-130.247	0.305	-0.042
-702.558	-65.246	-0.258	-0.105
-701.543	-105.653	0.100	0.023
-700.529	800.000	-0.043	-0.158
-699.514	-113.194	-0.312	0.062
-698.499	78.476	0.107	0.115
-697.485	-50.757	0.365	-0.174
-696.470	-74.874	-0.420	-0.153
-695.456	6.772	-0.172	0.130
-694.441	21.452	-0.106	-0.087
-693.426	108.681	0.205	0.248
-692.412	-200.000	-0.003	-0.021
-691.397	71.697	-0.113	-0.119
-690.383	-200.000	-0.011	-0.165
-689.368	800.000	0.109	-0.447
-688.354	-47.915	-0.345	0.169
-687.339	-13.402	-0.214	-0.141
-686.324	-200.000	0.056	-0.482
-685.310	800.000	-0.079	-0.275
-684.295	340.946	-0.113	0.224
-683.281	-157.054	-0.030	-0.002
-682.266	168.094	-0.117	0.168
-681.251	-200.000	-0.029	0.170
-680.237	414.664	-0.256	-0.552
-679.222	206.520	-0.164	-0.259
-678.208	8.879	-0.105	0.080
-677.193	-21.062	0.115	-0.071
-676.178	-31.561	-0.096	0.055
-675.164	-87.455	-0.234	-0.072
-674.149	800.000	0.023	0.097
-673.135	-91.622	0.069	-0.020
-672.120	-86.999	-0.484	0.149
-671.105	27.552	-0.329	0.280
-670.091	-200.000	0.010	0.086
-669.076	304.219	-0.247	-0.464
-668.062	111.212	-0.186	-0.227
-667.047	-200.000	-0.002	-0.320
-666.032	-44.636	-0.193	0.098
-665.018	172.454	-0.102	-0.148
-664.003	-38.447	0.145	-0.077
-662.989	-200.000	0.030	-0.490
-661.974	423.450	-0.052	-0.114
-660.959	140.509	0.029	-0.038
-659.945	-200.000	0.057	-0.308
-658.930	-106.204	-0.039	0.009
-657.916	-90.166	-0.252	0.074
-656.901	12.815	-0.246	-0.193
-655.886	87.153	-0.202	-0.226
-654.872	-153.876	-0.115	0.008
-653.857	360.719	0.060	0.122
-652.843	445.033	0.059	-0.131
-651.828	39.152	-0.203	-0.183
-650.814	-77.687	-0.223	-0.078
-649.799	81.087	0.255	-0.279
-648.784	-200.000	-0.009	-0.049
-647.770	277.241	-0.102	0.184
-646.755	14.239	0.159	0.126
-645.741	-141.215	-0.203	0.021
-644.726	59.248	-0.135	-0.135
-643.711	-200.000	-0.057	-0.311
-642.697	521.405	0.038	0.091
-641.682	-167.042	-0.116	0.005
-640.668	25.593	-0.397	-0.334
-639.653	-133.978	-0.230	0.029
-638.638	387.156	0.144	0.301
-637.624	12.557	-0.086	0.067
-636.609	-163.564	0.070	0.003
-635.595	113.655	-0.248	-0.305
-634.580	27.442	-0.015	0.013
-633.565	9.289	-0.209	-0.160
-632.551	14.981	0.170	-0.134
-631.536	-67.004	0.341	-0.136
-630.522	-200.000	0.040	-0.420
-629.507	723.464	0.062	-0.167
-628.492	-200.000	0.035	0.278
-627.478	-200.000	-0.006	-0.155
-626.463	-76.125	-0.029	-0.010
-625.449	-136.842	0.139	0.016
-624.434	194.834	-0.010	0.016
-623.419	-53.168	-0.346	0.161
-622.405	146.725	-0.199	-0.270
-621.390	692.735	0.108	-0.287
-620.376	-70.173	0.145	-0.056
-619.361	-2.460	0.280	-0.198
-618.346	40.757	-0.196	-0.179
-617.332	229.656	0.100	0.164
-616.317	29.372	-0.239	-0.205
-615.303	-116.741	0.225	-0.042
-614.288	-62.492	-0.096	0.040
-613.273	-49.127	-0.155	0.075
-612.259	43.471	0.121	0.112
-611.244	197.612	-0.177	-0.274
-610.230	538.139	-0.045	0.107
-609.215	-60.272	-0.222	0.095
-608.201	800.000	-0.025	0.089
-607.186	463.714	-0.132	0.297
-606.171	182.675	0.133	0.199
-605.157	480.755	0.071	-0.162
-604.142	199.763	0.196	-0.304
-603.128	-155.932	-0.231	-0.015
-602.113	800.000	-0.019	-0.071
-601.098	-200.000	-0.006	0.107
-600.084	-200.000	-0.018	0.249
-599.069	-122.200	0.263	0.043
-598.055	-136.909	0.285	-0.033
-597.040	-26.478	0.106	-0.063
-596.025	133.590	-0.262	0.342
-595.011	-34.485	0.107	0.059
-593.996	59.517	0.115	-0.114
-592.982	-200.000	0.009	0.070
-591.967	-154.537	-0.342	-0.023
-590.952	-110.487	0.356	0.075
-589.938	-18.450	-0.178	-0.112
-588.923	105.831	0.327	0.391
-587.909	-104.569	0.195	0.045
-586.894	22.861	-0.356	0.294
-585.879	74.382	-0.109	0.115
-584.865	-200.000	0.031	0.396
-583.850	245.581	0.191	-0.325
-582.836	775.835	0.131	-0.361
-581.821	-48.449	-0.094	0.046
-580.806	-79.919	-0.092	-0.031
-579.792	-43.170	-0.087	0.044
-578.777	188.766	-0.180	-0.272
-577.763	800.000	0.066	0.184
-576.748	-91.781	0.221	0.063
-575.733	238.809	0.258	-0.432
-574.719	-107.669	-0.414	0.091
-573.704	-66.109	-0.411	0.165
-572.690	230.130	0.042	-0.069
-571.675	-200.000	-0.003	0.050
-570.661	-200.000	-0.010	0.158
-569.646	-25.774	-0.317	0.189
-568.631	-9.328	0.109	-0.073
-567.617	-155.434	0.244	-0.016
-566.602	14.804	0.075	0.059
-565.588	303.951	-0.044	-0.082
-564.573	191.145	-0.157	-0.238
-563.558	-200.000	-0.057	0.535
-562.544	-110.014	0.186	0.039
-561.529	-7.444	0.222	0.151
-560.515	-118.634	-0.463	0.082
-559.500	641.599	-0.030	-0.078
-558.485	-200.000	-0.057	0.269
-557.471	76.682	-0.129	-0.138
-556.456	74.763	-0.135	0.143
-555.442	-200.000	-0.038	0.220
-554.427	-45.791	-0.288	0.143
-553.412	-200.000	-0.020	-0.154
-552.398	800.000	-0.050	0.174
-551.383	225.023	0.037	-0.060
-550.369	-200.000	0.028	0.191
-549.354	-200.000	-0.005	-0.165
-548.339	-67.217	-0.225	0.089
-547.325	-85.806	0.079	0.025
-546.310	-119.260	0.098	0.017
-545.296	-22.581	-0.137	-0.083
-544.281	11.974	-0.057	0.044
-543.266	-13.551	-0.231	-0.151
-542.252	329.281	-0.095	0.185
-541.237	109.911	-0.031	-0.037
-540.223	800.000	-0.022	0.087
-539.208	92.116	0.050	-0.056
-538.193	5.474	0.242	-0.180
-537.179	113.077	0.047	0.057
-536.164	-93.837	0.199	0.055
-535.150	-124.598	-0.242	0.038
-534.135	800.000	0.065	0.183
-533.121	-200.000	-0.027	-0.139
-532.106	64.657	0.257	0.261
-531.091	-149.001	-0.134	-0.011
-530.077	43.703	-0.057	-0.052
-529.062	-200.000	-0.006	0.174
-528.048	-141.708	-0.133	-0.013
-527.033	275.287	0.158	-0.283
-526.018	-200.000	-0.032	-0.298
-525.004	-37.427	-0.264	0.142
-523.989	20.550	0.233	-0.190
-522.975	-200.000	0.075	-0.420
-521.960	800.000	0.042	0.128
-520.945	-50.706	-0.063	0.030
-519.931	-200.000	-0.001	0.229
-518.916	-2.832	-0.033	-0.023
-517.902	692.200	0.082	0.216
-516.887	-101.365	-0.287	0.070
-515.872	-65.720	0.213	-0.086
-514.858	-200.000	-0.038	0.247
-513.843	-17.329	-0.185	-0.117
-512.829	93.977	0.154	0.176
-511.814	440.959	-0.117	-0.257
-510.799	364.778	0.027	-0.055
-509.785	-200.000	0.019	-0.155
-508.770	35.226	-0.184	-0.162
-507.756	-200.000	0.024	0.238
-506.741	100.473	-0.185	-0.216
-505.726	123.132	0.147	-0.186
-504.712	-7.964	0.157	0.107
-503.697	272.761	0.178	0.315
-502.683	-101.765	-0.439	-0.107
-501.668	625.787	-0.004	-0.010
-500.653	-200.000	-0.016	-0.229
-499.639	-200.000	0.022	0.277
-498.624	49.908	0.109	-0.103
-497.610	178.556	0.089	-0.130
-496.595	800.000	-0.047	0.187
-495.581	211.683	-0.094	-0.148
-494.566	800.000	-0.069	0.207
-493.551	800.000	0.048	0.142
-492.537	-200.000	0.017	-0.192
-491.522	-200.000	-0.018	-0.381
-490.508	800.000	0.058	0.189
-489.493	-9.584	-0.077	0.051
-488.478	-157.387	0.187	-0.011
-487.464	10.231	0.124	-0.095
-486.449	-200.000	0.031	-0.190
-485.435	-200.000	-0.004	-0.229
-484.420	-53.353	-0.370	0.170
-483.405	13.280	0.122	0.095
-482.391	258.132	-0.124	0.214
-481.376	-168.277	-0.232	-0.009
-480.362	-63.431	-0.342	0.141
-479.347	-74.495	-0.285	0.103
-478.332	-181.115	0.270	0.005
-477.318	-60.497	0.169	-0.072
-476.303	-3.725	0.379	0.264
-475.289	800.000	0.058	0.217
-474.274	-65.586	0.109	0.044
-473.259	143.990	0.160	0.214
-472.245	-1.591	0.176	-0.125
-471.230	-144.892	0.324	-0.030
-470.216	3.044	0.110	0.080
-469.201	-96.287	-0.558	-0.148
-468.186	-125.417	-0.329	0.050
-467.172	677.724	0.109	-0.284
-466.157	-136.566	0.396	0.046
-465.143	35.313	-0.032	0.028
-464.128	-35.201	-0.133	0.073
-463.113	-39.246	0.184	0.097
-462.099	-200.000	0.010	-0.168
-461.084	-45.523	0.119	0.059
-460.070	429.027	0.088	0.191
-459.055	-147.306	0.117	0.010
-458.040	199.324	0.057	0.088
-457.026	-49.641	-0.276	-0.132
-456.011	110.220	0.196	-0.236
-454.997	-200.000	-0.042	-0.294
-453.982	-200.000	-0.075	0.347
-452.968	-99.153	0.216	-0.055
-451.953	-200.000	0.012	-0.108
-450.938	-126.155	0.227	-0.034
-449.924	98.610	0.133	0.154
-448.909	42.332	-0.305	-0.278
-447.895	272.115	0.110	-0.194
-446.880	248.325	-0.090	-0.153
-445.865	800.000	-0.033	-0.121
-444.851	-159.157	-0.277	-0.016
-443.836	-107.668	-0.245	-0.054
-442.822	-45.157	0.273	-0.136
-441.807	-96.978	-0.168	-0.044
-440.792	129.287	-0.085	-0.109
-439.778	-200.000	0.052	0.246
-438.763	75.609	0.386	0.409
-437.749	-200.000	-0.059	-0.277
-436.734	419.978	0.051	0.109
-435.719	-56.500	0.104	0.046
-434.705	4.356	-0.186	0.137
-433.690	700.272	0.116	0.306
-432.676	52.391	-0.083	-0.080
-431.661	-57.726	0.218	-0.096
-430.646	-200.000	0.099	-0.514
-429.632	-46.888	-0.040	0.020
-428.617	-200.000	-0.031	-0.141
-427.603	-200.000	0.074	-0.334
-426.588	58.269	0.181	-0.178
-425.573	122.839	-0.344	-0.432
-424.559	-54.861	-0.313	0.142
-423.544	671.823	-0.042	-0.109
-422.530	522.196	0.108	-0.254
-421.515	134.344	0.124	0.162
-420.500	-43.682	-0.079	-0.040
-419.486	97.693	0.096	-0.110
-418.471	572.995	0.087	0.211
-417.457	198.492	0.202	0.310
-416.442	-71.225	-0.073	-0.028
-415.428	102.019	-0.104	0.122
-414.413	244.626	0.111	-0.186
-413.398	-200.000	0.030	0.166
-412.384	30.850	0.186	-0.160
-411.369	298.233	-0.119	-0.219
-410.355	800.000	0.008	-0.030
-409.340	284.675	0.084	0.151
-408.325	13.330	0.159	-0.124
-407.311	-160.311	0.158	0.009
-406.296	47.567	0.058	0.054
-405.282	27.039	-0.157	-0.132
-404.267	-52.038	-0.181	0.084
-403.252	800.000	-0.041	-0.129
-402.238	-200.000	-0.053	0.232
-401.223	-200.000	-0.016	-0.266
-400.209	-77.630	0.138	-0.048
-399.194	-114.273	-0.063	0.012
-398.179	105.177	-0.209	0.248
-397.165	-23.871	-0.124	0.074
-396.150	-53.744	-0.239	0.109
-395.136	214.807	0.174	-0.276
-394.121	704.971	0.016	-0.043
-393.106	-87.059	0.064	-0.020
-392.092	-134.451	0.178	0.022
-391.077	172.937	0.086	0.124
-390.063	14.965	0.129	-0.101
-389.048	-4.722	-0.173	0.119
-388.033	800.000	-0.072	0.307
-387.019	-142.836	-0.328	0.032
-386.004	800.000	0.023	0.091
-384.990	-38.411	-0.176	-0.093
-383.975	-200.000	0.001	-0.241
-382.960	-88.752	-0.100	-0.030
-381.946	-200.000	0.046	-0.258
-380.931	800.000	-0.051	0.194
-379.917	222.755	-0.070	0.112
-378.902	-68.034	0.010	0.004
-377.888	-56.165	-0.147	-0.065
-376.873	129.750	-0.064	-0.081
-375.858	800.000	-0.045	-0.146
-374.844	-179.078	-0.287	-0.006
-373.829	800.000	-0.117	0.360
-372.815	0.882	0.153	-0.110
-371.800	9.287	0.175	0.132
-370.785	-72.498	0.295	0.109
-369.771	-40.297	0.189	-0.099
-368.756	-93.745	0.352	-0.097
-367.742	-200.000	-0.002	0.449
-366.727	93.220	-0.050	-0.056
-365.712	-33.159	-0.163	-0.091
-364.698	800.000	0.107	-0.320
-363.683	-111.633	0.222	0.045
-362.669	-131.984	0.362	0.047
-361.654	28.363	0.046	-0.039
-360.639	-70.108	-0.228	0.087
-359.625	-200.000	-0.000	0.114
-358.610	-200.000	0.024	-0.178
-357.596	-200.000	-0.019	-0.301
-356.581	229.679	0.096	-0.157
-355.566	-200.000	-0.010	0.397
-354.552	800.000	0.063	-0.212
-353.537	-200.000	0.058	-0.274
-352.523	86.920	0.146	0.161
-351.508	-80.125	0.174	-0.058
-350.493	102.965	-0.155	0.181
-349.479	6.742	-0.113	-0.084
-348.464	59.992	-0.058	0.057
-347.450	17.102	-0.285	-0.226
-346.435	800.000	-0.105	-0.322
-345.420	-165.448	-0.150	0.007
-344.406	800.000	0.070	0.290
-343.391	-189.374	-0.301	-0.004
-342.377	-2.718	-0.064	-0.044
-341.362	-77.694	-0.186	-0.064
-340.348	-37.509	-0.255	-0.136
-339.333	-200.000	0.059	0.284
-338.318	-200.000	0.016	-0.088
-337.304	-59.050	-0.260	-0.112
-336.289	247.084	-0.124	-0.208
-335.275	-131.996	-0.160	-0.021
-334.260	42.960	0.066	-0.061
-333.245	661.392	0.116	0.299
-332.231	-27.441	0.188	0.109
-331.216	-20.441	-0.260	0.160
-330.202	-138.972	0.142	0.015
-329.187	-200.000	-0.033	0.271
-328.172	-63.849	-0.155	-0.063
-327.158	-79.676	-0.292	-0.098
-326.143	257.054	-0.022	0.038
-325.129	800.000	0.107	0.308
-324.114	738.988	0.065	0.175
-323.099	-30.749	-0.057	-0.032
-322.085	-200.000	-0.010	0.289
-321.070	-64.477	0.123	-0.050
-320.056	359.391	0.172	-0.344
-319.041	-158.784	-0.246	-0.014
-318.026	327.805	-0.020	-0.039
-317.012	47.423	0.119	-0.111
-315.997	-200.000	0.022	-0.097
-314.983	-0.554	0.163	0.116
-313.968	-133.198	0.145	-0.018
-312.953	69.229	-0.141	0.144
-311.939	-129.467	0.227	0.031
-310.924	-143.665	0.433	-0.041
-309.910	-35.048	-0.102	0.056
-308.895	334.558	-0.077	0.148
-307.880	-119.306	-0.165	-0.029
-306.866	68.530	-0.064	0.066
-305.851	800.000	0.044	0.148
-304.837	31.404	-0.143	0.123
-303.822	-94.997	0.115	-0.031
-302.807	281.642	0.085	0.151
-301.793	28.468	0.095	0.080
-300.778	-200.000	-0.025	-0.176
-299.764	3.381	-0.185	-0.135
-298.749	-200.000	0.031	0.140
-297.735	-109.487	0.208	0.044
-296.720	-52.662	-0.215	0.099
-295.705	800.000	-0.153	-0.456
-294.691	33.961	0.198	-0.172
-293.676	800.000	-0.162	0.487
-292.662	451.128	-0.061	-0.135
-291.647	-118.747	0.054	0.010
-290.632	-200.000	0.007	0.100
-289.618	-67.119	-0.162	0.064
-288.603	-200.000	-0.032	-0.176
-287.589	-200.000	0.007	-0.134
-286.574	272.920	0.134	-0.235
-285.559	-200.000	-0.037	-0.190
-284.545	-24.557	0.133	-0.079
-283.530	800.000	-0.088	0.266
-282.516	-97.085	0.065	0.017
-281.501	-82.527	0.140	-0.045
-280.486	454.844	-0.082	-0.181
-279.472	-0.576	0.121	-0.086
-278.457	-120.491	-0.104	-0.018
-277.443	166.297	-0.131	-0.184
-276.428	-62.514	-0.101	0.042
-275.413	-138.530	-0.255	0.028
-274.399	-139.850	0.226	-0.024
-273.384	-45.007	0.118	0.059
-272.370	-54.401	-0.162	0.073
-271.355	-55.586	0.275	-0.123
-270.340	84.198	-0.239	0.260
-269.326	666.110	0.047	-0.120
-268.311	-200.000	-0.018	-0.115
-267.297	-153.261	-0.076	-0.005
-266.282	161.773	-0.148	-0.207
-265.267	6.321	-0.185	0.137
-264.253	-100.296	-0.169	0.042
-263.238	-95.765	-0.190	-0.050
-262.224	411.419	0.129	0.274
-261.209	227.576	0.094	-0.153
-260.195	-200.000	0.045	-0.202
-259.180	-200.000	0.013	-0.198
-258.165	-60.821	0.027	-0.011
-257.151	800.000	-0.039	-0.115
-256.136	-76.790	0.174	-0.061
-255.122	193.850	0.064	0.096
-254.107	-145.127	0.176	0.016
-253.092	-166.759	0.135	-0.006
-252.078	-153.053	0.298	-0.021
-251.063	192.134	0.127	0.190
-250.049	48.931	0.038	0.035
-249.034	10.082	0.216	0.163
-248.019	800.000	0.010	0.044
-247.005	-169.378	-0.347	0.013
-245.990	-43.427	0.576	-0.290
-244.976	800.000	0.032	0.127
-243.961	-37.774	-0.266	-0.141
-242.946	-200.000	0.023	-0.251
-241.932	-200.000	0.014	0.447
-240.917	58.785	0.221	0.216
-239.903	-158.475	0.062	0.004
-238.888	-59.159	0.235	0.101
-237.873	602.081	0.036	0.089
-236.859	126.045	-0.084	0.106
-235.844	37.493	-0.133	-0.117
-234.830	-149.784	0.381	0.030
-233.815	-62.325	0.096	0.040
-232.800	478.191	0.126	0.283
-231.786	800.000	-0.077	0.325
-230.771	-123.376	-0.151	-0.024
-229.757	166.359	-0.086	-0.122
-228.742	159.480	-0.024	0.033
-227.727	391.876	0.054	-0.111
-226.713	-200.000	0.004	-0.071
-225.698	-141.613	-0.043	0.004
-224.684	119.200	-0.211	0.259
-223.669	-71.510	-0.291	0.108
-222.655	-200.000	0.021	-0.269
-221.640	150.549	0.119	0.161
-220.625	644.630	-0.094	0.240
-219.611	-50.195	0.132	0.062
-218.596	-162.662	0.256	-0.013
-217.582	-51.070	0.153	0.071
-216.567	49.426	0.262	0.245
-215.552	193.531	-0.127	-0.190
-214.538	169.595	0.164	0.233
-213.523	-200.000	0.045	-0.217
-212.509	-200.000	-0.039	0.210
-211.494	221.086	0.144	0.229
-210.479	-198.316	0.376	0.002
-209.465	36.361	0.108	0.094
-208.450	-200.000	0.001	-0.054
-207.436	-21.170	0.162	0.098
-206.421	-200.000	-0.029	0.308
-205.406	-63.606	-0.359	-0.146
-204.392	69.719	-0.049	-0.050
-203.377	122.602	0.197	-0.244
-202.363	-200.000	0.027	0.262
-201.348	-200.000	0.005	0.063
-200.333	520.818	0.068	-0.157
-199.319	-200.000	-0.034	0.180
-198.304	-70.887	-0.153	-0.057
-197.290	165.767	-0.126	0.177
-196.275	4.432	-0.123	-0.090
-195.260	9.494	-0.144	0.108
-194.246	-98.138	0.039	0.010
-193.231	800.000	-0.046	0.134
-192.217	-16.270	0.069	0.044
-191.202	207.268	-0.183	-0.283
-190.187	-150.477	-0.349	0.027
-189.173	-200.000	0.024	0.313
-188.158	600.064	0.052	0.128
-187.144	490.107	0.051	-0.117
-186.129	-103.986	0.155	0.036
-185.114	18.832	0.197	0.157
-184.100	-200.000	0.006	0.178
-183.085	-36.856	-0.234	-0.125
-182.071	-133.257	-0.340	0.043
-181.056	-146.064	0.132	-0.012
-180.042	-200.000	0.041	-0.338
-179.027	362.497	-0.070	-0.140
-178.012	-0.907	-0.083	0.058
-176.998	395.720	0.071	-0.147
-175.983	-160.493	0.241	0.013
-174.969	37.666	0.110	-0.097
-173.954	186.351	0.205	-0.303
-172.939	-62.052	0.447	0.185
-171.925	199.340	-0.029	-0.044
-170.910	-200.000	-0.016	0.224
-169.896	-105.265	-0.319	0.072
-168.881	-200.000	0.040	-0.207
-167.866	-84.271	0.256	0.081
-166.852	-156.159	0.181	0.011
-165.837	536.549	0.107	0.252
-164.823	-164.610	-0.174	-0.008
-163.808	59.705	-0.226	-0.221
-162.793	-79.360	-0.183	-0.061
-161.779	-200.000	0.002	0.148
-160.764	246.236	0.185	-0.310
-159.750	617.801	-0.067	-0.166
-158.735	663.082	-0.080	-0.205
-157.720	232.250	0.023	0.037
-156.706	192.174	0.037	-0.056
-155.691	179.738	-0.098	0.143
-154.677	-200.000	0.051	-0.275
-153.662	63.497	0.244	0.242
-152.647	535.523	0.037	0.087
-151.633	18.654	0.223	-0.177
-150.618	-122.755	0.121	-0.019
-149.604	-200.000	0.064	0.297
-148.589	65.678	0.098	-0.099
-147.574	-108.797	0.021	-0.005
-146.560	-171.423	-0.026	-0.001
-145.545	-152.923	0.310	-0.022
-144.531	-143.259	0.303	-0.029
-143.516	-200.000	-0.004	0.181
-142.502	256.077	0.038	0.065
-141.487	149.057	0.004	0.006
-140.472	386.298	0.067	-0.137
-139.458	446.476	0.077	0.168
-138.443	4.471	0.146	0.106
-137.429	143.807	-0.200	-0.264
-136.414	-200.000	0.004	-0.360
-135.399	49.530	-0.223	0.208
-134.385	622.085	0.082	0.204
-133.370	800.000	-0.038	0.119
-132.356	800.000	-0.173	0.491
-131.341	-200.000	-0.036	-0.280
-130.326	-93.956	-0.220	-0.060
-129.312	-142.605	-0.114	0.011
-128.297	144.726	0.127	0.169
-127.283	494.288	-0.099	-0.226
-126.268	299.229	0.053	0.096
-125.253	97.678	-0.170	0.194
-124.239	800.000	-0.030	-0.120
-123.224	-84.611	-0.162	-0.051
-122.210	-58.997	-0.251	-0.107
-121.195	420.158	0.163	0.345
