DTS Sentinel unit serial number:	SN413079Multiplexer serial number:	ORYXHardware model number:	OX4-SRSoftware version number:	ORYX F/W v4.00 Oryx Data Collector v3.7.2.0data status	okinstallation	princeton_trtdifferential loss correction	single-endedforward channel	channel 4reverse channel	N/Adate	2019/09/17time	23:21:34forward acquisition time	60.00reverse acquisition time	0.00gamma	496.2192k internal	0.2331k external	0.2331temperature offset calibration	0.9999default loss term (dB/km)	0.3790temperature slope calibration	1.0000multiplexer offset coefficient	1.0000multiplexer slope coefficient	1.0000fibre end	0.00T internal ref (°C)	24.37T ext. ref 1 (°C)	0.17T ext. ref 2 (°C)	17.63length (m)	temperature (°C)	Stokes	anti-Stokes-747.200	292.686	-0.110	-0.201
-746.185	279.112	-0.100	0.180
-745.171	-200.000	0.036	-0.286
-744.156	-200.000	-0.017	0.075
-743.142	-200.000	0.010	0.050
-742.127	386.697	-0.139	0.289
-741.112	287.100	0.103	-0.188
-740.098	-200.000	-0.034	0.314
-739.083	-71.137	0.386	-0.146
-738.069	283.583	0.085	0.154
-737.054	-200.000	0.005	0.242
-736.039	83.123	-0.184	-0.202
-735.025	-73.941	0.159	0.058
-734.010	681.484	-0.036	-0.094
-732.996	169.785	-0.216	-0.310
-731.981	31.328	0.150	-0.129
-730.966	-15.455	-0.226	0.145
-729.952	270.432	-0.207	0.366
-728.937	276.824	-0.149	-0.266
-727.923	-200.000	0.007	-0.322
-726.908	-200.000	-0.051	-0.419
-725.894	-200.000	0.011	-0.205
-724.879	5.788	-0.194	0.144
-723.864	-3.634	0.259	0.181
-722.850	-112.852	0.160	0.032
-721.835	-57.038	-0.313	-0.139
-720.821	800.000	-0.085	-0.253
-719.806	800.000	0.098	0.300
-718.791	800.000	-0.026	0.095
-717.777	-200.000	0.014	-0.210
-716.762	-200.000	-0.016	0.123
-715.748	-75.071	-0.012	0.004
-714.733	765.191	-0.113	-0.309
-713.718	259.934	0.064	-0.111
-712.704	174.377	0.042	0.061
-711.689	-53.147	0.087	0.040
-710.675	317.683	0.079	-0.150
-709.660	-200.000	0.011	-0.299
-708.645	-200.000	-0.041	0.278
-707.631	84.226	0.198	0.218
-706.616	800.000	0.008	0.034
-705.602	521.136	0.094	-0.221
-704.587	-9.040	0.056	-0.038
-703.572	174.811	-0.101	0.146
-702.558	-48.209	0.098	0.047
-701.543	-50.807	-0.490	0.232
-700.529	27.267	-0.134	0.113
-699.514	800.000	0.096	0.273
-698.499	-200.000	-0.019	0.228
-697.485	-200.000	-0.003	0.311
-696.470	3.336	-0.360	0.263
-695.456	92.302	-0.152	-0.172
-694.441	-200.000	0.010	-0.178
-693.426	800.000	-0.086	-0.289
-692.412	799.325	-0.126	-0.350
-691.397	-121.062	0.395	0.067
-690.383	31.385	0.230	-0.199
-689.368	-53.809	-0.098	0.045
-688.354	235.591	-0.103	0.171
-687.339	631.497	0.122	-0.310
-686.324	-200.000	-0.014	-0.276
-685.310	150.341	0.057	0.078
-684.295	512.833	-0.108	0.253
-683.281	-128.207	0.100	-0.014
-682.266	800.000	-0.045	-0.126
-681.251	-200.000	0.000	0.205
-680.237	-76.533	-0.049	-0.017
-679.222	452.867	-0.073	0.162
-678.208	11.989	-0.238	0.183
-677.193	98.071	-0.250	-0.289
-676.178	-71.690	0.026	-0.010
-675.164	800.000	-0.052	0.174
-674.149	-83.003	-0.155	0.050
-673.135	-53.152	0.210	-0.097
-672.120	-200.000	0.034	-0.317
-671.105	4.427	-0.084	-0.062
-670.091	263.579	-0.201	0.351
-669.076	-200.000	0.025	-0.190
-668.062	-200.000	-0.032	-0.201
-667.047	-51.868	-0.398	-0.186
-666.032	277.877	-0.274	-0.490
-665.018	66.576	-0.343	-0.350
-664.003	-200.000	0.000	-0.248
-662.989	144.032	0.057	0.076
-661.974	-200.000	0.006	-0.291
-660.959	-113.410	0.222	0.044
-659.945	-200.000	-0.008	-0.229
-658.930	-108.386	0.092	-0.020
-657.916	-70.261	0.328	0.125
-656.901	675.782	-0.060	0.157
-655.886	-117.126	-0.351	-0.064
-654.872	53.504	0.091	0.087
-653.857	-200.000	-0.040	0.248
-652.843	-146.456	-0.065	0.006
-651.828	110.920	-0.063	0.076
-650.814	-11.404	-0.119	-0.079
-649.799	-200.000	0.004	-0.186
-648.784	-200.000	-0.010	0.078
-647.770	-200.000	0.006	-0.314
-646.755	74.423	-0.193	-0.204
-645.741	-135.105	-0.190	0.023
-644.726	75.463	0.238	0.252
-643.711	-200.000	-0.004	0.090
-642.697	30.817	0.059	-0.051
-641.682	401.337	0.143	-0.300
-640.668	19.096	-0.184	-0.148
-639.653	83.573	0.162	0.177
-638.638	-200.000	-0.045	0.214
-637.624	-54.432	-0.258	-0.117
-636.609	-35.380	0.266	0.145
-635.595	94.321	0.076	-0.086
-634.580	-148.845	-0.195	-0.016
-633.565	204.383	0.285	0.443
-632.551	245.126	0.156	-0.262
-631.536	-146.926	-0.438	-0.038
-630.522	552.824	0.108	0.261
-629.507	-200.000	0.015	0.323
-628.492	-138.306	0.319	0.035
-627.478	800.000	0.027	-0.074
-626.463	800.000	-0.082	0.314
-625.449	165.543	-0.209	0.296
-624.434	244.193	-0.150	0.253
-623.419	-16.953	-0.221	-0.140
-622.405	-176.377	-0.259	-0.007
-621.390	298.901	-0.262	-0.484
-620.376	-200.000	0.028	0.128
-619.361	570.421	-0.028	0.069
-618.346	-63.960	0.132	-0.054
-617.332	-93.537	0.120	-0.033
-616.317	-123.755	0.212	-0.034
-615.303	112.490	0.091	0.111
-614.288	356.806	0.150	-0.299
-613.273	355.114	0.092	-0.184
-612.259	394.944	-0.162	-0.339
-611.244	-33.216	0.213	0.118
-610.230	-59.317	0.122	0.053
-609.215	179.218	0.104	0.153
-608.201	99.835	0.040	0.046
-607.186	-131.873	-0.348	-0.046
-606.171	34.195	-0.217	-0.189
-605.157	-71.738	-0.189	-0.071
-604.142	-146.131	0.194	0.017
-603.128	-57.336	-0.031	-0.014
-602.113	-133.493	-0.153	0.019
-601.098	-31.254	-0.254	-0.143
-600.084	-200.000	-0.091	-0.425
-599.069	-56.076	0.104	-0.046
-598.055	20.172	-0.238	-0.192
-597.040	199.970	0.042	-0.064
-596.025	-60.730	-0.096	-0.041
-595.011	-200.000	0.012	0.192
-593.996	-1.731	-0.296	0.208
-592.982	-51.260	0.197	0.092
-591.967	102.715	-0.168	-0.197
-590.952	97.297	0.127	-0.146
-589.938	69.816	-0.203	0.210
-588.923	-35.403	0.027	-0.015
-587.909	45.503	0.142	-0.131
-586.894	-163.634	-0.237	-0.011
-585.879	83.108	-0.138	0.150
-584.865	-33.318	-0.518	0.287
-583.850	800.000	0.089	0.291
-582.836	-147.861	0.159	-0.013
-581.821	148.882	0.150	-0.202
-580.806	-75.312	0.267	-0.095
-579.792	-99.430	0.286	0.072
-578.777	507.301	0.141	-0.326
-577.763	349.514	0.065	-0.128
-576.748	-119.013	0.175	0.031
-575.733	66.536	0.238	-0.242
-574.719	342.741	0.063	0.124
-573.704	-38.559	-0.185	-0.098
-572.690	652.633	0.060	-0.153
-571.675	68.771	-0.210	-0.215
-570.661	-134.423	-0.274	-0.034
-569.646	-142.392	-0.187	0.018
-568.631	800.000	0.018	-0.072
-567.617	-200.000	0.017	-0.122
-566.602	-200.000	0.001	-0.116
-565.588	130.312	-0.194	-0.249
-564.573	37.692	-0.168	-0.149
-563.558	149.914	-0.145	-0.197
-562.544	12.358	0.242	0.186
-561.529	362.987	-0.123	0.246
-560.515	-200.000	-0.022	0.120
-559.500	-73.696	0.116	-0.042
-558.485	544.225	0.119	-0.284
-557.471	-200.000	0.009	0.359
-556.456	-20.478	0.201	-0.124
-555.442	572.232	-0.050	0.121
-554.427	107.397	-0.126	0.150
-553.412	334.582	-0.177	-0.343
-552.398	8.654	-0.233	-0.175
-551.383	105.120	0.093	0.109
-550.369	194.797	0.087	0.132
-549.354	-99.626	-0.083	-0.021
-548.339	-17.975	-0.180	0.113
-547.325	144.746	-0.080	0.107
-546.310	-55.859	-0.317	0.141
-545.296	-200.000	0.005	-0.056
-544.281	-133.484	0.125	0.016
-543.266	-200.000	-0.019	-0.125
-542.252	-20.887	-0.368	-0.225
-541.237	-109.764	0.394	0.083
-540.223	673.785	0.077	-0.201
-539.208	0.741	0.297	-0.212
-538.193	24.653	0.100	-0.083
-537.179	-18.597	-0.350	-0.218
-536.164	-85.437	0.223	0.069
-535.150	28.957	0.097	-0.082
-534.135	-200.000	-0.223	0.001
-533.121	138.826	0.051	0.067
-532.106	-200.000	0.069	-0.373
-531.091	429.801	0.054	0.117
-530.077	72.246	0.343	0.356
-529.062	-200.000	0.037	0.200
-528.048	161.005	-0.042	0.058
-527.033	-42.063	0.243	-0.124
-526.018	-42.291	0.232	-0.118
-525.004	-195.410	0.251	0.002
-523.989	-39.350	0.051	-0.027
-522.975	276.598	0.142	0.251
-521.960	-56.666	-0.131	0.058
-520.945	-163.109	-0.208	0.010
-519.931	-50.843	-0.291	0.136
-518.916	-200.000	0.026	0.344
-517.902	91.973	0.194	0.217
-516.887	-200.000	-0.005	0.037
-515.872	109.324	0.166	-0.198
-514.858	-113.809	-0.151	-0.029
-513.843	492.806	-0.077	-0.176
-512.829	-182.567	0.280	-0.005
-511.814	-200.000	0.024	0.151
-510.799	686.176	-0.055	-0.144
-509.785	57.733	-0.137	0.133
-508.770	-200.000	-0.010	0.164
-507.756	468.501	0.129	0.288
-506.741	240.179	0.086	-0.144
-505.726	-32.998	-0.104	-0.057
-504.712	-24.435	-0.078	0.046
-503.697	-144.731	0.154	0.014
-502.683	16.918	-0.144	0.114
-501.668	-200.000	-0.061	-0.438
-500.653	648.341	0.051	-0.131
-499.639	-156.630	0.200	0.012
-498.624	-155.917	-0.156	0.010
-497.610	36.009	-0.150	-0.131
-496.595	24.048	-0.158	-0.130
-495.581	304.490	0.125	0.231
-494.566	-200.000	-0.033	0.179
-493.551	-115.731	0.258	0.048
-492.537	-25.287	0.142	0.084
-491.522	-200.000	0.046	-0.233
-490.508	-134.933	-0.215	0.026
-489.493	-32.570	0.164	0.091
-488.478	-84.688	-0.201	0.063
-487.464	138.979	0.035	-0.046
-486.449	800.000	-0.093	0.367
-485.435	800.000	-0.058	-0.242
-484.420	800.000	0.092	-0.372
-483.405	-200.000	0.044	-0.253
-482.391	152.845	-0.132	0.180
-481.376	40.307	0.079	0.071
-480.362	90.527	0.213	-0.238
-479.347	79.220	-0.244	0.261
-478.332	-200.000	-0.010	0.120
-477.318	-64.721	-0.017	-0.007
-476.303	59.739	0.106	0.105
-475.289	-100.254	-0.219	0.054
-474.274	-126.785	-0.116	-0.017
-473.259	-44.048	-0.209	-0.105
-472.245	61.667	0.242	0.240
-471.230	-49.335	-0.111	0.053
-470.216	-200.000	-0.026	0.133
-469.201	-57.044	-0.177	0.078
-468.186	-44.925	0.200	0.099
-467.172	97.574	-0.121	-0.138
-466.157	43.349	-0.180	-0.164
-465.143	-24.215	0.026	-0.015
-464.128	-103.414	-0.201	0.047
-463.113	71.767	0.321	-0.333
-462.099	-173.627	-0.291	0.009
-461.084	-139.576	0.048	0.005
-460.070	29.432	-0.152	-0.129
-459.055	375.592	-0.055	-0.113
-458.040	81.074	-0.098	-0.105
-457.026	13.213	-0.347	0.268
-456.011	-80.544	-0.168	0.056
-454.997	-147.322	0.297	-0.025
-453.982	-69.892	-0.379	0.144
-452.968	39.684	0.031	-0.027
-451.953	413.240	-0.038	0.081
-450.938	-5.762	-0.106	0.073
-449.924	79.609	-0.140	0.150
-448.909	-29.990	0.204	0.116
-447.895	122.220	-0.230	-0.286
-446.880	-93.903	0.154	0.042
-445.865	-11.420	-0.280	-0.183
-444.851	-200.000	-0.023	0.128
-443.836	78.259	0.030	-0.032
-442.822	181.543	0.121	-0.177
-441.807	-20.281	-0.251	-0.154
-440.792	-2.237	-0.141	0.098
-439.778	509.614	0.129	0.298
-438.763	-150.369	0.400	0.031
-437.749	800.000	-0.096	0.288
-436.734	-183.294	-0.123	-0.002
-435.719	-118.395	-0.153	0.027
-434.705	-139.314	0.271	0.029
-433.690	-161.077	0.326	0.017
-432.676	-200.000	0.004	0.283
-431.661	625.446	-0.125	-0.315
-430.646	638.440	-0.056	-0.142
-429.632	-69.968	0.080	-0.030
-428.617	-70.589	0.139	0.052
-427.603	-200.000	-0.004	-0.194
-426.588	-27.430	-0.151	0.087
-425.573	626.894	-0.013	0.033
-424.559	339.887	0.022	0.043
-423.544	-108.879	0.014	-0.003
-422.530	800.000	-0.052	-0.171
-421.515	38.853	0.317	-0.282
-420.500	-62.866	0.134	-0.055
-419.486	-182.640	-0.217	-0.004
-418.471	3.895	0.114	0.083
-417.457	-67.858	0.195	0.076
-416.442	-200.000	0.035	-0.375
-415.428	268.483	-0.104	-0.181
-414.413	-47.456	-0.255	-0.123
-413.398	-136.152	-0.215	0.025
-412.384	-200.000	0.001	0.348
-411.369	136.958	-0.184	-0.238
-410.355	183.788	0.162	-0.237
-409.340	603.161	-0.080	-0.197
-408.325	-88.946	-0.219	-0.064
-407.311	341.103	0.137	-0.266
-406.296	25.202	-0.220	0.181
-405.282	-94.336	0.301	-0.082
-404.267	-91.041	0.217	-0.062
-403.252	104.107	0.089	-0.104
-402.238	115.798	-0.208	-0.252
-401.223	800.000	0.158	-0.461
-400.209	800.000	-0.081	-0.301
-399.194	-200.000	-0.006	0.029
-398.179	-71.030	0.110	-0.041
-397.165	-200.000	0.013	-0.317
-396.150	105.129	0.236	-0.277
-395.136	-107.057	-0.165	-0.036
-394.121	188.911	-0.074	0.109
-393.106	-200.000	-0.030	0.211
-392.092	-84.616	0.243	0.076
-391.077	173.580	-0.149	0.213
-390.063	-73.670	-0.216	0.078
-389.048	41.111	0.379	0.340
-388.033	-37.898	0.084	0.044
-387.019	-59.877	0.167	0.071
-386.004	30.584	-0.146	-0.124
-384.990	2.721	-0.066	-0.048
-383.975	403.787	-0.090	-0.188
-382.960	-92.121	0.060	0.017
-381.946	-200.000	-0.012	0.087
-380.931	-48.978	0.209	0.099
-379.917	-30.718	-0.314	-0.176
-378.902	800.000	-0.078	0.215
-377.888	-107.172	0.239	0.052
-376.873	574.630	-0.153	-0.370
-375.858	-7.524	-0.290	-0.195
-374.844	305.526	-0.050	-0.093
-373.829	-73.994	-0.064	0.023
-372.815	9.784	-0.183	-0.138
-371.800	-200.000	0.034	-0.387
-370.785	-111.507	0.030	0.006
-369.771	-200.000	0.079	0.475
-368.756	-116.087	0.086	0.016
-367.742	-5.555	0.148	0.100
-366.727	-81.069	0.022	-0.007
-365.712	800.000	0.023	0.087
-364.698	66.168	-0.248	0.250
-363.683	-157.295	0.083	0.005
-362.669	82.125	-0.170	0.183
-361.654	800.000	-0.117	-0.461
-360.639	-63.542	0.279	-0.114
-359.625	190.902	0.063	-0.094
-358.610	-69.421	0.129	0.049
-357.596	235.231	0.147	0.240
-356.581	-200.000	-0.001	-0.316
-355.566	-55.339	-0.093	-0.042
-354.552	82.995	-0.212	0.229
-353.537	-38.844	0.169	-0.088
-352.523	39.470	-0.221	0.196
-351.508	375.355	-0.116	-0.234
-350.493	-60.205	0.112	0.048
-349.479	-200.000	-0.014	-0.124
-348.464	800.000	0.081	-0.226
-347.450	-176.838	-0.062	0.002
-346.435	-92.707	0.104	0.029
-345.420	-56.253	-0.215	-0.095
-344.406	-117.099	-0.156	-0.028
-343.391	51.429	0.170	0.160
-342.377	-200.000	0.008	-0.067
-341.362	123.230	-0.209	-0.259
-340.348	-17.960	0.200	-0.124
-339.333	17.754	-0.103	-0.082
-338.318	-101.543	-0.038	-0.009
-337.304	-107.574	-0.372	-0.081
-336.289	-124.458	0.238	0.037
-335.275	423.414	-0.067	-0.142
-334.260	174.041	-0.118	-0.168
-333.245	800.000	0.169	-0.511
-332.231	223.807	0.175	-0.280
-331.216	-200.000	-0.005	0.098
-330.202	-64.137	0.185	-0.075
-329.187	-115.556	0.258	-0.048
-328.172	-200.000	0.018	-0.102
-327.158	383.195	-0.144	0.293
-326.143	-136.640	-0.182	-0.021
-325.129	-137.797	-0.067	0.007
-324.114	-9.445	0.188	-0.124
-323.099	-190.231	-0.170	0.002
-322.085	142.621	0.055	0.073
-321.070	-97.781	-0.169	-0.043
-320.056	212.508	-0.184	-0.287
-319.041	800.000	-0.036	-0.102
-318.026	-119.239	-0.269	-0.046
-317.012	-200.000	0.026	0.450
-315.997	-200.000	-0.008	0.206
-314.983	260.749	0.082	-0.140
-313.968	340.069	-0.054	0.103
-312.953	316.115	-0.144	0.269
-311.939	-113.539	0.183	-0.035
-310.924	213.680	0.081	-0.126
-309.910	76.540	-0.076	0.080
-308.895	-200.000	0.104	0.530
-307.880	400.661	0.039	0.081
-306.866	-16.792	-0.174	-0.109
-305.851	287.145	-0.122	0.218
-304.837	-55.758	0.301	-0.133
-303.822	-62.180	0.012	-0.005
-302.807	-143.434	0.111	0.010
-301.793	-63.800	0.116	-0.047
-300.778	-124.571	0.178	-0.027
-299.764	-153.303	-0.117	0.008
-298.749	197.950	0.099	0.150
-297.735	0.375	-0.071	0.050
-296.720	-45.288	0.172	0.084
-295.705	508.368	-0.068	-0.156
-294.691	227.907	0.027	-0.044
-293.676	800.000	0.013	-0.052
-292.662	133.349	0.230	-0.294
-291.647	-51.316	-0.279	-0.129
-290.632	-3.790	0.255	0.175
-289.618	-123.230	-0.103	-0.016
-288.603	-200.000	0.032	-0.284
-287.589	47.562	-0.138	0.128
-286.574	93.451	-0.068	-0.076
-285.559	800.000	-0.050	0.157
-284.545	58.228	-0.070	-0.068
-283.530	11.334	-0.022	-0.017
-282.516	137.725	0.168	0.217
-281.501	-200.000	-0.037	0.306
-280.486	82.983	0.108	0.116
-279.472	140.472	-0.069	-0.090
-278.457	-124.936	-0.285	-0.043
-277.443	-200.000	0.061	-0.343
-276.428	349.359	0.049	-0.096
-275.413	186.378	-0.184	0.271
-274.399	-134.276	0.148	0.018
-273.384	-65.024	0.434	-0.173
-272.370	-96.717	-0.192	0.050
-271.355	-25.551	0.043	-0.025
-270.340	-64.697	-0.133	0.053
-269.326	-200.000	0.055	0.247
-268.311	65.435	0.205	-0.205
-267.297	110.441	0.168	0.199
-266.282	397.248	-0.149	0.307
-265.267	-20.124	0.326	-0.199
-264.253	-11.808	0.166	0.108
-263.238	-41.009	-0.274	-0.140
-262.224	-127.540	0.264	-0.038
-261.209	-200.000	-0.033	0.217
-260.195	-79.853	0.097	0.032
-259.180	-146.646	0.356	0.030
-258.165	-24.332	-0.210	0.124
-257.151	-97.852	0.182	0.046
-256.136	-200.000	-0.042	0.218
-255.122	-27.905	-0.046	-0.026
-254.107	-142.401	0.377	-0.037
-253.092	-16.264	-0.256	-0.161
-252.078	-62.240	0.256	0.105
-251.063	800.000	-0.107	0.358
-250.049	-135.795	0.102	0.012
-249.034	-175.169	-0.024	0.001
-248.019	800.000	0.013	0.055
-247.005	-200.000	0.002	0.385
-245.990	26.353	-0.139	-0.115
-244.976	-200.000	0.005	-0.058
-243.961	-95.318	-0.281	0.075
-242.946	380.137	0.064	0.129
-241.932	-159.392	0.074	0.004
-240.917	-123.362	0.388	0.061
-239.903	14.980	-0.130	-0.101
-238.888	57.165	0.068	-0.066
-237.873	-23.399	0.046	0.027
-236.859	-141.509	0.418	-0.042
-235.844	-43.488	0.207	0.103
-234.830	-114.884	-0.083	0.016
-233.815	-21.576	0.128	0.077
-232.800	425.758	-0.067	-0.143
-231.786	-22.084	-0.173	0.104
-230.771	35.537	-0.107	-0.093
-229.757	81.970	-0.300	-0.321
-228.742	-17.621	0.116	-0.072
-227.727	800.000	-0.083	0.264
-226.713	150.951	-0.009	0.012
-225.698	-68.422	0.081	-0.031
-224.684	-200.000	0.013	-0.094
-223.669	-200.000	0.028	0.163
-222.655	-33.266	-0.114	0.062
-221.640	-73.803	0.089	-0.032
-220.625	-74.295	0.128	-0.046
-219.611	-7.642	0.170	0.114
-218.596	175.739	0.096	0.137
-217.582	-109.798	-0.143	0.030
-216.567	73.278	-0.176	-0.181
-215.552	-200.000	-0.045	0.326
-214.538	-200.000	0.011	-0.189
-213.523	800.000	-0.080	0.256
-212.509	-129.014	0.130	0.018
-211.494	421.896	0.047	-0.100
-210.479	-200.000	-0.033	0.183
-209.465	160.657	-0.037	-0.051
-208.450	112.792	0.171	-0.204
-207.436	-200.000	-0.032	0.164
-206.421	800.000	-0.056	0.218
-205.406	47.093	-0.141	-0.129
-204.392	-45.624	-0.098	-0.048
-203.377	800.000	0.005	0.014
-202.363	109.889	-0.047	-0.055
-201.348	-67.186	0.169	0.066
-200.333	12.623	-0.099	0.076
-199.319	36.702	-0.069	-0.060
-198.304	-200.000	0.048	0.212
-197.290	415.469	-0.111	0.234
-196.275	800.000	0.028	-0.075
-195.260	-200.000	-0.004	0.374
-194.246	264.518	-0.146	-0.250
-193.231	-200.000	0.016	0.072
-192.217	38.221	0.133	0.116
-191.202	-174.040	-0.095	-0.003
-190.187	342.415	0.155	0.299
-189.173	800.000	0.110	0.319
-188.158	-3.853	-0.138	0.094
-187.144	-200.000	0.013	-0.192
-186.129	344.094	0.254	0.491
-185.114	-18.190	-0.240	0.148
-184.100	164.629	0.286	0.397
-183.085	-200.000	-0.011	0.230
-182.071	-200.000	-0.077	0.339
-181.056	-138.987	0.074	-0.008
-180.042	-200.000	-0.037	-0.209
-179.027	13.126	-0.129	0.098
-178.012	0.658	0.085	0.060
-176.998	-116.342	0.072	0.013
-175.983	361.452	-0.117	0.231
-174.969	-57.347	-0.262	0.113
-173.954	-200.000	-0.002	0.023
-172.939	29.535	0.248	0.207
-171.925	-21.691	0.242	-0.145
-170.910	800.000	0.048	0.164
-169.896	-107.723	0.301	0.065
-168.881	47.161	-0.169	-0.155
-167.866	-200.000	0.001	0.032
-166.852	-3.509	-0.328	-0.225
-165.837	-21.497	-0.101	-0.061
-164.823	-64.248	0.196	-0.078
-163.808	-200.000	0.052	-0.324
-162.793	36.884	-0.148	-0.129
-161.779	164.142	-0.121	-0.168
-160.764	-159.439	0.285	0.016
-159.750	800.000	-0.054	0.161
-158.735	-88.809	0.103	0.030
-157.720	114.315	0.270	0.323
-156.706	397.179	0.024	0.048
-155.691	-25.782	0.199	0.115
-154.677	-11.541	0.082	-0.053
-153.662	139.346	-0.058	-0.074
-152.647	-200.000	-0.075	0.368
-151.633	25.060	0.227	-0.186
-150.618	196.624	-0.171	-0.256
-149.604	-107.499	-0.284	-0.061
-148.589	-57.860	0.211	0.091
-147.574	-107.534	0.193	0.042
-146.560	-77.540	0.122	0.042
-145.545	-71.723	-0.376	0.138
-144.531	672.118	0.140	-0.357
-143.516	34.795	-0.091	-0.078
-142.502	-21.758	0.297	0.178
-141.487	800.000	0.014	0.059
-140.472	-200.000	0.033	0.234
-139.458	-200.000	-0.018	0.407
-138.443	-172.356	0.201	-0.006
-137.429	-200.000	0.025	0.219
-136.414	-165.124	-0.216	-0.009
-135.399	800.000	-0.090	0.302
-134.385	-91.233	-0.406	0.114
-133.370	-90.823	-0.118	0.033
-132.356	800.000	0.047	0.195
-131.341	54.358	-0.184	-0.175
-130.326	44.121	-0.263	-0.237
-129.312	88.296	-0.245	-0.267
-128.297	-151.883	0.388	0.028
-127.283	-200.000	0.002	0.012
-126.268	-17.872	-0.115	-0.071
-125.253	327.234	0.132	0.250
-124.239	-33.393	-0.357	0.194
-123.224	-88.407	0.103	0.030
-122.210	-100.644	0.211	-0.051
-121.195	-94.319	-0.176	-0.047
