DTS Sentinel unit serial number:	SN413079Multiplexer serial number:	ORYXHardware model number:	OX4-SRSoftware version number:	ORYX F/W v4.00 Oryx Data Collector v3.7.2.0data status	okinstallation	princeton_trtdifferential loss correction	single-endedforward channel	channel 4reverse channel	N/Adate	2019/09/15time	13:33:35forward acquisition time	60.00reverse acquisition time	0.00gamma	496.2192k internal	0.2291k external	0.2291temperature offset calibration	0.9994default loss term (dB/km)	0.3790temperature slope calibration	1.0000multiplexer offset coefficient	1.0000multiplexer slope coefficient	1.0000fibre end	0.00T internal ref (°C)	37.67T ext. ref 1 (°C)	4.84T ext. ref 2 (°C)	34.94length (m)	temperature (°C)	Stokes	anti-Stokes-747.200	82.987	-0.026	0.029
-746.185	35.953	0.203	0.183
-745.171	-102.189	-0.167	-0.041
-744.156	-200.000	-0.004	0.368
-743.142	800.000	0.057	0.168
-742.127	-200.000	-0.013	0.371
-741.112	-135.633	0.307	0.037
-740.098	800.000	0.059	0.179
-739.083	-200.000	-0.011	-0.084
-738.069	-98.622	-0.418	0.109
-737.054	-57.319	-0.156	-0.070
-736.039	-200.000	-0.017	-0.109
-735.025	-200.000	-0.044	-0.210
-734.010	-33.707	-0.292	0.165
-732.996	-152.349	-0.095	0.007
-731.981	-56.379	-0.109	0.050
-730.966	-69.636	-0.252	0.099
-729.952	-171.042	-0.182	-0.006
-728.937	74.054	0.088	0.094
-727.923	-101.016	-0.145	-0.036
-726.908	-23.038	0.022	0.013
-725.894	-116.367	-0.287	0.054
-724.879	-7.782	-0.223	-0.154
-723.864	9.277	-0.051	0.040
-722.850	-200.000	0.014	0.146
-721.835	-1.615	0.147	0.106
-720.821	-33.300	-0.022	-0.013
-719.806	99.415	0.164	-0.195
-718.791	-25.930	-0.204	-0.123
-717.777	4.773	-0.119	0.090
-716.762	-16.165	0.145	-0.094
-715.748	-75.106	-0.175	-0.064
-714.733	-200.000	-0.025	-0.296
-713.718	800.000	-0.015	0.066
-712.704	-84.292	-0.549	-0.178
-711.689	-78.399	0.082	-0.029
-710.675	366.540	-0.085	0.176
-709.660	72.235	-0.062	-0.066
-708.645	442.145	-0.031	-0.069
-707.631	74.033	0.096	-0.103
-706.616	294.883	-0.038	-0.071
-705.602	-200.000	0.013	-0.148
-704.587	-200.000	0.090	-0.509
-703.572	165.309	0.131	0.189
-702.558	134.980	-0.057	-0.076
-701.543	-163.033	-0.046	0.002
-700.529	7.526	-0.074	-0.057
-699.514	800.000	-0.057	0.168
-698.499	-72.537	0.258	0.097
-697.485	800.000	0.022	0.088
-696.470	9.723	0.202	-0.157
-695.456	495.776	0.143	-0.335
-694.441	30.510	-0.082	-0.072
-693.426	102.479	0.237	0.284
-692.412	-200.000	-0.008	-0.122
-691.397	-148.819	0.078	-0.006
-690.383	146.937	-0.097	0.133
-689.368	-142.867	0.163	0.016
-688.354	-130.128	0.285	-0.040
-687.339	-200.000	0.031	-0.273
-686.324	622.336	0.009	-0.024
-685.310	4.150	-0.311	0.233
-684.295	-200.000	0.047	0.212
-683.281	0.597	-0.270	-0.197
-682.266	-96.702	0.105	-0.028
-681.251	-87.381	-0.108	-0.033
-680.237	84.833	-0.224	-0.251
-679.222	93.511	-0.194	0.225
-678.208	374.804	-0.057	0.119
-677.193	-49.477	-0.055	0.027
-676.178	25.992	-0.139	-0.118
-675.164	-200.000	0.025	0.290
-674.149	-200.000	0.011	0.115
-673.135	-21.729	0.300	-0.187
-672.120	12.346	-0.166	0.130
-671.105	-200.000	0.014	-0.254
-670.091	76.491	0.127	-0.137
-669.076	-73.501	-0.201	0.075
-668.062	640.970	0.132	-0.343
-667.047	87.855	-0.180	-0.204
-666.032	800.000	-0.183	-0.554
-665.018	-114.064	-0.061	0.012
-664.003	89.726	-0.060	-0.068
-662.989	-17.208	-0.537	-0.345
-661.974	23.701	-0.127	0.107
-660.959	-200.000	-0.005	0.142
-659.945	-97.368	0.239	0.064
-658.930	53.837	-0.045	-0.044
-657.916	-200.000	-0.016	-0.162
-656.901	571.195	0.110	-0.272
-655.886	41.584	-0.171	0.158
-654.872	-200.000	-0.028	-0.148
-653.857	-200.000	0.043	-0.222
-652.843	409.554	0.065	-0.141
-651.828	101.762	0.213	-0.254
-650.814	-43.709	0.159	0.082
-649.799	-200.000	-0.001	-0.259
-648.784	773.945	0.028	-0.077
-647.770	177.441	0.020	0.030
-646.755	205.617	-0.230	-0.365
-645.741	800.000	-0.024	-0.103
-644.726	-98.396	-0.072	-0.019
-643.711	263.529	0.148	-0.262
-642.697	433.265	0.044	-0.096
-641.682	153.529	-0.178	0.249
-640.668	800.000	0.068	-0.232
-639.653	226.050	-0.102	-0.169
-638.638	-10.198	-0.057	0.039
-637.624	321.579	0.105	0.204
-636.609	800.000	-0.132	-0.384
-635.595	-40.481	0.118	-0.062
-634.580	-200.000	-0.002	0.056
-633.565	-200.000	0.039	0.234
-632.551	-97.832	0.209	-0.055
-631.536	800.000	-0.113	-0.348
-630.522	800.000	0.023	0.077
-629.507	-51.199	0.132	0.063
-628.492	-96.746	-0.620	0.166
-627.478	800.000	-0.032	0.125
-626.463	-200.000	0.043	-0.197
-625.449	-135.799	0.119	-0.014
-624.434	-184.584	0.186	-0.003
-623.419	-50.998	0.268	0.128
-622.405	-6.878	0.217	-0.150
-621.390	-200.000	-0.058	-0.337
-620.376	-102.000	-0.260	-0.064
-619.361	113.204	0.020	-0.025
-618.346	111.636	0.063	-0.077
-617.332	-138.906	0.232	0.026
-616.317	-32.488	0.227	0.129
-615.303	-152.549	0.135	0.010
-614.288	-200.000	-0.026	-0.138
-613.273	-200.000	0.035	-0.347
-612.259	251.182	0.037	-0.065
-611.244	111.283	0.154	0.189
-610.230	800.000	-0.049	-0.139
-609.215	-25.171	-0.077	-0.046
-608.201	-4.420	0.231	0.163
-607.186	282.117	-0.024	0.043
-606.171	800.000	0.057	0.183
-605.157	119.502	0.118	-0.149
-604.142	-69.279	0.285	-0.112
-603.128	800.000	-0.002	0.007
-602.113	800.000	-0.047	0.185
-601.098	386.605	-0.046	0.098
-600.084	-30.200	-0.036	-0.021
-599.069	-200.000	-0.015	-0.131
-598.055	27.536	0.187	0.160
-597.040	-153.384	-0.441	-0.031
-596.025	-104.470	-0.059	0.014
-595.011	-84.285	0.187	0.060
-593.996	-47.577	-0.116	0.057
-592.982	57.350	0.221	0.220
-591.967	41.617	-0.084	0.077
-590.952	50.498	0.032	0.031
-589.938	-200.000	0.028	-0.154
-588.923	-200.000	0.003	-0.220
-587.909	15.261	-0.401	-0.320
-586.894	800.000	0.020	0.073
-585.879	797.369	0.062	0.173
-584.865	-99.846	-0.186	0.047
-583.850	-188.589	-0.149	-0.002
-582.836	-10.385	0.161	0.109
-581.821	27.403	0.013	0.011
-580.806	-25.277	0.240	-0.145
-579.792	-4.011	0.150	0.106
-578.777	-100.597	0.107	0.027
-577.763	-46.587	-0.488	0.244
-576.748	425.758	0.049	-0.106
-575.733	-68.782	0.166	0.065
-574.719	190.872	0.167	0.256
-573.704	-50.633	0.097	-0.047
-572.690	-23.961	0.070	-0.043
-571.675	13.642	0.209	0.165
-570.661	692.175	-0.124	-0.331
-569.646	-39.945	0.275	-0.146
-568.631	-200.000	-0.053	-0.358
-567.617	358.440	0.194	-0.394
-566.602	500.907	0.103	0.242
-565.588	-67.182	-0.293	-0.117
-564.573	-161.532	0.177	0.009
-563.558	-200.000	0.006	0.114
-562.544	380.634	-0.063	-0.132
-561.529	-25.334	0.168	0.101
-560.515	3.452	0.077	0.057
-559.500	-129.019	-0.253	0.036
-558.485	-200.000	-0.015	0.176
-557.471	-130.505	0.381	-0.052
-556.456	148.024	-0.214	-0.294
-555.442	527.957	0.091	-0.218
-554.427	-158.022	0.192	0.011
-553.412	188.439	0.135	0.206
-552.398	62.305	0.063	-0.064
-551.383	164.031	0.109	-0.156
-550.369	122.048	0.137	0.174
-549.354	224.361	0.114	0.188
-548.339	-57.595	-0.135	0.060
-547.325	-200.000	0.003	-0.134
-546.310	-19.630	-0.275	0.173
-545.296	133.770	-0.101	0.133
-544.281	-19.540	0.005	0.003
-543.266	219.055	0.117	-0.191
-542.252	528.279	-0.073	-0.174
-541.237	-200.000	-0.125	0.566
-540.223	800.000	-0.035	-0.117
-539.208	-137.065	0.158	0.018
-538.193	-200.000	0.028	0.135
-537.179	-17.107	-0.027	0.017
-536.164	-39.818	-0.326	-0.173
-535.150	96.047	0.224	0.260
-534.135	-96.113	0.256	0.069
-533.121	-62.468	-0.087	0.037
-532.106	0.311	0.390	-0.283
-531.091	-200.000	-0.049	-0.423
-530.077	-120.359	-0.365	0.063
-529.062	-200.000	-0.006	-0.115
-528.048	256.153	0.078	0.135
-527.033	255.577	-0.221	0.384
-526.018	-200.000	0.031	0.240
-525.004	-159.303	-0.301	-0.017
-523.989	-127.716	0.085	-0.012
-522.975	-30.683	-0.352	-0.202
-521.960	-100.516	-0.074	-0.019
-520.945	167.201	-0.056	-0.081
-519.931	800.000	0.053	-0.189
-518.916	-200.000	-0.002	0.200
-517.902	337.543	-0.142	-0.280
-516.887	293.135	-0.086	-0.160
-515.872	-131.688	-0.270	0.036
-514.858	312.340	-0.010	-0.019
-513.843	-19.076	-0.233	-0.147
-512.829	-23.658	-0.081	0.049
-511.814	-88.469	-0.248	-0.075
-510.799	-164.572	0.256	0.012
-509.785	-139.630	-0.297	0.032
-508.770	391.034	-0.103	-0.216
-507.756	-99.903	0.072	0.018
-506.741	-200.000	-0.037	-0.347
-505.726	800.000	-0.065	0.253
-504.712	-187.291	-0.133	0.002
-503.697	80.510	-0.120	0.131
-502.683	213.649	-0.228	0.366
-501.668	-114.128	0.280	-0.055
-500.653	-133.901	-0.207	-0.026
-499.639	52.258	-0.239	-0.232
-498.624	800.000	-0.049	0.158
-497.610	112.777	-0.257	0.316
-496.595	25.502	-0.149	-0.126
-495.581	3.065	-0.392	0.289
-494.566	-94.556	0.300	0.083
-493.551	104.355	-0.219	-0.261
-492.537	-70.395	0.266	-0.102
-491.522	-200.000	-0.029	-0.142
-490.508	-117.387	0.080	-0.015
-489.493	224.423	0.096	0.158
-488.478	-13.594	-0.080	-0.052
-487.464	21.447	0.227	-0.187
-486.449	-200.000	-0.002	0.089
-485.435	43.472	-0.068	-0.063
-484.420	-200.000	-0.001	-0.172
-483.405	25.716	0.211	0.178
-482.391	-24.335	0.072	-0.044
-481.376	-93.481	0.176	0.049
-480.362	107.500	0.131	0.158
-479.347	119.904	-0.052	-0.065
-478.332	744.916	0.079	-0.216
-477.318	-200.000	-0.034	-0.210
-476.303	-114.250	0.123	0.024
-475.289	-200.000	0.004	-0.120
-474.274	-73.790	0.194	0.071
-473.259	-79.048	0.167	0.058
-472.245	-135.152	0.340	0.041
-471.230	-37.997	-0.376	0.202
-470.216	-129.521	0.469	0.066
-469.201	-139.181	-0.015	0.002
-468.186	-200.000	0.032	-0.151
-467.172	-33.586	-0.319	0.178
-466.157	-9.580	0.107	-0.072
-465.143	-84.517	0.140	0.045
-464.128	21.909	0.097	0.080
-463.113	-124.598	-0.177	0.028
-462.099	800.000	-0.063	-0.181
-461.084	-144.617	0.241	-0.023
-460.070	800.000	-0.095	-0.370
-459.055	800.000	-0.129	-0.425
-458.040	-200.000	0.022	-0.168
-457.026	-128.273	-0.127	-0.018
-456.011	-74.967	-0.021	0.008
-454.997	800.000	-0.012	-0.048
-453.982	121.001	-0.014	-0.018
-452.968	198.626	0.071	0.110
-451.953	75.447	0.104	0.111
-450.938	-51.681	0.006	-0.003
-449.924	-200.000	-0.001	0.046
-448.909	-162.309	0.310	0.016
-447.895	-64.649	0.091	-0.037
-446.880	29.308	-0.249	0.214
-445.865	-200.000	0.059	0.500
-444.851	132.756	0.134	0.175
-443.836	-178.868	-0.157	0.004
-442.822	1.177	0.150	-0.109
-441.807	-200.000	0.041	0.450
-440.792	-45.139	0.436	0.219
-439.778	591.988	0.145	-0.361
-438.763	-38.744	0.101	0.054
-437.749	-169.025	0.009	0.000
-436.734	61.455	0.165	0.166
-435.719	800.000	-0.044	0.153
-434.705	-0.373	0.166	0.119
-433.690	-87.926	0.067	-0.020
-432.676	81.833	-0.060	0.066
-431.661	-114.855	-0.072	-0.014
-430.646	339.474	0.129	0.255
-429.632	-125.935	-0.345	0.053
-428.617	-84.031	-0.322	-0.103
-427.603	51.892	0.291	-0.280
-426.588	800.000	0.034	-0.137
-425.573	202.046	0.161	0.251
-424.559	21.931	0.107	-0.088
-423.544	449.893	-0.036	-0.080
-422.530	-70.994	-0.152	-0.058
-421.515	-73.844	0.231	-0.085
-420.500	341.677	-0.066	-0.131
-419.486	-200.000	-0.028	0.186
-418.471	800.000	-0.067	0.240
-417.457	-152.093	-0.316	-0.023
-416.442	-89.802	-0.030	0.009
-415.428	-79.717	-0.065	0.022
-414.413	-105.732	-0.211	-0.048
-413.398	-200.000	-0.023	-0.421
-412.384	318.409	0.195	0.373
-411.369	-29.240	0.102	0.059
-410.355	-169.902	-0.169	0.006
-409.340	-200.000	0.036	0.236
-408.325	-69.991	-0.213	0.082
-407.311	225.126	-0.049	-0.081
-406.296	800.000	0.028	0.124
-405.282	800.000	0.108	-0.356
-404.267	42.900	0.218	-0.201
-403.252	-150.638	-0.232	-0.018
-402.238	-49.212	-0.087	-0.042
-401.223	-29.172	0.136	-0.079
-400.209	-25.975	0.093	0.055
-399.194	800.000	-0.021	0.091
-398.179	76.123	0.098	0.105
-397.165	-107.695	0.197	0.043
-396.150	-162.708	-0.428	-0.021
-395.136	546.768	0.023	0.055
-394.121	52.500	0.096	0.093
-393.106	800.000	0.037	0.141
-392.092	-58.452	-0.226	0.099
-391.077	213.380	-0.126	-0.201
-390.063	-200.000	0.076	-0.369
-389.048	-1.791	-0.045	-0.032
-388.033	-117.940	0.211	0.038
-387.019	-96.855	0.145	0.038
-386.004	-139.220	0.452	-0.049
-384.990	-66.684	-0.224	-0.090
-383.975	-91.489	0.127	0.037
-382.960	-151.747	0.235	-0.017
-381.946	203.586	0.110	-0.171
-380.931	237.937	-0.222	0.372
-379.917	-200.000	0.006	0.043
-378.902	-69.879	0.125	-0.048
-377.888	73.495	-0.125	0.132
-376.873	-200.000	-0.007	0.092
-375.858	-57.340	0.204	0.091
-374.844	20.988	0.405	-0.332
-373.829	-35.508	0.098	0.053
-372.815	101.013	-0.233	0.273
-371.800	-73.136	-0.137	0.051
-370.785	-163.974	-0.267	0.013
-369.771	-54.105	-0.171	0.079
-368.756	-200.000	0.020	-0.110
-367.742	6.880	0.231	0.173
-366.727	30.740	0.250	-0.216
-365.712	799.470	0.145	0.403
-364.698	-31.704	-0.112	-0.063
-363.683	-150.151	0.084	0.007
-362.669	515.638	-0.197	-0.463
-361.654	-200.000	0.064	-0.291
-360.639	800.000	-0.032	-0.095
-359.625	-50.326	-0.044	0.021
-358.610	118.813	-0.180	0.224
-357.596	-171.486	-0.165	0.006
-356.581	379.498	-0.077	-0.160
-355.566	-76.345	-0.176	0.063
-354.552	42.748	0.219	0.201
-353.537	11.040	-0.133	-0.103
-352.523	26.038	0.166	0.139
-351.508	-74.404	-0.077	-0.028
-350.493	175.644	0.120	0.175
-349.479	32.625	0.249	0.217
-348.464	124.701	0.176	-0.223
-347.450	-47.182	0.236	-0.116
-346.435	136.792	0.115	0.152
-345.420	306.129	0.239	0.449
-344.406	23.540	-0.172	-0.143
-343.391	22.397	0.316	0.261
-342.377	800.000	0.003	0.014
-341.362	-15.866	0.262	0.168
-340.348	28.500	0.168	-0.143
-339.333	188.280	-0.111	0.167
-338.318	-113.309	0.179	0.035
-337.304	-172.945	-0.374	-0.012
-336.289	321.471	-0.071	0.136
-335.275	-83.720	0.044	0.014
-334.260	333.825	-0.120	0.234
-333.245	800.000	0.025	-0.103
-332.231	-200.000	0.046	0.298
-331.216	-83.692	-0.278	-0.090
-330.202	37.846	-0.156	0.140
-329.187	-16.782	-0.091	-0.058
-328.172	25.903	-0.132	0.111
-327.158	71.885	0.122	-0.128
-326.143	-116.864	0.199	-0.037
-325.129	48.249	-0.238	0.225
-324.114	-136.499	0.308	0.036
-323.099	-56.428	0.194	-0.087
-322.085	-200.000	-0.016	0.116
-321.070	-164.521	-0.242	-0.011
-320.056	-200.000	0.009	0.138
-319.041	16.597	0.169	0.134
-318.026	-18.698	0.061	-0.038
-317.012	-200.000	-0.025	-0.118
-315.997	589.757	-0.136	-0.337
-314.983	46.536	0.214	-0.200
-313.968	-31.955	-0.078	-0.044
-312.953	489.786	-0.095	-0.219
-311.939	800.000	-0.074	-0.307
-310.924	-101.939	-0.329	-0.080
-309.910	-200.000	-0.014	-0.386
-308.895	-25.278	-0.351	-0.209
-307.880	272.342	0.092	-0.163
-306.866	-85.846	-0.169	-0.053
-305.851	-112.242	-0.280	0.057
-304.837	-9.523	0.227	0.152
-303.822	-0.143	-0.039	-0.028
-302.807	-200.000	0.084	-0.391
-301.793	-84.674	0.258	0.082
-300.778	-80.960	0.167	-0.056
-299.764	308.362	-0.018	0.034
-298.749	0.482	-0.155	0.112
-297.735	-95.191	0.241	-0.065
-296.720	-200.000	-0.018	-0.091
-295.705	476.270	-0.022	-0.051
-294.691	-124.846	-0.210	-0.033
-293.676	80.364	-0.382	-0.414
-292.662	365.419	-0.146	0.295
-291.647	82.729	-0.159	0.174
-290.632	-0.389	-0.322	-0.230
-289.618	-135.799	-0.227	-0.027
-288.603	800.000	-0.095	-0.320
-287.589	671.663	-0.059	0.154
-286.574	800.000	-0.050	-0.203
-285.559	800.000	0.046	0.189
-284.545	35.341	0.197	0.173
-283.530	354.235	-0.222	0.444
-282.516	-80.202	-0.037	-0.013
-281.501	438.580	-0.084	-0.183
-280.486	-4.196	-0.223	0.156
-279.472	-91.780	0.145	-0.041
-278.457	-11.671	0.200	0.132
-277.443	-98.800	-0.051	-0.013
-276.428	284.273	-0.019	-0.034
-275.413	40.892	0.200	0.182
-274.399	-171.513	0.352	0.012
-273.384	800.000	0.039	-0.120
-272.370	127.037	0.120	0.153
-271.355	-8.492	-0.128	0.087
-270.340	-152.931	0.201	0.014
-269.326	-63.036	0.235	-0.098
-268.311	-155.688	-0.150	0.010
-267.297	91.651	0.139	0.157
-266.282	800.000	-0.065	0.246
-265.267	-200.000	-0.001	-0.100
-264.253	111.744	-0.076	0.092
-263.238	-102.959	-0.194	-0.046
-262.224	293.337	0.177	-0.324
-261.209	733.111	0.017	-0.044
-260.195	800.000	-0.071	-0.273
-259.180	-125.102	0.180	-0.028
-258.165	-147.123	-0.312	0.027
-257.151	-200.000	-0.033	-0.337
-256.136	114.555	-0.153	-0.187
-255.122	-200.000	-0.029	0.216
-254.107	-200.000	0.032	0.246
-253.092	800.000	-0.116	0.354
-252.078	-118.566	-0.053	-0.009
-251.063	-38.990	0.205	0.108
-250.049	436.962	-0.021	0.045
-249.034	238.334	-0.045	0.075
-248.019	-61.719	-0.122	-0.051
-247.005	-83.726	-0.198	0.064
-245.990	79.747	-0.032	-0.035
-244.976	-126.218	-0.109	0.016
-243.961	208.165	-0.277	0.435
-242.946	246.086	-0.196	0.331
-241.932	108.836	-0.223	0.268
-240.917	-200.000	0.002	-0.015
-239.903	-28.413	-0.067	-0.039
-238.888	-89.848	-0.196	0.057
-237.873	-200.000	0.006	0.353
-236.859	-64.818	0.037	0.015
-235.844	-98.306	0.254	-0.065
-234.830	612.039	0.024	0.060
-233.815	-61.276	0.082	0.034
-232.800	65.999	0.040	0.041
-231.786	114.382	-0.023	0.028
-230.771	-30.429	-0.339	0.193
-229.757	338.278	0.061	-0.119
-228.742	-63.333	-0.142	0.059
-227.727	-191.488	-0.445	0.004
-226.713	37.721	-0.091	-0.081
-225.698	-200.000	-0.021	0.135
-224.684	310.955	-0.039	-0.073
-223.669	800.000	0.129	-0.367
-222.655	120.517	0.163	0.203
-221.640	55.744	0.063	-0.062
-220.625	176.069	-0.094	0.137
-219.611	196.236	0.215	-0.328
-218.596	800.000	0.093	0.276
-217.582	-200.000	0.052	-0.414
-216.567	237.057	0.042	0.070
-215.552	4.933	-0.136	0.100
-214.538	54.786	-0.170	-0.165
-213.523	30.214	-0.085	0.073
-212.509	36.751	0.186	-0.165
-211.494	53.153	0.083	0.080
-210.479	0.292	0.222	-0.159
-209.465	160.450	0.163	-0.227
-208.450	222.664	0.060	0.096
-207.436	111.213	0.176	0.213
-206.421	89.218	0.219	0.245
-205.406	-200.000	-0.029	-0.294
-204.392	-148.736	0.107	-0.009
-203.377	-65.978	0.303	-0.121
-202.363	-200.000	0.009	-0.165
-201.348	800.000	0.095	-0.294
-200.333	-96.398	0.123	-0.033
-199.319	483.115	-0.098	0.223
-198.304	-13.102	-0.233	-0.152
-197.290	-45.813	-0.336	-0.167
-196.275	386.895	0.045	0.093
-195.260	314.229	0.126	-0.238
-194.246	-101.165	-0.194	-0.048
-193.231	49.770	-0.199	0.188
-192.217	-200.000	0.041	-0.334
-191.202	-111.531	0.040	0.008
-190.187	664.955	-0.153	0.396
-189.173	-95.878	-0.433	0.116
-188.158	-44.270	-0.154	-0.077
-187.144	-200.000	-0.071	-0.389
-186.129	530.019	-0.040	0.095
-185.114	143.247	-0.086	0.114
-184.100	-200.000	-0.002	0.593
-183.085	-23.462	0.077	0.046
-182.071	205.848	0.172	-0.268
-181.056	-5.397	-0.172	0.118
-180.042	261.857	-0.062	-0.108
-179.027	-84.680	0.233	0.074
-178.012	135.865	0.075	-0.098
-176.998	-200.000	0.001	0.122
-175.983	-94.122	-0.290	0.080
-174.969	331.918	-0.071	-0.137
-173.954	296.039	-0.086	0.158
-172.939	-77.150	0.335	-0.117
-171.925	-86.255	-0.225	0.069
-170.910	-167.617	0.221	0.009
-169.896	800.000	-0.070	0.238
-168.881	98.426	0.172	0.199
-167.866	-132.154	0.039	0.005
-166.852	-169.744	-0.056	-0.002
-165.837	-111.101	0.277	-0.057
-164.823	-65.212	-0.084	0.034
-163.808	281.481	-0.066	-0.117
-162.793	-158.865	0.334	0.019
-161.779	-200.000	-0.005	0.040
-160.764	800.000	-0.039	0.134
-159.750	-200.000	-0.033	0.253
-158.735	-67.870	0.087	0.034
-157.720	18.622	-0.109	-0.087
-156.706	448.192	0.040	0.089
-155.691	283.776	-0.034	0.061
-154.677	38.600	0.165	0.147
-153.662	592.576	-0.124	-0.307
-152.647	-28.535	-0.104	-0.060
-151.633	401.822	-0.044	-0.093
-150.618	800.000	-0.052	-0.150
-149.604	391.095	0.119	-0.248
-148.589	-62.491	-0.114	-0.047
-147.574	-62.764	0.139	0.058
-146.560	748.144	-0.126	-0.340
-145.545	-164.685	0.087	0.004
-144.531	683.958	0.026	0.068
-143.516	-155.854	-0.187	0.012
-142.502	470.869	-0.141	-0.317
-141.487	242.729	0.090	-0.150
-140.472	-200.000	0.028	0.195
-139.458	-200.000	0.045	0.413
-138.443	497.864	0.102	0.235
-137.429	193.455	-0.090	-0.137
-136.414	104.905	0.147	0.174
-135.399	36.002	0.251	0.221
-134.385	419.270	-0.032	0.069
-133.370	800.000	0.049	0.162
-132.356	-107.861	-0.435	-0.095
-131.341	341.342	-0.142	-0.278
-130.326	-122.363	-0.052	0.009
-129.312	-61.793	0.222	0.093
-128.297	19.628	0.109	0.087
-127.283	-1.583	0.158	-0.111
-126.268	-86.741	0.182	-0.056
-125.253	-200.000	-0.037	-0.368
-124.239	361.240	-0.106	0.213
-123.224	-200.000	-0.004	0.209
-122.210	-38.155	0.101	-0.054
-121.195	181.416	0.155	-0.228
