DTS Sentinel unit serial number:	SN413079Multiplexer serial number:	ORYXHardware model number:	OX4-SRSoftware version number:	ORYX F/W v4.00 Oryx Data Collector v3.7.2.0data status	okinstallation	princeton_trtdifferential loss correction	single-endedforward channel	channel 4reverse channel	N/Adate	2019/09/11time	09:43:11forward acquisition time	60.00reverse acquisition time	0.00gamma	496.2192k internal	0.2297k external	0.2297temperature offset calibration	0.9973default loss term (dB/km)	0.3790temperature slope calibration	1.0000multiplexer offset coefficient	1.0000multiplexer slope coefficient	1.0000fibre end	0.00T internal ref (°C)	34.92T ext. ref 1 (°C)	0.14T ext. ref 2 (°C)	31.26length (m)	temperature (°C)	Stokes	anti-Stokes-747.200	-78.310	-0.097	-0.034
-746.185	392.873	-0.217	0.461
-745.171	-130.298	0.280	-0.039
-744.156	79.494	-0.201	-0.220
-743.142	53.569	-0.154	-0.151
-742.127	98.515	-0.173	0.204
-741.112	-77.010	0.165	0.059
-740.098	800.000	-0.048	0.197
-739.083	-200.000	0.020	0.229
-738.069	-65.103	-0.170	-0.070
-737.054	-91.470	-0.088	-0.026
-736.039	146.430	0.199	-0.272
-735.025	536.513	0.035	0.085
-734.010	123.786	-0.146	-0.187
-732.996	-200.000	0.015	-0.218
-731.981	241.195	-0.100	-0.171
-730.966	-146.079	-0.156	-0.014
-729.952	800.000	0.083	-0.322
-728.937	-14.644	-0.154	0.101
-727.923	-200.000	0.033	0.205
-726.908	152.996	-0.179	-0.249
-725.894	-200.000	-0.033	-0.421
-724.879	-86.209	-0.307	-0.097
-723.864	145.358	-0.154	-0.211
-722.850	-71.373	-0.109	0.042
-721.835	-132.575	-0.028	-0.004
-720.821	197.964	0.210	0.328
-719.806	-10.433	-0.128	0.087
-718.791	-100.269	0.282	-0.071
-717.777	-74.066	0.182	-0.067
-716.762	-200.000	0.005	-0.105
-715.748	-200.000	-0.041	-0.239
-714.733	800.000	0.026	-0.074
-713.718	800.000	0.036	-0.128
-712.704	47.876	0.279	-0.265
-711.689	0.935	-0.038	-0.028
-710.675	-200.000	-0.048	-0.342
-709.660	-173.132	0.132	0.004
-708.645	-200.000	-0.015	-0.274
-707.631	800.000	-0.086	-0.295
-706.616	151.081	0.104	0.144
-705.602	572.249	0.179	0.443
-704.587	561.961	-0.030	-0.075
-703.572	-48.034	0.048	0.024
-702.558	2.377	-0.178	-0.131
-701.543	-43.332	-0.301	0.155
-700.529	-200.000	-0.016	-0.223
-699.514	199.958	-0.154	-0.240
-698.499	800.000	0.084	-0.281
-697.485	-91.905	0.208	0.060
-696.470	800.000	-0.075	-0.255
-695.456	-180.279	0.034	0.001
-694.441	-86.343	0.207	0.065
-693.426	37.851	0.077	-0.070
-692.412	187.693	0.214	-0.326
-691.397	-61.221	0.146	-0.063
-690.383	-200.000	-0.062	-0.280
-689.368	134.700	-0.049	0.065
-688.354	134.637	-0.250	-0.330
-687.339	108.840	-0.101	-0.123
-686.324	-17.933	-0.162	0.104
-685.310	-200.000	0.034	-0.341
-684.295	32.036	-0.215	-0.189
-683.281	711.449	0.099	0.268
-682.266	25.130	-0.052	-0.044
-681.251	-121.737	0.243	-0.041
-680.237	433.393	0.154	0.341
-679.222	-5.286	0.126	0.088
-678.208	-120.867	0.229	-0.039
-677.193	-109.336	-0.242	-0.052
-676.178	-119.839	0.468	0.082
-675.164	304.714	-0.176	-0.334
-674.149	104.209	0.146	-0.175
-673.135	2.058	-0.195	-0.144
-672.120	139.242	-0.145	-0.194
-671.105	800.000	-0.051	-0.165
-670.091	543.319	0.152	-0.370
-669.076	-82.788	0.197	0.065
-668.062	70.080	0.049	-0.052
-667.047	116.580	0.137	-0.171
-666.032	-119.832	0.330	0.058
-665.018	800.000	-0.063	-0.176
-664.003	-200.000	-0.009	0.146
-662.989	-200.000	-0.052	-0.284
-661.974	800.000	-0.034	-0.125
-660.959	-110.569	0.110	0.023
-659.945	-137.036	-0.532	0.062
-658.930	-200.000	-0.014	0.335
-657.916	-72.315	0.148	-0.056
-656.901	29.072	0.158	-0.136
-655.886	-200.000	0.004	0.140
-654.872	136.891	-0.138	-0.184
-653.857	-138.819	0.134	-0.015
-652.843	-46.247	0.341	0.170
-651.828	-32.587	0.302	-0.171
-650.814	-117.472	0.259	-0.048
-649.799	-121.188	0.086	0.015
-648.784	54.248	0.409	-0.401
-647.770	-172.622	-0.389	0.012
-646.755	275.252	0.083	-0.149
-645.741	-71.755	0.238	0.090
-644.726	14.736	-0.129	0.102
-643.711	-83.416	-0.294	0.096
-642.697	-23.597	0.135	0.082
-641.682	-112.478	0.165	0.034
-640.668	-48.692	0.178	0.087
-639.653	119.170	-0.143	0.180
-638.638	-62.600	0.065	0.028
-637.624	784.399	0.072	0.202
-636.609	377.559	0.167	0.346
-635.595	174.952	-0.035	-0.051
-634.580	-150.009	0.086	0.007
-633.565	-43.416	-0.214	-0.110
-632.551	3.814	-0.257	-0.190
-631.536	-73.773	0.180	-0.067
-630.522	800.000	-0.050	0.155
-629.507	45.945	-0.335	-0.315
-628.492	19.070	0.050	0.041
-627.478	800.000	-0.022	0.094
-626.463	-108.325	0.275	-0.060
-625.449	800.000	0.146	0.411
-624.434	-200.000	0.047	0.296
-623.419	-13.978	-0.109	0.072
-622.405	-84.495	-0.079	0.025
-621.390	88.220	-0.162	-0.183
-620.376	-22.655	-0.423	-0.260
-619.361	276.499	0.113	-0.204
-618.346	-81.972	-0.266	-0.088
-617.332	-200.000	0.049	-0.219
-616.317	-148.130	0.070	0.006
-615.303	-200.000	0.003	0.156
-614.288	121.158	0.291	0.368
-613.273	97.909	-0.141	-0.164
-612.259	20.500	-0.153	-0.126
-611.244	211.650	0.094	-0.150
-610.230	800.000	0.042	0.120
-609.215	70.092	0.165	0.173
-608.201	-72.624	-0.041	0.015
-607.186	-200.000	-0.005	0.139
-606.171	-200.000	-0.005	0.193
-605.157	166.987	-0.164	0.236
-604.142	800.000	-0.088	0.352
-603.128	91.640	-0.097	-0.111
-602.113	-16.207	-0.266	0.172
-601.098	225.807	0.156	-0.256
-600.084	-172.603	0.115	0.004
-599.069	800.000	0.035	0.123
-598.055	647.763	0.074	0.193
-597.040	-32.224	-0.127	0.072
-596.025	-111.183	-0.208	-0.043
-595.011	-195.717	0.282	-0.002
-593.996	113.947	-0.284	0.351
-592.982	-150.842	-0.509	0.039
-591.967	-112.218	0.231	0.047
-590.952	549.244	-0.131	-0.318
-589.938	595.670	0.067	-0.168
-588.923	34.577	-0.303	0.269
-587.909	-200.000	0.003	0.215
-586.894	-28.565	-0.240	0.140
-585.879	1.759	0.156	0.114
-584.865	-95.412	-0.119	0.032
-583.850	-177.550	0.192	-0.005
-582.836	-126.410	0.275	0.042
-581.821	311.612	-0.068	0.129
-580.806	577.002	-0.055	-0.137
-579.792	800.000	-0.072	-0.264
-578.777	800.000	0.069	-0.306
-577.763	311.543	-0.250	0.475
-576.748	-14.145	0.294	0.192
-575.733	-200.000	-0.004	0.023
-574.719	34.021	-0.280	-0.248
-573.704	-121.701	-0.085	-0.014
-572.690	-131.989	-0.255	0.034
-571.675	-129.111	0.371	-0.053
-570.661	585.622	0.064	-0.161
-569.646	-200.000	-0.002	0.090
-568.631	303.393	-0.064	-0.120
-567.617	-86.454	0.131	-0.041
-566.602	46.962	0.110	-0.103
-565.588	451.194	0.109	-0.244
-564.573	-0.069	0.295	0.213
-563.558	66.075	0.162	-0.167
-562.544	800.000	0.040	0.137
-561.529	216.955	0.038	-0.062
-560.515	-140.521	-0.186	-0.020
-559.500	4.606	0.069	0.051
-558.485	48.259	0.173	-0.165
-557.471	166.095	0.046	-0.066
-556.456	71.114	-0.286	0.300
-555.442	-24.747	0.180	0.108
-554.427	-161.828	-0.273	-0.014
-553.412	-55.560	-0.182	0.083
-552.398	238.806	0.108	-0.182
-551.383	-106.105	0.193	-0.044
-550.369	800.000	-0.055	0.204
-549.354	201.425	0.035	-0.055
-548.339	4.003	0.264	0.196
-547.325	-66.661	-0.372	-0.149
-546.310	-69.143	-0.240	-0.094
-545.296	-200.000	0.018	0.090
-544.281	800.000	0.099	0.309
-543.266	-31.930	-0.208	0.118
-542.252	800.000	-0.027	-0.117
-541.237	-19.895	0.267	-0.167
-540.223	-25.668	-0.299	-0.179
-539.208	-102.980	-0.527	-0.127
-538.193	-86.064	-0.120	0.038
-537.179	-130.447	-0.430	-0.059
-536.164	-200.000	-0.045	-0.202
-535.150	-92.469	0.090	-0.026
-534.135	-146.802	-0.064	-0.006
-533.121	-157.857	-0.183	-0.011
-532.106	141.421	-0.084	0.113
-531.091	286.193	-0.150	-0.273
-530.077	-200.000	-0.034	0.239
-529.062	-200.000	-0.018	-0.318
-528.048	-200.000	-0.044	-0.206
-527.033	-30.414	-0.222	-0.127
-526.018	84.188	-0.203	-0.225
-525.004	260.178	0.122	0.213
-523.989	-134.856	-0.289	-0.035
-522.975	-67.339	-0.217	-0.086
-521.960	-67.710	-0.366	-0.145
-520.945	-172.724	0.159	0.005
-519.931	62.270	-0.202	-0.204
-518.916	-76.515	-0.324	-0.115
-517.902	13.830	0.079	-0.062
-516.887	-28.640	-0.042	-0.024
-515.872	77.723	0.144	0.156
-514.858	-34.147	-0.124	0.069
-513.843	-119.366	0.115	-0.020
-512.829	-200.000	-0.063	0.313
-511.814	800.000	0.075	-0.333
-510.799	-200.000	-0.007	-0.331
-509.785	-40.969	-0.353	-0.185
-508.770	800.000	-0.046	-0.189
-507.756	592.949	0.152	-0.379
-506.741	-117.556	0.176	0.032
-505.726	-3.159	0.091	-0.064
-504.712	-108.922	-0.408	-0.088
-503.697	227.946	0.095	-0.156
-502.683	-136.098	0.190	0.023
-501.668	-177.837	0.042	-0.001
-500.653	-35.431	-0.027	0.015
-499.639	-70.262	-0.423	-0.162
-498.624	-65.901	0.464	0.187
-497.610	260.256	-0.015	-0.027
-496.595	-200.000	0.004	-0.243
-495.581	47.504	0.117	0.110
-494.566	-200.000	-0.019	0.169
-493.551	-200.000	0.003	0.100
-492.537	775.440	0.050	-0.138
-491.522	14.402	-0.097	0.076
-490.508	354.229	-0.080	0.161
-489.493	191.791	0.241	0.367
-488.478	-200.000	0.016	0.093
-487.464	630.312	0.069	-0.176
-486.449	418.600	-0.083	0.180
-485.435	377.650	0.091	0.189
-484.420	-7.454	0.216	0.148
-483.405	31.615	0.248	0.216
-482.391	800.000	-0.092	0.383
-481.376	37.708	0.136	-0.122
-480.362	166.250	-0.053	0.076
-479.347	-58.954	-0.112	0.049
-478.332	14.944	-0.128	0.101
-477.318	588.785	-0.143	0.357
-476.303	-157.599	0.267	0.016
-475.289	-132.146	0.160	-0.021
-474.274	800.000	-0.048	-0.194
-473.259	-19.956	0.256	0.160
-472.245	-6.450	-0.264	-0.182
-471.230	-1.068	-0.140	0.100
-470.216	25.958	0.097	0.082
-469.201	800.000	-0.087	0.292
-468.186	-45.409	-0.096	0.048
-467.172	-43.445	-0.102	0.052
-466.157	112.437	0.236	0.288
-465.143	-25.759	0.030	-0.018
-464.128	16.163	-0.257	0.205
-463.113	-124.731	-0.340	0.053
-462.099	-41.853	0.242	0.125
-461.084	-200.000	-0.031	-0.272
-460.070	300.325	-0.078	-0.145
-459.055	-200.000	0.039	0.252
-458.040	159.093	0.083	0.116
-457.026	-111.308	0.265	0.055
-456.011	-30.783	0.277	-0.158
-454.997	279.975	0.084	-0.152
-453.982	407.327	-0.069	-0.147
-452.968	-2.571	0.228	0.161
-451.953	-200.000	0.025	0.121
-450.938	800.000	0.046	-0.140
-449.924	-96.181	0.278	0.074
-448.909	13.241	-0.134	-0.105
-447.895	-200.000	-0.016	0.248
-446.880	268.584	-0.100	0.176
-445.865	-88.678	0.385	-0.116
-444.851	8.436	0.140	-0.106
-443.836	350.684	0.066	-0.131
-442.822	-200.000	0.028	-0.145
-441.807	-157.035	-0.301	-0.019
-440.792	-200.000	-0.015	-0.124
-439.778	-200.000	0.015	0.189
-438.763	-200.000	-0.015	-0.193
-437.749	-64.853	-0.145	-0.059
-436.734	65.188	-0.135	0.138
-435.719	-1.496	0.144	0.103
-434.705	-117.011	-0.312	0.058
-433.690	-193.129	0.131	0.001
-432.676	-200.000	-0.030	0.149
-431.661	800.000	0.029	-0.100
-430.646	5.233	0.330	0.245
-429.632	800.000	0.047	0.136
-428.617	344.150	-0.020	-0.040
-427.603	293.669	-0.113	-0.208
-426.588	223.851	0.258	0.420
-425.573	310.051	-0.178	0.335
-424.559	800.000	-0.102	-0.336
-423.544	39.976	0.341	-0.308
-422.530	128.426	0.318	-0.409
-421.515	-123.791	-0.250	-0.040
-420.500	-92.063	-0.059	-0.017
-419.486	42.396	0.193	-0.177
-418.471	475.212	-0.091	0.208
-417.457	79.827	-0.197	-0.214
-416.442	-200.000	-0.006	0.130
-415.428	-200.000	0.063	0.415
-414.413	30.759	0.162	0.140
-413.398	-200.000	0.053	0.300
-412.384	-55.646	0.272	-0.123
-411.369	197.302	0.100	0.154
-410.355	444.549	0.071	-0.157
-409.340	-122.967	0.122	0.020
-408.325	800.000	0.117	0.343
-407.311	219.914	0.147	0.237
-406.296	-124.222	-0.126	0.020
-405.282	800.000	0.049	0.184
-404.267	112.686	0.140	-0.171
-403.252	-200.000	-0.006	-0.051
-402.238	-94.598	0.277	-0.076
-401.223	700.918	-0.172	0.456
-400.209	-139.069	0.083	0.009
-399.194	-200.000	-0.001	0.020
-398.179	422.883	0.146	-0.317
-397.165	-92.180	0.035	-0.010
-396.150	227.684	0.140	0.230
-395.136	86.703	0.318	0.354
-394.121	800.000	-0.064	-0.182
-393.106	17.055	0.320	-0.255
-392.092	-39.466	-0.064	0.034
-391.077	-42.786	-0.243	0.124
-390.063	-30.220	-0.341	0.195
-389.048	351.218	-0.115	0.229
-388.033	-200.000	0.005	-0.032
-387.019	-200.000	-0.052	-0.296
-386.004	-32.590	-0.090	-0.051
-384.990	275.590	-0.185	0.331
-383.975	-114.908	-0.285	-0.055
-382.960	86.998	0.108	-0.120
-381.946	-109.601	0.091	-0.019
-380.931	-36.571	-0.122	-0.066
-379.917	1.697	0.152	-0.110
-378.902	-159.560	-0.130	-0.007
-377.888	-83.939	0.115	-0.037
-376.873	-95.356	-0.309	0.084
-375.858	-21.999	-0.149	-0.091
-374.844	-109.585	-0.376	0.080
-373.829	800.000	0.010	-0.030
-372.815	-200.000	-0.001	-0.145
-371.800	544.093	-0.100	-0.241
-370.785	800.000	-0.083	-0.302
-369.771	569.319	0.110	-0.270
-368.756	-59.774	-0.304	0.131
-367.742	430.161	-0.151	-0.330
-366.727	400.631	-0.135	-0.285
-365.712	16.150	0.116	-0.092
-364.698	139.787	-0.147	-0.195
-363.683	-200.000	0.017	0.101
-362.669	784.468	0.145	-0.401
-361.654	42.367	-0.248	-0.227
-360.639	210.928	-0.075	-0.119
-359.625	800.000	0.025	-0.106
-358.610	-44.192	0.200	0.101
-357.596	138.432	0.111	0.147
-356.581	294.802	0.072	-0.132
-355.566	-73.379	0.172	0.063
-354.552	187.914	0.054	0.081
-353.537	-170.498	0.097	-0.003
-352.523	-112.916	0.168	0.033
-351.508	781.460	-0.045	0.125
-350.493	114.553	-0.114	-0.140
-349.479	-101.477	-0.192	-0.047
-348.464	-26.933	-0.130	-0.076
-347.450	-153.183	0.084	-0.006
-346.435	174.620	-0.030	-0.044
-345.420	-45.778	0.051	-0.025
-344.406	-115.397	-0.328	0.062
-343.391	800.000	0.017	-0.065
-342.377	-104.235	0.248	-0.058
-341.362	800.000	-0.039	0.147
-340.348	61.998	0.111	0.111
-339.333	-162.726	-0.081	-0.004
-338.318	-31.739	0.199	0.112
-337.304	111.290	-0.138	0.168
-336.289	108.026	0.231	-0.277
-335.275	-105.429	0.056	0.013
-334.260	510.476	0.227	-0.530
-333.245	-34.211	-0.080	0.044
-332.231	463.820	0.026	0.058
-331.216	-200.000	0.008	-0.133
-330.202	-111.133	0.248	-0.051
-329.187	-22.635	0.178	0.108
-328.172	-176.811	-0.309	-0.008
-327.158	-48.018	0.287	-0.139
-326.143	800.000	0.086	0.263
-325.129	402.446	-0.072	-0.151
-324.114	389.264	-0.073	0.151
-323.099	-140.990	0.270	-0.028
-322.085	668.850	-0.085	-0.221
-321.070	-82.002	-0.098	-0.032
-320.056	634.208	-0.078	-0.198
-319.041	-79.928	-0.203	-0.068
-318.026	-131.838	-0.139	0.018
-317.012	-47.438	0.331	-0.162
-315.997	117.428	0.066	0.081
-314.983	270.200	0.133	0.234
-313.968	-84.337	0.151	0.048
-312.953	-129.828	0.132	0.018
-311.939	-69.587	-0.570	0.219
-310.924	377.480	-0.135	0.277
-309.910	-111.948	0.352	-0.071
-308.895	263.429	-0.048	-0.083
-307.880	21.919	-0.274	0.224
-306.866	84.237	0.126	-0.139
-305.851	96.110	0.188	-0.216
-304.837	-110.203	-0.245	-0.051
-303.822	-70.547	-0.067	0.025
-302.807	-171.974	-0.241	0.008
-301.793	-118.494	0.366	0.065
-300.778	-200.000	0.056	0.322
-299.764	39.950	-0.217	-0.196
-298.749	-52.754	0.257	0.119
-297.735	-88.220	-0.314	0.094
-296.720	71.775	0.017	0.018
-295.705	-61.356	-0.150	0.063
-294.691	-103.282	0.284	0.067
-293.676	292.688	0.162	0.296
-292.662	-93.338	-0.159	0.044
-291.647	720.361	-0.126	-0.336
-290.632	-127.825	0.128	0.019
-289.618	-200.000	-0.023	-0.319
-288.603	-91.482	0.213	-0.061
-287.589	258.169	-0.171	0.295
-286.574	-150.556	0.139	0.011
-285.559	800.000	0.057	-0.166
-284.545	-71.820	-0.105	-0.039
-283.530	-116.943	0.263	0.048
-282.516	493.911	-0.016	0.036
-281.501	-125.335	0.167	0.026
-280.486	71.570	0.160	0.167
-279.472	-117.892	-0.263	0.047
-278.457	-179.777	-0.486	-0.011
-277.443	-101.656	0.277	-0.067
-276.428	139.043	-0.150	-0.197
-275.413	155.133	0.278	-0.384
-274.399	-150.131	-0.105	0.008
-273.384	300.300	-0.158	-0.292
-272.370	-200.000	-0.067	0.317
-271.355	-200.000	-0.005	-0.103
-270.340	-200.000	0.004	-0.233
-269.326	243.516	0.037	0.062
-268.311	15.967	0.296	-0.234
-267.297	800.000	-0.068	0.276
-266.282	506.626	0.116	-0.269
-265.267	211.789	-0.178	-0.281
-264.253	-105.406	-0.235	0.054
-263.238	79.363	0.303	0.326
-262.224	-61.330	-0.268	-0.113
-261.209	-62.139	0.420	-0.176
-260.195	128.827	-0.214	0.274
-259.180	800.000	-0.064	-0.212
-258.165	133.896	0.210	0.272
-257.151	1.942	0.117	-0.085
-256.136	800.000	0.075	0.252
-255.122	-112.161	-0.440	-0.089
-254.107	-67.657	0.329	0.129
-253.092	-200.000	0.047	-0.424
-252.078	694.284	-0.017	-0.046
-251.063	-200.000	-0.026	0.146
-250.049	-0.359	-0.052	0.037
-249.034	-200.000	-0.029	-0.208
-248.019	-77.978	0.104	0.036
-247.005	800.000	-0.121	-0.452
-245.990	800.000	-0.020	0.055
-244.976	530.749	0.117	-0.277
-243.961	75.584	-0.072	-0.076
-242.946	-56.235	0.185	0.083
-241.932	22.506	0.226	0.185
-240.917	-85.992	0.133	-0.041
-239.903	-12.755	-0.028	-0.018
-238.888	558.821	-0.041	-0.100
-237.873	-9.858	0.223	0.149
-236.859	-161.211	0.125	0.007
-235.844	141.742	0.089	-0.118
-234.830	518.767	-0.124	0.290
-233.815	-39.500	-0.237	0.124
-232.800	-200.000	0.041	0.245
-231.786	800.000	0.085	0.292
-230.771	-200.000	0.012	0.125
-229.757	-200.000	0.006	-0.328
-228.742	374.564	-0.042	-0.086
-227.727	77.535	0.245	-0.261
-226.713	291.435	-0.307	-0.559
-225.698	-34.716	0.055	-0.030
-224.684	-81.708	0.328	0.108
-223.669	144.460	0.027	-0.036
-222.655	-109.060	0.297	-0.063
-221.640	-200.000	-0.056	0.374
-220.625	262.177	-0.122	-0.212
-219.611	800.000	0.086	-0.259
-218.596	-10.294	-0.123	0.082
-217.582	-118.815	-0.219	0.039
-216.567	114.511	-0.033	0.041
-215.552	23.892	-0.247	-0.204
-214.538	800.000	0.053	-0.228
-213.523	-200.000	-0.002	0.104
-212.509	800.000	0.035	0.100
-211.494	296.509	0.072	0.133
-210.479	6.010	-0.198	0.146
-209.465	-200.000	-0.025	0.251
-208.450	-105.941	0.118	0.027
-207.436	-52.860	0.226	-0.104
-206.421	290.181	-0.068	-0.124
-205.406	800.000	-0.092	-0.283
-204.392	-18.323	-0.231	-0.144
-203.377	-37.395	0.029	0.015
-202.363	-95.625	-0.220	-0.059
-201.348	-200.000	-0.002	0.046
-200.333	-85.788	0.307	-0.095
-199.319	149.110	-0.022	0.030
-198.304	-56.926	-0.193	0.085
-197.290	251.421	0.113	-0.191
-196.275	-200.000	-0.053	0.372
-195.260	-116.226	-0.113	0.021
-194.246	800.000	-0.034	-0.138
-193.231	175.902	0.128	0.186
-192.217	-200.000	-0.016	0.188
-191.202	726.172	0.066	0.177
-190.187	645.733	-0.050	0.128
-189.173	-200.000	-0.011	0.098
-188.158	-13.090	0.156	0.102
-187.144	15.075	0.061	0.048
-186.129	77.188	0.121	0.128
-185.114	-128.909	0.416	0.058
-184.100	-103.601	-0.331	-0.078
-183.085	-170.456	0.161	-0.006
-182.071	-200.000	0.024	-0.110
-181.056	76.333	-0.219	-0.232
-180.042	-73.968	0.108	0.039
-179.027	-177.833	0.056	0.001
-178.012	159.524	-0.091	-0.127
-176.998	46.859	0.093	0.086
-175.983	367.023	0.094	0.190
-174.969	-200.000	0.007	0.118
-173.954	-162.561	-0.172	-0.008
-172.939	546.840	0.065	-0.155
-171.925	-200.000	-0.003	-0.275
-170.910	-84.136	-0.332	0.105
-169.896	-200.000	0.040	0.220
-168.881	430.368	0.109	-0.234
-167.866	36.470	0.227	-0.200
-166.852	237.192	0.049	0.081
-165.837	-200.000	0.036	-0.169
-164.823	-7.140	-0.305	0.206
-163.808	62.884	-0.245	0.245
-162.793	800.000	-0.085	-0.291
-161.779	-86.147	0.209	0.064
-160.764	-119.733	-0.167	-0.029
-159.750	563.421	0.035	0.084
-158.735	44.023	0.092	0.084
-157.720	-92.279	0.093	-0.026
-156.706	-98.064	0.264	-0.068
-155.691	-200.000	0.092	-0.000
-154.677	4.190	0.111	0.081
-153.662	102.505	0.175	0.204
-152.647	95.940	0.122	0.139
-151.633	-200.000	0.002	-0.144
-150.618	-200.000	0.004	-0.057
-149.604	-35.788	0.322	0.174
-148.589	-125.468	0.086	0.013
-147.574	93.317	-0.178	-0.201
-146.560	225.722	0.225	0.364
-145.545	77.062	0.225	-0.238
-144.531	-200.000	0.034	0.168
-143.516	1.085	-0.053	0.038
-142.502	-44.613	0.086	0.043
-141.487	722.839	0.083	-0.221
-140.472	-139.565	-0.384	0.041
-139.458	115.811	0.035	0.043
-138.443	-200.000	0.301	-0.001
-137.429	-200.000	-0.023	-0.300
-136.414	-133.916	0.055	-0.007
-135.399	-133.816	-0.230	0.029
-134.385	706.448	-0.044	0.115
-133.370	800.000	-0.057	0.158
-132.356	-85.408	0.143	-0.044
-131.341	-20.729	-0.070	-0.043
-130.326	766.089	0.122	-0.330
-129.312	-200.000	-0.001	-0.241
-128.297	105.610	0.105	-0.124
-127.283	716.523	0.095	0.250
-126.268	800.000	0.043	0.138
-125.253	800.000	-0.049	0.136
-124.239	-200.000	0.006	-0.311
-123.224	-141.940	0.212	-0.021
-122.210	260.909	-0.126	-0.217
