DTS Sentinel unit serial number:	SN413079Multiplexer serial number:	ORYXHardware model number:	OX4-SRSoftware version number:	ORYX F/W v4.00 Oryx Data Collector v3.7.2.0data status	okinstallation	princeton_trtdifferential loss correction	single-endedforward channel	channel 4reverse channel	N/Adate	2019/09/15time	04:49:35forward acquisition time	60.00reverse acquisition time	0.00gamma	496.2192k internal	0.2311k external	0.2311temperature offset calibration	1.0038default loss term (dB/km)	0.3790temperature slope calibration	1.0000multiplexer offset coefficient	1.0000multiplexer slope coefficient	1.0000fibre end	0.00T internal ref (°C)	30.78T ext. ref 1 (°C)	4.77T ext. ref 2 (°C)	25.27length (m)	temperature (°C)	Stokes	anti-Stokes-747.200	-41.517	-0.135	-0.070
-746.185	800.000	-0.051	0.221
-745.171	-137.333	-0.400	-0.046
-744.156	-4.538	-0.401	0.281
-743.142	-36.151	0.163	0.090
-742.127	-83.688	-0.381	0.124
-741.112	-145.153	0.094	0.009
-740.098	-23.398	-0.281	-0.172
-739.083	-43.501	0.206	-0.106
-738.069	-96.434	-0.142	0.038
-737.054	13.458	0.220	-0.174
-736.039	124.838	-0.087	0.111
-735.025	81.310	0.165	0.181
-734.010	50.288	-0.096	-0.092
-732.996	57.660	0.225	-0.223
-731.981	288.951	0.131	-0.240
-730.966	141.542	-0.133	0.178
-729.952	372.616	0.153	0.315
-728.937	-200.000	-0.020	0.170
-727.923	-80.929	-0.443	0.149
-726.908	-107.132	-0.102	0.023
-725.894	370.480	-0.140	0.289
-724.879	800.000	0.114	-0.385
-723.864	-172.726	-0.360	0.011
-722.850	-141.188	-0.223	-0.023
-721.835	-106.408	-0.256	0.058
-720.821	644.136	-0.006	0.015
-719.806	-7.853	0.122	-0.083
-718.791	2.870	0.108	0.079
-717.777	73.934	-0.117	-0.125
-716.762	800.000	0.014	0.059
-715.748	800.000	0.018	0.063
-714.733	410.741	-0.184	0.397
-713.718	-31.902	0.143	0.081
-712.704	-200.000	0.009	-0.166
-711.689	-200.000	0.063	-0.289
-710.675	125.672	-0.125	-0.160
-709.660	249.243	0.175	-0.301
-708.645	800.000	0.048	-0.161
-707.631	-6.393	0.077	0.053
-706.616	800.000	0.091	-0.397
-705.602	-40.742	-0.079	0.041
-704.587	-170.607	0.124	0.004
-703.572	12.939	-0.231	-0.181
-702.558	-89.090	-0.184	-0.055
-701.543	-114.228	0.039	-0.008
-700.529	-200.000	-0.062	-0.350
-699.514	800.000	0.066	-0.222
-698.499	-102.413	-0.232	-0.056
-697.485	-200.000	-0.003	-0.097
-696.470	331.390	0.183	-0.357
-695.456	-68.951	-0.369	-0.144
-694.441	-200.000	-0.011	-0.157
-693.426	235.770	0.083	-0.139
-692.412	-75.066	-0.012	-0.004
-691.397	-200.000	0.015	-0.242
-690.383	117.169	0.096	-0.119
-689.368	-56.266	-0.276	-0.124
-688.354	-6.991	0.220	0.151
-687.339	-61.031	0.203	-0.087
-686.324	345.948	-0.059	-0.118
-685.310	-100.876	0.487	0.121
-684.295	-34.611	-0.371	0.206
-683.281	-11.697	-0.192	-0.128
-682.266	410.769	0.109	-0.235
-681.251	-90.899	-0.178	-0.052
-680.237	-59.066	-0.163	-0.071
-679.222	-101.067	-0.136	-0.034
-678.208	-63.922	-0.422	-0.175
-677.193	-200.000	0.044	-0.474
-676.178	66.898	-0.188	0.194
-675.164	-133.883	0.270	0.034
-674.149	303.765	-0.087	0.163
-673.135	-105.458	-0.228	-0.053
-672.120	-64.019	-0.349	-0.144
-671.105	-161.529	-0.202	-0.011
-670.091	-200.000	0.087	0.443
-669.076	-90.424	-0.133	0.039
-668.062	-200.000	0.010	-0.267
-667.047	286.397	-0.135	-0.246
-666.032	100.279	-0.148	0.174
-665.018	-105.935	0.073	0.017
-664.003	-66.946	-0.483	-0.193
-662.989	78.325	-0.137	0.148
-661.974	79.414	0.200	-0.217
-660.959	800.000	0.067	-0.268
-659.945	-174.947	-0.305	0.009
-658.930	-115.040	0.230	-0.044
-657.916	250.342	-0.076	-0.130
-656.901	-23.859	0.130	-0.078
-655.886	-79.958	-0.200	-0.068
-654.872	-95.900	-0.308	-0.083
-653.857	-17.385	-0.136	-0.087
-652.843	-177.369	0.143	0.004
-651.828	179.211	-0.153	0.226
-650.814	476.394	-0.053	0.121
-649.799	214.217	-0.146	-0.234
-648.784	-4.652	-0.066	-0.046
-647.770	61.928	-0.183	-0.184
-646.755	15.554	-0.193	-0.153
-645.741	-76.884	-0.193	0.068
-644.726	236.995	-0.178	-0.298
-643.711	43.687	-0.154	-0.142
-642.697	5.173	0.154	0.115
-641.682	-45.981	-0.134	0.067
-640.668	56.792	-0.083	-0.081
-639.653	800.000	0.099	-0.368
-638.638	-21.767	0.257	0.158
-637.624	-165.799	0.131	0.006
-636.609	-72.691	-0.149	-0.055
-635.595	67.381	-0.248	-0.256
-634.580	-103.582	-0.328	-0.078
-633.565	-165.628	-0.292	0.013
-632.551	-92.457	-0.285	0.081
-631.536	346.204	0.098	0.195
-630.522	-110.247	-0.278	0.059
-629.507	-59.894	0.222	0.096
-628.492	-25.349	-0.280	0.167
-627.478	-73.293	-0.164	-0.061
-626.463	-67.975	-0.201	0.079
-625.449	367.446	0.107	-0.218
-624.434	-154.374	-0.258	-0.018
-623.419	-200.000	0.009	-0.064
-622.405	-35.661	0.313	-0.171
-621.390	106.521	0.254	0.305
-620.376	800.000	-0.124	0.432
-619.361	-103.326	0.158	-0.038
-618.346	41.346	-0.015	0.013
-617.332	150.184	-0.120	0.164
-616.317	166.515	0.017	-0.024
-615.303	496.616	0.051	0.118
-614.288	800.000	0.032	-0.138
-613.273	492.858	-0.106	-0.246
-612.259	275.218	0.197	-0.353
-611.244	-109.933	-0.157	-0.033
-610.230	-27.429	-0.364	0.214
-609.215	94.972	-0.203	-0.234
-608.201	800.000	0.071	-0.270
-607.186	56.237	-0.196	-0.192
-606.171	-196.270	-0.105	-0.001
-605.157	227.660	-0.130	0.213
-604.142	83.773	0.010	0.011
-603.128	308.240	-0.031	-0.059
-602.113	-37.793	0.069	0.037
-601.098	-200.000	0.005	0.141
-600.084	-173.731	0.252	0.008
-599.069	-25.953	-0.040	-0.024
-598.055	751.804	-0.030	0.082
-597.040	298.865	-0.120	0.222
-596.025	-200.000	-0.024	0.117
-595.011	335.670	0.060	0.118
-593.996	-200.000	0.042	0.241
-592.982	-200.000	-0.008	0.314
-591.967	477.252	-0.096	-0.219
-590.952	251.202	-0.073	0.126
-589.938	297.096	0.167	-0.310
-588.923	-121.392	-0.286	-0.048
-587.909	-68.290	0.134	-0.053
-586.894	-121.546	0.273	0.046
-585.879	-200.000	0.021	-0.203
-584.865	-114.043	-0.406	-0.079
-583.850	131.554	-0.179	-0.232
-582.836	10.220	-0.224	0.172
-581.821	372.919	-0.106	-0.216
-580.806	30.614	-0.132	0.114
-579.792	-58.430	-0.129	0.057
-578.777	-122.606	0.211	0.034
-577.763	431.619	0.038	-0.084
-576.748	-200.000	0.051	-0.326
-575.733	128.884	0.211	-0.271
-574.719	-98.667	-0.300	-0.077
-573.704	-200.000	0.003	0.262
-572.690	-47.508	0.444	0.218
-571.675	-200.000	-0.074	-0.339
-570.661	800.000	0.077	0.215
-569.646	226.984	0.163	0.267
-568.631	133.763	0.025	0.033
-567.617	103.328	0.087	-0.103
-566.602	-200.000	-0.024	-0.189
-565.588	-70.414	-0.136	-0.052
-564.573	173.426	-0.035	-0.052
-563.558	800.000	-0.060	0.213
-562.544	-200.000	0.000	-0.223
-561.529	245.425	0.292	-0.494
-560.515	1.612	0.183	-0.133
-559.500	-32.257	-0.128	0.072
-558.485	-150.294	0.443	0.034
-557.471	-53.963	-0.285	0.131
-556.456	69.711	0.067	0.070
-555.442	468.335	-0.134	-0.303
-554.427	-17.312	-0.216	0.137
-553.412	-110.803	0.244	-0.051
-552.398	29.698	-0.229	-0.196
-551.383	161.986	0.085	0.121
-550.369	589.325	0.056	-0.139
-549.354	-64.102	-0.065	0.027
-548.339	4.871	-0.113	0.084
-547.325	-200.000	-0.010	-0.081
-546.310	187.531	-0.052	0.078
-545.296	-195.566	-0.183	0.001
-544.281	-200.000	-0.057	-0.268
-543.266	-160.800	0.306	-0.016
-542.252	-200.000	-0.008	-0.190
-541.237	-200.000	0.036	0.276
-540.223	70.851	-0.056	0.058
-539.208	-200.000	-0.003	0.364
-538.193	56.013	0.049	0.048
-537.179	154.382	0.122	-0.168
-536.164	114.787	-0.131	-0.161
-535.150	199.273	0.216	0.334
-534.135	-10.702	0.108	-0.072
-533.121	-200.000	0.008	-0.182
-532.106	124.585	0.291	-0.368
-531.091	103.556	-0.361	-0.426
-530.077	9.932	0.085	0.065
-529.062	-85.102	-0.274	-0.086
-528.048	383.056	-0.081	-0.167
-527.033	756.666	-0.024	-0.064
-526.018	-200.000	-0.065	0.410
-525.004	7.509	-0.108	0.081
-523.989	-41.177	-0.052	0.027
-522.975	-200.000	-0.024	0.366
-521.960	-102.334	0.214	0.052
-520.945	-35.993	-0.049	-0.027
-519.931	24.710	0.155	-0.129
-518.916	-200.000	0.028	-0.141
-517.902	800.000	-0.076	-0.282
-516.887	-18.365	0.162	0.102
-515.872	-200.000	0.013	0.168
-514.858	-200.000	0.049	0.254
-513.843	-76.819	-0.294	-0.103
-512.829	-61.246	0.022	0.009
-511.814	-33.117	-0.050	-0.028
-510.799	-109.179	-0.400	-0.085
-509.785	185.288	0.074	0.110
-508.770	-41.687	-0.196	0.101
-507.756	691.650	0.121	-0.318
-506.741	512.928	-0.106	-0.249
-505.726	-200.000	-0.002	0.321
-504.712	-99.890	-0.074	0.019
-503.697	800.000	-0.026	0.082
-502.683	2.680	-0.086	0.062
-501.668	-115.411	-0.224	0.042
-500.653	477.184	0.105	-0.239
-499.639	-93.520	-0.129	0.036
-498.624	454.328	0.147	-0.328
-497.610	236.688	-0.062	0.104
-496.595	471.933	0.141	0.318
-495.581	800.000	0.028	0.099
-494.566	-105.760	-0.443	-0.101
-493.551	-26.568	0.176	0.104
-492.537	800.000	0.060	0.184
-491.522	-200.000	-0.073	0.334
-490.508	-200.000	0.005	0.051
-489.493	800.000	0.079	-0.317
-488.478	-200.000	0.043	0.211
-487.464	182.694	-0.238	0.352
-486.449	245.909	0.154	-0.260
-485.435	-167.246	0.090	-0.004
-484.420	12.959	0.087	0.068
-483.405	-200.000	-0.059	-0.300
-482.391	141.738	-0.240	0.319
-481.376	-78.724	-0.210	-0.072
-480.362	48.950	-0.038	-0.036
-479.347	463.369	0.171	0.384
-478.332	-200.000	-0.122	0.000
-477.318	-85.636	0.076	-0.024
-476.303	-15.455	0.053	0.034
-475.289	12.918	-0.205	-0.159
-474.274	-53.507	0.241	0.111
-473.259	626.165	-0.158	-0.401
-472.245	-89.392	-0.157	0.046
-471.230	-200.000	0.022	0.362
-470.216	-160.867	0.162	-0.009
-469.201	203.474	0.097	0.151
-468.186	95.493	-0.017	0.019
-467.172	-173.860	-0.451	0.013
-466.157	264.004	0.125	-0.219
-465.143	-35.251	-0.052	-0.028
-464.128	-53.257	-0.057	0.026
-463.113	11.916	0.076	-0.059
-462.099	41.070	0.314	-0.285
-461.084	278.041	0.064	0.114
-460.070	272.075	0.106	0.188
-459.055	-0.821	-0.208	-0.148
-458.040	-69.199	-0.112	0.043
-457.026	-43.659	0.487	0.247
-456.011	41.502	-0.155	-0.141
-454.997	85.051	0.261	0.287
-453.982	-200.000	-0.056	0.610
-452.968	-200.000	0.042	0.312
-451.953	800.000	-0.081	-0.290
-450.938	-200.000	0.024	-0.212
-449.924	87.476	0.179	-0.199
-448.909	594.969	-0.115	0.285
-447.895	-32.215	-0.254	0.142
-446.880	20.631	0.097	-0.079
-445.865	-76.040	-0.412	-0.146
-444.851	-200.000	-0.002	-0.035
-443.836	409.407	0.044	-0.094
-442.822	-100.621	-0.160	0.040
-441.807	411.986	-0.085	0.182
-440.792	800.000	-0.011	0.032
-439.778	-74.596	0.132	0.047
-438.763	-166.738	0.366	0.015
-437.749	721.628	-0.089	0.236
-436.734	315.731	0.091	-0.172
-435.719	32.866	-0.101	-0.088
-434.705	-129.033	0.121	0.017
-433.690	179.754	-0.030	0.044
-432.676	284.937	0.100	-0.181
-431.661	-200.000	-0.027	0.185
-430.646	-6.950	-0.265	-0.181
-429.632	64.916	0.223	-0.225
-428.617	-88.067	-0.160	0.048
-427.603	1.061	0.200	0.144
-426.588	-22.625	0.044	-0.027
-425.573	800.000	0.090	-0.271
-424.559	53.485	-0.137	-0.131
-423.544	-127.853	0.324	-0.047
-422.530	800.000	0.091	0.381
-421.515	-200.000	0.034	-0.317
-420.500	535.701	-0.053	0.126
-419.486	-138.159	-0.136	-0.015
-418.471	-200.000	-0.006	-0.041
-417.457	-200.000	0.044	-0.364
-416.442	142.784	0.107	-0.142
-415.428	49.911	0.147	-0.139
-414.413	525.577	0.162	-0.383
-413.398	-3.794	0.238	-0.166
-412.384	800.000	-0.081	-0.225
-411.369	-8.665	-0.145	0.098
-410.355	-156.634	0.231	-0.014
-409.340	76.600	-0.132	-0.140
-408.325	186.484	0.069	-0.104
-407.311	800.000	-0.111	-0.332
-406.296	24.053	-0.223	0.184
-405.282	800.000	-0.116	0.373
-404.267	800.000	0.036	-0.120
-403.252	-138.111	-0.179	0.020
-402.238	800.000	-0.105	0.332
-401.223	207.679	-0.137	-0.214
-400.209	180.575	0.141	-0.208
-399.194	166.215	0.111	-0.158
-398.179	797.471	0.134	-0.371
-397.165	402.462	-0.034	0.071
-396.150	-5.164	-0.225	0.155
-395.136	720.480	-0.097	-0.257
-394.121	-57.409	0.165	-0.072
-393.106	800.000	-0.030	0.106
-392.092	-200.000	-0.055	0.268
-391.077	-113.918	-0.273	0.053
-390.063	-192.960	-0.044	-0.000
-389.048	-97.090	0.209	0.055
-388.033	-37.458	-0.232	-0.124
-387.019	-117.597	-0.226	-0.041
-386.004	533.432	0.088	0.207
-384.990	218.962	0.098	0.157
-383.975	331.653	0.094	-0.182
-382.960	310.111	-0.081	-0.151
-381.946	-108.453	0.277	-0.060
-380.931	34.435	-0.129	-0.112
-379.917	-40.482	-0.182	-0.095
-378.902	-200.000	0.011	0.168
-377.888	-111.931	0.149	0.030
-376.873	59.067	-0.034	0.033
-375.858	-167.576	-0.068	0.003
-374.844	162.246	0.112	0.157
-373.829	-200.000	0.059	0.469
-372.815	85.617	0.264	-0.290
-371.800	-200.000	0.003	-0.112
-370.785	-101.288	0.176	0.043
-369.771	-108.890	-0.148	0.032
-368.756	-200.000	-0.041	0.372
-367.742	510.843	0.148	0.345
-366.727	-200.000	-0.013	0.203
-365.712	-131.176	0.564	-0.075
-364.698	22.376	0.194	-0.158
-363.683	-47.723	0.134	0.065
-362.669	69.307	0.322	0.331
-361.654	116.575	-0.189	0.232
-360.639	-200.000	0.017	0.078
-359.625	212.580	-0.152	0.239
-358.610	99.583	0.398	-0.460
-357.596	-200.000	0.064	0.393
-356.581	-41.621	0.126	-0.065
-355.566	-112.187	-0.284	-0.057
-354.552	-118.032	0.272	0.049
-353.537	-200.000	0.009	0.198
-352.523	-32.418	-0.213	0.119
-351.508	3.329	-0.056	0.040
-350.493	-21.890	-0.187	-0.114
-349.479	800.000	0.062	0.174
-348.464	-63.235	0.070	-0.029
-347.450	-121.125	-0.152	0.025
-346.435	45.072	0.164	-0.151
-345.420	-73.008	0.315	-0.116
-344.406	72.200	0.064	0.067
-343.391	343.497	0.076	0.148
-342.377	37.458	-0.126	-0.112
-341.362	186.985	-0.185	-0.276
-340.348	795.286	0.003	-0.007
-339.333	688.287	-0.020	0.051
-338.318	-190.472	0.371	0.004
-337.304	161.134	-0.110	0.154
-336.289	-66.791	0.220	-0.087
-335.275	-200.000	0.005	-0.225
-334.260	-200.000	0.086	-0.463
-333.245	22.979	-0.105	-0.086
-332.231	317.413	0.093	0.176
-331.216	132.522	0.207	0.267
-330.202	-13.543	0.224	0.145
-329.187	-200.000	0.006	-0.101
-328.172	-3.227	-0.120	-0.084
-327.158	800.000	-0.030	0.102
-326.143	-60.563	0.132	0.056
-325.129	-200.000	0.045	0.318
-324.114	800.000	0.072	-0.315
-323.099	62.018	-0.047	-0.047
-322.085	800.000	-0.113	-0.351
-321.070	-200.000	0.012	-0.343
-320.056	83.951	0.069	0.075
-319.041	-185.823	-0.047	-0.001
-318.026	-16.060	0.203	0.129
-317.012	16.332	0.212	0.167
-315.997	-200.000	0.001	-0.411
-314.983	-39.917	0.232	0.121
-313.968	-200.000	0.046	0.379
-312.953	14.271	-0.092	0.072
-311.939	361.209	0.076	-0.152
-310.924	-36.865	-0.375	-0.201
-309.910	-200.000	0.005	0.089
-308.895	-72.130	0.255	0.094
-307.880	152.656	-0.145	0.197
-306.866	53.266	-0.233	0.222
-305.851	395.770	0.132	-0.275
-304.837	-200.000	-0.019	0.164
-303.822	800.000	0.066	-0.190
-302.807	-14.651	0.191	-0.123
-301.793	-31.663	0.359	0.201
-300.778	-200.000	-0.030	-0.177
-299.764	-46.388	-0.204	0.100
-298.749	740.575	-0.087	0.232
-297.735	156.766	-0.133	-0.184
-296.720	139.800	0.164	0.216
-295.705	800.000	0.039	-0.120
-294.691	168.107	0.126	-0.179
-293.676	-200.000	-0.011	0.274
-292.662	-200.000	-0.019	-0.169
-291.647	-118.646	-0.321	0.057
-290.632	-86.752	-0.234	-0.071
-289.618	-176.204	0.426	0.011
-288.603	61.216	0.275	0.273
-287.589	-26.081	-0.140	0.082
-286.574	-200.000	0.047	0.336
-285.559	-1.472	-0.158	0.111
-284.545	-142.950	-0.490	0.047
-283.530	-193.525	0.206	-0.002
-282.516	106.566	-0.134	0.158
-281.501	66.825	0.225	-0.229
-280.486	-36.694	0.064	0.034
-279.472	-52.609	0.225	0.104
-278.457	-161.129	0.116	-0.006
-277.443	-97.294	-0.307	0.080
-276.428	17.773	-0.107	-0.085
-275.413	800.000	-0.104	-0.308
-274.399	-60.539	0.184	-0.078
-273.384	368.813	-0.064	-0.129
-272.370	-56.231	0.042	-0.019
-271.355	64.796	-0.063	-0.063
-270.340	-123.236	0.238	-0.038
-269.326	800.000	-0.086	0.267
-268.311	17.352	-0.223	0.176
-267.297	-151.294	0.253	-0.019
-266.282	0.266	-0.073	0.052
-265.267	-118.849	0.164	0.029
-264.253	-101.295	-0.232	-0.056
-263.238	277.968	-0.114	0.202
-262.224	223.735	0.109	0.176
-261.209	-10.096	0.091	-0.060
-260.195	-102.411	0.149	0.036
-259.180	-24.671	-0.165	0.098
-258.165	800.000	-0.084	-0.356
-257.151	716.352	-0.146	0.386
-256.136	-62.159	-0.222	0.092
-255.122	-200.000	-0.025	0.152
-254.107	480.124	-0.025	-0.056
-253.092	-155.166	-0.493	0.032
-252.078	-125.133	-0.042	-0.006
-251.063	396.069	0.087	0.182
-250.049	-200.000	0.024	-0.113
-249.034	-73.364	0.157	-0.057
-248.019	-200.000	-0.002	-0.024
-247.005	800.000	0.082	-0.257
-245.990	-28.592	-0.027	0.015
-244.976	-16.812	-0.434	0.273
-243.961	-105.304	-0.218	-0.050
-242.946	-200.000	-0.081	0.494
-241.932	-72.577	-0.235	0.086
-240.917	-180.103	0.063	-0.001
-239.903	800.000	0.069	-0.209
-238.888	-144.938	0.167	0.015
-237.873	-40.753	0.103	-0.053
-236.859	131.566	-0.077	0.099
-235.844	39.476	0.172	0.153
-234.830	-52.796	0.017	-0.008
-233.815	-200.000	0.019	-0.238
-232.800	-145.343	-0.112	-0.010
-231.786	-111.758	0.200	0.040
-230.771	-86.296	-0.368	0.113
-229.757	-161.128	-0.247	0.013
-228.742	621.557	-0.113	-0.283
-227.727	-81.346	0.355	-0.116
-226.713	-47.022	0.272	-0.132
-225.698	209.975	-0.189	0.295
-224.684	458.943	-0.162	0.359
-223.669	472.639	0.036	0.081
-222.655	800.000	-0.031	-0.100
-221.640	338.138	-0.098	-0.189
-220.625	800.000	0.029	0.085
-219.611	-200.000	-0.007	0.033
-218.596	-50.399	-0.235	0.111
-217.582	-104.127	0.054	-0.012
-216.567	-145.304	0.162	0.015
-215.552	153.514	0.181	-0.247
-214.538	176.016	0.055	0.080
-213.523	-133.696	0.132	0.016
-212.509	800.000	-0.048	-0.171
-211.494	-48.073	0.339	-0.163
-210.479	-16.171	0.141	-0.089
-209.465	112.922	0.048	-0.058
-208.450	312.720	0.128	0.240
-207.436	-200.000	-0.018	0.197
-206.421	32.534	0.191	0.164
-205.406	-79.920	-0.073	-0.024
-204.392	363.786	0.061	0.122
-203.377	80.039	0.021	-0.023
-202.363	355.958	-0.127	-0.251
-201.348	161.198	0.105	-0.146
-200.333	-110.597	0.230	0.047
-199.319	-200.000	0.013	-0.111
-198.304	-200.000	-0.037	0.305
-197.290	706.220	-0.118	-0.310
-196.275	-91.413	-0.151	-0.043
-195.260	120.451	-0.187	-0.231
-194.246	-200.000	0.020	-0.302
-193.231	658.197	0.125	0.319
-192.217	63.804	-0.120	0.120
-191.202	-97.837	0.198	-0.051
-190.187	31.853	0.071	-0.061
-189.173	-200.000	0.066	-0.528
-188.158	45.277	0.103	-0.095
-187.144	374.575	0.059	-0.119
-186.129	-69.898	-0.132	-0.050
-185.114	731.141	0.032	-0.085
-184.100	495.784	-0.053	0.121
-183.085	-200.000	-0.010	0.112
-182.071	-55.888	-0.222	0.098
-181.056	800.000	-0.018	0.059
-180.042	-200.000	-0.009	0.125
-179.027	749.569	-0.147	-0.395
-178.012	401.642	0.206	0.429
-176.998	-84.426	0.323	0.101
-175.983	-43.801	0.270	-0.135
-174.969	47.646	-0.082	0.076
-173.954	800.000	0.066	-0.200
-172.939	-111.889	0.103	-0.021
-171.925	-50.228	0.322	0.151
-170.910	178.315	0.100	-0.146
-169.896	-151.021	-0.244	0.018
-168.881	542.520	-0.053	0.125
-167.866	-146.283	0.225	0.020
-166.852	-7.785	0.159	-0.107
-165.837	-200.000	0.024	0.176
-164.823	-200.000	0.001	-0.249
-163.808	21.196	-0.037	0.030
-162.793	-20.764	0.222	0.135
-161.779	371.073	0.050	0.101
-160.764	-200.000	-0.041	0.219
-159.750	48.350	-0.172	-0.160
-158.735	-37.517	0.129	0.068
-157.720	-83.416	0.368	-0.117
-156.706	289.407	-0.034	-0.061
-155.691	-26.600	-0.115	0.067
-154.677	21.632	-0.101	0.081
-153.662	-200.000	-0.077	0.333
-152.647	-200.000	0.055	-0.248
-151.633	800.000	0.064	0.249
-150.618	-200.000	0.019	0.158
-149.604	-200.000	-0.001	0.049
-148.589	59.551	0.084	0.082
-147.574	-69.860	0.040	-0.015
-146.560	-70.511	-0.046	0.017
-145.545	7.496	-0.223	0.165
-144.531	-74.137	0.374	0.134
-143.516	-140.632	0.136	-0.014
-142.502	122.452	-0.223	0.276
-141.487	-118.867	-0.158	-0.027
-140.472	-200.000	0.001	0.071
-139.458	-120.706	0.226	-0.038
-138.443	-122.840	-0.204	-0.033
-137.429	229.565	-0.192	-0.310
-136.414	59.134	0.128	-0.125
-135.399	800.000	-0.035	-0.103
-134.385	-92.898	-0.123	-0.034
-133.370	-109.838	0.273	0.057
-132.356	-146.545	0.247	-0.021
-131.341	-155.793	0.157	0.010
-130.326	-200.000	-0.003	-0.056
-129.312	181.543	-0.153	-0.223
-128.297	484.465	0.105	-0.237
-127.283	285.232	-0.176	-0.315
-126.268	-164.467	0.357	-0.016
-125.253	-7.875	-0.098	0.065
-124.239	-104.996	0.116	-0.026
-123.224	118.181	-0.086	-0.105
-122.210	10.169	0.084	-0.063
