DTS Sentinel unit serial number:	SN413079Multiplexer serial number:	ORYXHardware model number:	OX4-SRSoftware version number:	ORYX F/W v4.00 Oryx Data Collector v3.7.2.0data status	okinstallation	princeton_trtdifferential loss correction	single-endedforward channel	channel 4reverse channel	N/Adate	2019/09/14time	04:25:35forward acquisition time	60.00reverse acquisition time	0.00gamma	496.2192k internal	0.2321k external	0.2321temperature offset calibration	1.0136default loss term (dB/km)	0.3790temperature slope calibration	1.0000multiplexer offset coefficient	1.0000multiplexer slope coefficient	1.0000fibre end	0.00T internal ref (°C)	26.75T ext. ref 1 (°C)	3.34T ext. ref 2 (°C)	21.89length (m)	temperature (°C)	Stokes	anti-Stokes-747.200	800.000	0.032	0.104
-746.185	94.239	0.182	0.209
-745.171	-133.135	0.067	-0.009
-744.156	396.840	0.021	-0.045
-743.142	17.180	0.217	-0.174
-742.127	-142.409	-0.367	0.037
-741.112	192.938	0.176	0.268
-740.098	800.000	-0.077	0.266
-739.083	486.716	0.113	0.260
-738.069	7.616	0.217	0.164
-737.054	-126.877	-0.077	0.011
-736.039	536.714	0.032	0.076
-735.025	-130.538	0.307	0.042
-734.010	-15.800	0.192	-0.124
-732.996	800.000	-0.027	0.113
-731.981	272.935	-0.133	0.237
-730.966	800.000	-0.061	0.246
-729.952	99.502	-0.171	-0.200
-728.937	800.000	-0.026	-0.101
-727.923	-200.000	-0.027	-0.254
-726.908	99.116	-0.202	-0.236
-725.894	-130.508	-0.255	-0.035
-724.879	-200.000	0.011	-0.059
-723.864	55.763	-0.246	-0.241
-722.850	379.152	-0.129	-0.267
-721.835	-200.000	-0.018	-0.216
-720.821	-10.602	-0.044	-0.029
-719.806	70.442	0.091	0.095
-718.791	-50.996	0.229	0.108
-717.777	800.000	-0.134	-0.532
-716.762	137.988	0.134	0.178
-715.748	54.712	0.274	-0.267
-714.733	109.678	0.049	0.059
-713.718	-83.315	-0.354	0.115
-712.704	51.360	-0.149	-0.143
-711.689	-175.924	0.256	-0.007
-710.675	800.000	-0.031	-0.137
-709.660	-140.814	-0.041	-0.004
-708.645	-200.000	0.002	-0.267
-707.631	-114.885	0.273	0.053
-706.616	800.000	-0.070	-0.277
-705.602	800.000	0.037	0.152
-704.587	-3.241	-0.251	-0.177
-703.572	-46.092	-0.065	-0.032
-702.558	-50.859	-0.178	0.085
-701.543	-200.000	-0.006	-0.046
-700.529	-161.359	-0.397	-0.021
-699.514	-100.346	-0.183	-0.046
-698.499	-200.000	0.089	-0.456
-697.485	78.703	-0.100	0.108
-696.470	366.362	0.238	0.485
-695.456	48.823	0.153	0.145
-694.441	-24.126	-0.301	-0.181
-693.426	275.858	-0.139	-0.250
-692.412	69.259	0.258	0.268
-691.397	184.692	-0.034	-0.051
-690.383	477.806	0.162	-0.369
-689.368	162.110	0.051	-0.071
-688.354	-95.654	-0.317	0.085
-687.339	-200.000	0.009	-0.051
-686.324	-71.248	0.214	0.081
-685.310	-71.271	-0.099	-0.037
-684.295	93.611	0.134	0.153
-683.281	-116.766	0.332	0.061
-682.266	-89.687	-0.344	-0.102
-681.251	-200.000	-0.044	-0.312
-680.237	167.503	0.221	-0.317
-679.222	800.000	0.084	0.303
-678.208	-200.000	-0.019	-0.166
-677.193	181.475	-0.061	0.090
-676.178	38.741	-0.385	-0.346
-675.164	738.938	0.061	-0.164
-674.149	800.000	-0.064	-0.182
-673.135	-194.832	-0.236	-0.002
-672.120	-39.799	0.366	-0.193
-671.105	669.886	0.043	0.111
-670.091	-155.969	-0.131	-0.008
-669.076	-126.242	-0.204	0.031
-668.062	-88.517	-0.261	-0.078
-667.047	-200.000	0.026	0.134
-666.032	-200.000	0.034	-0.155
-665.018	-53.150	0.095	0.044
-664.003	-14.135	-0.147	0.096
-662.989	-4.247	0.086	0.060
-661.974	-129.439	-0.130	0.018
-660.959	11.408	0.085	0.066
-659.945	-200.000	0.046	-0.237
-658.930	-31.164	0.208	-0.118
-657.916	5.366	0.368	0.274
-656.901	-200.000	-0.001	0.016
-655.886	30.568	-0.180	0.155
-654.872	-32.071	-0.055	0.031
-653.857	-200.000	-0.015	-0.297
-652.843	-200.000	0.015	0.219
-651.828	800.000	0.056	0.174
-650.814	103.950	0.337	-0.399
-649.799	-200.000	0.010	-0.111
-648.784	-200.000	0.016	-0.291
-647.770	239.983	0.019	0.031
-646.755	-55.507	-0.182	0.082
-645.741	55.791	0.269	0.263
-644.726	30.021	0.108	-0.093
-643.711	-155.362	-0.559	0.037
-642.697	-183.117	0.404	0.007
-641.682	5.917	0.335	-0.250
-640.668	373.832	-0.158	0.324
-639.653	-200.000	0.063	-0.360
-638.638	-11.291	-0.154	-0.102
-637.624	-172.142	-0.065	0.002
-636.609	800.000	0.023	0.101
-635.595	-18.538	0.116	0.073
-634.580	162.471	-0.275	0.389
-633.565	-151.293	-0.252	-0.019
-632.551	-200.000	0.014	-0.282
-631.536	56.131	0.039	-0.038
-630.522	597.762	-0.113	-0.282
-629.507	-174.558	-0.187	0.005
-628.492	63.776	-0.098	0.099
-627.478	-100.922	-0.159	0.039
-626.463	-68.722	-0.078	-0.030
-625.449	-104.229	-0.209	-0.049
-624.434	192.865	0.194	0.295
-623.419	13.016	0.257	-0.200
-622.405	99.239	-0.053	0.062
-621.390	-83.433	0.259	-0.083
-620.376	-0.292	-0.356	-0.254
-619.361	368.435	-0.243	-0.495
-618.346	800.000	-0.048	-0.159
-617.332	55.784	-0.201	0.196
-616.317	151.574	-0.211	0.288
-615.303	49.188	0.025	-0.023
-614.288	-200.000	-0.002	-0.068
-613.273	-200.000	-0.000	-0.044
-612.259	488.723	0.070	-0.161
-611.244	-200.000	-0.030	-0.200
-610.230	-111.161	-0.397	-0.082
-609.215	121.959	0.157	0.198
-608.201	-200.000	0.043	-0.195
-607.186	-143.775	0.057	-0.005
-606.171	3.805	-0.205	-0.151
-605.157	275.853	0.066	-0.117
-604.142	-12.049	0.254	-0.167
-603.128	219.778	0.144	-0.231
-602.113	-5.648	-0.229	0.158
-601.098	-130.899	0.120	-0.016
-600.084	55.767	0.150	0.146
-599.069	285.252	-0.093	0.169
-598.055	188.672	0.360	0.541
-597.040	36.720	0.233	-0.207
-596.025	475.579	-0.088	-0.199
-595.011	113.900	-0.298	0.364
-593.996	-52.072	-0.159	-0.074
-592.982	36.224	-0.247	0.219
-591.967	-111.164	0.199	-0.041
-590.952	146.809	0.180	0.243
-589.938	-46.327	0.247	0.122
-588.923	322.820	0.163	-0.312
-587.909	800.000	-0.027	0.104
-586.894	378.522	0.082	0.169
-585.879	-191.631	-0.155	-0.002
-584.865	-32.865	-0.372	0.208
-583.850	-58.635	0.130	-0.056
-582.836	-200.000	-0.048	-0.223
-581.821	-200.000	-0.031	-0.317
-580.806	-56.865	0.148	0.066
-579.792	196.652	0.054	0.083
-578.777	35.954	-0.008	-0.007
-577.763	4.545	0.161	0.118
-576.748	618.707	-0.081	0.204
-575.733	152.982	-0.174	-0.239
-574.719	53.790	-0.058	0.056
-573.704	-68.802	0.104	-0.040
-572.690	-117.223	-0.018	0.003
-571.675	211.299	0.241	0.380
-570.661	63.279	-0.126	-0.127
-569.646	-1.917	-0.186	-0.131
-568.631	85.085	0.041	-0.045
-567.617	-29.237	-0.254	0.146
-566.602	-116.473	0.313	-0.058
-565.588	-155.533	-0.485	-0.031
-564.573	-112.161	-0.203	0.041
-563.558	800.000	0.123	-0.341
-562.544	-49.068	0.076	0.036
-561.529	-28.428	-0.146	0.085
-560.515	-55.512	-0.314	-0.141
-559.500	66.875	0.074	0.076
-558.485	-54.211	-0.177	0.081
-557.471	9.845	0.292	-0.223
-556.456	99.720	-0.019	0.022
-555.442	-127.751	0.141	0.020
-554.427	438.139	0.124	0.270
-553.412	-68.750	0.104	0.040
-552.398	226.858	0.119	-0.194
-551.383	64.977	-0.080	-0.081
-550.369	800.000	0.044	0.149
-549.354	-109.740	0.147	0.031
-548.339	345.133	0.119	0.234
-547.325	-70.318	-0.134	-0.051
-546.310	-57.974	-0.028	0.012
-545.296	-38.031	0.254	0.135
-544.281	-118.261	0.206	0.037
-543.266	-200.000	-0.045	0.345
-542.252	-101.076	-0.200	0.049
-541.237	-200.000	0.015	0.067
-540.223	200.931	-0.097	-0.149
-539.208	659.809	-0.105	-0.271
-538.193	34.508	0.118	-0.103
-537.179	-63.679	0.273	0.112
-536.164	-12.539	-0.135	0.088
-535.150	-200.000	0.010	0.198
-534.135	-33.340	0.301	0.167
-533.121	-109.328	-0.458	-0.097
-532.106	-200.000	-0.003	-0.147
-531.091	800.000	-0.060	-0.251
-530.077	-172.763	-0.219	0.007
-529.062	66.646	-0.038	-0.039
-528.048	191.749	-0.191	-0.289
-527.033	136.263	0.106	0.139
-526.018	71.860	-0.121	-0.126
-525.004	-130.298	-0.055	0.007
-523.989	-200.000	0.000	0.029
-522.975	-200.000	0.342	-0.001
-521.960	64.612	-0.092	-0.093
-520.945	-113.780	0.066	0.013
-519.931	-123.438	0.108	0.017
-518.916	-200.000	-0.000	-0.106
-517.902	-200.000	0.000	-0.300
-516.887	-200.000	-0.025	0.253
-515.872	86.391	0.176	-0.195
-514.858	189.720	0.088	-0.132
-513.843	-200.000	-0.020	-0.295
-512.829	456.388	0.093	-0.206
-511.814	-99.426	-0.042	-0.010
-510.799	-16.388	0.208	-0.132
-509.785	305.352	0.234	-0.435
-508.770	-83.331	0.232	-0.075
-507.756	800.000	-0.020	-0.084
-506.741	-116.904	0.082	-0.015
-505.726	408.937	-0.130	-0.276
-504.712	443.776	0.091	0.200
-503.697	-148.902	0.412	-0.033
-502.683	-138.362	0.124	0.014
-501.668	580.610	-0.019	-0.046
-500.653	199.106	0.168	0.258
-499.639	-157.314	-0.131	0.008
-498.624	759.029	-0.062	-0.169
-497.610	-186.880	-0.408	0.006
-496.595	800.000	-0.055	0.155
-495.581	348.329	0.120	0.238
-494.566	27.825	-0.053	0.045
-493.551	430.165	0.095	0.205
-492.537	-66.325	0.121	0.048
-491.522	19.303	0.162	0.130
-490.508	-84.206	-0.141	0.045
-489.493	-107.437	0.229	-0.050
-488.478	-31.007	-0.391	0.221
-487.464	-50.800	-0.039	0.019
-486.449	-200.000	0.154	-0.000
-485.435	-4.766	-0.242	-0.167
-484.420	-200.000	-0.056	0.389
-483.405	632.444	-0.098	0.247
-482.391	-200.000	-0.019	0.315
-481.376	10.318	0.307	0.234
-480.362	-200.000	0.076	0.368
-479.347	560.399	0.051	-0.124
-478.332	562.690	-0.033	-0.079
-477.318	-78.900	0.230	0.078
-476.303	519.786	0.082	-0.193
-475.289	-61.578	-0.119	-0.050
-474.274	284.591	0.065	-0.117
-473.259	-90.997	-0.177	0.051
-472.245	-33.870	0.362	-0.199
-471.230	-40.577	-0.230	0.119
-470.216	-78.996	-0.111	0.038
-469.201	-133.606	-0.395	0.049
-468.186	-30.323	0.260	0.148
-467.172	-200.000	-0.017	0.144
-466.157	-7.533	-0.276	-0.187
-465.143	-200.000	0.014	-0.064
-464.128	120.239	0.071	-0.088
-463.113	-92.673	-0.087	-0.024
-462.099	-93.657	-0.173	-0.048
-461.084	-17.993	0.403	0.252
-460.070	37.645	0.074	0.065
-459.055	60.181	0.185	0.183
-458.040	-139.012	-0.265	0.029
-457.026	354.378	0.020	-0.039
-456.011	177.451	0.259	-0.377
-454.997	800.000	0.024	-0.079
-453.982	-16.036	-0.048	-0.031
-452.968	61.043	-0.139	-0.138
-451.953	-108.715	0.240	-0.051
-450.938	424.099	0.129	-0.276
-449.924	14.484	0.316	-0.246
-448.909	36.070	0.236	-0.207
-447.895	43.564	0.124	0.113
-446.880	101.329	0.145	0.168
-445.865	239.599	0.135	0.224
-444.851	511.399	-0.061	-0.141
-443.836	557.165	0.054	-0.131
-442.822	-200.000	0.004	0.458
-441.807	74.920	-0.120	0.127
-440.792	800.000	-0.025	0.078
-439.778	800.000	0.079	-0.219
-438.763	-83.042	0.260	0.084
-437.749	130.493	-0.192	0.246
-436.734	12.312	0.180	0.138
-435.719	358.523	0.109	-0.217
-434.705	-200.000	0.063	-0.000
-433.690	800.000	0.055	-0.154
-432.676	-81.501	0.344	-0.113
-431.661	-70.587	-0.324	0.122
-430.646	91.818	-0.094	0.106
-429.632	-83.482	-0.249	0.080
-428.617	453.551	-0.119	-0.263
-427.603	607.268	-0.077	0.191
-426.588	-180.298	0.239	-0.005
-425.573	147.165	0.098	-0.132
-424.559	-40.731	-0.035	-0.018
-423.544	-97.816	0.127	0.033
-422.530	-47.212	0.383	0.186
-421.515	97.522	0.072	0.082
-420.500	-31.586	-0.293	-0.164
-419.486	-146.790	0.187	-0.016
-418.471	145.627	-0.213	-0.284
-417.457	589.826	-0.125	0.308
-416.442	281.565	-0.119	0.214
-415.428	64.344	-0.121	-0.122
-414.413	30.470	-0.292	0.249
-413.398	-91.450	-0.090	-0.026
-412.384	-66.332	0.058	-0.023
-411.369	-51.308	-0.265	0.124
-410.355	-200.000	-0.056	-0.314
-409.340	660.725	0.048	-0.123
-408.325	-15.860	-0.403	-0.256
-407.311	166.033	-0.065	-0.092
-406.296	-200.000	0.028	0.357
-405.282	-67.672	-0.208	0.081
-404.267	120.303	-0.030	-0.037
-403.252	-200.000	-0.015	-0.168
-402.238	65.476	0.109	-0.110
-401.223	-49.103	0.125	-0.060
-400.209	-200.000	-0.009	-0.096
-399.194	-200.000	0.067	-0.511
-398.179	-39.434	-0.057	0.030
-397.165	13.690	-0.155	-0.120
-396.150	-96.118	0.208	0.055
-395.136	54.768	-0.129	-0.124
-394.121	286.007	0.053	-0.095
-393.106	-125.179	-0.502	-0.077
-392.092	800.000	-0.030	0.128
-391.077	-168.488	-0.134	-0.005
-390.063	800.000	0.052	-0.165
-389.048	333.116	-0.170	0.328
-388.033	-200.000	-0.006	-0.159
-387.019	-97.492	0.195	0.051
-386.004	-162.976	0.458	0.022
-384.990	155.774	-0.103	-0.141
-383.975	171.371	-0.066	0.094
-382.960	-36.460	-0.135	-0.072
-381.946	-132.750	0.283	-0.036
-380.931	800.000	0.080	0.255
-379.917	800.000	-0.047	-0.142
-378.902	-200.000	-0.003	-0.142
-377.888	-54.289	-0.337	-0.152
-376.873	-99.063	-0.235	-0.059
-375.858	89.144	0.081	0.089
-374.844	32.213	-0.119	0.102
-373.829	-33.324	0.030	-0.016
-372.815	-20.350	-0.495	-0.303
-371.800	-200.000	0.007	-0.275
-370.785	-24.961	-0.144	0.085
-369.771	-105.639	-0.209	0.047
-368.756	42.199	-0.353	0.320
-367.742	83.783	0.174	-0.189
-366.727	-115.129	0.268	0.051
-365.712	-88.215	-0.191	0.057
-364.698	191.403	0.159	-0.239
-363.683	-18.542	-0.145	-0.090
-362.669	514.521	-0.062	0.145
-361.654	380.261	0.050	-0.103
-360.639	191.605	0.106	-0.159
-359.625	700.157	0.081	-0.213
-358.610	-99.718	-0.257	0.064
-357.596	-118.097	0.357	0.063
-356.581	12.091	0.186	-0.142
-355.566	-200.000	-0.005	-0.043
-354.552	800.000	-0.096	-0.335
-353.537	9.243	-0.089	-0.067
-352.523	-57.204	-0.202	-0.089
-351.508	-200.000	0.012	-0.145
-350.493	544.079	0.103	-0.246
-349.479	203.210	-0.072	-0.111
-348.464	31.973	0.236	0.202
-347.450	-153.639	0.219	0.015
-346.435	238.604	-0.161	-0.266
-345.420	-45.630	-0.263	-0.129
-344.406	-200.000	0.029	-0.131
-343.391	-163.356	0.308	-0.015
-342.377	-4.160	0.068	-0.047
-341.362	138.033	0.216	0.281
-340.348	163.673	-0.076	-0.106
-339.333	-65.194	0.214	0.086
-338.318	-106.080	0.329	-0.073
-337.304	-12.447	0.025	0.016
-336.289	106.351	-0.231	-0.273
-335.275	443.759	0.107	-0.234
-334.260	-88.296	-0.238	-0.071
-333.245	-30.232	-0.290	-0.164
-332.231	-200.000	0.006	0.072
-331.216	-36.409	0.252	-0.135
-330.202	-171.302	-0.140	-0.005
-329.187	-110.365	0.219	-0.045
-328.172	-141.801	-0.078	0.008
-327.158	-200.000	0.050	0.423
-326.143	-200.000	-0.031	-0.347
-325.129	104.532	0.061	-0.071
-324.114	4.289	0.208	0.151
-323.099	34.967	0.455	0.396
-322.085	-99.783	0.393	0.098
-321.070	-200.000	-0.054	0.284
-320.056	-143.419	0.324	-0.031
-319.041	27.526	0.256	-0.214
-318.026	214.040	-0.197	-0.310
-317.012	91.416	0.081	0.090
-315.997	-200.000	0.005	0.076
-314.983	800.000	0.127	0.434
-313.968	3.975	0.277	-0.201
-312.953	-108.278	0.280	-0.060
-311.939	318.218	-0.123	0.231
-310.924	-83.490	0.146	-0.046
-309.910	-200.000	-0.003	0.144
-308.895	-200.000	0.010	-0.279
-307.880	-200.000	-0.028	-0.427
-306.866	131.569	-0.324	-0.413
-305.851	145.770	-0.179	0.239
-304.837	225.016	0.024	0.039
-303.822	28.942	-0.043	0.036
-302.807	-10.397	0.236	-0.155
-301.793	170.001	-0.097	-0.138
-300.778	-70.960	0.399	0.149
-299.764	438.022	0.043	-0.093
-298.749	431.816	-0.184	0.396
-297.735	-200.000	-0.011	0.147
-296.720	602.117	0.100	0.247
-295.705	-115.626	-0.296	-0.055
-294.691	196.310	-0.079	0.119
-293.676	51.515	0.304	0.287
-292.662	65.250	-0.290	0.291
-291.647	-200.000	-0.081	0.365
-290.632	-58.916	-0.310	-0.133
-289.618	-36.762	0.233	-0.124
-288.603	490.297	0.149	-0.339
-287.589	140.327	0.154	-0.202
-286.574	-200.000	0.012	0.342
-285.559	800.000	0.062	0.200
-284.545	-134.178	-0.461	-0.056
-283.530	-200.000	0.044	0.278
-282.516	800.000	0.040	-0.138
-281.501	-125.813	0.317	0.048
-280.486	-80.777	-0.291	-0.096
-279.472	800.000	0.080	-0.233
-278.457	800.000	-0.026	0.108
-277.443	-200.000	0.040	0.203
-276.428	12.514	-0.062	-0.048
-275.413	649.410	0.090	-0.228
-274.399	-200.000	-0.037	-0.164
-273.384	-120.091	0.204	-0.035
-272.370	800.000	-0.022	-0.094
-271.355	220.044	-0.132	0.210
-270.340	165.809	0.048	0.068
-269.326	-155.461	0.251	0.016
-268.311	508.718	0.040	-0.092
-267.297	800.000	-0.083	-0.281
-266.282	-108.613	0.163	-0.035
-265.267	419.673	0.126	0.268
-264.253	-7.951	-0.171	-0.114
-263.238	101.324	0.251	0.290
-262.224	800.000	-0.033	-0.118
-261.209	429.788	-0.030	-0.065
-260.195	247.586	0.136	0.227
-259.180	800.000	-0.118	0.366
-258.165	64.455	-0.201	0.201
-257.151	-200.000	0.031	0.279
-256.136	130.836	-0.095	-0.120
-255.122	-118.951	-0.075	0.013
-254.107	106.105	-0.015	-0.017
-253.092	256.755	0.081	-0.139
-252.078	800.000	0.091	-0.314
-251.063	800.000	0.070	0.200
-250.049	-103.126	-0.169	0.040
-249.034	800.000	-0.103	-0.307
-248.019	-6.154	-0.298	0.202
-247.005	-200.000	-0.014	0.280
-245.990	800.000	-0.091	-0.372
-244.976	-166.956	-0.407	-0.017
-243.961	-200.000	-0.012	0.394
-242.946	-200.000	0.050	-0.403
-241.932	-128.046	-0.206	-0.029
-240.917	42.513	0.142	0.128
-239.903	39.775	0.202	-0.180
-238.888	-13.986	0.144	0.092
-237.873	343.294	-0.060	-0.117
-236.859	-83.565	0.253	0.080
-235.844	10.064	-0.058	0.044
-234.830	800.000	0.080	-0.301
-233.815	156.345	-0.077	0.106
-232.800	-59.930	0.093	0.039
-231.786	800.000	-0.045	-0.164
-230.771	-200.000	0.031	-0.154
-229.757	389.987	-0.030	0.061
-228.742	-48.868	-0.093	0.044
-227.727	-105.033	-0.085	-0.019
-226.713	478.754	-0.028	0.063
-225.698	-123.560	0.119	0.019
-224.684	-9.261	0.310	0.205
-223.669	-81.807	0.172	0.056
-222.655	-5.305	0.158	0.108
-221.640	770.569	-0.013	-0.036
-220.625	-120.944	-0.138	-0.023
-219.611	-77.952	-0.072	-0.025
-218.596	-98.392	-0.335	0.085
-217.582	730.365	-0.115	0.304
-216.567	-42.695	0.208	0.105
-215.552	46.250	0.043	-0.040
-214.538	30.416	-0.067	0.057
-213.523	-23.129	-0.322	0.192
-212.509	-6.508	-0.222	-0.150
-211.494	-90.450	0.195	0.056
-210.479	-23.589	-0.311	0.185
-209.465	-161.448	0.167	0.009
-208.450	-28.596	0.338	0.193
-207.436	-134.728	-0.363	0.044
-206.421	-169.128	-0.228	0.008
-205.406	303.589	0.034	0.063
-204.392	-200.000	0.050	0.272
-203.377	774.088	-0.130	0.351
-202.363	280.637	0.028	0.049
-201.348	18.642	0.423	0.335
-200.333	14.913	-0.032	-0.024
-199.319	626.305	0.038	-0.095
-198.304	-10.410	0.245	0.161
-197.290	800.000	0.073	0.311
-196.275	-200.000	0.000	0.055
-195.260	-25.738	0.190	0.111
-194.246	-200.000	0.012	-0.145
-193.231	28.512	-0.289	0.242
-192.217	-65.777	-0.078	-0.031
-191.202	-31.609	0.023	0.013
-190.187	-177.924	-0.305	0.007
-189.173	-163.794	-0.207	-0.010
-188.158	13.677	0.266	-0.204
-187.144	-41.840	0.050	0.025
-186.129	-200.000	-0.005	-0.094
-185.114	126.518	0.122	0.152
-184.100	661.948	-0.042	0.106
-183.085	228.992	-0.156	0.252
-182.071	-9.350	-0.119	0.079
-181.056	-128.605	-0.180	0.025
-180.042	93.046	0.177	0.198
-179.027	496.000	-0.079	-0.178
-178.012	800.000	0.128	-0.451
-176.998	-200.000	0.044	-0.231
-175.983	-116.535	-0.135	-0.025
-174.969	79.132	-0.179	0.189
-173.954	-97.222	0.130	-0.034
-172.939	-159.520	0.226	-0.012
-171.925	253.246	0.117	0.197
-170.910	75.658	0.195	-0.204
-169.896	-169.364	-0.178	0.006
-168.881	-115.091	-0.370	0.069
-167.866	-200.000	-0.020	0.228
-166.852	187.435	-0.029	0.043
-165.837	-70.078	0.082	-0.031
-164.823	800.000	0.019	-0.062
-163.808	-93.591	0.206	-0.056
-162.793	75.361	-0.192	0.201
-161.779	800.000	-0.038	0.115
-160.764	-70.947	-0.214	-0.080
-159.750	800.000	0.091	-0.390
-158.735	-17.952	-0.106	0.066
-157.720	-84.618	-0.144	-0.045
-156.706	800.000	-0.177	0.501
-155.691	-80.224	0.017	0.006
-154.677	-30.316	0.308	-0.173
-153.662	-115.054	-0.462	0.087
-152.647	-177.355	-0.199	-0.005
-151.633	23.874	0.171	0.139
-150.618	800.000	-0.100	-0.290
-149.604	-200.000	0.050	-0.311
-148.589	91.408	0.079	0.088
-147.574	762.104	-0.138	0.370
-146.560	41.141	0.123	0.110
-145.545	-92.860	-0.164	0.045
-144.531	-200.000	0.037	0.288
-143.516	-200.000	0.018	-0.343
-142.502	11.902	-0.099	-0.075
-141.487	-200.000	0.009	-0.137
-140.472	384.845	-0.022	-0.045
-139.458	-152.605	-0.249	0.018
-138.443	-96.241	0.199	-0.052
-137.429	800.000	-0.099	-0.276
-136.414	44.741	-0.103	0.093
-135.399	-106.754	0.186	-0.041
-134.385	800.000	0.068	-0.190
-133.370	320.058	0.047	-0.087
-132.356	58.718	0.015	-0.014
-131.341	84.071	0.224	0.242
-130.326	800.000	-0.057	-0.177
-129.312	800.000	0.014	-0.055
-128.297	-78.315	-0.342	0.116
-127.283	90.042	0.169	0.186
-126.268	-200.000	0.020	0.302
-125.253	-146.623	0.271	0.023
-124.239	-200.000	-0.061	0.367
-123.224	-59.744	0.294	0.124
-122.210	-200.000	-0.012	0.114
-121.195	1.463	-0.208	0.147
