DTS Sentinel unit serial number:	SN413079Multiplexer serial number:	ORYXHardware model number:	OX4-SRSoftware version number:	ORYX F/W v4.00 Oryx Data Collector v3.7.2.0data status	okinstallation	princeton_trtdifferential loss correction	single-endedforward channel	channel 4reverse channel	N/Adate	2019/09/16time	07:09:34forward acquisition time	60.00reverse acquisition time	0.00gamma	496.2192k internal	0.2320k external	0.2320temperature offset calibration	0.9983default loss term (dB/km)	0.3790temperature slope calibration	1.0000multiplexer offset coefficient	1.0000multiplexer slope coefficient	1.0000fibre end	0.00T internal ref (°C)	27.37T ext. ref 1 (°C)	11.53T ext. ref 2 (°C)	21.94length (m)	temperature (°C)	Stokes	anti-Stokes-747.200	105.522	-0.182	-0.218
-746.185	192.527	-0.141	-0.215
-745.171	-3.673	-0.294	-0.206
-744.156	45.812	0.126	0.118
-743.142	800.000	-0.119	-0.343
-742.127	153.460	-0.319	0.442
-741.112	-200.000	-0.027	0.161
-740.098	160.141	0.214	0.302
-739.083	-153.091	-0.233	-0.017
-738.069	631.710	-0.027	0.069
-737.054	-108.289	-0.141	0.031
-736.039	800.000	-0.066	0.258
-735.025	-200.000	0.030	0.161
-734.010	800.000	0.132	0.443
-732.996	-49.536	0.303	-0.146
-731.981	70.922	0.090	0.095
-730.966	800.000	-0.049	0.202
-729.952	120.547	-0.095	-0.120
-728.937	-200.000	-0.005	-0.345
-727.923	-200.000	0.007	-0.060
-726.908	219.010	0.096	0.156
-725.894	-200.000	-0.025	-0.140
-724.879	104.171	-0.141	-0.168
-723.864	-64.972	0.070	0.029
-722.850	-60.463	-0.313	0.134
-721.835	800.000	0.102	0.307
-720.821	15.833	0.076	-0.061
-719.806	211.248	-0.113	-0.179
-718.791	238.572	-0.010	0.017
-717.777	800.000	-0.074	0.287
-716.762	-200.000	0.000	-0.031
-715.748	-200.000	0.026	0.118
-714.733	-200.000	-0.060	-0.284
-713.718	190.522	0.089	-0.136
-712.704	87.664	-0.103	0.115
-711.689	150.005	-0.086	-0.117
-710.675	-135.050	-0.171	-0.021
-709.660	23.344	-0.207	0.172
-708.645	12.951	-0.182	-0.142
-707.631	91.187	-0.155	-0.176
-706.616	-200.000	-0.016	-0.070
-705.602	9.893	-0.419	0.321
-704.587	-21.111	-0.182	0.113
-703.572	33.559	0.006	-0.005
-702.558	138.762	0.161	-0.213
-701.543	-92.463	-0.177	0.050
-700.529	-72.490	-0.325	0.121
-699.514	60.559	-0.213	0.213
-698.499	-65.986	0.229	0.092
-697.485	-13.559	0.263	0.172
-696.470	-160.734	0.375	0.020
-695.456	-176.885	-0.417	0.011
-694.441	48.956	-0.088	-0.083
-693.426	-69.145	-0.230	0.089
-692.412	320.701	-0.144	-0.275
-691.397	-41.079	0.310	0.161
-690.383	-82.135	-0.279	-0.092
-689.368	-92.177	0.270	0.077
-688.354	-200.000	-0.036	0.201
-687.339	-104.064	-0.184	-0.043
-686.324	-50.174	-0.305	-0.146
-685.310	-69.650	0.143	-0.055
-684.295	-200.000	-0.029	-0.208
-683.281	-200.000	-0.011	-0.135
-682.266	-200.000	-0.053	-0.266
-681.251	-194.981	0.014	0.000
-680.237	57.566	-0.120	0.119
-679.222	59.155	-0.055	-0.054
-678.208	800.000	-0.066	-0.202
-677.193	800.000	-0.072	0.253
-676.178	800.000	0.121	0.386
-675.164	800.000	-0.043	0.141
-674.149	5.793	0.351	0.262
-673.135	260.887	0.095	-0.165
-672.120	-143.871	-0.103	0.010
-671.105	-60.604	-0.296	0.127
-670.091	800.000	0.020	0.062
-669.076	560.474	-0.012	0.029
-668.062	-200.000	-0.017	0.205
-667.047	-200.000	0.007	0.068
-666.032	-119.621	-0.086	0.015
-665.018	-200.000	-0.046	0.319
-664.003	-15.991	-0.148	-0.095
-662.989	-44.909	0.282	-0.141
-661.974	-200.000	0.006	0.073
-660.959	800.000	0.014	-0.060
-659.945	230.861	-0.113	-0.187
-658.930	-101.541	0.411	-0.101
-657.916	638.500	-0.196	-0.503
-656.901	14.441	0.202	0.159
-655.886	-200.000	0.008	-0.065
-654.872	-13.252	-0.168	-0.110
-653.857	-45.546	-0.257	-0.128
-652.843	133.129	-0.154	0.200
-651.828	54.574	0.195	0.189
-650.814	-67.876	0.156	-0.062
-649.799	-106.071	0.248	-0.056
-648.784	-200.000	-0.043	0.225
-647.770	-200.000	-0.012	0.368
-646.755	-200.000	-0.013	0.326
-645.741	-101.582	-0.155	-0.038
-644.726	800.000	0.112	-0.378
-643.711	428.136	0.042	0.090
-642.697	229.291	0.123	0.203
-641.682	203.253	-0.169	0.264
-640.668	51.928	0.021	-0.020
-639.653	-81.954	0.247	0.081
-638.638	313.170	0.014	-0.026
-637.624	23.988	-0.156	-0.130
-636.609	-60.285	0.084	0.036
-635.595	-200.000	0.009	0.386
-634.580	7.505	-0.280	0.211
-633.565	-1.653	0.126	-0.089
-632.551	371.180	-0.064	-0.132
-631.536	42.887	-0.125	0.115
-630.522	470.288	-0.114	-0.257
-629.507	-38.387	-0.304	-0.162
-628.492	219.104	-0.105	0.169
-627.478	800.000	-0.016	-0.055
-626.463	513.157	-0.017	0.041
-625.449	-17.453	-0.289	-0.183
-624.434	317.532	-0.087	-0.166
-623.419	132.095	-0.086	0.111
-622.405	-24.405	-0.291	-0.175
-621.390	393.304	0.092	-0.193
-620.376	-200.000	-0.018	-0.125
-619.361	800.000	-0.078	-0.223
-618.346	-24.627	0.171	0.102
-617.332	136.733	-0.047	-0.061
-616.317	-26.231	0.067	0.040
-615.303	93.122	-0.043	-0.049
-614.288	70.968	0.086	0.090
-613.273	-96.873	-0.308	-0.081
-612.259	135.146	0.124	0.162
-611.244	113.435	0.148	0.181
-610.230	394.787	-0.056	-0.117
-609.215	-159.010	0.166	-0.009
-608.201	-126.387	0.397	-0.059
-607.186	-93.599	-0.206	-0.057
-606.171	474.842	-0.066	-0.150
-605.157	154.578	0.118	0.163
-604.142	-70.498	0.175	0.067
-603.128	442.681	-0.115	-0.252
-602.113	-200.000	0.006	-0.226
-601.098	-79.136	0.263	-0.090
-600.084	-54.113	0.316	-0.145
-599.069	-112.629	-0.080	0.016
-598.055	-40.636	0.161	0.084
-597.040	7.933	0.101	-0.076
-596.025	-200.000	-0.055	0.375
-595.011	-61.022	-0.359	-0.153
-593.996	480.651	0.135	0.308
-592.982	32.302	-0.197	-0.171
-591.967	-82.834	0.174	-0.057
-590.952	209.665	0.069	-0.109
-589.938	-91.529	0.164	0.047
-588.923	-106.696	-0.144	-0.032
-587.909	135.237	0.036	-0.047
-586.894	28.784	-0.220	-0.188
-585.879	11.261	-0.068	0.052
-584.865	-114.396	-0.202	0.039
-583.850	-200.000	0.012	-0.167
-582.836	74.264	-0.120	-0.127
-581.821	-200.000	-0.006	-0.056
-580.806	-66.558	0.060	0.024
-579.792	800.000	-0.030	-0.092
-578.777	-100.022	-0.355	0.089
-577.763	-56.362	0.259	0.115
-576.748	800.000	0.119	0.435
-575.733	-170.577	0.418	-0.015
-574.719	698.356	-0.044	-0.117
-573.704	-93.090	-0.116	0.032
-572.690	-35.568	-0.178	-0.097
-571.675	191.666	-0.216	-0.327
-570.661	800.000	-0.060	-0.211
-569.646	-102.228	-0.227	-0.055
-568.631	800.000	-0.090	-0.302
-567.617	150.911	-0.174	0.238
-566.602	278.338	0.163	0.292
-565.588	16.890	0.248	-0.197
-564.573	-200.000	0.002	-0.251
-563.558	-200.000	-0.053	0.270
-562.544	-77.200	0.209	-0.073
-561.529	-143.869	0.269	0.025
-560.515	-161.566	-0.031	-0.002
-559.500	274.661	-0.088	0.156
-558.485	437.847	-0.064	-0.141
-557.471	-200.000	-0.012	0.159
-556.456	541.807	-0.139	-0.332
-555.442	-153.240	-0.026	-0.002
-554.427	103.755	0.184	-0.217
-553.412	200.245	-0.090	0.139
-552.398	-50.105	0.345	-0.164
-551.383	-143.262	-0.268	-0.026
-550.369	80.714	-0.265	0.287
-549.354	-46.071	0.169	0.084
-548.339	730.505	0.035	0.095
-547.325	-68.951	-0.374	0.145
-546.310	268.988	0.096	-0.169
-545.296	151.888	-0.078	0.106
-544.281	-200.000	-0.040	0.201
-543.266	-200.000	0.003	0.262
-542.252	-160.104	0.186	0.010
-541.237	671.644	0.028	0.072
-540.223	-95.605	0.034	0.009
-539.208	-125.939	0.088	-0.013
-538.193	-22.076	-0.314	-0.191
-537.179	800.000	0.084	-0.365
-536.164	454.996	0.164	-0.364
-535.150	-56.435	-0.573	-0.255
-534.135	-187.052	0.416	-0.006
-533.121	-200.000	0.019	-0.199
-532.106	-143.480	0.162	-0.016
-531.091	800.000	-0.053	-0.217
-530.077	-6.840	0.123	0.084
-529.062	-145.341	-0.131	-0.012
-528.048	-10.384	0.140	0.093
-527.033	-200.000	-0.056	-0.329
-526.018	156.390	-0.061	-0.085
-525.004	22.416	0.086	-0.071
-523.989	-7.692	-0.128	0.087
-522.975	-200.000	-0.005	0.102
-521.960	-48.969	0.122	0.058
-520.945	-163.670	-0.122	0.006
-519.931	-30.061	-0.265	0.151
-518.916	-200.000	-0.030	0.173
-517.902	-157.707	0.111	-0.007
-516.887	-79.581	-0.338	-0.114
-515.872	-200.000	-0.046	-0.301
-514.858	-200.000	0.017	0.249
-513.843	-40.598	-0.118	0.062
-512.829	23.551	0.228	0.188
-511.814	-63.980	0.195	-0.080
-510.799	77.453	-0.218	-0.232
-509.785	267.148	-0.139	0.243
-508.770	308.460	0.021	0.039
-507.756	163.650	-0.097	0.136
-506.741	54.893	-0.173	0.167
-505.726	496.904	0.106	0.245
-504.712	103.011	-0.165	-0.194
-503.697	-36.352	0.082	-0.044
-502.683	-31.002	0.271	-0.153
-501.668	-142.067	-0.270	0.027
-500.653	20.554	0.058	-0.047
-499.639	205.757	0.069	-0.107
-498.624	-45.355	-0.295	-0.147
-497.610	-24.840	0.200	-0.119
-496.595	466.494	-0.165	-0.371
-495.581	-135.313	-0.183	0.022
-494.566	800.000	-0.107	0.401
-493.551	-91.919	-0.317	0.090
-492.537	34.661	-0.077	-0.067
-491.522	800.000	-0.080	0.281
-490.508	-153.328	0.313	-0.022
-489.493	-200.000	0.049	-0.269
-488.478	-30.000	0.102	0.058
-487.464	31.202	0.133	0.115
-486.449	800.000	-0.028	-0.123
-485.435	-200.000	0.014	0.147
-484.420	-174.594	-0.321	0.009
-483.405	53.183	-0.070	0.067
-482.391	800.000	-0.055	0.182
-481.376	-175.619	0.437	-0.012
-480.362	-74.369	-0.344	-0.124
-479.347	-105.202	-0.074	0.017
-478.332	92.453	-0.088	-0.099
-477.318	800.000	0.031	0.109
-476.303	-182.477	0.288	0.005
-475.289	-121.082	-0.307	0.051
-474.274	270.710	0.160	0.282
-473.259	-170.249	0.161	0.006
-472.245	136.208	0.186	0.243
-471.230	22.693	-0.194	-0.159
-470.216	153.889	0.154	-0.211
-469.201	-97.893	-0.169	-0.044
-468.186	-200.000	0.002	0.042
-467.172	-64.618	0.149	-0.061
-466.157	70.799	0.213	-0.221
-465.143	84.539	-0.056	-0.061
-464.128	58.258	-0.009	0.009
-463.113	173.354	0.054	0.077
-462.099	-40.170	-0.226	-0.118
-461.084	373.111	0.047	-0.095
-460.070	800.000	-0.095	-0.370
-459.055	-83.015	0.152	-0.049
-458.040	-8.078	-0.097	0.066
-457.026	48.697	-0.047	0.044
-456.011	114.633	0.131	0.160
-454.997	259.791	-0.073	0.126
-453.982	-93.521	0.300	-0.083
-452.968	-86.525	-0.172	-0.053
-451.953	-124.659	-0.079	-0.012
-450.938	17.542	0.274	-0.218
-449.924	-91.119	0.093	-0.027
-448.909	800.000	-0.039	0.153
-447.895	408.036	0.013	-0.028
-446.880	633.481	-0.087	0.219
-445.865	-195.316	0.383	-0.003
-444.851	14.751	0.145	-0.113
-443.836	-200.000	-0.007	0.071
-442.822	-200.000	0.020	-0.113
-441.807	88.131	-0.084	-0.093
-440.792	29.057	0.124	0.105
-439.778	364.711	0.140	0.282
-438.763	-200.000	0.014	-0.282
-437.749	-163.480	-0.344	-0.016
-436.734	3.047	-0.221	-0.161
-435.719	800.000	-0.053	-0.153
-434.705	702.098	0.016	0.041
-433.690	-18.224	0.163	0.102
-432.676	-64.712	0.223	-0.090
-431.661	-41.099	0.105	0.054
-430.646	253.485	-0.114	-0.195
-429.632	-200.000	-0.011	-0.229
-428.617	-15.020	-0.126	0.081
-427.603	-2.595	-0.302	0.211
-426.588	-81.266	-0.195	-0.064
-425.573	-22.586	-0.276	-0.167
-424.559	87.767	0.280	0.310
-423.544	277.257	-0.131	0.232
-422.530	-67.636	0.046	-0.018
-421.515	100.079	-0.141	0.163
-420.500	780.265	-0.116	-0.317
-419.486	534.200	-0.162	-0.383
-418.471	-45.533	0.209	0.103
-417.457	55.151	-0.081	0.078
-416.442	246.003	-0.138	0.232
-415.428	127.193	0.211	0.267
-414.413	-200.000	0.016	0.102
-413.398	-200.000	0.010	0.051
-412.384	800.000	-0.047	0.169
-411.369	800.000	0.142	-0.406
-410.355	-4.822	0.283	-0.195
-409.340	71.245	-0.208	-0.215
-408.325	-19.615	0.436	-0.269
-407.311	-10.144	0.194	-0.129
-406.296	-183.790	0.137	-0.002
-405.282	112.545	0.099	-0.120
-404.267	-200.000	0.064	-0.316
-403.252	130.497	0.038	0.049
-402.238	-117.973	-0.222	-0.040
-401.223	-39.455	-0.231	0.121
-400.209	-68.944	-0.249	0.096
-399.194	24.987	-0.265	0.219
-398.179	-68.195	0.166	0.065
-397.165	-3.066	0.232	0.161
-396.150	-38.537	0.162	0.085
-395.136	-58.774	0.221	-0.096
-394.121	275.772	-0.140	0.248
-393.106	160.936	-0.075	0.105
-392.092	-200.000	0.056	0.405
-391.077	-41.200	-0.299	0.154
-390.063	-200.000	-0.019	-0.154
-389.048	-30.707	-0.280	0.158
-388.033	-200.000	0.006	-0.358
-387.019	800.000	-0.037	-0.152
-386.004	114.657	-0.122	-0.149
-384.990	62.010	0.267	-0.265
-383.975	-138.225	-0.081	0.009
-382.960	620.835	0.145	0.364
-381.946	89.110	-0.087	-0.097
-380.931	718.754	0.084	0.222
-379.917	-200.000	-0.059	-0.303
-378.902	-71.901	0.094	-0.035
-377.888	-40.826	-0.336	-0.173
-376.873	-128.099	-0.142	0.020
-375.858	-9.766	0.057	0.038
-374.844	-200.000	-0.009	0.224
-373.829	18.793	0.195	0.156
-372.815	-200.000	-0.031	-0.236
-371.800	-61.857	-0.182	0.076
-370.785	-93.901	0.118	0.032
-369.771	-200.000	-0.056	0.314
-368.756	-15.948	0.176	0.112
-367.742	-14.182	-0.211	0.136
-366.727	-38.332	0.224	0.118
-365.712	-66.798	0.339	-0.134
-364.698	-200.000	0.015	0.229
-363.683	-200.000	-0.006	-0.101
-362.669	48.515	-0.123	0.115
-361.654	-200.000	0.019	0.101
-360.639	726.933	0.096	-0.254
-359.625	-129.343	-0.227	-0.031
-358.610	173.219	-0.241	0.346
-357.596	-200.000	0.028	-0.211
-356.581	-146.401	-0.038	-0.003
-355.566	-95.228	0.157	-0.042
-354.552	-173.919	-0.102	-0.003
-353.537	-165.570	0.109	-0.005
-352.523	410.218	0.054	0.115
-351.508	800.000	0.133	0.403
-350.493	-36.421	0.221	0.119
-349.479	-133.922	0.070	-0.009
-348.464	168.132	0.167	0.237
-347.450	271.237	0.121	-0.212
-346.435	800.000	-0.074	0.254
-345.420	445.787	0.156	-0.341
-344.406	-90.583	-0.069	0.020
-343.391	25.217	0.237	0.196
-342.377	-200.000	-0.040	0.208
-341.362	-118.007	-0.354	-0.063
-340.348	800.000	-0.083	-0.269
-339.333	152.019	-0.107	0.145
-338.318	-200.000	0.053	0.363
-337.304	-200.000	0.006	0.298
-336.289	-140.072	0.152	-0.016
-335.275	-73.297	0.098	-0.036
-334.260	800.000	-0.050	-0.178
-333.245	-171.790	0.188	0.006
-332.231	-33.226	0.096	-0.053
-331.216	-163.573	0.272	0.013
-330.202	-45.012	0.243	0.120
-329.187	638.699	-0.092	-0.233
-328.172	-143.516	-0.411	-0.039
-327.158	524.625	-0.143	-0.334
-326.143	46.344	0.116	-0.107
-325.129	35.956	0.082	0.072
-324.114	437.225	-0.060	0.130
-323.099	-200.000	-0.043	0.251
-322.085	-64.379	-0.185	0.075
-321.070	159.546	-0.120	0.167
-320.056	253.715	0.088	0.149
-319.041	179.288	-0.111	-0.162
-318.026	-200.000	-0.004	-0.166
-317.012	-37.959	-0.007	-0.004
-315.997	-97.559	-0.204	0.053
-314.983	314.348	0.198	-0.371
-313.968	-68.661	-0.183	-0.070
-312.953	-4.145	0.140	0.097
-311.939	-200.000	0.015	0.163
-310.924	18.013	0.278	-0.220
-309.910	206.937	-0.252	0.391
-308.895	-35.329	-0.258	0.140
-307.880	549.542	0.058	-0.138
-306.866	-45.256	-0.143	0.071
-305.851	-65.916	0.060	0.024
-304.837	-151.374	-0.053	-0.004
-303.822	-36.397	0.126	0.068
-302.807	146.437	0.276	0.369
-301.793	-200.000	0.043	0.196
-300.778	-200.000	0.048	0.316
-299.764	-200.000	-0.010	-0.091
-298.749	595.985	-0.173	0.424
-297.735	587.286	-0.137	-0.335
-296.720	800.000	0.059	-0.186
-295.705	-76.036	0.154	-0.054
-294.691	-112.585	0.142	-0.028
-293.676	-89.813	-0.134	0.039
-292.662	-200.000	-0.092	-0.401
-291.647	217.621	0.133	-0.211
-290.632	-200.000	0.061	0.340
-289.618	86.433	-0.087	0.095
-288.603	-200.000	0.039	0.276
-287.589	-43.752	-0.107	0.053
-286.574	-21.737	0.235	0.142
-285.559	452.765	0.061	-0.134
-284.545	-1.014	-0.087	0.061
-283.530	132.856	0.244	-0.312
-282.516	-106.526	0.227	0.050
-281.501	30.596	-0.175	-0.149
-280.486	-200.000	0.028	0.313
-279.472	-49.790	-0.182	-0.086
-278.457	-131.871	-0.223	0.029
-277.443	-144.665	0.095	0.009
-276.428	114.186	0.032	-0.038
-275.413	58.034	0.045	0.043
-274.399	-20.003	0.381	0.233
-273.384	-200.000	0.042	0.250
-272.370	178.241	-0.055	-0.080
-271.355	-119.311	0.171	-0.030
-270.340	258.534	0.107	-0.183
-269.326	434.476	0.052	-0.112
-268.311	800.000	-0.093	0.360
-267.297	-132.162	0.445	0.057
-266.282	800.000	0.092	-0.268
-265.267	-147.175	0.198	-0.017
-264.253	440.598	-0.040	-0.087
-263.238	-58.607	0.044	-0.019
-262.224	171.199	-0.148	0.211
-261.209	-120.560	0.285	0.048
-260.195	800.000	0.005	0.014
-259.180	800.000	0.054	0.166
-258.165	-66.125	0.086	0.034
-257.151	28.178	-0.175	-0.146
-256.136	133.736	-0.177	0.227
-255.122	28.556	0.109	0.092
-254.107	654.743	0.064	0.163
-253.092	493.563	0.082	-0.188
-252.078	-18.058	-0.311	0.193
-251.063	380.799	-0.082	-0.167
-250.049	184.841	0.101	0.148
-249.034	-20.376	-0.013	-0.008
-248.019	-200.000	-0.027	-0.237
-247.005	-4.901	0.305	0.208
-245.990	800.000	0.052	-0.196
-244.976	800.000	0.054	0.165
-243.961	800.000	-0.095	0.349
-242.946	-200.000	-0.065	0.307
-241.932	23.461	0.063	0.052
-240.917	800.000	-0.048	-0.171
-239.903	800.000	-0.084	0.331
-238.888	800.000	0.065	-0.280
-237.873	640.559	-0.116	-0.294
-236.859	58.349	-0.100	-0.097
-235.844	-200.000	-0.008	-0.182
-234.830	-44.869	-0.080	-0.039
-233.815	252.898	-0.082	0.139
-232.800	-92.584	0.146	0.041
-231.786	761.897	0.049	-0.133
-230.771	139.595	0.189	0.246
-229.757	-143.288	-0.039	0.004
-228.742	66.887	0.108	0.109
-227.727	69.041	0.082	0.083
-226.713	-5.243	-0.268	-0.183
-225.698	102.117	-0.160	0.185
-224.684	-200.000	0.001	0.114
-223.669	41.379	0.242	-0.217
-222.655	-38.539	0.217	0.114
-221.640	336.599	0.108	-0.208
-220.625	-8.982	-0.270	0.179
-219.611	-200.000	-0.031	-0.182
-218.596	800.000	0.022	0.092
-217.582	-200.000	0.016	-0.207
-216.567	-31.539	0.248	-0.138
-215.552	-3.463	0.347	-0.239
-214.538	-117.354	0.234	0.042
-213.523	-102.550	-0.423	0.100
-212.509	-200.000	-0.050	-0.327
-211.494	115.309	0.021	0.025
-210.479	463.115	-0.083	0.183
-209.465	-32.126	-0.354	-0.196
-208.450	-78.236	0.185	-0.063
-207.436	-118.244	-0.107	-0.019
-206.421	438.976	0.030	0.065
-205.406	-147.666	0.261	-0.022
-204.392	-109.798	-0.362	-0.075
-203.377	-200.000	0.021	-0.135
-202.363	-88.029	0.073	-0.022
-201.348	27.117	-0.138	0.115
-200.333	37.223	0.231	0.203
-199.319	-27.351	0.272	-0.157
-198.304	-200.000	-0.034	-0.298
-197.290	205.496	-0.111	0.171
-196.275	-52.207	-0.178	-0.082
-195.260	-200.000	0.011	0.100
-194.246	209.959	-0.148	-0.229
-193.231	-182.002	0.216	0.004
-192.217	-200.000	0.015	-0.458
-191.202	-126.608	0.235	-0.034
-190.187	0.942	-0.333	-0.236
-189.173	-133.052	-0.435	-0.055
-188.158	-200.000	0.035	0.383
-187.144	-154.084	-0.254	0.017
-186.129	54.799	-0.236	0.226
-185.114	5.965	0.207	0.152
-184.100	-120.683	0.128	0.021
-183.085	800.000	-0.148	0.413
-182.071	197.005	-0.180	-0.271
-181.056	-200.000	0.034	-0.237
-180.042	767.416	-0.017	-0.047
-179.027	-56.126	-0.229	0.101
-178.012	214.882	0.259	-0.405
-176.998	226.840	0.040	-0.065
-175.983	115.805	-0.167	0.202
-174.969	-97.010	-0.227	0.059
-173.954	466.022	0.054	0.119
-172.939	167.960	-0.115	0.162
-171.925	-172.132	0.206	-0.007
-170.910	-146.467	0.130	-0.011
-169.896	69.651	-0.252	0.256
-168.881	9.354	0.027	-0.020
-167.866	524.431	0.115	-0.268
-166.852	407.907	-0.041	-0.085
-165.837	-103.644	-0.343	-0.080
-164.823	-200.000	0.014	-0.228
-163.808	355.717	0.123	-0.242
-162.793	58.463	-0.116	0.113
-161.779	105.457	0.126	0.147
-160.764	-141.552	0.326	0.033
-159.750	45.131	-0.414	-0.377
-158.735	-10.515	0.288	0.189
-157.720	-200.000	0.315	-0.001
-156.706	53.988	0.112	0.107
-155.691	-8.025	-0.124	-0.082
-154.677	203.670	0.026	0.039
-153.662	507.799	0.079	-0.181
-152.647	-60.792	0.211	-0.088
-151.633	-200.000	-0.001	0.011
-150.618	-192.792	0.110	-0.001
-149.604	800.000	-0.049	0.138
-148.589	-200.000	-0.036	0.312
-147.574	-200.000	0.034	0.220
-146.560	-200.000	-0.001	-0.013
-145.545	41.077	0.128	-0.114
-144.531	-10.927	0.287	0.187
-143.516	-41.437	-0.277	0.141
-142.502	-176.014	-0.149	0.004
-141.487	85.196	-0.090	0.098
-140.472	-112.277	0.096	-0.019
-139.458	133.742	0.010	-0.013
-138.443	-177.955	0.225	-0.005
-137.429	-200.000	0.004	0.175
-136.414	80.957	0.161	0.172
-135.399	-13.287	-0.453	0.290
-134.385	-200.000	-0.066	0.357
-133.370	147.194	-0.101	0.134
-132.356	794.073	-0.063	-0.172
-131.341	423.285	-0.035	-0.074
-130.326	-38.239	-0.143	0.075
-129.312	400.145	0.118	0.244
-128.297	-147.953	0.345	0.028
-127.283	-48.740	-0.016	0.007
-126.268	-200.000	-0.006	-0.294
-125.253	26.543	-0.181	0.150
-124.239	77.263	0.140	-0.147
-123.224	-200.000	0.004	-0.196
-122.210	16.381	0.196	-0.152
-121.195	-192.022	-0.042	0.000
