DTS Sentinel unit serial number:	SN413079Multiplexer serial number:	ORYXHardware model number:	OX4-SRSoftware version number:	ORYX F/W v4.00 Oryx Data Collector v3.7.2.0data status	okinstallation	princeton_trtdifferential loss correction	single-endedforward channel	channel 4reverse channel	N/Adate	2019/09/11time	10:15:11forward acquisition time	60.00reverse acquisition time	0.00gamma	496.2192k internal	0.2294k external	0.2294temperature offset calibration	0.9970default loss term (dB/km)	0.3790temperature slope calibration	1.0000multiplexer offset coefficient	1.0000multiplexer slope coefficient	1.0000fibre end	0.00T internal ref (°C)	35.89T ext. ref 1 (°C)	0.14T ext. ref 2 (°C)	34.01length (m)	temperature (°C)	Stokes	anti-Stokes-747.200	-92.340	0.284	0.082
-746.185	491.303	0.162	0.378
-745.171	-13.316	0.202	-0.134
-744.156	258.864	0.066	0.117
-743.142	235.546	-0.168	0.284
-742.127	-109.372	0.044	0.010
-741.112	-200.000	-0.034	0.184
-740.098	-41.988	0.088	0.046
-739.083	49.509	-0.283	0.272
-738.069	31.274	0.188	-0.165
-737.054	-172.754	-0.327	-0.010
-736.039	-133.900	-0.310	-0.039
-735.025	442.049	-0.140	0.313
-734.010	-131.282	-0.292	0.040
-732.996	-57.842	0.208	0.093
-731.981	228.198	-0.101	-0.169
-730.966	800.000	0.018	0.062
-729.952	-200.000	0.029	-0.302
-728.937	-2.253	0.253	-0.181
-727.923	-89.378	0.210	0.063
-726.908	-44.392	-0.173	-0.088
-725.894	-103.632	-0.128	0.031
-724.879	-83.580	0.339	-0.111
-723.864	-59.519	0.232	-0.102
-722.850	73.538	-0.082	-0.087
-721.835	157.629	-0.086	0.121
-720.821	-200.000	0.023	-0.226
-719.806	-85.757	-0.133	0.042
-718.791	-24.822	-0.275	0.167
-717.777	-62.238	-0.155	0.066
-716.762	249.632	0.077	-0.133
-715.748	96.270	-0.062	0.073
-714.733	-24.522	0.062	-0.038
-713.718	-107.407	0.133	-0.030
-712.704	9.019	-0.073	-0.056
-711.689	-200.000	0.050	0.440
-710.675	-200.000	-0.012	-0.066
-709.660	800.000	0.029	-0.091
-708.645	498.870	-0.055	0.130
-707.631	42.246	0.269	-0.249
-706.616	128.825	0.132	-0.172
-705.602	55.326	0.144	0.142
-704.587	-29.003	-0.248	0.146
-703.572	-200.000	-0.052	0.425
-702.558	-120.221	0.429	-0.075
-701.543	-90.959	0.393	0.115
-700.529	301.202	-0.147	-0.277
-699.514	800.000	0.057	-0.225
-698.499	644.528	0.086	0.225
-697.485	77.242	0.277	0.300
-696.470	-200.000	-0.015	0.073
-695.456	-121.516	-0.122	-0.021
-694.441	-200.000	-0.016	0.176
-693.426	-141.343	0.120	0.012
-692.412	-121.733	-0.122	0.021
-691.397	58.029	-0.009	-0.009
-690.383	800.000	0.054	-0.183
-689.368	-98.670	0.181	0.047
-688.354	-35.425	-0.223	0.124
-687.339	-30.011	-0.059	-0.034
-686.324	-79.777	0.325	-0.112
-685.310	206.475	-0.143	-0.227
-684.295	-200.000	-0.020	0.251
-683.281	-200.000	0.047	0.256
-682.266	-150.271	-0.450	0.035
-681.251	655.744	-0.079	-0.207
-680.237	-200.000	0.008	-0.445
-679.222	174.858	-0.158	-0.233
-678.208	592.354	-0.066	-0.167
-677.193	-59.632	0.294	-0.128
-676.178	174.832	0.195	-0.288
-675.164	-22.835	0.139	-0.085
-674.149	-82.084	0.187	0.062
-673.135	800.000	0.032	-0.137
-672.120	219.064	-0.127	-0.208
-671.105	-97.550	-0.185	0.049
-670.091	800.000	-0.114	0.357
-669.076	-200.000	-0.064	0.559
-668.062	-200.000	0.072	0.351
-667.047	800.000	-0.033	-0.095
-666.032	-26.701	-0.371	0.221
-665.018	-116.375	0.189	0.036
-664.003	-200.000	-0.018	0.416
-662.989	-200.000	-0.006	-0.127
-661.974	497.846	-0.184	-0.432
-660.959	55.463	0.011	0.011
-659.945	-149.605	-0.325	-0.026
-658.930	800.000	0.064	-0.203
-657.916	-88.100	0.252	-0.077
-656.901	152.659	0.162	0.226
-655.886	189.374	0.179	0.273
-654.872	108.107	-0.172	0.208
-653.857	42.436	-0.349	-0.323
-652.843	-147.227	-0.236	-0.020
-651.828	-30.463	0.131	-0.076
-650.814	-14.156	-0.018	0.012
-649.799	28.368	0.085	-0.073
-648.784	-200.000	0.061	0.371
-647.770	-26.508	-0.246	-0.147
-646.755	-52.138	0.244	-0.115
-645.741	-1.834	-0.114	0.082
-644.726	-88.833	0.151	0.046
-643.711	175.232	-0.144	-0.212
-642.697	-200.000	0.011	0.196
-641.682	140.763	0.049	0.066
-640.668	800.000	0.042	-0.145
-639.653	35.398	0.179	-0.160
-638.638	30.327	-0.101	-0.088
-637.624	-121.055	0.388	-0.066
-636.609	341.035	-0.248	0.493
-635.595	-120.690	0.088	-0.015
-634.580	-119.237	0.090	0.016
-633.565	605.675	-0.140	-0.354
-632.551	-106.005	0.126	-0.029
-631.536	-200.000	0.005	0.057
-630.522	800.000	-0.018	-0.061
-629.507	-200.000	-0.014	0.131
-628.492	107.024	-0.188	0.228
-627.478	-183.377	-0.122	-0.002
-626.463	26.212	-0.109	-0.093
-625.449	126.573	0.092	-0.119
-624.434	109.129	0.095	0.116
-623.419	106.289	0.139	0.168
-622.405	422.462	0.096	0.210
-621.390	-23.332	-0.241	-0.147
-620.376	-34.726	0.023	-0.013
-619.361	-53.408	0.122	-0.057
-618.346	-66.629	0.113	0.046
-617.332	-78.883	-0.371	-0.128
-616.317	-23.169	-0.102	-0.063
-615.303	-200.000	-0.010	-0.096
-614.288	115.674	0.236	0.294
-613.273	102.644	-0.136	0.162
-612.259	27.573	-0.175	-0.150
-611.244	-200.000	0.032	0.199
-610.230	-157.805	-0.251	-0.015
-609.215	-200.000	0.051	0.413
-608.201	-163.073	0.121	0.006
-607.186	-78.472	-0.464	0.161
-606.171	-50.338	-0.104	0.050
-605.157	-200.000	-0.028	0.314
-604.142	-34.059	0.227	-0.127
-603.128	-131.599	0.368	0.049
-602.113	-99.842	0.185	0.047
-601.098	134.303	0.140	0.185
-600.084	56.968	0.030	-0.030
-599.069	-25.878	0.270	0.161
-598.055	-71.626	-0.243	-0.092
-597.040	18.919	0.174	-0.142
-596.025	-114.338	0.174	-0.034
-595.011	800.000	0.064	-0.241
-593.996	-163.136	-0.327	0.016
-592.982	800.000	0.086	0.241
-591.967	800.000	0.052	0.210
-590.952	-200.000	-0.039	0.368
-589.938	-162.163	-0.137	-0.007
-588.923	-200.000	0.005	-0.211
-587.909	197.140	-0.101	0.156
-586.894	142.333	-0.123	0.166
-585.879	-72.938	-0.294	0.110
-584.865	120.055	-0.144	-0.182
-583.850	-152.389	-0.511	0.037
-582.836	151.464	0.266	0.367
-581.821	-194.051	-0.423	0.004
-580.806	-94.907	-0.246	-0.068
-579.792	-103.034	0.215	0.052
-578.777	-127.990	0.186	-0.027
-577.763	400.348	0.090	0.191
-576.748	-132.150	0.349	0.046
-575.733	97.931	0.128	-0.150
-574.719	-53.781	-0.255	0.118
-573.704	-110.609	-0.202	0.043
-572.690	276.417	0.327	0.590
-571.675	800.000	0.112	0.432
-570.661	-92.944	-0.108	0.031
-569.646	161.886	0.073	0.104
-568.631	-200.000	0.000	0.213
-567.617	143.458	0.118	0.159
-566.602	531.889	0.092	0.221
-565.588	558.094	0.042	0.103
-564.573	342.276	0.182	-0.361
-563.558	-103.186	0.075	0.018
-562.544	-200.000	-0.032	-0.227
-561.529	800.000	0.083	-0.318
-560.515	-84.914	-0.122	-0.039
-559.500	131.408	0.302	0.394
-558.485	-67.966	0.325	-0.129
-557.471	204.007	0.135	-0.212
-556.456	457.862	0.151	0.340
-555.442	-62.056	0.168	-0.071
-554.427	-131.325	-0.198	0.027
-553.412	60.620	-0.130	-0.131
-552.398	-13.518	-0.138	0.091
-551.383	-200.000	-0.011	0.341
-550.369	-25.725	-0.140	-0.084
-549.354	-200.000	0.003	0.017
-548.339	-200.000	-0.038	0.199
-547.325	198.205	0.052	0.080
-546.310	-200.000	0.024	-0.229
-545.296	-161.608	0.234	0.012
-544.281	100.144	-0.028	-0.033
-543.266	221.844	0.083	-0.136
-542.252	-200.000	0.034	0.156
-541.237	166.964	0.062	0.090
-540.223	42.101	-0.071	0.065
-539.208	-99.575	0.232	-0.059
-538.193	13.438	-0.189	-0.149
-537.179	-200.000	-0.012	-0.238
-536.164	-200.000	0.024	0.130
-535.150	-153.950	0.341	-0.024
-534.135	21.555	0.201	0.166
-533.121	-200.000	-0.016	0.128
-532.106	-32.611	0.275	0.155
-531.091	14.814	-0.230	-0.183
-530.077	-2.539	-0.251	-0.178
-529.062	-128.148	0.103	0.015
-528.048	800.000	0.021	0.081
-527.033	-148.543	-0.170	0.014
-526.018	-95.424	0.054	0.015
-525.004	-152.573	-0.127	-0.009
-523.989	330.901	0.082	0.160
-522.975	23.083	-0.166	-0.138
-521.960	46.659	0.082	-0.077
-520.945	38.322	-0.144	-0.130
-519.931	116.694	0.264	0.329
-518.916	-123.350	-0.033	0.005
-517.902	-35.212	0.169	0.093
-516.887	-170.132	-0.445	0.016
-515.872	455.901	0.170	-0.382
-514.858	-200.000	-0.031	-0.248
-513.843	-8.877	-0.181	-0.123
-512.829	800.000	-0.092	0.294
-511.814	-1.268	0.439	-0.314
-510.799	-13.578	-0.194	0.127
-509.785	5.187	0.060	-0.045
-508.770	-2.618	0.153	0.109
-507.756	53.998	-0.233	0.227
-506.741	329.047	0.044	-0.086
-505.726	143.350	-0.071	0.096
-504.712	-151.467	-0.252	0.019
-503.697	800.000	-0.095	0.321
-502.683	-200.000	0.026	0.167
-501.668	-151.787	0.167	-0.012
-500.653	295.597	0.148	0.274
-499.639	-46.226	0.255	-0.127
-498.624	-2.943	0.043	0.030
-497.610	407.720	-0.180	-0.386
-496.595	365.629	0.129	-0.262
-495.581	-200.000	0.038	0.175
-494.566	12.467	0.059	0.046
-493.551	-39.335	0.217	0.115
-492.537	160.243	-0.066	-0.093
-491.522	-136.239	0.022	0.003
-490.508	175.172	-0.086	0.126
-489.493	800.000	-0.020	-0.085
-488.478	-129.287	0.346	-0.049
-487.464	634.206	0.034	0.088
-486.449	340.144	0.065	0.128
-485.435	205.139	0.075	0.118
-484.420	-96.543	-0.081	-0.022
-483.405	104.655	-0.114	0.136
-482.391	36.392	-0.050	0.045
-481.376	173.302	-0.129	0.188
-480.362	-114.842	-0.092	-0.018
-479.347	-200.000	-0.020	0.242
-478.332	-48.009	-0.134	0.066
-477.318	-73.096	0.305	-0.113
-476.303	800.000	-0.151	0.446
-475.289	800.000	0.071	-0.311
-474.274	-200.000	0.012	0.459
-473.259	-31.868	-0.203	0.115
-472.245	-200.000	0.004	-0.060
-471.230	800.000	-0.063	-0.276
-470.216	20.035	0.139	-0.114
-469.201	-61.315	-0.152	-0.065
-468.186	85.895	-0.059	0.066
-467.172	-115.011	0.218	-0.042
-466.157	123.131	0.429	-0.543
-465.143	-200.000	0.027	-0.159
-464.128	-70.862	0.259	0.099
-463.113	-72.687	-0.287	-0.107
-462.099	-76.174	-0.280	-0.100
-461.084	-200.000	0.007	0.053
-460.070	-145.621	0.205	-0.019
-459.055	800.000	0.040	-0.135
-458.040	48.897	0.215	-0.204
-457.026	-54.303	-0.132	0.061
-456.011	304.447	-0.047	0.088
-454.997	-131.736	-0.164	0.022
-453.982	317.215	0.074	0.141
-452.968	402.526	-0.083	-0.177
-451.953	-200.000	-0.040	-0.239
-450.938	-113.525	0.177	-0.035
-449.924	-200.000	0.075	-0.435
-448.909	-83.385	-0.214	0.069
-447.895	-200.000	-0.034	-0.234
-446.880	-151.641	-0.255	0.019
-445.865	-200.000	-0.052	0.421
-444.851	-129.515	-0.107	-0.015
-443.836	-62.269	-0.106	0.045
-442.822	-200.000	0.035	0.166
-441.807	-136.007	-0.325	-0.039
-440.792	-200.000	0.043	0.359
-439.778	-84.933	0.023	-0.007
-438.763	-179.452	0.477	0.011
-437.749	-148.048	0.142	-0.012
-436.734	-67.714	-0.053	0.021
-435.719	44.293	-0.174	0.161
-434.705	237.004	-0.210	-0.351
-433.690	-200.000	0.012	-0.156
-432.676	190.875	-0.122	0.185
-431.661	279.936	-0.131	0.236
-430.646	-200.000	0.009	0.082
-429.632	-101.394	-0.316	0.078
-428.617	31.326	0.188	0.163
-427.603	-101.405	0.265	-0.065
-426.588	-146.514	0.085	0.007
-425.573	164.080	0.089	0.126
-424.559	800.000	0.095	-0.273
-423.544	-6.577	-0.367	-0.252
-422.530	-94.437	-0.394	0.109
-421.515	-41.132	0.070	0.036
-420.500	800.000	-0.045	-0.160
-419.486	162.763	-0.118	-0.167
-418.471	-116.555	-0.161	-0.030
-417.457	-43.115	-0.158	0.081
-416.442	-124.680	0.214	0.033
-415.428	-161.581	0.057	0.003
-414.413	800.000	0.059	0.195
-413.398	714.419	0.094	-0.251
-412.384	-200.000	-0.040	-0.269
-411.369	-200.000	-0.054	0.353
-410.355	-116.181	0.190	-0.036
-409.340	422.101	-0.103	-0.224
-408.325	194.808	0.158	-0.242
-407.311	-175.087	-0.169	-0.005
-406.296	140.130	-0.062	0.083
-405.282	537.804	-0.089	-0.213
-404.267	-67.403	-0.323	-0.128
-403.252	-200.000	0.061	-0.487
-402.238	-183.960	-0.075	-0.001
-401.223	-23.458	0.118	-0.071
-400.209	184.970	-0.149	-0.223
-399.194	-96.032	0.273	-0.073
-398.179	7.500	0.292	0.221
-397.165	373.520	-0.116	0.238
-396.150	-200.000	-0.018	0.143
-395.136	-200.000	-0.025	0.156
-394.121	457.878	0.082	0.185
-393.106	103.756	-0.030	-0.035
-392.092	360.183	-0.154	-0.310
-391.077	-200.000	-0.022	0.336
-390.063	-200.000	-0.034	0.206
-389.048	149.241	-0.145	-0.198
-388.033	218.686	0.200	-0.323
-387.019	800.000	0.097	-0.275
-386.004	-178.618	-0.226	0.005
-384.990	-160.966	0.179	-0.009
-383.975	800.000	0.027	0.089
-382.960	800.000	0.045	-0.157
-381.946	76.759	-0.113	0.121
-380.931	-200.000	-0.060	0.432
-379.917	-165.626	-0.069	0.003
-378.902	251.825	-0.175	0.300
-377.888	137.316	0.200	0.263
-376.873	-200.000	-0.020	-0.209
-375.858	-57.170	-0.052	0.023
-374.844	-200.000	0.050	0.417
-373.829	577.889	0.154	-0.380
-372.815	-109.698	-0.246	0.052
-371.800	-141.984	-0.129	-0.013
-370.785	48.732	0.078	0.074
-369.771	-200.000	0.024	-0.153
-368.756	-105.840	0.140	0.032
-367.742	-92.597	0.243	0.069
-366.727	-55.081	-0.348	-0.158
-365.712	-129.566	0.181	0.025
-364.698	155.271	-0.206	-0.285
-363.683	-55.614	0.361	0.163
-362.669	-38.960	-0.065	0.035
-361.654	-90.543	-0.510	-0.149
-360.639	-37.712	-0.215	0.115
-359.625	-200.000	0.021	-0.187
-358.610	43.414	0.097	0.089
-357.596	12.973	-0.251	-0.196
-356.581	-65.800	-0.305	-0.123
-355.566	-25.805	-0.172	0.102
-354.552	323.321	-0.118	-0.226
-353.537	-16.569	-0.100	0.064
-352.523	800.000	0.123	-0.361
-351.508	-50.899	-0.262	-0.124
-350.493	-2.301	0.250	-0.176
-349.479	65.653	-0.138	-0.141
-348.464	-200.000	-0.004	0.319
-347.450	-200.000	0.065	0.466
-346.435	-99.631	-0.186	0.047
-345.420	77.029	0.166	-0.177
-344.406	73.418	0.083	0.087
-343.391	-26.772	0.193	0.114
-342.377	-78.707	0.461	0.158
-341.362	8.802	0.090	-0.068
-340.348	-23.112	-0.357	0.216
-339.333	-200.000	0.006	-0.073
-338.318	257.737	-0.213	0.369
-337.304	-49.069	-0.112	-0.054
-336.289	800.000	-0.048	0.176
-335.275	-27.739	0.077	0.045
-334.260	352.545	-0.095	-0.190
-333.245	-200.000	-0.009	-0.284
-332.231	-200.000	0.014	0.131
-331.216	3.696	0.167	0.122
-330.202	-124.096	-0.061	0.010
-329.187	45.100	0.192	-0.178
-328.172	87.799	-0.045	0.050
-327.158	30.436	0.258	-0.222
-326.143	198.071	-0.023	-0.036
-325.129	175.478	0.174	-0.254
-324.114	92.110	0.292	0.331
-323.099	-200.000	-0.024	-0.111
-322.085	-108.508	-0.214	0.046
-321.070	503.172	0.030	0.069
-320.056	35.555	0.207	-0.183
-319.041	-84.558	-0.256	-0.081
-318.026	800.000	0.055	-0.189
-317.012	-32.217	-0.199	-0.112
-315.997	248.352	-0.141	0.239
-314.983	-94.692	-0.236	0.064
-313.968	38.215	-0.344	0.308
-312.953	168.582	0.121	-0.173
-311.939	-11.082	0.125	-0.083
-310.924	-157.572	-0.248	-0.015
-309.910	86.854	-0.087	-0.097
-308.895	-70.636	0.067	-0.025
-307.880	569.448	0.087	-0.213
-306.866	25.503	0.143	-0.120
-305.851	113.213	-0.187	-0.227
-304.837	-5.290	0.027	0.019
-303.822	-4.466	-0.063	0.044
-302.807	191.440	-0.066	-0.100
-301.793	-83.360	-0.085	-0.027
-300.778	81.778	0.114	0.124
-299.764	-138.725	0.184	0.020
-298.749	-16.613	-0.182	-0.116
-297.735	56.780	0.207	0.203
-296.720	-113.872	-0.121	0.024
-295.705	54.127	0.084	-0.081
-294.691	-75.862	0.389	-0.138
-293.676	-30.265	0.063	-0.036
-292.662	1.934	0.315	-0.228
-291.647	104.951	-0.163	0.194
-290.632	0.830	-0.098	0.071
-289.618	-160.098	-0.052	-0.003
-288.603	-175.626	-0.052	-0.001
-287.589	800.000	-0.035	0.121
-286.574	-83.862	-0.073	0.023
-285.559	20.023	-0.160	-0.130
-284.545	133.212	0.180	-0.233
-283.530	-144.298	-0.254	-0.024
-282.516	-200.000	-0.004	0.353
-281.501	-4.356	0.272	0.189
-280.486	800.000	-0.086	0.247
-279.472	800.000	0.022	0.087
-278.457	-200.000	0.003	-0.466
-277.443	-200.000	-0.037	-0.168
-276.428	27.042	0.135	0.114
-275.413	-41.396	-0.234	0.121
-274.399	194.593	0.107	0.163
-273.384	12.030	0.222	-0.172
-272.370	-200.000	-0.016	-0.215
-271.355	800.000	0.032	-0.122
-270.340	-200.000	0.062	0.277
-269.326	65.229	-0.059	-0.060
-268.311	504.701	-0.095	0.220
-267.297	800.000	0.077	-0.256
-266.282	-107.386	0.022	0.005
-265.267	-123.953	-0.122	0.019
-264.253	85.636	-0.074	-0.082
-263.238	195.069	0.157	-0.240
-262.224	-87.396	-0.209	0.064
-261.209	53.854	0.165	0.159
-260.195	325.075	-0.044	-0.085
-259.180	-113.429	0.228	0.045
-258.165	22.343	-0.083	0.068
-257.151	800.000	0.157	0.504
-256.136	-200.000	-0.022	0.345
-255.122	800.000	0.126	-0.546
-254.107	-112.713	-0.266	0.053
-253.092	686.023	0.070	-0.184
-252.078	539.392	0.138	0.329
-251.063	17.134	0.278	-0.221
-250.049	343.012	-0.068	-0.134
-249.034	-200.000	0.045	0.267
-248.019	-200.000	-0.005	-0.154
-247.005	-200.000	0.029	-0.286
-245.990	-89.507	0.101	0.030
-244.976	800.000	0.064	-0.252
-243.961	-200.000	0.006	-0.197
-242.946	-131.460	0.187	-0.025
-241.932	-38.129	-0.180	0.096
-240.917	18.702	-0.200	0.160
-239.903	-200.000	-0.019	0.150
-238.888	375.088	-0.181	0.369
-237.873	800.000	-0.086	0.265
-236.859	343.782	-0.056	-0.110
-235.844	-200.000	-0.007	-0.464
-234.830	-106.849	-0.145	0.032
-233.815	135.237	0.103	-0.134
-232.800	-200.000	-0.061	-0.340
-231.786	785.568	-0.098	-0.270
-230.771	-136.230	0.095	-0.011
-229.757	-78.692	-0.132	-0.045
-228.742	-200.000	-0.004	-0.022
-227.727	-200.000	-0.036	0.339
-226.713	-200.000	0.020	0.122
-225.698	1.680	-0.232	-0.167
-224.684	637.777	0.115	0.294
-223.669	-133.672	0.119	-0.015
-222.655	-22.965	-0.154	0.093
-221.640	45.405	-0.247	0.229
-220.625	-88.327	0.383	-0.115
-219.611	-74.958	-0.122	0.044
-218.596	179.034	-0.132	-0.193
-217.582	-200.000	0.012	0.232
-216.567	-14.366	-0.160	-0.103
-215.552	211.531	-0.190	-0.299
-214.538	744.564	0.049	0.133
-213.523	800.000	0.081	0.263
-212.509	181.624	-0.128	-0.189
-211.494	618.460	-0.075	0.189
-210.479	-200.000	0.004	-0.071
-209.465	-200.000	0.062	-0.363
-208.450	-117.752	0.132	-0.024
-207.436	4.638	0.119	0.088
-206.421	37.669	0.164	-0.146
-205.406	-129.742	-0.109	-0.015
-204.392	-111.047	0.259	0.053
-203.377	330.018	-0.176	-0.338
-202.363	573.417	0.143	-0.348
-201.348	18.418	-0.235	0.188
-200.333	-200.000	0.007	0.265
-199.319	-70.989	0.167	-0.063
-198.304	-94.287	-0.093	-0.025
-197.290	-200.000	0.004	0.451
-196.275	627.574	0.092	-0.232
-195.260	10.569	0.076	-0.058
-194.246	-9.108	0.284	0.190
-193.231	800.000	0.048	0.167
-192.217	-55.580	0.347	-0.156
-191.202	-200.000	-0.071	-0.416
-190.187	-45.807	-0.235	-0.116
-189.173	-200.000	-0.005	0.264
-188.158	-0.459	0.103	-0.073
-187.144	-200.000	-0.034	-0.239
-186.129	-106.894	0.265	0.059
-185.114	114.847	-0.161	0.197
-184.100	781.562	-0.151	-0.413
-183.085	-80.031	0.323	0.108
-182.071	467.290	-0.114	-0.255
-181.056	-187.175	-0.167	0.002
-180.042	-200.000	-0.020	-0.219
-179.027	-59.260	0.195	0.084
-178.012	10.178	-0.088	-0.067
-176.998	-200.000	-0.018	0.119
-175.983	-200.000	0.020	-0.167
-174.969	-93.225	0.178	-0.050
-173.954	-109.700	0.257	0.054
-172.939	55.018	0.389	-0.376
-171.925	-14.112	0.050	-0.032
-170.910	-200.000	-0.006	0.115
-169.896	-86.018	0.150	-0.046
-168.881	24.991	0.125	-0.104
-167.866	36.865	0.218	0.193
-166.852	-34.966	0.108	-0.059
-165.837	-200.000	0.007	-0.154
-164.823	-107.528	-0.204	-0.045
-163.808	-200.000	-0.004	0.202
-162.793	413.053	-0.014	-0.029
-161.779	-7.195	0.106	0.072
-160.764	13.652	-0.265	-0.206
-159.750	247.572	-0.158	-0.267
-158.735	-200.000	0.021	-0.174
-157.720	19.913	-0.272	-0.219
-156.706	214.186	-0.044	-0.070
-155.691	-16.358	0.176	0.111
-154.677	153.844	-0.135	-0.185
-153.662	-200.000	-0.231	-0.000
-152.647	117.944	-0.146	0.180
-151.633	-200.000	-0.043	-0.293
-150.618	800.000	0.071	0.211
-149.604	183.498	0.044	0.065
-148.589	-50.779	-0.433	0.204
-147.574	518.127	0.119	0.279
-146.560	-95.331	0.392	-0.105
-145.545	-200.000	-0.024	-0.149
-144.531	-29.270	0.219	-0.125
-143.516	283.428	-0.063	-0.113
-142.502	-142.752	-0.158	-0.015
-141.487	-18.163	-0.187	-0.117
-140.472	602.191	-0.095	0.237
-139.458	-200.000	0.031	0.182
-138.443	-200.000	-0.015	0.113
-137.429	466.071	-0.039	-0.088
-136.414	21.997	-0.035	-0.028
-135.399	60.889	0.138	-0.137
-134.385	208.167	0.182	-0.284
-133.370	-51.416	0.120	-0.056
-132.356	800.000	-0.151	-0.494
-131.341	97.501	0.123	0.141
-130.326	-200.000	-0.005	-0.084
-129.312	760.421	-0.066	-0.179
-128.297	617.827	-0.072	-0.181
-127.283	478.489	-0.147	0.333
-126.268	197.639	-0.081	0.123
-125.253	-74.664	-0.288	0.103
-124.239	-200.000	-0.064	0.286
-123.224	-200.000	0.016	0.122
-122.210	248.216	0.065	0.110
