DTS Sentinel unit serial number:	SN413079Multiplexer serial number:	ORYXHardware model number:	OX4-SRSoftware version number:	ORYX F/W v4.00 Oryx Data Collector v3.7.2.0data status	okinstallation	princeton_trtdifferential loss correction	single-endedforward channel	channel 4reverse channel	N/Adate	2019/09/18time	14:25:35forward acquisition time	60.00reverse acquisition time	0.00gamma	496.2192k internal	0.2301k external	0.2301temperature offset calibration	0.9999default loss term (dB/km)	0.3790temperature slope calibration	1.0000multiplexer offset coefficient	1.0000multiplexer slope coefficient	1.0000fibre end	0.00T internal ref (°C)	34.31T ext. ref 1 (°C)	0.69T ext. ref 2 (°C)	30.62length (m)	temperature (°C)	Stokes	anti-Stokes-747.200	800.000	-0.097	-0.377
-746.185	-69.115	-0.354	-0.139
-745.171	-56.265	-0.444	0.201
-744.156	-117.679	-0.118	-0.022
-743.142	-200.000	0.021	0.240
-742.127	-134.345	0.385	0.048
-741.112	727.125	-0.007	0.019
-740.098	192.363	-0.143	-0.219
-739.083	162.695	-0.208	-0.298
-738.069	800.000	0.024	-0.090
-737.054	99.923	0.262	-0.309
-736.039	-61.571	-0.237	-0.101
-735.025	-156.986	0.329	-0.020
-734.010	379.569	0.085	0.177
-732.996	800.000	0.068	0.245
-731.981	-200.000	0.001	0.020
-730.966	-52.192	0.307	0.145
-729.952	-162.081	-0.282	0.014
-728.937	-81.706	0.301	-0.101
-727.923	683.327	-0.031	0.082
-726.908	170.358	-0.179	-0.261
-725.894	-47.917	-0.207	0.102
-724.879	-98.808	-0.076	-0.020
-723.864	-58.109	-0.304	-0.135
-722.850	-63.944	-0.213	0.089
-721.835	-113.265	0.097	-0.020
-720.821	-12.155	0.169	-0.113
-719.806	153.999	-0.183	-0.256
-718.791	800.000	0.063	0.275
-717.777	-200.000	-0.013	0.166
-716.762	-40.749	-0.028	0.015
-715.748	370.874	-0.132	0.273
-714.733	-47.679	-0.128	-0.063
-713.718	-200.000	-0.042	0.320
-712.704	-25.613	0.217	0.130
-711.689	-176.236	-0.276	-0.007
-710.675	-151.265	-0.133	0.010
-709.660	8.171	0.102	0.078
-708.645	-200.000	0.086	0.502
-707.631	15.084	0.123	0.098
-706.616	-161.944	-0.158	0.008
-705.602	-22.138	-0.107	-0.066
-704.587	112.647	-0.065	0.081
-703.572	54.208	0.066	-0.065
-702.558	26.262	-0.148	-0.126
-701.543	800.000	-0.033	0.143
-700.529	38.187	0.106	-0.096
-699.514	-84.932	0.106	-0.034
-698.499	-39.769	0.108	0.057
-697.485	704.311	-0.115	-0.307
-696.470	-96.638	0.282	0.076
-695.456	-121.289	0.075	-0.013
-694.441	-200.000	0.000	0.102
-693.426	-33.463	-0.118	-0.066
-692.412	-200.000	0.017	-0.147
-691.397	335.072	-0.119	-0.236
-690.383	-132.357	0.238	-0.031
-689.368	-160.446	-0.094	-0.005
-688.354	-144.045	-0.177	-0.017
-687.339	-18.085	0.085	0.054
-686.324	-154.004	-0.034	-0.002
-685.310	-200.000	-0.012	-0.102
-684.295	-40.986	0.252	0.133
-683.281	88.372	0.135	0.152
-682.266	-200.000	-0.002	-0.047
-681.251	-81.295	0.107	0.036
-680.237	446.530	-0.068	-0.152
-679.222	-64.028	0.307	-0.128
-678.208	300.494	-0.054	0.101
-677.193	-200.000	0.029	0.144
-676.178	-75.279	-0.400	-0.145
-675.164	-25.320	0.168	-0.101
-674.149	547.476	-0.062	-0.152
-673.135	312.756	-0.107	-0.204
-672.120	177.157	0.072	0.107
-671.105	23.990	0.174	0.146
-670.091	-200.000	0.016	0.277
-669.076	355.303	0.141	0.285
-668.062	-70.274	0.221	-0.085
-667.047	111.909	-0.046	-0.057
-666.032	-28.972	-0.065	-0.038
-665.018	131.383	-0.102	-0.133
-664.003	33.994	-0.198	0.175
-662.989	-145.506	-0.253	0.023
-661.974	-200.000	-0.084	-0.379
-660.959	69.186	0.230	0.241
-659.945	-200.000	-0.073	-0.366
-658.930	800.000	-0.164	-0.506
-657.916	-200.000	0.025	-0.234
-656.901	225.815	-0.059	-0.097
-655.886	-60.130	0.184	-0.080
-654.872	-42.130	-0.184	0.096
-653.857	-76.942	-0.276	0.098
-652.843	800.000	-0.041	-0.118
-651.828	-12.956	-0.181	0.120
-650.814	46.823	-0.134	-0.126
-649.799	172.007	0.254	-0.370
-648.784	-200.000	-0.028	-0.156
-647.770	536.120	-0.081	-0.195
-646.755	-88.265	0.138	0.042
-645.741	800.000	-0.067	-0.208
-644.726	-200.000	-0.012	-0.090
-643.711	321.591	0.066	0.127
-642.697	27.056	-0.137	0.117
-641.682	53.674	-0.290	0.282
-640.668	-139.588	-0.250	0.027
-639.653	800.000	0.054	-0.182
-638.638	-130.995	0.159	0.022
-637.624	-66.947	-0.287	0.115
-636.609	-112.703	-0.056	-0.011
-635.595	-200.000	0.019	-0.113
-634.580	-28.048	0.259	-0.152
-633.565	661.800	-0.089	-0.233
-632.551	153.683	-0.167	0.232
-631.536	27.869	0.136	-0.116
-630.522	-126.360	0.233	-0.035
-629.507	-52.750	-0.179	-0.084
-628.492	-61.008	-0.287	-0.123
-627.478	-182.895	0.130	0.002
-626.463	-180.456	-0.222	0.005
-625.449	232.553	-0.043	-0.071
-624.434	49.478	-0.168	0.160
-623.419	-167.355	-0.044	-0.002
-622.405	126.503	0.167	-0.214
-621.390	309.676	-0.114	0.216
-620.376	37.033	0.044	-0.039
-619.361	551.146	0.106	-0.259
-618.346	51.296	0.294	0.283
-617.332	-200.000	-0.002	-0.053
-616.317	-48.050	-0.247	0.121
-615.303	-200.000	0.043	0.233
-614.288	32.587	0.177	-0.155
-613.273	53.249	0.171	0.166
-612.259	8.192	-0.027	-0.020
-611.244	-200.000	0.059	0.265
-610.230	-22.463	-0.234	0.144
-609.215	-60.802	-0.076	-0.033
-608.201	327.825	0.131	0.255
-607.186	-164.235	0.356	0.017
-606.171	258.518	0.086	-0.149
-605.157	103.040	-0.231	-0.274
-604.142	268.417	0.155	0.275
-603.128	-200.000	-0.061	0.321
-602.113	-115.479	-0.088	0.017
-601.098	-123.535	0.386	-0.062
-600.084	-87.587	-0.058	-0.018
-599.069	176.919	0.152	0.224
-598.055	800.000	-0.077	-0.258
-597.040	12.252	-0.370	-0.289
-596.025	-123.769	0.025	-0.004
-595.011	193.229	0.161	-0.247
-593.996	62.660	0.042	0.042
-592.982	-200.000	-0.042	0.220
-591.967	-59.683	0.160	-0.070
-590.952	-84.022	-0.177	-0.057
-589.938	723.407	0.127	0.342
-588.923	-111.819	0.093	0.019
-587.909	575.238	-0.069	0.170
-586.894	-65.805	-0.294	-0.119
-585.879	-200.000	0.007	-0.050
-584.865	-30.027	-0.275	0.158
-583.850	276.861	-0.129	-0.232
-582.836	-89.766	-0.221	0.066
-581.821	-40.748	-0.302	-0.159
-580.806	-200.000	0.062	-0.275
-579.792	-54.412	0.121	-0.056
-578.777	-200.000	0.011	0.312
-577.763	-88.418	-0.195	0.059
-576.748	-105.810	-0.322	0.074
-575.733	-134.006	-0.192	0.024
-574.719	46.395	0.257	-0.241
-573.704	124.911	0.095	-0.121
-572.690	-19.181	-0.280	0.176
-571.675	-74.588	-0.135	-0.049
-570.661	-200.000	-0.002	0.088
-569.646	-15.284	0.355	0.230
-568.631	268.403	0.035	-0.062
-567.617	-200.000	0.021	0.246
-566.602	-63.728	-0.284	-0.118
-565.588	-84.003	0.180	-0.058
-564.573	172.435	-0.222	-0.323
-563.558	-57.113	0.186	-0.083
-562.544	-29.544	0.228	0.132
-561.529	-40.132	0.164	0.086
-560.515	133.018	-0.169	0.221
-559.500	800.000	0.036	-0.122
-558.485	-1.977	0.030	0.021
-557.471	-81.475	0.064	0.021
-556.456	-167.476	0.212	0.009
-555.442	-200.000	0.055	-0.354
-554.427	276.247	0.106	0.190
-553.412	-167.268	-0.147	-0.006
-552.398	-5.386	-0.142	0.099
-551.383	122.786	0.187	-0.237
-550.369	-86.918	0.086	0.026
-549.354	-64.946	0.458	-0.187
-548.339	-200.000	-0.006	-0.079
-547.325	-170.159	-0.160	-0.006
-546.310	-3.659	0.105	-0.074
-545.296	229.609	0.114	0.189
-544.281	514.590	-0.033	0.077
-543.266	-25.355	0.118	0.071
-542.252	414.553	0.139	0.299
-541.237	151.510	0.067	0.092
-540.223	29.693	0.136	-0.117
-539.208	-200.000	0.032	-0.169
-538.193	-91.827	0.152	0.044
-537.179	-128.194	0.121	-0.017
-536.164	219.567	0.186	0.301
-535.150	179.041	-0.069	-0.101
-534.135	-17.309	0.406	0.259
-533.121	800.000	-0.114	-0.342
-532.106	800.000	-0.031	0.100
-531.091	800.000	0.071	0.235
-530.077	50.413	0.156	0.149
-529.062	-96.693	0.061	-0.016
-528.048	-200.000	-0.019	0.185
-527.033	544.239	0.175	0.422
-526.018	-21.838	-0.163	0.100
-525.004	162.331	-0.163	-0.230
-523.989	68.466	-0.249	-0.258
-522.975	-168.883	0.197	0.007
-521.960	-62.589	-0.066	-0.028
-520.945	603.797	0.124	0.312
-519.931	-200.000	0.225	-0.001
-518.916	-200.000	-0.047	-0.356
-517.902	-130.628	0.176	0.024
-516.887	118.400	-0.129	0.161
-515.872	800.000	-0.053	0.200
-514.858	-200.000	0.014	0.236
-513.843	-183.158	-0.499	0.009
-512.829	800.000	0.026	-0.072
-511.814	-128.811	0.150	-0.021
-510.799	-88.444	-0.264	0.080
-509.785	-70.025	-0.419	-0.161
-508.770	120.270	-0.072	0.090
-507.756	353.884	-0.030	-0.060
-506.741	800.000	-0.115	-0.336
-505.726	192.015	-0.009	-0.014
-504.712	-200.000	-0.030	0.391
-503.697	-54.369	-0.237	-0.109
-502.683	61.379	0.185	-0.186
-501.668	41.646	0.171	-0.157
-500.653	80.744	-0.129	-0.141
-499.639	-47.297	0.227	0.112
-498.624	-33.367	0.354	-0.198
-497.610	-117.252	-0.083	0.015
-496.595	22.800	-0.285	0.236
-495.581	-22.517	0.318	0.194
-494.566	800.000	0.083	0.359
-493.551	800.000	-0.081	-0.274
-492.537	-200.000	-0.016	-0.077
-491.522	-200.000	0.047	0.265
-490.508	50.322	0.210	0.200
-489.493	300.345	-0.107	-0.199
-488.478	-135.057	0.101	-0.012
-487.464	800.000	0.033	-0.104
-486.449	-58.551	0.159	0.069
-485.435	-81.803	-0.082	0.027
-484.420	561.194	0.199	-0.485
-483.405	-200.000	0.222	0.001
-482.391	412.350	-0.088	-0.188
-481.376	213.020	-0.032	-0.050
-480.362	-79.807	-0.274	-0.093
-479.347	800.000	0.102	0.307
-478.332	-192.382	-0.243	-0.002
-477.318	150.392	0.051	0.070
-476.303	800.000	0.029	0.083
-475.289	-200.000	-0.018	-0.328
-474.274	-41.178	-0.093	0.048
-473.259	436.227	0.186	-0.407
-472.245	-18.511	-0.231	-0.145
-471.230	375.504	0.268	0.550
-470.216	7.933	0.267	0.202
-469.201	402.802	-0.094	-0.198
-468.186	-44.416	0.237	-0.120
-467.172	-200.000	0.027	-0.135
-466.157	-157.518	0.136	-0.008
-465.143	-74.905	0.157	-0.057
-464.128	119.464	0.187	-0.233
-463.113	322.862	-0.068	-0.130
-462.099	-153.695	-0.110	-0.008
-461.084	495.168	-0.093	-0.215
-460.070	28.817	0.029	0.025
-459.055	-200.000	-0.065	-0.429
-458.040	-51.237	-0.213	-0.101
-457.026	-200.000	-0.038	0.348
-456.011	33.113	-0.201	0.176
-454.997	561.009	0.062	-0.150
-453.982	-197.279	0.083	-0.001
-452.968	-85.765	0.244	-0.076
-451.953	40.192	-0.120	0.109
-450.938	-18.340	0.296	0.186
-449.924	29.232	-0.123	0.105
-448.909	591.243	0.079	0.196
-447.895	-200.000	-0.011	0.188
-446.880	-76.405	-0.256	0.091
-445.865	-200.000	-0.008	0.285
-444.851	208.470	-0.204	0.321
-443.836	-142.464	-0.199	-0.020
-442.822	-200.000	-0.040	-0.291
-441.807	-200.000	-0.025	0.187
-440.792	-58.338	0.092	-0.040
-439.778	-66.509	-0.325	0.130
-438.763	-108.820	-0.542	0.117
-437.749	41.070	-0.177	-0.161
-436.734	-79.576	0.463	0.157
-435.719	147.392	-0.183	0.248
-434.705	-152.133	0.140	0.010
-433.690	800.000	0.036	0.133
-432.676	-24.029	0.017	0.010
-431.661	-170.569	-0.303	0.011
-430.646	195.658	-0.069	0.105
-429.632	800.000	0.053	-0.179
-428.617	444.415	-0.153	0.338
-427.603	-200.000	0.031	0.313
-426.588	93.566	-0.147	-0.167
-425.573	-80.720	-0.158	-0.053
-424.559	531.527	0.060	-0.144
-423.544	-200.000	0.008	0.165
-422.530	58.060	0.355	0.350
-421.515	-76.889	-0.157	0.055
-420.500	-5.971	-0.193	-0.133
-419.486	-105.255	-0.172	0.039
-418.471	382.295	-0.148	-0.305
-417.457	791.150	-0.138	-0.382
-416.442	800.000	0.043	-0.153
-415.428	-170.854	0.235	-0.008
-414.413	-93.298	0.187	0.052
-413.398	-112.275	-0.179	-0.036
-412.384	800.000	0.072	0.199
-411.369	-105.054	0.144	-0.033
-410.355	45.659	-0.187	0.174
-409.340	92.556	-0.136	0.155
-408.325	-36.899	-0.149	-0.080
-407.311	-117.642	-0.264	0.048
-406.296	182.359	0.082	-0.121
-405.282	-171.476	-0.268	-0.009
-404.267	490.513	-0.071	-0.164
-403.252	90.751	0.104	0.117
-402.238	311.526	0.041	-0.077
-401.223	-29.840	-0.075	0.043
-400.209	-128.192	-0.211	0.030
-399.194	757.959	-0.141	-0.385
-398.179	-78.290	0.296	-0.102
-397.165	-200.000	-0.002	0.034
-396.150	287.587	-0.062	0.113
-395.136	-69.426	-0.126	-0.049
-394.121	-65.524	-0.127	0.051
-393.106	-200.000	0.004	-0.158
-392.092	-74.546	0.286	-0.103
-391.077	-109.952	-0.222	-0.047
-390.063	582.637	-0.020	-0.050
-389.048	800.000	-0.038	-0.143
-388.033	113.241	-0.195	-0.238
-387.019	25.216	-0.176	0.147
-386.004	-74.838	-0.250	-0.090
-384.990	-200.000	-0.029	0.158
-383.975	-109.821	0.176	-0.037
-382.960	-93.067	0.083	-0.023
-381.946	-200.000	0.012	0.280
-380.931	-156.342	-0.190	0.012
-379.917	399.789	-0.085	-0.180
-378.902	-112.818	-0.261	-0.052
-377.888	27.551	-0.065	0.055
-376.873	201.425	0.058	-0.089
-375.858	-138.862	0.175	-0.019
-374.844	-200.000	-0.009	-0.382
-373.829	-165.490	0.328	0.014
-372.815	800.000	0.058	-0.221
-371.800	258.203	-0.157	0.272
-370.785	484.933	-0.026	-0.060
-369.771	425.005	0.049	-0.106
-368.756	68.627	-0.142	0.146
-367.742	-14.928	-0.239	-0.154
-366.727	-158.583	-0.109	0.006
-365.712	-200.000	0.042	0.396
-364.698	-106.840	-0.455	0.101
-363.683	800.000	0.028	-0.106
-362.669	334.182	0.116	0.226
-361.654	598.623	0.093	0.232
-360.639	800.000	0.088	-0.336
-359.625	800.000	-0.089	-0.248
-358.610	-75.668	-0.372	0.133
-357.596	-88.431	-0.123	-0.037
-356.581	434.191	0.039	0.086
-355.566	800.000	0.109	0.353
-354.552	-55.170	0.243	0.110
-353.537	754.331	-0.100	0.271
-352.523	-200.000	0.031	-0.226
-351.508	800.000	-0.033	0.103
-350.493	94.205	-0.183	0.209
-349.479	-200.000	0.019	-0.351
-348.464	-200.000	-0.017	0.308
-347.450	-200.000	-0.020	-0.267
-346.435	-98.943	0.361	-0.092
-345.420	-200.000	0.006	-0.027
-344.406	-57.245	-0.182	-0.080
-343.391	11.470	0.219	-0.169
-342.377	35.700	0.196	-0.173
-341.362	800.000	-0.097	-0.312
-340.348	65.390	-0.120	-0.121
-339.333	33.385	0.362	-0.315
-338.318	-137.600	0.165	0.019
-337.304	383.790	0.036	0.074
-336.289	-77.891	-0.268	0.093
-335.275	431.756	0.095	0.207
-334.260	800.000	0.062	-0.199
-333.245	800.000	-0.042	0.131
-332.231	-27.633	0.130	0.076
-331.216	-101.633	0.306	0.075
-330.202	-53.071	0.070	-0.032
-329.187	-133.338	0.197	0.025
-328.172	434.883	-0.011	0.023
-327.158	-77.202	-0.158	-0.055
-326.143	800.000	-0.080	-0.272
-325.129	-200.000	0.029	0.287
-324.114	-200.000	-0.012	0.107
-323.099	-200.000	0.013	0.171
-322.085	-95.986	0.168	-0.045
-321.070	266.151	-0.109	0.190
-320.056	-28.972	-0.127	-0.073
-319.041	800.000	0.066	-0.250
-318.026	-66.419	-0.125	-0.050
-317.012	-94.697	-0.413	-0.112
-315.997	-200.000	-0.035	-0.219
-314.983	-29.092	-0.132	-0.076
-313.968	111.282	0.214	-0.259
-312.953	103.678	0.105	0.124
-311.939	-120.977	-0.088	0.015
-310.924	159.485	-0.096	-0.134
-309.910	-200.000	0.008	-0.143
-308.895	-5.773	0.257	0.177
-307.880	-200.000	-0.012	-0.127
-306.866	800.000	-0.120	0.363
-305.851	184.628	0.211	0.314
-304.837	494.598	-0.027	0.063
-303.822	-3.410	0.172	-0.120
-302.807	-200.000	-0.007	-0.057
-301.793	755.617	0.044	-0.120
-300.778	166.561	0.091	0.129
-299.764	84.720	-0.240	0.263
-298.749	-147.134	-0.543	-0.046
-297.735	-52.552	-0.188	-0.087
-296.720	1.822	-0.051	-0.037
-295.705	-174.339	0.244	-0.007
-294.691	15.668	0.116	0.092
-293.676	367.090	0.211	0.427
-292.662	-55.540	-0.054	0.024
-291.647	179.157	0.210	0.308
-290.632	-112.243	-0.155	-0.031
-289.618	33.182	0.192	0.167
-288.603	-200.000	0.032	0.300
-287.589	-48.466	-0.188	0.090
-286.574	-42.056	0.306	-0.157
-285.559	800.000	0.028	0.124
-284.545	-200.000	0.028	-0.191
-283.530	-82.505	0.190	0.062
-282.516	63.327	-0.292	-0.293
-281.501	-55.317	-0.189	-0.085
-280.486	225.490	0.100	0.162
-279.472	-200.000	-0.064	0.298
-278.457	130.790	-0.096	-0.123
-277.443	-52.231	-0.252	-0.117
-276.428	-117.250	-0.164	-0.030
-275.413	800.000	0.036	-0.130
-274.399	-200.000	-0.053	-0.325
-273.384	24.311	0.255	-0.211
-272.370	232.249	0.041	0.068
-271.355	-23.701	-0.195	-0.117
-270.340	125.257	0.169	-0.213
-269.326	-16.445	-0.159	0.101
-268.311	-14.876	0.138	-0.089
-267.297	502.532	-0.136	0.315
-266.282	-79.101	-0.284	0.097
-265.267	-52.084	-0.063	-0.029
-264.253	800.000	0.078	-0.309
-263.238	579.190	-0.134	-0.329
-262.224	-200.000	-0.004	0.050
-261.209	800.000	0.047	0.150
-260.195	-200.000	-0.014	0.066
-259.180	800.000	0.052	-0.203
-258.165	-49.739	-0.416	0.198
-257.151	-127.283	-0.067	0.010
-256.136	-117.151	0.191	0.035
-255.122	800.000	0.101	0.320
-254.107	-200.000	-0.008	0.063
-253.092	284.491	0.186	0.334
-252.078	96.639	-0.145	0.166
-251.063	103.860	-0.106	-0.125
-250.049	80.492	-0.159	0.171
-249.034	-124.349	0.318	-0.050
-248.019	-112.289	-0.114	0.023
-247.005	-16.356	0.254	-0.161
-245.990	-23.676	0.121	-0.073
-244.976	-200.000	0.037	-0.248
-243.961	424.543	0.121	-0.260
-242.946	282.746	-0.143	0.257
-241.932	-88.284	0.253	-0.076
-240.917	-10.762	-0.036	0.024
-239.903	800.000	0.028	-0.102
-238.888	33.216	-0.100	-0.087
-237.873	-200.000	-0.013	0.403
-236.859	-155.392	-0.290	-0.019
-235.844	800.000	-0.040	-0.127
-234.830	800.000	0.029	0.081
-233.815	263.531	-0.156	0.270
-232.800	58.492	-0.029	-0.028
-231.786	63.705	-0.151	-0.152
-230.771	-170.683	0.316	-0.011
-229.757	-153.215	0.091	-0.006
-228.742	190.106	0.097	0.145
-227.727	-198.759	-0.268	-0.001
-226.713	800.000	-0.062	-0.269
-225.698	-200.000	-0.038	-0.215
-224.684	-200.000	-0.081	0.422
-223.669	-60.109	0.166	0.071
-222.655	-200.000	0.009	0.056
-221.640	-146.066	0.293	-0.026
-220.625	-200.000	0.052	0.294
-219.611	-26.815	-0.037	-0.022
-218.596	800.000	0.026	-0.080
-217.582	800.000	-0.044	0.163
-216.567	69.167	0.248	-0.255
-215.552	35.718	-0.102	-0.090
-214.538	-154.731	-0.442	-0.029
-213.523	-171.124	0.118	0.004
-212.509	468.757	-0.137	-0.306
-211.494	-200.000	0.048	-0.353
-210.479	-200.000	0.016	-0.136
-209.465	162.454	-0.167	0.234
-208.450	-77.404	0.329	-0.114
-207.436	449.235	0.123	0.271
-206.421	-28.828	0.245	-0.141
-205.406	-0.365	0.279	0.198
-204.392	-145.672	-0.175	0.016
-203.377	-160.949	0.390	0.020
-202.363	51.111	0.151	-0.142
-201.348	800.000	-0.056	-0.225
-200.333	32.196	0.226	-0.195
-199.319	176.753	-0.136	-0.197
-198.304	-200.000	-0.014	0.089
-197.290	50.558	-0.324	0.306
-196.275	800.000	-0.017	-0.064
-195.260	3.237	-0.231	0.168
-194.246	-113.747	0.174	-0.034
-193.231	-110.800	0.237	-0.049
-192.217	-200.000	-0.014	-0.334
-191.202	-154.815	-0.083	0.005
-190.187	87.415	-0.072	-0.079
-189.173	-57.089	-0.040	-0.018
-188.158	-104.023	0.246	-0.057
-187.144	-37.238	-0.248	-0.132
-186.129	454.560	0.075	-0.166
-185.114	-120.846	0.250	0.042
-184.100	671.884	-0.093	0.241
-183.085	-42.398	0.071	0.036
-182.071	83.566	0.241	0.262
-181.056	800.000	-0.020	0.065
-180.042	126.862	-0.060	0.076
-179.027	544.377	-0.088	-0.210
-178.012	-50.643	0.254	-0.119
-176.998	566.490	-0.032	-0.078
-175.983	-37.895	0.161	0.085
-174.969	-67.004	0.379	0.149
-173.954	-57.769	0.337	0.147
-172.939	-91.306	0.139	0.040
-171.925	730.111	-0.031	0.084
-170.910	-200.000	-0.011	0.078
-169.896	-200.000	0.035	0.177
-168.881	-109.672	0.203	-0.043
-167.866	-200.000	0.019	0.103
-166.852	-56.755	0.134	-0.059
-165.837	-200.000	0.055	-0.262
-164.823	314.525	-0.024	0.045
-163.808	-200.000	0.025	0.144
-162.793	-200.000	-0.034	-0.403
-161.779	-33.259	0.076	0.042
-160.764	-200.000	0.008	0.153
-159.750	132.684	0.035	-0.045
-158.735	114.101	0.139	-0.168
-157.720	-92.178	0.157	-0.044
-156.706	789.520	-0.027	-0.073
-155.691	-70.854	-0.116	-0.044
-154.677	133.337	-0.229	-0.295
-153.662	304.935	0.116	0.214
-152.647	-200.000	-0.050	0.243
-151.633	-200.000	-0.002	-0.192
-150.618	413.262	0.053	-0.111
-149.604	-200.000	0.005	0.087
-148.589	13.252	-0.159	0.123
-147.574	28.244	-0.179	-0.151
-146.560	800.000	-0.093	0.263
-145.545	-119.551	-0.170	-0.029
-144.531	-134.564	-0.157	-0.019
-143.516	-200.000	0.001	-0.039
-142.502	-110.444	-0.069	0.014
-141.487	-148.430	0.297	-0.024
-140.472	114.052	0.170	0.206
-139.458	-32.218	-0.359	-0.199
-138.443	-59.418	0.133	0.057
-137.429	-112.421	0.346	0.069
-136.414	337.383	-0.084	0.163
-135.399	-7.302	-0.124	0.084
-134.385	25.160	0.347	-0.286
-133.370	-200.000	-0.012	-0.221
-132.356	125.972	-0.117	-0.147
-131.341	-25.784	0.256	-0.150
-130.326	698.915	-0.083	0.216
-129.312	-74.845	-0.248	-0.089
-128.297	195.133	-0.110	0.167
-127.283	800.000	0.028	-0.080
-126.268	188.018	0.120	0.179
-125.253	199.592	0.081	0.124
-124.239	192.835	0.150	0.225
-123.224	448.839	-0.048	0.105
