DTS Sentinel unit serial number:	SN413079Multiplexer serial number:	ORYXHardware model number:	OX4-SRSoftware version number:	ORYX F/W v4.00 Oryx Data Collector v3.7.2.0data status	okinstallation	princeton_trtdifferential loss correction	single-endedforward channel	channel 4reverse channel	N/Adate	2019/09/14time	22:41:35forward acquisition time	60.00reverse acquisition time	0.00gamma	496.2192k internal	0.2306k external	0.2306temperature offset calibration	1.0061default loss term (dB/km)	0.3790temperature slope calibration	1.0000multiplexer offset coefficient	1.0000multiplexer slope coefficient	1.0000fibre end	0.00T internal ref (°C)	32.50T ext. ref 1 (°C)	4.68T ext. ref 2 (°C)	27.54length (m)	temperature (°C)	Stokes	anti-Stokes-747.200	288.631	0.069	-0.127
-746.185	87.094	-0.244	0.274
-745.171	-21.249	0.323	0.201
-744.156	-64.172	-0.325	0.135
-743.142	94.012	-0.118	0.136
-742.127	-158.251	0.170	-0.010
-741.112	-57.555	-0.057	0.025
-740.098	-13.020	-0.176	0.116
-739.083	-166.930	0.182	0.008
-738.069	-199.516	0.086	0.000
-737.054	800.000	-0.040	0.143
-736.039	-200.000	0.006	0.377
-735.025	425.914	0.090	0.198
-734.010	-200.000	-0.018	0.107
-732.996	484.413	0.077	-0.179
-731.981	-200.000	-0.010	-0.176
-730.966	-48.315	0.227	-0.111
-729.952	31.562	-0.252	0.220
-728.937	37.200	-0.232	0.209
-727.923	643.794	-0.029	0.076
-726.908	-90.828	0.365	0.107
-725.894	-78.493	0.115	0.040
-724.879	-90.492	-0.286	0.084
-723.864	-200.000	0.013	-0.231
-722.850	363.310	0.136	-0.277
-721.835	-93.946	-0.309	-0.086
-720.821	-21.627	-0.205	-0.127
-719.806	251.810	0.131	0.226
-718.791	-1.453	-0.125	-0.089
-717.777	-70.579	-0.077	-0.029
-716.762	-84.286	-0.362	0.116
-715.748	141.103	0.239	-0.322
-714.733	508.925	-0.178	-0.419
-713.718	127.313	0.159	-0.205
-712.704	800.000	0.086	-0.254
-711.689	104.131	-0.143	0.170
-710.675	-151.286	0.297	0.023
-709.660	194.432	-0.036	0.056
-708.645	-143.371	0.067	-0.006
-707.631	-19.109	-0.039	0.024
-706.616	-200.000	-0.031	-0.298
-705.602	87.562	0.223	-0.250
-704.587	-200.000	-0.024	0.116
-703.572	315.897	-0.039	-0.075
-702.558	174.811	0.084	0.123
-701.543	-200.000	0.042	-0.221
-700.529	60.498	0.190	-0.191
-699.514	8.636	0.352	-0.270
-698.499	-200.000	-0.015	0.285
-697.485	800.000	-0.082	0.319
-696.470	441.867	-0.022	-0.048
-695.456	800.000	-0.050	-0.173
-694.441	-42.089	-0.413	-0.214
-693.426	-200.000	0.020	-0.206
-692.412	-24.785	0.218	0.132
-691.397	54.845	0.309	-0.303
-690.383	3.997	-0.181	-0.134
-689.368	273.264	0.117	-0.209
-688.354	59.501	0.078	-0.078
-687.339	105.488	0.088	0.106
-686.324	-164.538	0.396	0.018
-685.310	123.845	0.089	-0.114
-684.295	-28.783	-0.373	-0.218
-683.281	174.395	-0.067	-0.099
-682.266	-200.000	-0.028	-0.220
-681.251	-200.000	0.066	-0.389
-680.237	-127.933	-0.206	0.030
-679.222	-82.300	-0.269	-0.089
-678.208	-113.145	0.248	0.050
-677.193	-44.765	0.285	-0.144
-676.178	90.379	0.045	0.051
-675.164	7.162	0.176	-0.133
-674.149	-200.000	0.013	-0.319
-673.135	-45.513	0.065	-0.033
-672.120	68.507	0.062	0.064
-671.105	-200.000	0.027	-0.187
-670.091	-85.004	-0.146	-0.047
-669.076	-200.000	-0.012	0.088
-668.062	-24.455	0.187	0.113
-667.047	165.643	0.236	-0.338
-666.032	-119.666	0.165	-0.029
-665.018	-3.136	0.228	0.161
-664.003	54.041	-0.083	-0.081
-662.989	768.998	-0.085	0.235
-661.974	132.422	0.143	0.187
-660.959	90.606	-0.157	-0.178
-659.945	-185.341	0.220	0.003
-658.930	-38.419	0.032	0.017
-657.916	-112.683	0.186	-0.037
-656.901	-8.250	-0.277	0.189
-655.886	370.751	-0.037	0.076
-654.872	800.000	-0.125	-0.384
-653.857	-20.152	-0.199	0.124
-652.843	-200.000	0.018	-0.379
-651.828	85.304	-0.112	0.125
-650.814	-58.211	0.111	-0.049
-649.799	-63.959	0.110	0.046
-648.784	-200.000	-0.012	0.192
-647.770	-135.183	-0.305	0.037
-646.755	-50.885	-0.234	-0.111
-645.741	-26.143	-0.027	-0.016
-644.726	243.091	0.136	0.231
-643.711	-34.606	0.217	-0.121
-642.697	-24.878	-0.066	0.040
-641.682	800.000	-0.092	-0.271
-640.668	-24.938	-0.268	0.161
-639.653	-200.000	0.019	-0.211
-638.638	487.580	-0.115	-0.266
-637.624	-44.386	-0.078	0.039
-636.609	-135.978	-0.387	0.046
-635.595	195.077	-0.126	0.194
-634.580	-20.027	-0.338	0.211
-633.565	148.812	-0.046	0.063
-632.551	-142.018	0.248	-0.025
-631.536	-102.853	-0.266	-0.064
-630.522	-200.000	-0.022	0.102
-629.507	-170.267	-0.232	-0.008
-628.492	-61.373	-0.104	-0.044
-627.478	95.057	0.155	-0.179
-626.463	13.318	-0.276	-0.216
-625.449	-200.000	-0.012	-0.075
-624.434	207.776	0.094	0.149
-623.419	73.313	0.139	0.147
-622.405	-27.916	-0.230	0.135
-621.390	800.000	0.053	-0.172
-620.376	-120.592	-0.187	-0.032
-619.361	522.221	-0.023	-0.056
-618.346	-200.000	-0.021	-0.243
-617.332	-200.000	-0.056	-0.508
-616.317	128.651	-0.226	-0.291
-615.303	800.000	0.088	-0.248
-614.288	175.411	-0.178	0.261
-613.273	-200.000	0.000	-0.201
-612.259	-200.000	0.014	0.315
-611.244	14.350	-0.128	0.101
-610.230	-40.405	0.198	-0.104
-609.215	-38.926	0.184	-0.098
-608.201	-18.869	-0.167	0.105
-607.186	-180.747	-0.106	-0.002
-606.171	-85.216	0.054	-0.017
-605.157	4.517	-0.104	0.078
-604.142	164.640	0.052	-0.074
-603.128	800.000	-0.142	-0.430
-602.113	15.861	-0.134	0.106
-601.098	-2.164	-0.081	0.057
-600.084	33.440	0.013	0.011
-599.069	-124.459	0.120	-0.019
-598.055	-200.000	0.007	0.047
-597.040	800.000	-0.047	-0.147
-596.025	-115.137	0.102	0.020
-595.011	-38.849	-0.547	0.292
-593.996	542.190	0.055	0.133
-592.982	30.206	0.226	-0.195
-591.967	-200.000	0.025	-0.148
-590.952	800.000	0.076	-0.269
-589.938	-99.502	0.314	-0.080
-588.923	-48.512	-0.094	-0.046
-587.909	222.892	0.067	-0.108
-586.894	-60.404	-0.280	-0.120
-585.879	-114.518	-0.089	-0.017
-584.865	293.682	0.094	-0.174
-583.850	-51.768	-0.302	0.142
-582.836	98.118	-0.184	0.214
-581.821	-25.001	-0.122	0.073
-580.806	-45.113	0.217	0.109
-579.792	196.868	0.135	-0.208
-578.777	66.026	-0.240	0.247
-577.763	30.481	-0.245	-0.212
-576.748	-53.541	-0.114	-0.053
-575.733	800.000	0.107	0.371
-574.719	12.241	-0.150	0.117
-573.704	100.604	0.201	-0.235
-572.690	29.531	-0.241	0.207
-571.675	-200.000	-0.018	-0.116
-570.661	595.415	0.127	0.316
-569.646	488.432	-0.051	0.117
-568.631	-200.000	0.007	0.159
-567.617	344.223	0.132	0.262
-566.602	-20.354	-0.098	0.061
-565.588	362.748	-0.063	0.127
-564.573	-200.000	0.018	0.101
-563.558	800.000	-0.100	-0.290
-562.544	-200.000	-0.090	-0.433
-561.529	-93.308	-0.296	-0.083
-560.515	379.508	-0.045	0.092
-559.500	-200.000	-0.009	-0.082
-558.485	409.528	-0.080	-0.172
-557.471	-116.794	0.234	-0.043
-556.456	-91.629	0.260	-0.075
-555.442	-200.000	0.017	-0.199
-554.427	-3.285	-0.259	-0.182
-553.412	800.000	0.072	-0.214
-552.398	-200.000	0.085	-0.442
-551.383	-200.000	-0.048	0.321
-550.369	36.942	-0.041	0.037
-549.354	-138.299	-0.129	0.014
-548.339	-200.000	0.002	0.171
-547.325	-63.887	-0.094	0.039
-546.310	800.000	-0.065	0.282
-545.296	800.000	-0.065	-0.192
-544.281	-149.423	0.324	0.026
-543.266	-126.802	-0.062	0.009
-542.252	-69.607	-0.087	-0.034
-541.237	283.735	0.128	0.232
-540.223	800.000	0.076	0.216
-539.208	800.000	-0.012	0.054
-538.193	-200.000	0.008	0.311
-537.179	-108.029	-0.106	0.023
-536.164	-19.813	-0.195	0.122
-535.150	-68.783	0.058	-0.023
-534.135	683.841	0.120	0.316
-533.121	-64.150	0.098	0.040
-532.106	-34.541	-0.244	-0.135
-531.091	-126.642	0.198	-0.030
-530.077	-98.107	-0.150	0.039
-529.062	-52.869	0.184	0.085
-528.048	-26.029	-0.032	-0.019
-527.033	-200.000	0.049	-0.293
-526.018	-71.810	-0.230	0.086
-525.004	95.097	-0.169	-0.194
-523.989	167.158	0.120	-0.171
-522.975	298.741	0.131	0.243
-521.960	-200.000	0.010	0.087
-520.945	-200.000	0.024	-0.297
-519.931	-200.000	0.051	-0.244
-518.916	-200.000	-0.019	0.106
-517.902	23.930	0.051	0.043
-516.887	-200.000	-0.050	-0.312
-515.872	-23.490	-0.184	0.111
-514.858	-107.056	0.044	0.010
-513.843	45.136	0.030	0.028
-512.829	-109.735	-0.445	-0.094
-511.814	-19.446	0.167	0.104
-510.799	138.086	-0.060	-0.079
-509.785	98.585	0.132	0.153
-508.770	-200.000	0.143	-0.000
-507.756	362.651	-0.073	0.149
-506.741	98.656	0.060	-0.069
-505.726	-120.537	-0.396	0.068
-504.712	-132.228	0.212	0.028
-503.697	364.119	0.122	0.248
-502.683	337.871	-0.029	0.058
-501.668	-73.443	0.232	-0.085
-500.653	-200.000	0.075	-0.404
-499.639	-12.086	0.290	-0.192
-498.624	57.450	0.080	0.079
-497.610	-153.988	-0.043	-0.003
-496.595	-94.199	0.098	-0.027
-495.581	-41.305	-0.303	-0.157
-494.566	-200.000	0.016	-0.202
-493.551	359.792	0.048	-0.097
-492.537	-119.865	-0.198	0.034
-491.522	294.885	0.044	-0.082
-490.508	-200.000	0.004	-0.018
-489.493	445.467	-0.057	0.126
-488.478	-127.358	0.179	-0.026
-487.464	-27.114	-0.117	-0.069
-486.449	-52.426	0.243	0.113
-485.435	464.704	-0.073	-0.165
-484.420	-200.000	0.022	-0.106
-483.405	-200.000	0.421	-0.000
-482.391	-200.000	-0.023	0.210
-481.376	317.630	0.079	0.150
-480.362	554.589	-0.083	0.201
-479.347	-148.826	0.072	-0.006
-478.332	-121.384	0.290	0.049
-477.318	-95.210	0.058	0.016
-476.303	-200.000	-0.007	-0.108
-475.289	-81.949	-0.339	-0.112
-474.274	-200.000	0.016	-0.217
-473.259	160.961	0.135	-0.190
-472.245	-200.000	-0.045	0.427
-471.230	535.713	-0.176	0.420
-470.216	50.153	-0.238	-0.226
-469.201	381.479	-0.063	-0.131
-468.186	65.048	0.268	0.273
-467.172	3.744	0.319	-0.234
-466.157	800.000	0.026	0.111
-465.143	-200.000	-0.006	0.091
-464.128	1.205	-0.145	0.105
-463.113	63.245	-0.145	0.147
-462.099	437.637	0.018	0.040
-461.084	-187.692	-0.147	0.002
-460.070	70.867	0.156	-0.163
-459.055	388.524	-0.114	-0.237
-458.040	-140.239	-0.217	0.023
-457.026	-200.000	-0.075	0.338
-456.011	-118.557	-0.512	-0.091
-454.997	438.755	0.112	-0.245
-453.982	-44.907	0.152	0.076
-452.968	-114.377	0.711	0.138
-451.953	57.084	-0.313	0.308
-450.938	31.977	-0.318	-0.276
-449.924	-37.126	-0.268	0.144
-448.909	-65.418	-0.189	0.077
-447.895	3.255	-0.015	0.011
-446.880	-106.813	0.343	-0.077
-445.865	101.634	-0.075	-0.088
-444.851	103.073	-0.149	0.176
-443.836	125.890	-0.207	0.263
-442.822	123.658	-0.112	0.142
-441.807	-86.920	0.439	-0.135
-440.792	-200.000	0.032	0.183
-439.778	13.678	-0.216	-0.168
-438.763	180.754	-0.061	0.091
-437.749	800.000	0.180	-0.549
-436.734	10.668	-0.228	0.175
-435.719	-200.000	0.049	0.264
-434.705	-30.138	0.333	0.191
-433.690	53.105	0.030	0.028
-432.676	-91.662	0.103	0.030
-431.661	-93.914	-0.266	-0.074
-430.646	491.783	0.123	0.283
-429.632	404.293	0.115	0.244
-428.617	55.630	0.191	0.186
-427.603	-165.316	-0.349	-0.015
-426.588	-200.000	0.065	-0.433
-425.573	703.789	0.053	0.140
-424.559	-200.000	0.048	0.297
-423.544	-200.000	0.016	0.212
-422.530	-34.294	0.159	0.088
-421.515	348.311	0.048	0.094
-420.500	137.955	-0.077	0.101
-419.486	579.952	-0.030	0.075
-418.471	470.059	0.061	0.137
-417.457	-87.003	0.029	-0.009
-416.442	800.000	-0.038	-0.107
-415.428	-123.144	0.273	0.044
-414.413	74.234	-0.254	-0.268
-413.398	800.000	-0.120	-0.447
-412.384	265.599	-0.145	-0.254
-411.369	-200.000	0.005	-0.143
-410.355	220.602	-0.063	0.101
-409.340	-16.117	-0.194	-0.124
-408.325	-49.296	-0.124	0.059
-407.311	18.047	0.084	-0.067
-406.296	30.713	-0.072	-0.062
-405.282	-58.878	-0.076	0.033
-404.267	-179.363	0.266	-0.006
-403.252	60.953	-0.094	0.093
-402.238	-91.557	0.360	0.103
-401.223	156.492	-0.130	-0.180
-400.209	-116.723	-0.073	0.014
-399.194	350.126	0.149	0.296
-398.179	19.019	0.146	-0.118
-397.165	-15.033	0.282	0.182
-396.150	25.578	0.193	0.161
-395.136	-64.778	0.118	-0.048
-394.121	-200.000	0.049	-0.226
-393.106	10.876	0.225	0.172
-392.092	-62.504	-0.055	-0.023
-391.077	313.214	0.128	0.242
-390.063	-112.268	0.091	-0.018
-389.048	-0.155	-0.141	-0.101
-388.033	0.185	-0.116	-0.083
-387.019	-64.717	-0.249	0.101
-386.004	368.413	-0.174	-0.353
-384.990	147.669	0.332	0.448
-383.975	502.045	-0.098	-0.228
-382.960	302.492	-0.245	-0.454
-381.946	42.991	0.196	-0.179
-380.931	-200.000	0.017	0.112
-379.917	47.790	-0.153	0.143
-378.902	217.945	0.119	-0.190
-377.888	-114.939	-0.256	0.049
-376.873	-113.588	0.395	-0.077
-375.858	-69.158	-0.278	-0.107
-374.844	-35.786	-0.099	-0.054
-373.829	270.010	-0.075	0.132
-372.815	472.895	0.048	0.108
-371.800	15.005	0.061	0.048
-370.785	-200.000	0.228	-0.001
-369.771	-200.000	0.042	-0.269
-368.756	-199.332	0.254	0.001
-367.742	364.745	0.149	-0.300
-366.727	-2.199	-0.197	-0.139
-365.712	-137.588	0.078	-0.009
-364.698	56.194	0.110	-0.107
-363.683	300.426	0.120	0.223
-362.669	371.247	0.137	0.278
-361.654	-98.293	0.046	-0.012
-360.639	-155.929	-0.151	-0.010
-359.625	-81.369	-0.198	0.065
-358.610	-146.417	0.176	-0.015
-357.596	78.272	-0.152	0.162
-356.581	-200.000	0.030	-0.156
-355.566	800.000	-0.022	0.094
-354.552	-200.000	0.060	0.319
-353.537	-200.000	0.037	0.177
-352.523	12.452	0.131	-0.102
-351.508	-200.000	0.023	-0.249
-350.493	-66.275	0.159	-0.063
-349.479	37.404	0.151	0.135
-348.464	156.821	0.132	0.182
-347.450	142.398	0.260	-0.346
-346.435	-200.000	-0.022	-0.173
-345.420	346.234	0.062	0.122
-344.406	-30.402	-0.145	-0.082
-343.391	-162.950	0.253	-0.012
-342.377	727.100	-0.142	-0.379
-341.362	60.112	0.172	-0.171
-340.348	602.827	0.117	-0.290
-339.333	-57.939	0.237	0.104
-338.318	-65.264	0.096	-0.039
-337.304	-66.610	0.239	0.095
-336.289	-74.085	-0.162	0.059
-335.275	76.649	0.016	0.017
-334.260	-62.396	-0.188	-0.078
-333.245	-83.590	0.168	-0.054
-332.231	-200.000	-0.016	-0.112
-331.216	71.301	0.198	0.206
-330.202	262.112	0.158	-0.274
-329.187	-46.956	0.120	-0.059
-328.172	800.000	0.052	-0.208
-327.158	692.558	0.133	0.348
-326.143	-200.000	0.032	-0.235
-325.129	430.718	0.038	0.082
-324.114	-88.536	-0.417	0.124
-323.099	800.000	-0.101	0.440
-322.085	53.654	0.266	-0.256
-321.070	-200.000	-0.000	0.039
-320.056	-0.402	0.185	-0.132
-319.041	556.727	0.065	0.156
-318.026	-69.035	-0.165	-0.064
-317.012	96.433	-0.089	0.102
-315.997	-98.056	-0.177	0.046
-314.983	-111.363	-0.169	-0.035
-313.968	46.013	0.137	0.127
-312.953	277.545	-0.081	-0.145
-311.939	39.822	-0.271	-0.243
-310.924	64.737	-0.041	0.041
-309.910	800.000	0.023	0.099
-308.895	-200.000	0.012	-0.386
-307.880	109.186	-0.183	0.219
-306.866	24.389	0.161	-0.133
-305.851	-105.976	0.326	-0.073
-304.837	4.092	0.120	-0.088
-303.822	12.451	0.236	0.182
-302.807	-136.858	0.410	0.047
-301.793	235.511	-0.084	0.138
-300.778	87.727	-0.159	0.176
-299.764	191.478	-0.070	-0.105
-298.749	662.404	-0.058	0.150
-297.735	800.000	-0.041	0.168
-296.720	-200.000	0.011	0.329
-295.705	10.534	0.445	0.339
-294.691	204.615	0.049	0.076
-293.676	110.206	-0.095	0.114
-292.662	-200.000	0.011	-0.080
-291.647	-99.447	-0.239	0.060
-290.632	-200.000	0.024	-0.215
-289.618	-143.690	0.100	-0.009
-288.603	155.497	-0.131	0.181
-287.589	-89.769	-0.273	0.080
-286.574	-18.728	-0.185	-0.115
-285.559	-200.000	-0.041	-0.178
-284.545	487.744	-0.090	-0.205
-283.530	-47.017	0.194	-0.095
-282.516	29.530	0.077	-0.065
-281.501	-55.630	-0.342	-0.153
-280.486	31.237	0.056	0.048
-279.472	-84.503	0.159	-0.050
-278.457	-39.690	-0.164	-0.086
-277.443	91.906	0.332	-0.373
-276.428	-30.299	0.148	-0.084
-275.413	205.734	-0.249	-0.387
-274.399	264.323	0.130	0.226
-273.384	-95.440	-0.054	-0.014
-272.370	59.790	0.139	0.137
-271.355	279.698	0.115	-0.206
-270.340	459.403	-0.048	-0.106
-269.326	474.316	0.092	-0.207
-268.311	160.830	-0.094	-0.131
-267.297	-200.000	0.001	-0.052
-266.282	-6.251	-0.188	0.128
-265.267	-62.276	-0.335	0.139
-264.253	17.441	-0.090	-0.072
-263.238	-200.000	-0.029	-0.338
-262.224	80.127	-0.067	-0.071
-261.209	308.211	-0.148	-0.277
-260.195	-161.867	0.187	-0.009
-259.180	-25.117	-0.210	0.124
-258.165	557.959	0.011	0.026
-257.151	40.299	0.266	-0.239
-256.136	-200.000	-0.001	-0.029
-255.122	354.105	-0.128	0.254
-254.107	-200.000	-0.053	0.342
-253.092	32.348	0.119	0.102
-252.078	87.271	-0.116	0.129
-251.063	-37.129	0.098	-0.052
-250.049	491.266	0.028	0.065
-249.034	-39.311	0.404	0.211
-248.019	137.686	-0.103	-0.134
-247.005	-156.528	0.220	-0.014
-245.990	-129.222	-0.210	-0.029
-244.976	54.473	-0.194	0.186
-243.961	753.846	-0.111	0.299
-242.946	-140.050	0.391	0.041
-241.932	800.000	0.062	-0.176
-240.917	800.000	0.164	0.464
-239.903	9.939	0.206	-0.156
-238.888	141.819	-0.091	0.120
-237.873	170.790	0.081	0.116
-236.859	-200.000	-0.009	-0.198
-235.844	221.598	0.245	0.392
-234.830	205.934	-0.107	0.165
-233.815	800.000	-0.056	-0.197
-232.800	720.487	0.033	-0.087
-231.786	-11.781	-0.130	-0.085
-230.771	-131.569	0.246	0.032
-229.757	459.686	-0.074	-0.164
-228.742	331.378	0.083	0.159
-227.727	111.281	0.083	0.100
-226.713	-29.401	-0.071	-0.040
-225.698	315.623	-0.073	-0.137
-224.684	800.000	0.055	0.176
-223.669	-87.099	0.292	0.089
-222.655	-200.000	-0.007	-0.296
-221.640	-129.962	-0.151	-0.021
-220.625	-111.221	0.081	0.017
-219.611	408.382	0.105	-0.221
-218.596	-200.000	-0.056	0.379
-217.582	55.520	0.184	-0.178
-216.567	800.000	-0.039	-0.162
-215.552	800.000	0.041	-0.172
-214.538	-200.000	-0.056	0.260
-213.523	-200.000	-0.053	-0.436
-212.509	240.811	-0.090	0.149
-211.494	125.186	-0.132	0.165
-210.479	101.157	0.216	0.250
-209.465	-200.000	0.032	-0.293
-208.450	-0.800	-0.160	0.113
-207.436	-89.463	0.260	-0.076
-206.421	-109.515	0.199	0.042
-205.406	-200.000	-0.009	-0.166
-204.392	-144.618	0.095	0.009
-203.377	4.110	-0.237	0.172
-202.363	-200.000	0.025	-0.279
-201.348	90.721	-0.042	-0.047
-200.333	-200.000	0.035	0.231
-199.319	800.000	-0.070	0.200
-198.304	-200.000	-0.023	-0.188
-197.290	107.082	0.023	0.028
-196.275	-51.502	0.039	0.018
-195.260	-200.000	0.031	-0.162
-194.246	-73.886	-0.228	0.082
-193.231	8.293	-0.315	0.236
-192.217	28.689	-0.044	0.037
-191.202	-91.626	-0.237	-0.067
-190.187	-39.324	0.176	0.092
-189.173	341.842	-0.089	0.174
-188.158	-119.396	-0.238	-0.041
-187.144	-91.635	-0.111	0.031
-186.129	-169.845	-0.269	-0.010
-185.114	-200.000	0.037	-0.269
-184.100	-36.675	0.155	-0.083
-183.085	-200.000	0.037	0.201
-182.071	-10.324	0.396	0.261
-181.056	-200.000	0.013	-0.063
-180.042	-200.000	-0.016	0.264
-179.027	24.224	-0.234	0.192
-178.012	-10.135	0.367	-0.243
-176.998	-200.000	0.043	0.224
-175.983	2.997	0.188	-0.136
-174.969	25.867	-0.308	-0.255
-173.954	-48.463	0.206	0.099
-172.939	-120.303	-0.012	0.002
-171.925	323.291	-0.195	0.369
-170.910	720.929	-0.072	0.191
-169.896	-133.366	0.163	-0.020
-168.881	-41.379	0.260	-0.133
-167.866	-200.000	0.017	0.093
-166.852	-81.323	0.110	0.036
-165.837	-200.000	-0.073	-0.423
-164.823	85.843	0.212	-0.232
-163.808	-20.548	-0.135	0.083
-162.793	-200.000	0.012	0.200
-161.779	-11.628	-0.141	0.092
-160.764	549.449	0.164	0.390
-159.750	-77.072	-0.203	0.071
-158.735	-59.736	0.138	0.059
-157.720	-10.589	0.059	0.039
-156.706	-118.322	0.129	-0.023
-155.691	10.964	-0.129	0.098
-154.677	-13.014	0.171	0.111
-153.662	105.668	-0.027	-0.031
-152.647	-200.000	-0.019	-0.105
-151.633	-5.516	-0.086	-0.059
-150.618	-132.002	0.342	-0.044
-149.604	-108.730	-0.222	-0.047
-148.589	-104.229	0.098	0.023
-147.574	-128.669	0.252	-0.035
-146.560	-96.019	-0.353	-0.093
-145.545	-81.959	0.622	0.202
-144.531	410.406	-0.117	0.247
-143.516	-200.000	-0.006	0.274
-142.502	800.000	0.070	0.223
-141.487	-200.000	-0.026	0.169
-140.472	-166.977	-0.167	-0.007
-139.458	-60.373	0.160	-0.068
-138.443	-98.022	-0.187	-0.048
-137.429	-200.000	0.038	0.280
-136.414	684.469	0.028	0.072
-135.399	-163.599	0.271	-0.013
-134.385	-134.398	-0.261	-0.032
-133.370	800.000	-0.062	-0.226
-132.356	-87.729	0.328	0.098
-131.341	246.667	0.134	0.225
-130.326	100.866	0.165	-0.191
-129.312	660.904	-0.083	-0.213
-128.297	-74.499	0.227	0.081
-127.283	-95.657	-0.240	-0.064
-126.268	-133.223	0.359	-0.045
-125.253	387.573	-0.072	-0.148
-124.239	1.587	-0.194	-0.139
-123.224	-113.173	0.105	0.020
-122.210	-27.047	-0.230	0.133
-121.195	800.000	-0.107	-0.342
