DTS Sentinel unit serial number:	SN413079Multiplexer serial number:	ORYXHardware model number:	OX4-SRSoftware version number:	ORYX F/W v4.00 Oryx Data Collector v3.7.2.0data status	okinstallation	princeton_trtdifferential loss correction	single-endedforward channel	channel 4reverse channel	N/Adate	2019/09/15time	18:05:35forward acquisition time	60.00reverse acquisition time	0.00gamma	496.2192k internal	0.2275k external	0.2275temperature offset calibration	0.9919default loss term (dB/km)	0.3790temperature slope calibration	1.0000multiplexer offset coefficient	1.0000multiplexer slope coefficient	1.0000fibre end	0.00T internal ref (°C)	44.69T ext. ref 1 (°C)	6.50T ext. ref 2 (°C)	39.05length (m)	temperature (°C)	Stokes	anti-Stokes-747.200	-134.739	-0.351	-0.044
-746.185	-200.000	0.028	0.170
-745.171	3.692	0.224	0.168
-744.156	-200.000	-0.009	0.389
-743.142	421.638	0.035	-0.078
-742.127	-56.502	-0.184	0.084
-741.112	609.201	-0.044	0.114
-740.098	-200.000	0.033	0.452
-739.083	800.000	0.143	0.464
-738.069	288.130	0.135	-0.252
-737.054	73.804	-0.099	0.107
-736.039	-88.404	0.116	-0.036
-735.025	-76.651	0.242	0.088
-734.010	132.331	0.139	-0.185
-732.996	-200.000	0.052	-0.247
-731.981	385.416	0.069	-0.148
-730.966	410.036	0.030	0.065
-729.952	-200.000	0.026	0.252
-728.937	-45.321	0.162	0.083
-727.923	-133.140	-0.255	-0.033
-726.908	-55.738	0.114	-0.053
-725.894	-88.429	-0.209	0.064
-724.879	51.288	-0.131	-0.128
-723.864	-27.938	0.262	-0.157
-722.850	63.096	-0.082	-0.085
-721.835	79.434	0.133	-0.147
-720.821	478.819	-0.207	-0.484
-719.806	-200.000	0.069	-0.366
-718.791	655.799	0.074	-0.196
-717.777	800.000	-0.014	-0.058
-716.762	68.627	0.138	0.146
-715.748	-138.158	-0.504	0.058
-714.733	-148.255	0.225	0.019
-713.718	10.936	-0.032	0.025
-712.704	-88.066	0.228	0.070
-711.689	112.270	-0.090	-0.112
-710.675	-168.170	-0.186	0.007
-709.660	-200.000	-0.028	-0.225
-708.645	68.834	0.309	0.327
-707.631	800.000	0.077	0.220
-706.616	256.918	0.142	0.252
-705.602	-200.000	-0.027	0.122
-704.587	675.279	-0.069	-0.186
-703.572	-200.000	0.037	-0.176
-702.558	302.840	0.165	-0.315
-701.543	145.318	-0.132	-0.182
-700.529	-16.585	0.155	0.101
-699.514	-200.000	0.059	-0.270
-698.499	800.000	-0.061	-0.249
-697.485	-73.606	0.176	0.066
-696.470	-86.543	0.055	0.017
-695.456	-200.000	-0.020	-0.122
-694.441	-106.634	-0.327	-0.075
-693.426	-65.042	-0.062	0.026
-692.412	383.128	0.179	0.379
-691.397	-200.000	0.002	-0.106
-690.383	-200.000	0.017	-0.112
-689.368	356.949	0.098	-0.201
-688.354	800.000	0.052	-0.200
-687.339	-100.947	-0.142	-0.036
-686.324	-130.664	0.115	-0.016
-685.310	-41.348	-0.384	0.204
-684.295	800.000	-0.071	0.281
-683.281	-57.314	0.007	0.003
-682.266	-130.618	0.116	0.016
-681.251	-129.706	0.244	-0.035
-680.237	178.923	0.237	0.357
-679.222	800.000	-0.036	-0.107
-678.208	-107.925	-0.304	0.068
-677.193	-200.000	-0.029	0.173
-676.178	-154.994	0.210	-0.014
-675.164	-200.000	-0.003	-0.506
-674.149	-105.669	0.358	0.083
-673.135	-200.000	0.032	0.604
-672.120	95.052	0.220	0.258
-671.105	363.396	-0.089	-0.184
-670.091	800.000	0.062	0.189
-669.076	97.165	0.116	-0.136
-668.062	-17.062	-0.138	0.089
-667.047	-200.000	0.029	-0.236
-666.032	-26.424	0.259	0.156
-665.018	-130.297	-0.091	0.013
-664.003	-94.321	0.149	-0.042
-662.989	35.083	0.275	-0.248
-661.974	45.453	0.152	-0.144
-660.959	236.483	0.159	0.270
-659.945	-108.559	-0.187	-0.041
-658.930	-10.453	0.126	0.086
-657.916	-147.902	-0.344	-0.029
-656.901	-200.000	-0.043	0.305
-655.886	800.000	-0.119	0.342
-654.872	-134.927	-0.212	0.026
-653.857	-84.794	0.119	0.038
-652.843	-200.000	-0.002	0.075
-651.828	117.684	-0.123	-0.156
-650.814	189.653	0.174	0.268
-649.799	129.876	0.128	0.168
-648.784	97.835	-0.100	0.118
-647.770	-200.000	-0.058	0.351
-646.755	-200.000	-0.019	-0.091
-645.741	42.396	-0.126	-0.118
-644.726	-65.017	0.067	0.028
-643.711	-186.386	0.028	-0.000
-642.697	-63.407	-0.079	-0.033
-641.682	-64.460	0.247	0.103
-640.668	-89.272	-0.450	-0.136
-639.653	144.355	0.141	0.193
-638.638	576.952	0.084	0.210
-637.624	-129.259	0.154	-0.022
-636.609	328.495	-0.238	-0.470
-635.595	-22.870	-0.132	0.082
-634.580	800.000	0.029	-0.123
-633.565	677.361	0.077	0.206
-632.551	-2.326	-0.163	0.118
-631.536	-25.061	0.204	0.124
-630.522	302.458	0.092	-0.174
-629.507	104.405	-0.231	-0.279
-628.492	21.031	0.171	-0.142
-627.478	-200.000	-0.052	-0.299
-626.463	132.095	-0.166	0.220
-625.449	-200.000	-0.008	0.093
-624.434	301.470	0.148	0.280
-623.419	412.917	0.014	0.030
-622.405	800.000	-0.019	0.060
-621.390	659.766	-0.155	0.409
-620.376	123.446	0.218	-0.280
-619.361	270.642	-0.084	0.151
-618.346	-182.620	-0.209	0.004
-617.332	-66.600	-0.129	0.052
-616.317	-11.540	0.558	0.377
-615.303	234.822	0.081	0.137
-614.288	800.000	0.099	0.331
-613.273	-110.878	0.110	0.023
-612.259	777.928	0.130	-0.365
-611.244	-151.705	-0.146	0.011
-610.230	-79.075	-0.364	0.127
-609.215	-172.852	-0.069	-0.002
-608.201	344.612	0.057	-0.115
-607.186	64.496	0.145	0.150
-606.171	-37.010	0.137	0.075
-605.157	-103.097	0.205	0.050
-604.142	-76.213	0.255	-0.092
-603.128	279.372	0.155	-0.284
-602.113	-50.801	-0.421	0.203
-601.098	-200.000	0.012	-0.172
-600.084	-43.756	-0.216	-0.111
-599.069	-34.658	-0.232	-0.130
-598.055	-200.000	0.000	-0.266
-597.040	227.066	0.112	0.186
-596.025	-65.537	-0.361	0.148
-595.011	581.428	0.058	0.145
-593.996	-200.000	0.053	-0.516
-592.982	647.625	-0.099	-0.259
-591.967	-29.709	0.126	0.074
-590.952	20.272	-0.175	0.145
-589.938	56.253	0.240	-0.239
-588.923	72.412	0.209	-0.223
-587.909	126.816	0.089	-0.116
-586.894	-77.673	0.075	0.027
-585.879	800.000	-0.039	0.111
-584.865	263.619	0.075	-0.134
-583.850	-149.731	0.380	0.031
-582.836	-131.400	-0.079	-0.011
-581.821	122.291	0.067	-0.086
-580.806	111.861	-0.012	-0.015
-579.792	79.398	-0.133	-0.146
-578.777	-200.000	-0.009	-0.047
-577.763	173.981	0.083	-0.124
-576.748	-0.212	0.128	-0.093
-575.733	436.581	0.085	0.190
-574.719	518.140	0.104	-0.249
-573.704	800.000	-0.085	0.299
-572.690	-200.000	0.001	0.375
-571.675	-51.283	-0.241	-0.116
-570.661	124.370	0.141	-0.182
-569.646	23.191	-0.138	0.116
-568.631	52.054	-0.096	0.094
-567.617	757.173	-0.105	-0.292
-566.602	-95.105	0.183	0.051
-565.588	-165.085	-0.340	0.015
-564.573	44.467	0.096	-0.090
-563.558	267.191	0.138	0.247
-562.544	800.000	0.043	0.177
-561.529	333.368	-0.111	0.221
-560.515	-200.000	0.015	-0.223
-559.500	8.477	-0.061	-0.047
-558.485	-86.265	-0.130	0.041
-557.471	64.917	0.172	0.178
-556.456	-107.418	-0.060	0.014
-555.442	419.866	0.080	0.176
-554.427	-200.000	0.003	-0.150
-553.412	-175.494	-0.184	-0.005
-552.398	-44.246	-0.295	-0.151
-551.383	64.586	0.126	-0.130
-550.369	73.901	-0.150	0.161
-549.354	-9.172	-0.337	0.231
-548.339	800.000	-0.042	0.180
-547.325	89.985	0.107	0.122
-546.310	-200.000	0.027	0.207
-545.296	84.093	-0.034	-0.038
-544.281	165.358	0.235	0.340
-543.266	-71.786	0.261	-0.100
-542.252	528.182	-0.085	-0.205
-541.237	228.580	-0.037	-0.062
-540.223	-91.128	-0.208	0.061
-539.208	-86.627	-0.381	-0.119
-538.193	-43.181	-0.317	-0.164
-537.179	-60.745	0.105	-0.045
-536.164	-200.000	-0.002	0.014
-535.150	-92.919	-0.315	0.090
-534.135	-200.000	-0.052	0.271
-533.121	-13.398	-0.065	0.043
-532.106	-200.000	0.003	0.136
-531.091	44.469	-0.180	0.169
-530.077	90.845	0.075	-0.085
-529.062	-200.000	0.028	0.166
-528.048	-176.692	0.296	0.008
-527.033	-93.053	-0.340	0.097
-526.018	69.284	-0.017	-0.018
-525.004	11.903	-0.081	0.064
-523.989	-163.072	-0.505	0.025
-522.975	800.000	-0.046	0.136
-521.960	-107.990	0.476	-0.106
-520.945	112.999	0.035	0.044
-519.931	-111.381	0.035	-0.007
-518.916	-200.000	-0.005	-0.046
-517.902	83.174	-0.083	-0.092
-516.887	800.000	-0.068	0.252
-515.872	-6.943	0.162	0.113
-514.858	224.078	0.119	0.196
-513.843	-65.137	-0.059	0.024
-512.829	58.952	-0.283	-0.284
-511.814	70.431	0.115	-0.121
-510.799	1.842	0.435	0.321
-509.785	15.138	-0.015	0.012
-508.770	142.698	0.207	0.281
-507.756	800.000	-0.047	0.158
-506.741	-125.283	-0.145	-0.023
-505.726	-200.000	0.031	-0.218
-504.712	-200.000	0.019	-0.156
-503.697	669.332	-0.107	0.284
-502.683	29.270	-0.055	0.048
-501.668	24.066	0.290	-0.245
-500.653	25.110	0.200	-0.169
-499.639	-55.676	0.089	0.041
-498.624	800.000	0.012	0.041
-497.610	-98.338	0.533	0.139
-496.595	88.946	-0.093	-0.106
-495.581	-90.922	0.295	-0.087
-494.566	163.728	-0.069	0.099
-493.551	32.423	-0.399	-0.352
-492.537	-200.000	0.027	-0.335
-491.522	800.000	-0.043	0.147
-490.508	-200.000	0.059	-0.306
-489.493	-158.603	0.123	-0.007
-488.478	205.555	-0.065	0.104
-487.464	-104.987	0.107	0.025
-486.449	800.000	-0.089	0.252
-485.435	-200.000	-0.012	0.115
-484.420	800.000	-0.044	0.155
-483.405	161.511	0.153	0.218
-482.391	-63.210	-0.195	0.082
-481.376	-25.425	0.228	-0.138
-480.362	800.000	0.063	-0.191
-479.347	383.958	0.150	0.315
-478.332	-200.000	-0.034	0.155
-477.318	159.027	-0.014	0.020
-476.303	419.003	0.015	-0.034
-475.289	62.450	-0.018	0.018
-474.274	-200.000	-0.044	-0.205
-473.259	-7.530	-0.357	-0.246
-472.245	800.000	0.023	0.080
-471.230	-200.000	-0.015	0.173
-470.216	800.000	-0.072	0.250
-469.201	-161.908	-0.028	-0.001
-468.186	-66.773	0.187	0.076
-467.172	-42.672	0.261	-0.135
-466.157	-136.700	0.196	0.023
-465.143	-18.514	-0.120	-0.076
-464.128	800.000	0.153	-0.473
-463.113	-168.588	0.150	0.006
-462.099	-135.253	-0.354	-0.043
-461.084	112.377	-0.116	0.143
-460.070	-19.423	0.425	0.268
-459.055	-125.283	-0.144	-0.022
-458.040	174.965	-0.210	-0.311
-457.026	-200.000	-0.048	-0.243
-456.011	-24.927	0.172	0.104
-454.997	-65.149	0.174	-0.072
-453.982	-136.626	0.275	-0.032
-452.968	-36.305	-0.111	0.061
-451.953	385.037	0.129	-0.272
-450.938	-154.168	0.050	0.003
-449.924	-135.269	0.277	-0.034
-448.909	18.211	-0.161	-0.131
-447.895	-200.000	0.002	0.121
-446.880	-200.000	-0.087	0.497
-445.865	800.000	-0.067	0.281
-444.851	88.510	-0.103	0.117
-443.836	-153.734	-0.183	-0.013
-442.822	105.728	-0.206	0.248
-441.807	19.523	-0.388	0.318
-440.792	609.980	-0.108	0.274
-439.778	-200.000	-0.050	-0.323
-438.763	143.988	-0.240	-0.326
-437.749	-200.000	0.011	0.333
-436.734	-146.067	-0.440	-0.040
-435.719	-137.451	0.023	-0.003
-434.705	162.729	-0.171	-0.244
-433.690	-190.249	-0.218	-0.002
-432.676	-4.473	-0.025	-0.017
-431.661	-200.000	0.001	-0.290
-430.646	-50.894	-0.224	-0.107
-429.632	218.530	-0.170	-0.277
-428.617	800.000	0.076	-0.269
-427.603	-135.693	-0.272	-0.033
-426.588	-38.566	-0.265	-0.143
-425.573	87.741	0.264	0.298
-424.559	-58.965	-0.339	-0.149
-423.544	45.691	0.211	-0.199
-422.530	-10.920	-0.229	-0.154
-421.515	-78.207	0.184	0.064
-420.500	428.875	-0.159	-0.349
-419.486	-188.560	0.298	0.004
-418.471	-31.372	-0.106	-0.061
-417.457	145.094	0.086	0.118
-416.442	-23.532	0.060	-0.037
-415.428	496.805	-0.115	-0.270
-414.413	224.303	0.056	-0.092
-413.398	202.619	-0.134	-0.211
-412.384	97.591	-0.044	-0.051
-411.369	79.999	-0.111	-0.122
-410.355	152.207	0.057	0.079
-409.340	-200.000	0.025	0.258
-408.325	-47.722	0.147	0.073
-407.311	800.000	-0.038	-0.117
-406.296	116.603	0.305	-0.380
-405.282	-163.986	0.093	-0.004
-404.267	43.882	-0.148	0.138
-403.252	-110.931	-0.223	-0.047
-402.238	-41.462	-0.130	0.068
-401.223	-200.000	-0.008	0.154
-400.209	571.177	-0.032	-0.079
-399.194	-200.000	0.042	0.190
-398.179	-70.614	0.218	-0.084
-397.165	21.415	0.086	-0.071
-396.150	-10.009	-0.141	-0.095
-395.136	-1.794	-0.302	0.216
-394.121	-200.000	-0.001	-0.266
-393.106	-106.677	0.150	-0.034
-392.092	-90.428	-0.184	-0.054
-391.077	-116.965	-0.084	-0.016
-390.063	-200.000	-0.058	-0.273
-389.048	-200.000	-0.047	-0.416
-388.033	-200.000	-0.058	-0.293
-387.019	-86.177	-0.287	0.090
-386.004	264.919	0.029	0.051
-384.990	-200.000	-0.004	0.066
-383.975	-66.794	0.124	-0.050
-382.960	155.900	0.168	-0.235
-381.946	-119.695	0.513	-0.090
-380.931	-200.000	-0.009	-0.125
-379.917	257.684	-0.061	-0.108
-378.902	-2.582	0.232	-0.165
-377.888	-200.000	0.007	-0.116
-376.873	-176.981	0.125	-0.003
-375.858	-171.173	-0.137	-0.005
-374.844	60.678	0.144	0.145
-373.829	800.000	-0.061	0.247
-372.815	-164.321	-0.396	-0.018
-371.800	-96.973	0.079	-0.021
-370.785	166.698	-0.060	-0.086
-369.771	-102.828	-0.235	0.057
-368.756	-73.115	-0.104	-0.039
-367.742	-105.261	-0.124	0.029
-366.727	60.426	0.156	-0.157
-365.712	-200.000	-0.017	-0.152
-364.698	-200.000	0.018	-0.089
-363.683	-43.989	0.211	-0.108
-362.669	-25.363	0.172	0.104
-361.654	50.148	0.171	0.164
-360.639	-180.225	-0.198	0.004
-359.625	-200.000	0.013	-0.165
-358.610	43.696	0.351	-0.327
-357.596	-22.536	0.233	-0.143
-356.581	800.000	0.043	0.120
-355.566	-200.000	0.000	0.095
-354.552	-27.707	0.035	0.020
-353.537	800.000	0.052	0.163
-352.523	-27.745	0.440	-0.259
-351.508	800.000	0.045	-0.196
-350.493	73.905	-0.202	0.215
-349.479	-200.000	-0.004	0.310
-348.464	2.465	0.060	0.044
-347.450	800.000	-0.085	-0.280
-346.435	52.812	-0.144	0.140
-345.420	800.000	0.066	0.234
-344.406	-77.118	-0.057	-0.020
-343.391	647.498	0.083	-0.214
-342.377	-62.440	-0.319	-0.134
-341.362	264.968	-0.101	-0.179
-340.348	-200.000	-0.000	0.230
-339.333	588.475	-0.020	-0.049
-338.318	28.320	0.312	-0.268
-337.304	-78.327	-0.236	0.082
-336.289	-96.886	-0.181	0.048
-335.275	-142.727	0.244	-0.024
-334.260	295.034	-0.127	0.235
-333.245	205.403	-0.135	0.213
-332.231	-62.912	-0.198	0.083
-331.216	-132.065	-0.182	-0.024
-330.202	240.211	0.185	0.313
-329.187	-20.467	0.228	-0.142
-328.172	81.107	-0.099	-0.108
-327.158	-59.104	-0.253	0.111
-326.143	-23.695	0.123	-0.075
-325.129	-21.521	-0.076	0.047
-324.114	-58.550	0.102	-0.045
-323.099	-200.000	-0.015	0.069
-322.085	12.937	0.114	0.089
-321.070	800.000	-0.038	-0.109
-320.056	-89.301	-0.235	-0.070
-319.041	-113.523	0.200	-0.040
-318.026	-200.000	-0.040	0.186
-317.012	-93.546	-0.357	-0.100
-315.997	-54.434	-0.207	-0.095
-314.983	-86.515	-0.113	-0.035
-313.968	-200.000	-0.009	-0.291
-312.953	20.371	0.169	-0.138
-311.939	-7.560	0.344	-0.236
-310.924	-200.000	0.044	-0.196
-309.910	-113.499	0.160	0.032
-308.895	-83.770	-0.036	0.012
-307.880	800.000	-0.051	0.167
-306.866	-103.414	0.151	-0.036
-305.851	-200.000	0.032	0.314
-304.837	-200.000	-0.037	0.376
-303.822	-79.235	-0.165	-0.057
-302.807	89.525	-0.106	0.120
-301.793	470.283	-0.135	0.307
-300.778	-115.143	0.332	-0.064
-299.764	-84.260	-0.139	0.045
-298.749	2.688	-0.142	0.104
-297.735	189.444	-0.141	0.215
-296.720	-83.652	-0.152	-0.049
-295.705	367.911	-0.139	0.286
-294.691	86.300	0.126	0.141
-293.676	-84.105	0.241	0.078
-292.662	-15.774	0.224	-0.145
-291.647	22.612	-0.057	0.047
-290.632	-92.996	0.172	-0.049
-289.618	-89.443	0.412	-0.123
-288.603	-200.000	0.031	-0.245
-287.589	231.869	0.045	-0.074
-286.574	254.619	-0.041	-0.070
-285.559	-60.732	0.230	0.099
-284.545	-200.000	0.013	-0.154
-283.530	-200.000	-0.018	-0.172
-282.516	-51.865	0.144	0.068
-281.501	-200.000	0.045	0.300
-280.486	276.148	-0.119	0.213
-279.472	-20.874	-0.216	-0.134
-278.457	500.802	-0.080	-0.186
-277.443	53.828	-0.204	0.198
-276.428	800.000	0.049	-0.187
-275.413	-58.329	0.259	0.114
-274.399	-200.000	-0.071	0.379
-273.384	-23.328	0.116	-0.070
-272.370	44.666	-0.125	-0.116
-271.355	800.000	-0.074	-0.263
-270.340	87.221	-0.068	-0.076
-269.326	-200.000	0.014	0.082
-268.311	-145.037	-0.226	-0.021
-267.297	-155.565	-0.053	0.003
-266.282	-200.000	-0.011	0.097
-265.267	58.432	0.166	0.165
-264.253	800.000	-0.045	-0.146
-263.238	-126.685	-0.120	0.018
-262.224	-74.289	0.184	0.067
-261.209	235.096	0.357	0.596
-260.195	800.000	-0.063	0.186
-259.180	-200.000	0.000	-0.067
-258.165	-92.884	0.368	-0.104
-257.151	800.000	-0.083	0.245
-256.136	-95.144	-0.314	0.086
-255.122	-27.509	-0.086	-0.051
-254.107	-147.176	-0.395	-0.034
-253.092	-78.477	-0.232	-0.080
-252.078	-200.000	0.073	0.511
-251.063	18.206	-0.072	-0.058
-250.049	54.057	0.149	-0.145
-249.034	34.009	0.127	-0.112
-248.019	222.124	-0.107	0.174
-247.005	123.105	0.342	-0.433
-245.990	61.943	-0.165	-0.166
-244.976	-180.953	-0.142	0.003
-243.961	-59.049	-0.218	0.095
-242.946	11.283	-0.110	-0.085
-241.932	41.905	-0.195	0.179
-240.917	589.356	-0.080	0.199
-239.903	112.099	0.057	0.069
-238.888	-200.000	0.030	0.351
-237.873	-200.000	0.017	0.213
-236.859	-39.532	0.180	-0.095
-235.844	-101.940	0.241	-0.059
-234.830	800.000	0.135	-0.404
-233.815	77.572	0.089	-0.096
-232.800	-200.000	0.009	-0.060
-231.786	-114.623	-0.204	0.039
-230.771	800.000	-0.088	-0.308
-229.757	-87.697	0.386	-0.118
-228.742	761.880	0.128	-0.350
-227.727	-29.263	-0.259	-0.150
-226.713	109.087	-0.025	0.030
-225.698	-200.000	-0.027	0.151
-224.684	-200.000	0.069	0.440
-223.669	-200.000	0.045	0.395
-222.655	183.643	0.163	0.244
-221.640	-200.000	0.021	0.230
-220.625	-74.479	-0.314	0.114
-219.611	-47.802	0.210	-0.103
-218.596	405.664	-0.042	0.089
-217.582	13.673	0.122	0.096
-216.567	-34.767	0.305	0.168
-215.552	-200.000	0.009	0.273
-214.538	48.564	0.146	-0.139
-213.523	315.084	-0.154	-0.294
-212.509	800.000	-0.045	-0.127
-211.494	800.000	-0.144	-0.450
-210.479	800.000	0.056	-0.181
-209.465	49.680	0.134	0.128
-208.450	-200.000	-0.005	-0.178
-207.436	-183.789	-0.278	0.005
-206.421	-45.873	-0.344	-0.171
-205.406	-57.974	0.289	0.128
-204.392	354.713	0.122	-0.244
-203.377	123.045	0.085	0.107
-202.363	-173.138	-0.055	0.002
-201.348	-31.303	0.132	0.075
-200.333	-200.000	0.050	-0.269
-199.319	800.000	0.032	-0.135
-198.304	-15.757	0.345	0.222
-197.290	-22.249	-0.096	-0.059
-196.275	-10.854	-0.255	0.170
-195.260	185.066	0.158	0.236
-194.246	44.666	0.216	-0.200
-193.231	437.234	0.076	-0.168
-192.217	-173.209	0.233	-0.007
-191.202	800.000	-0.017	-0.073
-190.187	-114.704	-0.364	-0.070
-189.173	-3.613	-0.025	0.018
-188.158	-59.572	0.106	0.046
-187.144	-200.000	-0.004	0.068
-186.129	-34.668	-0.114	0.063
-185.114	178.652	0.092	0.135
-184.100	154.928	-0.245	0.339
-183.085	-43.903	0.202	-0.102
-182.071	-127.707	0.184	-0.027
-181.056	-172.216	-0.338	-0.011
-180.042	60.665	-0.140	-0.140
-179.027	-74.848	0.208	0.075
-178.012	-140.022	0.272	0.029
-176.998	-18.691	-0.103	0.065
-175.983	19.889	0.090	-0.073
-174.969	-200.000	0.030	0.223
-173.954	-200.000	0.001	-0.318
-172.939	186.103	0.133	0.199
-171.925	-200.000	0.070	-0.311
-170.910	-101.114	0.212	0.052
-169.896	-29.493	-0.153	0.088
-168.881	-17.946	-0.207	-0.131
-167.866	4.837	-0.058	0.043
-166.852	-146.939	0.200	-0.017
-165.837	11.043	0.208	-0.160
-164.823	5.123	-0.238	-0.177
-163.808	-65.496	0.233	0.094
-162.793	-200.000	0.015	0.093
-161.779	-2.916	-0.206	-0.145
-160.764	-132.325	0.297	-0.039
-159.750	-200.000	0.025	0.186
-158.735	-28.978	0.262	0.151
-157.720	-77.399	0.122	-0.043
-156.706	-167.721	-0.186	0.007
-155.691	704.076	0.045	-0.120
-154.677	800.000	-0.043	-0.133
-153.662	450.532	-0.191	0.424
-152.647	-110.003	0.233	0.049
-151.633	63.657	0.228	-0.231
-150.618	-200.000	-0.021	0.188
-149.604	36.537	-0.129	-0.115
-148.589	507.184	-0.026	-0.061
-147.574	325.088	-0.185	-0.356
-146.560	309.370	0.103	0.194
-145.545	72.634	-0.109	-0.115
-144.531	45.483	-0.159	-0.148
-143.516	800.000	0.020	-0.072
-142.502	36.730	-0.084	0.075
-141.487	146.777	0.106	0.144
-140.472	358.428	0.226	0.455
-139.458	114.435	0.035	0.043
-138.443	-94.314	0.111	0.031
-137.429	-200.000	-0.026	-0.182
-136.414	696.178	-0.110	0.291
-135.399	-200.000	0.012	-0.089
-134.385	-101.068	-0.089	-0.022
-133.370	-109.949	-0.168	-0.035
-132.356	440.872	-0.073	0.161
-131.341	13.191	-0.223	-0.174
-130.326	-200.000	-0.010	0.181
-129.312	-119.523	0.169	0.029
-128.297	-35.869	0.129	-0.071
-127.283	677.169	0.055	0.144
-126.268	-200.000	-0.021	-0.202
-125.253	-200.000	-0.001	0.096
-124.239	-199.275	-0.134	-0.001
-123.224	-45.413	-0.229	-0.114
-122.210	-200.000	0.003	0.144
