DTS Sentinel unit serial number:	SN413079Multiplexer serial number:	ORYXHardware model number:	OX4-SRSoftware version number:	ORYX F/W v4.00 Oryx Data Collector v3.7.2.0data status	okinstallation	princeton_trtdifferential loss correction	single-endedforward channel	channel 4reverse channel	N/Adate	2019/09/11time	08:03:10forward acquisition time	60.00reverse acquisition time	0.00gamma	496.2192k internal	0.2306k external	0.2306temperature offset calibration	1.1266default loss term (dB/km)	0.3790temperature slope calibration	1.0000multiplexer offset coefficient	1.0000multiplexer slope coefficient	1.0000fibre end	0.00T internal ref (°C)	32.19T ext. ref 1 (°C)	19.69T ext. ref 2 (°C)	27.91length (m)	temperature (°C)	Stokes	anti-Stokes-747.200	-200.000	-0.016	0.100
-746.185	559.229	-0.147	0.361
-745.171	33.938	0.265	0.235
-744.156	5.068	-0.107	0.080
-743.142	-55.489	-0.259	0.118
-742.127	-200.000	-0.067	0.347
-741.112	-200.000	0.014	0.432
-740.098	47.363	-0.288	0.273
-739.083	-10.034	-0.089	0.060
-738.069	-200.000	0.028	0.130
-737.054	-143.919	-0.223	0.021
-736.039	177.974	-0.016	-0.024
-735.025	-94.093	0.313	0.087
-734.010	-200.000	0.000	-0.171
-732.996	58.405	-0.162	-0.162
-731.981	-126.059	-0.417	-0.064
-730.966	5.286	0.160	-0.120
-729.952	800.000	-0.076	0.229
-728.937	-75.437	-0.285	-0.103
-727.923	-50.281	-0.132	0.063
-726.908	-200.000	0.050	0.348
-725.894	33.453	0.043	0.038
-724.879	-69.482	-0.350	-0.137
-723.864	19.537	0.011	0.009
-722.850	-25.218	0.097	0.058
-721.835	-200.000	-0.012	-0.178
-720.821	-32.218	0.259	-0.147
-719.806	-74.504	-0.258	-0.095
-718.791	77.614	-0.134	-0.145
-717.777	316.391	-0.070	-0.133
-716.762	374.009	-0.073	0.151
-715.748	-61.919	-0.172	-0.073
-714.733	-200.000	0.053	0.248
-713.718	-185.041	0.181	-0.003
-712.704	-125.231	-0.274	-0.043
-711.689	-54.314	-0.115	-0.053
-710.675	-200.000	0.004	0.093
-709.660	-200.000	-0.021	0.244
-708.645	-123.648	0.238	0.038
-707.631	-83.424	-0.258	-0.084
-706.616	-36.984	0.100	0.054
-705.602	21.485	0.193	-0.159
-704.587	10.520	0.341	-0.264
-703.572	-81.908	0.059	-0.019
-702.558	54.503	-0.116	-0.114
-701.543	221.280	-0.135	-0.220
-700.529	-200.000	0.017	0.109
-699.514	72.858	-0.160	-0.170
-698.499	159.927	0.233	0.330
-697.485	-121.333	0.224	-0.038
-696.470	-200.000	0.003	0.084
-695.456	-117.042	-0.285	0.053
-694.441	270.131	0.113	0.201
-693.426	430.162	0.096	-0.212
-692.412	-200.000	-0.010	0.052
-691.397	-124.518	-0.576	0.091
-690.383	-200.000	-0.009	-0.320
-689.368	800.000	-0.103	0.380
-688.354	-166.507	-0.178	-0.008
-687.339	665.194	0.009	-0.024
-686.324	220.759	-0.048	-0.079
-685.310	203.513	-0.246	-0.386
-684.295	-200.000	-0.008	-0.133
-683.281	-107.254	-0.060	-0.013
-682.266	368.822	-0.142	-0.292
-681.251	24.707	0.181	-0.152
-680.237	148.070	0.256	0.351
-679.222	-75.948	0.249	-0.089
-678.208	219.921	-0.087	0.142
-677.193	423.921	0.197	0.429
-676.178	800.000	-0.012	-0.037
-675.164	-106.539	0.084	-0.019
-674.149	443.573	0.047	-0.105
-673.135	-57.527	0.085	0.038
-672.120	-88.708	-0.481	-0.145
-671.105	408.229	-0.081	-0.175
-670.091	-9.563	-0.169	-0.114
-669.076	-98.689	-0.146	0.038
-668.062	-30.712	0.091	0.052
-667.047	-147.519	-0.120	-0.010
-666.032	-79.684	-0.154	0.052
-665.018	-50.064	0.094	-0.045
-664.003	24.560	0.071	-0.060
-662.989	800.000	0.022	0.074
-661.974	36.677	-0.206	-0.184
-660.959	40.071	-0.208	0.190
-659.945	-42.047	0.205	-0.106
-658.930	176.094	-0.122	0.179
-657.916	118.856	-0.179	-0.224
-656.901	462.920	0.191	-0.432
-655.886	-35.041	-0.210	0.116
-654.872	10.239	0.233	0.179
-653.857	150.397	0.124	0.170
-652.843	-49.600	0.181	-0.088
-651.828	520.182	-0.094	0.224
-650.814	2.129	0.128	0.094
-649.799	68.530	0.198	0.206
-648.784	-200.000	0.040	-0.330
-647.770	-13.690	0.058	0.038
-646.755	-200.000	0.032	-0.313
-645.741	-200.000	-0.546	-0.000
-644.726	-200.000	-0.000	0.112
-643.711	-200.000	0.016	0.116
-642.697	-50.383	0.179	-0.086
-641.682	291.080	0.087	0.161
-640.668	-200.000	0.025	-0.188
-639.653	37.479	-0.262	0.236
-638.638	-200.000	-0.023	0.130
-637.624	-200.000	0.036	0.304
-636.609	-94.153	0.119	-0.033
-635.595	-172.546	-0.245	-0.008
-634.580	-20.882	-0.186	-0.116
-633.565	-1.935	0.346	0.247
-632.551	-164.205	0.119	-0.006
-631.536	800.000	-0.054	-0.163
-630.522	-76.585	0.258	-0.092
-629.507	800.000	-0.005	-0.019
-628.492	-156.426	0.341	-0.022
-627.478	-30.716	-0.353	-0.202
-626.463	44.800	0.100	-0.094
-625.449	-42.579	0.172	-0.089
-624.434	-200.000	0.000	-0.218
-623.419	784.340	-0.074	0.206
-622.405	251.434	-0.130	-0.224
-621.390	732.380	-0.030	-0.083
-620.376	128.142	0.171	-0.220
-619.361	-200.000	0.022	0.171
-618.346	-173.801	0.239	-0.007
-617.332	109.714	-0.123	0.149
-616.317	-45.400	0.269	0.135
-615.303	287.189	0.108	-0.198
-614.288	-120.726	-0.271	0.046
-613.273	800.000	0.047	-0.183
-612.259	171.746	-0.067	0.097
-611.244	-160.167	-0.362	-0.020
-610.230	-107.873	-0.268	0.059
-609.215	503.146	-0.065	0.152
-608.201	295.776	0.131	-0.242
-607.186	-20.175	0.145	-0.091
-606.171	307.997	-0.099	-0.187
-605.157	800.000	-0.067	0.195
-604.142	69.592	-0.296	-0.309
-603.128	-118.978	-0.272	0.048
-602.113	-48.760	-0.186	-0.090
-601.098	60.517	0.290	-0.290
-600.084	341.317	-0.076	0.150
-599.069	-63.400	0.074	-0.031
-598.055	66.870	-0.288	0.297
-597.040	-122.609	-0.219	-0.036
-596.025	84.113	-0.054	0.060
-595.011	800.000	-0.103	-0.323
-593.996	-113.053	0.150	0.030
-592.982	-39.140	0.070	0.037
-591.967	-154.544	-0.444	0.030
-590.952	123.649	0.152	-0.193
-589.938	5.410	0.158	0.118
-588.923	124.531	-0.144	-0.184
-587.909	800.000	0.035	0.116
-586.894	-200.000	-0.012	-0.276
-585.879	156.802	0.077	0.108
-584.865	673.679	0.061	-0.160
-583.850	-16.466	0.181	0.116
-582.836	147.637	0.157	-0.214
-581.821	-132.047	-0.073	0.010
-580.806	-6.259	-0.365	-0.252
-579.792	139.922	-0.064	-0.085
-578.777	-115.764	-0.282	0.053
-577.763	698.210	0.123	0.326
-576.748	800.000	0.085	0.276
-575.733	-4.513	0.352	-0.246
-574.719	-82.597	0.184	-0.060
-573.704	800.000	-0.087	-0.381
-572.690	-200.000	-0.016	-0.080
-571.675	516.460	-0.090	-0.213
-570.661	494.872	0.174	-0.403
-569.646	-159.515	0.447	-0.025
-568.631	-92.978	0.071	-0.020
-567.617	-47.163	0.198	0.097
-566.602	-104.973	0.061	-0.014
-565.588	-131.900	-0.384	0.051
-564.573	361.986	-0.055	0.111
-563.558	257.279	0.071	-0.123
-562.544	-189.203	0.124	0.001
-561.529	-67.020	-0.147	0.059
-560.515	324.531	0.113	0.217
-559.500	133.231	0.196	0.255
-558.485	800.000	-0.029	-0.114
-557.471	-101.155	-0.145	-0.036
-556.456	46.243	0.066	-0.061
-555.442	328.101	0.060	-0.117
-554.427	97.134	-0.153	-0.177
-553.412	-200.000	-0.003	-0.171
-552.398	646.469	0.063	-0.162
-551.383	140.270	-0.181	-0.241
-550.369	265.101	-0.112	-0.198
-549.354	-1.068	0.201	-0.144
-548.339	800.000	-0.098	0.332
-547.325	800.000	0.042	0.155
-546.310	-145.228	-0.258	0.024
-545.296	337.159	-0.054	-0.106
-544.281	-14.254	0.146	0.095
-543.266	800.000	-0.071	0.274
-542.252	-4.725	0.238	-0.166
-541.237	-84.076	-0.219	0.070
-540.223	-96.839	-0.213	0.056
-539.208	800.000	0.097	-0.402
-538.193	-27.161	0.135	0.079
-537.179	-200.000	-0.073	-0.496
-536.164	87.029	0.069	0.077
-535.150	771.553	-0.052	0.142
-534.135	129.551	-0.028	-0.036
-533.121	800.000	-0.054	0.205
-532.106	-154.870	-0.394	-0.026
-531.091	1.326	-0.068	0.049
-530.077	-170.887	-0.107	-0.004
-529.062	-64.898	-0.205	0.084
-528.048	-134.865	-0.369	-0.045
-527.033	6.671	-0.151	-0.113
-526.018	269.952	-0.062	0.110
-525.004	-200.000	-0.030	0.144
-523.989	-53.396	-0.298	-0.138
-522.975	268.821	0.123	0.217
-521.960	-20.141	-0.126	-0.078
-520.945	278.500	0.130	-0.234
-519.931	-96.106	-0.187	0.050
-518.916	144.611	0.316	0.426
-517.902	-200.000	-0.021	0.243
-516.887	427.556	0.005	0.011
-515.872	238.311	0.090	-0.150
-514.858	-7.720	-0.363	0.247
-513.843	149.494	0.088	-0.121
-512.829	149.677	0.091	0.124
-511.814	37.145	-0.218	-0.194
-510.799	-143.342	0.481	-0.046
-509.785	-26.813	-0.440	-0.260
-508.770	27.289	0.442	-0.374
-507.756	-53.882	-0.034	0.016
-506.741	118.723	0.100	-0.124
-505.726	-77.495	-0.335	0.117
-504.712	241.915	-0.039	-0.065
-503.697	-86.077	-0.191	-0.060
-502.683	-137.298	-0.144	-0.017
-501.668	-200.000	-0.002	-0.115
-500.653	159.532	0.219	-0.307
-499.639	94.066	0.162	-0.185
-498.624	705.604	-0.035	-0.093
-497.610	-62.118	-0.233	0.098
-496.595	800.000	-0.099	0.336
-495.581	-88.987	0.270	0.080
-494.566	-200.000	-0.010	0.270
-493.551	-200.000	-0.005	-0.140
-492.537	56.860	-0.101	0.099
-491.522	-177.074	0.300	0.008
-490.508	179.875	-0.147	0.218
-489.493	-35.644	0.224	0.122
-488.478	-81.534	0.051	-0.017
-487.464	-20.669	-0.388	0.240
-486.449	278.512	0.075	0.134
-485.435	116.854	0.064	0.079
-484.420	-200.000	-0.026	0.239
-483.405	-88.192	0.309	0.093
-482.391	23.777	0.190	-0.157
-481.376	-38.028	0.331	0.177
-480.362	29.027	-0.118	-0.101
-479.347	34.177	0.196	-0.172
-478.332	-18.510	0.032	0.020
-477.318	-151.829	0.368	0.027
-476.303	63.577	-0.342	-0.346
-475.289	703.181	0.025	0.066
-474.274	-105.048	0.215	-0.050
-473.259	-200.000	0.016	-0.213
-472.245	559.243	0.175	-0.426
-471.230	31.859	0.144	-0.125
-470.216	-193.221	0.226	-0.002
-469.201	-48.743	-0.324	0.156
-468.186	-170.164	-0.177	-0.006
-467.172	-21.665	-0.117	0.072
-466.157	800.000	-0.053	-0.158
-465.143	196.566	0.083	0.127
-464.128	42.953	-0.499	-0.458
-463.113	800.000	0.031	0.122
-462.099	800.000	-0.080	-0.309
-461.084	800.000	-0.118	0.440
-460.070	502.453	0.100	0.232
-459.055	-200.000	0.018	-0.258
-458.040	-104.949	0.473	0.109
-457.026	175.559	-0.147	0.214
-456.011	347.969	-0.102	-0.202
-454.997	287.106	0.164	0.298
-453.982	-80.554	0.266	0.089
-452.968	194.063	0.169	0.258
-451.953	-21.580	0.287	0.176
-450.938	-143.580	-0.245	0.023
-449.924	222.578	0.084	0.136
-448.909	-200.000	-0.020	0.179
-447.895	800.000	0.055	0.231
-446.880	-75.365	0.308	-0.110
-445.865	145.066	-0.201	0.270
-444.851	-7.296	-0.092	-0.063
-443.836	1.696	0.232	0.168
-442.822	-32.673	0.202	-0.113
-441.807	510.225	-0.072	-0.168
-440.792	293.876	-0.084	0.155
-439.778	-19.993	0.483	-0.300
-438.763	-6.923	-0.127	0.086
-437.749	-82.260	0.191	0.062
-436.734	123.797	-0.090	-0.114
-435.719	-172.012	-0.171	-0.006
-434.705	-84.355	0.368	-0.117
-433.690	470.372	0.191	0.431
-432.676	24.936	-0.243	-0.203
-431.661	115.144	-0.114	0.140
-430.646	-113.735	-0.374	0.073
-429.632	181.451	-0.101	0.149
-428.617	212.343	0.119	-0.189
-427.603	-119.683	-0.132	-0.023
-426.588	-95.210	0.319	0.086
-425.573	-200.000	-0.016	0.090
-424.559	-104.401	0.198	0.046
-423.544	-107.967	-0.333	-0.073
-422.530	-134.987	-0.365	-0.044
-421.515	-200.000	0.047	-0.319
-420.500	-133.838	-0.294	-0.037
-419.486	-84.769	-0.243	-0.077
-418.471	34.643	-0.172	-0.151
-417.457	800.000	0.046	-0.135
-416.442	-3.060	-0.121	-0.085
-415.428	62.051	0.077	0.077
-414.413	-100.434	-0.101	0.025
-413.398	-200.000	-0.008	-0.158
-412.384	291.828	0.169	-0.309
-411.369	-56.924	0.192	-0.085
-410.355	-147.488	-0.173	-0.015
-409.340	2.319	0.072	-0.052
-408.325	16.633	0.156	-0.124
-407.311	-194.696	0.160	0.001
-406.296	-86.742	0.126	0.039
-405.282	-60.854	0.191	-0.081
-404.267	90.454	-0.101	0.114
-403.252	-136.728	0.250	-0.029
-402.238	80.144	-0.149	-0.161
-401.223	-126.241	-0.255	0.038
-400.209	800.000	-0.005	-0.019
-399.194	-200.000	0.005	-0.079
-398.179	771.206	0.079	-0.215
-397.165	543.372	-0.030	-0.071
-396.150	-25.860	-0.061	-0.036
-395.136	72.074	-0.217	-0.227
-394.121	-161.033	-0.431	-0.023
-393.106	800.000	-0.068	0.264
-392.092	-36.480	-0.224	-0.121
-391.077	-200.000	0.061	-0.394
-390.063	-26.335	-0.227	-0.134
-389.048	213.822	0.109	-0.173
-388.033	-40.160	0.286	0.149
-387.019	-6.345	0.036	-0.025
-386.004	-118.716	-0.246	-0.043
-384.990	-145.576	-0.247	-0.022
-383.975	-65.543	-0.195	-0.078
-382.960	-125.852	-0.261	-0.040
-381.946	131.446	-0.054	-0.070
-380.931	576.271	0.027	0.065
-379.917	9.861	0.076	-0.058
-378.902	-115.220	-0.104	0.020
-377.888	71.280	0.234	-0.243
-376.873	800.000	-0.053	-0.176
-375.858	-116.350	0.212	-0.039
-374.844	92.771	-0.101	0.115
-373.829	26.384	-0.245	0.205
-372.815	800.000	-0.081	0.227
-371.800	-56.949	-0.353	-0.156
-370.785	-16.955	0.129	-0.081
-369.771	-16.762	-0.389	0.247
-368.756	152.998	-0.202	-0.277
-367.742	-74.743	0.296	0.107
-366.727	537.135	0.055	0.132
-365.712	-118.325	0.424	0.076
-364.698	-89.939	-0.220	-0.064
-363.683	-29.427	-0.245	-0.140
-362.669	-95.186	0.269	-0.073
-361.654	-133.185	-0.192	-0.024
-360.639	370.075	-0.128	0.259
-359.625	-148.123	0.334	-0.028
-358.610	419.799	0.070	-0.151
-357.596	-96.655	-0.128	-0.034
-356.581	-200.000	0.003	0.139
-355.566	-193.536	-0.205	-0.002
-354.552	254.354	0.106	0.181
-353.537	-126.834	-0.089	0.013
-352.523	49.534	-0.101	-0.095
-351.508	14.399	-0.295	0.231
-350.493	-200.000	0.006	0.252
-349.479	-163.710	0.220	-0.010
-348.464	800.000	-0.083	-0.263
-347.450	-67.990	0.042	-0.016
-346.435	292.309	0.083	0.151
-345.420	800.000	0.080	0.302
-344.406	-121.378	0.040	-0.007
-343.391	205.283	-0.182	-0.283
-342.377	-144.444	-0.227	0.021
-341.362	176.328	0.113	0.164
-340.348	209.772	0.151	0.238
-339.333	101.604	-0.120	0.140
-338.318	-29.995	-0.300	0.171
-337.304	-161.465	-0.351	0.018
-336.289	190.816	-0.071	0.107
-335.275	800.000	0.070	-0.217
-334.260	800.000	0.160	-0.454
-333.245	-200.000	-0.017	-0.102
-332.231	-200.000	0.026	0.280
-331.216	167.541	-0.171	-0.244
-330.202	-200.000	0.012	0.068
-329.187	66.034	0.082	-0.083
-328.172	549.213	-0.139	-0.334
-327.158	28.084	0.154	0.130
-326.143	-200.000	-0.029	0.173
-325.129	-127.226	-0.199	-0.029
-324.114	-61.597	-0.114	-0.048
-323.099	-200.000	0.000	-0.064
-322.085	-36.590	0.167	0.090
-321.070	124.623	0.084	-0.106
-320.056	-200.000	-0.004	0.329
-319.041	-6.406	0.095	-0.065
-318.026	800.000	0.066	0.184
-317.012	131.014	0.108	0.138
-315.997	-132.206	-0.130	0.017
-314.983	-200.000	0.042	0.319
-313.968	800.000	0.030	0.120
-312.953	-189.775	0.144	0.002
-311.939	-69.961	-0.222	0.085
-310.924	800.000	0.013	0.052
-309.910	275.908	-0.088	0.156
-308.895	800.000	0.129	0.416
-307.880	800.000	-0.035	-0.135
-306.866	-200.000	0.012	-0.197
-305.851	800.000	-0.038	0.127
-304.837	-117.678	0.298	0.054
-303.822	79.440	0.228	-0.245
-302.807	48.758	0.146	0.137
-301.793	1.332	-0.122	-0.088
-300.778	-139.815	-0.178	-0.019
-299.764	202.441	-0.102	-0.157
-298.749	-65.595	-0.165	0.066
-297.735	473.613	-0.086	-0.195
-296.720	63.174	-0.204	-0.204
-295.705	331.792	-0.095	-0.184
-294.691	-200.000	-0.044	-0.221
-293.676	318.564	0.008	0.016
-292.662	-172.172	-0.152	-0.005
-291.647	11.571	-0.223	-0.171
-290.632	-88.152	-0.081	0.024
-289.618	195.677	0.052	-0.079
-288.603	225.694	0.155	0.251
-287.589	169.882	-0.130	0.186
-286.574	160.402	0.080	0.111
-285.559	-135.117	-0.502	-0.060
-284.545	-110.094	0.142	0.030
-283.530	-122.981	0.053	-0.009
-282.516	-56.644	0.049	0.022
-281.501	-35.042	-0.217	0.118
-280.486	-28.609	-0.160	0.092
-279.472	800.000	-0.042	0.147
-278.457	-167.324	0.354	0.014
-277.443	-200.000	0.024	-0.217
-276.428	-148.536	0.532	-0.043
-275.413	-200.000	-0.071	-0.377
-274.399	-200.000	-0.027	0.159
-273.384	-200.000	-0.002	0.043
-272.370	-200.000	-0.006	-0.055
-271.355	170.553	-0.101	-0.145
-270.340	-132.076	-0.305	0.040
-269.326	800.000	0.063	0.215
-268.311	-61.019	0.096	0.040
-267.297	377.141	0.149	0.303
-266.282	-200.000	-0.011	0.059
-265.267	392.238	-0.018	-0.037
-264.253	-178.379	0.337	-0.008
-263.238	-51.242	-0.162	0.076
-262.224	-200.000	-0.048	0.333
-261.209	190.342	0.170	-0.254
-260.195	-106.346	0.270	0.060
-259.180	-79.525	0.139	-0.047
-258.165	-100.096	0.203	-0.050
-257.151	8.311	-0.085	-0.064
-256.136	122.423	-0.015	0.018
-255.122	-182.162	-0.091	-0.002
-254.107	-200.000	-0.016	0.164
-253.092	-200.000	-0.016	0.140
-252.078	-103.843	0.162	0.038
-251.063	800.000	0.044	-0.166
-250.049	-60.241	-0.161	-0.068
-249.034	-89.949	0.219	0.064
-248.019	800.000	0.070	-0.231
-247.005	70.619	-0.167	-0.172
-245.990	-123.939	-0.200	-0.031
-244.976	116.094	-0.100	0.122
-243.961	-26.474	-0.131	-0.076
-242.946	-110.146	0.169	-0.035
-241.932	800.000	-0.052	0.165
-240.917	-113.591	-0.156	-0.030
-239.903	-132.426	0.161	0.021
-238.888	-112.002	0.172	-0.035
-237.873	-5.268	0.278	-0.191
-236.859	-40.384	-0.181	-0.094
-235.844	111.767	0.230	0.277
-234.830	-84.460	-0.153	0.048
-233.815	467.023	0.091	0.204
-232.800	800.000	-0.115	0.320
-231.786	42.388	0.082	-0.074
-230.771	-200.000	0.007	0.130
-229.757	-42.082	-0.040	0.020
-228.742	13.197	-0.151	-0.116
-227.727	-32.177	0.138	-0.077
-226.713	133.426	0.133	-0.172
-225.698	-88.441	0.161	-0.048
-224.684	21.615	0.293	0.238
-223.669	236.284	-0.084	0.139
-222.655	54.480	0.274	0.264
-221.640	-71.554	0.173	0.065
-220.625	-13.846	-0.073	-0.047
-219.611	296.006	0.066	-0.121
-218.596	-200.000	-0.017	0.360
-217.582	800.000	-0.044	-0.137
-216.567	-100.733	0.048	-0.012
-215.552	-17.519	0.319	-0.200
-214.538	-128.415	-0.457	-0.065
-213.523	-200.000	0.051	0.233
-212.509	-37.789	0.089	-0.047
-211.494	-154.094	0.232	-0.016
-210.479	-28.924	-0.210	-0.120
-209.465	27.226	0.162	-0.135
-208.450	69.850	0.172	0.177
-207.436	664.045	-0.056	0.143
-206.421	-78.509	-0.227	0.077
-205.406	-78.076	0.234	-0.080
-204.392	162.640	0.102	0.142
-203.377	800.000	-0.060	0.222
-202.363	-200.000	-0.001	0.173
-201.348	-4.575	-0.259	0.178
-200.333	-200.000	-0.031	-0.146
-199.319	175.001	-0.033	0.048
-198.304	-134.186	-0.100	-0.012
-197.290	10.907	0.365	0.278
-196.275	-200.000	0.026	0.365
-195.260	-200.000	-0.031	0.222
-194.246	-200.000	-0.039	0.220
-193.231	-200.000	-0.008	0.045
-192.217	-145.918	-0.211	0.019
-191.202	483.406	0.165	-0.373
-190.187	222.828	-0.082	-0.131
-189.173	177.583	0.048	0.070
-188.158	-200.000	0.019	-0.130
-187.144	-118.230	-0.070	-0.012
-186.129	-143.270	0.384	-0.037
-185.114	-59.018	0.250	-0.108
-184.100	-115.037	0.294	0.056
-183.085	-100.186	0.092	0.023
-182.071	-200.000	0.028	-0.242
-181.056	127.908	-0.285	-0.361
-180.042	-200.000	0.003	-0.108
-179.027	116.504	0.262	0.319
-178.012	800.000	0.077	0.282
-176.998	-132.827	0.229	-0.029
-175.983	-55.110	0.135	0.060
-174.969	59.884	0.104	0.102
-173.954	171.990	-0.121	0.173
-172.939	-107.657	0.448	-0.097
-171.925	45.143	0.145	0.133
-170.910	-67.894	-0.216	-0.084
-169.896	-31.112	-0.101	0.056
-168.881	-2.099	-0.119	0.083
-167.866	72.254	0.209	0.216
-166.852	-91.885	0.499	0.141
-165.837	-110.903	0.074	0.015
-164.823	714.325	0.049	-0.129
-163.808	-98.201	0.169	0.043
-162.793	-114.161	0.261	-0.050
-161.779	-200.000	0.047	0.303
-160.764	2.921	-0.118	0.085
-159.750	-66.529	-0.208	-0.082
-158.735	-94.841	-0.468	-0.126
-157.720	-69.632	0.154	-0.059
-156.706	-61.604	-0.304	0.127
-155.691	218.992	-0.165	0.262
-154.677	179.516	0.115	-0.167
-153.662	208.011	0.113	0.175
-152.647	81.578	0.115	-0.124
-151.633	247.110	0.163	0.274
-150.618	-49.131	0.149	-0.071
-149.604	-57.948	0.101	-0.044
-148.589	-28.085	0.268	0.154
-147.574	-119.802	0.341	-0.058
-146.560	-200.000	-0.008	-0.062
-145.545	800.000	0.044	0.191
-144.531	-40.057	0.232	-0.120
-143.516	423.163	-0.089	0.190
-142.502	41.955	0.133	-0.120
-141.487	800.000	-0.041	-0.152
-140.472	-61.152	-0.226	-0.095
-139.458	800.000	-0.025	-0.082
-138.443	-200.000	-0.018	0.277
-137.429	-111.530	-0.194	0.039
-136.414	669.737	0.103	0.264
-135.399	-200.000	-0.006	-0.320
-134.385	-169.237	0.186	0.007
-133.370	456.517	-0.117	0.257
-132.356	-31.744	-0.288	-0.161
-131.341	86.320	-0.060	0.066
-130.326	639.842	-0.119	-0.302
-129.312	502.651	-0.015	0.033
-128.297	-137.655	-0.322	-0.036
-127.283	28.960	-0.270	-0.227
-126.268	138.874	-0.157	0.205
-125.253	800.000	0.059	0.175
-124.239	357.681	0.061	0.120
-123.224	11.174	-0.109	0.083
-122.210	-9.484	0.200	-0.133
