DTS Sentinel unit serial number:	SN413079Multiplexer serial number:	ORYXHardware model number:	OX4-SRSoftware version number:	ORYX F/W v4.00 Oryx Data Collector v3.7.2.0data status	okinstallation	princeton_trtdifferential loss correction	single-endedforward channel	channel 4reverse channel	N/Adate	2019/09/16time	12:05:34forward acquisition time	60.00reverse acquisition time	0.00gamma	496.2192k internal	0.2294k external	0.2294temperature offset calibration	0.9950default loss term (dB/km)	0.3790temperature slope calibration	1.0000multiplexer offset coefficient	1.0000multiplexer slope coefficient	1.0000fibre end	0.00T internal ref (°C)	38.81T ext. ref 1 (°C)	13.19T ext. ref 2 (°C)	35.87length (m)	temperature (°C)	Stokes	anti-Stokes-747.200	-140.818	0.264	0.028
-746.185	23.134	-0.220	0.184
-745.171	-64.190	-0.152	-0.063
-744.156	220.318	0.228	0.374
-743.142	74.244	-0.229	0.246
-742.127	272.991	-0.274	0.496
-741.112	-123.414	0.235	-0.038
-740.098	-53.407	-0.307	0.144
-739.083	-200.000	-0.012	0.157
-738.069	-200.000	-0.008	0.184
-737.054	-150.947	0.475	-0.037
-736.039	-65.058	-0.097	0.040
-735.025	36.075	-0.050	0.045
-734.010	-85.642	0.160	0.051
-732.996	22.641	0.190	-0.159
-731.981	-73.621	0.241	-0.090
-730.966	-87.852	-0.103	0.032
-729.952	-90.403	-0.104	0.031
-728.937	-115.498	0.102	0.020
-727.923	-119.244	0.173	-0.031
-726.908	-200.000	0.020	0.114
-725.894	-200.000	-0.024	-0.141
-724.879	-200.000	0.013	0.086
-723.864	-57.508	0.205	0.092
-722.850	37.082	-0.242	0.218
-721.835	-9.869	0.068	0.046
-720.821	-26.310	-0.136	0.082
-719.806	-130.586	-0.245	-0.034
-718.791	800.000	-0.034	0.136
-717.777	-51.650	-0.622	-0.296
-716.762	177.668	-0.192	-0.286
-715.748	57.873	0.146	0.146
-714.733	-88.775	0.154	-0.047
-713.718	55.366	-0.175	-0.173
-712.704	-9.075	0.180	0.123
-711.689	-69.837	-0.192	0.075
-710.675	-200.000	-0.035	-0.335
-709.660	569.143	0.036	0.089
-708.645	7.571	0.369	0.282
-707.631	79.183	-0.135	0.147
-706.616	-140.614	0.281	-0.030
-705.602	129.207	-0.157	0.204
-704.587	-62.658	-0.113	0.048
-703.572	202.366	0.147	-0.232
-702.558	-200.000	0.047	-0.465
-701.543	195.287	0.084	0.130
-700.529	-134.569	-0.154	-0.019
-699.514	800.000	-0.029	0.094
-698.499	-65.439	0.319	-0.131
-697.485	95.756	-0.151	0.176
-696.470	-82.199	-0.156	0.052
-695.456	-200.000	-0.009	0.054
-694.441	-150.985	0.110	-0.008
-693.426	709.078	-0.075	-0.202
-692.412	-13.100	-0.167	-0.111
-691.397	800.000	-0.021	-0.073
-690.383	800.000	0.095	-0.322
-689.368	21.549	0.308	0.256
-688.354	-61.838	-0.119	0.051
-687.339	389.856	-0.046	0.097
-686.324	-129.639	0.305	-0.043
-685.310	-107.708	-0.164	0.036
-684.295	32.166	0.098	-0.087
-683.281	-200.000	0.013	0.282
-682.266	59.156	-0.050	0.050
-681.251	-187.483	-0.047	-0.001
-680.237	-88.842	-0.572	0.173
-679.222	-200.000	-0.059	0.466
-678.208	800.000	-0.031	0.105
-677.193	800.000	0.069	0.207
-676.178	-96.979	0.370	-0.099
-675.164	-69.467	0.371	-0.145
-674.149	-115.921	0.130	-0.025
-673.135	612.477	0.071	-0.182
-672.120	-66.141	0.303	0.123
-671.105	94.635	0.295	0.342
-670.091	-121.387	-0.064	-0.011
-669.076	-97.753	0.051	-0.014
-668.062	464.363	0.088	0.200
-667.047	-32.461	-0.088	-0.050
-666.032	-149.022	-0.312	-0.026
-665.018	5.460	0.286	0.215
-664.003	-100.037	0.269	-0.068
-662.989	31.060	-0.170	-0.148
-661.974	-167.847	-0.064	-0.003
-660.959	379.264	-0.086	-0.181
-659.945	-101.758	0.238	-0.059
-658.930	-38.309	-0.124	-0.067
-657.916	129.566	0.098	0.127
-656.901	-104.462	-0.202	-0.048
-655.886	18.219	-0.172	0.140
-654.872	-64.144	-0.284	-0.118
-653.857	27.749	-0.127	0.109
-652.843	135.218	0.022	-0.029
-651.828	-146.777	-0.252	0.022
-650.814	-128.900	-0.203	-0.029
-649.799	-40.620	0.109	-0.058
-648.784	-24.733	0.113	0.068
-647.770	-25.958	-0.397	-0.238
-646.755	800.000	-0.057	-0.243
-645.741	-78.523	0.191	0.067
-644.726	-119.291	0.388	0.069
-643.711	800.000	0.058	0.237
-642.697	-200.000	0.050	-0.231
-641.682	-105.110	0.214	-0.050
-640.668	-200.000	0.016	-0.099
-639.653	-135.317	-0.255	-0.031
-638.638	-200.000	-0.005	-0.116
-637.624	63.143	0.099	-0.101
-636.609	268.825	-0.167	0.298
-635.595	-200.000	-0.012	-0.230
-634.580	154.933	0.139	0.195
-633.565	14.024	0.179	0.142
-632.551	-43.945	-0.207	-0.106
-631.536	38.078	-0.133	0.121
-630.522	-200.000	-0.007	0.198
-629.507	181.281	0.114	-0.171
-628.492	-200.000	0.015	-0.116
-627.478	-200.000	-0.016	-0.160
-626.463	108.564	0.164	-0.199
-625.449	-200.000	0.008	-0.087
-624.434	-118.473	-0.132	0.024
-623.419	-28.796	-0.353	0.207
-622.405	-200.000	0.026	-0.185
-621.390	361.035	0.246	0.501
-620.376	-19.042	-0.159	0.101
-619.361	-200.000	0.025	-0.244
-618.346	36.700	0.124	-0.112
-617.332	554.773	-0.109	-0.266
-616.317	800.000	0.076	-0.257
-615.303	-200.000	-0.031	0.302
-614.288	286.035	-0.148	0.273
-613.273	182.813	0.067	-0.101
-612.259	-200.000	0.022	0.267
-611.244	252.955	-0.089	-0.155
-610.230	800.000	-0.030	0.109
-609.215	-65.832	-0.051	0.021
-608.201	-49.136	0.068	-0.033
-607.186	-152.366	-0.252	-0.018
-606.171	163.380	-0.162	0.232
-605.157	5.999	-0.282	0.212
-604.142	-200.000	-0.005	0.072
-603.128	154.886	-0.053	0.075
-602.113	43.230	-0.064	-0.059
-601.098	122.536	-0.130	0.165
-600.084	-141.447	-0.040	0.004
-599.069	-200.000	0.043	-0.408
-598.055	-200.000	0.021	0.196
-597.040	26.707	-0.049	-0.042
-596.025	1.123	0.221	0.161
-595.011	-200.000	-0.027	0.260
-593.996	149.065	-0.110	-0.151
-592.982	32.969	0.055	0.048
-591.967	376.838	-0.191	-0.397
-590.952	-76.902	-0.118	-0.042
-589.938	-47.636	-0.274	-0.135
-588.923	-200.000	0.020	-0.177
-587.909	36.754	-0.176	-0.158
-586.894	-200.000	-0.005	-0.095
-585.879	503.718	0.028	-0.067
-584.865	244.718	-0.101	0.172
-583.850	800.000	-0.065	-0.258
-582.836	-200.000	-0.016	0.142
-581.821	48.817	-0.298	0.284
-580.806	-200.000	-0.006	0.220
-579.792	-126.586	-0.067	-0.010
-578.777	-33.397	-0.376	-0.211
-577.763	71.785	0.140	-0.148
-576.748	-179.455	-0.141	-0.003
-575.733	-200.000	-0.003	-0.086
-574.719	3.646	0.144	-0.107
-573.704	-200.000	-0.018	0.087
-572.690	-120.672	-0.444	0.076
-571.675	-52.640	0.046	-0.022
-570.661	-135.844	0.157	0.019
-569.646	-200.000	0.030	-0.144
-568.631	98.198	-0.227	0.265
-567.617	-132.390	0.079	0.010
-566.602	187.796	0.082	0.125
-565.588	181.711	0.077	0.116
-564.573	-60.408	0.185	0.080
-563.558	-17.198	-0.270	0.173
-562.544	56.698	0.031	-0.031
-561.529	287.878	-0.221	0.406
-560.515	84.030	-0.083	-0.092
-559.500	60.075	0.390	-0.391
-558.485	540.658	-0.119	0.288
-557.471	106.356	-0.081	0.098
-556.456	58.527	0.103	-0.103
-555.442	-82.424	-0.225	0.074
-554.427	40.054	0.098	0.089
-553.412	612.881	-0.229	-0.581
-552.398	-100.725	0.217	0.054
-551.383	216.955	-0.030	-0.048
-550.369	-200.000	0.057	-0.278
-549.354	-17.637	-0.348	-0.222
-548.339	32.087	-0.013	-0.011
-547.325	-200.000	0.025	0.124
-546.310	-100.052	0.130	-0.033
-545.296	-200.000	-0.050	0.327
-544.281	340.800	-0.055	0.109
-543.266	308.320	-0.060	-0.114
-542.252	-92.877	-0.214	0.061
-541.237	-121.749	-0.051	0.009
-540.223	-200.000	-0.033	0.234
-539.208	147.539	0.030	0.041
-538.193	800.000	-0.060	-0.187
-537.179	3.987	-0.140	-0.104
-536.164	800.000	0.004	0.018
-535.150	46.579	-0.021	0.020
-534.135	-104.268	0.179	-0.042
-533.121	-94.014	0.082	0.023
-532.106	-147.366	-0.113	0.010
-531.091	-161.396	-0.015	-0.001
-530.077	133.412	-0.058	0.076
-529.062	135.536	-0.160	-0.211
-528.048	88.720	-0.300	0.338
-527.033	297.784	0.041	0.077
-526.018	-86.192	-0.182	0.057
-525.004	-23.444	-0.349	-0.212
-523.989	-39.895	-0.306	0.162
-522.975	442.417	0.035	0.077
-521.960	97.520	0.252	-0.293
-520.945	-200.000	0.015	0.179
-519.931	-176.248	-0.440	0.012
-518.916	-200.000	-0.028	0.216
-517.902	-73.857	-0.141	-0.052
-516.887	-34.253	0.175	-0.098
-515.872	331.762	0.039	0.076
-514.858	108.828	-0.108	0.131
-513.843	294.624	-0.173	0.320
-512.829	39.354	0.180	0.163
-511.814	-200.000	0.027	0.128
-510.799	387.049	0.022	0.046
-509.785	511.702	-0.053	0.125
-508.770	800.000	-0.078	0.222
-507.756	-200.000	-0.021	0.239
-506.741	386.095	0.124	0.260
-505.726	443.588	-0.163	0.363
-504.712	-161.035	0.127	-0.007
-503.697	237.023	-0.018	-0.030
-502.683	274.752	-0.089	0.160
-501.668	-200.000	-0.029	0.244
-500.653	746.026	-0.051	-0.140
-499.639	800.000	0.145	0.508
-498.624	151.286	0.036	0.050
-497.610	2.121	0.266	-0.194
-496.595	308.115	-0.179	-0.338
-495.581	-200.000	-0.031	0.240
-494.566	19.468	0.253	-0.206
-493.551	-200.000	0.023	0.150
-492.537	173.329	0.053	0.078
-491.522	-98.037	-0.163	-0.042
-490.508	800.000	-0.132	-0.400
-489.493	665.534	0.126	-0.328
-488.478	-38.393	-0.178	0.096
-487.464	-0.736	-0.095	-0.068
-486.449	550.549	-0.152	-0.369
-485.435	-152.240	0.198	0.014
-484.420	-200.000	0.002	-0.056
-483.405	-200.000	0.020	-0.161
-482.391	207.204	-0.173	0.274
-481.376	45.525	-0.232	-0.217
-480.362	49.204	0.103	-0.098
-479.347	-49.791	-0.298	-0.143
-478.332	-200.000	-0.047	-0.327
-477.318	11.401	-0.108	-0.084
-476.303	-84.445	-0.183	-0.058
-475.289	354.005	-0.134	0.270
-474.274	242.288	0.129	0.219
-473.259	647.707	0.120	-0.309
-472.245	-200.000	0.025	-0.180
-471.230	630.794	-0.094	-0.241
-470.216	-200.000	-0.005	-0.205
-469.201	800.000	0.060	-0.236
-468.186	104.652	0.146	-0.174
-467.172	459.027	0.029	-0.065
-466.157	699.040	0.070	0.187
-465.143	724.277	0.080	-0.215
-464.128	346.890	-0.097	-0.193
-463.113	3.525	0.295	-0.218
-462.099	800.000	0.042	-0.165
-461.084	231.523	-0.214	-0.355
-460.070	39.056	0.061	0.055
-459.055	670.307	0.139	-0.364
-458.040	336.472	0.110	0.217
-457.026	13.898	0.105	-0.083
-456.011	4.449	-0.071	-0.053
-454.997	285.330	0.115	0.209
-453.982	-113.944	0.131	0.026
-452.968	-200.000	-0.023	0.188
-451.953	224.422	-0.205	0.335
-450.938	117.364	0.041	-0.051
-449.924	28.898	-0.202	-0.173
-448.909	87.851	-0.193	-0.216
-447.895	99.888	0.158	0.185
-446.880	-187.557	-0.279	-0.004
-445.865	800.000	-0.065	0.284
-444.851	-200.000	0.044	0.306
-443.836	118.538	0.126	0.157
-442.822	-62.227	0.369	0.155
-441.807	-200.000	-0.023	-0.146
-440.792	-35.899	-0.383	-0.209
-439.778	-200.000	-0.002	0.082
-438.763	16.378	-0.248	0.198
-437.749	-200.000	0.045	-0.331
-436.734	378.795	-0.022	0.045
-435.719	9.105	-0.147	0.113
-434.705	-200.000	0.231	-0.000
-433.690	2.075	0.429	-0.313
-432.676	-51.880	-0.084	0.039
-431.661	419.820	-0.143	0.310
-430.646	-62.190	-0.150	-0.063
-429.632	35.734	0.166	-0.148
-428.617	-134.198	0.066	0.008
-427.603	800.000	-0.045	-0.163
-426.588	-130.809	-0.255	-0.035
-425.573	21.583	-0.227	0.186
-424.559	419.091	-0.042	0.090
-423.544	198.335	0.056	-0.086
-422.530	41.620	0.286	-0.262
-421.515	-41.656	0.141	-0.073
-420.500	-6.580	0.147	0.101
-419.486	-55.836	-0.123	-0.056
-418.471	-62.791	-0.125	-0.052
-417.457	-200.000	-0.043	0.438
-416.442	-180.584	-0.255	0.005
-415.428	-44.294	0.401	0.203
-414.413	-200.000	0.060	-0.326
-413.398	261.786	0.058	0.101
-412.384	-162.302	-0.172	-0.009
-411.369	-97.678	0.183	-0.048
-410.355	800.000	0.070	-0.269
-409.340	-200.000	0.004	0.030
-408.325	-200.000	0.006	0.199
-407.311	-30.575	0.120	-0.069
-406.296	-200.000	-0.052	-0.299
-405.282	-200.000	-0.044	0.397
-404.267	273.469	-0.034	-0.060
-403.252	800.000	0.037	-0.153
-402.238	428.885	-0.140	0.306
-401.223	800.000	0.010	0.042
-400.209	-156.809	0.145	0.009
-399.194	800.000	0.026	-0.083
-398.179	114.103	-0.159	0.196
-397.165	13.323	-0.205	-0.160
-396.150	-200.000	0.057	-0.309
-395.136	117.962	-0.199	0.247
-394.121	-145.376	-0.203	0.019
-393.106	-200.000	0.005	-0.501
-392.092	-9.552	0.197	-0.133
-391.077	422.499	0.054	0.116
-390.063	-48.295	0.132	0.064
-389.048	-176.957	0.288	-0.007
-388.033	16.201	-0.125	0.099
-387.019	175.299	-0.021	0.030
-386.004	-83.840	-0.216	-0.069
-384.990	142.848	0.079	0.106
-383.975	-200.000	0.017	0.196
-382.960	-200.000	-0.006	-0.037
-381.946	-47.029	-0.161	0.079
-380.931	42.758	-0.254	0.233
-379.917	-69.522	0.331	-0.128
-378.902	800.000	-0.068	-0.248
-377.888	104.503	-0.194	-0.230
-376.873	800.000	0.086	0.246
-375.858	156.590	0.013	-0.019
-374.844	162.478	-0.189	0.268
-373.829	800.000	0.043	0.141
-372.815	-114.907	-0.264	-0.051
-371.800	-51.782	-0.276	-0.130
-370.785	-43.166	-0.271	-0.139
-369.771	114.408	-0.163	0.201
-368.756	189.273	-0.178	0.269
-367.742	261.799	0.019	-0.034
-366.727	-84.105	0.129	-0.041
-365.712	-159.215	0.120	0.007
-364.698	157.830	-0.107	0.149
-363.683	-200.000	0.091	0.415
-362.669	-85.775	0.094	0.029
-361.654	74.825	0.102	-0.108
-360.639	230.002	-0.089	0.147
-359.625	145.841	0.126	-0.170
-358.610	-123.744	-0.237	0.038
-357.596	-200.000	-0.069	0.316
-356.581	-158.906	0.059	0.003
-355.566	-200.000	0.029	-0.269
-354.552	-125.285	0.164	0.025
-353.537	-40.408	-0.169	0.088
-352.523	106.281	0.171	0.204
-351.508	-3.883	0.165	0.116
-350.493	-72.922	0.302	-0.112
-349.479	2.802	-0.069	0.051
-348.464	101.922	-0.161	0.190
-347.450	324.589	-0.173	0.332
-346.435	13.996	0.162	-0.127
-345.420	173.313	0.149	0.216
-344.406	527.910	0.049	0.116
-343.391	-73.563	0.219	-0.081
-342.377	-11.199	0.076	0.050
-341.362	-142.174	0.190	0.019
-340.348	-0.625	-0.429	-0.306
-339.333	119.056	-0.046	0.057
-338.318	558.759	0.145	-0.351
-337.304	800.000	-0.108	0.449
-336.289	269.261	0.057	-0.101
-335.275	305.556	-0.066	-0.123
-334.260	-75.120	0.136	-0.049
-333.245	-96.288	-0.066	-0.018
-332.231	70.540	-0.340	0.354
-331.216	-34.896	-0.296	-0.163
-330.202	57.531	-0.122	-0.120
-329.187	-120.063	-0.074	-0.013
-328.172	88.261	-0.070	-0.078
-327.158	-200.000	0.035	0.278
-326.143	-108.459	0.144	0.031
-325.129	-105.210	-0.075	-0.017
-324.114	-71.752	-0.267	0.100
-323.099	554.190	0.171	-0.414
-322.085	209.913	0.266	0.419
-321.070	-166.417	0.203	0.009
-320.056	29.826	-0.181	0.155
-319.041	-14.896	0.116	0.075
-318.026	158.218	0.191	-0.266
-317.012	-71.979	0.416	-0.155
-315.997	800.000	-0.034	-0.099
-314.983	641.580	0.017	-0.043
-313.968	65.571	-0.132	-0.134
-312.953	-200.000	-0.008	-0.067
-311.939	463.373	0.112	-0.251
-310.924	217.312	0.147	-0.235
-309.910	46.368	0.130	0.121
-308.895	-155.886	-0.169	0.011
-307.880	11.574	-0.151	0.116
-306.866	-42.699	0.024	0.012
-305.851	611.954	0.141	-0.355
-304.837	284.502	0.164	-0.297
-303.822	82.365	0.252	-0.275
-302.807	547.312	-0.020	-0.047
-301.793	303.113	0.074	-0.137
-300.778	-52.237	-0.185	0.086
-299.764	800.000	0.038	0.138
-298.749	-200.000	-0.016	0.154
-297.735	110.027	-0.130	-0.157
-296.720	800.000	-0.118	0.465
-295.705	250.323	0.071	0.122
-294.691	-200.000	0.018	0.117
-293.676	-11.492	-0.071	-0.047
-292.662	-154.408	0.134	0.009
-291.647	304.830	-0.027	-0.051
-290.632	-200.000	0.009	-0.101
-289.618	125.983	0.289	-0.367
-288.603	800.000	-0.113	-0.383
-287.589	-53.941	-0.119	0.054
-286.574	166.420	0.050	0.071
-285.559	-200.000	-0.030	-0.440
-284.545	-31.424	0.148	0.084
-283.530	-34.385	0.331	0.182
-282.516	-76.607	-0.333	-0.117
-281.501	800.000	0.037	0.138
-280.486	318.132	-0.079	-0.150
-279.472	800.000	-0.064	-0.265
-278.457	-200.000	0.010	0.380
-277.443	800.000	-0.020	-0.081
-276.428	-200.000	0.001	-0.264
-275.413	800.000	0.062	-0.180
-274.399	123.953	0.173	-0.218
-273.384	23.212	-0.058	-0.048
-272.370	284.501	-0.059	-0.106
-271.355	-46.191	-0.271	-0.134
-270.340	206.372	0.037	-0.058
-269.326	25.867	-0.152	-0.128
-268.311	800.000	-0.019	0.082
-267.297	-26.384	-0.124	-0.073
-266.282	18.841	0.134	0.108
-265.267	-121.678	0.231	0.038
-264.253	-102.365	0.388	0.093
-263.238	-200.000	-0.000	-0.087
-262.224	118.540	-0.088	0.110
-261.209	-158.066	0.123	0.007
-260.195	-89.395	0.102	0.030
-259.180	176.286	0.102	0.149
-258.165	800.000	-0.095	-0.327
-257.151	-47.836	-0.152	0.074
-256.136	-200.000	0.033	0.256
-255.122	-200.000	0.009	0.207
-254.107	-150.603	0.179	-0.014
-253.092	106.567	0.136	0.161
-252.078	-200.000	0.052	0.280
-251.063	219.453	0.108	0.173
-250.049	800.000	-0.119	-0.499
-249.034	2.502	-0.228	-0.166
-248.019	-200.000	0.005	0.168
-247.005	119.920	-0.048	-0.059
-245.990	161.962	0.047	0.065
-244.976	-200.000	0.022	0.218
-243.961	-129.867	0.051	0.007
-242.946	-200.000	-0.023	-0.492
-241.932	210.331	0.121	0.190
-240.917	800.000	0.104	0.367
-239.903	55.191	0.235	-0.227
-238.888	-4.110	0.108	0.075
-237.873	19.287	0.282	0.227
-236.859	641.510	0.109	0.278
-235.844	-141.890	0.203	-0.020
-234.830	-96.780	0.359	-0.095
-233.815	150.544	-0.147	-0.200
-232.800	-124.571	-0.116	-0.018
-231.786	217.025	0.173	0.276
-230.771	-200.000	0.045	0.202
-229.757	-74.599	-0.129	0.047
-228.742	-23.978	-0.093	0.056
-227.727	-98.670	0.101	0.026
-226.713	96.803	0.090	-0.104
-225.698	-121.099	-0.137	-0.023
-224.684	-200.000	0.023	0.234
-223.669	-126.802	0.508	-0.075
-222.655	-154.439	-0.027	-0.002
-221.640	800.000	0.028	0.099
-220.625	-141.808	0.263	-0.026
-219.611	-122.268	0.468	-0.077
-218.596	-147.512	-0.136	-0.011
-217.582	-144.352	0.187	-0.017
-216.567	-103.082	-0.249	0.059
-215.552	162.218	-0.011	0.016
-214.538	527.991	0.021	0.050
-213.523	632.543	0.088	0.224
-212.509	-71.643	0.046	-0.017
-211.494	-34.527	0.085	-0.047
-210.479	337.810	-0.122	-0.238
-209.465	-39.931	0.087	0.046
-208.450	-122.479	0.232	-0.038
-207.436	-54.415	-0.428	-0.195
-206.421	800.000	0.048	-0.179
-205.406	14.615	0.131	0.102
-204.392	-200.000	-0.019	0.096
-203.377	-87.917	0.084	-0.025
-202.363	-200.000	0.011	0.179
-201.348	-141.873	-0.156	-0.016
-200.333	-182.950	-0.072	0.001
-199.319	-130.525	0.178	-0.024
-198.304	650.780	0.019	-0.048
-197.290	-200.000	0.000	0.139
-196.275	-188.013	-0.456	0.006
-195.260	761.770	-0.129	-0.351
-194.246	-200.000	0.033	0.340
-193.231	800.000	-0.027	0.104
-192.217	-190.925	0.335	0.004
-191.202	-43.390	-0.079	-0.040
-190.187	-176.841	-0.078	-0.002
-189.173	112.684	0.127	0.154
-188.158	-200.000	-0.052	0.254
-187.144	367.640	-0.074	-0.150
-186.129	-121.509	0.129	-0.021
-185.114	493.544	0.151	0.347
-184.100	340.494	-0.011	0.021
-183.085	420.482	0.122	-0.261
-182.071	582.545	0.075	-0.185
-181.056	-200.000	0.015	-0.119
-180.042	80.087	0.022	-0.024
-179.027	-109.505	0.416	-0.088
-178.012	-11.071	0.198	-0.131
-176.998	-109.082	-0.300	-0.064
-175.983	-98.779	0.123	-0.031
-174.969	788.935	-0.060	-0.165
-173.954	-183.826	0.501	-0.008
-172.939	329.055	0.149	-0.287
-171.925	793.129	-0.084	-0.230
-170.910	800.000	-0.078	0.281
-169.896	-21.491	-0.102	0.062
-168.881	41.909	0.260	0.236
-167.866	-131.688	0.117	0.015
-166.852	-200.000	0.029	-0.230
-165.837	800.000	0.044	0.193
-164.823	-72.048	0.418	0.155
-163.808	55.957	-0.216	-0.209
-162.793	-12.565	0.115	0.075
-161.779	-65.216	0.313	0.126
-160.764	-123.257	0.277	-0.044
-159.750	-200.000	0.035	0.387
-158.735	-200.000	-0.004	-0.315
-157.720	-200.000	0.009	0.235
-156.706	243.691	-0.072	0.121
-155.691	-200.000	0.032	-0.217
-154.677	78.830	-0.346	-0.370
-153.662	-200.000	-0.029	0.197
-152.647	-3.149	0.161	-0.112
-151.633	-12.231	0.251	0.164
-150.618	-200.000	0.023	0.113
-149.604	-164.350	-0.118	-0.005
-148.589	-57.226	-0.144	-0.063
-147.574	243.994	0.359	0.602
-146.560	-75.658	0.281	-0.100
-145.545	229.741	-0.033	-0.054
-144.531	113.090	0.095	0.116
-143.516	-200.000	-0.010	0.097
-142.502	-30.700	0.177	0.100
-141.487	417.218	0.085	0.180
-140.472	-200.000	0.059	0.580
-139.458	210.654	-0.036	-0.056
-138.443	53.908	-0.151	-0.145
-137.429	136.224	0.136	0.177
-136.414	52.206	0.087	0.083
-135.399	378.290	0.096	0.197
-134.385	210.770	-0.054	-0.085
-133.370	-38.145	-0.321	-0.170
-132.356	-12.039	0.060	0.039
-131.341	-61.622	0.176	-0.074
-130.326	136.022	-0.040	-0.053
-129.312	199.855	-0.039	0.060
-128.297	800.000	0.076	-0.239
-127.283	542.741	0.023	-0.055
-126.268	127.399	-0.130	-0.165
-125.253	-51.395	-0.282	-0.132
-124.239	-192.071	-0.181	0.002
-123.224	800.000	0.177	0.563
-122.210	227.168	0.119	-0.192
-121.195	106.480	-0.181	0.214
