DTS Sentinel unit serial number:	SN413079Multiplexer serial number:	ORYXHardware model number:	OX4-SRSoftware version number:	ORYX F/W v4.00 Oryx Data Collector v3.7.2.0data status	okinstallation	princeton_trtdifferential loss correction	single-endedforward channel	channel 4reverse channel	N/Adate	2019/09/10time	20:23:10forward acquisition time	60.00reverse acquisition time	0.00gamma	496.2192k internal	0.2312k external	0.2312temperature offset calibration	0.9946default loss term (dB/km)	0.3790temperature slope calibration	1.0000multiplexer offset coefficient	1.0000multiplexer slope coefficient	1.0000fibre end	0.00T internal ref (°C)	32.12T ext. ref 1 (°C)	-0.31T ext. ref 2 (°C)	25.22length (m)	temperature (°C)	Stokes	anti-Stokes-747.200	251.569	0.026	0.045
-746.185	-200.000	0.019	0.353
-745.171	-44.058	0.458	-0.233
-744.156	255.914	-0.157	0.273
-743.142	135.700	-0.025	0.033
-742.127	464.806	-0.048	0.109
-741.112	-200.000	0.246	0.000
-740.098	-200.000	-0.008	-0.241
-739.083	-200.000	0.080	0.481
-738.069	-200.000	0.000	0.317
-737.054	800.000	0.012	0.051
-736.039	-71.550	0.058	0.022
-735.025	-200.000	0.076	0.466
-734.010	-3.077	-0.279	-0.198
-732.996	-200.000	-0.041	0.231
-731.981	-200.000	-0.028	-0.140
-730.966	-44.018	-0.084	0.043
-729.952	-92.720	-0.116	0.033
-728.937	-200.000	-0.084	0.411
-727.923	800.000	0.014	-0.058
-726.908	385.670	-0.172	-0.360
-725.894	462.461	-0.107	-0.242
-724.879	-47.437	-0.384	-0.189
-723.864	186.482	-0.073	0.111
-722.850	-200.000	0.038	0.526
-721.835	800.000	-0.155	0.574
-720.821	157.059	-0.034	-0.048
-719.806	124.700	-0.171	-0.219
-718.791	131.755	-0.117	-0.153
-717.777	-127.243	0.054	-0.008
-716.762	-36.899	-0.005	0.003
-715.748	-140.709	-0.265	-0.028
-714.733	38.903	0.297	0.269
-713.718	-93.052	0.246	0.069
-712.704	-145.445	0.265	0.024
-711.689	10.927	-0.181	0.140
-710.675	54.559	0.153	-0.150
-709.660	97.443	-0.140	-0.163
-708.645	22.446	-0.261	-0.216
-707.631	-112.590	0.061	-0.012
-706.616	278.029	-0.135	-0.244
-705.602	-54.485	0.209	0.096
-704.587	-93.058	0.270	-0.076
-703.572	43.639	0.293	0.272
-702.558	-71.349	0.146	0.055
-701.543	39.179	0.178	0.161
-700.529	374.993	-0.044	0.090
-699.514	-84.340	0.168	-0.054
-698.499	-200.000	0.040	-0.223
-697.485	-200.000	-0.067	-0.415
-696.470	87.628	-0.025	0.029
-695.456	-23.911	-0.237	0.143
-694.441	291.790	-0.009	-0.017
-693.426	34.652	-0.163	0.144
-692.412	737.005	0.078	0.210
-691.397	-200.000	0.017	-0.108
-690.383	-88.994	-0.463	0.139
-689.368	22.923	-0.201	0.167
-688.354	-121.585	-0.224	0.038
-687.339	-118.398	-0.289	0.052
-686.324	-17.270	0.353	0.225
-685.310	800.000	-0.017	0.049
-684.295	-95.682	-0.187	0.051
-683.281	-9.846	0.217	-0.146
-682.266	223.216	0.122	0.199
-681.251	-54.924	0.211	0.096
-680.237	-200.000	-0.021	-0.206
-679.222	206.852	-0.064	0.102
-678.208	746.877	-0.138	0.377
-677.193	86.226	0.081	0.090
-676.178	-67.390	-0.318	0.126
-675.164	-152.814	0.194	0.014
-674.149	-200.000	0.011	-0.134
-673.135	-200.000	-0.005	-0.094
-672.120	-55.287	-0.148	-0.067
-671.105	-97.159	-0.253	-0.067
-670.091	-143.373	0.130	-0.013
-669.076	-200.000	0.007	-0.089
-668.062	800.000	0.059	0.202
-667.047	125.056	-0.126	-0.161
-666.032	30.265	0.135	-0.117
-665.018	-75.276	-0.087	0.031
-664.003	-200.000	-0.009	-0.234
-662.989	-11.368	-0.369	-0.246
-661.974	-86.549	-0.247	0.076
-660.959	-200.000	-0.034	0.245
-659.945	-8.711	0.183	-0.124
-658.930	54.157	0.151	0.147
-657.916	276.735	-0.124	-0.222
-656.901	-200.000	-0.013	-0.280
-655.886	800.000	-0.028	-0.108
-654.872	800.000	-0.066	-0.199
-653.857	186.069	-0.254	-0.382
-652.843	40.522	-0.055	0.050
-651.828	-88.722	0.281	0.084
-650.814	40.123	0.150	0.137
-649.799	402.409	0.064	-0.136
-648.784	140.613	-0.073	-0.098
-647.770	180.543	-0.028	0.042
-646.755	200.696	-0.100	-0.155
-645.741	-135.476	-0.080	0.010
-644.726	800.000	-0.079	0.300
-643.711	249.443	-0.034	-0.058
-642.697	122.361	-0.118	-0.148
-641.682	-200.000	-0.007	-0.178
-640.668	-57.145	-0.198	-0.088
-639.653	-200.000	-0.014	-0.184
-638.638	-10.333	-0.066	0.044
-637.624	-10.011	0.186	-0.125
-636.609	-81.192	-0.155	0.052
-635.595	-200.000	0.021	-0.170
-634.580	184.957	-0.101	-0.151
-633.565	800.000	0.049	-0.146
-632.551	88.739	0.151	-0.170
-631.536	23.832	0.263	-0.219
-630.522	-35.415	-0.347	0.191
-629.507	49.525	0.221	0.210
-628.492	-200.000	0.013	-0.206
-627.478	-16.296	0.215	-0.138
-626.463	-200.000	0.040	0.311
-625.449	-47.858	-0.334	-0.163
-624.434	121.312	-0.166	0.208
-623.419	-96.355	-0.289	-0.077
-622.405	475.431	-0.090	0.205
-621.390	-83.876	-0.186	0.060
-620.376	462.912	0.156	-0.352
-619.361	-91.558	0.198	0.057
-618.346	-101.448	0.111	-0.027
-617.332	800.000	-0.095	0.322
-616.317	186.972	0.197	-0.296
-615.303	-86.163	-0.288	-0.090
-614.288	-200.000	0.024	0.149
-613.273	-32.248	0.102	0.058
-612.259	-200.000	-0.005	-0.073
-611.244	-133.059	0.111	-0.014
-610.230	-72.799	0.223	0.083
-609.215	-94.045	0.241	0.067
-608.201	389.837	0.051	-0.106
-607.186	-200.000	0.014	0.200
-606.171	-56.816	0.093	0.042
-605.157	800.000	-0.048	-0.192
-604.142	-131.566	-0.254	0.034
-603.128	-3.346	-0.282	0.198
-602.113	-108.461	0.370	0.080
-601.098	-28.507	0.263	-0.153
-600.084	-200.000	0.016	-0.345
-599.069	-6.090	0.299	0.206
-598.055	800.000	0.051	0.159
-597.040	-60.395	0.168	-0.072
-596.025	-143.856	0.210	0.020
-595.011	-10.744	0.126	-0.084
-593.996	-64.928	0.239	0.098
-592.982	189.119	0.196	0.296
-591.967	84.403	0.092	-0.101
-590.952	24.862	-0.103	0.086
-589.938	800.000	0.024	0.103
-588.923	800.000	0.065	-0.185
-587.909	755.221	-0.100	0.272
-586.894	-200.000	-0.015	-0.137
-585.879	-63.443	0.318	0.132
-584.865	-21.111	-0.298	0.184
-583.850	-78.491	-0.060	0.021
-582.836	-13.372	-0.134	-0.088
-581.821	-136.106	0.069	-0.008
-580.806	87.843	-0.153	0.170
-579.792	-200.000	0.003	0.074
-578.777	-174.435	-0.056	0.002
-577.763	238.391	0.241	-0.404
-576.748	9.368	-0.300	-0.229
-575.733	-156.975	0.354	-0.022
-574.719	142.680	-0.141	-0.189
-573.704	-55.747	0.111	0.050
-572.690	280.706	0.089	0.160
-571.675	714.575	-0.098	0.263
-570.661	-169.016	-0.173	0.007
-569.646	75.969	-0.128	0.136
-568.631	-200.000	-0.004	0.046
-567.617	-161.611	0.153	-0.008
-566.602	221.308	-0.119	0.192
-565.588	-149.117	0.222	-0.018
-564.573	800.000	-0.132	-0.410
-563.558	800.000	-0.027	0.096
-562.544	132.775	-0.135	0.175
-561.529	-200.000	0.045	-0.284
-560.515	-200.000	-0.009	0.126
-559.500	-166.566	-0.347	-0.015
-558.485	127.154	-0.286	0.366
-557.471	121.605	0.081	-0.102
-556.456	400.508	0.115	-0.244
-555.442	-6.993	-0.191	-0.130
-554.427	-1.723	-0.141	0.100
-553.412	-46.025	0.228	0.113
-552.398	49.863	-0.174	0.165
-551.383	78.994	0.082	0.089
-550.369	-41.544	-0.066	0.034
-549.354	77.798	-0.149	-0.160
-548.339	40.759	0.206	-0.188
-547.325	77.989	-0.218	-0.234
-546.310	-200.000	0.038	-0.197
-545.296	800.000	0.054	-0.226
-544.281	800.000	-0.087	0.364
-543.266	279.357	0.183	0.329
-542.252	800.000	-0.073	-0.262
-541.237	141.304	-0.102	-0.136
-540.223	-87.069	0.298	-0.091
-539.208	800.000	-0.083	0.281
-538.193	197.341	-0.333	0.511
-537.179	-200.000	-0.027	0.377
-536.164	-124.987	-0.116	0.018
-535.150	-14.407	-0.186	0.120
-534.135	800.000	-0.049	-0.141
-533.121	80.501	0.078	-0.084
-532.106	-200.000	-0.049	-0.279
-531.091	52.597	0.294	-0.283
-530.077	-16.607	0.126	-0.080
-529.062	-138.869	-0.191	-0.021
-528.048	45.734	0.229	-0.213
-527.033	800.000	0.074	0.214
-526.018	368.829	0.114	-0.232
-525.004	-80.849	-0.133	0.044
-523.989	-200.000	0.007	0.157
-522.975	-200.000	0.022	0.183
-521.960	-61.577	0.141	-0.060
-520.945	131.154	0.095	-0.123
-519.931	800.000	0.052	-0.195
-518.916	443.591	-0.049	-0.108
-517.902	231.265	0.215	-0.354
-516.887	580.907	0.031	0.077
-515.872	-200.000	-0.014	-0.221
-514.858	-15.356	0.044	0.028
-513.843	17.616	-0.033	0.026
-512.829	386.372	0.067	-0.140
-511.814	-31.581	0.185	0.104
-510.799	91.814	0.138	0.156
-509.785	-200.000	-0.047	0.271
-508.770	800.000	0.138	-0.399
-507.756	-200.000	0.080	0.405
-506.741	385.770	-0.086	0.179
-505.726	255.903	0.055	0.095
-504.712	686.238	0.075	-0.196
-503.697	-56.015	0.060	-0.027
-502.683	-52.752	0.026	-0.012
-501.668	50.964	-0.270	-0.257
-500.653	-154.648	-0.275	-0.018
-499.639	800.000	0.043	0.133
-498.624	-32.439	0.107	-0.060
-497.610	486.576	-0.097	0.221
-496.595	55.332	-0.216	-0.210
-495.581	-32.036	0.004	-0.002
-494.566	284.634	0.142	0.256
-493.551	-139.423	-0.224	0.024
-492.537	-97.641	-0.188	0.049
-491.522	258.045	-0.103	-0.178
-490.508	265.209	0.106	-0.185
-489.493	127.653	0.149	0.190
-488.478	72.279	-0.363	0.379
-487.464	800.000	-0.048	-0.169
-486.449	27.598	0.230	0.194
-485.435	-55.838	-0.251	0.113
-484.420	154.021	0.082	0.113
-483.405	-41.102	0.310	0.161
-482.391	-28.682	-0.170	-0.098
-481.376	661.351	0.067	-0.173
-480.362	261.539	0.068	-0.118
-479.347	-70.261	0.197	0.075
-478.332	69.699	-0.030	0.031
-477.318	-40.840	0.402	-0.209
-476.303	-200.000	-0.535	0.002
-475.289	800.000	0.050	0.152
-474.274	-200.000	-0.047	-0.324
-473.259	-200.000	-0.044	-0.197
-472.245	527.645	-0.178	0.422
-471.230	-118.787	-0.466	0.082
-470.216	-30.873	0.179	-0.101
-469.201	800.000	-0.100	0.278
-468.186	-50.881	0.107	0.051
-467.172	242.080	-0.105	-0.176
-466.157	-200.000	-0.014	0.111
-465.143	116.965	-0.250	-0.309
-464.128	-45.833	-0.176	0.087
-463.113	-57.740	0.192	-0.084
-462.099	66.385	-0.083	0.084
-461.084	-76.113	0.066	-0.023
-460.070	-200.000	0.037	0.181
-459.055	-139.370	-0.401	-0.043
-458.040	130.582	-0.099	-0.128
-457.026	-170.500	-0.191	-0.007
-456.011	29.026	0.167	0.142
-454.997	80.073	0.126	-0.136
-453.982	209.230	0.165	-0.260
-452.968	-30.584	-0.086	0.049
-451.953	800.000	-0.068	-0.296
-450.938	432.194	0.144	-0.313
-449.924	93.565	-0.313	0.356
-448.909	129.175	0.191	0.245
-447.895	-79.306	-0.012	0.004
-446.880	-200.000	-0.024	-0.164
-445.865	-28.391	0.139	-0.080
-444.851	-89.445	0.152	0.045
-443.836	-139.973	0.142	0.015
-442.822	-117.679	-0.364	-0.066
-441.807	78.410	-0.121	0.129
-440.792	-0.994	-0.286	0.203
-439.778	-99.145	0.307	0.078
-438.763	18.774	0.025	-0.020
-437.749	413.477	-0.092	0.196
-436.734	-11.365	0.148	-0.098
-435.719	228.517	0.223	-0.365
-434.705	-121.416	0.078	0.013
-433.690	21.690	0.136	-0.111
-432.676	-46.722	-0.114	0.056
-431.661	-165.141	0.133	0.006
-430.646	-134.678	0.089	0.011
-429.632	-51.230	0.218	-0.102
-428.617	-16.297	0.273	-0.173
-427.603	800.000	0.026	0.098
-426.588	-200.000	0.059	0.359
-425.573	-200.000	0.017	-0.168
-424.559	302.021	0.086	-0.159
-423.544	20.580	-0.396	-0.321
-422.530	780.347	0.076	-0.209
-421.515	-153.093	-0.024	-0.002
-420.500	-87.819	-0.461	0.139
-419.486	-108.996	-0.208	-0.044
-418.471	-200.000	0.024	0.433
-417.457	-200.000	0.078	-0.419
-416.442	800.000	0.103	-0.295
-415.428	31.608	-0.217	-0.187
-414.413	167.983	-0.094	-0.134
-413.398	-78.928	-0.183	0.062
-412.384	-115.452	-0.273	-0.051
-411.369	-48.732	0.201	-0.097
-410.355	-200.000	-0.012	0.058
-409.340	-134.958	0.425	0.051
-408.325	-122.428	0.366	-0.060
-407.311	-78.635	-0.257	0.088
-406.296	46.330	0.105	-0.098
-405.282	76.477	-0.054	-0.058
-404.267	-200.000	-0.001	-0.173
-403.252	-44.944	-0.073	-0.037
-402.238	-68.760	0.168	0.065
-401.223	-129.809	-0.018	0.002
-400.209	135.138	-0.152	-0.198
-399.194	-200.000	-0.026	0.401
-398.179	-200.000	0.057	0.307
-397.165	-200.000	0.010	0.178
-396.150	124.504	0.126	0.159
-395.136	-4.003	0.118	-0.082
-394.121	366.358	-0.110	0.222
-393.106	123.714	-0.251	0.316
-392.092	-66.904	0.185	0.073
-391.077	-40.606	0.140	0.073
-390.063	161.209	0.165	0.231
-389.048	588.978	0.021	0.053
-388.033	-137.764	-0.240	0.027
-387.019	-35.626	0.271	0.147
-386.004	-200.000	0.057	-0.270
-384.990	656.201	0.032	0.082
-383.975	-16.856	-0.234	-0.148
-382.960	-20.920	-0.183	0.112
-381.946	-113.939	0.165	0.032
-380.931	46.706	-0.261	0.243
-379.917	245.401	0.100	-0.169
-378.902	-200.000	0.051	0.236
-377.888	-70.713	0.326	0.123
-376.873	-22.206	0.196	-0.119
-375.858	77.055	-0.166	-0.176
-374.844	42.155	0.215	-0.195
-373.829	-200.000	-0.014	0.142
-372.815	19.884	-0.319	-0.257
-371.800	800.000	-0.038	0.157
-370.785	184.848	-0.034	-0.050
-369.771	-52.295	-0.054	-0.025
-368.756	371.639	0.076	0.155
-367.742	800.000	0.048	-0.174
-366.727	-200.000	-0.006	0.135
-365.712	570.986	-0.054	0.131
-364.698	94.868	0.106	-0.120
-363.683	-7.694	0.110	0.074
-362.669	10.346	0.231	0.176
-361.654	-40.591	-0.052	-0.027
-360.639	-107.440	-0.317	0.069
-359.625	-107.101	0.116	0.026
-358.610	-29.531	0.052	-0.030
-357.596	-200.000	-0.038	-0.181
-356.581	-98.415	-0.146	-0.037
-355.566	-45.039	-0.143	0.071
-354.552	710.415	-0.052	0.137
-353.537	-120.125	0.109	-0.019
-352.523	15.934	-0.176	0.138
-351.508	-51.675	-0.126	0.059
-350.493	29.470	-0.339	-0.288
-349.479	800.000	-0.073	-0.250
-348.464	-60.031	-0.055	0.023
-347.450	25.846	-0.180	0.150
-346.435	-93.453	-0.175	-0.049
-345.420	-149.884	0.356	0.028
-344.406	148.730	-0.152	-0.205
-343.391	23.877	0.093	0.077
-342.377	-103.319	0.411	-0.097
-341.362	-68.945	-0.377	-0.145
-340.348	-117.482	0.436	-0.079
-339.333	341.927	0.130	0.254
-338.318	800.000	-0.037	0.138
-337.304	63.113	0.021	-0.021
-336.289	-43.825	-0.237	-0.119
-335.275	-81.468	0.373	0.123
-334.260	-85.672	-0.062	-0.019
-333.245	-143.525	0.093	0.009
-332.231	100.726	0.052	0.061
-331.216	-200.000	0.014	0.184
-330.202	-8.601	-0.147	-0.099
-329.187	716.739	0.047	-0.123
-328.172	149.686	-0.079	0.107
-327.158	215.522	0.117	-0.185
-326.143	-89.434	0.207	0.061
-325.129	-181.601	-0.214	0.004
-324.114	510.094	0.037	-0.086
-323.099	-113.243	0.282	0.055
-322.085	-132.430	-0.154	0.020
-321.070	327.571	-0.096	0.183
-320.056	2.758	0.206	-0.149
-319.041	800.000	-0.069	-0.273
-318.026	325.489	0.128	0.245
-317.012	277.644	-0.184	0.326
-315.997	-200.000	0.011	-0.115
-314.983	-200.000	-0.017	-0.177
-313.968	-170.790	-0.193	0.007
-312.953	283.218	0.113	-0.203
-311.939	20.559	0.193	-0.156
-310.924	118.638	0.105	0.129
-309.910	-117.496	-0.182	-0.033
-308.895	-143.933	0.309	-0.029
-307.880	-55.397	-0.092	0.041
-306.866	-130.687	-0.193	-0.026
-305.851	199.351	0.068	-0.104
-304.837	64.296	0.070	-0.070
-303.822	-80.008	0.104	0.035
-302.807	435.726	0.074	-0.161
-301.793	800.000	-0.137	0.417
-300.778	-47.819	-0.250	-0.121
-299.764	35.807	0.111	-0.097
-298.749	96.430	-0.206	-0.235
-297.735	-12.446	0.244	-0.159
-296.720	418.699	0.151	0.322
-295.705	573.651	0.076	0.184
-294.691	-73.193	0.294	0.107
-293.676	800.000	-0.033	-0.137
-292.662	545.284	0.024	-0.058
-291.647	800.000	0.037	0.132
-290.632	800.000	0.089	-0.359
-289.618	-171.529	-0.127	-0.004
-288.603	-6.664	0.137	0.093
-287.589	206.004	0.090	-0.140
-286.574	-25.169	-0.231	0.136
-285.559	565.266	-0.085	-0.206
-284.545	-96.542	0.182	0.048
-283.530	-200.000	0.013	0.105
-282.516	-200.000	0.020	0.096
-281.501	57.292	0.174	-0.169
-280.486	126.312	-0.054	0.068
-279.472	-200.000	0.009	0.070
-278.457	-78.503	-0.170	0.058
-277.443	47.181	-0.200	0.186
-276.428	31.792	-0.185	-0.159
-275.413	-25.509	0.287	-0.169
-274.399	-28.963	0.240	0.138
-273.384	49.154	-0.194	-0.182
-272.370	800.000	-0.104	-0.330
-271.355	-200.000	0.043	-0.298
-270.340	-200.000	-0.020	0.203
-269.326	266.623	0.078	-0.136
-268.311	-98.566	0.161	-0.041
-267.297	800.000	-0.082	0.234
-266.282	-185.214	0.249	0.004
-265.267	-200.000	-0.029	0.319
-264.253	443.203	-0.080	0.175
-263.238	26.952	0.060	0.050
-262.224	33.282	-0.072	0.062
-261.209	381.400	-0.091	0.186
-260.195	-89.134	-0.240	-0.071
-259.180	55.310	-0.060	0.058
-258.165	621.300	-0.144	0.361
-257.151	258.178	-0.189	-0.324
-256.136	162.978	0.102	0.143
-255.122	36.293	-0.298	0.261
-254.107	104.410	-0.177	0.207
-253.092	487.847	-0.065	-0.148
-252.078	-74.084	-0.222	0.080
-251.063	94.404	-0.087	0.099
-250.049	-105.792	0.601	-0.135
-249.034	138.356	0.041	0.053
-248.019	-68.751	-0.381	0.147
-247.005	-22.682	-0.033	0.020
-245.990	800.000	0.034	-0.140
-244.976	-43.973	0.076	0.038
-243.961	-200.000	-0.016	-0.170
-242.946	-84.552	-0.053	-0.017
-241.932	-106.353	-0.308	-0.068
-240.917	-196.066	0.026	-0.000
-239.903	-130.040	0.228	-0.031
-238.888	461.902	-0.086	-0.190
-237.873	270.739	0.158	-0.277
-236.859	52.535	0.198	-0.188
-235.844	16.081	-0.165	0.129
-234.830	10.104	0.094	0.071
-233.815	-26.171	-0.154	-0.090
-232.800	-200.000	0.002	0.144
-231.786	-73.292	-0.113	-0.041
-230.771	88.562	-0.099	0.109
-229.757	50.923	0.137	0.129
-228.742	257.253	0.030	-0.052
-227.727	416.678	0.114	0.242
-226.713	-18.637	-0.166	0.103
-225.698	135.099	-0.136	0.176
-224.684	424.990	-0.041	0.089
-223.669	-71.298	-0.238	-0.089
-222.655	800.000	-0.052	-0.214
-221.640	-200.000	0.001	0.053
-220.625	186.393	-0.057	0.085
-219.611	238.838	-0.128	0.211
-218.596	-200.000	-0.032	0.206
-217.582	233.565	0.062	-0.102
-216.567	44.042	-0.046	-0.042
-215.552	-2.130	0.130	-0.090
-214.538	130.365	0.092	-0.117
-213.523	254.295	0.194	-0.330
-212.509	-200.000	0.026	-0.357
-211.494	794.231	0.010	0.028
-210.479	640.723	0.042	-0.107
-209.465	-59.874	0.252	-0.107
-208.450	-28.240	0.253	-0.145
-207.436	-12.038	-0.177	0.115
-206.421	-151.099	0.256	0.019
-205.406	-42.829	0.136	0.069
-204.392	328.120	0.076	0.146
-203.377	-152.621	0.351	0.025
-202.363	800.000	0.045	-0.157
-201.348	-137.033	-0.335	0.038
-200.333	110.172	-0.212	0.253
-199.319	-1.524	0.200	0.140
-198.304	181.142	-0.226	0.329
-197.290	-200.000	0.035	0.232
-196.275	-147.304	-0.250	-0.021
-195.260	800.000	-0.132	-0.400
-194.246	-9.115	0.196	-0.130
-193.231	800.000	0.052	0.175
-192.217	3.823	0.161	0.116
-191.202	79.624	-0.261	-0.278
-190.187	800.000	-0.016	-0.062
-189.173	-31.175	-0.279	0.156
-188.158	-200.000	0.031	0.203
-187.144	-29.921	0.181	-0.102
-186.129	-200.000	0.002	-0.369
-185.114	800.000	0.035	0.135
-184.100	324.637	-0.068	0.130
-183.085	146.178	-0.080	-0.106
-182.071	-200.000	-0.004	-0.116
-181.056	-26.044	0.288	-0.168
-180.042	800.000	-0.038	0.164
-179.027	800.000	-0.100	0.352
-178.012	-157.811	0.271	0.016
-176.998	216.918	-0.179	0.283
-175.983	-200.000	-0.005	-0.159
-174.969	-200.000	0.009	0.086
-173.954	54.483	0.044	-0.042
-172.939	-40.222	-0.179	0.092
-171.925	-200.000	0.001	0.069
-170.910	280.866	0.028	-0.050
-169.896	298.276	-0.137	-0.250
-168.881	-119.421	-0.389	-0.067
-167.866	800.000	-0.061	-0.181
-166.852	-141.029	0.058	-0.006
-165.837	7.370	0.176	0.131
-164.823	-135.154	0.454	-0.054
-163.808	-200.000	0.005	0.054
-162.793	619.605	0.075	0.186
-161.779	356.151	0.059	0.116
-160.764	-4.645	0.239	-0.164
-159.750	-121.309	-0.321	0.053
-158.735	345.198	-0.227	0.443
-157.720	-132.245	-0.235	-0.030
-156.706	-171.410	0.049	0.002
-155.691	800.000	-0.057	0.165
-154.677	800.000	0.039	-0.166
-153.662	243.449	0.231	-0.384
-152.647	-45.159	0.082	-0.040
-151.633	-31.089	0.235	0.132
-150.618	-128.601	0.159	0.022
-149.604	426.007	0.173	-0.369
-148.589	-79.750	0.261	0.087
-147.574	-181.677	-0.107	0.002
-146.560	59.506	0.026	0.026
-145.545	-200.000	0.046	0.249
-144.531	-200.000	-0.010	0.262
-143.516	-200.000	-0.012	0.235
-142.502	-110.882	0.248	0.051
-141.487	-40.089	-0.187	0.097
-140.472	-200.000	-0.021	0.132
-139.458	-61.074	-0.292	-0.122
-138.443	-200.000	0.003	0.056
-137.429	-95.453	-0.299	-0.079
-136.414	-200.000	0.024	0.119
-135.399	800.000	-0.140	0.445
-134.385	-98.235	-0.073	0.019
-133.370	-200.000	-0.123	-0.585
-132.356	-42.067	-0.263	0.133
-131.341	-131.757	0.213	0.028
-130.326	-200.000	0.002	-0.097
-129.312	-37.353	0.128	-0.067
-128.297	-200.000	0.012	0.143
-127.283	-155.573	0.399	0.025
-126.268	494.325	0.081	-0.184
-125.253	-19.687	0.127	-0.078
-124.239	53.568	-0.063	0.060
-123.224	-200.000	0.006	-0.114
-122.210	-68.351	-0.125	0.048
-121.195	-200.000	-0.082	0.360
-120.180	31.273	-0.078	-0.066
