DTS Sentinel unit serial number:	SN413079Multiplexer serial number:	ORYXHardware model number:	OX4-SRSoftware version number:	ORYX F/W v4.00 Oryx Data Collector v3.7.2.0data status	okinstallation	princeton_trtdifferential loss correction	single-endedforward channel	channel 4reverse channel	N/Adate	2019/09/19time	04:01:34forward acquisition time	60.00reverse acquisition time	0.00gamma	496.2192k internal	0.2340k external	0.2340temperature offset calibration	1.0028default loss term (dB/km)	0.3790temperature slope calibration	1.0000multiplexer offset coefficient	1.0000multiplexer slope coefficient	1.0000fibre end	0.00T internal ref (°C)	20.42T ext. ref 1 (°C)	0.64T ext. ref 2 (°C)	14.03length (m)	temperature (°C)	Stokes	anti-Stokes-747.200	29.492	0.096	0.082
-746.185	-157.869	0.268	0.016
-745.171	24.969	-0.262	-0.218
-744.156	202.965	0.251	0.389
-743.142	-4.029	0.248	0.172
-742.127	271.066	-0.160	0.282
-741.112	-71.861	-0.224	0.083
-740.098	-20.265	0.142	-0.087
-739.083	-200.000	-0.006	0.448
-738.069	176.260	-0.100	-0.146
-737.054	-166.615	-0.242	0.010
-736.039	-196.862	-0.446	-0.003
-735.025	431.654	-0.101	0.220
-734.010	-88.662	-0.223	-0.066
-732.996	46.705	0.189	-0.176
-731.981	-45.839	-0.074	-0.037
-730.966	-89.177	0.102	-0.030
-729.952	-136.714	-0.184	-0.021
-728.937	800.000	0.093	-0.341
-727.923	-115.216	-0.403	0.077
-726.908	12.216	0.160	-0.123
-725.894	-8.597	-0.067	0.045
-724.879	68.839	0.184	-0.190
-723.864	-200.000	-0.029	-0.195
-722.850	-200.000	0.030	0.200
-721.835	-189.934	-0.187	0.002
-720.821	116.535	0.088	-0.108
-719.806	-200.000	0.021	0.306
-718.791	-10.564	-0.060	-0.040
-717.777	-114.826	-0.321	0.061
-716.762	339.505	0.158	0.308
-715.748	-30.148	-0.056	0.032
-714.733	-186.681	-0.431	-0.006
-713.718	-155.239	0.169	0.011
-712.704	-177.262	0.138	-0.003
-711.689	66.939	-0.331	0.338
-710.675	196.764	0.231	0.353
-709.660	-143.127	-0.140	0.014
-708.645	295.163	-0.125	-0.229
-707.631	-97.773	-0.387	-0.100
-706.616	800.000	-0.048	0.141
-705.602	225.739	-0.134	-0.218
-704.587	152.147	-0.207	-0.283
-703.572	195.207	0.053	-0.080
-702.558	620.421	-0.079	0.198
-701.543	40.149	-0.040	-0.036
-700.529	-155.741	0.257	-0.016
-699.514	-72.492	-0.244	-0.090
-698.499	76.271	-0.085	-0.090
-697.485	173.870	-0.220	-0.317
-696.470	-49.068	0.292	-0.140
-695.456	-58.205	0.445	0.194
-694.441	-200.000	-0.011	0.060
-693.426	93.292	0.068	0.077
-692.412	-200.000	-0.018	-0.230
-691.397	-200.000	-0.029	0.165
-690.383	21.759	-0.069	-0.056
-689.368	-52.428	0.317	-0.147
-688.354	-200.000	-0.024	-0.211
-687.339	-200.000	-0.053	0.324
-686.324	800.000	-0.052	-0.176
-685.310	-136.169	0.052	-0.006
-684.295	35.203	-0.154	-0.135
-683.281	-108.263	0.385	-0.083
-682.266	483.349	0.085	-0.192
-681.251	-152.769	-0.103	0.007
-680.237	800.000	-0.075	-0.286
-679.222	288.183	-0.190	-0.345
-678.208	688.664	0.071	0.185
-677.193	-200.000	-0.008	-0.226
-676.178	-46.200	0.114	-0.056
-675.164	-62.909	-0.330	-0.137
-674.149	-11.980	0.141	-0.092
-673.135	54.759	0.110	0.106
-672.120	2.386	0.012	-0.009
-671.105	93.802	-0.158	-0.179
-670.091	-160.600	-0.272	0.015
-669.076	-200.000	0.009	0.146
-668.062	-200.000	0.026	-0.151
-667.047	451.582	0.159	-0.350
-666.032	70.359	-0.167	0.173
-665.018	43.833	0.068	-0.062
-664.003	-200.000	0.062	-0.492
-662.989	498.682	-0.191	0.440
-661.974	452.510	-0.025	-0.056
-660.959	-141.287	-0.507	-0.052
-659.945	-184.879	0.151	-0.002
-658.930	-200.000	0.023	-0.280
-657.916	50.801	0.167	0.158
-656.901	52.821	-0.239	-0.228
-655.886	-84.306	0.119	-0.038
-654.872	641.651	0.034	0.087
-653.857	-200.000	-0.001	0.007
-652.843	-64.901	-0.182	-0.073
-651.828	-23.826	-0.211	0.126
-650.814	-86.864	-0.097	-0.029
-649.799	-200.000	-0.025	-0.222
-648.784	-91.970	0.147	-0.042
-647.770	15.231	-0.036	-0.028
-646.755	228.479	-0.114	-0.185
-645.741	-200.000	-0.015	0.221
-644.726	10.598	-0.172	0.131
-643.711	-200.000	-0.065	0.434
-642.697	800.000	-0.081	0.266
-641.682	-95.642	-0.398	-0.106
-640.668	-200.000	0.011	-0.062
-639.653	-128.689	-0.424	-0.060
-638.638	32.106	-0.068	0.058
-637.624	-93.426	0.135	-0.037
-636.609	-44.382	-0.256	-0.128
-635.595	-109.443	0.059	-0.012
-634.580	-200.000	-0.039	-0.258
-633.565	-119.102	-0.228	-0.040
-632.551	-66.749	-0.389	0.154
-631.536	-200.000	-0.015	-0.244
-630.522	532.207	-0.162	-0.382
-629.507	800.000	0.049	0.201
-628.492	-29.381	0.157	-0.090
-627.478	-128.889	-0.050	-0.007
-626.463	-70.968	-0.312	0.117
-625.449	202.656	0.164	0.252
-624.434	-150.996	0.137	-0.010
-623.419	800.000	0.013	0.041
-622.405	402.365	-0.115	-0.241
-621.390	-9.845	-0.111	0.074
-620.376	52.978	-0.267	0.255
-619.361	27.891	-0.131	0.110
-618.346	377.680	-0.093	0.190
-617.332	800.000	-0.071	-0.303
-616.317	-200.000	0.015	-0.091
-615.303	584.332	0.100	0.245
-614.288	-200.000	-0.025	0.327
-613.273	77.762	-0.076	-0.081
-612.259	-12.067	-0.195	0.128
-611.244	6.344	0.130	-0.096
-610.230	13.672	-0.096	-0.074
-609.215	-200.000	-0.003	0.096
-608.201	-143.370	0.195	-0.019
-607.186	-200.000	0.030	-0.225
-606.171	18.595	0.090	-0.072
-605.157	-74.693	0.299	0.107
-604.142	-200.000	0.002	-0.222
-603.128	-88.160	0.410	-0.122
-602.113	-102.136	0.228	0.055
-601.098	446.303	-0.104	0.228
-600.084	800.000	-0.018	-0.059
-599.069	101.241	0.196	-0.228
-598.055	-173.243	-0.303	0.009
-597.040	165.311	-0.101	-0.143
-596.025	-101.820	0.006	0.002
-595.011	800.000	0.068	0.259
-593.996	539.665	-0.074	0.176
-592.982	-77.733	0.239	-0.082
-591.967	-21.254	0.205	-0.125
-590.952	-79.784	-0.342	0.115
-589.938	-17.446	-0.085	-0.053
-588.923	609.701	0.093	0.233
-587.909	18.678	0.254	0.203
-586.894	124.750	-0.166	-0.208
-585.879	46.027	-0.022	0.020
-584.865	800.000	-0.141	-0.396
-583.850	38.383	0.327	-0.290
-582.836	-163.759	0.095	-0.004
-581.821	500.619	-0.118	-0.272
-580.806	-7.994	0.064	-0.043
-579.792	800.000	0.065	-0.249
-578.777	-35.232	-0.290	-0.157
-577.763	-200.000	0.012	-0.296
-576.748	702.843	-0.135	-0.354
-575.733	98.627	-0.162	-0.187
-574.719	80.532	-0.119	-0.127
-573.704	-137.194	0.307	0.035
-572.690	-71.581	-0.147	-0.055
-571.675	-200.000	-0.045	0.199
-570.661	-75.044	0.279	0.099
-569.646	125.205	0.114	0.143
-568.631	1.344	0.216	-0.155
-567.617	-86.726	-0.309	-0.094
-566.602	-39.705	-0.055	-0.029
-565.588	800.000	0.103	-0.291
-564.573	369.455	-0.167	0.337
-563.558	109.280	-0.265	0.316
-562.544	-200.000	-0.004	0.292
-561.529	45.112	0.248	0.227
-560.515	800.000	0.116	0.344
-559.500	168.085	-0.168	-0.238
-558.485	-200.000	0.010	0.422
-557.471	-200.000	-0.010	0.339
-556.456	256.992	-0.061	0.105
-555.442	800.000	0.051	0.156
-554.427	-96.824	0.205	0.054
-553.412	143.998	-0.027	-0.036
-552.398	-200.000	-0.054	0.341
-551.383	452.996	-0.120	-0.265
-550.369	208.096	0.143	0.223
-549.354	-200.000	-0.024	-0.155
-548.339	800.000	0.026	-0.099
-547.325	800.000	0.065	0.212
-546.310	-154.689	-0.429	-0.028
-545.296	-84.579	0.057	0.018
-544.281	96.993	0.079	0.090
-543.266	472.757	-0.030	0.067
-542.252	-101.313	0.092	-0.022
-541.237	800.000	0.030	0.083
-540.223	-49.179	-0.101	-0.048
-539.208	-128.914	0.247	-0.035
-538.193	-76.206	-0.409	-0.144
-537.179	-0.454	-0.066	-0.047
-536.164	4.917	-0.164	-0.120
-535.150	-40.672	-0.138	-0.071
-534.135	-109.817	-0.238	0.050
-533.121	34.901	0.080	0.070
-532.106	-63.634	-0.150	0.061
-531.091	-156.069	0.293	0.018
-530.077	133.011	-0.097	-0.124
-529.062	-17.948	-0.196	-0.122
-528.048	-94.425	0.196	0.053
-527.033	106.222	0.082	0.097
-526.018	77.454	-0.047	-0.050
-525.004	-200.000	0.039	-0.307
-523.989	800.000	-0.085	0.237
-522.975	-48.015	-0.100	-0.048
-521.960	-168.746	-0.253	-0.010
-520.945	-1.258	-0.080	-0.056
-519.931	-200.000	-0.006	-0.115
-518.916	-200.000	-0.046	0.295
-517.902	-57.639	-0.062	0.027
-516.887	-200.000	-0.001	0.126
-515.872	-200.000	-0.055	0.344
-514.858	171.641	0.086	-0.122
-513.843	66.408	0.270	-0.273
-512.829	145.747	-0.153	0.204
-511.814	19.856	0.080	-0.064
-510.799	-80.685	-0.160	-0.053
-509.785	-200.000	0.039	-0.177
-508.770	800.000	0.021	0.072
-507.756	800.000	-0.068	0.254
-506.741	-200.000	0.007	-0.091
-505.726	-179.854	0.173	0.004
-504.712	17.252	0.189	0.149
-503.697	-74.557	0.196	-0.070
-502.683	-200.000	-0.002	-0.069
-501.668	74.989	0.019	-0.019
-500.653	-95.546	0.161	0.043
-499.639	164.933	-0.103	0.144
-498.624	-153.705	-0.165	-0.011
-497.610	137.621	0.062	0.080
-496.595	-113.808	0.151	0.029
-495.581	35.295	-0.064	0.056
-494.566	359.191	0.123	0.243
-493.551	237.945	-0.020	0.034
-492.537	-200.000	-0.017	-0.221
-491.522	-200.000	-0.016	0.355
-490.508	448.607	0.088	0.191
-489.493	75.982	0.106	-0.111
-488.478	-96.470	-0.446	-0.117
-487.464	485.326	0.124	-0.279
-486.449	258.903	0.071	-0.122
-485.435	-40.850	-0.141	0.073
-484.420	120.929	0.283	-0.349
-483.405	-133.241	-0.396	-0.050
-482.391	-200.000	-0.017	-0.340
-481.376	-200.000	0.054	0.258
-480.362	21.018	-0.118	0.095
-479.347	127.633	0.144	0.181
-478.332	16.956	-0.126	0.099
-477.318	-200.000	-0.006	0.194
-476.303	218.365	-0.210	0.333
-475.289	-200.000	0.015	0.094
-474.274	75.950	-0.113	0.118
-473.259	102.806	-0.194	0.225
-472.245	-200.000	-0.027	-0.178
-471.230	116.563	-0.171	0.208
-470.216	800.000	-0.127	-0.446
-469.201	441.345	-0.043	0.094
-468.186	800.000	0.169	0.464
-467.172	675.416	0.070	0.180
-466.157	166.909	-0.186	-0.262
-465.143	-180.537	-0.094	0.002
-464.128	304.299	0.118	-0.216
-463.113	-82.809	-0.163	-0.052
-462.099	-68.419	0.151	0.058
-461.084	-200.000	-0.048	0.225
-460.070	-19.178	-0.252	-0.155
-459.055	160.068	0.122	0.169
-458.040	81.812	-0.303	-0.325
-457.026	513.484	0.103	-0.238
-456.011	-100.513	-0.175	-0.043
-454.997	190.641	0.143	0.213
-453.982	-113.098	0.388	-0.076
-452.968	-141.231	0.224	0.023
-451.953	639.469	0.033	0.084
-450.938	800.000	0.171	0.622
-449.924	81.983	0.128	0.138
-448.909	-28.509	-0.271	0.155
-447.895	-58.797	-0.327	-0.140
-446.880	251.125	0.105	-0.177
-445.865	27.983	-0.183	0.153
-444.851	214.020	-0.082	-0.128
-443.836	-5.215	0.121	0.082
-442.822	800.000	-0.077	-0.252
-441.807	53.160	0.096	0.091
-440.792	800.000	-0.063	-0.233
-439.778	-149.813	-0.278	-0.022
-438.763	-160.258	-0.091	0.005
-437.749	291.717	-0.204	-0.368
-436.734	-102.927	0.203	0.048
-435.719	390.674	0.042	0.085
-434.705	-7.892	-0.035	0.024
-433.690	68.301	0.205	-0.208
-432.676	-200.000	-0.068	0.373
-431.661	-200.000	0.016	-0.087
-430.646	-200.000	0.036	0.387
-429.632	-99.840	0.335	0.083
-428.617	47.564	0.319	0.295
-427.603	39.861	0.128	0.114
-426.588	52.620	-0.170	0.160
-425.573	689.293	0.110	-0.285
-424.559	-16.446	0.060	-0.038
-423.544	-60.810	-0.257	0.108
-422.530	-82.909	0.124	0.040
-421.515	174.726	-0.082	-0.117
-420.500	800.000	0.038	0.163
-419.486	101.390	-0.132	-0.152
-418.471	-19.055	0.098	-0.060
-417.457	-54.085	0.109	0.049
-416.442	33.876	-0.196	-0.169
-415.428	44.834	0.073	0.067
-414.413	800.000	-0.083	-0.316
-413.398	-200.000	-0.131	0.000
-412.384	764.499	0.122	0.329
-411.369	16.843	0.203	0.159
-410.355	-31.362	0.254	0.142
-409.340	-200.000	-0.045	0.263
-408.325	61.053	-0.056	-0.055
-407.311	-200.000	-0.058	0.329
-406.296	-49.817	0.327	0.154
-405.282	241.655	-0.131	0.217
-404.267	239.736	0.096	-0.158
-403.252	-136.635	0.381	-0.044
-402.238	-65.888	-0.440	0.174
-401.223	39.440	0.309	0.274
-400.209	-200.000	0.038	-0.267
-399.194	-200.000	0.049	0.336
-398.179	49.730	0.193	-0.180
-397.165	137.837	0.047	-0.061
-396.150	355.566	0.092	0.182
-395.136	86.034	0.374	-0.407
-394.121	9.914	-0.165	0.124
-393.106	48.669	-0.100	-0.092
-392.092	-28.480	0.336	0.192
-391.077	-28.399	0.140	0.080
-390.063	-20.742	-0.254	0.154
-389.048	339.274	0.117	-0.226
-388.033	800.000	-0.063	-0.218
-387.019	-200.000	-0.025	-0.177
-386.004	256.441	0.114	-0.193
-384.990	-108.245	0.224	-0.048
-383.975	194.142	0.110	0.165
-382.960	-41.381	0.090	0.046
-381.946	-2.502	-0.149	-0.103
-380.931	-86.837	0.418	0.126
-379.917	-166.110	0.290	-0.012
-378.902	-9.648	0.326	0.215
-377.888	-16.006	-0.050	-0.031
-376.873	-51.673	0.253	0.117
-375.858	-34.242	-0.101	0.055
-374.844	210.704	-0.100	0.156
-373.829	44.632	0.448	-0.407
-372.815	90.567	-0.089	-0.099
-371.800	-37.759	-0.169	0.089
-370.785	0.632	0.182	0.129
-369.771	-90.956	0.211	0.060
-368.756	74.776	-0.115	-0.120
-367.742	800.000	-0.059	-0.187
-366.727	-200.000	0.006	0.102
-365.712	-180.301	0.143	0.003
-364.698	491.532	-0.086	-0.194
-363.683	187.019	0.105	0.154
-362.669	-135.584	-0.264	0.031
-361.654	7.535	-0.330	-0.243
-360.639	-200.000	-0.072	-0.313
-359.625	800.000	-0.014	-0.043
-358.610	72.645	0.053	0.055
-357.596	-39.319	-0.156	-0.081
-356.581	72.372	0.131	0.135
-355.566	800.000	-0.036	-0.143
-354.552	800.000	0.088	0.267
-353.537	45.802	-0.085	0.078
-352.523	225.222	0.052	0.083
-351.508	464.209	0.095	-0.209
-350.493	-45.427	0.140	-0.068
-349.479	-200.000	0.034	-0.158
-348.464	-51.173	-0.229	0.106
-347.450	-11.414	0.186	0.121
-346.435	279.394	0.069	0.122
-345.420	-72.551	-0.265	0.096
-344.406	21.829	0.259	-0.208
-343.391	598.603	-0.064	-0.158
-342.377	-200.000	0.030	-0.238
-341.362	800.000	0.072	0.265
-340.348	195.549	-0.248	-0.372
-339.333	594.460	-0.022	-0.053
-338.318	-59.638	-0.168	0.071
-337.304	-200.000	0.113	-0.530
-336.289	-198.271	-0.176	-0.001
-335.275	195.519	-0.099	0.149
-334.260	-70.076	0.270	-0.101
-333.245	64.420	0.205	-0.203
-332.231	-177.216	0.098	0.002
-331.216	122.220	-0.241	-0.297
-330.202	60.231	0.107	-0.105
-329.187	139.890	-0.089	0.116
-328.172	332.449	-0.131	0.250
-327.158	-200.000	-0.044	0.334
-326.143	-53.133	0.134	0.061
-325.129	-155.037	0.250	-0.016
-324.114	22.676	0.058	0.047
-323.099	-11.152	-0.108	0.070
-322.085	-116.162	-0.059	0.011
-321.070	32.417	0.163	-0.139
-320.056	-97.560	0.344	-0.088
-319.041	122.254	0.180	-0.221
-318.026	-54.671	-0.074	0.033
-317.012	704.458	-0.048	-0.126
-315.997	10.331	-0.244	0.183
-314.983	29.655	0.326	0.274
-313.968	-52.842	-0.135	0.061
-312.953	800.000	-0.065	0.279
-311.939	68.883	-0.013	-0.013
-310.924	114.040	0.266	-0.319
-309.910	142.242	0.242	0.316
-308.895	324.970	0.159	0.300
-307.880	48.497	0.127	-0.117
-306.866	-88.350	0.317	0.093
-305.851	-153.749	0.102	-0.007
-304.837	158.769	0.042	0.058
-303.822	-132.680	0.288	-0.036
-302.807	15.177	-0.116	0.090
-301.793	-39.629	0.142	0.073
-300.778	558.577	-0.043	-0.101
-299.764	-200.000	0.034	0.151
-298.749	102.573	0.253	-0.291
-297.735	800.000	0.049	-0.179
-296.720	-200.000	0.007	-0.247
-295.705	800.000	-0.008	0.022
-294.691	-28.817	0.156	0.088
-293.676	396.202	0.067	0.137
-292.662	45.198	0.341	-0.310
-291.647	-47.339	0.137	0.066
-290.632	27.648	-0.244	-0.202
-289.618	-124.587	0.432	0.066
-288.603	800.000	0.015	-0.052
-287.589	153.308	-0.097	0.131
-286.574	192.090	-0.117	0.174
-285.559	-29.771	0.177	0.099
-284.545	-104.030	-0.238	0.055
-283.530	331.335	0.116	0.221
-282.516	132.996	0.187	-0.238
-281.501	520.474	-0.103	-0.239
-280.486	-139.129	0.222	-0.024
-279.472	-200.000	0.347	-0.001
-278.457	-42.940	-0.160	-0.080
-277.443	-84.243	-0.229	0.071
-276.428	-2.608	0.240	0.166
-275.413	-129.423	-0.129	-0.018
-274.399	474.034	0.102	0.226
-273.384	104.569	0.224	-0.260
-272.370	800.000	0.063	-0.214
-271.355	-200.000	-0.023	0.297
-270.340	179.823	0.145	-0.210
-269.326	800.000	-0.076	0.220
-268.311	419.065	-0.089	-0.188
-267.297	-108.262	0.177	-0.038
-266.282	-81.006	0.044	0.014
-265.267	-90.754	0.371	-0.105
-264.253	0.662	-0.225	-0.158
-263.238	-114.621	0.402	-0.076
-262.224	-11.156	-0.115	0.074
-261.209	800.000	-0.045	-0.141
-260.195	-148.832	-0.203	0.016
-259.180	-89.460	0.312	-0.090
-258.165	139.080	0.066	-0.085
-257.151	681.991	0.110	-0.283
-256.136	-49.309	0.222	-0.104
-255.122	-195.189	-0.344	0.003
-254.107	-90.207	-0.247	-0.071
-253.092	-55.449	-0.249	-0.110
-252.078	-49.339	0.146	-0.068
-251.063	-182.201	-0.437	0.008
-250.049	-28.824	0.114	-0.065
-249.034	37.619	-0.187	0.163
-248.019	-41.573	-0.447	-0.226
-247.005	-165.577	-0.552	0.024
-245.990	-200.000	0.039	-0.193
-244.976	-102.220	0.169	0.040
-243.961	401.879	0.048	0.100
-242.946	18.225	-0.208	-0.163
-241.932	464.223	0.066	-0.144
-240.917	-200.000	0.067	0.402
-239.903	-11.315	0.318	0.206
-238.888	-200.000	-0.024	-0.145
-237.873	-85.224	0.126	0.039
-236.859	-200.000	-0.106	0.469
-235.844	-200.000	-0.027	-0.263
-234.830	-200.000	-0.000	0.175
-233.815	-200.000	0.170	0.000
-232.800	-200.000	0.036	0.184
-231.786	-46.669	-0.138	-0.066
-230.771	238.210	0.209	0.341
-229.757	68.823	-0.119	0.120
-228.742	112.033	0.026	-0.031
-227.727	-101.202	-0.108	-0.026
-226.713	239.471	-0.173	-0.284
-225.698	-78.307	-0.266	0.090
-224.684	422.926	0.245	0.517
-223.669	171.883	-0.119	-0.168
-222.655	-200.000	-0.073	-0.319
-221.640	-200.000	-0.014	-0.288
-220.625	371.049	-0.041	0.082
-219.611	-77.869	-0.223	0.076
-218.596	-200.000	0.006	0.133
-217.582	-200.000	0.049	-0.309
-216.567	239.280	0.140	0.228
-215.552	87.391	0.166	-0.180
-214.538	416.474	-0.110	0.230
-213.523	191.658	-0.152	-0.225
-212.509	95.084	0.081	-0.090
-211.494	800.000	-0.045	-0.182
-210.479	-200.000	-0.022	0.229
-209.465	224.184	0.056	0.088
-208.450	-21.379	0.048	0.029
-207.436	-77.142	0.210	0.072
-206.421	20.409	-0.136	-0.108
-205.406	-72.557	0.273	-0.099
-204.392	-141.893	-0.399	0.039
-203.377	63.767	-0.159	0.157
-202.363	5.699	-0.065	-0.047
-201.348	-105.799	-0.256	-0.057
-200.333	-157.093	-0.168	-0.010
-199.319	-200.000	0.013	-0.240
-198.304	-8.054	-0.231	0.153
-197.290	800.000	-0.060	-0.223
-196.275	-200.000	-0.017	-0.147
-195.260	-150.267	0.240	0.018
-194.246	-200.000	-0.056	0.250
-193.231	-200.000	0.096	0.494
-192.217	136.032	-0.046	-0.059
-191.202	789.946	0.059	-0.160
-190.187	-86.092	-0.199	-0.060
-189.173	41.357	0.190	-0.169
-188.158	287.636	0.221	-0.393
-187.144	-30.284	-0.231	0.129
-186.129	-11.482	0.159	0.103
-185.114	-200.000	-0.001	0.067
-184.100	800.000	-0.020	-0.057
-183.085	-200.000	0.011	-0.081
-182.071	-136.390	-0.365	0.042
-181.056	-200.000	-0.002	-0.296
-180.042	10.276	-0.339	-0.253
-179.027	-200.000	-0.061	0.282
-178.012	-98.665	0.378	-0.095
-176.998	-133.104	-0.262	0.033
-175.983	800.000	-0.107	-0.362
-174.969	156.911	-0.197	-0.267
-173.954	-74.977	0.108	-0.038
-172.939	60.533	-0.240	0.233
-171.925	631.840	-0.077	-0.190
-170.910	-103.718	-0.276	0.063
-169.896	-47.231	-0.237	0.113
-168.881	77.753	-0.178	-0.186
-167.866	-149.350	0.335	0.026
-166.852	800.000	0.089	0.246
-165.837	32.256	-0.307	-0.260
-164.823	800.000	0.042	0.133
-163.808	543.398	-0.175	-0.409
-162.793	-67.584	-0.298	0.115
-161.779	245.436	0.192	0.317
-160.764	120.672	0.136	-0.165
-159.750	-200.000	-0.016	-0.138
-158.735	-86.968	0.397	0.119
-157.720	458.021	0.080	0.173
-156.706	-143.663	0.384	0.036
-155.691	-200.000	-0.225	-0.001
-154.677	48.789	0.065	-0.059
-153.662	-65.472	-0.257	-0.101
-152.647	48.238	-0.316	-0.290
-151.633	644.798	-0.050	0.125
-150.618	-200.000	0.033	0.295
-149.604	292.770	0.163	0.291
-148.589	-77.388	-0.225	-0.077
-147.574	-35.925	-0.212	0.113
-146.560	800.000	-0.036	-0.102
-145.545	-84.356	-0.080	0.025
-144.531	11.095	0.145	0.109
-143.516	60.546	0.035	0.034
-142.502	800.000	0.074	0.232
-141.487	336.362	-0.076	-0.144
-140.472	-200.000	0.017	-0.186
-139.458	-200.000	0.007	0.076
-138.443	190.368	-0.124	-0.183
-137.429	51.981	0.090	0.084
-136.414	-126.517	0.108	-0.016
-135.399	-200.000	-0.037	0.281
-134.385	665.886	-0.037	-0.095
-133.370	51.134	0.205	-0.190
-132.356	-66.613	-0.265	-0.103
-131.341	6.358	0.145	-0.105
-130.326	-141.197	0.092	0.009
-129.312	237.156	-0.018	0.030
-128.297	6.231	0.167	0.122
-127.283	-76.133	-0.122	0.042
-126.268	529.771	-0.025	0.059
-125.253	-53.699	-0.330	0.148
-124.239	-79.868	-0.376	-0.124
-123.224	124.121	-0.172	0.212
-122.210	99.193	-0.107	-0.121
-121.195	304.028	-0.216	0.392
