DTS Sentinel unit serial number:	SN413079Multiplexer serial number:	ORYXHardware model number:	OX4-SRSoftware version number:	ORYX F/W v4.00 Oryx Data Collector v3.7.2.0data status	okinstallation	princeton_trtdifferential loss correction	single-endedforward channel	channel 4reverse channel	N/Adate	2019/09/14time	06:05:34forward acquisition time	60.00reverse acquisition time	0.00gamma	496.2192k internal	0.2322k external	0.2322temperature offset calibration	1.0138default loss term (dB/km)	0.3790temperature slope calibration	1.0000multiplexer offset coefficient	1.0000multiplexer slope coefficient	1.0000fibre end	0.00T internal ref (°C)	26.77T ext. ref 1 (°C)	3.39T ext. ref 2 (°C)	20.96length (m)	temperature (°C)	Stokes	anti-Stokes-747.200	800.000	0.055	0.218
-746.185	-200.000	-0.025	0.247
-745.171	-11.863	-0.167	-0.111
-744.156	54.267	-0.133	-0.129
-743.142	-38.943	0.108	0.057
-742.127	525.025	-0.160	0.379
-741.112	-119.124	0.207	0.037
-740.098	252.782	-0.202	0.349
-739.083	92.951	0.058	-0.067
-738.069	-200.000	-0.023	-0.226
-737.054	434.049	-0.050	-0.109
-736.039	152.377	-0.245	-0.338
-735.025	58.098	0.184	0.182
-734.010	204.047	0.115	-0.180
-732.996	239.315	-0.052	0.087
-731.981	32.126	0.127	-0.111
-730.966	-200.000	-0.069	-0.326
-729.952	-71.562	-0.158	-0.060
-728.937	-200.000	-0.017	-0.546
-727.923	-11.961	-0.124	-0.082
-726.908	13.631	-0.192	-0.150
-725.894	-200.000	0.017	0.392
-724.879	9.680	-0.406	-0.311
-723.864	305.794	-0.266	-0.500
-722.850	384.936	-0.117	-0.244
-721.835	-132.251	0.211	0.028
-720.821	305.559	-0.014	0.025
-719.806	-101.946	-0.280	0.068
-718.791	150.538	-0.055	-0.076
-717.777	-86.365	0.268	-0.083
-716.762	-200.000	0.049	-0.237
-715.748	-200.000	-0.047	-0.225
-714.733	186.688	-0.121	-0.181
-713.718	-130.576	-0.197	-0.027
-712.704	-68.713	0.069	-0.027
-711.689	800.000	0.061	0.242
-710.675	-200.000	-0.007	-0.116
-709.660	-154.792	0.411	0.027
-708.645	-155.403	0.076	0.005
-707.631	-69.251	0.173	-0.067
-706.616	-55.520	-0.311	-0.141
-705.602	388.656	-0.127	-0.266
-704.587	-200.000	-0.020	0.102
-703.572	-200.000	-0.039	-0.205
-702.558	-200.000	-0.018	-0.142
-701.543	-3.897	0.316	0.221
-700.529	-8.738	0.142	-0.096
-699.514	-42.596	0.233	-0.120
-698.499	-175.504	0.144	0.004
-697.485	-100.333	-0.329	-0.082
-696.470	54.798	-0.105	0.102
-695.456	-84.253	-0.147	0.047
-694.441	493.791	-0.199	-0.461
-693.426	-200.000	0.012	-0.275
-692.412	-31.856	-0.133	-0.075
-691.397	62.557	0.213	-0.215
-690.383	308.736	-0.173	-0.327
-689.368	541.591	-0.062	-0.148
-688.354	-200.000	-0.011	-0.211
-687.339	21.235	0.291	0.238
-686.324	88.362	0.098	-0.109
-685.310	149.975	0.178	0.243
-684.295	352.551	0.088	-0.175
-683.281	-172.387	0.134	0.004
-682.266	-57.744	-0.214	-0.094
-681.251	-68.094	-0.070	-0.028
-680.237	-123.493	-0.166	-0.027
-679.222	40.612	-0.159	-0.145
-678.208	800.000	-0.053	-0.188
-677.193	-101.853	0.179	-0.044
-676.178	-20.185	0.163	0.101
-675.164	-13.152	0.133	-0.087
-674.149	-200.000	0.010	-0.128
-673.135	30.400	-0.210	0.181
-672.120	-200.000	-0.032	-0.428
-671.105	176.015	0.196	-0.286
-670.091	675.632	0.036	-0.094
-669.076	81.656	0.253	-0.276
-668.062	-34.821	-0.025	-0.014
-667.047	-128.310	0.200	-0.029
-666.032	11.850	-0.129	-0.100
-665.018	800.000	-0.050	-0.153
-664.003	23.309	-0.131	0.108
-662.989	-200.000	-0.009	0.294
-661.974	-169.148	-0.375	0.014
-660.959	-200.000	-0.003	0.222
-659.945	12.965	0.372	-0.290
-658.930	-135.103	0.550	-0.067
-657.916	-163.052	-0.068	-0.003
-656.901	-68.742	-0.182	0.071
-655.886	-47.451	-0.234	-0.114
-654.872	-200.000	0.002	-0.271
-653.857	-134.352	0.220	-0.027
-652.843	-57.029	-0.201	-0.089
-651.828	-99.921	0.363	-0.091
-650.814	-68.440	0.089	-0.035
-649.799	-32.024	0.100	0.056
-648.784	208.920	-0.041	0.065
-647.770	300.899	0.086	0.160
-646.755	800.000	0.063	-0.250
-645.741	-15.853	-0.149	0.096
-644.726	-41.827	0.064	-0.033
-643.711	-126.835	0.211	0.031
-642.697	-65.905	0.351	-0.141
-641.682	-200.000	-0.034	0.258
-640.668	66.286	-0.146	0.149
-639.653	-121.956	-0.108	0.018
-638.638	155.451	-0.168	0.233
-637.624	-200.000	0.023	0.382
-636.609	-32.469	-0.069	-0.039
-635.595	-90.283	0.222	-0.065
-634.580	196.931	0.126	0.193
-633.565	36.970	-0.144	0.128
-632.551	-29.267	-0.231	-0.133
-631.536	41.072	0.143	0.130
-630.522	-200.000	-0.089	0.486
-629.507	-80.736	0.026	-0.009
-628.492	800.000	0.103	-0.347
-627.478	25.209	0.216	-0.181
-626.463	15.660	-0.177	-0.140
-625.449	800.000	0.045	-0.179
-624.434	-68.394	-0.060	0.023
-623.419	-98.173	0.191	-0.049
-622.405	410.624	0.063	-0.134
-621.390	182.997	0.080	0.119
-620.376	800.000	0.055	0.221
-619.361	-118.219	-0.362	0.065
-618.346	800.000	0.081	-0.229
-617.332	69.450	-0.152	0.158
-616.317	-136.536	0.094	0.011
-615.303	-26.853	-0.286	-0.168
-614.288	800.000	0.101	-0.319
-613.273	-27.627	0.079	0.046
-612.259	94.175	-0.043	-0.049
-611.244	-3.149	0.079	-0.055
-610.230	-22.148	-0.144	0.088
-609.215	-12.763	-0.080	-0.052
-608.201	162.276	-0.209	0.295
-607.186	126.358	-0.068	-0.087
-606.171	-54.422	-0.096	-0.044
-605.157	-200.000	-0.048	0.368
-604.142	98.234	-0.256	0.296
-603.128	210.739	0.132	0.208
-602.113	-69.667	-0.479	0.184
-601.098	232.941	-0.103	-0.171
-600.084	325.540	-0.161	-0.310
-599.069	-200.000	0.037	-0.189
-598.055	-6.120	-0.229	-0.157
-597.040	-103.286	-0.274	0.065
-596.025	-126.249	0.065	-0.010
-595.011	-49.551	0.046	0.022
-593.996	17.898	-0.488	-0.391
-592.982	-73.952	0.274	0.100
-591.967	146.702	-0.043	-0.059
-590.952	289.907	0.100	-0.183
-589.938	-169.945	-0.260	0.009
-588.923	-41.741	-0.099	0.051
-587.909	-105.827	-0.403	0.091
-586.894	349.369	-0.040	-0.079
-585.879	-200.000	0.028	0.211
-584.865	-200.000	-0.007	-0.127
-583.850	125.722	-0.106	0.134
-582.836	7.869	-0.114	-0.086
-581.821	72.373	0.244	0.255
-580.806	-74.556	0.190	-0.069
-579.792	37.237	-0.254	0.225
-578.777	532.671	-0.074	-0.176
-577.763	-200.000	0.102	-0.000
-576.748	176.748	-0.156	0.227
-575.733	-88.955	-0.119	-0.035
-574.719	33.545	0.168	0.147
-573.704	800.000	-0.095	-0.334
-572.690	-200.000	-0.001	-0.126
-571.675	195.942	-0.075	0.115
-570.661	133.917	0.136	0.176
-569.646	-200.000	-0.005	0.200
-568.631	-23.126	0.138	-0.083
-567.617	800.000	0.008	-0.027
-566.602	-168.379	-0.159	-0.006
-565.588	-48.796	-0.261	0.126
-564.573	-78.333	-0.151	0.052
-563.558	-200.000	0.036	-0.166
-562.544	55.388	0.285	0.276
-561.529	-138.287	0.171	-0.019
-560.515	-58.271	-0.264	-0.115
-559.500	-133.739	0.090	-0.011
-558.485	-200.000	0.002	-0.324
-557.471	127.487	-0.160	0.204
-556.456	-59.025	-0.264	0.114
-555.442	-200.000	0.023	0.127
-554.427	23.389	-0.160	0.132
-553.412	-96.603	0.305	0.081
-552.398	73.727	0.116	0.122
-551.383	61.367	-0.166	-0.166
-550.369	-13.468	-0.126	0.082
-549.354	258.070	0.271	-0.468
-548.339	-200.000	0.036	0.173
-547.325	137.936	0.148	0.194
-546.310	-5.626	-0.111	0.077
-545.296	-76.955	0.247	0.086
-544.281	-31.831	-0.188	-0.106
-543.266	152.805	0.070	0.096
-542.252	-49.505	-0.358	-0.171
-541.237	12.407	0.215	-0.166
-540.223	-200.000	0.018	0.360
-539.208	-11.897	0.196	-0.129
-538.193	41.106	-0.102	-0.093
-537.179	-38.524	-0.110	-0.059
-536.164	800.000	0.125	-0.396
-535.150	-146.322	-0.248	-0.022
-534.135	-143.549	0.268	0.026
-533.121	163.918	0.036	0.051
-532.106	85.585	-0.205	0.226
-531.091	256.420	0.055	0.094
-530.077	296.403	-0.110	0.203
-529.062	-73.891	-0.425	0.155
-528.048	-98.500	-0.072	0.018
-527.033	-200.000	0.012	0.164
-526.018	-200.000	0.029	-0.133
-525.004	12.944	0.151	-0.117
-523.989	800.000	-0.021	-0.067
-522.975	26.973	0.237	0.199
-521.960	512.303	-0.113	-0.265
-520.945	84.333	-0.138	-0.151
-519.931	-100.133	0.292	-0.073
-518.916	-75.548	0.171	0.061
-517.902	-23.821	0.227	0.136
-516.887	25.787	0.204	-0.170
-515.872	63.047	-0.205	0.206
-514.858	-72.403	-0.222	0.082
-513.843	362.455	-0.065	-0.131
-512.829	-200.000	-0.009	-0.161
-511.814	6.205	-0.227	0.169
-510.799	107.595	0.171	-0.204
-509.785	164.713	0.164	-0.231
-508.770	-200.000	-0.009	0.279
-507.756	15.447	-0.316	0.248
-506.741	800.000	-0.015	-0.053
-505.726	89.837	-0.170	0.190
-504.712	-200.000	0.058	0.308
-503.697	-200.000	0.011	0.225
-502.683	-78.827	0.118	-0.040
-501.668	800.000	-0.090	0.279
-500.653	268.639	0.031	0.055
-499.639	-141.736	0.152	-0.015
-498.624	800.000	0.119	0.352
-497.610	800.000	-0.048	0.189
-496.595	-72.218	-0.121	-0.045
-495.581	-200.000	0.041	-0.457
-494.566	800.000	0.061	0.211
-493.551	-116.659	0.147	0.027
-492.537	96.734	0.159	0.183
-491.522	519.026	0.099	-0.231
-490.508	-140.384	0.166	-0.017
-489.493	-200.000	0.068	-0.403
-488.478	-39.073	-0.069	-0.036
-487.464	269.106	-0.069	0.122
-486.449	163.301	0.197	-0.277
-485.435	-87.657	0.215	-0.065
-484.420	41.468	0.198	0.180
-483.405	-143.639	0.369	0.035
-482.391	673.327	-0.038	0.097
-481.376	178.164	0.097	-0.142
-480.362	800.000	-0.112	-0.415
-479.347	176.963	0.088	0.128
-478.332	88.775	-0.153	-0.170
-477.318	21.471	-0.149	0.121
-476.303	83.570	-0.061	0.066
-475.289	93.832	-0.191	0.217
-474.274	54.800	0.122	-0.118
-473.259	-63.945	0.254	0.104
-472.245	-129.876	0.188	0.026
-471.230	-192.156	-0.161	-0.002
-470.216	-131.638	0.362	-0.048
-469.201	-21.355	0.183	0.112
-468.186	-50.263	0.347	0.164
-467.172	800.000	-0.031	0.125
-466.157	-102.277	-0.174	0.042
-465.143	-80.721	-0.113	-0.038
-464.128	-23.524	-0.279	0.167
-463.113	662.415	0.046	-0.119
-462.099	-114.670	0.353	0.067
-461.084	390.778	-0.101	-0.210
-460.070	78.330	0.288	0.307
-459.055	-133.141	0.336	-0.042
-458.040	287.032	0.041	0.075
-457.026	91.711	-0.180	-0.202
-456.011	800.000	0.074	-0.220
-454.997	-62.365	-0.199	-0.083
-453.982	-200.000	0.037	-0.240
-452.968	-84.873	0.044	-0.014
-451.953	192.543	0.113	-0.171
-450.938	-73.026	0.129	-0.047
-449.924	-141.066	-0.131	0.013
-448.909	-200.000	0.006	-0.163
-447.895	-200.000	-0.015	0.156
-446.880	-118.225	-0.198	-0.035
-445.865	-200.000	-0.037	0.255
-444.851	46.072	-0.154	-0.142
-443.836	77.639	0.171	0.182
-442.822	-157.989	0.233	-0.014
-441.807	-200.000	-0.030	0.186
-440.792	28.787	-0.147	0.124
-439.778	-98.805	0.172	-0.044
-438.763	109.087	0.148	0.177
-437.749	160.072	-0.180	0.250
-436.734	97.154	-0.063	-0.072
-435.719	-99.144	-0.186	0.047
-434.705	77.991	0.139	-0.148
-433.690	-150.724	0.359	-0.027
-432.676	-98.063	-0.330	-0.085
-431.661	63.697	-0.048	0.048
-430.646	133.373	-0.135	0.174
-429.632	-200.000	0.001	-0.090
-428.617	-200.000	-0.008	-0.192
-427.603	-200.000	-0.011	0.061
-426.588	-200.000	0.016	-0.127
-425.573	-109.383	0.197	0.042
-424.559	-67.455	-0.122	0.048
-423.544	-200.000	-0.005	-0.092
-422.530	-26.042	0.134	-0.079
-421.515	464.663	0.131	-0.293
-420.500	-200.000	-0.021	0.095
-419.486	247.353	-0.259	0.436
-418.471	-139.636	-0.210	-0.022
-417.457	105.396	-0.180	-0.212
-416.442	800.000	0.049	0.172
-415.428	360.875	0.058	-0.116
-414.413	-200.000	0.023	-0.181
-413.398	80.125	0.068	0.073
-412.384	-78.214	0.268	0.092
-411.369	-130.106	-0.166	0.023
-410.355	-22.180	0.223	0.135
-409.340	189.596	-0.166	-0.249
-408.325	-80.893	0.208	0.069
-407.311	-90.378	-0.077	0.022
-406.296	-40.351	0.131	0.068
-405.282	-152.701	-0.242	0.017
-404.267	-200.000	-0.014	-0.084
-403.252	800.000	0.062	-0.221
-402.238	800.000	-0.092	0.396
-401.223	38.473	-0.046	0.040
-400.209	-171.849	-0.043	-0.001
-399.194	-47.572	-0.147	-0.071
-398.179	154.332	-0.070	-0.095
-397.165	334.340	0.124	0.239
-396.150	147.939	-0.051	-0.068
-395.136	-79.287	0.129	0.043
-394.121	-200.000	-0.000	-0.343
-393.106	437.509	0.037	0.081
-392.092	-34.360	-0.358	-0.196
-391.077	-164.328	0.227	-0.010
-390.063	-40.005	0.304	-0.158
-389.048	-29.752	-0.402	-0.228
-388.033	47.125	0.175	0.163
-387.019	-71.655	0.103	0.038
-386.004	-200.000	-0.010	-0.132
-384.990	-200.000	0.024	0.127
-383.975	154.144	0.320	-0.437
-382.960	800.000	-0.120	-0.375
-381.946	329.980	0.057	-0.109
-380.931	134.760	-0.045	0.059
-379.917	-69.556	-0.090	-0.034
-378.902	-200.000	0.007	0.045
-377.888	218.948	0.036	0.057
-376.873	-123.975	-0.090	-0.014
-375.858	-200.000	0.044	0.219
-374.844	-127.097	0.235	0.034
-373.829	-114.450	0.109	-0.021
-372.815	-21.002	-0.011	-0.007
-371.800	222.953	0.094	0.150
-370.785	281.965	0.085	-0.152
-369.771	29.507	0.260	0.220
-368.756	-76.106	-0.183	0.064
-367.742	135.884	0.037	-0.048
-366.727	-102.791	-0.062	-0.015
-365.712	-200.000	0.026	-0.263
-364.698	800.000	0.098	0.276
-363.683	3.943	-0.145	0.105
-362.669	-162.502	0.166	0.008
-361.654	800.000	0.056	0.162
-360.639	86.347	0.225	-0.247
-359.625	-157.328	0.406	0.024
-358.610	426.965	0.088	-0.189
-357.596	-113.802	0.163	0.032
-356.581	101.578	-0.115	0.133
-355.566	-58.039	-0.253	-0.110
-354.552	-110.134	0.201	0.042
-353.537	-200.000	-0.017	0.134
-352.523	540.560	0.046	0.110
-351.508	-74.728	-0.428	0.153
-350.493	-71.959	0.191	-0.071
-349.479	800.000	0.056	0.169
-348.464	-22.018	-0.139	-0.084
-347.450	-39.818	-0.192	-0.100
-346.435	40.036	0.142	0.127
-345.420	-200.000	0.029	-0.269
-344.406	-200.000	0.034	0.211
-343.391	-49.645	0.255	-0.121
-342.377	-200.000	-0.050	-0.383
-341.362	325.900	-0.074	0.142
-340.348	-167.856	-0.185	-0.007
-339.333	-43.724	-0.205	-0.103
-338.318	800.000	0.034	0.140
-337.304	15.498	-0.143	0.112
-336.289	-25.062	-0.047	-0.028
-335.275	702.405	-0.116	-0.303
-334.260	-104.418	-0.102	0.024
-333.245	800.000	0.051	0.140
-332.231	-200.000	-0.012	-0.144
-331.216	-38.676	-0.230	-0.121
-330.202	-183.028	-0.026	0.000
-329.187	-91.073	-0.369	-0.105
-328.172	-182.345	0.266	0.005
-327.158	-116.398	-0.200	0.037
-326.143	529.441	-0.080	-0.189
-325.129	-20.601	0.040	-0.024
-324.114	107.054	-0.119	0.140
-323.099	-17.533	-0.125	0.078
-322.085	124.295	-0.223	0.279
-321.070	-164.430	-0.282	-0.013
-320.056	-200.000	0.023	-0.245
-319.041	5.045	0.170	0.124
-318.026	47.989	0.253	0.235
-317.012	107.075	-0.036	0.043
-315.997	-185.440	-0.223	-0.003
-314.983	152.522	0.190	0.258
-313.968	-130.642	-0.244	0.033
-312.953	416.241	-0.103	-0.219
-311.939	-103.454	-0.181	0.042
-310.924	-110.020	0.156	-0.032
-309.910	9.277	-0.169	0.127
-308.895	313.060	-0.039	0.073
-307.880	64.556	-0.064	-0.064
-306.866	-200.000	-0.016	-0.196
-305.851	254.914	0.183	-0.311
-304.837	474.656	-0.038	-0.085
-303.822	72.162	0.265	-0.274
-302.807	-74.725	0.340	0.121
-301.793	800.000	-0.042	0.121
-300.778	800.000	-0.054	0.221
-299.764	214.250	-0.158	-0.249
-298.749	-25.875	0.345	0.202
-297.735	800.000	-0.037	-0.115
-296.720	-200.000	-0.037	0.303
-295.705	-125.960	0.147	-0.022
-294.691	221.585	-0.059	0.094
-293.676	-37.884	0.178	-0.094
-292.662	-86.157	-0.121	0.037
-291.647	-200.000	-0.012	-0.095
-290.632	35.857	-0.249	0.217
-289.618	-44.580	0.049	0.024
-288.603	229.863	0.048	0.079
-287.589	-98.571	0.123	0.031
-286.574	476.233	0.125	0.281
-285.559	-200.000	-0.032	-0.211
-284.545	-200.000	-0.027	-0.142
-283.530	-114.978	-0.028	0.005
-282.516	-30.912	0.092	-0.051
-281.501	-200.000	-0.018	-0.155
-280.486	800.000	-0.090	-0.361
-279.472	-97.578	-0.370	-0.095
-278.457	24.347	0.207	-0.170
-277.443	-190.708	-0.167	-0.002
-276.428	800.000	0.021	-0.078
-275.413	800.000	0.028	0.077
-274.399	-200.000	0.024	-0.182
-273.384	-200.000	0.003	0.042
-272.370	-140.036	-0.105	-0.011
-271.355	800.000	-0.125	0.385
-270.340	-20.042	0.174	-0.107
-269.326	662.681	-0.109	-0.278
-268.311	-200.000	0.003	-0.130
-267.297	1.471	0.085	-0.060
-266.282	800.000	-0.052	0.148
-265.267	26.628	-0.062	-0.052
-264.253	-82.194	0.022	-0.007
-263.238	180.421	-0.040	-0.058
-262.224	26.902	-0.130	0.108
-261.209	-200.000	-0.002	-0.245
-260.195	86.333	0.187	0.205
-259.180	-91.608	0.095	0.027
-258.165	131.349	0.057	-0.072
-257.151	-148.099	0.207	-0.017
-256.136	121.505	0.236	-0.291
-255.122	-200.000	-0.011	-0.314
-254.107	-75.132	-0.280	-0.099
-253.092	-110.405	-0.323	0.066
-252.078	-48.702	0.238	-0.113
-251.063	84.280	-0.366	-0.397
-250.049	800.000	-0.122	-0.342
-249.034	358.834	-0.058	-0.115
-248.019	-73.609	-0.138	-0.050
-247.005	-200.000	0.032	-0.234
-245.990	205.657	0.071	0.109
-244.976	-116.031	0.116	-0.021
-243.961	436.709	0.051	0.110
-242.946	517.694	-0.050	-0.116
-241.932	40.561	0.105	0.094
-240.917	-200.000	-0.010	0.306
-239.903	225.282	0.088	-0.140
-238.888	64.713	-0.100	-0.099
-237.873	-45.930	0.075	0.037
-236.859	-6.751	0.121	0.082
-235.844	-152.425	-0.061	-0.004
-234.830	169.613	-0.114	-0.162
-233.815	116.004	-0.169	-0.204
-232.800	-3.997	0.191	0.131
-231.786	-58.582	0.191	0.082
-230.771	14.789	-0.110	-0.085
-229.757	499.187	0.089	-0.204
-228.742	-200.000	0.002	0.111
-227.727	40.256	0.177	-0.157
-226.713	5.169	-0.102	-0.075
-225.698	-135.853	-0.099	-0.012
-224.684	-127.182	0.248	-0.036
-223.669	623.201	0.133	0.333
-222.655	-200.000	-0.003	-0.145
-221.640	14.477	-0.223	0.172
-220.625	-87.289	0.277	0.083
-219.611	800.000	0.049	0.159
-218.596	800.000	-0.035	0.117
-217.582	-200.000	0.008	0.104
-216.567	411.659	0.102	0.214
-215.552	-20.894	0.284	-0.172
-214.538	-97.678	0.211	-0.054
-213.523	-27.230	-0.234	-0.135
-212.509	24.822	-0.216	-0.177
-211.494	39.490	-0.098	-0.087
-210.479	-200.000	0.077	0.480
-209.465	-200.000	0.057	-0.426
-208.450	444.974	-0.098	-0.213
-207.436	-9.290	-0.451	-0.298
-206.421	-93.759	-0.128	-0.035
-205.406	644.718	-0.073	-0.184
-204.392	-127.157	0.283	-0.041
-203.377	-101.125	-0.038	-0.009
-202.363	800.000	0.141	0.481
-201.348	112.222	-0.238	0.285
-200.333	130.591	-0.139	-0.176
-199.319	-96.374	-0.133	-0.035
-198.304	-173.747	0.292	-0.009
-197.290	119.383	-0.069	0.084
-196.275	24.671	0.041	0.034
-195.260	-182.187	0.115	-0.002
-194.246	-136.842	0.116	-0.013
-193.231	-200.000	-0.026	0.175
-192.217	7.111	-0.151	-0.111
-191.202	800.000	0.092	-0.252
-190.187	-200.000	-0.004	0.230
-189.173	-124.850	0.198	-0.030
-188.158	-200.000	-0.026	-0.398
-187.144	75.502	0.203	0.212
-186.129	77.178	-0.177	0.186
-185.114	-200.000	0.033	-0.285
-184.100	-52.120	0.051	0.024
-183.085	546.601	0.022	0.052
-182.071	-83.994	-0.156	0.049
-181.056	221.474	0.127	0.202
-180.042	-11.072	0.125	-0.081
-179.027	183.989	-0.236	-0.345
-178.012	409.771	0.021	0.045
-176.998	127.684	0.210	0.264
-175.983	86.789	0.059	0.065
-174.969	-100.900	-0.141	-0.034
-173.954	-113.417	0.202	-0.039
-172.939	-35.059	-0.121	-0.065
-171.925	515.680	0.071	0.163
-170.910	-200.000	0.012	0.131
-169.896	61.087	0.124	-0.121
-168.881	37.254	0.211	0.185
-167.866	-200.000	-0.004	-0.129
-166.852	-146.303	0.148	0.013
-165.837	608.276	0.108	0.266
-164.823	54.883	0.215	-0.205
-163.808	-200.000	-0.001	-0.017
-162.793	62.482	-0.121	0.120
-161.779	-101.479	-0.228	0.055
-160.764	-116.634	0.279	0.051
-159.750	-23.312	-0.233	-0.139
-158.735	800.000	0.055	0.214
-157.720	-200.000	-0.063	0.325
-156.706	-164.627	-0.230	-0.010
-155.691	-200.000	-0.014	0.081
-154.677	-191.649	-0.357	0.004
-153.662	-48.080	0.172	-0.082
-152.647	-148.634	0.136	0.011
-151.633	75.328	0.265	0.276
-150.618	9.327	-0.263	0.197
-149.604	-5.466	-0.082	-0.055
-148.589	-128.061	0.220	0.031
-147.574	-97.104	0.208	-0.054
-146.560	334.372	-0.073	-0.139
-145.545	-23.685	0.150	-0.089
-144.531	116.350	-0.182	-0.220
-143.516	-123.754	0.261	-0.041
-142.502	93.958	-0.162	0.181
-141.487	-116.100	-0.129	0.024
-140.472	-184.268	-0.188	0.003
-139.458	-112.453	-0.228	-0.045
-138.443	-132.035	0.046	0.006
-137.429	-93.677	0.224	-0.061
-136.414	647.090	0.106	-0.267
-135.399	-85.058	-0.171	0.053
-134.385	156.631	0.091	-0.124
-133.370	-200.000	-0.004	-0.313
-132.356	-200.000	-0.001	0.054
-131.341	800.000	-0.114	-0.356
-130.326	-200.000	0.012	-0.219
-129.312	215.430	-0.137	0.215
-128.297	-200.000	-0.011	0.157
-127.283	-2.089	0.186	0.129
-126.268	800.000	0.052	0.150
-125.253	800.000	-0.037	0.101
-124.239	-51.814	-0.144	0.066
-123.224	53.934	0.286	0.272
-122.210	82.938	0.043	0.046
