DTS Sentinel unit serial number:	SN413079Multiplexer serial number:	ORYXHardware model number:	OX4-SRSoftware version number:	ORYX F/W v4.00 Oryx Data Collector v3.7.2.0data status	okinstallation	princeton_trtdifferential loss correction	single-endedforward channel	channel 4reverse channel	N/Adate	2019/09/14time	17:01:35forward acquisition time	60.00reverse acquisition time	0.00gamma	496.2192k internal	0.2293k external	0.2293temperature offset calibration	1.0118default loss term (dB/km)	0.3790temperature slope calibration	1.0000multiplexer offset coefficient	1.0000multiplexer slope coefficient	1.0000fibre end	0.00T internal ref (°C)	38.00T ext. ref 1 (°C)	4.99T ext. ref 2 (°C)	33.27length (m)	temperature (°C)	Stokes	anti-Stokes-747.200	-200.000	-0.015	-0.165
-746.185	-38.083	-0.053	0.029
-745.171	186.237	0.069	0.104
-744.156	-200.000	-0.001	0.304
-743.142	147.647	-0.027	0.037
-742.127	1.879	0.145	-0.107
-741.112	-30.211	0.086	0.050
-740.098	-101.894	-0.419	-0.104
-739.083	800.000	-0.156	0.488
-738.069	338.295	-0.020	0.040
-737.054	800.000	-0.097	-0.294
-736.039	-30.192	-0.309	-0.180
-735.025	-149.482	0.300	-0.024
-734.010	363.044	-0.035	0.072
-732.996	-200.000	0.047	-0.220
-731.981	125.645	-0.281	-0.363
-730.966	-135.433	-0.252	-0.031
-729.952	13.595	-0.310	-0.246
-728.937	534.227	0.065	-0.158
-727.923	800.000	-0.055	-0.247
-726.908	-29.888	-0.205	0.120
-725.894	-115.229	-0.200	0.039
-724.879	-38.673	-0.143	0.077
-723.864	39.303	-0.299	0.274
-722.850	800.000	-0.059	0.252
-721.835	-158.232	0.236	0.014
-720.821	-56.360	0.069	-0.031
-719.806	800.000	0.067	-0.241
-718.791	-200.000	-0.029	0.137
-717.777	42.923	-0.050	-0.047
-716.762	100.803	-0.147	-0.175
-715.748	-200.000	-0.071	0.337
-714.733	69.788	0.069	0.073
-713.718	-197.281	0.114	-0.001
-712.704	42.056	0.225	0.209
-711.689	95.773	0.141	-0.165
-710.675	-55.035	-0.130	0.060
-709.660	-23.803	-0.340	0.208
-708.645	-61.287	0.371	-0.160
-707.631	-87.788	-0.206	0.063
-706.616	91.994	-0.274	-0.315
-705.602	-117.809	-0.295	-0.054
-704.587	48.901	0.220	-0.211
-703.572	-6.767	-0.037	0.025
-702.558	-66.666	-0.259	0.105
-701.543	-136.677	0.126	0.015
-700.529	249.573	-0.026	-0.045
-699.514	-200.000	0.030	-0.325
-698.499	86.676	-0.070	0.079
-697.485	139.911	-0.076	-0.102
-696.470	17.350	0.075	0.061
-695.456	-200.000	0.014	-0.243
-694.441	12.769	-0.023	0.018
-693.426	-200.000	-0.037	-0.296
-692.412	-79.394	0.191	0.066
-691.397	800.000	-0.080	-0.227
-690.383	182.741	-0.041	-0.061
-689.368	-200.000	-0.022	-0.135
-688.354	800.000	0.101	0.304
-687.339	-167.684	-0.238	0.010
-686.324	-200.000	0.020	-0.237
-685.310	250.688	0.113	-0.196
-684.295	-26.423	-0.201	-0.120
-683.281	31.446	-0.145	-0.127
-682.266	-84.674	-0.087	-0.028
-681.251	2.067	-0.186	0.137
-680.237	36.389	-0.192	-0.172
-679.222	-141.000	-0.233	-0.024
-678.208	800.000	-0.071	-0.252
-677.193	-3.924	0.273	0.193
-676.178	-89.579	-0.072	-0.021
-675.164	435.015	-0.181	-0.402
-674.149	-108.027	0.458	0.101
-673.135	-200.000	0.037	0.241
-672.120	66.630	-0.216	0.224
-671.105	376.718	-0.025	-0.051
-670.091	34.923	-0.103	-0.092
-669.076	35.262	-0.059	-0.053
-668.062	-88.669	-0.327	0.099
-667.047	-28.190	0.214	0.126
-666.032	-118.901	0.469	-0.084
-665.018	800.000	-0.043	0.158
-664.003	-160.313	0.366	-0.020
-662.989	-29.716	0.174	0.101
-661.974	589.920	0.074	-0.187
-660.959	354.962	-0.110	0.224
-659.945	-152.820	0.229	-0.017
-658.930	-138.649	-0.327	-0.037
-657.916	-15.599	-0.134	-0.087
-656.901	-93.366	-0.224	-0.063
-655.886	-200.000	-0.047	0.430
-654.872	-200.000	-0.053	-0.294
-653.857	205.504	-0.038	-0.061
-652.843	-121.738	0.411	0.069
-651.828	-53.791	0.271	-0.126
-650.814	-200.000	-0.029	0.174
-649.799	-66.067	-0.162	-0.066
-648.784	-167.392	-0.022	-0.001
-647.770	-190.181	0.336	-0.004
-646.755	-200.000	0.000	-0.141
-645.741	800.000	0.111	0.320
-644.726	304.298	0.254	0.481
-643.711	-18.627	-0.143	0.091
-642.697	-200.000	0.000	-0.188
-641.682	800.000	0.092	0.270
-640.668	-163.432	-0.181	0.009
-639.653	-200.000	-0.037	0.361
-638.638	-46.920	-0.112	0.056
-637.624	395.245	-0.080	-0.171
-636.609	146.672	-0.145	-0.198
-635.595	-119.245	-0.203	-0.036
-634.580	138.609	0.029	-0.038
-633.565	-200.000	0.058	-0.265
-632.551	-155.435	0.171	-0.011
-631.536	-31.394	-0.185	-0.106
-630.522	213.487	-0.069	0.112
-629.507	-200.000	0.003	-0.365
-628.492	-93.016	0.166	-0.047
-627.478	210.263	-0.019	0.031
-626.463	-67.717	-0.152	0.061
-625.449	-131.282	0.081	-0.011
-624.434	-127.755	-0.480	-0.071
-623.419	-200.000	0.014	0.203
-622.405	-132.941	0.118	-0.015
-621.390	-145.238	0.162	-0.015
-620.376	-166.780	-0.353	0.015
-619.361	238.172	0.122	-0.205
-618.346	-200.000	-0.003	-0.058
-617.332	800.000	0.051	-0.171
-616.317	-72.157	0.092	0.035
-615.303	479.584	0.079	-0.182
-614.288	-200.000	0.018	-0.103
-613.273	-181.933	-0.119	-0.002
-612.259	149.885	0.134	0.185
-611.244	748.988	-0.106	-0.290
-610.230	204.477	0.151	-0.238
-609.215	-49.952	-0.110	-0.053
-608.201	-200.000	-0.055	0.284
-607.186	-200.000	0.030	0.242
-606.171	222.484	0.162	-0.265
-605.157	72.162	0.150	0.158
-604.142	-168.128	-0.169	0.007
-603.128	138.466	-0.037	-0.049
-602.113	11.792	-0.270	0.211
-601.098	-24.617	-0.164	0.100
-600.084	-100.034	0.356	0.090
-599.069	800.000	-0.054	0.238
-598.055	-153.320	0.174	0.012
-597.040	-52.281	0.081	-0.038
-596.025	-5.680	-0.199	-0.139
-595.011	-200.000	0.014	0.158
-593.996	101.564	-0.134	0.159
-592.982	-22.835	-0.120	-0.074
-591.967	-19.297	-0.152	-0.096
-590.952	17.772	-0.108	0.087
-589.938	-200.000	0.032	0.209
-588.923	135.306	-0.133	0.175
-587.909	-48.953	-0.348	-0.170
-586.894	-200.000	0.026	-0.122
-585.879	141.101	-0.054	0.073
-584.865	172.993	0.027	0.039
-583.850	-200.000	0.007	0.058
-582.836	172.453	-0.167	-0.244
-581.821	166.712	-0.130	-0.188
-580.806	297.474	-0.141	-0.263
-579.792	15.161	-0.051	-0.040
-578.777	-200.000	0.032	0.231
-577.763	-48.689	-0.108	0.053
-576.748	-183.958	-0.074	-0.001
-575.733	18.339	-0.340	0.276
-574.719	43.676	0.172	0.160
-573.704	50.495	-0.089	-0.085
-572.690	200.211	0.081	0.126
-571.675	222.662	-0.097	0.159
-570.661	-200.000	0.017	0.084
-569.646	24.866	0.352	-0.296
-568.631	-134.979	-0.391	-0.048
-567.617	396.360	0.110	0.234
-566.602	-200.000	-0.001	-0.058
-565.588	-6.041	-0.184	-0.128
-564.573	800.000	-0.082	-0.264
-563.558	-180.371	0.358	0.008
-562.544	86.225	0.092	-0.103
-561.529	121.859	0.151	-0.192
-560.515	200.212	0.043	-0.067
-559.500	-35.573	0.128	-0.070
-558.485	-104.558	0.164	-0.038
-557.471	-176.039	0.133	0.004
-556.456	169.281	-0.120	0.175
-555.442	-200.000	0.011	-0.270
-554.427	-58.006	-0.199	-0.088
-553.412	-1.210	-0.191	0.137
-552.398	-0.552	0.268	0.193
-551.383	-2.208	0.189	0.134
-550.369	590.833	-0.093	-0.232
-549.354	800.000	-0.041	-0.178
-548.339	-47.010	-0.463	-0.229
-547.325	-61.570	-0.160	-0.068
-546.310	539.969	0.123	-0.297
-545.296	27.455	0.081	-0.069
-544.281	46.877	-0.361	0.340
-543.266	-77.338	-0.401	0.141
-542.252	-177.897	-0.070	-0.002
-541.237	15.389	-0.117	0.093
-540.223	197.063	-0.033	0.051
-539.208	220.494	0.049	-0.079
-538.193	-79.755	-0.093	0.032
-537.179	-70.343	0.077	-0.030
-536.164	16.709	-0.128	-0.103
-535.150	135.707	-0.119	-0.158
-534.135	17.366	0.018	0.014
-533.121	363.293	-0.045	0.092
-532.106	103.853	-0.192	0.229
-531.091	-159.575	0.016	0.001
-530.077	683.578	-0.103	0.271
-529.062	448.461	-0.141	0.315
-528.048	576.832	-0.161	0.400
-527.033	-28.595	0.107	-0.063
-526.018	-144.090	0.177	0.017
-525.004	143.035	-0.080	0.108
-523.989	-200.000	-0.009	-0.161
-522.975	-45.920	0.321	0.161
-521.960	35.600	-0.252	-0.224
-520.945	-200.000	-0.018	0.190
-519.931	-200.000	-0.013	-0.318
-518.916	148.122	-0.067	0.092
-517.902	800.000	-0.126	0.365
-516.887	-200.000	0.044	0.362
-515.872	-136.267	0.165	0.020
-514.858	279.230	-0.113	-0.205
-513.843	-200.000	-0.001	0.233
-512.829	23.105	-0.142	-0.118
-511.814	201.583	0.230	-0.359
-510.799	-60.018	0.165	-0.071
-509.785	-101.228	-0.627	-0.155
-508.770	75.892	-0.276	-0.296
-507.756	-69.267	-0.089	-0.035
-506.741	119.646	-0.054	-0.068
-505.726	-120.862	-0.233	-0.040
-504.712	-44.367	-0.184	-0.093
-503.697	-32.569	0.221	0.125
-502.683	553.270	-0.180	-0.438
-501.668	-136.661	-0.141	-0.017
-500.653	-148.942	0.387	-0.032
-499.639	-151.694	0.224	0.017
-498.624	800.000	0.057	-0.167
-497.610	-137.548	-0.158	0.018
-496.595	-200.000	-0.025	0.141
-495.581	-166.234	-0.151	-0.006
-494.566	661.531	0.107	-0.279
-493.551	-81.810	-0.308	-0.102
-492.537	800.000	-0.142	0.456
-491.522	104.254	0.212	0.253
-490.508	-113.329	-0.036	-0.007
-489.493	-110.778	0.200	-0.042
-488.478	5.103	0.311	-0.232
-487.464	-200.000	0.020	0.099
-486.449	-200.000	0.002	0.010
-485.435	547.185	0.038	0.093
-484.420	108.585	-0.113	0.137
-483.405	412.033	0.048	0.103
-482.391	321.513	-0.011	0.020
-481.376	-200.000	-0.014	0.081
-480.362	-200.000	0.008	-0.203
-479.347	-200.000	-0.007	-0.116
-478.332	-200.000	0.029	-0.156
-477.318	-200.000	-0.044	-0.343
-476.303	-152.283	0.087	-0.006
-475.289	-149.654	0.448	-0.036
-474.274	-22.177	-0.212	-0.131
-473.259	191.140	0.151	0.230
-472.245	-200.000	0.002	-0.140
-471.230	40.193	-0.207	0.188
-470.216	-200.000	0.103	0.467
-469.201	-155.458	-0.044	-0.003
-468.186	17.922	-0.200	-0.161
-467.172	-109.810	-0.364	0.077
-466.157	800.000	-0.069	0.229
-465.143	-118.761	-0.147	-0.026
-464.128	-54.097	-0.161	-0.074
-463.113	-200.000	-0.001	-0.209
-462.099	-200.000	-0.079	0.491
-461.084	-91.224	0.296	-0.086
-460.070	-103.953	-0.070	-0.016
-459.055	669.701	-0.051	0.133
-458.040	-39.977	0.120	-0.064
-457.026	-68.671	-0.293	0.115
-456.011	-92.196	0.256	0.073
-454.997	-180.816	-0.278	0.006
-453.982	-200.000	-0.000	-0.060
-452.968	-71.090	0.109	-0.041
-451.953	410.393	-0.132	0.284
-450.938	800.000	-0.061	0.218
-449.924	-200.000	-0.054	0.310
-448.909	49.770	0.044	0.042
-447.895	800.000	-0.015	-0.050
-446.880	129.546	0.088	-0.114
-445.865	800.000	-0.052	-0.202
-444.851	-194.641	0.288	0.002
-443.836	800.000	0.079	-0.346
-442.822	-200.000	-0.013	0.072
-441.807	-32.240	-0.167	0.094
-440.792	-46.868	0.257	0.127
-439.778	-81.345	-0.227	-0.076
-438.763	4.794	0.276	0.205
-437.749	110.402	-0.067	0.081
-436.734	126.045	0.022	0.028
-435.719	-124.778	-0.257	-0.040
-434.705	800.000	0.087	-0.322
-433.690	102.569	0.047	-0.056
-432.676	-58.446	0.283	-0.124
-431.661	28.840	0.262	0.225
-430.646	-200.000	-0.026	-0.156
-429.632	800.000	0.032	-0.129
-428.617	76.971	0.073	0.078
-427.603	711.255	0.100	0.267
-426.588	119.892	0.167	0.210
-425.573	74.581	0.147	-0.156
-424.559	-200.000	-0.017	-0.296
-423.544	-84.470	0.163	-0.052
-422.530	-22.019	-0.130	0.080
-421.515	-38.936	-0.162	0.086
-420.500	-16.051	-0.056	0.036
-419.486	114.152	-0.060	-0.074
-418.471	-98.338	0.357	0.093
-417.457	-76.621	0.339	-0.120
-416.442	-6.422	-0.221	-0.152
-415.428	178.135	0.141	-0.207
-414.413	277.127	0.074	-0.133
-413.398	93.966	-0.061	0.070
-412.384	378.757	0.130	0.268
-411.369	48.462	0.096	0.090
-410.355	99.473	-0.362	-0.423
-409.340	762.503	-0.089	-0.245
-408.325	-170.148	0.201	-0.007
-407.311	-200.000	-0.096	0.448
-406.296	800.000	0.034	-0.124
-405.282	-74.126	-0.064	-0.023
-404.267	80.599	0.174	-0.189
-403.252	-169.365	0.356	-0.013
-402.238	225.920	-0.150	-0.245
-401.223	-200.000	0.013	0.157
-400.209	443.865	-0.102	-0.227
-399.194	286.607	0.053	-0.096
-398.179	20.160	0.278	-0.226
-397.165	-60.819	-0.124	-0.053
-396.150	-200.000	0.075	0.391
-395.136	-200.000	0.040	-0.189
-394.121	-74.200	-0.103	0.037
-393.106	800.000	-0.103	0.297
-392.092	-22.019	0.152	-0.093
-391.077	195.245	-0.047	0.072
-390.063	-70.462	0.231	-0.088
-389.048	-200.000	0.057	-0.319
-388.033	-127.926	0.156	-0.023
-387.019	115.390	0.056	0.069
-386.004	-200.000	0.043	0.273
-384.990	511.419	-0.089	-0.208
-383.975	287.197	0.036	0.065
-382.960	25.276	0.185	-0.155
-381.946	-31.807	-0.127	-0.072
-380.931	-55.489	0.133	-0.060
-379.917	-27.971	-0.015	-0.009
-378.902	-200.000	0.100	-0.592
-377.888	800.000	0.062	0.248
-376.873	2.732	0.335	0.245
-375.858	-162.573	-0.306	0.015
-374.844	-200.000	-0.007	0.450
-373.829	-157.817	-0.138	0.008
-372.815	-73.943	0.184	0.067
-371.800	-130.581	-0.088	0.012
-370.785	85.938	-0.051	-0.057
-369.771	117.069	0.113	0.139
-368.756	800.000	-0.137	0.387
-367.742	-20.093	-0.200	0.124
-366.727	-200.000	0.079	-0.357
-365.712	318.012	-0.177	0.338
-364.698	72.139	0.180	0.189
-363.683	81.327	-0.070	-0.076
-362.669	-70.971	-0.306	-0.116
-361.654	116.171	-0.110	-0.135
-360.639	162.165	0.280	-0.395
-359.625	800.000	0.086	0.373
-358.610	-200.000	0.029	0.343
-357.596	-84.551	-0.430	-0.137
-356.581	800.000	0.068	0.271
-355.566	-41.694	-0.138	0.071
-354.552	48.797	-0.402	0.380
-353.537	-162.537	0.115	0.006
-352.523	-35.819	0.246	-0.134
-351.508	-136.289	0.304	0.036
-350.493	48.806	-0.182	0.172
-349.479	87.016	0.338	0.376
-348.464	9.267	0.106	0.081
-347.450	-37.605	0.172	0.092
-346.435	-139.943	0.319	-0.034
-345.420	427.945	0.170	0.371
-344.406	-200.000	-0.033	0.351
-343.391	-84.579	-0.249	0.079
-342.377	11.315	0.050	0.038
-341.362	474.324	0.036	0.082
-340.348	42.506	0.111	0.102
-339.333	230.878	0.104	-0.171
-338.318	193.857	0.127	0.194
-337.304	484.523	0.037	-0.085
-336.289	61.875	0.193	0.194
-335.275	-200.000	0.011	-0.406
-334.260	-200.000	-0.002	-0.197
-333.245	-67.699	0.327	0.129
-332.231	-32.765	0.176	0.099
-331.216	-61.188	0.331	0.140
-330.202	213.801	0.166	-0.264
-329.187	-24.296	0.282	0.170
-328.172	-17.974	0.272	-0.172
-327.158	-50.899	-0.172	0.081
-326.143	-105.424	0.093	0.021
-325.129	86.066	-0.121	-0.134
-324.114	162.410	-0.057	-0.081
-323.099	-200.000	0.008	-0.107
-322.085	-142.984	-0.165	-0.016
-321.070	41.217	-0.261	0.238
-320.056	-155.454	-0.178	0.012
-319.041	2.206	-0.117	0.085
-318.026	800.000	0.122	0.470
-317.012	-200.000	0.036	-0.227
-315.997	127.086	0.012	0.016
-314.983	20.528	0.205	0.167
-313.968	-145.720	-0.270	0.024
-312.953	-200.000	0.056	-0.324
-311.939	-31.607	0.166	-0.094
-310.924	355.503	-0.038	0.076
-309.910	-155.786	0.081	0.005
-308.895	155.911	-0.226	0.313
-307.880	47.912	-0.067	-0.063
-306.866	-11.469	0.150	-0.099
-305.851	-26.257	-0.165	-0.097
-304.837	-63.846	-0.288	-0.119
-303.822	-87.593	-0.274	-0.083
-302.807	-116.715	0.159	-0.029
-301.793	-15.028	-0.094	-0.061
-300.778	18.866	0.166	0.133
-299.764	-200.000	0.086	-0.393
-298.749	474.007	-0.092	-0.208
-297.735	800.000	-0.076	0.255
-296.720	32.914	0.084	0.073
-295.705	-61.109	-0.177	0.075
-294.691	-200.000	0.021	-0.108
-293.676	-32.460	-0.075	-0.042
-292.662	185.445	0.107	0.159
-291.647	-20.402	-0.113	0.070
-290.632	-83.009	0.253	0.082
-289.618	93.648	-0.052	0.060
-288.603	800.000	-0.035	-0.106
-287.589	800.000	0.055	-0.220
-286.574	404.057	-0.121	0.255
-285.559	-102.769	-0.219	-0.052
-284.545	48.350	0.153	-0.144
-283.530	-200.000	0.023	-0.216
-282.516	800.000	0.089	0.289
-281.501	24.368	-0.244	0.202
-280.486	-200.000	-0.008	0.041
-279.472	-23.322	0.306	0.185
-278.457	366.686	-0.157	-0.319
-277.443	29.640	0.256	-0.219
-276.428	-200.000	0.009	0.078
-275.413	-7.203	-0.071	0.048
-274.399	100.717	-0.051	0.060
-273.384	-4.939	0.145	0.101
-272.370	-48.323	-0.227	-0.110
-271.355	-60.262	0.368	0.157
-270.340	64.022	-0.132	0.133
-269.326	-79.583	0.062	-0.021
-268.311	24.481	-0.343	-0.285
-267.297	800.000	0.038	-0.156
-266.282	67.668	-0.057	0.058
-265.267	200.322	0.171	0.264
-264.253	79.680	0.118	-0.127
-263.238	64.450	0.256	-0.258
-262.224	457.258	-0.105	-0.235
-261.209	800.000	0.077	0.291
-260.195	-160.247	0.160	-0.009
-259.180	132.694	-0.272	-0.352
-258.165	-82.743	0.281	-0.091
-257.151	-168.909	-0.347	-0.013
-256.136	-85.495	0.100	0.031
-255.122	-78.248	0.234	-0.081
-254.107	-200.000	0.033	0.304
-253.092	-59.060	-0.283	0.123
-252.078	315.735	-0.080	-0.152
-251.063	-58.587	-0.128	-0.056
-250.049	-200.000	0.029	-0.293
-249.034	800.000	0.008	0.027
-248.019	79.218	0.055	0.059
-247.005	28.495	0.191	-0.162
-245.990	800.000	0.134	-0.492
-244.976	800.000	0.069	0.289
-243.961	-200.000	0.031	0.240
-242.946	-200.000	-0.002	0.388
-241.932	-96.134	-0.218	0.058
-240.917	-35.800	-0.048	0.026
-239.903	31.639	0.399	0.345
-238.888	543.229	0.060	-0.144
-237.873	333.834	0.078	-0.152
-236.859	-88.352	0.277	0.083
-235.844	800.000	0.009	0.033
-234.830	-94.852	0.227	-0.062
-233.815	22.324	-0.078	0.064
-232.800	-72.591	0.071	-0.026
-231.786	-39.007	-0.186	-0.098
-230.771	-64.615	0.097	0.039
-229.757	-35.982	-0.087	0.047
-228.742	210.858	-0.090	-0.143
-227.727	562.420	-0.060	0.145
-226.713	-111.269	0.183	-0.037
-225.698	308.072	0.067	-0.125
-224.684	-114.856	-0.198	-0.038
-223.669	800.000	0.083	-0.270
-222.655	-114.372	0.235	0.045
-221.640	-52.050	0.085	-0.040
-220.625	-200.000	-0.006	-0.218
-219.611	123.323	0.246	-0.309
-218.596	-10.207	-0.161	-0.107
-217.582	-200.000	-0.014	-0.178
-216.567	-81.618	-0.394	0.130
-215.552	-26.917	0.133	-0.078
-214.538	-200.000	0.072	-0.359
-213.523	163.000	-0.155	-0.218
-212.509	194.813	-0.168	-0.255
-211.494	-200.000	0.089	-0.513
-210.479	57.285	-0.162	-0.159
-209.465	-43.355	-0.164	-0.083
-208.450	-200.000	-0.003	0.227
-207.436	-8.071	0.303	0.204
-206.421	-7.754	0.095	0.064
-205.406	-200.000	-0.002	0.113
-204.392	344.119	0.171	-0.335
-203.377	-168.441	0.300	-0.012
-202.363	170.206	0.132	-0.189
-201.348	248.076	0.068	-0.115
-200.333	-200.000	-0.011	-0.062
-199.319	-70.821	0.298	-0.112
-198.304	-184.637	-0.147	-0.002
-197.290	-121.578	0.126	0.021
-196.275	-63.068	-0.343	-0.142
-195.260	58.580	-0.026	-0.026
-194.246	-14.943	0.064	0.041
-193.231	-57.156	-0.226	0.100
-192.217	-99.327	0.219	0.055
-191.202	-46.318	-0.279	-0.137
-190.187	10.736	0.274	0.209
-189.173	-200.000	-0.010	-0.198
-188.158	-200.000	0.000	0.069
-187.144	-200.000	0.006	0.246
-186.129	-47.692	0.082	-0.040
-185.114	-89.489	-0.192	0.057
-184.100	-81.298	-0.176	-0.058
-183.085	-83.713	-0.214	0.069
-182.071	-44.700	-0.021	0.011
-181.056	-200.000	0.034	-0.311
-180.042	-200.000	-0.058	0.340
-179.027	800.000	-0.046	0.134
-178.012	-68.824	0.145	0.056
-176.998	-12.362	-0.104	0.068
-175.983	263.303	-0.174	0.303
-174.969	494.826	-0.095	0.217
-173.954	-200.000	-0.004	-0.036
-172.939	800.000	-0.161	0.561
-171.925	598.979	-0.027	0.066
-170.910	377.910	0.138	0.283
-169.896	17.908	-0.129	-0.103
-168.881	253.932	0.121	-0.207
-167.866	-200.000	0.004	0.050
-166.852	177.672	0.066	0.096
-165.837	183.065	-0.140	-0.206
-164.823	-162.078	0.412	-0.021
-163.808	800.000	0.022	-0.077
-162.793	-6.910	0.114	-0.077
-161.779	-52.858	-0.417	0.192
-160.764	319.132	-0.048	-0.090
-159.750	-108.418	-0.420	-0.090
-158.735	191.217	-0.125	0.188
-157.720	-126.026	0.121	-0.018
-156.706	-200.000	0.015	-0.196
-155.691	178.115	0.163	-0.238
-154.677	162.560	0.071	-0.100
-153.662	-146.997	0.322	-0.028
-152.647	-140.977	-0.076	0.008
-151.633	-97.544	0.159	-0.041
-150.618	-68.988	-0.180	0.070
-149.604	39.064	-0.122	-0.109
-148.589	-135.227	-0.259	0.031
-147.574	-103.034	-0.290	-0.069
-146.560	13.826	-0.227	-0.176
-145.545	88.901	0.099	-0.111
-144.531	330.662	0.048	-0.093
-143.516	-200.000	0.028	-0.374
-142.502	93.706	0.252	-0.285
-141.487	-200.000	-0.027	0.320
-140.472	-45.146	-0.192	-0.095
-139.458	-107.224	0.208	0.046
-138.443	-200.000	-0.001	-0.116
-137.429	-79.528	0.109	-0.037
-136.414	-166.504	0.251	0.010
-135.399	-91.660	-0.154	0.044
-134.385	27.818	0.188	-0.159
-133.370	207.692	0.128	0.199
-132.356	62.976	-0.044	-0.044
-131.341	-7.954	0.071	-0.048
-130.326	127.334	-0.229	0.290
-129.312	800.000	0.193	-0.570
-128.297	-200.000	0.006	-0.047
-127.283	800.000	0.119	-0.354
-126.268	108.532	-0.108	-0.129
-125.253	-95.395	-0.174	-0.047
-124.239	358.295	-0.113	-0.225
-123.224	-46.495	0.133	-0.065
-122.210	-200.000	-0.025	0.193
