DTS Sentinel unit serial number:	SN413079Multiplexer serial number:	ORYXHardware model number:	OX4-SRSoftware version number:	ORYX F/W v4.00 Oryx Data Collector v3.7.2.0data status	okinstallation	princeton_trtdifferential loss correction	single-endedforward channel	channel 4reverse channel	N/Adate	2019/09/14time	20:09:35forward acquisition time	60.00reverse acquisition time	0.00gamma	496.2192k internal	0.2304k external	0.2304temperature offset calibration	1.0093default loss term (dB/km)	0.3790temperature slope calibration	1.0000multiplexer offset coefficient	1.0000multiplexer slope coefficient	1.0000fibre end	0.00T internal ref (°C)	33.87T ext. ref 1 (°C)	4.89T ext. ref 2 (°C)	28.31length (m)	temperature (°C)	Stokes	anti-Stokes-747.200	-46.595	0.202	0.101
-746.185	-78.235	-0.160	0.056
-745.171	177.168	0.249	0.369
-744.156	221.565	0.132	0.216
-743.142	27.524	-0.052	0.044
-742.127	-26.100	0.256	-0.153
-741.112	-200.000	0.009	0.145
-740.098	799.581	-0.147	0.412
-739.083	-51.057	0.042	-0.020
-738.069	178.904	-0.166	0.247
-737.054	-76.954	-0.402	-0.143
-736.039	-33.422	-0.315	-0.177
-735.025	-67.632	0.295	-0.118
-734.010	272.732	-0.164	0.294
-732.996	179.024	-0.227	-0.338
-731.981	-159.403	-0.209	-0.012
-730.966	21.976	-0.167	0.139
-729.952	411.538	-0.036	-0.077
-728.937	800.000	-0.021	0.067
-727.923	-127.690	0.159	0.023
-726.908	-40.256	0.142	-0.075
-725.894	523.816	0.094	-0.224
-724.879	-157.277	0.196	0.012
-723.864	-166.627	-0.064	-0.003
-722.850	-131.543	0.183	0.025
-721.835	-79.246	-0.086	-0.030
-720.821	19.910	0.027	0.022
-719.806	81.020	0.159	-0.175
-718.791	188.129	-0.100	0.152
-717.777	329.836	-0.070	-0.137
-716.762	636.010	0.054	-0.139
-715.748	-22.904	-0.060	0.037
-714.733	-95.649	0.414	-0.113
-713.718	235.534	-0.170	-0.285
-712.704	800.000	-0.065	0.272
-711.689	738.024	0.070	-0.190
-710.675	-21.854	-0.180	-0.111
-709.660	28.999	0.242	-0.208
-708.645	2.811	0.120	-0.088
-707.631	-77.169	-0.155	0.055
-706.616	-33.393	-0.242	-0.136
-705.602	-200.000	-0.044	-0.245
-704.587	-18.527	0.075	0.048
-703.572	-108.610	-0.287	-0.063
-702.558	5.021	0.161	0.120
-701.543	0.039	-0.079	-0.057
-700.529	127.376	0.150	0.193
-699.514	-14.730	0.033	0.021
-698.499	800.000	-0.071	0.232
-697.485	40.072	-0.099	0.091
-696.470	-200.000	0.009	-0.150
-695.456	-200.000	-0.072	0.351
-694.441	800.000	-0.041	-0.180
-693.426	516.539	-0.054	-0.127
-692.412	778.920	-0.088	0.244
-691.397	-200.000	-0.047	-0.267
-690.383	-109.072	-0.124	0.027
-689.368	-154.734	-0.159	-0.011
-688.354	287.302	-0.067	-0.122
-687.339	65.756	-0.048	-0.049
-686.324	800.000	-0.015	-0.044
-685.310	254.737	-0.045	0.078
-684.295	3.567	-0.194	0.144
-683.281	1.385	-0.158	0.115
-682.266	-86.349	-0.252	0.079
-681.251	-200.000	0.000	-0.224
-680.237	135.540	0.091	0.121
-679.222	238.047	-0.049	-0.083
-678.208	193.867	-0.133	0.205
-677.193	129.104	-0.170	-0.220
-676.178	-58.519	-0.192	-0.085
-675.164	-63.283	0.209	-0.087
-674.149	-36.352	-0.252	0.138
-673.135	800.000	-0.166	-0.588
-672.120	124.751	-0.136	-0.174
-671.105	-151.674	-0.227	0.017
-670.091	-65.264	0.165	0.068
-669.076	38.014	0.112	0.101
-668.062	-200.000	0.026	-0.167
-667.047	191.922	-0.059	-0.091
-666.032	22.370	0.084	-0.070
-665.018	-200.000	-0.001	-0.372
-664.003	184.578	-0.390	0.587
-662.989	800.000	0.050	-0.169
-661.974	800.000	-0.101	-0.293
-660.959	800.000	-0.024	0.091
-659.945	66.198	-0.250	-0.258
-658.930	42.165	-0.116	-0.107
-657.916	800.000	-0.038	-0.141
-656.901	-200.000	-0.053	0.353
-655.886	-155.078	-0.253	0.017
-654.872	-55.630	0.288	-0.131
-653.857	-91.887	0.224	0.064
-652.843	800.000	-0.064	-0.261
-651.828	402.030	0.074	0.158
-650.814	-90.003	-0.421	-0.125
-649.799	-200.000	-0.004	0.393
-648.784	-121.151	-0.050	0.009
-647.770	-151.850	0.114	-0.009
-646.755	-90.480	0.317	-0.093
-645.741	717.402	0.057	0.153
-644.726	-200.000	-0.021	-0.243
-643.711	156.283	0.189	0.264
-642.697	-200.000	-0.010	-0.141
-641.682	-200.000	-0.127	-0.587
-640.668	-200.000	-0.019	0.117
-639.653	-180.487	0.032	0.001
-638.638	-63.732	-0.151	0.063
-637.624	-200.000	-0.012	-0.279
-636.609	-61.312	0.325	0.139
-635.595	68.117	0.169	-0.175
-634.580	-106.366	-0.257	0.058
-633.565	-79.427	0.272	0.093
-632.551	169.469	-0.021	-0.030
-631.536	-164.383	0.094	-0.004
-630.522	-200.000	-0.007	0.077
-629.507	-12.001	0.361	-0.240
-628.492	266.329	-0.134	-0.238
-627.478	756.179	-0.133	-0.364
-626.463	800.000	0.074	-0.295
-625.449	800.000	0.074	0.317
-624.434	524.678	-0.055	0.132
-623.419	800.000	-0.011	-0.046
-622.405	536.351	-0.051	0.123
-621.390	-138.267	0.254	-0.029
-620.376	425.797	0.081	0.176
-619.361	17.795	0.272	-0.219
-618.346	18.623	0.166	0.135
-617.332	190.165	0.221	-0.336
-616.317	-113.861	-0.109	0.021
-615.303	-132.490	-0.309	0.040
-614.288	800.000	0.034	-0.108
-613.273	-200.000	0.013	0.186
-612.259	-79.509	0.307	0.105
-611.244	84.427	0.220	-0.244
-610.230	97.573	0.260	0.303
-609.215	-89.327	-0.161	0.048
-608.201	800.000	0.013	0.055
-607.186	61.914	-0.311	-0.314
-606.171	-79.551	-0.110	-0.038
-605.157	-170.246	0.152	0.005
-604.142	55.059	-0.123	0.120
-603.128	69.773	-0.258	0.269
-602.113	-123.811	-0.218	0.035
-601.098	-200.000	0.060	0.345
-600.084	-77.794	-0.177	-0.062
-599.069	-200.000	0.008	0.204
-598.055	-91.385	-0.151	0.044
-597.040	-200.000	-0.017	-0.123
-596.025	-200.000	0.015	0.072
-595.011	-56.171	0.132	0.060
-593.996	159.257	-0.101	0.142
-592.982	-79.932	0.243	-0.082
-591.967	180.093	0.104	-0.155
-590.952	78.534	-0.224	0.242
-589.938	-61.583	-0.125	-0.053
-588.923	-14.281	-0.254	0.166
-587.909	-142.115	-0.368	-0.037
-586.894	-200.000	0.001	-0.181
-585.879	5.932	0.252	-0.189
-584.865	165.792	0.109	-0.155
-583.850	800.000	0.058	0.189
-582.836	800.000	0.028	-0.079
-581.821	144.608	-0.338	-0.457
-580.806	-200.000	0.014	-0.114
-579.792	-75.823	0.071	0.025
-578.777	-141.279	0.115	0.012
-577.763	30.010	-0.209	0.180
-576.748	800.000	0.155	-0.479
-575.733	-200.000	-0.005	-0.217
-574.719	130.763	0.044	0.057
-573.704	-37.366	0.241	-0.130
-572.690	78.210	-0.164	-0.177
-571.675	572.879	0.139	-0.342
-570.661	-76.718	0.065	-0.023
-569.646	-133.570	0.189	0.024
-568.631	208.653	0.102	0.162
-567.617	204.267	-0.123	0.193
-566.602	800.000	-0.057	0.203
-565.588	-108.154	-0.373	0.082
-564.573	-140.940	0.729	0.076
-563.558	239.998	0.201	-0.339
-562.544	-118.248	-0.067	-0.012
-561.529	-200.000	-0.004	0.157
-560.515	800.000	0.065	-0.204
-559.500	76.203	0.087	-0.093
-558.485	9.118	-0.319	0.244
-557.471	617.177	-0.042	-0.106
-556.456	-82.426	-0.101	-0.033
-555.442	800.000	-0.049	-0.165
-554.427	315.176	0.048	-0.091
-553.412	439.251	0.093	0.205
-552.398	-200.000	0.020	0.387
-551.383	57.510	0.102	-0.101
-550.369	-21.706	0.100	0.062
-549.354	6.196	-0.281	0.210
-548.339	-134.594	0.301	0.037
-547.325	800.000	0.047	0.143
-546.310	800.000	0.007	0.022
-545.296	800.000	0.047	-0.139
-544.281	-32.806	0.121	0.068
-543.266	-200.000	0.013	0.118
-542.252	185.894	0.070	-0.105
-541.237	-146.294	0.193	-0.017
-540.223	141.731	-0.110	0.148
-539.208	-125.412	-0.279	-0.043
-538.193	-78.097	-0.648	-0.225
-537.179	-100.989	-0.304	0.075
-536.164	-9.350	0.275	-0.185
-535.150	369.027	0.025	0.052
-534.135	-179.564	-0.125	0.003
-533.121	7.852	0.391	0.296
-532.106	652.543	0.109	0.282
-531.091	-200.000	0.016	0.240
-530.077	-93.815	0.346	0.096
-529.062	0.607	-0.198	-0.143
-528.048	-68.200	-0.183	0.072
-527.033	-53.405	0.385	-0.178
-526.018	33.037	-0.240	0.210
-525.004	-200.000	-0.075	-0.391
-523.989	125.148	-0.183	-0.233
-522.975	23.903	0.180	-0.150
-521.960	-35.513	-0.189	0.104
-520.945	-146.897	0.262	0.023
-519.931	62.866	-0.228	0.230
-518.916	120.457	-0.064	0.080
-517.902	800.000	-0.014	0.041
-516.887	431.286	-0.108	0.235
-515.872	-55.191	-0.161	-0.073
-514.858	225.434	-0.203	-0.332
-513.843	421.319	0.031	-0.067
-512.829	-106.378	-0.242	-0.055
-511.814	560.704	0.063	-0.153
-510.799	-109.051	-0.135	0.029
-509.785	-59.038	-0.156	-0.068
-508.770	-200.000	0.007	-0.354
-507.756	800.000	0.027	-0.103
-506.741	41.588	0.152	-0.139
-505.726	-163.694	0.108	0.005
-504.712	472.365	-0.158	-0.359
-503.697	238.690	-0.083	-0.139
-502.683	800.000	-0.031	0.103
-501.668	800.000	0.112	-0.319
-500.653	-116.701	-0.127	-0.024
-499.639	-14.688	-0.213	0.138
-498.624	32.158	-0.234	0.204
-497.610	404.701	-0.071	-0.150
-496.595	-174.925	0.334	0.009
-495.581	800.000	0.017	0.064
-494.566	-43.746	0.070	-0.035
-493.551	-93.607	0.112	-0.031
-492.537	800.000	0.118	0.362
-491.522	253.754	-0.098	0.169
-490.508	6.263	0.184	0.138
-489.493	-200.000	0.018	-0.342
-488.478	501.639	-0.180	-0.420
-487.464	54.442	-0.128	-0.124
-486.449	504.083	-0.077	-0.180
-485.435	233.103	-0.053	-0.087
-484.420	73.677	-0.281	0.296
-483.405	51.949	-0.245	0.235
-482.391	70.886	0.062	-0.064
-481.376	800.000	0.016	0.067
-480.362	276.548	0.069	0.123
-479.347	800.000	0.092	-0.366
-478.332	-22.659	0.146	0.089
-477.318	800.000	-0.032	-0.112
-476.303	-83.841	0.044	0.014
-475.289	221.256	-0.151	0.244
-474.274	-200.000	0.045	0.277
-473.259	-200.000	-0.042	0.190
-472.245	-200.000	-0.016	0.128
-471.230	-79.027	0.156	-0.053
-470.216	-200.000	-0.016	0.160
-469.201	305.194	0.104	0.195
-468.186	-109.442	-0.388	-0.083
-467.172	-200.000	-0.021	0.152
-466.157	-200.000	-0.053	-0.341
-465.143	-9.614	0.211	0.142
-464.128	50.270	-0.215	-0.204
-463.113	-2.921	0.047	0.033
-462.099	54.446	-0.245	-0.237
-461.084	-178.604	0.164	0.004
-460.070	92.567	-0.074	0.084
-459.055	441.600	0.156	-0.345
-458.040	-20.236	0.217	-0.134
-457.026	212.781	0.094	0.150
-456.011	626.793	0.023	0.057
-454.997	-200.000	-0.057	0.278
-453.982	320.968	-0.095	0.183
-452.968	47.784	0.287	-0.270
-451.953	800.000	0.054	-0.212
-450.938	-103.940	0.329	0.077
-449.924	800.000	0.116	0.399
-448.909	-115.582	0.181	-0.034
-447.895	-164.930	-0.133	-0.006
-446.880	-78.819	-0.295	0.101
-445.865	-131.841	0.158	0.021
-444.851	566.552	0.046	-0.113
-443.836	800.000	0.083	-0.347
-442.822	-38.926	-0.256	-0.136
-441.807	-48.392	-0.089	0.043
-440.792	48.265	-0.185	-0.174
-439.778	-56.654	-0.310	0.138
-438.763	4.958	-0.031	0.023
-437.749	689.384	0.102	0.268
-436.734	278.824	-0.031	-0.055
-435.719	309.358	-0.315	-0.592
-434.705	800.000	0.091	-0.329
-433.690	-69.545	-0.120	0.046
-432.676	-7.794	-0.042	0.029
-431.661	79.002	-0.287	-0.309
-430.646	-61.623	0.120	-0.051
-429.632	228.117	-0.159	-0.260
-428.617	301.506	0.014	-0.026
-427.603	-2.407	0.220	-0.155
-426.588	-171.420	-0.095	0.003
-425.573	-200.000	-0.011	0.275
-424.559	-67.929	-0.495	-0.194
-423.544	148.684	-0.191	-0.260
-422.530	174.077	-0.102	0.148
-421.515	-200.000	-0.007	0.107
-420.500	-149.855	0.044	-0.003
-419.486	-116.722	-0.105	-0.019
-418.471	-147.133	0.189	-0.016
-417.457	800.000	-0.074	0.317
-416.442	-75.169	-0.074	-0.027
-415.428	-78.767	0.319	-0.109
-414.413	342.220	0.067	0.132
-413.398	-63.616	-0.134	-0.055
-412.384	452.831	-0.164	-0.364
-411.369	-5.592	0.182	-0.125
-410.355	-50.325	0.082	-0.039
-409.340	800.000	0.041	0.156
-408.325	800.000	-0.036	0.101
-407.311	661.518	0.060	0.157
-406.296	-109.277	0.325	0.069
-405.282	-156.291	0.056	0.004
-404.267	-37.837	0.129	0.069
-403.252	-200.000	0.004	-0.260
-402.238	79.566	0.063	0.068
-401.223	-86.734	0.068	0.021
-400.209	-101.997	-0.339	0.082
-399.194	-120.543	-0.096	0.016
-398.179	-71.185	0.150	0.057
-397.165	-129.758	0.083	0.012
-396.150	391.748	0.151	0.314
-395.136	-118.824	0.143	-0.025
-394.121	-200.000	0.025	0.149
-393.106	-200.000	0.018	-0.226
-392.092	-77.204	-0.475	-0.166
-391.077	-81.616	0.168	0.056
-390.063	-141.264	-0.127	-0.013
-389.048	318.086	0.048	-0.091
-388.033	201.041	0.060	-0.093
-387.019	-75.327	0.152	0.054
-386.004	331.701	0.081	-0.156
-384.990	800.000	-0.023	0.082
-383.975	35.795	0.083	-0.074
-382.960	124.944	-0.033	-0.042
-381.946	22.485	0.338	0.277
-380.931	-71.961	0.155	-0.058
-379.917	-97.918	-0.062	-0.016
-378.902	-200.000	-0.017	-0.106
-377.888	-137.238	0.238	-0.027
-376.873	794.644	0.075	0.208
-375.858	229.297	-0.065	-0.107
-374.844	800.000	0.030	0.100
-373.829	-24.967	-0.234	0.139
-372.815	70.236	0.125	0.129
-371.800	-200.000	0.002	0.038
-370.785	2.114	0.165	0.120
-369.771	800.000	-0.069	0.234
-368.756	-83.199	-0.144	0.046
-367.742	-106.940	0.197	-0.044
-366.727	210.230	-0.135	-0.213
-365.712	-80.648	-0.297	-0.099
-364.698	247.052	0.107	0.181
-363.683	59.799	-0.271	-0.268
-362.669	370.841	-0.113	-0.230
-361.654	-98.194	-0.336	0.086
-360.639	-134.213	0.414	-0.051
-359.625	800.000	0.150	0.500
-358.610	-200.000	0.015	-0.147
-357.596	-200.000	0.040	0.302
-356.581	-200.000	-0.016	0.381
-355.566	26.785	0.074	0.062
-354.552	-127.652	0.178	0.026
-353.537	-174.687	-0.278	-0.008
-352.523	3.226	0.166	-0.121
-351.508	-200.000	0.017	0.264
-350.493	242.730	-0.020	-0.033
-349.479	-38.557	-0.144	0.076
-348.464	217.755	-0.075	0.119
-347.450	58.040	-0.088	0.087
-346.435	-88.485	0.122	0.037
-345.420	800.000	-0.042	-0.173
-344.406	-200.000	-0.147	0.000
-343.391	800.000	0.082	0.244
-342.377	-123.479	-0.207	-0.033
-341.362	-200.000	0.011	-0.133
-340.348	-98.285	-0.189	-0.049
-339.333	800.000	0.082	0.283
-338.318	-200.000	-0.000	0.088
-337.304	-96.915	-0.084	-0.022
-336.289	-101.005	0.206	0.051
-335.275	347.757	0.077	0.151
-334.260	381.079	0.132	-0.272
-333.245	107.979	-0.167	0.199
-332.231	-200.000	0.002	0.397
-331.216	63.331	0.266	-0.267
-330.202	-22.965	-0.204	-0.123
-329.187	466.195	0.197	0.441
-328.172	287.364	-0.155	0.281
-327.158	229.817	-0.173	-0.282
-326.143	223.862	0.191	-0.308
-325.129	-200.000	0.059	0.360
-324.114	800.000	0.055	0.167
-323.099	-200.000	0.034	-0.267
-322.085	409.755	-0.045	0.096
-321.070	-74.485	-0.042	-0.015
-320.056	98.615	-0.146	-0.169
-319.041	800.000	0.085	0.324
-318.026	-200.000	0.028	0.263
-317.012	22.177	-0.204	0.167
-315.997	412.011	-0.059	0.125
-314.983	-127.437	-0.352	-0.051
-313.968	617.938	0.143	-0.360
-312.953	-50.060	-0.056	0.026
-311.939	84.584	-0.154	-0.169
-310.924	800.000	0.045	-0.161
-309.910	230.152	-0.056	-0.091
-308.895	-95.718	0.274	0.073
-307.880	-79.907	0.114	0.038
-306.866	800.000	-0.025	-0.090
-305.851	800.000	-0.075	0.265
-304.837	159.148	-0.234	0.326
-303.822	389.186	0.161	-0.333
-302.807	15.343	0.115	0.090
-301.793	-200.000	-0.045	-0.209
-300.778	-35.130	0.126	0.069
-299.764	108.969	0.086	0.103
-298.749	-200.000	-0.002	-0.122
-297.735	-143.964	-0.387	0.036
-296.720	800.000	-0.013	0.056
-295.705	381.637	-0.159	0.326
-294.691	306.067	-0.026	0.048
-293.676	-38.086	0.058	0.031
-292.662	-102.740	-0.288	0.069
-291.647	-196.251	0.435	-0.003
-290.632	-94.272	-0.108	-0.029
-289.618	-144.777	0.261	0.024
-288.603	226.166	-0.058	-0.094
-287.589	-45.685	0.215	0.106
-286.574	107.495	0.188	-0.224
-285.559	86.752	0.058	0.064
-284.545	120.618	-0.283	0.352
-283.530	-45.843	-0.086	-0.042
-282.516	-98.904	-0.111	0.028
-281.501	634.882	0.132	0.334
-280.486	46.887	0.216	-0.201
-279.472	169.637	0.180	0.257
-278.457	800.000	0.028	0.089
-277.443	-21.867	0.277	0.168
-276.428	-153.036	-0.180	0.013
-275.413	-200.000	-0.046	0.244
-274.399	95.550	-0.202	0.231
-273.384	-87.469	0.248	-0.075
-272.370	11.158	0.195	-0.149
-271.355	89.290	-0.167	-0.186
-270.340	-13.218	-0.179	-0.116
-269.326	332.536	0.199	-0.384
-268.311	-111.927	0.293	0.059
-267.297	-98.893	0.237	0.060
-266.282	-96.634	-0.111	0.029
-265.267	40.358	0.104	0.093
-264.253	210.372	-0.066	0.104
-263.238	37.493	-0.018	-0.016
-262.224	-187.317	0.169	-0.002
-261.209	-79.162	0.092	-0.031
-260.195	22.698	-0.143	0.117
-259.180	-200.000	-0.007	-0.143
-258.165	-106.812	0.347	-0.077
-257.151	-118.372	-0.240	0.042
-256.136	800.000	0.065	0.199
-255.122	-120.349	-0.190	0.032
-254.107	56.520	0.011	-0.010
-253.092	-130.863	-0.224	-0.030
-252.078	367.837	-0.096	-0.194
-251.063	-65.682	-0.118	-0.047
-250.049	800.000	-0.101	-0.333
-249.034	-174.520	-0.385	-0.011
-248.019	-182.497	0.263	0.005
-247.005	359.792	-0.021	-0.041
-245.990	53.032	-0.024	-0.023
-244.976	130.412	-0.159	0.203
-243.961	-200.000	-0.005	0.140
-242.946	13.533	0.212	0.164
-241.932	-200.000	0.085	-0.410
-240.917	-200.000	-0.012	-0.193
-239.903	19.635	-0.114	-0.092
-238.888	-200.000	-0.028	0.208
-237.873	-36.237	-0.136	0.073
-236.859	79.890	0.146	0.157
-235.844	-47.654	0.031	-0.015
-234.830	800.000	-0.092	0.365
-233.815	-200.000	0.040	0.359
-232.800	65.897	0.145	0.147
-231.786	-200.000	-0.040	-0.189
-230.771	-200.000	-0.012	-0.451
-229.757	-16.139	0.118	-0.075
-228.742	-200.000	-0.044	-0.241
-227.727	800.000	-0.089	-0.286
-226.713	800.000	0.030	0.083
-225.698	-200.000	0.055	-0.471
-224.684	374.515	-0.118	0.239
-223.669	78.459	-0.135	-0.144
-222.655	-48.573	0.188	-0.090
-221.640	800.000	0.061	-0.245
-220.625	-53.973	0.106	-0.048
-219.611	209.913	-0.023	-0.037
-218.596	81.750	0.149	-0.161
-217.582	-61.312	-0.285	-0.120
-216.567	215.588	0.077	-0.122
-215.552	-29.217	0.177	-0.101
-214.538	-200.000	-0.054	-0.343
-213.523	-93.336	0.121	-0.034
-212.509	-97.388	-0.294	0.076
-211.494	-84.776	-0.199	0.062
-210.479	-180.790	0.251	-0.005
-209.465	800.000	0.062	-0.228
-208.450	-200.000	0.012	0.129
-207.436	-145.325	0.151	-0.014
-206.421	-15.096	-0.294	0.187
-205.406	17.045	-0.397	0.314
-204.392	360.118	0.077	0.153
-203.377	93.374	0.146	0.165
-202.363	-147.664	0.138	0.012
-201.348	800.000	-0.034	-0.141
-200.333	800.000	-0.028	-0.116
-199.319	-197.110	0.218	-0.001
-198.304	800.000	0.058	0.185
-197.290	46.003	0.234	0.216
-196.275	-200.000	0.021	-0.092
-195.260	-125.884	-0.275	-0.041
-194.246	601.882	-0.082	-0.204
-193.231	190.179	-0.098	0.146
-192.217	-200.000	0.035	0.157
-191.202	-122.435	-0.084	-0.014
-190.187	-200.000	0.027	0.279
-189.173	-200.000	-0.019	-0.153
-188.158	5.916	-0.095	-0.070
-187.144	81.216	0.170	-0.183
-186.129	-8.608	-0.269	0.180
-185.114	-47.961	-0.268	-0.129
-184.100	-69.445	-0.241	-0.092
-183.085	-200.000	0.038	0.171
-182.071	-200.000	0.047	-0.222
-181.056	-200.000	0.011	0.220
-180.042	550.766	0.087	0.207
-179.027	-200.000	-0.046	-0.250
-178.012	61.828	0.135	0.134
-176.998	198.904	-0.079	0.121
-175.983	-200.000	-0.039	-0.230
-174.969	-15.143	0.195	0.124
-173.954	800.000	-0.045	0.132
-172.939	221.581	-0.040	0.064
-171.925	800.000	-0.061	0.218
-170.910	-152.141	-0.153	0.011
-169.896	19.061	-0.031	-0.025
-168.881	-8.227	0.154	0.103
-167.866	-84.829	0.121	-0.038
-166.852	243.363	0.108	0.181
-165.837	-141.844	0.317	-0.032
-164.823	25.889	0.107	0.089
-163.808	-40.710	0.209	0.108
-162.793	66.647	0.084	-0.085
-161.779	-200.000	0.040	-0.196
-160.764	-158.995	-0.387	-0.022
-159.750	-200.000	0.030	-0.198
-158.735	-114.176	-0.250	-0.048
-157.720	-95.188	-0.047	0.013
-156.706	-200.000	-0.005	-0.153
-155.691	756.490	-0.048	0.128
-154.677	-72.850	0.364	-0.133
-153.662	-115.587	-0.325	-0.061
-152.647	-101.850	0.265	0.064
-151.633	-200.000	-0.029	0.278
-150.618	-200.000	0.020	0.184
-149.604	-117.566	-0.334	-0.060
-148.589	14.880	0.371	0.289
-147.574	564.072	0.060	-0.144
-146.560	-6.715	0.161	0.109
-145.545	712.803	-0.045	0.118
-144.531	42.912	-0.179	-0.162
-143.516	78.696	0.225	-0.239
-142.502	800.000	-0.080	0.246
-141.487	-9.960	-0.113	0.075
-140.472	-124.366	-0.458	0.071
-139.458	-126.911	-0.218	-0.032
-138.443	800.000	-0.096	-0.267
-137.429	730.159	0.161	-0.429
-136.414	121.520	-0.134	0.166
-135.399	131.952	0.186	-0.237
-134.385	-80.274	0.261	0.087
-133.370	800.000	-0.040	0.145
-132.356	-200.000	0.011	-0.348
-131.341	-172.992	0.056	0.002
-130.326	11.255	-0.334	0.254
-129.312	-89.771	0.100	0.029
-128.297	-148.360	0.424	-0.035
-127.283	-76.946	-0.112	0.039
-126.268	-72.154	-0.308	-0.114
-125.253	182.900	-0.204	-0.300
-124.239	-119.525	-0.370	-0.064
-123.224	0.462	0.248	0.176
-122.210	-200.000	-0.016	-0.229
-121.195	293.197	-0.097	-0.175
