DTS Sentinel unit serial number:	SN413079Multiplexer serial number:	ORYXHardware model number:	OX4-SRSoftware version number:	ORYX F/W v4.00 Oryx Data Collector v3.7.2.0data status	okinstallation	princeton_trtdifferential loss correction	single-endedforward channel	channel 4reverse channel	N/Adate	2019/09/16time	04:13:35forward acquisition time	60.00reverse acquisition time	0.00gamma	496.2192k internal	0.2321k external	0.2321temperature offset calibration	0.9977default loss term (dB/km)	0.3790temperature slope calibration	1.0000multiplexer offset coefficient	1.0000multiplexer slope coefficient	1.0000fibre end	0.00T internal ref (°C)	27.37T ext. ref 1 (°C)	10.77T ext. ref 2 (°C)	21.43length (m)	temperature (°C)	Stokes	anti-Stokes-747.200	-114.032	0.201	0.039
-746.185	437.838	-0.067	0.148
-745.171	-76.322	-0.177	0.063
-744.156	61.057	-0.253	0.254
-743.142	17.919	-0.175	-0.141
-742.127	139.101	-0.220	-0.293
-741.112	-81.337	-0.296	0.099
-740.098	-9.156	-0.019	-0.013
-739.083	-57.485	-0.308	-0.137
-738.069	396.429	0.070	-0.147
-737.054	-200.000	-0.038	-0.307
-736.039	-34.370	0.063	-0.035
-735.025	-58.295	-0.072	0.032
-734.010	155.146	0.115	0.160
-732.996	250.602	0.125	-0.215
-731.981	21.241	-0.141	0.116
-730.966	351.939	-0.158	0.316
-729.952	-112.559	-0.195	0.039
-728.937	-44.776	-0.023	0.012
-727.923	567.064	-0.091	-0.223
-726.908	-102.192	-0.244	0.059
-725.894	-94.545	0.176	0.049
-724.879	800.000	-0.116	-0.393
-723.864	24.700	-0.171	0.143
-722.850	166.063	-0.175	0.250
-721.835	282.114	-0.236	-0.427
-720.821	104.343	-0.202	-0.240
-719.806	33.071	-0.299	-0.262
-718.791	-13.857	-0.108	0.071
-717.777	-200.000	-0.001	-0.228
-716.762	21.865	0.152	0.125
-715.748	50.670	-0.144	-0.137
-714.733	800.000	0.124	-0.382
-713.718	10.392	-0.295	-0.227
-712.704	-81.566	-0.064	-0.021
-711.689	27.648	0.228	0.194
-710.675	300.265	0.098	-0.182
-709.660	406.909	-0.168	-0.357
-708.645	43.684	-0.089	0.082
-707.631	109.943	0.067	0.081
-706.616	800.000	0.102	-0.381
-705.602	800.000	-0.100	-0.300
-704.587	225.554	0.084	-0.137
-703.572	731.501	0.079	-0.214
-702.558	-200.000	-0.013	-0.273
-701.543	-50.289	-0.095	-0.045
-700.529	100.116	-0.113	0.132
-699.514	212.300	-0.093	0.148
-698.499	196.314	-0.158	-0.243
-697.485	-35.173	-0.260	-0.143
-696.470	-88.809	-0.242	-0.073
-695.456	215.600	-0.041	-0.066
-694.441	-200.000	-0.016	0.088
-693.426	111.204	-0.360	-0.437
-692.412	80.957	-0.059	-0.064
-691.397	800.000	-0.103	-0.350
-690.383	-200.000	-0.002	-0.048
-689.368	-122.229	-0.145	-0.024
-688.354	-84.783	-0.385	-0.122
-687.339	-57.295	-0.258	-0.114
-686.324	-200.000	0.055	0.257
-685.310	211.677	0.107	0.170
-684.295	-200.000	0.071	-0.364
-683.281	-200.000	0.008	0.180
-682.266	-30.648	-0.108	-0.062
-681.251	-72.081	0.148	-0.056
-680.237	-146.285	-0.427	-0.038
-679.222	-39.354	-0.194	-0.102
-678.208	51.562	0.232	-0.222
-677.193	17.285	0.174	-0.139
-676.178	-63.782	0.073	-0.030
-675.164	-59.359	0.295	-0.128
-674.149	69.287	0.132	-0.136
-673.135	-200.000	0.029	0.132
-672.120	86.738	-0.158	-0.176
-671.105	33.368	-0.108	-0.094
-670.091	57.270	-0.323	0.318
-669.076	800.000	-0.033	0.116
-668.062	793.058	-0.080	0.223
-667.047	23.087	-0.264	0.218
-666.032	7.754	0.224	-0.169
-665.018	800.000	0.003	-0.009
-664.003	45.961	0.029	-0.027
-662.989	75.376	0.073	0.077
-661.974	-52.049	0.218	-0.102
-660.959	413.452	-0.181	0.387
-659.945	800.000	-0.023	-0.077
-658.930	84.281	-0.127	-0.140
-657.916	-9.802	0.317	-0.213
-656.901	-64.022	0.192	0.079
-655.886	754.211	-0.051	-0.139
-654.872	62.998	-0.070	-0.070
-653.857	-2.270	0.077	-0.055
-652.843	-200.000	-0.007	0.077
-651.828	-95.732	-0.220	-0.059
-650.814	-9.334	-0.398	-0.267
-649.799	-200.000	0.046	-0.246
-648.784	-200.000	0.065	-0.400
-647.770	-200.000	-0.002	-0.502
-646.755	385.470	-0.108	0.225
-645.741	-67.502	-0.192	-0.076
-644.726	-88.119	0.175	0.053
-643.711	144.440	0.024	-0.032
-642.697	159.656	-0.157	-0.220
-641.682	623.077	-0.066	0.168
-640.668	29.472	0.066	-0.056
-639.653	-104.710	0.291	0.067
-638.638	-8.627	0.116	0.078
-637.624	575.783	-0.054	-0.132
-636.609	-200.000	0.007	0.225
-635.595	-200.000	0.004	0.218
-634.580	238.269	-0.087	0.145
-633.565	363.215	-0.172	0.347
-632.551	-82.042	-0.156	-0.051
-631.536	-74.983	0.218	0.079
-630.522	800.000	0.098	0.299
-629.507	-155.970	0.439	0.028
-628.492	-200.000	0.025	0.166
-627.478	62.575	0.158	0.159
-626.463	-5.950	0.117	-0.080
-625.449	-200.000	-0.230	0.001
-624.434	169.406	-0.113	-0.162
-623.419	-97.735	-0.117	-0.031
-622.405	265.529	0.269	-0.473
-621.390	-108.710	-0.272	-0.059
-620.376	-99.911	0.203	0.051
-619.361	-116.431	0.274	-0.051
-618.346	108.667	-0.121	0.146
-617.332	473.145	0.247	-0.560
-616.317	-103.154	0.263	-0.063
-615.303	-70.815	0.052	-0.020
-614.288	412.990	-0.065	-0.139
-613.273	-132.143	-0.347	-0.045
-612.259	-200.000	-0.017	0.174
-611.244	-196.485	0.153	0.001
-610.230	603.386	-0.040	0.101
-609.215	-200.000	-0.052	0.275
-608.201	-114.642	-0.227	0.044
-607.186	-200.000	-0.016	-0.129
-606.171	-200.000	0.003	-0.099
-605.157	800.000	-0.028	0.091
-604.142	86.142	-0.147	-0.163
-603.128	604.516	-0.027	0.067
-602.113	355.371	0.140	-0.281
-601.098	-142.589	-0.185	-0.018
-600.084	-84.999	0.307	0.097
-599.069	42.648	-0.341	0.312
-598.055	-98.451	0.295	0.076
-597.040	560.388	0.104	-0.252
-596.025	121.894	-0.263	-0.329
-595.011	-139.581	0.402	0.043
-593.996	-200.000	0.033	-0.224
-592.982	-24.322	-0.324	-0.194
-591.967	-147.713	-0.238	0.020
-590.952	-200.000	0.024	-0.115
-589.938	800.000	0.088	0.294
-588.923	-175.606	-0.447	-0.012
-587.909	263.062	-0.225	-0.392
-586.894	-57.662	0.234	-0.103
-585.879	-107.978	-0.093	0.020
-584.865	-82.942	-0.280	0.091
-583.850	-200.000	-0.011	0.105
-582.836	-145.362	-0.273	-0.025
-581.821	80.120	-0.238	-0.258
-580.806	-118.673	-0.304	0.054
-579.792	110.916	0.223	0.269
-578.777	800.000	0.097	-0.391
-577.763	800.000	-0.030	-0.100
-576.748	174.896	-0.193	0.280
-575.733	-200.000	0.202	-0.000
-574.719	112.223	-0.089	-0.108
-573.704	-89.964	0.244	-0.071
-572.690	-90.180	0.314	0.092
-571.675	800.000	0.023	-0.086
-570.661	90.684	0.058	0.065
-569.646	-142.564	0.319	-0.031
-568.631	-54.012	-0.308	0.141
-567.617	57.685	-0.032	-0.032
-566.602	-142.394	0.156	0.015
-565.588	-131.728	0.085	-0.011
-564.573	13.229	-0.154	-0.120
-563.558	11.150	0.358	-0.275
-562.544	291.453	0.177	0.324
-561.529	137.099	-0.180	0.236
-560.515	756.852	-0.074	0.202
-559.500	-165.259	0.384	-0.017
-558.485	-200.000	0.007	-0.108
-557.471	-200.000	-0.019	0.312
-556.456	-75.765	0.077	0.027
-555.442	-44.989	-0.060	-0.030
-554.427	-58.855	-0.333	-0.145
-553.412	284.613	-0.043	-0.078
-552.398	-200.000	-0.009	0.106
-551.383	-122.389	0.303	-0.050
-550.369	87.341	-0.091	0.101
-549.354	143.267	0.270	0.360
-548.339	-200.000	0.034	-0.271
-547.325	615.237	0.052	0.132
-546.310	-19.128	-0.057	0.036
-545.296	79.482	-0.143	-0.153
-544.281	326.391	-0.100	-0.193
-543.266	-149.165	-0.008	0.001
-542.252	143.373	0.077	0.102
-541.237	-200.000	0.065	0.424
-540.223	3.905	-0.212	0.155
-539.208	75.060	-0.143	0.152
-538.193	-33.079	-0.105	0.058
-537.179	254.653	-0.040	-0.069
-536.164	248.666	0.101	0.171
-535.150	-145.518	0.128	-0.012
-534.135	0.764	-0.185	0.133
-533.121	23.490	-0.032	-0.026
-532.106	-200.000	0.008	-0.316
-531.091	-200.000	-0.025	0.162
-530.077	330.368	0.102	-0.198
-529.062	-11.817	0.284	-0.187
-528.048	15.310	0.128	-0.101
-527.033	800.000	0.120	-0.356
-526.018	82.887	0.263	-0.286
-525.004	58.928	0.182	0.180
-523.989	56.535	0.159	0.155
-522.975	207.804	0.136	-0.213
-521.960	-200.000	0.011	-0.112
-520.945	-200.000	0.000	-0.034
-519.931	417.027	0.051	0.109
-518.916	-200.000	0.027	0.236
-517.902	511.260	-0.095	0.222
-516.887	4.109	-0.185	-0.136
-515.872	9.152	-0.233	-0.177
-514.858	-42.486	0.145	-0.074
-513.843	-3.521	0.076	-0.053
-512.829	-37.066	0.139	0.075
-511.814	-15.962	0.345	0.220
-510.799	800.000	0.061	0.233
-509.785	-62.413	-0.203	0.085
-508.770	-15.166	-0.093	0.060
-507.756	-200.000	-0.031	0.178
-506.741	-200.000	-0.003	-0.117
-505.726	-200.000	-0.009	-0.248
-504.712	-115.504	0.235	0.044
-503.697	-200.000	-0.036	0.180
-502.683	800.000	0.047	-0.188
-501.668	571.004	-0.157	-0.383
-500.653	465.782	0.072	-0.162
-499.639	-166.797	-0.111	-0.005
-498.624	-85.008	-0.247	0.077
-497.610	14.490	0.225	-0.175
-496.595	-54.571	-0.268	0.121
-495.581	38.896	0.245	-0.220
-494.566	543.601	0.065	0.156
-493.551	125.340	-0.058	-0.074
-492.537	800.000	-0.141	-0.439
-491.522	-76.609	0.388	0.136
-490.508	-2.106	0.064	-0.045
-489.493	-81.903	0.136	-0.045
-488.478	735.198	-0.074	-0.199
-487.464	-200.000	0.012	-0.374
-486.449	-125.898	-0.296	0.045
-485.435	-200.000	-0.042	-0.229
-484.420	2.863	-0.063	0.046
-483.405	77.900	0.325	0.347
-482.391	-200.000	-0.033	0.188
-481.376	366.294	0.091	0.184
-480.362	-200.000	0.027	0.329
-479.347	-28.613	-0.180	0.104
-478.332	83.975	-0.048	0.052
-477.318	-94.365	0.269	0.074
-476.303	176.703	0.147	0.214
-475.289	-200.000	0.030	0.206
-474.274	-68.384	-0.069	-0.027
-473.259	-148.752	-0.166	-0.013
-472.245	-2.807	-0.144	-0.101
-471.230	210.961	-0.237	0.372
-470.216	-28.619	-0.329	0.190
-469.201	214.663	-0.224	0.355
-468.186	88.152	-0.028	0.031
-467.172	-57.754	0.125	-0.055
-466.157	-114.983	-0.134	-0.025
-465.143	-84.739	-0.200	-0.063
-464.128	-37.951	-0.316	0.168
-463.113	-200.000	0.026	0.196
-462.099	-101.415	0.207	0.050
-461.084	41.114	-0.364	0.328
-460.070	798.636	0.051	-0.142
-459.055	-99.546	0.090	0.023
-458.040	-22.328	-0.247	-0.150
-457.026	-200.000	-0.026	0.274
-456.011	-54.846	0.317	0.143
-454.997	475.584	-0.080	-0.180
-453.982	-200.000	-0.007	-0.095
-452.968	-106.643	0.267	-0.059
-451.953	-200.000	-0.047	0.422
-450.938	476.651	-0.073	0.166
-449.924	-200.000	-0.052	-0.227
-448.909	733.634	0.107	-0.287
-447.895	-200.000	0.006	0.057
-446.880	800.000	-0.075	-0.230
-445.865	-25.537	-0.083	-0.049
-444.851	90.453	0.241	-0.269
-443.836	800.000	0.068	0.221
-442.822	29.998	0.014	0.012
-441.807	-91.650	-0.265	0.075
-440.792	-200.000	-0.019	0.118
-439.778	800.000	0.038	-0.152
-438.763	43.840	-0.260	-0.238
-437.749	-69.897	0.101	0.038
-436.734	137.477	0.218	-0.285
-435.719	235.297	0.161	0.265
-434.705	800.000	-0.036	0.143
-433.690	-196.690	0.148	-0.001
-432.676	191.443	-0.152	-0.228
-431.661	800.000	-0.140	0.404
-430.646	237.534	0.052	0.086
-429.632	-89.118	-0.105	0.031
-428.617	-200.000	0.016	-0.075
-427.603	-200.000	-0.017	-0.132
-426.588	-63.857	-0.172	0.070
-425.573	-149.325	-0.155	0.012
-424.559	-134.931	-0.140	0.017
-423.544	-200.000	0.111	0.530
-422.530	-34.375	0.364	-0.199
-421.515	-49.612	-0.126	-0.060
-420.500	-63.957	-0.217	-0.088
-419.486	23.838	0.260	-0.214
-418.471	-126.193	-0.177	0.026
-417.457	-121.977	-0.042	0.007
-416.442	634.624	-0.147	0.373
-415.428	-175.306	-0.429	0.012
-414.413	-27.819	-0.521	-0.301
-413.398	113.495	-0.167	0.202
-412.384	-200.000	0.011	0.117
-411.369	-129.016	-0.179	0.025
-410.355	357.301	0.033	0.065
-409.340	386.197	0.087	-0.179
-408.325	121.564	-0.019	-0.024
-407.311	-30.874	-0.193	-0.109
-406.296	800.000	0.011	0.030
-405.282	800.000	0.071	-0.265
-404.267	-200.000	-0.040	0.192
-403.252	-93.199	0.277	-0.077
-402.238	42.594	-0.096	-0.087
-401.223	-200.000	0.072	0.321
-400.209	-200.000	-0.036	0.441
-399.194	429.383	-0.134	-0.289
-398.179	401.348	-0.015	0.031
-397.165	20.009	0.298	-0.239
-396.150	800.000	0.038	0.110
-395.136	-173.421	-0.218	0.007
-394.121	-33.862	0.355	-0.195
-393.106	800.000	0.049	0.156
-392.092	-104.771	0.070	0.016
-391.077	417.060	0.069	0.147
-390.063	348.740	-0.070	0.137
-389.048	-200.000	0.070	-0.312
-388.033	-126.660	-0.249	-0.037
-387.019	324.140	0.185	-0.352
-386.004	124.329	0.290	-0.364
-384.990	-43.834	-0.161	-0.081
-383.975	800.000	-0.030	-0.101
-382.960	171.786	-0.273	-0.391
-381.946	-3.874	-0.209	0.145
-380.931	168.335	0.149	-0.211
-379.917	-81.295	0.032	0.011
-378.902	98.562	0.156	-0.180
-377.888	481.956	0.102	-0.230
-376.873	-200.000	-0.059	0.272
-375.858	-60.915	0.129	0.054
-374.844	727.030	-0.089	0.238
-373.829	-106.504	0.124	0.028
-372.815	189.788	-0.067	0.100
-371.800	-200.000	0.014	-0.125
-370.785	-200.000	0.005	0.319
-369.771	284.597	-0.189	-0.340
-368.756	14.823	-0.133	-0.104
-367.742	212.758	-0.275	0.433
-366.727	57.618	-0.147	0.143
-365.712	-26.917	-0.206	-0.120
-364.698	-135.331	-0.151	0.018
-363.683	-200.000	-0.004	-0.093
-362.669	-81.093	-0.156	0.051
-361.654	-127.680	-0.053	-0.008
-360.639	-35.640	-0.194	-0.105
-359.625	-200.000	-0.027	0.284
-358.610	507.699	-0.077	0.178
-357.596	3.376	0.041	-0.030
-356.581	283.204	0.053	0.094
-355.566	800.000	0.097	-0.336
-354.552	-200.000	-0.002	-0.100
-353.537	-78.956	-0.030	0.010
-352.523	7.355	-0.217	0.161
-351.508	167.161	-0.059	-0.083
-350.493	667.888	0.091	-0.233
-349.479	-146.443	0.254	-0.022
-348.464	-44.318	-0.212	0.106
-347.450	371.434	0.044	0.089
-346.435	789.711	0.057	-0.155
-345.420	65.165	-0.133	0.133
-344.406	578.000	0.117	0.284
-343.391	-85.734	-0.293	-0.091
-342.377	-9.336	-0.195	0.130
-341.362	-38.024	0.228	0.120
-340.348	-192.553	-0.247	0.002
-339.333	553.652	-0.053	-0.127
-338.318	-158.288	0.071	-0.004
-337.304	739.303	-0.046	-0.122
-336.289	-200.000	-0.051	-0.434
-335.275	-133.225	-0.126	0.016
-334.260	-200.000	-0.014	0.131
-333.245	-109.596	-0.158	-0.033
-332.231	234.088	-0.049	-0.081
-331.216	-75.344	0.366	-0.130
-330.202	-33.392	0.202	0.111
-329.187	-200.000	-0.018	0.275
-328.172	63.108	-0.077	-0.077
-327.158	-131.200	0.173	-0.023
-326.143	-200.000	-0.028	0.383
-325.129	-34.983	0.051	0.027
-324.114	332.902	0.032	-0.062
-323.099	-110.976	0.128	-0.026
-322.085	159.395	-0.075	-0.103
-321.070	-200.000	0.221	0.000
-320.056	56.549	0.175	0.169
-319.041	-200.000	-0.031	-0.384
-318.026	190.249	0.091	-0.136
-317.012	-45.804	0.101	-0.050
-315.997	182.642	-0.010	-0.015
-314.983	-21.692	0.334	0.202
-313.968	70.588	-0.252	0.259
-312.953	-98.414	0.196	-0.050
-311.939	329.115	-0.145	-0.277
-310.924	-76.110	-0.228	-0.080
-309.910	98.719	-0.275	0.315
-308.895	-12.563	0.140	-0.091
-307.880	239.585	0.099	-0.163
-306.866	-54.311	-0.143	-0.065
-305.851	16.568	-0.204	0.160
-304.837	8.822	0.178	0.133
-303.822	113.347	0.172	-0.208
-302.807	107.894	0.099	0.117
-301.793	800.000	0.022	-0.075
-300.778	-11.377	0.236	0.155
-299.764	563.735	0.119	-0.286
-298.749	185.204	0.047	-0.070
-297.735	167.591	0.285	0.402
-296.720	642.516	0.150	0.381
-295.705	427.286	-0.093	-0.199
-294.691	-200.000	0.015	0.276
-293.676	-134.640	0.367	-0.044
-292.662	116.352	-0.334	-0.406
-291.647	426.334	0.052	0.112
-290.632	86.774	-0.209	-0.229
-289.618	800.000	0.031	0.123
-288.603	-125.710	-0.461	0.069
-287.589	-131.706	-0.089	0.012
-286.574	84.321	-0.165	-0.179
-285.559	-140.602	0.250	-0.026
-284.545	-114.802	0.288	-0.055
-283.530	234.248	-0.204	-0.333
-282.516	-59.083	0.269	-0.115
-281.501	-93.453	0.188	0.052
-280.486	800.000	0.035	0.124
-279.472	-194.187	-0.080	0.001
-278.457	-99.835	0.193	0.048
-277.443	-60.746	0.102	-0.043
-276.428	83.038	-0.158	-0.171
-275.413	115.222	0.153	0.185
-274.399	14.925	0.179	-0.139
-273.384	-107.603	-0.370	-0.080
-272.370	2.017	0.079	0.057
-271.355	31.088	0.123	-0.105
-270.340	4.901	0.056	-0.041
-269.326	756.906	0.023	-0.063
-268.311	-59.063	0.438	0.188
-267.297	338.454	-0.146	-0.281
-266.282	-116.768	-0.405	0.074
-265.267	-200.000	0.005	-0.087
-264.253	105.342	0.133	0.156
-263.238	800.000	0.078	0.232
-262.224	2.870	0.237	-0.170
-261.209	-79.868	-0.359	-0.120
-260.195	42.129	0.310	-0.280
-259.180	800.000	0.049	-0.164
-258.165	397.036	-0.046	0.095
-257.151	432.089	-0.104	-0.224
-256.136	-50.953	-0.259	0.121
-255.122	-21.196	0.213	0.129
-254.107	800.000	-0.022	-0.085
-253.092	-154.018	0.207	0.014
-252.078	-136.394	-0.180	0.021
-251.063	646.706	-0.096	0.243
-250.049	168.880	-0.041	-0.058
-249.034	-200.000	-0.039	-0.188
-248.019	-58.973	0.390	-0.167
-247.005	295.027	-0.060	0.108
-245.990	-200.000	-0.100	0.443
-244.976	800.000	-0.101	0.311
-243.961	139.853	0.118	-0.154
-242.946	591.936	0.149	-0.366
-241.932	505.041	-0.067	-0.155
-240.917	-72.313	-0.172	-0.063
-239.903	0.556	0.206	-0.146
-238.888	-200.000	-0.008	0.080
-237.873	201.301	0.045	0.069
-236.859	-188.485	0.244	0.003
-235.844	75.779	-0.431	0.451
-234.830	-86.654	0.146	-0.044
-233.815	-200.000	0.028	0.344
-232.800	10.889	-0.166	-0.125
-231.786	-9.004	-0.141	0.094
-230.771	-200.000	0.003	0.289
-229.757	-68.741	-0.079	-0.030
-228.742	296.310	-0.113	0.204
-227.727	37.978	0.275	0.242
-226.713	595.870	-0.090	0.220
-225.698	281.043	0.050	-0.089
-224.684	13.159	-0.229	0.176
-223.669	-20.576	0.026	-0.016
-222.655	-158.590	0.427	0.024
-221.640	106.225	-0.184	0.216
-220.625	-178.635	0.056	-0.001
-219.611	-200.000	0.263	0.001
-218.596	-62.335	0.278	-0.115
-217.582	-120.510	-0.280	-0.047
-216.567	-118.399	0.260	0.046
-215.552	-200.000	0.033	0.282
-214.538	47.562	-0.279	0.257
-213.523	90.467	0.129	0.143
-212.509	-200.000	-0.008	0.207
-211.494	-200.000	-0.069	0.380
-210.479	-17.935	0.328	-0.204
-209.465	-46.526	-0.632	-0.307
-208.450	-200.000	-0.013	-0.184
-207.436	800.000	0.090	0.268
-206.421	11.814	0.192	0.146
-205.406	-175.401	-0.164	-0.004
-204.392	-200.000	0.003	-0.048
-203.377	46.870	0.150	0.138
-202.363	-200.000	-0.025	0.257
-201.348	-200.000	-0.009	0.191
-200.333	-200.000	0.023	-0.427
-199.319	-28.405	0.081	0.046
-198.304	42.782	0.128	0.115
-197.290	-21.508	-0.137	0.083
-196.275	56.938	-0.107	-0.103
-195.260	67.543	0.173	0.174
-194.246	56.832	0.195	0.188
-193.231	-125.316	0.245	0.037
-192.217	80.408	0.208	-0.221
-191.202	159.564	0.095	-0.130
-190.187	800.000	0.067	-0.279
-189.173	-18.441	-0.186	-0.115
-188.158	69.529	0.186	-0.190
-187.144	800.000	0.083	-0.238
-186.129	-200.000	0.046	-0.393
-185.114	800.000	-0.027	-0.111
-184.100	125.337	-0.075	0.094
-183.085	127.610	0.098	-0.123
-182.071	666.423	-0.066	-0.170
-181.056	-200.000	0.038	-0.179
-180.042	800.000	0.155	0.438
-179.027	-130.237	0.313	-0.042
-178.012	-37.173	-0.190	0.100
-176.998	800.000	-0.045	-0.196
-175.983	-200.000	-0.007	-0.170
-174.969	800.000	-0.086	-0.325
-173.954	47.925	-0.188	0.174
-172.939	11.930	0.202	0.153
-171.925	282.704	-0.101	-0.178
-170.910	113.344	0.129	0.154
-169.896	-75.900	0.303	0.106
-168.881	-149.582	-0.325	0.025
-167.866	93.578	-0.092	0.103
-166.852	96.414	-0.156	0.176
-165.837	56.375	-0.023	0.022
-164.823	13.371	-0.249	-0.191
-163.808	-99.537	-0.578	-0.144
-162.793	-110.380	0.126	-0.026
-161.779	14.648	0.186	-0.144
-160.764	587.537	-0.020	-0.049
-159.750	-20.680	-0.158	0.096
-158.735	-86.163	0.260	0.079
-157.720	800.000	-0.100	-0.394
-156.706	485.154	0.053	-0.120
-155.691	-179.470	-0.250	-0.005
-154.677	354.120	0.048	0.094
-153.662	-200.000	0.041	0.203
-152.647	-7.272	0.154	-0.103
-151.633	-0.353	-0.215	0.151
-150.618	-148.479	-0.279	0.023
-149.604	-137.574	-0.138	0.015
-148.589	-83.208	0.161	0.051
-147.574	147.072	-0.073	0.096
-146.560	139.878	0.028	0.037
-145.545	-123.826	0.276	0.043
-144.531	-200.000	0.020	-0.449
-143.516	-125.508	-0.276	-0.041
-142.502	-200.000	-0.007	-0.250
-141.487	-102.483	0.253	-0.060
-140.472	-67.244	-0.135	0.053
-139.458	332.269	0.062	0.118
-138.443	-16.691	-0.228	-0.143
-137.429	-7.123	0.213	-0.142
-136.414	-200.000	0.047	0.502
-135.399	-200.000	-0.059	0.341
-134.385	-115.614	0.162	0.030
-133.370	-200.000	-0.021	0.347
-132.356	-200.000	0.040	0.268
-131.341	-200.000	-0.002	0.058
-130.326	-200.000	-0.004	0.283
-129.312	108.583	0.221	-0.261
-128.297	-121.689	-0.125	-0.020
-127.283	630.829	-0.129	0.321
-126.268	-200.000	-0.003	-0.177
-125.253	800.000	0.046	0.150
-124.239	42.941	-0.131	-0.118
-123.224	-80.966	-0.157	0.051
-122.210	355.078	0.188	0.369
