DTS Sentinel unit serial number:	SN413079Multiplexer serial number:	ORYXHardware model number:	OX4-SRSoftware version number:	ORYX F/W v4.00 Oryx Data Collector v3.7.2.0data status	okinstallation	princeton_trtdifferential loss correction	single-endedforward channel	channel 4reverse channel	N/Adate	2019/09/16time	05:33:35forward acquisition time	60.00reverse acquisition time	0.00gamma	496.2192k internal	0.2321k external	0.2321temperature offset calibration	0.9983default loss term (dB/km)	0.3790temperature slope calibration	1.0000multiplexer offset coefficient	1.0000multiplexer slope coefficient	1.0000fibre end	0.00T internal ref (°C)	27.31T ext. ref 1 (°C)	11.15T ext. ref 2 (°C)	22.10length (m)	temperature (°C)	Stokes	anti-Stokes-747.200	-200.000	0.014	-0.360
-746.185	-200.000	-0.051	0.371
-745.171	46.545	0.200	0.187
-744.156	475.282	-0.163	0.373
-743.142	1.576	0.325	0.236
-742.127	324.101	-0.242	0.466
-741.112	-42.825	0.248	0.127
-740.098	-37.420	-0.091	-0.049
-739.083	-28.437	-0.019	-0.011
-738.069	51.530	0.040	0.038
-737.054	-200.000	0.030	0.215
-736.039	-200.000	-0.035	-0.170
-735.025	-61.870	-0.318	0.134
-734.010	-141.487	-0.164	0.017
-732.996	-76.793	-0.117	-0.042
-731.981	-3.173	-0.339	-0.239
-730.966	229.801	-0.049	0.081
-729.952	533.553	0.096	0.230
-728.937	-39.870	0.058	0.031
-727.923	800.000	0.064	0.181
-726.908	77.178	-0.079	-0.085
-725.894	20.342	-0.167	0.136
-724.879	5.662	-0.442	0.330
-723.864	-200.000	0.026	0.189
-722.850	-200.000	-0.008	0.284
-721.835	270.439	0.124	0.221
-720.821	141.952	0.070	-0.094
-719.806	-47.585	-0.073	-0.036
-718.791	-200.000	0.022	-0.174
-717.777	683.971	0.059	-0.154
-716.762	-115.284	-0.238	0.045
-715.748	-200.000	-0.044	0.243
-714.733	-23.295	0.099	0.060
-713.718	-40.036	-0.097	-0.051
-712.704	-200.000	0.030	0.237
-711.689	-25.082	-0.103	-0.062
-710.675	-6.155	-0.248	0.171
-709.660	-200.000	-0.024	0.136
-708.645	-200.000	0.048	0.450
-707.631	213.636	0.069	0.110
-706.616	215.731	-0.069	0.110
-705.602	9.280	-0.142	-0.109
-704.587	66.106	0.309	-0.316
-703.572	498.263	0.175	0.406
-702.558	-50.784	0.012	-0.006
-701.543	-34.203	-0.143	-0.079
-700.529	142.852	-0.378	-0.507
-699.514	-74.117	-0.106	0.039
-698.499	153.172	-0.014	-0.019
-697.485	-35.499	0.083	0.045
-696.470	-67.545	0.248	0.098
-695.456	-61.719	0.257	-0.108
-694.441	46.004	-0.140	-0.131
-693.426	234.551	0.088	-0.146
-692.412	16.321	-0.141	0.112
-691.397	75.586	-0.203	-0.217
-690.383	-38.781	-0.225	0.120
-689.368	-84.209	-0.246	-0.079
-688.354	-98.897	-0.109	-0.028
-687.339	800.000	-0.155	-0.497
-686.324	-200.000	0.009	0.388
-685.310	56.631	-0.218	0.214
-684.295	93.897	0.124	-0.142
-683.281	-104.248	-0.420	0.098
-682.266	-200.000	0.031	-0.138
-681.251	-64.814	0.176	0.072
-680.237	-97.072	0.201	-0.053
-679.222	-119.863	-0.234	0.041
-678.208	11.581	-0.180	0.139
-677.193	-27.099	0.201	-0.118
-676.178	-81.160	-0.244	-0.081
-675.164	-28.109	0.114	-0.067
-674.149	-21.790	-0.203	0.125
-673.135	156.645	-0.052	-0.072
-672.120	800.000	0.069	0.213
-671.105	-74.552	0.196	-0.071
-670.091	-146.567	0.306	-0.027
-669.076	-41.725	-0.186	0.096
-668.062	-200.000	0.001	-0.049
-667.047	-200.000	0.024	0.110
-666.032	-200.000	-0.024	-0.220
-665.018	800.000	-0.077	0.236
-664.003	32.925	0.052	0.045
-662.989	-163.377	-0.314	-0.015
-661.974	50.711	-0.318	0.304
-660.959	-129.880	0.379	-0.052
-659.945	-102.082	0.174	-0.042
-658.930	-115.454	-0.013	-0.003
-657.916	800.000	-0.062	-0.214
-656.901	72.637	-0.205	0.216
-655.886	88.883	0.095	0.107
-654.872	54.494	0.161	-0.156
-653.857	-136.834	0.109	0.013
-652.843	60.562	-0.281	0.281
-651.828	-73.378	0.082	0.030
-650.814	37.442	0.112	0.100
-649.799	-134.859	0.203	0.025
-648.784	-119.870	-0.157	0.027
-647.770	-31.052	0.245	0.139
-646.755	9.279	0.154	-0.117
-645.741	-116.289	0.049	-0.009
-644.726	-33.541	-0.457	-0.254
-643.711	4.877	0.178	-0.132
-642.697	27.381	-0.169	-0.143
-641.682	405.953	0.081	0.173
-640.668	-200.000	0.080	0.432
-639.653	-42.628	0.175	0.090
-638.638	263.097	-0.299	-0.522
-637.624	-14.887	-0.100	-0.065
-636.609	-200.000	-0.013	-0.196
-635.595	-200.000	-0.014	-0.064
-634.580	-49.006	0.274	0.132
-633.565	585.180	-0.110	-0.273
-632.551	-200.000	-0.020	-0.302
-631.536	800.000	-0.034	-0.118
-630.522	-13.752	-0.109	0.071
-629.507	-107.335	-0.220	0.049
-628.492	-92.153	0.261	-0.074
-627.478	192.850	-0.065	-0.099
-626.463	-107.346	-0.459	0.102
-625.449	-90.971	-0.210	-0.061
-624.434	-200.000	-0.021	-0.111
-623.419	-78.072	0.161	0.056
-622.405	281.627	-0.133	0.240
-621.390	-128.956	0.186	-0.026
-620.376	399.103	0.069	0.145
-619.361	165.242	-0.092	-0.131
-618.346	-87.077	-0.051	0.016
-617.332	-45.230	-0.139	-0.069
-616.317	-148.523	-0.119	0.010
-615.303	-200.000	0.016	0.166
-614.288	-18.574	0.323	0.203
-613.273	-106.834	0.283	-0.063
-612.259	551.664	-0.067	-0.163
-611.244	800.000	-0.191	-0.641
-610.230	-96.585	0.222	-0.059
-609.215	-185.572	-0.262	0.004
-608.201	196.225	0.055	0.085
-607.186	561.387	-0.101	0.245
-606.171	-200.000	-0.053	0.274
-605.157	107.382	-0.130	-0.155
-604.142	-22.482	-0.359	-0.218
-603.128	352.001	0.134	-0.267
-602.113	290.807	-0.091	0.166
-601.098	-85.015	0.390	-0.123
-600.084	-182.092	-0.141	0.003
-599.069	409.212	-0.068	-0.144
-598.055	15.511	-0.069	-0.054
-597.040	26.279	0.043	-0.036
-596.025	712.787	-0.086	-0.230
-595.011	214.936	0.140	-0.223
-593.996	76.454	-0.295	-0.315
-592.982	800.000	-0.037	-0.130
-591.967	30.703	-0.105	0.090
-590.952	-78.859	-0.028	0.009
-589.938	-182.403	-0.478	-0.009
-588.923	-164.872	0.079	-0.004
-587.909	60.293	-0.205	0.204
-586.894	355.225	0.156	-0.311
-585.879	93.628	0.068	-0.077
-584.865	427.411	-0.122	0.265
-583.850	-200.000	0.005	-0.251
-582.836	-200.000	0.046	0.213
-581.821	12.779	-0.044	-0.034
-580.806	49.121	-0.084	0.079
-579.792	-200.000	0.006	0.117
-578.777	220.932	0.166	-0.267
-577.763	-200.000	0.031	-0.241
-576.748	177.194	-0.170	-0.249
-575.733	52.913	-0.118	0.113
-574.719	169.348	0.075	0.107
-573.704	-158.749	-0.142	0.008
-572.690	454.842	0.063	-0.141
-571.675	-40.808	-0.234	-0.121
-570.661	-23.018	-0.231	-0.140
-569.646	-25.780	-0.195	0.115
-568.631	-35.791	-0.155	-0.084
-567.617	12.661	-0.309	0.240
-566.602	-200.000	0.061	-0.358
-565.588	9.465	0.224	0.170
-564.573	-27.868	-0.288	0.167
-563.558	137.618	0.112	0.148
-562.544	329.279	0.158	0.304
-561.529	-103.331	0.289	0.068
-560.515	-47.443	0.205	-0.100
-559.500	-95.447	0.184	0.050
-558.485	79.435	0.028	0.031
-557.471	-99.880	-0.366	-0.092
-556.456	597.425	0.069	0.171
-555.442	-48.179	0.165	0.080
-554.427	-127.192	0.022	-0.003
-553.412	-35.266	0.107	-0.058
-552.398	800.000	-0.060	-0.240
-551.383	500.692	-0.049	0.114
-550.369	23.596	-0.098	0.081
-549.354	295.566	-0.116	-0.213
-548.339	55.300	-0.218	-0.212
-547.325	-37.420	0.107	0.057
-546.310	-80.072	-0.120	-0.040
-545.296	32.440	0.136	0.118
-544.281	-3.842	0.197	-0.137
-543.266	-164.283	-0.138	-0.006
-542.252	-150.114	0.162	-0.013
-541.237	800.000	0.100	0.401
-540.223	-127.816	0.225	-0.032
-539.208	-120.066	0.213	0.037
-538.193	-200.000	0.008	-0.262
-537.179	800.000	0.063	-0.186
-536.164	800.000	-0.024	-0.072
-535.150	-100.123	0.192	-0.048
-534.135	-71.251	-0.287	0.108
-533.121	28.770	-0.125	-0.106
-532.106	-200.000	-0.013	0.198
-531.091	-126.394	-0.059	0.009
-530.077	-42.360	0.336	0.172
-529.062	-95.985	0.146	0.039
-528.048	-115.648	-0.373	-0.070
-527.033	800.000	-0.092	-0.274
-526.018	238.595	0.208	-0.346
-525.004	-168.906	-0.185	-0.007
-523.989	82.027	0.096	-0.104
-522.975	-200.000	-0.009	0.133
-521.960	-121.515	-0.280	0.047
-520.945	800.000	-0.006	0.023
-519.931	-200.000	0.021	0.254
-518.916	-167.468	0.178	0.007
-517.902	-82.362	-0.043	-0.014
-516.887	-126.626	0.340	0.051
-515.872	-200.000	0.004	0.138
-514.858	262.173	-0.102	0.178
-513.843	149.653	0.150	-0.203
-512.829	-200.000	-0.003	0.244
-511.814	-200.000	0.006	-0.267
-510.799	-84.737	0.151	0.048
-509.785	-43.478	0.247	0.125
-508.770	-200.000	0.024	0.272
-507.756	-200.000	-0.018	0.312
-506.741	-200.000	0.012	0.195
-505.726	252.120	-0.093	0.158
-504.712	800.000	-0.191	-0.647
-503.697	263.433	-0.027	-0.047
-502.683	538.786	-0.121	-0.288
-501.668	-200.000	-0.044	-0.214
-500.653	54.031	-0.205	-0.197
-499.639	800.000	-0.053	-0.180
-498.624	307.565	0.040	0.075
-497.610	800.000	0.065	-0.185
-496.595	-146.751	-0.456	-0.039
-495.581	794.876	-0.063	-0.173
-494.566	-63.251	-0.130	0.054
-493.551	-18.322	0.225	0.141
-492.537	22.130	0.211	0.173
-491.522	44.861	-0.158	0.145
-490.508	54.745	-0.191	-0.185
-489.493	-114.294	-0.258	-0.050
-488.478	-97.073	0.185	-0.048
-487.464	-125.583	-0.247	-0.038
-486.449	-200.000	-0.046	-0.207
-485.435	-150.507	-0.104	-0.008
-484.420	-200.000	0.011	-0.275
-483.405	107.899	-0.167	0.200
-482.391	-53.395	-0.042	-0.019
-481.376	166.921	-0.164	-0.233
-480.362	553.590	0.118	0.284
-479.347	408.565	-0.194	0.411
-478.332	507.924	0.059	-0.136
-477.318	-200.000	0.013	-0.112
-476.303	-200.000	-0.011	0.053
-475.289	-33.782	0.142	0.078
-474.274	575.996	-0.061	-0.149
-473.259	800.000	0.119	-0.496
-472.245	109.403	-0.077	0.092
-471.230	-200.000	-0.019	-0.167
-470.216	744.134	0.067	0.181
-469.201	-23.346	0.204	0.123
-468.186	618.565	0.048	0.120
-467.172	-200.000	0.006	-0.060
-466.157	-33.692	-0.152	-0.084
-465.143	-10.443	0.103	-0.068
-464.128	7.532	0.101	0.075
-463.113	-125.527	0.359	0.055
-462.099	24.495	-0.196	-0.162
-461.084	32.568	-0.266	0.230
-460.070	682.177	-0.113	0.295
-459.055	-156.612	0.110	0.007
-458.040	163.903	-0.193	0.272
-457.026	-181.930	0.272	0.005
-456.011	131.268	-0.078	-0.100
-454.997	-121.749	-0.273	0.045
-453.982	-71.531	-0.066	0.025
-452.968	44.229	0.124	-0.113
-451.953	-37.575	0.201	-0.107
-450.938	44.173	-0.297	-0.272
-449.924	-63.476	0.098	-0.040
-448.909	731.637	0.109	-0.292
-447.895	-200.000	0.007	0.075
-446.880	-200.000	-0.025	-0.207
-445.865	-2.114	0.330	-0.232
-444.851	-59.638	0.280	0.120
-443.836	-23.631	-0.191	-0.114
-442.822	96.161	0.066	0.076
-441.807	339.826	0.141	0.275
-440.792	144.378	0.157	-0.210
-439.778	-65.263	0.328	-0.132
-438.763	-132.338	-0.302	0.039
-437.749	332.084	0.110	0.211
-436.734	90.173	-0.162	-0.180
-435.719	38.711	0.032	-0.029
-434.705	-200.000	0.191	-0.000
-433.690	800.000	-0.044	0.166
-432.676	-100.231	0.296	0.074
-431.661	-101.661	0.157	0.038
-430.646	800.000	-0.045	0.145
-429.632	-40.418	-0.093	-0.048
-428.617	-143.462	-0.252	-0.024
-427.603	-97.612	0.179	0.046
-426.588	32.454	0.204	0.176
-425.573	82.922	0.106	-0.115
-424.559	800.000	0.111	0.348
-423.544	286.170	-0.095	0.172
-422.530	7.249	0.335	-0.249
-421.515	-104.256	-0.370	0.086
-420.500	16.753	0.150	-0.118
-419.486	-17.639	0.033	0.021
-418.471	40.348	-0.027	-0.024
-417.457	-200.000	-0.011	-0.076
-416.442	96.232	-0.085	-0.097
-415.428	-103.472	-0.339	0.080
-414.413	-200.000	0.008	0.122
-413.398	-200.000	0.005	0.129
-412.384	549.037	-0.039	-0.094
-411.369	185.617	0.134	0.199
-410.355	140.410	-0.182	0.240
-409.340	5.950	0.129	0.095
-408.325	73.747	0.113	-0.118
-407.311	-200.000	0.001	-0.121
-406.296	10.578	-0.135	-0.102
-405.282	-61.558	0.150	0.063
-404.267	108.987	0.176	0.210
-403.252	-115.942	-0.170	-0.032
-402.238	29.926	0.151	0.128
-401.223	58.489	-0.198	0.194
-400.209	-200.000	-0.049	0.234
-399.194	-200.000	0.024	-0.147
-398.179	190.501	-0.070	0.105
-397.165	363.328	-0.090	-0.179
-396.150	32.518	-0.063	-0.054
-395.136	24.991	0.248	-0.205
-394.121	-73.079	-0.145	0.053
-393.106	-34.102	0.133	-0.073
-392.092	-200.000	0.013	0.229
-391.077	800.000	-0.040	0.154
-390.063	-76.010	-0.132	0.046
-389.048	83.937	0.115	0.125
-388.033	800.000	0.139	0.479
-387.019	406.587	-0.167	0.352
-386.004	-5.185	-0.048	0.033
-384.990	-200.000	0.002	0.061
-383.975	124.260	-0.140	-0.176
-382.960	230.574	0.034	-0.055
-381.946	-46.593	0.171	-0.083
-380.931	335.890	-0.093	-0.179
-379.917	291.318	0.145	0.264
-378.902	46.252	0.246	-0.227
-377.888	-14.685	0.263	0.168
-376.873	-91.819	0.293	-0.083
-375.858	143.777	-0.129	-0.171
-374.844	-156.759	0.246	0.015
-373.829	-100.770	0.197	0.048
-372.815	734.502	-0.027	0.072
-371.800	800.000	-0.055	0.192
-370.785	-200.000	-0.023	-0.295
-369.771	-200.000	0.039	-0.267
-368.756	800.000	-0.085	0.315
-367.742	800.000	0.085	-0.332
-366.727	19.070	0.233	-0.186
-365.712	-200.000	0.018	0.213
-364.698	52.079	0.086	0.082
-363.683	800.000	0.057	-0.223
-362.669	-147.412	-0.313	-0.026
-361.654	800.000	-0.042	0.173
-360.639	-52.609	-0.121	0.055
-359.625	231.347	-0.216	0.353
-358.610	800.000	0.064	0.218
-357.596	369.383	-0.090	0.182
-356.581	30.931	-0.170	0.145
-355.566	-135.922	-0.145	-0.017
-354.552	318.302	0.011	0.020
-353.537	-145.770	-0.244	-0.022
-352.523	242.894	0.088	0.147
-351.508	-79.834	0.188	-0.063
-350.493	-83.904	0.119	0.038
-349.479	-131.736	-0.170	0.022
-348.464	-171.330	-0.351	-0.012
-347.450	38.283	0.103	-0.092
-346.435	-22.845	0.211	-0.127
-345.420	-53.300	0.279	-0.127
-344.406	560.404	-0.053	-0.128
-343.391	-42.259	-0.355	0.181
-342.377	779.821	-0.109	-0.296
-341.362	-2.376	-0.167	-0.117
-340.348	248.085	0.042	0.070
-339.333	800.000	0.022	0.088
-338.318	659.231	0.062	-0.158
-337.304	-81.300	0.100	0.033
-336.289	456.204	0.083	0.182
-335.275	-177.654	-0.215	0.005
-334.260	-200.000	-0.008	0.122
-333.245	-83.329	-0.303	-0.097
-332.231	-200.000	-0.004	0.264
-331.216	-35.163	0.230	0.125
-330.202	-144.349	0.159	-0.015
-329.187	800.000	0.012	-0.038
-328.172	-62.090	-0.181	0.075
-327.158	-87.228	-0.524	0.158
-326.143	-153.026	0.161	-0.011
-325.129	-88.961	-0.207	-0.061
-324.114	-82.421	0.091	-0.029
-323.099	395.515	-0.115	-0.238
-322.085	800.000	-0.053	0.199
-321.070	-14.858	-0.125	0.080
-320.056	-56.815	-0.233	-0.103
-319.041	-200.000	-0.027	0.232
-318.026	43.400	-0.148	-0.134
-317.012	418.687	0.083	0.176
-315.997	86.629	0.135	0.149
-314.983	240.621	0.106	0.176
-313.968	-141.692	0.040	-0.004
-312.953	-200.000	-0.090	0.398
-311.939	200.843	-0.088	0.134
-310.924	-13.901	0.084	-0.054
-309.910	-200.000	0.007	-0.059
-308.895	28.483	-0.181	0.152
-307.880	27.414	0.094	-0.079
-306.866	-200.000	-0.030	0.317
-305.851	-140.870	0.319	-0.033
-304.837	-103.518	0.242	-0.056
-303.822	-150.059	-0.222	-0.017
-302.807	165.387	-0.109	0.153
-301.793	-36.166	0.129	-0.069
-300.778	69.090	-0.260	0.265
-299.764	78.721	-0.106	0.113
-298.749	-200.000	-0.036	-0.325
-297.735	-134.438	-0.044	0.005
-296.720	215.785	0.071	-0.112
-295.705	-200.000	-0.026	-0.236
-294.691	-200.000	-0.010	-0.051
-293.676	302.826	0.139	-0.256
-292.662	469.974	0.048	0.108
-291.647	-68.633	-0.174	-0.067
-290.632	267.317	0.061	-0.105
-289.618	-29.275	0.460	-0.262
-288.603	435.958	-0.175	-0.379
-287.589	-38.545	-0.214	0.113
-286.574	-56.914	-0.355	0.156
-285.559	-6.062	0.223	-0.151
-284.545	88.089	0.219	0.241
-283.530	-29.583	0.097	0.055
-282.516	-57.399	-0.246	-0.107
-281.501	800.000	0.063	0.178
-280.486	-119.137	0.332	0.058
-279.472	-200.000	0.044	0.377
-278.457	-200.000	-0.080	-0.356
-277.443	-97.583	0.420	-0.108
-276.428	-200.000	0.012	-0.079
-275.413	192.821	0.114	0.171
-274.399	458.135	-0.112	-0.247
-273.384	9.883	-0.306	-0.230
-272.370	-200.000	0.138	0.606
-271.355	465.205	-0.159	0.353
-270.340	-123.271	-0.173	0.027
-269.326	231.834	-0.041	-0.067
-268.311	9.755	-0.038	0.028
-267.297	-164.351	0.454	0.021
-266.282	-131.504	0.175	-0.023
-265.267	92.402	0.122	0.136
-264.253	-90.581	0.364	0.104
-263.238	25.031	-0.109	0.090
-262.224	255.173	0.098	0.166
-261.209	135.833	-0.130	-0.168
-260.195	-130.969	0.356	-0.047
-259.180	227.417	0.104	-0.168
-258.165	111.784	0.106	-0.127
-257.151	-136.182	0.292	-0.034
-256.136	-191.896	0.231	-0.002
-255.122	169.893	0.167	0.237
-254.107	-120.278	-0.213	-0.036
-253.092	-26.049	0.305	0.178
-252.078	-200.000	-0.021	-0.352
-251.063	-121.089	-0.118	0.020
-250.049	800.000	0.069	-0.189
-249.034	-84.838	0.258	-0.080
-248.019	-97.676	0.064	-0.016
-247.005	-130.362	0.211	0.028
-245.990	-173.401	0.390	-0.012
-244.976	200.307	-0.059	0.089
-243.961	432.598	-0.072	-0.154
-242.946	-135.571	0.068	-0.008
-241.932	-41.448	0.101	-0.051
-240.917	28.961	0.081	-0.068
-239.903	-130.821	0.309	0.041
-238.888	175.175	0.081	0.116
-237.873	-140.999	0.231	-0.023
-236.859	239.685	-0.136	-0.225
-235.844	18.523	-0.278	-0.220
-234.830	73.794	-0.113	-0.118
-233.815	82.915	-0.033	0.035
-232.800	201.777	0.188	0.287
-231.786	423.322	-0.091	0.194
-230.771	-96.536	-0.281	0.073
-229.757	-186.535	0.200	-0.003
-228.742	-130.170	0.289	-0.039
-227.727	800.000	-0.040	0.133
-226.713	-200.000	-0.360	-0.001
-225.698	176.650	-0.173	0.249
-224.684	-31.202	-0.264	-0.147
-223.669	-37.436	0.227	-0.120
-222.655	378.491	0.148	0.300
-221.640	232.711	-0.055	-0.089
-220.625	126.287	0.079	-0.099
-219.611	44.018	0.287	0.260
-218.596	800.000	-0.078	-0.291
-217.582	-14.059	0.042	-0.027
-216.567	-200.000	0.035	0.241
-215.552	47.102	0.236	0.218
-214.538	511.455	0.138	-0.319
-213.523	-32.964	-0.291	0.160
-212.509	194.668	-0.045	0.067
-211.494	-130.938	-0.325	0.043
-210.479	-35.422	0.313	0.168
-209.465	-140.069	0.286	-0.030
-208.450	-84.459	-0.142	0.044
-207.436	-41.540	-0.238	0.121
-206.421	-200.000	0.018	-0.469
-205.406	800.000	-0.006	0.021
-204.392	33.319	0.153	-0.132
-203.377	-20.564	-0.260	-0.158
-202.363	-200.000	-0.011	-0.103
-201.348	88.132	-0.313	0.344
-200.333	-30.769	0.251	0.141
-199.319	-200.000	-0.000	-0.092
-198.304	-200.000	0.053	0.302
-197.290	556.188	-0.119	0.283
-196.275	221.628	-0.111	0.176
-195.260	221.954	-0.166	-0.265
-194.246	800.000	-0.098	0.399
-193.231	-200.000	-0.055	0.404
-192.217	-10.736	-0.226	-0.148
-191.202	-200.000	-0.002	0.034
-190.187	-97.914	-0.356	-0.091
-189.173	-82.791	0.142	-0.046
-188.158	-25.389	-0.213	-0.124
-187.144	322.667	-0.057	-0.107
-186.129	-165.775	-0.341	0.015
-185.114	-45.766	-0.124	0.061
-184.100	-71.837	-0.139	-0.051
-183.085	98.183	0.118	0.135
-182.071	21.492	-0.133	0.107
-181.056	800.000	0.097	0.265
-180.042	118.221	-0.182	-0.222
-179.027	-51.334	0.332	0.153
-178.012	22.406	0.257	-0.207
-176.998	179.357	0.181	-0.262
-175.983	123.517	0.143	-0.177
-174.969	-8.892	0.098	-0.065
-173.954	-79.467	0.527	-0.176
-172.939	-42.699	0.194	0.097
-171.925	-200.000	-0.015	-0.165
-170.910	-36.037	0.073	-0.039
-169.896	-167.443	0.138	-0.005
-168.881	-200.000	0.019	-0.214
-167.866	-103.799	0.235	-0.054
-166.852	-73.631	-0.299	0.108
-165.837	247.207	0.113	0.189
-164.823	-87.713	-0.388	0.116
-163.808	194.550	0.068	-0.102
-162.793	100.936	0.246	0.283
-161.779	-200.000	0.030	-0.199
-160.764	-75.110	-0.362	0.128
-159.750	-200.000	-0.009	-0.104
-158.735	505.176	0.021	0.048
-157.720	-200.000	0.034	-0.323
-156.706	-142.560	-0.181	0.017
-155.691	-18.129	-0.119	-0.073
-154.677	-200.000	0.047	-0.295
-153.662	125.105	-0.281	0.350
-152.647	-10.810	-0.055	-0.036
-151.633	71.990	0.146	0.150
-150.618	34.971	0.126	-0.109
-149.604	-178.219	-0.063	-0.001
-148.589	-25.131	0.298	-0.174
-147.574	123.577	0.067	0.083
-146.560	800.000	-0.051	0.171
-145.545	-200.000	-0.000	-0.155
-144.531	-200.000	0.027	-0.174
-143.516	-179.373	0.081	-0.002
-142.502	10.195	0.262	0.197
-141.487	-200.000	-0.047	-0.208
-140.472	641.870	-0.099	-0.249
-139.458	-132.936	-0.213	-0.027
-138.443	-200.000	0.023	0.162
-137.429	-2.212	0.065	-0.045
-136.414	35.894	-0.044	0.038
-135.399	95.636	-0.212	0.239
-134.385	45.763	-0.315	-0.287
-133.370	-185.570	-0.416	0.006
-132.356	559.065	0.173	0.413
-131.341	22.389	0.245	-0.198
-130.326	309.410	-0.204	0.377
-129.312	-59.262	-0.095	-0.040
-128.297	86.552	0.329	-0.358
-127.283	-12.749	0.401	0.258
-126.268	208.210	0.205	0.317
-125.253	-26.294	0.097	0.056
-124.239	-102.479	-0.192	0.045
-123.224	148.700	0.148	-0.197
-122.210	-106.944	-0.196	-0.043
-121.195	-200.000	-0.026	-0.221
