DTS Sentinel unit serial number:	SN413079Multiplexer serial number:	ORYXHardware model number:	OX4-SRSoftware version number:	ORYX F/W v4.00 Oryx Data Collector v3.7.2.0data status	okinstallation	princeton_trtdifferential loss correction	single-endedforward channel	channel 4reverse channel	N/Adate	2019/09/12time	19:42:19forward acquisition time	15.00reverse acquisition time	0.00gamma	496.2192k internal	0.2310k external	0.2310temperature offset calibration	1.0154default loss term (dB/km)	0.3790temperature slope calibration	1.0000multiplexer offset coefficient	1.0000multiplexer slope coefficient	1.0000fibre end	0.00T internal ref (°C)	32.06T ext. ref 1 (°C)	3.35T ext. ref 2 (°C)	26.66length (m)	temperature (°C)	Stokes	anti-Stokes-747.200	139.169	-0.464	0.620
-746.185	564.162	0.190	0.469
-745.171	-21.637	-0.819	0.507
-744.156	-58.779	0.202	0.089
-743.142	800.000	0.021	0.082
-742.127	-172.455	-0.703	-0.023
-741.112	490.060	-0.123	-0.285
-740.098	50.294	-0.192	0.185
-739.083	-40.845	0.252	-0.132
-738.069	544.542	-0.053	-0.127
-737.054	-200.000	0.002	-0.213
-736.039	3.951	0.285	-0.211
-735.025	-70.490	0.362	-0.139
-734.010	-200.000	0.111	-0.827
-732.996	-200.000	0.075	-1.141
-731.981	800.000	0.121	0.346
-730.966	-30.556	0.535	0.308
-729.952	-200.000	-0.027	-0.279
-728.937	-176.485	-0.510	0.013
-727.923	526.311	-0.115	-0.276
-726.908	277.272	-0.266	-0.481
-725.894	148.931	0.348	-0.477
-724.879	800.000	-0.173	-0.655
-723.864	-124.375	0.927	0.147
-722.850	-200.000	0.059	0.331
-721.835	-180.019	-0.116	0.003
-720.821	-138.210	0.102	-0.011
-719.806	31.420	0.210	-0.183
-718.791	-90.339	-0.799	-0.235
-717.777	-200.000	-0.005	0.826
-716.762	-124.174	0.514	0.082
-715.748	800.000	0.237	-0.947
-714.733	643.023	0.264	-0.682
-713.718	160.515	-0.336	-0.475
-712.704	-9.864	-0.278	-0.187
-711.689	-61.949	1.167	-0.495
-710.675	-200.000	0.090	-1.257
-709.660	106.251	0.135	-0.163
-708.645	-29.534	0.322	-0.187
-707.631	4.400	0.050	0.037
-706.616	-200.000	-0.165	0.781
-705.602	2.123	-0.289	0.211
-704.587	-61.404	-0.967	0.412
-703.572	-188.792	0.784	0.010
-702.558	-119.950	0.885	-0.154
-701.543	216.874	0.281	0.453
-700.529	150.165	-0.153	-0.211
-699.514	597.111	-0.040	0.100
-698.499	-83.668	-0.127	0.041
-697.485	43.480	-0.456	0.423
-696.470	-200.000	0.027	0.559
-695.456	89.199	-0.065	-0.074
-694.441	-30.159	-0.443	0.256
-693.426	492.735	0.213	-0.496
-692.412	800.000	0.027	-0.106
-691.397	-62.074	-0.453	0.192
-690.383	45.427	-0.949	0.888
-689.368	-5.613	-0.358	0.249
-688.354	471.545	0.269	-0.615
-687.339	-78.496	-1.109	0.385
-686.324	580.746	-0.118	0.293
-685.310	800.000	0.167	-0.616
-684.295	-82.215	0.674	-0.222
-683.281	34.627	-0.434	-0.384
-682.266	-200.000	0.066	0.398
-681.251	-99.855	-0.555	-0.141
-680.237	31.209	0.431	-0.374
-679.222	-114.938	-0.444	0.086
-678.208	-59.474	-1.014	-0.441
-677.193	-132.714	-0.652	-0.084
-676.178	716.197	0.195	-0.525
-675.164	-200.000	0.079	0.827
-674.149	322.795	-0.096	0.185
-673.135	158.987	0.418	-0.588
-672.120	800.000	0.215	-0.884
-671.105	-200.000	-0.135	-0.892
-670.091	61.839	0.789	-0.796
-669.076	-200.000	0.093	0.566
-668.062	-1.564	-0.157	0.112
-667.047	-200.000	-0.017	0.388
-666.032	800.000	-0.041	0.136
-665.018	-98.147	0.308	0.080
-664.003	-47.893	0.606	-0.297
-662.989	230.445	-0.334	-0.553
-661.974	-42.556	-0.321	-0.166
-660.959	-200.000	0.109	-0.558
-659.945	-38.573	0.479	0.256
-658.930	85.036	-0.203	0.226
-657.916	-139.156	0.455	0.050
-656.901	-136.843	0.556	-0.065
-655.886	229.429	-0.362	-0.599
-654.872	-138.528	-0.756	0.084
-653.857	-118.130	0.362	0.065
-652.843	68.028	0.770	-0.797
-651.828	-182.554	-0.373	-0.007
-650.814	287.572	0.487	0.891
-649.799	167.992	-0.324	-0.467
-648.784	21.335	-0.175	-0.144
-647.770	-105.347	-0.898	0.207
-646.755	-96.558	0.585	0.156
-645.741	35.682	0.226	0.201
-644.726	747.994	-0.360	0.983
-643.711	89.682	-0.131	0.148
-642.697	-52.402	-0.262	-0.123
-641.682	60.425	-0.479	0.479
-640.668	237.865	0.208	-0.350
-639.653	-133.397	0.270	0.034
-638.638	-200.000	0.032	0.406
-637.624	-88.802	0.409	0.123
-636.609	58.102	0.431	-0.427
-635.595	-55.212	0.296	0.135
-634.580	-48.693	0.703	0.342
-633.565	-200.000	0.006	0.060
-632.551	126.666	-0.278	0.357
-631.536	90.954	-0.510	0.579
-630.522	-200.000	-0.084	0.409
-629.507	-141.037	0.763	0.079
-628.492	-128.045	-0.679	0.098
-627.478	-84.462	0.294	-0.094
-626.463	-26.943	0.498	0.294
-625.449	-74.608	0.237	-0.086
-624.434	134.594	-0.263	0.345
-623.419	50.670	0.195	-0.187
-622.405	-73.900	-0.218	-0.080
-621.390	-149.096	-0.629	-0.051
-620.376	25.921	0.302	0.255
-619.361	-200.000	0.134	-0.981
-618.346	-200.000	-0.028	0.192
-617.332	-200.000	0.182	-1.235
-616.317	-11.374	0.527	0.351
-615.303	372.264	0.225	0.461
-614.288	-31.507	-0.455	-0.259
-613.273	800.000	-0.103	0.447
-612.259	246.958	0.218	0.372
-611.244	39.448	-0.346	-0.313
-610.230	-23.265	-0.290	-0.176
-609.215	580.131	-0.201	0.498
-608.201	-90.325	-0.305	-0.090
-607.186	-200.000	-0.015	0.166
-606.171	-200.000	0.014	0.223
-605.157	-21.613	-0.306	-0.189
-604.142	-52.917	-0.159	-0.074
-603.128	-129.401	-0.525	0.074
-602.113	-30.524	-0.399	0.229
-601.098	-200.000	-0.017	0.210
-600.084	-200.000	0.045	0.364
-599.069	77.309	0.479	-0.514
-598.055	-164.663	-0.668	-0.031
-597.040	-78.816	0.112	0.039
-596.025	39.402	0.309	0.279
-595.011	-51.889	-0.241	-0.113
-593.996	419.954	0.351	-0.759
-592.982	141.445	0.615	0.822
-591.967	800.000	0.153	0.627
-590.952	800.000	0.198	-0.600
-589.938	41.223	-0.551	-0.503
-588.923	-200.000	-0.053	0.496
-587.909	800.000	-0.197	0.788
-586.894	-152.853	0.704	-0.050
-585.879	93.173	-0.313	0.358
-584.865	800.000	0.203	-0.625
-583.850	-65.519	-0.239	-0.097
-582.836	800.000	-0.150	0.480
-581.821	-67.998	0.683	0.269
-580.806	800.000	-0.119	0.461
-579.792	-94.560	-0.989	0.272
-578.777	56.826	-0.239	0.235
-577.763	-85.377	1.208	-0.380
-576.748	-77.796	0.411	-0.143
-575.733	-82.413	0.802	-0.263
-574.719	-23.346	-0.920	0.558
-573.704	425.402	-0.131	0.284
-572.690	800.000	-0.058	0.227
-571.675	-126.610	0.109	0.016
-570.661	-29.441	0.985	-0.569
-569.646	-200.000	0.125	-0.601
-568.631	800.000	0.085	0.285
-567.617	-140.722	0.632	0.066
-566.602	-24.672	0.554	-0.332
-565.588	22.549	-0.590	-0.487
-564.573	23.500	0.399	-0.331
-563.558	-117.702	0.190	0.034
-562.544	234.242	0.088	0.146
-561.529	-54.276	-0.767	0.351
-560.515	-109.068	0.761	-0.163
-559.500	-200.000	-0.059	0.844
-558.485	158.142	-0.267	0.374
-557.471	-39.085	0.541	-0.287
-556.456	-200.000	0.026	-0.161
-555.442	-147.050	-0.392	-0.034
-554.427	-20.633	0.534	-0.331
-553.412	6.178	0.280	0.209
-552.398	73.665	-0.347	0.367
-551.383	190.577	0.323	0.489
-550.369	-200.000	-0.047	-0.429
-549.354	13.180	-0.246	-0.192
-548.339	-126.241	-0.387	0.058
-547.325	-46.148	-0.232	0.115
-546.310	-110.881	0.692	-0.144
-545.296	39.097	-0.278	-0.250
-544.281	800.000	0.202	-0.679
-543.266	590.474	0.254	-0.632
-542.252	-161.290	0.779	0.041
-541.237	790.905	0.188	-0.519
-540.223	-200.000	-0.126	-0.708
-539.208	-19.271	-0.583	-0.365
-538.193	-128.537	0.360	-0.051
-537.179	191.836	0.372	0.564
-536.164	800.000	0.247	-0.802
-535.150	44.222	0.352	-0.326
-534.135	-64.367	-0.427	-0.175
-533.121	-200.000	0.006	0.137
-532.106	-101.434	-0.466	0.114
-531.091	-200.000	0.006	-0.173
-530.077	-159.663	0.196	0.011
-529.062	600.207	-0.322	0.806
-528.048	800.000	0.193	-0.693
-527.033	-87.382	0.359	-0.110
-526.018	-200.000	-0.024	-0.767
-525.004	-71.865	0.697	-0.261
-523.989	800.000	0.146	0.537
-522.975	43.110	0.224	0.206
-521.960	167.987	-0.475	-0.681
-520.945	101.341	0.433	-0.508
-519.931	-178.874	-0.220	-0.005
-518.916	800.000	0.150	0.634
-517.902	-127.493	0.895	-0.131
-516.887	-18.447	0.401	-0.252
-515.872	800.000	0.097	0.370
-514.858	800.000	0.098	0.315
-513.843	-133.516	-0.537	0.068
-512.829	-95.945	0.184	0.049
-511.814	-35.435	-0.153	0.084
-510.799	800.000	0.310	0.966
-509.785	-94.414	0.766	0.210
-508.770	-153.815	0.147	0.010
-507.756	-200.000	-0.052	-0.494
-506.741	-104.519	-0.037	0.009
-505.726	478.944	0.326	-0.744
-504.712	800.000	-0.258	-0.735
-503.697	284.892	0.416	0.753
-502.683	-22.164	0.459	-0.280
-501.668	-102.998	-0.658	0.157
-500.653	-200.000	-0.025	-0.269
-499.639	18.577	0.233	0.187
-498.624	-59.784	0.215	0.093
-497.610	-123.041	0.720	0.116
-496.595	-121.728	-0.617	0.103
-495.581	-155.486	0.340	-0.022
-494.566	32.909	-0.384	0.335
-493.551	43.843	-0.663	-0.611
-492.537	-7.363	-0.700	-0.477
-491.522	-91.274	-0.609	0.175
-490.508	-200.000	0.035	-0.169
-489.493	-196.766	-0.340	-0.002
-488.478	-200.000	-0.015	-0.287
-487.464	800.000	0.182	-0.799
-486.449	430.006	-0.127	-0.277
-485.435	-200.000	-0.069	0.343
-484.420	121.101	0.341	-0.427
-483.405	383.309	0.119	0.246
-482.391	-53.079	-0.519	0.240
-481.376	-182.502	-0.130	0.002
-480.362	569.344	0.141	0.344
-479.347	-72.187	-0.087	-0.032
-478.332	83.567	0.094	0.103
-477.318	582.847	0.248	0.611
-476.303	314.021	-0.241	-0.455
-475.289	-40.995	-0.338	0.176
-474.274	77.983	-0.339	-0.364
-473.259	395.562	0.244	0.511
-472.245	-92.877	0.504	-0.141
-471.230	-71.619	-0.187	-0.070
-470.216	-200.000	-0.004	0.661
-469.201	743.871	0.279	0.753
-468.186	-159.373	-0.938	0.053
-467.172	-112.583	-0.325	-0.065
-466.157	800.000	-0.200	0.573
-465.143	-89.730	-0.374	-0.110
-464.128	14.267	-0.197	-0.154
-463.113	-200.000	0.009	0.378
-462.099	15.265	0.151	0.119
-461.084	800.000	0.144	-0.461
-460.070	-12.723	0.300	-0.197
-459.055	-109.073	0.838	-0.179
-458.040	-139.971	0.091	-0.010
-457.026	237.576	0.272	-0.453
-456.011	-200.000	0.048	-0.952
-454.997	-200.000	0.107	0.472
-453.982	136.357	-0.340	-0.446
-452.968	-124.423	0.168	0.026
-451.953	-200.000	-0.010	0.643
-450.938	-156.972	0.443	0.027
-449.924	345.793	0.073	0.144
-448.909	-10.819	-0.312	0.207
-447.895	23.108	0.435	0.359
-446.880	234.001	-0.438	0.725
-445.865	130.938	0.152	0.196
-444.851	-200.000	0.130	-0.943
-443.836	276.039	-0.334	-0.595
-442.822	-163.901	0.247	-0.012
-441.807	-45.378	-0.708	-0.352
-440.792	-8.683	0.626	0.422
-439.778	376.705	-0.314	-0.643
-438.763	152.263	-0.364	0.499
-437.749	-200.000	-0.250	-1.278
-436.734	380.814	0.336	-0.691
-435.719	-15.346	-0.366	0.235
-434.705	-116.204	0.557	-0.104
-433.690	567.219	0.298	-0.727
-432.676	-89.763	0.321	-0.094
-431.661	19.633	-0.487	-0.393
-430.646	732.532	0.120	0.321
-429.632	545.760	0.172	0.411
-428.617	-200.000	0.013	0.236
-427.603	272.402	0.026	0.047
-426.588	-81.958	-0.163	0.054
-425.573	547.510	0.070	-0.167
-424.559	623.292	-0.038	-0.095
-423.544	130.388	-0.246	-0.316
-422.530	164.543	0.255	-0.361
-421.515	-200.000	-0.003	0.094
-420.500	121.043	0.567	0.708
-419.486	-200.000	0.012	-0.356
-418.471	-70.083	0.878	-0.335
-417.457	-151.391	0.096	0.007
-416.442	78.152	0.367	-0.393
-415.428	-41.360	0.402	-0.208
-414.413	800.000	0.288	-0.947
-413.398	-13.018	-0.416	0.272
-412.384	24.030	0.442	0.366
-411.369	215.166	0.332	0.527
-410.355	165.572	-0.198	0.281
-409.340	-32.277	-0.060	-0.034
-408.325	-146.707	-1.452	0.126
-407.311	-9.802	0.762	0.509
-406.296	-104.898	-0.653	0.150
-405.282	-19.128	-0.942	0.587
-404.267	-29.829	-0.713	-0.407
-403.252	-145.010	0.347	-0.032
-402.238	-200.000	0.099	0.786
-401.223	700.327	-0.097	0.256
-400.209	12.259	0.592	0.457
-399.194	118.580	0.214	-0.265
-398.179	-53.884	-0.599	-0.274
-397.165	-4.961	-0.400	0.276
-396.150	218.908	-0.481	-0.770
-395.136	137.706	-0.592	0.777
-394.121	18.961	0.382	-0.307
-393.106	85.428	-0.047	-0.052
-392.092	155.769	-0.165	-0.228
-391.077	800.000	0.193	0.810
-390.063	333.029	-0.313	0.607
-389.048	66.361	0.060	0.061
-388.033	93.803	-0.449	0.510
-387.019	-86.454	-0.677	0.208
-386.004	188.575	-0.334	-0.501
-384.990	40.776	-0.311	-0.281
-383.975	40.663	0.101	-0.092
-382.960	266.537	0.222	-0.389
-381.946	800.000	-0.102	0.427
-380.931	319.786	-0.444	-0.844
-379.917	123.266	0.168	0.211
-378.902	800.000	0.211	0.762
-377.888	616.540	0.152	0.383
-376.873	71.573	-0.252	0.262
-375.858	-68.861	-0.801	0.310
-374.844	-165.078	0.846	0.038
-373.829	-168.893	-0.863	0.032
-372.815	-200.000	0.009	-0.508
-371.800	383.112	-0.042	-0.086
-370.785	-74.890	-0.359	0.129
-369.771	427.261	-0.043	-0.092
-368.756	-59.081	-0.476	-0.205
-367.742	416.824	-0.109	-0.233
-366.727	-83.529	0.432	-0.138
-365.712	-9.897	-0.165	-0.110
-364.698	33.632	-0.705	-0.613
-363.683	-61.432	-0.260	0.110
-362.669	-96.387	1.061	0.281
-361.654	569.071	0.321	-0.780
-360.639	34.588	0.950	0.830
-359.625	197.521	-0.095	-0.145
-358.610	150.402	0.656	0.891
-357.596	285.144	-0.450	0.812
-356.581	272.336	0.535	0.943
-355.566	-7.183	-0.450	0.306
-354.552	180.858	0.402	0.591
-353.537	209.711	-0.195	0.306
-352.523	64.360	0.629	-0.633
-351.508	136.775	0.403	0.526
-350.493	-8.922	-0.396	-0.265
-349.479	11.757	-0.282	-0.217
-348.464	-200.000	0.127	-0.592
-347.450	76.064	-0.381	0.404
-346.435	-200.000	-0.057	0.370
-345.420	-104.910	-0.299	-0.069
-344.406	-200.000	-0.029	1.073
-343.391	-200.000	0.039	-0.304
-342.377	136.654	0.433	0.566
-341.362	-73.262	0.585	-0.214
-340.348	689.051	0.094	0.247
-339.333	186.682	-0.557	-0.829
-338.318	-82.995	-0.979	-0.315
-337.304	-31.311	-0.846	0.476
-336.289	-133.514	-0.517	0.065
-335.275	800.000	-0.160	0.612
-334.260	220.425	-0.230	-0.368
-333.245	-115.866	-0.750	0.140
-332.231	-72.167	-1.138	-0.422
-331.216	-200.000	0.075	-0.409
-330.202	800.000	-0.124	-0.505
-329.187	44.358	0.228	-0.210
-328.172	800.000	0.087	-0.258
-327.158	-200.000	0.087	-0.821
-326.143	70.223	-0.615	0.635
-325.129	-101.818	-0.480	0.116
-324.114	465.313	0.408	-0.911
-323.099	-200.000	-0.010	0.111
-322.085	-40.658	-0.896	0.464
-321.070	800.000	-0.288	-0.917
-320.056	151.415	0.646	-0.879
-319.041	711.085	0.121	0.319
-318.026	-88.401	1.413	-0.421
-317.012	-200.000	-0.010	0.696
-315.997	700.878	0.157	0.412
-314.983	-200.000	0.032	0.186
-313.968	-100.359	0.913	-0.226
-312.953	-55.995	0.407	-0.181
-311.939	-200.000	0.028	-0.331
-310.924	-143.724	0.495	-0.047
-309.910	-116.076	-0.538	-0.100
-308.895	-51.649	-0.300	-0.140
-307.880	651.564	0.275	-0.703
-306.866	4.880	-0.486	0.357
-305.851	-58.506	0.397	0.172
-304.837	800.000	0.088	-0.287
-303.822	664.978	-0.245	0.632
-302.807	-200.000	0.073	0.987
-301.793	-35.537	-0.418	0.227
-300.778	332.898	0.394	0.760
-299.764	172.758	0.353	-0.508
-298.749	-200.000	0.017	0.591
-297.735	800.000	0.064	0.254
-296.720	139.053	0.232	0.304
-295.705	-200.000	-0.180	-0.821
-294.691	-14.517	0.211	-0.135
-293.676	159.525	0.111	-0.154
-292.662	75.556	-0.536	-0.565
-291.647	-200.000	0.038	-0.835
-290.632	-3.170	-0.609	0.424
-289.618	107.904	0.329	-0.391
-288.603	-47.187	-0.395	0.192
-287.589	-200.000	-0.023	-0.362
-286.574	-35.422	-0.347	0.188
-285.559	800.000	-0.092	-0.395
-284.545	87.137	-0.347	-0.383
-283.530	-77.365	0.362	-0.125
-282.516	-63.882	-0.499	-0.204
-281.501	16.956	-0.148	-0.117
-280.486	-163.096	1.238	-0.060
-279.472	32.210	-0.408	0.351
-278.457	50.867	0.197	0.186
-277.443	276.939	0.088	0.156
-276.428	452.632	-0.088	-0.194
-275.413	800.000	-0.138	-0.410
-274.399	34.353	-0.087	-0.076
-273.384	450.965	0.327	-0.720
-272.370	-145.168	0.920	-0.083
-271.355	-17.402	0.139	-0.087
-270.340	-100.951	0.150	0.037
-269.326	-2.254	-0.458	-0.320
-268.311	-38.153	-0.309	-0.163
-267.297	26.110	0.392	0.326
-266.282	-165.138	-0.122	0.005
-265.267	23.442	-0.510	-0.418
-264.253	-130.410	0.467	-0.063
-263.238	-200.000	0.016	0.794
-262.224	536.598	-0.275	-0.651
-261.209	-90.199	-0.596	-0.173
-260.195	-62.844	0.612	-0.253
-259.180	-100.651	-0.843	0.207
-258.165	-6.854	-0.140	0.095
-257.151	12.114	-0.585	0.448
-256.136	-200.000	0.025	-0.195
-255.122	151.568	-0.213	-0.289
-254.107	174.431	-0.256	-0.369
-253.092	800.000	-0.051	0.186
-252.078	-53.811	-0.293	0.133
-251.063	31.297	0.519	-0.444
-250.049	800.000	0.097	0.270
-249.034	-65.977	-0.522	0.208
-248.019	529.634	-0.072	-0.170
-247.005	-173.026	0.582	-0.018
-245.990	25.323	0.225	-0.186
-244.976	-200.000	0.029	-0.775
-243.961	32.245	-0.109	0.093
-242.946	-74.738	-0.438	-0.157
-241.932	38.476	-0.222	0.197
-240.917	-32.177	0.208	0.116
-239.903	800.000	0.134	0.421
-238.888	-26.891	-0.303	0.177
-237.873	151.446	-0.063	0.086
-236.859	-120.459	-0.656	0.111
-235.844	-42.802	0.214	-0.108
-234.830	16.084	0.797	-0.625
-233.815	7.098	0.149	0.111
-232.800	491.025	0.302	0.687
-231.786	421.653	0.305	0.652
-230.771	-38.596	0.567	-0.298
-229.757	-75.969	-0.130	0.046
-228.742	206.308	0.350	0.542
-227.727	-81.086	0.882	0.290
-226.713	-122.161	-0.281	0.046
-225.698	-120.229	0.703	0.120
-224.684	-56.052	0.397	-0.176
-223.669	-200.000	0.022	-0.380
-222.655	-49.568	0.486	-0.230
-221.640	-93.875	-0.756	0.207
-220.625	540.144	0.067	0.159
-219.611	-1.564	-0.253	0.177
-218.596	-76.488	-0.677	-0.237
-217.582	800.000	-0.128	-0.394
-216.567	-72.585	0.498	-0.183
-215.552	83.119	-0.117	0.126
-214.538	-61.612	0.758	-0.316
-213.523	64.978	0.192	0.193
-212.509	-60.018	0.219	-0.093
-211.494	-32.727	0.387	-0.214
-210.479	-1.090	0.437	-0.308
-209.465	118.393	0.336	-0.412
-208.450	-200.000	-0.122	0.584
-207.436	402.359	0.107	-0.224
-206.421	-200.000	0.111	-0.683
-205.406	-198.642	0.484	-0.003
-204.392	-130.951	0.345	-0.046
-203.377	4.022	0.369	-0.268
-202.363	143.673	0.289	0.384
-201.348	105.882	-0.370	0.436
-200.333	800.000	0.076	0.234
-199.319	800.000	-0.148	-0.519
-198.304	32.186	-0.356	-0.305
-197.290	800.000	-0.257	0.751
-196.275	-119.508	-0.684	0.118
-195.260	-70.829	-0.680	-0.255
-194.246	-200.000	-0.072	0.386
-193.231	120.576	-0.421	-0.520
-192.217	342.479	-0.116	0.225
-191.202	-49.742	-0.309	0.146
-190.187	-81.541	0.289	0.094
-189.173	-72.166	0.746	0.275
-188.158	800.000	0.162	0.589
-187.144	-89.389	-0.466	-0.136
-186.129	5.983	-0.107	0.079
-185.114	-200.000	-0.022	-0.471
-184.100	-88.693	-0.234	-0.069
-183.085	-132.031	0.956	-0.124
-182.071	-109.104	0.466	0.098
-181.056	-108.723	0.183	0.039
-180.042	-49.564	-0.443	-0.210
-179.027	-90.052	-0.749	-0.217
-178.012	-172.360	-0.512	-0.016
-176.998	314.589	-0.119	-0.223
-175.983	-200.000	0.004	0.320
-174.969	25.027	-0.680	0.561
-173.954	-121.016	-0.514	-0.086
-172.939	477.157	0.185	0.416
-171.925	-200.000	0.111	0.615
-170.910	298.388	0.071	-0.130
-169.896	-143.241	-0.227	-0.022
-168.881	-200.000	-0.056	0.535
-167.866	-37.737	0.745	0.394
-166.852	-1.028	-0.246	-0.172
-165.837	213.508	-0.228	0.358
-164.823	105.783	0.440	0.516
-163.808	61.064	-0.784	-0.773
-162.793	322.773	-0.102	0.193
-161.779	-27.509	0.792	0.457
-160.764	-59.095	0.366	0.157
-159.750	204.207	0.020	-0.030
-158.735	468.146	-0.216	0.480
-157.720	32.549	-0.362	0.311
-156.706	84.007	-1.209	-1.310
-155.691	-200.000	-0.016	-0.878
-154.677	52.322	0.689	-0.653
-153.662	92.268	0.206	-0.231
-152.647	56.757	-0.480	0.464
-151.633	15.584	-0.423	0.330
-150.618	-77.910	0.683	0.234
-149.604	-200.000	-0.025	1.031
-148.589	-10.776	-0.322	-0.211
-147.574	-14.457	-0.557	-0.356
-146.560	102.761	0.227	0.263
-145.545	-200.000	0.068	-0.392
-144.531	-21.182	-0.594	-0.360
-143.516	800.000	-0.085	-0.278
-142.502	-200.000	0.009	-0.461
-141.487	-50.528	0.523	-0.245
-140.472	-65.698	0.668	0.266
-139.458	-200.000	0.040	-0.260
-138.443	-70.928	-0.193	-0.072
-137.429	21.376	0.300	-0.242
-136.414	-106.965	-0.536	-0.118
-135.399	-21.361	-0.276	-0.167
-134.385	800.000	0.122	-0.358
-133.370	374.463	0.183	-0.370
-132.356	-200.000	0.114	-0.504
-131.341	-200.000	-0.021	-0.415
-130.326	-9.987	-0.690	0.455
-129.312	-200.000	0.059	-0.654
-128.297	-162.496	0.704	-0.035
-127.283	261.971	0.082	-0.141
-126.268	800.000	-0.085	0.358
-125.253	-200.000	0.192	1.075
-124.239	-72.178	-0.535	-0.197
-123.224	-69.881	0.215	-0.081
-122.210	138.233	-0.135	-0.176
-121.195	-91.004	0.772	-0.220
