DTS Sentinel unit serial number:	SN413079Multiplexer serial number:	ORYXHardware model number:	OX4-SRSoftware version number:	ORYX F/W v4.00 Oryx Data Collector v3.7.2.0data status	okinstallation	princeton_trtdifferential loss correction	single-endedforward channel	channel 4reverse channel	N/Adate	2019/09/14time	22:57:35forward acquisition time	60.00reverse acquisition time	0.00gamma	496.2192k internal	0.2306k external	0.2306temperature offset calibration	1.0059default loss term (dB/km)	0.3790temperature slope calibration	1.0000multiplexer offset coefficient	1.0000multiplexer slope coefficient	1.0000fibre end	0.00T internal ref (°C)	32.44T ext. ref 1 (°C)	4.68T ext. ref 2 (°C)	27.48length (m)	temperature (°C)	Stokes	anti-Stokes-747.200	190.952	-0.031	-0.048
-746.185	-90.950	-0.211	0.062
-745.171	171.985	-0.042	-0.061
-744.156	48.888	0.273	0.261
-743.142	-200.000	0.055	0.452
-742.127	800.000	0.054	0.193
-741.112	101.319	0.057	0.068
-740.098	-155.865	-0.512	0.033
-739.083	-66.479	0.437	0.177
-738.069	117.010	-0.026	0.032
-737.054	586.522	-0.084	0.209
-736.039	651.814	0.035	-0.092
-735.025	-200.000	0.023	0.303
-734.010	-97.930	-0.105	0.028
-732.996	800.000	-0.073	-0.228
-731.981	-200.000	-0.016	-0.229
-730.966	2.379	0.051	0.038
-729.952	-200.000	-0.007	0.170
-728.937	79.156	-0.141	0.153
-727.923	-65.960	-0.202	-0.082
-726.908	-200.000	-0.072	-0.000
-725.894	-200.000	0.031	-0.330
-724.879	-101.235	-0.211	-0.052
-723.864	-77.009	-0.153	0.054
-722.850	150.108	-0.028	0.039
-721.835	-200.000	-0.001	0.132
-720.821	-75.173	-0.362	0.131
-719.806	-200.000	-0.031	-0.296
-718.791	687.043	-0.049	0.129
-717.777	31.444	0.203	0.177
-716.762	32.994	0.147	0.130
-715.748	-36.019	0.085	0.047
-714.733	-54.691	0.147	0.068
-713.718	-200.000	-0.015	0.072
-712.704	800.000	-0.070	0.249
-711.689	-8.524	-0.249	-0.170
-710.675	-45.606	-0.344	-0.173
-709.660	800.000	0.084	-0.235
-708.645	-110.791	-0.026	0.005
-707.631	-155.246	-0.391	-0.026
-706.616	-123.751	-0.297	0.048
-705.602	-200.000	-0.058	-0.336
-704.587	88.614	0.168	-0.190
-703.572	126.400	0.047	0.060
-702.558	800.000	-0.072	-0.204
-701.543	85.389	0.137	-0.153
-700.529	-106.944	-0.182	-0.041
-699.514	53.819	0.161	-0.157
-698.499	12.944	0.110	-0.087
-697.485	-200.000	0.031	0.178
-696.470	-66.239	-0.269	0.109
-695.456	-126.962	-0.260	0.039
-694.441	-0.510	0.222	0.160
-693.426	-168.447	-0.287	-0.011
-692.412	800.000	0.083	-0.318
-691.397	-111.239	-0.154	-0.032
-690.383	-200.000	-0.002	-0.045
-689.368	800.000	-0.063	-0.199
-688.354	-132.826	-0.330	-0.043
-687.339	-158.782	-0.052	-0.003
-686.324	-200.000	0.000	0.309
-685.310	-42.149	-0.207	0.107
-684.295	220.704	-0.055	-0.090
-683.281	165.894	-0.038	-0.055
-682.266	-200.000	0.012	-0.306
-681.251	737.131	0.163	-0.443
-680.237	-107.400	-0.361	0.080
-679.222	-109.465	-0.168	0.036
-678.208	-8.079	0.146	0.100
-677.193	-29.061	-0.236	0.138
-676.178	800.000	-0.096	0.419
-675.164	68.231	0.124	0.129
-674.149	-48.084	0.213	-0.104
-673.135	-32.628	-0.311	0.176
-672.120	-200.000	-0.016	-0.330
-671.105	-200.000	0.008	-0.094
-670.091	-200.000	0.015	0.203
-669.076	-200.000	0.013	0.107
-668.062	-146.427	0.246	-0.022
-667.047	48.055	0.224	0.212
-666.032	-200.000	-0.010	-0.065
-665.018	-184.226	-0.227	0.004
-664.003	-38.484	0.234	0.125
-662.989	97.335	0.069	-0.080
-661.974	-109.816	0.272	-0.058
-660.959	-93.958	-0.166	-0.046
-659.945	-157.588	0.181	0.011
-658.930	82.770	-0.145	0.159
-657.916	134.680	0.063	-0.083
-656.901	-146.690	0.211	0.018
-655.886	-89.756	-0.236	0.070
-654.872	-200.000	-0.002	-0.039
-653.857	-200.000	0.007	0.206
-652.843	56.035	0.225	-0.221
-651.828	-170.224	-0.124	-0.004
-650.814	62.311	0.144	-0.145
-649.799	266.358	-0.064	0.113
-648.784	-2.828	-0.169	0.120
-647.770	257.374	0.044	-0.076
-646.755	406.963	0.200	0.428
-645.741	295.977	-0.063	0.117
-644.726	66.823	-0.127	-0.131
-643.711	-200.000	-0.006	-0.243
-642.697	-57.650	0.198	0.088
-641.682	-94.190	-0.139	-0.039
-640.668	-70.029	-0.199	0.077
-639.653	60.227	-0.054	0.054
-638.638	-5.398	-0.035	0.024
-637.624	-43.529	0.120	0.061
-636.609	-148.190	0.310	0.026
-635.595	-90.259	-0.386	-0.114
-634.580	705.845	0.066	-0.176
-633.565	-200.000	-0.003	-0.180
-632.551	143.633	0.219	0.296
-631.536	233.950	0.121	0.202
-630.522	-72.966	-0.605	-0.225
-629.507	188.547	-0.167	-0.252
-628.492	492.304	0.093	-0.215
-627.478	328.047	0.121	-0.234
-626.463	29.124	-0.373	-0.321
-625.449	-84.438	-0.174	0.056
-624.434	-153.309	0.246	-0.017
-623.419	-190.414	-0.066	-0.001
-622.405	-200.000	-0.002	-0.302
-621.390	180.815	0.048	-0.071
-620.376	61.398	0.131	0.132
-619.361	-102.114	0.091	0.022
-618.346	-15.111	-0.229	-0.148
-617.332	-5.474	-0.353	-0.245
-616.317	402.140	0.008	0.018
-615.303	-25.305	-0.165	0.099
-614.288	-109.738	-0.114	-0.024
-613.273	-200.000	-0.059	-0.326
-612.259	92.740	-0.228	0.261
-611.244	20.366	0.372	-0.304
-610.230	-12.401	-0.224	0.148
-609.215	-103.188	-0.207	0.050
-608.201	-162.502	0.271	-0.014
-607.186	800.000	-0.031	0.139
-606.171	-200.000	0.011	-0.227
-605.157	179.340	-0.187	-0.277
-604.142	296.485	-0.040	0.074
-603.128	668.932	-0.130	0.340
-602.113	270.896	-0.106	-0.188
-601.098	-136.057	-0.290	-0.034
-600.084	-48.014	0.229	0.112
-599.069	-11.324	-0.137	0.091
-598.055	-34.879	-0.252	0.139
-597.040	-133.384	-0.219	-0.028
-596.025	107.473	-0.179	0.215
-595.011	118.189	0.129	-0.161
-593.996	131.265	0.236	-0.306
-592.982	-141.813	-0.265	0.027
-591.967	36.028	0.137	-0.122
-590.952	175.515	0.201	-0.294
-589.938	505.665	0.132	0.310
-588.923	-102.148	-0.262	0.064
-587.909	-200.000	0.151	0.000
-586.894	-103.918	0.208	-0.049
-585.879	417.442	0.100	0.217
-584.865	-200.000	0.014	0.143
-583.850	-83.565	0.108	0.035
-582.836	328.332	-0.073	-0.141
-581.821	-67.480	-0.205	0.081
-580.806	-200.000	-0.080	-0.570
-579.792	-200.000	0.005	-0.153
-578.777	-200.000	0.067	0.378
-577.763	178.681	0.150	-0.222
-576.748	-60.262	0.093	0.040
-575.733	-200.000	-0.079	0.401
-574.719	148.856	0.104	0.142
-573.704	-102.260	0.333	0.081
-572.690	147.104	-0.207	0.281
-571.675	-19.150	-0.294	0.184
-570.661	169.803	-0.038	0.055
-569.646	156.411	0.095	-0.132
-568.631	-107.023	0.113	0.025
-567.617	45.266	0.153	0.142
-566.602	308.883	-0.049	0.093
-565.588	800.000	0.110	-0.416
-564.573	-122.797	-0.471	0.077
-563.558	-16.801	-0.161	0.103
-562.544	-124.883	-0.380	-0.059
-561.529	479.243	0.039	-0.090
-560.515	800.000	-0.111	0.355
-559.500	-133.539	0.115	-0.015
-558.485	-200.000	0.027	-0.175
-557.471	-200.000	-0.032	-0.344
-556.456	-19.437	0.263	-0.165
-555.442	-39.636	-0.143	0.076
-554.427	311.036	0.228	-0.432
-553.412	-6.964	-0.270	0.186
-552.398	-7.024	-0.211	-0.145
-551.383	-124.753	-0.215	0.034
-550.369	261.163	-0.086	0.150
-549.354	-68.508	0.130	0.051
-548.339	182.727	0.138	-0.206
-547.325	-70.707	-0.379	-0.145
-546.310	600.914	-0.152	-0.381
-545.296	-67.284	-0.226	-0.090
-544.281	-61.859	-0.276	0.116
-543.266	28.750	-0.100	0.085
-542.252	-200.000	-0.026	-0.177
-541.237	-109.200	0.377	-0.081
-540.223	-200.000	-0.022	-0.196
-539.208	-31.761	-0.137	-0.078
-538.193	-200.000	0.006	-0.036
-537.179	329.842	-0.174	-0.338
-536.164	-200.000	-0.010	-0.085
-535.150	44.491	0.217	-0.201
-534.135	-62.366	0.109	0.046
-533.121	-109.757	-0.099	-0.021
-532.106	345.156	-0.044	0.088
-531.091	16.005	-0.290	-0.230
-530.077	89.306	0.169	-0.191
-529.062	-93.679	0.356	-0.099
-528.048	70.234	-0.278	0.290
-527.033	388.254	-0.114	0.238
-526.018	-1.538	-0.235	0.167
-525.004	-150.178	-0.208	0.016
-523.989	52.656	0.064	0.061
-522.975	61.818	-0.173	0.173
-521.960	17.143	0.043	0.035
-520.945	277.329	-0.058	-0.104
-519.931	585.630	0.039	-0.096
-518.916	-100.479	0.601	-0.150
-517.902	-16.150	-0.107	-0.069
-516.887	-74.300	-0.239	-0.087
-515.872	800.000	0.020	0.067
-514.858	459.119	0.230	0.515
-513.843	-200.000	0.029	-0.211
-512.829	-126.640	0.236	-0.035
-511.814	-200.000	-0.040	-0.433
-510.799	-170.405	-0.297	0.010
-509.785	436.230	0.145	0.319
-508.770	-33.233	0.373	0.208
-507.756	-36.938	-0.046	0.025
-506.741	-115.584	0.259	0.049
-505.726	-137.438	-0.238	0.027
-504.712	-14.542	-0.463	0.300
-503.697	-200.000	0.006	-0.168
-502.683	-49.785	-0.154	0.074
-501.668	498.412	0.143	-0.333
-500.653	-200.000	0.022	-0.487
-499.639	-153.412	0.301	-0.021
-498.624	-151.345	0.330	-0.025
-497.610	-75.280	0.314	-0.113
-496.595	92.826	-0.068	0.078
-495.581	-39.842	0.302	-0.159
-494.566	180.421	-0.089	-0.132
-493.551	-159.873	0.277	0.015
-492.537	169.471	-0.130	0.187
-491.522	800.000	0.027	0.106
-490.508	-44.610	0.145	0.073
-489.493	-80.099	-0.387	0.131
-488.478	-154.259	0.226	-0.015
-487.464	317.549	-0.023	0.043
-486.449	-108.660	-0.033	0.007
-485.435	800.000	-0.048	-0.200
-484.420	-52.485	-0.192	0.090
-483.405	-54.696	0.034	0.015
-482.391	70.406	-0.172	0.179
-481.376	-200.000	0.072	-0.416
-480.362	-148.999	0.162	0.013
-479.347	512.604	0.151	0.353
-478.332	-56.974	0.217	-0.097
-477.318	-200.000	-0.029	0.233
-476.303	-179.594	-0.140	0.003
-475.289	-114.582	-0.544	-0.105
-474.274	702.423	-0.125	0.332
-473.259	-1.193	-0.179	-0.127
-472.245	-167.760	0.341	-0.014
-471.230	101.417	-0.300	0.351
-470.216	-200.000	0.033	0.226
-469.201	138.711	-0.024	-0.032
-468.186	800.000	0.031	-0.135
-467.172	-200.000	-0.026	-0.427
-466.157	161.122	0.089	0.125
-465.143	-42.058	-0.231	0.119
-464.128	-48.520	-0.260	-0.126
-463.113	18.226	0.142	0.114
-462.099	64.430	0.231	-0.234
-461.084	800.000	0.014	0.046
-460.070	-11.620	0.310	-0.205
-459.055	-30.802	0.238	0.136
-458.040	-52.619	-0.232	-0.108
-457.026	-66.276	-0.125	0.050
-456.011	-96.669	0.290	0.077
-454.997	800.000	-0.021	-0.092
-453.982	773.749	-0.110	-0.301
-452.968	-79.868	0.087	0.029
-451.953	-200.000	-0.013	0.298
-450.938	-64.718	-0.171	-0.070
-449.924	2.916	0.222	-0.162
-448.909	-6.589	-0.219	-0.150
-447.895	569.622	0.024	0.059
-446.880	-118.942	0.093	0.016
-445.865	800.000	-0.104	0.302
-444.851	104.684	0.247	-0.293
-443.836	77.978	-0.109	-0.117
-442.822	304.276	-0.047	0.088
-441.807	2.916	0.182	0.133
-440.792	-200.000	-0.023	-0.181
-439.778	-200.000	-0.016	0.203
-438.763	-42.546	0.204	0.104
-437.749	-30.067	0.358	0.205
-436.734	-128.776	0.113	-0.016
-435.719	-200.000	-0.034	0.426
-434.705	-4.191	0.078	-0.054
-433.690	-200.000	-0.023	-0.252
-432.676	-96.921	-0.142	-0.038
-431.661	47.987	0.057	-0.054
-430.646	-200.000	0.001	-0.119
-429.632	51.486	0.096	0.091
-428.617	-89.863	0.155	-0.046
-427.603	61.890	0.104	0.105
-426.588	652.775	-0.106	-0.273
-425.573	-50.149	-0.047	-0.023
-424.559	-89.989	0.085	-0.025
-423.544	-200.000	-0.003	0.162
-422.530	153.840	0.203	0.279
-421.515	-200.000	-0.014	-0.324
-420.500	-193.551	-0.225	0.002
-419.486	-200.000	0.027	-0.285
-418.471	800.000	0.068	-0.242
-417.457	800.000	0.106	0.314
-416.442	-20.297	-0.022	0.014
-415.428	158.687	-0.127	0.177
-414.413	3.622	0.252	0.184
-413.398	281.729	0.095	0.170
-412.384	-161.082	0.156	0.008
-411.369	800.000	0.084	0.253
-410.355	54.218	0.042	0.041
-409.340	63.862	-0.184	0.185
-408.325	-64.463	-0.161	0.066
-407.311	-81.432	0.069	-0.023
-406.296	0.239	0.233	-0.167
-405.282	338.395	0.172	0.336
-404.267	800.000	-0.107	0.354
-403.252	145.514	-0.035	0.048
-402.238	-200.000	0.027	-0.210
-401.223	-140.206	-0.308	0.032
-400.209	-173.857	0.245	0.007
-399.194	-200.000	-0.030	-0.186
-398.179	329.995	-0.121	0.233
-397.165	-200.000	-0.004	0.094
-396.150	-200.000	0.029	-0.145
-395.136	25.847	0.064	0.053
-394.121	43.983	-0.120	0.111
-393.106	43.978	0.064	-0.058
-392.092	-61.494	-0.219	0.092
-391.077	230.933	0.037	0.061
-390.063	-179.590	0.462	0.010
-389.048	-112.515	0.375	-0.075
-388.033	-200.000	-0.028	0.307
-387.019	-29.110	0.256	0.147
-386.004	-9.789	0.109	0.073
-384.990	42.407	-0.082	0.075
-383.975	-100.158	-0.088	0.022
-382.960	-200.000	-0.028	-0.316
-381.946	-85.567	-0.312	-0.097
-380.931	-64.847	0.438	0.178
-379.917	-154.057	-0.270	-0.018
-378.902	-172.846	-0.131	0.004
-377.888	-39.291	-0.072	0.038
-376.873	800.000	0.033	-0.094
-375.858	800.000	0.060	0.243
-374.844	800.000	-0.115	-0.323
-373.829	117.537	0.213	-0.262
-372.815	-56.156	-0.104	0.046
-371.800	615.689	0.113	-0.285
-370.785	-200.000	-0.031	-0.339
-369.771	657.614	0.128	0.329
-368.756	-131.493	0.209	-0.028
-367.742	-91.823	-0.296	-0.084
-366.727	277.334	-0.086	-0.154
-365.712	-200.000	-0.006	0.175
-364.698	46.905	0.143	-0.133
-363.683	-45.642	0.174	0.086
-362.669	45.291	-0.072	0.066
-361.654	-80.565	0.172	-0.057
-360.639	-200.000	-0.005	0.029
-359.625	80.647	0.067	-0.072
-358.610	800.000	-0.045	0.180
-357.596	1.590	0.102	0.074
-356.581	223.617	-0.142	-0.229
-355.566	236.759	-0.106	-0.175
-354.552	800.000	-0.085	-0.243
-353.537	686.662	-0.058	0.152
-352.523	-41.984	-0.339	0.174
-351.508	-1.645	-0.100	0.071
-350.493	29.253	-0.066	-0.057
-349.479	-200.000	-0.022	0.316
-348.464	-78.145	-0.061	0.021
-347.450	-79.019	-0.388	-0.132
-346.435	93.518	-0.264	0.299
-345.420	21.811	-0.175	-0.143
-344.406	-102.106	0.217	-0.052
-343.391	-86.299	0.214	0.066
-342.377	-200.000	0.031	0.184
-341.362	-17.595	-0.201	0.127
-340.348	89.221	-0.218	0.244
-339.333	685.130	-0.073	-0.190
-338.318	409.633	-0.110	0.234
-337.304	-14.711	0.416	0.267
-336.289	130.109	0.211	0.271
-335.275	-18.458	0.315	0.197
-334.260	63.840	-0.011	0.011
-333.245	-176.807	0.333	0.008
-332.231	800.000	-0.085	-0.319
-331.216	-200.000	-0.046	-0.239
-330.202	-140.267	0.104	-0.011
-329.187	-200.000	-0.013	0.105
-328.172	93.007	0.291	0.329
-327.158	58.616	-0.054	0.053
-326.143	-148.919	0.217	-0.018
-325.129	269.387	0.174	0.306
-324.114	300.997	0.018	-0.033
-323.099	263.479	0.169	-0.294
-322.085	489.459	-0.197	-0.452
-321.070	-126.366	0.029	-0.004
-320.056	72.912	0.320	-0.335
-319.041	-200.000	0.023	0.153
-318.026	-93.191	0.529	-0.147
-317.012	17.863	-0.016	-0.013
-315.997	800.000	0.023	0.079
-314.983	800.000	-0.045	-0.148
-313.968	-185.097	-0.013	-0.000
-312.953	251.606	-0.140	-0.238
-311.939	10.664	0.210	0.160
-310.924	-99.578	0.049	0.012
-309.910	800.000	0.040	0.116
-308.895	84.445	0.175	0.192
-307.880	-200.000	0.018	0.337
-306.866	-77.527	0.215	0.075
-305.851	-131.144	-0.175	0.023
-304.837	-200.000	0.010	-0.160
-303.822	-190.592	-0.074	-0.001
-302.807	30.025	-0.056	-0.048
-301.793	-120.716	-0.221	0.037
-300.778	182.469	0.192	-0.283
-299.764	1.260	0.101	0.073
-298.749	-168.343	0.182	0.007
-297.735	134.982	0.150	0.195
-296.720	2.159	-0.089	0.065
-295.705	12.738	0.178	0.137
-294.691	49.002	0.282	0.265
-293.676	-62.590	-0.073	0.030
-292.662	375.979	0.116	0.236
-291.647	-200.000	-0.049	-0.294
-290.632	-104.346	0.485	0.112
-289.618	328.940	-0.201	-0.386
-288.603	-145.409	-0.250	-0.023
-287.589	-63.797	-0.304	0.124
-286.574	-107.915	0.133	0.029
-285.559	140.787	-0.080	0.106
-284.545	279.010	-0.165	0.295
-283.530	-93.074	-0.072	-0.020
-282.516	-105.860	-0.231	-0.052
-281.501	249.866	0.071	0.120
-280.486	-81.995	-0.099	-0.032
-279.472	75.642	-0.188	-0.198
-278.457	-115.771	0.378	0.071
-277.443	-51.058	0.003	-0.001
-276.428	-40.731	-0.097	0.050
-275.413	142.216	0.219	-0.290
-274.399	623.618	0.037	-0.093
-273.384	-28.139	-0.325	-0.188
-272.370	-200.000	-0.009	-0.210
-271.355	-56.124	0.099	-0.044
-270.340	-49.672	-0.441	0.209
-269.326	-145.784	0.144	-0.013
-268.311	108.667	0.159	0.190
-267.297	-198.761	-0.116	-0.001
-266.282	-20.107	0.328	-0.202
-265.267	-200.000	-0.018	-0.460
-264.253	-134.333	-0.110	-0.013
-263.238	146.951	-0.258	-0.347
-262.224	800.000	0.043	-0.127
-261.209	17.853	-0.311	-0.247
-260.195	800.000	-0.073	0.247
-259.180	-200.000	-0.029	-0.161
-258.165	-113.267	0.285	-0.056
-257.151	-200.000	0.007	0.137
-256.136	-200.000	0.048	-0.414
-255.122	263.080	-0.204	-0.353
-254.107	-35.975	-0.073	0.039
-253.092	147.515	0.089	-0.120
-252.078	800.000	0.068	0.233
-251.063	-191.993	0.256	0.002
-250.049	57.532	-0.174	0.170
-249.034	276.890	0.028	-0.049
-248.019	-16.928	-0.220	0.139
-247.005	-25.180	-0.140	0.083
-245.990	-84.321	-0.068	0.021
-244.976	800.000	-0.096	-0.355
-243.961	367.359	-0.076	0.153
-242.946	800.000	0.005	0.016
-241.932	4.943	0.267	-0.196
-240.917	-127.171	-0.068	-0.010
-239.903	31.013	0.145	0.124
-238.888	-115.085	0.109	0.021
-237.873	-21.015	-0.207	0.126
-236.859	-19.054	-0.133	0.082
-235.844	94.547	0.124	0.140
-234.830	195.368	-0.145	-0.219
-233.815	-80.172	-0.149	0.050
-232.800	47.551	-0.186	-0.173
-231.786	-174.621	-0.136	0.004
-230.771	184.781	0.178	-0.263
-229.757	19.009	-0.294	-0.235
-228.742	-200.000	0.030	0.361
-227.727	-200.000	0.045	0.259
-226.713	149.006	0.091	0.122
-225.698	14.174	0.276	0.214
-224.684	-75.223	0.305	0.109
-223.669	-57.043	0.064	0.028
-222.655	306.660	-0.112	-0.209
-221.640	97.275	0.068	0.078
-220.625	73.038	-0.108	0.113
-219.611	-200.000	0.007	0.087
-218.596	-200.000	-0.019	-0.097
-217.582	-136.005	0.343	0.040
-216.567	-158.575	-0.504	-0.029
-215.552	116.765	0.137	0.167
-214.538	178.371	0.128	-0.186
-213.523	-8.961	-0.069	-0.046
-212.509	123.012	-0.128	-0.160
-211.494	-166.283	-0.314	-0.013
-210.479	30.066	-0.209	-0.178
-209.465	386.080	-0.033	0.067
-208.450	174.555	0.157	0.227
-207.436	800.000	-0.126	0.358
-206.421	370.446	-0.046	-0.092
-205.406	583.594	0.095	0.232
-204.392	-200.000	0.019	0.333
-203.377	-42.439	0.088	0.045
-202.363	-200.000	0.001	0.183
-201.348	-200.000	0.026	-0.370
-200.333	-200.000	-0.244	0.000
-199.319	33.923	0.250	0.216
-198.304	162.031	-0.127	0.177
-197.290	-149.374	-0.165	0.013
-196.275	-200.000	0.015	0.190
-195.260	800.000	-0.053	-0.196
-194.246	-129.915	-0.419	-0.057
-193.231	-132.200	0.125	-0.016
-192.217	75.667	-0.198	-0.208
-191.202	-148.986	0.069	0.006
-190.187	-200.000	-0.012	0.150
-189.173	16.229	-0.220	0.173
-188.158	-67.547	-0.137	0.053
-187.144	109.441	0.316	-0.377
-186.129	-84.580	0.244	-0.077
-185.114	541.505	-0.127	-0.302
-184.100	-106.230	0.280	0.063
-183.085	-112.828	0.014	0.003
-182.071	-85.404	0.396	0.123
-181.056	-22.777	0.294	0.177
-180.042	299.326	-0.066	-0.120
-179.027	199.945	-0.046	0.071
-178.012	41.004	0.177	0.159
-176.998	-200.000	0.010	0.085
-175.983	-23.715	-0.076	0.045
-174.969	-200.000	-0.017	-0.085
-173.954	-125.563	0.097	-0.015
-172.939	47.539	0.199	-0.184
-171.925	-6.357	0.237	-0.161
-170.910	27.739	-0.131	0.110
-169.896	-200.000	0.042	0.290
-168.881	37.520	-0.352	0.311
-167.866	-158.877	0.352	-0.020
-166.852	304.728	0.079	-0.146
-165.837	-200.000	0.046	0.210
-164.823	-24.482	0.317	0.188
-163.808	-136.929	-0.203	-0.023
-162.793	-57.693	0.283	-0.123
-161.779	-200.000	-0.052	0.226
-160.764	97.503	-0.099	-0.113
-159.750	239.220	0.127	0.211
-158.735	-47.198	0.169	-0.082
-157.720	-97.465	-0.302	0.078
-156.706	-200.000	0.000	0.190
-155.691	211.264	-0.252	-0.394
-154.677	800.000	0.069	0.196
-153.662	254.030	-0.102	-0.174
-152.647	-108.922	-0.301	0.064
-151.633	-84.636	0.189	-0.059
-150.618	227.549	-0.034	-0.054
-149.604	38.958	-0.216	-0.192
-148.589	-5.361	0.182	-0.124
-147.574	5.015	-0.008	0.006
-146.560	413.966	-0.093	-0.197
-145.545	-179.074	0.235	-0.005
-144.531	-79.973	0.261	-0.087
-143.516	-94.467	0.148	-0.040
-142.502	335.137	-0.072	-0.138
-141.487	-95.460	-0.291	0.078
-140.472	188.497	-0.140	-0.208
-139.458	-86.203	0.232	-0.071
-138.443	210.316	-0.199	-0.311
-137.429	-200.000	-0.012	-0.107
-136.414	-51.037	-0.245	-0.114
-135.399	-118.326	0.456	0.080
-134.385	-22.817	-0.128	0.077
-133.370	696.463	-0.066	0.172
-132.356	-139.483	-0.268	0.028
-131.341	-92.846	0.189	0.052
-130.326	132.840	0.101	0.129
-129.312	800.000	0.016	0.056
-128.297	-51.585	0.386	-0.179
-127.283	-171.734	-0.221	0.007
-126.268	787.080	-0.070	0.191
-125.253	800.000	0.027	0.110
-124.239	800.000	0.074	-0.315
-123.224	-39.913	0.125	-0.065
-122.210	-59.232	-0.378	0.162
-121.195	-200.000	-0.025	0.253
