DTS Sentinel unit serial number:	SN413079Multiplexer serial number:	ORYXHardware model number:	OX4-SRSoftware version number:	ORYX F/W v4.00 Oryx Data Collector v3.7.2.0data status	okinstallation	princeton_trtdifferential loss correction	single-endedforward channel	channel 4reverse channel	N/Adate	2019/09/14time	22:37:35forward acquisition time	60.00reverse acquisition time	0.00gamma	496.2192k internal	0.2305k external	0.2305temperature offset calibration	1.0064default loss term (dB/km)	0.3790temperature slope calibration	1.0000multiplexer offset coefficient	1.0000multiplexer slope coefficient	1.0000fibre end	0.00T internal ref (°C)	32.50T ext. ref 1 (°C)	4.67T ext. ref 2 (°C)	27.56length (m)	temperature (°C)	Stokes	anti-Stokes-747.200	120.752	0.333	-0.421
-746.185	800.000	0.096	0.348
-745.171	64.696	-0.267	-0.274
-744.156	-27.814	-0.173	0.102
-743.142	-16.267	-0.033	-0.021
-742.127	75.165	-0.296	0.317
-741.112	800.000	0.010	0.043
-740.098	-108.770	-0.318	-0.069
-739.083	-56.744	-0.225	-0.101
-738.069	-65.788	0.234	0.095
-737.054	22.912	-0.181	-0.151
-736.039	-200.000	-0.030	-0.337
-735.025	-0.044	-0.080	0.058
-734.010	58.014	-0.063	-0.062
-732.996	-200.000	0.064	-0.419
-731.981	-88.424	0.081	-0.025
-730.966	-28.469	0.053	0.031
-729.952	83.028	-0.097	-0.107
-728.937	-45.840	0.030	-0.015
-727.923	76.892	0.055	0.060
-726.908	800.000	-0.044	0.170
-725.894	800.000	0.090	0.317
-724.879	800.000	0.043	-0.121
-723.864	-135.463	-0.124	0.015
-722.850	-29.946	0.125	0.072
-721.835	800.000	0.087	-0.304
-720.821	81.841	0.165	0.182
-719.806	-81.214	-0.296	0.099
-718.791	-0.997	0.207	-0.149
-717.777	-48.229	-0.078	-0.038
-716.762	311.159	-0.097	0.186
-715.748	-200.000	-0.021	0.193
-714.733	-200.000	-0.022	-0.372
-713.718	-78.987	-0.193	0.067
-712.704	80.542	-0.076	-0.083
-711.689	-77.698	-0.134	0.047
-710.675	-86.346	0.116	0.036
-709.660	550.395	-0.059	-0.143
-708.645	121.071	0.261	0.330
-707.631	-167.818	0.214	-0.009
-706.616	-143.954	0.197	-0.019
-705.602	800.000	-0.012	-0.051
-704.587	159.601	-0.126	-0.179
-703.572	-200.000	0.033	-0.193
-702.558	-200.000	0.035	0.368
-701.543	-200.000	-0.020	0.107
-700.529	208.876	0.094	0.149
-699.514	580.485	0.040	-0.099
-698.499	-111.524	0.044	0.009
-697.485	356.588	0.107	-0.217
-696.470	163.684	-0.081	0.116
-695.456	-200.000	-0.010	0.211
-694.441	-200.000	0.038	0.298
-693.426	146.544	0.263	0.358
-692.412	128.169	0.098	-0.126
-691.397	-200.000	0.007	-0.358
-690.383	658.437	0.074	-0.193
-689.368	57.320	-0.137	0.136
-688.354	-111.219	-0.124	-0.026
-687.339	17.488	0.017	-0.014
-686.324	800.000	-0.040	0.130
-685.310	395.665	0.054	0.114
-684.295	-8.433	0.190	-0.130
-683.281	-200.000	-0.001	0.165
-682.266	-83.761	-0.174	-0.056
-681.251	334.856	0.143	0.280
-680.237	-107.950	-0.107	-0.024
-679.222	-46.886	-0.311	0.154
-678.208	-126.094	0.396	0.060
-677.193	-80.313	0.401	0.136
-676.178	185.306	-0.037	-0.056
-675.164	-200.000	-0.001	0.036
-674.149	167.636	-0.044	-0.063
-673.135	9.908	-0.106	0.082
-672.120	-200.000	-0.021	0.152
-671.105	17.256	-0.143	0.115
-670.091	150.731	-0.168	-0.232
-669.076	-167.266	0.234	-0.010
-668.062	118.540	0.034	-0.042
-667.047	-32.802	0.094	-0.053
-666.032	-38.669	0.266	0.142
-665.018	-109.775	-0.385	0.082
-664.003	-59.274	-0.193	-0.084
-662.989	-178.231	0.185	-0.004
-661.974	44.892	-0.195	0.182
-660.959	17.102	-0.172	-0.138
-659.945	50.557	-0.206	-0.198
-658.930	-24.929	-0.171	-0.103
-657.916	20.155	-0.404	0.331
-656.901	-56.130	-0.112	0.050
-655.886	10.612	-0.191	-0.147
-654.872	-72.834	-0.168	0.063
-653.857	-143.697	-0.364	-0.035
-652.843	-194.600	0.106	-0.001
-651.828	108.334	-0.209	0.252
-650.814	-46.682	-0.243	-0.121
-649.799	-200.000	-0.018	-0.124
-648.784	-82.015	-0.286	-0.095
-647.770	-15.333	-0.139	-0.090
-646.755	-200.000	-0.019	-0.362
-645.741	37.384	0.284	-0.255
-644.726	577.741	0.116	0.287
-643.711	-200.000	-0.003	0.279
-642.697	571.138	0.043	0.106
-641.682	93.928	-0.138	0.159
-640.668	-71.823	-0.207	0.078
-639.653	-12.008	-0.281	-0.187
-638.638	-134.034	0.165	0.021
-637.624	42.358	0.182	0.168
-636.609	-41.499	0.058	-0.030
-635.595	13.182	-0.240	0.188
-634.580	-100.711	-0.247	0.062
-633.565	-200.000	0.032	-0.178
-632.551	-101.363	0.210	0.052
-631.536	60.225	0.145	-0.145
-630.522	106.409	-0.228	-0.274
-629.507	-170.398	0.055	0.002
-628.492	-57.528	-0.084	-0.037
-627.478	800.000	-0.047	-0.178
-626.463	2.300	0.130	-0.096
-625.449	27.532	0.209	0.178
-624.434	-75.093	0.212	0.077
-623.419	226.339	0.098	0.160
-622.405	-117.432	-0.090	-0.017
-621.390	-138.748	-0.197	-0.022
-620.376	-59.298	-0.098	0.043
-619.361	-5.706	0.165	-0.114
-618.346	-92.142	-0.185	0.053
-617.332	-136.732	-0.122	0.014
-616.317	-59.061	-0.611	0.267
-615.303	-12.830	-0.108	-0.071
-614.288	434.750	-0.119	0.263
-613.273	-91.656	0.245	0.071
-612.259	573.550	0.023	0.057
-611.244	2.072	-0.098	-0.072
-610.230	-200.000	0.022	-0.364
-609.215	-200.000	-0.033	-0.156
-608.201	-89.271	0.295	-0.088
-607.186	64.631	-0.272	0.278
-606.171	368.171	-0.045	-0.093
-605.157	800.000	-0.021	0.072
-604.142	-200.000	0.042	0.235
-603.128	61.102	0.214	-0.215
-602.113	-129.721	-0.045	-0.006
-601.098	-173.317	0.347	-0.011
-600.084	168.440	0.317	-0.457
-599.069	-164.666	-0.494	0.023
-598.055	-25.128	-0.116	0.069
-597.040	-200.000	0.035	-0.198
-596.025	-200.000	-0.008	0.243
-595.011	-78.086	-0.329	0.114
-593.996	-121.598	0.058	-0.010
-592.982	-92.654	-0.054	0.015
-591.967	190.874	-0.068	0.104
-590.952	-200.000	0.029	-0.207
-589.938	558.353	0.117	-0.285
-588.923	204.654	-0.165	-0.259
-587.909	800.000	-0.138	-0.403
-586.894	-121.261	-0.235	0.040
-585.879	106.549	-0.249	0.298
-584.865	800.000	0.080	0.239
-583.850	292.903	0.133	0.246
-582.836	109.590	-0.055	0.066
-581.821	800.000	0.060	0.215
-580.806	-200.000	-0.006	0.275
-579.792	58.425	0.137	0.135
-578.777	113.694	0.148	-0.181
-577.763	-135.427	-0.093	-0.011
-576.748	705.064	0.113	-0.301
-575.733	800.000	0.099	-0.299
-574.719	800.000	0.054	0.153
-573.704	800.000	-0.075	0.237
-572.690	575.846	0.051	-0.127
-571.675	3.635	-0.284	-0.209
-570.661	35.910	-0.157	0.139
-569.646	410.005	0.147	0.316
-568.631	142.134	0.136	-0.182
-567.617	800.000	-0.108	-0.312
-566.602	59.818	-0.066	0.065
-565.588	-45.947	0.165	-0.082
-564.573	75.229	0.118	-0.125
-563.558	-6.757	0.204	0.140
-562.544	-115.398	-0.144	-0.027
-561.529	-200.000	-0.017	-0.092
-560.515	-200.000	0.203	-0.001
-559.500	610.158	0.117	0.296
-558.485	-46.711	0.114	-0.057
-557.471	-200.000	-0.003	0.302
-556.456	167.790	-0.183	0.262
-555.442	32.316	0.165	0.144
-554.427	76.516	-0.170	0.182
-553.412	-24.676	-0.383	-0.230
-552.398	98.019	-0.066	0.076
-551.383	-122.037	-0.373	0.062
-550.369	800.000	0.138	-0.391
-549.354	-162.859	0.239	0.012
-548.339	800.000	-0.056	0.207
-547.325	-51.900	0.231	-0.109
-546.310	-59.071	0.158	0.069
-545.296	-113.878	0.144	0.028
-544.281	-200.000	0.032	-0.234
-543.266	800.000	-0.099	0.321
-542.252	-200.000	-0.004	0.025
-541.237	-62.959	-0.229	0.095
-540.223	-200.000	-0.067	0.485
-539.208	-35.999	-0.360	0.197
-538.193	145.742	-0.206	0.279
-537.179	123.792	0.245	0.310
-536.164	11.566	-0.005	-0.004
-535.150	-200.000	-0.010	0.258
-534.135	226.361	-0.151	-0.247
-533.121	-161.058	0.272	-0.014
-532.106	429.861	0.058	-0.128
-531.091	440.007	0.111	0.244
-530.077	75.169	0.088	-0.094
-529.062	56.760	0.131	0.129
-528.048	800.000	-0.122	0.431
-527.033	2.236	-0.100	-0.073
-526.018	-200.000	0.007	-0.255
-525.004	-3.016	0.404	-0.284
-523.989	30.180	0.292	-0.251
-522.975	-200.000	-0.006	0.155
-521.960	-73.121	-0.151	-0.056
-520.945	-54.149	0.119	-0.054
-519.931	-200.000	0.008	-0.109
-518.916	-200.000	-0.012	0.129
-517.902	124.690	-0.154	-0.195
-516.887	-200.000	-0.016	-0.108
-515.872	800.000	-0.043	-0.126
-514.858	-8.736	0.282	0.191
-513.843	109.897	-0.187	0.226
-512.829	99.995	0.251	-0.294
-511.814	116.374	0.066	-0.082
-510.799	800.000	0.146	0.434
-509.785	24.511	0.128	0.107
-508.770	800.000	-0.054	-0.186
-507.756	800.000	-0.041	-0.125
-506.741	8.970	0.125	-0.095
-505.726	669.036	-0.043	0.111
-504.712	137.822	0.061	-0.080
-503.697	-180.800	-0.102	0.002
-502.683	5.308	-0.360	-0.268
-501.668	5.479	-0.349	-0.260
-500.653	205.276	-0.196	-0.308
-499.639	-164.524	-0.259	0.012
-498.624	92.086	-0.168	0.191
-497.610	800.000	-0.090	0.394
-496.595	-66.336	-0.131	-0.053
-495.581	704.434	-0.108	0.288
-494.566	800.000	-0.047	-0.194
-493.551	-200.000	0.004	-0.158
-492.537	-100.651	0.099	0.025
-491.522	525.265	0.094	0.222
-490.508	-106.294	-0.384	0.087
-489.493	800.000	0.051	-0.146
-488.478	-123.182	0.255	-0.041
-487.464	-109.405	-0.318	0.068
-486.449	-200.000	0.002	0.198
-485.435	90.305	0.106	-0.120
-484.420	-18.298	0.246	0.155
-483.405	-200.000	0.005	0.160
-482.391	-200.000	-0.006	-0.192
-481.376	20.894	-0.338	0.276
-480.362	-133.151	0.260	0.033
-479.347	103.388	-0.250	-0.296
-478.332	272.097	0.033	-0.058
-477.318	217.553	0.083	-0.133
-476.303	289.675	0.051	0.093
-475.289	-200.000	-0.018	0.175
-474.274	197.221	0.079	0.121
-473.259	3.310	-0.153	0.112
-472.245	-200.000	0.020	-0.147
-471.230	6.955	0.114	0.086
-470.216	141.155	-0.070	-0.093
-469.201	-117.138	-0.117	0.021
-468.186	9.077	-0.156	0.119
-467.172	123.605	0.116	-0.146
-466.157	165.774	-0.270	0.385
-465.143	18.885	-0.195	0.157
-464.128	-200.000	0.061	-0.285
-463.113	-17.688	-0.181	-0.114
-462.099	-112.814	-0.077	-0.015
-461.084	231.224	0.168	0.278
-460.070	53.992	0.178	-0.172
-459.055	-200.000	0.026	-0.400
-458.040	337.078	-0.110	-0.214
-457.026	-200.000	0.036	0.202
-456.011	-65.863	-0.071	0.028
-454.997	126.794	-0.114	-0.146
-453.982	-28.088	0.011	-0.006
-452.968	8.660	-0.251	0.190
-451.953	800.000	0.019	0.064
-450.938	-84.251	0.283	0.090
-449.924	0.331	-0.247	0.177
-448.909	116.527	-0.168	0.208
-447.895	228.756	0.074	-0.122
-446.880	-200.000	-0.019	0.354
-445.865	225.779	-0.062	-0.101
-444.851	-109.522	0.402	-0.085
-443.836	-200.000	-0.009	0.133
-442.822	36.710	0.177	0.157
-441.807	344.893	0.102	-0.201
-440.792	800.000	-0.026	-0.089
-439.778	748.960	0.036	0.097
-438.763	334.969	-0.168	-0.327
-437.749	255.874	0.122	-0.211
-436.734	-200.000	-0.011	-0.202
-435.719	-60.597	0.157	0.067
-434.705	48.873	0.186	0.175
-433.690	-105.438	-0.140	0.032
-432.676	8.015	-0.178	-0.134
-431.661	-59.909	0.283	-0.122
-430.646	-84.044	0.211	0.067
-429.632	165.708	-0.245	-0.349
-428.617	800.000	-0.049	0.210
-427.603	23.700	0.166	0.137
-426.588	337.065	-0.092	0.179
-425.573	196.954	0.179	-0.274
-424.559	21.176	-0.496	-0.405
-423.544	-27.661	-0.069	-0.040
-422.530	-96.759	-0.167	0.044
-421.515	291.360	-0.035	-0.065
-420.500	283.441	-0.080	0.145
-419.486	34.661	-0.209	-0.184
-418.471	-23.806	-0.139	0.083
-417.457	-42.532	-0.101	0.052
-416.442	-140.287	0.055	-0.006
-415.428	708.527	0.107	0.284
-414.413	54.197	0.173	0.167
-413.398	-130.101	0.102	0.014
-412.384	-90.776	0.088	-0.025
-411.369	800.000	-0.049	0.149
-410.355	800.000	-0.090	-0.256
-409.340	56.015	-0.112	0.109
-408.325	44.056	-0.247	0.228
-407.311	95.289	0.089	0.102
-406.296	-200.000	0.019	0.091
-405.282	-162.566	-0.200	-0.010
-404.267	-200.000	-0.016	0.155
-403.252	2.464	-0.177	0.129
-402.238	145.455	0.065	0.088
-401.223	-30.420	-0.156	-0.089
-400.209	-65.434	-0.177	-0.071
-399.194	507.210	-0.103	0.240
-398.179	-6.692	0.274	-0.187
-397.165	207.796	-0.111	0.175
-396.150	-36.518	-0.281	-0.152
-395.136	-89.473	-0.122	0.036
-394.121	800.000	-0.094	-0.286
-393.106	-120.910	-0.425	-0.072
-392.092	-200.000	0.007	-0.211
-391.077	542.388	-0.020	0.048
-390.063	-64.346	0.140	-0.057
-389.048	-75.571	-0.163	0.058
-388.033	800.000	0.080	-0.254
-387.019	-90.540	0.142	-0.041
-386.004	800.000	0.059	0.187
-384.990	-200.000	-0.006	-0.076
-383.975	-200.000	-0.038	-0.198
-382.960	-200.000	-0.031	-0.348
-381.946	-39.778	-0.149	0.078
-380.931	-200.000	-0.031	-0.141
-379.917	30.392	0.250	0.215
-378.902	-86.340	-0.195	-0.060
-377.888	-100.361	0.434	0.108
-376.873	12.760	-0.161	-0.124
-375.858	132.978	0.196	0.254
-374.844	800.000	0.075	-0.306
-373.829	-129.077	0.400	-0.056
-372.815	-114.137	0.319	0.062
-371.800	26.349	0.164	0.137
-370.785	-200.000	0.015	0.251
-369.771	-129.004	-0.221	-0.031
-368.756	-51.677	-0.267	-0.125
-367.742	-86.589	-0.314	-0.096
-366.727	-23.527	-0.183	-0.110
-365.712	41.997	0.086	-0.078
-364.698	-200.000	0.027	-0.225
-363.683	-119.317	0.165	-0.029
-362.669	800.000	0.035	-0.129
-361.654	-36.193	0.228	0.124
-360.639	-200.000	0.009	-0.150
-359.625	252.627	-0.114	-0.194
-358.610	-200.000	0.014	0.083
-357.596	800.000	-0.035	-0.103
-356.581	277.971	0.105	-0.188
-355.566	-50.119	-0.073	0.035
-354.552	-200.000	-0.027	-0.153
-353.537	800.000	0.116	0.332
-352.523	-147.795	0.218	0.018
-351.508	662.563	0.049	-0.127
-350.493	-68.311	0.135	0.053
-349.479	800.000	0.102	0.285
-348.464	-7.844	-0.234	0.158
-347.450	251.282	-0.059	-0.100
-346.435	138.574	-0.059	0.078
-345.420	-155.647	-0.090	0.006
-344.406	176.934	-0.207	0.302
-343.391	55.365	0.145	-0.140
-342.377	-94.945	0.190	-0.052
-341.362	432.945	-0.124	0.269
-340.348	800.000	0.059	-0.218
-339.333	167.676	0.039	-0.055
-338.318	800.000	-0.054	0.177
-337.304	432.898	0.138	0.301
-336.289	223.375	-0.046	-0.074
-335.275	138.923	0.136	0.179
-334.260	-27.570	-0.077	-0.045
-333.245	-200.000	0.030	0.293
-332.231	95.551	0.040	0.046
-331.216	-21.960	0.011	0.006
-330.202	502.377	-0.099	-0.230
-329.187	-3.305	-0.326	-0.227
-328.172	-130.259	0.261	0.036
-327.158	-200.000	-0.018	0.589
-326.143	-115.119	-0.199	0.038
-325.129	-105.055	0.194	0.045
-324.114	509.167	0.058	-0.136
-323.099	-89.387	0.103	-0.030
-322.085	40.979	0.164	0.148
-321.070	233.954	-0.232	0.382
-320.056	800.000	0.126	0.374
-319.041	-16.714	0.042	-0.026
-318.026	-101.844	-0.073	-0.018
-317.012	-200.000	0.015	-0.236
-315.997	-41.225	0.229	-0.118
-314.983	-38.711	0.197	0.104
-313.968	800.000	-0.109	-0.308
-312.953	-200.000	0.047	-0.243
-311.939	-43.252	-0.038	0.019
-310.924	-200.000	0.007	-0.041
-309.910	61.942	-0.083	-0.083
-308.895	-200.000	-0.005	0.047
-307.880	-200.000	-0.094	0.566
-306.866	-200.000	0.025	-0.252
-305.851	525.935	-0.139	-0.328
-304.837	-200.000	-0.052	0.278
-303.822	9.677	-0.200	0.151
-302.807	-200.000	0.071	-0.336
-301.793	69.225	-0.155	0.159
-300.778	-200.000	-0.035	-0.159
-299.764	470.297	0.003	-0.006
-298.749	800.000	-0.117	-0.417
-297.735	55.493	-0.110	-0.106
-296.720	-95.041	0.416	0.113
-295.705	800.000	0.044	0.180
-294.691	-121.222	0.321	-0.054
-293.676	103.961	-0.111	0.130
-292.662	8.883	-0.413	-0.311
-291.647	-200.000	0.001	-0.204
-290.632	-65.068	0.158	-0.064
-289.618	-200.000	-0.067	0.365
-288.603	237.108	-0.077	-0.128
-287.589	-111.596	0.146	0.030
-286.574	42.704	-0.217	0.197
-285.559	313.112	0.067	0.127
-284.545	800.000	0.027	-0.092
-283.530	17.259	0.104	-0.082
-282.516	800.000	-0.034	-0.127
-281.501	800.000	0.021	-0.063
-280.486	105.293	-0.156	-0.184
-279.472	800.000	-0.062	-0.172
-278.457	97.527	0.095	0.109
-277.443	-200.000	-0.080	0.379
-276.428	766.893	-0.089	0.241
-275.413	-46.481	0.156	-0.077
-274.399	-40.198	0.229	0.119
-273.384	252.126	0.137	-0.233
-272.370	-61.739	0.281	-0.118
-271.355	96.237	0.051	0.058
-270.340	49.135	-0.168	-0.157
-269.326	116.386	0.120	-0.147
-268.311	800.000	0.046	-0.201
-267.297	92.965	0.209	-0.236
-266.282	-130.755	-0.076	0.010
-265.267	215.650	0.068	0.108
-264.253	-200.000	0.000	-0.425
-263.238	-71.610	0.146	-0.055
-262.224	-200.000	0.004	0.279
-261.209	800.000	0.108	-0.331
-260.195	641.735	0.042	-0.106
-259.180	-95.333	0.208	-0.056
-258.165	-106.321	-0.117	0.026
-257.151	588.753	0.098	0.241
-256.136	-200.000	0.019	0.253
-255.122	134.668	-0.121	-0.157
-254.107	548.152	0.083	-0.197
-253.092	800.000	0.069	-0.234
-252.078	-78.217	-0.094	-0.032
-251.063	78.523	0.339	0.362
-250.049	82.173	-0.168	0.182
-249.034	57.733	-0.224	0.219
-248.019	800.000	0.058	0.209
-247.005	305.660	0.061	-0.114
-245.990	343.501	0.174	-0.340
-244.976	-41.120	0.199	-0.103
-243.961	-75.451	0.313	0.111
-242.946	-173.489	-0.660	-0.020
-241.932	-57.598	0.526	0.230
-240.917	-140.461	-0.358	0.037
-239.903	-45.906	-0.238	-0.117
-238.888	800.000	0.063	0.209
-237.873	136.507	0.044	-0.057
-236.859	45.199	-0.123	-0.113
-235.844	595.363	-0.111	-0.275
-234.830	135.936	0.176	-0.229
-233.815	-75.461	0.124	-0.044
-232.800	-115.656	0.252	0.047
-231.786	-29.261	-0.131	-0.075
-230.771	-118.801	0.027	-0.005
-229.757	-62.083	-0.131	0.055
-228.742	245.143	0.198	0.331
-227.727	-11.380	-0.411	0.270
-226.713	-134.445	0.130	0.016
-225.698	-117.516	0.128	0.023
-224.684	-98.090	0.279	-0.072
-223.669	297.364	0.012	-0.022
-222.655	95.216	0.184	0.209
-221.640	-200.000	-0.004	-0.242
-220.625	-200.000	-0.043	0.245
-219.611	-88.785	0.162	-0.048
-218.596	-119.337	0.268	-0.046
-217.582	-200.000	0.013	0.102
-216.567	-48.625	0.367	-0.176
-215.552	-58.837	0.189	-0.081
-214.538	-34.856	-0.161	-0.088
-213.523	-139.520	0.187	0.020
-212.509	-48.154	0.095	0.046
-211.494	-156.806	-0.285	-0.017
-210.479	19.497	-0.097	0.078
-209.465	-165.034	0.415	0.018
-208.450	-113.148	-0.091	0.018
-207.436	-200.000	0.051	-0.240
-206.421	-42.302	0.318	-0.162
-205.406	-22.278	0.227	-0.137
-204.392	78.371	-0.247	0.263
-203.377	277.107	0.238	0.421
-202.363	654.621	0.086	-0.220
-201.348	48.880	0.144	-0.134
-200.333	-200.000	0.006	-0.182
-199.319	-95.997	-0.361	-0.096
-198.304	-61.683	0.098	-0.041
-197.290	-111.875	0.066	0.013
-196.275	-158.045	0.022	-0.001
-195.260	-200.000	-0.053	0.273
-194.246	-75.838	-0.047	0.017
-193.231	800.000	0.065	0.224
-192.217	-105.856	-0.203	0.046
-191.202	-83.491	0.234	0.075
-190.187	-200.000	-0.013	-0.093
-189.173	-200.000	0.028	0.140
-188.158	-200.000	0.031	0.394
-187.144	329.776	0.142	0.272
-186.129	420.611	-0.111	0.236
-185.114	-94.181	-0.166	0.045
-184.100	-7.062	-0.234	0.158
-183.085	145.757	-0.054	-0.073
-182.071	-24.394	-0.052	-0.031
-181.056	-70.937	0.126	-0.047
-180.042	-76.618	-0.108	-0.038
-179.027	-200.000	0.014	-0.176
-178.012	53.631	0.113	-0.108
-176.998	-196.254	-0.305	0.002
-175.983	87.542	0.228	-0.251
-174.969	-200.000	0.004	0.018
-173.954	800.000	0.061	0.225
-172.939	81.303	0.183	-0.197
-171.925	-54.008	0.177	0.080
-170.910	142.124	0.034	0.044
-169.896	-200.000	-0.037	-0.298
-168.881	-68.576	0.068	0.026
-167.866	-11.377	0.169	-0.111
-166.852	-200.000	-0.018	0.163
-165.837	-128.719	0.255	-0.036
-164.823	-162.901	-0.402	0.019
-163.808	-200.000	-0.049	-0.300
-162.793	-82.563	0.218	0.070
-161.779	301.963	-0.108	-0.199
-160.764	-72.300	0.355	-0.131
-159.750	6.644	-0.059	-0.043
-158.735	-200.000	-0.023	-0.128
-157.720	-128.515	-0.189	-0.027
-156.706	-53.881	-0.056	-0.026
-155.691	-121.492	-0.262	0.043
-154.677	-200.000	0.042	-0.236
-153.662	-100.589	-0.141	-0.035
-152.647	800.000	0.028	-0.115
-151.633	-27.013	0.097	0.056
-150.618	-88.846	-0.311	0.092
-149.604	143.491	0.029	-0.039
-148.589	-121.577	0.266	-0.044
-147.574	-5.613	0.072	-0.049
-146.560	-131.067	0.444	0.059
-145.545	-1.165	-0.156	0.109
-144.531	31.508	-0.084	-0.072
-143.516	800.000	-0.009	-0.024
-142.502	-129.574	-0.169	0.023
-141.487	-161.356	0.270	-0.014
-140.472	92.696	0.098	0.110
-139.458	-146.233	-0.147	-0.013
-138.443	-93.348	0.138	-0.038
-137.429	-2.912	0.312	0.217
-136.414	-103.780	-0.059	0.014
-135.399	800.000	-0.058	-0.163
-134.385	10.643	-0.222	-0.168
-133.370	-122.580	0.243	0.039
-132.356	248.310	0.063	-0.106
-131.341	550.835	-0.042	0.099
-130.326	-116.504	0.137	0.025
-129.312	797.713	-0.062	-0.170
-128.297	-69.276	0.156	-0.060
-127.283	-95.967	-0.319	0.084
-126.268	-200.000	-0.010	-0.250
-125.253	-76.680	-0.265	-0.092
-124.239	293.668	0.158	-0.287
-123.224	-75.599	0.104	0.037
-122.210	127.796	0.196	0.247
-121.195	-127.599	0.069	0.010
