DTS Sentinel unit serial number:	SN413079Multiplexer serial number:	ORYXHardware model number:	OX4-SRSoftware version number:	ORYX F/W v4.00 Oryx Data Collector v3.7.2.0data status	okinstallation	princeton_trtdifferential loss correction	single-endedforward channel	channel 4reverse channel	N/Adate	2019/09/17time	08:25:35forward acquisition time	60.00reverse acquisition time	0.00gamma	496.2192k internal	0.2318k external	0.2318temperature offset calibration	0.9979default loss term (dB/km)	0.3790temperature slope calibration	1.0000multiplexer offset coefficient	1.0000multiplexer slope coefficient	1.0000fibre end	0.00T internal ref (°C)	27.50T ext. ref 1 (°C)	0.12T ext. ref 2 (°C)	22.89length (m)	temperature (°C)	Stokes	anti-Stokes-747.200	323.477	-0.123	-0.237
-746.185	-169.457	-0.465	0.017
-745.171	-157.276	0.466	0.029
-744.156	166.813	-0.118	-0.170
-743.142	677.129	0.050	0.132
-742.127	24.190	-0.151	0.126
-741.112	-200.000	0.030	0.254
-740.098	-97.949	-0.206	0.054
-739.083	-67.877	0.439	0.173
-738.069	35.568	0.079	0.070
-737.054	-200.000	-0.050	0.486
-736.039	-150.237	-0.432	-0.034
-735.025	21.610	0.101	-0.083
-734.010	-200.000	0.006	-0.213
-732.996	-50.306	-0.239	-0.114
-731.981	-143.312	-0.263	0.026
-730.966	-40.852	-0.286	-0.150
-729.952	-32.089	-0.164	-0.093
-728.937	-200.000	-0.000	0.324
-727.923	800.000	-0.072	0.299
-726.908	800.000	-0.144	0.406
-725.894	107.615	-0.241	0.290
-724.879	-148.059	-0.381	0.032
-723.864	-74.153	-0.105	0.038
-722.850	-194.668	-0.120	0.001
-721.835	226.434	-0.207	-0.340
-720.821	667.517	0.080	0.210
-719.806	-27.764	0.106	-0.062
-718.791	-200.000	-0.005	0.024
-717.777	-200.000	0.033	-0.266
-716.762	-33.960	-0.253	-0.141
-715.748	743.576	0.084	0.228
-714.733	514.015	-0.109	0.257
-713.718	359.058	-0.069	0.139
-712.704	-58.136	0.403	-0.177
-711.689	-81.866	0.122	0.040
-710.675	211.699	0.095	0.151
-709.660	-167.594	0.103	-0.004
-708.645	295.807	-0.080	0.149
-707.631	11.276	-0.245	0.190
-706.616	800.000	0.075	-0.256
-705.602	-200.000	-0.013	-0.135
-704.587	14.986	-0.121	-0.095
-703.572	170.649	-0.137	0.198
-702.558	-200.000	-0.010	-0.146
-701.543	209.987	0.191	-0.303
-700.529	-119.187	0.152	0.027
-699.514	-200.000	0.002	-0.065
-698.499	251.975	0.097	-0.168
-697.485	800.000	-0.041	0.130
-696.470	-113.362	-0.521	0.103
-695.456	-70.950	-0.422	0.161
-694.441	18.235	-0.121	0.097
-693.426	-200.000	0.050	-0.324
-692.412	154.053	0.031	-0.043
-691.397	-34.069	-0.175	-0.097
-690.383	219.877	0.083	-0.134
-689.368	314.503	-0.048	-0.091
-688.354	-9.955	0.154	-0.104
-687.339	-200.000	-0.001	-0.131
-686.324	172.538	-0.315	-0.458
-685.310	-200.000	0.012	-0.099
-684.295	800.000	-0.066	0.195
-683.281	-200.000	0.018	0.113
-682.266	-13.982	-0.262	-0.171
-681.251	-13.741	-0.445	-0.290
-680.237	-95.932	0.048	-0.013
-679.222	120.923	0.275	0.345
-678.208	169.682	0.029	-0.042
-677.193	-200.000	-0.071	0.324
-676.178	385.938	0.080	0.168
-675.164	-164.119	-0.400	-0.019
-674.149	-200.000	0.011	-0.079
-673.135	190.117	-0.153	-0.232
-672.120	-126.226	0.332	0.050
-671.105	-39.729	-0.136	-0.072
-670.091	-200.000	0.035	-0.163
-669.076	-20.121	0.402	-0.250
-668.062	-46.526	0.051	-0.025
-667.047	-200.000	-0.060	-0.324
-666.032	800.000	0.032	-0.140
-665.018	-200.000	0.050	0.379
-664.003	-200.000	0.052	0.373
-662.989	318.431	-0.124	-0.237
-661.974	96.364	0.301	-0.347
-660.959	800.000	-0.069	-0.236
-659.945	-12.872	-0.190	0.125
-658.930	-80.125	-0.372	0.126
-657.916	-200.000	0.024	0.202
-656.901	234.880	0.175	-0.291
-655.886	-200.000	0.011	-0.309
-654.872	-200.000	0.001	-0.131
-653.857	-178.165	-0.277	0.007
-652.843	800.000	-0.086	-0.257
-651.828	-35.582	-0.239	0.131
-650.814	-200.000	-0.009	0.156
-649.799	665.930	0.097	0.254
-648.784	-17.812	0.113	0.071
-647.770	-117.575	0.179	-0.033
-646.755	-200.000	0.022	-0.128
-645.741	800.000	-0.087	-0.265
-644.726	749.417	-0.066	0.180
-643.711	-124.428	0.134	0.021
-642.697	-58.367	-0.234	-0.103
-641.682	-200.000	0.044	-0.359
-640.668	800.000	-0.078	-0.281
-639.653	124.046	-0.157	-0.199
-638.638	67.318	0.071	-0.073
-637.624	-200.000	0.020	-0.183
-636.609	146.475	-0.204	-0.276
-635.595	19.872	0.136	-0.111
-634.580	98.682	-0.098	-0.114
-633.565	301.852	-0.128	-0.238
-632.551	-119.195	-0.190	-0.033
-631.536	306.989	0.172	0.324
-630.522	-36.017	0.067	-0.037
-629.507	609.396	0.033	-0.083
-628.492	26.718	-0.086	-0.073
-627.478	-131.283	0.127	-0.017
-626.463	-200.000	-0.001	-0.035
-625.449	-153.525	-0.237	-0.017
-624.434	-200.000	-0.042	0.251
-623.419	13.705	0.102	-0.080
-622.405	-27.850	-0.124	0.073
-621.390	242.176	0.238	-0.402
-620.376	101.504	0.016	-0.019
-619.361	-43.541	0.067	-0.034
-618.346	600.382	0.057	-0.142
-617.332	-5.189	-0.209	-0.145
-616.317	105.574	-0.133	0.158
-615.303	-143.520	-0.186	0.018
-614.288	-126.302	0.167	-0.025
-613.273	-84.241	-0.182	-0.058
-612.259	170.386	-0.190	-0.274
-611.244	237.128	0.064	0.107
-610.230	250.210	0.176	0.300
-609.215	65.606	0.165	0.168
-608.201	-131.232	0.114	0.015
-607.186	349.273	-0.125	0.248
-606.171	-132.826	-0.150	0.019
-605.157	-154.328	-0.191	0.013
-604.142	45.275	0.056	0.052
-603.128	-200.000	0.044	0.198
-602.113	480.131	-0.065	0.148
-601.098	800.000	-0.150	-0.433
-600.084	426.769	-0.144	0.313
-599.069	264.596	0.046	-0.081
-598.055	-200.000	0.002	0.063
-597.040	354.337	-0.173	0.345
-596.025	711.163	-0.079	-0.212
-595.011	800.000	0.083	-0.295
-593.996	685.873	-0.075	0.197
-592.982	-136.934	-0.128	0.015
-591.967	-23.271	0.148	-0.089
-590.952	42.307	0.128	0.117
-589.938	95.836	0.245	-0.281
-588.923	-93.959	0.224	0.062
-587.909	43.665	0.166	0.153
-586.894	184.532	0.118	0.176
-585.879	167.286	0.156	0.223
-584.865	-200.000	0.040	0.250
-583.850	145.330	0.126	-0.170
-582.836	164.915	0.113	0.160
-581.821	101.397	0.201	0.236
-580.806	242.969	-0.239	0.403
-579.792	800.000	-0.018	-0.075
-578.777	-200.000	-0.015	-0.280
-577.763	-31.189	0.167	-0.095
-576.748	-105.117	-0.116	0.027
-575.733	-200.000	0.016	-0.165
-574.719	-186.399	-0.138	0.002
-573.704	485.223	0.102	0.234
-572.690	-200.000	0.026	-0.182
-571.675	138.356	0.051	0.067
-570.661	168.246	0.191	0.273
-569.646	58.018	-0.225	0.222
-568.631	387.435	-0.115	-0.239
-567.617	66.152	-0.241	-0.246
-566.602	237.461	-0.158	-0.264
-565.588	190.370	-0.178	-0.268
-564.573	-93.592	-0.141	0.039
-563.558	-65.670	-0.302	0.122
-562.544	800.000	0.005	-0.020
-561.529	159.292	-0.144	0.202
-560.515	-100.897	-0.108	0.027
-559.500	-118.126	0.240	-0.043
-558.485	4.701	-0.245	0.181
-557.471	-16.221	-0.086	-0.055
-556.456	34.510	0.265	-0.233
-555.442	-117.399	0.273	-0.050
-554.427	50.410	0.124	-0.118
-553.412	-76.754	-0.240	-0.084
-552.398	609.675	0.056	0.140
-551.383	-200.000	-0.028	-0.328
-550.369	-200.000	-0.006	-0.203
-549.354	-200.000	-0.054	-0.247
-548.339	315.174	0.051	-0.096
-547.325	800.000	-0.033	-0.125
-546.310	-115.448	-0.241	-0.046
-545.296	-15.244	0.211	-0.135
-544.281	-116.946	-0.241	0.044
-543.266	800.000	-0.060	0.201
-542.252	800.000	-0.039	-0.142
-541.237	-184.863	0.215	0.003
-540.223	-200.000	-0.033	-0.343
-539.208	-200.000	-0.103	0.000
-538.193	64.160	-0.173	-0.175
-537.179	180.014	0.084	-0.123
-536.164	-65.757	-0.046	-0.018
-535.150	37.283	-0.228	-0.203
-534.135	53.478	0.108	0.104
-533.121	38.728	0.217	-0.195
-532.106	129.524	-0.142	-0.182
-531.091	800.000	0.051	0.176
-530.077	800.000	-0.074	-0.276
-529.062	-200.000	-0.047	-0.303
-528.048	-80.989	0.047	-0.016
-527.033	-56.963	-0.065	-0.029
-526.018	-169.301	-0.126	0.005
-525.004	200.148	0.108	-0.167
-523.989	-200.000	0.006	-0.077
-522.975	112.475	-0.146	0.178
-521.960	-123.098	-0.166	-0.027
-520.945	-200.000	-0.026	0.377
-519.931	-139.046	0.396	0.043
-518.916	-200.000	-0.009	0.440
-517.902	-72.373	-0.049	0.018
-516.887	393.819	0.096	-0.200
-515.872	1.388	-0.227	-0.164
-514.858	-89.269	0.293	-0.087
-513.843	-200.000	-0.027	-0.201
-512.829	46.362	0.045	0.042
-511.814	-101.399	0.073	0.018
-510.799	-200.000	-0.017	-0.162
-509.785	-200.000	-0.001	-0.068
-508.770	-136.932	-0.178	-0.020
-507.756	272.540	-0.150	-0.265
-506.741	-85.733	0.185	0.058
-505.726	78.968	0.187	-0.201
-504.712	-44.579	-0.193	-0.097
-503.697	-69.359	-0.278	-0.107
-502.683	29.368	-0.085	0.072
-501.668	-200.000	-0.016	0.140
-500.653	-102.101	0.303	0.073
-499.639	30.830	0.398	-0.342
-498.624	131.910	0.233	0.300
-497.610	-87.014	-0.293	-0.090
-496.595	38.865	-0.178	0.159
-495.581	-112.171	0.208	0.042
-494.566	-200.000	-0.006	-0.063
-493.551	-200.000	0.052	0.387
-492.537	103.222	0.094	-0.110
-491.522	-155.161	-0.218	0.014
-490.508	62.620	-0.115	0.115
-489.493	-125.136	-0.220	0.034
-488.478	67.398	-0.042	0.043
-487.464	-107.051	-0.229	0.051
-486.449	-113.296	0.193	0.038
-485.435	15.749	-0.202	0.159
-484.420	39.618	0.122	-0.109
-483.405	-200.000	0.010	0.414
-482.391	-60.227	-0.214	-0.091
-481.376	102.534	-0.092	0.108
-480.362	432.787	-0.065	-0.142
-479.347	-62.138	0.099	-0.041
-478.332	-200.000	0.022	-0.117
-477.318	-100.313	-0.424	-0.105
-476.303	800.000	0.026	-0.083
-475.289	297.543	-0.132	0.242
-474.274	-45.947	-0.182	0.090
-473.259	63.487	0.121	-0.122
-472.245	-43.959	-0.286	0.144
-471.230	74.407	0.198	-0.208
-470.216	77.622	0.116	-0.123
-469.201	-200.000	-0.065	0.296
-468.186	800.000	-0.045	-0.184
-467.172	-151.990	0.378	0.028
-466.157	-8.790	-0.107	-0.072
-465.143	-193.155	-0.244	-0.002
-464.128	800.000	-0.084	0.240
-463.113	800.000	0.054	-0.205
-462.099	131.458	-0.230	-0.296
-461.084	465.848	-0.035	-0.078
-460.070	-200.000	-0.053	0.271
-459.055	-41.884	-0.246	0.126
-458.040	-200.000	-0.042	-0.213
-457.026	193.510	0.073	0.110
-456.011	800.000	-0.060	0.243
-454.997	-117.897	-0.194	-0.035
-453.982	800.000	-0.073	-0.213
-452.968	692.424	0.025	0.066
-451.953	611.625	-0.064	-0.161
-450.938	-121.026	-0.283	-0.048
-449.924	800.000	0.033	-0.102
-448.909	-49.682	0.487	-0.232
-447.895	-164.291	-0.410	0.019
-446.880	-60.618	0.040	-0.017
-445.865	-157.549	0.423	0.025
-444.851	-184.234	-0.147	0.002
-443.836	-21.277	-0.067	0.041
-442.822	330.675	-0.094	0.181
-441.807	1.305	0.110	-0.079
-440.792	84.690	-0.052	-0.057
-439.778	-72.549	-0.126	0.046
-438.763	-88.789	0.476	-0.141
-437.749	356.280	-0.082	0.163
-436.734	-17.853	-0.181	0.113
-435.719	13.395	0.315	0.244
-434.705	-77.319	-0.118	-0.041
-433.690	-118.929	0.177	0.031
-432.676	705.511	-0.060	0.159
-431.661	-69.004	0.315	-0.122
-430.646	800.000	-0.026	0.080
-429.632	800.000	-0.009	0.028
-428.617	107.530	-0.110	0.131
-427.603	-200.000	0.050	0.258
-426.588	57.775	0.054	-0.052
-425.573	695.843	0.079	-0.208
-424.559	-26.818	0.092	-0.054
-423.544	800.000	-0.059	-0.181
-422.530	800.000	0.003	-0.010
-421.515	-154.159	0.072	-0.005
-420.500	-187.102	0.178	0.002
-419.486	48.126	0.154	0.144
-418.471	142.145	-0.096	-0.127
-417.457	-101.485	-0.132	-0.032
-416.442	-65.427	-0.323	-0.130
-415.428	192.076	-0.097	0.146
-414.413	-94.809	0.261	-0.071
-413.398	-50.996	0.153	0.072
-412.384	-82.546	0.154	-0.050
-411.369	-103.844	-0.253	-0.059
-410.355	390.823	-0.089	-0.184
-409.340	-200.000	-0.029	-0.248
-408.325	-150.366	0.450	0.035
-407.311	147.206	0.138	-0.186
-406.296	800.000	-0.081	0.250
-405.282	-200.000	0.012	-0.372
-404.267	656.809	-0.060	-0.154
-403.252	-200.000	-0.001	0.081
-402.238	800.000	0.076	0.254
-401.223	-11.087	0.111	-0.073
-400.209	82.055	0.138	0.150
-399.194	110.932	-0.071	-0.086
-398.179	55.239	-0.223	-0.215
-397.165	-99.572	0.057	-0.014
-396.150	307.931	0.115	-0.214
-395.136	-43.258	0.329	-0.166
-394.121	-200.000	0.021	0.215
-393.106	-63.888	-0.176	-0.072
-392.092	-145.539	0.253	-0.023
-391.077	21.183	-0.036	0.029
-390.063	-120.113	0.046	0.008
-389.048	676.890	0.088	0.228
-388.033	-200.000	0.007	0.086
-387.019	-137.739	-0.239	-0.027
-386.004	-134.666	-0.399	0.049
-384.990	-173.533	-0.241	-0.007
-383.975	-165.284	0.123	-0.005
-382.960	-89.509	0.197	0.058
-381.946	-200.000	-0.002	0.091
-380.931	800.000	-0.105	0.308
-379.917	719.745	0.068	0.180
-378.902	545.472	-0.051	0.122
-377.888	106.250	-0.107	0.126
-376.873	30.177	0.241	-0.205
-375.858	800.000	0.021	-0.087
-374.844	110.278	-0.174	0.209
-373.829	800.000	-0.035	-0.109
-372.815	-125.223	-0.147	0.022
-371.800	11.579	-0.143	-0.109
-370.785	-200.000	0.041	0.206
-369.771	79.510	0.167	0.178
-368.756	800.000	-0.066	0.220
-367.742	197.887	-0.057	0.088
-366.727	-200.000	-0.004	0.219
-365.712	22.066	0.069	0.056
-364.698	619.664	0.090	0.226
-363.683	356.248	0.094	0.187
-362.669	-108.120	-0.151	0.033
-361.654	-6.989	0.176	-0.119
-360.639	-130.203	-0.248	0.034
-359.625	-11.639	0.383	0.251
-358.610	574.387	-0.209	-0.508
-357.596	-121.588	0.077	0.013
-356.581	31.733	0.135	0.116
-355.566	225.398	0.208	0.336
-354.552	-11.586	0.042	-0.028
-353.537	-125.961	-0.055	0.008
-352.523	-58.506	-0.122	-0.053
-351.508	562.051	0.046	0.111
-350.493	38.475	-0.239	-0.212
-349.479	-169.374	0.112	-0.004
-348.464	-200.000	0.026	-0.251
-347.450	800.000	-0.083	0.270
-346.435	-39.627	0.384	-0.200
-345.420	-79.556	0.326	0.110
-344.406	-36.941	0.047	0.025
-343.391	-33.367	0.149	0.082
-342.377	-200.000	0.004	0.096
-341.362	-83.713	0.128	-0.041
-340.348	-138.864	0.330	0.036
-339.333	98.945	-0.072	0.083
-338.318	-200.000	-0.074	0.463
-337.304	-200.000	0.006	0.121
-336.289	1.361	0.476	0.341
-335.275	-200.000	0.022	-0.371
-334.260	65.228	0.055	-0.056
-333.245	496.055	0.036	0.082
-332.231	-42.941	-0.188	-0.095
-331.216	-146.422	0.277	0.024
-330.202	-200.000	-0.022	0.228
-329.187	14.199	0.273	0.212
-328.172	-108.692	-0.160	-0.034
-327.158	-200.000	-0.038	0.231
-326.143	800.000	-0.055	0.207
-325.129	-71.830	-0.149	-0.055
-324.114	29.303	-0.209	0.177
-323.099	-44.964	0.243	0.121
-322.085	-200.000	0.012	-0.080
-321.070	800.000	0.015	-0.063
-320.056	-67.623	-0.116	0.045
-319.041	178.412	-0.080	0.117
-318.026	-200.000	-0.062	0.347
-317.012	-125.836	-0.332	0.050
-315.997	-200.000	0.008	0.323
-314.983	-93.230	0.202	-0.056
-313.968	-58.039	-0.210	0.091
-312.953	-38.563	-0.057	-0.030
-311.939	22.213	0.214	0.174
-310.924	2.289	-0.382	0.275
-309.910	800.000	-0.139	-0.410
-308.895	-200.000	0.042	-0.212
-307.880	-62.123	-0.421	-0.175
-306.866	-52.381	-0.141	-0.065
-305.851	-79.257	0.201	0.068
-304.837	388.315	-0.130	0.267
-303.822	166.977	0.014	-0.020
-302.807	82.102	-0.021	0.022
-301.793	796.262	0.101	-0.276
-300.778	-149.474	-0.294	0.023
-299.764	-123.004	0.324	-0.052
-298.749	-200.000	0.004	-0.034
-297.735	236.520	0.079	-0.129
-296.720	-111.619	-0.119	0.024
-295.705	-30.121	-0.107	0.060
-294.691	-27.143	-0.093	-0.054
-293.676	-158.804	-0.389	0.022
-292.662	-69.665	0.150	-0.057
-291.647	800.000	-0.002	0.007
-290.632	303.616	-0.223	-0.411
-289.618	-200.000	0.030	-0.219
-288.603	1.821	0.043	-0.031
-287.589	126.640	-0.326	0.410
-286.574	-164.797	0.127	0.006
-285.559	-200.000	0.051	0.427
-284.545	241.377	-0.227	-0.377
-283.530	96.646	0.166	-0.189
-282.516	-200.000	-0.001	0.107
-281.501	-145.973	0.214	0.019
-280.486	155.265	-0.125	0.170
-279.472	252.976	0.202	-0.343
-278.457	-156.553	-0.483	0.030
-277.443	31.254	0.180	-0.154
-276.428	440.477	-0.068	0.149
-275.413	-181.170	0.209	-0.004
-274.399	122.821	-0.094	0.117
-273.384	-100.758	0.035	0.008
-272.370	-67.904	0.184	0.071
-271.355	-111.722	-0.130	-0.026
-270.340	-200.000	0.021	-0.191
-269.326	431.808	-0.114	0.245
-268.311	18.189	-0.116	-0.092
-267.297	800.000	-0.057	0.247
-266.282	-113.972	0.145	-0.028
-265.267	-155.030	0.161	-0.011
-264.253	162.101	0.231	-0.322
-263.238	359.864	0.078	-0.154
-262.224	-200.000	-0.010	0.062
-261.209	210.933	0.066	-0.104
-260.195	-200.000	0.035	-0.166
-259.180	-50.867	-0.091	0.042
-258.165	-51.922	0.211	0.098
-257.151	-161.402	0.107	-0.005
-256.136	-182.107	-0.052	-0.001
-255.122	-153.016	0.255	0.018
-254.107	346.849	-0.147	-0.286
-253.092	-5.390	-0.079	-0.054
-252.078	800.000	-0.130	0.362
-251.063	-144.764	0.090	0.008
-250.049	26.311	0.226	0.188
-249.034	-200.000	-0.032	-0.185
-248.019	567.983	-0.113	0.273
-247.005	800.000	0.026	0.093
-245.990	-53.905	-0.245	-0.111
-244.976	-1.785	0.141	-0.098
-243.961	-80.636	0.295	-0.097
-242.946	173.421	-0.117	0.167
-241.932	98.031	-0.363	-0.414
-240.917	-54.292	0.074	-0.033
-239.903	-18.114	-0.052	-0.033
-238.888	-57.753	0.164	-0.071
-237.873	-200.000	0.014	0.189
-236.859	-100.164	-0.028	0.007
-235.844	257.496	-0.118	-0.202
-234.830	-158.464	-0.207	0.012
-233.815	-139.290	0.285	0.030
-232.800	800.000	0.052	0.144
-231.786	-200.000	-0.043	-0.316
-230.771	800.000	-0.167	-0.501
-229.757	282.492	-0.030	0.053
-228.742	-19.221	0.376	0.232
-227.727	281.273	0.120	0.212
-226.713	-200.000	-0.020	0.168
-225.698	-64.904	0.104	-0.042
-224.684	-183.896	0.107	0.002
-223.669	-92.096	0.144	-0.040
-222.655	-95.953	0.124	0.033
-221.640	-49.287	-0.298	0.141
-220.625	-200.000	0.008	-0.074
-219.611	51.689	-0.156	0.147
-218.596	-200.000	0.000	-0.028
-217.582	187.492	0.198	0.294
-216.567	-6.646	0.209	-0.141
-215.552	45.860	-0.284	-0.260
-214.538	193.447	0.331	-0.496
-213.523	-200.000	-0.109	0.000
-212.509	-200.000	0.016	0.371
-211.494	186.903	0.129	0.191
-210.479	800.000	-0.047	0.164
-209.465	386.206	0.046	0.093
-208.450	28.185	0.108	-0.090
-207.436	58.169	0.057	-0.055
-206.421	173.040	0.062	-0.088
-205.406	-66.151	-0.077	-0.030
-204.392	413.085	-0.127	-0.267
-203.377	-200.000	-0.055	-0.286
-202.363	800.000	-0.119	0.356
-201.348	-200.000	-0.021	0.464
-200.333	800.000	0.046	0.169
-199.319	-155.502	0.458	-0.029
-198.304	-111.721	0.130	-0.026
-197.290	-200.000	0.003	0.090
-196.275	-48.219	0.183	0.087
-195.260	-16.482	0.314	0.197
-194.246	-200.000	-0.001	0.227
-193.231	-126.429	-0.365	-0.054
-192.217	-200.000	-0.056	0.249
-191.202	-90.851	0.223	-0.064
-190.187	-108.371	-0.235	0.050
-189.173	-21.022	0.142	0.086
-188.158	-200.000	0.036	0.276
-187.144	800.000	0.056	-0.212
-186.129	85.206	-0.175	-0.190
-185.114	-3.277	0.285	-0.197
-184.100	131.591	0.158	0.201
-183.085	-166.705	0.117	0.005
-182.071	-104.185	-0.300	0.069
-181.056	-200.000	-0.018	-0.187
-180.042	-44.634	0.247	0.122
-179.027	1.630	-0.089	-0.063
-178.012	-131.548	0.082	-0.011
-176.998	23.804	-0.099	0.081
-175.983	-200.000	0.023	-0.185
-174.969	451.825	-0.130	-0.285
-173.954	-116.949	-0.256	-0.046
-172.939	50.137	-0.110	-0.103
-171.925	-90.392	0.043	-0.012
-170.910	9.291	0.150	-0.112
-169.896	481.292	0.082	0.183
-168.881	136.249	0.084	0.109
-167.866	38.998	0.132	0.117
-166.852	161.930	0.083	-0.115
-165.837	95.854	-0.061	0.069
-164.823	786.495	0.133	0.361
-163.808	-88.663	-0.309	0.091
-162.793	492.612	0.030	0.068
-161.779	656.232	-0.283	-0.720
-160.764	-200.000	0.036	0.205
-159.750	274.131	-0.148	-0.260
-158.735	-132.078	0.193	0.025
-157.720	-62.400	0.178	-0.073
-156.706	-93.017	0.199	0.055
-155.691	-200.000	-0.039	-0.281
-154.677	12.959	0.173	0.132
-153.662	5.809	-0.315	0.231
-152.647	-200.000	-0.045	0.380
-151.633	239.600	0.065	-0.107
-150.618	-87.780	-0.239	0.071
-149.604	-50.223	0.468	0.219
-148.589	12.985	0.220	-0.168
-147.574	-200.000	0.003	0.158
-146.560	701.237	0.044	-0.114
-145.545	230.968	0.112	0.181
-144.531	800.000	-0.064	0.229
-143.516	41.895	0.275	-0.246
-142.502	-110.421	-0.138	-0.028
-141.487	-96.391	-0.138	-0.036
-140.472	-114.473	-0.192	0.036
-139.458	-200.000	0.047	0.233
-138.443	217.295	-0.017	-0.026
-137.429	24.496	-0.109	0.089
-136.414	-200.000	-0.015	0.319
-135.399	9.844	0.126	-0.094
-134.385	95.039	-0.104	-0.117
-133.370	-42.168	-0.367	-0.185
-132.356	-106.235	0.182	-0.040
-131.341	-169.957	0.302	-0.011
-130.326	-200.000	0.041	0.307
-129.312	345.919	-0.068	0.132
-128.297	-35.524	0.386	-0.207
-127.283	-34.511	-0.301	0.163
-126.268	354.042	0.090	0.176
-125.253	-200.000	-0.040	-0.191
-124.239	420.064	0.121	0.255
-123.224	-200.000	-0.006	-0.057
