DTS Sentinel unit serial number:	SN413079Multiplexer serial number:	ORYXHardware model number:	OX4-SRSoftware version number:	ORYX F/W v4.00 Oryx Data Collector v3.7.2.0data status	okinstallation	princeton_trtdifferential loss correction	single-endedforward channel	channel 4reverse channel	N/Adate	2019/09/18time	05:49:35forward acquisition time	60.00reverse acquisition time	0.00gamma	496.2192k internal	0.2333k external	0.2333temperature offset calibration	0.9996default loss term (dB/km)	0.3790temperature slope calibration	1.0000multiplexer offset coefficient	1.0000multiplexer slope coefficient	1.0000fibre end	0.00T internal ref (°C)	23.25T ext. ref 1 (°C)	0.19T ext. ref 2 (°C)	16.94length (m)	temperature (°C)	Stokes	anti-Stokes-747.200	62.651	0.246	-0.247
-746.185	-53.372	-0.303	0.140
-745.171	-200.000	-0.009	-0.197
-744.156	97.755	0.229	0.265
-743.142	-123.291	-0.130	0.021
-742.127	-200.000	0.012	0.101
-741.112	-105.545	0.144	-0.033
-740.098	800.000	0.100	0.313
-739.083	220.518	-0.023	0.037
-738.069	441.019	-0.089	0.196
-737.054	-102.077	-0.039	0.009
-736.039	-44.908	-0.292	-0.146
-735.025	-98.041	0.251	0.065
-734.010	-105.850	-0.527	-0.120
-732.996	-101.853	-0.087	0.021
-731.981	-200.000	0.023	0.175
-730.966	567.227	-0.082	-0.201
-729.952	-200.000	0.002	0.121
-728.937	-56.502	0.197	-0.088
-727.923	496.290	-0.041	0.094
-726.908	800.000	-0.054	-0.162
-725.894	-79.570	-0.132	0.045
-724.879	300.772	-0.049	0.092
-723.864	-200.000	0.003	-0.069
-722.850	-156.087	-0.116	-0.007
-721.835	-123.161	0.316	0.051
-720.821	-200.000	-0.031	0.203
-719.806	800.000	-0.065	0.226
-718.791	-200.000	-0.010	0.112
-717.777	-200.000	-0.005	0.070
-716.762	-94.411	0.242	-0.066
-715.748	303.746	0.111	-0.207
-714.733	800.000	-0.060	-0.230
-713.718	-200.000	-0.004	-0.127
-712.704	39.805	0.210	-0.190
-711.689	800.000	-0.072	-0.240
-710.675	-179.968	0.141	0.003
-709.660	-200.000	-0.062	0.301
-708.645	800.000	0.060	-0.210
-707.631	-200.000	-0.033	-0.217
-706.616	-23.435	0.080	-0.048
-705.602	-48.509	0.083	-0.040
-704.587	342.956	-0.046	0.090
-703.572	-87.018	-0.044	0.013
-702.558	718.902	-0.089	-0.237
-701.543	800.000	-0.067	0.250
-700.529	122.604	-0.023	0.028
-699.514	800.000	-0.037	0.156
-698.499	-18.272	-0.193	-0.121
-697.485	-200.000	0.070	-0.426
-696.470	-200.000	0.033	-0.213
-695.456	-40.735	-0.417	-0.217
-694.441	258.713	-0.084	0.146
-693.426	101.060	-0.118	0.137
-692.412	-200.000	0.015	0.347
-691.397	-111.553	-0.607	0.124
-690.383	-0.715	-0.303	0.215
-689.368	-148.845	0.045	0.004
-688.354	-163.459	-0.273	-0.013
-687.339	-200.000	0.063	0.282
-686.324	-13.998	0.098	0.064
-685.310	223.990	-0.173	0.280
-684.295	800.000	0.059	-0.164
-683.281	-47.445	-0.365	0.178
-682.266	-87.400	-0.060	0.018
-681.251	-125.504	-0.217	-0.033
-680.237	-69.530	0.069	-0.027
-679.222	800.000	0.100	0.411
-678.208	-200.000	0.017	-0.356
-677.193	160.015	0.171	-0.240
-676.178	79.018	-0.137	-0.147
-675.164	-77.184	-0.383	0.134
-674.149	-146.627	0.267	-0.023
-673.135	-200.000	-0.028	-0.396
-672.120	28.002	-0.163	-0.138
-671.105	535.717	-0.129	0.306
-670.091	-113.727	0.144	0.028
-669.076	55.364	0.175	0.170
-668.062	36.012	0.166	0.146
-667.047	61.941	-0.296	-0.296
-666.032	-8.784	0.225	0.151
-665.018	-3.162	0.136	-0.095
-664.003	-102.127	-0.065	0.016
-662.989	-14.584	0.279	0.180
-661.974	-50.994	0.227	0.107
-660.959	17.004	-0.345	-0.274
-659.945	-200.000	-0.007	-0.482
-658.930	-26.131	0.315	0.185
-657.916	-200.000	-0.029	0.394
-656.901	-200.000	-0.027	0.275
-655.886	-200.000	0.055	0.483
-654.872	800.000	0.105	-0.313
-653.857	389.051	-0.128	-0.265
-652.843	181.068	0.122	0.179
-651.828	-200.000	0.021	0.194
-650.814	-155.447	-0.131	-0.008
-649.799	605.139	-0.180	-0.448
-648.784	24.218	-0.142	0.117
-647.770	-156.254	0.267	0.017
-646.755	-200.000	-0.037	0.251
-645.741	-200.000	-0.041	0.388
-644.726	281.557	0.085	-0.153
-643.711	-200.000	-0.025	-0.199
-642.697	-95.656	-0.416	0.112
-641.682	7.591	-0.088	-0.066
-640.668	-1.857	-0.103	-0.072
-639.653	111.934	-0.205	-0.248
-638.638	388.684	0.072	-0.149
-637.624	37.398	0.194	-0.172
-636.609	-200.000	0.004	-0.047
-635.595	-200.000	-0.001	0.126
-634.580	173.356	-0.139	-0.201
-633.565	118.605	-0.181	-0.224
-632.551	177.586	-0.229	0.334
-631.536	45.292	-0.161	0.149
-630.522	20.206	-0.113	0.091
-629.507	2.417	0.057	-0.041
-628.492	-200.000	0.058	-0.399
-627.478	-58.914	0.355	-0.154
-626.463	-169.239	0.392	0.015
-625.449	-200.000	-0.032	-0.296
-624.434	71.758	-0.074	0.077
-623.419	-57.443	0.294	-0.129
-622.405	-200.000	-0.031	0.425
-621.390	800.000	-0.050	-0.152
-620.376	-169.188	-0.079	0.003
-619.361	800.000	0.147	-0.514
-618.346	31.100	0.197	-0.169
-617.332	125.715	-0.150	0.190
-616.317	-76.036	-0.033	-0.012
-615.303	69.220	-0.129	-0.133
-614.288	49.080	-0.080	-0.076
-613.273	-151.654	0.218	0.016
-612.259	409.349	-0.118	-0.250
-611.244	625.009	-0.092	-0.233
-610.230	169.679	-0.140	-0.200
-609.215	-200.000	-0.054	-0.275
-608.201	201.919	-0.064	0.099
-607.186	-124.726	0.091	-0.014
-606.171	795.929	0.048	0.133
-605.157	-30.004	-0.220	0.125
-604.142	-200.000	0.031	0.442
-603.128	800.000	-0.128	0.433
-602.113	-200.000	0.055	0.338
-601.098	800.000	-0.023	0.071
-600.084	-26.939	0.171	-0.100
-599.069	43.302	-0.271	-0.248
-598.055	780.997	0.157	0.430
-597.040	431.131	0.020	-0.044
-596.025	119.316	0.110	0.136
-595.011	155.228	-0.074	-0.102
-593.996	95.149	-0.091	0.104
-592.982	-67.735	-0.385	-0.151
-591.967	-35.766	-0.223	0.121
-590.952	-26.450	0.245	0.143
-589.938	-200.000	-0.348	0.001
-588.923	60.287	-0.187	0.185
-587.909	800.000	-0.127	-0.371
-586.894	-99.976	-0.140	0.035
-585.879	-129.329	0.204	-0.028
-584.865	29.341	-0.168	0.143
-583.850	-37.780	0.135	-0.072
-582.836	224.751	-0.152	-0.245
-581.821	217.182	0.106	-0.168
-580.806	225.909	-0.179	-0.291
-579.792	155.753	-0.152	-0.209
-578.777	305.311	-0.194	0.360
-577.763	-10.866	-0.323	0.213
-576.748	-200.000	-0.001	-0.129
-575.733	403.559	0.065	-0.136
-574.719	67.858	-0.312	-0.319
-573.704	595.702	-0.085	-0.211
-572.690	360.371	-0.093	-0.187
-571.675	-200.000	0.018	-0.231
-570.661	-22.326	-0.176	-0.107
-569.646	43.307	0.264	-0.241
-568.631	-131.844	0.386	-0.050
-567.617	-200.000	-0.028	-0.155
-566.602	655.707	-0.117	0.301
-565.588	-200.000	-0.007	0.163
-564.573	79.223	-0.235	-0.252
-563.558	-87.021	0.144	0.044
-562.544	143.565	0.066	0.088
-561.529	-200.000	-0.031	0.261
-560.515	-149.976	-0.033	0.003
-559.500	76.608	-0.132	-0.140
-558.485	90.107	-0.229	0.255
-557.471	98.312	0.137	0.157
-556.456	57.156	0.129	-0.126
-555.442	800.000	-0.078	-0.231
-554.427	125.637	-0.052	0.065
-553.412	-200.000	-0.039	0.206
-552.398	34.006	0.131	0.114
-551.383	58.664	-0.074	0.073
-550.369	-161.912	0.039	0.002
-549.354	-109.566	0.170	-0.036
-548.339	-25.676	-0.075	0.044
-547.325	-93.623	-0.270	-0.074
-546.310	31.541	-0.214	-0.183
-545.296	-139.548	-0.142	0.015
-544.281	-107.332	-0.195	-0.043
-543.266	-2.373	0.335	-0.235
-542.252	456.246	-0.133	0.295
-541.237	-71.962	0.084	0.031
-540.223	-140.480	0.141	-0.015
-539.208	186.645	-0.116	0.172
-538.193	-47.941	-0.274	-0.132
-537.179	395.770	-0.146	0.304
-536.164	0.010	-0.113	0.080
-535.150	642.978	0.030	0.077
-534.135	-72.716	-0.141	-0.052
-533.121	800.000	0.028	0.085
-532.106	-200.000	-0.024	-0.156
-531.091	-200.000	0.008	0.355
-530.077	444.336	0.036	-0.078
-529.062	800.000	-0.034	0.102
-528.048	-146.904	-0.194	0.017
-527.033	5.284	0.055	-0.041
-526.018	435.940	0.112	0.242
-525.004	-200.000	0.003	0.032
-523.989	26.586	-0.027	-0.023
-522.975	726.926	-0.012	-0.031
-521.960	-150.670	0.366	-0.028
-520.945	-200.000	-0.025	0.146
-519.931	-149.060	-0.149	-0.012
-518.916	20.868	0.101	0.081
-517.902	-88.314	0.189	0.056
-516.887	-200.000	-0.029	-0.131
-515.872	-52.553	-0.145	-0.067
-514.858	447.672	0.160	-0.350
-513.843	-200.000	-0.002	-0.077
-512.829	789.228	-0.080	-0.219
-511.814	28.910	-0.232	-0.196
-510.799	-63.174	-0.223	-0.091
-509.785	-159.031	0.129	0.007
-508.770	146.612	-0.225	-0.301
-507.756	240.686	0.088	0.146
-506.741	-88.647	-0.156	-0.046
-505.726	800.000	-0.116	0.406
-504.712	-7.575	-0.104	0.070
-503.697	-200.000	-0.029	-0.228
-502.683	800.000	0.074	-0.304
-501.668	58.291	0.212	0.207
-500.653	-51.167	0.031	-0.015
-499.639	19.364	0.349	0.279
-498.624	-119.631	-0.288	-0.050
-497.610	-7.784	0.163	0.110
-496.595	-95.400	0.195	-0.052
-495.581	31.470	-0.272	-0.233
-494.566	800.000	-0.091	-0.346
-493.551	114.488	-0.077	-0.094
-492.537	800.000	0.107	-0.356
-491.522	-200.000	-0.016	0.170
-490.508	29.081	-0.178	0.151
-489.493	84.394	-0.092	0.100
-488.478	-31.089	0.235	0.132
-487.464	-125.769	0.198	-0.030
-486.449	-65.769	-0.144	-0.057
-485.435	-138.735	0.367	0.040
-484.420	-130.069	-0.200	-0.027
-483.405	152.946	0.035	-0.048
-482.391	-20.351	-0.153	0.094
-481.376	-73.698	-0.178	-0.065
-480.362	800.000	-0.068	0.234
-479.347	-141.854	-0.332	0.033
-478.332	-100.983	-0.266	0.065
-477.318	-200.000	-0.014	-0.295
-476.303	-90.956	0.274	-0.078
-475.289	318.412	-0.048	-0.090
-474.274	-149.655	-0.312	-0.024
-473.259	-39.310	-0.213	-0.111
-472.245	800.000	0.024	0.088
-471.230	800.000	0.052	0.144
-470.216	327.898	-0.094	0.180
-469.201	207.777	0.116	0.180
-468.186	523.604	0.078	0.182
-467.172	-49.592	0.264	-0.125
-466.157	-200.000	0.042	0.492
-465.143	377.298	-0.203	0.413
-464.128	232.190	0.112	0.183
-463.113	59.052	-0.153	0.149
-462.099	91.263	-0.230	0.257
-461.084	-17.738	-0.123	-0.077
-460.070	-200.000	0.011	0.220
-459.055	481.062	0.042	0.095
-458.040	-84.259	0.261	0.082
-457.026	43.579	0.153	0.139
-456.011	-200.000	-0.041	-0.375
-454.997	-180.269	0.237	0.005
-453.982	-200.000	-0.001	0.183
-452.968	370.074	0.193	-0.390
-451.953	134.147	0.223	-0.287
-450.938	246.536	0.095	-0.159
-449.924	-200.000	-0.041	-0.409
-448.909	146.699	0.070	-0.093
-447.895	30.899	-0.130	-0.110
-446.880	-1.356	-0.135	-0.094
-445.865	-200.000	-0.031	0.344
-444.851	-34.366	0.278	0.151
-443.836	800.000	-0.022	0.090
-442.822	137.144	-0.105	0.137
-441.807	38.009	-0.008	0.007
-440.792	-106.508	0.180	-0.040
-439.778	-0.018	-0.116	-0.082
-438.763	367.749	0.069	-0.139
-437.749	800.000	0.062	0.224
-436.734	-192.513	-0.037	0.000
-435.719	-200.000	0.038	-0.216
-434.705	-200.000	-0.018	0.217
-433.690	128.891	-0.014	0.018
-432.676	122.986	0.149	0.186
-431.661	34.280	0.071	-0.062
-430.646	-29.932	0.287	-0.162
-429.632	-194.365	0.225	-0.002
-428.617	170.748	0.063	-0.090
-427.603	224.573	-0.104	-0.166
-426.588	-200.000	-0.025	-0.126
-425.573	-163.921	-0.183	-0.008
-424.559	94.647	-0.137	-0.155
-423.544	131.645	-0.081	0.104
-422.530	800.000	0.068	0.244
-421.515	800.000	-0.081	0.269
-420.500	-200.000	-0.029	0.185
-419.486	-137.330	-0.151	-0.017
-418.471	635.180	-0.051	-0.129
-417.457	-34.539	0.123	0.067
-416.442	590.561	0.123	0.301
-415.428	-78.259	0.182	-0.062
-414.413	57.005	0.192	-0.186
-413.398	-116.156	0.370	0.068
-412.384	-28.849	-0.107	0.061
-411.369	-200.000	-0.029	-0.312
-410.355	800.000	0.079	0.238
-409.340	-180.392	0.152	-0.003
-408.325	172.092	-0.084	-0.120
-407.311	-105.122	-0.013	-0.003
-406.296	3.879	0.198	-0.144
-405.282	-200.000	-0.031	-0.196
-404.267	-200.000	-0.032	-0.544
-403.252	48.081	0.087	0.081
-402.238	-1.187	0.131	0.092
-401.223	-0.153	-0.247	-0.174
-400.209	-179.612	-0.087	-0.002
-399.194	-107.038	-0.163	0.036
-398.179	237.283	-0.206	0.339
-397.165	-142.860	0.280	0.027
-396.150	-139.666	0.220	-0.023
-395.136	202.178	0.063	-0.096
-394.121	14.241	0.137	0.106
-393.106	157.591	-0.285	0.392
-392.092	-69.835	-0.168	-0.064
-391.077	-29.419	0.163	-0.092
-390.063	1.468	-0.353	-0.252
-389.048	10.812	0.157	-0.119
-388.033	-55.459	0.110	-0.049
-387.019	-200.000	0.049	0.363
-386.004	7.553	-0.047	-0.035
-384.990	-84.466	0.171	-0.054
-383.975	-200.000	-0.013	0.135
-382.960	-44.102	0.221	0.110
-381.946	-114.298	-0.277	-0.053
-380.931	-102.080	0.282	0.067
-379.917	-200.000	0.016	0.184
-378.902	-200.000	-0.045	0.410
-377.888	254.846	0.062	0.105
-376.873	4.878	0.186	0.135
-375.858	-19.427	0.184	-0.113
-374.844	54.199	0.187	-0.178
-373.829	-200.000	-0.022	0.281
-372.815	19.480	0.185	-0.148
-371.800	-200.000	-0.014	-0.295
-370.785	800.000	0.084	-0.290
-369.771	800.000	-0.050	0.199
-368.756	351.920	-0.098	-0.192
-367.742	-123.414	0.318	-0.050
-366.727	206.566	-0.160	0.247
-365.712	-200.000	-0.037	0.217
-364.698	18.567	-0.178	-0.141
-363.683	-113.885	-0.297	0.057
-362.669	-137.830	-0.267	0.030
-361.654	-63.195	-0.238	0.097
-360.639	366.814	-0.057	-0.115
-359.625	-83.045	-0.192	-0.061
-358.610	-200.000	-0.003	0.116
-357.596	-87.546	0.200	0.060
-356.581	306.227	-0.093	-0.171
-355.566	208.672	-0.121	-0.188
-354.552	-80.274	0.231	-0.077
-353.537	188.245	-0.060	-0.088
-352.523	-11.725	-0.253	0.164
-351.508	800.000	0.034	0.101
-350.493	800.000	0.041	-0.153
-349.479	-91.377	-0.310	0.088
-348.464	-5.125	-0.230	-0.157
-347.450	118.795	0.124	-0.151
-346.435	-156.783	-0.090	-0.006
-345.420	-1.476	-0.158	-0.110
-344.406	-115.240	0.044	0.008
-343.391	-102.783	-0.200	0.047
-342.377	-26.543	0.150	0.087
-341.362	-143.794	0.230	0.022
-340.348	-133.036	-0.067	-0.008
-339.333	-167.190	0.164	0.007
-338.318	396.261	-0.050	-0.104
-337.304	-37.594	-0.204	-0.108
-336.289	-33.006	-0.068	0.037
-335.275	800.000	-0.099	-0.317
-334.260	-200.000	-0.053	-0.418
-333.245	90.716	0.099	0.110
-332.231	-101.084	0.411	0.100
-331.216	-110.956	-0.200	-0.041
-330.202	-48.837	0.089	0.042
-329.187	-149.172	0.465	-0.037
-328.172	-63.607	0.183	-0.074
-327.158	-200.000	0.043	0.214
-326.143	-9.938	0.166	-0.109
-325.129	17.570	0.026	-0.021
-324.114	-59.131	0.220	-0.094
-323.099	260.833	0.164	-0.280
-322.085	75.849	-0.065	0.068
-321.070	-200.000	0.018	0.094
-320.056	20.675	0.131	-0.105
-319.041	305.725	-0.069	0.126
-318.026	800.000	0.078	-0.215
-317.012	-110.919	-0.148	0.030
-315.997	185.943	0.116	-0.170
-314.983	800.000	0.050	0.151
-313.968	-187.418	-0.211	0.003
-312.953	45.525	-0.050	0.045
-311.939	-54.223	-0.152	-0.068
-310.924	151.191	-0.108	-0.146
-309.910	118.372	-0.051	0.062
-308.895	391.536	-0.239	-0.490
-307.880	70.975	0.364	0.373
-306.866	153.253	-0.133	0.180
-305.851	505.649	0.032	0.074
-304.837	-57.339	-0.165	-0.072
-303.822	-200.000	0.059	0.265
-302.807	-161.481	0.264	-0.013
-301.793	800.000	0.041	0.115
-300.778	-74.499	0.198	-0.070
-299.764	800.000	-0.056	-0.223
-298.749	80.719	-0.375	-0.399
-297.735	-70.639	0.146	-0.055
-296.720	171.517	0.090	0.128
-295.705	-52.417	0.227	-0.104
-294.691	254.237	0.169	-0.286
-293.676	-31.455	-0.220	0.122
-292.662	-200.000	0.017	0.179
-291.647	58.117	-0.263	0.254
-290.632	-16.465	0.229	-0.144
-289.618	9.221	-0.155	-0.116
-288.603	23.750	-0.276	0.225
-287.589	-9.366	-0.389	0.257
-286.574	-85.933	0.302	-0.092
-285.559	-12.888	-0.057	-0.036
-284.545	-159.519	0.141	0.008
-283.530	-62.881	0.213	-0.087
-282.516	-4.285	-0.051	0.035
-281.501	-142.008	0.228	-0.022
-280.486	-200.000	0.003	0.033
-279.472	48.140	-0.085	0.079
-278.457	-85.313	-0.028	-0.009
-277.443	31.378	0.253	0.215
-276.428	459.269	0.068	0.149
-275.413	800.000	0.064	-0.265
-274.399	5.361	-0.083	-0.060
-273.384	246.195	0.135	0.225
-272.370	-180.410	0.306	0.006
-271.355	-11.696	0.167	0.108
-270.340	-184.430	0.338	-0.005
-269.326	319.428	-0.081	0.151
-268.311	800.000	0.042	-0.154
-267.297	-96.137	-0.131	-0.034
-266.282	117.762	0.089	-0.108
-265.267	-200.000	0.009	-0.165
-264.253	-200.000	0.016	-0.244
-263.238	-63.367	0.171	-0.070
-262.224	461.618	-0.142	-0.313
-261.209	-146.301	0.243	0.021
-260.195	63.827	0.199	0.197
-259.180	-126.997	-0.331	0.048
-258.165	257.385	-0.107	0.181
-257.151	0.008	-0.111	0.078
-256.136	-200.000	0.092	0.513
-255.122	-104.101	0.208	0.048
-254.107	-23.356	0.182	0.108
-253.092	147.421	0.185	-0.246
-252.078	-200.000	-0.027	0.162
-251.063	16.646	0.131	0.102
-250.049	-79.462	-0.222	0.074
-249.034	102.949	-0.307	0.354
-248.019	-200.000	-0.038	0.177
-247.005	-150.745	0.150	-0.011
-245.990	800.000	-0.052	-0.188
-244.976	203.687	-0.198	0.303
-243.961	223.877	0.100	0.159
-242.946	16.562	0.131	0.102
-241.932	-153.684	0.414	0.028
-240.917	31.139	-0.322	0.272
-239.903	-58.221	-0.215	0.092
-238.888	800.000	0.085	0.308
-237.873	97.186	-0.137	0.155
-236.859	-62.693	0.146	-0.060
-235.844	-200.000	-0.017	0.351
-234.830	-200.000	-0.029	-0.314
-233.815	218.050	-0.061	0.095
-232.800	207.591	0.128	-0.197
-231.786	184.794	0.154	0.225
-230.771	-200.000	0.039	-0.282
-229.757	-155.085	-0.182	0.012
-228.742	84.727	-0.111	-0.120
-227.727	258.132	0.163	-0.277
-226.713	-200.000	-0.002	0.073
-225.698	-200.000	0.002	0.141
-224.684	800.000	-0.027	0.103
-223.669	-121.484	0.032	0.005
-222.655	21.814	0.295	-0.237
-221.640	463.419	0.086	0.188
-220.625	19.130	-0.208	-0.165
-219.611	5.040	0.163	-0.119
-218.596	-19.185	-0.177	-0.109
-217.582	-115.903	0.072	-0.013
-216.567	42.639	-0.198	0.178
-215.552	-27.948	-0.273	-0.155
-214.538	-200.000	0.053	-0.311
-213.523	-200.000	0.004	-0.265
-212.509	-84.863	0.401	0.124
-211.494	800.000	0.055	0.218
-210.479	-36.704	-0.243	-0.129
-209.465	800.000	-0.064	0.186
-208.450	201.263	0.150	-0.228
-207.436	-22.746	0.227	0.135
-206.421	-16.444	0.178	-0.111
-205.406	-200.000	0.027	0.187
-204.392	-87.177	0.108	0.032
-203.377	-200.000	-0.037	0.268
-202.363	42.939	-0.219	-0.197
-201.348	-39.954	0.249	0.128
-200.333	15.786	0.452	0.350
-199.319	-28.760	-0.325	0.184
-198.304	800.000	-0.055	-0.185
-197.290	-200.000	0.031	0.385
-196.275	-200.000	0.001	0.122
-195.260	-55.220	0.119	-0.053
-194.246	-123.882	-0.175	-0.027
-193.231	-200.000	-0.023	-0.107
-192.217	800.000	-0.046	-0.128
-191.202	451.956	-0.144	-0.313
-190.187	800.000	-0.048	-0.170
-189.173	-42.874	0.349	0.175
-188.158	-127.918	-0.153	-0.022
-187.144	-200.000	0.012	0.103
-186.129	-100.956	0.082	-0.020
-185.114	-82.416	0.342	0.109
-184.100	1.768	-0.169	-0.120
-183.085	451.914	-0.019	-0.042
-182.071	86.532	-0.153	-0.166
-181.056	-46.289	0.469	-0.227
-180.042	-57.446	-0.074	0.032
-179.027	-67.722	-0.432	0.166
-178.012	-35.011	0.161	-0.086
-176.998	-0.349	-0.057	-0.040
-175.983	79.438	0.253	0.267
-174.969	-75.471	-0.111	-0.039
-173.954	800.000	0.067	0.271
-172.939	-77.793	0.087	0.029
-171.925	-6.931	-0.173	0.115
-170.910	-168.540	-0.137	-0.005
-169.896	-68.348	0.279	0.106
-168.881	75.987	0.147	0.153
-167.866	73.308	-0.235	-0.242
-166.852	-37.449	0.125	-0.066
-165.837	515.768	-0.130	0.299
-164.823	-52.389	0.124	-0.056
-163.808	-46.432	-0.052	0.025
-162.793	30.181	-0.238	-0.200
-161.779	-9.892	0.323	0.211
-160.764	-143.495	0.439	-0.041
-159.750	166.692	-0.085	0.119
-158.735	-116.958	0.029	0.005
-157.720	-200.000	-0.048	-0.440
-156.706	350.126	0.040	-0.078
-155.691	35.535	-0.280	0.241
-154.677	-200.000	0.022	0.140
-153.662	800.000	0.064	-0.220
-152.647	408.003	-0.113	0.235
-151.633	159.365	0.171	-0.234
-150.618	-200.000	0.028	0.414
-149.604	56.150	0.168	-0.160
-148.589	-116.770	0.092	-0.017
-147.574	39.854	-0.042	-0.037
-146.560	576.104	-0.126	0.302
-145.545	-144.146	0.164	0.015
-144.531	-62.986	-0.124	0.050
-143.516	-107.368	-0.078	0.017
-142.502	-10.979	0.372	0.241
-141.487	-109.581	0.105	-0.022
-140.472	-35.760	-0.161	-0.086
-139.458	126.876	-0.248	0.309
-138.443	-10.701	-0.147	0.096
-137.429	334.133	0.071	0.135
-136.414	-124.215	-0.381	0.059
-135.399	-66.869	-0.135	-0.052
-134.385	-67.320	-0.167	-0.065
-133.370	21.840	-0.184	-0.148
-132.356	190.764	-0.301	-0.445
-131.341	83.269	0.194	0.208
-130.326	-200.000	0.009	-0.171
-129.312	318.180	-0.031	0.058
-128.297	-112.133	-0.176	0.035
-127.283	-56.229	0.371	-0.162
-126.268	-135.361	0.214	0.025
-125.253	-119.170	0.151	0.026
-124.239	28.735	0.058	0.048
-123.224	-200.000	0.029	-0.187
-122.210	-77.978	-0.095	0.032
