DTS Sentinel unit serial number:	SN413079Multiplexer serial number:	ORYXHardware model number:	OX4-SRSoftware version number:	ORYX F/W v4.00 Oryx Data Collector v3.7.2.0data status	okinstallation	princeton_trtdifferential loss correction	single-endedforward channel	channel 4reverse channel	N/Adate	2019/09/12time	19:00:19forward acquisition time	15.00reverse acquisition time	0.00gamma	496.2192k internal	0.2307k external	0.2307temperature offset calibration	1.0141default loss term (dB/km)	0.3790temperature slope calibration	1.0000multiplexer offset coefficient	1.0000multiplexer slope coefficient	1.0000fibre end	0.00T internal ref (°C)	32.75T ext. ref 1 (°C)	3.02T ext. ref 2 (°C)	27.27length (m)	temperature (°C)	Stokes	anti-Stokes-747.200	105.208	-0.351	0.422
-746.185	-31.539	0.264	-0.151
-745.171	-144.310	0.212	0.020
-744.156	-200.000	0.159	0.728
-743.142	169.989	-0.207	-0.300
-742.127	357.801	-0.248	0.503
-741.112	-96.068	0.493	0.133
-740.098	44.224	0.659	0.615
-739.083	68.572	-0.206	0.215
-738.069	-64.159	0.263	-0.109
-737.054	9.920	-0.693	0.535
-736.039	-46.689	-0.532	-0.265
-735.025	800.000	-0.081	-0.322
-734.010	11.000	-0.153	-0.119
-732.996	-164.175	-1.172	-0.055
-731.981	-200.000	0.026	0.140
-730.966	135.176	-0.289	0.382
-729.952	-68.518	0.310	-0.122
-728.937	94.145	0.256	0.295
-727.923	292.558	-0.490	-0.907
-726.908	800.000	-0.031	-0.123
-725.894	348.954	0.118	0.236
-724.879	-89.361	-0.329	-0.098
-723.864	-110.094	0.772	-0.164
-722.850	282.905	-0.153	0.280
-721.835	-98.381	-0.857	-0.223
-720.821	800.000	0.040	0.119
-719.806	-200.000	0.090	-0.408
-718.791	800.000	-0.030	0.107
-717.777	800.000	-0.095	-0.390
-716.762	-45.694	-0.185	-0.093
-715.748	220.901	-0.241	-0.392
-714.733	-128.004	0.743	-0.108
-713.718	-166.387	-0.063	-0.003
-712.704	-80.560	-0.821	-0.278
-711.689	269.175	0.468	-0.833
-710.675	-14.095	0.582	-0.382
-709.660	-72.689	-0.908	-0.340
-708.645	800.000	-0.101	0.321
-707.631	-200.000	-0.173	-0.788
-706.616	175.878	0.205	0.301
-705.602	800.000	0.227	-0.689
-704.587	26.634	-0.304	-0.259
-703.572	90.463	-0.179	-0.203
-702.558	-200.000	0.057	0.277
-701.543	-16.592	-0.870	0.559
-700.529	704.766	0.341	0.913
-699.514	-200.000	0.071	1.090
-698.499	800.000	-0.225	0.936
-697.485	91.519	0.253	-0.289
-696.470	300.251	0.211	0.396
-695.456	-89.697	-0.343	0.102
-694.441	-46.560	-0.079	0.039
-693.426	-57.910	0.862	-0.382
-692.412	278.423	-0.313	-0.567
-691.397	764.913	0.187	0.516
-690.383	-135.636	0.812	0.098
-689.368	-69.023	-1.075	0.420
-688.354	-197.515	-0.769	-0.005
-687.339	-140.946	0.609	0.063
-686.324	800.000	-0.255	-1.003
-685.310	342.844	0.241	-0.479
-684.295	-11.743	0.370	0.246
-683.281	637.589	0.170	0.437
-682.266	49.751	-0.923	0.882
-681.251	-200.000	0.115	0.854
-680.237	-17.832	-0.625	0.398
-679.222	511.744	0.407	-0.960
-678.208	-200.000	0.035	-0.682
-677.193	-131.789	-0.942	0.125
-676.178	158.449	-0.365	-0.514
-675.164	201.059	-0.345	-0.539
-674.149	-74.109	-0.958	-0.352
-673.135	148.238	-0.229	0.313
-672.120	800.000	0.253	0.831
-671.105	-58.029	0.521	0.231
-670.091	-152.676	-0.603	0.044
-669.076	185.618	0.509	0.767
-668.062	53.335	0.420	0.409
-667.047	-200.000	-0.097	0.665
-666.032	81.821	0.506	0.555
-665.018	111.984	-0.441	0.539
-664.003	800.000	-0.166	-0.478
-662.989	800.000	-0.114	-0.330
-661.974	-132.692	0.569	0.074
-660.959	-68.475	0.342	-0.134
-659.945	18.551	0.159	0.129
-658.930	-41.407	-1.139	-0.594
-657.916	800.000	-0.046	0.185
-656.901	-0.167	-0.115	-0.083
-655.886	-200.000	-0.009	-0.349
-654.872	84.375	0.232	-0.257
-653.857	165.023	0.113	-0.162
-652.843	202.151	0.238	-0.372
-651.828	-95.650	-0.682	-0.185
-650.814	-68.587	-0.881	-0.346
-649.799	0.370	0.642	-0.464
-648.784	-163.961	0.079	-0.004
-647.770	800.000	-0.019	-0.059
-646.755	21.319	-0.354	0.291
-645.741	-1.159	0.477	0.341
-644.726	434.690	0.450	0.990
-643.711	185.504	-0.566	0.852
-642.697	323.590	0.209	-0.404
-641.682	4.879	0.293	-0.218
-640.668	-15.458	-0.225	-0.145
-639.653	54.409	-0.438	-0.427
-638.638	-160.644	0.135	0.007
-637.624	93.617	-0.602	0.691
-636.609	-106.020	-0.333	0.076
-635.595	-23.290	0.269	-0.164
-634.580	231.428	0.393	-0.653
-633.565	-5.494	-0.167	-0.116
-632.551	-13.495	-0.416	-0.273
-631.536	17.958	-0.426	-0.344
-630.522	245.615	-0.443	-0.755
-629.507	-200.000	0.107	-0.477
-628.492	-200.000	-0.111	0.921
-627.478	-65.841	0.345	0.140
-626.463	800.000	0.041	-0.173
-625.449	-200.000	0.007	0.393
-624.434	84.975	0.317	0.351
-623.419	-52.729	-0.598	-0.279
-622.405	800.000	-0.099	-0.369
-621.390	26.105	-0.135	-0.114
-620.376	-179.993	0.791	-0.017
-619.361	-200.000	-0.008	-0.488
-618.346	638.114	0.173	-0.446
-617.332	-56.070	0.489	-0.220
-616.317	-108.687	-0.780	0.169
-615.303	-107.746	0.453	-0.100
-614.288	72.050	0.181	-0.191
-613.273	-200.000	0.140	0.806
-612.259	-200.000	0.052	0.461
-611.244	-200.000	0.013	-0.612
-610.230	800.000	0.088	0.279
-609.215	-123.151	-0.615	-0.100
-608.201	800.000	-0.048	0.138
-607.186	-200.000	-0.031	-0.201
-606.171	-142.018	0.176	-0.018
-605.157	800.000	0.099	-0.299
-604.142	-73.520	0.045	-0.016
-603.128	-71.055	0.167	-0.064
-602.113	-78.828	-0.182	0.063
-601.098	-117.557	-0.413	0.075
-600.084	-200.000	-0.009	0.264
-599.069	5.228	0.863	0.643
-598.055	-191.038	0.279	-0.003
-597.040	341.207	-0.216	-0.426
-596.025	794.076	-0.369	-1.028
-595.011	-66.256	-0.899	-0.362
-593.996	98.638	0.067	0.078
-592.982	-44.387	-0.685	-0.347
-591.967	45.639	0.872	-0.814
-590.952	-28.838	-0.530	-0.308
-589.938	157.472	-0.194	-0.271
-588.923	60.438	-0.465	-0.465
-587.909	-52.304	0.801	0.375
-586.894	-78.318	-0.113	0.039
-585.879	-69.636	0.695	-0.269
-584.865	146.560	-0.637	-0.865
-583.850	-159.510	-0.659	-0.037
-582.836	49.568	0.810	-0.771
-581.821	241.063	0.459	-0.774
-580.806	-154.625	-0.890	0.060
-579.792	141.530	0.385	0.515
-578.777	18.622	-0.700	-0.566
-577.763	-124.826	-0.650	0.101
-576.748	23.536	-0.960	0.798
-575.733	800.000	0.102	0.332
-574.719	800.000	0.083	0.271
-573.704	-55.945	0.049	0.022
-572.690	62.939	-0.749	0.757
-571.675	88.218	0.260	0.291
-570.661	-70.206	0.742	0.285
-569.646	214.961	-0.690	-1.104
-568.631	62.658	0.681	0.688
-567.617	-174.595	1.192	0.034
-566.602	800.000	-0.165	0.470
-565.588	3.910	0.580	-0.428
-564.573	-200.000	0.045	-0.205
-563.558	-111.161	-1.161	0.240
-562.544	378.518	-0.300	-0.620
-561.529	800.000	0.051	-0.189
-560.515	51.499	0.446	0.428
-559.500	-74.850	1.143	0.414
-558.485	-97.727	-0.305	0.080
-557.471	-200.000	-0.012	-0.215
-556.456	106.930	0.375	-0.450
-555.442	-90.519	0.679	-0.199
-554.427	-93.590	-0.293	-0.082
-553.412	1.906	0.264	0.192
-552.398	-94.280	0.778	-0.215
-551.383	635.233	0.156	0.398
-550.369	800.000	0.091	-0.325
-549.354	-119.777	-0.997	0.174
-548.339	800.000	0.099	0.319
-547.325	-97.314	-0.213	0.056
-546.310	-200.000	-0.055	0.393
-545.296	-80.335	0.358	0.121
-544.281	-200.000	0.057	0.554
-543.266	-200.000	-0.013	0.534
-542.252	188.167	0.283	-0.426
-541.237	124.700	0.165	0.210
-540.223	-33.495	-0.416	0.232
-539.208	-200.000	0.088	0.424
-538.193	-68.766	-0.355	0.138
-537.179	-200.000	0.724	0.003
-536.164	-200.000	0.029	0.575
-535.150	220.252	0.205	0.332
-534.135	800.000	-0.074	0.321
-533.121	141.083	0.415	0.554
-532.106	-63.739	-0.452	0.187
-531.091	-200.000	-0.119	0.701
-530.077	144.924	-0.122	-0.164
-529.062	-200.000	-0.162	0.758
-528.048	54.191	0.068	-0.066
-527.033	-200.000	-0.666	-0.002
-526.018	27.638	-0.264	-0.224
-525.004	10.051	0.417	-0.319
-523.989	-84.038	0.163	0.052
-522.975	800.000	0.132	-0.499
-521.960	285.870	-0.294	-0.535
-520.945	160.313	-0.229	0.322
-519.931	306.712	0.377	-0.708
-518.916	-127.983	0.166	0.024
-517.902	-97.896	0.794	0.207
-516.887	74.455	-0.330	-0.350
-515.872	800.000	0.144	-0.551
-514.858	172.794	-0.086	-0.124
-513.843	-77.396	-0.503	0.176
-512.829	-8.726	-0.567	0.384
-511.814	-181.652	-0.066	0.001
-510.799	431.542	-0.040	0.087
-509.785	-200.000	-0.083	-0.523
-508.770	-48.552	-0.675	-0.327
-507.756	67.224	0.089	-0.091
-506.741	-200.000	-0.101	0.787
-505.726	-200.000	-0.074	-0.527
-504.712	40.380	-0.052	0.047
-503.697	352.981	-0.415	-0.829
-502.683	72.290	-0.215	-0.226
-501.668	145.527	0.155	0.209
-500.653	3.126	0.486	-0.356
-499.639	41.728	0.367	-0.335
-498.624	800.000	-0.063	0.252
-497.610	-106.675	0.206	-0.046
-496.595	-166.592	-0.522	0.022
-495.581	18.780	-0.577	-0.465
-494.566	-159.708	0.163	0.009
-493.551	800.000	-0.087	0.291
-492.537	-119.894	0.569	-0.098
-491.522	-58.798	0.938	-0.409
-490.508	-131.482	0.323	-0.043
-489.493	-33.484	-0.538	-0.299
-488.478	242.300	-0.069	0.117
-487.464	-82.135	0.882	0.290
-486.449	800.000	0.052	-0.146
-485.435	575.895	0.045	0.110
-484.420	800.000	0.117	-0.380
-483.405	653.134	0.258	-0.665
-482.391	691.957	0.217	0.572
-481.376	-98.932	0.571	0.146
-480.362	-200.000	0.088	-0.553
-479.347	44.241	0.221	0.204
-478.332	-64.838	0.750	-0.305
-477.318	53.052	-0.443	-0.427
-476.303	431.720	0.159	-0.346
-475.289	-200.000	-0.070	0.662
-474.274	-135.920	0.578	-0.069
-473.259	289.303	0.244	0.446
-472.245	-61.372	-0.297	0.126
-471.230	-100.064	-0.298	-0.075
-470.216	-80.554	-0.662	0.222
-469.201	-12.202	0.634	0.417
-468.186	-11.323	-0.873	-0.578
-467.172	230.141	-0.255	0.420
-466.157	73.602	-0.198	-0.209
-465.143	712.380	-0.331	-0.881
-464.128	-102.196	0.282	-0.068
-463.113	176.615	-0.184	0.270
-462.099	641.562	-0.109	-0.280
-461.084	1.573	-0.818	0.592
-460.070	-91.063	0.812	0.235
-459.055	-31.891	-0.866	0.488
-458.040	-138.714	0.257	0.028
-457.026	-105.210	0.610	-0.140
-456.011	34.150	0.172	-0.151
-454.997	615.897	-0.049	-0.123
-453.982	131.011	0.628	-0.811
-452.968	97.974	0.354	0.409
-451.953	800.000	0.215	-0.850
-450.938	283.699	0.312	0.564
-449.924	90.197	-0.102	0.115
-448.909	-153.943	0.285	-0.020
-447.895	470.371	-0.385	-0.869
-446.880	-46.378	-0.350	0.173
-445.865	-128.595	0.549	-0.078
-444.851	292.741	0.272	-0.498
-443.836	11.077	0.444	0.341
-442.822	423.213	0.327	-0.706
-441.807	800.000	-0.150	-0.602
-440.792	25.107	-0.309	0.257
-439.778	52.055	-0.355	-0.340
-438.763	18.033	0.407	0.326
-437.749	85.457	0.335	-0.369
-436.734	90.657	0.137	-0.154
-435.719	20.326	0.337	0.273
-434.705	506.367	0.062	-0.145
-433.690	800.000	0.093	0.284
-432.676	639.473	-0.302	0.771
-431.661	94.140	1.049	1.196
-430.646	-23.009	-0.300	-0.182
-429.632	-33.909	0.035	-0.019
-428.617	800.000	-0.155	0.502
-427.603	346.624	-0.137	-0.270
-426.588	-180.608	0.385	0.008
-425.573	425.130	0.302	0.654
-424.559	138.659	0.048	0.064
-423.544	-83.473	-1.124	0.361
-422.530	-118.077	0.259	-0.046
-421.515	655.749	-0.034	-0.087
-420.500	-135.074	-0.650	-0.079
-419.486	800.000	-0.143	0.427
-418.471	85.899	0.767	0.848
-417.457	-200.000	0.023	-0.199
-416.442	-49.003	0.653	-0.314
-415.428	-97.261	0.238	-0.062
-414.413	184.755	0.465	-0.692
-413.398	-200.000	-0.019	-0.504
-412.384	81.644	-0.453	0.492
-411.369	-112.285	-0.862	0.173
-410.355	100.188	0.558	0.649
-409.340	9.048	-0.136	0.103
-408.325	-200.000	-0.047	0.381
-407.311	-118.076	0.474	-0.085
-406.296	-200.000	0.029	0.665
-405.282	-25.044	-0.453	0.269
-404.267	100.554	0.372	0.433
-403.252	800.000	0.213	0.707
-402.238	-190.137	-0.144	-0.002
-401.223	-1.160	-0.167	0.118
-400.209	800.000	0.181	-0.771
-399.194	115.056	0.542	-0.663
-398.179	-200.000	0.026	0.337
-397.165	184.262	-0.206	-0.306
-396.150	800.000	-0.180	-0.515
-395.136	-95.937	-0.280	0.075
-394.121	176.015	-0.428	-0.623
-393.106	164.577	-0.688	-0.973
-392.092	-147.665	1.043	-0.088
-391.077	81.937	0.151	-0.164
-390.063	-141.421	-0.253	-0.026
-389.048	23.790	-0.341	0.281
-388.033	62.248	-0.196	0.196
-387.019	261.553	-0.217	-0.377
-386.004	800.000	-0.100	0.396
-384.990	113.419	0.389	0.474
-383.975	199.682	0.179	-0.276
-382.960	800.000	-0.154	0.506
-381.946	-10.171	0.689	0.459
-380.931	800.000	-0.086	-0.311
-379.917	81.591	0.180	-0.195
-378.902	-200.000	-0.012	0.294
-377.888	-40.473	0.864	0.450
-376.873	-200.000	-0.029	0.491
-375.858	-32.667	-0.583	-0.325
-374.844	112.574	-0.320	0.388
-373.829	12.680	0.501	-0.388
-372.815	-71.603	-0.452	-0.169
-371.800	292.444	-0.182	-0.332
-370.785	44.556	0.227	0.209
-369.771	-16.387	-0.007	0.005
-368.756	-17.962	0.649	-0.408
-367.742	143.544	-0.238	0.317
-366.727	-67.834	-0.435	-0.170
-365.712	-74.896	-0.619	0.222
-364.698	-26.732	-0.891	0.522
-363.683	-16.465	-0.427	-0.271
-362.669	-16.694	0.150	0.095
-361.654	-95.228	0.861	-0.232
-360.639	5.250	0.117	-0.086
-359.625	-31.398	0.624	-0.352
-358.610	-135.399	-0.545	-0.065
-357.596	-98.653	-0.411	-0.105
-356.581	53.444	0.145	-0.139
-355.566	238.938	0.211	0.351
-354.552	-95.750	-0.698	-0.187
-353.537	800.000	-0.073	-0.229
-352.523	-61.004	-0.556	-0.235
-351.508	3.280	0.750	0.547
-350.493	199.146	-0.147	-0.226
-349.479	-132.156	-0.599	-0.078
-348.464	-124.707	0.629	-0.097
-347.450	179.757	-0.383	-0.562
-346.435	-46.695	0.050	0.025
-345.420	-200.000	0.138	-1.171
-344.406	204.413	0.591	-0.917
-343.391	794.714	-0.228	-0.628
-342.377	458.677	0.298	-0.663
-341.362	800.000	0.176	0.575
-340.348	14.543	-0.599	0.468
-339.333	167.690	0.114	0.162
-338.318	47.093	-0.498	0.464
-337.304	136.274	-0.463	-0.604
-336.289	6.674	-0.712	-0.530
-335.275	-15.183	0.971	0.622
-334.260	-125.754	0.784	0.119
-333.245	500.146	0.328	-0.758
-332.231	800.000	0.178	0.763
-331.216	518.925	0.075	0.176
-330.202	161.250	0.606	0.847
-329.187	-62.658	-0.343	-0.142
-328.172	-200.000	-0.171	-0.752
-327.158	-6.620	0.087	-0.059
-326.143	-158.981	-1.068	-0.061
-325.129	84.812	0.242	-0.266
-324.114	-78.007	0.870	0.300
-323.099	-58.158	-0.558	0.243
-322.085	-13.165	0.348	-0.226
-321.070	-82.709	0.429	0.139
-320.056	105.987	-0.345	-0.409
-319.041	800.000	0.053	-0.179
-318.026	-200.000	0.060	0.330
-317.012	624.472	0.205	0.516
-315.997	138.022	0.530	0.694
-314.983	226.645	0.206	-0.334
-313.968	-44.153	-0.836	0.420
-312.953	-200.000	-0.087	0.562
-311.939	87.639	-0.692	0.766
-310.924	263.247	-0.273	0.473
-309.910	236.237	-0.235	-0.388
-308.895	134.535	0.285	0.370
-307.880	185.902	0.204	-0.303
-306.866	800.000	-0.201	0.614
-305.851	-132.593	-0.278	-0.036
-304.837	-153.769	-0.139	-0.010
-303.822	-66.721	0.088	0.035
-302.807	-137.867	0.652	-0.073
-301.793	-20.597	0.117	-0.072
-300.778	800.000	-0.323	0.977
-299.764	287.828	-0.414	0.748
-298.749	12.433	-0.470	0.362
-297.735	479.972	0.384	-0.870
-296.720	-200.000	0.046	-0.338
-295.705	61.286	-0.625	0.621
-294.691	-112.487	-0.628	0.125
-293.676	-200.000	0.065	0.572
-292.662	800.000	-0.077	-0.252
-291.647	101.222	-0.690	0.803
-290.632	-200.000	0.004	0.194
-289.618	-148.928	-0.502	0.040
-288.603	-132.594	-0.193	-0.025
-287.589	800.000	-0.093	-0.394
-286.574	-65.722	1.114	-0.446
-285.559	-74.855	-0.591	0.212
-284.545	-70.040	-1.173	0.446
-283.530	-200.000	0.017	-0.096
-282.516	-88.076	-0.087	0.026
-281.501	81.730	-0.487	0.526
-280.486	800.000	-0.124	0.503
-279.472	-7.804	0.552	-0.372
-278.457	-128.988	0.327	0.046
-277.443	-18.775	-0.262	0.163
-276.428	-140.998	0.225	-0.023
-275.413	-25.557	-1.260	0.743
-274.399	-200.000	-0.016	-0.127
-273.384	800.000	-0.282	-0.923
-272.370	-114.221	0.122	0.024
-271.355	800.000	0.023	0.093
-270.340	-160.700	-0.519	-0.028
-269.326	800.000	0.280	1.052
-268.311	323.377	0.063	0.120
-267.297	-123.092	0.378	0.061
-266.282	295.436	-0.169	-0.309
-265.267	121.942	-0.382	0.476
-264.253	91.054	-0.268	0.300
-263.238	-200.000	0.100	-0.538
-262.224	-117.894	-0.317	-0.057
-261.209	-154.206	-0.846	-0.057
-260.195	-57.706	-0.412	0.180
-259.180	13.360	0.998	-0.772
-258.165	-51.367	0.607	0.283
-257.151	388.148	0.391	0.808
-256.136	42.696	-0.455	-0.413
-255.122	9.229	-0.417	-0.314
-254.107	-70.455	-0.559	-0.211
-253.092	84.351	-0.071	0.077
-252.078	-200.000	0.173	0.940
-251.063	-200.000	0.005	-0.260
-250.049	-42.208	0.127	-0.065
-249.034	-40.555	0.622	0.322
-248.019	281.208	0.587	1.047
-247.005	122.822	0.483	-0.603
-245.990	536.759	-0.055	0.131
-244.976	-43.686	0.261	0.131
-243.961	800.000	0.078	-0.327
-242.946	163.607	-0.512	0.719
-241.932	90.111	0.183	0.204
-240.917	265.294	-0.323	-0.561
-239.903	-142.358	-0.960	-0.094
-238.888	800.000	-0.197	-0.776
-237.873	647.292	-0.101	-0.256
-236.859	258.979	0.066	-0.114
-235.844	-77.850	0.478	0.165
-234.830	-200.000	-0.059	1.179
-233.815	401.706	0.171	0.359
-232.800	92.300	-0.169	-0.190
-231.786	18.474	0.608	-0.484
-230.771	-113.814	0.627	-0.122
-229.757	97.817	0.460	0.528
-228.742	6.970	-0.282	-0.209
-227.727	58.952	-0.232	-0.227
-226.713	151.463	0.146	0.198
-225.698	-200.000	0.011	0.526
-224.684	-139.890	0.616	0.065
-223.669	130.199	0.591	-0.754
-222.655	483.722	-0.276	0.625
-221.640	-189.287	-0.336	0.004
-220.625	161.807	0.119	-0.166
-219.611	-68.038	-0.795	-0.309
-218.596	-35.024	0.430	-0.233
-217.582	31.266	0.472	0.404
-216.567	-122.423	-0.259	-0.042
-215.552	-108.914	0.264	-0.056
-214.538	526.247	-0.232	0.545
-213.523	202.451	-0.152	0.234
-212.509	800.000	-0.245	-0.756
-211.494	25.898	0.509	-0.423
-210.479	681.493	0.103	-0.267
-209.465	-200.000	0.007	-0.748
-208.450	800.000	0.114	0.361
-207.436	243.120	-0.158	0.264
-206.421	240.005	0.564	-0.935
-205.406	-103.391	0.529	-0.124
-204.392	-103.252	-0.630	0.148
-203.377	-200.000	-0.070	0.315
-202.363	-122.509	-0.791	0.128
-201.348	117.407	-0.660	0.808
-200.333	-64.586	-0.882	-0.356
-199.319	-111.605	0.396	-0.080
-198.304	289.896	0.300	0.542
-197.290	800.000	0.224	0.828
-196.275	-200.000	0.074	0.416
-195.260	37.634	0.448	-0.396
-194.246	-200.000	-0.041	-0.552
-193.231	800.000	0.177	0.603
-192.217	288.184	-0.287	0.517
-191.202	-59.333	0.211	-0.090
-190.187	800.000	0.175	-0.679
-189.173	120.333	-0.222	-0.274
-188.158	-200.000	-0.051	0.334
-187.144	-2.626	-0.536	-0.373
-186.129	-125.578	0.588	-0.089
-185.114	536.282	0.122	0.288
-184.100	-39.835	1.218	0.633
-183.085	-200.000	-0.039	-0.398
-182.071	-200.000	0.009	-1.169
-181.056	0.851	-0.351	0.250
-180.042	800.000	-0.043	-0.161
-179.027	800.000	0.242	-0.687
-178.012	-200.000	-0.028	0.161
-176.998	37.807	0.223	-0.197
-175.983	-58.791	0.142	0.061
-174.969	-100.651	0.823	-0.202
-173.954	-92.580	-0.891	0.249
-172.939	-144.129	0.524	-0.049
-171.925	-184.947	0.399	-0.006
-170.910	-200.000	-0.127	0.565
-169.896	-200.000	0.009	-0.494
-168.881	-97.478	-1.056	-0.273
-167.866	800.000	0.147	-0.495
-166.852	-44.873	-0.912	0.452
-165.837	-200.000	-0.018	0.508
-164.823	83.446	0.405	-0.438
-163.808	-37.093	0.420	0.223
-162.793	622.217	-0.089	0.222
-161.779	-102.600	-0.519	0.123
-160.764	634.092	-0.153	0.385
-159.750	800.000	0.230	-0.788
-158.735	-200.000	-0.013	-0.720
-157.720	800.000	0.171	-0.480
-156.706	-89.807	-0.773	-0.225
-155.691	118.851	-0.283	0.347
-154.677	469.451	-0.168	-0.376
-153.662	800.000	0.408	1.125
-152.647	800.000	0.081	-0.338
-151.633	800.000	0.339	-1.196
-150.618	292.576	-0.128	0.231
-149.604	-131.831	0.619	0.080
-148.589	45.597	0.603	0.554
-147.574	83.961	0.559	-0.606
-146.560	800.000	-0.249	0.957
-145.545	125.171	0.269	0.337
-144.531	-8.528	0.932	0.622
-143.516	800.000	0.160	0.487
-142.502	592.202	0.202	0.495
-141.487	-143.044	0.346	0.033
-140.472	161.185	-0.670	-0.930
-139.458	92.213	0.273	-0.305
-138.443	-36.750	1.060	-0.566
-137.429	-35.198	0.539	0.292
-136.414	15.116	-0.330	-0.257
-135.399	67.661	-0.500	0.507
-134.385	-79.717	0.589	-0.197
-133.370	151.832	0.375	-0.508
-132.356	800.000	0.155	-0.576
-131.341	500.959	0.196	0.449
-130.326	-39.480	0.589	0.307
-129.312	109.509	-0.256	0.305
-128.297	439.302	-0.290	0.628
-127.283	25.064	0.267	0.220
-126.268	14.874	-0.244	0.190
-125.253	167.941	0.304	-0.430
-124.239	19.584	0.224	0.179
-123.224	236.418	0.174	-0.286
-122.210	-138.651	-1.496	-0.162
-121.195	-124.146	0.467	-0.073
-120.180	381.541	0.297	0.604
