DTS Sentinel unit serial number:	SN413079Multiplexer serial number:	ORYXHardware model number:	OX4-SRSoftware version number:	ORYX F/W v4.00 Oryx Data Collector v3.7.2.0data status	okinstallation	princeton_trtdifferential loss correction	single-endedforward channel	channel 4reverse channel	N/Adate	2019/09/17time	22:13:34forward acquisition time	60.00reverse acquisition time	0.00gamma	496.2192k internal	0.2329k external	0.2329temperature offset calibration	0.9995default loss term (dB/km)	0.3790temperature slope calibration	1.0000multiplexer offset coefficient	1.0000multiplexer slope coefficient	1.0000fibre end	0.00T internal ref (°C)	25.72T ext. ref 1 (°C)	0.18T ext. ref 2 (°C)	18.63length (m)	temperature (°C)	Stokes	anti-Stokes-747.200	753.039	0.079	-0.215
-746.185	1.129	-0.314	0.227
-745.171	-200.000	0.004	0.304
-744.156	-27.213	0.391	0.229
-743.142	486.466	-0.099	0.227
-742.127	-200.000	0.008	0.122
-741.112	17.508	0.064	-0.052
-740.098	-200.000	-0.098	0.455
-739.083	243.186	0.050	-0.084
-738.069	80.266	0.174	0.189
-737.054	-65.435	-0.080	-0.032
-736.039	-65.097	-0.275	-0.112
-735.025	-105.296	0.211	-0.048
-734.010	-9.363	-0.239	-0.161
-732.996	-200.000	0.003	0.061
-731.981	-87.347	0.384	0.117
-730.966	-200.000	0.008	-0.223
-729.952	-200.000	0.017	-0.274
-728.937	-59.362	0.432	-0.187
-727.923	-91.872	0.114	0.033
-726.908	14.113	-0.074	0.058
-725.894	-147.165	-0.075	-0.006
-724.879	95.896	0.097	-0.111
-723.864	800.000	0.124	-0.350
-722.850	-181.541	-0.321	0.006
-721.835	364.835	0.154	-0.312
-720.821	14.622	-0.123	-0.096
-719.806	-200.000	-0.016	-0.151
-718.791	-99.597	-0.195	0.049
-717.777	190.975	-0.215	-0.325
-716.762	370.594	0.071	-0.145
-715.748	-200.000	0.016	-0.394
-714.733	-66.186	-0.140	0.056
-713.718	-55.331	-0.196	-0.088
-712.704	-157.189	0.125	0.008
-711.689	-200.000	-0.033	0.312
-710.675	343.686	-0.067	0.132
-709.660	221.996	0.171	-0.276
-708.645	-200.000	0.104	-0.484
-707.631	-195.170	0.279	0.002
-706.616	93.146	0.227	0.259
-705.602	438.221	-0.154	0.337
-704.587	-54.900	0.106	0.048
-703.572	-78.011	-0.181	0.063
-702.558	64.648	-0.094	-0.096
-701.543	-167.302	0.209	0.008
-700.529	549.112	0.086	-0.208
-699.514	-200.000	0.057	0.269
-698.499	171.639	-0.223	-0.322
-697.485	-11.776	0.146	0.096
-696.470	-98.878	-0.249	-0.064
-695.456	-200.000	0.012	-0.150
-694.441	580.707	0.090	0.221
-693.426	-50.982	-0.246	-0.116
-692.412	54.506	0.094	0.091
-691.397	103.336	0.106	-0.125
-690.383	-32.228	-0.232	-0.130
-689.368	-145.555	-0.309	-0.028
-688.354	48.826	-0.026	-0.025
-687.339	5.114	-0.200	0.148
-686.324	693.645	-0.079	0.207
-685.310	-200.000	0.033	-0.196
-684.295	114.902	-0.062	0.076
-683.281	13.549	0.303	-0.236
-682.266	87.740	0.331	0.368
-681.251	800.000	0.117	-0.344
-680.237	50.769	-0.107	-0.102
-679.222	-104.622	0.189	-0.044
-678.208	-88.823	-0.260	-0.077
-677.193	-200.000	-0.032	0.218
-676.178	-156.551	-0.303	0.019
-675.164	-200.000	0.026	0.302
-674.149	-78.220	-0.067	-0.023
-673.135	-47.626	0.156	0.076
-672.120	129.470	-0.086	0.110
-671.105	41.821	-0.134	-0.122
-670.091	-134.081	0.102	0.013
-669.076	-92.906	0.197	-0.055
-668.062	-102.390	-0.099	0.024
-667.047	-200.000	-0.003	-0.023
-666.032	-55.565	0.121	-0.054
-665.018	54.831	-0.058	-0.056
-664.003	-98.152	0.093	0.024
-662.989	-79.661	-0.057	0.019
-661.974	-200.000	-0.028	-0.288
-660.959	-140.136	0.268	-0.028
-659.945	-89.547	-0.391	-0.115
-658.930	25.854	-0.126	-0.106
-657.916	133.114	-0.090	-0.117
-656.901	-67.495	-0.185	0.073
-655.886	-80.558	-0.267	0.089
-654.872	-200.000	-0.148	0.000
-653.857	-71.469	-0.164	-0.062
-652.843	-135.607	-0.191	0.023
-651.828	-197.090	-0.358	-0.002
-650.814	83.047	-0.184	-0.201
-649.799	115.191	0.060	-0.074
-648.784	-136.529	0.108	-0.013
-647.770	-200.000	-0.006	-0.196
-646.755	-95.511	-0.474	-0.127
-645.741	-44.780	0.246	0.123
-644.726	-3.854	0.157	-0.109
-643.711	195.325	-0.093	-0.142
-642.697	-144.962	0.571	-0.052
-641.682	-200.000	-0.023	0.374
-640.668	-200.000	0.031	0.183
-639.653	-131.068	-0.110	-0.015
-638.638	800.000	-0.008	-0.023
-637.624	265.441	-0.151	-0.264
-636.609	14.530	0.166	-0.130
-635.595	800.000	-0.064	-0.258
-634.580	-85.743	-0.202	-0.063
-633.565	-200.000	0.050	0.240
-632.551	-200.000	0.023	0.256
-631.536	-51.311	-0.093	0.044
-630.522	-200.000	0.020	0.181
-629.507	-200.000	0.010	0.160
-628.492	47.163	0.044	0.041
-627.478	91.009	0.085	0.095
-626.463	338.601	-0.020	0.039
-625.449	-200.000	0.020	-0.248
-624.434	-83.931	-0.281	-0.090
-623.419	337.973	0.039	0.076
-622.405	-2.556	0.052	0.036
-621.390	-1.613	0.097	0.068
-620.376	482.805	0.039	0.089
-619.361	-174.141	-0.033	-0.001
-618.346	-200.000	0.016	-0.074
-617.332	-134.698	-0.367	0.045
-616.317	-69.357	-0.201	-0.077
-615.303	800.000	0.078	-0.261
-614.288	133.080	0.192	-0.249
-613.273	123.708	0.169	-0.213
-612.259	-200.000	-0.033	-0.308
-611.244	-200.000	0.031	-0.172
-610.230	-9.250	-0.072	-0.048
-609.215	800.000	0.100	0.410
-608.201	7.672	0.150	-0.112
-607.186	800.000	0.028	0.096
-606.171	167.938	-0.139	-0.199
-605.157	-200.000	0.012	-0.186
-604.142	728.116	0.152	-0.406
-603.128	139.401	-0.053	0.070
-602.113	209.169	0.166	0.260
-601.098	328.948	-0.157	-0.302
-600.084	187.892	0.134	-0.201
-599.069	-26.986	-0.048	0.028
-598.055	-44.907	-0.104	-0.052
-597.040	62.452	0.240	-0.240
-596.025	800.000	0.072	-0.274
-595.011	265.829	-0.097	-0.169
-593.996	-98.579	-0.211	0.054
-592.982	84.537	0.112	0.123
-591.967	561.210	0.121	0.294
-590.952	-67.316	-0.309	0.122
-589.938	244.183	0.062	-0.103
-588.923	-142.863	-0.138	0.013
-587.909	199.919	-0.183	-0.281
-586.894	-112.689	-0.058	-0.011
-585.879	-52.921	0.039	0.018
-584.865	94.319	0.328	-0.373
-583.850	-33.038	-0.108	-0.060
-582.836	621.145	-0.067	-0.167
-581.821	800.000	-0.106	-0.370
-580.806	-200.000	-0.069	-0.582
-579.792	-9.177	-0.105	-0.071
-578.777	-24.233	0.306	0.183
-577.763	-32.206	-0.367	0.205
-576.748	78.882	-0.217	0.233
-575.733	-200.000	0.026	-0.520
-574.719	-18.440	-0.185	0.116
-573.704	-28.245	-0.177	-0.103
-572.690	-80.909	0.186	0.062
-571.675	-180.686	0.411	-0.008
-570.661	266.587	0.126	0.220
-569.646	-200.000	0.036	-0.191
-568.631	-141.333	-0.224	-0.023
-567.617	445.823	-0.108	0.238
-566.602	473.516	-0.099	-0.223
-565.588	-200.000	-0.060	0.322
-564.573	189.281	-0.180	-0.269
-563.558	-200.000	-0.046	-0.539
-562.544	206.620	0.118	0.184
-561.529	245.717	0.239	0.402
-560.515	-138.234	-0.205	0.023
-559.500	-200.000	-0.098	0.439
-558.485	148.865	-0.037	0.049
-557.471	-200.000	0.005	-0.064
-556.456	-96.360	-0.222	0.059
-555.442	-79.783	0.357	-0.120
-554.427	-13.930	0.238	0.154
-553.412	107.720	0.125	-0.149
-552.398	168.573	-0.081	-0.115
-551.383	-35.945	-0.218	-0.118
-550.369	8.447	-0.168	-0.126
-549.354	572.468	0.058	0.142
-548.339	-200.000	-0.033	0.383
-547.325	406.458	-0.033	0.070
-546.310	197.395	0.129	-0.197
-545.296	-200.000	0.053	-0.353
-544.281	78.092	-0.152	0.162
-543.266	94.395	0.302	0.343
-542.252	-71.090	0.105	0.039
-541.237	-24.872	0.290	-0.172
-540.223	-34.999	0.447	-0.243
-539.208	800.000	-0.029	-0.087
-538.193	181.508	0.176	0.259
-537.179	800.000	-0.052	-0.223
-536.164	-200.000	-0.021	-0.162
-535.150	10.925	0.178	-0.136
-534.135	101.975	0.116	0.136
-533.121	-107.785	-0.357	-0.078
-532.106	-200.000	0.032	-0.148
-531.091	800.000	-0.043	-0.138
-530.077	-79.222	0.105	-0.036
-529.062	-66.503	-0.253	0.100
-528.048	-200.000	-0.022	0.120
-527.033	30.276	0.121	0.103
-526.018	-163.188	0.258	0.012
-525.004	-8.764	-0.330	0.221
-523.989	166.675	-0.110	0.156
-522.975	39.045	-0.062	-0.056
-521.960	25.955	-0.130	-0.108
-520.945	-63.886	-0.253	-0.103
-519.931	317.354	0.095	-0.180
-518.916	-200.000	-0.020	0.120
-517.902	-200.000	0.025	0.226
-516.887	-200.000	0.020	0.290
-515.872	-62.134	-0.499	0.208
-514.858	65.926	0.332	0.336
-513.843	-200.000	0.009	-0.185
-512.829	22.000	-0.220	-0.179
-511.814	800.000	0.077	-0.224
-510.799	96.252	0.235	0.269
-509.785	800.000	0.047	-0.139
-508.770	-65.925	0.189	-0.076
-507.756	72.442	0.270	0.281
-506.741	-66.840	0.336	-0.132
-505.726	422.151	-0.243	-0.521
-504.712	93.197	0.010	-0.011
-503.697	800.000	-0.100	0.288
-502.683	-200.000	0.013	-0.061
-501.668	295.245	0.017	-0.031
-500.653	74.442	-0.075	0.078
-499.639	-190.967	-0.191	0.002
-498.624	39.938	0.300	0.269
-497.610	-153.499	-0.175	0.012
-496.595	651.343	-0.106	-0.272
-495.581	800.000	0.060	-0.233
-494.566	-149.323	0.320	0.025
-493.551	348.661	0.096	-0.188
-492.537	800.000	-0.084	-0.354
-491.522	-200.000	0.016	0.158
-490.508	-62.168	0.277	0.115
-489.493	344.778	-0.093	-0.181
-488.478	-112.879	0.166	-0.033
-487.464	287.757	0.040	-0.072
-486.449	-58.501	-0.243	-0.105
-485.435	309.669	-0.178	0.332
-484.420	-200.000	0.031	0.469
-483.405	789.732	0.068	0.186
-482.391	-10.049	0.225	-0.149
-481.376	132.567	0.098	-0.126
-480.362	-89.215	-0.489	-0.144
-479.347	-200.000	-0.005	-0.103
-478.332	-64.172	0.312	-0.127
-477.318	165.628	-0.093	0.132
-476.303	184.485	-0.209	0.308
-475.289	26.452	-0.072	-0.060
-474.274	-34.162	-0.207	-0.113
-473.259	-154.607	0.249	-0.017
-472.245	119.854	-0.169	-0.209
-471.230	114.375	-0.205	-0.249
-470.216	-200.000	-0.015	-0.246
-469.201	-200.000	0.018	0.137
-468.186	333.895	-0.044	0.085
-467.172	-14.459	0.195	-0.125
-466.157	327.076	-0.072	-0.138
-465.143	-200.000	-0.011	-0.144
-464.128	27.647	-0.183	0.154
-463.113	6.218	-0.161	-0.119
-462.099	503.048	0.168	0.388
-461.084	71.001	0.024	-0.025
-460.070	-200.000	-0.072	-0.397
-459.055	-79.988	0.214	-0.072
-458.040	468.194	0.125	0.279
-457.026	-130.485	-0.268	0.036
-456.011	360.830	-0.042	0.085
-454.997	-200.000	0.015	0.423
-453.982	-87.047	0.191	0.058
-452.968	-200.000	-0.036	0.242
-451.953	111.118	0.045	0.054
-450.938	196.764	0.042	0.064
-449.924	95.951	-0.189	-0.215
-448.909	-119.022	0.209	-0.036
-447.895	771.027	-0.055	0.150
-446.880	-1.711	-0.128	0.090
-445.865	-118.503	0.275	0.049
-444.851	-200.000	0.025	-0.272
-443.836	-200.000	0.027	-0.143
-442.822	652.465	-0.072	0.183
-441.807	-144.915	-0.123	-0.011
-440.792	800.000	0.080	0.316
-439.778	-80.817	0.169	-0.056
-438.763	-120.991	0.099	-0.017
-437.749	800.000	-0.037	0.134
-436.734	-126.296	0.287	0.043
-435.719	-158.661	-0.116	-0.007
-434.705	274.918	0.106	-0.186
-433.690	-35.154	-0.111	0.060
-432.676	-200.000	-0.025	0.385
-431.661	68.511	0.196	-0.200
-430.646	800.000	0.082	-0.240
-429.632	29.544	-0.238	-0.201
-428.617	288.355	-0.135	0.243
-427.603	800.000	-0.040	0.136
-426.588	179.295	-0.098	-0.143
-425.573	-200.000	-0.020	0.237
-424.559	-40.301	0.157	-0.081
-423.544	321.798	0.083	0.156
-422.530	261.149	-0.103	-0.178
-421.515	284.995	0.167	0.300
-420.500	-200.000	0.015	0.131
-419.486	-200.000	0.008	0.277
-418.471	-73.136	0.082	0.030
-417.457	77.036	-0.041	0.043
-416.442	20.799	0.097	-0.078
-415.428	387.686	0.210	0.431
-414.413	-106.234	0.224	-0.050
-413.398	800.000	0.027	-0.083
-412.384	-137.360	0.169	0.019
-411.369	419.386	-0.046	-0.099
-410.355	-55.249	-0.177	-0.079
-409.340	420.879	0.078	0.167
-408.325	499.393	0.018	-0.042
-407.311	147.868	-0.136	-0.183
-406.296	13.944	0.125	0.097
-405.282	682.747	-0.075	0.194
-404.267	533.523	0.032	-0.076
-403.252	-65.429	-0.172	0.069
-402.238	-200.000	0.012	-0.182
-401.223	43.218	0.242	-0.219
-400.209	27.810	-0.143	-0.120
-399.194	-72.891	-0.480	-0.175
-398.179	-94.705	0.269	0.073
-397.165	536.036	0.011	-0.026
-396.150	189.450	0.131	0.195
-395.136	458.210	0.143	-0.316
-394.121	515.631	-0.030	-0.070
-393.106	-85.534	-0.173	0.054
-392.092	-85.327	-0.049	0.015
-391.077	-88.765	0.106	0.031
-390.063	-200.000	0.015	0.067
-389.048	-81.896	0.113	-0.037
-388.033	29.277	0.112	-0.094
-387.019	-102.552	0.088	0.021
-386.004	-84.315	-0.444	-0.140
-384.990	265.436	0.085	-0.147
-383.975	231.677	0.165	-0.269
-382.960	40.654	-0.166	0.149
-381.946	-57.935	0.021	0.009
-380.931	-200.000	0.007	-0.055
-379.917	141.027	0.156	0.205
-378.902	-61.086	-0.182	0.076
-377.888	-134.150	-0.252	0.031
-376.873	-65.873	-0.082	0.032
-375.858	106.479	0.077	0.091
-374.844	800.000	-0.069	0.266
-373.829	-43.049	-0.412	-0.207
-372.815	132.131	-0.237	-0.303
-371.800	-200.000	0.007	0.193
-370.785	13.814	0.141	0.109
-369.771	-146.026	-0.241	0.021
-368.756	-200.000	-0.011	0.126
-367.742	-136.447	0.281	0.032
-366.727	800.000	-0.052	-0.193
-365.712	-200.000	-0.016	0.279
-364.698	-165.850	-0.376	0.016
-363.683	72.703	0.331	0.342
-362.669	259.909	0.156	0.267
-361.654	73.815	-0.232	0.241
-360.639	-34.441	0.042	0.023
-359.625	102.810	0.036	0.042
-358.610	-74.174	0.090	0.032
-357.596	-45.699	-0.225	0.110
-356.581	-123.862	-0.448	0.070
-355.566	-90.169	0.039	0.011
-354.552	-200.000	0.002	-0.018
-353.537	70.128	-0.128	0.132
-352.523	26.021	-0.286	0.236
-351.508	-85.028	0.074	-0.023
-350.493	-111.491	0.089	-0.018
-349.479	278.256	0.106	-0.188
-348.464	-39.441	0.372	0.193
-347.450	-79.265	0.150	-0.050
-346.435	-63.513	0.179	-0.073
-345.420	250.665	0.154	-0.259
-344.406	-118.554	-0.310	0.054
-343.391	-200.000	-0.026	-0.195
-342.377	-97.965	0.092	0.023
-341.362	3.260	-0.227	-0.164
-340.348	800.000	-0.068	0.192
-339.333	53.104	-0.186	-0.177
-338.318	-200.000	0.007	-0.292
-337.304	0.214	-0.253	-0.179
-336.289	216.302	-0.095	0.149
-335.275	63.027	-0.061	-0.060
-334.260	-46.118	0.053	0.026
-333.245	218.590	0.177	0.280
-332.231	-123.357	0.279	0.044
-331.216	-124.301	-0.268	0.041
-330.202	800.000	-0.067	0.226
-329.187	-91.218	0.168	-0.048
-328.172	-52.651	0.309	-0.141
-327.158	337.171	-0.113	0.218
-326.143	-200.000	-0.036	-0.183
-325.129	800.000	-0.057	0.232
-324.114	227.602	0.160	-0.258
-323.099	141.724	0.085	-0.111
-322.085	-104.264	0.181	-0.042
-321.070	660.951	0.039	-0.101
-320.056	800.000	0.051	-0.188
-319.041	641.188	-0.159	-0.402
-318.026	351.151	0.159	0.312
-317.012	-200.000	-0.027	0.127
-315.997	-94.685	0.209	-0.056
-314.983	-10.734	-0.175	-0.115
-313.968	-200.000	-0.017	0.191
-312.953	-127.254	-0.111	-0.016
-311.939	326.455	0.050	0.095
-310.924	39.730	0.243	-0.215
-309.910	167.902	0.113	0.159
-308.895	16.918	0.017	0.013
-307.880	-120.235	0.137	-0.023
-306.866	120.131	-0.140	-0.172
-305.851	357.193	0.175	-0.345
-304.837	-170.032	0.204	0.007
-303.822	762.996	-0.053	0.143
-302.807	800.000	0.083	-0.245
-301.793	-40.844	-0.281	-0.144
-300.778	-61.585	0.484	0.201
-299.764	472.624	-0.083	-0.186
-298.749	182.050	-0.160	0.234
-297.735	6.921	-0.183	0.135
-296.720	80.996	0.103	0.110
-295.705	409.386	0.067	0.140
-294.691	-57.045	-0.209	0.091
-293.676	659.982	-0.098	-0.250
-292.662	800.000	0.129	-0.388
-291.647	-200.000	0.074	-0.477
-290.632	124.019	0.064	-0.079
-289.618	-85.189	-0.142	-0.044
-288.603	-112.900	0.385	-0.075
-287.589	252.621	0.011	0.018
-286.574	-133.335	0.235	0.029
-285.559	63.722	0.294	0.292
-284.545	88.910	-0.226	0.249
-283.530	-116.596	-0.088	-0.016
-282.516	12.176	-0.248	0.189
-281.501	-15.533	0.130	-0.082
-280.486	-200.000	-0.057	0.300
-279.472	185.276	0.203	0.298
-278.457	-43.684	-0.218	-0.109
-277.443	-200.000	0.005	-0.021
-276.428	228.305	-0.167	0.269
-275.413	800.000	-0.058	-0.167
-274.399	32.167	-0.104	0.089
-273.384	800.000	-0.020	-0.083
-272.370	-121.079	0.251	-0.042
-271.355	-1.873	-0.047	0.032
-270.340	-14.441	-0.071	-0.045
-269.326	193.701	-0.083	0.124
-268.311	329.576	-0.104	0.197
-267.297	50.457	0.135	-0.126
-266.282	-85.693	-0.057	0.017
-265.267	497.499	0.090	-0.204
-264.253	800.000	0.054	-0.198
-263.238	-200.000	-0.033	-0.241
-262.224	800.000	-0.077	-0.278
-261.209	301.388	0.067	-0.122
-260.195	-89.071	0.098	-0.029
-259.180	800.000	-0.033	0.100
-258.165	-103.670	-0.234	0.054
-257.151	23.850	0.227	-0.185
-256.136	-50.305	-0.213	-0.099
-255.122	-24.115	-0.034	-0.020
-254.107	54.963	-0.230	0.219
-253.092	109.803	0.109	-0.129
-252.078	221.529	-0.128	0.203
-251.063	37.923	0.303	0.266
-250.049	-91.974	0.127	0.036
-249.034	-3.892	0.145	0.099
-248.019	-75.044	0.120	0.042
-247.005	-63.181	-0.211	-0.086
-245.990	-184.294	0.104	0.002
-244.976	-35.713	-0.440	0.236
-243.961	762.522	0.047	0.126
-242.946	-80.329	-0.072	-0.024
-241.932	-200.000	0.024	-0.143
-240.917	-200.000	-0.029	-0.135
-239.903	-200.000	0.033	-0.152
-238.888	582.048	0.153	0.371
-237.873	800.000	-0.012	-0.036
-236.859	-13.915	0.246	0.157
-235.844	-200.000	0.003	-0.209
-234.830	-38.498	-0.258	-0.135
-233.815	283.380	0.169	-0.301
-232.800	-58.575	-0.051	-0.022
-231.786	-53.004	-0.145	0.066
-230.771	-35.817	0.386	0.206
-229.757	-127.206	0.096	-0.014
-228.742	-71.068	-0.226	0.084
-227.727	53.959	0.109	0.104
-226.713	224.984	0.158	-0.252
-225.698	-117.009	-0.042	-0.007
-224.684	800.000	-0.037	0.115
-223.669	13.884	0.187	-0.144
-222.655	-92.547	-0.127	-0.035
-221.640	-114.022	-0.079	0.015
-220.625	-99.817	0.027	-0.007
-219.611	-5.535	0.235	0.159
-218.596	-66.929	0.138	-0.054
-217.582	193.017	-0.059	0.087
-216.567	-135.879	-0.141	0.016
-215.552	-200.000	0.008	0.251
-214.538	58.181	-0.296	0.286
-213.523	-167.473	0.254	-0.010
-212.509	-43.982	-0.287	0.142
-211.494	-169.379	0.080	-0.003
-210.479	63.226	0.216	0.214
-209.465	-63.161	-0.135	0.055
-208.450	120.683	-0.083	0.102
-207.436	41.081	0.290	0.259
-206.421	17.645	-0.195	-0.153
-205.406	-14.142	-0.206	-0.131
-204.392	800.000	0.096	0.371
-203.377	-66.810	0.237	-0.093
-202.363	263.563	-0.188	-0.322
-201.348	186.877	0.060	0.088
-200.333	-200.000	-0.005	-0.031
-199.319	518.386	-0.123	-0.285
-198.304	-200.000	-0.018	0.215
-197.290	-123.204	-0.101	0.016
-196.275	316.359	0.028	-0.053
-195.260	-176.297	-0.383	0.010
-194.246	800.000	-0.046	0.159
-193.231	800.000	-0.040	-0.113
-192.217	-72.130	-0.134	0.049
-191.202	757.167	-0.089	0.239
-190.187	-107.672	-0.098	-0.021
-189.173	54.832	0.154	-0.146
-188.158	208.543	-0.149	-0.229
-187.144	-3.948	-0.200	0.137
-186.129	286.254	0.044	0.078
-185.114	10.621	0.173	0.130
-184.100	9.235	0.174	-0.130
-183.085	-140.786	0.103	-0.010
-182.071	800.000	-0.085	-0.250
-181.056	-71.620	0.209	-0.077
-180.042	-200.000	0.041	0.226
-179.027	800.000	0.040	0.121
-178.012	800.000	0.079	0.299
-176.998	-102.526	0.193	0.046
-175.983	-67.248	-0.403	0.156
-174.969	56.286	-0.207	0.198
-173.954	-38.837	0.405	0.210
-172.939	131.727	-0.043	0.054
-171.925	115.163	0.208	0.250
-170.910	-200.000	-0.048	0.333
-169.896	-81.246	0.167	-0.054
-168.881	-200.000	-0.024	-0.276
-167.866	125.226	-0.029	-0.036
-166.852	-146.512	0.226	0.019
-165.837	112.348	0.058	0.070
-164.823	-28.372	-0.043	-0.024
-163.808	-110.805	-0.277	-0.056
-162.793	113.529	-0.101	0.121
-161.779	365.757	-0.111	-0.220
-160.764	-200.000	-0.002	0.049
-159.750	-97.124	-0.189	0.049
-158.735	-200.000	-0.037	-0.191
-157.720	-152.700	-0.248	0.017
-156.706	-31.975	0.256	0.141
-155.691	3.878	-0.195	-0.140
-154.677	-41.232	-0.219	0.111
-153.662	800.000	0.049	-0.204
-152.647	111.733	-0.113	0.135
-151.633	-200.000	-0.017	0.128
-150.618	-200.000	0.010	-0.103
-149.604	-73.220	0.155	0.056
-148.589	43.037	-0.132	0.118
-147.574	92.425	-0.035	-0.039
-146.560	331.702	0.025	-0.047
-145.545	-19.681	0.281	0.171
-144.531	770.029	0.097	0.259
-143.516	800.000	0.083	0.248
-142.502	-187.796	0.420	0.005
-141.487	385.297	-0.213	-0.432
-140.472	-90.750	-0.285	-0.081
-139.458	-105.763	0.096	0.021
-138.443	-158.890	-0.163	0.009
-137.429	-1.582	-0.133	-0.092
-136.414	131.255	-0.127	0.161
-135.399	-76.446	0.162	0.056
-134.385	289.850	-0.141	0.252
-133.370	800.000	0.106	0.323
-132.356	-129.224	-0.145	0.020
-131.341	-200.000	-0.088	0.429
-130.326	83.755	-0.191	0.205
-129.312	-200.000	-0.082	0.405
-128.297	-200.000	-0.004	0.097
-127.283	351.557	0.065	-0.127
-126.268	149.355	0.073	-0.097
-125.253	-83.853	0.039	-0.012
-124.239	181.628	-0.152	-0.220
-123.224	124.950	0.119	-0.148
-122.210	177.812	-0.177	-0.254
-121.195	48.395	-0.168	-0.154
