DTS Sentinel unit serial number:	SN413079Multiplexer serial number:	ORYXHardware model number:	OX4-SRSoftware version number:	ORYX F/W v4.00 Oryx Data Collector v3.7.2.0data status	okinstallation	princeton_trtdifferential loss correction	single-endedforward channel	channel 4reverse channel	N/Adate	2019/09/14time	19:01:35forward acquisition time	60.00reverse acquisition time	0.00gamma	496.2192k internal	0.2301k external	0.2301temperature offset calibration	1.0097default loss term (dB/km)	0.3790temperature slope calibration	1.0000multiplexer offset coefficient	1.0000multiplexer slope coefficient	1.0000fibre end	0.00T internal ref (°C)	35.59T ext. ref 1 (°C)	4.86T ext. ref 2 (°C)	29.46length (m)	temperature (°C)	Stokes	anti-Stokes-747.200	49.243	0.170	0.163
-746.185	-139.572	-0.060	0.007
-745.171	117.009	0.101	-0.126
-744.156	-89.610	0.049	-0.015
-743.142	152.350	0.046	-0.065
-742.127	-14.463	-0.242	0.159
-741.112	48.466	-0.100	-0.095
-740.098	507.145	0.072	0.170
-739.083	147.904	-0.177	0.244
-738.069	-200.000	0.024	0.310
-737.054	625.432	0.084	-0.216
-736.039	40.763	-0.039	0.035
-735.025	800.000	0.040	0.147
-734.010	800.000	-0.056	-0.213
-732.996	52.638	-0.042	-0.041
-731.981	15.858	0.071	0.057
-730.966	-91.166	-0.188	-0.055
-729.952	-200.000	0.014	-0.071
-728.937	-200.000	-0.162	0.000
-727.923	12.197	0.111	-0.087
-726.908	-200.000	0.020	0.221
-725.894	20.672	0.164	-0.135
-724.879	44.359	0.144	-0.134
-723.864	44.347	0.301	0.281
-722.850	26.266	-0.146	0.124
-721.835	116.384	-0.178	0.222
-720.821	800.000	0.061	-0.258
-719.806	-200.000	-0.044	-0.282
-718.791	800.000	0.037	0.151
-717.777	-195.526	0.096	0.001
-716.762	18.404	-0.138	-0.112
-715.748	-200.000	0.029	0.210
-714.733	85.638	0.035	-0.040
-713.718	248.820	0.063	0.109
-712.704	-200.000	-0.014	-0.171
-711.689	451.109	-0.037	0.083
-710.675	-4.761	-0.163	-0.114
-709.660	-136.485	-0.342	-0.040
-708.645	670.950	0.085	0.224
-707.631	65.510	0.272	-0.281
-706.616	-95.342	0.137	0.037
-705.602	-11.734	-0.319	-0.213
-704.587	-13.168	-0.175	0.116
-703.572	-61.766	0.528	0.225
-702.558	-126.297	0.193	-0.029
-701.543	-30.914	-0.398	-0.229
-700.529	259.750	-0.025	0.044
-699.514	-69.101	-0.105	-0.041
-698.499	83.668	0.052	-0.058
-697.485	-58.000	0.272	0.121
-696.470	153.821	0.055	0.077
-695.456	-124.330	-0.340	0.054
-694.441	-12.156	0.301	0.200
-693.426	2.260	0.158	0.116
-692.412	800.000	0.076	-0.219
-691.397	188.741	-0.184	-0.280
-690.383	-39.510	0.264	-0.141
-689.368	-58.716	0.231	0.102
-688.354	34.695	0.200	0.178
-687.339	-88.878	-0.305	0.092
-686.324	800.000	-0.045	0.174
-685.310	-65.989	0.084	-0.034
-684.295	-74.365	0.087	0.032
-683.281	-200.000	-0.003	-0.062
-682.266	478.420	0.095	0.219
-681.251	167.293	-0.238	-0.343
-680.237	-31.273	0.266	-0.152
-679.222	99.178	0.133	-0.156
-678.208	73.560	0.149	0.159
-677.193	223.460	-0.084	0.138
-676.178	800.000	0.013	0.041
-675.164	-200.000	0.026	-0.232
-674.149	800.000	-0.039	0.149
-673.135	4.704	-0.092	-0.069
-672.120	-11.057	0.107	-0.072
-671.105	-71.119	0.351	-0.134
-670.091	-4.086	0.266	-0.187
-669.076	282.244	0.113	0.207
-668.062	137.083	-0.229	0.304
-667.047	-170.630	0.425	0.015
-666.032	-109.537	-0.115	0.025
-665.018	-86.482	0.143	0.045
-664.003	-200.000	0.024	0.372
-662.989	-17.825	-0.284	-0.181
-661.974	-200.000	-0.032	-0.300
-660.959	400.353	0.042	0.090
-659.945	-72.538	-0.188	0.071
-658.930	124.004	-0.173	-0.220
-657.916	-200.000	0.057	-0.321
-656.901	18.454	0.115	-0.093
-655.886	800.000	-0.052	0.147
-654.872	572.538	-0.015	-0.037
-653.857	63.587	-0.154	-0.157
-652.843	-61.716	-0.128	0.055
-651.828	-96.568	0.323	-0.087
-650.814	636.840	0.091	-0.234
-649.799	-6.564	-0.192	-0.133
-648.784	93.984	-0.110	0.127
-647.770	364.965	-0.083	0.170
-646.755	8.112	0.300	0.229
-645.741	800.000	0.053	0.186
-644.726	-114.901	0.368	-0.071
-643.711	-32.276	-0.257	-0.146
-642.697	-40.107	0.180	0.095
-641.682	152.046	-0.073	0.101
-640.668	84.587	0.337	-0.375
-639.653	37.886	0.350	0.316
-638.638	364.144	-0.040	-0.082
-637.624	36.940	-0.158	-0.142
-636.609	-115.757	0.392	0.075
-635.595	-2.370	0.066	-0.047
-634.580	-200.000	0.003	-0.093
-633.565	800.000	-0.105	-0.302
-632.551	-71.641	-0.270	-0.102
-631.536	299.749	-0.117	-0.218
-630.522	-200.000	0.003	-0.156
-629.507	800.000	0.020	0.064
-628.492	-66.888	-0.382	-0.153
-627.478	-19.268	-0.162	0.102
-626.463	384.119	-0.118	-0.246
-625.449	-87.353	0.244	0.075
-624.434	-50.383	-0.299	-0.143
-623.419	23.096	0.126	-0.105
-622.405	19.775	-0.283	0.231
-621.390	-47.334	-0.126	0.062
-620.376	-49.943	-0.224	-0.108
-619.361	-139.254	-0.109	0.012
-618.346	-56.991	-0.161	-0.072
-617.332	507.717	-0.063	0.149
-616.317	728.237	-0.045	0.122
-615.303	-29.427	-0.184	0.107
-614.288	11.718	0.357	0.278
-613.273	-112.870	-0.275	-0.055
-612.259	7.599	-0.247	-0.187
-611.244	496.531	0.041	0.096
-610.230	20.859	-0.172	-0.141
-609.215	60.045	-0.105	-0.105
-608.201	534.336	-0.017	0.040
-607.186	-143.332	0.214	0.021
-606.171	-200.000	-0.052	0.284
-605.157	276.758	-0.187	-0.338
-604.142	13.205	0.158	-0.124
-603.128	-76.683	-0.158	0.056
-602.113	-28.268	-0.437	-0.256
-601.098	-88.256	0.092	-0.028
-600.084	-71.476	-0.181	0.069
-599.069	406.599	-0.068	0.145
-598.055	-133.583	0.315	-0.040
-597.040	799.349	-0.147	-0.410
-596.025	-138.149	0.206	0.023
-595.011	-200.000	-0.004	-0.113
-593.996	800.000	-0.040	0.175
-592.982	800.000	0.067	-0.216
-591.967	230.247	0.135	0.223
-590.952	-200.000	-0.025	-0.161
-589.938	-36.618	-0.185	0.101
-588.923	-127.756	-0.238	-0.035
-587.909	32.463	0.237	-0.207
-586.894	800.000	-0.055	0.163
-585.879	29.775	-0.131	-0.113
-584.865	19.672	-0.029	-0.024
-583.850	800.000	-0.051	-0.157
-582.836	314.675	0.130	0.248
-581.821	800.000	-0.099	-0.331
-580.806	32.891	-0.050	-0.044
-579.792	-200.000	0.030	0.187
-578.777	-200.000	-0.004	-0.112
-577.763	224.405	-0.138	-0.227
-576.748	-49.360	0.260	-0.126
-575.733	-200.000	-0.018	-0.096
-574.719	-67.821	-0.208	0.082
-573.704	69.089	0.223	0.233
-572.690	-142.689	-0.126	0.012
-571.675	237.460	-0.057	-0.096
-570.661	-64.910	-0.280	0.115
-569.646	-96.192	-0.114	0.031
-568.631	18.359	0.098	-0.079
-567.617	135.428	-0.090	0.119
-566.602	-194.716	-0.131	-0.001
-565.588	-44.145	0.207	0.105
-564.573	58.538	0.177	0.176
-563.558	-200.000	0.033	0.149
-562.544	-200.000	0.018	0.389
-561.529	268.592	0.196	-0.348
-560.515	-50.700	-0.100	-0.047
-559.500	71.434	0.181	-0.191
-558.485	-164.194	-0.111	0.005
-557.471	800.000	-0.038	-0.154
-556.456	15.434	0.135	0.107
-555.442	-51.888	-0.143	0.067
-554.427	-141.646	-0.138	-0.014
-553.412	-200.000	0.083	0.413
-552.398	696.614	-0.076	-0.203
-551.383	-121.722	-0.114	-0.019
-550.369	-200.000	0.017	-0.177
-549.354	-88.315	-0.140	-0.042
-548.339	632.888	-0.105	-0.269
-547.325	31.285	-0.022	-0.019
-546.310	61.337	-0.097	0.097
-545.296	-147.582	-0.261	0.022
-544.281	-155.914	-0.189	-0.012
-543.266	-200.000	-0.028	0.224
-542.252	-200.000	-0.024	-0.115
-541.237	628.745	-0.053	-0.135
-540.223	800.000	0.012	0.045
-539.208	-148.817	-0.032	0.003
-538.193	-156.174	0.349	0.022
-537.179	-200.000	-0.022	-0.166
-536.164	-197.449	0.236	0.001
-535.150	-22.658	-0.104	-0.064
-534.135	-133.336	0.213	-0.027
-533.121	11.339	-0.321	0.249
-532.106	228.029	-0.072	0.119
-531.091	-200.000	-0.071	-0.461
-530.077	348.114	0.087	0.173
-529.062	-23.287	-0.181	0.110
-528.048	-157.372	0.253	0.015
-527.033	775.262	-0.009	-0.025
-526.018	-143.864	-0.303	-0.029
-525.004	-159.665	-0.173	-0.010
-523.989	-200.000	-0.019	-0.425
-522.975	348.126	0.048	0.096
-521.960	462.600	-0.136	-0.306
-520.945	-134.244	0.104	0.013
-519.931	-70.406	0.284	0.109
-518.916	12.393	-0.095	-0.074
-517.902	80.603	-0.129	-0.141
-516.887	402.205	-0.088	0.186
-515.872	-158.067	-0.262	-0.016
-514.858	19.445	0.250	0.203
-513.843	800.000	0.098	0.299
-512.829	-86.850	-0.272	0.084
-511.814	-143.794	-0.289	0.028
-510.799	-200.000	-0.013	-0.273
-509.785	43.247	0.118	-0.109
-508.770	-63.779	-0.085	0.035
-507.756	262.648	0.158	-0.277
-506.741	253.447	-0.158	-0.273
-505.726	38.984	0.132	0.119
-504.712	-108.463	0.252	0.055
-503.697	166.955	0.171	0.246
-502.683	30.675	0.177	0.153
-501.668	1.413	0.131	0.095
-500.653	-200.000	0.010	0.182
-499.639	-200.000	-0.033	0.158
-498.624	-89.452	0.331	-0.098
-497.610	800.000	0.061	0.215
-496.595	-62.956	0.139	-0.058
-495.581	125.916	0.088	-0.112
-494.566	-32.536	0.094	0.053
-493.551	-178.295	-0.113	-0.003
-492.537	-135.945	0.086	0.010
-491.522	-39.472	-0.298	-0.157
-490.508	-85.404	0.174	0.055
-489.493	-99.730	-0.233	-0.059
-488.478	-83.285	-0.237	0.077
-487.464	-200.000	-0.028	-0.209
-486.449	153.607	0.095	0.131
-485.435	256.272	-0.100	-0.173
-484.420	-37.541	-0.040	-0.021
-483.405	444.080	0.062	0.138
-482.391	-19.639	-0.101	-0.063
-481.376	31.117	0.092	-0.080
-480.362	-147.646	0.200	-0.017
-479.347	-49.401	0.018	-0.009
-478.332	-128.755	-0.268	-0.038
-477.318	676.227	0.028	0.073
-476.303	800.000	-0.104	0.349
-475.289	216.315	-0.058	0.094
-474.274	-106.386	-0.034	-0.008
-473.259	-74.066	-0.102	0.037
-472.245	86.691	-0.178	-0.198
-471.230	-92.604	-0.114	0.032
-470.216	77.768	-0.365	-0.392
-469.201	-109.979	0.270	0.057
-468.186	117.065	-0.084	0.104
-467.172	-102.519	0.061	0.015
-466.157	0.575	-0.279	0.201
-465.143	-92.493	0.283	0.080
-464.128	-65.766	0.186	-0.075
-463.113	-23.903	-0.145	0.088
-462.099	-200.000	-0.019	0.182
-461.084	-108.019	-0.064	-0.014
-460.070	-78.101	-0.444	0.154
-459.055	-200.000	-0.003	-0.192
-458.040	190.814	-0.143	-0.217
-457.026	-76.458	0.250	0.089
-456.011	107.748	0.061	-0.074
-454.997	800.000	-0.039	-0.117
-453.982	-200.000	-0.005	0.047
-452.968	98.014	-0.174	0.202
-451.953	-200.000	0.046	-0.256
-450.938	-5.273	-0.152	0.105
-449.924	800.000	-0.047	0.147
-448.909	3.452	-0.223	0.164
-447.895	18.156	-0.463	0.372
-446.880	83.119	-0.205	-0.225
-445.865	332.647	-0.043	-0.084
-444.851	-122.793	-0.169	-0.028
-443.836	-9.633	0.212	0.143
-442.822	-169.021	0.201	-0.008
-441.807	-59.450	-0.282	0.122
-440.792	-200.000	0.021	-0.288
-439.778	83.904	0.275	-0.303
-438.763	28.037	0.105	-0.089
-437.749	266.445	-0.235	0.414
-436.734	-82.495	0.074	0.024
-435.719	-81.295	0.218	0.072
-434.705	135.277	0.158	0.207
-433.690	-140.560	0.307	-0.032
-432.676	148.357	0.200	-0.272
-431.661	166.602	0.034	-0.049
-430.646	152.873	-0.199	0.274
-429.632	38.338	0.190	-0.171
-428.617	-200.000	0.006	-0.132
-427.603	-200.000	0.009	-0.258
-426.588	0.132	-0.229	-0.164
-425.573	-89.454	-0.248	-0.073
-424.559	55.168	-0.179	0.175
-423.544	800.000	0.082	0.261
-422.530	43.841	-0.092	0.085
-421.515	-200.000	-0.039	0.569
-420.500	16.865	0.130	-0.104
-419.486	207.585	-0.109	-0.172
-418.471	-36.886	0.114	-0.062
-417.457	800.000	-0.032	-0.126
-416.442	17.693	0.190	-0.152
-415.428	-200.000	0.004	-0.067
-414.413	-124.024	-0.277	0.044
-413.398	132.983	-0.140	0.182
-412.384	-16.548	0.371	-0.237
-411.369	311.680	0.195	-0.369
-410.355	-3.977	-0.073	0.051
-409.340	800.000	0.099	-0.335
-408.325	14.615	0.149	0.117
-407.311	-77.169	-0.088	0.031
-406.296	54.112	0.086	-0.083
-405.282	800.000	0.066	-0.239
-404.267	-85.967	0.264	-0.082
-403.252	-200.000	-0.002	0.382
-402.238	777.560	0.082	0.227
-401.223	-63.160	0.129	0.054
-400.209	-200.000	-0.007	-0.098
-399.194	-147.814	-0.167	0.014
-398.179	-69.591	0.222	0.085
-397.165	-200.000	0.036	0.184
-396.150	-4.449	0.505	0.351
-395.136	800.000	-0.075	-0.328
-394.121	-142.842	0.165	-0.016
-393.106	100.020	-0.215	-0.251
-392.092	-200.000	-0.031	0.268
-391.077	750.509	0.104	0.283
-390.063	800.000	0.059	0.202
-389.048	23.689	-0.120	0.099
-388.033	-148.277	-0.138	-0.011
-387.019	45.464	-0.263	-0.244
-386.004	330.778	-0.141	-0.273
-384.990	-71.677	0.611	-0.229
-383.975	-87.219	0.229	-0.070
-382.960	-200.000	-0.032	-0.249
-381.946	-118.925	0.359	0.063
-380.931	8.943	0.222	-0.168
-379.917	-53.085	-0.174	0.080
-378.902	-11.574	0.211	-0.139
-377.888	-22.468	-0.256	-0.156
-376.873	-200.000	-0.053	-0.311
-375.858	68.850	0.188	-0.194
-374.844	800.000	-0.034	-0.137
-373.829	37.998	0.249	-0.222
-372.815	-200.000	0.008	0.136
-371.800	-78.120	0.109	-0.038
-370.785	230.317	-0.081	0.133
-369.771	-200.000	-0.093	-0.551
-368.756	-200.000	-0.008	-0.135
-367.742	-47.674	0.185	-0.090
-366.727	-58.838	-0.231	0.101
-365.712	81.656	-0.156	0.170
-364.698	-110.879	0.617	0.128
-363.683	519.774	-0.113	-0.267
-362.669	321.068	-0.052	-0.099
-361.654	-200.000	0.016	0.284
-360.639	-200.000	0.023	0.108
-359.625	-200.000	0.005	-0.061
-358.610	-87.843	0.189	0.057
-357.596	-46.195	0.365	0.180
-356.581	800.000	-0.089	0.321
-355.566	-200.000	-0.034	0.284
-354.552	-200.000	-0.016	0.290
-353.537	800.000	-0.060	0.250
-352.523	50.167	0.017	-0.016
-351.508	-83.263	-0.093	-0.030
-350.493	19.305	-0.131	-0.105
-349.479	-200.000	-0.102	-0.512
-348.464	-200.000	0.032	-0.190
-347.450	-200.000	0.003	-0.116
-346.435	37.360	0.199	0.177
-345.420	-29.158	-0.081	0.047
-344.406	-73.968	0.176	0.064
-343.391	386.750	0.044	-0.092
-342.377	-0.884	0.162	-0.115
-341.362	162.436	-0.295	0.415
-340.348	400.625	0.068	0.144
-339.333	-200.000	-0.184	0.001
-338.318	-73.518	0.186	-0.068
-337.304	-92.046	-0.175	-0.050
-336.289	-55.896	-0.203	-0.091
-335.275	58.575	-0.103	-0.102
-334.260	-200.000	0.056	0.323
-333.245	-78.022	0.300	0.104
-332.231	721.799	-0.082	0.220
-331.216	-85.312	-0.172	-0.054
-330.202	232.665	0.106	0.175
-329.187	71.769	0.189	-0.197
-328.172	-200.000	-0.017	-0.156
-327.158	800.000	-0.041	-0.164
-326.143	87.596	0.110	0.122
-325.129	-78.551	-0.200	0.069
-324.114	162.367	0.137	-0.193
-323.099	-81.800	-0.108	0.035
-322.085	-28.074	-0.218	0.127
-321.070	141.874	0.156	0.208
-320.056	-115.531	0.109	0.021
-319.041	41.551	-0.023	0.021
-318.026	-200.000	0.054	0.265
-317.012	-20.640	-0.111	-0.069
-315.997	-200.000	-0.067	0.344
-314.983	-57.731	0.145	0.064
-313.968	107.955	0.200	-0.239
-312.953	-200.000	-0.060	-0.491
-311.939	117.626	-0.127	0.157
-310.924	-42.040	-0.366	-0.188
-309.910	284.718	0.124	-0.223
-308.895	-61.266	-0.241	0.102
-307.880	144.368	0.105	-0.141
-306.866	-165.311	0.195	-0.009
-305.851	179.083	-0.115	-0.169
-304.837	201.091	0.044	-0.069
-303.822	585.816	-0.061	0.151
-302.807	-200.000	0.015	0.410
-301.793	-77.912	0.230	0.079
-300.778	-26.446	0.252	0.148
-299.764	-146.598	0.396	-0.034
-298.749	-23.073	-0.123	-0.074
-297.735	50.027	-0.225	-0.212
-296.720	-126.877	-0.114	-0.017
-295.705	-143.106	-0.188	-0.018
-294.691	-200.000	-0.029	-0.236
-293.676	-200.000	-0.002	0.133
-292.662	179.097	0.141	0.207
-291.647	176.056	-0.143	-0.207
-290.632	-200.000	0.289	-0.001
-289.618	-200.000	-0.015	-0.186
-288.603	-200.000	0.041	0.269
-287.589	-29.263	0.243	0.140
-286.574	-200.000	-0.042	0.530
-285.559	800.000	-0.077	-0.260
-284.545	-191.057	0.200	0.002
-283.530	-200.000	0.069	0.320
-282.516	315.821	0.245	0.463
-281.501	-178.843	0.253	0.006
-280.486	243.135	-0.156	0.261
-279.472	178.635	-0.228	0.333
-278.457	-74.062	-0.157	-0.057
-277.443	-25.595	-0.190	-0.112
-276.428	373.739	0.101	0.205
-275.413	499.722	-0.061	0.141
-274.399	-200.000	-0.010	-0.078
-273.384	41.029	-0.188	0.170
-272.370	328.804	-0.252	-0.485
-271.355	496.381	0.054	0.125
-270.340	185.932	0.096	-0.142
-269.326	-68.434	-0.275	-0.107
-268.311	800.000	-0.041	-0.141
-267.297	-117.666	-0.129	-0.023
-266.282	415.521	-0.133	0.284
-265.267	44.344	-0.191	-0.175
-264.253	100.715	0.129	-0.150
-263.238	-140.581	0.157	-0.016
-262.224	122.761	-0.192	0.241
-261.209	-120.751	0.140	0.024
-260.195	-99.073	0.233	-0.059
-259.180	-200.000	0.016	-0.198
-258.165	677.001	0.101	-0.263
-257.151	800.000	-0.070	0.243
-256.136	-152.664	0.150	-0.011
-255.122	580.228	-0.013	-0.033
-254.107	800.000	-0.080	0.285
-253.092	-200.000	-0.046	-0.211
-252.078	-93.584	0.039	0.011
-251.063	-200.000	0.053	0.255
-250.049	800.000	-0.049	0.188
-249.034	-72.677	-0.131	0.048
-248.019	169.511	0.194	0.276
-247.005	-131.729	-0.108	0.014
-245.990	258.305	-0.076	0.130
-244.976	555.303	0.096	0.231
-243.961	138.801	0.025	0.033
-242.946	99.859	0.229	-0.265
-241.932	800.000	-0.095	-0.414
-240.917	-200.000	0.053	-0.336
-239.903	92.579	-0.164	0.185
-238.888	-200.000	-0.017	0.297
-237.873	327.748	0.117	-0.225
-236.859	-173.028	0.355	0.011
-235.844	-200.000	-0.004	0.185
-234.830	-191.028	0.041	0.000
-233.815	74.174	0.071	-0.074
-232.800	343.516	0.030	0.059
-231.786	-88.380	-0.292	0.087
-230.771	-175.447	-0.170	-0.005
-229.757	111.431	0.133	-0.160
-228.742	122.018	-0.180	0.225
-227.727	13.486	0.280	-0.217
-226.713	-109.555	0.249	-0.052
-225.698	-91.329	-0.026	-0.008
-224.684	23.025	0.114	-0.094
-223.669	-161.326	0.585	0.030
-222.655	-200.000	0.032	-0.188
-221.640	-75.805	-0.228	-0.081
-220.625	-200.000	-0.017	-0.216
-219.611	-47.298	-0.344	0.167
-218.596	624.623	0.052	-0.131
-217.582	-108.235	0.336	-0.073
-216.567	153.301	-0.279	-0.382
-215.552	-76.738	0.218	0.076
-214.538	-186.729	-0.146	0.002
-213.523	512.089	-0.143	0.333
-212.509	800.000	0.089	0.261
-211.494	-83.485	0.288	0.092
-210.479	800.000	0.070	0.225
-209.465	12.794	0.085	-0.066
-208.450	-10.450	0.240	0.159
-207.436	-200.000	-0.032	-0.232
-206.421	172.348	-0.044	0.063
-205.406	-109.151	-0.358	-0.076
-204.392	-6.991	0.393	0.266
-203.377	-139.581	0.035	-0.004
-202.363	-200.000	0.028	0.175
-201.348	151.853	-0.224	0.304
-200.333	201.099	0.035	-0.054
-199.319	24.971	0.149	0.123
-198.304	-5.004	0.111	-0.077
-197.290	800.000	0.087	0.256
-196.275	-114.730	0.266	-0.051
-195.260	-126.611	0.068	-0.010
-194.246	-26.847	-0.228	0.133
-193.231	800.000	0.026	0.097
-192.217	-200.000	-0.032	-0.200
-191.202	-14.022	0.198	-0.127
-190.187	-124.941	-0.285	0.044
-189.173	145.724	0.232	0.310
-188.158	242.182	0.090	-0.150
-187.144	104.276	0.059	-0.070
-186.129	800.000	-0.072	-0.235
-185.114	301.844	-0.217	-0.399
-184.100	113.372	0.194	0.234
-183.085	-106.122	0.192	-0.043
-182.071	-200.000	0.012	0.090
-181.056	-89.426	-0.226	-0.066
-180.042	146.112	-0.055	-0.073
-179.027	-94.919	0.313	0.085
-178.012	-45.365	0.104	0.051
-176.998	-200.000	-0.006	0.136
-175.983	-84.637	-0.040	0.012
-174.969	107.819	0.130	0.154
-173.954	52.191	0.201	-0.191
-172.939	-24.233	-0.116	-0.069
-171.925	-121.948	0.268	-0.044
-170.910	-48.116	-0.307	0.148
-169.896	-19.049	0.269	-0.167
-168.881	228.603	0.021	-0.034
-167.866	213.063	-0.146	0.229
-166.852	800.000	0.018	-0.065
-165.837	86.321	-0.148	-0.163
-164.823	60.544	0.064	-0.063
-163.808	15.080	-0.151	0.118
-162.793	43.586	-0.093	-0.085
-161.779	147.656	0.241	0.324
-160.764	-114.932	-0.117	-0.022
-159.750	-19.812	-0.146	0.090
-158.735	800.000	-0.076	-0.245
-157.720	-200.000	-0.009	-0.316
-156.706	385.941	0.087	-0.178
-155.691	-44.621	-0.249	-0.124
-154.677	-37.745	0.040	0.021
-153.662	-162.704	0.076	-0.004
-152.647	-117.225	-0.375	0.068
-151.633	682.927	0.135	0.352
-150.618	106.725	0.052	0.061
-149.604	-169.637	0.278	0.010
-148.589	-200.000	0.026	-0.151
-147.574	536.157	0.006	-0.013
-146.560	176.169	0.207	-0.299
-145.545	378.214	0.062	0.127
-144.531	-100.214	-0.082	0.020
-143.516	494.076	0.091	-0.208
-142.502	67.515	-0.209	-0.213
-141.487	-24.888	-0.326	-0.193
-140.472	53.856	0.204	0.195
-139.458	179.658	-0.141	-0.205
-138.443	206.740	-0.155	-0.240
-137.429	800.000	0.018	-0.055
-136.414	-21.299	0.147	0.089
-135.399	-133.011	-0.328	-0.041
-134.385	-200.000	-0.005	0.030
-133.370	271.936	-0.173	0.303
-132.356	-200.000	-0.076	-0.431
-131.341	-187.002	-0.174	-0.002
-130.326	-111.948	0.361	0.073
-129.312	800.000	-0.123	0.431
-128.297	150.663	0.226	-0.306
-127.283	107.276	0.132	0.156
-126.268	191.346	0.150	0.225
-125.253	798.842	-0.103	0.282
-124.239	-170.525	0.424	0.015
-123.224	800.000	0.063	-0.269
-122.210	-81.772	-0.545	-0.178
-121.195	-30.608	0.165	0.093
