DTS Sentinel unit serial number:	SN413079Multiplexer serial number:	ORYXHardware model number:	OX4-SRSoftware version number:	ORYX F/W v4.00 Oryx Data Collector v3.7.2.0data status	okinstallation	princeton_trtdifferential loss correction	single-endedforward channel	channel 4reverse channel	N/Adate	2019/09/18time	13:29:35forward acquisition time	60.00reverse acquisition time	0.00gamma	496.2192k internal	0.2302k external	0.2302temperature offset calibration	0.9994default loss term (dB/km)	0.3790temperature slope calibration	1.0000multiplexer offset coefficient	1.0000multiplexer slope coefficient	1.0000fibre end	0.00T internal ref (°C)	34.22T ext. ref 1 (°C)	0.61T ext. ref 2 (°C)	30.88length (m)	temperature (°C)	Stokes	anti-Stokes-747.200	-11.698	-0.152	-0.102
-746.185	504.474	-0.077	0.181
-745.171	-116.471	-0.197	0.037
-744.156	-200.000	-0.078	0.361
-743.142	-10.383	-0.167	-0.113
-742.127	-111.922	-0.283	0.058
-741.112	138.078	-0.232	-0.310
-740.098	3.006	-0.317	0.235
-739.083	-200.000	0.040	-0.188
-738.069	122.329	-0.292	0.372
-737.054	-91.912	0.024	0.007
-736.039	-52.324	-0.269	0.127
-735.025	136.251	-0.069	-0.092
-734.010	-59.186	-0.074	0.033
-732.996	431.921	-0.084	-0.186
-731.981	382.901	0.111	-0.232
-730.966	-30.514	0.095	0.055
-729.952	-82.982	-0.498	0.164
-728.937	-179.467	-0.242	0.005
-727.923	-160.421	-0.359	0.020
-726.908	-200.000	-0.013	0.156
-725.894	569.879	0.094	-0.233
-724.879	157.987	0.022	-0.030
-723.864	619.018	-0.114	0.292
-722.850	800.000	0.084	-0.288
-721.835	-200.000	-0.068	0.399
-720.821	122.036	-0.272	-0.346
-719.806	-101.831	-0.375	-0.092
-718.791	-120.346	-0.259	0.045
-717.777	-200.000	0.001	-0.175
-716.762	-128.500	0.116	0.017
-715.748	-111.521	-0.207	0.043
-714.733	50.286	-0.426	-0.410
-713.718	-200.000	-0.001	-0.024
-712.704	-200.000	0.059	0.280
-711.689	-99.337	-0.244	-0.063
-710.675	133.773	0.134	-0.176
-709.660	-200.000	0.008	0.225
-708.645	-85.709	0.239	-0.076
-707.631	58.904	-0.195	0.195
-706.616	345.814	-0.172	0.344
-705.602	-128.825	-0.211	0.030
-704.587	225.633	0.135	-0.223
-703.572	-19.897	0.083	0.052
-702.558	-200.000	0.070	0.319
-701.543	-53.413	-0.167	-0.078
-700.529	758.511	-0.125	0.345
-699.514	533.477	0.120	0.289
-698.499	-200.000	0.057	0.332
-697.485	-169.080	0.269	-0.010
-696.470	28.669	0.220	0.189
-695.456	13.609	0.387	0.305
-694.441	-106.450	-0.098	0.022
-693.426	-200.000	-0.043	0.372
-692.412	8.674	-0.093	0.071
-691.397	-162.134	-0.363	-0.019
-690.383	-200.000	0.000	-0.183
-689.368	-194.037	-0.217	0.002
-688.354	-200.000	-0.073	-0.527
-687.339	-124.034	-0.434	-0.069
-686.324	-200.000	0.032	0.288
-685.310	114.444	0.093	0.116
-684.295	286.783	-0.109	-0.200
-683.281	-95.368	-0.317	-0.087
-682.266	81.864	-0.352	0.387
-681.251	275.165	0.171	-0.307
-680.237	-114.831	-0.228	0.044
-679.222	-200.000	-0.006	0.044
-678.208	135.261	-0.295	0.390
-677.193	-66.081	-0.406	-0.164
-676.178	37.354	-0.307	0.276
-675.164	-194.602	-0.234	-0.002
-674.149	37.109	0.163	0.147
-673.135	-70.584	-0.029	0.011
-672.120	-71.253	0.122	-0.047
-671.105	220.816	-0.162	0.264
-670.091	-8.414	-0.111	0.076
-669.076	-200.000	-0.028	-0.245
-668.062	48.011	-0.081	-0.077
-667.047	170.541	-0.113	-0.164
-666.032	-200.000	-0.029	-0.216
-665.018	-132.416	0.081	0.011
-664.003	-71.417	0.067	-0.025
-662.989	462.407	-0.118	0.269
-661.974	35.675	-0.165	0.148
-660.959	227.252	-0.034	0.057
-659.945	-40.110	-0.147	0.078
-658.930	444.381	0.103	-0.230
-657.916	-98.296	-0.035	-0.009
-656.901	-11.411	0.145	-0.097
-655.886	800.000	-0.067	-0.199
-654.872	211.696	-0.170	-0.272
-653.857	112.520	0.100	0.123
-652.843	108.460	0.210	0.254
-651.828	470.096	-0.154	-0.352
-650.814	800.000	0.025	0.083
-649.799	-66.495	-0.436	0.176
-648.784	-113.401	0.211	0.042
-647.770	58.355	0.226	0.225
-646.755	110.704	-0.133	-0.162
-645.741	60.857	-0.159	-0.160
-644.726	-31.680	0.360	0.205
-643.711	-102.651	-0.124	-0.030
-642.697	192.281	-0.240	0.367
-641.682	-94.084	-0.337	-0.094
-640.668	109.924	-0.117	-0.143
-639.653	800.000	0.060	0.234
-638.638	-200.000	0.016	-0.106
-637.624	31.252	0.068	-0.060
-636.609	287.300	-0.122	-0.225
-635.595	-200.000	-0.003	-0.253
-634.580	227.985	-0.046	-0.076
-633.565	-134.234	-0.249	-0.031
-632.551	-200.000	0.016	0.075
-631.536	-130.443	0.190	-0.026
-630.522	-200.000	0.016	-0.362
-629.507	-200.000	0.015	0.175
-628.492	-27.633	0.168	-0.099
-627.478	-200.000	-0.018	-0.088
-626.463	800.000	0.077	-0.300
-625.449	800.000	-0.026	0.072
-624.434	156.308	0.181	0.254
-623.419	-121.380	-0.082	0.014
-622.405	-200.000	0.026	0.325
-621.390	88.104	-0.131	0.147
-620.376	-200.000	0.009	-0.176
-619.361	-132.614	-0.228	0.030
-618.346	-95.672	-0.194	-0.053
-617.332	210.913	0.090	0.144
-616.317	800.000	0.133	-0.446
-615.303	-104.601	0.196	0.046
-614.288	159.752	0.064	-0.091
-613.273	-98.989	0.119	0.031
-612.259	262.684	-0.177	0.311
-611.244	537.183	-0.030	-0.073
-610.230	-76.695	-0.136	-0.048
-609.215	145.927	0.197	-0.268
-608.201	-200.000	-0.054	-0.264
-607.186	-47.725	-0.221	0.109
-606.171	54.547	0.066	0.064
-605.157	-120.561	0.176	0.030
-604.142	-200.000	0.026	-0.175
-603.128	167.376	-0.094	-0.135
-602.113	626.598	0.194	-0.495
-601.098	-200.000	0.018	-0.155
-600.084	-123.141	-0.246	-0.040
-599.069	-200.000	-0.044	-0.361
-598.055	-200.000	-0.008	0.051
-597.040	-167.394	-0.184	0.007
-596.025	126.081	-0.208	0.266
-595.011	-93.542	-0.149	-0.042
-593.996	-141.459	0.055	-0.006
-592.982	-114.358	0.260	-0.051
-591.967	-98.582	0.123	0.032
-590.952	-41.090	-0.151	-0.079
-589.938	149.230	0.059	-0.081
-588.923	-131.306	0.315	0.042
-587.909	54.330	-0.077	-0.076
-586.894	11.093	-0.155	0.120
-585.879	56.272	-0.225	0.221
-584.865	800.000	0.085	-0.288
-583.850	163.738	-0.096	0.137
-582.836	-60.478	0.103	0.044
-581.821	7.985	-0.186	-0.142
-580.806	800.000	0.083	-0.282
-579.792	-125.338	0.203	-0.031
-578.777	-104.765	0.106	-0.025
-577.763	800.000	-0.054	-0.170
-576.748	87.060	-0.315	-0.353
-575.733	376.433	-0.157	-0.325
-574.719	560.497	-0.100	0.245
-573.704	177.045	-0.045	-0.067
-572.690	329.740	0.052	0.101
-571.675	-121.860	-0.039	0.006
-570.661	-165.682	0.327	-0.014
-569.646	-200.000	-0.075	0.361
-568.631	-71.725	-0.169	0.064
-567.617	118.250	-0.091	0.113
-566.602	-200.000	-0.025	-0.177
-565.588	38.704	0.229	0.207
-564.573	343.659	0.174	-0.345
-563.558	199.573	0.162	-0.252
-562.544	-61.813	-0.179	0.076
-561.529	142.174	-0.141	-0.189
-560.515	-200.000	-0.005	0.119
-559.500	-189.449	-0.273	-0.003
-558.485	800.000	-0.061	0.250
-557.471	-72.557	-0.184	-0.069
-556.456	32.096	0.220	0.192
-555.442	-17.551	0.212	-0.135
-554.427	-94.736	-0.281	0.077
-553.412	-105.606	-0.623	-0.143
-552.398	-93.883	0.066	-0.018
-551.383	-200.000	-0.013	-0.214
-550.369	90.122	-0.155	0.175
-549.354	57.094	0.045	0.044
-548.339	-128.035	-0.151	-0.022
-547.325	-51.352	-0.086	-0.041
-546.310	-199.498	0.382	-0.002
-545.296	-200.000	-0.007	-0.239
-544.281	800.000	-0.117	0.355
-543.266	525.706	-0.031	0.073
-542.252	327.368	0.101	-0.195
-541.237	134.081	-0.220	-0.288
-540.223	-200.000	0.004	-0.055
-539.208	-98.590	0.170	-0.044
-538.193	8.198	0.320	0.243
-537.179	86.454	-0.208	-0.231
-536.164	-130.558	0.402	-0.055
-535.150	800.000	0.044	0.171
-534.135	-86.807	0.129	0.040
-533.121	-111.641	0.199	0.041
-532.106	317.914	-0.236	-0.452
-531.091	-93.922	0.074	-0.020
-530.077	-200.000	0.022	0.143
-529.062	205.075	0.070	-0.110
-528.048	61.547	0.126	0.127
-527.033	280.434	0.146	0.265
-526.018	-60.626	-0.222	-0.095
-525.004	-95.672	-0.169	0.046
-523.989	-125.626	-0.376	-0.058
-522.975	-95.828	0.293	-0.079
-521.960	14.718	-0.128	0.101
-520.945	-200.000	-0.001	-0.158
-519.931	265.238	0.149	-0.263
-518.916	800.000	0.062	-0.188
-517.902	-200.000	-0.019	-0.180
-516.887	637.467	0.009	0.024
-515.872	102.635	0.068	0.081
-514.858	-200.000	0.000	-0.002
-513.843	-21.218	-0.138	0.085
-512.829	114.423	0.221	0.272
-511.814	92.419	-0.106	0.121
-510.799	172.694	0.116	-0.169
-509.785	578.167	0.086	0.213
-508.770	-200.000	-0.010	-0.207
-507.756	19.820	-0.176	0.143
-506.741	-44.863	0.110	-0.055
-505.726	-200.000	0.025	-0.307
-504.712	-33.301	0.097	0.054
-503.697	-41.259	-0.105	-0.054
-502.683	-200.000	0.036	-0.247
-501.668	-45.211	-0.093	-0.047
-500.653	96.679	-0.390	0.450
-499.639	-32.755	-0.129	0.073
-498.624	-83.334	0.191	-0.062
-497.610	603.208	-0.128	0.322
-496.595	-27.853	-0.352	-0.206
-495.581	-200.000	-0.002	0.283
-494.566	88.489	0.018	0.020
-493.551	-200.000	0.023	-0.199
-492.537	117.767	-0.120	-0.149
-491.522	-35.019	0.065	-0.036
-490.508	29.242	0.076	-0.065
-489.493	46.611	-0.152	0.142
-488.478	22.255	-0.083	-0.068
-487.464	-49.254	-0.194	0.093
-486.449	-20.413	0.173	-0.107
-485.435	779.409	0.009	0.024
-484.420	800.000	0.034	-0.103
-483.405	12.235	0.060	-0.047
-482.391	-163.968	0.097	-0.005
-481.376	79.044	0.234	-0.253
-480.362	-39.504	-0.099	0.052
-479.347	31.958	-0.191	0.166
-478.332	350.256	0.182	0.362
-477.318	126.022	-0.146	-0.186
-476.303	-155.060	0.320	-0.021
-475.289	-200.000	0.086	0.379
-474.274	800.000	0.163	-0.554
-473.259	134.695	0.061	0.080
-472.245	-91.282	-0.122	-0.035
-471.230	240.833	-0.147	-0.247
-470.216	-200.000	-0.007	0.133
-469.201	-84.793	0.265	0.084
-468.186	-21.684	0.286	0.176
-467.172	374.289	-0.122	-0.251
-466.157	22.382	0.153	0.126
-465.143	129.304	0.128	0.165
-464.128	502.706	0.049	0.115
-463.113	-91.749	-0.305	0.087
-462.099	800.000	-0.152	0.479
-461.084	206.193	-0.123	0.193
-460.070	-119.646	0.093	-0.016
-459.055	-200.000	-0.001	-0.242
-458.040	598.154	0.136	0.340
-457.026	-200.000	0.043	0.297
-456.011	-14.006	-0.131	0.085
-454.997	-23.702	-0.304	0.184
-453.982	44.001	0.293	0.271
-452.968	-178.742	0.293	0.007
-451.953	-16.057	0.134	0.086
-450.938	-200.000	-0.011	0.059
-449.924	-86.728	0.240	0.074
-448.909	1.642	0.347	-0.252
-447.895	721.823	-0.087	-0.233
-446.880	-200.000	-0.028	-0.219
-445.865	-200.000	-0.031	-0.171
-444.851	-139.529	0.296	-0.032
-443.836	800.000	-0.008	0.027
-442.822	800.000	-0.033	0.129
-441.807	54.898	-0.323	0.314
-440.792	621.377	0.014	-0.036
-439.778	204.178	-0.080	0.125
-438.763	114.044	0.097	-0.119
-437.749	-174.886	0.107	0.003
-436.734	-41.386	0.256	-0.133
-435.719	-200.000	0.013	0.436
-434.705	-154.916	0.066	-0.004
-433.690	49.921	0.250	-0.237
-432.676	-113.384	0.064	-0.013
-431.661	26.805	-0.078	0.066
-430.646	-183.001	-0.219	0.004
-429.632	6.929	-0.066	-0.050
-428.617	120.039	-0.071	0.088
-427.603	-44.827	-0.119	0.060
-426.588	-200.000	0.055	-0.392
-425.573	-182.189	0.207	0.004
-424.559	-83.861	0.157	0.050
-423.544	-200.000	0.001	-0.012
-422.530	-24.087	-0.049	-0.029
-421.515	-106.079	0.141	0.032
-420.500	180.381	0.160	0.236
-419.486	-200.000	-0.013	-0.242
-418.471	-200.000	-0.023	0.167
-417.457	740.410	0.098	-0.265
-416.442	-110.362	0.203	-0.043
-415.428	84.624	0.071	-0.078
-414.413	415.316	-0.140	0.301
-413.398	-200.000	0.013	-0.194
-412.384	-68.892	0.341	-0.132
-411.369	-19.797	-0.138	0.086
-410.355	-46.719	0.119	0.059
-409.340	606.361	-0.021	0.052
-408.325	6.938	0.253	-0.189
-407.311	-71.067	-0.160	-0.061
-406.296	172.557	0.230	-0.333
-405.282	-72.180	0.405	-0.151
-404.267	43.145	-0.202	-0.185
-403.252	-36.627	-0.263	0.142
-402.238	-179.820	0.058	0.001
-401.223	-54.966	-0.148	-0.067
-400.209	449.575	0.063	-0.139
-399.194	-200.000	-0.240	-0.000
-398.179	525.140	0.080	0.190
-397.165	148.148	-0.014	0.020
-396.150	-200.000	0.030	0.340
-395.136	113.143	0.023	0.028
-394.121	-200.000	0.001	0.081
-393.106	-59.487	-0.236	-0.102
-392.092	191.768	-0.203	0.308
-391.077	-200.000	0.000	-0.104
-390.063	392.492	-0.067	0.139
-389.048	-167.796	-0.544	0.022
-388.033	-200.000	0.043	-0.190
-387.019	800.000	-0.083	-0.315
-386.004	181.230	0.170	-0.251
-384.990	111.426	0.202	0.245
-383.975	75.150	-0.121	-0.128
-382.960	-133.051	0.053	0.007
-381.946	-39.174	-0.108	0.057
-380.931	0.570	0.321	0.231
-379.917	-172.135	-0.337	0.011
-378.902	-73.574	-0.253	-0.093
-377.888	-172.803	0.154	-0.005
-376.873	-168.483	-0.165	-0.006
-375.858	82.030	-0.121	-0.132
-374.844	34.220	0.159	-0.139
-373.829	736.407	0.026	0.069
-372.815	103.816	0.072	-0.085
-371.800	-200.000	-0.060	0.382
-370.785	-160.060	-0.074	0.004
-369.771	800.000	0.118	-0.339
-368.756	53.957	0.128	-0.123
-367.742	-200.000	-0.015	-0.188
-366.727	416.545	0.096	0.206
-365.712	57.979	-0.332	-0.326
-364.698	-41.962	0.099	0.051
-363.683	129.265	-0.316	-0.405
-362.669	-36.389	0.245	0.133
-361.654	-200.000	-0.012	0.111
-360.639	-26.164	-0.258	0.152
-359.625	7.457	0.313	0.235
-358.610	258.159	-0.182	0.315
-357.596	33.606	-0.050	-0.043
-356.581	-101.337	0.074	0.018
-355.566	354.011	0.078	0.155
-354.552	-56.492	0.148	0.066
-353.537	-200.000	0.038	-0.193
-352.523	57.326	-0.146	-0.143
-351.508	-200.000	-0.013	-0.194
-350.493	181.495	-0.217	-0.321
-349.479	118.175	0.080	0.100
-348.464	13.073	-0.128	-0.100
-347.450	345.854	0.039	-0.077
-346.435	-200.000	-0.002	0.098
-345.420	340.613	-0.060	-0.118
-344.406	54.677	0.091	-0.088
-343.391	-183.659	-0.108	-0.002
-342.377	268.222	0.043	0.075
-341.362	58.037	-0.098	-0.097
-340.348	-118.486	0.246	-0.044
-339.333	-91.492	-0.134	0.038
-338.318	193.326	-0.138	-0.210
-337.304	-200.000	-0.010	0.224
-336.289	-81.665	-0.054	-0.018
-335.275	-158.341	0.350	-0.020
-334.260	223.758	-0.200	0.323
-333.245	-115.727	-0.230	-0.043
-332.231	513.788	0.102	0.239
-331.216	-96.530	0.524	-0.139
-330.202	-22.700	0.091	-0.055
-329.187	800.000	-0.012	-0.049
-328.172	800.000	-0.087	0.259
-327.158	28.183	-0.054	-0.046
-326.143	-46.994	-0.188	-0.092
-325.129	-83.055	0.069	0.022
-324.114	-9.246	-0.086	-0.058
-323.099	-37.114	0.160	0.086
-322.085	-86.064	-0.156	0.048
-321.070	153.339	0.107	-0.147
-320.056	20.081	-0.187	-0.151
-319.041	61.017	0.156	0.155
-318.026	143.681	0.142	0.189
-317.012	-200.000	0.015	0.204
-315.997	70.189	0.250	0.259
-314.983	12.576	-0.065	0.050
-313.968	-4.069	-0.249	-0.173
-312.953	244.150	0.169	0.284
-311.939	-200.000	0.004	0.186
-310.924	33.999	0.116	-0.101
-309.910	-81.445	-0.122	-0.040
-308.895	349.950	0.068	-0.135
-307.880	64.186	-0.304	-0.306
-306.866	101.991	0.052	-0.061
-305.851	158.029	-0.157	-0.218
-304.837	461.052	-0.159	-0.356
-303.822	705.877	-0.073	0.193
-302.807	173.372	-0.081	0.117
-301.793	163.351	-0.064	-0.090
-300.778	800.000	-0.051	-0.159
-299.764	-71.810	-0.453	-0.169
-298.749	15.087	-0.091	0.071
-297.735	-157.391	0.213	-0.013
-296.720	800.000	0.022	-0.089
-295.705	800.000	0.075	-0.310
-294.691	-200.000	0.012	0.376
-293.676	-23.146	0.095	0.058
-292.662	-200.000	0.062	-0.314
-291.647	-79.893	-0.344	-0.116
-290.632	-43.145	0.125	-0.063
-289.618	238.880	0.143	0.238
-288.603	66.903	-0.178	0.181
-287.589	-200.000	-0.035	0.182
-286.574	-200.000	-0.014	-0.433
-285.559	-1.511	-0.068	-0.048
-284.545	-27.094	-0.217	-0.127
-283.530	800.000	0.097	0.371
-282.516	284.886	-0.177	0.319
-281.501	373.581	-0.170	0.345
-280.486	307.276	0.027	-0.050
-279.472	-47.687	-0.148	0.072
-278.457	23.714	-0.178	0.147
-277.443	-139.398	-0.264	-0.028
-276.428	-87.029	0.209	0.064
-275.413	23.750	0.072	-0.059
-274.399	309.240	0.104	0.195
-273.384	313.174	0.176	-0.331
-272.370	800.000	0.127	0.376
-271.355	25.637	0.295	0.246
-270.340	3.473	0.072	-0.052
-269.326	-110.193	0.466	0.097
-268.311	-155.230	0.270	-0.018
-267.297	-200.000	-0.048	0.237
-266.282	-200.000	0.057	-0.342
-265.267	3.674	0.268	0.195
-264.253	-146.049	-0.297	-0.026
-263.238	31.132	0.115	0.099
-262.224	22.492	-0.132	0.108
-261.209	-59.976	-0.207	0.089
-260.195	-132.159	0.227	-0.029
-259.180	50.039	0.145	0.137
-258.165	-200.000	0.012	-0.079
-257.151	800.000	-0.037	0.135
-256.136	56.974	0.113	0.110
-255.122	-76.615	0.143	-0.050
-254.107	370.819	-0.045	0.091
-253.092	-111.084	0.118	-0.024
-252.078	182.986	0.095	0.140
-251.063	45.224	-0.346	0.319
-250.049	463.831	-0.065	0.145
-249.034	-7.052	0.195	0.133
-248.019	-200.000	-0.009	-0.129
-247.005	373.158	0.054	-0.110
-245.990	206.778	-0.141	-0.219
-244.976	191.377	0.232	-0.349
-243.961	-100.669	-0.110	0.027
-242.946	308.112	0.057	0.106
-241.932	793.840	-0.097	0.268
-240.917	-42.015	0.153	-0.078
-239.903	-45.077	0.275	-0.137
-238.888	-88.771	-0.363	-0.108
-237.873	-187.006	-0.092	-0.001
-236.859	230.785	0.080	0.130
-235.844	22.556	-0.358	-0.292
-234.830	177.847	-0.073	-0.106
-233.815	70.496	0.129	-0.133
-232.800	267.326	0.248	-0.434
-231.786	-200.000	-0.027	0.264
-230.771	63.615	0.168	-0.168
-229.757	42.795	-0.105	0.096
-228.742	-59.085	0.094	-0.040
-227.727	-117.134	-0.393	0.071
-226.713	800.000	-0.097	0.278
-225.698	-200.000	0.010	-0.054
-224.684	-60.414	-0.164	0.070
-223.669	-200.000	-0.011	-0.051
-222.655	-21.192	0.110	-0.067
-221.640	22.995	0.082	0.067
-220.625	800.000	0.133	0.385
-219.611	226.527	-0.141	-0.228
-218.596	-200.000	0.027	-0.198
-217.582	-200.000	0.017	-0.190
-216.567	-72.375	-0.161	-0.059
-215.552	-194.344	0.414	0.003
-214.538	-57.764	-0.226	-0.099
-213.523	7.046	-0.132	-0.098
-212.509	-200.000	0.009	-0.055
-211.494	-200.000	0.003	0.102
-210.479	38.432	0.156	0.139
-209.465	-126.801	0.241	-0.036
-208.450	-64.057	-0.239	-0.098
-207.436	-26.481	-0.059	-0.034
-206.421	25.310	0.142	0.118
-205.406	227.609	-0.130	0.211
-204.392	-77.268	-0.116	0.040
-203.377	-151.509	0.254	0.019
-202.363	-177.508	-0.095	-0.002
-201.348	-145.311	-0.278	0.025
-200.333	8.160	-0.212	-0.159
-199.319	800.000	0.037	0.102
-198.304	-101.373	-0.122	0.030
-197.290	184.816	-0.115	-0.170
-196.275	10.089	0.061	-0.046
-195.260	300.865	0.115	0.212
-194.246	105.143	-0.101	-0.119
-193.231	-200.000	0.057	0.267
-192.217	-119.959	-0.120	0.021
-191.202	-114.273	-0.166	0.032
-190.187	-176.362	0.363	0.009
-189.173	-200.000	0.057	0.486
-188.158	-176.067	0.278	0.007
-187.144	-55.371	-0.200	0.089
-186.129	172.530	0.167	0.239
-185.114	-200.000	-0.002	-0.066
-184.100	15.207	-0.150	0.117
-183.085	-65.252	0.352	0.141
-182.071	-200.000	0.008	0.165
-181.056	800.000	0.047	-0.161
-180.042	-101.587	0.101	0.024
-179.027	83.681	0.117	0.127
-178.012	134.317	0.116	0.150
-176.998	-59.640	0.153	-0.066
-175.983	-106.705	-0.073	-0.016
-174.969	-157.858	-0.444	0.026
-173.954	-34.076	-0.086	-0.047
-172.939	-35.539	-0.105	0.057
-171.925	-115.209	0.118	0.022
-170.910	-129.108	-0.099	-0.014
-169.896	-164.694	-0.282	0.013
-168.881	695.483	-0.088	-0.230
-167.866	800.000	0.038	0.148
-166.852	800.000	0.163	0.490
-165.837	-200.000	0.063	0.283
-164.823	-80.615	0.311	-0.103
-163.808	59.748	0.122	-0.120
-162.793	-200.000	-0.031	-0.175
-161.779	800.000	-0.011	-0.037
-160.764	-200.000	-0.046	0.222
-159.750	800.000	0.104	0.417
-158.735	159.254	0.145	-0.201
-157.720	184.205	0.052	0.077
-156.706	800.000	-0.070	-0.217
-155.691	128.411	0.070	-0.089
-154.677	389.937	0.130	0.269
-153.662	59.878	0.285	-0.280
-152.647	-19.086	-0.252	-0.156
-151.633	94.196	0.048	0.054
-150.618	469.590	0.202	0.451
-149.604	466.638	-0.195	0.435
-148.589	-181.292	0.019	0.000
-147.574	799.329	0.065	0.177
-146.560	37.352	-0.171	-0.151
-145.545	19.429	-0.146	0.117
-144.531	800.000	-0.104	-0.304
-143.516	800.000	0.071	-0.217
-142.502	-18.194	0.023	0.014
-141.487	-117.941	-0.190	0.034
-140.472	-29.669	0.194	0.110
-139.458	-19.638	0.214	-0.132
-138.443	-122.095	0.051	0.008
-137.429	1.092	-0.259	0.185
-136.414	415.100	-0.148	0.314
-135.399	-111.431	-0.174	0.035
-134.385	-108.834	-0.266	-0.057
-133.370	-55.016	0.129	0.058
-132.356	-50.049	0.180	0.085
-131.341	-50.863	0.119	0.056
-130.326	318.670	-0.077	-0.145
-129.312	-30.460	-0.216	-0.122
-128.297	800.000	-0.146	-0.419
-127.283	-84.662	-0.257	-0.080
-126.268	-200.000	0.001	-0.456
-125.253	-137.488	-0.121	-0.014
-124.239	-5.585	0.210	-0.143
-123.224	-200.000	0.004	-0.148
-122.210	100.986	-0.101	-0.116
