DTS Sentinel unit serial number:	SN413079Multiplexer serial number:	ORYXHardware model number:	OX4-SRSoftware version number:	ORYX F/W v4.00 Oryx Data Collector v3.7.2.0data status	okinstallation	princeton_trtdifferential loss correction	single-endedforward channel	channel 4reverse channel	N/Adate	2019/09/17time	05:33:34forward acquisition time	60.00reverse acquisition time	0.00gamma	496.2192k internal	0.2313k external	0.2313temperature offset calibration	0.9985default loss term (dB/km)	0.3790temperature slope calibration	1.0000multiplexer offset coefficient	1.0000multiplexer slope coefficient	1.0000fibre end	0.00T internal ref (°C)	29.19T ext. ref 1 (°C)	0.13T ext. ref 2 (°C)	23.18length (m)	temperature (°C)	Stokes	anti-Stokes-747.200	-171.992	0.368	-0.012
-746.185	388.949	-0.147	0.309
-745.171	-57.712	0.202	-0.089
-744.156	42.294	-0.345	0.318
-743.142	-135.135	0.179	0.022
-742.127	287.056	-0.145	0.265
-741.112	61.925	0.158	-0.160
-740.098	800.000	0.080	0.291
-739.083	71.613	0.152	0.160
-738.069	353.775	-0.085	0.171
-737.054	-200.000	0.027	-0.251
-736.039	-91.284	-0.296	-0.086
-735.025	265.777	0.171	-0.302
-734.010	460.748	-0.111	0.250
-732.996	-151.415	-0.127	-0.010
-731.981	-75.768	-0.215	-0.077
-730.966	-159.181	-0.360	-0.021
-729.952	144.031	0.133	-0.180
-728.937	-86.991	-0.300	-0.093
-727.923	-78.026	-0.128	-0.045
-726.908	284.917	0.118	-0.215
-725.894	-46.483	-0.235	0.117
-724.879	87.026	-0.254	0.284
-723.864	256.087	0.063	-0.110
-722.850	-164.898	0.185	-0.008
-721.835	-29.264	-0.094	-0.055
-720.821	800.000	-0.100	-0.315
-719.806	97.800	0.134	-0.156
-718.791	-25.777	0.235	-0.140
-717.777	-200.000	-0.033	-0.155
-716.762	-182.546	-0.237	-0.004
-715.748	181.595	0.147	0.219
-714.733	12.661	-0.166	-0.130
-713.718	-81.243	-0.027	0.009
-712.704	2.568	0.240	-0.176
-711.689	-32.481	0.124	0.070
-710.675	-200.000	-0.006	0.276
-709.660	-200.000	0.059	-0.295
-708.645	-181.453	0.424	-0.008
-707.631	-8.888	-0.206	-0.140
-706.616	-200.000	-0.038	-0.302
-705.602	184.154	0.054	0.082
-704.587	-200.000	-0.031	-0.205
-703.572	42.482	-0.350	0.322
-702.558	-200.000	-0.044	-0.212
-701.543	-176.668	-0.268	0.007
-700.529	800.000	-0.036	-0.143
-699.514	88.106	0.109	-0.122
-698.499	78.938	0.151	-0.164
-697.485	-20.054	-0.391	-0.244
-696.470	291.828	0.169	0.311
-695.456	193.771	0.093	-0.143
-694.441	90.317	0.101	-0.114
-693.426	-94.850	-0.169	0.046
-692.412	-200.000	0.011	0.280
-691.397	219.161	-0.090	-0.145
-690.383	-142.006	0.461	-0.047
-689.368	-200.000	-0.006	-0.170
-688.354	442.627	0.035	-0.078
-687.339	140.719	0.092	0.122
-686.324	70.253	-0.170	0.177
-685.310	62.625	-0.258	-0.261
-684.295	219.135	0.040	0.065
-683.281	-5.203	0.287	-0.200
-682.266	278.542	-0.181	-0.327
-681.251	102.615	-0.190	-0.225
-680.237	-73.352	0.080	0.030
-679.222	-200.000	-0.010	-0.183
-678.208	110.516	0.190	-0.231
-677.193	-117.796	-0.217	-0.039
-676.178	144.481	0.026	-0.035
-675.164	91.791	0.058	-0.066
-674.149	-45.560	-0.182	-0.091
-673.135	-88.595	0.191	-0.058
-672.120	29.609	-0.097	0.083
-671.105	-21.608	0.512	-0.316
-670.091	-200.000	0.003	-0.281
-669.076	-81.914	-0.184	0.061
-668.062	298.775	-0.282	-0.525
-667.047	45.280	-0.125	-0.117
-666.032	-62.547	-0.172	0.072
-665.018	179.496	-0.072	-0.107
-664.003	495.950	-0.100	0.233
-662.989	-52.975	-0.254	0.118
-661.974	800.000	0.050	0.171
-660.959	800.000	0.027	0.105
-659.945	7.789	0.233	-0.176
-658.930	125.247	-0.207	-0.264
-657.916	-76.548	-0.164	-0.058
-656.901	-200.000	0.003	-0.288
-655.886	-200.000	-0.042	0.235
-654.872	800.000	0.125	-0.389
-653.857	-200.000	-0.007	-0.263
-652.843	-29.670	-0.232	-0.134
-651.828	-38.439	0.197	-0.105
-650.814	49.869	0.251	0.239
-649.799	23.724	0.027	-0.023
-648.784	388.402	0.096	0.202
-647.770	22.343	0.033	-0.027
-646.755	-84.412	0.069	-0.022
-645.741	29.738	0.028	0.024
-644.726	-22.907	0.463	0.282
-643.711	220.048	0.057	0.092
-642.697	125.397	-0.045	-0.057
-641.682	26.640	0.064	-0.054
-640.668	-1.559	0.080	-0.057
-639.653	184.612	0.050	-0.075
-638.638	-10.745	-0.183	0.122
-637.624	-42.571	-0.144	-0.074
-636.609	-200.000	0.043	0.393
-635.595	40.501	0.220	0.200
-634.580	800.000	0.050	-0.205
-633.565	-2.317	-0.325	-0.230
-632.551	-53.597	0.137	0.063
-631.536	-200.000	0.008	-0.101
-630.522	-93.190	-0.378	0.106
-629.507	25.538	-0.158	-0.133
-628.492	-90.452	0.161	-0.047
-627.478	-200.000	-0.005	0.355
-626.463	800.000	-0.051	0.185
-625.449	496.804	0.075	-0.174
-624.434	-200.000	-0.034	-0.225
-623.419	-200.000	0.026	-0.230
-622.405	-53.867	0.173	0.080
-621.390	-90.935	0.195	0.057
-620.376	-12.498	0.268	0.177
-619.361	-200.000	-0.077	-0.452
-618.346	-200.000	0.047	0.371
-617.332	-14.491	-0.133	-0.086
-616.317	200.638	-0.184	-0.286
-615.303	800.000	0.148	-0.466
-614.288	-31.677	0.158	0.089
-613.273	-72.887	-0.314	0.116
-612.259	-200.000	-0.006	0.187
-611.244	-10.125	-0.227	0.152
-610.230	-12.266	0.078	0.052
-609.215	-22.040	0.175	0.107
-608.201	19.352	-0.080	0.065
-607.186	553.834	-0.039	0.094
-606.171	0.760	0.370	-0.267
-605.157	242.596	-0.044	0.074
-604.142	629.503	0.088	-0.225
-603.128	-198.104	0.417	-0.002
-602.113	105.299	0.231	-0.275
-601.098	-101.756	-0.165	0.040
-600.084	-87.537	0.441	0.134
-599.069	-22.328	-0.405	-0.248
-598.055	800.000	-0.067	0.223
-597.040	800.000	-0.038	0.130
-596.025	43.333	0.067	-0.062
-595.011	-43.901	0.166	0.084
-593.996	-107.819	-0.355	-0.078
-592.982	-51.154	-0.140	0.066
-591.967	-200.000	-0.017	-0.226
-590.952	-45.804	0.077	-0.038
-589.938	800.000	0.076	0.238
-588.923	-72.426	-0.312	0.116
-587.909	-135.677	0.069	0.008
-586.894	336.466	-0.209	0.408
-585.879	50.539	-0.192	0.183
-584.865	-77.955	0.182	0.063
-583.850	416.431	-0.019	0.041
-582.836	-200.000	0.044	0.321
-581.821	27.058	-0.277	0.234
-580.806	-85.632	-0.104	-0.032
-579.792	-136.672	0.334	-0.039
-578.777	-115.253	-0.198	-0.038
-577.763	-114.173	0.287	-0.056
-576.748	340.908	0.093	-0.183
-575.733	-119.120	-0.069	0.012
-574.719	62.682	-0.045	-0.045
-573.704	4.151	0.070	0.052
-572.690	284.680	-0.051	-0.093
-571.675	-122.238	0.183	0.030
-570.661	323.909	0.096	-0.185
-569.646	-120.059	0.107	-0.018
-568.631	-110.206	-0.526	-0.110
-567.617	18.004	0.316	-0.254
-566.602	-94.010	-0.088	0.024
-565.588	-58.387	0.315	-0.138
-564.573	-164.202	-0.371	0.017
-563.558	-200.000	-0.030	0.241
-562.544	80.281	-0.213	-0.231
-561.529	-70.062	0.103	0.039
-560.515	-26.370	0.312	0.184
-559.500	800.000	0.116	0.374
-558.485	469.408	0.041	0.093
-557.471	149.637	0.101	-0.138
-556.456	800.000	-0.026	0.093
-555.442	253.542	0.194	-0.334
-554.427	12.304	0.243	-0.189
-553.412	-119.899	-0.217	0.037
-552.398	83.780	0.159	-0.174
-551.383	1.731	0.071	-0.051
-550.369	-200.000	-0.005	0.058
-549.354	753.784	-0.085	-0.231
-548.339	-200.000	0.030	-0.248
-547.325	56.414	-0.240	-0.235
-546.310	800.000	-0.053	0.216
-545.296	-74.488	-0.116	-0.042
-544.281	-98.472	0.247	-0.064
-543.266	800.000	-0.015	0.060
-542.252	-113.504	-0.079	0.016
-541.237	94.142	0.111	-0.127
-540.223	63.226	-0.050	0.050
-539.208	-64.019	-0.317	-0.130
-538.193	44.059	0.156	-0.144
-537.179	126.426	-0.042	-0.054
-536.164	-138.489	-0.472	0.052
-535.150	773.618	0.100	0.275
-534.135	-46.305	-0.203	-0.100
-533.121	432.641	0.166	-0.362
-532.106	-200.000	0.043	-0.285
-531.091	-44.008	0.110	0.056
-530.077	-74.511	0.120	0.043
-529.062	728.423	-0.101	0.272
-528.048	-27.069	0.278	-0.163
-527.033	-200.000	-0.027	0.151
-526.018	-43.190	-0.137	0.070
-525.004	-45.754	-0.154	0.076
-523.989	28.203	-0.026	0.022
-522.975	-7.227	-0.219	0.149
-521.960	800.000	-0.052	0.168
-520.945	33.748	-0.172	0.150
-519.931	39.945	0.261	-0.235
-518.916	488.849	0.099	-0.228
-517.902	-146.555	-0.091	-0.008
-516.887	351.909	0.113	0.225
-515.872	155.648	-0.046	-0.063
-514.858	800.000	-0.058	-0.227
-513.843	-101.962	0.223	0.054
-512.829	205.280	0.045	0.071
-511.814	-200.000	0.002	0.483
-510.799	-173.410	0.112	-0.003
-509.785	-68.415	0.175	-0.068
-508.770	75.065	0.053	-0.057
-507.756	-22.604	0.083	-0.050
-506.741	-47.464	-0.122	-0.060
-505.726	128.584	-0.096	-0.123
-504.712	-62.983	0.138	-0.057
-503.697	-200.000	-0.028	0.294
-502.683	-200.000	0.045	-0.324
-501.668	-200.000	0.006	0.133
-500.653	-52.421	-0.255	-0.118
-499.639	137.480	0.027	0.035
-498.624	105.823	0.084	0.100
-497.610	-18.554	0.182	-0.114
-496.595	-162.052	-0.247	-0.012
-495.581	-1.910	0.161	-0.114
-494.566	-51.166	0.135	-0.064
-493.551	-61.322	-0.258	0.109
-492.537	169.319	-0.148	-0.212
-491.522	-200.000	0.006	0.209
-490.508	9.874	0.064	-0.049
-489.493	15.533	0.062	0.049
-488.478	-41.120	0.246	0.128
-487.464	118.187	0.050	0.062
-486.449	502.458	0.054	-0.126
-485.435	66.723	-0.122	0.125
-484.420	-200.000	0.043	-0.342
-483.405	-45.984	-0.225	-0.112
-482.391	-26.724	0.213	0.125
-481.376	-135.163	-0.273	0.033
-480.362	207.498	-0.220	0.345
-479.347	-200.000	-0.017	-0.092
-478.332	-65.492	-0.078	0.032
-477.318	-103.689	-0.265	-0.062
-476.303	51.473	-0.144	-0.137
-475.289	800.000	0.039	-0.115
-474.274	-137.247	-0.308	-0.035
-473.259	-80.851	0.257	0.086
-472.245	-166.483	-0.297	-0.012
-471.230	142.493	-0.107	0.142
-470.216	154.852	-0.043	0.060
-469.201	-83.459	0.336	-0.108
-468.186	-110.493	-0.208	0.043
-467.172	522.224	0.097	-0.229
-466.157	179.342	0.131	-0.192
-465.143	220.959	0.195	-0.314
-464.128	-131.422	-0.226	0.030
-463.113	-171.612	-0.446	-0.015
-462.099	-200.000	-0.038	-0.363
-461.084	-200.000	0.013	0.133
-460.070	-200.000	-0.002	0.159
-459.055	211.988	-0.126	0.199
-458.040	800.000	0.036	0.125
-457.026	-80.706	-0.275	-0.092
-456.011	-122.091	0.015	-0.003
-454.997	15.851	-0.341	-0.269
-453.982	-200.000	-0.058	0.000
-452.968	715.928	0.093	0.247
-451.953	-134.625	-0.144	0.018
-450.938	-84.351	-0.065	-0.021
-449.924	-117.138	-0.304	0.055
-448.909	1.791	-0.159	-0.115
-447.895	800.000	0.008	0.025
-446.880	87.700	0.313	-0.348
-445.865	-200.000	0.044	-0.261
-444.851	178.336	0.133	-0.195
-443.836	234.388	0.157	0.260
-442.822	800.000	-0.049	-0.139
-441.807	-71.023	-0.402	0.151
-440.792	-30.001	0.237	0.135
-439.778	-200.000	0.013	0.131
-438.763	600.123	-0.060	-0.149
-437.749	35.946	0.149	-0.131
-436.734	109.788	0.120	0.144
-435.719	800.000	0.104	0.297
-434.705	800.000	0.062	0.243
-433.690	331.222	0.036	-0.069
-432.676	137.072	-0.074	-0.097
-431.661	-64.454	-0.046	-0.019
-430.646	-162.193	0.097	-0.005
-429.632	192.215	0.082	0.124
-428.617	800.000	-0.053	-0.194
-427.603	-93.714	0.086	0.024
-426.588	-53.750	0.318	0.146
-425.573	-200.000	0.019	0.198
-424.559	383.621	-0.175	-0.361
-423.544	257.148	-0.103	0.178
-422.530	52.361	0.054	0.052
-421.515	-200.000	0.029	0.146
-420.500	190.027	-0.072	-0.109
-419.486	-200.000	-0.043	0.280
-418.471	212.795	0.247	0.391
-417.457	83.308	-0.126	0.137
-416.442	17.985	0.079	0.063
-415.428	-200.000	0.004	-0.031
-414.413	104.527	-0.085	-0.101
-413.398	222.570	-0.120	-0.194
-412.384	-92.621	-0.150	0.042
-411.369	-200.000	0.007	0.258
-410.355	-18.376	-0.369	-0.231
-409.340	-84.567	0.368	0.116
-408.325	-75.569	-0.249	-0.089
-407.311	300.102	-0.077	0.142
-406.296	-122.910	0.322	-0.052
-405.282	-96.545	0.209	-0.055
-404.267	440.014	-0.100	-0.218
-403.252	-200.000	0.031	-0.236
-402.238	-33.965	0.089	-0.049
-401.223	-200.000	-0.003	-0.484
-400.209	-62.376	0.228	-0.095
-399.194	-200.000	0.006	0.028
-398.179	-140.052	0.249	0.026
-397.165	-146.793	-0.089	0.008
-396.150	147.517	-0.142	0.192
-395.136	72.007	0.106	-0.110
-394.121	-78.246	-0.262	-0.090
-393.106	-200.000	-0.036	0.511
-392.092	85.965	0.159	0.175
-391.077	800.000	0.044	-0.174
-390.063	346.418	0.017	0.033
-389.048	-87.399	-0.321	-0.097
-388.033	412.268	-0.123	-0.262
-387.019	-54.413	0.060	-0.027
-386.004	-200.000	-0.024	0.145
-384.990	800.000	0.062	-0.200
-383.975	47.551	-0.123	0.115
-382.960	342.185	-0.163	0.320
-381.946	279.038	0.102	0.182
-380.931	68.357	-0.149	0.153
-379.917	-130.271	-0.062	0.008
-378.902	597.532	-0.148	-0.366
-377.888	1.641	0.058	0.042
-376.873	-85.151	0.135	0.042
-375.858	563.026	-0.063	-0.152
-374.844	68.874	-0.173	-0.177
-373.829	0.587	-0.191	-0.137
-372.815	800.000	0.018	0.069
-371.800	800.000	-0.019	-0.055
-370.785	274.927	-0.122	-0.217
-369.771	-114.514	0.236	0.045
-368.756	63.310	0.082	0.082
-367.742	28.698	0.137	-0.116
-366.727	-93.881	-0.182	0.050
-365.712	800.000	-0.050	-0.167
-364.698	-200.000	0.009	-0.235
-363.683	800.000	0.044	0.124
-362.669	117.328	-0.137	-0.168
-361.654	-86.538	-0.296	0.091
-360.639	-43.932	-0.175	0.088
-359.625	-200.000	0.029	-0.340
-358.610	164.239	0.171	0.240
-357.596	196.166	-0.206	-0.313
-356.581	4.616	0.161	-0.118
-355.566	-125.634	0.134	0.020
-354.552	153.572	-0.185	0.253
-353.537	551.570	0.072	-0.172
-352.523	-34.962	0.246	-0.134
-351.508	-28.589	0.275	0.158
-350.493	303.186	0.125	-0.231
-349.479	48.280	0.056	-0.052
-348.464	730.022	-0.065	-0.174
-347.450	-140.069	-0.072	-0.008
-346.435	461.744	0.084	0.186
-345.420	-102.792	-0.040	0.010
-344.406	-108.702	-0.233	0.050
-343.391	703.290	-0.089	0.234
-342.377	-71.291	0.264	-0.099
-341.362	-104.564	-0.225	-0.052
-340.348	-200.000	-0.029	0.252
-339.333	195.726	0.111	-0.169
-338.318	148.972	-0.171	-0.231
-337.304	-84.059	0.514	-0.163
-336.289	800.000	0.042	0.122
-335.275	75.966	0.063	0.067
-334.260	73.843	0.314	-0.328
-333.245	-18.886	-0.193	0.120
-332.231	306.715	-0.082	0.152
-331.216	-26.460	0.286	-0.167
-330.202	800.000	0.081	-0.272
-329.187	187.391	0.323	-0.481
-328.172	-60.284	0.075	0.032
-327.158	-107.464	0.136	-0.030
-326.143	-29.096	0.179	-0.102
-325.129	-200.000	-0.011	0.095
-324.114	800.000	-0.050	-0.153
-323.099	-102.509	-0.441	-0.105
-322.085	64.774	-0.179	-0.180
-321.070	-80.401	-0.107	0.035
-320.056	-99.044	0.219	-0.055
-319.041	-200.000	-0.053	-0.252
-318.026	-22.320	0.201	-0.122
-317.012	-104.965	0.225	-0.051
-315.997	-152.950	0.391	0.028
-314.983	60.862	-0.256	-0.253
-313.968	296.535	0.094	-0.172
-312.953	659.600	-0.160	0.411
-311.939	284.671	0.042	-0.075
-310.924	-36.463	0.052	-0.028
-309.910	-62.083	-0.254	-0.106
-308.895	137.952	0.264	0.345
-307.880	-183.155	-0.060	-0.001
-306.866	-200.000	0.045	0.229
-305.851	540.753	0.053	0.126
-304.837	-200.000	-0.022	0.169
-303.822	-132.398	0.134	-0.017
-302.807	472.138	-0.139	0.312
-301.793	174.972	-0.078	0.112
-300.778	-200.000	0.026	-0.135
-299.764	21.969	0.180	0.146
-298.749	156.813	-0.164	-0.226
-297.735	578.715	-0.127	0.310
-296.720	295.987	0.080	0.146
-295.705	-66.258	0.229	-0.091
-294.691	30.876	-0.096	-0.082
-293.676	-200.000	-0.007	0.214
-292.662	53.708	-0.213	0.203
-291.647	535.739	-0.065	-0.153
-290.632	-53.812	0.264	0.120
-289.618	19.688	0.148	0.119
-288.603	-127.979	0.158	-0.023
-287.589	-200.000	0.001	0.336
-286.574	-130.866	-0.100	0.013
-285.559	800.000	-0.050	-0.158
-284.545	-200.000	-0.068	-0.454
-283.530	348.112	0.035	-0.068
-282.516	274.933	-0.031	-0.055
-281.501	224.265	-0.052	0.083
-280.486	517.892	-0.094	0.220
-279.472	381.532	-0.104	0.213
-278.457	10.346	0.419	-0.318
-277.443	-200.000	-0.022	-0.111
-276.428	441.670	0.186	0.406
-275.413	236.688	-0.040	-0.066
-274.399	-27.589	-0.059	-0.034
-273.384	282.067	0.006	-0.011
-272.370	41.611	0.179	-0.162
-271.355	511.827	-0.151	-0.351
-270.340	-23.140	-0.195	0.117
-269.326	-200.000	0.007	-0.046
-268.311	18.173	0.155	-0.123
-267.297	31.939	0.178	-0.152
-266.282	-152.620	0.333	-0.024
-265.267	-32.699	0.336	0.186
-264.253	-11.830	0.234	-0.153
-263.238	-200.000	-0.001	0.273
-262.224	-133.323	0.172	0.022
-261.209	-119.661	0.184	0.032
-260.195	82.728	-0.172	-0.186
-259.180	-200.000	-0.027	0.282
-258.165	800.000	-0.100	0.343
-257.151	800.000	0.031	0.135
-256.136	-200.000	0.056	0.301
-255.122	-40.780	0.186	-0.096
-254.107	-141.788	0.191	-0.019
-253.092	-59.208	0.600	0.257
-252.078	124.555	0.028	-0.036
-251.063	452.118	0.168	-0.369
-250.049	-130.756	-0.309	0.041
-249.034	206.285	-0.108	0.167
-248.019	-200.000	-0.023	0.270
-247.005	-200.000	0.002	-0.109
-245.990	-35.451	0.048	-0.026
-244.976	36.007	0.081	0.071
-243.961	-83.995	-0.388	0.123
-242.946	140.015	-0.111	0.145
-241.932	54.823	0.080	-0.077
-240.917	-200.000	0.002	0.328
-239.903	16.070	-0.253	0.198
-238.888	-100.982	-0.431	0.105
-237.873	72.433	0.186	0.193
-236.859	93.126	-0.256	0.287
-235.844	249.478	0.075	-0.126
-234.830	-26.803	-0.272	-0.158
-233.815	-152.331	-0.066	-0.005
-232.800	-39.053	-0.094	-0.049
-231.786	-138.451	-0.098	-0.011
-230.771	122.960	-0.048	0.059
-229.757	800.000	0.068	-0.233
-228.742	30.449	-0.131	-0.111
-227.727	17.701	-0.190	-0.150
-226.713	-105.471	0.201	0.045
-225.698	23.074	0.169	-0.138
-224.684	149.269	-0.280	-0.377
-223.669	168.708	0.161	-0.229
-222.655	-149.166	0.131	-0.010
-221.640	-200.000	-0.027	0.202
-220.625	269.620	0.115	-0.200
-219.611	-144.777	0.244	0.022
-218.596	-27.670	0.370	-0.213
-217.582	54.473	-0.062	-0.059
-216.567	551.698	-0.057	0.135
-215.552	-200.000	0.009	0.103
-214.538	-30.304	-0.164	-0.093
-213.523	461.322	-0.075	-0.166
-212.509	-200.000	0.011	0.137
-211.494	-70.951	0.079	0.030
-210.479	-200.000	-0.082	-0.446
-209.465	11.473	0.181	0.138
-208.450	-59.421	-0.215	-0.092
-207.436	-7.106	-0.252	0.170
-206.421	-200.000	0.005	0.084
-205.406	6.460	0.070	0.052
-204.392	-200.000	0.006	-0.276
-203.377	0.573	-0.248	-0.176
-202.363	201.209	-0.108	0.165
-201.348	220.976	0.384	0.612
-200.333	-67.296	-0.386	0.151
-199.319	537.592	0.090	0.213
-198.304	126.561	-0.205	-0.258
-197.290	219.325	0.150	0.238
-196.275	179.057	0.030	-0.043
-195.260	-200.000	0.017	0.134
-194.246	258.056	0.036	-0.062
-193.231	321.453	0.088	0.166
-192.217	29.050	0.215	-0.181
-191.202	2.748	-0.029	0.021
-190.187	65.962	-0.134	-0.135
-189.173	-200.000	-0.000	0.132
-188.158	800.000	0.099	0.333
-187.144	800.000	-0.065	0.190
-186.129	60.985	-0.185	-0.182
-185.114	204.888	0.142	-0.218
-184.100	-137.686	-0.142	-0.016
-183.085	56.048	-0.133	0.128
-182.071	-93.520	0.091	0.025
-181.056	-35.895	-0.092	-0.050
-180.042	-86.538	-0.073	-0.022
-179.027	-124.114	0.267	-0.042
-178.012	-126.400	-0.057	0.008
-176.998	-200.000	-0.007	0.056
-175.983	5.843	-0.259	-0.190
-174.969	31.142	-0.306	-0.260
-173.954	356.268	-0.062	-0.122
-172.939	87.110	-0.048	0.052
-171.925	128.581	-0.186	0.235
-170.910	6.889	-0.260	-0.192
-169.896	-41.860	-0.287	0.146
-168.881	244.289	-0.092	0.152
-167.866	89.147	-0.169	-0.186
-166.852	53.646	0.031	0.030
-165.837	-33.463	-0.220	0.121
-164.823	49.108	0.189	0.176
-163.808	213.633	-0.153	0.240
-162.793	-200.000	0.042	0.439
-161.779	-144.809	0.056	-0.005
-160.764	324.362	-0.088	0.167
-159.750	-103.004	0.287	-0.067
-158.735	-2.535	0.163	0.113
-157.720	-71.885	-0.166	-0.061
-156.706	76.160	0.147	0.154
-155.691	-117.728	-0.281	0.050
-154.677	-172.564	0.101	0.003
-153.662	-103.699	0.082	0.019
-152.647	13.303	-0.049	0.037
-151.633	-81.956	0.233	0.075
-150.618	800.000	0.021	-0.078
-149.604	-87.278	-0.320	-0.096
-148.589	7.644	-0.067	0.050
-147.574	-112.212	-0.145	0.029
-146.560	171.185	0.025	0.036
-145.545	-115.868	0.253	0.047
-144.531	60.853	-0.095	0.093
-143.516	51.868	-0.351	-0.331
-142.502	800.000	-0.092	0.317
-141.487	800.000	-0.026	0.110
-140.472	47.265	0.086	0.080
-139.458	-42.201	0.230	-0.117
-138.443	184.152	0.149	0.219
-137.429	800.000	-0.072	-0.217
-136.414	-200.000	0.021	0.225
-135.399	-89.311	0.148	-0.043
-134.385	69.949	-0.228	-0.233
-133.370	158.657	-0.091	-0.125
-132.356	-103.925	0.348	0.081
-131.341	-200.000	-0.360	0.001
-130.326	-183.587	0.368	0.006
-129.312	800.000	0.079	0.286
-128.297	121.060	-0.014	-0.017
-127.283	663.456	0.033	0.084
-126.268	-128.221	-0.300	0.042
-125.253	147.779	0.152	-0.203
-124.239	50.385	-0.164	0.153
-123.224	800.000	-0.125	-0.346
-122.210	-52.858	-0.287	0.131
-121.195	64.989	0.280	-0.280
-120.180	-128.291	-0.231	0.033
