DTS Sentinel unit serial number:	SN413079Multiplexer serial number:	ORYXHardware model number:	OX4-SRSoftware version number:	ORYX F/W v4.00 Oryx Data Collector v3.7.2.0data status	okinstallation	princeton_trtdifferential loss correction	single-endedforward channel	channel 4reverse channel	N/Adate	2019/09/12time	20:25:35forward acquisition time	60.00reverse acquisition time	0.00gamma	496.2192k internal	0.2311k external	0.2311temperature offset calibration	1.0160default loss term (dB/km)	0.3790temperature slope calibration	1.0000multiplexer offset coefficient	1.0000multiplexer slope coefficient	1.0000fibre end	0.00T internal ref (°C)	31.37T ext. ref 1 (°C)	3.48T ext. ref 2 (°C)	25.88length (m)	temperature (°C)	Stokes	anti-Stokes-747.200	186.083	0.204	0.308
-746.185	-57.701	-0.103	0.046
-745.171	-117.447	0.205	0.038
-744.156	-40.260	0.160	-0.085
-743.142	-57.083	0.098	-0.044
-742.127	165.959	-0.117	0.168
-741.112	-54.208	-0.186	-0.086
-740.098	208.062	0.178	0.282
-739.083	340.836	0.122	0.241
-738.069	-143.999	-0.313	0.030
-737.054	-115.840	-0.466	0.088
-736.039	-193.539	-0.726	-0.006
-735.025	-54.697	-0.294	0.135
-734.010	-91.720	-0.131	-0.038
-732.996	-200.000	0.032	-0.169
-731.981	-116.592	0.230	0.043
-730.966	-4.374	-0.212	-0.149
-729.952	-200.000	-0.030	-0.191
-728.937	-200.000	-0.028	-0.209
-727.923	800.000	-0.096	0.339
-726.908	64.179	-0.191	-0.195
-725.894	4.145	-0.041	0.031
-724.879	800.000	-0.045	-0.135
-723.864	277.925	0.092	-0.166
-722.850	-143.187	-0.307	-0.030
-721.835	15.131	-0.086	0.068
-720.821	-86.766	-0.099	-0.031
-719.806	-69.430	-0.124	-0.048
-718.791	367.826	0.132	-0.271
-717.777	-23.923	-0.453	-0.275
-716.762	-80.624	-0.339	0.114
-715.748	-78.221	0.140	-0.049
-714.733	26.526	-0.195	0.165
-713.718	-112.637	-0.249	-0.050
-712.704	-91.078	-0.182	0.053
-711.689	800.000	-0.050	-0.214
-710.675	-200.000	-0.023	0.299
-709.660	-140.759	-0.129	0.014
-708.645	127.786	-0.070	-0.090
-707.631	-200.000	-0.024	-0.123
-706.616	800.000	0.101	-0.326
-705.602	-69.007	-0.144	-0.056
-704.587	53.282	-0.112	-0.109
-703.572	-15.566	0.279	0.180
-702.558	-200.000	-0.056	-0.371
-701.543	717.459	0.050	-0.135
-700.529	-38.405	-0.232	0.124
-699.514	90.585	-0.135	-0.153
-698.499	91.459	-0.094	-0.108
-697.485	69.413	-0.082	-0.086
-696.470	113.684	-0.189	-0.232
-695.456	800.000	-0.041	0.146
-694.441	-50.877	0.064	0.031
-693.426	-124.009	0.260	-0.041
-692.412	-137.043	0.234	0.027
-691.397	383.681	0.128	-0.268
-690.383	629.117	-0.107	0.275
-689.368	38.544	0.165	-0.149
-688.354	-96.605	-0.172	0.046
-687.339	-32.779	-0.281	-0.158
-686.324	-73.280	-0.055	-0.020
-685.310	-85.611	0.311	-0.098
-684.295	-90.422	0.288	0.084
-683.281	-86.150	-0.125	0.039
-682.266	32.728	-0.194	-0.170
-681.251	800.000	-0.055	0.190
-680.237	147.534	0.162	-0.220
-679.222	-64.913	-0.034	0.014
-678.208	-176.719	-0.096	0.002
-677.193	-49.201	0.133	-0.064
-676.178	800.000	-0.010	0.029
-675.164	-110.384	0.347	0.073
-674.149	357.281	0.004	0.008
-673.135	-200.000	-0.027	0.152
-672.120	9.568	0.388	0.298
-671.105	448.752	0.106	-0.237
-670.091	27.163	0.346	0.294
-669.076	800.000	0.013	-0.046
-668.062	-94.482	-0.143	-0.039
-667.047	-83.038	-0.216	-0.070
-666.032	-90.408	-0.065	-0.019
-665.018	-200.000	0.042	0.242
-664.003	69.006	-0.153	-0.159
-662.989	-200.000	-0.004	-0.159
-661.974	-10.308	0.011	0.007
-660.959	289.013	0.104	-0.190
-659.945	-76.048	-0.133	0.048
-658.930	-151.688	0.382	0.028
-657.916	-16.942	0.196	-0.125
-656.901	61.182	-0.176	-0.177
-655.886	315.847	0.052	-0.100
-654.872	143.517	0.185	-0.250
-653.857	-4.742	-0.176	0.123
-652.843	58.826	-0.065	0.065
-651.828	-44.075	-0.300	0.152
-650.814	-168.644	0.217	0.008
-649.799	536.986	0.028	0.068
-648.784	-65.852	-0.303	-0.123
-647.770	-115.679	-0.143	-0.027
-646.755	-200.000	0.040	-0.274
-645.741	620.206	-0.078	-0.197
-644.726	-52.383	-0.150	0.070
-643.711	-152.800	0.383	-0.027
-642.697	-85.909	0.101	0.032
-641.682	190.281	0.162	-0.246
-640.668	-44.525	0.368	-0.186
-639.653	97.669	-0.135	-0.156
-638.638	-60.111	0.331	-0.143
-637.624	-58.895	-0.287	-0.125
-636.609	800.000	-0.095	0.275
-635.595	159.054	-0.127	-0.179
-634.580	-106.329	0.280	-0.063
-633.565	-200.000	0.003	-0.075
-632.551	320.031	0.185	0.355
-631.536	-9.102	0.180	-0.122
-630.522	279.804	-0.103	-0.187
-629.507	366.726	0.169	-0.344
-628.492	130.716	0.036	-0.046
-627.478	55.998	0.076	-0.075
-626.463	800.000	-0.020	-0.069
-625.449	-105.014	-0.216	-0.050
-624.434	-104.776	-0.240	0.056
-623.419	-40.520	-0.095	0.050
-622.405	-63.145	0.226	0.094
-621.390	-81.131	0.625	-0.209
-620.376	168.453	-0.191	-0.275
-619.361	307.524	-0.047	0.089
-618.346	-127.196	-0.366	0.054
-617.332	-51.300	0.242	0.114
-616.317	97.283	-0.139	-0.162
-615.303	-200.000	0.010	0.178
-614.288	71.672	0.042	0.044
-613.273	-200.000	0.039	-0.245
-612.259	-200.000	-0.000	-0.103
-611.244	-141.583	-0.182	0.018
-610.230	16.517	-0.137	-0.110
-609.215	73.622	-0.209	0.221
-608.201	101.412	-0.154	0.181
-607.186	421.361	0.166	-0.360
-606.171	-53.689	-0.083	0.038
-605.157	411.249	0.083	0.179
-604.142	379.165	0.082	0.171
-603.128	2.551	-0.181	-0.133
-602.113	-90.461	-0.067	-0.020
-601.098	-200.000	0.016	0.131
-600.084	393.759	0.040	0.085
-599.069	-200.000	-0.015	-0.211
-598.055	168.720	-0.233	-0.335
-597.040	-200.000	0.016	0.104
-596.025	158.139	0.087	0.121
-595.011	117.231	0.127	0.157
-593.996	160.344	-0.092	-0.130
-592.982	-16.168	0.164	0.105
-591.967	-75.949	0.304	0.109
-590.952	-44.164	-0.065	0.033
-589.938	-127.183	-0.044	0.007
-588.923	800.000	0.056	-0.226
-587.909	26.347	-0.178	0.150
-586.894	114.566	-0.133	0.163
-585.879	312.545	0.110	-0.208
-584.865	165.492	-0.149	-0.213
-583.850	139.540	-0.269	-0.357
-582.836	800.000	-0.080	-0.298
-581.821	-68.238	-0.339	0.133
-580.806	544.378	-0.040	0.096
-579.792	449.136	0.086	-0.190
-578.777	277.725	0.070	-0.125
-577.763	-200.000	-0.025	0.377
-576.748	142.322	0.134	0.179
-575.733	-85.956	-0.330	-0.103
-574.719	124.651	-0.225	0.286
-573.704	800.000	0.068	0.248
-572.690	437.263	-0.074	-0.162
-571.675	178.514	-0.144	-0.213
-570.661	-177.907	0.094	-0.002
-569.646	-11.090	0.144	-0.096
-568.631	19.988	0.235	0.191
-567.617	-200.000	-0.024	-0.162
-566.602	-200.000	-0.015	-0.099
-565.588	-200.000	0.014	0.358
-564.573	-176.447	-0.257	-0.007
-563.558	-200.000	-0.037	0.191
-562.544	-200.000	-0.047	-0.235
-561.529	-200.000	0.003	-0.027
-560.515	47.330	-0.152	-0.143
-559.500	-105.973	-0.178	0.041
-558.485	-2.574	0.082	0.058
-557.471	-103.792	0.074	-0.017
-556.456	800.000	-0.115	0.399
-555.442	-198.128	-0.169	-0.001
-554.427	-45.104	-0.405	0.203
-553.412	-15.153	-0.093	-0.060
-552.398	800.000	-0.047	-0.205
-551.383	-100.117	-0.214	0.054
-550.369	422.178	0.111	0.241
-549.354	800.000	0.077	-0.294
-548.339	215.058	-0.213	0.340
-547.325	-17.292	0.420	0.266
-546.310	632.403	-0.014	-0.037
-545.296	345.336	0.140	-0.276
-544.281	-18.982	0.085	-0.053
-543.266	275.292	-0.087	-0.156
-542.252	10.686	0.096	0.074
-541.237	-19.289	0.401	-0.251
-540.223	556.319	0.068	-0.164
-539.208	-200.000	0.052	-0.322
-538.193	138.027	-0.120	-0.158
-537.179	-74.151	-0.070	0.025
-536.164	-71.291	-0.204	0.077
-535.150	167.185	-0.089	0.128
-534.135	-200.000	0.023	-0.166
-533.121	35.813	0.146	-0.129
-532.106	668.971	-0.063	-0.163
-531.091	-35.662	0.281	-0.153
-530.077	-123.393	-0.321	-0.051
-529.062	800.000	-0.035	-0.128
-528.048	-105.635	0.159	0.036
-527.033	106.621	-0.149	-0.178
-526.018	-200.000	0.021	0.448
-525.004	-53.010	-0.173	-0.080
-523.989	800.000	0.044	0.135
-522.975	-134.320	-0.051	0.006
-521.960	5.069	0.114	0.085
-520.945	376.245	-0.073	0.151
-519.931	198.114	-0.165	0.253
-518.916	800.000	-0.085	-0.284
-517.902	24.999	-0.181	-0.151
-516.887	-42.454	0.193	-0.099
-515.872	68.649	-0.166	-0.171
-514.858	733.891	-0.106	0.284
-513.843	37.029	-0.158	-0.140
-512.829	782.962	-0.031	-0.084
-511.814	-89.587	0.126	0.037
-510.799	65.793	-0.057	0.058
-509.785	134.166	-0.184	0.240
-508.770	-96.678	-0.279	0.074
-507.756	-37.038	0.281	0.151
-506.741	-118.715	0.299	0.053
-505.726	800.000	0.041	0.140
-504.712	-78.676	-0.116	0.040
-503.697	800.000	0.111	0.379
-502.683	-200.000	-0.010	0.168
-501.668	498.573	-0.065	0.151
-500.653	98.870	0.203	0.235
-499.639	1.525	-0.236	0.170
-498.624	-129.616	0.296	0.041
-497.610	120.437	-0.149	-0.186
-496.595	-200.000	0.006	-0.264
-495.581	-75.251	0.127	0.046
-494.566	-146.560	-0.064	-0.006
-493.551	-137.158	-0.179	-0.020
-492.537	524.732	0.023	0.054
-491.522	-170.021	0.239	0.009
-490.508	-200.000	-0.007	-0.040
-489.493	58.868	-0.089	0.088
-488.478	-19.082	-0.256	-0.160
-487.464	328.082	0.137	-0.264
-486.449	-200.000	-0.002	0.158
-485.435	-200.000	0.014	-0.415
-484.420	-200.000	-0.024	-0.425
-483.405	-97.665	0.024	-0.006
-482.391	125.144	-0.174	0.221
-481.376	800.000	0.097	-0.272
-480.362	296.330	0.024	0.044
-479.347	306.070	-0.142	-0.266
-478.332	-34.880	0.336	0.184
-477.318	-38.707	0.160	0.085
-476.303	-200.000	-0.074	0.458
-475.289	-16.478	0.041	-0.026
-474.274	-26.880	-0.489	-0.287
-473.259	-200.000	0.008	0.142
-472.245	800.000	-0.042	-0.120
-471.230	-139.876	0.128	0.014
-470.216	800.000	0.057	0.205
-469.201	800.000	0.099	-0.317
-468.186	-171.934	-0.146	0.005
-467.172	104.566	0.239	-0.283
-466.157	224.306	0.172	-0.279
-465.143	-200.000	0.025	-0.116
-464.128	391.811	-0.054	-0.112
-463.113	675.195	0.036	0.093
-462.099	-200.000	0.058	-0.289
-461.084	14.761	-0.130	-0.102
-460.070	-200.000	0.011	-0.070
-459.055	-56.360	0.152	0.068
-458.040	74.026	0.259	-0.273
-457.026	800.000	0.047	0.155
-456.011	-68.408	0.331	0.129
-454.997	24.578	-0.076	0.063
-453.982	187.493	-0.133	-0.199
-452.968	-200.000	-0.042	-0.252
-451.953	287.417	-0.219	-0.398
-450.938	10.502	-0.134	0.103
-449.924	800.000	0.023	0.092
-448.909	273.423	0.141	0.250
-447.895	190.108	-0.103	-0.155
-446.880	-106.701	-0.212	0.047
-445.865	161.264	-0.320	0.450
-444.851	707.058	-0.057	0.150
-443.836	-200.000	-0.049	-0.257
-442.822	461.748	-0.222	0.496
-441.807	348.947	0.107	0.211
-440.792	-94.888	0.109	-0.030
-439.778	63.075	-0.211	-0.212
-438.763	-36.191	0.397	-0.215
-437.749	-4.734	0.155	-0.107
-436.734	-120.139	0.350	0.060
-435.719	103.959	-0.231	0.273
-434.705	-91.735	-0.355	0.101
-433.690	142.373	0.090	0.120
-432.676	154.407	-0.228	-0.314
-431.661	-130.548	0.262	-0.036
-430.646	-145.903	-0.360	-0.032
-429.632	-200.000	0.005	0.151
-428.617	399.605	-0.018	-0.038
-427.603	271.311	-0.204	0.361
-426.588	-66.811	-0.071	0.028
-425.573	-21.385	-0.018	-0.011
-424.559	-103.735	-0.374	-0.088
-423.544	175.735	0.059	-0.086
-422.530	-164.424	0.143	-0.007
-421.515	480.574	-0.016	-0.036
-420.500	249.923	0.115	0.196
-419.486	-154.580	0.292	-0.020
-418.471	-200.000	-0.060	0.292
-417.457	114.549	-0.163	-0.199
-416.442	225.438	-0.068	-0.111
-415.428	800.000	-0.046	-0.152
-414.413	136.170	0.046	-0.060
-413.398	108.400	0.197	-0.235
-412.384	-25.051	-0.346	0.206
-411.369	57.264	0.051	-0.050
-410.355	407.993	0.115	-0.245
-409.340	675.535	0.032	0.083
-408.325	-200.000	-0.007	0.230
-407.311	773.078	0.179	0.490
-406.296	800.000	-0.083	0.267
-405.282	213.437	0.080	-0.126
-404.267	125.092	-0.057	-0.071
-403.252	141.986	-0.017	-0.023
-402.238	142.191	-0.081	-0.107
-401.223	185.476	0.105	0.156
-400.209	-41.475	0.361	0.186
-399.194	46.754	0.156	0.145
-398.179	800.000	-0.044	-0.156
-397.165	-140.651	0.323	0.034
-396.150	-6.588	-0.223	-0.152
-395.136	29.337	-0.167	-0.142
-394.121	-17.787	0.093	-0.058
-393.106	-107.659	0.212	-0.046
-392.092	122.642	0.210	-0.263
-391.077	50.955	0.133	-0.126
-390.063	29.494	-0.201	0.171
-389.048	-62.822	-0.394	0.163
-388.033	-200.000	0.056	0.395
-387.019	-43.239	0.340	-0.172
-386.004	-188.425	-0.180	-0.002
-384.990	-42.907	-0.042	-0.021
-383.975	-200.000	0.002	-0.153
-382.960	800.000	-0.087	0.244
-381.946	425.005	-0.226	-0.488
-380.931	-128.415	0.198	0.028
-379.917	12.109	-0.183	0.141
-378.902	800.000	0.034	-0.125
-377.888	800.000	-0.024	-0.085
-376.873	276.700	-0.091	0.161
-375.858	-26.505	-0.073	-0.043
-374.844	-61.956	0.193	0.081
-373.829	500.237	0.065	0.149
-372.815	-113.479	0.145	-0.028
-371.800	-23.857	-0.202	-0.121
-370.785	355.969	0.093	-0.185
-369.771	239.904	0.176	-0.294
-368.756	117.480	-0.160	0.196
-367.742	-200.000	0.075	0.396
-366.727	112.635	-0.146	-0.177
-365.712	-173.480	0.132	0.004
-364.698	260.984	-0.038	0.065
-363.683	77.540	0.232	0.248
-362.669	-123.901	-0.301	0.047
-361.654	88.270	-0.066	0.073
-360.639	-189.857	0.284	-0.003
-359.625	-200.000	0.039	-0.704
-358.610	558.951	0.044	-0.106
-357.596	-33.571	-0.168	-0.093
-356.581	800.000	-0.107	-0.316
-355.566	27.443	-0.059	-0.050
-354.552	171.485	0.181	0.260
-353.537	-200.000	0.002	-0.331
-352.523	-200.000	0.032	0.208
-351.508	-200.000	0.024	-0.127
-350.493	31.152	-0.315	0.270
-349.479	-77.974	-0.469	0.162
-348.464	-55.212	0.202	-0.091
-347.450	-37.550	0.191	0.102
-346.435	-176.475	-0.119	-0.003
-345.420	-102.771	0.155	0.037
-344.406	-200.000	-0.038	0.274
-343.391	-118.738	0.179	0.032
-342.377	130.770	-0.220	-0.282
-341.362	207.712	0.122	0.190
-340.348	-82.250	-0.188	0.061
-339.333	-200.000	-0.049	0.324
-338.318	81.979	-0.155	0.168
-337.304	117.419	-0.206	0.253
-336.289	226.942	0.136	-0.220
-335.275	-121.059	0.089	0.015
-334.260	93.740	0.138	-0.157
-333.245	514.613	-0.096	0.223
-332.231	-173.598	0.075	0.002
-331.216	46.108	0.247	-0.229
-330.202	-194.612	0.136	0.001
-329.187	-200.000	-0.013	-0.454
-328.172	-122.039	0.113	-0.018
-327.158	53.091	0.100	0.095
-326.143	-200.000	0.038	0.345
-325.129	335.485	0.132	0.256
-324.114	-79.269	0.338	0.114
-323.099	-40.681	-0.463	0.240
-322.085	-23.205	0.014	0.008
-321.070	101.278	0.074	-0.086
-320.056	633.919	0.190	0.482
-319.041	49.553	-0.097	0.091
-318.026	-165.283	-0.186	0.008
-317.012	379.167	0.159	-0.325
-315.997	-200.000	0.019	-0.128
-314.983	3.323	0.174	0.126
-313.968	44.903	-0.236	-0.217
-312.953	787.055	-0.072	-0.199
-311.939	37.571	0.064	0.056
-310.924	-71.564	-0.283	-0.106
-309.910	-50.995	0.169	-0.079
-308.895	140.392	-0.278	0.366
-307.880	-23.585	-0.142	-0.085
-306.866	-56.323	0.350	-0.155
-305.851	-200.000	0.010	-0.079
-304.837	800.000	0.078	-0.278
-303.822	4.465	-0.126	0.092
-302.807	-61.838	0.235	0.098
-301.793	-51.707	0.163	-0.076
-300.778	103.196	-0.154	-0.180
-299.764	800.000	0.064	0.240
-298.749	-39.814	0.220	-0.115
-297.735	-28.517	-0.138	0.079
-296.720	-200.000	-0.027	-0.228
-295.705	-107.051	0.178	-0.039
-294.691	800.000	-0.085	0.282
-293.676	27.573	0.236	0.198
-292.662	-42.051	0.269	-0.137
-291.647	-77.184	0.081	-0.028
-290.632	-40.504	0.275	0.143
-289.618	-200.000	0.041	0.201
-288.603	-62.949	0.133	0.055
-287.589	-200.000	-0.017	0.294
-286.574	462.534	0.078	-0.174
-285.559	-6.548	0.069	-0.047
-284.545	-60.932	-0.151	0.064
-283.530	389.946	0.046	0.094
-282.516	30.881	0.206	-0.176
-281.501	-24.015	0.191	0.114
-280.486	-66.315	-0.221	-0.087
-279.472	18.903	-0.340	-0.271
-278.457	66.755	0.279	0.283
-277.443	788.222	0.083	-0.227
-276.428	135.482	0.055	-0.072
-275.413	-200.000	0.001	0.035
-274.399	-152.732	-0.102	0.007
-273.384	261.620	0.109	-0.188
-272.370	-58.699	-0.180	0.078
-271.355	23.649	0.176	0.144
-270.340	5.153	0.140	0.103
-269.326	-85.029	-0.211	-0.066
-268.311	126.926	0.168	-0.212
-267.297	-109.744	-0.098	0.020
-266.282	-200.000	-0.038	-0.166
-265.267	193.239	0.270	-0.407
-264.253	-57.873	-0.097	-0.042
-263.238	-31.451	0.424	-0.238
-262.224	247.049	-0.218	0.366
-261.209	-154.506	-0.144	-0.010
-260.195	-111.866	-0.136	0.027
-259.180	-32.002	-0.203	0.113
-258.165	186.331	0.088	0.131
-257.151	-107.120	0.244	0.054
-256.136	-13.440	0.200	0.129
-255.122	-127.809	-0.209	-0.030
-254.107	52.381	-0.171	0.162
-253.092	192.402	-0.077	-0.116
-252.078	80.152	-0.082	-0.088
-251.063	18.394	-0.197	-0.156
-250.049	-80.149	0.200	0.067
-249.034	9.029	0.165	0.124
-248.019	-124.654	-0.049	0.008
-247.005	30.332	-0.063	0.054
-245.990	-23.797	0.142	-0.085
-244.976	800.000	0.080	0.340
-243.961	-83.669	0.035	0.011
-242.946	-87.523	-0.262	0.079
-241.932	-163.687	0.429	0.020
-240.917	-157.234	0.133	0.008
-239.903	-62.026	-0.175	-0.073
-238.888	-75.443	-0.276	-0.098
-237.873	-90.212	0.109	-0.031
-236.859	-168.929	0.033	0.001
-235.844	-200.000	0.019	0.158
-234.830	-74.282	0.096	-0.034
-233.815	-200.000	-0.033	-0.263
-232.800	143.803	-0.273	-0.362
-231.786	-162.198	0.139	0.007
-230.771	-200.000	-0.031	0.213
-229.757	375.637	0.038	0.077
-228.742	-200.000	-0.020	-0.255
-227.727	-79.357	0.241	0.081
-226.713	-200.000	-0.012	-0.077
-225.698	-25.351	-0.397	0.234
-224.684	74.631	0.103	-0.108
-223.669	259.404	0.168	0.288
-222.655	-103.698	-0.382	-0.089
-221.640	-116.353	-0.125	0.023
-220.625	-200.000	0.048	-0.397
-219.611	101.969	-0.103	0.120
-218.596	-200.000	0.016	0.207
-217.582	-154.895	-0.264	0.017
-216.567	33.676	-0.146	-0.126
-215.552	-105.730	-0.396	-0.089
-214.538	-28.331	0.116	0.067
-213.523	-62.353	0.302	0.125
-212.509	9.797	0.197	-0.149
-211.494	76.394	-0.081	-0.086
-210.479	63.265	0.024	-0.024
-209.465	-26.414	-0.180	-0.105
-208.450	-95.627	-0.127	0.034
-207.436	-200.000	0.067	0.519
-206.421	-125.133	-0.444	-0.068
-205.406	16.288	0.102	0.080
-204.392	-90.627	-0.036	-0.010
-203.377	-200.000	0.053	0.387
-202.363	-14.831	-0.082	0.052
-201.348	236.465	0.173	-0.284
-200.333	-140.185	-0.141	0.015
-199.319	-6.904	-0.130	-0.087
-198.304	-68.907	0.414	0.159
-197.290	-47.517	0.189	-0.091
-196.275	-125.850	-0.160	-0.024
-195.260	32.240	-0.074	-0.063
-194.246	-200.000	0.014	0.200
-193.231	-105.745	-0.284	-0.064
-192.217	800.000	0.108	0.311
-191.202	-76.932	0.098	-0.034
-190.187	-200.000	0.006	0.056
-189.173	-200.000	-0.026	-0.164
-188.158	800.000	0.139	0.383
-187.144	-80.249	0.144	0.048
-186.129	-200.000	-0.003	0.108
-185.114	-56.004	0.315	-0.140
-184.100	-54.359	0.177	-0.080
-183.085	-127.592	-0.147	0.021
-182.071	-137.398	0.235	0.026
-181.056	491.802	-0.097	0.221
-180.042	-200.000	-0.009	0.311
-179.027	-136.929	0.099	-0.011
-178.012	18.934	-0.097	0.077
-176.998	-116.797	0.156	0.028
-175.983	-126.458	0.216	-0.032
-174.969	521.122	-0.082	-0.191
-173.954	-169.040	0.299	-0.011
-172.939	90.610	-0.131	0.146
-171.925	-12.522	-0.303	0.196
-170.910	-59.639	0.323	-0.138
-169.896	279.196	-0.059	0.104
-168.881	-82.668	-0.160	0.052
-167.866	-200.000	-0.041	-0.486
-166.852	-51.149	0.144	0.067
-165.837	-92.524	-0.360	-0.100
-164.823	403.548	0.183	-0.382
-163.808	-163.342	0.129	0.006
-162.793	-36.888	-0.173	-0.092
-161.779	-200.000	0.041	0.205
-160.764	143.206	-0.097	0.128
-159.750	78.380	0.099	0.105
-158.735	559.884	-0.074	-0.177
-157.720	800.000	-0.083	0.355
-156.706	-104.415	0.314	-0.072
-155.691	46.354	-0.109	-0.100
-154.677	135.084	0.228	0.294
-153.662	-200.000	-0.065	0.436
-152.647	-200.000	0.058	0.349
-151.633	294.238	0.057	0.104
-150.618	-3.996	-0.135	-0.093
-149.604	-48.828	-0.350	-0.167
-148.589	-74.506	0.379	0.135
-147.574	195.625	-0.105	-0.158
-146.560	-117.805	-0.038	-0.007
-145.545	-148.695	0.366	0.030
-144.531	-69.305	-0.107	-0.041
-143.516	59.741	0.168	0.164
-142.502	-131.008	0.104	-0.014
-141.487	-200.000	0.042	0.282
-140.472	-11.787	-0.110	0.072
-139.458	68.980	0.232	-0.237
-138.443	-91.017	0.178	-0.051
-137.429	253.906	-0.082	0.138
-136.414	109.557	-0.231	0.274
-135.399	-184.374	-0.399	-0.006
-134.385	123.256	0.047	-0.059
-133.370	130.302	0.041	0.052
-132.356	-200.000	0.004	-0.120
-131.341	-196.633	-0.263	-0.002
-130.326	-200.000	-0.046	-0.264
-129.312	-35.141	-0.131	0.071
-128.297	-200.000	0.028	0.170
-127.283	-200.000	0.059	0.266
-126.268	800.000	-0.095	-0.291
-125.253	-92.132	-0.353	0.099
-124.239	-95.830	0.153	-0.041
-123.224	-200.000	0.449	0.000
-122.210	-105.240	0.154	-0.035
