DTS Sentinel unit serial number:	SN413079Multiplexer serial number:	ORYXHardware model number:	OX4-SRSoftware version number:	ORYX F/W v4.00 Oryx Data Collector v3.7.2.0data status	okinstallation	princeton_trtdifferential loss correction	single-endedforward channel	channel 4reverse channel	N/Adate	2019/09/14time	01:41:35forward acquisition time	60.00reverse acquisition time	0.00gamma	496.2192k internal	0.2323k external	0.2323temperature offset calibration	1.0131default loss term (dB/km)	0.3790temperature slope calibration	1.0000multiplexer offset coefficient	1.0000multiplexer slope coefficient	1.0000fibre end	0.00T internal ref (°C)	26.44T ext. ref 1 (°C)	3.19T ext. ref 2 (°C)	21.47length (m)	temperature (°C)	Stokes	anti-Stokes-747.200	39.987	0.163	0.148
-746.185	-70.703	-0.140	0.053
-745.171	75.345	0.191	-0.204
-744.156	102.212	0.155	-0.183
-743.142	-200.000	0.007	-0.376
-742.127	10.292	-0.040	0.031
-741.112	-147.647	-0.282	0.024
-740.098	230.201	-0.135	0.223
-739.083	-171.414	0.272	-0.009
-738.069	-200.000	-0.004	-0.074
-737.054	-159.015	-0.251	-0.014
-736.039	-105.268	-0.114	-0.026
-735.025	-39.378	0.201	0.107
-734.010	791.514	0.041	0.114
-732.996	28.143	0.185	0.158
-731.981	-149.476	-0.062	-0.005
-730.966	13.376	-0.028	-0.022
-729.952	800.000	0.028	-0.093
-728.937	800.000	0.114	0.379
-727.923	-20.130	-0.331	0.206
-726.908	-200.000	0.042	-0.288
-725.894	109.249	-0.107	0.129
-724.879	-37.764	-0.089	0.048
-723.864	-20.540	-0.013	0.008
-722.850	15.955	-0.132	0.105
-721.835	126.916	0.132	0.169
-720.821	-129.789	-0.013	-0.002
-719.806	96.741	0.367	0.424
-718.791	-144.050	0.040	-0.004
-717.777	458.840	-0.121	-0.272
-716.762	-48.601	0.048	0.023
-715.748	1.991	-0.206	-0.150
-714.733	9.158	0.202	0.154
-713.718	-81.229	-0.339	-0.113
-712.704	-139.076	0.345	0.038
-711.689	209.621	-0.113	0.178
-710.675	54.918	-0.196	0.190
-709.660	-173.469	0.347	-0.011
-708.645	276.355	0.114	-0.204
-707.631	303.034	-0.132	-0.247
-706.616	-72.858	-0.067	0.025
-705.602	624.416	-0.080	-0.203
-704.587	27.381	0.096	0.082
-703.572	129.706	-0.057	0.074
-702.558	-93.625	0.283	0.079
-701.543	168.339	0.159	-0.228
-700.529	-200.000	0.027	-0.128
-699.514	128.315	-0.047	-0.061
-698.499	-100.130	-0.082	0.021
-697.485	-77.127	-0.041	-0.015
-696.470	-101.903	-0.277	0.067
-695.456	71.802	0.077	-0.081
-694.441	-33.871	0.039	0.022
-693.426	232.383	0.266	0.441
-692.412	800.000	0.063	0.250
-691.397	-54.188	0.135	-0.062
-690.383	-122.161	0.275	-0.045
-689.368	44.088	0.142	0.131
-688.354	219.561	-0.071	0.114
-687.339	87.998	-0.148	0.165
-686.324	-104.369	-0.094	0.022
-685.310	-113.922	0.127	0.025
-684.295	-1.505	-0.266	0.189
-683.281	-20.484	0.085	-0.052
-682.266	-164.561	-0.600	0.027
-681.251	-200.000	0.013	0.095
-680.237	-12.047	-0.411	-0.271
-679.222	-56.021	0.244	0.110
-678.208	-90.810	-0.201	0.058
-677.193	278.054	-0.160	-0.288
-676.178	-200.000	0.040	-0.200
-675.164	-73.940	0.153	0.056
-674.149	29.820	0.128	0.110
-673.135	116.227	0.176	0.217
-672.120	7.471	0.043	0.032
-671.105	55.591	-0.150	0.146
-670.091	-57.969	-0.219	0.096
-669.076	-40.756	0.083	0.043
-668.062	399.830	-0.071	0.149
-667.047	-138.239	-0.305	0.034
-666.032	-200.000	-0.036	-0.410
-665.018	134.463	0.013	0.017
-664.003	385.638	0.099	-0.205
-662.989	-65.713	-0.143	-0.058
-661.974	798.399	-0.054	0.151
-660.959	-200.000	0.011	0.164
-659.945	-114.264	-0.424	0.082
-658.930	251.471	-0.162	0.277
-657.916	-47.842	0.247	0.121
-656.901	0.034	0.238	0.170
-655.886	29.720	-0.274	-0.235
-654.872	28.155	0.074	0.063
-653.857	800.000	0.130	-0.393
-652.843	13.399	-0.138	-0.108
-651.828	-200.000	-0.036	-0.257
-650.814	800.000	-0.055	-0.165
-649.799	800.000	-0.056	-0.175
-648.784	33.042	0.225	-0.196
-647.770	-141.416	0.232	-0.024
-646.755	327.896	-0.073	-0.141
-645.741	800.000	-0.022	-0.089
-644.726	278.075	0.170	0.305
-643.711	-108.142	-0.263	0.057
-642.697	-4.819	0.247	0.172
-641.682	3.155	-0.187	0.137
-640.668	-105.904	0.151	-0.034
-639.653	-48.769	-0.327	-0.158
-638.638	800.000	0.050	-0.178
-637.624	-200.000	-0.047	-0.315
-636.609	-84.886	-0.191	-0.060
-635.595	525.773	-0.110	-0.261
-634.580	742.182	-0.073	-0.198
-633.565	-200.000	-0.020	0.161
-632.551	186.560	-0.013	0.019
-631.536	-43.905	0.326	-0.165
-630.522	-200.000	-0.011	-0.188
-629.507	130.754	-0.075	0.097
-628.492	-55.779	-0.183	0.082
-627.478	-200.000	-0.011	0.163
-626.463	800.000	0.007	0.025
-625.449	98.368	0.281	-0.326
-624.434	-77.522	-0.601	-0.209
-623.419	-200.000	0.006	0.035
-622.405	19.198	-0.133	0.108
-621.390	-79.764	-0.426	0.144
-620.376	474.923	0.068	0.154
-619.361	-47.974	-0.301	0.146
-618.346	-70.748	0.217	-0.082
-617.332	-7.831	0.138	-0.094
-616.317	402.214	0.216	0.457
-615.303	409.727	0.061	-0.131
-614.288	-9.003	0.139	-0.093
-613.273	328.423	-0.142	0.274
-612.259	101.686	-0.137	-0.161
-611.244	106.403	0.049	0.058
-610.230	-86.261	-0.226	0.070
-609.215	53.082	0.141	-0.136
-608.201	-24.834	0.301	-0.180
-607.186	40.905	-0.215	0.195
-606.171	-137.449	-0.314	0.036
-605.157	6.830	0.082	0.062
-604.142	253.335	-0.156	-0.268
-603.128	467.936	0.054	0.123
-602.113	127.479	-0.164	-0.209
-601.098	40.181	-0.446	-0.403
-600.084	233.493	0.232	-0.383
-599.069	608.019	-0.142	-0.356
-598.055	215.704	-0.179	0.285
-597.040	507.208	-0.115	0.268
-596.025	800.000	0.063	-0.220
-595.011	-200.000	0.012	0.198
-593.996	-93.680	0.173	-0.048
-592.982	-37.063	-0.261	0.140
-591.967	-24.214	-0.111	-0.067
-590.952	800.000	0.040	0.152
-589.938	800.000	-0.006	0.027
-588.923	-200.000	0.050	-0.264
-587.909	-178.011	0.129	0.003
-586.894	-26.631	0.064	-0.037
-585.879	666.370	0.132	0.342
-584.865	-13.730	-0.271	0.176
-583.850	87.003	-0.258	-0.287
-582.836	-94.249	-0.256	-0.070
-581.821	155.897	-0.052	-0.071
-580.806	-97.029	0.119	-0.031
-579.792	-200.000	0.018	-0.096
-578.777	161.005	-0.215	-0.302
-577.763	313.093	-0.148	-0.279
-576.748	800.000	-0.049	0.216
-575.733	617.430	-0.029	0.074
-574.719	49.237	0.190	0.179
-573.704	-24.468	-0.242	0.145
-572.690	338.243	0.120	-0.234
-571.675	191.263	-0.056	-0.085
-570.661	-125.924	0.191	-0.029
-569.646	-200.000	0.011	-0.165
-568.631	-44.934	-0.437	-0.218
-567.617	-12.878	0.130	-0.085
-566.602	-19.342	-0.143	-0.089
-565.588	124.938	-0.135	-0.170
-564.573	-112.709	-0.234	-0.047
-563.558	182.797	-0.057	0.084
-562.544	-143.625	0.269	-0.026
-561.529	-53.357	-0.204	-0.094
-560.515	-141.622	-0.324	-0.033
-559.500	81.530	-0.219	-0.237
-558.485	260.682	-0.060	-0.103
-557.471	-200.000	-0.023	0.153
-556.456	-92.037	0.144	0.041
-555.442	408.048	0.176	-0.373
-554.427	92.640	0.144	-0.163
-553.412	748.333	-0.114	0.308
-552.398	800.000	0.090	0.369
-551.383	-200.000	-0.039	0.358
-550.369	189.176	0.046	0.070
-549.354	-139.894	-0.079	-0.008
-548.339	288.476	0.218	0.396
-547.325	9.753	0.274	-0.208
-546.310	-43.156	-0.249	0.126
-545.296	-64.239	0.339	0.139
-544.281	173.846	0.038	-0.055
-543.266	-87.896	-0.293	-0.088
-542.252	136.984	0.040	-0.052
-541.237	-200.000	-0.016	0.107
-540.223	183.251	-0.063	-0.093
-539.208	-40.202	-0.237	-0.123
-538.193	-28.838	0.317	-0.182
-537.179	-32.333	0.363	-0.203
-536.164	162.791	0.104	0.147
-535.150	-200.000	-0.028	0.458
-534.135	-131.455	0.369	0.049
-533.121	-93.340	0.171	0.048
-532.106	-104.129	-0.091	0.021
-531.091	44.444	-0.383	0.352
-530.077	-7.929	0.342	0.231
-529.062	183.775	-0.033	-0.050
-528.048	-118.408	-0.379	0.067
-527.033	-200.000	-0.007	0.215
-526.018	-46.189	0.172	-0.085
-525.004	800.000	-0.054	-0.217
-523.989	-200.000	-0.029	-0.424
-522.975	-35.816	0.218	-0.118
-521.960	663.993	0.055	-0.141
-520.945	-200.000	-0.036	0.210
-519.931	-200.000	-0.013	-0.075
-518.916	-102.640	-0.142	-0.034
-517.902	93.248	-0.228	-0.258
-516.887	-16.780	0.129	-0.082
-515.872	2.745	0.263	-0.191
-514.858	351.286	0.101	0.201
-513.843	-72.091	-0.170	0.063
-512.829	119.517	0.041	0.050
-511.814	49.179	0.087	0.082
-510.799	207.090	-0.181	0.283
-509.785	-200.000	0.002	0.058
-508.770	71.510	-0.181	-0.188
-507.756	225.020	-0.127	0.206
-506.741	214.640	0.129	-0.205
-505.726	800.000	-0.023	0.097
-504.712	546.703	-0.109	-0.261
-503.697	-57.260	0.268	0.118
-502.683	-111.117	0.059	-0.012
-501.668	86.856	-0.299	-0.330
-500.653	-16.095	-0.252	-0.160
-499.639	-17.100	-0.291	-0.184
-498.624	-96.880	0.402	-0.105
-497.610	-80.976	0.291	0.096
-496.595	-200.000	-0.027	0.326
-495.581	-200.000	-0.022	-0.228
-494.566	218.425	0.110	-0.175
-493.551	-95.049	-0.105	0.028
-492.537	800.000	-0.044	-0.180
-491.522	-200.000	0.048	0.217
-490.508	800.000	0.064	0.272
-489.493	-200.000	0.010	-0.312
-488.478	288.029	-0.139	-0.251
-487.464	49.193	-0.198	0.186
-486.449	687.102	0.173	-0.451
-485.435	-5.875	-0.176	-0.120
-484.420	193.084	-0.131	0.197
-483.405	-200.000	0.004	-0.166
-482.391	-70.716	-0.193	0.073
-481.376	-200.000	-0.046	-0.205
-480.362	-118.703	0.135	-0.024
-479.347	-71.458	-0.364	0.136
-478.332	62.464	0.097	-0.097
-477.318	800.000	-0.055	-0.195
-476.303	800.000	0.061	0.171
-475.289	258.233	0.113	0.195
-474.274	115.220	0.058	0.071
-473.259	38.497	0.054	0.048
-472.245	-146.237	0.181	-0.016
-471.230	-105.729	-0.032	-0.007
-470.216	800.000	-0.020	-0.073
-469.201	-200.000	-0.053	0.483
-468.186	-10.870	0.138	0.091
-467.172	261.943	0.112	-0.194
-466.157	-200.000	0.062	-0.445
-465.143	142.944	0.244	-0.324
-464.128	-200.000	-0.016	0.142
-463.113	280.647	-0.115	-0.206
-462.099	233.570	0.034	-0.056
-461.084	-200.000	0.043	0.207
-460.070	-200.000	0.013	-0.210
-459.055	712.565	0.049	-0.129
-458.040	70.309	0.142	0.146
-457.026	-52.663	0.172	0.079
-456.011	20.782	-0.155	0.125
-454.997	-200.000	-0.037	-0.168
-453.982	-200.000	0.004	0.144
-452.968	-122.053	-0.183	-0.030
-451.953	-52.329	0.305	-0.141
-450.938	-200.000	0.009	0.058
-449.924	-168.125	0.299	-0.012
-448.909	96.925	0.207	0.237
-447.895	60.125	-0.151	-0.149
-446.880	93.518	0.074	-0.083
-445.865	19.652	0.146	-0.117
-444.851	155.587	-0.247	0.340
-443.836	441.812	0.166	-0.362
-442.822	-120.645	0.136	-0.023
-441.807	-105.822	0.235	-0.053
-440.792	85.111	0.126	-0.138
-439.778	523.046	-0.175	-0.410
-438.763	-21.632	-0.066	0.040
-437.749	320.415	0.051	-0.098
-436.734	375.650	0.023	-0.047
-435.719	268.335	-0.122	-0.214
-434.705	243.231	0.160	-0.267
-433.690	-164.168	0.606	-0.028
-432.676	-22.503	-0.243	-0.147
-431.661	642.439	0.129	-0.328
-430.646	800.000	0.074	-0.309
-429.632	800.000	0.061	0.213
-428.617	58.612	0.043	0.042
-427.603	-67.400	-0.186	-0.073
-426.588	-67.970	0.109	-0.042
-425.573	-36.376	-0.360	0.193
-424.559	-11.284	-0.230	-0.151
-423.544	21.467	0.260	-0.211
-422.530	40.153	0.320	-0.287
-421.515	92.239	0.182	-0.205
-420.500	314.988	0.171	0.321
-419.486	53.569	-0.149	-0.142
-418.471	-111.774	-0.201	0.041
-417.457	800.000	0.048	-0.177
-416.442	212.767	0.152	0.240
-415.428	28.363	-0.205	-0.172
-414.413	-85.733	0.077	0.024
-413.398	-127.944	-0.179	0.026
-412.384	557.680	-0.098	0.234
-411.369	-172.964	0.157	0.005
-410.355	800.000	-0.037	0.136
-409.340	-200.000	-0.031	0.165
-408.325	-88.285	0.170	-0.051
-407.311	111.113	0.072	-0.087
-406.296	288.355	0.104	-0.187
-405.282	-27.897	-0.105	0.061
-404.267	-142.427	0.158	-0.016
-403.252	-139.179	-0.391	0.042
-402.238	-200.000	0.010	-0.212
-401.223	800.000	-0.076	0.230
-400.209	309.610	-0.035	0.065
-399.194	46.338	-0.161	0.149
-398.179	-200.000	0.004	0.100
-397.165	56.752	0.226	0.219
-396.150	-124.956	0.185	-0.028
-395.136	-200.000	0.004	0.054
-394.121	-200.000	0.000	-0.008
-393.106	354.296	0.171	0.338
-392.092	-137.934	-0.182	-0.020
-391.077	-21.471	-0.247	0.150
-390.063	-120.435	0.196	0.033
-389.048	19.212	0.133	0.107
-388.033	-47.366	0.312	0.151
-387.019	-121.401	-0.278	0.046
-386.004	-26.856	0.181	-0.106
-384.990	-48.107	-0.310	0.149
-383.975	492.715	0.038	-0.087
-382.960	300.151	-0.030	-0.055
-381.946	143.348	-0.273	-0.362
-380.931	243.357	0.041	-0.068
-379.917	-112.038	0.097	-0.020
-378.902	800.000	0.064	-0.211
-377.888	-200.000	0.022	0.169
-376.873	-6.939	-0.100	-0.067
-375.858	-200.000	0.036	0.273
-374.844	-54.421	-0.135	-0.061
-373.829	475.495	0.064	-0.143
-372.815	-100.678	-0.188	0.046
-371.800	-200.000	0.008	0.059
-370.785	-2.376	-0.335	0.234
-369.771	-200.000	0.093	0.554
-368.756	196.822	0.102	-0.155
-367.742	-146.140	0.222	0.019
-366.727	541.154	-0.015	-0.035
-365.712	-142.136	-0.097	-0.010
-364.698	191.457	0.069	-0.104
-363.683	-200.000	-0.058	0.326
-362.669	164.732	0.082	0.115
-361.654	-153.770	-0.134	-0.009
-360.639	457.666	-0.073	0.162
-359.625	115.116	-0.100	0.121
-358.610	-32.688	-0.246	-0.136
-357.596	234.984	-0.107	-0.176
-356.581	98.001	0.184	-0.211
-355.566	-200.000	-0.011	-0.143
-354.552	-18.402	0.192	0.120
-353.537	-94.271	0.234	0.064
-352.523	72.315	-0.139	0.144
-351.508	800.000	0.064	-0.214
-350.493	-200.000	0.002	-0.013
-349.479	90.085	0.275	-0.305
-348.464	-200.000	-0.079	0.446
-347.450	800.000	0.083	-0.313
-346.435	-200.000	0.011	0.083
-345.420	-200.000	0.020	0.256
-344.406	74.751	0.129	0.135
-343.391	-71.065	0.088	-0.033
-342.377	800.000	0.065	0.184
-341.362	-2.309	-0.293	0.204
-340.348	500.917	-0.114	-0.261
-339.333	116.344	-0.108	0.131
-338.318	-186.226	0.203	0.003
-337.304	-198.525	-0.362	-0.002
-336.289	-35.881	-0.383	-0.206
-335.275	639.779	0.006	0.016
-334.260	-200.000	-0.036	0.199
-333.245	-200.000	0.004	0.118
-332.231	308.453	0.185	0.344
-331.216	-35.201	0.167	0.090
-330.202	-115.406	-0.310	0.058
-329.187	127.795	-0.163	0.206
-328.172	-91.239	0.156	0.044
-327.158	800.000	0.106	0.328
-326.143	-200.000	-0.026	0.273
-325.129	-200.000	-0.006	0.319
-324.114	-110.395	-0.265	0.055
-323.099	534.052	-0.079	0.187
-322.085	758.823	0.056	0.150
-321.070	800.000	-0.048	0.165
-320.056	-200.000	0.084	-0.392
-319.041	782.634	0.051	0.139
-318.026	-200.000	0.002	-0.105
-317.012	115.152	0.128	0.156
-315.997	-173.274	-0.253	0.008
-314.983	-42.583	-0.266	-0.135
-313.968	-157.142	0.185	-0.011
-312.953	19.688	-0.247	-0.198
-311.939	-99.140	-0.100	-0.025
-310.924	-83.037	0.299	0.096
-309.910	-0.720	-0.110	0.077
-308.895	-200.000	0.096	0.000
-307.880	122.521	0.155	0.193
-306.866	161.507	0.043	0.060
-305.851	276.878	-0.087	0.153
-304.837	-168.002	-0.497	0.019
-303.822	202.116	-0.128	0.195
-302.807	-9.278	0.090	-0.059
-301.793	-94.757	0.374	0.101
-300.778	-23.424	-0.099	-0.059
-299.764	-67.932	0.167	-0.065
-298.749	-132.563	-0.284	0.036
-297.735	239.999	0.098	0.163
-296.720	-129.927	-0.333	-0.045
-295.705	800.000	0.070	0.203
-294.691	-151.638	0.258	0.019
-293.676	706.279	0.038	0.100
-292.662	57.879	0.281	0.273
-291.647	800.000	-0.072	0.257
-290.632	-110.173	0.075	-0.016
-289.618	-122.512	-0.189	0.030
-288.603	800.000	-0.066	-0.223
-287.589	-200.000	-0.009	0.109
-286.574	293.910	0.146	-0.265
-285.559	-33.615	0.158	-0.086
-284.545	-200.000	0.002	-0.180
-283.530	-200.000	0.019	0.165
-282.516	81.694	0.086	-0.092
-281.501	800.000	0.048	-0.164
-280.486	-79.733	-0.395	0.132
-279.472	-107.528	0.275	0.060
-278.457	-53.963	-0.301	-0.136
-277.443	55.469	0.133	-0.128
-276.428	81.061	-0.143	-0.153
-275.413	743.421	-0.118	0.315
-274.399	138.882	0.153	0.199
-273.384	127.329	-0.052	0.065
-272.370	-40.339	0.178	0.092
-271.355	-75.992	0.058	-0.020
-270.340	-200.000	-0.031	0.188
-269.326	-57.879	-0.212	0.092
-268.311	-18.508	0.237	-0.147
-267.297	-200.000	0.032	0.180
-266.282	8.697	0.030	0.023
-265.267	-75.149	-0.138	0.049
-264.253	-69.163	0.160	-0.061
-263.238	-35.592	-0.080	0.043
-262.224	-164.873	0.066	-0.003
-261.209	800.000	0.097	-0.272
-260.195	-53.351	-0.130	0.059
-259.180	23.979	-0.203	-0.166
-258.165	-38.602	0.219	-0.115
-257.151	800.000	-0.051	-0.214
-256.136	-62.010	0.388	0.161
-255.122	-200.000	-0.012	-0.118
-254.107	113.978	0.097	-0.116
-253.092	-62.681	0.247	0.101
-252.078	55.910	0.039	-0.038
-251.063	-58.984	-0.093	-0.040
-250.049	-200.000	-0.060	0.359
-249.034	72.937	0.147	0.152
-248.019	106.668	-0.121	0.143
-247.005	-180.497	0.501	-0.010
-245.990	-200.000	-0.022	-0.356
-244.976	-35.236	-0.093	-0.050
-243.961	-146.332	0.365	-0.032
-242.946	29.291	-0.121	0.102
-241.932	39.298	-0.070	0.062
-240.917	330.739	-0.027	0.051
-239.903	-133.567	-0.235	-0.029
-238.888	94.985	0.155	-0.175
-237.873	-200.000	0.048	-0.234
-236.859	15.925	-0.133	-0.104
-235.844	15.354	-0.261	0.203
-234.830	785.710	0.017	-0.045
-233.815	-133.346	0.059	-0.007
-232.800	-200.000	0.046	0.292
-231.786	43.845	0.185	0.168
-230.771	-28.703	-0.112	0.064
-229.757	-200.000	0.009	0.047
-228.742	-24.336	0.305	0.180
-227.727	354.444	-0.229	0.451
-226.713	-119.418	0.255	-0.044
-225.698	-151.924	0.053	-0.004
-224.684	12.653	-0.093	-0.071
-223.669	800.000	-0.070	0.212
-222.655	-112.054	-0.276	-0.055
-221.640	800.000	-0.041	0.158
-220.625	-22.731	-0.231	0.138
-219.611	-76.891	-0.136	-0.047
-218.596	-200.000	-0.023	0.110
-217.582	-149.640	0.271	-0.021
-216.567	-125.309	0.503	0.076
-215.552	237.722	0.029	0.048
-214.538	-200.000	-0.021	-0.328
-213.523	-143.445	0.479	0.045
-212.509	-200.000	0.000	0.121
-211.494	748.837	0.034	0.092
-210.479	-14.470	-0.225	-0.143
-209.465	321.231	0.065	-0.123
-208.450	-42.919	-0.351	-0.176
-207.436	-4.713	-0.324	-0.221
-206.421	-200.000	-0.002	-0.114
-205.406	800.000	-0.076	-0.275
-204.392	-38.494	-0.301	0.158
-203.377	227.118	-0.122	0.195
-202.363	-88.029	0.088	-0.026
-201.348	24.681	-0.168	-0.137
-200.333	-102.207	-0.047	0.011
-199.319	322.707	-0.064	0.121
-198.304	-16.448	-0.140	0.088
-197.290	97.000	0.337	-0.382
-196.275	437.354	-0.114	0.245
-195.260	238.530	0.074	-0.122
-194.246	362.922	0.019	0.038
-193.231	-200.000	0.092	0.645
-192.217	-200.000	-0.051	-0.305
-191.202	-82.396	0.028	-0.009
-190.187	-200.000	-0.082	-0.413
-189.173	-200.000	-0.018	-0.225
-188.158	108.145	0.022	-0.025
-187.144	243.512	0.084	0.139
-186.129	405.581	0.192	0.401
-185.114	-178.993	-0.212	-0.005
-184.100	45.258	0.210	0.191
-183.085	-200.000	0.033	-0.144
-182.071	0.295	0.030	-0.021
-181.056	-200.000	-0.010	-0.359
-180.042	-70.557	-0.164	-0.061
-179.027	111.388	0.080	-0.095
-178.012	-64.166	0.243	0.098
-176.998	-62.066	0.156	-0.064
-175.983	105.118	0.114	0.133
-174.969	-200.000	0.011	0.053
-173.954	438.529	-0.136	0.294
-172.939	-2.657	-0.182	-0.126
-171.925	334.874	0.089	0.170
-170.910	105.889	-0.190	-0.222
-169.896	-28.537	-0.138	0.079
-168.881	719.052	0.054	0.142
-167.866	800.000	-0.055	-0.198
-166.852	-39.843	0.120	-0.062
-165.837	800.000	-0.024	0.069
-164.823	-76.944	0.192	-0.066
-163.808	-133.420	0.313	-0.039
-162.793	800.000	0.067	-0.224
-161.779	800.000	0.087	-0.248
-160.764	-200.000	0.002	-0.125
-159.750	-102.001	0.138	-0.033
-158.735	-41.513	0.079	0.040
-157.720	707.729	-0.035	0.092
-156.706	-200.000	-0.006	0.407
-155.691	591.064	0.025	-0.062
-154.677	120.719	-0.085	0.104
-153.662	-154.385	0.357	0.024
-152.647	653.355	0.148	0.374
-151.633	-153.110	0.162	0.011
-150.618	-157.943	0.184	0.011
-149.604	-200.000	0.019	0.112
-148.589	-66.079	0.177	0.070
-147.574	96.830	-0.076	0.086
-146.560	-171.507	0.311	-0.010
-145.545	800.000	-0.088	0.336
-144.531	-156.797	0.275	-0.017
-143.516	800.000	0.050	-0.138
-142.502	294.194	-0.099	0.178
-141.487	-53.740	0.210	0.095
-140.472	221.657	0.092	0.146
-139.458	29.288	-0.335	0.281
-138.443	-142.652	-0.050	-0.005
-137.429	-200.000	0.076	-0.457
-136.414	-45.241	-0.322	0.158
-135.399	641.978	-0.085	0.213
-134.385	-5.491	-0.094	0.063
-133.370	50.074	0.156	-0.145
-132.356	-200.000	-0.004	-0.029
-131.341	-200.000	-0.066	0.315
-130.326	-200.000	-0.005	-0.173
-129.312	-200.000	-0.027	-0.224
-128.297	259.674	0.062	0.106
-127.283	-26.148	0.060	-0.035
-126.268	-37.015	-0.065	-0.034
-125.253	-200.000	0.037	-0.340
-124.239	221.792	0.038	-0.061
-123.224	-200.000	-0.042	0.234
-122.210	219.826	-0.173	-0.273
-121.195	-69.861	-0.247	0.093
