DTS Sentinel unit serial number:	SN413079Multiplexer serial number:	ORYXHardware model number:	OX4-SRSoftware version number:	ORYX F/W v4.00 Oryx Data Collector v3.7.2.0data status	okinstallation	princeton_trtdifferential loss correction	single-endedforward channel	channel 4reverse channel	N/Adate	2019/09/12time	14:11:11forward acquisition time	60.00reverse acquisition time	0.00gamma	496.2192k internal	0.2291k external	0.2291temperature offset calibration	1.0084default loss term (dB/km)	0.3790temperature slope calibration	1.0000multiplexer offset coefficient	1.0000multiplexer slope coefficient	1.0000fibre end	0.00T internal ref (°C)	40.36T ext. ref 1 (°C)	2.23T ext. ref 2 (°C)	35.76length (m)	temperature (°C)	Stokes	anti-Stokes-747.200	-111.111	-0.174	0.037
-746.185	15.181	0.511	0.410
-745.171	-187.420	0.475	-0.007
-744.156	800.000	-0.084	0.266
-743.142	20.811	0.150	0.125
-742.127	800.000	-0.044	0.183
-741.112	253.522	-0.188	-0.329
-740.098	800.000	0.173	0.605
-739.083	800.000	-0.120	0.344
-738.069	800.000	0.131	0.520
-737.054	-200.000	0.012	0.075
-736.039	230.845	-0.051	-0.085
-735.025	0.203	0.109	0.079
-734.010	-156.863	-0.056	-0.003
-732.996	172.303	-0.203	-0.298
-731.981	-200.000	-0.055	0.337
-730.966	-105.998	0.398	-0.092
-729.952	-200.000	0.009	-0.059
-728.937	-126.152	0.267	0.041
-727.923	-200.000	0.076	-0.411
-726.908	-200.000	-0.009	-0.311
-725.894	742.024	0.167	-0.458
-724.879	356.537	0.137	-0.279
-723.864	71.445	-0.092	0.098
-722.850	616.203	-0.066	-0.170
-721.835	-200.000	0.007	0.083
-720.821	62.801	-0.077	-0.079
-719.806	800.000	0.032	-0.113
-718.791	800.000	0.019	0.059
-717.777	-137.925	0.247	-0.028
-716.762	66.735	-0.164	0.171
-715.748	-200.000	-0.031	0.168
-714.733	-200.000	0.029	0.174
-713.718	-100.069	0.375	-0.096
-712.704	800.000	0.032	-0.123
-711.689	-95.707	-0.328	-0.090
-710.675	96.170	-0.174	-0.203
-709.660	-200.000	-0.217	0.001
-708.645	-146.855	-0.195	-0.017
-707.631	10.550	0.346	0.270
-706.616	206.068	-0.055	-0.088
-705.602	74.064	-0.180	0.194
-704.587	-24.070	0.112	0.068
-703.572	-75.949	-0.177	0.064
-702.558	233.611	-0.113	0.190
-701.543	-103.447	0.134	-0.032
-700.529	-115.617	0.151	0.029
-699.514	-43.299	0.212	-0.110
-698.499	-52.276	-0.157	-0.074
-697.485	-200.000	-0.020	-0.320
-696.470	-200.000	-0.005	-0.169
-695.456	45.333	-0.132	-0.125
-694.441	104.396	-0.152	0.183
-693.426	800.000	-0.075	0.314
-692.412	-126.547	0.253	-0.038
-691.397	-148.153	-0.347	-0.029
-690.383	-105.811	-0.294	0.068
-689.368	-158.364	-0.289	-0.017
-688.354	-64.696	0.077	-0.032
-687.339	-94.759	-0.197	-0.054
-686.324	136.013	-0.251	-0.334
-685.310	-200.000	0.023	-0.212
-684.295	-126.023	0.244	0.038
-683.281	532.578	0.011	0.027
-682.266	40.706	-0.088	-0.081
-681.251	-176.660	0.150	0.004
-680.237	58.051	-0.089	-0.089
-679.222	-200.000	-0.019	-0.149
-678.208	800.000	-0.068	-0.250
-677.193	52.942	0.121	-0.118
-676.178	286.937	0.146	-0.269
-675.164	13.545	0.131	0.104
-674.149	-36.872	0.356	0.195
-673.135	-13.628	-0.126	0.083
-672.120	-84.570	0.145	0.047
-671.105	-200.000	-0.004	0.214
-670.091	-200.000	-0.004	0.283
-669.076	112.661	-0.074	0.091
-668.062	-92.324	-0.248	0.071
-667.047	-89.034	-0.174	0.053
-666.032	235.453	0.095	-0.160
-665.018	-33.077	0.210	0.119
-664.003	83.442	0.018	-0.020
-662.989	95.406	-0.116	-0.135
-661.974	29.038	-0.134	-0.116
-660.959	-78.493	-0.156	-0.055
-659.945	283.498	0.082	0.151
-658.930	-50.340	0.117	-0.057
-657.916	141.922	-0.106	-0.143
-656.901	-106.661	-0.123	-0.028
-655.886	-158.893	0.051	0.003
-654.872	249.373	0.021	-0.037
-653.857	111.688	-0.060	0.074
-652.843	-146.909	-0.290	0.025
-651.828	-200.000	0.007	-0.048
-650.814	88.856	0.168	-0.191
-649.799	-132.830	-0.363	0.047
-648.784	800.000	0.070	0.284
-647.770	-70.621	-0.065	-0.025
-646.755	-50.580	-0.119	0.057
-645.741	-200.000	0.001	-0.080
-644.726	-200.000	0.007	0.084
-643.711	-56.044	-0.089	-0.041
-642.697	-200.000	0.025	-0.215
-641.682	-200.000	0.009	-0.104
-640.668	-91.922	-0.224	-0.065
-639.653	680.443	-0.020	-0.053
-638.638	-23.119	-0.252	0.155
-637.624	-40.639	-0.344	-0.182
-636.609	-29.539	0.034	0.020
-635.595	-21.102	-0.245	-0.153
-634.580	442.016	-0.065	0.145
-633.565	80.568	-0.157	-0.172
-632.551	-61.249	-0.266	0.114
-631.536	115.042	0.117	-0.146
-630.522	-99.119	0.088	-0.023
-629.507	-171.434	-0.100	-0.003
-628.492	425.349	-0.063	-0.139
-627.478	513.423	0.033	-0.078
-626.463	-97.120	0.085	-0.023
-625.449	-200.000	-0.006	-0.302
-624.434	-63.134	-0.040	-0.017
-623.419	-200.000	-0.004	0.235
-622.405	-18.311	0.278	-0.177
-621.390	-101.917	-0.328	-0.081
-620.376	-39.739	-0.213	0.114
-619.361	60.241	0.149	-0.150
-618.346	-200.000	-0.010	0.086
-617.332	-14.882	-0.139	0.091
-616.317	-200.000	0.087	0.412
-615.303	34.197	-0.313	-0.278
-614.288	-200.000	-0.013	-0.206
-613.273	322.444	-0.138	0.267
-612.259	800.000	0.053	0.172
-611.244	45.892	-0.123	0.116
-610.230	0.357	0.082	-0.060
-609.215	299.773	0.318	-0.598
-608.201	516.051	0.179	-0.426
-607.186	-81.989	0.212	0.070
-606.171	-27.582	0.182	-0.108
-605.157	-161.012	0.028	-0.001
-604.142	-77.126	0.140	0.050
-603.128	-0.207	-0.373	0.270
-602.113	107.870	-0.145	0.176
-601.098	70.957	-0.192	0.203
-600.084	-97.775	-0.249	0.066
-599.069	-160.600	-0.407	-0.022
-598.055	-86.631	-0.085	-0.027
-597.040	259.916	-0.138	-0.242
-596.025	-77.375	-0.062	0.022
-595.011	167.269	0.141	0.204
-593.996	-143.945	-0.152	-0.015
-592.982	-147.043	0.250	0.022
-591.967	-99.696	-0.250	0.064
-590.952	23.329	0.082	-0.068
-589.938	102.682	-0.161	-0.191
-588.923	314.838	0.170	-0.325
-587.909	800.000	0.071	-0.239
-586.894	334.305	-0.122	-0.239
-585.879	104.554	-0.187	-0.224
-584.865	-49.768	0.298	0.144
-583.850	-200.000	-0.032	0.394
-582.836	-170.203	0.322	-0.012
-581.821	382.926	0.074	-0.154
-580.806	-4.176	0.397	-0.280
-579.792	-200.000	-0.059	0.296
-578.777	-200.000	0.020	-0.253
-577.763	-39.617	0.086	-0.046
-576.748	-77.388	-0.220	0.078
-575.733	237.877	-0.178	-0.300
-574.719	21.695	-0.077	0.063
-573.704	-200.000	-0.031	-0.182
-572.690	-200.000	0.022	-0.203
-571.675	20.442	-0.095	-0.078
-570.661	-112.293	0.271	0.055
-569.646	1.372	-0.216	-0.158
-568.631	-200.000	0.036	0.414
-567.617	800.000	0.024	0.090
-566.602	-44.852	0.127	-0.064
-565.588	-40.953	-0.176	0.093
-564.573	-107.228	-0.103	-0.023
-563.558	800.000	-0.040	0.114
-562.544	-60.369	-0.089	-0.038
-561.529	-200.000	-0.050	0.257
-560.515	109.848	-0.083	0.102
-559.500	-200.000	-0.029	-0.204
-558.485	800.000	-0.141	0.478
-557.471	800.000	-0.051	-0.150
-556.456	-119.625	0.314	-0.055
-555.442	-200.000	-0.069	-0.310
-554.427	323.086	-0.061	-0.118
-553.412	103.040	-0.075	-0.089
-552.398	-33.858	0.388	-0.217
-551.383	103.629	0.076	-0.091
-550.369	620.245	0.082	-0.211
-549.354	456.859	-0.095	-0.214
-548.339	47.176	-0.153	-0.144
-547.325	-126.038	-0.213	0.033
-546.310	-200.000	0.063	-0.368
-545.296	386.590	-0.080	-0.168
-544.281	-67.408	0.138	-0.055
-543.266	-200.000	0.003	0.100
-542.252	-126.704	-0.175	-0.026
-541.237	377.974	0.071	-0.148
-540.223	351.948	0.056	0.113
-539.208	-26.267	0.054	0.032
-538.193	-200.000	0.014	0.116
-537.179	-34.988	0.258	-0.143
-536.164	-128.951	-0.051	-0.007
-535.150	205.927	0.108	-0.170
-534.135	3.912	0.059	0.044
-533.121	-62.752	0.149	-0.063
-532.106	89.958	-0.062	0.070
-531.091	6.386	0.192	-0.145
-530.077	-21.119	-0.225	-0.140
-529.062	51.390	0.186	-0.179
-528.048	-66.242	0.129	0.052
-527.033	1.253	0.202	-0.148
-526.018	139.071	-0.131	-0.174
-525.004	297.306	-0.025	0.047
-523.989	43.577	0.152	-0.141
-522.975	800.000	-0.066	-0.248
-521.960	800.000	-0.045	-0.151
-520.945	-58.127	0.289	-0.128
-519.931	-61.489	-0.087	0.037
-518.916	41.730	0.279	0.256
-517.902	-25.590	-0.154	-0.092
-516.887	-2.459	0.160	-0.114
-515.872	-200.000	0.006	-0.085
-514.858	-26.585	-0.433	0.257
-513.843	-54.303	-0.223	0.103
-512.829	51.132	-0.123	-0.119
-511.814	88.481	-0.096	0.108
-510.799	-47.540	-0.268	0.132
-509.785	-200.000	0.003	0.200
-508.770	343.229	0.142	0.281
-507.756	-180.943	-0.304	0.006
-506.741	358.060	-0.089	0.180
-505.726	-200.000	0.006	0.301
-504.712	109.066	-0.184	0.223
-503.697	-200.000	0.038	0.379
-502.683	-200.000	0.008	-0.230
-501.668	-200.000	0.013	-0.228
-500.653	-200.000	-0.013	-0.097
-499.639	36.227	-0.106	0.094
-498.624	787.086	0.064	-0.177
-497.610	391.244	-0.008	-0.016
-496.595	550.878	-0.065	-0.158
-495.581	32.467	-0.058	-0.051
-494.566	-200.000	0.023	-0.104
-493.551	119.761	0.155	-0.195
-492.537	369.068	-0.173	-0.356
-491.522	559.187	0.163	0.399
-490.508	-200.000	0.020	0.128
-489.493	26.635	0.084	-0.072
-488.478	-131.635	-0.253	0.034
-487.464	348.068	-0.051	0.102
-486.449	-5.644	-0.126	0.088
-485.435	42.437	0.264	-0.243
-484.420	-58.396	0.131	-0.058
-483.405	-138.503	0.098	-0.011
-482.391	-200.000	0.051	0.324
-481.376	79.898	0.098	-0.107
-480.362	-200.000	-0.026	-0.296
-479.347	800.000	0.103	-0.299
-478.332	174.850	0.113	0.166
-477.318	-200.000	-0.281	-0.000
-476.303	800.000	0.046	-0.143
-475.289	176.605	0.228	0.336
-474.274	800.000	-0.050	-0.170
-473.259	635.274	-0.055	-0.142
-472.245	469.917	-0.128	0.292
-471.230	131.099	-0.102	0.132
-470.216	-43.595	0.053	-0.027
-469.201	499.146	0.081	-0.189
-468.186	223.609	0.093	-0.152
-467.172	-89.954	0.084	0.025
-466.157	208.863	-0.147	0.233
-465.143	29.068	0.104	0.090
-464.128	-0.918	-0.161	0.115
-463.113	-123.032	-0.182	-0.030
-462.099	-200.000	-0.008	0.114
-461.084	-200.000	0.096	-0.440
-460.070	-200.000	0.018	-0.155
-459.055	-40.904	-0.135	0.071
-458.040	47.082	0.194	-0.182
-457.026	800.000	-0.048	0.181
-456.011	52.229	-0.112	0.108
-454.997	381.751	0.069	0.142
-453.982	341.797	-0.229	0.454
-452.968	800.000	-0.125	0.371
-451.953	537.554	-0.118	0.284
-450.938	-145.857	0.168	-0.015
-449.924	-200.000	0.077	0.395
-448.909	-34.178	-0.144	-0.080
-447.895	56.685	0.346	-0.341
-446.880	-21.288	0.096	-0.060
-445.865	-159.683	0.314	-0.018
-444.851	199.011	-0.063	0.097
-443.836	60.429	-0.234	0.235
-442.822	-31.225	-0.218	-0.124
-441.807	596.116	0.106	0.267
-440.792	-114.915	-0.205	-0.040
-439.778	0.611	0.165	0.119
-438.763	-200.000	-0.016	-0.114
-437.749	245.111	-0.094	0.161
-436.734	336.758	-0.036	0.072
-435.719	-200.000	-0.036	0.244
-434.705	204.818	0.163	-0.255
-433.690	-88.070	-0.160	0.049
-432.676	31.964	-0.165	0.144
-431.661	52.883	0.308	-0.298
-430.646	-26.508	0.164	-0.097
-429.632	800.000	-0.035	0.106
-428.617	-126.519	0.103	-0.015
-427.603	-91.089	0.238	-0.069
-426.588	-53.135	-0.150	-0.070
-425.573	-200.000	0.044	0.251
-424.559	21.937	0.122	0.100
-423.544	-4.849	0.283	0.197
-422.530	263.849	0.109	0.192
-421.515	-200.000	0.008	-0.214
-420.500	212.077	-0.132	-0.211
-419.486	-130.428	0.332	-0.045
-418.471	-200.000	-0.047	0.366
-417.457	-104.795	-0.250	-0.058
-416.442	-135.489	0.340	-0.041
-415.428	-6.572	0.234	-0.161
-414.413	-200.000	-0.095	-0.481
-413.398	-44.764	-0.124	0.063
-412.384	-55.435	-0.276	-0.125
-411.369	-6.148	0.200	-0.138
-410.355	-77.373	0.211	0.074
-409.340	24.393	0.259	0.217
-408.325	167.030	0.178	0.256
-407.311	800.000	-0.048	-0.207
-406.296	-200.000	0.028	0.392
-405.282	-68.932	0.098	-0.038
-404.267	201.938	0.085	-0.133
-403.252	-200.000	0.054	-0.276
-402.238	-200.000	-0.020	0.302
-401.223	150.116	-0.107	-0.147
-400.209	211.392	-0.178	0.283
-399.194	-148.608	0.238	0.020
-398.179	-10.523	-0.260	-0.174
-397.165	-200.000	-0.002	0.244
-396.150	51.971	0.304	-0.293
-395.136	-200.000	-0.001	-0.377
-394.121	-112.591	-0.266	-0.054
-393.106	506.067	-0.128	0.300
-392.092	-200.000	-0.043	0.453
-391.077	-128.701	-0.185	0.026
-390.063	-200.000	-0.008	-0.128
-389.048	-173.455	-0.206	0.006
-388.033	-200.000	-0.003	0.026
-387.019	-200.000	-0.065	0.403
-386.004	114.116	0.075	0.092
-384.990	-30.853	0.221	-0.126
-383.975	120.614	0.198	0.248
-382.960	-9.770	-0.256	0.172
-381.946	-200.000	0.001	-0.158
-380.931	234.386	0.013	-0.022
-379.917	-117.980	0.051	0.009
-378.902	-200.000	0.044	-0.213
-377.888	680.414	-0.129	-0.340
-376.873	162.238	0.107	0.151
-375.858	700.761	0.077	0.205
-374.844	395.265	0.082	0.172
-373.829	-140.257	0.473	0.050
-372.815	-86.061	-0.218	0.068
-371.800	-131.673	-0.402	0.053
-370.785	-58.258	-0.284	0.125
-369.771	800.000	0.036	-0.121
-368.756	-119.725	0.263	0.046
-367.742	252.942	0.078	-0.134
-366.727	-200.000	0.049	-0.330
-365.712	-98.841	-0.308	-0.079
-364.698	-39.713	0.155	0.082
-363.683	-62.727	0.157	-0.066
-362.669	-114.668	-0.015	0.003
-361.654	800.000	0.057	0.209
-360.639	-129.099	-0.054	0.008
-359.625	-74.363	0.308	-0.112
-358.610	-200.000	-0.011	-0.215
-357.596	-185.410	0.307	-0.005
-356.581	-46.729	0.239	-0.118
-355.566	289.507	0.151	0.277
-354.552	-200.000	-0.045	-0.199
-353.537	212.124	0.288	0.458
-352.523	261.238	-0.036	0.063
-351.508	115.925	0.158	-0.194
-350.493	294.193	0.075	-0.139
-349.479	-96.663	-0.201	-0.053
-348.464	-145.819	-0.108	0.010
-347.450	72.846	0.070	-0.074
-346.435	800.000	0.059	-0.197
-345.420	-30.844	0.113	0.065
-344.406	-70.179	-0.447	-0.171
-343.391	-0.753	-0.175	-0.125
-342.377	-200.000	0.031	0.169
-341.362	3.804	0.177	-0.130
-340.348	800.000	-0.107	-0.306
-339.333	-200.000	0.020	-0.244
-338.318	-70.970	0.129	-0.049
-337.304	-143.250	-0.162	-0.016
-336.289	-200.000	0.047	-0.233
-335.275	-200.000	0.040	-0.202
-334.260	-57.887	0.065	-0.029
-333.245	36.137	-0.051	0.045
-332.231	106.079	-0.229	-0.273
-331.216	46.269	-0.248	0.231
-330.202	-200.000	-0.031	0.142
-329.187	-200.000	0.014	0.072
-328.172	-60.747	-0.193	-0.082
-327.158	-48.354	-0.294	-0.143
-326.143	59.453	-0.085	-0.085
-325.129	-53.871	-0.183	0.084
-324.114	269.973	0.041	-0.073
-323.099	626.317	0.126	-0.320
-322.085	-122.613	-0.284	0.046
-321.070	800.000	-0.106	-0.374
-320.056	50.242	0.085	0.081
-319.041	-200.000	0.125	0.593
-318.026	-200.000	0.002	0.101
-317.012	-124.464	-0.099	-0.016
-315.997	-200.000	0.010	0.138
-314.983	176.163	0.122	0.179
-313.968	-88.210	-0.130	0.039
-312.953	800.000	0.070	0.290
-311.939	-59.955	-0.431	0.185
-310.924	-200.000	-0.021	-0.180
-309.910	-13.708	0.011	0.007
-308.895	-16.286	-0.037	0.024
-307.880	32.945	-0.079	-0.069
-306.866	18.542	-0.099	0.079
-305.851	-110.423	0.124	-0.026
-304.837	72.218	0.162	-0.170
-303.822	-88.683	0.209	0.063
-302.807	800.000	0.110	0.363
-301.793	-97.716	-0.214	0.056
-300.778	800.000	-0.034	-0.134
-299.764	-27.155	-0.435	0.255
-298.749	-200.000	0.013	-0.089
-297.735	-131.837	-0.103	-0.014
-296.720	30.347	-0.250	-0.215
-295.705	-200.000	-0.045	0.415
-294.691	-102.971	0.323	-0.077
-293.676	-60.568	0.221	0.094
-292.662	485.944	0.084	-0.192
-291.647	-125.623	-0.138	0.021
-290.632	2.977	-0.101	0.074
-289.618	157.661	-0.165	-0.230
-288.603	-53.570	0.115	0.053
-287.589	86.065	0.115	-0.128
-286.574	-200.000	-0.011	0.144
-285.559	-200.000	0.049	0.297
-284.545	473.844	0.028	0.064
-283.530	395.802	-0.103	-0.215
-282.516	-66.923	0.122	-0.048
-281.501	-94.446	0.316	0.087
-280.486	-139.942	-0.232	0.025
-279.472	123.160	0.120	-0.151
-278.457	-200.000	0.000	-0.161
-277.443	182.405	-0.116	-0.173
-276.428	-162.383	-0.303	0.015
-275.413	-101.925	-0.323	-0.078
-274.399	-1.947	-0.206	0.146
-273.384	-200.000	0.040	0.287
-272.370	13.476	0.238	-0.185
-271.355	426.475	-0.157	-0.341
-270.340	-200.000	0.031	-0.276
-269.326	-200.000	-0.012	0.301
-268.311	-109.557	-0.150	0.032
-267.297	-87.018	0.323	-0.099
-266.282	-69.036	-0.345	-0.134
-265.267	-31.309	-0.112	0.063
-264.253	651.287	-0.099	0.255
-263.238	-32.672	0.436	0.244
-262.224	-99.936	0.273	0.068
-261.209	129.421	-0.142	-0.182
-260.195	101.627	0.139	0.163
-259.180	-200.000	-0.016	0.233
-258.165	-63.777	0.433	0.178
-257.151	515.499	-0.163	0.383
-256.136	120.009	-0.090	0.112
-255.122	299.557	-0.052	0.095
-254.107	167.234	-0.159	0.227
-253.092	800.000	-0.002	-0.007
-252.078	122.968	0.045	-0.057
-251.063	800.000	0.102	0.338
-250.049	210.150	0.045	-0.071
-249.034	74.660	0.040	-0.042
-248.019	330.079	-0.085	0.165
-247.005	218.794	-0.135	-0.217
-245.990	-79.751	-0.053	0.018
-244.976	154.498	-0.232	0.320
-243.961	16.090	-0.248	0.197
-242.946	-184.892	0.163	0.003
-241.932	-200.000	-0.023	-0.205
-240.917	-61.964	0.076	-0.032
-239.903	-200.000	0.011	0.092
-238.888	235.868	0.223	0.370
-237.873	-28.052	-0.101	0.059
-236.859	-123.053	0.217	0.035
-235.844	91.860	0.090	-0.102
-234.830	59.976	0.085	0.084
-233.815	347.486	0.060	0.119
-232.800	-200.000	0.034	0.276
-231.786	-24.680	-0.098	0.059
-230.771	-122.273	-0.049	-0.008
-229.757	-105.690	0.416	-0.095
-228.742	-200.000	-0.042	0.258
-227.727	-43.034	-0.110	-0.056
-226.713	-200.000	-0.023	0.211
-225.698	-137.360	0.556	-0.063
-224.684	-2.393	0.137	0.097
-223.669	-53.280	0.099	0.046
-222.655	236.290	-0.083	-0.138
-221.640	-120.029	-0.107	-0.018
-220.625	-200.000	-0.038	-0.249
-219.611	-52.434	0.108	0.050
-218.596	31.460	0.208	-0.179
-217.582	787.279	0.076	0.210
-216.567	-200.000	0.020	0.218
-215.552	144.642	-0.237	0.317
-214.538	800.000	-0.054	0.236
-213.523	-74.715	0.240	0.087
-212.509	-151.902	-0.264	-0.019
-211.494	37.309	0.277	-0.246
-210.479	-127.248	-0.288	-0.042
-209.465	-107.026	-0.017	0.004
-208.450	586.037	0.027	-0.066
-207.436	-104.719	-0.110	-0.025
-206.421	-134.151	-0.088	-0.011
-205.406	317.562	-0.140	0.265
-204.392	-200.000	0.019	-0.088
-203.377	-48.240	-0.307	-0.149
-202.363	-200.000	-0.013	-0.082
-201.348	-200.000	-0.040	-0.185
-200.333	800.000	-0.077	-0.242
-199.319	-172.019	0.292	-0.009
-198.304	800.000	0.121	-0.344
-197.290	94.565	0.207	-0.235
-196.275	-156.522	0.077	-0.005
-195.260	-200.000	0.007	0.403
-194.246	-150.069	0.184	-0.014
-193.231	-149.321	0.262	0.021
-192.217	-122.255	0.152	0.025
-191.202	292.312	-0.038	-0.069
-190.187	-91.598	0.170	0.049
-189.173	106.152	-0.188	0.223
-188.158	1.787	0.204	-0.147
-187.144	-200.000	-0.001	-0.024
-186.129	114.745	-0.033	-0.040
-185.114	-95.309	0.053	0.014
-184.100	-119.768	-0.118	0.020
-183.085	-14.780	0.212	-0.137
-182.071	-200.000	-0.071	-0.509
-181.056	-200.000	-0.003	0.107
-180.042	-142.465	0.269	0.026
-179.027	-8.059	-0.249	-0.168
-178.012	-0.080	-0.188	-0.134
-176.998	-98.243	-0.282	0.072
-175.983	-200.000	-0.035	-0.341
-174.969	144.171	0.188	0.252
-173.954	-122.965	-0.082	-0.013
-172.939	-157.718	0.211	0.013
-171.925	753.259	-0.085	0.231
-170.910	-50.704	0.334	0.158
-169.896	91.633	0.067	0.076
-168.881	55.213	0.107	-0.103
-167.866	-122.785	0.457	0.074
-166.852	800.000	0.062	0.266
-165.837	-6.193	0.292	-0.200
-164.823	40.307	-0.235	0.212
-163.808	800.000	0.011	0.032
-162.793	-200.000	0.000	0.036
-161.779	-24.347	0.173	0.103
-160.764	-22.542	-0.140	0.085
-159.750	-200.000	-0.047	0.255
-158.735	-200.000	0.018	-0.128
-157.720	25.720	0.292	-0.244
-156.706	197.074	-0.101	-0.154
-155.691	83.282	0.152	0.166
-154.677	-76.051	-0.179	0.063
-153.662	-93.374	0.254	0.070
-152.647	-97.653	-0.298	-0.077
-151.633	72.047	0.149	-0.155
-150.618	382.971	0.063	-0.131
-149.604	-17.574	-0.133	-0.084
-148.589	91.098	0.137	0.153
-147.574	156.168	0.124	0.171
-146.560	58.322	0.388	-0.380
-145.545	-200.000	0.009	0.201
-144.531	-43.755	0.153	0.077
-143.516	-88.785	0.126	0.038
-142.502	647.067	0.038	0.096
-141.487	5.491	-0.179	0.132
-140.472	-55.835	-0.043	0.019
-139.458	-200.000	-0.037	0.330
-138.443	-99.192	0.369	-0.093
-137.429	51.870	-0.062	-0.059
-136.414	16.065	0.318	0.251
-135.399	-69.851	-0.121	0.046
-134.385	74.423	-0.205	-0.215
-133.370	-68.131	-0.242	-0.094
-132.356	11.173	0.084	0.064
-131.341	-16.456	-0.249	-0.158
-130.326	0.616	0.133	-0.095
-129.312	-146.796	0.233	-0.020
-128.297	0.302	-0.266	0.190
-127.283	-44.539	-0.227	0.113
-126.268	-200.000	-0.024	-0.145
-125.253	557.135	0.056	0.134
-124.239	28.128	0.159	-0.134
-123.224	112.434	-0.179	-0.217
-122.210	216.197	0.031	-0.050
