DTS Sentinel unit serial number:	SN413079Multiplexer serial number:	ORYXHardware model number:	OX4-SRSoftware version number:	ORYX F/W v4.00 Oryx Data Collector v3.7.2.0data status	okinstallation	princeton_trtdifferential loss correction	single-endedforward channel	channel 4reverse channel	N/Adate	2019/09/19time	13:57:34forward acquisition time	60.00reverse acquisition time	0.00gamma	496.2192k internal	0.2308k external	0.2308temperature offset calibration	1.0016default loss term (dB/km)	0.3790temperature slope calibration	1.0000multiplexer offset coefficient	1.0000multiplexer slope coefficient	1.0000fibre end	0.00T internal ref (°C)	31.00T ext. ref 1 (°C)	1.00T ext. ref 2 (°C)	28.16length (m)	temperature (°C)	Stokes	anti-Stokes-747.200	-200.000	-0.007	-0.118
-746.185	0.146	-0.129	0.094
-745.171	-170.241	-0.119	-0.004
-744.156	43.626	0.135	-0.126
-743.142	-0.819	0.062	-0.045
-742.127	-59.628	0.380	0.166
-741.112	-70.694	-0.108	-0.042
-740.098	178.258	-0.179	0.265
-739.083	800.000	-0.083	0.253
-738.069	234.492	-0.132	0.221
-737.054	262.915	0.171	-0.302
-736.039	145.786	0.104	-0.141
-735.025	46.430	-0.119	0.112
-734.010	-200.000	-0.039	-0.174
-732.996	-200.000	-0.005	-0.143
-731.981	42.142	-0.295	0.273
-730.966	-9.184	0.025	-0.017
-729.952	-63.767	-0.241	0.100
-728.937	-114.104	-0.194	0.038
-727.923	328.674	0.135	0.263
-726.908	422.897	0.166	0.363
-725.894	-200.000	0.044	-0.292
-724.879	800.000	-0.060	-0.195
-723.864	-200.000	-0.034	0.181
-722.850	800.000	-0.087	0.263
-721.835	-99.809	-0.038	-0.010
-720.821	305.222	-0.108	-0.203
-719.806	-74.231	0.348	0.128
-718.791	-18.175	0.071	0.045
-717.777	94.954	-0.168	-0.195
-716.762	71.499	-0.296	-0.312
-715.748	-200.000	-0.019	-0.271
-714.733	800.000	0.054	0.222
-713.718	160.690	-0.039	-0.055
-712.704	-37.922	-0.107	-0.058
-711.689	659.055	0.045	-0.116
-710.675	-200.000	-0.027	-0.253
-709.660	153.858	0.048	-0.067
-708.645	-200.000	-0.017	-0.176
-707.631	42.411	0.092	0.085
-706.616	-200.000	-0.025	0.192
-705.602	44.168	-0.101	-0.094
-704.587	85.132	-0.173	-0.193
-703.572	-153.333	-0.160	-0.011
-702.558	800.000	-0.036	0.136
-701.543	30.731	0.112	-0.097
-700.529	37.336	0.076	-0.068
-699.514	-88.248	-0.241	0.073
-698.499	-107.695	-0.209	-0.046
-697.485	117.218	0.156	0.195
-696.470	609.228	0.117	0.297
-695.456	585.384	-0.041	0.103
-694.441	167.403	-0.114	-0.165
-693.426	183.020	0.163	0.244
-692.412	64.643	0.056	0.057
-691.397	800.000	0.128	-0.411
-690.383	419.147	0.081	-0.175
-689.368	581.513	0.099	-0.247
-688.354	-32.269	0.197	0.112
-687.339	-124.055	0.167	-0.027
-686.324	99.899	-0.094	0.110
-685.310	212.035	0.160	-0.255
-684.295	100.322	-0.157	0.184
-683.281	-200.000	0.032	0.230
-682.266	-64.553	0.056	0.023
-681.251	-79.872	-0.343	-0.117
-680.237	589.512	0.120	-0.299
-679.222	-53.182	-0.309	-0.144
-678.208	-200.000	-0.004	-0.494
-677.193	-115.873	0.282	-0.053
-676.178	-200.000	0.017	-0.232
-675.164	269.581	0.131	0.233
-674.149	-154.423	-0.351	-0.024
-673.135	-200.000	-0.057	0.429
-672.120	-91.920	-0.062	-0.018
-671.105	130.219	0.251	-0.325
-670.091	74.943	-0.080	-0.085
-669.076	48.013	-0.281	0.266
-668.062	23.557	-0.068	-0.056
-667.047	-200.000	0.031	0.195
-666.032	14.587	-0.233	0.184
-665.018	-63.011	-0.193	0.081
-664.003	-19.234	-0.392	-0.246
-662.989	-156.000	-0.250	-0.016
-661.974	-200.000	0.041	0.181
-660.959	-67.062	-0.072	-0.029
-659.945	405.895	-0.043	0.093
-658.930	-148.101	0.270	0.023
-657.916	-15.719	-0.207	0.134
-656.901	91.072	-0.024	-0.027
-655.886	-133.032	0.315	0.041
-654.872	42.724	-0.020	-0.018
-653.857	224.175	-0.115	-0.189
-652.843	800.000	0.049	0.161
-651.828	-86.211	-0.086	0.027
-650.814	306.110	-0.169	0.318
-649.799	-102.663	-0.104	0.025
-648.784	-34.405	0.178	0.099
-647.770	-168.027	0.404	-0.016
-646.755	-200.000	0.007	0.358
-645.741	-166.587	-0.247	0.010
-644.726	-84.665	0.075	-0.024
-643.711	623.731	-0.174	-0.445
-642.697	-99.624	0.265	-0.067
-641.682	171.319	-0.144	0.209
-640.668	-200.000	0.013	-0.181
-639.653	-27.062	0.239	-0.141
-638.638	63.088	-0.200	-0.203
-637.624	150.034	-0.127	-0.174
-636.609	138.037	-0.129	0.172
-635.595	-156.701	-0.097	-0.006
-634.580	-4.573	0.029	0.020
-633.565	30.688	0.261	-0.226
-632.551	258.724	-0.152	-0.265
-631.536	-52.094	-0.231	0.109
-630.522	14.165	0.041	-0.032
-629.507	-200.000	0.009	-0.431
-628.492	-140.322	-0.151	0.016
-627.478	-114.422	-0.243	0.047
-626.463	-14.552	-0.170	-0.111
-625.449	-200.000	0.081	-0.420
-624.434	281.817	0.056	-0.102
-623.419	-17.645	0.170	-0.108
-622.405	354.636	0.053	0.107
-621.390	684.190	-0.035	-0.093
-620.376	-96.124	0.242	0.065
-619.361	216.479	0.108	0.174
-618.346	69.082	0.135	0.141
-617.332	74.663	-0.212	0.226
-616.317	21.847	-0.179	0.148
-615.303	-8.340	0.229	-0.156
-614.288	48.432	-0.320	0.303
-613.273	349.002	0.137	0.273
-612.259	89.605	-0.192	-0.216
-611.244	-107.352	0.100	0.022
-610.230	-160.936	-0.085	0.005
-609.215	-200.000	-0.025	0.409
-608.201	114.519	-0.234	0.288
-607.186	-30.102	-0.037	0.022
-606.171	60.772	0.010	-0.010
-605.157	-200.000	-0.009	0.070
-604.142	800.000	0.052	-0.192
-603.128	-63.533	-0.055	-0.023
-602.113	-200.000	-0.012	0.057
-601.098	-200.000	0.008	-0.236
-600.084	501.522	0.109	0.255
-599.069	243.450	-0.039	-0.066
-598.055	800.000	0.112	-0.436
-597.040	-200.000	0.008	-0.204
-596.025	-86.862	0.076	-0.023
-595.011	7.078	-0.187	0.141
-593.996	800.000	-0.080	-0.251
-592.982	715.833	-0.097	-0.261
-591.967	800.000	-0.020	0.057
-590.952	117.997	0.148	0.184
-589.938	-77.093	0.285	0.100
-588.923	-106.173	0.199	-0.045
-587.909	-96.927	-0.234	-0.062
-586.894	21.571	0.141	-0.116
-585.879	66.369	-0.117	-0.120
-584.865	0.123	-0.175	-0.126
-583.850	10.232	0.138	0.106
-582.836	-148.156	-0.295	0.025
-581.821	-200.000	-0.032	-0.305
-580.806	-62.840	0.243	0.101
-579.792	-200.000	-0.032	-0.196
-578.777	-26.051	0.057	-0.034
-577.763	50.069	0.034	-0.033
-576.748	-38.094	-0.197	-0.105
-575.733	579.347	0.055	-0.136
-574.719	-139.790	-0.301	0.032
-573.704	800.000	0.058	0.201
-572.690	448.689	0.032	-0.070
-571.675	-48.771	0.251	-0.122
-570.661	800.000	-0.037	0.104
-569.646	-166.428	-0.247	-0.010
-568.631	39.755	-0.162	-0.146
-567.617	112.447	0.023	-0.028
-566.602	43.730	0.085	-0.079
-565.588	261.951	-0.077	0.135
-564.573	518.082	0.108	0.255
-563.558	-36.958	-0.248	-0.134
-562.544	250.365	0.121	0.208
-561.529	-20.920	-0.168	0.104
-560.515	-40.282	-0.258	0.135
-559.500	668.477	-0.050	0.131
-558.485	-40.599	0.253	0.132
-557.471	-200.000	-0.001	-0.226
-556.456	-200.000	0.012	0.203
-555.442	88.513	-0.043	0.048
-554.427	75.269	0.163	-0.173
-553.412	127.448	0.152	0.194
-552.398	522.205	-0.116	0.276
-551.383	-76.176	0.265	0.094
-550.369	48.764	-0.073	-0.070
-549.354	-120.041	0.187	-0.032
-548.339	140.955	-0.224	0.299
-547.325	-52.625	0.079	0.037
-546.310	64.733	0.205	-0.209
-545.296	501.550	0.112	-0.260
-544.281	-143.865	0.335	-0.032
-543.266	246.431	-0.063	0.108
-542.252	20.215	0.119	0.097
-541.237	-137.853	-0.187	-0.021
-540.223	454.491	-0.077	-0.171
-539.208	-34.958	-0.138	-0.076
-538.193	-119.260	-0.159	-0.028
-537.179	800.000	0.091	-0.372
-536.164	44.351	0.286	0.265
-535.150	-135.283	-0.412	0.050
-534.135	554.483	0.110	0.266
-533.121	311.540	0.095	-0.180
-532.106	-71.725	0.106	-0.040
-531.091	-94.046	0.303	-0.084
-530.077	-200.000	0.009	-0.111
-529.062	-153.074	0.292	0.021
-528.048	800.000	-0.054	-0.164
-527.033	-200.000	0.034	0.184
-526.018	-200.000	0.010	0.233
-525.004	15.697	-0.105	0.083
-523.989	-123.813	-0.315	0.050
-522.975	-200.000	-0.021	0.151
-521.960	134.617	0.043	0.057
-520.945	44.945	-0.070	-0.065
-519.931	-107.803	0.365	-0.080
-518.916	-23.378	-0.117	0.071
-517.902	-179.224	-0.316	-0.007
-516.887	216.759	0.170	0.272
-515.872	104.784	0.103	0.122
-514.858	153.231	0.046	0.064
-513.843	-51.860	-0.337	0.158
-512.829	-46.718	0.167	0.083
-511.814	-140.658	-0.044	-0.005
-510.799	800.000	-0.051	0.195
-509.785	738.980	0.129	-0.348
-508.770	-118.697	0.278	0.049
-507.756	-165.801	-0.308	0.013
-506.741	62.368	0.193	-0.194
-505.726	245.088	-0.042	0.072
-504.712	76.402	0.111	-0.119
-503.697	-113.772	-0.246	-0.048
-502.683	44.532	0.081	-0.075
-501.668	-51.671	-0.194	0.091
-500.653	41.722	0.044	0.040
-499.639	103.013	0.123	0.145
-498.624	-144.407	0.285	-0.027
-497.610	-2.295	0.083	-0.059
-496.595	487.033	0.123	-0.281
-495.581	-49.969	-0.164	-0.078
-494.566	57.799	0.017	0.017
-493.551	800.000	0.016	0.048
-492.537	-55.406	0.172	0.078
-491.522	800.000	-0.029	-0.087
-490.508	-200.000	-0.011	0.156
-489.493	131.937	0.119	0.155
-488.478	37.894	-0.135	0.121
-487.464	112.529	-0.188	-0.229
-486.449	800.000	-0.044	0.149
-485.435	-26.533	-0.111	-0.066
-484.420	-200.000	-0.050	0.349
-483.405	39.331	0.074	0.066
-482.391	301.031	0.010	-0.018
-481.376	16.703	-0.179	-0.143
-480.362	-3.594	0.095	-0.066
-479.347	-133.839	-0.173	0.022
-478.332	-54.194	-0.214	-0.098
-477.318	538.640	-0.053	-0.126
-476.303	67.936	-0.251	0.258
-475.289	150.751	0.140	0.192
-474.274	-200.000	-0.108	0.586
-473.259	0.035	-0.157	0.113
-472.245	-38.349	0.324	0.172
-471.230	-132.344	0.110	0.014
-470.216	-95.693	-0.144	0.039
-469.201	-110.026	0.113	0.024
-468.186	633.625	-0.072	-0.183
-467.172	-63.184	0.234	-0.097
-466.157	0.873	0.087	0.063
-465.143	9.539	-0.022	-0.017
-464.128	270.687	0.137	-0.242
-463.113	84.352	-0.147	0.162
-462.099	-179.444	-0.299	-0.007
-461.084	-160.090	-0.142	0.008
-460.070	-123.221	0.039	0.006
-459.055	475.138	-0.049	0.112
-458.040	-200.000	0.007	0.081
-457.026	-92.282	-0.204	0.058
-456.011	-71.421	-0.068	-0.025
-454.997	-64.960	0.039	-0.016
-453.982	800.000	-0.015	-0.064
-452.968	-122.088	0.033	0.006
-451.953	436.295	0.058	-0.128
-450.938	108.750	0.156	-0.187
-449.924	-52.895	-0.228	-0.106
-448.909	-100.872	0.111	0.027
-447.895	227.673	0.205	0.334
-446.880	206.294	0.090	-0.140
-445.865	38.868	-0.161	-0.144
-444.851	78.478	0.233	-0.250
-443.836	-200.000	0.061	-0.275
-442.822	181.259	0.154	-0.227
-441.807	-63.052	-0.141	0.058
-440.792	344.857	0.112	-0.220
-439.778	800.000	0.038	-0.112
-438.763	179.841	-0.230	0.339
-437.749	162.464	0.083	-0.117
-436.734	285.367	0.072	0.131
-435.719	105.591	0.343	-0.408
-434.705	60.585	0.191	-0.190
-433.690	-200.000	0.069	0.377
-432.676	-134.895	0.128	0.016
-431.661	800.000	0.013	-0.042
-430.646	-53.547	-0.362	-0.166
-429.632	-200.000	-0.081	0.378
-428.617	-27.323	-0.191	-0.112
-427.603	-99.450	0.416	0.105
-426.588	-145.673	-0.162	-0.015
-425.573	324.425	0.050	-0.097
-424.559	266.019	0.074	-0.130
-423.544	159.566	-0.088	-0.123
-422.530	-67.156	0.320	0.127
-421.515	-200.000	-0.023	-0.215
-420.500	64.596	-0.191	-0.193
-419.486	-200.000	-0.015	0.222
-418.471	-113.370	0.232	0.046
-417.457	27.342	-0.165	0.139
-416.442	-71.133	-0.110	0.041
-415.428	31.851	0.392	0.338
-414.413	800.000	0.021	-0.080
-413.398	687.040	-0.030	-0.079
-412.384	209.770	-0.277	-0.436
-411.369	180.412	0.117	0.172
-410.355	-200.000	-0.076	-0.370
-409.340	-51.663	0.132	-0.062
-408.325	-200.000	-0.002	0.212
-407.311	-200.000	0.006	-0.140
-406.296	-90.947	0.204	0.059
-405.282	-200.000	-0.013	-0.226
-404.267	800.000	-0.089	0.356
-403.252	-44.370	-0.335	0.168
-402.238	338.958	-0.082	0.161
-401.223	-189.407	-0.132	-0.002
-400.209	-33.586	-0.306	0.170
-399.194	-43.949	0.187	-0.094
-398.179	230.478	0.109	0.179
-397.165	-71.232	-0.195	-0.073
-396.150	159.972	-0.287	0.401
-395.136	-0.035	-0.160	0.114
-394.121	-123.494	0.213	-0.034
-393.106	-125.889	-0.174	0.026
-392.092	800.000	0.070	0.211
-391.077	120.367	0.223	0.278
-390.063	-129.507	0.183	-0.025
-389.048	-146.516	0.069	0.006
-388.033	800.000	0.004	-0.019
-387.019	-51.650	-0.143	0.067
-386.004	64.681	0.198	0.201
-384.990	-200.000	0.001	0.277
-383.975	112.341	0.238	0.289
-382.960	65.285	-0.262	-0.265
-381.946	-108.371	-0.132	-0.028
-380.931	-120.675	-0.071	-0.012
-379.917	329.618	0.127	-0.246
-378.902	-168.628	-0.166	0.006
-377.888	211.614	-0.105	-0.165
-376.873	-200.000	0.052	-0.257
-375.858	-100.913	0.289	0.071
-374.844	-1.412	-0.130	-0.092
-373.829	-125.794	-0.243	-0.037
-372.815	144.209	-0.153	-0.205
-371.800	205.745	0.044	-0.068
-370.785	246.811	-0.184	0.311
-369.771	180.237	-0.118	0.173
-368.756	645.016	0.102	0.260
-367.742	-75.584	0.344	0.122
-366.727	-45.988	-0.130	-0.064
-365.712	284.046	-0.188	0.339
-364.698	800.000	-0.087	-0.331
-363.683	-200.000	0.016	-0.105
-362.669	312.024	-0.195	0.366
-361.654	-200.000	0.016	-0.110
-360.639	-58.252	-0.128	-0.056
-359.625	69.290	-0.140	-0.144
-358.610	468.593	0.062	0.140
-357.596	495.042	-0.096	-0.221
-356.581	-143.078	0.061	-0.006
-355.566	800.000	0.062	0.189
-354.552	167.784	-0.082	-0.116
-353.537	77.819	-0.297	0.317
-352.523	800.000	-0.016	-0.052
-351.508	-200.000	0.000	0.193
-350.493	131.102	-0.193	0.248
-349.479	-120.508	-0.195	-0.033
-348.464	343.683	0.047	-0.092
-347.450	65.303	-0.224	-0.226
-346.435	94.151	-0.164	0.186
-345.420	-75.821	0.173	-0.062
-344.406	96.926	-0.198	-0.228
-343.391	27.975	0.437	-0.368
-342.377	-200.000	0.019	-0.271
-341.362	-82.475	-0.146	-0.047
-340.348	301.868	0.064	-0.119
-339.333	-167.803	0.219	0.009
-338.318	-11.416	-0.094	0.062
-337.304	17.381	-0.116	-0.092
-336.289	-129.658	0.031	-0.004
-335.275	-6.638	0.067	0.046
-334.260	-200.000	-0.001	0.167
-333.245	-121.821	-0.098	0.016
-332.231	-200.000	-0.038	-0.241
-331.216	123.694	0.067	0.084
-330.202	274.049	-0.131	-0.232
-329.187	-143.964	-0.164	-0.015
-328.172	-200.000	0.011	-0.227
-327.158	-99.711	-0.127	0.032
-326.143	-200.000	-0.015	0.180
-325.129	128.625	-0.156	0.198
-324.114	-92.937	0.250	0.070
-323.099	-200.000	-0.015	0.111
-322.085	54.857	0.143	0.138
-321.070	-17.772	-0.238	0.150
-320.056	800.000	-0.068	0.207
-319.041	769.982	0.144	0.391
-318.026	800.000	0.086	-0.334
-317.012	-45.965	0.098	0.048
-315.997	24.041	-0.128	-0.106
-314.983	-200.000	0.004	0.421
-313.968	-97.185	0.039	-0.010
-312.953	303.942	-0.078	0.144
-311.939	-200.000	0.053	-0.346
-310.924	-148.399	0.372	-0.031
-309.910	-200.000	0.004	-0.312
-308.895	406.702	-0.211	-0.445
-307.880	263.485	-0.200	-0.348
-306.866	415.305	-0.106	-0.227
-305.851	-200.000	0.005	-0.180
-304.837	-200.000	-0.002	-0.137
-303.822	-103.752	0.021	0.005
-302.807	-30.999	-0.262	-0.148
-301.793	43.486	0.178	-0.162
-300.778	-168.855	0.210	0.008
-299.764	128.823	0.234	0.298
-298.749	800.000	0.028	-0.083
-297.735	70.447	-0.154	0.159
-296.720	33.485	0.308	0.268
-295.705	90.785	-0.052	0.058
-294.691	432.461	-0.122	0.264
-293.676	167.536	0.164	0.233
-292.662	286.767	-0.183	-0.330
-291.647	-111.697	0.372	0.075
-290.632	189.036	-0.176	0.264
-289.618	386.069	-0.129	-0.266
-288.603	-142.166	0.217	-0.021
-287.589	780.557	0.046	0.125
-286.574	-11.531	0.167	0.110
-285.559	-99.915	0.026	-0.007
-284.545	223.237	0.181	0.291
-283.530	-111.239	0.261	0.053
-282.516	158.347	-0.097	-0.135
-281.501	-149.161	0.342	0.027
-280.486	451.821	0.091	0.200
-279.472	-200.000	-0.022	0.139
-278.457	-83.740	0.256	-0.082
-277.443	-129.538	0.243	0.034
-276.428	800.000	-0.077	-0.284
-275.413	98.745	-0.191	0.220
-274.399	32.311	-0.204	0.175
-273.384	-200.000	-0.002	-0.164
-272.370	277.353	0.037	0.065
-271.355	70.376	-0.127	-0.131
-270.340	777.158	-0.064	-0.175
-269.326	264.990	-0.074	-0.129
-268.311	-200.000	0.052	0.243
-267.297	-55.731	-0.246	-0.110
-266.282	691.278	-0.111	0.290
-265.267	-161.954	-0.196	-0.010
-264.253	-29.935	-0.192	-0.109
-263.238	-92.516	0.424	0.119
-262.224	-47.218	0.042	-0.020
-261.209	13.196	0.135	-0.104
-260.195	800.000	0.032	0.119
-259.180	-170.452	0.223	-0.008
-258.165	756.183	0.250	-0.674
-257.151	611.449	0.041	0.103
-256.136	30.693	-0.185	0.158
-255.122	503.192	-0.038	-0.088
-254.107	-105.969	-0.040	0.009
-253.092	155.364	0.283	0.388
-252.078	237.548	-0.212	-0.351
-251.063	-108.938	0.255	0.054
-250.049	-86.131	-0.196	-0.060
-249.034	-59.015	0.178	0.077
-248.019	-200.000	0.044	0.402
-247.005	387.872	0.160	0.331
-245.990	113.692	0.088	-0.107
-244.976	800.000	0.055	0.235
-243.961	-118.131	0.262	-0.047
-242.946	-104.471	0.141	-0.033
-241.932	337.449	-0.113	0.220
-240.917	21.313	-0.373	-0.302
-239.903	-132.971	0.391	-0.050
-238.888	-200.000	0.086	0.456
-237.873	-200.000	-0.005	-0.052
-236.859	-93.977	-0.063	0.017
-235.844	124.367	0.167	-0.209
-234.830	-85.106	-0.282	-0.088
-233.815	17.038	-0.031	0.025
-232.800	800.000	-0.075	-0.214
-231.786	-26.860	-0.173	0.101
-230.771	-137.354	0.355	0.040
-229.757	-200.000	-0.031	-0.229
-228.742	-81.406	-0.059	-0.020
-227.727	35.410	-0.263	-0.230
-226.713	297.546	0.017	-0.030
-225.698	101.787	0.069	0.081
-224.684	-70.116	-0.342	0.130
-223.669	417.333	0.077	0.164
-222.655	-79.115	0.205	0.069
-221.640	64.541	-0.028	0.028
-220.625	-93.864	0.287	0.079
-219.611	-15.714	-0.239	-0.152
-218.596	800.000	0.061	0.253
-217.582	-200.000	0.018	-0.163
-216.567	-200.000	-0.011	0.125
-215.552	68.803	-0.190	-0.194
-214.538	-67.539	0.188	-0.073
-213.523	80.739	0.157	0.169
-212.509	-112.131	-0.160	-0.032
-211.494	-52.170	0.149	-0.069
-210.479	800.000	0.061	-0.188
-209.465	-99.625	0.225	0.056
-208.450	-85.980	-0.471	-0.145
-207.436	800.000	0.110	-0.306
-206.421	-49.522	-0.403	0.191
-205.406	184.669	0.230	-0.339
-204.392	84.285	-0.097	-0.106
-203.377	142.504	0.140	0.185
-202.363	-103.822	-0.040	0.009
-201.348	705.226	0.127	0.334
-200.333	-75.631	0.003	-0.001
-199.319	143.791	-0.099	0.131
-198.304	24.658	-0.257	0.212
-197.290	800.000	0.083	-0.315
-196.275	-193.004	-0.340	-0.003
-195.260	198.133	-0.018	0.027
-194.246	94.777	-0.020	0.023
-193.231	404.997	0.134	-0.282
-192.217	229.175	-0.010	-0.017
-191.202	-8.230	-0.258	0.173
-190.187	507.491	0.009	0.021
-189.173	212.490	-0.128	-0.200
-188.158	-51.352	0.150	-0.070
-187.144	-61.830	-0.100	-0.042
-186.129	-150.478	-0.244	-0.019
-185.114	-200.000	-0.036	0.322
-184.100	-200.000	-0.017	-0.247
-183.085	-13.943	-0.013	0.008
-182.071	-41.769	-0.327	-0.167
-181.056	464.368	0.098	0.217
-180.042	-24.040	0.170	0.101
-179.027	-200.000	-0.012	0.087
-178.012	-82.848	0.299	-0.096
-176.998	-200.000	0.046	0.288
-175.983	160.472	0.169	-0.234
-174.969	-153.663	-0.218	-0.015
-173.954	-200.000	0.003	-0.269
-172.939	-200.000	-0.008	-0.097
-171.925	-200.000	0.149	0.000
-170.910	800.000	0.089	0.255
-169.896	800.000	0.100	0.370
-168.881	-44.537	0.293	0.145
-167.866	-200.000	0.034	-0.371
-166.852	-200.000	0.063	-0.325
-165.837	-200.000	-0.013	0.255
-164.823	-96.299	0.381	-0.100
-163.808	77.165	-0.156	0.164
-162.793	86.407	0.236	-0.258
-161.779	-64.706	-0.089	-0.036
-160.764	124.017	0.072	0.089
-159.750	-120.173	0.113	-0.019
-158.735	10.161	-0.245	-0.185
-157.720	450.772	-0.105	-0.229
-156.706	-85.865	-0.087	-0.027
-155.691	584.187	0.008	0.020
-154.677	14.630	-0.199	0.154
-153.662	-200.000	0.003	-0.212
-152.647	-39.081	0.358	-0.187
-151.633	-123.295	-0.185	-0.029
-150.618	235.233	-0.124	0.203
-149.604	137.425	0.212	0.276
-148.589	-200.000	-0.025	0.369
-147.574	-200.000	0.008	0.093
-146.560	-107.023	-0.275	0.060
-145.545	-200.000	-0.039	0.221
-144.531	-200.000	0.034	0.481
-143.516	800.000	0.020	-0.069
-142.502	-70.141	0.308	-0.116
-141.487	-200.000	-0.008	-0.068
-140.472	-132.241	-0.225	-0.029
-139.458	800.000	-0.054	0.218
-138.443	-130.483	0.187	-0.025
-137.429	-81.491	-0.103	0.034
-136.414	1.410	-0.335	0.239
-135.399	-59.361	0.184	0.079
-134.385	418.835	0.103	0.218
-133.370	100.805	0.076	-0.088
-132.356	203.800	-0.102	0.157
-131.341	-42.760	-0.087	0.044
-130.326	-131.390	-0.543	-0.071
-129.312	-19.891	0.181	-0.111
-128.297	15.348	0.257	-0.200
-127.283	800.000	-0.055	-0.165
-126.268	557.889	0.117	0.280
-125.253	607.546	-0.124	-0.307
-124.239	-29.480	-0.241	0.137
-123.224	-0.940	0.172	0.121
-122.210	-139.180	0.433	0.046
-121.195	-102.967	0.125	0.029
