DTS Sentinel unit serial number:	SN413079Multiplexer serial number:	ORYXHardware model number:	OX4-SRSoftware version number:	ORYX F/W v4.00 Oryx Data Collector v3.7.2.0data status	okinstallation	princeton_trtdifferential loss correction	single-endedforward channel	channel 4reverse channel	N/Adate	2019/09/16time	21:29:35forward acquisition time	60.00reverse acquisition time	0.00gamma	496.2192k internal	0.2313k external	0.2313temperature offset calibration	0.9967default loss term (dB/km)	0.3790temperature slope calibration	1.0000multiplexer offset coefficient	1.0000multiplexer slope coefficient	1.0000fibre end	0.00T internal ref (°C)	31.50T ext. ref 1 (°C)	0.05T ext. ref 2 (°C)	25.54length (m)	temperature (°C)	Stokes	anti-Stokes-747.200	99.311	0.109	0.128
-746.185	0.997	0.096	0.070
-745.171	800.000	-0.055	0.236
-744.156	-50.216	-0.215	0.103
-743.142	-62.912	0.021	-0.009
-742.127	-57.734	-0.095	0.042
-741.112	314.373	-0.127	-0.242
-740.098	-200.000	-0.021	0.312
-739.083	144.084	-0.096	0.130
-738.069	-25.851	0.055	0.033
-737.054	-200.000	0.044	-0.393
-736.039	1.028	-0.378	-0.275
-735.025	-88.875	0.403	0.121
-734.010	-200.000	-0.023	-0.213
-732.996	78.272	-0.087	0.094
-731.981	-159.836	0.352	-0.020
-730.966	15.974	0.143	-0.114
-729.952	800.000	-0.080	-0.350
-728.937	190.350	-0.107	0.164
-727.923	-130.131	0.364	-0.050
-726.908	-200.000	-0.301	-0.001
-725.894	121.925	-0.306	-0.386
-724.879	800.000	0.032	0.112
-723.864	79.329	-0.125	0.135
-722.850	800.000	-0.101	0.284
-721.835	-200.000	-0.023	0.258
-720.821	-200.000	0.048	0.224
-719.806	75.253	-0.092	-0.099
-718.791	393.657	-0.195	-0.411
-717.777	-195.833	0.183	0.001
-716.762	-200.000	0.048	0.270
-715.748	-54.734	0.404	-0.185
-714.733	447.413	-0.082	0.183
-713.718	219.640	0.153	-0.248
-712.704	353.905	-0.147	0.296
-711.689	396.289	-0.088	0.186
-710.675	-41.352	-0.121	0.063
-709.660	235.642	0.164	-0.275
-708.645	371.155	0.209	-0.430
-707.631	-200.000	0.000	-0.122
-706.616	-103.260	0.237	0.057
-705.602	800.000	-0.044	-0.168
-704.587	-168.509	0.063	0.002
-703.572	800.000	-0.052	-0.197
-702.558	127.761	0.211	0.271
-701.543	168.917	0.142	-0.205
-700.529	-200.000	-0.046	0.240
-699.514	134.505	0.032	-0.043
-698.499	-133.184	-0.224	-0.029
-697.485	800.000	0.071	0.218
-696.470	22.951	0.208	0.173
-695.456	-45.122	0.232	0.117
-694.441	-200.000	-0.006	-0.136
-693.426	44.285	-0.038	-0.036
-692.412	444.838	-0.166	-0.368
-691.397	-53.779	-0.120	0.055
-690.383	75.055	-0.150	-0.160
-689.368	-149.780	-0.323	0.026
-688.354	-101.827	-0.184	-0.045
-687.339	-57.596	-0.140	0.062
-686.324	800.000	-0.101	-0.331
-685.310	-17.263	0.113	0.072
-684.295	-25.520	-0.191	-0.114
-683.281	800.000	0.055	-0.192
-682.266	-200.000	-0.042	0.261
-681.251	-52.550	0.294	0.137
-680.237	223.722	0.064	0.105
-679.222	168.342	-0.216	-0.311
-678.208	-200.000	-0.039	0.269
-677.193	245.936	-0.082	0.140
-676.178	50.047	-0.075	-0.072
-675.164	-119.301	0.139	0.024
-674.149	112.478	-0.070	-0.086
-673.135	-23.630	-0.327	-0.198
-672.120	-3.334	0.070	-0.050
-671.105	-118.470	0.217	-0.039
-670.091	170.980	-0.082	-0.119
-669.076	800.000	-0.054	0.185
-668.062	-164.640	0.261	0.012
-667.047	-200.000	0.020	-0.224
-666.032	-21.289	-0.275	0.170
-665.018	-7.450	0.183	0.125
-664.003	-80.077	0.210	0.071
-662.989	-51.409	-0.047	0.022
-661.974	35.511	-0.170	-0.151
-660.959	-195.450	0.059	0.000
-659.945	-99.613	-0.142	0.036
-658.930	-18.490	0.211	-0.133
-657.916	-64.070	-0.090	0.037
-656.901	-95.829	0.095	-0.026
-655.886	-200.000	0.032	0.275
-654.872	62.431	0.085	0.086
-653.857	5.239	-0.309	0.230
-652.843	1.232	0.063	0.045
-651.828	351.819	-0.045	-0.091
-650.814	-143.316	-0.129	-0.012
-649.799	481.758	0.073	0.168
-648.784	-172.843	-0.160	0.005
-647.770	747.287	-0.101	-0.275
-646.755	-111.176	-0.400	-0.083
-645.741	63.379	-0.146	0.148
-644.726	-200.000	-0.039	-0.500
-643.711	12.915	-0.235	0.183
-642.697	-100.524	0.079	-0.020
-641.682	800.000	0.049	0.148
-640.668	348.159	-0.134	0.266
-639.653	655.710	0.027	-0.071
-638.638	-158.473	-0.142	0.008
-637.624	184.687	0.184	0.276
-636.609	800.000	0.143	0.460
-635.595	89.184	-0.196	-0.221
-634.580	93.028	0.269	-0.307
-633.565	-90.833	0.444	-0.129
-632.551	-99.658	-0.183	0.046
-631.536	-44.368	-0.150	0.076
-630.522	800.000	-0.079	0.285
-629.507	-101.065	0.282	0.070
-628.492	-177.360	0.185	0.005
-627.478	-0.394	-0.086	0.061
-626.463	-200.000	0.027	-0.138
-625.449	-200.000	-0.032	-0.180
-624.434	-30.979	0.024	0.014
-623.419	-30.495	-0.142	0.081
-622.405	-37.351	0.084	0.045
-621.390	-68.177	-0.349	0.137
-620.376	800.000	-0.019	0.059
-619.361	800.000	0.071	0.238
-618.346	-200.000	-0.273	0.000
-617.332	191.738	0.236	-0.359
-616.317	-129.919	0.127	0.018
-615.303	73.015	0.098	-0.104
-614.288	80.445	-0.198	0.215
-613.273	-44.723	0.382	0.192
-612.259	78.857	0.362	0.391
-611.244	-51.387	-0.093	0.044
-610.230	67.190	0.132	-0.136
-609.215	-97.145	0.178	-0.047
-608.201	81.375	-0.057	-0.062
-607.186	17.176	0.296	0.237
-606.171	136.715	0.064	-0.085
-605.157	-14.237	-0.302	-0.196
-604.142	563.805	0.022	0.054
-603.128	24.901	0.058	-0.048
-602.113	29.706	0.357	0.307
-601.098	800.000	-0.071	0.249
-600.084	-200.000	-0.005	0.288
-599.069	-39.060	0.306	0.162
-598.055	-73.236	-0.220	-0.081
-597.040	99.120	0.050	0.059
-596.025	683.928	0.088	0.230
-595.011	-74.166	-0.260	0.095
-593.996	-200.000	0.035	0.195
-592.982	-80.348	-0.254	0.086
-591.967	-54.437	-0.369	0.169
-590.952	-93.288	0.132	0.037
-589.938	502.843	0.128	-0.297
-588.923	-200.000	0.016	-0.349
-587.909	800.000	0.056	-0.202
-586.894	113.448	0.078	-0.095
-585.879	-200.000	0.025	0.251
-584.865	-165.519	0.215	-0.009
-583.850	97.333	-0.285	-0.330
-582.836	368.755	-0.149	-0.304
-581.821	258.877	-0.131	0.227
-580.806	-127.046	-0.122	0.018
-579.792	-200.000	0.023	-0.179
-578.777	-34.519	0.340	-0.188
-577.763	-200.000	-0.020	-0.154
-576.748	199.215	-0.024	0.037
-575.733	-200.000	-0.037	-0.611
-574.719	254.819	-0.013	0.022
-573.704	-78.878	0.152	0.052
-572.690	44.617	0.279	-0.258
-571.675	-200.000	-0.013	-0.064
-570.661	700.486	-0.054	0.142
-569.646	105.622	0.147	0.175
-568.631	442.237	0.104	0.229
-567.617	-77.251	0.281	0.098
-566.602	454.788	-0.073	-0.164
-565.588	800.000	0.006	-0.019
-564.573	609.892	0.098	0.247
-563.558	-139.795	0.100	0.011
-562.544	-63.209	0.459	-0.191
-561.529	-144.254	0.049	0.005
-560.515	-111.415	-0.137	0.028
-559.500	-97.264	0.354	-0.093
-558.485	122.666	0.094	-0.119
-557.471	-155.921	-0.427	-0.027
-556.456	-59.853	-0.206	0.089
-555.442	438.083	-0.068	-0.149
-554.427	-152.273	-0.299	0.022
-553.412	503.702	-0.081	-0.187
-552.398	800.000	0.018	0.055
-551.383	-114.076	0.172	0.034
-550.369	26.964	-0.306	-0.258
-549.354	-85.889	0.193	0.060
-548.339	-46.305	-0.192	0.095
-547.325	55.867	0.262	0.256
-546.310	-156.754	-0.314	-0.020
-545.296	800.000	-0.042	0.168
-544.281	-147.707	0.156	0.013
-543.266	-65.657	-0.232	-0.094
-542.252	-113.213	0.062	-0.012
-541.237	-200.000	0.019	-0.139
-540.223	-200.000	0.017	-0.194
-539.208	-86.201	0.124	-0.039
-538.193	-23.043	-0.458	0.277
-537.179	89.524	0.125	-0.140
-536.164	-200.000	-0.013	0.370
-535.150	-133.652	0.155	-0.019
-534.135	-58.871	0.322	0.140
-533.121	-175.539	0.065	0.002
-532.106	162.493	-0.079	-0.112
-531.091	-158.700	-0.111	0.006
-530.077	-14.640	-0.257	-0.166
-529.062	164.392	0.036	-0.051
-528.048	-31.094	-0.487	-0.276
-527.033	-24.530	-0.308	-0.184
-526.018	800.000	0.077	-0.231
-525.004	145.151	-0.026	0.034
-523.989	264.595	-0.151	0.264
-522.975	-200.000	-0.008	-0.145
-521.960	-32.318	-0.300	-0.168
-520.945	248.240	0.147	-0.251
-519.931	-4.109	-0.100	0.070
-518.916	3.749	-0.164	-0.120
-517.902	800.000	0.067	-0.257
-516.887	-158.145	0.035	-0.002
-515.872	-95.743	0.039	-0.010
-514.858	-95.596	0.557	-0.150
-513.843	395.871	0.149	-0.312
-512.829	61.696	0.112	0.112
-511.814	196.486	-0.088	-0.134
-510.799	-200.000	0.008	-0.186
-509.785	800.000	0.042	0.164
-508.770	800.000	-0.011	-0.046
-507.756	800.000	0.013	-0.049
-506.741	-6.132	-0.368	-0.253
-505.726	-58.648	-0.256	-0.112
-504.712	-139.507	-0.260	-0.028
-503.697	-42.684	0.150	-0.077
-502.683	256.256	0.122	0.211
-501.668	104.500	-0.043	-0.051
-500.653	-110.765	-0.282	-0.058
-499.639	55.920	0.086	0.084
-498.624	-14.537	0.070	0.045
-497.610	-142.377	0.229	-0.023
-496.595	61.347	0.485	-0.485
-495.581	-29.732	0.337	-0.193
-494.566	99.342	-0.197	-0.228
-493.551	-200.000	0.002	-0.165
-492.537	-98.913	0.230	0.059
-491.522	7.451	0.266	-0.200
-490.508	539.363	0.054	0.129
-489.493	-57.836	0.516	-0.226
-488.478	-200.000	0.002	-0.254
-487.464	-101.010	0.095	0.023
-486.449	800.000	-0.019	-0.055
-485.435	-50.674	0.252	-0.119
-484.420	-125.183	-0.340	-0.052
-483.405	-200.000	0.067	0.373
-482.391	623.136	0.052	0.132
-481.376	-98.576	-0.237	0.061
-480.362	-28.013	0.111	-0.065
-479.347	-146.349	-0.150	0.013
-478.332	-200.000	0.066	-0.510
-477.318	-38.798	-0.179	0.095
-476.303	222.280	0.118	0.191
-475.289	800.000	-0.125	0.366
-474.274	89.707	-0.124	0.139
-473.259	113.497	0.181	0.220
-472.245	-78.204	0.195	-0.067
-471.230	-2.228	-0.163	-0.115
-470.216	-41.983	0.056	-0.029
-469.201	-200.000	-0.031	-0.293
-468.186	800.000	0.027	0.085
-467.172	-18.422	-0.210	-0.131
-466.157	-200.000	0.003	-0.151
-465.143	-200.000	0.027	0.146
-464.128	77.974	0.124	0.133
-463.113	800.000	0.082	0.273
-462.099	71.886	0.046	0.048
-461.084	-71.335	-0.089	-0.034
-460.070	-72.752	-0.438	0.162
-459.055	-105.830	-0.312	-0.071
-458.040	313.730	-0.145	0.274
-457.026	-166.999	0.132	0.005
-456.011	-4.202	-0.171	-0.118
-454.997	-143.760	0.220	0.021
-453.982	75.101	-0.101	-0.107
-452.968	24.889	0.098	-0.081
-451.953	584.628	0.042	-0.104
-450.938	185.595	-0.080	-0.120
-449.924	394.001	-0.113	0.237
-448.909	-200.000	0.041	0.267
-447.895	-17.752	0.275	0.173
-446.880	-45.932	0.075	-0.037
-445.865	-200.000	0.011	0.140
-444.851	-58.165	-0.329	-0.144
-443.836	-113.523	0.207	0.041
-442.822	541.068	-0.080	0.192
-441.807	-22.096	-0.152	-0.092
-440.792	-152.632	-0.055	-0.004
-439.778	167.718	0.299	-0.425
-438.763	-82.031	-0.181	0.059
-437.749	-67.909	-0.429	-0.168
-436.734	-140.190	0.132	-0.014
-435.719	-137.833	-0.279	-0.031
-434.705	562.052	-0.070	0.169
-433.690	-200.000	-0.083	-0.367
-432.676	-50.469	-0.326	-0.154
-431.661	776.963	0.100	-0.274
-430.646	-200.000	0.004	0.083
-429.632	800.000	0.032	-0.090
-428.617	19.223	0.092	0.074
-427.603	-191.644	0.521	0.005
-426.588	-66.462	-0.320	-0.127
-425.573	552.981	-0.106	0.256
-424.559	97.013	-0.160	-0.184
-423.544	16.508	-0.197	-0.156
-422.530	-200.000	-0.010	-0.260
-421.515	-27.632	0.049	-0.028
-420.500	226.806	-0.135	-0.219
-419.486	-144.947	-0.368	-0.034
-418.471	-40.053	-0.298	-0.156
-417.457	-181.540	-0.289	0.006
-416.442	-113.311	0.082	0.016
-415.428	100.640	-0.167	0.194
-414.413	636.079	-0.058	0.147
-413.398	455.495	0.173	0.383
-412.384	800.000	-0.070	-0.219
-411.369	-200.000	-0.029	0.282
-410.355	103.704	-0.358	0.421
-409.340	9.666	0.177	-0.135
-408.325	255.550	-0.131	-0.225
-407.311	-57.393	0.101	0.044
-406.296	-118.345	-0.159	0.028
-405.282	-200.000	0.017	-0.205
-404.267	-135.152	0.097	0.012
-403.252	-154.998	0.086	-0.006
-402.238	-62.021	-0.195	0.082
-401.223	-200.000	0.011	0.249
-400.209	-200.000	-0.053	0.297
-399.194	29.638	0.189	-0.161
-398.179	43.666	0.114	0.104
-397.165	247.046	0.052	-0.088
-396.150	23.808	-0.117	0.097
-395.136	-117.442	0.426	-0.077
-394.121	-32.156	-0.036	0.020
-393.106	253.357	-0.296	0.506
-392.092	-85.530	0.108	0.033
-391.077	4.171	-0.025	-0.018
-390.063	710.486	-0.067	0.178
-389.048	123.658	0.237	-0.298
-388.033	-200.000	0.014	-0.257
-387.019	-200.000	0.063	0.359
-386.004	29.428	-0.023	-0.019
-384.990	215.051	0.012	0.019
-383.975	57.193	0.079	-0.077
-382.960	-152.134	-0.270	-0.020
-381.946	36.716	0.172	0.152
-380.931	-200.000	-0.026	0.348
-379.917	-61.405	0.255	-0.107
-378.902	-27.226	0.155	0.090
-377.888	45.686	0.146	-0.135
-376.873	-89.347	0.258	-0.076
-375.858	12.284	0.168	-0.130
-374.844	800.000	-0.101	0.383
-373.829	141.317	-0.045	-0.060
-372.815	-34.982	0.239	-0.130
-371.800	197.488	-0.260	-0.396
-370.785	-191.272	-0.406	0.004
-369.771	-12.292	0.189	-0.124
-368.756	299.323	-0.062	-0.114
-367.742	800.000	0.025	0.085
-366.727	97.649	-0.117	-0.134
-365.712	150.310	0.115	-0.156
-364.698	419.021	0.115	0.246
-363.683	3.639	-0.108	-0.079
-362.669	-200.000	-0.022	-0.256
-361.654	-26.388	-0.270	-0.158
-360.639	-200.000	-0.005	-0.198
-359.625	-103.938	-0.202	0.047
-358.610	800.000	0.021	-0.065
-357.596	-73.606	-0.043	0.016
-356.581	-61.337	0.322	0.135
-355.566	197.449	-0.088	0.135
-354.552	-200.000	0.006	-0.177
-353.537	-200.000	0.058	-0.323
-352.523	353.582	-0.084	0.167
-351.508	327.053	-0.022	0.042
-350.493	78.999	-0.106	0.114
-349.479	-74.907	-0.120	0.043
-348.464	18.142	-0.152	0.121
-347.450	87.179	-0.166	-0.183
-346.435	800.000	0.033	-0.096
-345.420	-200.000	-0.023	-0.198
-344.406	-58.091	0.154	-0.067
-343.391	-133.018	0.131	0.017
-342.377	112.851	-0.179	0.216
-341.362	-120.226	-0.088	-0.015
-340.348	132.249	0.272	0.350
-339.333	-38.893	-0.053	0.028
-338.318	387.567	0.020	0.042
-337.304	2.540	0.139	0.101
-336.289	-51.947	-0.201	-0.093
-335.275	-119.280	0.057	-0.010
-334.260	151.521	0.140	0.191
-333.245	-200.000	0.078	0.490
-332.231	-128.886	-0.535	0.075
-331.216	-78.226	0.239	0.082
-330.202	38.898	0.161	-0.143
-329.187	-200.000	-0.018	0.174
-328.172	271.328	0.101	-0.178
-327.158	95.119	0.039	-0.045
-326.143	62.490	-0.241	-0.240
-325.129	-151.245	0.385	-0.029
-324.114	236.779	-0.127	-0.210
-323.099	800.000	-0.040	-0.127
-322.085	-200.000	0.010	-0.075
-321.070	-122.133	0.293	-0.048
-320.056	-52.455	-0.074	0.034
-319.041	220.085	0.141	0.226
-318.026	101.828	-0.176	0.204
-317.012	297.227	0.160	-0.293
-315.997	-32.691	-0.227	-0.126
-314.983	-33.460	-0.138	0.076
-313.968	79.059	-0.084	-0.090
-312.953	320.457	-0.044	0.084
-311.939	-68.678	0.142	0.055
-310.924	658.813	0.059	-0.151
-309.910	-16.804	0.171	0.108
-308.895	-200.000	-0.028	0.145
-307.880	-171.348	0.223	-0.007
-306.866	68.540	0.120	-0.122
-305.851	283.253	0.016	-0.028
-304.837	-200.000	0.012	-0.285
-303.822	-96.815	0.099	-0.026
-302.807	-152.820	0.388	-0.027
-301.793	322.014	0.047	0.088
-300.778	-200.000	-0.031	-0.229
-299.764	800.000	0.034	0.134
-298.749	-38.233	0.186	-0.098
-297.735	26.394	0.301	-0.251
-296.720	-54.838	-0.088	-0.040
-295.705	-200.000	-0.005	-0.049
-294.691	800.000	-0.062	-0.239
-293.676	-200.000	0.054	-0.248
-292.662	-59.780	0.481	0.205
-291.647	-200.000	-0.024	0.125
-290.632	-7.839	-0.104	-0.070
-289.618	124.823	-0.240	0.301
-288.603	-200.000	-0.086	0.427
-287.589	-200.000	-0.004	0.130
-286.574	773.918	-0.003	0.009
-285.559	-24.428	-0.230	0.136
-284.545	-71.025	-0.042	-0.016
-283.530	-74.952	0.133	0.047
-282.516	436.788	-0.074	-0.161
-281.501	39.937	0.157	-0.140
-280.486	135.415	0.128	-0.166
-279.472	800.000	-0.061	0.221
-278.457	-200.000	0.031	0.150
-277.443	-2.890	-0.135	-0.094
-276.428	-164.526	-0.205	0.009
-275.413	800.000	-0.025	0.106
-274.399	-7.653	0.407	0.274
-273.384	229.234	0.120	0.195
-272.370	3.964	-0.123	-0.090
-271.355	353.247	-0.053	-0.105
-270.340	-83.318	-0.418	0.134
-269.326	17.895	0.025	-0.020
-268.311	-32.309	0.015	0.009
-267.297	21.586	0.154	0.124
-266.282	-142.549	-0.507	0.050
-265.267	-143.762	-0.419	0.039
-264.253	-200.000	-0.006	-0.083
-263.238	-97.964	-0.080	0.020
-262.224	-51.403	0.245	0.114
-261.209	21.631	0.050	-0.041
-260.195	30.563	0.209	0.178
-259.180	-65.023	0.171	0.069
-258.165	-200.000	-0.036	-0.331
-257.151	179.193	-0.089	-0.129
-256.136	33.767	-0.160	0.139
-255.122	464.015	0.053	0.118
-254.107	-72.011	-0.077	-0.029
-253.092	91.810	-0.170	-0.190
-252.078	255.358	0.127	-0.216
-251.063	-200.000	0.007	0.243
-250.049	23.071	-0.267	0.218
-249.034	800.000	-0.155	0.479
-248.019	211.647	0.250	0.392
-247.005	-159.359	-0.251	0.014
-245.990	455.307	0.042	0.093
-244.976	-126.775	0.064	0.009
-243.961	-84.743	-0.262	0.082
-242.946	800.000	0.040	0.154
-241.932	-126.172	-0.266	0.040
-240.917	473.306	-0.099	-0.222
-239.903	800.000	-0.070	0.218
-238.888	-155.388	0.041	0.003
-237.873	117.026	0.148	0.180
-236.859	-200.000	-0.016	0.124
-235.844	-200.000	-0.009	0.045
-234.830	-200.000	-0.029	-0.192
-233.815	-114.944	-0.162	-0.031
-232.800	-123.347	-0.132	0.021
-231.786	-3.892	0.117	0.081
-230.771	-88.239	0.219	0.065
-229.757	254.048	-0.132	0.225
-228.742	109.065	0.236	-0.281
-227.727	-200.000	-0.018	-0.333
-226.713	-51.998	0.489	-0.226
-225.698	-84.913	0.203	0.063
-224.684	-200.000	0.001	0.171
-223.669	407.360	-0.030	0.064
-222.655	-51.588	0.140	-0.065
-221.640	560.814	0.065	0.156
-220.625	526.464	0.182	0.426
-219.611	800.000	0.072	-0.221
-218.596	-113.309	-0.313	-0.061
-217.582	-112.213	-0.100	-0.020
-216.567	70.560	-0.187	-0.192
-215.552	57.098	0.223	0.216
-214.538	-70.040	-0.159	0.060
-213.523	-50.159	-0.201	0.094
-212.509	-87.573	-0.293	-0.088
-211.494	-77.161	-0.468	-0.162
-210.479	-200.000	0.031	-0.189
-209.465	114.980	-0.233	0.283
-208.450	800.000	-0.074	0.269
-207.436	-65.443	-0.181	0.072
-206.421	114.500	0.059	0.071
-205.406	12.720	-0.115	0.088
-204.392	-16.501	0.084	-0.053
-203.377	94.532	0.251	-0.283
-202.363	-200.000	0.012	0.225
-201.348	23.767	0.132	-0.108
-200.333	524.888	0.079	-0.184
-199.319	-91.957	-0.093	0.026
-198.304	-85.374	-0.246	-0.076
-197.290	-200.000	0.044	-0.289
-196.275	91.692	0.287	-0.320
-195.260	-200.000	0.006	0.112
-194.246	122.163	-0.047	0.058
-193.231	-46.982	0.143	-0.070
-192.217	89.204	0.273	0.302
-191.202	-200.000	0.029	0.528
-190.187	-22.575	0.252	-0.151
-189.173	131.618	-0.184	-0.235
-188.158	249.905	0.096	-0.162
-187.144	315.599	-0.100	0.187
-186.129	-149.312	-0.212	0.017
-185.114	30.369	0.362	0.307
-184.100	-200.000	-0.010	-0.064
-183.085	-200.000	0.029	-0.135
-182.071	-130.128	-0.087	0.012
-181.056	246.902	-0.106	0.177
-180.042	-200.000	-0.047	-0.407
-179.027	55.356	-0.107	0.102
-178.012	-99.552	0.041	0.010
-176.998	-28.800	0.264	-0.151
-175.983	-151.261	0.098	-0.007
-174.969	-135.298	-0.142	0.017
-173.954	338.756	0.063	0.122
-172.939	-95.842	0.098	0.026
-171.925	-183.372	-0.498	0.009
-170.910	-200.000	-0.001	-0.099
-169.896	158.472	-0.043	-0.060
-168.881	-86.520	0.274	-0.083
-167.866	-160.699	-0.372	-0.020
-166.852	37.674	0.248	0.218
-165.837	-104.963	0.112	-0.025
-164.823	53.364	0.230	-0.219
-163.808	91.814	0.145	0.161
-162.793	290.889	0.201	-0.362
-161.779	60.000	0.163	0.160
-160.764	-188.967	0.378	0.005
-159.750	800.000	-0.130	0.378
-158.735	122.774	-0.191	0.237
-157.720	800.000	0.047	0.186
-156.706	250.952	0.126	0.211
-155.691	-99.357	0.420	-0.105
-154.677	46.200	0.230	-0.211
-153.662	-55.896	-0.219	0.097
-152.647	285.003	0.109	0.194
-151.633	-9.567	-0.242	-0.160
-150.618	384.554	-0.091	0.185
-149.604	426.604	0.124	-0.265
-148.589	-166.059	0.322	0.014
-147.574	-103.941	0.252	0.058
-146.560	-200.000	0.001	0.428
-145.545	-158.163	-0.087	0.005
-144.531	104.220	-0.033	-0.039
-143.516	329.240	0.140	-0.267
-142.502	-200.000	0.082	-0.381
-141.487	-200.000	-0.019	0.133
-140.472	174.391	-0.156	0.223
-139.458	218.172	-0.149	-0.235
-138.443	-149.017	0.083	0.007
-137.429	-79.323	0.180	-0.060
-136.414	-200.000	0.007	-0.089
-135.399	-38.005	0.285	0.150
-134.385	-200.000	0.053	-0.264
-133.370	-134.156	0.111	0.014
-132.356	-118.223	-0.068	-0.012
-131.341	-63.878	0.056	0.023
-130.326	-153.287	0.373	-0.026
-129.312	-149.116	0.211	0.017
-128.297	246.231	0.160	0.267
-127.283	-200.000	0.020	0.135
-126.268	800.000	0.079	-0.253
-125.253	800.000	-0.049	-0.193
-124.239	-172.973	-0.172	-0.005
-123.224	187.630	-0.145	0.215
-122.210	-200.000	0.026	-0.124
-121.195	521.515	-0.026	-0.061
