DTS Sentinel unit serial number:	SN413079Multiplexer serial number:	ORYXHardware model number:	OX4-SRSoftware version number:	ORYX F/W v4.00 Oryx Data Collector v3.7.2.0data status	okinstallation	princeton_trtdifferential loss correction	single-endedforward channel	channel 4reverse channel	N/Adate	2019/09/11time	03:43:10forward acquisition time	60.00reverse acquisition time	0.00gamma	496.2192k internal	0.2315k external	0.2315temperature offset calibration	0.9944default loss term (dB/km)	0.3790temperature slope calibration	1.0000multiplexer offset coefficient	1.0000multiplexer slope coefficient	1.0000fibre end	0.00T internal ref (°C)	29.52T ext. ref 1 (°C)	-0.29T ext. ref 2 (°C)	23.94length (m)	temperature (°C)	Stokes	anti-Stokes-747.200	800.000	0.074	0.274
-746.185	-200.000	-0.015	0.266
-745.171	-152.542	-0.429	-0.031
-744.156	800.000	-0.051	0.171
-743.142	-80.275	-0.221	-0.075
-742.127	-156.059	-0.258	0.017
-741.112	-200.000	0.028	0.148
-740.098	-200.000	0.014	-0.149
-739.083	-200.000	-0.009	-0.448
-738.069	55.534	0.265	0.260
-737.054	-149.082	0.383	0.031
-736.039	800.000	-0.071	0.279
-735.025	60.504	0.163	-0.163
-734.010	206.967	0.131	-0.207
-732.996	-129.531	-0.317	-0.044
-731.981	17.281	0.215	-0.173
-730.966	-39.009	-0.092	-0.049
-729.952	-73.955	-0.402	-0.148
-728.937	-200.000	-0.021	-0.382
-727.923	214.731	-0.125	0.200
-726.908	-200.000	-0.026	-0.312
-725.894	31.382	0.060	-0.052
-724.879	-191.737	-0.167	0.002
-723.864	74.901	0.072	-0.077
-722.850	-49.093	-0.369	0.179
-721.835	38.353	-0.211	-0.190
-720.821	104.616	0.185	0.220
-719.806	711.296	0.068	-0.182
-718.791	60.119	-0.046	-0.046
-717.777	-26.722	-0.364	-0.216
-716.762	-200.000	-0.013	0.182
-715.748	-200.000	0.017	-0.167
-714.733	85.810	0.202	0.225
-713.718	-105.783	-0.193	0.044
-712.704	484.159	-0.094	0.216
-711.689	-200.000	-0.049	0.388
-710.675	-128.634	-0.229	0.033
-709.660	194.402	-0.139	-0.213
-708.645	800.000	-0.073	-0.268
-707.631	32.017	-0.164	-0.143
-706.616	34.465	-0.246	-0.218
-705.602	-200.000	0.073	-0.446
-704.587	-179.605	0.140	-0.003
-703.572	-200.000	-0.005	0.160
-702.558	-26.660	-0.182	-0.108
-701.543	-200.000	-0.032	-0.444
-700.529	127.304	0.065	0.083
-699.514	91.684	0.033	-0.037
-698.499	187.292	-0.122	-0.183
-697.485	639.392	0.013	0.034
-696.470	86.942	-0.190	-0.213
-695.456	-200.000	0.055	0.260
-694.441	416.836	-0.114	0.247
-693.426	1.585	-0.094	0.068
-692.412	800.000	-0.008	0.023
-691.397	150.325	0.135	-0.186
-690.383	151.653	-0.099	-0.137
-689.368	-148.392	-0.410	0.034
-688.354	-13.544	-0.184	0.121
-687.339	84.559	-0.378	-0.418
-686.324	-200.000	-0.031	0.220
-685.310	-200.000	-0.004	0.204
-684.295	-97.536	-0.120	0.031
-683.281	-32.568	-0.356	0.200
-682.266	-13.328	0.045	-0.029
-681.251	-200.000	-0.001	0.305
-680.237	-200.000	-0.006	-0.378
-679.222	-200.000	-0.018	0.297
-678.208	280.453	0.049	-0.089
-677.193	-200.000	-0.053	-0.316
-676.178	-28.745	-0.397	-0.231
-675.164	800.000	-0.051	-0.157
-674.149	-181.556	-0.138	0.003
-673.135	126.652	0.160	0.205
-672.120	63.196	0.116	0.118
-671.105	-127.369	0.191	0.028
-670.091	76.425	-0.250	-0.268
-669.076	106.268	0.165	-0.197
-668.062	149.637	-0.187	-0.256
-667.047	-134.514	-0.306	0.038
-666.032	-200.000	0.003	-0.111
-665.018	-200.000	0.011	-0.487
-664.003	-103.668	0.254	0.060
-662.989	-52.536	-0.146	-0.068
-661.974	213.902	0.150	-0.240
-660.959	16.121	-0.189	-0.151
-659.945	306.983	-0.044	-0.083
-658.930	294.098	-0.077	0.141
-657.916	157.804	-0.043	0.060
-656.901	4.559	-0.090	-0.066
-655.886	-7.203	0.016	0.011
-654.872	-23.223	-0.176	-0.107
-653.857	-104.789	0.132	0.031
-652.843	-119.470	-0.081	-0.014
-651.828	-123.190	0.030	-0.005
-650.814	-200.000	0.035	0.173
-649.799	-86.592	0.285	0.088
-648.784	800.000	0.075	-0.264
-647.770	-174.607	-0.218	0.006
-646.755	-200.000	-0.015	-0.170
-645.741	-200.000	-0.011	-0.091
-644.726	-200.000	-0.032	-0.204
-643.711	-124.299	-0.190	0.030
-642.697	354.817	0.059	0.118
-641.682	-3.215	-0.332	-0.233
-640.668	-113.844	-0.091	-0.018
-639.653	-200.000	-0.073	-0.488
-638.638	-33.706	-0.092	0.051
-637.624	296.225	0.074	0.138
-636.609	-34.288	0.052	-0.029
-635.595	-200.000	0.007	-0.188
-634.580	800.000	0.070	-0.244
-633.565	-147.159	-0.427	0.037
-632.551	-130.797	-0.065	-0.009
-631.536	376.677	-0.111	-0.229
-630.522	235.325	0.267	-0.444
-629.507	-168.509	-0.309	0.012
-628.492	-65.078	0.241	0.098
-627.478	-181.430	-0.287	0.006
-626.463	409.319	-0.112	-0.239
-625.449	800.000	-0.092	0.298
-624.434	295.022	0.109	0.200
-623.419	560.255	0.015	-0.036
-622.405	67.357	0.109	-0.112
-621.390	-93.199	0.095	0.027
-620.376	-200.000	0.008	0.063
-619.361	87.950	-0.330	0.369
-618.346	48.726	-0.184	-0.174
-617.332	-68.779	-0.067	-0.026
-616.317	61.755	-0.166	-0.166
-615.303	-117.015	0.117	-0.021
-614.288	-83.065	-0.204	0.066
-613.273	-121.458	-0.075	0.013
-612.259	724.033	-0.102	-0.274
-611.244	59.433	-0.174	-0.173
-610.230	203.368	0.106	0.165
-609.215	10.616	-0.128	0.098
-608.201	-96.470	-0.384	-0.102
-607.186	-67.588	-0.316	0.125
-606.171	81.217	-0.081	-0.088
-605.157	-200.000	0.052	0.292
-604.142	-60.531	0.278	0.119
-603.128	167.540	-0.116	0.165
-602.113	754.477	-0.156	0.426
-601.098	-112.772	-0.060	-0.012
-600.084	329.063	-0.047	0.091
-599.069	301.818	-0.060	0.112
-598.055	77.798	0.093	-0.100
-597.040	8.564	-0.077	0.059
-596.025	327.238	0.134	-0.258
-595.011	-100.555	-0.170	-0.042
-593.996	-123.591	0.417	-0.067
-592.982	-200.000	-0.009	0.083
-591.967	-200.000	0.036	0.177
-590.952	-200.000	0.043	-0.271
-589.938	38.367	0.173	-0.155
-588.923	-134.907	-0.468	-0.057
-587.909	-200.000	-0.017	0.229
-586.894	37.849	-0.101	-0.091
-585.879	95.931	-0.158	-0.182
-584.865	-200.000	-0.054	-0.280
-583.850	106.503	-0.191	0.228
-582.836	800.000	-0.044	-0.178
-581.821	-126.886	0.050	-0.007
-580.806	-110.542	0.163	-0.034
-579.792	-53.379	-0.037	-0.017
-578.777	411.294	0.116	-0.248
-577.763	-200.000	-0.090	0.451
-576.748	-147.298	0.131	-0.011
-575.733	-177.688	0.248	0.006
-574.719	-127.025	-0.191	-0.028
-573.704	-200.000	0.026	-0.204
-572.690	800.000	0.086	-0.289
-571.675	65.623	0.198	0.201
-570.661	-10.405	-0.429	0.286
-569.646	158.043	0.245	-0.342
-568.631	147.856	0.046	0.063
-567.617	-118.876	-0.227	-0.040
-566.602	-200.000	-0.034	0.299
-565.588	178.686	0.104	0.152
-564.573	46.728	-0.316	-0.296
-563.558	-177.781	0.218	0.005
-562.544	-20.553	0.106	0.066
-561.529	-200.000	-0.021	-0.324
-560.515	-200.000	-0.471	-0.001
-559.500	-200.000	-0.016	-0.088
-558.485	-56.221	0.419	0.187
-557.471	375.518	0.126	-0.258
-556.456	-156.518	-0.084	0.005
-555.442	-109.565	-0.465	-0.099
-554.427	-200.000	0.004	0.088
-553.412	-200.000	0.020	0.171
-552.398	-91.407	0.353	-0.101
-551.383	9.762	-0.179	0.136
-550.369	78.060	-0.056	-0.060
-549.354	-49.636	-0.474	0.227
-548.339	-200.000	0.043	-0.354
-547.325	-200.000	0.002	0.029
-546.310	-24.632	0.340	0.203
-545.296	800.000	-0.064	0.208
-544.281	-43.110	-0.078	-0.040
-543.266	-74.897	-0.159	0.057
-542.252	2.238	0.233	0.169
-541.237	-3.856	0.060	-0.042
-540.223	800.000	-0.025	0.099
-539.208	-127.985	0.289	0.042
-538.193	800.000	-0.094	-0.347
-537.179	-135.212	-0.213	0.026
-536.164	-200.000	-0.002	-0.286
-535.150	-105.305	-0.390	0.089
-534.135	-171.258	-0.168	0.006
-533.121	-148.534	0.158	-0.013
-532.106	242.390	0.124	0.209
-531.091	242.140	-0.120	-0.202
-530.077	-63.259	0.435	-0.180
-529.062	-39.504	0.220	0.116
-528.048	131.683	-0.154	-0.199
-527.033	235.130	-0.318	-0.527
-526.018	624.703	0.073	-0.184
-525.004	-38.369	0.257	0.137
-523.989	-200.000	-0.009	0.155
-522.975	137.775	-0.052	0.068
-521.960	9.649	0.084	-0.064
-520.945	-200.000	-0.000	-0.055
-519.931	124.799	0.171	0.216
-518.916	-75.752	-0.032	-0.011
-517.902	-25.727	0.289	-0.171
-516.887	-200.000	0.055	0.350
-515.872	-49.612	-0.215	0.103
-514.858	800.000	0.009	-0.036
-513.843	-109.272	0.224	-0.048
-512.829	38.381	0.384	-0.343
-511.814	-92.453	0.130	-0.037
-510.799	800.000	-0.033	-0.114
-509.785	195.137	0.015	-0.023
-508.770	16.289	0.111	0.088
-507.756	84.653	0.181	0.199
-506.741	-200.000	0.020	0.156
-505.726	-200.000	-0.037	0.169
-504.712	197.423	0.093	0.142
-503.697	307.608	-0.047	0.088
-502.683	-117.811	-0.157	0.028
-501.668	-90.975	0.083	-0.024
-500.653	220.820	0.100	-0.160
-499.639	563.480	0.081	-0.198
-498.624	424.258	0.046	-0.099
-497.610	177.512	0.160	-0.234
-496.595	189.857	-0.064	-0.096
-495.581	154.602	-0.156	-0.216
-494.566	129.786	-0.190	0.244
-493.551	170.729	-0.119	0.170
-492.537	779.537	-0.080	0.219
-491.522	219.286	-0.132	-0.212
-490.508	58.109	0.162	-0.159
-489.493	-87.353	0.115	0.035
-488.478	-126.602	-0.187	0.028
-487.464	90.876	-0.200	-0.225
-486.449	-52.962	-0.286	0.132
-485.435	-131.690	0.107	-0.014
-484.420	-11.302	-0.024	-0.016
-483.405	-62.287	0.138	0.058
-482.391	57.825	-0.144	0.141
-481.376	31.344	-0.325	-0.280
-480.362	-15.758	-0.249	0.159
-479.347	725.286	0.079	0.211
-478.332	-10.994	0.330	0.218
-477.318	-73.371	-0.187	-0.069
-476.303	4.868	-0.127	-0.094
-475.289	-200.000	-0.026	-0.211
-474.274	-92.834	0.266	-0.074
-473.259	-83.460	-0.183	-0.059
-472.245	-200.000	0.055	-0.288
-471.230	-200.000	-0.001	0.020
-470.216	45.254	0.220	0.204
-469.201	-200.000	-0.001	0.130
-468.186	-96.630	-0.275	0.073
-467.172	-3.820	-0.146	-0.102
-466.157	-200.000	-0.028	-0.253
-465.143	-200.000	-0.016	-0.188
-464.128	646.632	0.095	-0.243
-463.113	23.595	-0.154	-0.127
-462.099	-83.888	0.264	-0.084
-461.084	44.309	0.333	0.306
-460.070	385.333	-0.153	0.317
-459.055	800.000	0.090	-0.342
-458.040	-118.130	0.121	0.022
-457.026	-200.000	-0.033	0.263
-456.011	800.000	0.035	0.114
-454.997	-4.594	-0.031	0.021
-453.982	-119.323	-0.152	0.026
-452.968	-19.995	-0.217	-0.134
-451.953	-132.055	0.248	-0.032
-450.938	-179.162	-0.157	-0.004
-449.924	165.505	-0.061	-0.086
-448.909	564.213	0.055	-0.134
-447.895	92.294	-0.184	0.208
-446.880	81.266	0.148	0.160
-445.865	800.000	-0.062	-0.222
-444.851	476.875	-0.141	-0.318
-443.836	7.912	-0.068	-0.051
-442.822	-200.000	-0.006	-0.452
-441.807	800.000	0.042	0.159
-440.792	24.255	0.233	0.193
-439.778	36.424	0.144	0.127
-438.763	49.046	0.104	-0.097
-437.749	-108.477	-0.298	0.064
-436.734	-58.710	-0.255	0.110
-435.719	11.807	0.195	-0.150
-434.705	-22.422	-0.441	-0.267
-433.690	-120.825	-0.074	0.013
-432.676	-200.000	0.038	0.206
-431.661	15.167	0.091	0.071
-430.646	252.584	-0.085	-0.145
-429.632	-50.490	-0.289	0.137
-428.617	-200.000	0.015	0.100
-427.603	-34.561	-0.162	-0.089
-426.588	14.243	-0.109	0.085
-425.573	326.759	-0.055	-0.105
-424.559	395.028	-0.145	-0.303
-423.544	141.311	0.097	0.129
-422.530	22.755	0.066	0.054
-421.515	800.000	0.047	0.157
-420.500	-200.000	0.005	0.088
-419.486	-200.000	0.015	-0.071
-418.471	58.416	-0.421	-0.413
-417.457	-81.663	-0.316	0.104
-416.442	-20.866	-0.060	0.037
-415.428	-172.337	0.440	0.014
-414.413	-200.000	0.023	-0.218
-413.398	-134.193	0.136	-0.017
-412.384	800.000	0.054	-0.234
-411.369	461.414	0.032	-0.072
-410.355	437.492	-0.067	0.146
-409.340	-28.116	0.175	-0.101
-408.325	73.054	-0.116	-0.121
-407.311	-200.000	0.033	-0.205
-406.296	-101.875	0.464	0.112
-405.282	800.000	0.026	-0.086
-404.267	-200.000	-0.018	-0.336
-403.252	-64.241	0.094	-0.038
-402.238	-200.000	-0.022	0.224
-401.223	800.000	0.039	0.126
-400.209	-200.000	0.002	-0.213
-399.194	74.816	-0.134	-0.141
-398.179	-14.147	0.158	0.102
-397.165	6.757	0.033	0.024
-396.150	-57.405	-0.324	-0.142
-395.136	35.844	0.224	-0.197
-394.121	-103.290	-0.355	0.084
-393.106	102.114	0.109	0.127
-392.092	-200.000	-0.001	0.154
-391.077	407.968	0.066	-0.139
-390.063	-68.391	0.411	-0.159
-389.048	-200.000	0.018	0.170
-388.033	-56.415	-0.053	0.023
-387.019	-200.000	-0.067	0.419
-386.004	64.302	0.153	-0.154
-384.990	-200.000	-0.005	-0.176
-383.975	234.289	0.017	-0.028
-382.960	594.333	0.122	-0.302
-381.946	85.762	0.070	-0.077
-380.931	82.820	0.181	0.196
-379.917	87.284	0.163	0.180
-378.902	-69.461	0.394	0.151
-377.888	-105.176	-0.065	0.015
-376.873	-72.312	0.282	-0.104
-375.858	380.730	-0.166	-0.340
-374.844	73.068	0.249	0.260
-373.829	26.842	0.106	0.088
-372.815	-92.432	-0.271	-0.076
-371.800	-200.000	-0.038	0.253
-370.785	800.000	-0.052	-0.170
-369.771	165.309	0.061	0.085
-368.756	-135.541	0.163	0.019
-367.742	414.525	0.155	0.329
-366.727	-127.310	0.145	-0.021
-365.712	694.640	-0.115	-0.300
-364.698	-13.171	0.208	-0.135
-363.683	800.000	-0.041	0.169
-362.669	31.243	0.203	-0.174
-361.654	-145.669	0.311	0.028
-360.639	645.903	-0.115	0.293
-359.625	32.730	0.150	0.130
-358.610	-153.001	0.223	0.016
-357.596	456.359	0.148	-0.328
-356.581	26.204	-0.224	0.187
-355.566	-132.599	0.353	-0.045
-354.552	22.959	0.232	-0.189
-353.537	-200.000	-0.029	-0.184
-352.523	181.764	0.023	-0.034
-351.508	-123.903	-0.243	-0.038
-350.493	591.641	0.005	-0.014
-349.479	276.731	0.247	0.439
-348.464	28.233	-0.154	-0.130
-347.450	-200.000	-0.001	0.032
-346.435	-91.136	-0.107	-0.031
-345.420	-200.000	0.079	0.370
-344.406	203.822	-0.170	-0.263
-343.391	1.182	0.077	0.055
-342.377	128.202	0.109	-0.138
-341.362	-200.000	-0.013	-0.128
-340.348	-102.830	-0.351	-0.083
-339.333	104.387	0.226	0.265
-338.318	-107.630	-0.180	-0.039
-337.304	389.159	0.066	0.137
-336.289	-139.750	0.065	-0.007
-335.275	-86.584	0.139	0.042
-334.260	-162.607	-0.126	0.006
-333.245	255.647	0.118	0.201
-332.231	-200.000	0.064	0.449
-331.216	-33.937	-0.127	-0.070
-330.202	-66.427	0.379	0.150
-329.187	285.675	0.090	0.161
-328.172	345.386	0.163	-0.318
-327.158	278.344	-0.197	-0.350
-326.143	-30.037	-0.208	-0.118
-325.129	224.083	-0.067	-0.107
-324.114	-200.000	0.048	-0.240
-323.099	74.712	0.215	0.226
-322.085	584.418	0.093	0.228
-321.070	26.090	0.151	-0.126
-320.056	-59.927	-0.090	-0.038
-319.041	-29.361	-0.117	-0.067
-318.026	-86.686	0.170	-0.052
-317.012	-144.902	-0.209	-0.019
-315.997	190.728	0.207	0.310
-314.983	72.449	0.206	0.214
-313.968	-164.881	-0.205	0.009
-312.953	800.000	-0.024	-0.091
-311.939	531.325	0.066	0.155
-310.924	-148.661	0.242	0.020
-309.910	800.000	-0.008	0.024
-308.895	-200.000	-0.038	0.290
-307.880	136.933	-0.148	0.193
-306.866	-200.000	-0.006	0.290
-305.851	238.203	-0.159	-0.263
-304.837	-118.864	0.287	0.050
-303.822	-86.627	-0.339	0.104
-302.807	-63.757	0.198	0.081
-301.793	-77.306	0.259	-0.090
-300.778	119.870	0.084	-0.104
-299.764	15.024	0.458	0.357
-298.749	-106.427	-0.128	-0.029
-297.735	182.156	-0.218	-0.321
-296.720	-148.192	-0.152	0.012
-295.705	92.227	-0.274	0.307
-294.691	104.098	-0.102	-0.119
-293.676	-60.798	0.016	-0.007
-292.662	118.220	-0.120	0.147
-291.647	-137.258	-0.299	-0.034
-290.632	-200.000	-0.007	0.176
-289.618	-200.000	0.044	-0.314
-288.603	87.545	-0.171	-0.188
-287.589	-70.008	0.351	-0.133
-286.574	164.829	-0.195	0.274
-285.559	93.582	-0.201	0.226
-284.545	572.638	0.029	-0.069
-283.530	-200.000	-0.040	-0.187
-282.516	-33.219	0.085	-0.047
-281.501	87.991	0.118	0.131
-280.486	800.000	0.101	0.335
-279.472	-125.808	-0.307	0.046
-278.457	-104.585	0.251	0.058
-277.443	-168.827	-0.169	0.006
-276.428	766.030	0.027	0.072
-275.413	-200.000	-0.034	-0.209
-274.399	39.577	0.039	0.034
-273.384	336.824	0.054	-0.105
-272.370	137.495	0.054	-0.071
-271.355	-200.000	0.022	0.123
-270.340	437.422	0.080	-0.174
-269.326	-200.000	-0.020	-0.165
-268.311	-91.881	-0.241	0.068
-267.297	-3.860	-0.269	0.186
-266.282	-76.343	-0.095	0.033
-265.267	-200.000	0.049	0.312
-264.253	116.914	-0.085	0.104
-263.238	-20.456	0.120	-0.073
-262.224	-200.000	0.038	-0.288
-261.209	148.326	-0.045	-0.061
-260.195	-200.000	0.006	0.239
-259.180	130.728	-0.173	-0.220
-258.165	-96.389	0.170	0.045
-257.151	109.680	-0.054	-0.064
-256.136	35.382	0.268	0.234
-255.122	54.824	0.145	-0.139
-254.107	-54.141	0.128	0.058
-253.092	161.976	-0.058	-0.081
-252.078	106.633	-0.049	0.058
-251.063	795.702	0.058	-0.157
-250.049	-200.000	-0.021	0.176
-249.034	-24.685	-0.205	0.121
-248.019	108.177	-0.191	0.227
-247.005	-118.749	-0.261	0.046
-245.990	-73.374	0.151	0.055
-244.976	424.756	0.018	-0.039
-243.961	-179.136	-0.132	-0.003
-242.946	649.177	-0.081	-0.206
-241.932	233.929	0.115	-0.188
-240.917	376.461	-0.090	0.182
-239.903	-190.444	0.367	-0.004
-238.888	584.879	-0.074	-0.182
-237.873	228.171	0.234	0.378
-236.859	166.441	-0.105	0.148
-235.844	-200.000	-0.016	-0.202
-234.830	-132.880	0.185	0.023
-233.815	-81.779	0.093	0.030
-232.800	-40.112	0.363	-0.188
-231.786	-133.440	-0.377	-0.047
-230.771	75.017	-0.139	-0.145
-229.757	15.924	0.051	-0.040
-228.742	120.845	0.196	-0.242
-227.727	-24.708	-0.029	0.017
-226.713	-52.313	0.252	-0.116
-225.698	-200.000	-0.022	0.229
-224.684	-200.000	-0.011	-0.071
-223.669	-44.368	0.238	-0.118
-222.655	800.000	0.062	0.179
-221.640	-158.361	0.222	0.013
-220.625	-83.219	-0.272	0.087
-219.611	800.000	0.039	-0.137
-218.596	241.326	0.068	0.112
-217.582	-200.000	0.032	-0.241
-216.567	-80.187	0.288	0.096
-215.552	800.000	-0.071	0.270
-214.538	5.086	0.227	0.166
-213.523	-200.000	0.006	-0.119
-212.509	-145.757	-0.342	-0.030
-211.494	-198.103	-0.286	0.002
-210.479	434.540	-0.084	-0.181
-209.465	122.910	-0.078	-0.097
-208.450	614.232	-0.037	0.091
-207.436	135.944	-0.175	-0.227
-206.421	-65.812	0.166	-0.066
-205.406	89.588	0.077	-0.085
-204.392	96.878	0.114	0.130
-203.377	800.000	-0.012	-0.050
-202.363	265.302	-0.244	0.423
-201.348	-10.280	0.226	0.149
-200.333	-7.396	0.265	0.178
-199.319	800.000	0.117	0.414
-198.304	122.808	-0.040	-0.049
-197.290	-53.385	0.299	0.136
-196.275	-200.000	0.019	0.180
-195.260	-7.142	-0.160	0.107
-194.246	-200.000	0.009	0.401
-193.231	-200.000	0.086	0.000
-192.217	42.260	-0.458	0.413
-191.202	-200.000	0.056	0.328
-190.187	-54.659	-0.151	0.068
-189.173	-1.146	0.213	-0.149
-188.158	-100.493	-0.222	0.055
-187.144	15.129	0.082	0.064
-186.129	-73.893	0.172	0.062
-185.114	-16.626	-0.127	0.080
-184.100	-134.703	0.152	0.018
-183.085	142.741	0.067	0.089
-182.071	-200.000	-0.013	0.497
-181.056	-60.787	0.128	0.054
-180.042	193.784	0.228	-0.342
-179.027	-99.788	0.284	-0.071
-178.012	-45.932	0.184	-0.090
-176.998	142.287	-0.096	0.126
-175.983	-115.863	0.023	0.004
-174.969	16.853	0.179	-0.141
-173.954	-138.666	0.102	-0.011
-172.939	15.940	0.175	0.137
-171.925	800.000	-0.059	-0.164
-170.910	-200.000	-0.004	0.282
-169.896	135.938	-0.102	0.132
-168.881	-200.000	-0.012	0.093
-167.866	-10.600	-0.384	-0.252
-166.852	-139.232	-0.116	-0.012
-165.837	-58.725	-0.058	-0.025
-164.823	253.762	-0.105	-0.177
-163.808	207.836	-0.175	-0.271
-162.793	-48.537	-0.088	0.042
-161.779	-18.240	0.349	-0.216
-160.764	-33.147	0.371	0.204
-159.750	800.000	-0.030	0.105
-158.735	-186.209	-0.034	0.000
-157.720	34.802	-0.239	0.207
-156.706	-119.661	-0.426	-0.073
-155.691	-153.358	-0.139	0.010
-154.677	-4.754	-0.160	0.109
-153.662	-200.000	0.035	0.175
-152.647	35.857	0.274	-0.238
-151.633	112.669	-0.114	0.137
-150.618	-164.687	0.370	-0.017
-149.604	800.000	-0.027	-0.095
-148.589	-37.205	0.048	-0.025
-147.574	-19.561	-0.232	-0.142
-146.560	-186.978	-0.149	-0.002
-145.545	-146.796	0.463	0.040
-144.531	32.458	0.250	0.213
-143.516	-80.158	0.355	-0.118
-142.502	159.715	0.098	0.136
-141.487	-62.728	0.305	-0.125
-140.472	-94.544	0.125	-0.034
-139.458	30.724	-0.305	0.259
-138.443	704.893	-0.052	0.136
-137.429	800.000	-0.064	0.175
-136.414	470.468	0.073	-0.161
-135.399	81.840	0.205	0.220
-134.385	-89.327	0.125	-0.037
-133.370	-200.000	-0.050	0.328
-132.356	-46.445	-0.249	-0.121
-131.341	800.000	-0.050	0.215
-130.326	-160.635	-0.286	-0.015
-129.312	149.887	0.143	-0.192
-128.297	111.376	-0.069	-0.082
-127.283	-200.000	0.009	0.068
-126.268	-74.682	-0.056	0.020
-125.253	-135.637	0.219	-0.026
-124.239	250.679	0.088	0.149
-123.224	-26.787	0.207	0.120
-122.210	-36.627	0.269	-0.143
