DTS Sentinel unit serial number:	SN413079Multiplexer serial number:	ORYXHardware model number:	OX4-SRSoftware version number:	ORYX F/W v4.00 Oryx Data Collector v3.7.2.0data status	okinstallation	princeton_trtdifferential loss correction	single-endedforward channel	channel 4reverse channel	N/Adate	2019/09/16time	00:57:35forward acquisition time	60.00reverse acquisition time	0.00gamma	496.2192k internal	0.2324k external	0.2324temperature offset calibration	0.9963default loss term (dB/km)	0.3790temperature slope calibration	1.0000multiplexer offset coefficient	1.0000multiplexer slope coefficient	1.0000fibre end	0.00T internal ref (°C)	27.37T ext. ref 1 (°C)	9.72T ext. ref 2 (°C)	21.28length (m)	temperature (°C)	Stokes	anti-Stokes-747.200	-200.000	-0.011	0.079
-746.185	-45.182	0.097	0.049
-745.171	-183.997	-0.075	-0.001
-744.156	-30.854	-0.467	0.267
-743.142	-133.202	0.103	-0.013
-742.127	-178.650	-0.449	0.010
-741.112	134.534	-0.165	0.216
-740.098	-28.810	-0.314	0.182
-739.083	263.651	0.091	0.160
-738.069	-165.402	-0.091	0.004
-737.054	129.472	0.086	0.111
-736.039	-38.247	-0.204	-0.109
-735.025	93.488	0.116	0.132
-734.010	800.000	-0.052	-0.180
-732.996	-200.000	0.014	-0.234
-731.981	3.979	-0.392	-0.289
-730.966	800.000	-0.041	-0.120
-729.952	-200.000	0.019	0.149
-728.937	-200.000	-0.025	-0.225
-727.923	18.052	-0.111	-0.089
-726.908	-130.152	-0.196	-0.027
-725.894	494.547	-0.183	-0.423
-724.879	59.012	-0.189	-0.187
-723.864	-31.331	-0.050	-0.028
-722.850	-158.555	-0.274	-0.016
-721.835	-200.000	-0.051	0.227
-720.821	-86.046	-0.283	-0.088
-719.806	-38.825	0.219	-0.116
-718.791	-39.678	-0.324	0.171
-717.777	-7.298	-0.130	-0.089
-716.762	88.238	-0.180	-0.202
-715.748	800.000	0.113	-0.326
-714.733	394.118	-0.004	-0.008
-713.718	193.143	-0.160	0.244
-712.704	-109.353	0.244	-0.052
-711.689	-92.206	-0.166	-0.047
-710.675	282.757	-0.104	0.188
-709.660	800.000	0.033	-0.130
-708.645	-39.721	0.203	0.107
-707.631	-52.581	0.185	-0.086
-706.616	-173.765	-0.304	0.009
-705.602	-200.000	-0.016	0.254
-704.587	272.368	0.095	0.168
-703.572	417.141	0.176	0.379
-702.558	-200.000	0.029	-0.248
-701.543	-200.000	0.001	-0.098
-700.529	800.000	-0.015	0.062
-699.514	-73.183	0.297	0.110
-698.499	-200.000	-0.007	-0.129
-697.485	800.000	-0.069	0.254
-696.470	427.795	0.113	0.246
-695.456	-200.000	0.023	-0.274
-694.441	741.291	-0.066	-0.179
-693.426	-200.000	0.025	-0.161
-692.412	-26.487	-0.184	-0.109
-691.397	-200.000	0.001	-0.170
-690.383	387.499	-0.090	0.188
-689.368	263.744	-0.092	0.161
-688.354	-8.692	-0.374	-0.253
-687.339	-33.529	-0.043	0.024
-686.324	303.013	-0.086	-0.161
-685.310	-117.772	0.187	-0.034
-684.295	-85.146	-0.183	-0.058
-683.281	47.957	-0.149	0.141
-682.266	500.506	0.130	0.301
-681.251	-200.000	-0.017	0.152
-680.237	-115.513	0.246	-0.047
-679.222	221.812	0.077	0.125
-678.208	-170.575	-0.464	0.016
-677.193	125.513	-0.160	0.204
-676.178	-130.264	-0.362	-0.050
-675.164	-14.797	0.317	-0.205
-674.149	800.000	-0.040	0.131
-673.135	-65.142	0.232	0.094
-672.120	-23.591	-0.286	-0.173
-671.105	-133.400	-0.168	-0.021
-670.091	800.000	-0.045	0.149
-669.076	362.679	-0.084	0.169
-668.062	268.544	0.096	0.169
-667.047	800.000	-0.075	0.272
-666.032	-200.000	-0.039	0.220
-665.018	-79.869	0.318	0.108
-664.003	252.171	-0.124	-0.213
-662.989	321.622	-0.051	0.097
-661.974	-200.000	-0.024	0.366
-660.959	-200.000	0.009	-0.421
-659.945	-108.714	0.306	-0.066
-658.930	-13.988	-0.432	-0.281
-657.916	-24.303	0.133	0.080
-656.901	28.449	0.032	0.027
-655.886	30.409	0.129	0.111
-654.872	-178.485	-0.310	-0.007
-653.857	-200.000	0.023	-0.313
-652.843	33.162	0.037	-0.032
-651.828	-67.686	0.177	-0.070
-650.814	-165.845	-0.284	-0.012
-649.799	318.778	-0.050	0.095
-648.784	94.141	-0.082	0.094
-647.770	-140.583	-0.097	-0.010
-646.755	-165.066	0.222	-0.010
-645.741	800.000	0.060	0.175
-644.726	-125.847	-0.291	-0.044
-643.711	235.122	0.093	0.154
-642.697	-127.037	-0.240	-0.035
-641.682	-11.418	-0.252	0.167
-640.668	209.024	-0.033	-0.052
-639.653	41.949	-0.342	0.312
-638.638	-139.629	-0.413	0.044
-637.624	-63.863	-0.131	-0.054
-636.609	-200.000	-0.001	-0.007
-635.595	129.421	0.152	0.195
-634.580	-200.000	-0.061	0.346
-633.565	-65.140	-0.239	-0.097
-632.551	-200.000	0.003	-0.098
-631.536	-112.422	0.344	-0.069
-630.522	800.000	-0.087	-0.262
-629.507	-106.235	-0.111	-0.025
-628.492	-31.395	0.110	-0.062
-627.478	156.915	-0.290	-0.403
-626.463	88.922	0.087	-0.098
-625.449	-200.000	0.003	0.028
-624.434	345.104	-0.081	-0.159
-623.419	32.777	-0.126	-0.110
-622.405	-129.151	0.322	-0.045
-621.390	18.293	0.147	0.118
-620.376	104.395	0.177	0.209
-619.361	-75.271	0.460	-0.165
-618.346	-200.000	-0.011	-0.061
-617.332	-50.362	-0.400	-0.190
-616.317	62.216	0.269	0.270
-615.303	800.000	0.080	-0.306
-614.288	-13.293	0.338	0.220
-613.273	230.291	-0.193	0.317
-612.259	92.984	-0.032	0.037
-611.244	-19.770	0.159	0.099
-610.230	800.000	0.064	-0.191
-609.215	763.297	0.072	-0.196
-608.201	-200.000	0.057	0.380
-607.186	800.000	0.033	-0.142
-606.171	-92.335	-0.535	0.151
-605.157	-200.000	0.011	0.173
-604.142	131.610	0.195	0.252
-603.128	-200.000	-0.005	0.288
-602.113	-63.017	0.155	0.064
-601.098	-90.835	-0.414	0.120
-600.084	-200.000	0.002	0.312
-599.069	-145.214	0.073	-0.007
-598.055	73.754	-0.158	0.166
-597.040	-200.000	0.001	-0.070
-596.025	800.000	0.094	-0.336
-595.011	8.613	0.104	-0.079
-593.996	34.587	0.143	-0.125
-592.982	-42.578	-0.125	-0.064
-591.967	583.983	0.124	0.307
-590.952	74.027	-0.124	-0.130
-589.938	38.535	-0.289	-0.258
-588.923	-200.000	0.047	-0.292
-587.909	-78.405	0.532	-0.183
-586.894	-200.000	-0.041	-0.365
-585.879	-200.000	-0.077	-0.522
-584.865	-200.000	-0.009	-0.248
-583.850	800.000	-0.126	-0.415
-582.836	10.774	0.242	0.185
-581.821	-31.783	-0.115	0.065
-580.806	-153.660	-0.267	0.018
-579.792	-135.381	0.049	0.006
-578.777	-19.901	0.178	0.111
-577.763	350.180	0.119	0.236
-576.748	800.000	0.065	0.195
-575.733	-20.445	-0.280	-0.173
-574.719	555.556	0.003	-0.007
-573.704	-92.010	0.435	-0.124
-572.690	-116.921	0.303	0.056
-571.675	74.032	0.138	-0.145
-570.661	-53.424	0.222	-0.102
-569.646	-200.000	-0.039	0.262
-568.631	-18.317	0.258	0.162
-567.617	-52.082	-0.161	-0.075
-566.602	199.818	0.161	0.248
-565.588	800.000	0.095	0.398
-564.573	-200.000	-0.090	0.416
-563.558	-4.899	0.107	0.074
-562.544	-122.268	0.070	0.011
-561.529	-90.514	0.219	0.064
-560.515	800.000	-0.067	0.209
-559.500	-48.240	-0.315	-0.153
-558.485	-200.000	0.001	0.339
-557.471	-71.690	-0.314	0.117
-556.456	-75.263	-0.329	-0.118
-555.442	-17.787	0.312	-0.196
-554.427	-134.666	0.422	-0.052
-553.412	27.183	0.097	0.082
-552.398	82.153	0.115	-0.125
-551.383	114.201	0.164	-0.200
-550.369	-200.000	-0.023	-0.115
-549.354	-200.000	0.010	0.126
-548.339	244.760	-0.154	-0.259
-547.325	-186.302	-0.125	0.002
-546.310	800.000	-0.016	-0.064
-545.296	8.588	-0.268	0.202
-544.281	-100.329	0.345	0.086
-543.266	300.182	-0.153	-0.282
-542.252	434.344	-0.159	-0.345
-541.237	-55.431	0.090	0.041
-540.223	-80.479	0.127	0.042
-539.208	-200.000	-0.022	0.229
-538.193	-63.045	-0.079	0.033
-537.179	13.727	0.019	-0.015
-536.164	28.988	0.039	0.033
-535.150	597.841	-0.070	0.174
-534.135	444.761	-0.139	0.305
-533.121	-105.130	-0.143	0.033
-532.106	-110.813	0.273	-0.056
-531.091	-21.867	0.081	-0.049
-530.077	-200.000	-0.016	0.235
-529.062	66.579	0.256	0.261
-528.048	162.559	-0.024	-0.033
-527.033	-72.745	-0.134	0.049
-526.018	-159.526	-0.260	0.014
-525.004	140.155	0.214	-0.282
-523.989	-64.716	0.320	-0.130
-522.975	-160.736	-0.079	0.004
-521.960	96.046	0.049	-0.056
-520.945	-53.094	0.192	0.088
-519.931	259.812	-0.151	-0.260
-518.916	-14.987	0.189	0.121
-517.902	465.110	-0.111	-0.248
-516.887	-136.457	-0.217	-0.025
-515.872	-40.785	0.155	-0.080
-514.858	88.649	-0.053	-0.059
-513.843	-200.000	-0.026	0.206
-512.829	-44.298	0.130	-0.065
-511.814	-35.427	-0.210	0.114
-510.799	77.931	0.058	0.062
-509.785	-69.493	0.240	0.092
-508.770	318.826	0.154	-0.292
-507.756	-7.617	0.185	-0.125
-506.741	-16.278	0.078	0.049
-505.726	115.366	0.093	0.113
-504.712	-148.416	0.194	0.016
-503.697	59.190	0.075	-0.074
-502.683	-41.779	-0.066	0.034
-501.668	420.636	-0.029	0.063
-500.653	-200.000	-0.033	-0.264
-499.639	-200.000	0.005	0.131
-498.624	136.617	0.303	0.395
-497.610	-200.000	-0.021	-0.251
-496.595	98.784	-0.036	0.042
-495.581	151.109	-0.247	0.335
-494.566	-176.298	-0.240	0.006
-493.551	-200.000	-0.013	0.214
-492.537	-171.885	0.119	0.004
-491.522	-130.036	0.030	0.004
-490.508	-81.164	-0.148	0.049
-489.493	749.011	-0.024	0.066
-488.478	800.000	0.043	0.179
-487.464	-200.000	-0.023	0.256
-486.449	692.409	0.061	0.159
-485.435	-16.649	-0.135	0.085
-484.420	-116.740	-0.316	0.058
-483.405	800.000	0.137	0.481
-482.391	800.000	-0.084	-0.352
-481.376	-75.597	-0.268	-0.095
-480.362	-62.070	-0.236	0.099
-479.347	-200.000	-0.038	0.168
-478.332	199.970	-0.080	0.123
-477.318	637.080	-0.124	0.316
-476.303	22.528	0.022	-0.018
-475.289	37.138	0.128	-0.113
-474.274	-200.000	0.013	0.126
-473.259	-200.000	0.007	0.316
-472.245	800.000	0.033	0.100
-471.230	359.750	-0.174	-0.348
-470.216	85.543	-0.220	-0.241
-469.201	54.732	0.214	-0.206
-468.186	-14.724	-0.272	-0.174
-467.172	292.765	-0.114	-0.208
-466.157	-13.834	0.167	-0.108
-465.143	306.436	-0.136	-0.252
-464.128	728.385	-0.076	-0.203
-463.113	-84.298	-0.242	0.076
-462.099	-133.873	-0.050	-0.006
-461.084	484.387	-0.060	0.137
-460.070	135.645	-0.113	-0.147
-459.055	173.055	0.118	0.169
-458.040	53.080	-0.067	-0.064
-457.026	-102.505	-0.310	-0.074
-456.011	-68.838	0.190	-0.073
-454.997	205.705	-0.089	0.139
-453.982	686.723	0.076	0.198
-452.968	800.000	0.011	-0.046
-451.953	172.336	0.037	0.053
-450.938	-200.000	0.000	-0.122
-449.924	302.994	-0.131	0.242
-448.909	-25.508	-0.157	0.092
-447.895	-117.224	0.062	0.011
-446.880	-95.973	-0.248	-0.066
-445.865	-200.000	-0.014	-0.247
-444.851	-18.310	0.195	-0.121
-443.836	466.805	-0.061	-0.135
-442.822	83.143	-0.128	-0.139
-441.807	779.630	-0.125	-0.340
-440.792	-171.944	0.158	-0.005
-439.778	29.657	-0.190	-0.162
-438.763	-85.046	-0.118	-0.037
-437.749	-194.521	-0.247	0.002
-436.734	-171.098	0.221	0.007
-435.719	-200.000	-0.014	0.125
-434.705	231.204	-0.097	0.158
-433.690	20.965	0.110	-0.089
-432.676	-200.000	0.004	-0.148
-431.661	258.241	0.141	-0.243
-430.646	-200.000	-0.017	0.259
-429.632	-106.680	0.150	-0.033
-428.617	35.982	0.142	0.124
-427.603	620.625	0.063	-0.159
-426.588	148.053	-0.123	-0.165
-425.573	-43.176	-0.148	-0.075
-424.559	159.164	0.035	0.048
-423.544	99.755	-0.255	-0.295
-422.530	-200.000	-0.014	-0.148
-421.515	327.678	-0.213	-0.407
-420.500	-80.906	0.330	-0.109
-419.486	69.167	0.021	-0.022
-418.471	-6.226	-0.194	0.132
-417.457	-200.000	0.075	0.402
-416.442	-200.000	0.064	0.356
-415.428	36.229	-0.195	-0.171
-414.413	-200.000	0.052	0.371
-413.398	-184.852	0.433	0.007
-412.384	49.646	0.063	0.059
-411.369	53.503	-0.094	-0.090
-410.355	-121.535	0.326	0.054
-409.340	800.000	0.024	-0.080
-408.325	6.794	0.195	0.144
-407.311	216.445	-0.085	0.134
-406.296	-156.608	0.304	-0.019
-405.282	274.869	0.233	-0.410
-404.267	164.275	-0.259	0.363
-403.252	800.000	-0.030	0.086
-402.238	-45.669	-0.256	-0.126
-401.223	69.557	-0.075	-0.077
-400.209	-37.986	-0.298	-0.158
-399.194	539.982	0.034	-0.081
-398.179	-96.438	0.283	-0.075
-397.165	-153.771	0.233	0.016
-396.150	-86.688	-0.250	0.076
-395.136	116.471	-0.114	0.140
-394.121	-41.023	0.096	-0.049
-393.106	800.000	0.088	0.330
-392.092	312.530	-0.020	0.038
-391.077	-83.062	-0.577	-0.185
-390.063	-93.891	-0.058	0.016
-389.048	62.925	-0.123	-0.123
-388.033	23.804	-0.108	0.089
-387.019	-93.835	-0.339	0.093
-386.004	78.178	-0.216	0.230
-384.990	-200.000	0.003	-0.287
-383.975	-79.671	-0.096	-0.032
-382.960	646.359	0.122	-0.310
-381.946	209.374	0.086	-0.134
-380.931	-69.950	0.148	-0.056
-379.917	-59.368	0.162	-0.069
-378.902	-129.320	-0.302	-0.042
-377.888	-133.821	0.213	-0.026
-376.873	310.642	-0.056	0.104
-375.858	-200.000	-0.006	0.210
-374.844	-33.341	0.093	0.051
-373.829	-121.250	-0.065	0.011
-372.815	681.498	0.095	0.246
-371.800	-112.804	-0.121	0.024
-370.785	-152.598	-0.109	0.008
-369.771	312.272	0.091	-0.170
-368.756	-200.000	0.038	-0.272
-367.742	-200.000	0.024	-0.377
-366.727	-200.000	-0.004	-0.262
-365.712	116.713	0.099	0.121
-364.698	150.743	-0.233	0.315
-363.683	-200.000	-0.012	-0.255
-362.669	119.629	0.094	-0.116
-361.654	7.981	0.231	0.172
-360.639	195.678	-0.114	-0.172
-359.625	-200.000	-0.003	0.183
-358.610	77.169	-0.338	0.357
-357.596	470.427	0.097	0.218
-356.581	800.000	-0.025	0.080
-355.566	93.073	0.031	0.035
-354.552	493.491	-0.136	-0.310
-353.537	473.708	-0.079	0.177
-352.523	537.516	0.125	0.296
-351.508	-200.000	-0.063	0.283
-350.493	-200.000	0.053	0.269
-349.479	-65.505	-0.180	-0.072
-348.464	718.353	-0.117	0.308
-347.450	-29.954	-0.248	0.141
-346.435	-200.000	-0.003	-0.121
-345.420	-11.431	0.221	-0.145
-344.406	-200.000	0.063	-0.323
-343.391	276.188	-0.015	-0.026
-342.377	44.068	0.161	-0.146
-341.362	-133.369	0.105	-0.013
-340.348	283.889	0.119	-0.212
-339.333	128.558	0.047	0.060
-338.318	645.131	0.091	0.231
-337.304	37.347	-0.131	-0.116
-336.289	-86.962	-0.079	-0.024
-335.275	-36.185	0.149	-0.080
-334.260	408.499	0.065	0.137
-333.245	800.000	-0.107	-0.356
-332.231	-95.161	0.198	0.053
-331.216	-109.948	-0.097	-0.020
-330.202	-179.823	-0.418	0.009
-329.187	-200.000	-0.016	0.174
-328.172	-13.198	-0.194	0.125
-327.158	800.000	-0.027	0.112
-326.143	-157.315	0.140	-0.008
-325.129	-200.000	-0.004	0.086
-324.114	-93.542	-0.059	-0.016
-323.099	-107.201	-0.088	0.019
-322.085	-200.000	0.006	-0.120
-321.070	-43.096	0.200	-0.101
-320.056	-41.651	0.180	-0.092
-319.041	126.547	-0.164	-0.206
-318.026	-200.000	-0.021	0.151
-317.012	800.000	-0.047	-0.156
-315.997	-21.568	-0.219	0.133
-314.983	-57.694	-0.026	-0.012
-313.968	-102.023	0.361	0.086
-312.953	253.886	-0.241	0.410
-311.939	-101.291	0.074	0.018
-310.924	-162.494	0.434	-0.021
-309.910	-84.753	-0.401	-0.125
-308.895	-200.000	-0.018	-0.388
-307.880	-39.836	0.159	-0.082
-306.866	-200.000	-0.006	0.154
-305.851	800.000	0.074	-0.262
-304.837	-200.000	-0.077	-0.402
-303.822	-47.908	0.209	0.101
-302.807	70.181	0.116	-0.118
-301.793	26.142	-0.264	0.218
-300.778	120.146	0.231	0.284
-299.764	61.675	-0.160	0.158
-298.749	365.899	-0.132	-0.264
-297.735	-95.696	0.133	0.035
-296.720	713.476	0.045	0.117
-295.705	308.620	0.058	-0.107
-294.691	800.000	-0.070	-0.255
-293.676	447.900	0.150	0.327
-292.662	128.245	0.115	-0.145
-291.647	800.000	-0.063	0.187
-290.632	20.966	-0.153	-0.123
-289.618	-152.456	0.050	0.004
-288.603	-13.904	-0.158	0.101
-287.589	-200.000	0.000	0.016
-286.574	-124.776	0.179	0.027
-285.559	-70.635	0.218	-0.082
-284.545	158.755	0.151	-0.209
-283.530	-10.092	-0.141	0.093
-282.516	-69.040	0.044	0.017
-281.501	-67.872	0.276	0.107
-280.486	-200.000	-0.035	-0.155
-279.472	1.232	0.147	-0.105
-278.457	-100.123	0.047	-0.012
-277.443	160.568	-0.098	-0.136
-276.428	-44.145	0.135	0.067
-275.413	166.933	-0.169	-0.238
-274.399	-60.099	-0.262	-0.111
-273.384	-200.000	0.008	-0.217
-272.370	-35.731	-0.491	0.264
-271.355	-75.401	0.265	-0.094
-270.340	24.551	-0.007	-0.006
-269.326	553.653	0.057	-0.136
-268.311	56.038	-0.166	-0.159
-267.297	53.725	-0.085	-0.081
-266.282	800.000	0.153	-0.464
-265.267	800.000	0.132	0.378
-264.253	-173.424	0.244	0.007
-263.238	104.119	-0.245	-0.286
-262.224	-200.000	0.021	0.303
-261.209	-80.258	0.312	0.104
-260.195	658.388	-0.012	-0.030
-259.180	-39.170	0.405	0.211
-258.165	-69.248	-0.227	0.086
-257.151	130.354	0.324	0.412
-256.136	13.372	-0.137	-0.105
-255.122	61.016	0.082	-0.081
-254.107	-200.000	0.003	0.282
-253.092	-58.040	0.223	-0.096
-252.078	330.261	-0.112	-0.213
-251.063	111.752	0.418	-0.500
-250.049	559.326	-0.157	0.374
-249.034	-79.231	-0.094	-0.032
-248.019	-200.000	0.010	-0.087
-247.005	-148.981	0.048	-0.004
-245.990	-200.000	0.073	0.332
-244.976	119.746	-0.028	0.035
-243.961	800.000	-0.062	0.175
-242.946	218.344	-0.180	0.285
-241.932	59.826	-0.079	0.077
-240.917	-200.000	-0.013	0.249
-239.903	-10.401	-0.071	-0.047
-238.888	800.000	0.113	-0.317
-237.873	-200.000	0.045	0.240
-236.859	164.730	0.115	-0.161
-235.844	-154.157	-0.258	0.017
-234.830	6.402	0.094	-0.069
-233.815	800.000	0.062	-0.249
-232.800	167.755	-0.236	-0.332
-231.786	62.209	-0.161	-0.159
-230.771	-200.000	0.009	-0.179
-229.757	800.000	0.065	-0.240
-228.742	157.480	-0.158	-0.217
-227.727	-10.899	0.238	0.155
-226.713	-29.650	0.340	0.192
-225.698	38.684	-0.020	0.018
-224.684	133.176	0.338	-0.432
-223.669	-109.600	0.120	-0.025
-222.655	800.000	0.037	0.147
-221.640	34.968	0.160	-0.139
-220.625	-88.044	0.112	0.033
-219.611	-194.656	-0.259	-0.002
-218.596	-68.919	-0.420	-0.160
-217.582	-128.222	-0.042	-0.006
-216.567	-14.212	-0.061	0.039
-215.552	800.000	-0.186	-0.509
-214.538	-62.046	-0.192	0.079
-213.523	19.537	0.150	0.119
-212.509	174.362	-0.264	0.377
-211.494	-6.170	0.091	-0.062
-210.479	-93.593	-0.424	0.116
-209.465	294.605	0.239	-0.432
-208.450	-200.000	0.007	0.238
-207.436	-200.000	0.029	0.296
-206.421	-100.039	0.343	-0.085
-205.406	-5.232	-0.272	-0.185
-204.392	-200.000	0.066	-0.390
-203.377	164.636	0.066	-0.092
-202.363	57.668	-0.182	0.176
-201.348	173.038	-0.094	0.134
-200.333	-74.011	-0.169	-0.061
-199.319	-117.565	0.173	-0.031
-198.304	-55.394	0.372	0.165
-197.290	208.579	-0.137	0.212
-196.275	54.885	0.170	0.162
-195.260	586.313	0.104	-0.253
-194.246	-110.273	-0.194	0.040
-193.231	800.000	0.062	0.242
-192.217	-72.206	-0.223	-0.082
-191.202	-200.000	0.010	-0.325
-190.187	-108.607	0.420	-0.089
-189.173	-6.647	-0.135	-0.091
-188.158	-200.000	-0.006	-0.158
-187.144	-52.092	-0.175	0.080
-186.129	66.095	0.390	0.391
-185.114	-98.204	0.289	0.073
-184.100	37.025	-0.210	0.183
-183.085	-56.707	0.319	0.139
-182.071	-200.000	0.012	0.237
-181.056	67.501	-0.165	-0.167
-180.042	-1.415	-0.018	0.013
-179.027	-200.000	-0.011	-0.089
-178.012	-56.408	-0.070	0.031
-176.998	54.780	0.247	0.236
-175.983	105.087	-0.170	0.198
-174.969	-151.540	-0.183	0.013
-173.954	800.000	0.057	0.245
-172.939	215.409	0.129	0.202
-171.925	-23.522	0.173	-0.103
-170.910	18.157	0.141	-0.111
-169.896	168.688	0.059	0.083
-168.881	670.947	-0.167	-0.427
-167.866	-139.500	-0.343	0.036
-166.852	-157.156	0.545	0.033
-165.837	-122.221	-0.097	0.016
-164.823	266.710	0.133	-0.229
-163.808	-200.000	0.024	0.207
-162.793	-109.185	-0.121	-0.025
-161.779	272.351	0.076	0.133
-160.764	-111.115	-0.113	0.023
-159.750	-33.686	0.128	-0.070
-158.735	-200.000	0.010	0.088
-157.720	80.513	-0.143	0.152
-156.706	-200.000	0.023	-0.115
-155.691	217.598	0.077	-0.120
-154.677	400.090	0.223	-0.461
-153.662	-121.079	-0.380	0.063
-152.647	-145.289	0.122	-0.011
-151.633	389.903	-0.135	0.276
-150.618	174.731	-0.266	-0.380
-149.604	146.844	0.176	-0.234
-148.589	-26.396	0.345	0.200
-147.574	44.841	-0.167	-0.151
-146.560	19.217	-0.301	-0.238
-145.545	-200.000	-0.026	-0.155
-144.531	62.938	0.138	0.136
-143.516	113.515	-0.164	0.196
-142.502	-135.618	0.163	0.019
-141.487	26.256	-0.134	-0.111
-140.472	692.705	0.061	-0.157
-139.458	-200.000	0.040	0.208
-138.443	-124.358	-0.217	-0.033
-137.429	598.731	0.035	0.085
-136.414	8.714	0.274	0.203
-135.399	-200.000	0.046	0.373
-134.385	-10.135	0.258	0.169
-133.370	-200.000	-0.008	0.048
-132.356	800.000	0.017	0.050
-131.341	-79.357	0.404	0.135
-130.326	54.072	0.100	0.094
-129.312	243.749	0.224	0.370
-128.297	-15.855	0.233	-0.146
-127.283	-17.996	-0.222	0.137
-126.268	-35.277	0.243	0.130
-125.253	-82.011	-0.229	0.074
-124.239	-200.000	0.027	0.301
-123.224	-93.628	-0.187	-0.051
-122.210	200.353	0.241	0.365
