DTS Sentinel unit serial number:	SN413079Multiplexer serial number:	ORYXHardware model number:	OX4-SRSoftware version number:	ORYX F/W v4.00 Oryx Data Collector v3.7.2.0data status	okinstallation	princeton_trtdifferential loss correction	single-endedforward channel	channel 4reverse channel	N/Adate	2019/09/14time	19:09:35forward acquisition time	60.00reverse acquisition time	0.00gamma	496.2192k internal	0.2302k external	0.2302temperature offset calibration	1.0104default loss term (dB/km)	0.3790temperature slope calibration	1.0000multiplexer offset coefficient	1.0000multiplexer slope coefficient	1.0000fibre end	0.00T internal ref (°C)	35.36T ext. ref 1 (°C)	4.87T ext. ref 2 (°C)	29.27length (m)	temperature (°C)	Stokes	anti-Stokes-747.200	-106.975	-0.413	0.093
-746.185	-95.368	0.047	0.013
-745.171	39.168	0.102	0.093
-744.156	-74.359	-0.295	0.108
-743.142	-200.000	0.047	-0.238
-742.127	75.173	0.249	-0.267
-741.112	800.000	-0.052	0.161
-740.098	-200.000	-0.014	-0.251
-739.083	-12.581	0.137	-0.091
-738.069	261.214	-0.057	-0.101
-737.054	677.130	0.033	0.086
-736.039	382.612	0.079	-0.164
-735.025	-174.216	0.029	0.001
-734.010	-200.000	-0.006	-0.360
-732.996	800.000	-0.015	0.045
-731.981	588.942	-0.049	0.122
-730.966	800.000	-0.075	-0.242
-729.952	-200.000	-0.077	-0.383
-728.937	23.954	-0.332	-0.279
-727.923	-73.057	0.112	-0.042
-726.908	-105.447	-0.070	-0.016
-725.894	-200.000	-0.108	-0.563
-724.879	-79.717	0.047	-0.016
-723.864	-59.461	-0.359	-0.157
-722.850	-134.192	0.044	-0.006
-721.835	83.561	0.060	-0.067
-720.821	21.874	-0.166	0.138
-719.806	-200.000	-0.012	0.157
-718.791	-95.964	-0.294	0.080
-717.777	99.668	-0.216	-0.254
-716.762	-200.000	-0.002	0.100
-715.748	-11.779	-0.156	-0.104
-714.733	381.572	0.070	-0.146
-713.718	-200.000	-0.065	-0.304
-712.704	217.444	0.041	0.067
-711.689	419.252	-0.179	0.390
-710.675	212.291	-0.122	0.195
-709.660	167.040	0.006	-0.008
-708.645	800.000	0.057	0.182
-707.631	260.507	-0.040	-0.071
-706.616	800.000	-0.083	0.271
-705.602	212.625	0.076	-0.122
-704.587	-200.000	-0.035	0.264
-703.572	110.982	-0.139	0.170
-702.558	70.943	-0.224	-0.236
-701.543	295.532	0.064	-0.119
-700.529	-200.000	0.021	-0.234
-699.514	40.136	0.172	-0.158
-698.499	234.488	0.108	0.182
-697.485	-132.289	-0.190	0.025
-696.470	-200.000	0.008	-0.237
-695.456	-200.000	0.008	-0.666
-694.441	608.362	-0.126	-0.319
-693.426	-134.589	0.087	-0.011
-692.412	-20.452	-0.281	0.176
-691.397	-55.964	0.291	-0.132
-690.383	144.827	-0.179	0.244
-689.368	635.236	0.038	0.097
-688.354	200.653	-0.094	0.147
-687.339	77.405	-0.176	0.191
-686.324	37.557	0.057	0.051
-685.310	451.349	-0.076	-0.170
-684.295	800.000	-0.059	0.227
-683.281	122.572	0.157	0.199
-682.266	-188.946	0.292	-0.004
-681.251	-200.000	0.038	-0.329
-680.237	-200.000	-0.008	0.055
-679.222	41.227	-0.288	0.265
-678.208	56.181	0.082	-0.081
-677.193	79.556	0.036	-0.039
-676.178	800.000	-0.120	0.473
-675.164	-119.342	-0.047	0.008
-674.149	-91.405	0.073	0.021
-673.135	344.112	-0.026	-0.052
-672.120	800.000	0.067	0.289
-671.105	-200.000	-0.038	-0.278
-670.091	-40.336	-0.143	-0.075
-669.076	-200.000	-0.061	-0.385
-668.062	174.873	0.123	0.180
-667.047	-105.608	-0.081	0.019
-666.032	-123.305	-0.248	0.040
-665.018	169.899	0.015	0.022
-664.003	-158.191	0.250	-0.015
-662.989	741.286	-0.027	-0.073
-661.974	39.991	0.136	-0.124
-660.959	19.081	0.257	-0.209
-659.945	183.140	-0.203	-0.304
-658.930	-200.000	0.005	0.268
-657.916	600.025	0.028	0.071
-656.901	326.715	-0.064	-0.124
-655.886	22.994	-0.098	-0.082
-654.872	-30.526	0.312	0.180
-653.857	-200.000	-0.029	-0.269
-652.843	68.738	0.077	0.080
-651.828	-15.219	0.103	0.067
-650.814	-143.652	0.196	-0.019
-649.799	-200.000	-0.090	-0.404
-648.784	-200.000	0.032	0.393
-647.770	800.000	-0.065	-0.229
-646.755	179.761	-0.169	-0.252
-645.741	120.973	-0.146	0.184
-644.726	-200.000	-0.027	-0.167
-643.711	-54.506	-0.300	0.138
-642.697	-64.492	0.157	-0.065
-641.682	367.585	0.083	0.171
-640.668	-117.680	0.237	0.043
-639.653	-175.825	0.372	-0.010
-638.638	800.000	0.081	0.265
-637.624	800.000	-0.128	-0.369
-636.609	-200.000	-0.059	0.431
-635.595	-200.000	0.024	-0.237
-634.580	-56.966	0.189	-0.085
-633.565	-107.394	-0.303	0.067
-632.551	-72.057	0.079	-0.030
-631.536	346.319	0.061	0.121
-630.522	290.755	-0.023	-0.042
-629.507	15.418	-0.103	0.082
-628.492	-103.093	-0.216	0.052
-627.478	-12.113	-0.176	-0.117
-626.463	67.869	-0.128	0.133
-625.449	-64.242	-0.057	0.024
-624.434	-91.128	0.152	0.044
-623.419	-90.934	-0.111	-0.032
-622.405	202.975	-0.132	0.207
-621.390	-53.405	-0.237	-0.110
-620.376	-200.000	0.007	-0.091
-619.361	800.000	0.057	0.242
-618.346	-200.000	0.020	-0.228
-617.332	-200.000	-0.065	0.340
-616.317	-17.686	-0.100	-0.064
-615.303	-71.684	0.116	-0.044
-614.288	-173.837	-0.378	0.011
-613.273	-71.155	0.230	0.088
-612.259	120.461	-0.079	0.100
-611.244	-135.174	0.104	-0.013
-610.230	-63.311	0.222	-0.093
-609.215	54.495	-0.272	-0.266
-608.201	-45.310	-0.067	0.034
-607.186	800.000	-0.081	-0.234
-606.171	138.395	-0.038	0.051
-605.157	-85.212	-0.079	0.025
-604.142	-200.000	-0.013	-0.158
-603.128	23.929	0.233	0.195
-602.113	-200.000	-0.041	-0.323
-601.098	-200.000	-0.089	0.415
-600.084	-30.716	-0.144	-0.082
-599.069	321.866	-0.141	-0.272
-598.055	87.514	0.180	-0.202
-597.040	-200.000	-0.045	0.403
-596.025	325.377	0.152	-0.295
-595.011	9.151	-0.068	0.052
-593.996	-200.000	0.002	0.086
-592.982	-155.990	0.178	-0.011
-591.967	-115.987	0.100	0.019
-590.952	656.028	-0.073	-0.189
-589.938	-48.861	0.382	0.186
-588.923	-200.000	0.003	0.182
-587.909	-101.516	0.266	-0.065
-586.894	-100.424	0.284	0.071
-585.879	-180.230	0.156	-0.003
-584.865	126.001	-0.259	-0.332
-583.850	-144.901	-0.329	0.030
-582.836	-176.616	-0.256	0.007
-581.821	-37.233	0.248	-0.135
-580.806	800.000	-0.068	-0.234
-579.792	-107.868	0.329	-0.073
-578.777	363.215	0.141	-0.287
-577.763	-89.537	-0.238	-0.071
-576.748	737.077	0.022	-0.059
-575.733	-167.550	-0.311	0.013
-574.719	-164.934	-0.439	0.020
-573.704	-157.745	-0.316	-0.019
-572.690	800.000	0.072	0.204
-571.675	-129.053	-0.245	-0.035
-570.661	-116.277	-0.135	-0.025
-569.646	346.956	-0.233	0.465
-568.631	-137.400	-0.115	0.013
-567.617	244.128	-0.189	-0.322
-566.602	-73.929	-0.290	-0.107
-565.588	256.776	0.128	-0.223
-564.573	-138.683	0.185	-0.020
-563.558	157.506	-0.246	0.344
-562.544	143.678	0.147	0.198
-561.529	-200.000	0.025	0.217
-560.515	-104.871	0.194	-0.045
-559.500	-159.459	-0.190	-0.011
-558.485	-200.000	-0.045	0.212
-557.471	800.000	0.058	-0.178
-556.456	542.327	-0.034	-0.081
-555.442	28.705	-0.249	0.213
-554.427	-200.000	-0.057	0.329
-553.412	85.449	-0.181	0.201
-552.398	-90.461	-0.276	-0.081
-551.383	91.704	0.336	-0.383
-550.369	3.804	0.329	0.243
-549.354	-113.964	-0.182	-0.036
-548.339	57.053	0.069	0.068
-547.325	-64.029	-0.128	0.053
-546.310	586.896	-0.051	-0.128
-545.296	-159.886	-0.055	-0.003
-544.281	424.907	0.124	0.269
-543.266	103.438	0.084	-0.100
-542.252	5.296	-0.065	0.048
-541.237	-96.913	-0.119	0.032
-540.223	-87.582	-0.160	-0.049
-539.208	55.122	0.137	-0.134
-538.193	-129.987	0.272	0.038
-537.179	-200.000	-0.031	-0.150
-536.164	-151.446	0.391	-0.029
-535.150	4.217	0.086	0.063
-534.135	-200.000	-0.013	-0.110
-533.121	-200.000	0.072	-0.368
-532.106	800.000	-0.099	-0.350
-531.091	-173.959	0.342	0.010
-530.077	361.639	0.143	-0.291
-529.062	72.886	-0.038	0.040
-528.048	-200.000	0.004	-0.044
-527.033	163.344	-0.143	0.202
-526.018	-7.926	0.065	0.044
-525.004	-88.581	-0.105	0.032
-523.989	-200.000	0.011	-0.336
-522.975	204.865	-0.048	0.076
-521.960	496.146	0.072	0.167
-520.945	800.000	-0.060	0.234
-519.931	-2.329	-0.060	0.043
-518.916	45.633	0.307	-0.287
-517.902	-200.000	0.019	-0.108
-516.887	-98.342	0.235	0.061
-515.872	-135.482	0.204	0.025
-514.858	-2.587	0.147	0.104
-513.843	401.093	0.149	-0.316
-512.829	-75.610	-0.122	-0.044
-511.814	-74.755	0.198	0.072
-510.799	-200.000	0.059	-0.436
-509.785	-2.111	-0.379	-0.269
-508.770	800.000	-0.095	0.331
-507.756	-175.789	0.067	-0.002
-506.741	685.456	-0.076	-0.199
-505.726	342.638	0.043	0.084
-504.712	-128.583	0.085	-0.012
-503.697	-123.942	-0.045	0.007
-502.683	-33.171	0.091	-0.051
-501.668	179.476	0.159	-0.235
-500.653	-145.647	-0.078	-0.007
-499.639	-200.000	0.042	-0.300
-498.624	-200.000	0.016	0.143
-497.610	-52.950	0.248	-0.115
-496.595	-122.450	-0.456	0.075
-495.581	-200.000	0.047	0.212
-494.566	-200.000	0.009	0.087
-493.551	-57.819	-0.053	-0.024
-492.537	56.421	0.313	0.307
-491.522	800.000	0.134	0.435
-490.508	-200.000	0.000	0.008
-489.493	-33.196	-0.162	0.091
-488.478	800.000	0.035	-0.149
-487.464	-44.065	0.125	0.063
-486.449	-0.004	0.072	0.052
-485.435	15.116	-0.213	-0.169
-484.420	-196.677	-0.498	0.003
-483.405	80.278	-0.082	0.089
-482.391	-65.724	0.260	-0.105
-481.376	-200.000	-0.006	-0.103
-480.362	141.175	-0.186	0.248
-479.347	-133.080	0.387	-0.050
-478.332	800.000	-0.074	0.281
-477.318	-48.630	-0.092	0.045
-476.303	80.804	0.156	0.169
-475.289	800.000	0.045	0.194
-474.274	415.587	0.124	-0.266
-473.259	-99.709	0.113	-0.028
-472.245	-167.972	-0.133	-0.005
-471.230	71.447	0.087	0.091
-470.216	201.485	0.175	-0.271
-469.201	-13.325	-0.378	-0.247
-468.186	-70.682	-0.153	-0.058
-467.172	-145.543	0.351	0.032
-466.157	-48.365	0.226	0.110
-465.143	542.680	-0.135	-0.324
-464.128	26.841	0.394	0.333
-463.113	13.378	-0.252	0.197
-462.099	-200.000	-0.006	0.270
-461.084	-156.504	-0.324	-0.020
-460.070	138.525	0.005	0.006
-459.055	80.501	0.210	-0.227
-458.040	-61.495	-0.206	0.087
-457.026	-94.961	-0.249	-0.068
-456.011	-62.396	-0.124	0.052
-454.997	800.000	0.086	0.346
-453.982	128.625	-0.153	0.196
-452.968	-200.000	0.032	-0.167
-451.953	164.441	-0.151	0.214
-450.938	71.790	-0.122	0.128
-449.924	21.373	0.157	-0.129
-448.909	394.067	0.147	-0.309
-447.895	131.574	-0.047	-0.061
-446.880	-116.169	-0.171	-0.032
-445.865	-20.706	-0.033	0.020
-444.851	-33.838	0.223	0.124
-443.836	-2.498	0.221	0.156
-442.822	369.900	0.153	0.312
-441.807	-141.653	0.132	0.013
-440.792	20.337	-0.095	0.077
-439.778	212.504	-0.123	-0.196
-438.763	-61.908	-0.219	0.092
-437.749	-200.000	-0.013	0.182
-436.734	-200.000	0.036	-0.193
-435.719	-32.693	0.191	-0.107
-434.705	21.439	-0.136	0.112
-433.690	-200.000	-0.001	0.062
-432.676	-200.000	-0.030	0.301
-431.661	-94.192	0.291	-0.080
-430.646	10.947	-0.230	0.177
-429.632	-200.000	-0.007	0.085
-428.617	-163.939	-0.164	0.008
-427.603	-200.000	0.021	-0.339
-426.588	186.145	0.143	-0.214
-425.573	-62.657	0.315	0.131
-424.559	272.372	-0.066	-0.118
-423.544	-106.242	0.163	0.037
-422.530	800.000	-0.024	0.081
-421.515	45.418	-0.191	0.177
-420.500	158.770	-0.073	0.102
-419.486	-57.835	0.096	-0.042
-418.471	-200.000	-0.011	0.072
-417.457	800.000	0.081	0.265
-416.442	290.243	-0.157	-0.287
-415.428	88.981	0.064	-0.072
-414.413	800.000	0.086	-0.339
-413.398	-128.273	-0.197	-0.028
-412.384	800.000	-0.052	0.201
-411.369	-200.000	-0.009	-0.156
-410.355	41.751	0.057	-0.052
-409.340	-67.069	0.361	0.143
-408.325	-86.072	0.052	-0.016
-407.311	250.488	0.100	0.171
-406.296	151.714	-0.115	0.158
-405.282	104.565	-0.295	-0.349
-404.267	-93.046	0.205	0.057
-403.252	-58.383	-0.249	-0.109
-402.238	-200.000	0.027	0.187
-401.223	226.426	0.101	0.165
-400.209	-111.348	-0.380	-0.078
-399.194	-200.000	0.028	-0.155
-398.179	-23.663	0.307	0.185
-397.165	350.217	-0.096	-0.190
-396.150	-67.304	-0.247	-0.098
-395.136	-79.736	0.342	-0.116
-394.121	-89.775	-0.137	-0.040
-393.106	-90.402	0.215	0.063
-392.092	216.255	-0.130	-0.207
-391.077	-68.005	-0.208	0.082
-390.063	74.014	-0.156	-0.165
-389.048	-10.961	0.271	-0.180
-388.033	-137.844	-0.324	-0.036
-387.019	657.243	0.082	-0.213
-386.004	800.000	0.033	0.143
-384.990	633.748	-0.061	-0.156
-383.975	-200.000	0.002	0.218
-382.960	-94.479	-0.042	-0.012
-381.946	-78.533	0.113	0.039
-380.931	-102.840	-0.376	0.090
-379.917	220.605	0.087	-0.140
-378.902	263.728	0.059	-0.102
-377.888	4.231	0.143	-0.105
-376.873	-200.000	0.081	-0.381
-375.858	-15.946	-0.124	-0.079
-374.844	-151.293	0.351	0.026
-373.829	208.352	-0.022	-0.035
-372.815	26.937	-0.201	-0.169
-371.800	-153.296	-0.248	-0.017
-370.785	-64.398	0.296	0.121
-369.771	-200.000	-0.002	-0.165
-368.756	-45.027	-0.172	-0.086
-367.742	19.217	-0.139	-0.112
-366.727	800.000	0.023	0.069
-365.712	-15.269	-0.189	0.121
-364.698	-66.251	0.033	-0.013
-363.683	186.192	0.065	-0.096
-362.669	-200.000	-0.081	-0.386
-361.654	-16.209	0.238	0.151
-360.639	800.000	0.085	0.250
-359.625	-200.000	0.018	-0.123
-358.610	230.272	-0.017	0.029
-357.596	-142.454	0.051	-0.005
-356.581	-121.368	0.235	0.039
-355.566	800.000	0.033	0.118
-354.552	800.000	-0.033	0.142
-353.537	205.376	-0.281	0.437
-352.523	-133.226	-0.045	0.006
-351.508	-200.000	-0.009	-0.355
-350.493	-103.383	-0.140	0.033
-349.479	-200.000	0.001	0.316
-348.464	-45.789	0.061	0.030
-347.450	13.072	-0.234	-0.182
-346.435	800.000	0.118	-0.364
-345.420	47.955	0.276	0.259
-344.406	-54.118	-0.461	0.210
-343.391	-199.756	-0.268	-0.001
-342.377	-200.000	-0.047	0.235
-341.362	-170.025	-0.165	0.006
-340.348	800.000	-0.054	0.223
-339.333	-200.000	-0.058	0.274
-338.318	7.420	0.144	-0.108
-337.304	-188.584	0.367	0.005
-336.289	-0.843	-0.223	0.158
-335.275	60.254	-0.102	-0.101
-334.260	-200.000	0.011	-0.086
-333.245	-200.000	-0.020	-0.102
-332.231	-36.817	-0.206	-0.111
-331.216	-124.548	-0.123	0.019
-330.202	800.000	-0.007	0.030
-329.187	-67.674	0.128	-0.050
-328.172	-40.164	-0.189	-0.099
-327.158	-200.000	0.019	-0.252
-326.143	52.432	-0.147	-0.141
-325.129	-99.329	0.397	0.100
-324.114	267.223	-0.141	-0.248
-323.099	800.000	-0.092	-0.384
-322.085	221.132	-0.202	-0.325
-321.070	-159.912	0.021	0.001
-320.056	-132.585	0.159	-0.021
-319.041	800.000	0.027	-0.086
-318.026	-53.191	0.475	0.218
-317.012	-200.000	-0.009	-0.225
-315.997	-200.000	0.030	-0.177
-314.983	335.200	0.056	0.109
-313.968	-88.572	-0.169	-0.050
-312.953	-200.000	-0.025	-0.137
-311.939	-60.982	-0.297	-0.126
-310.924	-168.202	0.089	-0.003
-309.910	119.907	0.157	0.195
-308.895	342.227	-0.061	0.120
-307.880	41.269	0.115	-0.104
-306.866	167.561	0.026	-0.037
-305.851	38.293	0.260	0.232
-304.837	193.799	0.092	0.140
-303.822	-108.801	-0.613	0.131
-302.807	800.000	0.091	0.358
-301.793	-200.000	0.016	0.182
-300.778	800.000	-0.083	0.260
-299.764	107.328	-0.068	-0.081
-298.749	-41.865	-0.071	0.037
-297.735	-152.856	0.394	-0.028
-296.720	187.526	-0.100	-0.150
-295.705	-178.972	0.102	0.002
-294.691	-114.318	0.261	0.050
-293.676	-165.411	-0.198	-0.009
-292.662	49.907	0.041	0.039
-291.647	-86.431	0.290	0.089
-290.632	-150.500	-0.073	0.006
-289.618	-79.225	-0.136	-0.046
-288.603	133.726	-0.087	-0.112
-287.589	52.099	-0.150	0.143
-286.574	-28.391	0.361	0.208
-285.559	-23.603	0.137	-0.082
-284.545	487.498	-0.152	0.347
-283.530	237.072	0.168	0.279
-282.516	-74.814	-0.204	-0.073
-281.501	553.302	0.235	0.566
-280.486	223.089	0.378	0.609
-279.472	-96.390	-0.335	0.089
-278.457	800.000	-0.066	-0.241
-277.443	162.723	-0.092	-0.130
-276.428	-177.333	0.211	-0.005
-275.413	-200.000	0.010	-0.321
-274.399	-78.875	-0.189	-0.065
-273.384	257.192	-0.084	0.144
-272.370	50.824	-0.150	0.142
-271.355	-107.356	0.193	-0.042
-270.340	-65.111	-0.046	-0.019
-269.326	-200.000	-0.005	-0.024
-268.311	-99.426	0.461	0.116
-267.297	800.000	-0.045	0.161
-266.282	172.159	0.118	-0.170
-265.267	66.810	-0.156	-0.159
-264.253	84.114	0.040	-0.043
-263.238	-100.141	-0.159	-0.039
-262.224	350.832	0.099	-0.195
-261.209	119.192	0.163	0.201
-260.195	-200.000	-0.029	-0.242
-259.180	-78.044	0.114	-0.039
-258.165	-185.537	-0.402	-0.006
-257.151	66.316	-0.067	-0.068
-256.136	-78.824	0.100	-0.034
-255.122	-134.432	-0.139	-0.017
-254.107	-200.000	0.008	0.069
-253.092	711.524	-0.057	-0.150
-252.078	-200.000	-0.012	-0.114
-251.063	-65.253	0.100	-0.040
-250.049	16.705	0.039	0.031
-249.034	429.460	0.121	-0.262
-248.019	95.799	-0.360	-0.411
-247.005	-80.933	0.182	-0.060
-245.990	-149.850	-0.108	-0.008
-244.976	-94.008	-0.351	-0.096
-243.961	-200.000	0.048	0.370
-242.946	800.000	-0.049	0.161
-241.932	-0.091	0.053	-0.038
-240.917	-73.343	0.232	-0.085
-239.903	-27.205	0.399	0.232
-238.888	548.534	-0.080	0.190
-237.873	-127.703	-0.269	-0.039
-236.859	474.453	0.123	-0.278
-235.844	-142.832	0.305	0.030
-234.830	89.041	0.051	0.057
-233.815	-175.938	-0.302	-0.008
-232.800	-37.048	-0.110	0.059
-231.786	800.000	-0.033	0.115
-230.771	-101.538	-0.068	0.016
-229.757	-41.928	0.044	-0.023
-228.742	46.578	0.224	0.207
-227.727	-31.887	0.235	-0.132
-226.713	-3.915	0.272	-0.188
-225.698	-200.000	-0.069	-0.337
-224.684	47.424	-0.250	-0.233
-223.669	-136.857	0.387	0.044
-222.655	182.377	0.045	-0.067
-221.640	59.605	-0.083	-0.081
-220.625	141.032	-0.224	0.296
-219.611	800.000	0.072	-0.243
-218.596	717.614	-0.145	0.383
-217.582	-94.261	-0.170	0.046
-216.567	-28.577	-0.246	-0.142
-215.552	266.638	0.157	0.274
-214.538	112.986	-0.141	0.170
-213.523	-85.580	0.454	0.141
-212.509	111.147	-0.087	0.104
-211.494	-60.484	-0.296	-0.126
-210.479	2.322	-0.143	0.103
-209.465	76.286	0.087	0.092
-208.450	-9.926	0.131	0.087
-207.436	139.748	-0.156	-0.205
-206.421	298.486	0.099	0.181
-205.406	-42.162	0.139	-0.071
-204.392	402.689	-0.030	0.063
-203.377	800.000	-0.044	-0.178
-202.363	-111.979	0.242	-0.049
-201.348	101.160	0.082	0.096
-200.333	-41.336	0.310	0.159
-199.319	-41.646	-0.195	0.100
-198.304	-200.000	-0.060	-0.295
-197.290	533.795	0.039	-0.091
-196.275	16.697	-0.081	0.064
-195.260	540.028	-0.141	0.335
-194.246	490.451	-0.061	0.139
-193.231	530.762	0.044	0.103
-192.217	-200.000	0.010	0.161
-191.202	47.152	0.162	0.150
-190.187	-154.204	0.252	-0.017
-189.173	-200.000	-0.022	0.147
-188.158	-127.860	-0.137	0.020
-187.144	188.149	-0.035	-0.052
-186.129	122.903	-0.217	0.271
-185.114	-143.833	-0.225	-0.021
-184.100	35.638	0.145	-0.127
-183.085	-11.814	0.100	0.065
-182.071	-200.000	0.030	-0.139
-181.056	49.403	0.300	0.281
-180.042	-36.031	0.165	-0.089
-179.027	115.087	0.287	0.349
-178.012	-5.567	-0.211	-0.144
-176.998	-123.273	-0.100	-0.016
-175.983	-11.451	0.230	-0.151
-174.969	-58.896	0.118	0.051
-173.954	-200.000	-0.004	0.067
-172.939	51.227	-0.168	-0.159
-171.925	-200.000	0.046	-0.321
-170.910	-52.855	0.034	-0.016
-169.896	-8.293	0.164	-0.110
-168.881	359.742	-0.078	0.156
-167.866	317.558	0.085	-0.160
-166.852	-139.211	0.181	-0.019
-165.837	800.000	-0.028	0.100
-164.823	-109.604	0.525	-0.110
-163.808	262.442	-0.174	-0.300
-162.793	-67.304	-0.110	-0.043
-161.779	103.356	0.040	0.047
-160.764	-200.000	-0.009	-0.164
-159.750	-61.591	0.188	-0.079
-158.735	-80.606	0.171	0.057
-157.720	530.909	-0.081	0.191
-156.706	1.397	-0.121	-0.087
-155.691	800.000	-0.027	-0.118
-154.677	-75.760	0.187	-0.066
-153.662	268.400	0.016	-0.028
-152.647	-105.007	0.126	-0.029
-151.633	-46.666	-0.372	0.182
-150.618	-200.000	-0.041	0.260
-149.604	320.730	-0.129	0.244
-148.589	75.000	0.271	0.285
-147.574	9.392	-0.064	-0.048
-146.560	-200.000	-0.071	-0.333
-145.545	-200.000	0.001	-0.288
-144.531	-42.816	-0.025	0.012
-143.516	-165.144	-0.274	0.012
-142.502	-146.414	0.411	-0.036
-141.487	-200.000	0.005	0.128
-140.472	-200.000	0.064	0.363
-139.458	-200.000	-0.043	-0.342
-138.443	-74.363	-0.021	-0.007
-137.429	47.799	-0.142	-0.132
-136.414	800.000	-0.059	0.200
-135.399	306.724	-0.051	0.095
-134.385	-58.095	0.217	0.094
-133.370	25.995	0.080	0.067
-132.356	800.000	-0.007	-0.022
-131.341	94.489	0.284	0.321
-130.326	-120.711	-0.024	-0.004
-129.312	-200.000	-0.000	-0.233
-128.297	96.161	0.052	0.060
-127.283	-54.093	0.284	-0.128
-126.268	-57.973	0.065	0.028
-125.253	-200.000	-0.004	-0.137
-124.239	-122.126	0.111	-0.018
-123.224	-26.103	-0.249	-0.146
