DTS Sentinel unit serial number:	SN413079Multiplexer serial number:	ORYXHardware model number:	OX4-SRSoftware version number:	ORYX F/W v4.00 Oryx Data Collector v3.7.2.0data status	okinstallation	princeton_trtdifferential loss correction	single-endedforward channel	channel 4reverse channel	N/Adate	2019/09/14time	11:37:34forward acquisition time	60.00reverse acquisition time	0.00gamma	496.2192k internal	0.2294k external	0.2294temperature offset calibration	1.0155default loss term (dB/km)	0.3790temperature slope calibration	1.0000multiplexer offset coefficient	1.0000multiplexer slope coefficient	1.0000fibre end	0.00T internal ref (°C)	36.87T ext. ref 1 (°C)	4.59T ext. ref 2 (°C)	33.33length (m)	temperature (°C)	Stokes	anti-Stokes-747.200	-89.246	0.194	0.059
-746.185	-200.000	0.110	0.516
-745.171	-200.000	-0.084	-0.417
-744.156	449.287	0.048	0.108
-743.142	322.693	-0.030	0.059
-742.127	605.286	0.163	0.416
-741.112	82.753	0.111	-0.123
-740.098	-200.000	0.031	0.277
-739.083	-99.917	0.183	0.047
-738.069	-22.741	0.173	0.107
-737.054	140.001	0.201	0.271
-736.039	146.032	0.134	-0.183
-735.025	141.723	0.077	0.104
-734.010	53.644	-0.242	-0.237
-732.996	69.302	0.118	-0.125
-731.981	-200.000	-0.009	0.048
-730.966	-200.000	-0.036	-0.404
-729.952	48.785	0.315	-0.302
-728.937	103.372	0.156	-0.187
-727.923	42.543	-0.224	-0.208
-726.908	22.961	-0.097	-0.082
-725.894	33.863	-0.028	-0.025
-724.879	-15.383	-0.067	0.044
-723.864	800.000	0.082	-0.246
-722.850	-186.605	0.196	0.003
-721.835	215.807	0.151	-0.245
-720.821	-200.000	-0.106	-0.474
-719.806	-200.000	0.010	0.298
-718.791	-84.475	0.157	-0.051
-717.777	800.000	0.014	-0.047
-716.762	31.421	0.115	0.101
-715.748	345.186	0.037	-0.075
-714.733	-200.000	0.018	0.157
-713.718	470.644	-0.078	0.178
-712.704	-99.568	-0.147	-0.038
-711.689	-113.792	0.110	-0.022
-710.675	282.707	0.167	0.306
-709.660	-59.815	0.097	0.042
-708.645	-92.299	-0.242	0.070
-707.631	800.000	0.051	-0.170
-706.616	104.367	-0.134	0.161
-705.602	-200.000	-0.023	-0.456
-704.587	12.168	0.194	-0.152
-703.572	72.606	0.072	0.077
-702.558	-30.392	0.254	-0.147
-701.543	-127.841	0.286	0.042
-700.529	116.623	-0.078	-0.098
-699.514	-200.000	0.000	0.142
-698.499	-56.724	0.024	0.011
-697.485	800.000	0.049	-0.200
-696.470	-200.000	0.008	0.266
-695.456	123.898	0.222	0.285
-694.441	-200.000	-0.312	-0.000
-693.426	800.000	0.052	-0.206
-692.412	-69.058	0.311	-0.122
-691.397	-200.000	-0.046	-0.363
-690.383	4.810	-0.144	0.108
-689.368	263.165	-0.119	-0.211
-688.354	800.000	-0.054	0.155
-687.339	-173.548	-0.487	0.015
-686.324	-200.000	0.060	-0.310
-685.310	-42.052	-0.111	0.058
-684.295	97.126	-0.055	0.065
-683.281	118.130	-0.071	-0.090
-682.266	68.390	0.085	-0.089
-681.251	8.861	-0.254	0.195
-680.237	-137.677	0.163	0.019
-679.222	-200.000	0.051	0.303
-678.208	-200.000	0.022	0.191
-677.193	-200.000	0.007	0.224
-676.178	800.000	-0.055	-0.201
-675.164	-52.063	0.192	0.091
-674.149	31.335	0.056	0.049
-673.135	61.926	-0.130	-0.132
-672.120	-200.000	0.046	0.224
-671.105	34.506	0.186	0.165
-670.091	-10.128	0.178	0.120
-669.076	-94.969	-0.400	0.110
-668.062	139.184	0.018	0.024
-667.047	-200.000	0.021	0.130
-666.032	-24.213	-0.081	-0.049
-665.018	-20.732	-0.245	-0.153
-664.003	-17.155	0.091	-0.058
-662.989	-39.768	-0.195	0.104
-661.974	69.983	-0.211	0.222
-660.959	270.922	-0.252	0.453
-659.945	-77.189	0.164	-0.058
-658.930	-200.000	-0.019	-0.117
-657.916	-53.185	-0.207	-0.097
-656.901	800.000	0.064	0.240
-655.886	91.977	-0.059	0.068
-654.872	218.474	0.063	0.103
-653.857	339.608	0.038	-0.076
-652.843	-54.134	-0.273	-0.127
-651.828	800.000	0.048	0.174
-650.814	-200.000	0.007	-0.071
-649.799	-53.982	0.202	0.094
-648.784	34.046	-0.196	0.174
-647.770	188.455	-0.089	0.135
-646.755	268.435	0.149	-0.266
-645.741	-33.927	0.246	-0.138
-644.726	23.741	-0.180	0.151
-643.711	-177.931	0.255	-0.006
-642.697	-44.990	-0.212	0.107
-641.682	-118.841	-0.372	-0.067
-640.668	-62.705	-0.122	0.051
-639.653	269.077	0.154	-0.275
-638.638	-58.295	-0.190	0.084
-637.624	102.050	-0.098	0.116
-636.609	800.000	-0.102	-0.360
-635.595	-25.894	0.141	-0.085
-634.580	80.682	0.223	0.245
-633.565	-71.032	-0.145	-0.056
-632.551	-50.084	0.056	-0.027
-631.536	379.311	-0.136	-0.284
-630.522	-200.000	-0.030	-0.172
-629.507	-31.668	0.260	0.149
-628.492	-200.000	-0.018	0.234
-627.478	-200.000	-0.033	-0.149
-626.463	-66.943	-0.179	0.072
-625.449	800.000	0.055	-0.171
-624.434	-74.242	0.067	-0.025
-623.419	-84.386	-0.351	-0.113
-622.405	70.427	0.149	-0.157
-621.390	30.059	0.166	0.144
-620.376	-30.163	-0.239	0.138
-619.361	800.000	0.021	0.085
-618.346	800.000	0.103	-0.309
-617.332	16.156	0.185	-0.148
-616.317	800.000	0.055	0.187
-615.303	237.996	0.097	-0.164
-614.288	-200.000	-0.001	0.124
-613.273	100.065	0.152	0.180
-612.259	-117.724	-0.454	0.083
-611.244	-171.241	-0.398	-0.014
-610.230	-5.852	0.242	0.168
-609.215	-159.381	-0.237	-0.013
-608.201	71.965	-0.096	0.101
-607.186	800.000	0.073	0.262
-606.171	128.063	0.207	-0.268
-605.157	-178.521	0.031	-0.001
-604.142	-18.981	-0.093	-0.059
-603.128	74.982	0.028	0.030
-602.113	-147.345	-0.194	0.017
-601.098	520.282	0.017	0.041
-600.084	-200.000	0.012	0.105
-599.069	-80.001	0.079	0.027
-598.055	-200.000	-0.037	0.171
-597.040	170.902	0.141	-0.205
-596.025	373.150	-0.054	0.112
-595.011	236.842	-0.214	0.361
-593.996	-200.000	-0.022	0.229
-592.982	-200.000	-0.028	0.346
-591.967	484.597	-0.086	-0.200
-590.952	637.965	0.013	-0.033
-589.938	-129.939	0.497	-0.069
-588.923	800.000	0.070	-0.197
-587.909	-123.094	-0.177	-0.029
-586.894	-200.000	0.047	0.273
-585.879	800.000	-0.031	-0.115
-584.865	-200.000	-0.005	-0.320
-583.850	368.980	-0.009	0.019
-582.836	-200.000	0.048	-0.491
-581.821	-7.884	-0.077	-0.053
-580.806	44.240	0.100	-0.094
-579.792	561.642	-0.146	-0.360
-578.777	49.980	-0.058	0.056
-577.763	-95.196	-0.386	-0.106
-576.748	-66.486	-0.050	-0.020
-575.733	-76.438	-0.385	0.137
-574.719	21.477	-0.049	-0.040
-573.704	-103.007	-0.103	0.025
-572.690	-40.937	-0.221	-0.116
-571.675	-79.859	0.156	-0.053
-570.661	-112.271	-0.115	-0.023
-569.646	254.892	-0.123	0.214
-568.631	606.713	0.183	-0.463
-567.617	357.464	-0.094	0.191
-566.602	-64.797	0.296	0.122
-565.588	-200.000	0.045	0.287
-564.573	-156.425	0.272	0.017
-563.558	138.421	0.261	0.348
-562.544	81.182	0.062	0.068
-561.529	-200.000	0.028	-0.129
-560.515	44.916	-0.164	0.153
-559.500	-50.424	-0.120	-0.058
-558.485	-200.000	0.062	-0.374
-557.471	-200.000	0.041	-0.266
-556.456	-82.771	0.242	-0.079
-555.442	238.286	0.085	0.143
-554.427	501.464	0.070	0.164
-553.412	-79.915	0.142	0.048
-552.398	-34.585	-0.159	-0.088
-551.383	-17.373	-0.013	-0.008
-550.369	800.000	-0.087	0.269
-549.354	119.581	0.249	0.312
-548.339	800.000	-0.081	-0.242
-547.325	-87.358	-0.191	-0.059
-546.310	-90.349	-0.216	-0.064
-545.296	-24.346	-0.276	-0.167
-544.281	179.965	0.145	-0.216
-543.266	264.463	0.085	0.150
-542.252	121.283	0.213	0.269
-541.237	800.000	0.017	-0.065
-540.223	800.000	-0.033	-0.132
-539.208	-200.000	-0.001	-0.226
-538.193	397.310	-0.132	-0.280
-537.179	-1.352	0.176	-0.126
-536.164	61.856	-0.050	-0.051
-535.150	747.657	0.165	-0.452
-534.135	-27.359	0.162	0.095
-533.121	339.476	0.123	0.242
-532.106	-28.202	0.248	0.145
-531.091	18.871	0.163	0.132
-530.077	89.934	-0.163	0.184
-529.062	127.994	-0.172	0.222
-528.048	118.274	0.146	-0.182
-527.033	93.996	-0.084	-0.097
-526.018	191.422	0.020	0.031
-525.004	510.627	0.062	-0.146
-523.989	800.000	-0.080	-0.232
-522.975	-72.040	0.224	-0.085
-521.960	-200.000	-0.030	-0.436
-520.945	242.037	-0.120	0.203
-519.931	-92.701	0.086	-0.024
-518.916	-200.000	-0.021	-0.141
-517.902	679.256	0.111	0.292
-516.887	-200.000	-0.024	0.248
-515.872	52.065	0.141	-0.137
-514.858	-168.393	-0.342	0.013
-513.843	-20.631	0.084	-0.052
-512.829	-10.882	-0.083	-0.056
-511.814	15.333	0.286	-0.228
-510.799	-116.356	-0.136	-0.026
-509.785	42.410	0.076	0.070
-508.770	800.000	-0.047	-0.201
-507.756	150.695	-0.176	-0.243
-506.741	-18.674	0.289	0.182
-505.726	800.000	-0.010	-0.040
-504.712	-118.608	-0.102	0.018
-503.697	-65.858	-0.159	-0.064
-502.683	-71.800	0.108	-0.041
-501.668	-66.079	0.145	-0.059
-500.653	186.584	-0.055	0.083
-499.639	213.328	-0.069	-0.110
-498.624	-200.000	-0.004	0.115
-497.610	-152.431	-0.307	-0.022
-496.595	-152.360	-0.224	-0.016
-495.581	-200.000	0.017	-0.129
-494.566	13.408	0.186	-0.146
-493.551	73.932	-0.207	0.220
-492.537	-96.908	-0.287	-0.076
-491.522	800.000	0.075	-0.307
-490.508	10.886	0.134	0.104
-489.493	42.289	-0.208	0.192
-488.478	-113.566	0.151	-0.030
-487.464	-105.478	-0.300	-0.069
-486.449	-61.065	-0.094	-0.040
-485.435	51.264	-0.131	-0.125
-484.420	-88.666	0.095	-0.029
-483.405	-104.064	0.317	0.075
-482.391	-200.000	0.091	-0.550
-481.376	97.463	0.214	0.249
-480.362	104.203	-0.313	-0.372
-479.347	800.000	-0.071	-0.225
-478.332	103.362	0.155	-0.184
-477.318	-170.054	0.144	-0.005
-476.303	64.639	-0.250	0.255
-475.289	159.457	0.217	0.305
-474.274	-113.216	-0.022	-0.004
-473.259	-39.807	0.295	-0.156
-472.245	-1.352	0.238	0.170
-471.230	800.000	0.072	0.271
-470.216	-146.982	-0.104	0.009
-469.201	343.587	0.053	0.105
-468.186	800.000	-0.023	-0.089
-467.172	-200.000	0.037	-0.265
-466.157	282.452	-0.018	-0.032
-465.143	800.000	0.017	0.068
-464.128	800.000	0.114	-0.418
-463.113	650.152	-0.055	-0.142
-462.099	20.898	-0.179	-0.147
-461.084	-200.000	-0.013	0.098
-460.070	800.000	0.024	-0.090
-459.055	608.408	-0.064	0.162
-458.040	-168.387	-0.365	0.014
-457.026	703.318	-0.084	-0.223
-456.011	-200.000	-0.061	-0.457
-454.997	-147.935	0.042	-0.004
-453.982	-132.379	-0.110	0.014
-452.968	259.162	-0.073	-0.128
-451.953	235.090	0.117	0.195
-450.938	-200.000	-0.005	-0.110
-449.924	-15.296	0.139	-0.090
-448.909	-126.867	-0.169	-0.025
-447.895	521.537	-0.042	-0.100
-446.880	-200.000	0.012	-0.069
-445.865	-12.258	0.166	-0.110
-444.851	77.479	0.132	-0.142
-443.836	-106.658	-0.114	0.026
-442.822	32.632	-0.139	-0.122
-441.807	145.958	-0.098	-0.133
-440.792	-109.159	0.230	-0.049
-439.778	94.918	0.059	0.068
-438.763	131.903	-0.307	0.400
-437.749	-148.129	-0.214	0.018
-436.734	175.119	0.192	0.281
-435.719	-200.000	-0.023	-0.135
-434.705	40.213	-0.155	-0.141
-433.690	136.904	0.130	-0.172
-432.676	-98.418	0.389	0.101
-431.661	177.447	-0.215	-0.317
-430.646	-188.097	-0.365	-0.005
-429.632	84.264	-0.084	-0.093
-428.617	-96.784	-0.247	-0.066
-427.603	-31.508	0.122	-0.069
-426.588	-75.638	-0.095	0.034
-425.573	690.881	-0.007	-0.018
-424.559	24.138	-0.131	0.109
-423.544	17.760	-0.184	0.148
-422.530	-81.431	0.261	0.087
-421.515	-101.055	-0.148	-0.037
-420.500	800.000	0.060	-0.193
-419.486	-96.774	-0.122	0.032
-418.471	21.154	0.205	0.168
-417.457	-117.878	-0.413	0.075
-416.442	428.157	-0.105	0.229
-415.428	174.435	0.037	0.055
-414.413	174.731	-0.072	-0.106
-413.398	297.405	0.122	-0.226
-412.384	-200.000	0.002	-0.212
-411.369	-133.391	-0.163	-0.021
-410.355	-117.951	0.185	-0.033
-409.340	247.410	0.204	-0.348
-408.325	193.940	0.085	-0.130
-407.311	53.948	-0.172	-0.167
-406.296	185.420	0.135	0.203
-405.282	-200.000	-0.025	-0.228
-404.267	-166.064	0.252	0.011
-403.252	570.802	0.027	0.066
-402.238	295.659	-0.110	-0.203
-401.223	64.556	0.180	0.183
-400.209	1.183	0.216	0.156
-399.194	-109.198	-0.171	0.037
-398.179	-200.000	0.029	0.147
-397.165	-120.223	0.224	-0.039
-396.150	800.000	0.018	0.070
-395.136	-200.000	-0.202	-0.001
-394.121	27.773	-0.275	-0.233
-393.106	-75.214	-0.196	-0.071
-392.092	800.000	-0.022	0.073
-391.077	90.785	0.247	0.279
-390.063	707.401	0.133	0.355
-389.048	-151.534	-0.287	0.021
-388.033	174.195	0.184	0.268
-387.019	-200.000	0.021	0.216
-386.004	-17.981	0.161	0.102
-384.990	228.398	-0.061	0.100
-383.975	111.798	0.191	0.233
-382.960	-122.457	-0.080	-0.013
-381.946	151.362	0.156	0.214
-380.931	-139.047	-0.234	-0.026
-379.917	183.091	0.123	0.183
-378.902	8.933	-0.236	0.179
-377.888	-200.000	0.073	0.430
-376.873	153.141	0.096	0.132
-375.858	32.998	-0.202	0.176
-374.844	-36.999	-0.077	-0.041
-373.829	-4.208	-0.297	-0.207
-372.815	-200.000	0.063	0.291
-371.800	-105.848	-0.432	0.098
-370.785	-200.000	0.048	-0.274
-369.771	-200.000	-0.000	-0.461
-368.756	-156.844	-0.190	-0.012
-367.742	69.788	-0.250	-0.260
-366.727	-200.000	0.028	-0.257
-365.712	-10.534	0.351	-0.234
-364.698	790.548	0.121	-0.334
-363.683	800.000	-0.075	-0.239
-362.669	-192.729	-0.053	-0.000
-361.654	-76.231	0.194	0.069
-360.639	131.360	0.182	0.236
-359.625	-105.389	-0.244	-0.056
-358.610	-98.770	0.325	-0.083
-357.596	-1.415	-0.250	0.177
-356.581	-74.619	-0.124	0.045
-355.566	-200.000	0.035	-0.203
-354.552	-168.262	0.532	0.021
-353.537	-200.000	-0.003	0.155
-352.523	-82.625	0.202	0.066
-351.508	-76.862	-0.325	0.114
-350.493	514.783	-0.079	0.185
-349.479	-173.513	0.294	0.009
-348.464	57.401	-0.181	0.178
-347.450	71.021	0.169	0.176
-346.435	70.250	0.146	-0.152
-345.420	-200.000	0.016	0.161
-344.406	-200.000	-0.001	-0.071
-343.391	-200.000	-0.048	0.248
-342.377	-66.927	-0.211	-0.084
-341.362	362.173	0.072	-0.145
-340.348	-62.595	0.241	-0.101
-339.333	-29.336	-0.088	-0.051
-338.318	-53.419	-0.238	-0.110
-337.304	-75.570	-0.144	-0.051
-336.289	-31.900	0.235	0.133
-335.275	-69.691	-0.300	-0.115
-334.260	-200.000	0.009	0.157
-333.245	-77.056	0.457	-0.161
-332.231	-4.085	-0.064	0.045
-331.216	-200.000	0.056	0.333
-330.202	800.000	0.091	0.254
-329.187	-42.320	-0.084	-0.043
-328.172	-26.564	0.144	-0.085
-327.158	-113.787	0.094	0.018
-326.143	800.000	-0.045	-0.193
-325.129	398.144	0.022	-0.046
-324.114	29.652	0.107	0.092
-323.099	97.014	-0.077	-0.089
-322.085	117.244	0.028	-0.034
-321.070	395.000	0.025	-0.053
-320.056	800.000	0.019	0.055
-319.041	-200.000	-0.021	-0.114
-318.026	-162.073	0.090	0.005
-317.012	-34.338	-0.181	-0.100
-315.997	147.410	0.094	0.127
-314.983	255.791	-0.086	-0.149
-313.968	-96.392	0.213	0.057
-312.953	24.191	-0.131	0.109
-311.939	195.496	-0.222	0.339
-310.924	-23.060	-0.200	0.121
-309.910	-14.351	0.121	-0.078
-308.895	86.470	-0.269	-0.298
-307.880	6.346	-0.094	0.070
-306.866	-200.000	0.006	0.239
-305.851	-58.172	0.150	-0.066
-304.837	21.153	-0.411	-0.335
-303.822	-48.709	0.228	-0.110
-302.807	-50.966	0.195	-0.092
-301.793	-200.000	-0.030	-0.170
-300.778	-39.122	-0.104	0.055
-299.764	-101.961	-0.306	-0.074
-298.749	-5.353	0.208	-0.143
-297.735	-136.476	0.170	0.020
-296.720	271.954	0.102	0.181
-295.705	558.492	-0.104	-0.252
-294.691	-168.104	-0.273	0.011
-293.676	185.533	-0.192	0.287
-292.662	371.498	0.068	0.139
-291.647	208.964	-0.059	0.093
-290.632	-200.000	-0.007	0.153
-289.618	-200.000	0.038	0.434
-288.603	-46.439	-0.067	0.033
-287.589	-35.089	-0.224	0.123
-286.574	-106.627	0.227	0.051
-285.559	-200.000	0.035	0.222
-284.545	75.491	0.166	0.176
-283.530	163.069	0.257	-0.363
-282.516	42.188	-0.075	-0.068
-281.501	89.661	0.374	0.419
-280.486	465.095	0.107	0.241
-279.472	-200.000	-0.017	0.183
-278.457	-19.506	-0.191	0.119
-277.443	800.000	-0.071	-0.308
-276.428	-57.906	0.261	0.114
-275.413	60.330	0.140	0.139
-274.399	339.529	0.094	0.184
-273.384	-200.000	-0.017	0.261
-272.370	144.449	0.136	0.182
-271.355	35.471	0.043	-0.038
-270.340	8.106	0.197	0.148
-269.326	261.770	0.121	0.210
-268.311	800.000	0.112	-0.396
-267.297	31.166	-0.160	0.137
-266.282	-20.838	-0.231	-0.142
-265.267	-129.887	0.144	0.020
-264.253	-200.000	0.022	0.105
-263.238	148.795	0.178	0.241
-262.224	-113.618	-0.505	0.099
-261.209	-200.000	0.004	-0.142
-260.195	22.401	0.166	-0.137
-259.180	-49.684	-0.058	0.028
-258.165	-200.000	-0.036	0.180
-257.151	-200.000	0.001	-0.057
-256.136	-200.000	0.007	-0.036
-255.122	-200.000	0.015	0.250
-254.107	800.000	-0.079	0.290
-253.092	226.243	-0.161	-0.263
-252.078	17.435	-0.223	-0.178
-251.063	-91.181	0.013	0.004
-250.049	-46.184	-0.306	0.151
-249.034	800.000	0.064	-0.238
-248.019	-101.005	-0.253	0.062
-247.005	67.348	-0.231	-0.236
-245.990	-106.332	-0.108	0.024
-244.976	146.532	0.262	-0.352
-243.961	-1.937	0.132	-0.093
-242.946	5.818	-0.128	-0.095
-241.932	23.457	-0.100	-0.083
-240.917	64.566	-0.140	-0.141
-239.903	551.206	-0.021	0.050
-238.888	-142.456	-0.327	0.032
-237.873	-200.000	-0.032	-0.316
-236.859	-22.383	0.172	0.104
-235.844	-200.000	-0.021	0.099
-234.830	-200.000	-0.045	0.293
-233.815	235.902	0.142	-0.234
-232.800	-200.000	0.025	0.190
-231.786	-130.412	0.098	0.013
-230.771	-89.647	0.158	0.046
-229.757	-9.662	0.321	0.215
-228.742	-132.890	0.163	-0.021
-227.727	325.039	0.079	0.152
-226.713	800.000	0.044	-0.170
-225.698	151.897	0.018	0.024
-224.684	14.939	0.290	-0.228
-223.669	-6.670	-0.155	-0.105
-222.655	800.000	0.051	0.195
-221.640	-33.595	0.264	0.146
-220.625	289.408	0.074	0.134
-219.611	-82.339	-0.275	-0.090
-218.596	151.264	0.235	-0.321
-217.582	-123.349	0.558	-0.089
-216.567	-200.000	-0.013	0.077
-215.552	129.393	0.158	0.202
-214.538	-30.921	0.167	-0.095
-213.523	-6.834	0.128	0.087
-212.509	30.031	0.209	-0.178
-211.494	-200.000	-0.026	-0.220
-210.479	-70.960	-0.341	-0.129
-209.465	444.509	0.127	-0.279
-208.450	800.000	-0.071	0.236
-207.436	-22.141	-0.114	0.069
-206.421	110.396	0.187	0.225
-205.406	27.315	0.075	-0.063
-204.392	-200.000	-0.010	0.403
-203.377	111.793	-0.097	0.117
-202.363	-200.000	-0.068	-0.389
-201.348	-200.000	-0.039	0.251
-200.333	-117.253	0.161	-0.029
-199.319	266.275	0.103	0.180
-198.304	518.907	0.158	-0.371
-197.290	22.406	-0.302	0.247
-196.275	-101.606	0.322	0.078
-195.260	213.435	-0.234	-0.370
-194.246	236.427	0.273	0.453
-193.231	87.785	0.134	-0.148
-192.217	524.886	-0.035	-0.083
-191.202	195.042	0.120	0.182
-190.187	7.185	0.109	-0.081
-189.173	673.870	0.104	0.270
-188.158	800.000	-0.036	0.144
-187.144	153.457	-0.110	0.151
-186.129	-200.000	0.005	-0.272
-185.114	222.149	-0.076	-0.122
-184.100	-38.703	0.439	-0.232
-183.085	-39.380	0.289	0.152
-182.071	-22.117	0.181	0.110
-181.056	800.000	-0.093	-0.364
-180.042	-200.000	-0.003	-0.156
-179.027	105.028	-0.197	0.232
-178.012	-200.000	0.029	0.253
-176.998	212.038	-0.099	0.156
-175.983	18.388	-0.053	0.042
-174.969	-108.712	-0.068	-0.015
-173.954	81.246	-0.028	-0.030
-172.939	309.530	0.074	0.139
-171.925	-175.129	-0.111	0.003
-170.910	-45.659	-0.181	0.090
-169.896	-138.955	0.249	0.027
-168.881	15.425	0.164	0.129
-167.866	-66.379	-0.067	-0.027
-166.852	800.000	-0.125	-0.410
-165.837	-0.955	-0.069	0.049
-164.823	800.000	0.029	0.116
-163.808	-200.000	0.025	0.212
-162.793	-104.791	-0.314	0.072
-161.779	-58.168	0.287	0.125
-160.764	-131.375	-0.273	0.036
-159.750	-6.167	-0.289	0.198
-158.735	371.639	-0.058	-0.118
-157.720	43.790	0.113	-0.103
-156.706	-88.763	-0.243	0.072
-155.691	-4.121	-0.213	-0.148
-154.677	11.149	0.352	-0.269
-153.662	-200.000	-0.051	0.380
-152.647	554.621	-0.134	0.322
-151.633	-200.000	0.012	0.224
-150.618	-123.588	-0.109	0.017
-149.604	-57.033	0.008	-0.003
-148.589	800.000	0.142	-0.446
-147.574	-200.000	-0.051	0.229
-146.560	-88.519	0.192	-0.057
-145.545	194.705	-0.064	-0.096
-144.531	70.498	-0.075	-0.077
-143.516	800.000	0.096	-0.270
-142.502	494.666	0.055	-0.127
-141.487	800.000	0.058	-0.250
-140.472	-200.000	-0.007	0.149
-139.458	800.000	-0.057	-0.239
-138.443	-121.288	0.550	0.092
-137.429	800.000	-0.088	0.261
-136.414	747.801	-0.111	-0.299
-135.399	-200.000	0.000	0.181
-134.385	-200.000	0.030	0.173
-133.370	-46.834	-0.278	0.136
-132.356	-121.330	-0.112	0.019
-131.341	-69.949	-0.202	0.077
-130.326	-63.359	0.252	-0.103
-129.312	-135.356	0.249	-0.030
-128.297	-56.958	0.054	0.024
-127.283	-33.049	0.088	-0.049
-126.268	393.736	-0.072	-0.150
-125.253	174.686	-0.152	-0.220
-124.239	-39.659	-0.076	0.040
-123.224	-100.382	-0.349	0.086
-122.210	566.295	0.073	-0.177
-121.195	-200.000	-0.018	-0.173
-120.180	6.198	0.129	-0.095
