DTS Sentinel unit serial number:	SN413079Multiplexer serial number:	ORYXHardware model number:	OX4-SRSoftware version number:	ORYX F/W v4.00 Oryx Data Collector v3.7.2.0data status	okinstallation	princeton_trtdifferential loss correction	single-endedforward channel	channel 4reverse channel	N/Adate	2019/09/15time	11:53:34forward acquisition time	60.00reverse acquisition time	0.00gamma	496.2192k internal	0.2297k external	0.2297temperature offset calibration	1.0018default loss term (dB/km)	0.3790temperature slope calibration	1.0000multiplexer offset coefficient	1.0000multiplexer slope coefficient	1.0000fibre end	0.00T internal ref (°C)	34.37T ext. ref 1 (°C)	5.05T ext. ref 2 (°C)	30.06length (m)	temperature (°C)	Stokes	anti-Stokes-747.200	3.671	-0.087	0.065
-746.185	-200.000	0.023	0.179
-745.171	438.655	0.062	-0.137
-744.156	122.558	0.068	0.087
-743.142	-200.000	0.026	-0.127
-742.127	-200.000	0.031	0.323
-741.112	554.769	0.125	-0.308
-740.098	136.972	-0.127	0.170
-739.083	-200.000	-0.016	-0.078
-738.069	-113.117	-0.240	0.048
-737.054	-136.186	0.416	0.050
-736.039	-152.069	-0.132	0.010
-735.025	800.000	0.144	0.501
-734.010	8.956	-0.145	0.111
-732.996	800.000	-0.097	-0.342
-731.981	70.863	-0.174	-0.184
-730.966	-89.114	-0.200	0.060
-729.952	-200.000	-0.021	-0.279
-728.937	340.252	-0.094	-0.186
-727.923	-200.000	-0.020	-0.242
-726.908	-152.876	0.159	0.011
-725.894	-131.172	-0.156	0.021
-724.879	735.203	-0.064	0.176
-723.864	57.620	0.224	-0.224
-722.850	-82.188	0.191	0.063
-721.835	-76.320	0.181	-0.065
-720.821	800.000	0.075	0.240
-719.806	223.488	0.194	-0.320
-718.791	-65.253	0.103	-0.043
-717.777	-79.268	0.374	-0.129
-716.762	-84.744	-0.364	0.117
-715.748	-138.486	-0.110	0.012
-714.733	14.965	0.187	-0.149
-713.718	800.000	-0.051	0.194
-712.704	-200.000	-0.026	0.135
-711.689	42.862	-0.080	-0.074
-710.675	201.944	0.171	-0.269
-709.660	-123.182	-0.328	0.054
-708.645	-23.418	-0.177	-0.109
-707.631	355.561	0.071	-0.144
-706.616	22.741	0.082	-0.068
-705.602	-18.078	0.318	0.203
-704.587	218.244	0.142	-0.232
-703.572	800.000	-0.063	-0.277
-702.558	-200.000	-0.025	-0.213
-701.543	185.362	-0.142	-0.215
-700.529	150.654	-0.131	-0.182
-699.514	-61.506	0.215	-0.092
-698.499	450.566	-0.051	-0.115
-697.485	-200.000	-0.025	0.282
-696.470	174.829	-0.071	0.105
-695.456	54.481	0.099	0.097
-694.441	21.565	0.309	-0.256
-693.426	-200.000	-0.001	-0.421
-692.412	-93.495	0.080	0.023
-691.397	-72.559	-0.150	0.056
-690.383	800.000	0.094	-0.356
-689.368	599.954	0.217	0.548
-688.354	-200.000	-0.027	0.135
-687.339	-83.348	0.229	-0.075
-686.324	217.150	-0.102	0.165
-685.310	-45.663	0.207	0.104
-684.295	188.936	-0.286	-0.435
-683.281	800.000	0.059	0.225
-682.266	-101.829	-0.074	0.018
-681.251	-176.003	-0.187	0.005
-680.237	281.909	-0.031	-0.057
-679.222	21.420	0.226	0.187
-678.208	556.088	0.017	-0.043
-677.193	101.104	0.201	-0.238
-676.178	-200.000	-0.025	-0.364
-675.164	240.585	0.126	-0.214
-674.149	-53.814	-0.183	0.085
-673.135	-54.448	0.158	-0.073
-672.120	-22.266	0.225	0.139
-671.105	-142.449	-0.413	0.041
-670.091	1.953	0.324	-0.238
-669.076	800.000	0.054	-0.169
-668.062	228.910	0.114	0.189
-667.047	800.000	-0.056	0.170
-666.032	-53.631	0.071	0.033
-665.018	-108.888	0.414	-0.090
-664.003	400.096	-0.024	-0.051
-662.989	32.603	0.117	-0.103
-661.974	800.000	0.029	-0.085
-660.959	295.779	0.122	0.228
-659.945	209.329	-0.131	-0.209
-658.930	190.068	-0.208	-0.318
-657.916	800.000	-0.059	0.262
-656.901	-37.628	0.247	-0.134
-655.886	800.000	0.011	0.042
-654.872	-54.675	0.115	-0.053
-653.857	122.476	-0.149	0.190
-652.843	800.000	0.066	-0.205
-651.828	15.712	-0.257	-0.205
-650.814	-38.519	0.339	0.182
-649.799	-131.349	-0.071	0.010
-648.784	-200.000	-0.025	0.209
-647.770	-2.168	-0.148	0.106
-646.755	-78.436	-0.350	-0.122
-645.741	86.101	-0.098	-0.110
-644.726	416.857	0.071	-0.154
-643.711	-125.297	0.049	0.008
-642.697	-200.000	-0.056	-0.318
-641.682	-8.729	-0.389	-0.265
-640.668	496.886	-0.129	-0.302
-639.653	320.812	0.079	-0.153
-638.638	-56.473	0.164	-0.074
-637.624	120.823	0.148	0.187
-636.609	8.288	-0.105	0.080
-635.595	-101.716	-0.212	0.052
-634.580	-200.000	-0.036	-0.407
-633.565	800.000	-0.064	-0.211
-632.551	800.000	0.054	0.235
-631.536	-12.855	-0.303	0.201
-630.522	296.423	-0.153	0.284
-629.507	-197.871	-0.188	-0.001
-628.492	-69.012	0.279	-0.109
-627.478	-200.000	-0.022	0.226
-626.463	679.828	-0.124	0.329
-625.449	667.967	-0.046	0.120
-624.434	-139.863	-0.291	0.031
-623.419	-1.923	-0.296	-0.212
-622.405	-200.000	-0.027	-0.181
-621.390	-26.710	0.113	-0.067
-620.376	-200.000	0.059	-0.338
-619.361	-116.593	-0.142	0.027
-618.346	-112.179	-0.137	-0.028
-617.332	18.229	0.234	-0.190
-616.317	793.102	-0.098	-0.273
-615.303	195.015	0.176	0.272
-614.288	-122.685	-0.080	0.013
-613.273	800.000	0.034	-0.121
-612.259	100.602	-0.077	-0.091
-611.244	238.539	0.293	-0.494
-610.230	-96.899	-0.321	0.086
-609.215	-200.000	-0.049	0.237
-608.201	653.403	-0.085	-0.222
-607.186	-200.000	0.014	-0.320
-606.171	-19.540	-0.248	0.156
-605.157	239.163	-0.073	0.122
-604.142	4.940	-0.077	0.058
-603.128	-27.998	0.161	-0.095
-602.113	-115.547	-0.174	-0.033
-601.098	-200.000	0.018	0.452
-600.084	244.714	-0.111	-0.190
-599.069	800.000	-0.132	-0.391
-598.055	-90.037	-0.326	-0.096
-597.040	-200.000	0.044	-0.257
-596.025	-147.832	-0.122	-0.010
-595.011	488.242	0.010	-0.023
-593.996	-31.577	0.092	-0.052
-592.982	-112.627	-0.342	-0.069
-591.967	132.993	0.079	-0.103
-590.952	-22.465	-0.284	0.175
-589.938	-200.000	0.029	-0.222
-588.923	-200.000	-0.055	0.333
-587.909	-62.072	-0.202	-0.086
-586.894	39.832	0.232	0.212
-585.879	-62.524	-0.109	0.046
-584.865	-119.153	0.020	0.004
-583.850	-200.000	0.055	0.345
-582.836	92.498	-0.170	0.195
-581.821	-34.904	-0.157	0.087
-580.806	800.000	-0.052	0.170
-579.792	-147.406	0.176	-0.015
-578.777	68.659	-0.124	0.129
-577.763	-67.023	0.299	0.120
-576.748	81.127	-0.071	-0.078
-575.733	294.444	-0.010	-0.019
-574.719	691.358	0.061	-0.163
-573.704	-85.047	-0.236	-0.075
-572.690	-96.115	-0.249	-0.067
-571.675	-115.107	0.464	0.089
-570.661	-121.510	0.222	-0.037
-569.646	-76.978	-0.211	-0.075
-568.631	-200.000	-0.008	-0.105
-567.617	24.568	-0.156	0.131
-566.602	-27.797	-0.251	0.148
-565.588	210.477	-0.175	-0.279
-564.573	-150.955	0.236	-0.018
-563.558	800.000	-0.072	-0.218
-562.544	30.897	0.197	-0.171
-561.529	-50.756	0.094	-0.045
-560.515	197.442	-0.038	0.058
-559.500	298.258	-0.136	0.254
-558.485	-16.145	-0.345	0.222
-557.471	-161.575	0.291	-0.015
-556.456	107.146	0.169	-0.203
-555.442	-123.834	-0.071	-0.011
-554.427	675.877	0.036	-0.096
-553.412	469.020	-0.049	0.111
-552.398	-71.550	-0.161	-0.061
-551.383	129.247	-0.134	-0.174
-550.369	800.000	0.082	-0.248
-549.354	7.340	0.132	-0.100
-548.339	322.158	0.241	-0.465
-547.325	800.000	-0.054	-0.230
-546.310	-86.105	0.086	-0.027
-545.296	800.000	-0.040	-0.160
-544.281	-84.097	0.126	-0.040
-543.266	21.927	0.275	0.227
-542.252	-200.000	-0.024	-0.153
-541.237	-160.838	0.047	0.003
-540.223	-200.000	-0.003	0.078
-539.208	402.943	0.108	-0.230
-538.193	800.000	-0.055	-0.157
-537.179	-3.827	0.066	-0.047
-536.164	-91.152	0.140	-0.041
-535.150	-200.000	0.000	-0.500
-534.135	-200.000	0.010	0.095
-533.121	-200.000	0.067	-0.302
-532.106	-102.613	0.203	-0.049
-531.091	18.779	-0.162	-0.131
-530.077	-106.635	-0.284	0.064
-529.062	-45.395	0.068	-0.034
-528.048	-40.305	-0.210	-0.110
-527.033	-120.895	0.340	0.058
-526.018	800.000	-0.017	-0.060
-525.004	-200.000	-0.001	0.245
-523.989	4.066	-0.131	0.097
-522.975	-200.000	0.000	-0.032
-521.960	162.122	-0.118	-0.168
-520.945	-67.832	0.081	0.032
-519.931	800.000	0.059	0.182
-518.916	-116.056	-0.250	0.047
-517.902	-45.286	-0.312	0.157
-516.887	-29.700	-0.082	0.047
-515.872	196.775	-0.173	-0.266
-514.858	-97.747	0.227	0.059
-513.843	55.764	-0.181	-0.178
-512.829	-96.183	0.136	-0.036
-511.814	800.000	-0.053	0.159
-510.799	800.000	0.050	0.166
-509.785	-200.000	-0.030	0.263
-508.770	44.649	-0.119	0.111
-507.756	-9.573	-0.115	0.077
-506.741	-154.907	0.240	-0.016
-505.726	-200.000	0.023	0.280
-504.712	271.471	0.101	-0.181
-503.697	639.357	0.137	-0.352
-502.683	800.000	-0.087	0.357
-501.668	-67.966	0.164	-0.065
-500.653	800.000	0.055	0.189
-499.639	-75.867	-0.162	0.058
-498.624	-200.000	0.001	0.045
-497.610	800.000	-0.070	-0.223
-496.595	800.000	0.120	0.342
-495.581	-44.148	-0.290	-0.147
-494.566	-11.330	-0.367	-0.245
-493.551	-99.223	-0.067	0.017
-492.537	-200.000	-0.018	-0.231
-491.522	183.564	-0.210	-0.314
-490.508	-8.824	0.231	0.157
-489.493	571.213	-0.059	0.146
-488.478	116.923	-0.232	0.288
-487.464	188.154	0.178	-0.269
-486.449	11.138	-0.076	-0.059
-485.435	800.000	-0.092	0.379
-484.420	69.374	-0.114	0.119
-483.405	336.580	0.151	-0.296
-482.391	-200.000	0.048	0.398
-481.376	-111.977	0.208	0.042
-480.362	-44.009	0.198	0.101
-479.347	63.487	0.078	0.079
-478.332	-200.000	0.012	-0.291
-477.318	-14.318	0.380	-0.248
-476.303	100.664	-0.067	0.079
-475.289	-164.945	0.078	-0.004
-474.274	410.212	-0.063	0.134
-473.259	156.744	0.175	0.244
-472.245	-43.011	0.119	-0.061
-471.230	325.463	0.131	-0.254
-470.216	-152.633	-0.204	-0.015
-469.201	-34.652	-0.227	-0.126
-468.186	-200.000	0.025	-0.330
-467.172	800.000	-0.047	-0.183
-466.157	-176.973	0.082	-0.002
-465.143	42.769	-0.072	0.066
-464.128	117.469	0.116	0.144
-463.113	488.737	-0.047	0.109
-462.099	-49.157	0.138	0.067
-461.084	-84.379	0.063	-0.020
-460.070	-200.000	-0.035	-0.238
-459.055	73.228	0.178	0.188
-458.040	-83.398	-0.061	0.020
-457.026	124.423	0.153	0.195
-456.011	-200.000	0.077	0.396
-454.997	237.339	-0.104	-0.174
-453.982	152.046	0.199	-0.274
-452.968	110.316	-0.039	-0.048
-451.953	-98.172	-0.280	-0.073
-450.938	-3.972	-0.217	0.152
-449.924	-1.108	-0.274	0.196
-448.909	-30.175	0.092	0.053
-447.895	-200.000	-0.004	-0.036
-446.880	202.829	0.077	-0.121
-445.865	-200.000	-0.012	-0.121
-444.851	180.103	-0.050	0.075
-443.836	-178.710	0.083	-0.002
-442.822	-48.158	-0.050	0.024
-441.807	-7.322	0.067	-0.046
-440.792	-200.000	0.036	-0.245
-439.778	-58.451	-0.221	-0.097
-438.763	-149.068	0.463	0.038
-437.749	-87.691	-0.150	0.046
-436.734	-138.978	-0.266	-0.029
-435.719	702.447	0.075	-0.199
-434.705	66.911	-0.104	0.106
-433.690	186.975	0.067	0.101
-432.676	186.982	-0.222	0.334
-431.661	-24.011	-0.264	-0.159
-430.646	465.684	-0.042	-0.094
-429.632	800.000	-0.060	-0.221
-428.617	-1.255	0.353	0.251
-427.603	321.059	0.086	0.165
-426.588	65.701	-0.349	0.357
-425.573	-121.356	0.308	-0.052
-424.559	316.164	0.107	0.204
-423.544	28.713	-0.051	0.043
-422.530	98.030	-0.178	0.207
-421.515	-38.614	-0.266	-0.142
-420.500	-200.000	-0.027	0.260
-419.486	-43.343	-0.346	-0.176
-418.471	-119.239	0.386	0.068
-417.457	56.897	0.150	-0.147
-416.442	800.000	-0.097	0.327
-415.428	-34.543	-0.108	-0.060
-414.413	163.276	-0.087	0.124
-413.398	-172.245	0.133	-0.004
-412.384	-32.706	0.365	-0.205
-411.369	800.000	0.073	-0.265
-410.355	800.000	0.054	0.179
-409.340	800.000	0.053	-0.178
-408.325	-200.000	0.005	0.065
-407.311	-200.000	-0.049	-0.303
-406.296	467.902	-0.068	0.154
-405.282	-200.000	0.022	-0.155
-404.267	330.873	0.126	0.244
-403.252	-200.000	0.011	0.156
-402.238	-58.270	0.377	0.165
-401.223	228.006	0.342	0.561
-400.209	-200.000	0.007	0.173
-399.194	194.643	0.079	0.121
-398.179	-60.073	-0.233	0.100
-397.165	28.856	-0.156	-0.133
-396.150	-107.695	0.145	-0.032
-395.136	-139.667	-0.276	-0.030
-394.121	-200.000	-0.032	-0.275
-393.106	-200.000	-0.024	-0.142
-392.092	5.379	0.355	0.263
-391.077	82.018	-0.052	-0.057
-390.063	408.159	0.131	-0.279
-389.048	20.053	-0.123	-0.100
-388.033	-115.831	0.421	0.079
-387.019	124.866	0.098	0.124
-386.004	78.554	-0.127	0.136
-384.990	800.000	-0.083	0.318
-383.975	800.000	-0.070	0.277
-382.960	800.000	0.072	-0.285
-381.946	-80.508	-0.237	-0.080
-380.931	-15.234	-0.268	-0.173
-379.917	91.197	0.125	0.141
-378.902	72.910	0.147	-0.155
-377.888	89.382	-0.144	-0.162
-376.873	-200.000	0.040	0.436
-375.858	165.304	0.169	0.240
-374.844	-66.434	0.213	0.085
-373.829	-95.892	0.253	0.068
-372.815	6.527	-0.179	0.134
-371.800	-55.514	-0.193	0.087
-370.785	-71.719	0.178	-0.067
-369.771	53.822	0.116	-0.112
-368.756	657.721	-0.036	-0.092
-367.742	315.783	0.040	0.076
-366.727	-200.000	0.004	-0.199
-365.712	-98.425	-0.122	0.031
-364.698	21.851	0.130	0.107
-363.683	67.407	-0.295	0.303
-362.669	425.354	-0.137	0.297
-361.654	143.104	-0.101	-0.135
-360.639	514.231	0.106	-0.248
-359.625	-16.983	-0.115	0.073
-358.610	556.202	-0.063	0.154
-357.596	800.000	0.105	-0.410
-356.581	-200.000	0.028	0.137
-355.566	29.820	0.401	-0.344
-354.552	-200.000	-0.038	-0.367
-353.537	-2.892	-0.110	0.077
-352.523	-123.633	-0.386	-0.062
-351.508	207.529	0.248	-0.389
-350.493	-165.219	-0.117	-0.005
-349.479	197.574	0.128	0.196
-348.464	102.338	-0.190	-0.224
-347.450	-200.000	-0.012	0.184
-346.435	-200.000	0.028	-0.254
-345.420	-87.888	-0.293	-0.089
-344.406	-104.425	0.424	0.099
-343.391	397.798	-0.162	0.341
-342.377	698.816	0.098	-0.258
-341.362	-47.479	0.126	-0.061
-340.348	-18.867	-0.129	-0.081
-339.333	-145.405	0.256	0.023
-338.318	-122.461	0.415	-0.068
-337.304	28.217	0.096	0.081
-336.289	105.543	-0.186	-0.221
-335.275	-200.000	-0.028	-0.276
-334.260	87.531	0.206	-0.229
-333.245	800.000	0.035	-0.139
-332.231	14.295	0.293	0.229
-331.216	672.140	-0.074	-0.192
-330.202	-179.075	0.289	0.007
-329.187	237.709	0.100	-0.167
-328.172	1.080	-0.264	-0.190
-327.158	-200.000	-0.026	0.393
-326.143	-16.131	-0.154	0.098
-325.129	-63.046	-0.270	-0.112
-324.114	247.942	0.066	0.112
-323.099	564.845	0.141	-0.344
-322.085	298.077	0.145	0.267
-321.070	-28.098	0.200	-0.116
-320.056	200.928	0.046	0.071
-319.041	-187.270	0.030	-0.000
-318.026	206.801	-0.167	0.261
-317.012	-200.000	0.008	-0.108
-315.997	-86.665	-0.103	0.032
-314.983	-133.515	0.146	0.018
-313.968	-154.717	-0.125	-0.008
-312.953	-200.000	0.061	-0.309
-311.939	-55.070	0.141	-0.064
-310.924	143.294	0.056	0.075
-309.910	49.454	0.145	0.137
-308.895	-38.601	-0.084	-0.045
-307.880	-200.000	0.050	-0.422
-306.866	-78.591	-0.274	-0.094
-305.851	-12.209	0.075	-0.049
-304.837	68.647	-0.127	-0.131
-303.822	-99.321	0.046	-0.012
-302.807	-97.405	0.034	0.009
-301.793	315.491	-0.087	-0.165
-300.778	325.110	-0.108	-0.208
-299.764	-14.861	0.312	0.201
-298.749	86.742	-0.086	0.095
-297.735	-104.678	-0.349	-0.081
-296.720	-81.085	0.167	-0.056
-295.705	219.226	-0.142	0.228
-294.691	-160.483	-0.322	-0.017
-293.676	-129.508	0.194	-0.027
-292.662	2.652	-0.264	-0.192
-291.647	4.447	0.179	-0.132
-290.632	-200.000	-0.011	-0.111
-289.618	172.785	-0.150	0.216
-288.603	-49.515	0.102	-0.049
-287.589	-49.804	0.170	0.081
-286.574	40.460	0.209	0.189
-285.559	248.784	-0.137	0.233
-284.545	-46.002	0.342	0.169
-283.530	-200.000	-0.000	0.067
-282.516	42.829	0.140	0.128
-281.501	-36.905	0.272	-0.146
-280.486	-200.000	0.007	0.082
-279.472	800.000	-0.092	-0.355
-278.457	76.203	0.095	0.101
-277.443	-200.000	-0.044	0.363
-276.428	-200.000	0.004	-0.167
-275.413	-71.790	0.195	0.073
-274.399	-81.387	-0.169	0.056
-273.384	-180.608	0.166	0.003
-272.370	-200.000	0.074	0.402
-271.355	-60.519	0.180	0.076
-270.340	320.608	0.065	-0.124
-269.326	84.386	0.051	-0.056
-268.311	8.061	-0.290	-0.218
-267.297	47.244	0.144	0.135
-266.282	-200.000	-0.018	0.185
-265.267	-127.233	0.117	-0.017
-264.253	115.631	0.178	0.218
-263.238	-200.000	0.010	0.139
-262.224	800.000	0.093	0.380
-261.209	180.472	0.153	0.224
-260.195	-90.536	-0.247	-0.072
-259.180	266.034	-0.189	0.331
-258.165	53.603	0.127	-0.123
-257.151	65.246	-0.114	0.116
-256.136	74.486	0.086	-0.091
-255.122	10.687	-0.181	-0.138
-254.107	-82.258	-0.196	0.064
-253.092	-158.718	0.364	-0.021
-252.078	-200.000	-0.002	-0.048
-251.063	-124.188	-0.202	0.032
-250.049	-32.058	0.052	-0.029
-249.034	-155.117	0.427	0.028
-248.019	-200.000	0.024	-0.148
-247.005	-99.037	0.194	0.049
-245.990	99.425	-0.116	0.135
-244.976	-87.606	-0.104	-0.032
-243.961	-200.000	-0.000	0.026
-242.946	-103.722	-0.252	-0.059
-241.932	800.000	-0.061	-0.184
-240.917	307.230	-0.152	0.284
-239.903	246.823	-0.038	0.064
-238.888	-40.337	0.187	-0.098
-237.873	-51.878	-0.175	-0.081
-236.859	800.000	0.034	0.142
-235.844	261.431	0.102	0.177
-234.830	-200.000	-0.015	0.117
-233.815	-142.275	-0.109	-0.011
-232.800	-114.560	-0.161	0.031
-231.786	26.699	-0.304	-0.255
-230.771	800.000	-0.082	0.269
-229.757	27.057	-0.074	0.062
-228.742	76.250	-0.146	-0.155
-227.727	-200.000	0.009	-0.092
-226.713	800.000	-0.124	-0.418
-225.698	-130.700	-0.154	-0.021
-224.684	-18.925	-0.125	-0.078
-223.669	-32.228	0.350	-0.196
-222.655	-50.971	0.071	0.033
-221.640	33.812	0.224	0.195
-220.625	206.354	0.010	-0.016
-219.611	445.681	0.142	-0.311
-218.596	-95.293	0.338	0.091
-217.582	240.223	0.125	0.209
-216.567	405.425	0.024	0.052
-215.552	-94.553	-0.413	0.113
-214.538	70.166	-0.036	0.037
-213.523	-200.000	-0.003	-0.292
-212.509	-200.000	0.015	0.348
-211.494	6.004	0.191	0.141
-210.479	-9.902	0.108	-0.072
-209.465	-200.000	-0.077	0.427
-208.450	414.351	0.040	0.086
-207.436	109.810	0.325	-0.390
-206.421	-12.216	0.126	-0.083
-205.406	113.030	0.244	0.295
-204.392	146.320	0.130	-0.174
-203.377	-170.312	-0.157	0.006
-202.363	-24.972	0.216	0.128
-201.348	-3.916	0.185	-0.128
-200.333	-200.000	-0.027	-0.153
-199.319	32.809	0.182	-0.157
-198.304	-200.000	-0.001	0.174
-197.290	-13.961	0.302	-0.195
-196.275	-101.154	0.308	0.075
-195.260	-62.870	0.186	-0.077
-194.246	-200.000	0.047	0.208
-193.231	-200.000	0.008	0.063
-192.217	-68.903	-0.120	0.046
-191.202	299.907	-0.033	0.060
-190.187	-4.231	0.205	0.142
-189.173	63.364	-0.229	0.230
-188.158	207.616	-0.234	-0.364
-187.144	349.170	0.112	-0.222
-186.129	-200.000	-0.018	0.449
-185.114	5.466	0.046	0.034
-184.100	247.296	0.224	0.377
-183.085	27.913	-0.149	-0.125
-182.071	29.263	0.048	-0.041
-181.056	-200.000	-0.047	0.241
-180.042	-200.000	-0.069	0.346
-179.027	800.000	-0.125	0.368
-178.012	481.284	0.046	-0.105
-176.998	125.775	0.106	0.133
-175.983	-200.000	-0.020	0.111
-174.969	30.683	0.109	-0.093
-173.954	-5.584	-0.307	-0.210
-172.939	-72.888	0.039	0.014
-171.925	481.861	0.043	0.097
-170.910	-64.545	-0.189	-0.076
-169.896	-46.594	-0.423	0.207
-168.881	775.425	0.073	-0.200
-167.866	-89.111	0.147	0.043
-166.852	130.364	0.146	-0.186
-165.837	23.551	-0.164	0.134
-164.823	-200.000	-0.018	0.134
-163.808	146.368	0.283	0.379
-162.793	129.617	-0.271	-0.345
-161.779	-200.000	-0.041	-0.213
-160.764	800.000	-0.038	-0.162
-159.750	-188.586	0.204	-0.003
-158.735	-77.213	0.245	0.085
-157.720	-107.441	-0.224	-0.049
-156.706	-200.000	-0.011	0.227
-155.691	-200.000	-0.008	0.122
-154.677	776.897	-0.111	0.303
-153.662	-50.097	0.068	-0.032
-152.647	8.538	-0.100	-0.075
-151.633	-12.657	0.142	0.092
-150.618	-200.000	-0.006	0.050
-149.604	91.731	0.091	0.102
-148.589	-75.546	0.238	-0.084
-147.574	-38.472	0.315	0.166
-146.560	1.080	0.237	0.170
-145.545	-125.820	-0.232	-0.035
-144.531	-166.231	0.068	0.003
-143.516	24.229	0.306	-0.252
-142.502	-28.598	0.380	-0.218
-141.487	-115.881	-0.181	0.034
-140.472	126.465	-0.151	-0.191
-139.458	17.327	-0.028	0.023
-138.443	-43.645	-0.009	-0.005
-137.429	266.010	-0.245	0.427
-136.414	-67.551	-0.069	0.027
-135.399	-64.884	-0.134	-0.054
-134.385	-40.022	-0.169	0.088
-133.370	-153.282	0.121	-0.008
-132.356	800.000	-0.007	-0.024
-131.341	411.277	-0.214	-0.453
-130.326	-200.000	-0.003	-0.292
-129.312	-99.205	0.303	0.076
-128.297	-69.435	-0.424	-0.162
-127.283	-5.953	0.270	0.184
-126.268	201.183	0.164	-0.252
-125.253	-95.541	0.407	-0.109
-124.239	-164.464	-0.092	0.004
-123.224	-200.000	-0.030	0.215
-122.210	214.465	0.020	-0.031
-121.195	800.000	-0.018	0.054
