DTS Sentinel unit serial number:	SN413079Multiplexer serial number:	ORYXHardware model number:	OX4-SRSoftware version number:	ORYX F/W v4.00 Oryx Data Collector v3.7.2.0data status	okinstallation	princeton_trtdifferential loss correction	single-endedforward channel	channel 4reverse channel	N/Adate	2019/09/18time	17:53:35forward acquisition time	60.00reverse acquisition time	0.00gamma	496.2192k internal	0.2291k external	0.2291temperature offset calibration	1.0019default loss term (dB/km)	0.3790temperature slope calibration	1.0000multiplexer offset coefficient	1.0000multiplexer slope coefficient	1.0000fibre end	0.00T internal ref (°C)	40.05T ext. ref 1 (°C)	0.93T ext. ref 2 (°C)	31.16length (m)	temperature (°C)	Stokes	anti-Stokes-747.200	-200.000	0.045	0.407
-746.185	543.003	0.034	0.083
-745.171	105.265	-0.062	-0.074
-744.156	-200.000	0.052	0.529
-743.142	-200.000	0.013	-0.247
-742.127	-83.159	-0.260	0.086
-741.112	-160.810	-0.172	-0.009
-740.098	-34.489	0.122	0.068
-739.083	-108.802	0.176	-0.039
-738.069	36.849	0.058	-0.053
-737.054	-33.654	-0.029	-0.016
-736.039	-134.587	-0.365	-0.046
-735.025	-90.809	0.139	0.041
-734.010	-37.416	-0.303	-0.166
-732.996	91.377	-0.154	-0.177
-731.981	-42.101	0.062	0.033
-730.966	28.992	0.217	0.188
-729.952	553.964	0.166	-0.409
-728.937	4.219	-0.169	-0.126
-727.923	154.915	-0.078	-0.109
-726.908	-3.964	-0.094	-0.067
-725.894	761.608	-0.070	0.194
-724.879	-144.264	0.237	0.023
-723.864	-105.164	0.348	-0.081
-722.850	-123.326	0.264	0.043
-721.835	-90.962	0.165	-0.049
-720.821	-6.670	0.247	-0.172
-719.806	57.328	0.025	-0.025
-718.791	-200.000	0.011	0.166
-717.777	163.914	-0.145	0.209
-716.762	62.593	-0.222	-0.227
-715.748	-46.502	0.067	-0.034
-714.733	-45.512	-0.203	-0.103
-713.718	-133.416	-0.244	0.031
-712.704	-57.894	-0.327	-0.146
-711.689	-39.275	-0.462	-0.248
-710.675	-57.206	-0.088	0.040
-709.660	-80.977	0.259	0.088
-708.645	380.430	0.049	-0.103
-707.631	331.072	-0.091	0.179
-706.616	-200.000	-0.008	0.046
-705.602	61.368	0.133	0.135
-704.587	-200.000	-0.012	-0.284
-703.572	42.056	0.114	0.106
-702.558	-200.000	0.096	-0.515
-701.543	-65.012	0.272	0.112
-700.529	-200.000	-0.023	0.209
-699.514	148.789	0.141	-0.194
-698.499	6.705	-0.148	0.112
-697.485	-79.327	0.191	-0.066
-696.470	-11.570	0.241	-0.162
-695.456	-88.401	-0.314	0.096
-694.441	331.132	0.079	-0.157
-693.426	-69.107	-0.360	0.142
-692.412	-200.000	-0.006	-0.087
-691.397	617.627	-0.082	0.209
-690.383	110.362	-0.139	-0.170
-689.368	-80.447	-0.318	0.108
-688.354	-41.836	0.178	-0.093
-687.339	97.055	0.124	-0.146
-686.324	299.963	0.079	0.148
-685.310	800.000	-0.046	0.180
-684.295	-200.000	-0.005	0.162
-683.281	214.157	-0.147	0.237
-682.266	-40.545	0.014	-0.008
-681.251	800.000	-0.114	0.333
-680.237	-200.000	-0.010	0.151
-679.222	-200.000	0.028	0.159
-678.208	-112.112	-0.241	-0.049
-677.193	-200.000	0.025	-0.217
-676.178	6.417	-0.268	-0.203
-675.164	800.000	0.015	-0.052
-674.149	69.878	-0.127	-0.134
-673.135	372.918	-0.116	-0.241
-672.120	149.980	-0.191	0.265
-671.105	461.717	-0.085	0.194
-670.091	-200.000	-0.006	-0.035
-669.076	34.703	-0.253	-0.226
-668.062	201.234	-0.093	-0.146
-667.047	-69.576	-0.241	-0.094
-666.032	-200.000	0.043	0.317
-665.018	-200.000	-0.005	-0.343
-664.003	50.903	0.122	0.118
-662.989	-111.027	-0.109	0.023
-661.974	54.989	-0.300	-0.296
-660.959	15.353	-0.267	-0.214
-659.945	-200.000	-0.015	0.103
-658.930	-200.000	0.055	-0.282
-657.916	-93.021	-0.317	-0.090
-656.901	2.190	0.044	0.032
-655.886	-200.000	0.059	-0.447
-654.872	800.000	0.134	-0.405
-653.857	713.359	-0.150	-0.405
-652.843	5.042	0.188	-0.141
-651.828	-200.000	0.007	-0.031
-650.814	351.823	0.110	-0.222
-649.799	800.000	0.100	0.378
-648.784	-200.000	-0.053	0.322
-647.770	-140.259	-0.211	-0.023
-646.755	-2.608	0.138	0.099
-645.741	34.256	-0.279	0.248
-644.726	-88.709	0.427	-0.130
-643.711	-165.085	-0.099	0.004
-642.697	107.789	0.089	-0.108
-641.682	-35.277	-0.216	0.120
-640.668	38.761	0.170	-0.155
-639.653	9.681	0.056	-0.043
-638.638	145.212	-0.073	-0.100
-637.624	-124.117	-0.332	-0.053
-636.609	-200.000	0.006	-0.135
-635.595	-200.000	0.055	-0.371
-634.580	501.395	-0.052	0.123
-633.565	19.305	0.243	-0.199
-632.551	402.059	0.073	0.155
-631.536	71.754	0.360	0.382
-630.522	58.694	0.177	0.177
-629.507	-167.231	-0.363	-0.015
-628.492	-26.328	0.256	-0.153
-627.478	282.027	-0.078	0.143
-626.463	800.000	0.038	0.154
-625.449	399.964	0.113	0.242
-624.434	-114.983	-0.149	0.029
-623.419	10.764	0.108	0.084
-622.405	-89.141	-0.046	-0.014
-621.390	-200.000	0.069	0.396
-620.376	-13.731	-0.354	0.233
-619.361	800.000	0.138	0.404
-618.346	-96.656	0.231	0.062
-617.332	340.721	-0.031	0.061
-616.317	-59.098	-0.113	0.050
-615.303	-200.000	0.023	0.116
-614.288	136.304	-0.135	0.180
-613.273	-85.337	0.168	0.053
-612.259	167.249	0.113	-0.163
-611.244	-137.270	0.146	-0.017
-610.230	800.000	0.023	-0.101
-609.215	-55.064	0.141	0.065
-608.201	800.000	-0.059	0.224
-607.186	-64.490	-0.244	-0.101
-606.171	-200.000	-0.007	0.067
-605.157	800.000	-0.103	-0.401
-604.142	68.780	0.068	-0.071
-603.128	-147.278	-0.113	0.010
-602.113	-200.000	-0.077	-0.361
-601.098	-200.000	-0.000	0.118
-600.084	800.000	-0.051	0.200
-599.069	-0.050	0.051	0.037
-598.055	-200.000	-0.010	-0.215
-597.040	800.000	-0.079	0.295
-596.025	800.000	0.027	0.090
-595.011	-151.630	-0.120	-0.009
-593.996	93.010	-0.087	-0.100
-592.982	800.000	0.037	-0.162
-591.967	-124.382	-0.285	0.045
-590.952	24.887	0.079	0.066
-589.938	143.641	0.031	-0.042
-588.923	307.546	0.126	0.239
-587.909	-120.445	-0.161	0.028
-586.894	7.581	-0.054	-0.041
-585.879	-92.683	0.309	0.088
-584.865	335.133	0.091	-0.180
-583.850	-112.910	0.130	0.026
-582.836	332.783	0.072	0.142
-581.821	-164.091	-0.350	0.016
-580.806	-96.528	0.269	0.072
-579.792	-200.000	0.021	-0.183
-578.777	54.652	0.119	-0.117
-577.763	732.971	0.057	0.155
-576.748	494.205	-0.039	-0.091
-575.733	-107.185	-0.370	0.083
-574.719	-127.265	-0.350	0.052
-573.704	-200.000	-0.006	-0.158
-572.690	-200.000	-0.012	-0.206
-571.675	412.942	0.106	0.228
-570.661	226.632	-0.066	0.108
-569.646	-99.828	0.172	-0.044
-568.631	-51.330	-0.243	0.115
-567.617	103.767	-0.250	-0.299
-566.602	-19.130	-0.143	-0.091
-565.588	800.000	-0.020	-0.058
-564.573	700.844	-0.062	-0.166
-563.558	-72.358	-0.178	-0.067
-562.544	227.151	0.126	-0.208
-561.529	273.657	0.144	-0.260
-560.515	-22.195	-0.342	-0.211
-559.500	-161.588	-0.125	-0.007
-558.485	-200.000	-0.021	0.284
-557.471	238.662	0.175	-0.296
-556.456	-15.650	-0.179	-0.116
-555.442	67.270	-0.162	0.168
-554.427	175.055	-0.160	-0.235
-553.412	225.891	-0.203	-0.335
-552.398	107.530	0.161	-0.195
-551.383	-200.000	0.042	0.233
-550.369	44.170	-0.024	0.022
-549.354	47.847	-0.239	0.227
-548.339	800.000	-0.025	-0.105
-547.325	800.000	0.059	0.219
-546.310	800.000	-0.050	-0.193
-545.296	-200.000	0.006	0.248
-544.281	800.000	-0.021	0.093
-543.266	-20.085	0.182	-0.114
-542.252	-200.000	0.016	0.073
-541.237	-36.655	0.112	-0.061
-540.223	-75.754	0.153	0.055
-539.208	-47.195	0.126	0.063
-538.193	-200.000	0.016	0.159
-537.179	288.683	-0.039	-0.071
-536.164	-56.272	-0.321	0.145
-535.150	399.088	0.050	0.106
-534.135	448.194	-0.051	0.113
-533.121	-73.925	-0.265	-0.098
-532.106	-162.879	0.310	0.015
-531.091	-162.032	-0.218	-0.011
-530.077	800.000	0.111	0.377
-529.062	-11.828	-0.085	0.057
-528.048	-200.000	0.058	0.311
-527.033	-200.000	-0.007	-0.131
-526.018	-200.000	-0.003	-0.086
-525.004	-144.148	0.217	0.021
-523.989	19.622	0.317	-0.259
-522.975	-106.067	0.231	-0.053
-521.960	197.064	0.050	0.078
-520.945	595.615	0.058	0.147
-519.931	15.069	-0.048	0.038
-518.916	-118.724	-0.277	0.050
-517.902	-97.229	0.395	0.105
-516.887	407.472	-0.106	-0.226
-515.872	-89.020	0.289	0.087
-514.858	10.075	-0.261	-0.201
-513.843	-7.137	-0.086	0.059
-512.829	161.387	-0.010	-0.014
-511.814	-49.583	-0.260	0.126
-510.799	128.887	0.060	-0.078
-509.785	-163.513	-0.030	-0.001
-508.770	-108.390	0.232	-0.051
-507.756	93.221	-0.063	0.073
-506.741	402.494	-0.118	0.251
-505.726	34.067	0.155	-0.137
-504.712	800.000	-0.064	-0.259
-503.697	-177.571	-0.043	0.001
-502.683	227.323	0.111	-0.183
-501.668	324.575	-0.094	-0.183
-500.653	200.963	-0.236	0.368
-499.639	2.495	0.332	0.244
-498.624	53.611	-0.189	-0.184
-497.610	-118.687	-0.196	-0.035
-496.595	-68.147	-0.394	0.155
-495.581	-9.742	-0.292	0.197
-494.566	-136.030	0.074	0.009
-493.551	16.804	0.326	-0.261
-492.537	586.706	-0.062	0.155
-491.522	-200.000	-0.001	0.034
-490.508	-104.711	-0.141	0.033
-489.493	3.022	0.112	0.083
-488.478	-200.000	-0.010	-0.055
-487.464	45.607	0.074	0.070
-486.449	342.054	-0.163	0.323
-485.435	-76.492	0.094	0.034
-484.420	45.340	-0.261	-0.244
-483.405	72.363	0.219	0.232
-482.391	132.935	0.270	0.353
-481.376	-29.446	-0.202	-0.117
-480.362	649.217	0.061	0.159
-479.347	-200.000	-0.012	0.094
-478.332	-116.209	0.135	-0.025
-477.318	-200.000	0.032	-0.216
-476.303	11.754	-0.064	-0.050
-475.289	351.936	-0.154	0.309
-474.274	79.641	0.111	-0.121
-473.259	-1.318	-0.269	0.192
-472.245	800.000	-0.019	0.071
-471.230	281.208	0.013	0.024
-470.216	792.730	0.062	0.172
-469.201	-131.237	-0.053	0.007
-468.186	-50.501	0.203	0.097
-467.172	-116.783	0.341	0.063
-466.157	36.632	0.158	-0.141
-465.143	-83.376	0.148	-0.048
-464.128	-60.182	-0.256	-0.110
-463.113	17.568	0.081	0.066
-462.099	204.985	-0.092	0.145
-461.084	359.865	0.135	-0.274
-460.070	-6.560	0.138	0.095
-459.055	174.964	0.109	0.159
-458.040	70.247	0.202	-0.212
-457.026	-102.458	-0.468	0.113
-456.011	208.405	0.074	0.118
-454.997	-161.883	-0.211	-0.011
-453.982	-200.000	0.026	-0.431
-452.968	53.771	0.151	-0.147
-451.953	-27.882	-0.328	0.193
-450.938	90.777	0.319	0.362
-449.924	653.173	0.093	-0.242
-448.909	-200.000	0.019	-0.124
-447.895	-169.408	-0.132	-0.005
-446.880	67.990	-0.125	0.129
-445.865	-101.393	0.093	-0.023
-444.851	44.007	-0.212	0.196
-443.836	164.040	0.242	0.345
-442.822	-200.000	-0.027	-0.237
-441.807	-108.094	-0.132	-0.029
-440.792	132.282	-0.159	0.208
-439.778	-139.008	0.157	-0.017
-438.763	-200.000	-0.008	-0.052
-437.749	-55.000	-0.391	-0.178
-436.734	800.000	-0.079	-0.274
-435.719	-99.205	0.276	0.071
-434.705	166.784	0.035	0.050
-433.690	-10.396	-0.053	-0.036
-432.676	-44.663	0.180	-0.091
-431.661	-11.784	0.377	0.250
-430.646	-14.433	-0.236	-0.154
-429.632	-200.000	0.021	-0.188
-428.617	-200.000	0.040	-0.266
-427.603	231.766	0.095	-0.158
-426.588	-64.817	-0.345	0.141
-425.573	104.709	0.259	0.309
-424.559	-200.000	-0.008	0.129
-423.544	576.930	0.074	-0.183
-422.530	-104.640	0.276	0.064
-421.515	800.000	-0.039	0.157
-420.500	-200.000	-0.015	-0.272
-419.486	-200.000	0.041	-0.284
-418.471	-74.335	0.256	0.093
-417.457	-155.543	0.219	0.014
-416.442	-200.000	0.015	0.230
-415.428	56.060	0.129	0.126
-414.413	607.622	-0.067	0.168
-413.398	135.841	-0.146	0.192
-412.384	282.084	-0.106	-0.191
-411.369	800.000	0.029	-0.112
-410.355	66.393	0.229	-0.236
-409.340	800.000	0.113	0.408
-408.325	800.000	0.068	-0.196
-407.311	432.336	-0.142	-0.311
-406.296	-187.639	0.409	-0.005
-405.282	99.898	-0.236	-0.276
-404.267	-156.338	0.169	-0.011
-403.252	11.155	0.120	-0.093
-402.238	-29.844	0.132	0.076
-401.223	19.754	-0.170	0.138
-400.209	298.421	0.048	-0.089
-399.194	-26.581	-0.037	0.022
-398.179	-200.000	0.027	-0.152
-397.165	-92.599	-0.053	-0.015
-396.150	-100.215	0.124	0.031
-395.136	423.163	0.110	0.239
-394.121	-182.589	0.235	0.004
-393.106	-111.629	-0.208	0.043
-392.092	-146.030	-0.149	-0.013
-391.077	101.972	-0.318	0.375
-390.063	-118.364	-0.193	-0.035
-389.048	800.000	-0.093	-0.261
-388.033	-200.000	-0.056	0.367
-387.019	-41.629	0.019	0.010
-386.004	-163.712	0.153	-0.007
-384.990	-6.027	-0.126	-0.087
-383.975	61.163	-0.187	-0.188
-382.960	80.869	0.198	0.215
-381.946	247.650	0.130	0.222
-380.931	166.695	0.179	0.256
-379.917	273.163	0.076	-0.136
-378.902	-119.365	0.133	-0.023
-377.888	16.555	0.130	0.104
-376.873	-116.311	0.144	-0.027
-375.858	-101.548	-0.093	0.023
-374.844	800.000	-0.045	-0.188
-373.829	658.319	0.082	0.212
-372.815	-94.796	-0.175	0.048
-371.800	-200.000	-0.076	0.364
-370.785	-51.252	0.139	0.065
-369.771	-33.837	0.330	0.184
-368.756	508.707	-0.056	0.132
-367.742	-200.000	0.015	-0.163
-366.727	13.301	-0.264	-0.207
-365.712	-94.809	0.286	0.078
-364.698	350.643	0.047	0.094
-363.683	-119.982	-0.132	0.023
-362.669	-1.293	-0.183	-0.130
-361.654	-111.319	-0.038	0.008
-360.639	40.361	-0.038	0.035
-359.625	-200.000	-0.020	-0.308
-358.610	800.000	-0.105	-0.406
-357.596	42.184	0.227	-0.208
-356.581	800.000	-0.122	-0.344
-355.566	-59.513	0.162	-0.070
-354.552	146.427	0.207	-0.280
-353.537	-4.668	0.221	-0.154
-352.523	-91.924	-0.170	0.049
-351.508	-46.165	-0.292	0.145
-350.493	-200.000	-0.008	0.039
-349.479	37.636	-0.189	-0.169
-348.464	304.125	0.078	0.147
-347.450	399.259	-0.128	-0.270
-346.435	36.730	-0.156	-0.139
-345.420	128.833	-0.197	-0.254
-344.406	211.702	0.068	0.108
-343.391	-163.171	0.036	-0.002
-342.377	-109.216	-0.293	-0.063
-341.362	-200.000	0.020	-0.175
-340.348	167.618	-0.108	0.154
-339.333	-37.301	-0.348	-0.187
-338.318	-200.000	0.194	-0.001
-337.304	-68.844	0.243	-0.095
-336.289	-98.210	0.141	0.036
-335.275	66.019	-0.202	-0.207
-334.260	198.217	0.086	0.132
-333.245	-200.000	-0.028	0.284
-332.231	284.559	0.151	0.274
-331.216	227.249	-0.206	-0.338
-330.202	-11.066	0.277	-0.184
-329.187	-200.000	0.000	0.363
-328.172	632.195	-0.238	0.607
-327.158	186.998	0.179	-0.269
-326.143	61.185	-0.037	-0.037
-325.129	-71.208	-0.330	0.125
-324.114	-19.867	-0.313	-0.195
-323.099	-200.000	0.021	-0.121
-322.085	-58.003	0.191	-0.084
-321.070	-200.000	0.012	0.153
-320.056	52.605	-0.074	0.071
-319.041	222.062	-0.169	0.274
-318.026	-145.033	0.044	-0.004
-317.012	787.850	0.173	-0.477
-315.997	38.134	-0.179	-0.160
-314.983	-15.105	-0.169	-0.109
-313.968	800.000	0.055	0.162
-312.953	-41.732	-0.432	-0.223
-311.939	-125.202	-0.253	0.039
-310.924	-96.221	0.125	-0.033
-309.910	-36.371	0.237	-0.128
-308.895	-200.000	0.029	0.194
-307.880	-200.000	0.048	0.367
-306.866	647.195	0.071	0.184
-305.851	-117.834	-0.145	-0.026
-304.837	128.825	-0.081	0.104
-303.822	-143.957	-0.157	0.015
-302.807	800.000	0.083	-0.322
-301.793	-167.649	0.279	0.011
-300.778	665.195	0.066	0.172
-299.764	-200.000	0.021	-0.153
-298.749	800.000	-0.139	-0.397
-297.735	-104.970	-0.052	0.012
-296.720	433.135	0.102	0.223
-295.705	-74.542	0.200	-0.072
-294.691	-200.000	-0.001	-0.006
-293.676	-200.000	0.007	0.089
-292.662	143.041	-0.131	0.175
-291.647	-54.621	0.159	0.072
-290.632	-27.509	0.215	-0.126
-289.618	73.487	0.205	0.216
-288.603	-83.092	-0.364	0.118
-287.589	-64.389	0.141	0.058
-286.574	-200.000	-0.002	-0.234
-285.559	13.962	0.232	0.181
-284.545	511.746	0.081	0.190
-283.530	-200.000	-0.002	-0.275
-282.516	-71.925	0.128	-0.048
-281.501	800.000	-0.075	-0.245
-280.486	105.094	0.176	0.209
-279.472	-87.629	-0.058	0.018
-278.457	-22.454	-0.140	0.085
-277.443	-112.937	0.380	0.076
-276.428	94.943	0.072	0.083
-275.413	800.000	0.068	-0.235
-274.399	129.888	0.103	0.132
-273.384	462.254	-0.072	0.162
-272.370	-52.301	-0.086	-0.040
-271.355	800.000	0.095	-0.368
-270.340	-7.768	-0.217	-0.147
-269.326	63.487	-0.242	-0.244
-268.311	-51.853	-0.130	-0.061
-267.297	-126.143	-0.123	0.019
-266.282	800.000	-0.108	-0.361
-265.267	-200.000	0.044	0.214
-264.253	-24.163	-0.087	-0.052
-263.238	-200.000	0.026	0.288
-262.224	97.560	-0.230	0.266
-261.209	-157.439	-0.297	-0.018
-260.195	346.834	0.104	0.206
-259.180	-200.000	0.005	0.139
-258.165	-200.000	-0.010	-0.056
-257.151	-200.000	0.008	-0.219
-256.136	93.153	0.030	0.034
-255.122	800.000	0.030	0.106
-254.107	-200.000	-0.006	0.168
-253.092	-39.512	0.042	0.022
-252.078	557.600	0.125	-0.302
-251.063	-200.000	0.005	-0.236
-250.049	4.233	0.122	-0.090
-249.034	-26.806	-0.159	0.093
-248.019	800.000	0.058	-0.208
-247.005	-81.812	-0.320	0.105
-245.990	-80.696	0.194	0.065
-244.976	-200.000	0.518	0.000
-243.961	389.926	0.064	-0.132
-242.946	800.000	0.027	-0.078
-241.932	720.300	-0.060	-0.161
-240.917	-112.261	-0.243	0.049
-239.903	42.256	0.241	-0.220
-238.888	-59.822	0.115	-0.050
-237.873	48.275	-0.161	-0.151
-236.859	-200.000	0.041	0.200
-235.844	800.000	-0.044	-0.131
-234.830	60.876	0.326	-0.324
-233.815	-200.000	-0.031	-0.210
-232.800	-91.257	0.193	-0.056
-231.786	-71.604	0.163	-0.061
-230.771	-91.578	-0.164	-0.047
-229.757	-155.116	-0.197	0.013
-228.742	69.261	0.123	0.127
-227.727	33.308	-0.072	0.063
-226.713	273.996	-0.143	-0.253
-225.698	102.363	0.157	0.184
-224.684	6.153	0.165	0.123
-223.669	-200.000	-0.558	0.002
-222.655	316.008	0.177	0.335
-221.640	39.522	-0.174	0.156
-220.625	124.400	-0.109	-0.138
-219.611	87.998	-0.052	-0.058
-218.596	76.211	-0.165	-0.175
-217.582	45.936	0.159	-0.148
-216.567	-91.464	-0.278	-0.080
-215.552	136.619	-0.166	-0.218
-214.538	800.000	0.066	0.251
-213.523	-49.775	0.355	0.169
-212.509	800.000	0.052	-0.223
-211.494	-175.193	-0.162	0.004
-210.479	357.428	-0.082	-0.165
-209.465	87.898	0.092	-0.102
-208.450	-52.518	-0.212	-0.098
-207.436	99.392	0.211	0.245
-206.421	117.892	0.033	-0.040
-205.406	179.016	-0.053	0.078
-204.392	-170.283	0.160	-0.006
-203.377	-200.000	-0.004	0.447
-202.363	-50.522	0.080	-0.038
-201.348	-41.449	0.157	-0.081
-200.333	-200.000	-0.018	0.191
-199.319	-6.035	0.208	0.143
-198.304	-122.086	0.241	0.040
-197.290	800.000	0.061	0.186
-196.275	-51.248	0.061	0.029
-195.260	651.770	0.106	-0.271
-194.246	-85.378	0.127	0.040
-193.231	149.803	0.201	0.274
-192.217	-200.000	0.019	0.085
-191.202	240.966	0.083	-0.139
-190.187	399.665	-0.043	-0.091
-189.173	-200.000	0.059	-0.440
-188.158	-162.008	0.276	-0.014
-187.144	-142.479	0.434	-0.043
-186.129	800.000	-0.027	0.081
-185.114	800.000	0.073	0.211
-184.100	623.312	-0.108	0.273
-183.085	-168.334	0.119	-0.005
-182.071	525.546	0.180	0.426
-181.056	-123.919	-0.076	0.012
-180.042	-1.265	-0.175	-0.124
-179.027	86.379	-0.154	0.170
-178.012	-200.000	0.022	-0.217
-176.998	-106.358	-0.066	0.015
-175.983	800.000	0.065	0.211
-174.969	-115.236	0.331	-0.063
-173.954	800.000	-0.047	-0.148
-172.939	-163.968	0.134	0.006
-171.925	-78.221	0.196	0.068
-170.910	-100.955	-0.158	0.039
-169.896	475.450	-0.077	-0.175
-168.881	45.105	-0.210	-0.194
-167.866	-46.442	0.188	0.092
-166.852	-6.845	-0.258	-0.176
-165.837	-110.400	0.174	0.036
-164.823	-200.000	-0.014	-0.122
-163.808	800.000	0.048	-0.197
-162.793	331.107	0.093	-0.179
-161.779	-200.000	-0.018	-0.462
-160.764	-140.204	-0.572	0.060
-159.750	-200.000	-0.024	0.194
-158.735	294.658	0.165	0.302
-157.720	17.913	-0.291	-0.232
-156.706	-200.000	0.016	-0.160
-155.691	55.852	-0.200	-0.194
-154.677	-24.585	-0.405	-0.241
-153.662	-15.585	-0.203	0.129
-152.647	89.121	-0.219	-0.244
-151.633	-200.000	0.016	-0.180
-150.618	-200.000	0.000	0.223
-149.604	91.880	0.120	-0.135
-148.589	-162.712	-0.097	0.005
-147.574	-200.000	0.027	0.232
-146.560	17.450	-0.290	0.231
-145.545	-27.779	-0.143	0.083
-144.531	-98.375	0.132	-0.034
-143.516	537.964	-0.051	0.121
-142.502	-106.373	-0.207	-0.046
-141.487	85.255	-0.088	0.097
-140.472	-200.000	0.060	0.339
-139.458	-200.000	-0.006	-0.196
-138.443	-200.000	-0.032	-0.220
-137.429	-200.000	-0.002	0.206
-136.414	-57.525	-0.207	-0.091
-135.399	150.127	0.121	0.164
-134.385	800.000	0.037	-0.141
-133.370	-121.529	-0.365	-0.061
-132.356	151.217	-0.099	-0.135
-131.341	-200.000	-0.005	-0.236
-130.326	146.925	0.173	-0.233
-129.312	-73.259	-0.085	-0.031
-128.297	91.814	-0.288	0.324
-127.283	-171.628	-0.184	0.006
-126.268	-9.650	0.153	-0.102
-125.253	800.000	-0.135	-0.491
-124.239	12.530	-0.197	-0.152
-123.224	213.446	0.195	0.308
-122.210	718.634	-0.060	0.161
-121.195	13.449	-0.092	-0.071
