DTS Sentinel unit serial number:	SN413079Multiplexer serial number:	ORYXHardware model number:	OX4-SRSoftware version number:	ORYX F/W v4.00 Oryx Data Collector v3.7.2.0data status	okinstallation	princeton_trtdifferential loss correction	single-endedforward channel	channel 4reverse channel	N/Adate	2019/09/16time	16:37:35forward acquisition time	60.00reverse acquisition time	0.00gamma	496.2192k internal	0.2293k external	0.2293temperature offset calibration	0.9939default loss term (dB/km)	0.3790temperature slope calibration	1.0000multiplexer offset coefficient	1.0000multiplexer slope coefficient	1.0000fibre end	0.00T internal ref (°C)	39.94T ext. ref 1 (°C)	15.13T ext. ref 2 (°C)	33.78length (m)	temperature (°C)	Stokes	anti-Stokes-747.200	800.000	-0.056	-0.216
-746.185	-150.383	-0.061	0.005
-745.171	-92.907	0.077	0.022
-744.156	210.349	-0.087	-0.140
-743.142	-126.109	-0.244	-0.037
-742.127	-3.629	0.210	0.149
-741.112	226.946	-0.304	-0.505
-740.098	159.951	-0.107	-0.152
-739.083	131.266	0.057	0.075
-738.069	253.938	0.247	0.431
-737.054	-200.000	0.008	-0.036
-736.039	60.760	-0.248	-0.252
-735.025	-200.000	-0.017	0.129
-734.010	338.148	-0.203	0.403
-732.996	-200.000	0.012	-0.056
-731.981	406.957	0.077	0.167
-730.966	27.476	-0.201	0.173
-729.952	-200.000	-0.039	0.510
-728.937	150.396	0.051	-0.070
-727.923	800.000	-0.081	-0.331
-726.908	556.830	-0.096	0.237
-725.894	-200.000	-0.020	-0.125
-724.879	-102.662	-0.037	-0.009
-723.864	-138.132	-0.336	-0.038
-722.850	367.968	0.198	0.409
-721.835	-200.000	-0.085	-0.403
-720.821	-200.000	0.201	-0.000
-719.806	-200.000	-0.010	-0.088
-718.791	-87.576	-0.225	-0.070
-717.777	-194.508	-0.107	-0.001
-716.762	800.000	0.094	-0.360
-715.748	-70.502	-0.071	-0.028
-714.733	338.970	0.099	0.198
-713.718	-17.357	0.184	-0.118
-712.704	-134.867	-0.216	-0.027
-711.689	-39.796	0.064	0.034
-710.675	-20.403	0.077	0.048
-709.660	156.332	0.284	0.401
-708.645	-200.000	0.074	-0.334
-707.631	-119.379	0.070	0.012
-706.616	30.594	0.193	0.169
-705.602	-200.000	0.002	-0.432
-704.587	-170.292	-0.268	0.010
-703.572	216.642	0.183	0.297
-702.558	-200.000	0.036	0.305
-701.543	365.753	0.105	-0.216
-700.529	-20.171	-0.330	-0.208
-699.514	-42.817	0.206	-0.107
-698.499	-200.000	-0.015	0.254
-697.485	137.729	-0.226	0.303
-696.470	-174.287	-0.196	0.006
-695.456	31.566	0.207	-0.182
-694.441	-200.000	-0.015	0.147
-693.426	-200.000	-0.011	-0.087
-692.412	800.000	-0.024	-0.073
-691.397	-157.895	0.189	-0.011
-690.383	-200.000	-0.023	-0.112
-689.368	40.387	-0.395	-0.363
-688.354	224.037	-0.077	0.127
-687.339	800.000	-0.085	0.291
-686.324	261.350	-0.103	-0.182
-685.310	-56.010	0.293	-0.133
-684.295	-18.710	-0.091	-0.058
-683.281	-2.895	-0.224	-0.159
-682.266	-4.034	-0.224	-0.158
-681.251	90.860	0.110	-0.126
-680.237	-200.000	0.049	-0.294
-679.222	135.172	0.185	-0.245
-678.208	106.946	0.027	0.032
-677.193	-86.211	0.256	-0.080
-676.178	-12.137	-0.001	-0.001
-675.164	-200.000	0.029	0.211
-674.149	-200.000	0.012	-0.077
-673.135	-200.000	0.001	-0.149
-672.120	273.240	0.181	0.326
-671.105	-200.000	0.023	-0.120
-670.091	135.022	0.114	0.152
-669.076	579.833	0.019	0.047
-668.062	8.841	-0.057	0.043
-667.047	-200.000	0.060	0.356
-666.032	-20.322	-0.108	-0.068
-665.018	140.115	0.315	-0.423
-664.003	-21.283	-0.013	0.008
-662.989	-6.859	0.070	0.049
-661.974	90.887	0.059	0.067
-660.959	31.306	-0.131	-0.114
-659.945	424.409	0.057	0.126
-658.930	-125.588	-0.017	0.003
-657.916	800.000	-0.026	0.100
-656.901	-200.000	-0.222	-0.001
-655.886	-55.711	-0.170	0.078
-654.872	60.581	0.046	-0.046
-653.857	-69.462	-0.271	-0.106
-652.843	4.829	-0.098	0.073
-651.828	-200.000	0.028	0.181
-650.814	-59.996	-0.178	-0.077
-649.799	-61.769	-0.330	0.141
-648.784	-200.000	-0.001	-0.177
-647.770	-108.823	0.057	-0.012
-646.755	800.000	0.051	0.216
-645.741	213.919	-0.093	0.149
-644.726	745.680	-0.052	0.143
-643.711	-48.742	0.126	-0.062
-642.697	27.733	0.030	0.026
-641.682	354.439	0.170	0.344
-640.668	-19.491	0.185	-0.117
-639.653	-150.926	0.044	-0.003
-638.638	-200.000	-0.050	0.338
-637.624	-59.358	0.249	-0.109
-636.609	-200.000	-0.009	-0.299
-635.595	-200.000	0.008	0.208
-634.580	-32.637	-0.250	-0.142
-633.565	-200.000	0.001	0.121
-632.551	-200.000	0.045	-0.290
-631.536	46.461	-0.272	-0.257
-630.522	669.206	-0.001	0.003
-629.507	800.000	0.025	-0.108
-628.492	492.401	0.080	-0.186
-627.478	173.860	0.127	-0.187
-626.463	-6.279	-0.255	0.177
-625.449	-102.338	-0.287	-0.070
-624.434	800.000	0.096	-0.325
-623.419	-109.675	0.177	0.038
-622.405	458.034	-0.030	-0.068
-621.390	-200.000	-0.018	-0.180
-620.376	800.000	-0.048	-0.190
-619.361	178.814	-0.036	0.053
-618.346	-10.318	-0.205	-0.138
-617.332	800.000	-0.015	-0.064
-616.317	-172.662	0.143	-0.005
-615.303	-200.000	0.015	0.097
-614.288	-200.000	0.044	-0.207
-613.273	168.875	0.249	-0.361
-612.259	-200.000	0.033	-0.300
-611.244	74.264	0.169	0.181
-610.230	101.681	-0.218	0.259
-609.215	254.980	0.043	0.076
-608.201	-111.340	0.102	-0.021
-607.186	25.759	-0.172	-0.146
-606.171	-21.478	-0.293	0.182
-605.157	-42.723	-0.114	0.059
-604.142	800.000	0.077	-0.325
-603.128	649.340	-0.093	-0.243
-602.113	462.695	-0.189	-0.430
-601.098	-200.000	0.013	-0.151
-600.084	-148.123	0.185	-0.016
-599.069	90.460	-0.104	-0.118
-598.055	-28.116	-0.071	0.042
-597.040	-200.000	0.001	-0.054
-596.025	53.902	0.198	-0.193
-595.011	-152.337	-0.125	-0.009
-593.996	800.000	0.036	-0.119
-592.982	-138.164	-0.318	-0.036
-591.967	465.692	-0.020	0.045
-590.952	-150.478	-0.264	-0.021
-589.938	115.351	0.217	-0.270
-588.923	-37.901	0.237	-0.128
-587.909	-127.377	0.146	-0.022
-586.894	-68.923	-0.135	0.053
-585.879	199.837	-0.049	-0.076
-584.865	-146.421	0.431	0.038
-583.850	800.000	-0.009	0.027
-582.836	-200.000	-0.034	-0.397
-581.821	49.854	-0.066	-0.063
-580.806	573.550	0.119	-0.295
-579.792	99.221	0.193	0.226
-578.777	-48.400	-0.137	-0.067
-577.763	12.882	-0.083	0.065
-576.748	-133.972	0.086	-0.011
-575.733	-112.304	0.093	-0.019
-574.719	84.886	0.216	0.241
-573.704	-69.912	0.059	0.023
-572.690	-18.440	0.186	0.118
-571.675	-119.313	-0.486	-0.086
-570.661	-200.000	0.030	-0.137
-569.646	40.949	-0.096	-0.088
-568.631	179.636	-0.112	0.166
-567.617	-72.685	0.067	-0.025
-566.602	335.821	0.068	-0.133
-565.588	-200.000	0.003	0.117
-564.573	-200.000	-0.034	-0.454
-563.558	-200.000	-0.094	-0.546
-562.544	420.415	-0.113	-0.245
-561.529	-31.170	-0.150	-0.086
-560.515	-65.408	-0.267	-0.109
-559.500	800.000	-0.072	-0.237
-558.485	629.229	-0.039	-0.101
-557.471	-75.755	-0.182	-0.066
-556.456	251.433	0.084	0.145
-555.442	-149.627	-0.281	-0.023
-554.427	-129.405	-0.222	0.031
-553.412	800.000	0.099	0.334
-552.398	-184.649	0.354	-0.006
-551.383	800.000	-0.063	-0.234
-550.369	-200.000	0.028	0.207
-549.354	2.092	-0.072	0.053
-548.339	149.085	0.058	-0.080
-547.325	64.356	0.197	-0.201
-546.310	-200.000	-0.063	-0.408
-545.296	16.256	-0.039	-0.031
-544.281	115.126	-0.204	-0.253
-543.266	-200.000	-0.050	0.297
-542.252	-113.872	0.297	0.059
-541.237	158.304	-0.202	0.284
-540.223	82.016	-0.141	-0.155
-539.208	29.629	0.166	-0.144
-538.193	-58.586	-0.083	-0.037
-537.179	-160.919	-0.111	0.006
-536.164	-81.010	0.175	-0.059
-535.150	-63.122	-0.222	-0.093
-534.135	-37.474	0.182	0.099
-533.121	-200.000	0.049	-0.223
-532.106	-34.407	0.154	-0.086
-531.091	104.932	-0.120	-0.144
-530.077	638.738	0.015	0.038
-529.062	-80.817	-0.226	0.076
-528.048	2.018	0.217	0.159
-527.033	800.000	-0.151	-0.462
-526.018	-19.414	-0.108	0.068
-525.004	-95.879	-0.190	0.051
-523.989	800.000	0.119	0.360
-522.975	196.433	-0.189	0.292
-521.960	124.149	0.037	0.047
-520.945	-89.528	0.364	-0.108
-519.931	-89.134	-0.257	0.077
-518.916	421.451	0.178	0.388
-517.902	69.462	-0.135	0.141
-516.887	-84.496	-0.281	-0.090
-515.872	-152.386	0.201	0.015
-514.858	241.323	-0.044	-0.075
-513.843	-67.279	0.192	0.077
-512.829	-61.604	-0.223	0.095
-511.814	61.219	-0.043	0.043
-510.799	645.117	0.024	0.062
-509.785	0.158	-0.025	-0.018
-508.770	41.479	-0.017	-0.016
-507.756	149.006	-0.017	-0.024
-506.741	156.607	-0.061	0.086
-505.726	-200.000	0.040	0.259
-504.712	-59.067	0.083	0.037
-503.697	-85.881	-0.218	0.068
-502.683	-54.935	-0.137	-0.063
-501.668	-83.601	0.042	0.014
-500.653	84.847	0.360	-0.400
-499.639	-142.064	0.210	0.021
-498.624	-56.312	0.220	0.099
-497.610	-51.089	0.303	-0.144
-496.595	-112.524	-0.054	-0.011
-495.581	-39.694	-0.094	0.050
-494.566	-119.253	-0.158	0.028
-493.551	142.436	-0.009	-0.012
-492.537	248.983	0.234	-0.402
-491.522	161.489	0.056	0.079
-490.508	184.352	-0.069	0.104
-489.493	-183.359	-0.495	-0.009
-488.478	367.715	0.124	0.253
-487.464	17.694	-0.189	0.152
-486.449	-129.262	-0.111	0.016
-485.435	594.498	-0.021	0.052
-484.420	-30.119	0.492	0.283
-483.405	-67.835	-0.151	-0.060
-482.391	96.904	-0.060	0.069
-481.376	209.290	-0.054	-0.086
-480.362	800.000	0.088	-0.376
-479.347	-172.623	-0.088	-0.003
-478.332	800.000	-0.030	-0.087
-477.318	-200.000	-0.018	0.170
-476.303	-20.195	0.224	0.140
-475.289	-89.391	0.316	-0.094
-474.274	-200.000	-0.004	0.192
-473.259	-89.975	-0.305	0.090
-472.245	800.000	0.078	0.328
-471.230	3.631	-0.154	0.113
-470.216	-200.000	0.020	0.107
-469.201	-200.000	0.025	-0.338
-468.186	-200.000	0.005	0.186
-467.172	90.776	-0.090	0.102
-466.157	104.291	-0.186	-0.222
-465.143	-91.951	0.263	0.076
-464.128	-200.000	0.037	-0.192
-463.113	800.000	0.101	0.308
-462.099	172.360	0.163	-0.238
-461.084	-200.000	0.017	-0.166
-460.070	311.642	0.059	0.111
-459.055	-26.095	-0.351	-0.209
-458.040	-12.800	0.144	-0.095
-457.026	234.534	0.157	0.261
-456.011	182.316	0.055	-0.082
-454.997	-81.306	-0.262	-0.087
-453.982	-170.671	-0.419	-0.015
-452.968	91.162	0.032	0.036
-451.953	261.383	0.136	0.238
-450.938	-54.705	0.170	0.078
-449.924	320.960	-0.133	-0.256
-448.909	81.805	0.182	-0.200
-447.895	-1.169	-0.172	-0.123
-446.880	74.339	0.114	0.121
-445.865	90.566	0.112	-0.127
-444.851	-75.359	0.069	0.025
-443.836	-200.000	0.013	0.130
-442.822	-200.000	0.009	-0.064
-441.807	241.340	-0.056	0.095
-440.792	-200.000	0.007	0.062
-439.778	107.942	-0.038	0.045
-438.763	134.103	-0.202	-0.265
-437.749	5.700	-0.175	0.131
-436.734	32.872	0.183	-0.160
-435.719	66.982	-0.107	-0.110
-434.705	352.966	0.166	-0.334
-433.690	800.000	0.025	-0.103
-432.676	77.032	-0.153	-0.164
-431.661	-104.538	0.016	0.004
-430.646	-167.110	-0.411	-0.017
-429.632	-38.881	-0.274	0.146
-428.617	9.428	0.169	0.129
-427.603	150.877	-0.032	0.044
-426.588	-200.000	-0.019	0.428
-425.573	-97.053	-0.169	-0.045
-424.559	509.539	-0.049	-0.116
-423.544	-65.022	-0.017	-0.007
-422.530	577.370	0.128	0.317
-421.515	-108.194	-0.106	0.023
-420.500	800.000	-0.054	-0.217
-419.486	116.977	0.085	0.105
-418.471	524.342	-0.070	0.167
-417.457	-65.687	0.378	-0.153
-416.442	-174.994	0.163	0.005
-415.428	-53.663	-0.119	-0.055
-414.413	-200.000	-0.002	0.076
-413.398	-75.881	-0.029	-0.010
-412.384	800.000	-0.103	0.438
-411.369	338.419	0.054	0.105
-410.355	166.059	-0.290	-0.415
-409.340	167.434	-0.097	0.139
-408.325	295.209	-0.095	-0.175
-407.311	266.346	0.058	-0.101
-406.296	62.222	-0.081	0.081
-405.282	-14.038	0.107	0.070
-404.267	138.025	-0.064	-0.085
-403.252	-177.341	-0.416	-0.010
-402.238	-17.841	0.174	-0.111
-401.223	313.603	0.098	-0.186
-400.209	800.000	-0.064	-0.194
-399.194	163.420	-0.053	-0.075
-398.179	124.754	-0.215	0.274
-397.165	-114.812	0.142	-0.027
-396.150	121.015	0.118	0.148
-395.136	-200.000	0.019	0.161
-394.121	800.000	-0.094	0.337
-393.106	268.452	0.116	0.205
-392.092	319.831	-0.215	0.411
-391.077	160.694	0.139	0.196
-390.063	800.000	-0.030	-0.092
-389.048	-200.000	-0.059	-0.412
-388.033	646.198	0.096	0.247
-387.019	-111.654	0.130	-0.027
-386.004	388.177	0.062	0.130
-384.990	-200.000	0.019	0.250
-383.975	58.090	-0.215	-0.212
-382.960	-200.000	-0.017	-0.228
-381.946	59.945	0.300	-0.299
-380.931	256.335	-0.047	0.081
-379.917	-25.530	0.177	0.106
-378.902	-151.157	0.179	0.014
-377.888	-61.008	-0.268	-0.114
-376.873	631.385	0.063	-0.160
-375.858	134.766	-0.225	0.295
-374.844	-150.009	0.300	-0.024
-373.829	-100.445	-0.110	0.027
-372.815	-200.000	0.009	0.140
-371.800	-87.911	-0.451	0.137
-370.785	-151.209	0.175	-0.013
-369.771	49.440	-0.177	-0.168
-368.756	-34.953	-0.280	-0.154
-367.742	164.720	-0.162	-0.230
-366.727	24.505	-0.099	-0.082
-365.712	800.000	-0.038	0.116
-364.698	230.400	0.087	0.143
-363.683	-79.832	-0.255	-0.087
-362.669	-200.000	0.061	-0.304
-361.654	-200.000	-0.010	-0.222
-360.639	42.872	-0.148	0.136
-359.625	-94.090	-0.333	0.092
-358.610	70.341	0.179	-0.187
-357.596	-200.000	0.031	0.311
-356.581	-200.000	-0.042	0.197
-355.566	-200.000	-0.037	0.320
-354.552	-26.803	-0.110	-0.065
-353.537	54.989	-0.094	0.091
-352.523	153.104	-0.045	0.063
-351.508	770.310	0.048	0.132
-350.493	800.000	0.048	-0.184
-349.479	-115.365	-0.168	0.032
-348.464	800.000	-0.057	-0.185
-347.450	-200.000	-0.003	0.174
-346.435	245.051	0.046	-0.079
-345.420	501.895	-0.158	-0.368
-344.406	442.464	0.041	0.090
-343.391	40.971	0.236	0.214
-342.377	800.000	0.097	0.406
-341.362	-95.251	-0.185	-0.050
-340.348	800.000	-0.120	-0.446
-339.333	228.269	-0.189	0.310
-338.318	219.446	0.126	0.204
-337.304	96.709	0.056	-0.065
-336.289	-148.392	-0.137	0.011
-335.275	800.000	-0.058	0.213
-334.260	220.269	-0.059	0.095
-333.245	89.438	0.124	0.140
-332.231	20.629	0.194	0.158
-331.216	214.000	0.155	-0.247
-330.202	414.243	-0.134	0.288
-329.187	-63.706	0.040	0.016
-328.172	-25.106	0.110	0.066
-327.158	800.000	0.034	-0.106
-326.143	-200.000	0.363	0.000
-325.129	-200.000	0.004	-0.184
-324.114	-3.003	-0.279	0.196
-323.099	800.000	-0.033	0.117
-322.085	200.983	-0.079	-0.123
-321.070	-200.000	-0.024	0.253
-320.056	-92.653	-0.097	0.027
-319.041	84.035	0.202	-0.222
-318.026	-200.000	0.003	0.050
-317.012	-52.042	0.218	0.102
-315.997	800.000	-0.073	0.268
-314.983	382.419	-0.059	0.122
-313.968	642.337	-0.053	-0.135
-312.953	-165.915	0.213	-0.009
-311.939	-87.178	-0.231	0.071
-310.924	389.021	0.053	0.111
-309.910	332.203	0.099	-0.191
-308.895	479.842	-0.032	-0.074
-307.880	-151.308	-0.168	-0.013
-306.866	21.487	0.007	-0.006
-305.851	-68.629	-0.065	-0.025
-304.837	28.873	0.262	-0.224
-303.822	-126.641	0.380	0.057
-302.807	-118.992	-0.515	-0.091
-301.793	-153.230	-0.202	-0.014
-300.778	-19.242	-0.275	-0.171
-299.764	-41.322	0.292	0.151
-298.749	800.000	0.121	0.345
-297.735	436.192	0.075	0.165
-296.720	10.539	0.016	0.012
-295.705	2.203	0.189	-0.137
-294.691	-50.799	-0.216	-0.102
-293.676	-200.000	0.034	-0.302
-292.662	38.353	-0.124	-0.111
-291.647	243.489	-0.076	-0.128
-290.632	258.085	-0.101	0.174
-289.618	136.598	0.057	0.074
-288.603	56.010	0.163	-0.159
-287.589	435.998	-0.057	0.126
-286.574	-113.374	-0.088	-0.017
-285.559	-200.000	0.001	0.246
-284.545	-200.000	-0.059	0.316
-283.530	194.765	-0.148	0.226
-282.516	800.000	0.011	-0.031
-281.501	15.611	-0.008	-0.006
-280.486	-146.622	0.424	0.037
-279.472	46.985	-0.202	-0.189
-278.457	-27.669	0.158	-0.092
-277.443	182.428	0.118	0.175
-276.428	-88.326	0.135	-0.041
-275.413	-120.378	0.276	-0.047
-274.399	-200.000	0.047	-0.286
-273.384	30.520	-0.298	0.256
-272.370	-123.802	0.407	0.065
-271.355	-145.967	0.165	0.015
-270.340	-41.052	-0.346	-0.180
-269.326	-49.449	0.109	-0.052
-268.311	-124.199	-0.290	-0.046
-267.297	-200.000	0.041	0.269
-266.282	-85.191	0.210	-0.066
-265.267	-137.933	0.210	-0.024
-264.253	-200.000	-0.008	0.152
-263.238	22.691	0.111	0.091
-262.224	197.036	0.170	0.260
-261.209	235.363	0.185	0.307
-260.195	-177.721	0.012	0.000
-259.180	694.891	0.108	0.284
-258.165	9.031	-0.352	0.267
-257.151	800.000	0.091	0.366
-256.136	179.537	0.143	0.210
-255.122	-154.928	-0.240	0.016
-254.107	-200.000	-0.032	0.231
-253.092	-122.734	0.165	-0.027
-252.078	800.000	0.048	0.146
-251.063	251.934	-0.059	0.101
-250.049	-55.166	-0.165	0.074
-249.034	-200.000	-0.017	0.344
-248.019	-26.197	-0.149	0.088
-247.005	800.000	0.034	0.105
-245.990	150.111	0.185	0.251
-244.976	800.000	0.104	-0.319
-243.961	165.838	-0.110	0.156
-242.946	-200.000	-0.025	0.155
-241.932	158.817	-0.230	-0.321
-240.917	562.354	-0.105	0.255
-239.903	-200.000	-0.003	-0.037
-238.888	-200.000	0.014	0.374
-237.873	-75.654	0.275	-0.098
-236.859	-49.449	-0.061	0.029
-235.844	-164.606	-0.095	0.004
-234.830	-45.597	-0.243	-0.121
-233.815	-145.122	0.335	-0.031
-232.800	30.692	-0.081	0.069
-231.786	-200.000	-0.000	-0.016
-230.771	-109.571	0.717	-0.152
-229.757	31.741	0.315	0.272
-228.742	-200.000	0.032	0.340
-227.727	9.978	-0.152	-0.116
-226.713	-183.871	0.226	-0.004
-225.698	-141.420	0.302	0.031
-224.684	-200.000	-0.010	0.097
-223.669	-190.603	0.207	0.002
-222.655	148.705	-0.093	-0.126
-221.640	129.019	-0.169	-0.216
-220.625	236.780	0.112	0.186
-219.611	-44.890	0.322	0.161
-218.596	46.957	0.113	-0.106
-217.582	-200.000	0.011	-0.235
-216.567	26.803	-0.274	-0.230
-215.552	4.171	-0.084	-0.062
-214.538	-100.429	-0.120	0.030
-213.523	-72.777	0.118	0.043
-212.509	287.765	-0.048	-0.087
-211.494	800.000	-0.027	0.084
-210.479	800.000	0.046	0.147
-209.465	-110.926	0.258	0.053
-208.450	-0.093	0.056	0.040
-207.436	-67.538	0.137	-0.054
-206.421	280.995	0.134	0.241
-205.406	800.000	0.083	-0.260
-204.392	514.392	-0.042	-0.098
-203.377	223.716	0.292	-0.472
-202.363	-86.659	-0.161	-0.050
-201.348	-200.000	0.011	-0.187
-200.333	324.686	0.109	-0.209
-199.319	163.049	-0.124	-0.175
-198.304	-113.761	-0.206	-0.040
-197.290	-200.000	-0.052	-0.242
-196.275	-99.281	0.166	-0.042
-195.260	105.959	0.134	-0.159
-194.246	49.897	0.240	-0.226
-193.231	-200.000	0.037	0.237
-192.217	-200.000	0.033	0.324
-191.202	-200.000	0.020	0.298
-190.187	296.150	0.101	-0.186
-189.173	-98.847	-0.238	0.061
-188.158	508.819	0.102	-0.237
-187.144	404.023	-0.051	0.108
-186.129	-200.000	0.031	0.404
-185.114	122.582	-0.274	-0.343
-184.100	-70.479	0.298	0.113
-183.085	-22.876	0.313	-0.189
-182.071	217.476	-0.125	0.200
-181.056	-50.894	0.275	0.129
-180.042	-50.800	0.079	-0.037
-179.027	-200.000	-0.001	-0.074
-178.012	241.514	-0.158	-0.264
-176.998	63.267	-0.052	0.052
-175.983	-84.445	0.055	-0.017
-174.969	-67.393	0.092	-0.036
-173.954	712.702	-0.017	0.046
-172.939	-200.000	0.037	-0.403
-171.925	67.230	-0.135	-0.138
-170.910	560.612	-0.098	0.236
-169.896	137.490	-0.250	0.328
-168.881	156.713	0.209	0.289
-167.866	331.812	-0.069	0.133
-166.852	-28.525	0.468	0.270
-165.837	96.180	-0.309	-0.354
-164.823	800.000	-0.032	0.117
-163.808	-200.000	0.052	0.333
-162.793	-200.000	-0.026	-0.168
-161.779	800.000	-0.030	-0.093
-160.764	-57.335	-0.364	0.160
-159.750	-200.000	-0.013	-0.130
-158.735	-8.680	-0.200	-0.134
-157.720	-173.577	0.167	-0.005
-156.706	-24.708	0.013	-0.008
-155.691	-200.000	-0.008	0.036
-154.677	-55.156	0.254	-0.114
-153.662	295.481	-0.043	-0.078
-152.647	-10.588	0.240	-0.159
-151.633	-7.217	0.080	-0.054
-150.618	140.473	0.168	0.222
-149.604	800.000	0.102	-0.434
-148.589	800.000	0.120	0.376
-147.574	93.936	0.173	0.196
-146.560	-200.000	-0.003	-0.215
-145.545	164.551	0.321	-0.452
-144.531	52.655	0.082	0.079
-143.516	-87.456	0.116	-0.035
-142.502	-114.112	0.236	0.046
-141.487	436.123	0.058	0.126
-140.472	319.527	-0.170	0.322
-139.458	800.000	0.060	-0.209
-138.443	-17.365	-0.109	0.069
-137.429	-33.913	-0.510	0.281
-136.414	-80.268	0.236	0.079
-135.399	124.656	-0.158	-0.198
-134.385	-33.953	-0.348	0.191
-133.370	-79.499	-0.095	0.032
-132.356	-57.704	0.181	0.079
-131.341	68.428	0.199	-0.204
-130.326	98.313	0.071	0.081
-129.312	800.000	-0.026	0.109
-128.297	-200.000	0.011	0.150
-127.283	-45.656	0.018	0.009
-126.268	-121.574	-0.275	0.046
-125.253	201.574	-0.053	0.081
-124.239	261.343	0.271	0.469
-123.224	-120.247	0.217	-0.037
-122.210	800.000	-0.036	-0.104
