DTS Sentinel unit serial number:	SN413079Multiplexer serial number:	ORYXHardware model number:	OX4-SRSoftware version number:	ORYX F/W v4.00 Oryx Data Collector v3.7.2.0data status	okinstallation	princeton_trtdifferential loss correction	single-endedforward channel	channel 4reverse channel	N/Adate	2019/09/18time	01:25:34forward acquisition time	60.00reverse acquisition time	0.00gamma	496.2192k internal	0.2334k external	0.2334temperature offset calibration	0.9996default loss term (dB/km)	0.3790temperature slope calibration	1.0000multiplexer offset coefficient	1.0000multiplexer slope coefficient	1.0000fibre end	0.00T internal ref (°C)	23.12T ext. ref 1 (°C)	0.17T ext. ref 2 (°C)	16.92length (m)	temperature (°C)	Stokes	anti-Stokes-747.200	-200.000	-0.058	0.539
-746.185	-75.108	-0.412	0.148
-745.171	-200.000	0.060	0.320
-744.156	-200.000	0.019	0.381
-743.142	6.147	-0.073	0.054
-742.127	-195.669	0.092	0.001
-741.112	-200.000	0.028	0.200
-740.098	-200.000	0.039	0.354
-739.083	-44.020	0.110	-0.056
-738.069	-79.769	-0.059	-0.020
-737.054	-200.000	-0.034	-0.177
-736.039	58.403	0.184	0.181
-735.025	-70.253	0.355	-0.135
-734.010	-55.330	-0.204	-0.092
-732.996	599.386	0.088	-0.219
-731.981	-200.000	0.021	0.140
-730.966	-74.137	0.153	0.056
-729.952	520.537	-0.103	-0.242
-728.937	-116.762	0.353	0.065
-727.923	508.748	0.096	-0.225
-726.908	-105.531	-0.259	-0.059
-725.894	11.101	-0.026	0.020
-724.879	367.589	-0.082	-0.166
-723.864	-200.000	0.038	-0.192
-722.850	-95.727	-0.197	0.053
-721.835	-14.123	-0.253	0.164
-720.821	88.984	0.095	0.106
-719.806	353.155	-0.030	-0.060
-718.791	-54.523	-0.115	0.052
-717.777	800.000	-0.123	0.460
-716.762	-115.470	-0.426	-0.080
-715.748	-200.000	0.004	0.098
-714.733	87.023	-0.315	-0.349
-713.718	-52.024	0.208	-0.097
-712.704	800.000	0.087	0.264
-711.689	173.535	-0.168	-0.243
-710.675	-104.083	0.131	-0.031
-709.660	800.000	-0.035	0.144
-708.645	-37.074	0.214	0.115
-707.631	800.000	-0.081	0.237
-706.616	-192.145	-0.263	-0.003
-705.602	-3.625	-0.229	-0.160
-704.587	-131.545	-0.166	0.022
-703.572	800.000	0.049	0.153
-702.558	-78.661	0.126	0.043
-701.543	800.000	0.088	0.360
-700.529	-138.325	0.123	0.014
-699.514	-31.777	0.323	0.182
-698.499	-127.480	0.120	-0.017
-697.485	-110.845	0.259	-0.053
-696.470	-53.885	0.282	-0.129
-695.456	-200.000	0.001	-0.272
-694.441	5.057	0.245	-0.181
-693.426	-62.883	0.179	-0.074
-692.412	71.365	-0.108	-0.113
-691.397	-17.554	0.231	0.145
-690.383	-200.000	-0.028	0.145
-689.368	-118.542	0.160	0.028
-688.354	-24.314	-0.262	-0.157
-687.339	-98.536	0.104	-0.027
-686.324	65.186	-0.172	0.174
-685.310	-200.000	-0.026	-0.147
-684.295	148.309	-0.207	-0.280
-683.281	152.625	0.133	-0.182
-682.266	-200.000	0.010	0.198
-681.251	-76.798	-0.073	-0.026
-680.237	-200.000	0.017	0.144
-679.222	-200.000	0.022	0.347
-678.208	-38.398	-0.219	-0.116
-677.193	176.065	-0.097	0.141
-676.178	24.960	0.238	-0.198
-675.164	800.000	0.021	-0.072
-674.149	223.880	-0.294	-0.476
-673.135	-200.000	0.003	-0.146
-672.120	-200.000	-0.022	-0.183
-671.105	1.499	-0.158	-0.114
-670.091	242.325	0.176	-0.296
-669.076	497.376	0.070	0.160
-668.062	150.782	0.126	-0.171
-667.047	88.134	-0.187	-0.208
-666.032	-56.847	0.132	0.058
-665.018	-150.638	0.051	-0.004
-664.003	800.000	0.042	-0.125
-662.989	2.705	-0.125	0.091
-661.974	-200.000	0.040	-0.255
-660.959	6.756	0.409	0.305
-659.945	138.594	-0.092	0.121
-658.930	84.013	-0.104	0.114
-657.916	-99.962	0.071	0.018
-656.901	249.228	0.055	-0.093
-655.886	-200.000	0.027	0.243
-654.872	-71.260	-0.242	-0.091
-653.857	28.440	0.085	0.072
-652.843	-39.314	-0.158	0.083
-651.828	-56.395	0.180	-0.080
-650.814	130.185	0.137	-0.176
-649.799	-112.380	0.122	-0.024
-648.784	-37.955	0.212	0.113
-647.770	727.547	0.111	-0.297
-646.755	800.000	-0.050	-0.219
-645.741	21.870	0.381	0.311
-644.726	-200.000	-0.055	-0.262
-643.711	141.721	-0.138	-0.184
-642.697	-84.458	0.037	0.012
-641.682	125.949	0.040	-0.050
-640.668	8.072	-0.300	-0.225
-639.653	-169.565	-0.102	0.004
-638.638	465.306	-0.032	0.071
-637.624	39.966	-0.273	-0.245
-636.609	50.266	-0.169	-0.159
-635.595	50.981	0.126	-0.120
-634.580	-108.993	-0.184	-0.039
-633.565	-105.834	-0.087	0.020
-632.551	238.132	-0.119	-0.197
-631.536	-31.099	0.319	0.180
-630.522	800.000	0.096	0.369
-629.507	-88.447	-0.338	0.101
-628.492	800.000	-0.030	0.128
-627.478	-200.000	-0.051	0.531
-626.463	800.000	-0.086	0.325
-625.449	-200.000	0.015	-0.264
-624.434	183.798	-0.195	0.289
-623.419	-49.620	-0.112	-0.053
-622.405	-200.000	-0.005	0.181
-621.390	-6.551	0.196	0.134
-620.376	105.062	0.184	0.218
-619.361	-30.104	0.184	0.105
-618.346	-138.688	-0.154	-0.017
-617.332	-200.000	-0.075	-0.462
-616.317	108.470	0.200	0.239
-615.303	88.081	-0.249	0.277
-614.288	749.940	0.054	-0.147
-613.273	527.813	0.128	-0.301
-612.259	-200.000	-0.050	0.291
-611.244	-112.055	-0.340	0.068
-610.230	-200.000	0.004	-0.282
-609.215	800.000	-0.156	-0.515
-608.201	800.000	-0.155	-0.444
-607.186	63.612	-0.160	-0.160
-606.171	-139.092	-0.265	-0.029
-605.157	-107.240	-0.364	-0.080
-604.142	-123.631	0.129	0.020
-603.128	800.000	-0.107	0.316
-602.113	-27.109	0.110	0.064
-601.098	-109.979	-0.019	-0.004
-600.084	-15.913	-0.267	-0.170
-599.069	-114.394	-0.292	0.056
-598.055	-38.582	-0.200	-0.106
-597.040	625.295	-0.041	-0.102
-596.025	-200.000	-0.020	-0.235
-595.011	95.271	-0.052	0.059
-593.996	-200.000	-0.008	-0.346
-592.982	-200.000	-0.036	-0.370
-591.967	-148.855	0.047	-0.004
-590.952	65.987	-0.320	0.324
-589.938	99.869	0.190	0.220
-588.923	-110.783	0.212	0.044
-587.909	98.788	0.203	-0.234
-586.894	183.174	0.055	-0.081
-585.879	302.258	0.113	-0.209
-584.865	-165.205	-0.591	0.026
-583.850	8.003	0.018	-0.013
-582.836	-200.000	0.064	-0.320
-581.821	372.680	0.114	-0.231
-580.806	85.333	0.255	0.279
-579.792	-1.756	-0.126	0.088
-578.777	271.738	-0.111	-0.196
-577.763	-164.799	-0.220	-0.010
-576.748	96.600	0.211	0.242
-575.733	4.801	-0.236	-0.173
-574.719	-125.171	0.170	0.026
-573.704	-131.532	0.458	-0.060
-572.690	-140.536	-0.241	0.025
-571.675	-200.000	0.030	0.162
-570.661	350.360	-0.069	-0.136
-569.646	-200.000	-0.008	0.390
-568.631	-24.973	-0.208	0.123
-567.617	-154.959	0.078	0.005
-566.602	-187.575	-0.279	0.004
-565.588	144.087	0.149	0.199
-564.573	-200.000	0.002	0.038
-563.558	13.914	0.028	0.022
-562.544	-200.000	-0.016	-0.091
-561.529	306.103	-0.019	-0.036
-560.515	-136.888	0.111	-0.013
-559.500	115.892	-0.158	0.193
-558.485	-29.044	0.048	0.028
-557.471	325.745	0.076	0.144
-556.456	71.731	0.258	0.267
-555.442	-200.000	-0.013	-0.235
-554.427	52.525	0.143	0.136
-553.412	-85.571	0.404	0.125
-552.398	-200.000	-0.033	-0.379
-551.383	231.229	-0.291	-0.476
-550.369	20.164	-0.032	-0.026
-549.354	-200.000	-0.001	0.081
-548.339	-133.461	-0.240	-0.030
-547.325	373.402	0.061	0.123
-546.310	-200.000	0.019	-0.173
-545.296	-66.268	0.237	0.094
-544.281	-108.888	0.100	0.021
-543.266	603.673	0.152	-0.378
-542.252	220.248	0.147	0.235
-541.237	-200.000	0.011	0.203
-540.223	362.793	-0.048	-0.096
-539.208	-200.000	-0.057	-0.265
-538.193	76.792	-0.163	0.173
-537.179	-44.863	0.275	-0.137
-536.164	-125.186	-0.127	-0.019
-535.150	-95.762	0.165	0.044
-534.135	-200.000	-0.022	0.099
-533.121	-145.824	-0.168	-0.015
-532.106	-180.458	0.301	0.006
-531.091	329.387	-0.285	-0.547
-530.077	27.195	-0.263	-0.220
-529.062	5.222	-0.185	0.136
-528.048	-137.886	-0.452	-0.050
-527.033	800.000	0.017	0.061
-526.018	-200.000	-0.003	-0.260
-525.004	800.000	0.007	0.031
-523.989	-42.204	0.331	-0.169
-522.975	205.556	0.116	-0.180
-521.960	116.311	-0.031	0.037
-520.945	-56.822	0.352	0.155
-519.931	-50.083	-0.077	-0.036
-518.916	29.291	0.139	-0.117
-517.902	-64.380	0.206	0.083
-516.887	-44.663	-0.133	-0.066
-515.872	-45.702	0.247	0.122
-514.858	-18.638	-0.208	0.129
-513.843	-83.918	-0.145	-0.046
-512.829	-146.730	-0.584	0.050
-511.814	800.000	0.038	0.118
-510.799	26.405	0.200	0.167
-509.785	19.228	-0.306	-0.245
-508.770	-65.531	0.197	-0.079
-507.756	-142.459	0.192	0.019
-506.741	-121.651	-0.191	0.032
-505.726	-200.000	-0.032	-0.216
-504.712	324.569	-0.066	-0.125
-503.697	-31.623	-0.079	0.044
-502.683	452.471	0.116	0.255
-501.668	5.099	-0.172	-0.126
-500.653	267.498	-0.153	-0.267
-499.639	13.038	-0.244	0.188
-498.624	-83.142	-0.215	-0.069
-497.610	-200.000	-0.009	-0.360
-496.595	-65.179	0.185	-0.074
-495.581	-100.054	-0.270	-0.067
-494.566	-92.957	0.179	-0.050
-493.551	20.821	0.133	-0.107
-492.537	-166.716	0.297	0.012
-491.522	-50.728	0.206	-0.096
-490.508	-106.834	0.153	-0.034
-489.493	800.000	0.012	-0.041
-488.478	157.177	-0.046	-0.064
-487.464	-18.556	-0.234	-0.145
-486.449	-9.986	-0.130	-0.086
-485.435	-97.147	-0.140	0.036
-484.420	800.000	-0.038	-0.148
-483.405	800.000	-0.050	0.139
-482.391	278.768	0.051	0.091
-481.376	-57.819	-0.082	0.036
-480.362	67.900	-0.249	-0.253
-479.347	116.799	-0.140	-0.170
-478.332	800.000	-0.055	0.204
-477.318	-144.077	0.161	0.015
-476.303	-13.438	0.062	-0.040
-475.289	-80.664	-0.322	-0.106
-474.274	190.864	-0.126	-0.188
-473.259	367.391	-0.178	0.358
-472.245	342.994	0.195	-0.380
-471.230	16.433	0.187	0.147
-470.216	-200.000	-0.033	-0.336
-469.201	179.201	-0.351	-0.511
-468.186	-47.581	0.204	-0.098
-467.172	-38.255	-0.124	-0.065
-466.157	800.000	-0.053	-0.190
-465.143	124.002	0.221	0.276
-464.128	67.819	-0.200	0.203
-463.113	-200.000	0.009	-0.043
-462.099	800.000	-0.116	0.317
-461.084	26.432	-0.162	-0.134
-460.070	-57.731	-0.142	-0.062
-459.055	-200.000	0.028	-0.197
-458.040	-98.794	-0.045	0.011
-457.026	217.018	0.099	-0.156
-456.011	10.597	-0.125	0.094
-454.997	-200.000	0.007	-0.132
-453.982	-22.940	0.034	-0.020
-452.968	275.700	-0.172	0.303
-451.953	-200.000	0.052	-0.245
-450.938	88.263	-0.131	0.144
-449.924	-200.000	0.004	0.295
-448.909	-200.000	-0.012	-0.103
-447.895	-68.854	0.247	0.095
-446.880	-200.000	0.021	-0.310
-445.865	-132.375	-0.373	-0.048
-444.851	-120.357	0.229	0.039
-443.836	-200.000	0.008	-0.261
-442.822	157.813	-0.065	0.089
-441.807	241.004	0.132	-0.219
-440.792	117.272	0.183	0.224
-439.778	800.000	-0.028	-0.083
-438.763	-200.000	0.009	-0.219
-437.749	-200.000	0.085	0.508
-436.734	1.490	0.109	-0.078
-435.719	385.972	-0.149	0.305
-434.705	-43.797	-0.179	-0.089
-433.690	800.000	0.090	0.366
-432.676	-134.020	0.390	0.048
-431.661	-130.309	-0.127	-0.017
-430.646	-200.000	0.004	0.040
-429.632	164.477	-0.116	-0.162
-428.617	-0.384	0.252	0.178
-427.603	-1.217	-0.080	0.056
-426.588	346.101	-0.072	0.140
-425.573	-200.000	0.014	0.148
-424.559	-160.699	-0.512	-0.027
-423.544	158.553	-0.137	0.189
-422.530	21.019	-0.350	0.282
-421.515	23.450	0.088	-0.072
-420.500	27.590	-0.060	-0.050
-419.486	-40.139	0.230	0.119
-418.471	-134.330	0.053	0.007
-417.457	-200.000	-0.042	0.335
-416.442	11.829	-0.276	0.210
-415.428	-193.064	-0.059	0.001
-414.413	-128.105	-0.259	-0.037
-413.398	696.323	-0.120	-0.313
-412.384	-112.649	-0.062	0.012
-411.369	-90.533	-0.475	-0.136
-410.355	-83.356	0.205	0.065
-409.340	14.106	-0.200	0.155
-408.325	-27.720	-0.199	0.115
-407.311	25.935	-0.183	0.152
-406.296	-31.483	-0.197	-0.110
-405.282	-86.700	-0.119	0.036
-404.267	800.000	-0.039	-0.150
-403.252	479.880	-0.078	0.175
-402.238	319.704	-0.119	-0.224
-401.223	-200.000	0.036	0.310
-400.209	-55.889	0.199	-0.088
-399.194	45.999	-0.148	0.136
-398.179	-162.108	0.363	-0.018
-397.165	162.648	0.104	-0.144
-396.150	800.000	-0.074	0.296
-395.136	29.157	0.061	0.051
-394.121	-200.000	-0.029	0.214
-393.106	431.726	0.139	0.298
-392.092	-19.617	0.192	0.118
-391.077	-94.694	0.159	0.043
-390.063	-200.000	0.013	-0.116
-389.048	193.998	0.219	-0.328
-388.033	-200.000	0.002	-0.038
-387.019	-57.323	0.110	0.048
-386.004	274.855	-0.106	0.187
-384.990	-200.000	0.015	0.169
-383.975	83.463	0.175	-0.189
-382.960	196.953	-0.131	-0.198
-381.946	-27.131	-0.255	0.147
-380.931	-200.000	0.002	-0.131
-379.917	52.216	0.372	0.351
-378.902	-64.944	-0.493	-0.197
-377.888	58.594	0.238	0.231
-376.873	-135.947	0.245	0.029
-375.858	-15.291	-0.298	0.189
-374.844	-196.201	0.119	0.001
-373.829	2.909	0.164	-0.118
-372.815	66.602	-0.281	0.283
-371.800	17.196	0.071	0.056
-370.785	-19.214	0.160	0.098
-369.771	-47.316	0.119	-0.058
-368.756	-200.000	0.020	-0.360
-367.742	383.097	-0.158	-0.323
-366.727	-35.469	-0.261	0.140
-365.712	707.720	0.092	0.242
-364.698	111.202	-0.127	0.151
-363.683	800.000	-0.071	-0.222
-362.669	220.362	0.052	-0.082
-361.654	-32.219	0.080	-0.044
-360.639	-41.717	0.103	-0.052
-359.625	-38.682	0.168	0.088
-358.610	-56.828	-0.264	0.116
-357.596	112.745	0.186	0.223
-356.581	800.000	-0.089	0.261
-355.566	-131.045	0.153	0.020
-354.552	-158.796	0.470	-0.027
-353.537	-123.612	-0.339	-0.053
-352.523	37.480	0.105	-0.093
-351.508	800.000	-0.035	-0.128
-350.493	800.000	0.013	-0.036
-349.479	-20.468	0.233	0.142
-348.464	-200.000	-0.003	0.091
-347.450	-56.430	-0.137	-0.060
-346.435	-81.286	0.093	-0.030
-345.420	-31.754	0.268	0.149
-344.406	-129.582	-0.184	0.025
-343.391	-124.223	0.416	0.064
-342.377	-64.272	0.136	-0.055
-341.362	-200.000	0.040	-0.225
-340.348	44.329	-0.163	0.148
-339.333	-200.000	0.002	-0.178
-338.318	98.366	0.146	0.167
-337.304	-200.000	-0.001	-0.283
-336.289	302.842	-0.215	0.393
-335.275	-59.153	0.171	0.073
-334.260	416.605	-0.025	0.052
-333.245	6.303	-0.073	0.054
-332.231	266.083	-0.125	0.217
-331.216	-200.000	0.008	-0.080
-330.202	-200.000	0.021	-0.201
-329.187	-98.890	0.093	0.023
-328.172	84.410	0.147	-0.159
-327.158	800.000	0.013	-0.038
-326.143	291.794	-0.095	-0.171
-325.129	267.685	0.131	-0.227
-324.114	499.710	0.130	0.296
-323.099	800.000	0.071	0.203
-322.085	-200.000	-0.009	0.052
-321.070	-200.000	-0.003	0.094
-320.056	800.000	-0.013	-0.052
-319.041	-146.219	0.466	-0.040
-318.026	-78.888	-0.206	-0.069
-317.012	-200.000	0.041	0.282
-315.997	-36.899	0.213	-0.113
-314.983	-116.071	-0.026	-0.005
-313.968	-113.455	-0.173	0.033
-312.953	103.186	-0.091	0.105
-311.939	-36.662	0.235	0.125
-310.924	-23.785	-0.191	-0.113
-309.910	-143.457	-0.067	0.006
-308.895	-88.173	0.097	0.029
-307.880	695.455	-0.100	-0.259
-306.866	-200.000	-0.001	-0.030
-305.851	112.586	0.087	-0.104
-304.837	28.589	-0.165	0.138
-303.822	236.451	0.117	-0.191
-302.807	64.788	-0.191	-0.190
-301.793	-43.935	0.122	0.061
-300.778	-200.000	-0.037	-0.247
-299.764	800.000	0.116	-0.342
-298.749	-29.877	-0.246	0.139
-297.735	-135.043	0.048	0.006
-296.720	174.252	-0.154	0.219
-295.705	62.217	0.131	0.129
-294.691	-200.000	-0.020	-0.452
-293.676	494.691	0.147	0.333
-292.662	-200.000	0.063	-0.282
-291.647	489.620	0.122	-0.275
-290.632	-139.290	0.388	-0.041
-289.618	374.770	-0.137	0.276
-288.603	124.648	-0.144	-0.178
-287.589	288.948	-0.133	-0.237
-286.574	-10.464	0.171	-0.112
-285.559	2.043	-0.268	0.191
-284.545	648.381	-0.030	0.077
-283.530	130.107	-0.092	0.116
-282.516	-200.000	-0.057	0.305
-281.501	-176.689	0.232	0.006
-280.486	-33.322	0.366	0.200
-279.472	374.516	0.024	0.049
-278.457	280.551	0.099	0.174
-277.443	-27.737	-0.112	0.064
-276.428	44.936	-0.231	0.209
-275.413	-35.583	0.281	-0.151
-274.399	-61.597	-0.417	-0.173
-273.384	650.230	0.225	-0.569
-272.370	36.291	0.178	-0.155
-271.355	415.527	0.112	0.235
-270.340	169.228	0.202	-0.285
-269.326	4.103	0.373	-0.269
-268.311	235.276	-0.160	0.261
-267.297	-200.000	-0.021	-0.204
-266.282	-140.938	0.299	-0.030
-265.267	-200.000	-0.030	0.146
-264.253	81.408	-0.053	0.057
-263.238	99.015	0.194	-0.221
-262.224	-200.000	-0.017	0.090
-261.209	173.617	0.077	-0.110
-260.195	-99.116	0.388	0.097
-259.180	-200.000	-0.053	0.463
-258.165	-142.289	0.272	0.027
-257.151	800.000	-0.060	0.231
-256.136	-58.088	-0.108	0.047
-255.122	-135.934	-0.427	0.050
-254.107	-200.000	0.033	0.291
-253.092	-111.647	0.138	0.028
-252.078	143.354	-0.148	0.194
-251.063	800.000	0.036	0.154
-250.049	800.000	-0.065	0.229
-249.034	167.338	0.154	-0.215
-248.019	228.099	-0.142	0.228
-247.005	-64.501	-0.108	0.043
-245.990	304.566	-0.081	-0.148
-244.976	-200.000	-0.024	0.157
-243.961	-200.000	0.027	-0.203
-242.946	66.461	-0.086	0.086
-241.932	226.240	0.115	0.185
-240.917	26.769	-0.081	0.067
-239.903	-80.222	0.343	-0.113
-238.888	800.000	0.068	0.271
-237.873	-200.000	-0.018	-0.273
-236.859	389.974	0.113	0.231
-235.844	-110.957	-0.247	-0.050
-234.830	-57.543	0.244	-0.105
-233.815	638.149	-0.108	0.271
-232.800	-175.850	0.127	-0.003
-231.786	-150.497	0.263	-0.020
-230.771	100.923	0.041	0.047
-229.757	98.822	0.256	0.291
-228.742	240.548	0.096	-0.158
-227.727	-17.413	-0.158	0.098
-226.713	701.760	-0.105	0.273
-225.698	-179.897	0.204	-0.004
-224.684	800.000	-0.052	-0.195
-223.669	267.343	0.178	-0.306
-222.655	15.117	-0.225	0.173
-221.640	800.000	-0.121	0.366
-220.625	0.775	0.122	0.086
-219.611	-41.851	-0.044	-0.022
-218.596	-200.000	-0.077	-0.334
-217.582	448.255	-0.049	0.106
-216.567	-153.784	0.014	0.001
-215.552	-2.077	0.261	-0.181
-214.538	-16.625	0.092	-0.057
-213.523	-15.135	0.286	0.180
-212.509	-42.968	0.069	-0.034
-211.494	800.000	0.063	0.175
-210.479	-23.917	-0.155	0.092
-209.465	-52.418	0.162	-0.074
-208.450	-200.000	0.061	0.271
-207.436	-21.397	0.102	0.061
-206.421	-200.000	-0.039	0.305
-205.406	-108.104	-0.477	0.102
-204.392	-96.666	0.148	0.038
-203.377	-145.631	0.301	-0.027
-202.363	-47.150	-0.379	0.182
-201.348	-37.494	0.131	0.069
-200.333	574.235	-0.173	0.415
-199.319	-84.374	0.038	0.012
-198.304	268.273	0.164	-0.283
-197.290	-200.000	0.009	0.050
-196.275	-200.000	0.032	0.143
-195.260	-99.144	0.096	0.024
-194.246	-200.000	0.030	-0.231
-193.231	323.647	0.105	-0.197
-192.217	136.329	0.088	0.113
-191.202	-200.000	0.009	-0.174
-190.187	90.961	-0.223	0.246
-189.173	-152.892	0.177	0.012
-188.158	15.606	0.065	-0.050
-187.144	-114.228	0.037	-0.007
-186.129	-200.000	0.041	-0.190
-185.114	800.000	-0.024	0.102
-184.100	138.009	-0.148	0.191
-183.085	128.768	0.087	0.109
-182.071	-200.000	0.034	-0.181
-181.056	301.134	0.119	0.215
-180.042	-12.915	0.117	0.075
-179.027	-87.673	0.415	0.123
-178.012	22.325	-0.290	0.233
-176.998	-83.158	-0.055	-0.017
-175.983	243.495	0.123	-0.202
-174.969	-200.000	-0.028	0.194
-173.954	13.481	0.262	-0.200
-172.939	-200.000	0.062	-0.360
-171.925	-108.932	0.267	-0.056
-170.910	-99.945	-0.195	0.048
-169.896	24.098	0.367	-0.298
-168.881	-57.355	-0.199	0.086
-167.866	40.690	0.151	-0.133
-166.852	142.400	-0.213	0.277
-165.837	-200.000	0.015	-0.223
-164.823	89.195	0.275	-0.301
-163.808	-200.000	0.060	-0.509
-162.793	-200.000	-0.091	-0.407
-161.779	-200.000	-0.025	-0.123
-160.764	-130.047	0.095	-0.013
-159.750	1.998	0.254	0.180
-158.735	800.000	0.057	-0.232
-157.720	-36.534	-0.225	0.119
-156.706	-200.000	-0.029	0.206
-155.691	42.676	0.052	-0.046
-154.677	-200.000	-0.044	0.284
-153.662	-57.283	-0.125	0.054
-152.647	156.464	-0.103	-0.139
-151.633	-146.288	-0.247	-0.021
-150.618	244.555	-0.200	0.330
-149.604	4.307	0.314	-0.226
-148.589	20.343	0.092	-0.073
-147.574	130.564	-0.210	0.265
-146.560	162.570	0.179	0.247
-145.545	262.059	-0.120	-0.204
-144.531	-53.426	-0.150	0.068
-143.516	-92.578	-0.279	-0.077
-142.502	242.551	-0.129	0.211
-141.487	-40.192	0.104	-0.053
-140.472	-104.999	0.125	0.028
-139.458	147.910	-0.064	-0.084
-138.443	-6.729	0.104	0.069
-137.429	37.777	0.023	0.020
-136.414	30.841	-0.131	-0.110
-135.399	-115.773	-0.162	0.030
-134.385	-179.696	-0.237	0.005
-133.370	-125.671	0.264	0.039
-132.356	-102.391	0.171	-0.040
-131.341	-137.462	0.424	-0.047
-130.326	321.757	-0.046	0.086
-129.312	-27.914	0.057	-0.032
-128.297	106.702	-0.234	-0.272
-127.283	190.794	-0.064	0.095
-126.268	30.434	-0.137	0.115
-125.253	-154.894	-0.283	-0.018
-124.239	2.668	0.182	0.129
-123.224	800.000	-0.026	0.090
-122.210	528.498	-0.158	-0.366
-121.195	-53.110	0.119	0.054
