DTS Sentinel unit serial number:	SN413079Multiplexer serial number:	ORYXHardware model number:	OX4-SRSoftware version number:	ORYX F/W v4.00 Oryx Data Collector v3.7.2.0data status	okinstallation	princeton_trtdifferential loss correction	single-endedforward channel	channel 4reverse channel	N/Adate	2019/09/16time	08:33:35forward acquisition time	60.00reverse acquisition time	0.00gamma	496.2192k internal	0.2312k external	0.2312temperature offset calibration	0.9979default loss term (dB/km)	0.3790temperature slope calibration	1.0000multiplexer offset coefficient	1.0000multiplexer slope coefficient	1.0000fibre end	0.00T internal ref (°C)	29.41T ext. ref 1 (°C)	11.92T ext. ref 2 (°C)	26.02length (m)	temperature (°C)	Stokes	anti-Stokes-747.200	-88.468	-0.143	0.043
-746.185	779.171	0.115	0.319
-745.171	137.848	-0.150	0.199
-744.156	219.580	-0.026	0.043
-743.142	48.668	-0.092	0.087
-742.127	-54.088	-0.194	0.090
-741.112	8.430	0.183	0.139
-740.098	-78.579	-0.103	0.036
-739.083	-65.861	0.126	0.051
-738.069	-40.303	-0.135	0.071
-737.054	410.263	0.041	-0.088
-736.039	-200.000	-0.017	-0.127
-735.025	-70.689	0.262	0.100
-734.010	308.252	-0.172	-0.325
-732.996	-96.984	-0.317	-0.084
-731.981	800.000	0.009	0.031
-730.966	-75.678	-0.059	0.021
-729.952	-46.030	-0.191	-0.096
-728.937	56.367	-0.248	-0.245
-727.923	540.897	-0.127	0.306
-726.908	314.585	-0.256	-0.489
-725.894	-184.554	0.279	-0.005
-724.879	-200.000	0.008	0.059
-723.864	-71.498	-0.152	0.058
-722.850	-53.529	0.128	-0.059
-721.835	19.542	-0.059	-0.048
-720.821	-175.166	0.071	0.002
-719.806	381.874	0.102	-0.213
-718.791	-200.000	0.009	-0.122
-717.777	-128.905	-0.088	-0.013
-716.762	89.688	0.306	-0.346
-715.748	-200.000	0.088	-0.422
-714.733	179.811	-0.057	-0.085
-713.718	800.000	-0.042	-0.183
-712.704	-200.000	-0.010	-0.052
-711.689	-96.737	-0.352	-0.094
-710.675	-32.908	0.045	0.026
-709.660	-128.821	-0.475	-0.068
-708.645	-200.000	-0.025	-0.146
-707.631	800.000	0.034	-0.098
-706.616	-64.195	-0.155	0.064
-705.602	-200.000	0.064	-0.563
-704.587	-200.000	-0.013	-0.280
-703.572	-200.000	0.011	-0.062
-702.558	-200.000	0.006	-0.412
-701.543	-57.753	0.378	-0.168
-700.529	-30.199	0.359	0.207
-699.514	11.099	0.072	-0.056
-698.499	-200.000	0.015	-0.091
-697.485	227.069	0.142	-0.234
-696.470	51.628	-0.088	-0.085
-695.456	-93.328	0.242	-0.068
-694.441	-87.262	0.080	-0.025
-693.426	-200.000	0.050	0.427
-692.412	373.684	-0.087	-0.179
-691.397	4.031	-0.298	-0.221
-690.383	-157.102	-0.114	0.007
-689.368	-200.000	-0.050	-0.497
-688.354	-200.000	-0.008	-0.268
-687.339	800.000	0.066	0.209
-686.324	-40.301	0.375	0.197
-685.310	-40.782	-0.158	-0.083
-684.295	71.765	-0.161	0.169
-683.281	-200.000	0.005	-0.149
-682.266	260.298	-0.122	0.213
-681.251	-61.820	-0.243	-0.103
-680.237	-20.897	-0.122	0.076
-679.222	-138.497	0.277	-0.031
-678.208	-103.791	0.221	0.052
-677.193	800.000	-0.093	-0.297
-676.178	-200.000	0.002	-0.085
-675.164	-74.165	0.292	-0.107
-674.149	-31.689	-0.322	-0.183
-673.135	773.135	0.063	-0.173
-672.120	800.000	-0.066	0.277
-671.105	568.224	-0.121	-0.297
-670.091	800.000	0.079	-0.341
-669.076	-200.000	0.034	-0.275
-668.062	-88.282	-0.477	-0.144
-667.047	800.000	0.117	0.403
-666.032	800.000	-0.042	-0.157
-665.018	-200.000	0.023	-0.148
-664.003	-145.577	-0.284	0.026
-662.989	-200.000	0.292	0.001
-661.974	-80.588	0.027	0.009
-660.959	-51.301	0.030	0.014
-659.945	-200.000	-0.022	-0.355
-658.930	-10.997	0.139	0.093
-657.916	-162.951	0.415	-0.020
-656.901	800.000	0.070	-0.233
-655.886	-74.498	-0.127	0.046
-654.872	78.645	-0.044	-0.047
-653.857	-85.688	-0.262	-0.082
-652.843	-147.059	-0.308	0.027
-651.828	2.093	0.261	0.191
-650.814	19.170	0.096	-0.078
-649.799	-33.269	0.165	-0.092
-648.784	-200.000	-0.001	0.164
-647.770	-21.898	0.230	-0.141
-646.755	-52.572	0.208	0.097
-645.741	800.000	-0.064	-0.217
-644.726	800.000	0.042	0.135
-643.711	-200.000	-0.006	0.091
-642.697	164.842	0.131	0.188
-641.682	-61.438	-0.389	-0.166
-640.668	-200.000	-0.003	-0.151
-639.653	136.972	0.146	-0.193
-638.638	-200.000	-0.017	0.204
-637.624	-41.032	-0.159	-0.083
-636.609	-28.946	0.231	0.134
-635.595	-26.566	-0.385	0.228
-634.580	417.012	0.062	0.133
-633.565	-200.000	-0.013	-0.103
-632.551	-146.367	-0.374	0.033
-631.536	-139.605	0.357	0.038
-630.522	-200.000	0.018	-0.192
-629.507	47.470	0.248	-0.234
-628.492	-93.552	-0.248	0.069
-627.478	800.000	0.095	0.298
-626.463	-103.844	0.175	0.041
-625.449	-55.285	-0.196	-0.089
-624.434	-114.687	-0.277	-0.053
-623.419	-93.180	-0.344	0.097
-622.405	77.755	-0.121	-0.130
-621.390	47.652	0.159	-0.149
-620.376	228.714	-0.158	-0.259
-619.361	177.793	0.083	-0.122
-618.346	91.443	-0.138	0.157
-617.332	-200.000	-0.017	-0.152
-616.317	2.450	-0.083	0.060
-615.303	-200.000	0.024	0.238
-614.288	151.275	-0.186	-0.256
-613.273	-68.850	0.241	0.094
-612.259	-39.683	-0.232	-0.122
-611.244	9.152	0.231	-0.176
-610.230	-44.292	-0.324	-0.164
-609.215	-200.000	-0.025	-0.431
-608.201	-200.000	-0.001	-0.047
-607.186	136.106	0.147	0.194
-606.171	-1.093	-0.207	-0.147
-605.157	210.724	-0.027	-0.043
-604.142	-200.000	-0.038	0.224
-603.128	591.615	-0.131	-0.325
-602.113	271.343	0.094	0.168
-601.098	800.000	0.081	0.286
-600.084	-122.593	-0.158	-0.026
-599.069	-151.196	-0.354	0.027
-598.055	-50.465	-0.125	-0.060
-597.040	233.577	-0.028	0.046
-596.025	50.272	0.351	-0.335
-595.011	-21.773	-0.166	-0.102
-593.996	800.000	-0.061	-0.258
-592.982	174.972	0.073	-0.107
-591.967	-83.684	0.121	0.039
-590.952	-200.000	-0.081	-0.440
-589.938	-52.659	0.354	0.165
-588.923	-123.417	-0.403	0.065
-587.909	-138.526	-0.114	-0.013
-586.894	-200.000	-0.007	0.045
-585.879	-90.960	0.251	0.073
-584.865	171.967	0.044	-0.064
-583.850	-118.277	-0.035	-0.006
-582.836	-15.312	-0.099	0.064
-581.821	-200.000	0.008	0.260
-580.806	682.483	-0.027	-0.072
-579.792	-166.248	-0.194	-0.008
-578.777	-167.410	-0.229	-0.009
-577.763	107.973	-0.129	-0.155
-576.748	177.579	-0.117	0.171
-575.733	800.000	0.062	0.175
-574.719	-19.065	-0.347	-0.217
-573.704	-54.891	-0.273	-0.124
-572.690	172.029	0.135	0.195
-571.675	99.337	0.202	0.235
-570.661	-9.933	0.102	0.068
-569.646	187.997	-0.204	0.307
-568.631	-200.000	-0.070	0.323
-567.617	-74.286	0.398	0.145
-566.602	-200.000	-0.031	-0.342
-565.588	136.690	-0.219	0.288
-564.573	-23.610	-0.220	0.133
-563.558	-200.000	-0.053	0.236
-562.544	176.462	0.160	0.234
-561.529	27.505	-0.270	0.229
-560.515	-62.452	-0.225	0.094
-559.500	42.741	0.139	-0.127
-558.485	-48.020	0.311	-0.151
-557.471	4.993	-0.250	-0.185
-556.456	800.000	-0.042	-0.138
-555.442	-72.077	-0.105	0.039
-554.427	320.849	0.075	0.143
-553.412	38.786	0.233	-0.209
-552.398	-200.000	-0.003	0.216
-551.383	-64.604	-0.379	-0.155
-550.369	-200.000	-0.013	0.140
-549.354	-119.388	0.134	-0.023
-548.339	-54.385	-0.092	0.042
-547.325	-11.058	0.155	-0.103
-546.310	-200.000	0.011	-0.139
-545.296	-200.000	0.011	-0.093
-544.281	-41.593	0.167	0.087
-543.266	151.062	0.113	0.154
-542.252	800.000	-0.048	0.202
-541.237	-200.000	0.012	-0.060
-540.223	-200.000	-0.013	-0.335
-539.208	-200.000	0.011	0.146
-538.193	130.899	0.088	-0.113
-537.179	-126.040	0.265	-0.040
-536.164	-157.347	0.174	0.011
-535.150	55.630	0.036	-0.035
-534.135	-95.890	0.530	-0.142
-533.121	-66.593	0.075	0.030
-532.106	-145.912	0.265	0.024
-531.091	800.000	-0.097	0.305
-530.077	371.642	-0.022	-0.046
-529.062	-200.000	0.050	-0.222
-528.048	-18.400	0.126	-0.079
-527.033	-200.000	0.004	-0.082
-526.018	767.841	-0.053	0.144
-525.004	-79.166	0.217	-0.074
-523.989	68.536	0.146	-0.151
-522.975	-62.921	-0.263	-0.110
-521.960	-0.033	0.062	0.045
-520.945	-138.272	0.188	-0.021
-519.931	-110.223	0.252	0.053
-518.916	-148.168	0.167	-0.014
-517.902	-34.367	0.104	-0.058
-516.887	-174.477	0.087	-0.003
-515.872	-143.046	-0.260	0.025
-514.858	-140.023	0.477	-0.051
-513.843	800.000	0.035	-0.136
-512.829	118.750	-0.129	-0.160
-511.814	388.607	-0.035	0.073
-510.799	115.035	-0.178	0.219
-509.785	-19.929	-0.089	0.055
-508.770	-180.188	-0.209	-0.004
-507.756	400.345	0.088	-0.186
-506.741	-122.158	-0.104	0.017
-505.726	441.607	-0.177	0.390
-504.712	-150.863	0.267	0.020
-503.697	-74.403	0.098	-0.036
-502.683	191.185	0.191	-0.289
-501.668	213.318	-0.228	-0.361
-500.653	-200.000	-0.009	-0.142
-499.639	280.679	-0.183	-0.329
-498.624	-116.598	-0.154	-0.028
-497.610	-10.515	-0.074	-0.049
-496.595	716.714	0.144	0.383
-495.581	47.375	0.300	0.281
-494.566	-182.066	0.118	0.002
-493.551	196.055	0.277	0.424
-492.537	139.111	0.180	-0.238
-491.522	-200.000	-0.015	-0.175
-490.508	800.000	-0.123	0.371
-489.493	-200.000	-0.002	0.323
-488.478	-137.829	-0.326	0.037
-487.464	-156.991	-0.465	-0.029
-486.449	253.999	0.217	-0.373
-485.435	-200.000	-0.015	-0.255
-484.420	-200.000	-0.050	-0.367
-483.405	-12.910	-0.098	-0.064
-482.391	-66.527	-0.242	0.096
-481.376	195.655	0.044	-0.067
-480.362	-42.075	-0.031	-0.016
-479.347	800.000	0.145	0.427
-478.332	-200.000	-0.028	-0.362
-477.318	-200.000	-0.044	0.420
-476.303	396.005	0.040	0.085
-475.289	42.924	0.131	-0.120
-474.274	800.000	-0.098	0.340
-473.259	133.954	0.163	0.212
-472.245	-200.000	0.044	-0.327
-471.230	298.447	-0.160	0.295
-470.216	130.646	0.346	0.445
-469.201	-53.063	-0.178	-0.082
-468.186	-51.395	-0.119	-0.056
-467.172	649.858	-0.069	0.176
-466.157	-139.515	0.217	-0.023
-465.143	-200.000	0.036	-0.377
-464.128	274.457	0.070	0.124
-463.113	-200.000	-0.011	0.277
-462.099	323.653	-0.073	0.139
-461.084	-50.550	-0.015	-0.007
-460.070	800.000	0.115	0.385
-459.055	209.454	-0.027	-0.042
-458.040	800.000	0.013	-0.043
-457.026	-112.520	0.274	0.055
-456.011	615.973	0.074	-0.186
-454.997	800.000	0.053	0.216
-453.982	-200.000	-0.026	0.258
-452.968	251.219	-0.150	0.256
-451.953	-200.000	-0.068	-0.359
-450.938	800.000	-0.143	0.399
-449.924	541.491	0.074	-0.176
-448.909	-200.000	-0.034	-0.389
-447.895	69.398	0.133	-0.137
-446.880	-198.674	-0.146	-0.001
-445.865	-200.000	-0.022	0.137
-444.851	-54.898	0.191	0.086
-443.836	-200.000	-0.005	0.156
-442.822	-39.294	0.269	-0.141
-441.807	81.095	-0.032	0.035
-440.792	751.411	-0.038	0.102
-439.778	-134.818	0.109	0.013
-438.763	293.820	0.182	-0.333
-437.749	-80.690	0.277	-0.092
-436.734	143.064	-0.118	-0.158
-435.719	-150.493	0.284	0.022
-434.705	107.387	-0.129	0.153
-433.690	344.932	0.106	0.208
-432.676	800.000	0.076	-0.258
-431.661	800.000	-0.066	-0.232
-430.646	64.519	0.132	-0.133
-429.632	-138.840	0.143	0.016
-428.617	44.374	-0.158	0.146
-427.603	-123.093	0.228	-0.037
-426.588	243.877	0.130	-0.218
-425.573	70.717	0.303	-0.314
-424.559	-105.729	-0.159	-0.036
-423.544	260.096	-0.174	0.302
-422.530	230.347	0.074	0.121
-421.515	344.566	-0.080	-0.157
-420.500	-200.000	0.063	0.371
-419.486	-84.064	-0.162	-0.051
-418.471	227.339	-0.063	-0.103
-417.457	772.923	-0.116	-0.317
-416.442	-13.823	-0.312	-0.202
-415.428	800.000	-0.195	-0.652
-414.413	-200.000	-0.015	-0.087
-413.398	737.896	-0.062	0.168
-412.384	685.406	-0.100	0.262
-411.369	-45.985	-0.235	-0.116
-410.355	-115.319	-0.567	-0.107
-409.340	-70.111	-0.080	-0.031
-408.325	-200.000	-0.002	-0.146
-407.311	588.302	-0.056	-0.139
-406.296	800.000	0.107	0.453
-405.282	-125.792	-0.061	-0.009
-404.267	366.984	0.111	0.224
-403.252	800.000	0.019	-0.078
-402.238	267.288	-0.102	-0.178
-401.223	-118.517	-0.174	-0.031
-400.209	-145.395	-0.205	-0.018
-399.194	800.000	-0.013	-0.048
-398.179	-16.630	0.278	0.176
-397.165	73.338	0.034	-0.036
-396.150	34.445	0.250	0.219
-395.136	-96.166	-0.237	0.063
-394.121	-200.000	-0.005	-0.335
-393.106	-35.073	-0.258	-0.141
-392.092	800.000	0.053	-0.222
-391.077	12.375	0.020	-0.016
-390.063	-81.270	0.129	0.042
-389.048	102.650	-0.051	0.060
-388.033	139.336	-0.136	0.179
-387.019	459.226	0.135	-0.301
-386.004	-101.007	0.348	0.085
-384.990	33.018	-0.127	0.110
-383.975	800.000	-0.023	-0.095
-382.960	-200.000	-0.032	-0.150
-381.946	-200.000	0.000	-0.040
-380.931	-200.000	0.007	0.199
-379.917	-200.000	0.006	0.152
-378.902	-96.744	-0.213	-0.056
-377.888	800.000	-0.129	0.434
-376.873	30.510	0.050	-0.043
-375.858	-33.736	0.280	-0.154
-374.844	-200.000	0.068	0.304
-373.829	210.590	0.143	-0.224
-372.815	-200.000	-0.005	0.174
-371.800	-143.596	0.121	0.011
-370.785	-44.147	-0.250	0.125
-369.771	-49.873	-0.433	0.205
-368.756	-55.418	0.125	0.056
-367.742	19.758	-0.224	-0.181
-366.727	-50.349	-0.191	-0.090
-365.712	800.000	0.103	-0.347
-364.698	71.839	-0.075	0.078
-363.683	298.540	-0.174	-0.319
-362.669	285.268	0.140	0.252
-361.654	100.580	-0.258	-0.299
-360.639	-76.070	0.335	0.118
-359.625	800.000	-0.025	0.107
-358.610	32.897	-0.137	-0.118
-357.596	-200.000	0.063	0.312
-356.581	343.831	0.033	-0.065
-355.566	94.629	0.076	-0.087
-354.552	-200.000	-0.017	-0.197
-353.537	106.190	0.092	-0.109
-352.523	800.000	0.174	0.509
-351.508	-197.511	-0.252	-0.002
-350.493	-76.388	0.139	0.049
-349.479	-200.000	0.018	-0.210
-348.464	240.038	0.103	-0.171
-347.450	82.195	0.157	0.170
-346.435	-78.229	0.322	-0.111
-345.420	82.228	-0.158	0.171
-344.406	180.032	-0.228	0.334
-343.391	127.519	0.202	0.256
-342.377	375.998	-0.058	-0.118
-341.362	-4.192	-0.104	-0.072
-340.348	800.000	-0.038	0.134
-339.333	-127.707	0.020	-0.003
-338.318	800.000	-0.135	-0.380
-337.304	412.936	-0.134	0.285
-336.289	800.000	0.020	-0.068
-335.275	21.765	0.296	0.241
-334.260	-200.000	0.017	-0.114
-333.245	-32.342	0.164	0.091
-332.231	-188.962	-0.112	0.001
-331.216	-88.266	-0.435	0.130
-330.202	-200.000	0.011	0.220
-329.187	164.774	0.131	0.184
-328.172	-164.362	-0.249	-0.011
-327.158	598.514	0.075	-0.187
-326.143	800.000	0.020	0.070
-325.129	23.916	0.068	0.056
-324.114	-4.947	0.155	-0.107
-323.099	114.663	-0.181	-0.221
-322.085	414.203	0.026	-0.055
-321.070	27.580	-0.152	0.128
-320.056	-118.386	0.079	-0.014
-319.041	-108.309	-0.059	0.013
-318.026	-200.000	0.001	0.018
-317.012	-200.000	0.037	-0.401
-315.997	-145.947	0.094	-0.008
-314.983	150.509	-0.070	0.095
-313.968	669.755	-0.154	-0.399
-312.953	-200.000	-0.043	0.272
-311.939	-43.941	-0.254	-0.128
-310.924	82.648	-0.060	-0.065
-309.910	800.000	-0.028	0.104
-308.895	-35.719	0.364	0.197
-307.880	400.625	0.111	0.231
-306.866	73.626	-0.320	-0.334
-305.851	197.819	-0.188	-0.287
-304.837	-200.000	0.000	-0.166
-303.822	800.000	-0.067	0.275
-302.807	-200.000	-0.019	-0.115
-301.793	-200.000	0.015	-0.235
-300.778	-15.912	0.026	0.016
-299.764	-126.988	-0.205	0.030
-298.749	-200.000	0.005	0.120
-297.735	-51.056	-0.245	-0.114
-296.720	324.249	-0.055	-0.105
-295.705	-200.000	0.014	-0.229
-294.691	189.461	-0.052	0.077
-293.676	-106.411	0.058	-0.013
-292.662	0.589	0.198	0.141
-291.647	-51.668	-0.186	-0.086
-290.632	27.098	0.172	0.144
-289.618	-65.076	-0.108	-0.043
-288.603	73.145	0.106	0.110
-287.589	-98.104	0.283	-0.072
-286.574	-91.429	0.071	0.020
-285.559	-200.000	-0.030	-0.420
-284.545	800.000	0.030	-0.116
-283.530	-84.117	-0.156	0.049
-282.516	-126.845	0.352	0.052
-281.501	800.000	-0.070	-0.250
-280.486	-9.856	-0.249	0.165
-279.472	116.379	0.268	0.327
-278.457	67.506	0.069	0.070
-277.443	188.542	-0.144	0.214
-276.428	-200.000	-0.043	0.422
-275.413	440.603	-0.066	0.143
-274.399	606.555	-0.084	0.209
-273.384	800.000	0.037	0.111
-272.370	-85.106	-0.092	0.029
-271.355	76.799	0.065	-0.068
-270.340	45.904	-0.134	0.124
-269.326	-85.927	0.321	-0.099
-268.311	-22.482	0.112	-0.067
-267.297	-8.447	-0.305	0.204
-266.282	-16.552	0.157	-0.099
-265.267	-60.429	0.196	-0.083
-264.253	-100.295	-0.037	0.009
-263.238	500.213	0.063	0.145
-262.224	-32.501	-0.057	-0.032
-261.209	-65.091	0.213	0.085
-260.195	17.270	0.391	-0.309
-259.180	265.780	-0.159	-0.276
-258.165	-166.046	-0.159	-0.007
-257.151	61.829	-0.140	0.139
-256.136	116.174	-0.126	-0.153
-255.122	-23.031	-0.151	-0.091
-254.107	-89.954	0.345	0.100
-253.092	800.000	0.036	-0.105
-252.078	-156.128	0.086	0.005
-251.063	-119.551	0.150	0.026
-250.049	-92.009	-0.269	-0.076
-249.034	-200.000	-0.063	-0.282
-248.019	45.627	0.226	-0.208
-247.005	75.657	0.220	0.232
-245.990	-121.968	-0.215	0.035
-244.976	800.000	-0.074	-0.241
-243.961	128.075	-0.332	-0.420
-242.946	-56.495	0.254	-0.112
-241.932	-0.040	-0.150	0.106
-240.917	103.043	0.218	0.255
-239.903	-16.478	0.045	0.028
-238.888	-80.529	-0.293	-0.097
-237.873	-200.000	0.051	0.291
-236.859	-129.124	0.188	0.026
-235.844	298.762	-0.099	-0.182
-234.830	124.963	0.054	-0.068
-233.815	380.058	-0.074	-0.151
-232.800	420.273	-0.121	-0.258
-231.786	-200.000	-0.050	0.227
-230.771	367.034	0.125	0.251
-229.757	-135.401	0.096	-0.011
-228.742	-200.000	0.045	0.279
-227.727	36.403	-0.315	0.276
-226.713	90.655	-0.113	-0.126
-225.698	-51.085	-0.179	-0.084
-224.684	-36.302	-0.095	0.051
-223.669	149.407	-0.089	-0.120
-222.655	111.151	-0.236	0.283
-221.640	363.307	0.137	-0.273
-220.625	-129.932	-0.231	-0.031
-219.611	1.772	-0.362	-0.259
-218.596	556.661	-0.127	0.305
-217.582	-37.075	-0.244	-0.130
-216.567	-200.000	-0.002	0.116
-215.552	-15.115	-0.077	0.049
-214.538	145.898	-0.049	0.065
-213.523	194.188	0.144	0.218
-212.509	-57.929	0.038	0.016
-211.494	800.000	-0.017	0.053
-210.479	-200.000	-0.032	0.166
-209.465	49.406	0.132	0.123
-208.450	163.325	0.113	0.157
-207.436	800.000	-0.022	0.065
-206.421	800.000	-0.068	0.268
-205.406	-18.063	-0.111	0.069
-204.392	-44.449	0.189	-0.094
-203.377	-200.000	-0.034	-0.442
-202.363	-8.396	0.309	0.207
-201.348	800.000	-0.055	-0.170
-200.333	-200.000	-0.025	-0.190
-199.319	-7.824	0.396	-0.266
-198.304	143.777	0.074	-0.098
-197.290	800.000	0.002	0.006
-196.275	-172.271	0.364	0.012
-195.260	-34.793	0.276	-0.150
-194.246	602.349	-0.058	-0.143
-193.231	-96.740	-0.278	0.073
-192.217	-100.920	0.414	0.101
-191.202	300.047	0.146	0.267
-190.187	-90.455	0.200	0.058
-189.173	800.000	-0.042	-0.171
-188.158	322.302	-0.045	0.084
-187.144	99.618	0.257	-0.295
-186.129	151.942	0.142	0.192
-185.114	800.000	-0.024	0.105
-184.100	79.433	0.043	-0.046
-183.085	239.801	-0.107	-0.177
-182.071	800.000	0.071	0.251
-181.056	34.725	0.073	0.063
-180.042	-200.000	-0.004	0.238
-179.027	206.352	-0.125	0.194
-178.012	191.120	0.232	0.346
-176.998	-14.578	0.411	0.262
-175.983	-49.111	0.138	-0.066
-174.969	-117.266	0.109	-0.020
-173.954	37.492	0.084	0.074
-172.939	-9.499	0.268	-0.178
-171.925	252.149	-0.181	0.307
-170.910	398.231	0.138	0.286
-169.896	674.321	-0.100	0.258
-168.881	-200.000	-0.005	0.196
-167.866	-200.000	-0.027	-0.161
-166.852	800.000	-0.029	0.123
-165.837	-140.222	-0.100	-0.010
-164.823	-0.462	-0.032	0.022
-163.808	-200.000	0.012	0.180
-162.793	800.000	-0.039	0.166
-161.779	544.304	-0.060	-0.142
-160.764	-200.000	0.043	-0.429
-159.750	-49.012	0.393	-0.186
-158.735	-89.065	0.281	-0.082
-157.720	-105.872	-0.067	0.015
-156.706	98.016	0.027	0.031
-155.691	76.982	-0.159	0.168
-154.677	-59.966	-0.120	0.051
-153.662	-200.000	-0.039	-0.510
-152.647	62.505	0.155	-0.153
-151.633	221.367	-0.373	-0.595
-150.618	-113.065	0.081	-0.016
-149.604	110.550	-0.129	0.154
-148.589	800.000	0.074	0.234
-147.574	693.572	0.025	-0.065
-146.560	-7.370	-0.169	0.114
-145.545	84.032	0.323	0.350
-144.531	535.949	0.105	0.246
-143.516	800.000	-0.050	-0.148
-142.502	-143.956	-0.180	0.017
-141.487	183.122	0.167	-0.245
-140.472	241.875	0.174	0.289
-139.458	162.687	0.186	0.258
-138.443	-80.002	0.120	-0.040
-137.429	-56.740	0.119	0.052
-136.414	9.262	0.045	-0.034
-135.399	13.290	0.323	-0.248
-134.385	-148.146	0.379	0.031
-133.370	-67.719	-0.275	0.106
-132.356	308.878	0.121	-0.225
-131.341	152.386	-0.192	0.259
-130.326	91.978	-0.161	0.179
-129.312	258.647	-0.060	-0.103
-128.297	212.946	-0.052	-0.081
-127.283	800.000	0.053	-0.222
-126.268	800.000	0.092	-0.330
-125.253	232.919	-0.069	-0.113
-124.239	105.392	-0.071	-0.083
-123.224	-200.000	-0.041	-0.388
