DTS Sentinel unit serial number:	SN413079Multiplexer serial number:	ORYXHardware model number:	OX4-SRSoftware version number:	ORYX F/W v4.00 Oryx Data Collector v3.7.2.0data status	okinstallation	princeton_trtdifferential loss correction	single-endedforward channel	channel 4reverse channel	N/Adate	2019/09/13time	22:29:35forward acquisition time	60.00reverse acquisition time	0.00gamma	496.2192k internal	0.2319k external	0.2319temperature offset calibration	1.0139default loss term (dB/km)	0.3790temperature slope calibration	1.0000multiplexer offset coefficient	1.0000multiplexer slope coefficient	1.0000fibre end	0.00T internal ref (°C)	27.75T ext. ref 1 (°C)	3.25T ext. ref 2 (°C)	22.19length (m)	temperature (°C)	Stokes	anti-Stokes-747.200	54.068	0.196	0.191
-746.185	221.486	-0.062	0.101
-745.171	258.370	-0.156	0.272
-744.156	-109.771	-0.273	0.058
-743.142	68.920	0.115	0.119
-742.127	-155.118	0.184	0.012
-741.112	-200.000	0.023	0.220
-740.098	-200.000	0.052	-0.280
-739.083	33.379	0.099	-0.087
-738.069	-200.000	-0.050	0.306
-737.054	118.294	0.119	0.148
-736.039	-200.000	0.010	-0.195
-735.025	800.000	0.050	0.185
-734.010	800.000	-0.093	-0.346
-732.996	252.623	0.122	-0.210
-731.981	-125.154	0.206	0.032
-730.966	79.038	0.218	0.236
-729.952	218.101	0.033	0.053
-728.937	-200.000	0.003	-0.073
-727.923	119.082	0.142	0.177
-726.908	76.083	-0.081	-0.087
-725.894	-200.000	-0.020	-0.341
-724.879	-75.114	0.170	-0.061
-723.864	124.768	-0.120	0.153
-722.850	-80.133	-0.077	-0.026
-721.835	-20.011	0.149	0.093
-720.821	-200.000	-0.025	-0.170
-719.806	47.773	0.110	-0.104
-718.791	300.175	-0.099	0.184
-717.777	-40.054	-0.161	-0.085
-716.762	800.000	0.095	-0.384
-715.748	-200.000	0.004	-0.089
-714.733	-14.711	-0.442	-0.287
-713.718	-1.895	-0.216	0.154
-712.704	-200.000	-0.012	0.161
-711.689	427.927	0.045	-0.098
-710.675	394.347	0.042	-0.089
-709.660	-200.000	0.004	-0.028
-708.645	146.610	-0.189	-0.256
-707.631	164.765	0.236	0.336
-706.616	-15.333	0.226	-0.146
-705.602	-26.302	0.105	0.062
-704.587	131.491	0.273	-0.355
-703.572	28.104	-0.223	0.190
-702.558	27.051	0.163	0.138
-701.543	-200.000	0.015	0.298
-700.529	663.852	0.117	0.305
-699.514	7.718	-0.319	0.241
-698.499	800.000	-0.049	0.188
-697.485	253.636	0.156	-0.269
-696.470	-181.378	0.162	-0.003
-695.456	-74.915	0.146	-0.053
-694.441	-200.000	-0.005	-0.124
-693.426	-188.303	0.197	0.003
-692.412	140.119	0.104	-0.138
-691.397	-200.000	-0.010	-0.047
-690.383	147.799	0.215	-0.293
-689.368	800.000	-0.101	-0.373
-688.354	91.610	0.202	-0.229
-687.339	-143.361	-0.114	0.011
-686.324	163.609	0.190	-0.270
-685.310	627.773	0.077	0.196
-684.295	-144.417	-0.303	0.028
-683.281	-56.668	-0.135	-0.060
-682.266	55.337	0.161	0.157
-681.251	52.438	-0.136	0.131
-680.237	800.000	-0.018	0.071
-679.222	-126.442	0.353	-0.053
-678.208	800.000	-0.066	-0.256
-677.193	691.704	0.113	-0.298
-676.178	259.614	0.086	0.150
-675.164	800.000	0.058	-0.229
-674.149	-200.000	0.039	-0.240
-673.135	800.000	0.051	0.186
-672.120	21.133	-0.159	0.130
-671.105	-83.802	-0.557	0.179
-670.091	800.000	0.048	0.154
-669.076	110.522	0.083	0.101
-668.062	136.612	0.166	0.219
-667.047	429.916	0.112	-0.244
-666.032	-66.683	0.204	0.082
-665.018	-171.860	-0.172	-0.006
-664.003	497.596	-0.107	0.248
-662.989	116.072	0.151	-0.187
-661.974	800.000	0.048	0.171
-660.959	-170.045	0.149	0.005
-659.945	-26.200	0.347	0.206
-658.930	282.545	-0.157	0.284
-657.916	108.113	-0.062	0.075
-656.901	-26.741	0.379	0.223
-655.886	379.723	-0.100	0.207
-654.872	220.304	-0.093	-0.150
-653.857	305.151	0.100	-0.187
-652.843	92.946	0.014	-0.016
-651.828	-50.954	-0.240	-0.114
-650.814	-181.710	0.146	-0.003
-649.799	-108.426	0.181	0.039
-648.784	-72.498	-0.225	-0.084
-647.770	-200.000	-0.033	-0.420
-646.755	334.184	-0.036	0.070
-645.741	-8.299	-0.384	0.260
-644.726	32.586	0.036	-0.031
-643.711	-56.963	0.246	0.109
-642.697	-88.629	-0.257	-0.077
-641.682	-186.993	0.132	0.002
-640.668	35.243	-0.089	-0.078
-639.653	93.922	0.155	-0.177
-638.638	-200.000	0.004	0.085
-637.624	-53.940	0.068	0.031
-636.609	33.453	-0.078	-0.068
-635.595	-64.420	0.197	0.081
-634.580	40.488	-0.278	0.252
-633.565	-115.991	-0.284	-0.053
-632.551	465.155	0.070	-0.158
-631.536	-71.654	0.288	-0.108
-630.522	-144.656	-0.595	-0.055
-629.507	-87.351	0.198	0.060
-628.492	800.000	0.053	-0.214
-627.478	307.537	-0.109	-0.205
-626.463	-5.412	0.231	-0.160
-625.449	12.592	0.148	-0.115
-624.434	296.301	0.047	-0.087
-623.419	800.000	0.083	0.281
-622.405	52.481	0.084	0.081
-621.390	800.000	0.049	0.136
-620.376	9.853	-0.321	-0.245
-619.361	-200.000	0.034	-0.228
-618.346	42.865	0.072	-0.066
-617.332	-200.000	0.030	-0.181
-616.317	-58.520	-0.253	0.110
-615.303	561.744	-0.046	-0.112
-614.288	-200.000	-0.024	-0.271
-613.273	-159.256	0.390	-0.022
-612.259	193.374	-0.224	-0.341
-611.244	4.952	-0.204	0.151
-610.230	-78.497	-0.416	0.143
-609.215	-200.000	-0.031	0.259
-608.201	4.251	0.217	-0.160
-607.186	-200.000	-0.021	-0.178
-606.171	167.311	0.017	0.024
-605.157	-89.517	-0.498	0.147
-604.142	-200.000	0.029	-0.236
-603.128	-166.312	-0.167	-0.007
-602.113	-200.000	-0.043	-0.190
-601.098	122.286	0.210	-0.263
-600.084	104.225	-0.306	0.362
-599.069	-200.000	-0.019	0.150
-598.055	-109.775	-0.249	-0.053
-597.040	207.551	-0.132	-0.207
-596.025	316.045	0.148	-0.282
-595.011	338.824	-0.085	0.167
-593.996	-130.182	0.125	-0.017
-592.982	51.192	0.144	-0.138
-591.967	-125.351	-0.049	0.008
-590.952	-174.214	-0.312	0.009
-589.938	-134.137	-0.152	0.019
-588.923	-36.052	0.232	0.126
-587.909	-103.467	0.381	0.090
-586.894	577.692	-0.024	0.059
-585.879	153.908	-0.122	-0.168
-584.865	33.169	0.069	-0.060
-583.850	360.802	0.088	0.176
-582.836	225.053	0.053	-0.086
-581.821	2.619	-0.298	-0.217
-580.806	-200.000	-0.003	-0.271
-579.792	-200.000	0.006	0.338
-578.777	-200.000	-0.033	0.242
-577.763	-123.718	-0.291	0.046
-576.748	-108.682	-0.146	-0.032
-575.733	-105.893	-0.142	-0.032
-574.719	800.000	-0.030	0.130
-573.704	800.000	0.041	0.137
-572.690	133.005	-0.110	-0.142
-571.675	9.270	-0.073	0.055
-570.661	-200.000	0.032	-0.278
-569.646	-200.000	0.030	-0.137
-568.631	-20.876	0.180	0.111
-567.617	83.714	-0.146	0.160
-566.602	280.621	0.058	-0.104
-565.588	480.693	0.069	-0.157
-564.573	-65.758	-0.091	0.037
-563.558	-200.000	0.031	-0.200
-562.544	217.093	-0.118	-0.189
-561.529	-98.778	-0.247	-0.063
-560.515	-117.161	-0.211	0.039
-559.500	56.279	-0.066	-0.065
-558.485	-50.705	0.244	0.115
-557.471	-200.000	-0.040	-0.395
-556.456	-200.000	-0.025	-0.117
-555.442	-106.146	0.236	-0.053
-554.427	45.267	0.298	-0.276
-553.412	-61.467	-0.219	-0.093
-552.398	800.000	-0.120	0.426
-551.383	-200.000	0.001	-0.325
-550.369	-147.634	0.476	-0.040
-549.354	93.840	0.190	0.216
-548.339	160.421	0.084	-0.117
-547.325	-42.565	0.124	0.064
-546.310	359.591	0.095	0.191
-545.296	800.000	-0.121	-0.425
-544.281	259.216	0.038	-0.065
-543.266	99.130	0.224	0.260
-542.252	-167.934	0.115	0.005
-541.237	-69.365	0.365	-0.141
-540.223	-87.820	-0.440	-0.133
-539.208	-122.971	-0.450	-0.073
-538.193	-69.725	-0.176	0.068
-537.179	182.549	0.077	0.114
-536.164	23.980	-0.264	-0.219
-535.150	-200.000	0.288	-0.001
-534.135	-10.996	0.053	-0.035
-533.121	-200.000	-0.060	-0.306
-532.106	800.000	0.128	-0.486
-531.091	-116.585	0.073	-0.014
-530.077	-129.310	-0.111	-0.016
-529.062	-200.000	-0.006	-0.113
-528.048	-200.000	-0.014	0.356
-527.033	159.049	0.003	0.004
-526.018	132.025	-0.048	-0.062
-525.004	64.708	0.193	-0.195
-523.989	18.426	0.090	0.072
-522.975	-200.000	0.008	0.124
-521.960	-200.000	-0.055	0.373
-520.945	-200.000	-0.035	-0.158
-519.931	11.437	0.322	0.247
-518.916	-4.548	-0.080	0.055
-517.902	-164.023	0.228	-0.011
-516.887	-151.130	-0.033	0.003
-515.872	800.000	0.053	0.203
-514.858	12.518	0.042	-0.032
-513.843	-4.993	-0.228	-0.157
-512.829	100.128	0.230	-0.268
-511.814	160.671	0.082	-0.115
-510.799	183.853	-0.093	-0.138
-509.785	-200.000	0.037	-0.199
-508.770	-200.000	-0.009	0.060
-507.756	-73.671	-0.142	0.052
-506.741	-29.471	-0.076	0.044
-505.726	-18.780	-0.168	-0.105
-504.712	-126.180	0.329	0.049
-503.697	-84.454	-0.237	0.075
-502.683	636.572	0.115	-0.293
-501.668	-87.842	0.118	-0.036
-500.653	107.510	-0.192	-0.229
-499.639	-54.170	0.236	-0.107
-498.624	24.593	-0.020	-0.016
-497.610	338.744	-0.138	0.270
-496.595	-200.000	-0.044	0.299
-495.581	-200.000	0.016	0.078
-494.566	-74.894	0.340	0.122
-493.551	32.971	-0.170	0.147
-492.537	-66.981	0.048	0.019
-491.522	-141.708	-0.151	-0.015
-490.508	800.000	-0.028	-0.103
-489.493	800.000	-0.115	0.339
-488.478	800.000	0.046	0.137
-487.464	77.362	-0.358	-0.381
-486.449	-186.604	-0.283	-0.004
-485.435	136.611	0.218	0.284
-484.420	-162.472	0.306	-0.015
-483.405	800.000	-0.039	0.156
-482.391	-200.000	-0.004	-0.065
-481.376	800.000	-0.036	-0.105
-480.362	-41.894	-0.192	0.099
-479.347	800.000	-0.083	-0.278
-478.332	120.799	-0.270	-0.336
-477.318	317.780	0.072	0.136
-476.303	800.000	0.183	0.527
-475.289	190.325	-0.166	-0.249
-474.274	800.000	-0.090	-0.299
-473.259	105.980	-0.202	0.239
-472.245	185.887	-0.064	-0.096
-471.230	68.530	-0.322	0.330
-470.216	-133.942	-0.453	0.056
-469.201	-3.656	0.272	-0.189
-468.186	-47.335	-0.176	-0.086
-467.172	800.000	0.001	-0.006
-466.157	-200.000	-0.068	0.322
-465.143	-37.288	0.158	-0.084
-464.128	493.531	-0.033	0.076
-463.113	-28.132	0.186	0.107
-462.099	-32.119	0.240	0.134
-461.084	321.761	0.114	-0.216
-460.070	-200.000	-0.055	0.271
-459.055	-106.445	-0.105	0.023
-458.040	-88.757	-0.346	-0.103
-457.026	-62.476	0.194	-0.081
-456.011	-200.000	-0.002	0.228
-454.997	-138.748	-0.088	-0.010
-453.982	27.598	0.083	0.069
-452.968	95.125	-0.207	0.236
-451.953	140.550	-0.067	-0.089
-450.938	-87.726	0.123	0.037
-449.924	-15.475	-0.208	0.133
-448.909	800.000	-0.034	-0.100
-447.895	344.268	0.103	-0.202
-446.880	210.227	-0.209	0.328
-445.865	355.519	-0.056	0.111
-444.851	-157.988	-0.208	0.012
-443.836	800.000	-0.019	-0.080
-442.822	233.926	-0.053	0.088
-441.807	129.126	0.071	-0.091
-440.792	275.624	0.024	-0.043
-439.778	311.395	0.127	-0.238
-438.763	23.223	0.229	-0.188
-437.749	302.477	-0.056	0.104
-436.734	-200.000	-0.020	0.112
-435.719	800.000	0.076	0.284
-434.705	-200.000	0.030	-0.245
-433.690	569.159	0.034	-0.081
-432.676	-84.767	-0.471	0.148
-431.661	-98.660	-0.180	-0.046
-430.646	644.783	0.101	-0.257
-429.632	800.000	-0.058	-0.203
-428.617	-2.965	0.156	0.109
-427.603	20.101	-0.273	0.220
-426.588	-64.660	0.201	0.081
-425.573	-103.921	-0.166	0.039
-424.559	-79.920	0.297	0.100
-423.544	78.836	0.250	0.267
-422.530	71.991	0.228	-0.237
-421.515	-200.000	-0.006	0.231
-420.500	-103.417	-0.253	-0.060
-419.486	-200.000	-0.024	0.223
-418.471	281.357	-0.167	0.299
-417.457	-141.957	0.092	-0.009
-416.442	108.787	-0.169	-0.201
-415.428	-57.283	-0.099	0.043
-414.413	0.413	-0.154	-0.110
-413.398	172.940	0.159	0.229
-412.384	17.769	-0.263	0.209
-411.369	-4.305	-0.101	-0.070
-410.355	33.348	0.182	0.158
-409.340	23.841	0.233	-0.191
-408.325	137.007	0.114	-0.149
-407.311	-200.000	0.013	0.061
-406.296	-65.215	0.059	-0.024
-405.282	-85.097	0.202	0.063
-404.267	-122.335	0.215	0.035
-403.252	-33.514	-0.221	0.122
-402.238	-124.442	-0.304	-0.047
-401.223	-200.000	-0.002	-0.194
-400.209	170.348	0.148	-0.211
-399.194	800.000	-0.142	0.407
-398.179	212.958	-0.237	0.374
-397.165	-120.675	0.099	-0.017
-396.150	-200.000	-0.013	-0.160
-395.136	595.557	0.044	0.109
-394.121	11.565	0.119	0.091
-393.106	-28.174	-0.157	-0.091
-392.092	-200.000	-0.030	-0.332
-391.077	52.561	-0.144	0.137
-390.063	-200.000	-0.032	0.147
-389.048	399.698	-0.013	-0.028
-388.033	431.889	0.240	0.518
-387.019	-200.000	-0.007	-0.059
-386.004	-200.000	-0.038	0.310
-384.990	-19.758	0.312	-0.192
-383.975	250.968	-0.101	-0.171
-382.960	463.635	0.122	-0.272
-381.946	4.910	-0.041	0.030
-380.931	-65.575	0.135	0.054
-379.917	16.418	-0.179	-0.141
-378.902	-23.961	-0.054	-0.032
-377.888	-200.000	-0.017	-0.148
-376.873	427.545	-0.104	0.223
-375.858	800.000	0.062	-0.229
-374.844	51.608	0.131	0.124
-373.829	97.279	-0.109	-0.125
-372.815	427.789	-0.012	-0.026
-371.800	51.602	-0.043	0.041
-370.785	800.000	-0.020	0.077
-369.771	-97.533	-0.100	0.026
-368.756	-138.164	0.240	0.027
-367.742	-39.424	0.054	0.028
-366.727	-46.041	-0.159	-0.078
-365.712	44.672	0.046	0.042
-364.698	-200.000	-0.009	-0.265
-363.683	109.335	-0.223	0.267
-362.669	-78.757	-0.039	-0.013
-361.654	-31.677	0.244	-0.136
-360.639	-200.000	-0.012	0.188
-359.625	-73.653	-0.276	-0.100
-358.610	-34.110	-0.306	-0.167
-357.596	-192.042	0.179	-0.002
-356.581	-200.000	-0.025	0.114
-355.566	114.273	-0.073	-0.089
-354.552	-160.291	-0.100	-0.005
-353.537	800.000	0.022	0.083
-352.523	-70.154	0.263	-0.100
-351.508	-62.945	-0.193	-0.079
-350.493	800.000	0.083	-0.242
-349.479	-91.864	0.228	0.064
-348.464	-200.000	0.031	-0.549
-347.450	764.854	0.036	-0.097
-346.435	639.492	0.071	0.179
-345.420	-54.404	0.205	-0.093
-344.406	-71.734	0.234	-0.087
-343.391	-23.924	-0.132	-0.079
-342.377	-200.000	-0.004	-0.039
-341.362	63.181	0.046	-0.046
-340.348	-200.000	-0.008	-0.080
-339.333	647.204	-0.069	-0.175
-338.318	38.141	0.126	0.112
-337.304	-200.000	-0.010	0.064
-336.289	-165.669	-0.344	0.015
-335.275	800.000	-0.042	-0.182
-334.260	-71.081	-0.128	0.048
-333.245	800.000	0.071	0.201
-332.231	-58.827	-0.080	0.035
-331.216	-200.000	0.025	-0.419
-330.202	800.000	-0.088	0.321
-329.187	2.657	-0.248	-0.179
-328.172	357.803	0.053	-0.104
-327.158	53.870	-0.251	0.240
-326.143	-57.459	-0.140	0.061
-325.129	115.828	0.225	0.274
-324.114	800.000	0.096	0.354
-323.099	-82.849	0.130	-0.042
-322.085	227.933	-0.114	0.184
-321.070	191.845	-0.025	0.038
-320.056	479.758	-0.105	0.238
-319.041	800.000	0.038	0.109
-318.026	20.821	0.236	0.190
-317.012	-200.000	-0.009	0.101
-315.997	-200.000	0.010	-0.060
-314.983	800.000	-0.066	-0.216
-313.968	800.000	0.039	-0.115
-312.953	127.962	0.116	-0.146
-311.939	792.577	0.080	0.220
-310.924	-200.000	-0.023	-0.372
-309.910	101.504	-0.095	-0.110
-308.895	-120.265	0.083	0.014
-307.880	800.000	0.040	-0.171
-306.866	-56.867	-0.259	0.114
-305.851	-132.240	-0.220	0.028
-304.837	165.682	0.129	-0.182
-303.822	88.726	0.076	-0.084
-302.807	146.803	-0.219	-0.292
-301.793	700.715	0.023	0.061
-300.778	-200.000	-0.018	-0.115
-299.764	-200.000	0.011	-0.197
-298.749	-64.588	0.257	0.104
-297.735	163.702	-0.028	-0.040
-296.720	-149.987	-0.413	-0.032
-295.705	-174.780	0.349	0.010
-294.691	227.609	0.089	-0.143
-293.676	-125.767	0.045	-0.007
-292.662	77.248	-0.091	0.096
-291.647	-128.103	0.309	0.044
-290.632	88.665	0.187	-0.207
-289.618	61.119	-0.254	-0.250
-288.603	55.051	-0.252	0.242
-287.589	31.994	0.240	0.205
-286.574	455.501	0.079	-0.174
-285.559	800.000	0.026	0.081
-284.545	-200.000	-0.008	0.039
-283.530	-7.974	-0.028	0.019
-282.516	-188.332	0.090	-0.001
-281.501	53.771	0.122	-0.117
-280.486	-70.033	0.111	0.042
-279.472	-22.285	-0.142	0.085
-278.457	275.900	0.148	0.260
-277.443	-63.717	0.449	0.183
-276.428	-42.814	-0.161	0.081
-275.413	498.193	0.122	0.278
-274.399	-200.000	-0.056	0.288
-273.384	-178.360	-0.532	-0.012
-272.370	66.531	-0.276	0.279
-271.355	-134.869	-0.068	-0.008
-270.340	54.812	-0.014	-0.014
-269.326	-75.449	0.071	-0.025
-268.311	87.373	-0.083	0.091
-267.297	-83.913	0.290	-0.092
-266.282	800.000	-0.099	-0.361
-265.267	22.923	-0.117	0.095
-264.253	-60.027	0.309	0.131
-263.238	127.614	-0.159	-0.200
-262.224	284.974	0.098	-0.175
-261.209	359.647	-0.100	0.199
-260.195	433.993	-0.107	0.230
-259.180	800.000	-0.039	0.163
-258.165	800.000	-0.071	0.237
-257.151	688.818	-0.063	0.163
-256.136	800.000	-0.066	0.283
-255.122	-126.035	0.213	-0.032
-254.107	-116.693	-0.241	0.044
-253.092	-200.000	-0.015	0.230
-252.078	84.367	0.193	-0.209
-251.063	61.685	0.133	0.131
-250.049	-5.984	-0.552	0.374
-249.034	-136.273	0.132	-0.015
-248.019	174.370	0.230	0.330
-247.005	-24.243	-0.279	0.165
-245.990	-128.110	0.223	-0.032
-244.976	-200.000	-0.037	-0.269
-243.961	-53.280	-0.164	-0.074
-242.946	-100.826	0.260	-0.064
-241.932	219.270	-0.098	-0.156
-240.917	597.939	-0.231	0.568
-239.903	-65.987	0.215	0.085
-238.888	-132.644	-0.442	0.056
-237.873	-39.984	0.277	0.143
-236.859	-158.622	0.172	-0.010
-235.844	-32.916	0.051	-0.028
-234.830	571.115	0.013	-0.031
-233.815	-138.169	-0.149	0.016
-232.800	-25.969	0.233	0.136
-231.786	-200.000	-0.001	0.072
-230.771	339.879	-0.065	0.125
-229.757	162.863	0.056	0.078
-228.742	210.379	-0.158	-0.246
-227.727	-46.670	-0.077	0.037
-226.713	-199.490	-0.463	-0.002
-225.698	43.728	0.243	0.220
-224.684	61.651	0.154	0.152
-223.669	83.358	0.336	-0.363
-222.655	477.990	0.084	-0.188
-221.640	-31.882	-0.247	-0.137
-220.625	-60.689	-0.164	0.069
-219.611	-146.009	0.128	0.011
-218.596	-10.274	0.267	-0.175
-217.582	140.824	-0.047	-0.062
-216.567	353.376	-0.140	-0.275
-215.552	235.143	-0.096	-0.156
-214.538	-85.631	-0.173	0.053
-213.523	-36.545	-0.194	0.103
-212.509	-200.000	-0.008	-0.145
-211.494	-53.998	0.043	0.019
-210.479	2.678	0.261	0.188
-209.465	71.661	-0.202	0.208
-208.450	-133.432	0.366	0.046
-207.436	7.823	-0.250	0.186
-206.421	-102.446	0.247	-0.059
-205.406	-200.000	-0.048	0.313
-204.392	-114.333	0.320	-0.061
-203.377	159.663	0.197	-0.271
-202.363	28.272	0.344	0.288
-201.348	-200.000	0.023	-0.436
-200.333	-200.000	-0.036	0.244
-199.319	539.912	-0.144	0.340
-198.304	258.257	0.093	-0.158
-197.290	123.439	-0.119	0.147
-196.275	-155.525	0.144	0.009
-195.260	-146.875	0.722	-0.062
-194.246	800.000	-0.009	-0.040
-193.231	2.563	0.286	0.205
-192.217	-77.784	0.080	-0.027
-191.202	800.000	-0.051	-0.163
-190.187	-4.798	0.285	-0.195
-189.173	468.062	0.036	-0.079
-188.158	114.415	-0.033	0.040
-187.144	439.991	-0.109	0.235
-186.129	-143.256	-0.095	0.009
-185.114	-158.720	0.258	-0.015
-184.100	10.719	0.115	-0.087
-183.085	800.000	-0.055	0.188
-182.071	297.610	0.067	-0.121
-181.056	279.575	0.194	0.343
-180.042	-166.203	0.291	-0.012
-179.027	-152.494	-0.110	-0.008
-178.012	477.969	0.126	0.282
-176.998	75.198	0.098	-0.102
-175.983	283.664	-0.111	-0.198
-174.969	-11.705	0.037	-0.024
-173.954	-200.000	-0.036	0.174
-172.939	-49.597	-0.253	-0.119
-171.925	-111.614	0.210	0.042
-170.910	-199.581	0.244	0.001
-169.896	571.231	-0.077	-0.185
-168.881	273.725	0.085	0.148
-167.866	-20.559	0.127	0.077
-166.852	800.000	0.047	-0.167
-165.837	800.000	0.032	-0.124
-164.823	-126.497	0.201	-0.029
-163.808	800.000	0.075	0.319
-162.793	-82.438	0.237	-0.076
-161.779	32.338	0.175	0.150
-160.764	168.643	0.113	-0.159
-159.750	-200.000	-0.065	0.339
-158.735	-166.662	0.082	-0.003
-157.720	-8.592	0.066	-0.044
-156.706	24.023	0.126	-0.103
-155.691	-29.770	-0.156	-0.088
-154.677	232.377	-0.122	-0.198
-153.662	-57.666	0.408	-0.177
-152.647	241.840	-0.155	-0.256
-151.633	800.000	0.061	0.180
-150.618	-126.837	0.205	-0.030
-149.604	-200.000	0.011	0.307
-148.589	366.395	0.132	0.262
-147.574	518.734	-0.118	0.273
-146.560	62.244	-0.032	-0.032
-145.545	-200.000	0.002	-0.091
-144.531	-32.734	-0.161	-0.089
-143.516	-84.789	0.186	0.058
-142.502	-200.000	-0.044	0.205
-141.487	-200.000	0.043	-0.405
-140.472	67.213	0.205	0.206
-139.458	132.150	0.198	-0.252
-138.443	238.750	-0.169	0.277
-137.429	377.240	0.041	-0.083
-136.414	209.393	0.126	0.195
-135.399	-200.000	-0.218	-0.000
-134.385	-198.219	0.067	-0.000
-133.370	-123.110	-0.082	0.013
-132.356	661.066	0.041	-0.105
-131.341	6.072	-0.139	-0.102
-130.326	-89.752	0.215	-0.062
-129.312	-200.000	-0.064	-0.481
-128.297	13.526	-0.159	0.122
-127.283	-200.000	-0.008	-0.189
-126.268	-170.668	-0.324	-0.011
-125.253	-35.990	-0.094	0.050
-124.239	36.497	0.136	-0.118
-123.224	-200.000	0.013	-0.353
-122.210	-112.745	0.148	0.029
-121.195	-107.160	0.239	0.052
