DTS Sentinel unit serial number:	SN413079Multiplexer serial number:	ORYXHardware model number:	OX4-SRSoftware version number:	ORYX F/W v4.00 Oryx Data Collector v3.7.2.0data status	okinstallation	princeton_trtdifferential loss correction	single-endedforward channel	channel 4reverse channel	N/Adate	2019/09/17time	20:25:35forward acquisition time	60.00reverse acquisition time	0.00gamma	496.2192k internal	0.2318k external	0.2318temperature offset calibration	0.9990default loss term (dB/km)	0.3790temperature slope calibration	1.0000multiplexer offset coefficient	1.0000multiplexer slope coefficient	1.0000fibre end	0.00T internal ref (°C)	31.03T ext. ref 1 (°C)	0.22T ext. ref 2 (°C)	21.56length (m)	temperature (°C)	Stokes	anti-Stokes-747.200	138.679	-0.091	0.121
-746.185	800.000	0.107	0.387
-745.171	-45.510	0.056	-0.028
-744.156	-67.943	-0.230	-0.091
-743.142	-99.492	0.196	0.050
-742.127	104.031	-0.084	0.100
-741.112	800.000	0.013	0.056
-740.098	656.818	0.072	0.186
-739.083	-136.549	-0.118	-0.014
-738.069	51.472	-0.119	-0.115
-737.054	443.039	0.120	-0.267
-736.039	-200.000	0.067	-0.329
-735.025	-117.145	0.310	0.057
-734.010	-66.181	-0.271	0.109
-732.996	-200.000	-0.000	0.069
-731.981	800.000	0.055	-0.236
-730.966	-200.000	0.044	0.231
-729.952	-200.000	0.086	-0.421
-728.937	-72.805	-0.435	-0.162
-727.923	76.483	0.056	-0.060
-726.908	800.000	-0.109	0.355
-725.894	124.518	-0.198	0.251
-724.879	111.285	0.258	-0.314
-723.864	51.429	0.168	0.161
-722.850	114.759	-0.103	-0.127
-721.835	-139.729	-0.205	-0.022
-720.821	-200.000	-0.038	-0.238
-719.806	407.202	-0.181	-0.388
-718.791	-200.000	-0.029	-0.239
-717.777	-114.475	0.281	-0.055
-716.762	-70.718	0.039	0.015
-715.748	-49.599	-0.426	-0.205
-714.733	-5.702	0.160	-0.111
-713.718	-154.824	-0.226	0.015
-712.704	-73.731	0.182	-0.067
-711.689	800.000	-0.024	0.084
-710.675	-198.242	-0.211	0.001
-709.660	800.000	-0.072	-0.307
-708.645	-124.258	-0.535	0.085
-707.631	65.943	0.198	-0.203
-706.616	270.408	0.060	-0.106
-705.602	686.467	0.121	-0.320
-704.587	800.000	0.058	0.209
-703.572	2.156	-0.275	0.200
-702.558	524.595	0.104	-0.247
-701.543	-77.579	-0.079	-0.028
-700.529	-70.451	-0.119	0.046
-699.514	147.423	0.202	-0.275
-698.499	-98.725	-0.110	-0.028
-697.485	-109.103	-0.219	-0.047
-696.470	-163.136	0.063	-0.003
-695.456	-200.000	-0.038	0.559
-694.441	27.526	-0.221	0.188
-693.426	-134.427	-0.082	0.010
-692.412	-153.057	0.113	0.008
-691.397	431.300	0.131	-0.287
-690.383	232.966	0.157	-0.260
-689.368	-200.000	-0.020	-0.151
-688.354	-113.366	0.272	0.054
-687.339	-200.000	-0.063	0.285
-686.324	34.386	-0.027	0.023
-685.310	-73.961	0.111	0.041
-684.295	-87.528	-0.503	-0.154
-683.281	64.177	0.158	-0.161
-682.266	96.790	-0.336	-0.388
-681.251	5.307	-0.153	0.114
-680.237	-168.960	-0.366	0.014
-679.222	87.771	-0.188	-0.210
-678.208	-39.800	-0.119	0.063
-677.193	-200.000	0.072	0.462
-676.178	559.777	0.113	0.276
-675.164	-15.961	-0.501	-0.321
-674.149	-200.000	0.065	-0.317
-673.135	800.000	-0.068	-0.259
-672.120	-72.681	-0.311	-0.116
-671.105	-122.607	-0.380	0.062
-670.091	-188.792	0.128	-0.002
-669.076	-123.829	0.290	-0.046
-668.062	138.805	-0.276	-0.366
-667.047	329.482	-0.040	0.078
-666.032	800.000	-0.014	0.061
-665.018	439.779	-0.123	0.271
-664.003	-26.638	0.189	-0.112
-662.989	-103.650	-0.231	-0.055
-661.974	722.210	-0.034	-0.090
-660.959	-200.000	-0.010	0.044
-659.945	-130.032	-0.095	0.013
-658.930	800.000	-0.108	0.307
-657.916	257.174	-0.117	0.203
-656.901	228.011	-0.162	-0.267
-655.886	70.114	-0.245	-0.255
-654.872	-100.810	-0.256	-0.064
-653.857	-200.000	0.027	0.435
-652.843	51.050	-0.143	-0.136
-651.828	-200.000	-0.027	-0.197
-650.814	327.754	0.095	-0.183
-649.799	-36.751	-0.248	-0.134
-648.784	-200.000	-0.023	0.243
-647.770	-105.404	0.311	-0.071
-646.755	-50.915	-0.273	-0.129
-645.741	-185.470	-0.363	-0.006
-644.726	56.664	-0.275	-0.270
-643.711	-200.000	-0.017	0.133
-642.697	-33.042	0.271	0.151
-641.682	-63.909	-0.258	0.106
-640.668	259.089	-0.093	-0.162
-639.653	-105.794	0.358	0.082
-638.638	-200.000	0.008	0.060
-637.624	85.593	-0.178	-0.197
-636.609	-53.078	-0.219	0.102
-635.595	-153.853	-0.178	-0.012
-634.580	-200.000	-0.014	-0.117
-633.565	59.985	0.128	0.127
-632.551	-181.302	0.186	-0.004
-631.536	-133.251	-0.264	0.034
-630.522	-55.644	0.177	-0.080
-629.507	-47.610	-0.257	0.126
-628.492	-154.108	-0.113	0.008
-627.478	713.187	0.060	-0.159
-626.463	-96.440	0.190	0.051
-625.449	-69.590	-0.130	-0.050
-624.434	770.153	-0.033	0.091
-623.419	87.030	-0.021	0.023
-622.405	800.000	0.088	-0.244
-621.390	-86.945	-0.299	0.092
-620.376	640.182	-0.040	0.104
-619.361	-5.991	-0.176	-0.121
-618.346	-200.000	-0.016	0.153
-617.332	188.077	-0.124	0.187
-616.317	150.874	-0.095	0.130
-615.303	-200.000	-0.009	0.151
-614.288	800.000	-0.103	-0.410
-613.273	-17.409	0.154	0.097
-612.259	-3.867	-0.312	0.218
-611.244	-143.138	-0.122	-0.012
-610.230	-80.256	-0.154	-0.052
-609.215	203.592	0.128	0.200
-608.201	800.000	-0.065	0.200
-607.186	-200.000	0.056	0.316
-606.171	251.720	0.042	0.072
-605.157	-37.768	0.262	-0.140
-604.142	17.028	0.237	-0.189
-603.128	-141.149	-0.165	-0.017
-602.113	800.000	-0.072	-0.243
-601.098	-25.956	0.402	0.238
-600.084	-200.000	0.044	0.363
-599.069	-69.056	-0.193	0.075
-598.055	189.329	-0.293	0.441
-597.040	-63.967	0.381	0.157
-596.025	469.254	0.132	0.299
-595.011	577.416	-0.093	-0.228
-593.996	-124.859	0.338	0.052
-592.982	-28.000	-0.291	-0.170
-591.967	-19.827	-0.185	0.115
-590.952	-29.697	-0.164	-0.094
-589.938	-119.646	0.224	0.039
-588.923	272.395	-0.082	0.145
-587.909	-98.114	-0.119	0.031
-586.894	12.222	0.190	-0.147
-585.879	-108.013	0.203	0.044
-584.865	-64.284	0.271	0.111
-583.850	690.156	0.131	-0.346
-582.836	-28.237	-0.451	0.262
-581.821	800.000	0.040	-0.126
-580.806	-148.629	-0.247	0.020
-579.792	800.000	0.027	0.079
-578.777	-101.831	-0.249	0.061
-577.763	-73.996	0.254	-0.093
-576.748	167.595	0.256	0.366
-575.733	80.811	0.041	0.044
-574.719	-200.000	0.003	0.203
-573.704	800.000	0.043	0.185
-572.690	-200.000	-0.084	-0.369
-571.675	8.961	0.118	-0.090
-570.661	-139.324	-0.120	0.013
-569.646	339.713	0.227	0.444
-568.631	133.823	-0.032	-0.042
-567.617	-200.000	0.009	0.223
-566.602	106.308	-0.136	-0.162
-565.588	-200.000	-0.021	-0.207
-564.573	199.310	0.073	0.113
-563.558	74.248	-0.305	0.322
-562.544	-76.787	-0.293	-0.103
-561.529	9.843	0.165	-0.126
-560.515	116.275	-0.088	0.109
-559.500	-200.000	0.023	-0.228
-558.485	-57.047	0.387	0.171
-557.471	156.285	-0.110	0.153
-556.456	800.000	0.068	-0.287
-555.442	78.803	-0.258	-0.277
-554.427	-148.065	-0.225	0.019
-553.412	-174.020	-0.221	-0.007
-552.398	39.203	-0.342	-0.308
-551.383	-200.000	0.122	0.000
-550.369	5.933	0.030	-0.023
-549.354	-200.000	-0.023	-0.254
-548.339	-45.180	0.157	-0.078
-547.325	70.956	-0.224	0.233
-546.310	307.994	0.110	-0.206
-545.296	-22.109	0.174	0.106
-544.281	-179.926	-0.272	0.006
-543.266	12.750	-0.012	-0.009
-542.252	-32.751	0.119	-0.067
-541.237	-21.602	-0.155	0.095
-540.223	-200.000	0.003	-0.047
-539.208	-200.000	-0.016	-0.106
-538.193	54.812	-0.138	-0.133
-537.179	-200.000	-0.042	0.242
-536.164	-80.626	-0.150	0.050
-535.150	-200.000	0.019	-0.268
-534.135	-56.035	0.330	0.148
-533.121	-44.662	-0.226	-0.113
-532.106	182.142	0.007	0.011
-531.091	-42.006	0.102	-0.052
-530.077	-33.651	-0.100	-0.055
-529.062	-19.341	0.090	-0.056
-528.048	313.158	0.182	-0.343
-527.033	-200.000	0.013	-0.142
-526.018	95.331	0.039	-0.044
-525.004	-121.357	-0.323	-0.054
-523.989	-147.729	0.200	-0.017
-522.975	-182.364	0.063	-0.001
-521.960	28.766	-0.064	-0.054
-520.945	-126.930	-0.219	0.032
-519.931	114.686	0.171	0.209
-518.916	-142.146	-0.244	-0.024
-517.902	-200.000	-0.000	0.006
-516.887	-106.931	0.113	-0.025
-515.872	62.327	-0.200	0.200
-514.858	-73.710	0.257	-0.094
-513.843	-177.291	-0.169	0.004
-512.829	-150.841	-0.217	0.016
-511.814	120.639	0.135	-0.168
-510.799	130.863	0.258	0.332
-509.785	-200.000	-0.028	-0.222
-508.770	21.637	-0.204	0.166
-507.756	800.000	-0.032	-0.097
-506.741	-200.000	-0.048	-0.284
-505.726	-200.000	-0.025	-0.144
-504.712	-200.000	-0.030	0.158
-503.697	-24.754	-0.049	-0.029
-502.683	9.190	0.340	-0.257
-501.668	20.426	-0.024	-0.020
-500.653	800.000	-0.033	-0.128
-499.639	-110.222	0.163	-0.034
-498.624	-26.746	0.204	0.120
-497.610	28.535	-0.171	0.145
-496.595	-76.235	-0.050	0.018
-495.581	-75.097	0.331	-0.119
-494.566	309.746	-0.125	-0.235
-493.551	-121.147	0.239	0.040
-492.537	34.879	-0.088	0.077
-491.522	-200.000	0.031	-0.165
-490.508	-1.075	0.279	0.197
-489.493	-200.000	0.008	0.050
-488.478	-61.267	0.055	-0.023
-487.464	262.135	-0.062	0.108
-486.449	-200.000	-0.060	-0.320
-485.435	461.789	-0.112	0.250
-484.420	-8.879	0.219	0.147
-483.405	-200.000	-0.093	0.414
-482.391	33.208	-0.028	0.025
-481.376	800.000	0.077	0.312
-480.362	-25.855	0.394	-0.233
-479.347	-101.395	-0.102	0.025
-478.332	730.102	-0.080	0.215
-477.318	-95.961	-0.195	0.052
-476.303	-140.986	0.370	0.038
-475.289	800.000	-0.046	0.160
-474.274	16.542	-0.239	-0.189
-473.259	-200.000	0.033	-0.153
-472.245	73.777	0.141	-0.148
-471.230	-34.615	-0.357	-0.195
-470.216	241.367	0.044	0.074
-469.201	800.000	-0.072	0.224
-468.186	-2.432	-0.188	0.132
-467.172	241.199	0.272	-0.455
-466.157	-117.786	0.340	0.061
-465.143	1.054	0.160	-0.115
-464.128	366.011	-0.039	-0.078
-463.113	-66.895	0.210	0.083
-462.099	253.282	0.262	0.447
-461.084	-200.000	-0.026	-0.184
-460.070	-198.474	-0.336	-0.002
-459.055	-200.000	0.092	0.460
-458.040	-162.750	0.176	0.009
-457.026	-161.594	0.369	-0.019
-456.011	800.000	-0.072	0.308
-454.997	728.820	-0.119	-0.317
-453.982	31.740	0.153	0.132
-452.968	16.190	-0.249	0.196
-451.953	800.000	0.034	0.108
-450.938	-7.821	-0.160	-0.108
-449.924	-8.362	-0.180	-0.121
-448.909	170.693	-0.050	0.072
-447.895	-200.000	0.036	0.195
-446.880	42.537	0.269	0.244
-445.865	800.000	-0.078	0.281
-444.851	45.190	-0.110	-0.102
-443.836	-200.000	0.067	-0.414
-442.822	800.000	-0.079	-0.233
-441.807	216.317	0.115	-0.183
-440.792	-49.874	0.137	0.065
-439.778	-82.254	-0.111	-0.036
-438.763	-200.000	-0.021	-0.240
-437.749	-111.342	-0.062	-0.013
-436.734	-200.000	0.041	0.237
-435.719	800.000	-0.060	-0.183
-434.705	58.515	0.124	-0.121
-433.690	-181.964	0.360	0.007
-432.676	6.649	-0.261	0.194
-431.661	-113.505	-0.286	-0.056
-430.646	-14.390	0.284	0.183
-429.632	-96.513	-0.190	0.050
-428.617	-200.000	0.013	0.121
-427.603	-46.750	0.228	-0.111
-426.588	245.999	0.163	-0.275
-425.573	28.043	0.408	0.344
-424.559	-200.000	0.041	0.404
-423.544	298.838	0.044	0.081
-422.530	-79.066	-0.074	0.025
-421.515	2.725	0.068	0.049
-420.500	38.202	0.194	0.173
-419.486	-134.840	0.225	-0.027
-418.471	-200.000	-0.035	0.202
-417.457	-200.000	-0.011	0.399
-416.442	-136.692	-0.088	0.010
-415.428	-134.395	-0.292	0.036
-414.413	-56.960	-0.227	0.100
-413.398	800.000	-0.095	-0.292
-412.384	-169.739	0.055	0.002
-411.369	800.000	0.055	-0.178
-410.355	-200.000	0.041	0.186
-409.340	-200.000	0.032	-0.143
-408.325	105.641	-0.179	-0.211
-407.311	-200.000	0.075	0.473
-406.296	673.975	0.101	-0.261
-405.282	-117.129	-0.554	0.101
-404.267	35.094	-0.131	-0.115
-403.252	42.144	-0.140	-0.127
-402.238	52.090	0.152	-0.144
-401.223	568.116	-0.075	-0.183
-400.209	800.000	-0.040	-0.116
-399.194	-41.877	0.171	0.088
-398.179	800.000	0.047	-0.167
-397.165	-200.000	-0.034	-0.163
-396.150	800.000	0.025	0.088
-395.136	-200.000	-0.039	0.288
-394.121	-69.770	-0.154	-0.059
-393.106	-116.525	-0.122	-0.022
-392.092	132.631	-0.075	-0.097
-391.077	-98.702	-0.448	-0.114
-390.063	-73.581	0.430	0.157
-389.048	-200.000	0.019	0.094
-388.033	-82.175	0.132	-0.043
-387.019	26.659	0.110	-0.092
-386.004	113.871	0.118	0.144
-384.990	-79.560	-0.106	-0.036
-383.975	-89.486	-0.134	-0.039
-382.960	-143.255	-0.039	-0.004
-381.946	-90.551	0.270	0.078
-380.931	338.761	0.121	0.235
-379.917	-104.654	-0.158	0.036
-378.902	67.471	-0.032	0.032
-377.888	275.156	-0.144	-0.254
-376.873	50.310	0.180	-0.170
-375.858	-126.590	-0.224	0.033
-374.844	800.000	0.020	0.082
-373.829	800.000	-0.087	0.301
-372.815	-200.000	0.038	-0.299
-371.800	255.031	-0.059	0.101
-370.785	240.324	0.235	0.390
-369.771	-200.000	-0.013	0.333
-368.756	-15.237	0.111	0.071
-367.742	550.674	-0.083	0.199
-366.727	-145.045	-0.193	0.018
-365.712	625.355	0.171	0.430
-364.698	470.431	-0.037	-0.083
-363.683	24.489	-0.169	0.140
-362.669	-200.000	0.010	-0.287
-361.654	-119.445	0.095	-0.016
-360.639	-148.582	0.062	0.005
-359.625	-107.271	0.391	-0.086
-358.610	800.000	-0.064	0.183
-357.596	-200.000	0.027	0.149
-356.581	-111.040	0.432	0.088
-355.566	200.705	0.106	-0.162
-354.552	323.406	0.004	-0.008
-353.537	-162.472	0.034	0.002
-352.523	174.901	0.104	0.150
-351.508	294.318	-0.093	-0.170
-350.493	326.310	0.104	-0.199
-349.479	-200.000	-0.006	0.081
-348.464	800.000	0.045	-0.140
-347.450	-200.000	-0.025	-0.298
-346.435	-7.967	0.177	-0.119
-345.420	712.140	0.082	-0.216
-344.406	-59.307	0.104	-0.045
-343.391	-59.368	0.076	0.033
-342.377	77.856	0.051	0.054
-341.362	156.938	-0.041	0.057
-340.348	-17.016	-0.181	-0.114
-339.333	725.358	-0.020	-0.054
-338.318	-200.000	0.038	-0.406
-337.304	-200.000	-0.045	0.308
-336.289	-147.747	-0.075	0.006
-335.275	-20.463	-0.233	-0.143
-334.260	66.926	0.241	-0.244
-333.245	535.055	0.134	0.317
-332.231	-200.000	0.011	0.200
-331.216	267.077	-0.155	0.269
-330.202	352.490	0.060	0.119
-329.187	800.000	-0.037	0.142
-328.172	14.132	0.054	-0.042
-327.158	442.804	-0.208	-0.454
-326.143	75.860	0.164	-0.173
-325.129	181.960	0.300	-0.440
-324.114	165.279	0.131	0.184
-323.099	-193.025	0.106	0.001
-322.085	276.781	-0.021	-0.037
-321.070	397.630	-0.075	0.155
-320.056	121.788	0.177	0.220
-319.041	326.658	-0.055	-0.105
-318.026	800.000	0.134	-0.413
-317.012	-78.271	-0.201	-0.069
-315.997	172.953	-0.080	-0.115
-314.983	-81.050	-0.157	0.052
-313.968	9.584	-0.110	-0.083
-312.953	-115.433	0.152	-0.029
-311.939	-200.000	-0.011	-0.090
-310.924	-44.153	-0.252	-0.126
-309.910	-200.000	-0.007	0.060
-308.895	-0.388	0.071	0.050
-307.880	61.710	-0.158	-0.156
-306.866	-113.075	0.151	0.030
-305.851	-94.861	-0.236	-0.064
-304.837	122.108	-0.037	-0.046
-303.822	48.603	-0.162	-0.151
-302.807	-200.000	0.018	0.080
-301.793	362.255	0.167	-0.334
-300.778	800.000	-0.033	0.137
-299.764	-200.000	-0.010	0.131
-298.749	-156.823	0.261	-0.016
-297.735	-121.336	-0.016	-0.003
-296.720	-200.000	-0.018	-0.097
-295.705	-143.501	-0.392	-0.037
-294.691	49.505	0.222	0.208
-293.676	-102.348	0.164	-0.039
-292.662	800.000	-0.039	0.113
-291.647	-124.325	0.133	-0.021
-290.632	44.118	0.169	-0.154
-289.618	-200.000	0.012	-0.069
-288.603	-200.000	0.032	-0.612
-287.589	237.341	0.202	-0.333
-286.574	40.485	-0.040	-0.036
-285.559	-107.880	-0.219	0.047
-284.545	-14.536	-0.345	-0.221
-283.530	28.241	-0.164	-0.138
-282.516	-200.000	0.050	-0.315
-281.501	-56.699	-0.304	0.134
-280.486	-102.352	-0.188	-0.045
-279.472	8.358	-0.198	-0.148
-278.457	-40.466	-0.192	-0.099
-277.443	-80.458	-0.347	0.115
-276.428	10.262	0.180	0.136
-275.413	-64.186	-0.430	-0.174
-274.399	-115.706	0.234	0.043
-273.384	273.731	0.286	-0.503
-272.370	-168.424	0.201	-0.008
-271.355	-116.097	0.106	0.020
-270.340	162.297	0.076	-0.105
-269.326	800.000	-0.149	0.449
-268.311	-160.838	-0.072	-0.004
-267.297	800.000	0.113	-0.367
-266.282	-104.464	-0.102	-0.024
-265.267	44.839	0.270	0.247
-264.253	27.547	0.178	0.149
-263.238	-10.841	0.146	-0.096
-262.224	-83.273	0.271	-0.087
-261.209	322.028	-0.116	0.220
-260.195	207.995	0.094	0.146
-259.180	-133.317	0.090	0.011
-258.165	-116.610	0.239	-0.044
-257.151	316.691	0.050	0.093
-256.136	645.254	0.081	0.204
-255.122	-200.000	-0.009	0.042
-254.107	-122.895	0.149	0.024
-253.092	-114.433	0.118	0.023
-252.078	800.000	-0.063	0.179
-251.063	-133.710	-0.123	0.015
-250.049	171.628	-0.073	0.104
-249.034	-131.223	0.355	0.047
-248.019	-120.423	-0.345	0.058
-247.005	238.613	-0.154	-0.254
-245.990	39.155	0.115	0.102
-244.976	1.098	0.177	-0.126
-243.961	309.305	-0.043	0.080
-242.946	191.844	-0.123	0.185
-241.932	17.418	0.184	-0.145
-240.917	-195.862	0.145	-0.001
-239.903	-32.644	-0.135	-0.075
-238.888	70.298	-0.112	0.115
-237.873	105.938	0.205	-0.241
-236.859	-200.000	0.055	0.242
-235.844	-33.912	0.114	-0.062
-234.830	-15.700	-0.278	-0.176
-233.815	53.614	0.083	0.079
-232.800	428.343	0.009	-0.018
-231.786	280.208	0.105	0.186
-230.771	27.559	-0.214	-0.179
-229.757	800.000	-0.032	-0.092
-228.742	-36.090	0.177	0.095
-227.727	2.948	0.118	0.085
-226.713	-38.762	-0.385	0.202
-225.698	164.854	-0.124	0.174
-224.684	54.937	-0.346	-0.331
-223.669	543.304	-0.062	0.148
-222.655	174.434	0.209	-0.299
-221.640	9.318	0.075	-0.056
-220.625	396.704	0.111	0.231
-219.611	655.517	0.036	0.092
-218.596	-200.000	0.006	0.049
-217.582	332.267	-0.125	-0.239
-216.567	-132.615	-0.114	-0.015
-215.552	-167.625	-0.389	0.015
-214.538	53.962	-0.292	0.278
-213.523	-200.000	0.007	0.407
-212.509	500.670	-0.052	-0.120
-211.494	628.784	0.064	0.159
-210.479	-200.000	0.037	0.214
-209.465	800.000	0.057	-0.196
-208.450	-147.933	0.149	-0.012
-207.436	194.361	-0.075	-0.112
-206.421	-128.451	0.338	-0.048
-205.406	-200.000	-0.068	-0.463
-204.392	-200.000	-0.015	-0.271
-203.377	27.001	0.612	0.509
-202.363	343.507	-0.122	-0.237
-201.348	-200.000	-0.031	-0.190
-200.333	-96.982	-0.345	0.090
-199.319	77.923	0.082	0.087
-198.304	-200.000	-0.037	-0.206
-197.290	-200.000	-0.001	-0.094
-196.275	-104.389	0.166	0.038
-195.260	-76.392	0.234	0.082
-194.246	800.000	-0.117	0.329
-193.231	-11.790	-0.191	-0.124
-192.217	235.397	-0.061	0.100
-191.202	713.284	0.079	0.206
-190.187	20.261	0.143	-0.114
-189.173	-68.398	-0.064	0.025
-188.158	-200.000	-0.024	0.138
-187.144	63.073	-0.179	-0.178
-186.129	800.000	-0.089	0.328
-185.114	-133.351	0.136	0.017
-184.100	34.800	-0.142	0.123
-183.085	8.721	0.387	0.289
-182.071	-68.618	-0.131	-0.050
-181.056	-200.000	-0.018	-0.080
-180.042	578.375	-0.109	0.263
-179.027	48.780	-0.145	-0.135
-178.012	199.458	-0.062	0.093
-176.998	-95.773	-0.296	-0.078
-175.983	800.000	0.032	-0.128
-174.969	443.849	-0.064	0.140
-173.954	-70.093	0.157	0.059
-172.939	625.491	0.119	-0.297
-171.925	800.000	-0.058	0.224
-170.910	242.929	0.079	-0.131
-169.896	-200.000	0.022	-0.158
-168.881	800.000	0.034	-0.119
-167.866	-138.365	0.274	0.030
-166.852	440.386	-0.103	-0.223
-165.837	-111.559	0.276	-0.055
-164.823	-200.000	-0.019	-0.442
-163.808	-200.000	0.061	-0.309
-162.793	39.776	0.164	-0.146
-161.779	332.395	0.024	-0.046
-160.764	-200.000	0.014	0.087
-159.750	-11.494	-0.278	0.181
-158.735	800.000	0.022	-0.080
-157.720	767.199	-0.029	-0.079
-156.706	6.314	-0.009	0.006
-155.691	-119.294	0.065	0.011
-154.677	-44.610	-0.256	-0.127
-153.662	278.796	-0.022	-0.038
-152.647	164.779	0.017	-0.024
-151.633	614.987	0.107	0.266
-150.618	154.957	0.091	-0.124
-149.604	87.688	-0.157	0.172
-148.589	-50.577	-0.195	-0.091
-147.574	14.327	0.227	-0.175
-146.560	-87.020	-0.080	-0.024
-145.545	-200.000	0.020	-0.215
-144.531	155.574	-0.071	-0.097
-143.516	11.421	-0.072	-0.055
-142.502	-49.875	-0.170	-0.080
-141.487	107.720	0.202	0.238
-140.472	-200.000	-0.025	-0.212
-139.458	-121.853	-0.032	0.005
-138.443	207.390	0.156	0.240
-137.429	-30.783	-0.128	0.072
-136.414	60.465	0.164	0.160
-135.399	179.446	-0.130	0.189
-134.385	-59.697	-0.102	-0.043
-133.370	-160.204	-0.144	0.008
-132.356	29.979	-0.104	0.087
-131.341	-200.000	0.017	-0.096
-130.326	-200.000	0.027	-0.222
-129.312	5.911	-0.280	0.205
-128.297	14.678	0.266	0.205
-127.283	-200.000	-0.030	-0.187
-126.268	800.000	0.035	0.133
-125.253	-63.321	0.266	0.108
-124.239	-200.000	0.028	0.267
-123.224	-57.351	-0.096	-0.042
-122.210	-83.457	-0.156	-0.049
