DTS Sentinel unit serial number:	SN413079Multiplexer serial number:	ORYXHardware model number:	OX4-SRSoftware version number:	ORYX F/W v4.00 Oryx Data Collector v3.7.2.0data status	okinstallation	princeton_trtdifferential loss correction	single-endedforward channel	channel 4reverse channel	N/Adate	2019/09/15time	23:13:34forward acquisition time	60.00reverse acquisition time	0.00gamma	496.2192k internal	0.2321k external	0.2321temperature offset calibration	0.9953default loss term (dB/km)	0.3790temperature slope calibration	1.0000multiplexer offset coefficient	1.0000multiplexer slope coefficient	1.0000fibre end	0.00T internal ref (°C)	28.39T ext. ref 1 (°C)	9.06T ext. ref 2 (°C)	22.16length (m)	temperature (°C)	Stokes	anti-Stokes-747.200	197.873	-0.066	-0.102
-746.185	-7.176	-0.252	0.173
-745.171	-122.492	0.071	0.012
-744.156	766.714	-0.097	0.268
-743.142	-42.519	-0.346	0.178
-742.127	-44.267	-0.228	0.116
-741.112	-76.426	0.120	-0.043
-740.098	227.814	0.139	-0.229
-739.083	-40.157	0.233	0.123
-738.069	800.000	-0.034	0.104
-737.054	-68.475	0.218	0.086
-736.039	-58.111	-0.219	0.096
-735.025	-200.000	-0.001	-0.018
-734.010	-80.708	0.220	-0.074
-732.996	241.794	0.166	-0.281
-731.981	-200.000	0.030	-0.198
-730.966	47.866	-0.234	-0.221
-729.952	-200.000	0.002	0.139
-728.937	133.983	-0.211	0.276
-727.923	-6.749	0.108	-0.075
-726.908	25.593	-0.159	0.134
-725.894	-124.570	-0.301	0.047
-724.879	-200.000	-0.074	-0.344
-723.864	-44.352	-0.335	0.169
-722.850	800.000	-0.054	-0.163
-721.835	-129.802	-0.276	-0.038
-720.821	-108.770	-0.115	0.025
-719.806	-200.000	0.033	0.346
-718.791	257.912	-0.158	-0.274
-717.777	-85.774	0.267	-0.084
-716.762	-21.610	-0.244	-0.150
-715.748	78.855	-0.082	-0.088
-714.733	59.936	0.128	0.128
-713.718	33.260	-0.144	-0.126
-712.704	-109.364	-0.368	-0.079
-711.689	557.699	0.213	0.517
-710.675	56.752	-0.133	-0.130
-709.660	-200.000	0.002	-0.017
-708.645	678.453	0.091	0.238
-707.631	-109.862	0.239	-0.051
-706.616	95.599	-0.097	-0.111
-705.602	30.854	0.054	0.047
-704.587	-200.000	-0.029	-0.310
-703.572	136.490	0.037	0.049
-702.558	-200.000	0.006	-0.420
-701.543	-170.199	-0.319	-0.011
-700.529	-83.939	0.346	-0.111
-699.514	333.699	-0.134	-0.262
-698.499	-111.940	-0.291	-0.059
-697.485	172.835	-0.130	-0.189
-696.470	505.682	0.095	-0.222
-695.456	228.247	0.156	0.256
-694.441	-8.971	0.040	-0.027
-693.426	87.664	0.224	0.250
-692.412	-73.609	-0.119	0.044
-691.397	586.012	0.085	0.211
-690.383	223.790	-0.181	0.295
-689.368	800.000	-0.085	-0.300
-688.354	-89.948	0.104	0.031
-687.339	-161.809	0.042	-0.002
-686.324	195.832	-0.219	0.336
-685.310	-150.047	-0.161	0.013
-684.295	104.027	-0.022	0.026
-683.281	-86.338	-0.269	-0.084
-682.266	32.125	0.198	0.172
-681.251	-196.336	-0.221	0.002
-680.237	-1.723	-0.200	-0.142
-679.222	-70.801	-0.100	0.038
-678.208	99.860	0.248	0.289
-677.193	-200.000	-0.002	0.017
-676.178	42.237	-0.137	0.126
-675.164	148.976	-0.105	0.144
-674.149	23.111	-0.148	0.122
-673.135	800.000	0.050	0.218
-672.120	67.228	-0.080	0.082
-671.105	-95.996	0.247	0.066
-670.091	163.016	-0.073	-0.103
-669.076	-200.000	-0.038	-0.287
-668.062	-31.360	0.131	-0.075
-667.047	-88.417	-0.404	0.121
-666.032	-200.000	0.050	0.255
-665.018	134.476	0.098	0.128
-664.003	166.304	0.176	0.251
-662.989	-200.000	-0.015	0.188
-661.974	800.000	-0.053	-0.188
-660.959	119.708	-0.100	-0.125
-659.945	800.000	0.190	-0.618
-658.930	-200.000	0.030	0.187
-657.916	238.936	-0.142	-0.237
-656.901	800.000	-0.059	0.180
-655.886	84.058	0.033	0.037
-654.872	563.056	-0.124	0.303
-653.857	106.319	-0.125	-0.149
-652.843	402.770	0.059	-0.124
-651.828	-100.714	0.063	0.016
-650.814	-91.250	-0.146	-0.042
-649.799	800.000	-0.088	0.267
-648.784	50.143	0.066	-0.063
-647.770	-40.805	-0.192	0.100
-646.755	-38.446	-0.224	0.119
-645.741	404.865	0.048	0.103
-644.726	-90.412	0.324	-0.095
-643.711	26.224	0.242	0.203
-642.697	-90.708	-0.024	0.007
-641.682	800.000	0.075	0.308
-640.668	40.159	-0.122	0.110
-639.653	52.202	0.141	0.136
-638.638	24.724	0.363	-0.303
-637.624	50.506	-0.090	0.085
-636.609	-73.935	0.090	-0.033
-635.595	-184.197	0.070	-0.001
-634.580	-19.435	0.307	0.192
-633.565	-88.086	0.333	0.101
-632.551	174.632	-0.310	-0.452
-631.536	11.504	-0.142	0.110
-630.522	-68.070	0.226	-0.089
-629.507	137.350	-0.269	-0.355
-628.492	20.869	0.113	0.092
-627.478	-108.461	-0.362	-0.078
-626.463	-29.657	0.046	-0.026
-625.449	86.354	-0.199	-0.220
-624.434	-57.661	-0.147	0.065
-623.419	-200.000	0.003	0.103
-622.405	455.190	-0.106	-0.236
-621.390	800.000	-0.045	-0.176
-620.376	-88.923	0.402	0.120
-619.361	-200.000	-0.027	-0.422
-618.346	-92.044	-0.409	0.116
-617.332	162.084	-0.146	0.206
-616.317	-60.321	-0.169	-0.072
-615.303	54.075	0.431	-0.417
-614.288	-116.132	-0.090	0.017
-613.273	-1.424	0.110	0.078
-612.259	90.175	-0.224	-0.251
-611.244	93.349	-0.193	-0.220
-610.230	-28.455	-0.086	0.050
-609.215	-200.000	-0.047	0.249
-608.201	-200.000	0.000	0.005
-607.186	133.073	0.078	-0.101
-606.171	800.000	0.032	0.105
-605.157	-78.515	-0.208	0.072
-604.142	754.087	0.042	0.115
-603.128	134.068	0.185	-0.241
-602.113	-46.777	-0.252	0.124
-601.098	648.876	0.175	0.449
-600.084	428.148	-0.060	-0.130
-599.069	-200.000	-0.008	0.083
-598.055	16.549	-0.100	-0.079
-597.040	800.000	-0.114	-0.415
-596.025	463.177	-0.050	0.113
-595.011	-92.400	0.284	-0.080
-593.996	122.890	-0.090	0.114
-592.982	11.748	-0.096	-0.074
-591.967	208.251	0.060	-0.093
-590.952	298.908	-0.100	0.184
-589.938	346.536	-0.050	-0.099
-588.923	-94.785	-0.236	0.064
-587.909	800.000	0.052	-0.164
-586.894	201.801	0.176	-0.273
-585.879	154.493	-0.231	0.319
-584.865	671.001	-0.034	-0.089
-583.850	133.604	0.276	0.359
-582.836	-164.557	0.393	-0.018
-581.821	16.409	-0.233	0.185
-580.806	-62.431	0.330	-0.138
-579.792	-142.969	-0.318	-0.031
-578.777	-83.246	-0.118	-0.038
-577.763	-95.400	0.175	-0.047
-576.748	186.535	-0.174	-0.260
-575.733	800.000	0.131	-0.365
-574.719	318.011	-0.053	0.100
-573.704	-200.000	-0.043	0.320
-572.690	-164.357	-0.248	-0.011
-571.675	800.000	0.084	0.242
-570.661	-200.000	0.091	0.440
-569.646	-143.463	-0.080	-0.008
-568.631	-152.197	-0.059	0.004
-567.617	-115.780	-0.132	-0.025
-566.602	-200.000	0.037	0.167
-565.588	-107.960	0.016	-0.004
-564.573	-34.339	0.143	0.079
-563.558	2.029	-0.289	-0.210
-562.544	553.167	-0.046	-0.111
-561.529	-121.648	-0.175	-0.029
-560.515	193.698	-0.141	-0.214
-559.500	-48.789	0.209	-0.101
-558.485	-85.360	0.238	-0.075
-557.471	-101.245	-0.070	0.017
-556.456	78.996	0.293	0.315
-555.442	-134.224	0.128	-0.016
-554.427	-92.538	-0.187	0.053
-553.412	36.233	0.023	-0.020
-552.398	-98.622	0.134	-0.034
-551.383	76.932	-0.338	-0.360
-550.369	-125.658	0.099	0.015
-549.354	12.261	-0.127	-0.098
-548.339	-169.936	0.430	0.015
-547.325	-107.236	-0.237	-0.052
-546.310	2.557	0.246	0.179
-545.296	-60.660	-0.198	0.084
-544.281	103.486	-0.081	0.096
-543.266	800.000	0.050	-0.167
-542.252	-200.000	-0.069	-0.349
-541.237	52.028	-0.091	-0.087
-540.223	-200.000	0.034	-0.232
-539.208	130.674	0.232	-0.298
-538.193	-200.000	-0.013	0.180
-537.179	-0.717	0.165	0.117
-536.164	415.806	-0.090	-0.192
-535.150	348.924	-0.081	-0.161
-534.135	593.170	-0.064	-0.158
-533.121	158.006	0.153	0.212
-532.106	16.077	-0.205	0.162
-531.091	-137.215	-0.093	-0.011
-530.077	-161.313	-0.334	0.017
-529.062	-40.430	-0.310	0.161
-528.048	23.827	0.103	0.085
-527.033	215.939	0.222	0.353
-526.018	-104.049	0.464	0.108
-525.004	64.096	-0.153	-0.154
-523.989	398.300	-0.042	-0.087
-522.975	124.211	0.122	-0.153
-521.960	-200.000	-0.010	-0.053
-520.945	137.436	0.026	0.034
-519.931	-200.000	-0.042	-0.213
-518.916	132.857	0.067	-0.086
-517.902	78.335	-0.166	0.177
-516.887	62.801	-0.069	0.069
-515.872	-67.599	-0.067	0.026
-514.858	-200.000	-0.013	0.174
-513.843	54.346	0.181	0.175
-512.829	19.864	-0.236	-0.191
-511.814	-127.142	-0.103	-0.015
-510.799	-45.990	-0.249	0.123
-509.785	-57.945	0.147	0.064
-508.770	17.274	-0.144	0.115
-507.756	800.000	-0.145	-0.442
-506.741	800.000	0.021	-0.062
-505.726	-75.518	0.256	-0.091
-504.712	800.000	0.072	-0.283
-503.697	94.031	-0.150	0.170
-502.683	121.037	0.107	-0.134
-501.668	-85.507	0.328	-0.102
-500.653	800.000	0.121	-0.360
-499.639	621.339	0.145	-0.365
-498.624	25.296	-0.131	-0.109
-497.610	178.674	-0.178	-0.260
-496.595	-33.013	0.238	0.132
-495.581	-60.075	-0.071	0.030
-494.566	-174.046	0.128	0.004
-493.551	35.199	-0.142	-0.124
-492.537	-4.974	-0.108	-0.075
-491.522	-100.342	-0.231	-0.057
-490.508	8.894	0.334	0.252
-489.493	-140.464	0.128	0.013
-488.478	471.881	0.088	0.199
-487.464	-75.716	-0.175	-0.062
-486.449	-57.308	-0.311	0.137
-485.435	83.398	0.133	0.145
-484.420	11.684	-0.020	-0.016
-483.405	-15.248	-0.180	0.115
-482.391	263.509	0.117	-0.203
-481.376	-140.104	0.401	-0.042
-480.362	-88.139	-0.127	-0.038
-479.347	85.165	-0.152	0.167
-478.332	46.122	0.207	-0.192
-477.318	800.000	0.105	-0.316
-476.303	-33.209	-0.278	0.154
-475.289	-172.987	-0.081	-0.002
-474.274	143.393	0.161	0.215
-473.259	-130.906	-0.078	0.010
-472.245	-131.527	0.141	-0.019
-471.230	-33.488	-0.205	-0.113
-470.216	249.789	-0.136	0.230
-469.201	-73.787	0.173	0.063
-468.186	568.561	0.072	-0.176
-467.172	800.000	-0.029	0.110
-466.157	-97.749	-0.379	-0.098
-465.143	-92.925	-0.193	0.054
-464.128	1.594	-0.192	-0.138
-463.113	-43.616	-0.161	0.081
-462.099	235.842	-0.183	0.302
-461.084	-200.000	0.009	0.147
-460.070	-30.650	-0.043	0.024
-459.055	232.335	0.191	0.313
-458.040	423.161	-0.067	0.144
-457.026	281.580	-0.050	0.090
-456.011	339.597	-0.053	0.103
-454.997	218.642	-0.109	0.174
-453.982	-150.978	0.400	-0.030
-452.968	-53.777	0.237	-0.108
-451.953	152.926	0.128	-0.174
-450.938	800.000	0.146	-0.546
-449.924	231.552	-0.049	0.081
-448.909	379.012	-0.070	0.144
-447.895	146.428	0.063	0.085
-446.880	-79.403	0.200	-0.068
-445.865	-79.108	0.303	-0.103
-444.851	-103.779	-0.403	0.094
-443.836	175.132	-0.097	-0.140
-442.822	-200.000	-0.007	0.098
-441.807	4.074	-0.168	0.123
-440.792	-23.112	0.204	0.122
-439.778	94.206	0.111	0.125
-438.763	-97.680	0.377	0.098
-437.749	-166.659	-0.335	-0.014
-436.734	-1.928	-0.327	0.230
-435.719	-39.879	0.097	0.051
-434.705	-124.305	-0.311	0.049
-433.690	277.103	-0.056	0.100
-432.676	-31.868	0.102	0.057
-431.661	13.366	-0.098	-0.076
-430.646	414.746	-0.033	-0.070
-429.632	54.697	-0.114	-0.110
-428.617	-200.000	-0.002	0.407
-427.603	699.332	0.028	0.073
-426.588	147.101	-0.188	-0.252
-425.573	-200.000	0.058	-0.303
-424.559	-200.000	0.020	0.101
-423.544	74.462	-0.229	0.240
-422.530	-163.694	0.356	-0.017
-421.515	-133.638	-0.287	0.036
-420.500	-58.868	0.065	0.028
-419.486	-102.442	-0.223	-0.053
-418.471	-161.930	0.359	0.018
-417.457	-4.167	0.158	0.109
-416.442	90.127	0.121	-0.135
-415.428	-95.284	0.079	0.021
-414.413	337.309	0.100	0.195
-413.398	-200.000	0.007	-0.252
-412.384	800.000	-0.084	-0.325
-411.369	422.209	-0.147	-0.315
-410.355	-200.000	-0.059	-0.289
-409.340	48.435	0.221	0.207
-408.325	-72.301	0.128	-0.047
-407.311	17.309	0.068	0.054
-406.296	319.455	-0.117	0.221
-405.282	3.864	0.131	0.096
-404.267	-78.512	-0.069	-0.023
-403.252	-131.679	0.049	-0.006
-402.238	-7.005	0.236	-0.160
-401.223	459.822	0.064	0.142
-400.209	260.825	-0.047	-0.082
-399.194	1.860	0.146	-0.105
-398.179	-200.000	0.011	-0.114
-397.165	125.008	0.220	0.276
-396.150	85.395	-0.073	0.080
-395.136	183.384	-0.139	0.205
-394.121	295.260	0.105	0.191
-393.106	232.365	0.101	-0.165
-392.092	160.526	0.117	-0.163
-391.077	16.924	0.258	-0.203
-390.063	800.000	-0.061	0.246
-389.048	163.402	-0.156	0.218
-388.033	31.659	0.367	-0.314
-387.019	130.628	0.174	0.222
-386.004	-200.000	0.003	0.163
-384.990	6.885	-0.292	0.216
-383.975	-59.929	-0.198	-0.084
-382.960	140.675	0.076	-0.101
-381.946	-200.000	-0.012	0.175
-380.931	54.699	0.418	-0.402
-379.917	-200.000	-0.007	0.075
-378.902	-200.000	0.023	-0.228
-377.888	-83.085	-0.113	-0.036
-376.873	-68.622	0.247	-0.095
-375.858	343.934	-0.041	-0.079
-374.844	22.523	0.249	-0.203
-373.829	73.914	-0.149	0.155
-372.815	800.000	0.069	0.241
-371.800	800.000	-0.083	-0.304
-370.785	-200.000	0.028	-0.229
-369.771	-49.363	0.245	-0.116
-368.756	-19.944	-0.137	0.084
-367.742	146.714	-0.151	-0.202
-366.727	333.952	-0.091	-0.176
-365.712	51.403	-0.083	-0.079
-364.698	-200.000	-0.012	0.127
-363.683	-19.039	-0.244	-0.151
-362.669	128.592	0.177	-0.224
-361.654	-73.115	0.104	0.038
-360.639	800.000	0.015	-0.055
-359.625	-81.267	-0.215	-0.071
-358.610	-119.811	0.247	0.042
-357.596	123.650	-0.247	0.309
-356.581	100.909	0.099	0.114
-355.566	113.208	-0.089	0.107
-354.552	-99.876	0.467	-0.116
-353.537	90.579	0.099	0.110
-352.523	-141.175	0.166	-0.017
-351.508	57.053	0.229	-0.222
-350.493	432.124	0.118	-0.254
-349.479	-52.136	-0.107	0.049
-348.464	-108.867	0.166	-0.035
-347.450	407.614	0.121	-0.255
-346.435	-147.511	-0.264	-0.022
-345.420	71.436	0.088	0.091
-344.406	-200.000	-0.015	-0.259
-343.391	23.711	0.158	0.129
-342.377	800.000	0.052	0.181
-341.362	-143.100	-0.338	-0.032
-340.348	283.593	-0.023	0.042
-339.333	131.040	-0.191	-0.244
-338.318	-87.085	0.145	-0.044
-337.304	-47.428	-0.345	0.167
-336.289	12.939	0.224	-0.172
-335.275	259.865	-0.203	0.349
-334.260	51.817	-0.046	-0.044
-333.245	295.703	-0.133	-0.243
-332.231	-200.000	0.015	-0.095
-331.216	800.000	0.039	-0.109
-330.202	-158.039	0.281	-0.016
-329.187	47.439	-0.201	0.186
-328.172	800.000	-0.058	-0.247
-327.158	167.608	-0.082	0.117
-326.143	-200.000	0.001	0.275
-325.129	-117.612	-0.254	-0.045
-324.114	400.852	-0.068	0.142
-323.099	800.000	-0.050	0.144
-322.085	-200.000	-0.032	0.354
-321.070	800.000	0.026	-0.081
-320.056	-3.106	0.118	0.082
-319.041	-99.452	0.451	-0.113
-318.026	800.000	-0.089	0.350
-317.012	800.000	0.083	0.314
-315.997	-121.233	-0.053	-0.009
-314.983	191.072	-0.051	-0.076
-313.968	-200.000	-0.018	-0.268
-312.953	-200.000	-0.014	-0.084
-311.939	-87.324	-0.230	0.069
-310.924	134.946	-0.188	0.243
-309.910	48.299	0.073	0.067
-308.895	-200.000	-0.003	0.154
-307.880	16.518	-0.148	0.116
-306.866	-46.240	-0.129	-0.063
-305.851	-10.782	-0.069	0.045
-304.837	450.234	0.192	-0.420
-303.822	126.278	-0.153	0.192
-302.807	267.642	0.211	0.366
-301.793	-200.000	0.186	0.001
-300.778	-37.577	-0.013	0.007
-299.764	364.391	-0.088	-0.175
-298.749	20.533	-0.144	-0.116
-297.735	-125.544	0.159	-0.024
-296.720	-130.182	-0.258	0.035
-295.705	-200.000	-0.036	0.192
-294.691	-26.027	-0.043	0.025
-293.676	-155.816	-0.327	-0.021
-292.662	-200.000	0.024	-0.112
-291.647	-165.588	-0.325	-0.014
-290.632	-200.000	0.056	0.303
-289.618	-62.976	0.184	0.076
-288.603	-200.000	0.025	-0.329
-287.589	-39.850	0.059	-0.031
-286.574	800.000	-0.072	0.216
-285.559	393.479	-0.072	-0.148
-284.545	-200.000	-0.056	0.327
-283.530	-200.000	0.013	-0.063
-282.516	-21.006	0.134	0.081
-281.501	228.345	-0.113	0.182
-280.486	-107.388	0.274	0.060
-279.472	117.033	-0.063	0.077
-278.457	-7.164	-0.160	0.107
-277.443	800.000	0.074	-0.241
-276.428	-200.000	-0.031	0.153
-275.413	-103.432	0.198	0.046
-274.399	33.858	-0.247	-0.213
-273.384	-154.679	-0.465	-0.031
-272.370	29.721	0.152	0.129
-271.355	244.905	0.171	0.286
-270.340	146.064	-0.189	-0.252
-269.326	800.000	-0.077	-0.311
-268.311	-26.693	-0.060	-0.035
-267.297	-50.469	0.186	0.087
-266.282	17.734	0.210	-0.165
-265.267	-70.154	0.058	-0.022
-264.253	-200.000	-0.023	0.116
-263.238	140.680	0.082	-0.107
-262.224	114.774	0.289	0.349
-261.209	274.270	0.174	0.305
-260.195	278.126	-0.202	-0.356
-259.180	-65.865	0.241	-0.096
-258.165	181.942	-0.099	-0.145
-257.151	-124.078	-0.185	-0.029
-256.136	124.796	-0.106	-0.132
-255.122	454.749	0.047	-0.103
-254.107	333.130	0.075	0.143
-253.092	-200.000	-0.009	0.269
-252.078	-18.846	-0.395	-0.244
-251.063	-119.841	0.217	0.037
-250.049	-39.241	0.104	-0.054
-249.034	-107.811	-0.271	0.059
-248.019	-41.918	0.084	-0.043
-247.005	259.694	-0.047	-0.080
-245.990	234.260	-0.050	0.082
-244.976	-200.000	-0.041	0.279
-243.961	15.280	0.232	-0.180
-242.946	-200.000	0.015	0.269
-241.932	-200.000	0.018	-0.097
-240.917	800.000	0.078	0.223
-239.903	185.127	-0.118	-0.174
-238.888	800.000	0.072	0.284
-237.873	-136.147	-0.281	0.033
-236.859	153.078	-0.087	-0.118
-235.844	800.000	0.068	0.203
-234.830	68.866	-0.299	0.304
-233.815	-200.000	-0.002	0.096
-232.800	71.380	0.042	-0.044
-231.786	185.793	0.239	0.352
-230.771	508.430	-0.170	0.390
-229.757	-200.000	-0.003	-0.145
-228.742	5.336	-0.190	0.139
-227.727	79.336	-0.131	-0.139
-226.713	55.719	0.379	-0.364
-225.698	74.707	0.272	-0.283
-224.684	309.558	-0.056	0.104
-223.669	-168.937	0.240	0.009
-222.655	-90.485	0.341	-0.098
-221.640	221.683	0.097	-0.154
-220.625	-131.720	0.329	0.043
-219.611	800.000	-0.028	0.102
-218.596	191.668	-0.157	-0.234
-217.582	106.956	-0.211	-0.248
-216.567	800.000	0.095	-0.318
-215.552	-88.268	0.015	-0.004
-214.538	-112.757	-0.166	-0.033
-213.523	355.785	0.081	0.160
-212.509	-64.755	0.072	0.029
-211.494	-200.000	0.005	0.163
-210.479	132.030	0.197	0.250
-209.465	-77.951	0.049	0.017
-208.450	186.799	-0.125	0.185
-207.436	-75.235	0.303	-0.107
-206.421	-115.713	-0.037	-0.007
-205.406	540.787	-0.089	-0.211
-204.392	-200.000	-0.034	0.162
-203.377	16.715	0.222	-0.173
-202.363	172.313	-0.186	-0.264
-201.348	107.951	-0.112	0.132
-200.333	400.409	-0.185	0.383
-199.319	-161.268	-0.178	-0.009
-198.304	-182.442	-0.027	0.000
-197.290	-200.000	-0.033	0.341
-196.275	-200.000	0.009	-0.113
-195.260	169.278	-0.161	0.228
-194.246	-169.813	-0.503	-0.018
-193.231	-44.143	0.151	0.075
-192.217	-8.948	-0.151	0.100
-191.202	534.390	0.017	0.040
-190.187	26.294	0.197	0.163
-189.173	-68.137	0.344	0.133
-188.158	800.000	0.082	-0.241
-187.144	-172.516	-0.342	0.011
-186.129	-172.168	-0.323	0.010
-185.114	-194.851	0.093	-0.001
-184.100	-170.081	0.065	0.002
-183.085	139.496	0.033	-0.043
-182.071	239.347	0.194	-0.320
-181.056	-112.111	0.438	-0.087
-180.042	-200.000	-0.014	-0.270
-179.027	-191.564	-0.252	-0.002
-178.012	-72.640	-0.153	0.056
-176.998	50.105	-0.144	0.135
-175.983	14.628	0.266	0.206
-174.969	-93.700	-0.231	0.063
-173.954	379.087	0.059	-0.120
-172.939	-200.000	-0.003	-0.187
-171.925	467.167	-0.163	-0.362
-170.910	-200.000	0.060	0.314
-169.896	800.000	0.041	-0.125
-168.881	293.068	0.074	-0.133
-167.866	-200.000	-0.006	0.203
-166.852	-200.000	0.000	0.026
-165.837	174.625	-0.066	-0.094
-164.823	86.470	0.042	-0.045
-163.808	-103.154	0.207	-0.048
-162.793	-30.296	0.154	-0.087
-161.779	72.623	0.175	-0.180
-160.764	-116.153	0.260	0.048
-159.750	47.091	0.363	0.334
-158.735	-90.298	-0.075	-0.022
-157.720	800.000	-0.025	0.085
-156.706	179.458	0.069	0.100
-155.691	-54.911	-0.305	-0.136
-154.677	25.026	-0.140	0.115
-153.662	147.100	0.120	-0.159
-152.647	-174.504	-0.195	0.006
-151.633	-130.655	0.102	0.014
-150.618	-99.643	-0.185	-0.046
-149.604	-133.894	0.087	-0.011
-148.589	61.073	0.079	0.077
-147.574	-57.997	-0.133	0.057
-146.560	800.000	0.062	0.186
-145.545	-101.861	-0.173	-0.041
-144.531	-116.973	-0.497	-0.090
-143.516	-200.000	0.018	0.202
-142.502	-200.000	-0.002	-0.010
-141.487	1.713	-0.191	0.136
-140.472	-26.731	0.217	0.125
-139.458	-55.336	-0.168	-0.075
-138.443	-119.402	-0.075	0.013
-137.429	-68.525	0.216	-0.083
-136.414	4.141	0.129	0.093
-135.399	800.000	0.023	-0.062
-134.385	401.501	-0.115	-0.239
-133.370	-101.679	0.226	-0.054
-132.356	582.800	0.019	0.046
-131.341	399.823	0.091	0.189
-130.326	800.000	0.069	0.209
-129.312	273.588	-0.024	-0.042
-128.297	-90.368	-0.346	0.099
-127.283	-125.809	0.233	-0.035
-126.268	246.420	0.157	-0.262
-125.253	-72.705	0.202	0.073
-124.239	-72.416	0.338	-0.123
-123.224	-185.840	-0.225	0.003
-122.210	-100.556	-0.207	0.050
-121.195	-141.988	-0.204	0.020
