DTS Sentinel unit serial number:	SN413079Multiplexer serial number:	ORYXHardware model number:	OX4-SRSoftware version number:	ORYX F/W v4.00 Oryx Data Collector v3.7.2.0data status	okinstallation	princeton_trtdifferential loss correction	single-endedforward channel	channel 4reverse channel	N/Adate	2019/09/13time	07:21:34forward acquisition time	60.00reverse acquisition time	0.00gamma	496.2192k internal	0.2323k external	0.2323temperature offset calibration	1.0198default loss term (dB/km)	0.3790temperature slope calibration	1.0000multiplexer offset coefficient	1.0000multiplexer slope coefficient	1.0000fibre end	0.00T internal ref (°C)	26.11T ext. ref 1 (°C)	4.17T ext. ref 2 (°C)	21.64length (m)	temperature (°C)	Stokes	anti-Stokes-747.200	160.077	0.110	0.155
-746.185	331.023	-0.163	0.318
-745.171	283.124	0.054	0.097
-744.156	-11.256	-0.108	-0.072
-743.142	800.000	0.030	0.110
-742.127	182.115	0.060	0.089
-741.112	-115.245	-0.209	-0.040
-740.098	-200.000	0.017	0.141
-739.083	-200.000	0.013	-0.295
-738.069	128.765	-0.082	0.105
-737.054	102.088	-0.070	-0.083
-736.039	-40.783	-0.175	0.091
-735.025	-103.483	-0.273	0.065
-734.010	-200.000	0.087	-0.451
-732.996	787.480	0.065	0.181
-731.981	-7.290	0.195	0.133
-730.966	-75.937	0.077	0.028
-729.952	-65.070	-0.229	0.093
-728.937	-200.000	-0.015	-0.211
-727.923	-68.011	0.422	-0.166
-726.908	-200.000	-0.088	-0.499
-725.894	135.839	-0.109	-0.143
-724.879	572.078	0.049	0.121
-723.864	-3.927	-0.190	0.133
-722.850	-200.000	-0.056	0.250
-721.835	-35.365	0.209	-0.115
-720.821	-200.000	0.029	-0.355
-719.806	137.030	-0.130	0.171
-718.791	303.529	0.061	-0.114
-717.777	184.133	0.090	0.134
-716.762	-200.000	-0.024	0.188
-715.748	-155.464	-0.352	-0.023
-714.733	116.349	0.140	0.173
-713.718	3.969	0.196	-0.145
-712.704	66.853	0.139	-0.142
-711.689	537.455	-0.124	-0.298
-710.675	63.593	0.335	-0.339
-709.660	42.771	0.144	-0.132
-708.645	350.284	-0.130	0.260
-707.631	-109.181	-0.034	-0.007
-706.616	-200.000	0.127	-0.000
-705.602	-18.067	0.092	0.058
-704.587	32.056	0.397	-0.345
-703.572	443.590	-0.022	0.048
-702.558	800.000	0.140	-0.421
-701.543	476.162	0.156	-0.355
-700.529	-200.000	-0.151	-0.001
-699.514	-38.381	0.278	0.148
-698.499	-200.000	-0.019	-0.210
-697.485	273.443	0.109	0.195
-696.470	-196.447	0.346	-0.002
-695.456	667.805	-0.065	-0.170
-694.441	800.000	0.007	-0.030
-693.426	541.555	-0.101	0.244
-692.412	691.458	0.048	-0.127
-691.397	46.629	-0.228	-0.213
-690.383	800.000	0.083	-0.255
-689.368	-124.985	0.170	0.026
-688.354	-200.000	-0.043	0.216
-687.339	800.000	0.018	-0.067
-686.324	-200.000	-0.019	0.252
-685.310	-200.000	0.012	-0.170
-684.295	-200.000	-0.044	-0.226
-683.281	244.832	-0.021	-0.036
-682.266	-200.000	0.018	-0.247
-681.251	45.320	0.131	0.121
-680.237	-48.357	-0.185	-0.090
-679.222	-3.742	0.219	-0.153
-678.208	-4.706	0.130	-0.090
-677.193	800.000	-0.071	0.254
-676.178	-111.366	-0.178	0.037
-675.164	193.283	0.023	0.035
-674.149	-164.624	-0.234	0.011
-673.135	800.000	0.048	-0.182
-672.120	-190.126	0.358	0.004
-671.105	18.499	-0.191	0.154
-670.091	-7.647	0.167	-0.113
-669.076	-48.022	0.270	-0.132
-668.062	800.000	-0.083	0.331
-667.047	-90.456	-0.284	-0.083
-666.032	598.307	0.053	0.132
-665.018	-82.916	0.300	-0.097
-664.003	2.718	-0.212	-0.155
-662.989	800.000	0.101	-0.338
-661.974	494.562	-0.062	0.144
-660.959	800.000	-0.008	-0.023
-659.945	25.155	-0.446	-0.373
-658.930	-96.469	0.162	-0.043
-657.916	99.488	0.126	0.146
-656.901	800.000	0.016	0.049
-655.886	-92.257	0.098	-0.028
-654.872	-148.225	-0.206	0.017
-653.857	177.977	-0.041	0.060
-652.843	-200.000	-0.009	0.095
-651.828	-126.329	-0.312	-0.047
-650.814	415.768	-0.010	0.022
-649.799	-88.121	-0.114	0.035
-648.784	-18.926	-0.111	-0.069
-647.770	-62.835	-0.200	-0.083
-646.755	137.762	0.231	0.305
-645.741	-2.638	-0.081	0.057
-644.726	307.759	-0.219	0.411
-643.711	167.875	-0.086	-0.122
-642.697	-96.812	0.452	0.120
-641.682	79.974	-0.390	-0.422
-640.668	-200.000	0.019	-0.372
-639.653	244.532	0.060	0.102
-638.638	-200.000	-0.040	-0.402
-637.624	-200.000	0.007	-0.106
-636.609	-97.795	0.061	0.016
-635.595	34.826	0.321	-0.283
-634.580	-200.000	-0.036	-0.519
-633.565	-200.000	0.001	0.076
-632.551	-200.000	-0.027	0.151
-631.536	-81.209	0.309	-0.103
-630.522	-154.301	0.225	-0.015
-629.507	28.525	0.224	0.190
-628.492	-200.000	0.003	0.049
-627.478	-200.000	-0.011	0.167
-626.463	251.199	-0.085	0.145
-625.449	800.000	0.094	-0.296
-624.434	407.594	-0.044	-0.092
-623.419	55.835	0.226	-0.220
-622.405	-200.000	-0.035	-0.155
-621.390	-13.964	-0.242	-0.157
-620.376	-94.274	0.284	0.078
-619.361	95.244	0.251	-0.287
-618.346	-7.303	0.199	0.136
-617.332	-200.000	0.067	0.321
-616.317	-73.057	-0.388	0.143
-615.303	-182.016	-0.109	-0.002
-614.288	800.000	0.016	-0.051
-613.273	-200.000	0.030	0.272
-612.259	-200.000	0.056	-0.321
-611.244	-89.526	0.266	0.079
-610.230	800.000	0.025	0.103
-609.215	-6.573	-0.105	0.072
-608.201	467.698	0.066	-0.148
-607.186	-119.883	-0.298	0.051
-606.171	-70.601	-0.177	-0.067
-605.157	-150.538	-0.357	-0.027
-604.142	800.000	0.077	0.230
-603.128	132.467	0.061	0.080
-602.113	7.305	-0.176	-0.132
-601.098	-80.388	-0.283	-0.095
-600.084	800.000	-0.085	0.288
-599.069	218.810	-0.047	-0.076
-598.055	-128.926	-0.124	0.018
-597.040	-149.623	-0.243	0.019
-596.025	-97.802	0.213	-0.055
-595.011	272.815	0.116	-0.206
-593.996	-166.297	0.200	0.008
-592.982	-103.592	-0.219	-0.052
-591.967	800.000	0.074	0.320
-590.952	180.450	0.251	0.370
-589.938	-200.000	-0.003	0.140
-588.923	-126.365	-0.121	0.018
-587.909	18.516	0.160	-0.128
-586.894	222.529	-0.166	-0.268
-585.879	-200.000	-0.002	-0.234
-584.865	-148.732	-0.286	-0.023
-583.850	-71.552	-0.159	-0.060
-582.836	-70.942	0.268	-0.101
-581.821	32.425	-0.324	-0.281
-580.806	470.681	0.037	-0.083
-579.792	-41.647	0.186	0.096
-578.777	-200.000	-0.011	-0.384
-577.763	-16.545	-0.075	-0.048
-576.748	-29.077	0.111	-0.064
-575.733	-200.000	0.050	0.357
-574.719	-65.622	0.096	0.039
-573.704	97.586	-0.271	0.313
-572.690	65.650	-0.228	0.231
-571.675	-200.000	0.005	-0.143
-570.661	-154.788	-0.038	0.003
-569.646	-73.331	-0.144	-0.053
-568.631	-200.000	-0.046	-0.313
-567.617	800.000	0.126	0.389
-566.602	-46.491	0.338	0.166
-565.588	213.963	0.162	-0.257
-564.573	12.600	0.012	0.009
-563.558	227.649	0.007	-0.011
-562.544	-200.000	-0.025	-0.150
-561.529	800.000	-0.031	-0.096
-560.515	-189.665	0.231	-0.003
-559.500	-22.428	0.104	0.063
-558.485	-22.453	-0.227	0.138
-557.471	-100.720	-0.110	-0.027
-556.456	-25.927	-0.249	-0.147
-555.442	800.000	0.090	0.281
-554.427	-200.000	-0.015	0.324
-553.412	-200.000	0.032	-0.198
-552.398	179.366	-0.123	-0.181
-551.383	-200.000	0.050	-0.471
-550.369	-11.543	0.189	-0.125
-549.354	98.244	0.068	0.078
-548.339	555.533	0.035	0.085
-547.325	-200.000	-0.038	-0.258
-546.310	-174.004	-0.212	0.006
-545.296	-155.555	0.094	-0.006
-544.281	-59.309	0.055	0.024
-543.266	-131.928	0.195	-0.025
-542.252	-54.344	0.187	-0.085
-541.237	466.120	0.077	0.174
-540.223	330.544	0.045	0.087
-539.208	47.222	0.137	0.128
-538.193	246.400	0.109	-0.184
-537.179	54.062	0.086	0.083
-536.164	-87.705	-0.137	0.041
-535.150	-200.000	0.023	-0.125
-534.135	-200.000	-0.004	0.103
-533.121	800.000	0.152	0.521
-532.106	-200.000	-0.020	0.255
-531.091	583.449	-0.046	0.112
-530.077	-41.994	0.215	0.110
-529.062	273.710	-0.182	0.323
-528.048	83.405	-0.071	0.078
-527.033	117.494	0.179	-0.220
-526.018	-45.242	-0.229	0.114
-525.004	276.369	-0.129	0.229
-523.989	-113.598	-0.221	-0.043
-522.975	163.020	-0.025	0.035
-521.960	51.965	-0.039	-0.037
-520.945	-108.436	-0.465	0.100
-519.931	326.637	0.078	0.150
-518.916	-197.561	-0.234	-0.001
-517.902	-30.744	0.123	0.070
-516.887	800.000	-0.104	0.357
-515.872	-97.829	-0.287	-0.074
-514.858	64.723	0.149	0.150
-513.843	71.307	0.271	0.281
-512.829	-93.938	-0.209	-0.057
-511.814	-184.952	-0.122	0.002
-510.799	-70.973	-0.271	-0.102
-509.785	52.430	-0.083	-0.080
-508.770	800.000	-0.053	-0.226
-507.756	176.842	0.010	0.015
-506.741	-102.287	-0.408	-0.098
-505.726	463.617	0.119	-0.267
-504.712	-1.654	-0.048	-0.034
-503.697	306.806	0.061	-0.114
-502.683	-82.583	0.223	0.072
-501.668	-200.000	-0.015	-0.263
-500.653	-136.071	0.243	0.028
-499.639	-109.343	-0.215	-0.046
-498.624	163.544	0.329	-0.462
-497.610	-200.000	0.023	-0.207
-496.595	800.000	-0.034	-0.136
-495.581	-98.685	0.181	-0.046
-494.566	-200.000	-0.000	0.056
-493.551	26.409	-0.066	-0.055
-492.537	-78.415	-0.093	-0.032
-491.522	142.725	-0.109	0.144
-490.508	-129.591	0.390	-0.054
-489.493	-200.000	-0.019	-0.176
-488.478	308.495	0.010	-0.019
-487.464	-139.371	-0.174	0.019
-486.449	-142.791	0.117	-0.011
-485.435	-97.175	0.204	0.053
-484.420	36.888	0.171	0.152
-483.405	44.366	-0.058	-0.054
-482.391	-146.672	0.367	0.032
-481.376	-2.187	0.160	0.113
-480.362	66.704	-0.171	0.174
-479.347	-133.750	0.070	0.009
-478.332	-37.370	0.158	0.084
-477.318	84.772	-0.067	0.073
-476.303	-200.000	-0.084	-0.399
-475.289	-200.000	0.017	0.231
-474.274	-106.627	0.311	-0.069
-473.259	240.025	0.018	-0.031
-472.245	-100.032	0.066	0.016
-471.230	-200.000	-0.001	-0.266
-470.216	-200.000	-0.045	-0.203
-469.201	-172.298	0.250	-0.008
-468.186	-156.106	-0.227	-0.014
-467.172	638.979	0.157	0.399
-466.157	-125.025	-0.385	-0.059
-465.143	-8.309	-0.238	0.160
-464.128	800.000	-0.034	-0.128
-463.113	-200.000	-0.052	0.375
-462.099	395.298	0.167	-0.348
-461.084	-200.000	-0.020	-0.132
-460.070	439.625	0.148	-0.322
-459.055	-31.223	0.246	-0.138
-458.040	-36.967	-0.193	-0.103
-457.026	293.513	0.123	-0.223
-456.011	-106.246	0.283	-0.063
-454.997	-127.355	0.283	0.041
-453.982	-104.826	-0.066	0.015
-452.968	-155.880	0.163	-0.010
-451.953	-10.958	0.176	-0.116
-450.938	-96.145	-0.107	0.028
-449.924	-93.296	0.235	0.065
-448.909	-26.593	0.129	0.075
-447.895	93.818	-0.100	0.113
-446.880	-84.568	0.173	-0.055
-445.865	3.128	0.263	-0.191
-444.851	331.386	-0.050	0.097
-443.836	123.839	-0.254	0.318
-442.822	-200.000	0.005	-0.094
-441.807	-10.677	-0.174	0.115
-440.792	120.868	-0.385	-0.477
-439.778	172.608	0.147	-0.211
-438.763	-120.966	-0.082	-0.014
-437.749	15.666	-0.290	0.227
-436.734	71.938	-0.233	0.242
-435.719	130.168	-0.166	0.212
-434.705	-82.699	0.175	-0.056
-433.690	800.000	0.072	0.208
-432.676	133.757	-0.134	-0.173
-431.661	-37.541	-0.169	-0.090
-430.646	-57.691	0.195	-0.085
-429.632	4.675	-0.155	0.114
-428.617	156.257	-0.156	-0.215
-427.603	434.390	-0.093	-0.201
-426.588	102.363	0.125	-0.146
-425.573	-21.947	-0.279	0.169
-424.559	487.186	-0.102	-0.233
-423.544	800.000	-0.039	-0.148
-422.530	772.486	-0.107	-0.291
-421.515	113.588	0.109	-0.132
-420.500	305.668	-0.085	0.157
-419.486	800.000	-0.101	-0.332
-418.471	-84.625	-0.133	-0.042
-417.457	25.466	-0.093	-0.077
-416.442	800.000	-0.058	-0.245
-415.428	296.784	-0.188	-0.343
-414.413	-200.000	-0.007	0.113
-413.398	-132.910	0.273	-0.035
-412.384	20.333	0.090	0.072
-411.369	-200.000	0.036	0.333
-410.355	10.433	-0.256	-0.194
-409.340	50.388	-0.225	-0.212
-408.325	-200.000	0.044	0.322
-407.311	-110.819	0.086	0.018
-406.296	-31.465	-0.037	0.020
-405.282	800.000	-0.043	-0.181
-404.267	-104.842	-0.439	-0.100
-403.252	-42.839	0.035	0.018
-402.238	-10.505	-0.185	-0.122
-401.223	-200.000	0.021	0.203
-400.209	302.035	-0.046	0.084
-399.194	242.218	0.214	-0.356
-398.179	586.870	0.078	0.190
-397.165	-76.298	-0.241	0.085
-396.150	-23.102	-0.092	-0.055
-395.136	61.607	0.141	0.140
-394.121	75.448	0.044	-0.046
-393.106	-42.017	-0.229	-0.117
-392.092	400.564	0.041	-0.085
-391.077	389.570	-0.035	0.072
-390.063	34.510	0.261	-0.227
-389.048	474.740	-0.067	0.151
-388.033	-200.000	-0.019	-0.213
-387.019	-43.838	-0.347	-0.174
-386.004	65.726	0.087	0.088
-384.990	-200.000	-0.008	-0.097
-383.975	-146.788	0.150	-0.013
-382.960	-66.533	0.031	-0.012
-381.946	-91.618	-0.073	0.021
-380.931	800.000	0.005	0.020
-379.917	-200.000	-0.004	0.097
-378.902	46.721	-0.213	0.197
-377.888	72.627	0.139	0.145
-376.873	-135.246	0.500	-0.060
-375.858	-154.197	0.266	-0.018
-374.844	-83.852	-0.284	-0.090
-373.829	321.589	-0.154	-0.292
-372.815	-113.473	0.226	0.044
-371.800	125.074	0.196	-0.246
-370.785	800.000	-0.019	0.080
-369.771	423.990	0.060	0.128
-368.756	-20.423	0.163	-0.100
-367.742	-200.000	0.051	0.299
-366.727	248.332	0.117	0.198
-365.712	800.000	0.032	0.114
-364.698	-200.000	-0.001	-0.313
-363.683	800.000	-0.088	-0.332
-362.669	-148.972	-0.241	0.019
-361.654	-200.000	-0.084	-0.385
-360.639	-47.810	-0.458	-0.221
-359.625	-200.000	-0.049	0.226
-358.610	78.704	-0.062	0.066
-357.596	601.947	0.069	-0.170
-356.581	-5.819	0.149	-0.101
-355.566	-79.904	-0.294	0.098
-354.552	41.311	-0.245	-0.220
-353.537	147.421	0.207	-0.277
-352.523	563.404	-0.188	-0.453
-351.508	-170.679	0.276	0.009
-350.493	-87.845	0.345	-0.103
-349.479	-115.289	-0.271	0.051
-348.464	119.285	-0.098	0.121
-347.450	-41.784	-0.289	0.147
-346.435	438.656	0.046	-0.100
-345.420	-200.000	0.018	-0.170
-344.406	14.559	0.049	0.038
-343.391	-76.405	0.292	-0.102
-342.377	465.668	-0.174	0.386
-341.362	-17.333	0.248	-0.155
-340.348	-200.000	0.040	-0.180
-339.333	713.162	-0.069	0.182
-338.318	484.559	0.120	0.271
-337.304	-36.263	-0.114	-0.061
-336.289	184.738	-0.138	0.203
-335.275	-70.406	0.255	0.096
-334.260	-94.089	-0.244	-0.067
-333.245	-93.170	0.364	-0.100
-332.231	-116.052	0.220	0.041
-331.216	206.995	0.133	0.205
-330.202	800.000	0.018	-0.052
-329.187	-153.988	0.138	-0.009
-328.172	202.709	0.105	-0.162
-327.158	30.842	0.233	-0.198
-326.143	46.470	-0.079	-0.073
-325.129	-13.731	0.057	0.036
-324.114	558.032	0.113	-0.270
-323.099	-94.796	-0.247	-0.067
-322.085	100.836	0.072	-0.083
-321.070	5.806	-0.225	-0.165
-320.056	-119.873	0.223	-0.038
-319.041	-200.000	-0.059	0.268
-318.026	-65.491	-0.306	0.122
-317.012	-44.678	-0.097	-0.048
-315.997	800.000	-0.065	-0.257
-314.983	-200.000	0.042	0.210
-313.968	-200.000	-0.049	0.230
-312.953	800.000	0.069	-0.202
-311.939	-60.410	0.333	-0.140
-310.924	-34.373	0.112	-0.061
-309.910	-200.000	-0.003	-0.244
-308.895	-154.965	0.118	-0.008
-307.880	800.000	0.053	0.148
-306.866	-73.227	-0.199	-0.072
-305.851	-200.000	-0.038	0.280
-304.837	-6.026	-0.124	-0.084
-303.822	184.302	0.057	0.083
-302.807	305.223	-0.024	-0.045
-301.793	63.034	0.091	-0.090
-300.778	-200.000	0.014	-0.221
-299.764	-137.408	-0.173	0.019
-298.749	8.000	0.034	0.025
-297.735	-200.000	-0.038	0.308
-296.720	352.854	0.077	0.151
-295.705	-168.205	-0.124	0.005
-294.691	-200.000	-0.015	0.135
-293.676	-134.027	-0.175	0.022
-292.662	202.707	0.333	0.511
-291.647	-60.439	-0.314	-0.132
-290.632	-200.000	0.007	0.193
-289.618	45.833	-0.192	-0.176
-288.603	33.522	0.162	-0.139
-287.589	603.993	0.163	0.403
-286.574	132.082	0.111	0.142
-285.559	-79.148	-0.083	-0.028
-284.545	526.705	-0.040	0.093
-283.530	398.200	0.052	0.108
-282.516	173.490	0.034	-0.049
-281.501	-67.691	-0.291	0.113
-280.486	-200.000	-0.033	-0.290
-279.472	-54.498	0.112	0.050
-278.457	-90.913	-0.186	-0.053
-277.443	-65.279	0.276	0.110
-276.428	-7.965	-0.488	0.326
-275.413	39.829	0.181	0.161
-274.399	-116.298	-0.273	-0.050
-273.384	-200.000	-0.325	0.001
-272.370	-2.205	0.284	0.197
-271.355	-127.404	-0.129	-0.019
-270.340	-177.920	-0.281	-0.007
-269.326	-67.393	-0.158	0.061
-268.311	108.720	-0.096	0.114
-267.297	178.695	-0.020	0.030
-266.282	-134.761	0.236	-0.028
-265.267	-66.246	0.234	-0.092
-264.253	-200.000	-0.001	-0.025
-263.238	-140.708	0.306	0.031
-262.224	-200.000	-0.026	0.288
-261.209	62.793	-0.194	0.193
-260.195	5.359	0.364	-0.266
-259.180	586.258	0.065	0.158
-258.165	-98.416	-0.168	0.043
-257.151	213.008	-0.194	0.303
-256.136	-200.000	0.033	0.218
-255.122	170.973	-0.218	0.309
-254.107	-34.749	0.222	0.120
-253.092	-36.683	0.053	0.028
-252.078	306.394	0.061	-0.113
-251.063	52.510	0.053	0.050
-250.049	54.394	-0.279	0.266
-249.034	132.765	-0.203	-0.259
-248.019	-126.488	-0.196	0.029
-247.005	303.421	0.093	0.171
-245.990	724.402	-0.034	-0.091
-244.976	-141.897	0.346	-0.034
-243.961	-115.811	-0.109	0.020
-242.946	-9.126	0.315	-0.209
-241.932	441.877	-0.239	-0.518
-240.917	549.534	-0.064	-0.152
-239.903	242.550	-0.149	0.247
-238.888	-125.357	0.299	0.045
-237.873	17.482	0.297	0.233
-236.859	-78.660	-0.148	-0.050
-235.844	-16.693	0.100	0.063
-234.830	-200.000	-0.020	0.303
-233.815	98.110	0.060	-0.068
-232.800	-126.910	-0.079	-0.012
-231.786	-27.796	-0.140	-0.080
-230.771	-35.090	0.023	0.012
-229.757	-200.000	0.001	0.122
-228.742	398.967	-0.068	0.140
-227.727	153.355	0.201	0.272
-226.713	-200.000	0.010	-0.256
-225.698	133.446	-0.118	-0.151
-224.684	46.360	0.278	-0.255
-223.669	144.012	0.283	0.373
-222.655	-200.000	0.001	0.106
-221.640	388.756	0.111	0.228
-220.625	-68.782	0.146	0.056
-219.611	-99.560	-0.172	-0.043
-218.596	110.405	0.253	-0.301
-217.582	800.000	0.008	0.025
-216.567	-170.516	0.100	0.003
-215.552	-58.607	0.387	0.166
-214.538	800.000	-0.039	0.121
-213.523	-138.653	0.350	-0.038
-212.509	-200.000	-0.012	-0.148
-211.494	800.000	-0.042	-0.173
-210.479	78.413	-0.105	-0.111
-209.465	277.945	0.030	0.053
-208.450	-200.000	-0.007	0.202
-207.436	-49.014	-0.163	-0.077
-206.421	-62.313	-0.163	-0.067
-205.406	159.647	0.097	-0.133
-204.392	800.000	0.115	0.449
-203.377	27.716	0.340	0.283
-202.363	-36.281	-0.285	0.152
-201.348	-179.458	-0.300	-0.007
-200.333	180.516	-0.171	0.248
-199.319	-142.318	0.254	-0.025
-198.304	477.011	0.084	-0.188
-197.290	230.464	0.173	0.279
-196.275	800.000	0.119	-0.370
-195.260	118.362	0.164	0.200
-194.246	800.000	0.077	0.214
-193.231	-200.000	-0.009	0.085
-192.217	-32.805	0.237	-0.130
-191.202	-200.000	0.006	0.079
-190.187	-123.767	-0.135	-0.021
-189.173	318.659	-0.067	0.125
-188.158	-200.000	0.021	-0.166
-187.144	36.468	-0.188	-0.164
-186.129	79.463	0.195	0.207
-185.114	-129.602	-0.214	0.029
-184.100	6.157	0.133	0.097
-183.085	-98.315	-0.204	-0.052
-182.071	196.648	0.166	-0.250
-181.056	-164.662	0.239	-0.011
-180.042	-152.488	0.130	0.009
-179.027	-86.967	-0.154	0.046
-178.012	-65.998	-0.165	0.065
-176.998	440.286	0.086	0.186
-175.983	208.995	-0.105	-0.163
-174.969	-135.644	-0.287	-0.034
-173.954	-69.724	0.223	0.084
-172.939	-200.000	-0.002	-0.047
-171.925	-200.000	0.010	0.220
-170.910	-200.000	-0.004	-0.130
-169.896	-200.000	0.019	-0.104
-168.881	800.000	0.083	0.252
-167.866	-42.338	-0.182	0.092
-166.852	-200.000	-0.014	0.230
-165.837	45.744	-0.214	0.196
-164.823	800.000	-0.099	0.314
-163.808	-170.031	-0.224	0.008
-162.793	-5.673	-0.101	-0.068
-161.779	-75.087	0.251	-0.089
-160.764	124.956	-0.137	-0.170
-159.750	-127.752	-0.175	0.025
-158.735	-66.384	0.232	-0.091
-157.720	425.795	0.127	0.270
-156.706	-16.015	-0.277	-0.174
-155.691	154.105	0.030	-0.041
-154.677	256.193	0.188	0.319
-153.662	193.186	-0.076	0.114
-152.647	158.797	-0.140	0.192
-151.633	-163.349	0.188	-0.009
-150.618	-200.000	0.023	-0.131
-149.604	-200.000	0.099	0.524
-148.589	2.199	-0.379	0.271
-147.574	269.339	-0.029	0.050
-146.560	-94.013	0.144	0.039
-145.545	106.747	-0.134	0.157
-144.531	-119.364	0.264	-0.045
-143.516	479.620	0.097	0.217
-142.502	-29.135	-0.224	-0.127
-141.487	-200.000	-0.032	0.289
-140.472	90.293	0.208	0.230
-139.458	-113.816	0.344	-0.066
-138.443	-157.021	0.108	0.007
-137.429	-136.883	-0.216	-0.024
-136.414	236.762	-0.222	-0.362
-135.399	121.445	-0.148	0.181
-134.385	-134.438	0.026	-0.003
-133.370	51.386	-0.314	0.294
-132.356	-97.932	0.035	-0.009
-131.341	-86.856	0.148	0.045
-130.326	-124.282	0.380	-0.059
-129.312	5.331	0.216	0.157
-128.297	189.239	0.010	-0.015
-127.283	193.178	0.131	0.195
-126.268	-200.000	-0.026	0.127
-125.253	-22.199	-0.157	-0.094
-124.239	-200.000	0.009	0.052
-123.224	77.412	0.304	0.319
-122.210	324.463	-0.129	0.244
