DTS Sentinel unit serial number:	SN413079Multiplexer serial number:	ORYXHardware model number:	OX4-SRSoftware version number:	ORYX F/W v4.00 Oryx Data Collector v3.7.2.0data status	okinstallation	princeton_trtdifferential loss correction	single-endedforward channel	channel 4reverse channel	N/Adate	2019/09/18time	05:09:35forward acquisition time	60.00reverse acquisition time	0.00gamma	496.2192k internal	0.2331k external	0.2331temperature offset calibration	0.9996default loss term (dB/km)	0.3790temperature slope calibration	1.0000multiplexer offset coefficient	1.0000multiplexer slope coefficient	1.0000fibre end	0.00T internal ref (°C)	23.50T ext. ref 1 (°C)	0.19T ext. ref 2 (°C)	17.50length (m)	temperature (°C)	Stokes	anti-Stokes-747.200	-171.597	0.214	0.007
-746.185	-161.826	0.221	0.011
-745.171	-43.035	-0.279	-0.143
-744.156	-95.600	0.237	0.064
-743.142	800.000	-0.033	0.135
-742.127	156.352	-0.311	0.432
-741.112	-92.073	-0.143	0.041
-740.098	115.926	-0.083	-0.102
-739.083	-5.623	-0.035	-0.024
-738.069	16.203	-0.277	0.219
-737.054	72.698	0.136	0.142
-736.039	-160.329	-0.372	0.020
-735.025	171.449	-0.045	-0.065
-734.010	-114.741	0.321	-0.062
-732.996	85.200	-0.062	0.069
-731.981	-23.354	-0.311	-0.188
-730.966	75.688	-0.261	0.278
-729.952	745.025	0.116	0.315
-728.937	-149.289	0.053	-0.004
-727.923	-1.187	0.162	-0.115
-726.908	-120.783	-0.048	0.008
-725.894	359.346	0.039	0.078
-724.879	-144.510	-0.171	0.016
-723.864	-52.057	0.059	0.028
-722.850	747.070	-0.100	-0.272
-721.835	94.520	0.144	-0.164
-720.821	-136.635	-0.092	-0.011
-719.806	800.000	-0.118	-0.505
-718.791	-3.886	-0.089	0.062
-717.777	-65.554	0.187	-0.076
-716.762	-61.148	0.112	-0.047
-715.748	334.556	0.051	-0.099
-714.733	132.807	-0.088	0.114
-713.718	535.202	0.087	0.207
-712.704	2.453	-0.145	-0.105
-711.689	-97.341	0.012	-0.003
-710.675	-79.172	0.168	-0.057
-709.660	-200.000	-0.027	-0.155
-708.645	-84.970	0.405	-0.128
-707.631	-12.818	0.080	-0.052
-706.616	169.539	0.148	0.212
-705.602	-97.367	0.345	-0.090
-704.587	-3.931	0.234	-0.163
-703.572	-18.233	0.355	0.223
-702.558	-102.702	0.255	0.061
-701.543	-200.000	-0.018	0.095
-700.529	187.862	-0.191	-0.287
-699.514	-110.696	0.330	0.068
-698.499	-114.541	0.297	0.057
-697.485	18.515	-0.156	0.125
-696.470	-200.000	-0.007	0.072
-695.456	133.878	-0.223	-0.290
-694.441	298.940	0.178	-0.330
-693.426	468.444	0.065	-0.146
-692.412	-38.584	-0.195	0.103
-691.397	-200.000	0.018	-0.083
-690.383	800.000	-0.037	0.110
-689.368	188.488	-0.254	-0.382
-688.354	-200.000	0.005	-0.154
-687.339	562.412	-0.104	-0.253
-686.324	151.478	-0.078	0.107
-685.310	-111.735	-0.168	0.034
-684.295	-156.109	0.114	-0.007
-683.281	17.962	0.013	0.010
-682.266	48.523	0.201	-0.189
-681.251	-74.143	-0.114	-0.041
-680.237	-122.564	0.094	0.015
-679.222	-99.568	-0.503	-0.127
-678.208	18.125	-0.246	0.197
-677.193	-112.753	0.152	-0.030
-676.178	-156.353	0.233	-0.015
-675.164	37.401	0.250	0.222
-674.149	-169.366	-0.068	-0.003
-673.135	-137.468	-0.213	0.024
-672.120	25.848	-0.124	-0.104
-671.105	-171.916	-0.209	0.007
-670.091	-200.000	-0.019	0.084
-669.076	120.880	0.139	-0.173
-668.062	-81.420	-0.160	0.053
-667.047	41.934	0.131	0.119
-666.032	440.844	0.065	-0.143
-665.018	199.378	0.152	0.234
-664.003	-54.396	-0.280	0.127
-662.989	220.858	-0.101	0.162
-661.974	120.001	0.211	-0.263
-660.959	-107.243	0.134	0.030
-659.945	-127.466	0.477	-0.070
-658.930	800.000	0.068	-0.267
-657.916	69.372	-0.227	-0.234
-656.901	-200.000	0.002	0.278
-655.886	-106.034	-0.421	0.095
-654.872	182.992	-0.150	-0.223
-653.857	203.162	0.135	-0.209
-652.843	-92.937	-0.283	-0.079
-651.828	0.999	-0.319	0.229
-650.814	-16.615	0.051	0.033
-649.799	-200.000	0.001	0.174
-648.784	-54.990	-0.280	0.127
-647.770	-78.949	0.377	-0.129
-646.755	-19.958	0.122	0.075
-645.741	-183.687	-0.200	0.003
-644.726	-42.150	-0.126	-0.064
-643.711	800.000	0.153	0.443
-642.697	800.000	-0.064	0.191
-641.682	-184.345	-0.098	-0.002
-640.668	59.707	-0.331	-0.327
-639.653	800.000	0.036	-0.138
-638.638	666.040	-0.012	0.031
-637.624	9.974	-0.219	0.167
-636.609	-132.988	0.122	-0.016
-635.595	-200.000	0.017	0.081
-634.580	176.314	-0.082	0.119
-633.565	186.006	0.010	-0.016
-632.551	-22.017	0.122	0.074
-631.536	800.000	0.041	-0.178
-630.522	-101.894	0.299	0.072
-629.507	-200.000	-0.025	-0.183
-628.492	-44.951	0.102	0.051
-627.478	-178.880	0.203	0.005
-626.463	800.000	-0.058	-0.173
-625.449	-80.164	-0.094	-0.032
-624.434	-54.138	-0.348	-0.159
-623.419	-98.986	0.253	0.064
-622.405	260.210	0.116	-0.202
-621.390	593.853	-0.098	0.244
-620.376	701.808	-0.070	0.185
-619.361	-109.030	0.263	0.056
-618.346	800.000	-0.014	0.042
-617.332	-127.188	0.176	0.026
-616.317	413.956	-0.102	0.218
-615.303	25.481	0.031	-0.026
-614.288	-200.000	0.018	0.126
-613.273	13.719	-0.006	-0.005
-612.259	222.899	-0.092	0.149
-611.244	11.615	-0.129	0.099
-610.230	49.986	-0.043	0.041
-609.215	-32.601	0.084	0.047
-608.201	-52.421	0.151	-0.070
-607.186	-62.004	0.094	0.039
-606.171	378.247	0.086	-0.177
-605.157	-200.000	0.006	0.122
-604.142	347.310	-0.049	0.097
-603.128	-200.000	-0.009	-0.324
-602.113	-5.485	0.094	-0.065
-601.098	-18.001	-0.155	0.097
-600.084	-41.758	0.066	-0.034
-599.069	283.230	0.012	-0.022
-598.055	-200.000	-0.043	0.245
-597.040	46.988	0.172	-0.160
-596.025	-91.821	-0.270	0.077
-595.011	531.615	-0.023	0.054
-593.996	800.000	0.100	0.411
-592.982	94.736	-0.054	0.062
-591.967	-1.200	0.275	0.194
-590.952	-200.000	-0.005	0.316
-589.938	-190.762	-0.225	0.002
-588.923	-200.000	-0.047	-0.253
-587.909	-130.961	0.169	0.023
-586.894	-139.620	-0.306	-0.033
-585.879	403.505	0.090	-0.189
-584.865	-125.326	-0.260	0.040
-583.850	800.000	0.072	-0.307
-582.836	321.156	0.060	-0.114
-581.821	42.682	-0.084	-0.076
-580.806	-121.959	-0.140	-0.023
-579.792	-200.000	0.059	-0.299
-578.777	-121.677	-0.263	-0.044
-577.763	-200.000	-0.032	-0.199
-576.748	-200.000	0.094	-0.540
-575.733	800.000	0.070	0.217
-574.719	-161.916	-0.293	-0.015
-573.704	-18.436	-0.150	0.094
-572.690	35.930	-0.304	-0.267
-571.675	31.529	-0.266	0.228
-570.661	87.318	0.096	-0.106
-569.646	0.578	-0.066	-0.047
-568.631	800.000	0.065	-0.228
-567.617	195.501	-0.073	-0.110
-566.602	-76.858	-0.180	-0.063
-565.588	93.191	0.086	-0.097
-564.573	-200.000	0.025	0.404
-563.558	-166.072	0.170	-0.007
-562.544	-24.657	0.231	-0.137
-561.529	191.821	0.078	0.118
-560.515	-200.000	0.039	-0.237
-559.500	-162.525	-0.274	0.014
-558.485	108.055	-0.063	0.075
-557.471	800.000	-0.063	0.222
-556.456	595.776	0.181	-0.448
-555.442	-37.533	0.267	-0.142
-554.427	-200.000	0.003	-0.103
-553.412	-200.000	0.005	-0.154
-552.398	-148.074	-0.138	-0.011
-551.383	-114.956	-0.071	0.014
-550.369	46.103	-0.202	0.187
-549.354	-200.000	-0.019	0.114
-548.339	17.727	-0.173	0.137
-547.325	-117.488	-0.502	-0.091
-546.310	-155.515	-0.076	0.005
-545.296	-7.295	-0.279	-0.189
-544.281	394.405	0.109	0.227
-543.266	-59.506	-0.177	-0.076
-542.252	512.493	-0.010	-0.023
-541.237	-1.251	-0.085	0.060
-540.223	-200.000	0.046	-0.253
-539.208	470.313	-0.070	0.157
-538.193	-114.578	-0.172	-0.033
-537.179	77.766	0.194	-0.206
-536.164	293.057	-0.073	-0.133
-535.150	107.080	0.248	0.294
-534.135	-131.183	-0.321	0.043
-533.121	800.000	0.067	-0.201
-532.106	55.140	-0.179	-0.173
-531.091	212.260	-0.062	0.097
-530.077	-145.912	-0.201	-0.018
-529.062	49.955	0.067	0.063
-528.048	-200.000	0.016	-0.122
-527.033	118.108	0.074	0.091
-526.018	456.162	-0.151	-0.334
-525.004	-172.870	0.230	0.007
-523.989	800.000	-0.019	-0.083
-522.975	-73.774	-0.165	0.060
-521.960	-76.803	-0.177	0.062
-520.945	-68.140	0.059	0.023
-519.931	-200.000	0.035	-0.250
-518.916	178.328	0.183	-0.267
-517.902	800.000	-0.039	-0.127
-516.887	446.441	0.067	-0.146
-515.872	800.000	0.122	0.341
-514.858	-37.184	0.267	-0.143
-513.843	-200.000	-0.016	-0.217
-512.829	-148.763	0.146	-0.012
-511.814	59.410	-0.133	0.131
-510.799	-134.577	0.159	-0.019
-509.785	131.863	-0.238	-0.305
-508.770	430.730	-0.122	0.264
-507.756	88.374	0.089	0.099
-506.741	483.020	-0.063	-0.143
-505.726	-200.000	0.012	-0.090
-504.712	-0.932	-0.270	0.190
-503.697	-200.000	0.006	0.331
-502.683	-116.390	0.091	0.017
-501.668	502.648	-0.121	-0.278
-500.653	729.995	-0.081	-0.216
-499.639	-121.245	0.429	0.071
-498.624	344.925	-0.154	-0.302
-497.610	-89.980	0.085	-0.025
-496.595	-200.000	0.049	0.226
-495.581	800.000	0.100	0.371
-494.566	-200.000	0.003	-0.095
-493.551	800.000	-0.075	-0.249
-492.537	-146.487	-0.137	0.012
-491.522	786.437	-0.007	0.019
-490.508	-149.101	0.225	0.018
-489.493	-36.012	-0.280	-0.151
-488.478	425.236	0.155	-0.332
-487.464	-24.513	-0.139	0.083
-486.449	8.351	0.230	-0.172
-485.435	55.772	0.105	0.101
-484.420	-155.547	-0.143	0.009
-483.405	102.907	0.093	0.109
-482.391	-54.320	-0.164	0.074
-481.376	44.709	-0.215	0.197
-480.362	-40.994	-0.142	-0.073
-479.347	-200.000	-0.018	-0.127
-478.332	30.300	-0.164	-0.140
-477.318	628.834	0.052	0.130
-476.303	-32.784	-0.105	-0.058
-475.289	800.000	0.070	0.198
-474.274	16.957	0.101	0.079
-473.259	-67.663	0.140	0.055
-472.245	505.186	-0.077	-0.177
-471.230	81.072	-0.163	-0.175
-470.216	667.356	-0.072	0.186
-469.201	71.523	-0.124	-0.128
-468.186	61.454	-0.171	-0.169
-467.172	-200.000	-0.005	-0.027
-466.157	77.072	0.117	0.124
-465.143	176.018	-0.124	-0.179
-464.128	-14.502	0.259	0.166
-463.113	800.000	-0.032	0.108
-462.099	800.000	-0.061	0.234
-461.084	-9.886	-0.110	0.073
-460.070	4.970	0.276	-0.202
-459.055	18.986	0.174	-0.139
-458.040	800.000	-0.056	0.218
-457.026	-200.000	-0.040	-0.253
-456.011	-53.360	-0.353	0.161
-454.997	-99.103	0.176	-0.044
-453.982	-200.000	0.120	-0.546
-452.968	528.273	-0.077	-0.180
-451.953	295.212	0.128	-0.233
-450.938	5.046	-0.201	0.148
-449.924	706.909	-0.031	0.082
-448.909	800.000	0.023	-0.064
-447.895	-21.443	-0.263	-0.160
-446.880	800.000	0.036	-0.115
-445.865	-200.000	0.016	0.239
-444.851	-85.381	0.161	-0.050
-443.836	749.524	-0.107	-0.286
-442.822	-115.042	0.198	0.037
-441.807	-97.338	-0.155	0.040
-440.792	-23.067	0.095	0.057
-439.778	126.521	0.228	-0.287
-438.763	-147.441	-0.039	0.003
-437.749	-200.000	0.051	-0.267
-436.734	-37.825	-0.350	0.185
-435.719	17.399	0.247	0.195
-434.705	219.953	-0.013	0.021
-433.690	800.000	0.090	-0.363
-432.676	791.732	-0.016	-0.042
-431.661	195.211	-0.079	-0.120
-430.646	198.154	0.225	-0.342
-429.632	-45.084	-0.177	0.087
-428.617	-39.479	0.144	0.075
-427.603	800.000	-0.029	0.112
-426.588	-8.582	0.318	0.213
-425.573	117.320	-0.105	0.129
-424.559	800.000	0.007	0.023
-423.544	-200.000	0.005	-0.297
-422.530	105.134	0.269	-0.315
-421.515	774.956	-0.063	0.172
-420.500	-140.900	-0.179	0.018
-419.486	26.132	-0.389	0.323
-418.471	-55.774	0.040	0.018
-417.457	480.091	-0.053	-0.119
-416.442	222.536	-0.033	-0.052
-415.428	-104.582	0.258	0.059
-414.413	253.064	0.023	0.039
-413.398	503.657	-0.128	0.294
-412.384	-83.141	0.193	-0.062
-411.369	-1.843	-0.064	0.044
-410.355	-112.985	0.182	-0.036
-409.340	-133.726	0.131	0.016
-408.325	-200.000	0.032	0.483
-407.311	102.583	0.044	0.052
-406.296	-3.621	-0.153	-0.106
-405.282	58.882	-0.114	0.112
-404.267	-49.734	0.460	0.217
-403.252	-32.058	-0.032	0.018
-402.238	-47.286	-0.301	-0.146
-401.223	-200.000	0.083	-0.400
-400.209	-68.954	-0.127	-0.048
-399.194	603.480	0.018	-0.045
-398.179	-200.000	0.055	-0.308
-397.165	-200.000	-0.049	-0.249
-396.150	-200.000	0.018	-0.120
-395.136	-87.114	-0.260	-0.079
-394.121	-200.000	0.010	0.275
-393.106	-4.219	-0.235	-0.162
-392.092	800.000	0.057	0.209
-391.077	-127.873	-0.211	0.030
-390.063	800.000	0.042	0.165
-389.048	800.000	0.079	0.243
-388.033	-200.000	-0.044	0.276
-387.019	-200.000	-0.015	-0.158
-386.004	-107.849	0.246	-0.053
-384.990	287.677	0.117	-0.211
-383.975	-200.000	0.070	0.373
-382.960	-88.563	0.163	0.048
-381.946	784.509	-0.078	0.212
-380.931	-38.770	-0.090	-0.047
-379.917	789.661	-0.044	0.120
-378.902	-200.000	-0.025	0.232
-377.888	112.140	0.193	-0.232
-376.873	15.816	0.111	0.087
-375.858	800.000	0.032	-0.124
-374.844	633.169	0.067	-0.169
-373.829	177.095	-0.099	-0.142
-372.815	77.313	0.115	0.121
-371.800	776.986	-0.197	-0.533
-370.785	-52.760	0.396	-0.181
-369.771	65.059	-0.100	-0.100
-368.756	-200.000	0.031	0.349
-367.742	45.569	-0.056	0.051
-366.727	-124.445	-0.131	-0.020
-365.712	-49.208	0.219	0.104
-364.698	467.105	-0.090	0.200
-363.683	-110.355	-0.135	0.028
-362.669	-4.295	-0.030	-0.021
-361.654	-122.791	0.049	0.008
-360.639	-70.994	0.288	0.107
-359.625	-118.802	-0.070	0.012
-358.610	-107.349	-0.223	0.049
-357.596	9.503	0.196	0.147
-356.581	-46.700	0.170	0.083
-355.566	-103.088	-0.171	0.040
-354.552	-98.166	0.191	0.049
-353.537	-125.469	0.186	-0.028
-352.523	-104.149	-0.197	-0.045
-351.508	-123.016	0.222	-0.035
-350.493	-34.695	0.138	-0.075
-349.479	800.000	-0.083	-0.321
-348.464	-65.222	-0.168	0.067
-347.450	-200.000	-0.037	-0.189
-346.435	800.000	-0.022	0.071
-345.420	800.000	-0.105	-0.327
-344.406	37.155	0.139	-0.122
-343.391	-200.000	0.039	0.262
-342.377	549.666	0.150	-0.355
-341.362	-200.000	-0.001	-0.199
-340.348	82.852	-0.145	-0.157
-339.333	-127.418	-0.030	-0.004
-338.318	187.442	-0.061	-0.091
-337.304	-102.364	0.261	0.062
-336.289	-29.623	0.168	0.095
-335.275	-79.201	-0.376	-0.126
-334.260	-131.102	0.341	0.045
-333.245	224.138	0.272	0.435
-332.231	-200.000	0.032	0.269
-331.216	113.359	-0.067	-0.081
-330.202	-200.000	0.039	0.213
-329.187	57.517	-0.212	0.205
-328.172	186.393	0.054	-0.079
-327.158	-87.737	-0.058	-0.017
-326.143	-200.000	0.017	-0.241
-325.129	-126.829	0.021	0.003
-324.114	44.423	-0.139	0.127
-323.099	-59.440	-0.151	0.064
-322.085	-200.000	-0.003	-0.076
-321.070	800.000	-0.144	0.537
-320.056	-157.052	-0.189	-0.011
-319.041	256.827	0.141	0.240
-318.026	-88.368	-0.382	0.113
-317.012	-154.067	0.240	-0.016
-315.997	800.000	0.081	0.271
-314.983	-59.977	0.150	0.063
-313.968	-61.329	-0.103	0.043
-312.953	98.227	-0.123	-0.141
-311.939	153.513	-0.288	0.390
-310.924	-46.043	0.158	0.077
-309.910	-27.798	0.404	0.232
-308.895	-0.526	-0.172	0.121
-307.880	-64.752	-0.376	-0.151
-306.866	-4.089	0.085	0.058
-305.851	206.471	-0.081	0.125
-304.837	-45.266	0.072	-0.036
-303.822	-17.538	-0.139	0.086
-302.807	36.085	-0.087	-0.076
-301.793	-53.351	-0.177	0.080
-300.778	-1.528	-0.177	0.123
-299.764	-40.264	0.130	0.067
-298.749	181.689	-0.138	-0.201
-297.735	800.000	-0.038	0.142
-296.720	536.120	0.094	-0.220
-295.705	-187.575	-0.238	0.003
-294.691	96.602	0.066	-0.074
-293.676	168.408	0.100	-0.141
-292.662	-45.738	-0.025	-0.012
-291.647	-200.000	0.010	-0.256
-290.632	-200.000	0.007	0.186
-289.618	88.893	0.017	0.019
-288.603	105.498	-0.053	-0.062
-287.589	138.754	0.073	0.094
-286.574	13.475	-0.203	0.155
-285.559	800.000	0.101	0.289
-284.545	-200.000	-0.107	0.483
-283.530	263.128	-0.126	0.217
-282.516	800.000	0.125	0.466
-281.501	-45.955	0.044	0.022
-280.486	148.965	0.177	0.237
-279.472	-69.445	0.198	-0.075
-278.457	560.130	-0.050	0.119
-277.443	426.951	-0.062	0.133
-276.428	-94.819	0.292	-0.078
-275.413	-110.959	-0.201	-0.041
-274.399	121.754	-0.139	-0.171
-273.384	-200.000	0.032	-0.183
-272.370	-200.000	-0.014	0.130
-271.355	169.856	-0.094	-0.133
-270.340	-200.000	-0.053	-0.349
-269.326	5.372	0.124	-0.091
-268.311	-131.538	0.204	-0.027
-267.297	214.144	0.051	-0.080
-266.282	217.096	0.070	-0.110
-265.267	-4.526	-0.274	-0.187
-264.253	-38.897	0.138	0.072
-263.238	-158.992	-0.386	0.022
-262.224	-200.000	-0.011	0.243
-261.209	24.515	0.246	-0.201
-260.195	42.184	0.061	-0.055
-259.180	219.100	0.092	0.146
-258.165	-43.847	0.176	0.088
-257.151	-110.117	-0.359	-0.074
-256.136	-122.605	-0.241	-0.039
-255.122	-174.697	0.105	-0.003
-254.107	245.399	0.031	-0.052
-253.092	800.000	0.038	0.151
-252.078	-200.000	-0.073	0.336
-251.063	68.091	0.061	-0.062
-250.049	16.382	0.125	-0.097
-249.034	-54.771	0.139	-0.062
-248.019	14.415	-0.143	0.110
-247.005	-172.248	-0.071	0.002
-245.990	-45.438	0.308	-0.151
-244.976	-200.000	0.003	0.174
-243.961	-21.724	0.213	0.128
-242.946	1.081	0.042	0.030
-241.932	311.439	0.107	0.197
-240.917	800.000	0.072	0.239
-239.903	-79.664	0.129	-0.043
-238.888	-200.000	-0.016	-0.213
-237.873	800.000	0.038	-0.133
-236.859	-89.876	0.237	0.068
-235.844	-8.281	-0.300	-0.199
-234.830	800.000	-0.011	0.042
-233.815	71.439	-0.162	-0.166
-232.800	-134.914	0.269	-0.032
-231.786	-173.912	0.168	-0.005
-230.771	-200.000	-0.010	0.180
-229.757	-26.717	-0.240	-0.138
-228.742	-51.037	0.161	-0.075
-227.727	24.277	0.200	-0.163
-226.713	64.612	0.201	0.199
-225.698	43.754	-0.235	0.213
-224.684	-134.253	0.038	-0.005
-223.669	-57.773	-0.062	-0.027
-222.655	-76.268	0.330	0.115
-221.640	81.003	-0.396	0.421
-220.625	-37.135	0.357	0.188
-219.611	-200.000	0.068	-0.341
-218.596	800.000	0.024	-0.087
-217.582	674.275	0.079	0.201
-216.567	-82.813	0.314	-0.100
-215.552	123.269	-0.136	0.168
-214.538	-78.177	0.315	0.107
-213.523	-65.890	-0.038	-0.015
-212.509	-49.991	0.056	-0.026
-211.494	-164.479	-0.093	0.004
-210.479	-33.073	0.270	0.147
-209.465	27.243	-0.175	0.145
-208.450	-81.038	-0.186	-0.061
-207.436	-182.570	-0.229	-0.004
-206.421	42.411	-0.039	-0.035
-205.406	-200.000	0.028	0.148
-204.392	83.965	-0.220	-0.236
-203.377	127.175	-0.236	-0.295
-202.363	-4.852	0.156	-0.106
-201.348	-52.812	0.142	0.065
-200.333	-200.000	-0.016	-0.150
-199.319	-170.285	0.077	-0.003
-198.304	-84.898	-0.099	0.031
-197.290	18.203	0.300	-0.236
-196.275	-155.451	-0.242	0.015
-195.260	800.000	0.122	-0.440
-194.246	-200.000	0.022	0.115
-193.231	-21.606	0.158	0.095
-192.217	486.346	0.097	0.218
-191.202	76.832	0.179	0.187
-190.187	-27.237	0.084	-0.048
-189.173	-82.226	-0.157	-0.050
-188.158	-200.000	-0.074	-0.433
-187.144	-142.807	0.198	0.019
-186.129	154.956	-0.067	0.091
-185.114	235.768	0.102	0.167
-184.100	-99.393	-0.136	0.034
-183.085	800.000	-0.022	-0.074
-182.071	67.204	0.133	0.134
-181.056	103.806	0.268	0.310
-180.042	-200.000	0.048	0.244
-179.027	-134.625	0.115	-0.014
-178.012	16.421	0.237	0.184
-176.998	13.947	-0.292	-0.224
-175.983	800.000	-0.038	0.153
-174.969	-63.870	0.161	-0.065
-173.954	109.592	0.080	-0.094
-172.939	-13.076	-0.193	0.124
-171.925	-200.000	-0.039	0.232
-170.910	-200.000	0.077	0.395
-169.896	436.296	-0.013	-0.027
-168.881	128.860	0.166	0.208
-167.866	-200.000	-0.027	-0.183
-166.852	800.000	0.110	0.369
-165.837	-75.508	-0.025	-0.009
-164.823	-200.000	-0.045	-0.208
-163.808	64.738	0.193	-0.192
-162.793	306.318	-0.172	-0.315
-161.779	-200.000	0.042	0.183
-160.764	-66.932	0.081	0.032
-159.750	-200.000	-0.225	0.001
-158.735	12.358	0.207	-0.157
-157.720	596.251	0.018	-0.043
-156.706	-39.738	-0.043	-0.022
-155.691	-122.555	0.043	0.007
-154.677	302.339	0.055	0.100
-153.662	334.120	-0.236	-0.449
-152.647	800.000	0.075	-0.251
-151.633	-200.000	0.052	-0.279
-150.618	-159.954	-0.290	0.016
-149.604	-62.295	0.385	-0.158
-148.589	-200.000	0.000	0.091
-147.574	-76.834	0.144	-0.050
-146.560	-88.527	0.080	0.023
-145.545	-65.831	0.105	-0.041
-144.531	2.669	0.137	0.098
-143.516	36.491	0.222	-0.193
-142.502	-89.342	0.366	-0.106
-141.487	203.857	-0.026	-0.040
-140.472	-200.000	-0.006	-0.108
-139.458	800.000	-0.038	0.112
-138.443	429.944	-0.149	0.317
-137.429	-200.000	0.023	-0.173
-136.414	-200.000	-0.007	0.247
-135.399	8.945	-0.073	0.054
-134.385	800.000	0.121	-0.363
-133.370	-133.302	0.314	0.039
-132.356	800.000	0.037	-0.152
-131.341	36.268	-0.280	-0.243
-130.326	-0.841	0.271	0.188
-129.312	-177.060	-0.205	0.005
-128.297	-65.437	0.232	-0.091
-127.283	-200.000	0.052	-0.351
-126.268	-41.794	0.194	-0.098
-125.253	-46.484	0.159	0.077
-124.239	433.090	-0.076	0.163
-123.224	-38.691	-0.416	-0.216
-122.210	321.939	0.171	-0.320
-121.195	43.612	-0.164	-0.147
-120.180	-200.000	0.040	-0.339
