DTS Sentinel unit serial number:	SN413079Multiplexer serial number:	ORYXHardware model number:	OX4-SRSoftware version number:	ORYX F/W v4.00 Oryx Data Collector v3.7.2.0data status	okinstallation	princeton_trtdifferential loss correction	single-endedforward channel	channel 4reverse channel	N/Adate	2019/09/16time	20:21:35forward acquisition time	60.00reverse acquisition time	0.00gamma	496.2192k internal	0.2311k external	0.2311temperature offset calibration	0.9967default loss term (dB/km)	0.3790temperature slope calibration	1.0000multiplexer offset coefficient	1.0000multiplexer slope coefficient	1.0000fibre end	0.00T internal ref (°C)	32.81T ext. ref 1 (°C)	0.08T ext. ref 2 (°C)	26.68length (m)	temperature (°C)	Stokes	anti-Stokes-747.200	311.092	-0.085	0.162
-746.185	-200.000	0.055	0.284
-745.171	305.141	0.184	0.346
-744.156	-99.742	-0.030	0.008
-743.142	-200.000	-0.014	-0.229
-742.127	-46.116	-0.284	-0.142
-741.112	-200.000	0.002	-0.021
-740.098	-200.000	0.016	0.241
-739.083	81.706	0.140	-0.154
-738.069	208.769	-0.173	0.274
-737.054	292.681	0.111	-0.205
-736.039	256.010	0.133	-0.231
-735.025	-34.962	0.108	-0.060
-734.010	-35.889	-0.240	-0.132
-732.996	105.130	-0.133	-0.159
-731.981	632.197	-0.169	0.434
-730.966	-77.570	-0.098	-0.035
-729.952	-200.000	0.002	-0.272
-728.937	-109.369	0.373	-0.080
-727.923	-176.532	-0.323	-0.008
-726.908	-91.542	-0.162	-0.047
-725.894	-133.605	0.233	0.030
-724.879	-56.328	0.086	-0.039
-723.864	6.385	-0.124	-0.093
-722.850	119.118	0.205	-0.257
-721.835	-48.710	0.168	-0.082
-720.821	-200.000	0.042	0.196
-719.806	478.388	-0.104	-0.239
-718.791	800.000	0.066	-0.225
-717.777	-20.161	-0.042	-0.026
-716.762	-103.429	-0.252	0.060
-715.748	-60.510	-0.196	0.084
-714.733	-110.978	0.115	0.024
-713.718	-200.000	0.009	-0.178
-712.704	117.013	-0.169	-0.211
-711.689	397.978	-0.101	0.214
-710.675	199.781	-0.239	-0.372
-709.660	-47.027	-0.194	-0.096
-708.645	-200.000	-0.019	-0.429
-707.631	-30.651	-0.153	-0.088
-706.616	69.415	-0.044	0.046
-705.602	-74.665	0.094	0.034
-704.587	76.680	0.286	-0.308
-703.572	-96.417	-0.084	-0.022
-702.558	800.000	0.082	-0.255
-701.543	-37.944	-0.254	-0.137
-700.529	279.581	0.079	0.143
-699.514	800.000	0.063	0.254
-698.499	800.000	-0.055	-0.221
-697.485	0.613	-0.124	-0.090
-696.470	108.992	-0.153	-0.186
-695.456	664.278	0.085	0.221
-694.441	800.000	0.044	-0.183
-693.426	123.417	-0.093	-0.118
-692.412	800.000	0.138	0.448
-691.397	-124.785	0.330	-0.052
-690.383	-200.000	-0.003	-0.095
-689.368	800.000	0.045	-0.129
-688.354	-77.669	0.251	0.088
-687.339	-168.054	-0.271	0.011
-686.324	287.083	0.179	0.328
-685.310	184.390	-0.248	-0.372
-684.295	-200.000	-0.009	-0.063
-683.281	-24.114	0.104	0.063
-682.266	-94.554	-0.245	0.067
-681.251	-89.390	-0.330	0.099
-680.237	89.655	0.082	-0.093
-679.222	-98.379	-0.132	0.034
-678.208	-39.167	-0.147	0.078
-677.193	137.034	-0.169	0.224
-676.178	-200.000	-0.024	0.266
-675.164	22.077	-0.180	-0.149
-674.149	-78.457	0.309	-0.107
-673.135	-200.000	0.001	-0.030
-672.120	-77.931	0.243	0.085
-671.105	-45.024	-0.347	-0.175
-670.091	-11.005	-0.099	0.066
-669.076	430.704	0.188	-0.412
-668.062	-200.000	-0.043	-0.226
-667.047	-74.686	-0.225	0.082
-666.032	76.613	-0.160	-0.172
-665.018	16.479	-0.124	-0.099
-664.003	-70.122	0.039	-0.015
-662.989	-75.398	0.153	0.055
-661.974	785.027	0.042	0.115
-660.959	156.842	0.211	-0.295
-659.945	158.827	-0.127	0.179
-658.930	17.073	0.203	0.163
-657.916	11.610	-0.191	-0.148
-656.901	-200.000	0.017	-0.352
-655.886	-75.468	-0.178	0.064
-654.872	718.927	0.082	-0.221
-653.857	800.000	0.125	-0.393
-652.843	177.377	0.392	-0.577
-651.828	-96.414	-0.237	-0.063
-650.814	-128.789	0.166	-0.024
-649.799	13.767	0.204	-0.160
-648.784	-64.664	-0.069	-0.028
-647.770	95.334	0.067	0.077
-646.755	42.090	-0.100	-0.092
-645.741	46.247	-0.163	0.152
-644.726	97.609	0.058	-0.068
-643.711	-147.196	0.198	0.017
-642.697	-97.597	0.082	-0.022
-641.682	-34.527	0.167	-0.093
-640.668	-119.159	-0.107	0.019
-639.653	320.603	0.084	-0.162
-638.638	182.197	-0.185	0.275
-637.624	-94.711	-0.112	-0.031
-636.609	-42.616	-0.087	0.045
-635.595	139.757	0.178	-0.237
-634.580	-200.000	0.012	0.266
-633.565	69.320	0.030	-0.031
-632.551	-200.000	-0.039	-0.200
-631.536	-83.330	-0.236	0.077
-630.522	-200.000	0.002	0.024
-629.507	-200.000	-0.046	-0.283
-628.492	800.000	-0.069	0.216
-627.478	159.912	-0.038	-0.053
-626.463	299.577	0.155	0.289
-625.449	-91.854	-0.291	-0.084
-624.434	192.330	-0.082	0.125
-623.419	-172.627	-0.377	0.012
-622.405	166.764	-0.270	-0.387
-621.390	41.365	-0.165	0.151
-620.376	123.334	-0.065	0.083
-619.361	-200.000	-0.017	0.114
-618.346	10.193	0.424	-0.325
-617.332	241.391	0.123	0.208
-616.317	94.079	-0.236	0.270
-615.303	48.088	0.184	0.174
-614.288	174.107	0.101	0.148
-613.273	-200.000	-0.069	-0.681
-612.259	-121.503	0.629	-0.106
-611.244	-200.000	0.007	0.216
-610.230	-91.708	0.172	0.049
-609.215	269.145	-0.262	0.465
-608.201	-87.088	0.280	-0.086
-607.186	72.348	0.125	-0.132
-606.171	62.535	-0.232	-0.234
-605.157	248.918	0.071	-0.121
-604.142	87.198	0.106	-0.118
-603.128	-14.356	0.163	0.106
-602.113	201.754	0.169	0.263
-601.098	800.000	-0.046	0.200
-600.084	-200.000	0.028	-0.252
-599.069	-183.492	-0.043	-0.001
-598.055	-200.000	-0.001	0.011
-597.040	84.322	-0.255	0.281
-596.025	-200.000	0.007	-0.290
-595.011	-78.295	-0.074	0.026
-593.996	61.625	0.277	0.278
-592.982	-200.000	0.040	-0.198
-591.967	266.573	-0.143	0.252
-590.952	-26.065	0.048	0.029
-589.938	-45.816	-0.172	0.086
-588.923	-166.583	0.152	-0.006
-587.909	-166.574	-0.172	-0.007
-586.894	195.069	0.123	-0.189
-585.879	260.296	0.105	0.183
-584.865	-154.410	0.024	0.002
-583.850	127.390	0.165	-0.212
-582.836	-200.000	-0.002	0.045
-581.821	-53.397	0.044	-0.020
-580.806	-11.731	-0.237	0.157
-579.792	-200.000	0.071	0.334
-578.777	476.474	0.143	0.325
-577.763	115.338	-0.102	0.125
-576.748	-169.395	0.073	-0.003
-575.733	514.019	-0.115	-0.271
-574.719	800.000	-0.111	0.361
-573.704	9.645	-0.348	0.266
-572.690	-46.728	0.168	0.083
-571.675	239.903	-0.090	0.151
-570.661	0.576	-0.200	-0.144
-569.646	-162.997	0.088	-0.004
-568.631	-62.428	0.093	0.039
-567.617	-103.710	-0.146	0.035
-566.602	-200.000	-0.085	-0.455
-565.588	-200.000	-0.014	-0.181
-564.573	124.181	-0.030	-0.038
-563.558	-66.391	-0.074	0.030
-562.544	-200.000	-0.071	0.405
-561.529	-116.310	-0.077	-0.014
-560.515	-103.492	-0.118	0.028
-559.500	-200.000	-0.019	0.117
-558.485	5.428	0.129	-0.096
-557.471	-200.000	-0.028	0.275
-556.456	-17.354	0.086	-0.055
-555.442	-200.000	0.028	-0.144
-554.427	-200.000	-0.065	-0.513
-553.412	211.112	-0.078	-0.123
-552.398	458.300	-0.136	-0.305
-551.383	-88.442	-0.340	0.102
-550.369	-131.225	-0.206	-0.028
-549.354	620.427	-0.093	-0.236
-548.339	-200.000	-0.004	-0.181
-547.325	-200.000	-0.005	0.270
-546.310	-28.360	-0.191	0.111
-545.296	-63.760	-0.097	-0.040
-544.281	-53.841	0.075	0.035
-543.266	71.248	-0.176	0.184
-542.252	166.165	-0.271	0.387
-541.237	-131.921	-0.290	-0.038
-540.223	43.475	-0.138	-0.127
-539.208	23.704	0.233	-0.193
-538.193	122.685	-0.122	-0.154
-537.179	10.796	-0.149	-0.114
-536.164	2.943	0.208	-0.152
-535.150	-200.000	0.005	0.163
-534.135	800.000	-0.066	0.267
-533.121	89.627	0.129	0.145
-532.106	-200.000	0.003	0.112
-531.091	-3.008	-0.328	-0.231
-530.077	338.956	-0.166	-0.326
-529.062	134.556	0.125	-0.164
-528.048	800.000	0.075	-0.313
-527.033	25.061	0.143	-0.120
-526.018	56.062	0.245	0.239
-525.004	-101.340	-0.320	-0.079
-523.989	7.238	0.152	0.114
-522.975	95.190	0.167	-0.191
-521.960	-24.664	-0.236	-0.141
-520.945	800.000	0.079	0.277
-519.931	-100.589	0.070	-0.018
-518.916	-200.000	-0.005	0.179
-517.902	-200.000	-0.025	-0.175
-516.887	-109.279	0.096	-0.020
-515.872	539.608	0.171	-0.409
-514.858	800.000	0.036	-0.101
-513.843	-22.776	-0.277	-0.168
-512.829	800.000	-0.008	0.035
-511.814	800.000	-0.056	0.241
-510.799	-197.838	0.290	-0.002
-509.785	-38.607	0.216	-0.115
-508.770	-200.000	0.028	-0.238
-507.756	352.091	-0.062	0.123
-506.741	-93.599	0.092	0.026
-505.726	-200.000	0.053	-0.380
-504.712	63.963	0.263	-0.266
-503.697	-200.000	-0.022	0.522
-502.683	458.837	0.078	0.175
-501.668	627.448	-0.067	-0.169
-500.653	-25.904	-0.303	-0.180
-499.639	732.314	-0.046	0.123
-498.624	-8.310	-0.198	0.134
-497.610	117.214	-0.013	0.016
-496.595	-16.101	-0.170	0.108
-495.581	-29.752	-0.183	-0.105
-494.566	-55.932	0.370	0.166
-493.551	-74.355	-0.135	0.049
-492.537	-200.000	0.017	-0.132
-491.522	221.112	0.272	-0.439
-490.508	-125.572	-0.195	0.030
-489.493	99.873	0.221	0.257
-488.478	-182.392	-0.143	-0.003
-487.464	-200.000	0.023	0.155
-486.449	-22.594	0.218	0.133
-485.435	135.386	-0.098	0.128
-484.420	-62.424	-0.355	-0.148
-483.405	-100.747	-0.297	0.074
-482.391	-65.901	0.206	0.083
-481.376	-200.000	-0.032	0.185
-480.362	800.000	-0.133	-0.393
-479.347	19.445	0.021	-0.017
-478.332	-93.594	0.134	0.037
-477.318	-57.741	0.159	-0.070
-476.303	-200.000	-0.009	-0.073
-475.289	800.000	0.057	0.185
-474.274	226.460	0.017	-0.028
-473.259	-23.049	0.059	0.036
-472.245	800.000	0.144	0.498
-471.230	64.964	0.073	-0.074
-470.216	-200.000	0.049	0.391
-469.201	-118.451	0.319	0.057
-468.186	800.000	-0.104	-0.310
-467.172	-109.541	0.076	0.016
-466.157	-31.581	0.081	-0.046
-465.143	-123.463	-0.411	-0.066
-464.128	-27.944	0.078	-0.045
-463.113	-200.000	0.015	0.178
-462.099	46.347	-0.105	0.097
-461.084	-106.561	0.337	-0.075
-460.070	272.001	-0.205	-0.362
-459.055	439.210	0.098	-0.215
-458.040	800.000	-0.056	-0.166
-457.026	-31.787	-0.243	-0.137
-456.011	41.942	0.074	0.068
-454.997	-55.985	-0.122	0.055
-453.982	33.571	0.281	-0.245
-452.968	-178.369	0.349	-0.008
-451.953	200.148	-0.129	-0.199
-450.938	240.168	-0.090	-0.151
-449.924	-200.000	0.003	-0.121
-448.909	800.000	0.075	-0.237
-447.895	-200.000	0.048	0.219
-446.880	-200.000	-0.049	0.244
-445.865	-66.475	-0.070	-0.028
-444.851	11.848	0.304	-0.234
-443.836	-77.206	0.236	0.082
-442.822	-36.666	-0.133	-0.072
-441.807	-200.000	0.023	-0.134
-440.792	-9.840	-0.168	-0.112
-439.778	178.372	0.279	-0.409
-438.763	5.722	0.212	-0.158
-437.749	11.516	-0.138	0.106
-436.734	-200.000	0.012	0.550
-435.719	390.523	0.149	0.310
-434.705	57.524	-0.266	0.261
-433.690	467.743	-0.191	-0.430
-432.676	-98.822	-0.164	-0.042
-431.661	42.402	0.229	-0.209
-430.646	-9.298	-0.080	-0.054
-429.632	-200.000	-0.011	-0.403
-428.617	654.159	0.086	-0.222
-427.603	166.932	-0.128	0.182
-426.588	-165.064	0.210	-0.009
-425.573	-125.386	-0.258	0.039
-424.559	792.756	-0.072	-0.199
-423.544	-124.146	-0.081	0.013
-422.530	-61.822	-0.364	0.153
-421.515	800.000	0.074	-0.313
-420.500	-200.000	-0.017	0.215
-419.486	800.000	-0.030	0.118
-418.471	800.000	-0.081	-0.245
-417.457	-200.000	-0.040	0.353
-416.442	-115.057	-0.273	0.052
-415.428	0.152	-0.220	-0.157
-414.413	-76.106	0.302	0.107
-413.398	15.642	-0.275	-0.216
-412.384	301.900	0.145	0.269
-411.369	800.000	-0.019	-0.063
-410.355	-9.143	-0.229	-0.154
-409.340	-109.384	0.340	0.072
-408.325	800.000	-0.104	-0.393
-407.311	-43.307	-0.080	0.040
-406.296	26.383	-0.066	-0.055
-405.282	-15.848	-0.302	0.192
-404.267	-200.000	0.011	0.083
-403.252	205.559	-0.051	0.080
-402.238	800.000	-0.069	-0.276
-401.223	-82.102	-0.353	-0.115
-400.209	66.066	0.062	0.063
-399.194	261.351	0.049	-0.084
-398.179	253.841	-0.176	0.301
-397.165	45.135	0.048	0.044
-396.150	131.805	0.192	-0.247
-395.136	800.000	-0.090	-0.274
-394.121	-200.000	0.016	-0.289
-393.106	-158.628	-0.059	-0.003
-392.092	800.000	-0.027	0.111
-391.077	-173.927	-0.130	-0.004
-390.063	0.554	-0.254	-0.182
-389.048	-200.000	0.009	-0.081
-388.033	471.830	0.064	-0.144
-387.019	-171.483	0.262	-0.009
-386.004	18.028	-0.161	-0.129
-384.990	45.963	-0.141	-0.131
-383.975	787.305	-0.020	0.055
-382.960	800.000	0.050	0.216
-381.946	-52.330	-0.189	0.088
-380.931	800.000	-0.068	-0.216
-379.917	-142.812	0.137	-0.013
-378.902	-100.415	-0.189	0.047
-377.888	-200.000	-0.011	-0.142
-376.873	16.004	0.132	0.104
-375.858	39.000	0.109	-0.098
-374.844	170.333	-0.221	0.317
-373.829	115.930	0.099	-0.121
-372.815	146.047	-0.129	-0.173
-371.800	-200.000	-0.024	-0.172
-370.785	-106.789	-0.066	0.015
-369.771	114.382	-0.091	-0.111
-368.756	20.995	0.094	0.076
-367.742	-86.763	0.191	0.059
-366.727	53.710	-0.068	-0.065
-365.712	18.190	0.179	-0.143
-364.698	-200.000	-0.008	-0.052
-363.683	-92.035	-0.080	-0.023
-362.669	73.830	0.119	-0.124
-361.654	7.876	0.569	0.426
-360.639	-200.000	0.004	-0.150
-359.625	22.071	0.164	-0.134
-358.610	438.263	0.143	0.311
-357.596	109.756	0.050	0.060
-356.581	-168.685	-0.208	0.008
-355.566	-144.425	-0.326	0.030
-354.552	-113.201	0.375	0.074
-353.537	27.871	0.214	0.180
-352.523	271.576	0.127	0.223
-351.508	-125.099	-0.298	0.046
-350.493	-54.691	-0.268	0.121
-349.479	-200.000	-0.023	-0.104
-348.464	27.904	-0.115	0.097
-347.450	363.032	0.054	0.109
-346.435	-8.900	-0.007	0.005
-345.420	-200.000	-0.077	-0.382
-344.406	-36.883	0.282	0.151
-343.391	-200.000	-0.014	0.298
-342.377	800.000	-0.006	-0.016
-341.362	-200.000	0.204	0.000
-340.348	99.423	-0.249	-0.288
-339.333	-88.119	-0.553	0.166
-338.318	-29.497	-0.189	0.108
-337.304	-46.823	-0.382	0.187
-336.289	27.082	0.205	0.171
-335.275	708.625	0.076	-0.202
-334.260	274.377	0.117	0.207
-333.245	-39.281	0.357	0.187
-332.231	111.499	-0.202	-0.243
-331.216	389.256	0.133	-0.275
-330.202	-1.232	0.074	0.052
-329.187	6.408	0.115	-0.086
-328.172	-134.286	0.285	0.035
-327.158	204.447	0.091	-0.140
-326.143	-79.662	0.213	-0.072
-325.129	45.875	0.101	-0.093
-324.114	11.344	0.504	0.385
-323.099	-113.722	0.097	0.019
-322.085	-147.333	0.362	0.031
-321.070	55.854	-0.144	-0.139
-320.056	-28.507	-0.326	0.188
-319.041	-200.000	-0.024	-0.283
-318.026	-4.193	-0.108	-0.074
-317.012	-141.196	-0.191	0.019
-315.997	-185.472	0.106	-0.002
-314.983	800.000	0.111	0.317
-313.968	7.053	-0.257	-0.191
-312.953	185.193	-0.229	-0.339
-311.939	-64.212	0.154	-0.063
-310.924	17.965	-0.267	-0.212
-309.910	455.319	-0.108	0.239
-308.895	40.531	-0.137	0.123
-307.880	-39.068	0.248	0.130
-306.866	-128.786	0.343	0.048
-305.851	800.000	-0.060	-0.211
-304.837	-81.898	0.082	0.027
-303.822	45.267	-0.121	-0.111
-302.807	-128.783	-0.359	0.050
-301.793	-83.782	0.217	0.069
-300.778	2.005	0.186	-0.134
-299.764	-68.033	-0.110	-0.043
-298.749	190.679	0.252	0.377
-297.735	-143.495	0.189	0.018
-296.720	-106.781	0.026	-0.006
-295.705	-100.302	0.177	0.044
-294.691	-16.373	0.164	0.104
-293.676	71.377	0.330	0.341
-292.662	380.176	0.036	0.073
-291.647	141.316	0.064	-0.084
-290.632	656.464	-0.116	0.296
-289.618	47.073	0.304	-0.282
-288.603	-106.886	-0.307	-0.068
-287.589	409.865	-0.064	-0.136
-286.574	800.000	0.051	-0.159
-285.559	121.964	-0.207	-0.257
-284.545	51.553	0.125	-0.118
-283.530	-86.975	-0.160	-0.049
-282.516	619.482	-0.123	0.308
-281.501	-61.471	-0.250	-0.105
-280.486	248.624	-0.027	-0.046
-279.472	800.000	-0.132	-0.414
-278.457	-117.058	0.136	-0.025
-277.443	-57.892	-0.254	-0.110
-276.428	-148.691	-0.313	0.025
-275.413	464.339	0.051	0.113
-274.399	800.000	0.052	0.215
-273.384	800.000	0.130	-0.422
-272.370	29.073	0.031	0.026
-271.355	440.636	-0.125	0.271
-270.340	123.388	-0.102	0.127
-269.326	-71.499	0.400	0.149
-268.311	800.000	-0.087	0.262
-267.297	-9.407	0.191	0.127
-266.282	-27.856	-0.413	0.238
-265.267	-93.973	-0.160	-0.044
-264.253	30.396	0.150	-0.127
-263.238	-161.769	0.079	0.004
-262.224	62.377	-0.141	0.140
-261.209	-200.000	-0.003	0.074
-260.195	-55.216	0.093	0.042
-259.180	-118.350	0.219	0.039
-258.165	60.636	0.214	-0.212
-257.151	107.115	0.075	-0.089
-256.136	333.896	0.116	0.224
-255.122	-78.059	-0.311	0.107
-254.107	-24.291	0.179	0.107
-253.092	-200.000	-0.039	-0.241
-252.078	-149.237	0.088	-0.007
-251.063	106.199	0.062	-0.073
-250.049	198.036	-0.057	0.087
-249.034	-165.346	-0.241	0.011
-248.019	101.192	0.082	-0.095
-247.005	-42.679	0.318	0.161
-245.990	-73.158	-0.081	-0.029
-244.976	-143.797	-0.112	-0.011
-243.961	-102.887	-0.247	-0.058
-242.946	90.148	-0.175	-0.194
-241.932	-200.000	-0.012	-0.062
-240.917	800.000	-0.089	-0.313
-239.903	-11.710	0.096	0.063
-238.888	-71.427	0.327	-0.122
-237.873	86.149	-0.102	-0.112
-236.859	29.415	0.174	-0.147
-235.844	-100.226	0.287	-0.071
-234.830	59.602	-0.241	-0.236
-233.815	39.511	0.039	0.034
-232.800	12.883	0.281	0.216
-231.786	-200.000	-0.073	0.376
-230.771	-103.779	-0.299	-0.070
-229.757	-106.063	0.281	0.063
-228.742	-37.907	-0.061	-0.032
-227.727	-200.000	-0.058	0.316
-226.713	-11.073	0.263	-0.173
-225.698	251.371	0.084	0.141
-224.684	635.652	0.130	0.328
-223.669	-126.974	0.077	0.011
-222.655	310.582	0.120	-0.223
-221.640	752.330	-0.049	0.131
-220.625	-51.610	-0.099	-0.046
-219.611	-119.863	-0.329	-0.056
-218.596	-135.581	0.049	0.006
-217.582	-30.456	0.317	0.179
-216.567	800.000	0.083	0.265
-215.552	800.000	0.053	-0.207
-214.538	89.514	-0.118	-0.131
-213.523	-27.099	-0.121	-0.070
-212.509	-200.000	-0.015	0.230
-211.494	-200.000	-0.050	-0.231
-210.479	-139.955	0.295	0.031
-209.465	70.967	-0.129	-0.133
-208.450	-200.000	0.081	0.386
-207.436	-61.256	0.392	0.164
-206.421	23.062	0.061	-0.050
-205.406	-95.423	0.075	-0.020
-204.392	12.377	-0.286	0.219
-203.377	800.000	-0.023	-0.081
-202.363	-72.739	0.391	-0.143
-201.348	-200.000	-0.035	-0.190
-200.333	265.206	0.070	0.122
-199.319	86.603	0.199	0.218
-198.304	-200.000	-0.040	0.188
-197.290	179.689	-0.113	0.164
-196.275	102.461	-0.069	-0.080
-195.260	143.463	0.239	-0.316
-194.246	800.000	-0.080	0.252
-193.231	-130.710	0.263	0.035
-192.217	232.225	-0.109	-0.178
-191.202	96.666	0.112	0.127
-190.187	15.151	-0.078	0.060
-189.173	23.537	0.212	-0.173
-188.158	234.580	0.066	0.109
-187.144	55.457	-0.061	-0.058
-186.129	-200.000	-0.036	-0.493
-185.114	271.962	0.070	0.123
-184.100	800.000	-0.040	0.129
-183.085	-72.366	0.103	-0.038
-182.071	-200.000	0.015	0.151
-181.056	-42.917	0.085	0.043
-180.042	-200.000	-0.001	0.284
-179.027	-200.000	-0.002	0.599
-178.012	411.763	-0.055	-0.115
-176.998	310.490	-0.058	0.108
-175.983	-8.046	0.197	0.132
-174.969	-200.000	0.005	-0.041
-173.954	-18.787	0.137	0.085
-172.939	-200.000	-0.023	-0.263
-171.925	-93.072	-0.159	0.044
-170.910	-12.084	0.236	0.153
-169.896	-22.955	-0.241	0.144
-168.881	199.601	-0.046	0.070
-167.866	664.218	0.028	0.072
-166.852	326.645	0.100	0.189
-165.837	800.000	0.045	-0.161
-164.823	-102.885	0.023	-0.005
-163.808	-79.427	-0.095	0.032
-162.793	800.000	-0.111	-0.345
-161.779	-128.735	-0.043	-0.006
-160.764	-42.565	0.243	0.123
-159.750	-140.424	-0.469	-0.048
-158.735	307.806	-0.077	-0.143
-157.720	-102.333	0.171	0.041
-156.706	549.323	-0.061	-0.145
-155.691	800.000	-0.070	0.301
-154.677	490.834	-0.099	0.226
-153.662	-80.966	0.153	-0.050
-152.647	252.790	-0.096	0.163
-151.633	186.499	0.085	0.125
-150.618	-200.000	0.006	-0.379
-149.604	-178.714	0.138	0.003
-148.589	-157.388	0.300	0.018
-147.574	800.000	-0.048	-0.180
-146.560	313.093	-0.156	0.290
-145.545	161.091	0.294	0.408
-144.531	657.292	0.133	0.338
-143.516	-34.009	0.128	-0.070
-142.502	-200.000	-0.047	0.420
-141.487	800.000	0.039	0.108
-140.472	8.484	-0.121	0.090
-139.458	-74.790	0.020	0.007
-138.443	43.284	-0.129	0.116
-137.429	112.706	-0.320	0.384
-136.414	1.617	0.072	0.051
-135.399	-200.000	-0.043	0.385
-134.385	-80.012	0.171	0.057
-133.370	-200.000	-0.010	0.096
-132.356	354.886	-0.044	-0.088
-131.341	95.898	0.131	-0.149
-130.326	-200.000	-0.034	-0.269
-129.312	43.505	0.158	0.143
-128.297	800.000	0.085	0.238
-127.283	800.000	-0.137	-0.454
-126.268	800.000	-0.042	0.169
-125.253	-68.487	0.030	-0.011
-124.239	800.000	-0.042	0.178
-123.224	-93.341	-0.125	-0.034
-122.210	-94.476	0.132	-0.036
-121.195	-104.028	-0.268	0.062
