DTS Sentinel unit serial number:	SN413079Multiplexer serial number:	ORYXHardware model number:	OX4-SRSoftware version number:	ORYX F/W v4.00 Oryx Data Collector v3.7.2.0data status	okinstallation	princeton_trtdifferential loss correction	single-endedforward channel	channel 4reverse channel	N/Adate	2019/09/18time	09:29:35forward acquisition time	60.00reverse acquisition time	0.00gamma	496.2192k internal	0.2323k external	0.2323temperature offset calibration	0.9983default loss term (dB/km)	0.3790temperature slope calibration	1.0000multiplexer offset coefficient	1.0000multiplexer slope coefficient	1.0000fibre end	0.00T internal ref (°C)	26.33T ext. ref 1 (°C)	0.27T ext. ref 2 (°C)	23.40length (m)	temperature (°C)	Stokes	anti-Stokes-747.200	800.000	-0.144	0.626
-746.185	11.944	-0.224	0.174
-745.171	420.025	-0.151	-0.327
-744.156	-116.956	-0.221	0.041
-743.142	800.000	-0.030	-0.114
-742.127	-200.000	0.070	0.615
-741.112	-63.617	0.180	0.074
-740.098	223.175	-0.305	0.497
-739.083	800.000	-0.019	0.053
-738.069	800.000	-0.042	0.187
-737.054	-84.338	0.358	-0.114
-736.039	507.354	-0.082	-0.192
-735.025	574.316	-0.041	0.100
-734.010	253.128	-0.027	-0.046
-732.996	55.115	-0.102	-0.099
-731.981	61.344	-0.070	-0.070
-730.966	568.170	-0.030	0.073
-729.952	132.287	0.006	-0.008
-728.937	-59.288	-0.052	-0.022
-727.923	793.690	0.094	-0.261
-726.908	18.300	-0.216	-0.174
-725.894	210.369	0.090	-0.143
-724.879	602.686	-0.084	-0.211
-723.864	800.000	0.058	0.189
-722.850	-12.149	0.350	-0.231
-721.835	-55.658	-0.268	-0.121
-720.821	800.000	-0.076	-0.250
-719.806	-200.000	-0.008	-0.188
-718.791	-7.155	-0.338	0.232
-717.777	128.896	-0.153	0.196
-716.762	-200.000	-0.011	0.091
-715.748	-125.595	-0.128	-0.020
-714.733	-114.961	-0.330	0.063
-713.718	-54.304	-0.399	0.183
-712.704	69.646	0.250	-0.259
-711.689	617.303	0.023	0.058
-710.675	238.933	-0.176	-0.295
-709.660	-33.923	-0.249	-0.138
-708.645	-92.561	0.063	-0.018
-707.631	-139.917	-0.189	-0.020
-706.616	-200.000	0.056	0.265
-705.602	264.293	-0.127	-0.223
-704.587	113.931	0.080	0.099
-703.572	265.414	0.229	0.403
-702.558	800.000	-0.073	-0.223
-701.543	-49.182	0.246	-0.119
-700.529	480.763	-0.073	-0.168
-699.514	29.630	-0.196	0.168
-698.499	-200.000	0.031	-0.219
-697.485	-100.034	-0.116	-0.029
-696.470	800.000	0.050	-0.150
-695.456	-32.096	-0.359	0.202
-694.441	503.233	-0.066	0.154
-693.426	-25.787	0.303	0.180
-692.412	-122.681	-0.138	0.023
-691.397	31.741	-0.229	0.199
-690.383	-142.775	-0.254	-0.025
-689.368	136.689	-0.175	0.230
-688.354	-200.000	-0.001	-0.028
-687.339	-100.450	-0.371	-0.093
-686.324	800.000	-0.047	0.186
-685.310	50.504	0.152	-0.145
-684.295	280.789	0.137	-0.247
-683.281	487.568	-0.078	-0.180
-682.266	-159.227	-0.117	0.007
-681.251	91.579	-0.080	-0.091
-680.237	-200.000	-0.011	0.054
-679.222	357.583	-0.135	-0.272
-678.208	-115.486	-0.264	-0.050
-677.193	299.936	0.131	-0.243
-676.178	-120.373	0.194	0.033
-675.164	-93.848	-0.152	0.042
-674.149	21.580	0.210	0.172
-673.135	-200.000	-0.006	0.280
-672.120	-24.872	0.165	0.099
-671.105	800.000	-0.123	-0.375
-670.091	65.086	0.057	0.058
-669.076	172.868	-0.116	-0.168
-668.062	542.884	-0.037	-0.090
-667.047	175.069	-0.164	0.239
-666.032	235.071	-0.073	-0.121
-665.018	-110.042	-0.181	0.038
-664.003	63.034	-0.124	0.125
-662.989	0.865	-0.062	-0.045
-661.974	157.664	-0.090	0.125
-660.959	-147.922	-0.227	-0.019
-659.945	486.483	-0.117	-0.268
-658.930	-200.000	0.014	-0.152
-657.916	298.164	-0.120	-0.221
-656.901	800.000	0.060	0.229
-655.886	-40.032	0.097	0.051
-654.872	-200.000	-0.001	0.039
-653.857	-10.160	-0.326	-0.218
-652.843	482.730	0.071	0.162
-651.828	-200.000	0.059	0.304
-650.814	-200.000	-0.032	0.000
-649.799	-115.463	-0.073	0.014
-648.784	103.660	0.145	-0.172
-647.770	-32.220	0.178	0.100
-646.755	-44.918	0.132	0.066
-645.741	-200.000	-0.009	0.090
-644.726	-140.582	-0.295	0.031
-643.711	-200.000	-0.005	-0.106
-642.697	-85.829	-0.103	-0.032
-641.682	-124.795	0.110	0.017
-640.668	-11.411	-0.027	-0.018
-639.653	-200.000	0.035	0.257
-638.638	800.000	0.049	0.149
-637.624	800.000	0.056	-0.235
-636.609	467.562	-0.033	0.074
-635.595	382.024	-0.155	-0.321
-634.580	66.350	0.136	-0.139
-633.565	51.903	-0.143	0.137
-632.551	326.901	0.154	0.297
-631.536	446.473	-0.078	0.172
-630.522	-79.342	-0.118	-0.040
-629.507	-64.071	-0.250	0.103
-628.492	72.634	0.227	-0.238
-627.478	-200.000	-0.052	0.359
-626.463	-65.711	-0.137	-0.055
-625.449	-52.357	0.068	-0.032
-624.434	-161.077	-0.419	0.022
-623.419	800.000	-0.042	-0.139
-622.405	-200.000	0.028	-0.230
-621.390	-55.668	0.170	-0.077
-620.376	535.923	-0.148	0.354
-619.361	203.440	-0.077	0.120
-618.346	-200.000	0.016	0.083
-617.332	-121.733	-0.137	-0.023
-616.317	212.927	-0.039	-0.062
-615.303	325.174	0.002	0.005
-614.288	9.838	0.364	0.278
-613.273	452.190	0.008	0.017
-612.259	-200.000	-0.070	0.465
-611.244	-103.013	0.135	0.032
-610.230	131.791	-0.049	0.063
-609.215	-111.263	0.161	-0.033
-608.201	-33.036	0.093	-0.052
-607.186	258.221	-0.171	0.296
-606.171	216.344	-0.082	0.131
-605.157	-122.589	-0.170	0.028
-604.142	-112.640	0.264	0.053
-603.128	-122.445	0.195	-0.032
-602.113	-26.662	-0.133	0.078
-601.098	800.000	-0.034	0.128
-600.084	120.289	-0.312	-0.389
-599.069	800.000	-0.114	-0.456
-598.055	-161.230	0.299	-0.016
-597.040	516.171	0.054	-0.127
-596.025	-200.000	-0.023	-0.137
-595.011	-200.000	-0.006	-0.172
-593.996	-98.583	0.148	-0.038
-592.982	654.974	0.075	0.194
-591.967	-128.493	-0.347	0.049
-590.952	205.293	0.098	0.153
-589.938	34.387	0.110	0.096
-588.923	-114.540	-0.091	0.018
-587.909	800.000	-0.031	-0.096
-586.894	-107.169	0.210	-0.047
-585.879	-160.801	0.447	-0.024
-584.865	-51.294	-0.219	-0.103
-583.850	-200.000	-0.021	-0.186
-582.836	-200.000	0.011	-0.156
-581.821	800.000	0.058	-0.172
-580.806	-138.285	-0.083	0.009
-579.792	-72.437	-0.144	0.053
-578.777	-1.015	-0.124	-0.088
-577.763	-22.765	-0.171	0.103
-576.748	137.979	-0.063	0.083
-575.733	-114.021	0.012	-0.002
-574.719	1.526	-0.230	0.166
-573.704	690.225	0.064	0.169
-572.690	220.465	0.092	-0.149
-571.675	9.121	0.085	-0.064
-570.661	-63.673	-0.376	0.155
-569.646	374.585	-0.072	-0.148
-568.631	-95.920	0.251	0.067
-567.617	-50.557	0.114	0.054
-566.602	-126.236	-0.276	0.041
-565.588	76.406	-0.121	0.129
-564.573	42.486	0.117	0.107
-563.558	109.392	-0.138	-0.165
-562.544	-135.978	0.244	-0.029
-561.529	70.349	-0.242	0.251
-560.515	-111.229	0.398	0.082
-559.500	239.126	0.037	-0.061
-558.485	-25.859	-0.177	-0.105
-557.471	-127.178	-0.341	0.050
-556.456	229.560	-0.111	0.181
-555.442	469.161	-0.203	0.456
-554.427	-182.998	0.242	-0.004
-553.412	-200.000	-0.009	0.058
-552.398	-119.922	-0.052	0.009
-551.383	325.527	0.076	-0.146
-550.369	-200.000	-0.013	0.150
-549.354	-200.000	0.041	0.231
-548.339	49.642	-0.171	-0.162
-547.325	-12.757	0.242	0.158
-546.310	-200.000	-0.021	0.189
-545.296	-33.426	-0.149	-0.083
-544.281	-200.000	-0.040	0.385
-543.266	-117.899	-0.266	-0.048
-542.252	-1.967	0.292	0.206
-541.237	800.000	-0.014	0.063
-540.223	-170.473	-0.059	0.002
-539.208	800.000	0.082	-0.295
-538.193	311.851	0.102	-0.192
-537.179	244.706	-0.048	-0.081
-536.164	637.545	0.126	0.321
-535.150	-200.000	0.082	0.370
-534.135	-67.195	0.129	-0.051
-533.121	-57.260	0.354	-0.156
-532.106	570.176	0.016	0.039
-531.091	-123.208	-0.287	-0.046
-530.077	800.000	0.031	0.129
-529.062	-57.452	-0.159	-0.070
-528.048	137.385	-0.171	-0.224
-527.033	-200.000	0.036	0.200
-526.018	-67.630	-0.227	0.089
-525.004	-200.000	-0.010	0.145
-523.989	21.023	-0.108	0.088
-522.975	-103.322	-0.159	0.038
-521.960	800.000	-0.057	0.234
-520.945	53.818	0.215	0.207
-519.931	800.000	0.108	-0.318
-518.916	111.144	0.064	-0.077
-517.902	2.812	-0.271	0.197
-516.887	772.817	0.063	-0.172
-515.872	800.000	0.105	-0.310
-514.858	-181.796	0.091	0.002
-513.843	-200.000	0.003	-0.063
-512.829	800.000	0.125	0.352
-511.814	-133.209	-0.031	0.004
-510.799	-9.356	0.026	-0.017
-509.785	800.000	0.019	0.085
-508.770	-139.209	-0.079	0.009
-507.756	-34.352	0.086	0.047
-506.741	184.800	0.148	-0.219
-505.726	-17.055	-0.324	-0.204
-504.712	-200.000	0.009	0.051
-503.697	-86.451	-0.096	0.029
-502.683	-76.194	0.174	0.061
-501.668	422.403	0.031	0.066
-500.653	-200.000	0.017	-0.090
-499.639	73.555	-0.122	-0.128
-498.624	800.000	0.035	-0.128
-497.610	251.214	0.090	0.154
-496.595	11.390	-0.119	-0.091
-495.581	339.692	-0.095	0.186
-494.566	-7.967	0.006	-0.004
-493.551	-161.544	-0.239	0.012
-492.537	141.629	0.073	-0.097
-491.522	-200.000	0.020	0.183
-490.508	-200.000	0.005	0.122
-489.493	49.243	-0.230	0.217
-488.478	-16.878	-0.078	0.049
-487.464	-200.000	-0.012	0.062
-486.449	-200.000	0.061	-0.268
-485.435	536.452	0.122	-0.288
-484.420	3.836	0.133	0.097
-483.405	487.449	0.151	0.344
-482.391	-61.218	-0.250	0.105
-481.376	384.878	0.147	-0.304
-480.362	-50.158	0.238	-0.112
-479.347	-50.500	-0.300	0.142
-478.332	-28.017	0.165	-0.096
-477.318	185.274	-0.091	0.135
-476.303	800.000	0.072	-0.270
-475.289	83.468	0.108	0.117
-474.274	151.187	0.121	-0.165
-473.259	114.326	0.114	-0.138
-472.245	-189.418	0.180	-0.002
-471.230	135.831	0.123	-0.160
-470.216	800.000	-0.145	-0.467
-469.201	800.000	-0.059	0.256
-468.186	-58.329	0.118	-0.051
-467.172	798.105	0.079	0.218
-466.157	45.155	0.228	0.210
-465.143	385.242	0.079	-0.163
-464.128	-61.906	0.429	-0.179
-463.113	173.119	-0.181	-0.261
-462.099	33.483	-0.052	-0.045
-461.084	195.960	-0.043	-0.066
-460.070	128.520	0.017	0.022
-459.055	278.221	-0.278	0.495
-458.040	-135.254	0.299	-0.036
-457.026	800.000	0.062	-0.177
-456.011	35.577	-0.260	0.228
-454.997	221.532	0.216	0.346
-453.982	-195.507	0.287	-0.002
-452.968	-41.469	-0.104	-0.054
-451.953	247.265	0.073	0.123
-450.938	90.430	-0.084	-0.093
-449.924	129.106	-0.086	-0.109
-448.909	742.436	0.137	0.369
-447.895	345.250	-0.126	0.248
-446.880	120.579	0.082	-0.102
-445.865	800.000	0.029	-0.110
-444.851	-122.925	0.160	-0.026
-443.836	800.000	-0.068	-0.260
-442.822	-33.558	0.088	0.048
-441.807	90.320	-0.069	0.077
-440.792	-94.756	0.139	0.038
-439.778	194.383	0.180	0.273
-438.763	-20.340	-0.155	0.095
-437.749	83.217	0.115	-0.125
-436.734	300.076	0.165	-0.303
-435.719	-54.389	-0.203	0.092
-434.705	413.111	-0.127	-0.270
-433.690	144.405	0.088	0.117
-432.676	-200.000	-0.026	-0.115
-431.661	22.456	-0.171	0.140
-430.646	422.972	0.139	0.297
-429.632	223.394	0.153	0.246
-428.617	324.245	-0.097	0.184
-427.603	-200.000	-0.005	0.070
-426.588	118.363	-0.045	0.055
-425.573	42.577	0.289	-0.263
-424.559	59.818	0.163	-0.160
-423.544	339.808	-0.234	-0.456
-422.530	177.278	-0.071	-0.102
-421.515	-200.000	-0.064	0.320
-420.500	-42.403	0.243	0.123
-419.486	43.357	-0.209	-0.190
-418.471	-200.000	-0.003	-0.157
-417.457	-27.359	0.176	0.102
-416.442	-29.753	0.020	0.011
-415.428	573.160	-0.104	-0.254
-414.413	-31.690	0.067	0.037
-413.398	800.000	0.050	0.203
-412.384	401.810	0.116	0.243
-411.369	270.545	-0.082	0.144
-410.355	735.542	-0.098	-0.262
-409.340	175.393	0.069	0.100
-408.325	-116.636	-0.208	0.038
-407.311	-112.751	0.051	0.010
-406.296	-200.000	0.009	0.175
-405.282	229.912	-0.082	-0.134
-404.267	177.780	0.088	-0.128
-403.252	292.330	0.031	0.057
-402.238	95.464	-0.026	0.029
-401.223	-200.000	0.065	-0.296
-400.209	-118.841	0.139	0.024
-399.194	-133.053	-0.309	0.039
-398.179	-44.135	0.294	-0.147
-397.165	-41.921	0.113	-0.058
-396.150	17.273	-0.035	-0.027
-395.136	-40.282	-0.161	-0.084
-394.121	800.000	-0.040	-0.129
-393.106	-200.000	-0.019	-0.279
-392.092	-106.264	0.064	-0.014
-391.077	163.503	0.148	0.208
-390.063	65.816	0.043	0.043
-389.048	-136.914	-0.028	0.003
-388.033	-57.335	-0.141	0.062
-387.019	-68.835	0.073	0.028
-386.004	-200.000	0.023	-0.640
-384.990	-33.651	-0.146	-0.080
-383.975	163.550	-0.152	0.212
-382.960	-95.261	-0.097	0.026
-381.946	617.013	0.040	-0.100
-380.931	-115.981	-0.158	0.029
-379.917	800.000	-0.076	-0.226
-378.902	-72.825	-0.113	0.041
-377.888	165.606	0.155	-0.218
-376.873	178.488	-0.218	-0.317
-375.858	-200.000	-0.034	-0.306
-374.844	29.151	-0.197	0.166
-373.829	3.493	-0.113	0.082
-372.815	-200.000	-0.012	0.080
-371.800	305.054	-0.040	0.075
-370.785	41.654	0.143	0.128
-369.771	247.193	0.055	0.092
-368.756	-41.115	-0.139	-0.071
-367.742	-148.132	-0.072	-0.006
-366.727	-200.000	0.021	-0.193
-365.712	26.638	-0.146	0.121
-364.698	800.000	-0.060	-0.178
-363.683	-171.748	0.471	0.015
-362.669	136.440	-0.072	0.093
-361.654	800.000	0.098	0.311
-360.639	-200.000	0.016	0.204
-359.625	139.796	-0.141	0.185
-358.610	-45.538	0.535	0.264
-357.596	152.108	-0.145	0.197
-356.581	-118.543	-0.292	0.051
-355.566	460.871	-0.127	-0.282
-354.552	84.802	-0.131	0.143
-353.537	635.414	0.131	0.330
-352.523	-132.479	-0.072	0.009
-351.508	29.354	-0.070	0.059
-350.493	-46.895	-0.230	0.112
-349.479	-200.000	-0.001	-0.092
-348.464	-188.141	0.289	0.004
-347.450	800.000	-0.083	0.238
-346.435	-155.675	0.341	0.022
-345.420	-200.000	0.023	-0.124
-344.406	-200.000	0.005	-0.074
-343.391	-186.570	0.271	0.004
-342.377	98.469	0.050	0.057
-341.362	643.489	-0.238	-0.603
-340.348	800.000	0.052	0.150
-339.333	4.107	0.079	-0.058
-338.318	-145.466	-0.161	-0.014
-337.304	461.688	0.101	0.224
-336.289	800.000	0.088	-0.293
-335.275	-87.491	-0.213	-0.064
-334.260	154.512	0.093	-0.127
-333.245	-200.000	-0.035	-0.180
-332.231	800.000	-0.080	0.238
-331.216	53.033	-0.212	-0.201
-330.202	728.038	0.088	-0.234
-329.187	-8.864	0.178	-0.119
-328.172	599.637	-0.090	0.222
-327.158	-200.000	0.040	0.189
-326.143	35.412	-0.085	-0.074
-325.129	377.444	-0.192	-0.389
-324.114	287.921	-0.220	-0.395
-323.099	-61.839	-0.152	0.063
-322.085	-51.148	0.120	0.056
-321.070	-1.156	0.275	0.193
-320.056	107.430	-0.156	0.184
-319.041	40.810	-0.258	-0.231
-318.026	800.000	0.062	0.194
-317.012	261.378	0.091	0.157
-315.997	548.724	-0.067	0.159
-314.983	136.591	0.113	-0.146
-313.968	-68.827	-0.078	0.030
-312.953	-24.168	-0.089	-0.053
-311.939	-200.000	-0.005	-0.037
-310.924	-200.000	-0.025	0.150
-309.910	-200.000	-0.013	0.085
-308.895	-84.416	0.250	0.078
-307.880	645.158	0.055	-0.140
-306.866	-22.397	0.183	-0.110
-305.851	-95.695	0.447	0.119
-304.837	-159.511	0.399	0.022
-303.822	-200.000	-0.021	0.203
-302.807	84.483	0.193	0.209
-301.793	-200.000	-0.011	-0.127
-300.778	-19.240	-0.267	0.165
-299.764	387.459	0.094	0.194
-298.749	-153.031	-0.031	0.002
-297.735	-200.000	-0.015	0.169
-296.720	-200.000	0.016	0.266
-295.705	-134.472	-0.136	0.017
-294.691	-27.957	-0.043	-0.025
-293.676	-150.726	-0.115	0.009
-292.662	268.530	0.114	-0.199
-291.647	-200.000	0.023	-0.268
-290.632	800.000	-0.077	0.307
-289.618	-200.000	0.008	-0.098
-288.603	-113.287	0.066	-0.013
-287.589	35.924	-0.292	-0.255
-286.574	-86.645	0.100	0.030
-285.559	-122.052	-0.202	0.033
-284.545	151.547	-0.219	-0.296
-283.530	23.206	-0.290	0.236
-282.516	237.375	0.160	-0.263
-281.501	107.931	0.209	-0.247
-280.486	800.000	-0.029	0.111
-279.472	-200.000	-0.033	0.166
-278.457	-200.000	-0.030	-0.347
-277.443	40.692	0.078	0.069
-276.428	-20.484	0.259	0.158
-275.413	24.092	0.067	-0.055
-274.399	185.035	-0.082	0.121
-273.384	-123.202	-0.273	-0.043
-272.370	-200.000	0.013	-0.107
-271.355	32.211	0.309	0.264
-270.340	11.049	0.090	0.068
-269.326	-200.000	-0.070	-0.379
-268.311	12.237	-0.062	0.047
-267.297	-12.525	0.223	0.144
-266.282	371.209	-0.155	-0.311
-265.267	44.975	0.180	-0.165
-264.253	-200.000	-0.015	0.236
-263.238	345.535	-0.142	0.276
-262.224	230.301	-0.089	-0.145
-261.209	102.972	0.366	0.425
-260.195	-149.488	-0.089	-0.007
-259.180	-45.432	-0.085	0.042
-258.165	-40.241	-0.106	-0.055
-257.151	-54.168	0.107	-0.048
-256.136	-143.435	0.090	-0.008
-255.122	-200.000	0.065	-0.287
-254.107	-92.008	-0.167	0.047
-253.092	379.205	-0.095	0.194
-252.078	-99.839	0.038	-0.010
-251.063	219.188	-0.174	0.275
-250.049	57.840	0.078	0.076
-249.034	-143.556	-0.166	0.016
-248.019	-200.000	-0.037	0.269
-247.005	-15.071	0.076	-0.048
-245.990	240.030	0.089	0.147
-244.976	139.924	-0.175	0.229
-243.961	58.679	-0.260	-0.252
-242.946	90.654	-0.065	0.072
-241.932	167.550	-0.220	-0.309
-240.917	-200.000	-0.004	-0.100
-239.903	452.258	-0.079	-0.172
-238.888	43.497	-0.114	0.103
-237.873	239.962	0.122	-0.201
-236.859	-50.863	-0.191	0.089
-235.844	24.464	0.225	0.184
-234.830	-200.000	0.018	-0.118
-233.815	-72.442	0.295	0.108
-232.800	99.144	0.173	-0.198
-231.786	-96.947	-0.044	0.011
-230.771	222.621	-0.041	0.065
-229.757	-98.631	0.142	-0.036
-228.742	-145.198	0.217	-0.019
-227.727	-200.000	-0.019	0.291
-226.713	339.554	-0.083	0.160
-225.698	6.694	0.079	-0.058
-224.684	-33.722	-0.105	-0.057
-223.669	196.996	0.068	-0.102
-222.655	109.288	0.135	0.160
-221.640	-64.357	-0.024	0.010
-220.625	510.152	-0.056	-0.129
-219.611	-111.293	0.423	-0.085
-218.596	-51.444	0.317	-0.146
-217.582	-57.213	0.316	-0.137
-216.567	86.519	-0.264	0.288
-215.552	-138.804	-0.095	0.010
-214.538	144.481	0.148	-0.196
-213.523	157.248	0.098	0.134
-212.509	214.393	-0.274	-0.430
-211.494	11.995	-0.281	-0.214
-210.479	-200.000	-0.068	0.336
-209.465	-18.703	-0.224	-0.138
-208.450	15.021	-0.160	0.124
-207.436	-32.847	-0.155	0.085
-206.421	-200.000	0.050	-0.253
-205.406	-73.880	0.209	0.075
-204.392	-30.733	0.089	-0.050
-203.377	575.672	0.070	0.169
-202.363	31.180	-0.073	0.062
-201.348	0.731	0.140	0.099
-200.333	-59.116	0.104	0.044
-199.319	753.757	-0.045	0.120
-198.304	-80.809	-0.188	0.062
-197.290	447.769	0.084	-0.183
-196.275	205.711	-0.066	0.102
-195.260	-63.839	0.335	-0.136
-194.246	487.545	-0.118	-0.265
-193.231	65.054	-0.118	0.117
-192.217	37.082	-0.219	-0.192
-191.202	-87.415	-0.148	-0.044
-190.187	45.283	-0.130	-0.118
-189.173	800.000	0.050	-0.151
-188.158	-82.100	0.253	-0.082
-187.144	-138.864	-0.189	0.020
-186.129	698.507	0.044	-0.115
-185.114	-87.706	-0.176	0.052
-184.100	800.000	-0.074	0.240
-183.085	-39.493	-0.111	-0.057
-182.071	-80.473	0.065	0.021
-181.056	-90.207	-0.154	0.044
-180.042	-43.097	-0.083	-0.042
-179.027	-8.875	0.080	-0.053
-178.012	-133.381	-0.139	0.017
-176.998	-24.983	0.134	-0.078
-175.983	14.825	0.185	-0.143
-174.969	17.242	-0.121	0.095
-173.954	77.180	0.279	-0.293
-172.939	-115.905	-0.258	-0.048
-171.925	2.555	0.068	-0.049
-170.910	-49.046	0.221	-0.105
-169.896	-112.011	-0.276	-0.055
-168.881	44.911	0.187	-0.170
-167.866	91.936	0.211	-0.235
-166.852	-200.000	-0.013	0.283
-165.837	-144.850	0.285	0.026
-164.823	-59.489	0.240	-0.102
-163.808	-200.000	-0.068	-0.312
-162.793	179.023	-0.198	-0.286
-161.779	148.057	0.145	-0.193
-160.764	-184.885	-0.188	0.003
-159.750	85.252	0.208	-0.225
-158.735	16.854	0.091	0.071
-157.720	-77.856	-0.292	-0.099
-156.706	88.706	-0.233	-0.256
-155.691	48.930	-0.201	0.186
-154.677	-200.000	-0.015	-0.207
-153.662	312.854	0.024	-0.044
-152.647	-200.000	-0.022	-0.139
-151.633	-11.787	0.237	0.154
-150.618	407.933	0.133	0.278
-149.604	-27.272	-0.053	-0.031
-148.589	512.469	-0.099	0.228
-147.574	-70.424	0.419	0.157
-146.560	-200.000	-0.072	0.367
-145.545	109.058	-0.171	-0.202
-144.531	587.830	-0.040	-0.098
-143.516	-115.030	0.298	-0.056
-142.502	-150.048	-0.229	0.018
-141.487	38.559	0.167	-0.146
-140.472	58.667	0.063	0.061
-139.458	-179.988	-0.231	0.005
-138.443	-200.000	0.071	-0.364
-137.429	-200.000	-0.009	-0.095
-136.414	-133.574	-0.201	-0.025
-135.399	-101.982	-0.038	0.009
-134.385	32.212	0.056	-0.048
-133.370	-200.000	0.031	-0.162
-132.356	-23.522	-0.197	0.116
-131.341	330.010	-0.044	-0.083
-130.326	800.000	-0.119	0.421
-129.312	43.202	-0.077	0.069
-128.297	-200.000	0.028	0.472
-127.283	-132.040	0.170	-0.022
-126.268	130.824	0.308	-0.389
-125.253	-39.941	-0.261	-0.134
-124.239	-200.000	0.070	0.302
-123.224	-97.962	-0.186	-0.047
-122.210	-119.374	-0.036	0.006
-121.195	-36.127	0.159	0.085
