DTS Sentinel unit serial number:	SN413079Multiplexer serial number:	ORYXHardware model number:	OX4-SRSoftware version number:	ORYX F/W v4.00 Oryx Data Collector v3.7.2.0data status	okinstallation	princeton_trtdifferential loss correction	single-endedforward channel	channel 4reverse channel	N/Adate	2019/09/19time	10:45:35forward acquisition time	60.00reverse acquisition time	0.00gamma	496.2192k internal	0.2328k external	0.2328temperature offset calibration	1.0019default loss term (dB/km)	0.3790temperature slope calibration	1.0000multiplexer offset coefficient	1.0000multiplexer slope coefficient	1.0000fibre end	0.00T internal ref (°C)	24.64T ext. ref 1 (°C)	0.74T ext. ref 2 (°C)	20.11length (m)	temperature (°C)	Stokes	anti-Stokes-747.200	-86.466	0.229	0.071
-746.185	-200.000	-0.023	0.347
-745.171	-127.306	0.213	0.031
-744.156	-124.994	-0.386	0.060
-743.142	-57.987	0.062	0.027
-742.127	-93.767	-0.232	-0.064
-741.112	-163.430	0.185	0.009
-740.098	38.360	-0.168	0.151
-739.083	-34.237	0.072	0.040
-738.069	41.208	-0.034	0.031
-737.054	121.764	0.337	0.424
-736.039	-56.950	-0.268	0.119
-735.025	206.482	-0.115	0.180
-734.010	-144.254	-0.464	-0.044
-732.996	634.245	0.109	-0.279
-731.981	35.640	0.269	0.238
-730.966	800.000	0.041	0.124
-729.952	-56.708	-0.054	0.024
-728.937	260.568	0.070	-0.121
-727.923	-131.819	-0.253	0.033
-726.908	-103.929	0.203	-0.048
-725.894	72.995	-0.264	-0.277
-724.879	-200.000	-0.020	-0.250
-723.864	-140.602	-0.172	0.018
-722.850	-74.888	0.216	-0.078
-721.835	-200.000	-0.034	-0.404
-720.821	-97.330	-0.468	-0.123
-719.806	-200.000	-0.002	0.242
-718.791	-107.596	-0.298	-0.066
-717.777	-200.000	-0.045	-0.225
-716.762	-54.658	0.155	0.070
-715.748	-13.721	0.163	0.106
-714.733	299.153	-0.179	0.331
-713.718	-53.587	-0.066	-0.030
-712.704	-200.000	0.044	-0.209
-711.689	109.421	0.129	-0.156
-710.675	-80.475	-0.160	-0.054
-709.660	-200.000	0.020	-0.110
-708.645	560.596	0.039	0.096
-707.631	21.847	-0.086	-0.070
-706.616	-136.873	0.093	0.011
-705.602	-200.000	0.010	-0.075
-704.587	-42.172	0.188	0.097
-703.572	-42.745	0.162	-0.083
-702.558	-172.731	-0.390	0.012
-701.543	-200.000	-0.002	0.057
-700.529	-200.000	0.024	-0.651
-699.514	-102.186	0.240	0.058
-698.499	-142.733	-0.406	0.040
-697.485	-200.000	-0.038	0.174
-696.470	-87.166	0.283	0.087
-695.456	408.258	0.106	-0.227
-694.441	399.472	0.107	0.225
-693.426	800.000	-0.118	-0.349
-692.412	80.902	0.176	0.191
-691.397	800.000	-0.037	-0.144
-690.383	-46.628	0.040	-0.020
-689.368	-148.229	0.302	-0.025
-688.354	71.640	-0.212	0.222
-687.339	18.314	0.131	-0.105
-686.324	186.718	-0.115	0.172
-685.310	-138.354	-0.127	-0.014
-684.295	-81.602	0.240	-0.079
-683.281	-75.694	0.063	-0.023
-682.266	758.960	0.181	0.492
-681.251	104.174	-0.296	-0.350
-680.237	81.936	-0.180	0.196
-679.222	92.748	0.147	-0.167
-678.208	-173.362	-0.101	0.003
-677.193	800.000	0.106	-0.358
-676.178	71.123	0.253	0.264
-675.164	-123.591	-0.328	0.052
-674.149	-103.845	0.381	0.089
-673.135	26.070	-0.320	0.269
-672.120	800.000	-0.071	-0.300
-671.105	-197.697	-0.357	-0.002
-670.091	-12.017	-0.215	0.141
-669.076	7.551	-0.052	-0.039
-668.062	-200.000	-0.017	0.219
-667.047	-200.000	-0.028	0.261
-666.032	168.166	0.060	0.086
-665.018	310.663	-0.072	0.136
-664.003	16.690	-0.032	0.026
-662.989	408.803	0.036	-0.077
-661.974	276.942	-0.062	-0.111
-660.959	800.000	-0.151	0.461
-659.945	72.703	0.129	-0.135
-658.930	-123.700	-0.274	-0.044
-657.916	-90.471	0.543	-0.158
-656.901	178.814	0.149	-0.219
-655.886	4.541	-0.207	0.153
-654.872	-112.384	-0.456	-0.092
-653.857	73.408	-0.306	-0.322
-652.843	800.000	0.046	-0.178
-651.828	215.636	-0.070	-0.112
-650.814	-73.406	-0.137	0.050
-649.799	-200.000	0.005	0.117
-648.784	-48.557	-0.218	-0.105
-647.770	38.601	0.210	-0.188
-646.755	651.345	0.089	-0.229
-645.741	800.000	0.041	0.159
-644.726	-129.186	0.165	-0.023
-643.711	205.264	-0.194	-0.302
-642.697	-73.155	0.201	-0.074
-641.682	-95.781	0.177	0.047
-640.668	-97.666	-0.220	0.057
-639.653	741.805	-0.119	0.320
-638.638	229.674	-0.012	-0.019
-637.624	-191.194	0.146	-0.002
-636.609	-21.546	-0.209	0.128
-635.595	788.515	0.081	-0.224
-634.580	42.499	-0.057	0.052
-633.565	-200.000	-0.043	0.194
-632.551	-33.130	-0.333	-0.185
-631.536	-200.000	-0.004	-0.155
-630.522	-122.346	0.247	0.040
-629.507	16.137	0.144	0.114
-628.492	265.677	0.130	0.227
-627.478	-200.000	0.044	-0.334
-626.463	-26.715	-0.052	-0.030
-625.449	-28.257	0.065	-0.037
-624.434	-200.000	0.073	0.378
-623.419	74.980	-0.142	0.150
-622.405	344.979	-0.126	-0.248
-621.390	-32.301	-0.155	-0.087
-620.376	-70.322	0.154	-0.059
-619.361	164.508	-0.246	0.347
-618.346	-22.774	-0.147	0.089
-617.332	-37.559	-0.465	-0.249
-616.317	-68.819	-0.364	-0.141
-615.303	-168.686	0.442	-0.017
-614.288	260.211	-0.212	0.368
-613.273	-36.024	0.071	-0.038
-612.259	-166.664	0.195	-0.008
-611.244	-200.000	0.006	0.153
-610.230	286.640	0.013	-0.023
-609.215	-200.000	-0.007	0.156
-608.201	-167.725	-0.206	0.008
-607.186	-94.478	-0.140	-0.038
-606.171	1.234	-0.205	0.148
-605.157	-200.000	0.014	0.113
-604.142	-172.786	-0.404	0.013
-603.128	-200.000	0.003	-0.213
-602.113	800.000	0.092	-0.274
-601.098	800.000	-0.045	-0.160
-600.084	92.972	0.155	0.175
-599.069	-24.543	0.207	-0.124
-598.055	39.831	0.029	0.026
-597.040	-106.145	0.177	0.040
-596.025	-106.145	-0.043	-0.010
-595.011	800.000	-0.096	-0.326
-593.996	-200.000	-0.019	-0.127
-592.982	-39.993	0.135	-0.071
-591.967	519.611	0.030	0.069
-590.952	102.436	-0.245	0.287
-589.938	95.508	0.167	0.191
-588.923	-78.898	0.584	0.199
-587.909	5.295	-0.194	-0.143
-586.894	-200.000	0.078	0.527
-585.879	188.281	-0.194	0.290
-584.865	579.253	-0.073	-0.180
-583.850	178.441	0.029	-0.042
-582.836	-117.063	-0.181	-0.033
-581.821	759.284	-0.081	-0.221
-580.806	-9.005	0.186	0.125
-579.792	128.656	-0.127	-0.162
-578.777	-159.625	-0.166	-0.009
-577.763	-200.000	-0.006	0.037
-576.748	-20.999	0.109	0.067
-575.733	77.254	-0.277	0.295
-574.719	-38.462	0.225	0.119
-573.704	219.360	0.092	0.148
-572.690	199.837	0.270	-0.414
-571.675	800.000	-0.064	0.218
-570.661	-200.000	-0.020	0.284
-569.646	-200.000	0.012	0.094
-568.631	-200.000	-0.002	-0.263
-567.617	648.749	0.134	-0.343
-566.602	65.931	0.266	0.269
-565.588	-102.576	-0.350	0.084
-564.573	-88.155	0.435	-0.130
-563.558	680.548	-0.128	-0.334
-562.544	-15.431	0.190	-0.121
-561.529	148.130	-0.192	0.259
-560.515	-99.969	-0.172	-0.043
-559.500	556.730	-0.021	0.051
-558.485	209.132	-0.154	0.241
-557.471	176.538	0.067	0.098
-556.456	-82.132	-0.221	-0.072
-555.442	-143.001	0.193	-0.019
-554.427	-68.839	0.126	0.049
-553.412	-110.899	-0.097	0.020
-552.398	-140.152	0.342	-0.036
-551.383	262.910	-0.105	0.182
-550.369	189.734	-0.135	0.202
-549.354	-65.434	0.283	-0.114
-548.339	187.736	0.137	0.205
-547.325	-28.740	-0.162	0.093
-546.310	-166.593	-0.357	-0.015
-545.296	534.100	0.033	-0.078
-544.281	259.100	-0.237	-0.409
-543.266	23.782	0.183	0.151
-542.252	-133.557	0.050	0.006
-541.237	-95.320	0.174	-0.047
-540.223	382.254	-0.203	-0.416
-539.208	5.304	0.241	0.178
-538.193	243.717	-0.054	-0.090
-537.179	-200.000	-0.234	0.001
-536.164	-39.545	-0.099	-0.052
-535.150	-127.913	-0.340	-0.049
-534.135	-100.757	-0.298	-0.073
-533.121	-41.041	-0.061	0.032
-532.106	800.000	0.077	-0.309
-531.091	-153.051	-0.346	0.024
-530.077	-120.098	0.165	-0.028
-529.062	-25.373	0.027	-0.016
-528.048	1.391	0.114	0.082
-527.033	-47.924	0.391	-0.189
-526.018	149.756	-0.109	-0.148
-525.004	245.880	0.044	0.074
-523.989	-14.666	0.106	0.068
-522.975	-200.000	-0.350	-0.001
-521.960	-200.000	0.008	0.103
-520.945	130.764	-0.281	-0.360
-519.931	-95.390	0.198	-0.053
-518.916	194.284	-0.131	-0.198
-517.902	-47.222	-0.232	-0.113
-516.887	-27.193	0.142	-0.083
-515.872	-30.644	-0.199	-0.112
-514.858	54.612	-0.095	0.091
-513.843	800.000	-0.072	-0.202
-512.829	505.482	0.082	0.189
-511.814	275.714	0.070	-0.125
-510.799	77.036	-0.156	-0.165
-509.785	-200.000	-0.036	0.301
-508.770	-27.941	0.292	0.169
-507.756	92.112	-0.048	-0.054
-506.741	64.029	0.183	0.184
-505.726	26.420	0.103	-0.086
-504.712	-200.000	-0.066	-0.363
-503.697	1.859	-0.211	-0.152
-502.683	179.039	0.101	-0.147
-501.668	681.477	0.044	-0.113
-500.653	-98.350	-0.064	-0.016
-499.639	-105.227	0.059	-0.014
-498.624	-200.000	0.101	-0.499
-497.610	-122.260	-0.161	-0.026
-496.595	233.366	-0.068	0.111
-495.581	-200.000	0.007	-0.166
-494.566	-114.310	-0.294	-0.056
-493.551	-6.790	0.083	-0.056
-492.537	15.126	-0.321	0.251
-491.522	-106.795	0.567	-0.125
-490.508	543.079	-0.062	-0.147
-489.493	-128.002	-0.382	0.055
-488.478	-200.000	-0.006	-0.118
-487.464	-200.000	-0.010	-0.160
-486.449	-6.192	-0.113	-0.077
-485.435	-200.000	0.016	-0.113
-484.420	800.000	-0.057	-0.229
-483.405	44.245	-0.147	0.135
-482.391	-200.000	-0.092	-0.436
-481.376	800.000	0.052	0.184
-480.362	315.068	-0.037	-0.070
-479.347	484.465	-0.046	0.105
-478.332	-178.887	0.143	-0.003
-477.318	-200.000	0.062	-0.000
-476.303	391.139	-0.145	-0.301
-475.289	-18.710	0.206	-0.128
-474.274	754.196	-0.099	-0.267
-473.259	-45.668	0.191	0.094
-472.245	-200.000	0.251	-0.001
-471.230	66.306	0.058	-0.058
-470.216	-200.000	0.041	0.299
-469.201	80.793	-0.123	-0.132
-468.186	-76.536	0.366	-0.128
-467.172	6.337	0.111	0.082
-466.157	368.397	-0.134	-0.270
-465.143	383.246	0.055	-0.112
-464.128	17.115	0.269	0.213
-463.113	75.454	-0.143	0.150
-462.099	146.466	0.230	-0.308
-461.084	144.198	-0.098	-0.131
-460.070	-76.304	0.232	-0.082
-459.055	7.381	0.243	0.181
-458.040	800.000	0.034	-0.146
-457.026	139.948	-0.196	0.258
-456.011	800.000	0.047	-0.200
-454.997	-97.455	0.086	0.022
-453.982	316.826	0.037	-0.070
-452.968	800.000	-0.089	-0.290
-451.953	-131.253	0.254	0.034
-450.938	800.000	0.078	0.246
-449.924	111.116	0.195	0.234
-448.909	800.000	-0.057	-0.234
-447.895	799.776	0.088	-0.242
-446.880	-1.212	-0.162	0.114
-445.865	-114.294	0.212	-0.041
-444.851	131.824	0.185	-0.237
-443.836	-68.444	0.084	-0.032
-442.822	-200.000	-0.006	0.121
-441.807	-62.067	0.146	-0.061
-440.792	225.910	-0.143	0.231
-439.778	-200.000	-0.042	0.193
-438.763	-92.138	0.264	0.074
-437.749	-30.039	0.097	-0.055
-436.734	2.514	-0.208	-0.150
-435.719	40.400	-0.041	0.037
-434.705	-86.891	0.209	-0.064
-433.690	36.774	0.388	-0.341
-432.676	-129.236	-0.360	-0.050
-431.661	674.159	0.037	0.095
-430.646	35.127	0.121	0.106
-429.632	-200.000	0.018	-0.089
-428.617	-95.203	0.297	0.080
-427.603	-125.498	-0.176	0.027
-426.588	-200.000	0.026	-0.400
-425.573	-55.006	0.303	0.136
-424.559	-118.111	-0.482	0.086
-423.544	48.865	-0.039	-0.036
-422.530	-10.778	-0.113	0.074
-421.515	-200.000	0.070	-0.374
-420.500	-200.000	0.003	-0.189
-419.486	313.025	-0.195	-0.365
-418.471	800.000	0.097	-0.349
-417.457	11.867	0.205	0.157
-416.442	-5.481	0.245	-0.167
-415.428	607.176	-0.098	0.244
-414.413	-44.029	-0.047	0.023
-413.398	-167.594	-0.160	-0.006
-412.384	24.124	-0.292	-0.240
-411.369	-15.777	0.304	-0.193
-410.355	27.389	0.046	0.039
-409.340	-41.080	-0.415	0.213
-408.325	156.037	-0.015	-0.020
-407.311	185.930	0.106	-0.157
-406.296	60.791	0.352	-0.347
-405.282	397.054	-0.075	0.155
-404.267	-200.000	-0.080	-0.359
-403.252	800.000	0.043	0.138
-402.238	-170.228	-0.215	0.008
-401.223	-200.000	0.035	-0.282
-400.209	-21.682	-0.406	-0.246
-399.194	-200.000	-0.002	-0.075
-398.179	150.990	0.136	-0.184
-397.165	-200.000	-0.032	-0.184
-396.150	113.148	0.204	-0.246
-395.136	800.000	0.040	-0.116
-394.121	327.972	0.153	-0.292
-393.106	-130.427	0.250	0.034
-392.092	250.820	-0.188	0.318
-391.077	800.000	0.125	0.360
-390.063	-200.000	0.042	0.432
-389.048	-20.968	-0.213	0.129
-388.033	800.000	-0.050	-0.161
-387.019	64.912	0.141	0.141
-386.004	361.913	0.093	-0.185
-384.990	252.997	0.121	0.205
-383.975	13.925	0.164	0.127
-382.960	-200.000	0.013	0.112
-381.946	-200.000	-0.003	0.342
-380.931	-70.718	0.206	-0.077
-379.917	29.766	-0.080	-0.067
-378.902	60.737	-0.236	-0.232
-377.888	186.610	0.094	-0.139
-376.873	-200.000	0.008	-0.185
-375.858	93.904	-0.338	-0.380
-374.844	-34.276	0.194	0.106
-373.829	99.082	-0.277	-0.318
-372.815	800.000	0.060	0.210
-371.800	46.266	0.219	0.201
-370.785	488.025	-0.082	0.185
-369.771	60.386	-0.269	0.264
-368.756	-69.164	-0.326	-0.125
-367.742	69.283	0.069	-0.070
-366.727	266.976	0.130	0.225
-365.712	-120.237	0.222	-0.038
-364.698	48.236	-0.050	0.046
-363.683	-98.012	-0.270	-0.069
-362.669	112.175	-0.034	-0.041
-361.654	-134.417	0.083	-0.010
-360.639	-30.960	0.143	-0.080
-359.625	466.282	-0.033	0.074
-358.610	-200.000	0.022	-0.103
-357.596	-200.000	-0.033	0.221
-356.581	88.568	-0.096	-0.106
-355.566	131.326	-0.118	0.151
-354.552	774.355	-0.089	0.240
-353.537	-67.073	-0.022	0.009
-352.523	-200.000	-0.027	-0.204
-351.508	78.247	0.119	0.126
-350.493	-200.000	-0.078	-0.408
-349.479	-99.199	-0.246	0.062
-348.464	-80.731	0.372	0.123
-347.450	14.494	0.153	-0.118
-346.435	-41.397	0.193	0.099
-345.420	-200.000	-0.021	-0.152
-344.406	-86.634	-0.169	-0.051
-343.391	-66.669	0.311	-0.122
-342.377	-200.000	0.023	-0.265
-341.362	-122.873	-0.385	-0.062
-340.348	-104.125	0.120	0.028
-339.333	73.915	-0.070	0.073
-338.318	104.397	-0.177	0.207
-337.304	315.842	0.122	0.228
-336.289	-16.447	-0.255	0.161
-335.275	800.000	0.050	-0.152
-334.260	51.622	-0.124	0.117
-333.245	-90.096	0.191	0.055
-332.231	800.000	-0.059	-0.162
-331.216	2.826	-0.155	0.112
-330.202	157.689	0.090	-0.124
-329.187	-200.000	0.000	-0.172
-328.172	-64.414	-0.354	-0.143
-327.158	463.107	0.194	0.429
-326.143	-31.231	0.097	-0.054
-325.129	-200.000	0.027	-0.154
-324.114	-196.168	0.361	-0.002
-323.099	491.740	0.211	0.479
-322.085	-27.644	0.148	-0.085
-321.070	-200.000	-0.010	-0.049
-320.056	59.787	-0.173	-0.169
-319.041	-6.300	0.051	-0.035
-318.026	7.654	-0.231	0.171
-317.012	-151.879	0.074	-0.005
-315.997	-179.661	0.064	0.001
-314.983	329.551	-0.132	0.252
-313.968	285.376	-0.104	-0.186
-312.953	-31.726	0.061	-0.034
-311.939	-42.911	0.226	0.114
-310.924	-49.451	0.174	-0.082
-309.910	-61.131	0.168	-0.070
-308.895	576.677	-0.136	0.328
-307.880	-200.000	-0.007	-0.145
-306.866	800.000	-0.002	-0.009
-305.851	800.000	-0.051	0.220
-304.837	434.008	0.080	0.171
-303.822	-200.000	-0.011	0.260
-302.807	-56.526	-0.195	-0.085
-301.793	-185.220	0.166	0.003
-300.778	344.368	-0.103	-0.200
-299.764	-55.749	-0.261	0.116
-298.749	441.366	-0.106	0.230
-297.735	426.739	-0.074	0.157
-296.720	386.645	-0.122	0.249
-295.705	-69.859	0.320	0.121
-294.691	-20.501	-0.176	-0.107
-293.676	-200.000	-0.004	-0.047
-292.662	-55.226	-0.145	0.064
-291.647	-200.000	-0.007	-0.149
-290.632	73.992	0.248	0.257
-289.618	-181.785	-0.299	0.006
-288.603	-71.876	0.179	0.066
-287.589	8.797	-0.156	-0.117
-286.574	103.233	-0.320	0.371
-285.559	-200.000	-0.030	0.421
-284.545	-200.000	0.008	-0.276
-283.530	99.151	0.079	0.090
-282.516	-200.000	-0.016	0.395
-281.501	-138.839	-0.223	0.024
-280.486	-130.905	-0.232	-0.031
-279.472	386.008	0.168	0.343
-278.457	-81.846	0.141	0.046
-277.443	-200.000	0.031	0.266
-276.428	-78.458	0.118	0.040
-275.413	1.331	-0.458	0.325
-274.399	-121.798	-0.216	-0.035
-273.384	151.361	0.153	-0.207
-272.370	-200.000	0.030	-0.174
-271.355	-93.133	-0.197	-0.054
-270.340	146.405	-0.105	0.139
-269.326	800.000	-0.100	-0.284
-268.311	-14.939	0.143	0.091
-267.297	19.403	-0.114	-0.090
-266.282	800.000	-0.161	-0.503
-265.267	49.394	-0.173	-0.161
-264.253	286.417	0.322	0.574
-263.238	-25.547	0.127	0.074
-262.224	229.556	0.113	-0.182
-261.209	-64.400	-0.437	0.176
-260.195	800.000	-0.028	-0.082
-259.180	143.115	0.194	0.255
-258.165	250.812	-0.170	0.285
-257.151	140.262	-0.142	0.186
-256.136	-94.474	-0.368	-0.099
-255.122	-65.364	0.025	0.010
-254.107	-200.000	0.013	0.276
-253.092	-200.000	0.019	-0.260
-252.078	177.695	0.059	0.085
-251.063	18.149	-0.226	0.178
-250.049	33.651	-0.135	0.116
-249.034	-200.000	0.026	0.186
-248.019	800.000	0.037	-0.124
-247.005	45.403	-0.045	0.041
-245.990	63.353	-0.078	-0.077
-244.976	-90.736	0.104	-0.030
-243.961	-18.849	-0.210	0.129
-242.946	66.587	0.305	0.306
-241.932	-200.000	-0.017	-0.159
-240.917	297.320	0.136	0.246
-239.903	14.531	-0.107	0.083
-238.888	409.726	-0.199	-0.416
-237.873	654.303	-0.039	0.099
-236.859	-158.098	0.309	-0.018
-235.844	238.462	-0.231	0.379
-234.830	196.346	0.162	0.243
-233.815	-200.000	-0.060	0.262
-232.800	-54.308	-0.035	-0.016
-231.786	-42.580	-0.108	-0.054
-230.771	57.371	0.153	0.148
-229.757	-174.027	0.276	0.008
-228.742	304.435	-0.138	-0.252
-227.727	-200.000	0.035	-0.413
-226.713	-52.424	-0.106	0.048
-225.698	-51.550	-0.099	0.046
-224.684	366.781	0.037	0.074
-223.669	297.874	0.265	-0.480
-222.655	-163.181	0.157	0.007
-221.640	103.140	-0.174	0.201
-220.625	729.044	-0.073	0.191
-219.611	127.356	-0.146	0.183
-218.596	-200.000	0.091	0.397
-217.582	80.563	-0.197	-0.209
-216.567	166.210	0.034	0.047
-215.552	-171.580	0.231	0.008
-214.538	335.957	-0.060	-0.114
-213.523	-42.902	0.156	0.078
-212.509	-90.971	0.462	0.131
-211.494	-200.000	0.025	0.175
-210.479	655.231	-0.107	-0.270
-209.465	54.784	0.141	0.134
-208.450	103.200	0.314	0.363
-207.436	-70.541	0.389	0.145
-206.421	-35.997	-0.280	0.149
-205.406	113.904	0.201	-0.241
-204.392	-39.330	-0.123	-0.064
-203.377	97.749	-0.104	-0.118
-202.363	107.150	-0.114	-0.134
-201.348	-33.625	0.098	-0.054
-200.333	14.141	0.261	0.200
-199.319	-200.000	-0.029	0.199
-198.304	-141.340	0.143	-0.014
-197.290	-200.000	-0.031	0.238
-196.275	-200.000	-0.010	0.103
-195.260	104.097	-0.195	0.226
-194.246	-56.873	0.223	0.097
-193.231	-75.614	-0.250	-0.088
-192.217	-3.490	-0.310	-0.213
-191.202	-200.000	0.004	-0.025
-190.187	800.000	0.138	-0.409
-189.173	-200.000	0.011	-0.246
-188.158	799.328	-0.151	-0.411
-187.144	-115.881	-0.136	0.025
-186.129	-106.190	-0.126	-0.028
-185.114	-57.891	0.289	0.125
-184.100	-50.358	0.131	-0.061
-183.085	-200.000	0.032	0.279
-182.071	-142.356	0.180	0.018
-181.056	181.917	-0.161	0.233
-180.042	-200.000	0.058	0.275
-179.027	-116.238	0.179	0.033
-178.012	-104.117	0.292	0.067
-176.998	-14.552	0.150	0.095
-175.983	-31.920	0.264	0.146
-174.969	-102.888	-0.214	-0.050
-173.954	58.614	-0.189	-0.183
-172.939	148.440	-0.153	-0.204
-171.925	800.000	-0.064	0.189
-170.910	19.002	0.145	-0.114
-169.896	213.858	0.160	-0.249
-168.881	-64.698	0.267	-0.107
-167.866	-56.373	0.032	0.014
-166.852	-131.505	-0.118	-0.015
-165.837	281.080	0.002	-0.004
-164.823	800.000	-0.017	0.075
-163.808	-114.048	0.227	-0.043
-162.793	800.000	-0.091	0.248
-161.779	-59.338	0.128	-0.054
-160.764	-200.000	0.052	0.326
-159.750	-77.735	-0.025	0.009
-158.735	85.358	0.301	-0.326
-157.720	-122.758	0.251	-0.040
-156.706	-200.000	-0.014	-0.243
-155.691	196.636	-0.075	0.113
-154.677	-86.263	0.235	-0.071
-153.662	137.836	-0.241	0.311
-152.647	78.222	-0.186	0.196
-151.633	189.926	-0.186	0.275
-150.618	420.837	0.129	-0.271
-149.604	-81.696	0.170	0.055
-148.589	-200.000	-0.025	0.162
-147.574	42.381	0.041	-0.037
-146.560	-200.000	0.110	-0.562
-145.545	158.310	0.225	-0.307
-144.531	-200.000	-0.026	-0.122
-143.516	-95.394	-0.256	-0.068
-142.502	-90.538	-0.067	0.019
-141.487	545.039	0.039	0.091
-140.472	-91.273	-0.386	-0.109
-139.458	44.671	0.056	0.051
-138.443	-117.463	-0.174	-0.031
-137.429	-64.157	-0.263	-0.105
-136.414	319.084	0.048	-0.089
-135.399	-200.000	0.029	0.175
-134.385	90.141	-0.079	-0.087
-133.370	20.002	0.315	-0.250
-132.356	-41.572	-0.210	-0.106
-131.341	506.421	0.110	0.252
-130.326	-200.000	-0.033	-0.251
-129.312	-200.000	0.004	0.316
-128.297	125.829	-0.059	-0.073
-127.283	98.211	-0.086	-0.097
-126.268	-94.807	-0.207	-0.055
-125.253	54.768	0.219	-0.208
-124.239	333.251	0.096	0.182
-123.224	99.819	0.154	-0.176
-122.210	-200.000	-0.148	-0.000
-121.195	-200.000	-0.008	0.127
