DTS Sentinel unit serial number:	SN413079Multiplexer serial number:	ORYXHardware model number:	OX4-SRSoftware version number:	ORYX F/W v4.00 Oryx Data Collector v3.7.2.0data status	okinstallation	princeton_trtdifferential loss correction	single-endedforward channel	channel 4reverse channel	N/Adate	2019/09/11time	19:23:11forward acquisition time	60.00reverse acquisition time	0.00gamma	496.2192k internal	0.2292k external	0.2292temperature offset calibration	1.0039default loss term (dB/km)	0.3790temperature slope calibration	1.0000multiplexer offset coefficient	1.0000multiplexer slope coefficient	1.0000fibre end	0.00T internal ref (°C)	40.86T ext. ref 1 (°C)	1.31T ext. ref 2 (°C)	32.99length (m)	temperature (°C)	Stokes	anti-Stokes-747.200	-200.000	-0.015	-0.087
-746.185	71.156	-0.207	0.219
-745.171	-86.118	0.333	-0.105
-744.156	800.000	0.064	0.282
-743.142	22.540	-0.073	0.061
-742.127	-200.000	0.031	0.156
-741.112	-38.438	0.104	-0.056
-740.098	-48.760	-0.231	0.113
-739.083	-49.181	0.178	0.087
-738.069	191.874	-0.152	0.234
-737.054	-200.000	-0.014	-0.177
-736.039	111.157	-0.129	0.159
-735.025	-200.000	-0.012	-0.256
-734.010	60.811	0.151	-0.153
-732.996	800.000	-0.120	-0.417
-731.981	90.120	-0.144	-0.164
-730.966	-98.817	-0.266	0.069
-729.952	3.797	0.066	0.049
-728.937	24.888	0.109	0.093
-727.923	93.534	-0.223	-0.259
-726.908	-200.000	-0.057	-0.518
-725.894	30.919	-0.107	-0.094
-724.879	-107.318	0.330	0.074
-723.864	269.435	-0.056	-0.100
-722.850	800.000	-0.032	-0.125
-721.835	-90.079	0.138	0.041
-720.821	-46.363	-0.242	0.121
-719.806	428.163	-0.128	-0.282
-718.791	368.185	-0.079	-0.163
-717.777	-53.403	0.018	0.008
-716.762	-160.255	0.321	-0.018
-715.748	-200.000	0.076	-0.399
-714.733	-55.514	-0.191	-0.088
-713.718	175.909	0.192	-0.285
-712.704	34.448	-0.113	0.101
-711.689	61.345	0.220	-0.223
-710.675	-161.203	-0.179	-0.010
-709.660	103.578	-0.144	0.172
-708.645	-65.103	0.241	0.100
-707.631	800.000	0.030	-0.097
-706.616	125.248	-0.198	-0.256
-705.602	31.114	-0.126	0.110
-704.587	-27.311	-0.110	-0.065
-703.572	-200.000	0.040	-0.198
-702.558	141.489	-0.147	0.199
-701.543	313.263	-0.132	0.254
-700.529	800.000	0.068	-0.287
-699.514	147.411	-0.152	-0.210
-698.499	-89.500	-0.277	-0.083
-697.485	32.320	-0.245	-0.216
-696.470	-123.638	0.119	0.019
-695.456	4.346	-0.215	0.161
-694.441	-5.305	-0.089	0.062
-693.426	39.946	-0.467	0.428
-692.412	-24.141	-0.133	-0.081
-691.397	-118.667	-0.196	0.035
-690.383	270.679	0.078	0.141
-689.368	-99.944	-0.400	-0.102
-688.354	59.125	0.229	-0.230
-687.339	-70.200	-0.184	-0.071
-686.324	-9.476	-0.091	0.062
-685.310	-134.976	-0.120	-0.015
-684.295	369.810	-0.029	-0.060
-683.281	-85.932	-0.053	-0.017
-682.266	86.397	-0.113	0.127
-681.251	-43.994	-0.297	0.153
-680.237	-200.000	0.042	0.259
-679.222	-139.337	0.275	0.030
-678.208	-200.000	0.103	-0.523
-677.193	800.000	0.040	-0.129
-676.178	462.901	-0.294	0.671
-675.164	780.020	0.096	0.269
-674.149	95.395	-0.208	0.242
-673.135	-200.000	-0.012	-0.122
-672.120	-200.000	0.072	0.423
-671.105	26.538	-0.236	0.202
-670.091	-200.000	0.047	0.223
-669.076	-118.758	0.300	0.054
-668.062	591.189	0.106	-0.268
-667.047	-45.773	-0.151	0.076
-666.032	30.048	-0.015	-0.013
-665.018	800.000	-0.103	-0.389
-664.003	8.600	0.187	-0.144
-662.989	-124.312	-0.073	0.012
-661.974	-200.000	-0.058	-0.288
-660.959	-49.959	0.283	-0.137
-659.945	-58.115	-0.069	0.031
-658.930	607.234	-0.090	0.228
-657.916	-135.425	0.103	0.013
-656.901	48.690	0.144	-0.138
-655.886	100.345	0.148	-0.175
-654.872	184.806	0.099	0.149
-653.857	-74.503	-0.237	0.087
-652.843	-74.554	0.133	-0.049
-651.828	-200.000	0.104	0.000
-650.814	29.801	-0.158	-0.137
-649.799	-123.466	0.271	-0.044
-648.784	15.800	-0.116	0.093
-647.770	-110.593	0.261	-0.055
-646.755	800.000	0.056	0.167
-645.741	800.000	-0.060	-0.194
-644.726	-92.862	-0.143	-0.041
-643.711	800.000	-0.077	0.310
-642.697	205.135	-0.202	0.319
-641.682	573.541	-0.108	-0.268
-640.668	800.000	-0.038	-0.137
-639.653	-200.000	0.048	-0.303
-638.638	72.708	0.223	-0.237
-637.624	92.437	-0.113	-0.130
-636.609	-191.742	0.313	0.003
-635.595	-200.000	-0.018	0.085
-634.580	-200.000	-0.009	-0.294
-633.565	446.860	-0.077	0.172
-632.551	363.917	0.075	-0.153
-631.536	-200.000	0.045	0.594
-630.522	800.000	0.053	-0.207
-629.507	123.266	-0.101	-0.129
-628.492	-88.977	0.464	0.140
-627.478	-42.964	-0.152	0.079
-626.463	-200.000	-0.377	-0.000
-625.449	138.792	0.080	0.107
-624.434	800.000	0.054	-0.180
-623.419	-88.232	-0.175	-0.053
-622.405	-155.897	-0.184	0.012
-621.390	102.066	-0.330	-0.393
-620.376	800.000	-0.045	-0.188
-619.361	-200.000	0.014	0.142
-618.346	-200.000	-0.017	-0.347
-617.332	200.766	-0.033	-0.051
-616.317	-77.286	0.299	-0.106
-615.303	97.297	0.150	0.175
-614.288	800.000	-0.050	0.167
-613.273	85.705	0.265	-0.296
-612.259	-200.000	-0.024	0.140
-611.244	196.928	-0.225	0.349
-610.230	546.877	0.039	0.095
-609.215	-142.641	0.047	-0.005
-608.201	245.037	0.175	0.299
-607.186	-144.448	0.089	0.008
-606.171	-79.766	0.145	0.050
-605.157	530.891	0.099	-0.238
-604.142	-160.506	-0.096	0.005
-603.128	-10.343	-0.178	0.120
-602.113	-37.764	-0.241	-0.131
-601.098	442.533	0.121	0.271
-600.084	-200.000	-0.019	0.195
-599.069	238.821	-0.053	0.089
-598.055	800.000	0.022	0.065
-597.040	1.228	0.140	0.103
-596.025	800.000	0.133	0.403
-595.011	777.534	-0.144	0.401
-593.996	-200.000	0.030	-0.181
-592.982	-104.734	-0.253	0.059
-591.967	-134.593	0.372	-0.046
-590.952	-2.845	-0.161	-0.114
-589.938	-103.343	0.293	0.070
-588.923	-105.067	0.134	-0.031
-587.909	35.308	-0.121	-0.108
-586.894	-116.591	0.292	-0.055
-585.879	199.581	-0.011	-0.017
-584.865	-48.372	0.321	-0.157
-583.850	800.000	0.058	-0.216
-582.836	-91.884	0.122	0.035
-581.821	-98.882	-0.300	-0.078
-580.806	-141.752	-0.222	-0.023
-579.792	-200.000	-0.024	0.257
-578.777	-133.843	-0.423	-0.053
-577.763	35.079	-0.190	-0.169
-576.748	-200.000	0.040	-0.296
-575.733	359.059	-0.083	-0.168
-574.719	-200.000	-0.027	-0.344
-573.704	544.460	-0.065	0.158
-572.690	-200.000	0.014	0.084
-571.675	63.335	0.151	-0.154
-570.661	-200.000	0.004	0.067
-569.646	-150.252	0.207	-0.016
-568.631	76.198	-0.066	-0.071
-567.617	-151.502	0.185	-0.014
-566.602	262.201	-0.026	-0.046
-565.588	-21.269	-0.300	0.186
-564.573	406.171	-0.044	0.094
-563.558	-200.000	0.053	-0.283
-562.544	-200.000	0.049	-0.220
-561.529	153.780	0.098	0.136
-560.515	50.641	0.092	0.089
-559.500	-32.500	-0.091	0.052
-558.485	409.189	0.076	-0.163
-557.471	-58.490	0.184	-0.081
-556.456	-200.000	0.032	0.231
-555.442	131.675	0.125	0.164
-554.427	-76.197	-0.320	0.115
-553.412	-52.249	0.297	0.140
-552.398	134.347	-0.109	0.144
-551.383	-200.000	-0.008	0.059
-550.369	-165.596	0.160	0.007
-549.354	-200.000	0.012	-0.112
-548.339	800.000	-0.037	0.134
-547.325	-65.862	-0.048	-0.019
-546.310	-20.655	-0.138	0.086
-545.296	773.958	0.086	-0.239
-544.281	95.451	0.063	0.073
-543.266	-78.196	-0.075	0.026
-542.252	-118.899	-0.333	0.059
-541.237	80.767	-0.108	0.119
-540.223	-200.000	0.018	0.130
-539.208	666.055	0.101	-0.265
-538.193	-31.424	-0.302	0.172
-537.179	586.246	0.048	-0.120
-536.164	66.483	-0.252	0.260
-535.150	-75.683	-0.123	-0.044
-534.135	195.109	0.177	0.273
-533.121	-200.000	0.012	-0.083
-532.106	800.000	-0.033	-0.111
-531.091	236.501	0.175	0.294
-530.077	-137.626	0.406	0.046
-529.062	-39.134	-0.205	-0.109
-528.048	-200.000	-0.008	0.111
-527.033	670.615	0.018	0.047
-526.018	800.000	-0.050	0.174
-525.004	800.000	-0.103	-0.342
-523.989	800.000	-0.085	-0.251
-522.975	-97.672	-0.356	-0.094
-521.960	-140.922	-0.149	-0.015
-520.945	-200.000	0.019	0.150
-519.931	-200.000	-0.048	0.298
-518.916	800.000	-0.055	-0.182
-517.902	-89.399	0.098	-0.029
-516.887	-100.926	0.144	0.036
-515.872	26.262	0.257	0.217
-514.858	-47.226	-0.134	0.066
-513.843	125.900	0.303	0.389
-512.829	-161.357	0.303	0.016
-511.814	289.547	-0.162	0.299
-510.799	227.915	-0.179	0.295
-509.785	125.449	-0.231	0.296
-508.770	175.811	-0.122	0.180
-507.756	71.867	-0.122	-0.129
-506.741	234.040	0.115	0.192
-505.726	25.523	0.139	-0.117
-504.712	-200.000	-0.002	0.289
-503.697	768.177	-0.071	0.196
-502.683	205.924	0.086	0.136
-501.668	-116.066	0.188	-0.036
-500.653	-138.600	0.034	0.004
-499.639	-33.310	-0.061	-0.034
-498.624	210.634	-0.072	0.115
-497.610	253.825	0.044	-0.076
-496.595	-50.078	-0.343	-0.165
-495.581	326.544	0.115	0.223
-494.566	-200.000	-0.003	-0.090
-493.551	800.000	0.020	-0.078
-492.537	-141.608	-0.305	-0.031
-491.522	191.507	-0.034	0.051
-490.508	235.139	0.052	0.086
-489.493	-174.115	0.212	-0.006
-488.478	2.337	0.301	-0.221
-487.464	-200.000	0.010	0.051
-486.449	49.957	0.020	0.019
-485.435	-168.219	0.339	0.013
-484.420	800.000	0.017	0.062
-483.405	575.931	-0.084	0.209
-482.391	405.503	0.064	-0.136
-481.376	48.934	0.164	-0.156
-480.362	275.942	-0.167	0.300
-479.347	-200.000	-0.032	-0.169
-478.332	-200.000	0.018	-0.235
-477.318	-108.656	0.091	-0.020
-476.303	184.865	0.204	0.307
-475.289	800.000	-0.078	-0.278
-474.274	298.238	-0.183	-0.340
-473.259	99.768	-0.115	-0.135
-472.245	131.872	0.173	0.226
-471.230	-78.190	-0.408	0.142
-470.216	53.752	-0.079	0.077
-469.201	-200.000	-0.022	-0.232
-468.186	-65.410	0.293	-0.119
-467.172	-97.636	-0.273	0.072
-466.157	-200.000	0.000	0.021
-465.143	-153.893	0.122	0.008
-464.128	800.000	-0.055	-0.174
-463.113	36.099	0.198	0.176
-462.099	-43.753	-0.297	-0.152
-461.084	800.000	0.074	0.243
-460.070	-59.189	-0.121	-0.053
-459.055	-170.876	-0.203	-0.007
-458.040	-200.000	0.023	-0.126
-457.026	142.610	-0.271	0.365
-456.011	39.023	-0.317	0.287
-454.997	-200.000	0.003	0.189
-453.982	0.823	0.221	-0.160
-452.968	800.000	0.050	-0.161
-451.953	-37.035	-0.245	0.133
-450.938	-7.080	0.123	-0.085
-449.924	-118.197	-0.354	-0.064
-448.909	6.101	-0.172	0.129
-447.895	445.800	0.172	0.383
-446.880	-16.750	0.217	-0.139
-445.865	656.821	0.068	0.176
-444.851	-200.000	0.003	-0.151
-443.836	-129.840	-0.229	0.032
-442.822	-24.352	-0.258	-0.155
-441.807	800.000	0.062	-0.184
-440.792	121.660	-0.158	-0.199
-439.778	800.000	-0.048	-0.137
-438.763	-95.133	-0.215	0.059
-437.749	637.116	0.041	0.105
-436.734	-113.968	0.078	0.015
-435.719	753.607	0.070	-0.192
-434.705	-200.000	0.044	0.266
-433.690	388.485	-0.067	-0.140
-432.676	-60.390	0.320	0.137
-431.661	-48.061	0.076	0.037
-430.646	-112.245	-0.245	-0.050
-429.632	800.000	0.197	-0.728
-428.617	216.685	-0.033	0.054
-427.603	-200.000	0.003	0.155
-426.588	334.918	-0.102	-0.200
-425.573	800.000	0.133	0.383
-424.559	466.387	0.076	-0.172
-423.544	711.428	-0.053	0.143
-422.530	-200.000	0.002	-0.019
-421.515	-132.184	-0.267	-0.035
-420.500	426.934	-0.045	0.099
-419.486	303.420	-0.156	0.291
-418.471	-47.615	0.124	-0.061
-417.457	800.000	-0.096	0.302
-416.442	96.467	-0.040	-0.046
-415.428	104.243	0.188	0.224
-414.413	742.144	0.072	0.195
-413.398	-200.000	-0.001	-0.183
-412.384	-199.230	-0.147	-0.001
-411.369	-200.000	-0.078	-0.365
-410.355	-101.005	0.150	0.037
-409.340	-35.499	0.189	0.103
-408.325	-129.512	0.210	0.029
-407.311	-44.766	0.084	-0.042
-406.296	800.000	-0.116	-0.329
-405.282	800.000	-0.039	-0.153
-404.267	9.600	-0.116	0.088
-403.252	-119.996	0.274	-0.047
-402.238	63.304	-0.034	-0.034
-401.223	357.786	-0.062	0.126
-400.209	-98.536	0.186	0.048
-399.194	-85.552	-0.415	0.130
-398.179	-192.997	0.241	0.002
-397.165	232.505	-0.092	0.153
-396.150	-85.243	-0.226	-0.071
-395.136	540.936	-0.049	-0.118
-394.121	131.892	0.093	-0.121
-393.106	-59.087	-0.432	-0.188
-392.092	-99.448	-0.249	-0.063
-391.077	28.371	-0.074	-0.063
-390.063	-61.006	0.196	0.084
-389.048	800.000	-0.113	-0.338
-388.033	-128.206	0.314	0.045
-387.019	22.091	-0.165	0.136
-386.004	-118.419	-0.108	0.019
-384.990	127.318	-0.103	-0.132
-383.975	-22.606	-0.088	0.053
-382.960	84.409	-0.212	0.234
-381.946	-134.757	-0.175	0.021
-380.931	395.178	-0.083	-0.174
-379.917	-39.872	0.303	0.160
-378.902	29.737	0.104	0.089
-377.888	325.114	0.256	-0.493
-376.873	250.226	-0.236	0.404
-375.858	-200.000	-0.004	0.356
-374.844	-86.920	0.105	0.032
-373.829	-56.907	0.304	0.135
-372.815	-29.563	0.170	0.098
-371.800	96.716	0.100	-0.116
-370.785	65.278	0.265	-0.271
-369.771	-59.240	-0.139	0.061
-368.756	166.248	-0.135	0.193
-367.742	190.234	-0.093	-0.142
-366.727	800.000	-0.098	-0.292
-365.712	800.000	-0.037	-0.112
-364.698	-200.000	0.005	-0.148
-363.683	-200.000	-0.029	-0.412
-362.669	-52.992	0.227	0.105
-361.654	113.339	0.221	0.271
-360.639	-145.378	-0.400	0.036
-359.625	-30.238	0.058	0.033
-358.610	-132.041	-0.191	0.025
-357.596	85.446	0.062	-0.069
-356.581	-72.420	-0.110	0.041
-355.566	515.086	0.055	0.130
-354.552	3.374	0.255	0.187
-353.537	-153.741	0.169	0.012
-352.523	-126.358	-0.125	0.019
-351.508	-73.570	0.072	-0.026
-350.493	-102.131	-0.446	-0.108
-349.479	44.223	0.160	-0.148
-348.464	214.079	-0.143	-0.228
-347.450	800.000	0.029	-0.097
-346.435	-200.000	-0.030	0.276
-345.420	-200.000	-0.032	0.361
-344.406	-200.000	0.010	-0.179
-343.391	-200.000	-0.026	-0.226
-342.377	-37.093	0.108	-0.058
-341.362	800.000	0.032	-0.129
-340.348	800.000	-0.091	-0.273
-339.333	-88.650	0.405	-0.121
-338.318	-80.474	0.097	-0.032
-337.304	117.407	0.079	0.098
-336.289	4.856	-0.237	0.175
-335.275	-8.162	0.198	0.134
-334.260	-83.796	0.201	-0.065
-333.245	111.849	0.202	-0.245
-332.231	-3.599	-0.153	0.107
-331.216	-134.945	-0.277	-0.034
-330.202	-74.558	-0.144	-0.052
-329.187	-200.000	0.041	-0.228
-328.172	-11.233	0.351	0.233
-327.158	246.635	-0.099	-0.169
-326.143	383.372	0.059	-0.122
-325.129	653.409	0.082	-0.212
-324.114	-29.461	-0.431	-0.248
-323.099	34.424	-0.239	-0.210
-322.085	317.576	0.045	0.085
-321.070	91.762	0.211	0.239
-320.056	15.830	-0.074	-0.059
-319.041	-12.066	-0.181	-0.119
-318.026	-60.253	-0.171	-0.073
-317.012	800.000	-0.050	0.201
-315.997	800.000	0.037	-0.157
-314.983	1.276	-0.086	0.062
-313.968	-117.647	0.341	0.062
-312.953	-84.296	-0.196	0.063
-311.939	-134.857	0.210	-0.026
-310.924	-127.859	0.308	-0.045
-309.910	-105.124	-0.161	0.037
-308.895	800.000	-0.070	-0.232
-307.880	-137.360	-0.110	-0.013
-306.866	-104.763	0.361	-0.083
-305.851	291.993	-0.049	-0.089
-304.837	289.167	0.062	-0.113
-303.822	208.984	-0.225	0.354
-302.807	705.963	-0.117	-0.311
-301.793	404.448	-0.077	-0.164
-300.778	800.000	0.043	0.163
-299.764	333.253	-0.048	-0.094
-298.749	37.716	0.400	0.357
-297.735	-55.582	0.166	0.075
-296.720	-166.846	-0.328	-0.014
-295.705	639.664	0.043	-0.111
-294.691	-200.000	0.013	-0.190
-293.676	800.000	0.038	0.125
-292.662	273.304	0.155	0.275
-291.647	800.000	0.104	-0.459
-290.632	-200.000	-0.039	0.266
-289.618	-138.255	-0.123	0.014
-288.603	50.373	-0.062	0.059
-287.589	153.298	0.176	0.242
-286.574	155.280	-0.274	0.379
-285.559	276.108	0.066	-0.117
-284.545	-200.000	-0.003	0.196
-283.530	22.561	0.123	0.101
-282.516	55.985	0.107	0.104
-281.501	-19.495	0.113	-0.071
-280.486	-109.446	0.361	-0.077
-279.472	-200.000	0.006	-0.030
-278.457	-58.305	0.236	-0.103
-277.443	-84.000	0.281	-0.090
-276.428	-139.617	-0.185	-0.020
-275.413	89.114	0.241	0.269
-274.399	-117.830	0.242	0.044
-273.384	159.635	-0.031	0.043
-272.370	-97.429	-0.294	0.077
-271.355	-181.347	-0.039	0.001
-270.340	-82.312	-0.081	-0.026
-269.326	470.374	-0.118	0.266
-268.311	-96.308	-0.219	-0.058
-267.297	-99.654	0.234	0.059
-266.282	-200.000	-0.015	0.270
-265.267	-66.911	0.369	0.146
-264.253	-75.870	0.063	-0.022
-263.238	-200.000	-0.026	0.251
-262.224	-129.808	0.196	-0.027
-261.209	-48.650	-0.198	0.095
-260.195	127.216	-0.140	-0.178
-259.180	-56.373	-0.270	0.120
-258.165	800.000	-0.073	-0.233
-257.151	-92.900	-0.501	-0.141
-256.136	286.985	-0.126	-0.228
-255.122	42.840	0.181	0.166
-254.107	-200.000	0.027	-0.308
-253.092	82.872	0.279	0.305
-252.078	-73.672	0.361	-0.132
-251.063	-123.585	0.158	-0.025
-250.049	-142.418	0.160	0.016
-249.034	-200.000	-0.001	0.209
-248.019	14.794	-0.112	0.088
-247.005	320.774	-0.035	0.066
-245.990	-136.345	0.451	0.053
-244.976	-0.412	0.437	-0.312
-243.961	-200.000	-0.002	0.016
-242.946	-8.676	0.282	-0.190
-241.932	-35.234	-0.463	-0.253
-240.917	42.322	0.164	-0.150
-239.903	213.240	-0.051	-0.080
-238.888	113.935	-0.115	0.140
-237.873	418.489	-0.096	-0.207
-236.859	-57.412	-0.203	-0.090
-235.844	540.287	0.004	-0.009
-234.830	-67.884	-0.046	0.018
-233.815	173.901	-0.246	-0.356
-232.800	800.000	0.041	-0.145
-231.786	800.000	0.140	-0.506
-230.771	-3.378	-0.213	0.149
-229.757	64.417	0.110	-0.111
-228.742	-189.189	-0.122	-0.001
-227.727	187.849	-0.165	-0.247
-226.713	-106.448	-0.098	0.022
-225.698	185.432	0.041	-0.060
-224.684	-17.402	0.152	0.096
-223.669	-200.000	0.000	-0.023
-222.655	220.290	0.069	-0.111
-221.640	761.645	0.115	0.313
-220.625	59.019	-0.094	0.093
-219.611	458.495	-0.069	0.154
-218.596	15.618	-0.087	0.069
-217.582	-53.595	0.173	0.079
-216.567	126.433	0.160	-0.204
-215.552	-112.967	-0.248	0.049
-214.538	-5.837	-0.225	-0.155
-213.523	1.195	0.110	0.079
-212.509	112.620	-0.135	-0.164
-211.494	-33.896	0.164	-0.091
-210.479	-200.000	-0.001	0.036
-209.465	668.231	0.055	-0.142
-208.450	-150.827	-0.084	0.006
-207.436	61.703	0.143	-0.142
-206.421	-200.000	-0.045	-0.202
-205.406	-200.000	0.032	-0.285
-204.392	-52.543	0.064	0.029
-203.377	34.638	-0.218	0.191
-202.363	682.047	0.031	0.082
-201.348	178.142	-0.156	-0.228
-200.333	-25.087	-0.117	-0.069
-199.319	-200.000	0.066	0.301
-198.304	800.000	-0.059	-0.255
-197.290	-200.000	0.019	-0.137
-196.275	121.852	-0.080	-0.100
-195.260	204.683	0.063	0.098
-194.246	114.025	0.016	0.019
-193.231	213.084	0.170	-0.269
-192.217	-64.839	0.291	0.118
-191.202	-44.122	-0.246	-0.124
-190.187	108.794	-0.103	-0.123
-189.173	359.737	-0.058	-0.116
-188.158	-200.000	-0.020	0.204
-187.144	800.000	-0.045	-0.158
-186.129	599.386	-0.140	0.347
-185.114	-123.602	0.126	-0.020
-184.100	-40.469	-0.039	-0.020
-183.085	20.671	-0.263	0.213
-182.071	-5.781	0.195	-0.134
-181.056	159.035	-0.204	0.284
-180.042	304.121	-0.081	-0.150
-179.027	77.246	-0.176	0.187
-178.012	-90.992	0.355	-0.102
-176.998	-50.713	-0.196	-0.092
-175.983	-89.380	0.086	0.025
-174.969	-200.000	0.072	0.329
-173.954	800.000	-0.054	-0.234
-172.939	-118.350	-0.175	-0.031
-171.925	-38.796	0.378	0.200
-170.910	372.949	-0.127	-0.258
-169.896	-200.000	-0.000	-0.098
-168.881	252.798	0.136	-0.232
-167.866	26.633	0.209	-0.175
-166.852	448.975	0.128	0.282
-165.837	188.992	0.152	-0.228
-164.823	69.057	0.111	0.114
-163.808	-24.571	0.186	0.111
-162.793	-59.065	-0.248	-0.107
-161.779	800.000	0.112	0.378
-160.764	-59.023	-0.152	-0.066
-159.750	-113.314	-0.113	-0.022
-158.735	-200.000	0.004	-0.208
-157.720	-200.000	0.004	-0.089
-156.706	76.037	-0.214	-0.226
-155.691	-200.000	-0.018	0.203
-154.677	341.861	0.101	0.198
-153.662	-4.292	0.380	0.263
-152.647	800.000	-0.108	0.349
-151.633	745.801	0.025	0.068
-150.618	-200.000	0.048	0.275
-149.604	-10.937	0.147	-0.097
-148.589	48.319	0.315	-0.295
-147.574	-123.868	-0.329	0.052
-146.560	8.792	-0.193	0.146
-145.545	122.622	0.075	-0.093
-144.531	246.939	0.216	-0.364
-143.516	800.000	-0.096	0.308
-142.502	187.355	0.118	0.176
-141.487	-136.991	0.406	-0.046
-140.472	31.621	0.159	-0.137
-139.458	-62.359	-0.152	-0.063
-138.443	-78.450	0.204	-0.070
-137.429	-174.565	0.329	0.009
-136.414	-16.225	-0.274	-0.174
-135.399	800.000	0.091	0.300
-134.385	-200.000	-0.035	0.200
-133.370	-122.610	-0.154	-0.025
-132.356	-200.000	0.034	-0.160
-131.341	2.979	-0.161	-0.117
-130.326	25.894	-0.178	-0.148
-129.312	-31.447	-0.189	0.106
-128.297	120.991	0.254	0.315
-127.283	352.220	-0.093	0.183
-126.268	-4.478	0.046	0.032
-125.253	67.526	-0.125	-0.127
-124.239	-56.426	0.161	-0.071
-123.224	800.000	0.063	0.208
-122.210	-155.359	0.086	0.006
-121.195	800.000	0.146	-0.430
