DTS Sentinel unit serial number:	SN413079Multiplexer serial number:	ORYXHardware model number:	OX4-SRSoftware version number:	ORYX F/W v4.00 Oryx Data Collector v3.7.2.0data status	okinstallation	princeton_trtdifferential loss correction	single-endedforward channel	channel 4reverse channel	N/Adate	2019/09/14time	21:37:35forward acquisition time	60.00reverse acquisition time	0.00gamma	496.2192k internal	0.2306k external	0.2306temperature offset calibration	1.0077default loss term (dB/km)	0.3790temperature slope calibration	1.0000multiplexer offset coefficient	1.0000multiplexer slope coefficient	1.0000fibre end	0.00T internal ref (°C)	32.81T ext. ref 1 (°C)	4.75T ext. ref 2 (°C)	27.72length (m)	temperature (°C)	Stokes	anti-Stokes-747.200	-101.418	-0.260	-0.065
-746.185	800.000	-0.010	0.040
-745.171	-153.817	0.235	0.016
-744.156	-60.485	-0.100	0.043
-743.142	800.000	0.019	-0.063
-742.127	272.961	-0.087	-0.157
-741.112	451.733	-0.069	0.154
-740.098	357.298	-0.115	0.233
-739.083	349.465	-0.064	0.129
-738.069	125.332	0.046	0.060
-737.054	82.405	-0.126	0.140
-736.039	-72.153	-0.418	0.158
-735.025	148.899	0.068	0.093
-734.010	-151.086	-0.156	-0.012
-732.996	-98.192	-0.333	0.087
-731.981	148.221	0.067	-0.093
-730.966	83.558	0.269	-0.298
-729.952	-36.224	0.129	-0.071
-728.937	800.000	-0.055	-0.221
-727.923	800.000	-0.031	-0.109
-726.908	40.711	-0.015	-0.013
-725.894	229.376	0.201	-0.333
-724.879	-200.000	-0.016	-0.080
-723.864	-156.359	0.032	0.002
-722.850	-200.000	0.035	-0.178
-721.835	-69.306	-0.045	0.017
-720.821	-200.000	-0.004	0.102
-719.806	-200.000	-0.012	0.087
-718.791	342.944	-0.249	-0.495
-717.777	-147.676	-0.131	-0.011
-716.762	-200.000	-0.034	0.258
-715.748	-200.000	-0.007	-0.054
-714.733	-90.287	-0.263	-0.078
-713.718	-200.000	-0.004	-0.198
-712.704	-200.000	0.011	-0.207
-711.689	-17.358	-0.097	-0.062
-710.675	-47.972	-0.210	0.103
-709.660	-200.000	-0.000	-0.107
-708.645	-200.000	-0.036	-0.179
-707.631	-200.000	0.017	-0.104
-706.616	10.750	-0.101	-0.078
-705.602	-92.873	0.134	-0.038
-704.587	-81.894	0.581	-0.193
-703.572	-184.888	-0.419	0.007
-702.558	-91.477	0.196	0.057
-701.543	-200.000	-0.007	-0.373
-700.529	-77.173	-0.025	0.009
-699.514	-199.084	-0.337	-0.002
-698.499	-20.322	-0.148	-0.092
-697.485	-0.170	-0.161	0.116
-696.470	-122.045	-0.325	-0.054
-695.456	-85.625	-0.317	-0.100
-694.441	-146.425	-0.246	0.022
-693.426	800.000	0.012	0.050
-692.412	-200.000	-0.025	-0.203
-691.397	13.332	0.177	0.139
-690.383	100.558	-0.187	-0.220
-689.368	128.757	-0.250	0.324
-688.354	-137.497	0.082	-0.009
-687.339	800.000	-0.049	0.144
-686.324	125.247	-0.134	0.171
-685.310	-3.154	0.220	0.156
-684.295	-104.427	-0.320	-0.075
-683.281	-200.000	0.031	0.258
-682.266	64.263	0.185	-0.189
-681.251	-128.455	-0.365	0.053
-680.237	-93.802	0.091	0.025
-679.222	-200.000	-0.018	0.188
-678.208	800.000	-0.056	0.218
-677.193	-37.344	0.105	-0.057
-676.178	-69.134	-0.257	-0.100
-675.164	800.000	0.080	-0.242
-674.149	-200.000	-0.018	-0.306
-673.135	-39.204	-0.121	0.065
-672.120	390.357	0.033	0.069
-671.105	-40.088	0.273	0.145
-670.091	-114.730	-0.227	0.044
-669.076	174.774	0.149	-0.219
-668.062	27.318	-0.080	-0.068
-667.047	1.321	0.252	-0.184
-666.032	48.428	-0.090	-0.085
-665.018	584.989	-0.086	-0.215
-664.003	-200.000	-0.015	0.135
-662.989	-99.794	0.132	-0.033
-661.974	-200.000	0.015	-0.306
-660.959	-141.060	0.056	0.006
-659.945	800.000	-0.042	-0.141
-658.930	97.755	-0.113	0.132
-657.916	-200.000	-0.027	0.126
-656.901	572.232	-0.063	-0.157
-655.886	-74.699	-0.234	0.085
-654.872	331.883	-0.131	0.257
-653.857	241.601	0.186	-0.314
-652.843	-52.154	-0.280	0.132
-651.828	9.422	0.068	-0.052
-650.814	86.458	0.114	0.128
-649.799	167.289	-0.209	-0.301
-648.784	-121.682	-0.093	0.016
-647.770	75.592	-0.193	-0.207
-646.755	45.203	0.125	0.117
-645.741	-4.824	0.270	-0.188
-644.726	493.302	0.056	0.129
-643.711	-73.497	-0.174	0.064
-642.697	23.088	-0.161	-0.134
-641.682	57.477	-0.151	-0.150
-640.668	91.745	-0.162	0.184
-639.653	-200.000	0.005	0.143
-638.638	274.139	-0.098	0.175
-637.624	-92.684	-0.232	-0.066
-636.609	635.138	0.040	-0.102
-635.595	-200.000	-0.018	-0.140
-634.580	115.478	0.140	0.173
-633.565	172.055	-0.087	0.127
-632.551	103.701	0.080	0.095
-631.536	-21.538	0.262	-0.162
-630.522	-200.000	-0.020	0.122
-629.507	107.056	0.110	-0.132
-628.492	-200.000	-0.046	-0.302
-627.478	421.650	0.120	0.261
-626.463	44.361	-0.088	0.082
-625.449	-117.019	-0.146	0.027
-624.434	132.705	-0.134	0.175
-623.419	-200.000	0.008	0.130
-622.405	532.902	-0.072	-0.174
-621.390	91.250	0.093	0.106
-620.376	107.623	0.192	-0.232
-619.361	344.473	0.122	0.243
-618.346	-24.209	-0.372	0.225
-617.332	800.000	-0.077	-0.265
-616.317	235.660	-0.099	0.166
-615.303	-73.571	-0.291	0.107
-614.288	-120.010	-0.251	0.044
-613.273	116.815	-0.128	-0.159
-612.259	800.000	0.044	0.134
-611.244	-200.000	-0.008	-0.201
-610.230	-126.070	0.054	-0.008
-609.215	26.279	-0.225	0.190
-608.201	800.000	-0.122	-0.367
-607.186	59.320	-0.202	-0.201
-606.171	-70.843	-0.269	-0.102
-605.157	-200.000	0.002	0.176
-604.142	-190.731	0.131	0.001
-603.128	-154.118	-0.111	-0.008
-602.113	-200.000	0.013	0.147
-601.098	54.350	-0.077	0.075
-600.084	-102.373	0.083	0.020
-599.069	-39.709	-0.191	0.101
-598.055	800.000	0.015	0.050
-597.040	47.545	0.044	0.041
-596.025	-106.938	0.458	-0.102
-595.011	-104.857	-0.037	-0.009
-593.996	483.338	-0.073	-0.167
-592.982	370.582	0.039	-0.079
-591.967	-1.485	0.298	0.213
-590.952	120.721	0.223	0.281
-589.938	2.369	0.049	-0.036
-588.923	295.682	0.156	-0.289
-587.909	-200.000	-0.020	-0.221
-586.894	-57.294	0.210	0.093
-585.879	-200.000	-0.012	0.057
-584.865	51.776	0.030	0.029
-583.850	437.825	0.161	0.356
-582.836	-114.055	0.251	-0.049
-581.821	-200.000	0.001	-0.285
-580.806	800.000	-0.064	-0.273
-579.792	310.649	-0.104	-0.196
-578.777	800.000	0.093	-0.319
-577.763	-2.217	0.285	0.202
-576.748	-200.000	0.028	-0.184
-575.733	0.396	-0.212	0.153
-574.719	180.519	0.096	-0.143
-573.704	9.577	0.239	-0.183
-572.690	144.371	0.042	0.056
-571.675	800.000	-0.065	-0.188
-570.661	33.371	0.273	-0.239
-569.646	340.732	0.129	-0.255
-568.631	791.356	0.160	-0.444
-567.617	800.000	0.079	0.252
-566.602	20.720	-0.100	0.082
-565.588	2.121	0.125	-0.092
-564.573	-185.931	0.332	-0.005
-563.558	701.650	-0.051	-0.137
-562.544	139.682	-0.083	-0.110
-561.529	230.786	0.289	-0.477
-560.515	-85.177	0.317	-0.100
-559.500	-100.883	0.070	-0.017
-558.485	-107.320	0.153	0.034
-557.471	16.654	0.193	-0.154
-556.456	800.000	-0.118	0.371
-555.442	-60.955	0.286	0.122
-554.427	-10.710	-0.501	0.334
-553.412	-89.831	-0.204	0.060
-552.398	-17.818	-0.269	0.170
-551.383	7.110	-0.137	0.103
-550.369	291.093	-0.016	0.029
-549.354	-200.000	0.048	-0.290
-548.339	480.592	0.118	0.270
-547.325	-159.795	-0.204	0.011
-546.310	-122.649	0.390	-0.064
-545.296	0.919	0.250	-0.181
-544.281	800.000	0.047	-0.164
-543.266	-200.000	-0.016	0.096
-542.252	800.000	-0.044	-0.143
-541.237	-62.452	0.295	0.124
-540.223	800.000	-0.082	0.354
-539.208	63.413	-0.219	-0.222
-538.193	800.000	-0.052	0.205
-537.179	-120.110	-0.124	-0.021
-536.164	-76.719	0.219	0.078
-535.150	69.221	0.088	-0.091
-534.135	-11.664	0.127	-0.084
-533.121	-98.898	0.133	-0.034
-532.106	371.147	-0.085	-0.175
-531.091	-0.968	-0.155	-0.111
-530.077	-27.942	-0.334	-0.195
-529.062	3.956	0.167	-0.124
-528.048	186.618	-0.047	0.070
-527.033	800.000	0.074	0.296
-526.018	-103.712	-0.126	-0.030
-525.004	-200.000	0.047	-0.234
-523.989	94.582	-0.250	0.287
-522.975	-76.834	-0.198	-0.070
-521.960	-200.000	-0.002	0.258
-520.945	37.550	0.061	0.055
-519.931	-104.064	-0.114	-0.027
-518.916	-33.472	0.072	-0.040
-517.902	758.117	0.164	-0.447
-516.887	218.986	-0.114	-0.184
-515.872	632.429	-0.036	-0.091
-514.858	182.430	0.055	0.081
-513.843	-200.000	-0.016	0.309
-512.829	41.996	-0.323	0.296
-511.814	314.357	0.092	-0.174
-510.799	-139.215	0.177	0.019
-509.785	14.385	-0.328	-0.258
-508.770	301.169	0.031	-0.057
-507.756	-149.170	0.245	0.020
-506.741	40.776	0.198	0.180
-505.726	-168.302	-0.238	0.009
-504.712	118.886	0.196	-0.244
-503.697	-100.498	-0.154	-0.038
-502.683	-157.767	-0.256	0.015
-501.668	465.522	0.092	-0.207
-500.653	800.000	0.087	-0.305
-499.639	-200.000	-0.004	0.028
-498.624	-126.155	-0.271	0.041
-497.610	-200.000	-0.033	-0.219
-496.595	586.710	0.100	-0.248
-495.581	-87.321	-0.320	-0.098
-494.566	22.092	0.332	-0.273
-493.551	181.017	0.144	0.212
-492.537	183.073	0.114	0.169
-491.522	-182.458	-0.091	0.002
-490.508	-140.740	0.257	0.027
-489.493	-37.847	-0.268	-0.144
-488.478	-87.197	0.246	0.075
-487.464	-136.660	0.146	0.017
-486.449	-122.631	-0.028	0.005
-485.435	219.201	0.112	-0.180
-484.420	800.000	0.062	-0.211
-483.405	-200.000	0.009	-0.110
-482.391	-130.973	-0.295	0.040
-481.376	-39.786	0.172	-0.090
-480.362	-200.000	-0.241	-0.001
-479.347	20.834	0.243	-0.198
-478.332	800.000	0.027	-0.098
-477.318	-200.000	-0.039	0.454
-476.303	-14.681	-0.049	-0.032
-475.289	-23.894	0.129	-0.078
-474.274	-38.628	0.346	-0.184
-473.259	-41.699	0.105	-0.054
-472.245	-26.091	-0.359	-0.213
-471.230	-200.000	-0.003	0.333
-470.216	126.133	-0.207	-0.263
-469.201	-150.884	0.122	-0.009
-468.186	-6.440	0.158	0.109
-467.172	192.008	-0.171	-0.260
-466.157	239.007	0.253	0.424
-465.143	648.254	-0.114	0.293
-464.128	33.896	-0.035	0.031
-463.113	-110.466	-0.207	0.043
-462.099	26.876	0.162	-0.137
-461.084	-90.055	-0.040	0.012
-460.070	15.457	-0.214	-0.169
-459.055	-80.203	-0.182	-0.061
-458.040	-133.291	0.308	0.039
-457.026	-7.414	-0.239	0.163
-456.011	-100.918	-0.332	-0.082
-454.997	392.623	0.132	0.276
-453.982	25.665	0.104	-0.087
-452.968	800.000	0.068	-0.189
-451.953	-132.701	-0.185	-0.024
-450.938	332.558	-0.065	0.126
-449.924	800.000	-0.036	0.113
-448.909	-127.906	-0.188	-0.027
-447.895	-76.198	0.153	-0.054
-446.880	-200.000	-0.034	0.216
-445.865	-111.216	0.248	0.051
-444.851	800.000	0.110	0.372
-443.836	202.917	-0.154	-0.239
-442.822	-132.504	-0.343	-0.044
-441.807	328.522	0.163	-0.315
-440.792	-200.000	-0.050	-0.249
-439.778	800.000	0.008	0.031
-438.763	-114.359	-0.276	-0.053
-437.749	-81.241	0.080	0.026
-436.734	63.397	0.237	-0.239
-435.719	30.007	0.146	0.125
-434.705	-34.565	-0.200	0.110
-433.690	-134.545	0.252	-0.031
-432.676	92.794	0.170	0.194
-431.661	-120.465	-0.188	0.032
-430.646	340.848	-0.009	0.017
-429.632	-27.000	0.148	0.087
-428.617	-149.332	0.260	-0.021
-427.603	293.755	0.040	0.073
-426.588	-200.000	-0.216	0.001
-425.573	-85.434	-0.163	-0.051
-424.559	33.335	-0.110	-0.096
-423.544	-200.000	0.037	-0.188
-422.530	27.647	-0.158	0.134
-421.515	-190.728	0.103	-0.001
-420.500	-200.000	0.006	-0.072
-419.486	-114.044	-0.070	-0.014
-418.471	-91.425	0.293	0.084
-417.457	189.129	-0.142	0.214
-416.442	-200.000	0.058	-0.322
-415.428	-52.628	0.328	-0.152
-414.413	800.000	-0.056	0.228
-413.398	94.672	-0.101	-0.115
-412.384	-200.000	-0.054	0.245
-411.369	-10.070	0.125	0.084
-410.355	187.155	0.077	0.115
-409.340	45.910	-0.275	-0.255
-408.325	69.490	0.058	0.060
-407.311	-92.457	0.151	0.043
-406.296	-82.789	-0.139	0.045
-405.282	-4.945	-0.096	0.066
-404.267	103.181	0.106	-0.125
-403.252	-34.969	0.624	0.342
-402.238	-82.385	-0.559	-0.182
-401.223	-13.625	-0.138	0.090
-400.209	274.692	-0.061	0.108
-399.194	-15.643	-0.212	-0.136
-398.179	-9.224	0.145	0.097
-397.165	-200.000	0.039	-0.188
-396.150	57.004	0.087	-0.085
-395.136	-200.000	0.014	0.078
-394.121	80.990	0.180	0.195
-393.106	800.000	0.095	-0.267
-392.092	216.160	-0.031	0.049
-391.077	7.037	-0.007	-0.005
-390.063	-200.000	-0.060	-0.303
-389.048	-121.870	-0.332	0.055
-388.033	65.640	-0.115	0.117
-387.019	800.000	0.092	0.294
-386.004	-200.000	-0.022	-0.394
-384.990	115.219	-0.066	0.080
-383.975	105.605	0.114	0.135
-382.960	152.506	-0.166	0.227
-381.946	-78.323	0.183	-0.063
-380.931	544.382	0.005	0.011
-379.917	-73.942	0.205	-0.075
-378.902	146.234	0.060	-0.080
-377.888	292.952	0.064	0.117
-376.873	-200.000	-0.004	0.346
-375.858	-200.000	-0.007	-0.119
-374.844	800.000	-0.049	-0.204
-373.829	-92.395	0.540	0.152
-372.815	-8.607	-0.278	0.187
-371.800	15.773	0.182	-0.144
-370.785	-23.693	0.079	0.048
-369.771	-8.025	-0.328	-0.222
-368.756	59.659	0.198	-0.196
-367.742	-112.805	0.144	0.029
-366.727	363.881	-0.070	0.140
-365.712	-200.000	-0.013	0.156
-364.698	78.644	-0.116	-0.125
-363.683	274.674	-0.193	-0.342
-362.669	189.135	-0.039	-0.058
-361.654	-103.502	-0.324	0.076
-360.639	-174.742	-0.248	-0.007
-359.625	-19.794	-0.076	0.047
-358.610	-200.000	-0.043	-0.432
-357.596	800.000	0.066	-0.214
-356.581	-76.675	0.262	-0.092
-355.566	-71.672	0.378	-0.141
-354.552	-76.575	-0.167	-0.059
-353.537	185.383	0.053	0.079
-352.523	-52.440	-0.202	-0.093
-351.508	-102.947	-0.124	-0.029
-350.493	-89.119	-0.185	-0.055
-349.479	476.638	-0.112	-0.255
-348.464	-147.388	-0.107	0.009
-347.450	-200.000	0.020	0.201
-346.435	455.254	0.111	-0.247
-345.420	2.855	0.188	-0.137
-344.406	230.237	0.090	-0.147
-343.391	495.483	-0.130	0.300
-342.377	-27.021	0.172	0.101
-341.362	-19.563	-0.112	-0.070
-340.348	169.678	0.176	-0.252
-339.333	800.000	-0.067	0.277
-338.318	-96.979	0.343	-0.090
-337.304	592.381	-0.059	0.145
-336.289	108.681	-0.133	0.159
-335.275	-52.633	0.077	0.036
-334.260	226.069	0.120	0.195
-333.245	91.680	-0.007	0.007
-332.231	144.446	-0.253	0.338
-331.216	133.057	-0.132	-0.171
-330.202	-19.145	-0.142	0.088
-329.187	-186.889	-0.176	-0.002
-328.172	-146.548	-0.309	0.027
-327.158	31.663	-0.096	-0.083
-326.143	800.000	0.069	0.193
-325.129	-200.000	0.031	0.178
-324.114	-132.209	-0.258	-0.033
-323.099	-200.000	0.004	-0.161
-322.085	23.330	0.080	-0.066
-321.070	-76.559	-0.301	-0.106
-320.056	-200.000	-0.008	-0.223
-319.041	-118.273	-0.388	-0.069
-318.026	100.060	-0.342	0.397
-317.012	-23.191	0.057	-0.034
-315.997	105.218	0.122	0.144
-314.983	12.158	-0.087	-0.067
-313.968	125.449	0.057	-0.072
-312.953	-151.052	-0.023	0.002
-311.939	800.000	-0.105	0.341
-310.924	-200.000	-0.003	-0.046
-309.910	100.765	0.098	-0.114
-308.895	-51.219	0.363	-0.170
-307.880	17.021	0.121	0.096
-306.866	184.036	0.067	0.099
-305.851	-156.118	0.076	-0.005
-304.837	-161.338	0.047	0.002
-303.822	128.235	0.147	-0.188
-302.807	800.000	0.021	0.090
-301.793	-200.000	-0.005	-0.034
-300.778	-200.000	0.033	0.200
-299.764	-200.000	-0.011	0.140
-298.749	231.951	0.097	0.160
-297.735	-21.484	-0.251	-0.153
-296.720	354.856	-0.037	-0.074
-295.705	-114.643	-0.450	0.086
-294.691	23.510	-0.116	0.096
-293.676	-122.620	-0.277	0.045
-292.662	-200.000	-0.024	0.418
-291.647	-4.308	0.059	0.041
-290.632	-200.000	0.040	-0.182
-289.618	-64.115	-0.418	0.171
-288.603	-104.767	0.111	-0.025
-287.589	-143.724	0.292	-0.028
-286.574	-39.321	-0.282	-0.148
-285.559	25.413	0.114	-0.095
-284.545	-97.909	-0.346	-0.089
-283.530	-139.478	-0.020	0.002
-282.516	111.898	0.050	-0.061
-281.501	134.083	-0.131	0.169
-280.486	-200.000	-0.029	-0.175
-279.472	-46.839	0.241	0.118
-278.457	-200.000	0.025	0.317
-277.443	310.136	0.161	0.301
-276.428	-200.000	-0.006	-0.251
-275.413	486.721	0.179	-0.407
-274.399	-42.715	0.161	0.082
-273.384	-200.000	0.015	-0.072
-272.370	279.748	-0.142	0.254
-271.355	-143.628	-0.182	-0.017
-270.340	-200.000	0.090	0.396
-269.326	-54.074	-0.237	-0.108
-268.311	723.745	0.068	-0.181
-267.297	-1.453	-0.287	0.202
-266.282	-200.000	-0.012	-0.133
-265.267	-200.000	-0.041	0.231
-264.253	-52.126	-0.132	0.061
-263.238	10.280	0.229	-0.174
-262.224	-200.000	0.028	0.303
-261.209	8.297	0.144	0.108
-260.195	800.000	0.105	0.415
-259.180	436.564	0.029	0.064
-258.165	800.000	0.036	-0.150
-257.151	-145.086	0.254	-0.023
-256.136	189.985	0.071	0.107
-255.122	185.148	-0.139	-0.206
-254.107	-200.000	0.043	-0.277
-253.092	800.000	0.098	0.413
-252.078	800.000	-0.053	-0.159
-251.063	-200.000	-0.051	-0.250
-250.049	800.000	0.077	0.258
-249.034	-88.868	-0.193	0.057
-248.019	385.157	0.126	-0.260
-247.005	-200.000	0.002	-0.120
-245.990	360.670	0.082	-0.163
-244.976	800.000	-0.072	0.293
-243.961	800.000	0.137	0.460
-242.946	-200.000	0.030	0.501
-241.932	138.424	0.176	0.230
-240.917	190.514	0.163	-0.244
-239.903	800.000	-0.029	-0.090
-238.888	-200.000	-0.015	0.109
-237.873	25.571	-0.112	-0.093
-236.859	156.268	0.236	0.325
-235.844	-68.105	0.201	0.078
-234.830	-47.810	0.168	-0.081
-233.815	-34.263	-0.172	0.094
-232.800	29.116	0.228	0.193
-231.786	-39.783	-0.281	-0.146
-230.771	800.000	0.113	-0.320
-229.757	177.405	-0.069	-0.100
-228.742	472.194	-0.144	0.324
-227.727	-14.713	-0.055	-0.035
-226.713	-200.000	-0.002	-0.029
-225.698	222.296	0.128	-0.205
-224.684	-48.807	-0.237	-0.113
-223.669	-200.000	0.016	0.125
-222.655	-200.000	-0.026	-0.214
-221.640	127.684	0.114	-0.145
-220.625	-77.597	0.233	0.081
-219.611	245.291	0.067	0.112
-218.596	-121.173	-0.547	0.091
-217.582	-65.819	0.109	0.043
-216.567	88.615	-0.126	0.139
-215.552	-160.260	0.345	0.019
-214.538	-65.876	0.145	0.058
-213.523	-38.212	0.159	0.084
-212.509	-200.000	-0.013	-0.099
-211.494	-148.666	0.390	0.032
-210.479	-40.461	0.094	0.048
-209.465	-20.785	0.129	0.079
-208.450	64.782	0.177	-0.178
-207.436	-72.037	0.160	-0.059
-206.421	800.000	-0.055	-0.226
-205.406	-25.749	0.166	0.097
-204.392	29.663	0.105	0.089
-203.377	-200.000	0.096	0.441
-202.363	-40.404	-0.177	0.091
-201.348	25.430	0.209	-0.173
-200.333	-200.000	-0.027	0.377
-199.319	185.404	0.115	0.170
-198.304	-200.000	-0.044	-0.207
-197.290	-200.000	-0.018	-0.084
-196.275	350.779	0.145	0.286
-195.260	105.691	0.138	-0.163
-194.246	-87.979	0.392	-0.117
-193.231	-137.235	0.110	0.013
-192.217	-79.137	-0.253	-0.086
-191.202	98.874	0.145	-0.167
-190.187	136.126	-0.074	0.097
-189.173	156.830	0.077	0.106
-188.158	-62.468	0.053	0.022
-187.144	-42.255	0.101	0.051
-186.129	38.604	0.144	-0.128
-185.114	194.664	-0.116	-0.175
-184.100	-52.217	0.275	0.127
-183.085	-200.000	0.024	0.178
-182.071	800.000	-0.121	0.339
-181.056	-104.447	-0.167	0.038
-180.042	88.186	-0.079	0.087
-179.027	74.866	0.150	-0.157
-178.012	-48.787	-0.103	-0.049
-176.998	800.000	-0.080	-0.284
-175.983	372.498	-0.078	0.158
-174.969	248.350	-0.066	-0.111
-173.954	800.000	-0.038	-0.143
-172.939	-82.048	-0.235	-0.076
-171.925	205.725	-0.189	0.292
-170.910	-200.000	-0.006	0.084
-169.896	800.000	-0.080	-0.338
-168.881	800.000	0.038	-0.149
-167.866	-130.984	-0.064	0.009
-166.852	675.431	0.081	0.209
-165.837	260.702	-0.120	0.206
-164.823	-200.000	-0.051	0.244
-163.808	-4.910	-0.144	0.099
-162.793	-140.650	0.230	-0.024
-161.779	-68.850	0.229	0.088
-160.764	-9.229	-0.238	-0.158
-159.750	130.822	0.025	0.032
-158.735	221.762	-0.226	-0.361
-157.720	-16.916	-0.346	-0.217
-156.706	387.998	-0.083	0.170
-155.691	-79.897	-0.073	-0.025
-154.677	-8.998	0.169	0.113
-153.662	38.052	-0.170	0.150
-152.647	800.000	-0.116	0.486
-151.633	-101.797	-0.083	0.020
-150.618	104.236	-0.202	0.237
-149.604	-200.000	0.043	-0.192
-148.589	-200.000	-0.037	0.273
-147.574	800.000	0.065	0.248
-146.560	678.189	-0.083	-0.214
-145.545	-4.385	0.231	-0.159
-144.531	-39.882	0.031	-0.016
-143.516	-200.000	-0.242	-0.001
-142.502	-39.869	0.225	0.117
-141.487	-122.856	-0.439	-0.070
-140.472	800.000	0.068	0.245
-139.458	109.341	0.075	0.090
-138.443	800.000	-0.104	0.289
-137.429	-96.545	0.241	0.063
-136.414	800.000	-0.017	0.065
-135.399	-156.105	-0.363	0.023
-134.385	21.825	-0.190	0.154
-133.370	-200.000	0.038	-0.183
-132.356	-101.025	-0.434	-0.106
-131.341	-200.000	-0.017	0.121
-130.326	94.662	-0.270	-0.305
-129.312	169.139	-0.163	0.231
-128.297	-200.000	0.007	-0.141
-127.283	-74.192	0.276	-0.099
-126.268	341.119	0.114	-0.220
-125.253	800.000	0.061	0.244
-124.239	-166.658	0.275	-0.011
-123.224	800.000	-0.113	0.490
-122.210	-91.762	-0.392	0.110
