DTS Sentinel unit serial number:	SN413079Multiplexer serial number:	ORYXHardware model number:	OX4-SRSoftware version number:	ORYX F/W v4.00 Oryx Data Collector v3.7.2.0data status	okinstallation	princeton_trtdifferential loss correction	single-endedforward channel	channel 4reverse channel	N/Adate	2019/09/12time	13:07:10forward acquisition time	60.00reverse acquisition time	0.00gamma	496.2192k internal	0.2285k external	0.2285temperature offset calibration	1.0078default loss term (dB/km)	0.3790temperature slope calibration	1.0000multiplexer offset coefficient	1.0000multiplexer slope coefficient	1.0000fibre end	0.00T internal ref (°C)	41.00T ext. ref 1 (°C)	2.09T ext. ref 2 (°C)	36.29length (m)	temperature (°C)	Stokes	anti-Stokes-747.200	-85.127	0.165	0.053
-746.185	479.826	-0.333	0.775
-745.171	92.039	0.032	0.037
-744.156	800.000	0.043	-0.150
-743.142	800.000	-0.018	-0.071
-742.127	2.282	0.320	0.237
-741.112	-114.051	-0.318	-0.063
-740.098	211.181	0.124	0.200
-739.083	-86.129	-0.281	0.089
-738.069	58.057	-0.164	0.165
-737.054	-200.000	-0.007	-0.269
-736.039	-23.940	-0.019	-0.012
-735.025	-146.837	0.377	-0.033
-734.010	30.206	-0.412	-0.361
-732.996	-200.000	-0.034	-0.158
-731.981	-2.929	-0.346	-0.248
-730.966	800.000	-0.068	0.283
-729.952	-99.171	-0.313	0.081
-728.937	133.425	0.089	-0.118
-727.923	62.544	-0.022	0.023
-726.908	-90.826	0.285	-0.084
-725.894	46.778	-0.198	-0.189
-724.879	31.860	0.171	0.151
-723.864	-100.941	-0.267	-0.067
-722.850	216.527	0.032	-0.052
-721.835	-200.000	0.058	-0.355
-720.821	212.567	0.145	-0.235
-719.806	-78.789	-0.268	0.094
-718.791	-200.000	-0.003	0.215
-717.777	-31.293	-0.149	0.086
-716.762	682.711	-0.031	-0.083
-715.748	4.063	-0.219	-0.164
-714.733	-124.344	-0.346	0.055
-713.718	-200.000	0.008	-0.116
-712.704	-52.057	0.169	0.080
-711.689	-200.000	-0.023	-0.118
-710.675	-34.132	-0.116	-0.065
-709.660	-17.108	0.160	-0.103
-708.645	-82.842	-0.062	-0.021
-707.631	289.509	-0.112	-0.207
-706.616	11.275	0.401	0.314
-705.602	-119.328	-0.029	0.005
-704.587	-129.559	-0.068	0.010
-703.572	-8.639	0.154	-0.106
-702.558	12.929	-0.162	-0.128
-701.543	21.475	-0.104	-0.087
-700.529	15.560	-0.094	-0.076
-699.514	28.191	0.212	0.184
-698.499	800.000	-0.004	-0.015
-697.485	-115.598	-0.209	-0.040
-696.470	-95.636	0.190	-0.052
-695.456	800.000	-0.059	-0.179
-694.441	198.598	0.202	-0.316
-693.426	-8.078	-0.190	-0.131
-692.412	-127.654	0.199	-0.029
-691.397	-167.188	0.172	-0.007
-690.383	118.913	-0.089	0.113
-689.368	-200.000	-0.002	0.050
-688.354	-124.744	-0.249	0.039
-687.339	-8.471	-0.271	0.187
-686.324	73.635	0.359	-0.385
-685.310	540.215	0.044	-0.107
-684.295	317.600	-0.072	0.139
-683.281	19.184	-0.156	0.128
-682.266	394.127	-0.177	-0.377
-681.251	-200.000	0.055	-0.293
-680.237	-97.280	-0.159	-0.043
-679.222	102.643	-0.133	-0.159
-678.208	191.181	0.194	-0.299
-677.193	376.756	0.108	0.225
-676.178	800.000	-0.086	-0.253
-675.164	-123.441	-0.201	0.033
-674.149	190.462	-0.157	0.242
-673.135	-69.765	-0.295	0.115
-672.120	800.000	-0.101	0.377
-671.105	-200.000	0.047	0.294
-670.091	8.189	0.125	0.096
-669.076	-200.000	0.017	0.306
-668.062	-200.000	-0.049	-0.413
-667.047	-79.785	0.206	-0.071
-666.032	-86.702	-0.093	-0.029
-665.018	800.000	0.101	0.324
-664.003	-22.785	-0.313	-0.194
-662.989	800.000	0.058	-0.223
-661.974	473.637	0.094	0.217
-660.959	800.000	-0.037	0.142
-659.945	-200.000	0.022	-0.221
-658.930	-23.705	0.197	-0.121
-657.916	-83.206	0.333	-0.110
-656.901	161.275	0.110	-0.158
-655.886	231.809	0.087	0.146
-654.872	225.165	-0.057	-0.095
-653.857	800.000	0.046	-0.134
-652.843	65.442	-0.185	0.191
-651.828	314.646	0.062	0.119
-650.814	127.547	-0.179	-0.233
-649.799	-8.013	0.057	0.039
-648.784	800.000	0.149	0.535
-647.770	-37.857	-0.196	-0.107
-646.755	-105.862	0.100	-0.023
-645.741	643.256	-0.114	-0.296
-644.726	-148.228	-0.065	0.005
-643.711	299.159	0.060	0.113
-642.697	128.119	0.121	0.157
-641.682	-90.051	0.264	0.079
-640.668	800.000	0.057	0.204
-639.653	-200.000	0.026	0.422
-638.638	-14.967	0.010	-0.007
-637.624	-115.604	-0.284	0.055
-636.609	23.224	-0.050	0.042
-635.595	-154.741	0.188	-0.013
-634.580	800.000	0.189	-0.539
-633.565	-200.000	-0.048	-0.393
-632.551	-116.215	-0.206	-0.039
-631.536	-37.911	-0.268	0.146
-630.522	-200.000	0.025	0.125
-629.507	25.054	0.080	0.068
-628.492	46.380	-0.265	-0.251
-627.478	287.227	-0.102	0.188
-626.463	-149.063	-0.353	0.029
-625.449	-87.327	-0.147	-0.046
-624.434	122.838	-0.231	-0.295
-623.419	-4.510	0.009	-0.007
-622.405	-82.763	-0.178	0.059
-621.390	-200.000	-0.011	-0.297
-620.376	-200.000	0.083	-0.434
-619.361	-200.000	-0.055	-0.377
-618.346	-111.487	-0.127	0.026
-617.332	339.848	0.011	0.022
-616.317	800.000	-0.039	-0.116
-615.303	-14.066	-0.321	0.211
-614.288	-200.000	-0.031	0.243
-613.273	150.039	-0.162	-0.224
-612.259	-130.982	0.068	-0.009
-611.244	212.108	-0.159	-0.256
-610.230	-138.661	-0.151	0.017
-609.215	26.074	0.087	0.075
-608.201	-200.000	0.001	0.211
-607.186	-200.000	0.074	0.391
-606.171	-60.431	-0.278	0.121
-605.157	800.000	0.118	-0.370
-604.142	-200.000	0.048	-0.281
-603.128	7.744	0.151	0.115
-602.113	4.467	0.299	-0.224
-601.098	-4.466	0.217	-0.153
-600.084	69.845	0.170	-0.179
-599.069	-99.348	0.149	0.038
-598.055	-200.000	0.012	-0.087
-597.040	800.000	0.019	0.063
-596.025	-121.797	-0.250	0.042
-595.011	-75.904	-0.240	-0.087
-593.996	114.680	0.080	-0.099
-592.982	158.048	-0.111	0.157
-591.967	-83.655	-0.070	-0.023
-590.952	-144.117	-0.222	0.021
-589.938	800.000	-0.078	0.321
-588.923	-137.441	-0.395	-0.046
-587.909	350.490	0.049	0.100
-586.894	-170.075	-0.274	0.010
-585.879	4.359	-0.201	-0.151
-584.865	237.775	-0.102	-0.173
-583.850	531.541	-0.082	-0.198
-582.836	-200.000	-0.014	-0.146
-581.821	688.987	0.074	-0.197
-580.806	-94.016	0.300	0.084
-579.792	-181.384	-0.117	0.002
-578.777	44.319	-0.109	-0.102
-577.763	-118.449	0.056	0.010
-576.748	232.123	-0.138	-0.231
-575.733	-200.000	0.172	-0.001
-574.719	37.245	0.272	-0.246
-573.704	-127.233	0.219	0.033
-572.690	-45.125	-0.299	-0.152
-571.675	178.146	-0.150	-0.224
-570.661	-200.000	0.057	0.294
-569.646	214.661	-0.202	0.326
-568.631	-78.646	-0.378	-0.132
-567.617	-200.000	0.014	-0.069
-566.602	-196.150	0.084	0.001
-565.588	144.553	0.060	0.082
-564.573	-119.340	0.253	-0.045
-563.558	694.062	-0.077	0.206
-562.544	-45.397	-0.059	0.030
-561.529	523.558	-0.070	0.168
-560.515	-11.904	-0.196	-0.131
-559.500	33.588	0.141	-0.125
-558.485	-94.093	-0.178	-0.050
-557.471	-200.000	-0.055	-0.282
-556.456	-93.202	0.242	-0.069
-555.442	716.124	-0.018	-0.048
-554.427	-120.189	-0.160	0.028
-553.412	470.804	0.211	0.485
-552.398	108.425	0.087	0.106
-551.383	430.188	-0.044	-0.096
-550.369	-14.505	0.306	-0.200
-549.354	-200.000	-0.013	0.088
-548.339	754.224	0.047	0.129
-547.325	-200.000	0.001	0.249
-546.310	533.256	0.098	0.237
-545.296	-129.814	-0.160	0.022
-544.281	-200.000	0.011	0.224
-543.266	-119.164	-0.165	0.029
-542.252	-45.695	-0.149	0.075
-541.237	-200.000	-0.014	-0.065
-540.223	-200.000	0.009	0.085
-539.208	126.051	-0.108	-0.139
-538.193	96.682	-0.198	-0.231
-537.179	556.939	0.131	0.322
-536.164	8.278	-0.245	-0.187
-535.150	405.666	-0.039	-0.084
-534.135	12.867	-0.123	-0.097
-533.121	389.312	0.258	0.543
-532.106	150.678	0.191	-0.265
-531.091	-200.000	-0.036	-0.191
-530.077	241.404	-0.078	0.133
-529.062	-179.197	0.155	0.004
-528.048	-200.000	0.000	0.483
-527.033	298.505	0.198	0.371
-526.018	611.511	0.150	-0.382
-525.004	-32.893	0.155	-0.087
-523.989	-0.036	-0.053	-0.039
-522.975	-200.000	0.010	0.206
-521.960	490.917	-0.186	0.433
-520.945	800.000	-0.040	-0.133
-519.931	-48.005	0.190	-0.094
-518.916	-42.197	0.171	-0.089
-517.902	9.889	-0.143	0.110
-516.887	-127.495	-0.230	0.034
-515.872	322.481	0.214	0.414
-514.858	-47.742	0.247	-0.122
-513.843	-200.000	-0.015	-0.085
-512.829	-137.323	0.374	-0.043
-511.814	-153.636	0.355	-0.025
-510.799	-200.000	0.061	0.302
-509.785	-129.082	-0.021	0.003
-508.770	-200.000	0.016	0.250
-507.756	180.361	-0.322	-0.480
-506.741	-86.942	-0.076	-0.023
-505.726	32.522	-0.266	0.234
-504.712	443.918	0.088	-0.195
-503.697	-29.291	0.282	0.164
-502.683	27.374	-0.318	-0.272
-501.668	-91.126	0.048	0.014
-500.653	111.158	-0.253	0.310
-499.639	-159.262	-0.249	0.014
-498.624	21.927	-0.183	-0.152
-497.610	-36.295	0.079	0.044
-496.595	-200.000	-0.028	-0.469
-495.581	-166.352	-0.090	0.004
-494.566	-86.443	-0.191	-0.060
-493.551	-24.919	0.185	0.112
-492.537	800.000	0.011	0.048
-491.522	118.343	-0.178	0.223
-490.508	313.066	0.044	-0.084
-489.493	21.917	0.365	0.302
-488.478	-40.377	0.347	0.184
-487.464	131.690	-0.070	-0.091
-486.449	773.900	0.072	-0.200
-485.435	-129.648	0.222	-0.031
-484.420	-130.963	-0.317	0.043
-483.405	800.000	-0.084	0.240
-482.391	-54.841	0.333	0.153
-481.376	60.370	-0.061	-0.061
-480.362	-83.148	-0.202	0.066
-479.347	-54.462	-0.212	-0.098
-478.332	-74.332	0.269	-0.099
-477.318	440.628	-0.040	0.089
-476.303	90.740	0.135	0.153
-475.289	-73.621	-0.463	-0.171
-474.274	800.000	-0.130	-0.365
-473.259	71.423	0.138	-0.146
-472.245	800.000	-0.057	0.184
-471.230	-128.838	-0.070	-0.010
-470.216	-200.000	0.008	-0.062
-469.201	-52.626	0.208	-0.098
-468.186	415.667	0.098	-0.212
-467.172	81.766	-0.039	-0.043
-466.157	-116.516	0.098	-0.018
-465.143	800.000	0.054	-0.158
-464.128	201.068	0.072	-0.112
-463.113	75.471	-0.083	-0.089
-462.099	775.399	0.071	-0.197
-461.084	97.848	0.121	0.141
-460.070	800.000	-0.057	0.182
-459.055	276.049	0.048	0.087
-458.040	-39.883	-0.441	0.234
-457.026	72.434	0.124	-0.131
-456.011	-54.079	-0.344	0.159
-454.997	617.361	-0.018	0.046
-453.982	800.000	0.023	-0.067
-452.968	367.995	-0.107	-0.218
-451.953	275.803	-0.100	-0.181
-450.938	43.576	0.081	-0.075
-449.924	-132.610	-0.243	0.032
-448.909	-146.725	-0.157	0.014
-447.895	568.826	-0.109	0.268
-446.880	-59.026	-0.509	-0.223
-445.865	481.781	-0.120	-0.278
-444.851	661.518	-0.022	-0.058
-443.836	-27.752	-0.080	0.047
-442.822	7.758	0.121	0.092
-441.807	13.008	0.313	-0.245
-440.792	-101.407	0.085	-0.021
-439.778	-200.000	0.018	-0.129
-438.763	800.000	0.033	-0.103
-437.749	-81.165	0.097	-0.032
-436.734	-200.000	-0.016	0.094
-435.719	800.000	-0.061	-0.217
-434.705	-106.653	0.437	0.099
-433.690	26.424	-0.181	-0.154
-432.676	-62.334	0.336	0.142
-431.661	800.000	-0.047	0.184
-430.646	15.596	0.259	0.206
-429.632	-50.537	0.239	0.114
-428.617	602.136	0.013	0.033
-427.603	11.194	-0.148	0.115
-426.588	-110.676	0.099	0.021
-425.573	-88.750	-0.179	-0.054
-424.559	112.967	-0.036	-0.044
-423.544	-31.190	0.395	0.226
-422.530	422.082	-0.202	0.440
-421.515	171.199	0.096	-0.139
-420.500	-200.000	0.021	-0.212
-419.486	-14.134	-0.056	-0.036
-418.471	-14.536	0.203	-0.132
-417.457	-107.710	-0.232	0.051
-416.442	-54.984	0.213	-0.097
-415.428	-200.000	-0.000	-0.226
-414.413	-98.413	0.136	0.035
-413.398	-51.644	-0.223	-0.106
-412.384	-45.388	0.106	-0.053
-411.369	-65.109	-0.118	-0.048
-410.355	81.055	-0.046	0.051
-409.340	-15.065	-0.296	-0.192
-408.325	-32.255	0.046	0.026
-407.311	185.819	-0.159	-0.240
-406.296	-178.761	0.192	-0.004
-405.282	249.302	-0.049	-0.083
-404.267	-69.388	-0.140	-0.055
-403.252	511.498	-0.056	0.132
-402.238	-200.000	0.014	0.145
-401.223	-2.311	0.040	-0.029
-400.209	3.734	-0.136	-0.101
-399.194	-1.894	0.308	-0.219
-398.179	-59.747	0.167	0.072
-397.165	38.465	-0.130	0.117
-396.150	-107.565	0.271	-0.060
-395.136	-170.676	0.266	0.009
-394.121	-95.318	-0.182	-0.050
-393.106	-200.000	-0.009	-0.054
-392.092	-200.000	0.049	-0.333
-391.077	-39.345	-0.174	-0.092
-390.063	-91.712	0.442	0.127
-389.048	110.088	-0.109	-0.132
-388.033	-15.373	0.024	0.016
-387.019	618.802	0.146	-0.371
-386.004	-150.272	-0.313	0.024
-384.990	-145.109	-0.482	-0.044
-383.975	133.894	-0.186	-0.244
-382.960	-75.316	-0.211	-0.076
-381.946	800.000	-0.084	-0.330
-380.931	172.763	0.202	-0.295
-379.917	-61.111	-0.268	-0.114
-378.902	-200.000	0.035	0.208
-377.888	664.613	0.115	-0.301
-376.873	-200.000	-0.010	-0.389
-375.858	-200.000	0.015	0.139
-374.844	249.415	0.015	-0.026
-373.829	148.032	-0.135	-0.185
-372.815	34.152	-0.074	-0.065
-371.800	-97.422	0.122	-0.032
-370.785	-131.527	-0.090	-0.012
-369.771	88.353	-0.287	-0.323
-368.756	-100.492	0.345	-0.086
-367.742	246.842	0.216	0.369
-366.727	-200.000	-0.119	-0.000
-365.712	138.385	-0.295	-0.392
-364.698	-200.000	0.089	-0.551
-363.683	-9.430	0.219	0.148
-362.669	-103.986	-0.251	0.059
-361.654	-138.756	0.282	0.031
-360.639	800.000	-0.074	0.326
-359.625	-86.863	0.206	-0.064
-358.610	-81.419	-0.217	-0.072
-357.596	200.320	0.085	0.132
-356.581	-87.272	-0.349	-0.107
-355.566	-200.000	-0.003	-0.016
-354.552	122.038	-0.360	0.454
-353.537	562.616	0.095	-0.232
-352.523	60.763	-0.079	-0.079
-351.508	-9.535	0.256	0.172
-350.493	-94.449	-0.058	0.016
-349.479	-200.000	-0.005	0.188
-348.464	-200.000	0.038	-0.213
-347.450	-74.975	-0.193	-0.070
-346.435	11.244	0.156	-0.120
-345.420	-200.000	0.046	0.306
-344.406	800.000	-0.026	-0.103
-343.391	-200.000	0.008	-0.039
-342.377	-200.000	-0.066	-0.294
-341.362	-118.014	0.377	0.068
-340.348	-48.592	0.160	-0.078
-339.333	-200.000	0.061	0.345
-338.318	137.054	-0.200	0.264
-337.304	40.985	0.058	0.053
-336.289	-23.444	0.087	0.053
-335.275	-99.718	-0.328	0.083
-334.260	800.000	0.111	-0.346
-333.245	571.358	0.092	0.227
-332.231	41.189	-0.234	0.213
-331.216	-200.000	-0.020	0.497
-330.202	51.804	0.180	0.173
-329.187	-200.000	0.002	0.366
-328.172	37.888	0.267	0.239
-327.158	-178.484	-0.405	-0.009
-326.143	-200.000	-0.012	0.394
-325.129	49.120	0.241	0.229
-324.114	86.182	0.220	-0.244
-323.099	41.808	0.106	-0.097
-322.085	99.668	-0.109	-0.127
-321.070	-96.142	0.163	0.044
-320.056	409.776	0.099	-0.212
-319.041	800.000	0.022	0.065
-318.026	-77.503	-0.250	0.088
-317.012	359.787	-0.186	0.375
-315.997	77.746	-0.100	0.107
-314.983	-122.871	-0.197	-0.032
-313.968	-188.765	-0.194	-0.002
-312.953	-200.000	-0.012	0.075
-311.939	800.000	0.160	0.615
-310.924	-142.543	-0.132	-0.013
-309.910	800.000	0.074	0.236
-308.895	-200.000	-0.021	-0.202
-307.880	800.000	0.154	0.522
-306.866	-51.894	0.255	-0.120
-305.851	-200.000	0.016	0.076
-304.837	14.811	0.104	0.082
-303.822	-200.000	-0.005	-0.126
-302.807	57.247	-0.103	-0.102
-301.793	-40.839	0.282	0.147
-300.778	38.575	-0.193	-0.174
-299.764	667.260	-0.129	-0.337
-298.749	-56.309	-0.190	-0.085
-297.735	-200.000	0.003	0.017
-296.720	289.913	-0.078	0.143
-295.705	-200.000	0.055	-0.255
-294.691	-3.401	0.119	-0.083
-293.676	-175.995	0.110	0.003
-292.662	64.742	0.116	0.118
-291.647	-80.248	-0.186	0.063
-290.632	161.924	0.162	0.228
-289.618	17.235	-0.209	0.167
-288.603	-31.186	0.161	-0.092
-287.589	-15.567	0.031	-0.020
-286.574	-8.074	-0.121	-0.082
-285.559	-200.000	-0.052	0.403
-284.545	14.737	-0.152	0.120
-283.530	0.368	-0.084	-0.060
-282.516	8.744	-0.174	0.132
-281.501	379.462	0.162	-0.335
-280.486	-147.318	0.296	-0.025
-279.472	327.084	-0.144	-0.279
-278.457	-200.000	-0.001	0.268
-277.443	-200.000	0.005	0.115
-276.428	-136.697	-0.474	0.055
-275.413	369.857	-0.198	-0.404
-274.399	586.592	-0.179	-0.445
-273.384	-5.061	0.253	0.176
-272.370	-112.247	0.285	-0.058
-271.355	-85.712	-0.369	-0.115
-270.340	280.329	-0.258	0.464
-269.326	-11.356	0.234	0.155
-268.311	108.475	0.188	0.226
-267.297	-150.821	-0.006	-0.000
-266.282	83.506	-0.222	-0.244
-265.267	353.064	0.130	0.259
-264.253	264.021	0.040	-0.071
-263.238	227.707	0.143	-0.235
-262.224	-200.000	0.023	0.145
-261.209	-62.589	0.155	0.065
-260.195	800.000	0.090	-0.315
-259.180	-200.000	-0.057	-0.302
-258.165	-84.022	0.356	-0.114
-257.151	215.437	0.084	-0.134
-256.136	330.672	-0.140	-0.271
-255.122	330.578	0.222	0.430
-254.107	177.811	-0.094	-0.138
-253.092	-200.000	0.035	0.157
-252.078	66.072	0.182	0.186
-251.063	217.239	0.115	0.184
-250.049	26.011	-0.024	-0.020
-249.034	-113.933	0.438	0.086
-248.019	-116.055	0.149	0.028
-247.005	-200.000	0.004	0.071
-245.990	276.086	0.076	0.135
-244.976	72.624	0.041	0.043
-243.961	55.814	-0.127	0.124
-242.946	387.383	0.044	-0.092
-241.932	-200.000	0.031	-0.142
-240.917	800.000	-0.074	0.213
-239.903	274.826	-0.186	0.332
-238.888	582.048	-0.027	0.067
-237.873	-159.827	0.150	-0.008
-236.859	-45.388	-0.122	0.061
-235.844	-200.000	0.013	0.160
-234.830	176.258	0.111	0.162
-233.815	-30.457	0.118	-0.067
-232.800	-125.645	0.238	0.036
-231.786	216.508	-0.139	-0.222
-230.771	-200.000	-0.000	-0.059
-229.757	79.669	0.253	-0.273
-228.742	16.478	0.110	-0.088
-227.727	226.561	-0.149	0.243
-226.713	49.863	-0.172	-0.163
-225.698	-11.356	-0.329	-0.218
-224.684	-7.134	0.189	0.129
-223.669	-200.000	-0.025	-0.315
-222.655	-55.793	-0.191	0.086
-221.640	-37.022	0.047	-0.025
-220.625	-33.661	0.389	-0.216
-219.611	62.842	-0.055	0.055
-218.596	-200.000	-0.063	-0.390
-217.582	172.867	0.187	-0.270
-216.567	-69.353	0.199	0.077
-215.552	-104.578	-0.177	0.041
-214.538	-14.467	0.071	-0.046
-213.523	800.000	0.060	0.223
-212.509	-2.980	-0.149	0.104
-211.494	21.467	-0.070	-0.057
-210.479	652.036	0.046	0.119
-209.465	-96.719	0.119	0.032
-208.450	180.221	0.211	0.311
-207.436	643.098	-0.037	0.096
-206.421	42.739	-0.295	0.270
-205.406	-92.816	-0.185	-0.052
-204.392	-114.240	0.186	-0.036
-203.377	176.202	-0.068	-0.099
-202.363	-109.114	-0.159	0.034
-201.348	269.236	0.045	-0.079
-200.333	-52.495	0.141	0.066
-199.319	-17.043	0.106	-0.067
-198.304	115.386	0.101	0.124
-197.290	-107.347	0.426	0.094
-196.275	800.000	0.136	0.516
-195.260	-120.679	0.148	-0.025
-194.246	-200.000	0.030	-0.166
-193.231	158.602	-0.125	-0.175
-192.217	102.604	-0.089	0.104
-191.202	12.805	0.215	-0.167
-190.187	330.520	0.217	-0.420
-189.173	59.649	0.200	0.198
-188.158	77.989	-0.077	0.082
-187.144	325.806	0.081	-0.156
-186.129	-25.722	-0.139	0.083
-185.114	188.219	0.135	-0.203
-184.100	800.000	-0.041	-0.162
-183.085	800.000	-0.005	-0.018
-182.071	38.466	-0.089	0.080
-181.056	-200.000	-0.010	-0.136
-180.042	-47.517	0.412	0.201
-179.027	-109.977	-0.433	0.091
-178.012	185.241	-0.080	0.119
-176.998	-118.591	-0.328	-0.058
-175.983	-108.411	-0.157	0.034
-174.969	-200.000	-0.058	0.415
-173.954	110.946	-0.107	0.129
-172.939	800.000	-0.076	-0.222
-171.925	-200.000	-0.040	-0.257
-170.910	-154.382	0.106	0.007
-169.896	800.000	0.049	-0.180
-168.881	199.588	-0.182	0.280
-167.866	258.920	0.167	0.290
-166.852	-119.054	0.408	0.072
-165.837	-38.181	0.105	-0.056
-164.823	66.476	-0.157	-0.160
-163.808	-159.967	0.159	0.009
-162.793	170.746	0.157	0.225
-161.779	-112.018	0.426	0.086
-160.764	-127.985	-0.073	-0.011
-159.750	-132.487	0.181	0.023
-158.735	800.000	0.105	0.295
-157.720	164.776	0.143	-0.202
-156.706	61.901	-0.259	0.259
-155.691	-15.641	0.082	0.053
-154.677	388.016	0.145	-0.300
-153.662	-18.116	0.048	-0.030
-152.647	-99.086	0.236	-0.060
-151.633	439.706	-0.126	0.275
-150.618	12.913	-0.131	-0.101
-149.604	-19.868	0.156	-0.097
-148.589	-140.512	0.267	0.028
-147.574	800.000	0.086	-0.369
-146.560	137.709	0.207	0.271
-145.545	45.812	-0.187	-0.173
-144.531	147.765	-0.103	-0.140
-143.516	800.000	0.038	-0.146
-142.502	-113.446	-0.268	0.053
-141.487	-76.070	0.417	0.148
-140.472	-200.000	-0.005	0.148
-139.458	-104.361	-0.231	0.054
-138.443	48.673	0.220	-0.207
-137.429	225.206	-0.222	0.360
-136.414	-105.895	-0.132	0.030
-135.399	212.756	0.050	0.080
-134.385	282.061	-0.160	0.287
-133.370	5.425	-0.137	-0.101
-132.356	-117.548	-0.349	-0.063
-131.341	69.574	-0.123	0.127
-130.326	800.000	-0.056	-0.159
-129.312	333.849	-0.078	0.151
-128.297	-68.279	0.081	0.032
-127.283	-103.623	0.249	0.059
-126.268	-132.757	0.245	0.031
-125.253	9.870	0.238	-0.181
-124.239	39.365	-0.194	-0.174
-123.224	-49.771	0.216	-0.103
-122.210	-10.245	0.322	-0.214
-121.195	-80.919	0.142	-0.047
