DTS Sentinel unit serial number:	SN413079Multiplexer serial number:	ORYXHardware model number:	OX4-SRSoftware version number:	ORYX F/W v4.00 Oryx Data Collector v3.7.2.0data status	okinstallation	princeton_trtdifferential loss correction	single-endedforward channel	channel 4reverse channel	N/Adate	2019/09/14time	21:21:35forward acquisition time	60.00reverse acquisition time	0.00gamma	496.2192k internal	0.2306k external	0.2306temperature offset calibration	1.0081default loss term (dB/km)	0.3790temperature slope calibration	1.0000multiplexer offset coefficient	1.0000multiplexer slope coefficient	1.0000fibre end	0.00T internal ref (°C)	32.94T ext. ref 1 (°C)	4.78T ext. ref 2 (°C)	27.75length (m)	temperature (°C)	Stokes	anti-Stokes-747.200	800.000	0.014	-0.052
-746.185	46.715	-0.331	0.312
-745.171	-144.613	0.382	0.036
-744.156	-153.020	0.120	-0.009
-743.142	-22.952	-0.089	-0.055
-742.127	57.314	-0.313	0.311
-741.112	231.770	0.115	-0.192
-740.098	-155.165	0.482	0.032
-739.083	717.006	-0.079	0.213
-738.069	-200.000	0.010	-0.091
-737.054	-141.357	0.157	-0.016
-736.039	-54.569	-0.382	-0.176
-735.025	-30.252	0.188	-0.109
-734.010	-69.945	-0.225	0.087
-732.996	141.611	-0.075	-0.101
-731.981	148.240	-0.158	-0.216
-730.966	176.957	-0.015	-0.023
-729.952	-141.080	-0.047	0.005
-728.937	-155.398	-0.301	0.020
-727.923	-86.519	-0.158	0.049
-726.908	-200.000	-0.397	0.000
-725.894	-194.719	-0.394	0.003
-724.879	-98.440	0.382	-0.099
-723.864	-130.575	0.400	-0.055
-722.850	800.000	0.075	-0.247
-721.835	65.113	0.148	0.152
-720.821	-200.000	-0.060	0.407
-719.806	226.940	-0.042	-0.069
-718.791	800.000	-0.070	-0.245
-717.777	33.669	0.222	-0.196
-716.762	196.880	0.116	-0.179
-715.748	-200.000	0.074	-0.430
-714.733	-129.270	-0.231	0.033
-713.718	-124.229	0.123	0.020
-712.704	10.576	-0.425	-0.329
-711.689	800.000	-0.053	-0.155
-710.675	800.000	0.029	-0.090
-709.660	-200.000	0.043	0.271
-708.645	-123.712	0.278	-0.045
-707.631	-74.153	0.173	-0.064
-706.616	-200.000	-0.004	-0.034
-705.602	-200.000	-0.034	-0.188
-704.587	192.134	-0.145	-0.222
-703.572	-126.238	-0.316	-0.048
-702.558	800.000	-0.095	0.297
-701.543	59.828	0.308	-0.309
-700.529	34.634	0.212	0.188
-699.514	65.939	0.078	-0.080
-698.499	-132.501	-0.109	0.014
-697.485	-68.441	-0.129	-0.051
-696.470	-12.909	-0.176	0.116
-695.456	-22.477	-0.088	0.054
-694.441	646.553	0.074	0.192
-693.426	-26.046	0.194	-0.116
-692.412	-200.000	-0.008	-0.461
-691.397	-60.082	-0.105	0.046
-690.383	-200.000	-0.018	0.137
-689.368	-94.214	0.144	-0.040
-688.354	-14.586	0.170	0.111
-687.339	75.061	0.098	0.105
-686.324	386.325	0.133	0.280
-685.310	52.306	0.085	-0.082
-684.295	-126.330	-0.119	-0.018
-683.281	800.000	-0.024	0.082
-682.266	-76.360	0.291	-0.104
-681.251	-97.976	-0.325	0.085
-680.237	280.469	0.055	0.100
-679.222	800.000	0.133	-0.430
-678.208	22.845	-0.057	-0.048
-677.193	156.041	-0.081	-0.113
-676.178	-200.000	0.050	-0.342
-675.164	8.288	-0.132	-0.101
-674.149	117.929	0.043	-0.054
-673.135	-112.886	0.468	-0.094
-672.120	114.373	-0.126	0.156
-671.105	-118.197	0.282	-0.051
-670.091	-172.779	-0.282	-0.009
-669.076	15.841	-0.098	0.078
-668.062	-66.014	0.217	-0.088
-667.047	-65.879	-0.186	0.075
-666.032	800.000	0.040	0.139
-665.018	278.917	0.113	0.205
-664.003	486.768	0.121	-0.280
-662.989	211.464	-0.064	0.102
-661.974	305.959	0.062	0.117
-660.959	-57.141	0.080	-0.036
-659.945	116.570	-0.196	-0.244
-658.930	-130.790	-0.309	0.042
-657.916	-94.336	0.267	0.074
-656.901	-72.280	-0.161	0.060
-655.886	368.305	0.241	-0.494
-654.872	-71.039	0.155	0.059
-653.857	188.155	0.148	-0.224
-652.843	-187.211	0.417	-0.006
-651.828	-175.199	-0.269	0.008
-650.814	100.007	-0.163	0.191
-649.799	-172.584	0.154	-0.005
-648.784	-161.924	0.141	-0.007
-647.770	-36.500	0.291	0.159
-646.755	23.247	-0.288	-0.240
-645.741	-37.278	0.260	-0.141
-644.726	236.674	-0.053	0.089
-643.711	-155.935	-0.132	-0.008
-642.697	710.736	-0.037	0.101
-641.682	86.937	0.218	-0.244
-640.668	49.061	0.133	-0.127
-639.653	14.706	-0.147	-0.116
-638.638	-99.229	-0.386	-0.099
-637.624	-200.000	0.042	-0.297
-636.609	188.274	0.093	0.141
-635.595	74.680	0.183	-0.195
-634.580	-22.722	-0.165	-0.101
-633.565	-200.000	-0.024	0.174
-632.551	118.074	-0.226	-0.282
-631.536	-39.046	0.241	0.128
-630.522	-170.905	-0.346	-0.012
-629.507	147.541	0.191	-0.260
-628.492	-98.461	-0.249	-0.065
-627.478	86.517	-0.048	-0.054
-626.463	-69.218	-0.008	-0.003
-625.449	7.253	-0.154	-0.116
-624.434	-44.567	-0.117	-0.059
-623.419	226.738	-0.111	-0.183
-622.405	551.534	0.095	0.232
-621.390	153.336	0.190	-0.264
-620.376	-109.588	-0.281	-0.060
-619.361	354.301	0.021	-0.042
-618.346	199.258	-0.159	-0.247
-617.332	-200.000	0.009	0.046
-616.317	3.257	-0.240	0.177
-615.303	-113.767	-0.315	-0.062
-614.288	-92.675	-0.364	-0.103
-613.273	800.000	0.143	-0.421
-612.259	-4.752	-0.178	-0.124
-611.244	187.220	0.089	-0.134
-610.230	-22.573	-0.327	-0.200
-609.215	-77.557	-0.310	-0.109
-608.201	-200.000	-0.008	0.042
-607.186	-101.204	0.298	0.074
-606.171	33.141	0.053	0.047
-605.157	-108.208	-0.179	0.039
-604.142	16.064	-0.215	0.171
-603.128	-38.976	0.224	-0.119
-602.113	-200.000	-0.021	0.233
-601.098	283.449	0.112	-0.204
-600.084	-21.493	0.352	-0.217
-599.069	-183.194	0.306	0.005
-598.055	-79.870	0.039	-0.013
-597.040	-114.881	-0.087	0.017
-596.025	263.624	0.119	0.209
-595.011	659.041	0.067	0.174
-593.996	16.662	0.198	0.159
-592.982	-200.000	0.005	0.387
-591.967	67.766	0.084	0.087
-590.952	169.390	0.062	0.089
-589.938	-200.000	0.003	0.233
-588.923	102.476	0.109	0.129
-587.909	-35.703	0.341	-0.187
-586.894	-165.029	-0.103	-0.005
-585.879	-44.199	-0.307	-0.156
-584.865	78.678	0.174	-0.188
-583.850	-200.000	0.237	0.000
-582.836	-48.911	0.279	0.135
-581.821	-200.000	-0.022	-0.209
-580.806	145.660	-0.018	-0.024
-579.792	800.000	0.050	-0.173
-578.777	123.288	-0.118	-0.150
-577.763	194.426	0.101	-0.155
-576.748	-116.175	-0.282	-0.053
-575.733	-84.057	-0.288	-0.092
-574.719	175.904	-0.049	0.072
-573.704	-139.543	0.102	0.011
-572.690	-200.000	-0.026	0.148
-571.675	528.545	-0.122	0.291
-570.661	187.553	0.123	0.185
-569.646	-35.638	0.236	0.130
-568.631	-200.000	-0.024	-0.130
-567.617	49.309	-0.285	0.271
-566.602	800.000	0.056	-0.246
-565.588	284.072	-0.166	-0.302
-564.573	401.045	0.092	-0.195
-563.558	643.300	0.099	-0.255
-562.544	-55.277	0.322	-0.146
-561.529	-200.000	-0.017	-0.136
-560.515	716.027	-0.135	0.362
-559.500	789.443	-0.051	0.141
-558.485	191.378	-0.129	0.195
-557.471	405.716	0.102	0.218
-556.456	800.000	-0.076	0.292
-555.442	-31.554	0.209	-0.119
-554.427	-123.828	-0.268	-0.043
-553.412	-132.897	-0.074	0.010
-552.398	85.610	-0.258	-0.287
-551.383	84.452	0.146	-0.161
-550.369	800.000	0.038	0.118
-549.354	800.000	-0.039	0.169
-548.339	53.416	0.049	-0.047
-547.325	-98.886	0.379	0.097
-546.310	-162.012	-0.081	0.004
-545.296	325.017	0.042	0.081
-544.281	-52.466	-0.265	0.124
-543.266	-87.359	0.063	0.019
-542.252	454.686	-0.207	-0.462
-541.237	-23.832	0.081	-0.049
-540.223	73.144	0.177	0.187
-539.208	-118.401	0.320	0.057
-538.193	-200.000	0.088	-0.418
-537.179	363.628	-0.059	0.120
-536.164	-110.523	-0.161	0.034
-535.150	312.769	-0.055	-0.105
-534.135	259.913	-0.020	-0.034
-533.121	-121.045	0.213	-0.036
-532.106	-150.172	-0.299	0.023
-531.091	-200.000	0.035	0.160
-530.077	197.729	0.175	-0.270
-529.062	126.120	-0.062	-0.079
-528.048	394.201	0.037	0.077
-527.033	800.000	-0.034	-0.127
-526.018	160.686	-0.120	0.170
-525.004	-56.466	0.128	-0.057
-523.989	-45.758	0.117	-0.058
-522.975	-68.188	-0.075	-0.029
-521.960	142.947	-0.133	-0.179
-520.945	-42.198	-0.267	-0.138
-519.931	481.897	-0.046	0.106
-518.916	275.745	-0.061	-0.110
-517.902	-200.000	-0.014	-0.164
-516.887	800.000	-0.083	0.350
-515.872	-200.000	0.004	0.333
-514.858	800.000	-0.065	-0.275
-513.843	800.000	-0.057	0.189
-512.829	204.944	-0.244	-0.382
-511.814	-120.020	0.191	-0.033
-510.799	39.585	-0.173	-0.156
-509.785	153.321	-0.054	0.074
-508.770	728.673	0.103	-0.276
-507.756	110.132	-0.008	-0.009
-506.741	-136.226	-0.061	0.007
-505.726	443.608	-0.211	0.465
-504.712	696.274	-0.020	-0.052
-503.697	426.702	-0.056	0.122
-502.683	23.641	0.118	-0.098
-501.668	591.422	-0.085	0.212
-500.653	-21.842	-0.229	0.140
-499.639	-73.009	-0.305	0.113
-498.624	-84.561	-0.442	0.140
-497.610	-76.832	-0.171	-0.060
-496.595	453.431	0.084	0.187
-495.581	-99.798	0.277	0.070
-494.566	173.968	0.180	0.262
-493.551	800.000	0.078	-0.244
-492.537	800.000	-0.054	0.167
-491.522	697.413	0.129	-0.341
-490.508	-200.000	0.004	0.202
-489.493	800.000	-0.053	0.163
-488.478	800.000	0.113	-0.472
-487.464	-192.477	-0.255	-0.002
-486.449	800.000	0.029	-0.106
-485.435	-161.560	0.092	-0.005
-484.420	160.732	0.215	0.302
-483.405	-75.215	0.266	-0.096
-482.391	-160.572	0.234	-0.013
-481.376	162.635	0.134	-0.189
-480.362	-126.636	0.136	-0.020
-479.347	-150.798	0.333	0.025
-478.332	-42.222	0.100	-0.051
-477.318	-200.000	0.072	0.487
-476.303	-80.336	0.342	-0.115
-475.289	800.000	-0.067	0.234
-474.274	-117.181	-0.063	-0.012
-473.259	75.204	-0.099	-0.105
-472.245	11.949	0.161	-0.124
-471.230	800.000	0.076	0.285
-470.216	800.000	-0.039	0.141
-469.201	282.403	-0.067	0.122
-468.186	-200.000	-0.014	0.163
-467.172	-69.644	-0.159	0.061
-466.157	800.000	-0.079	0.243
-465.143	-96.644	-0.152	0.040
-464.128	524.505	0.164	0.389
-463.113	60.523	0.084	0.084
-462.099	239.340	0.202	0.338
-461.084	-200.000	0.019	0.150
-460.070	-52.552	-0.141	0.065
-459.055	180.504	-0.159	-0.234
-458.040	-115.758	0.427	0.080
-457.026	-200.000	-0.014	-0.307
-456.011	280.334	-0.042	0.075
-454.997	6.863	-0.201	0.151
-453.982	-90.224	0.108	-0.032
-452.968	800.000	-0.082	-0.266
-451.953	-200.000	0.001	0.235
-450.938	53.957	-0.176	0.170
-449.924	-116.260	-0.190	0.035
-448.909	-121.486	-0.126	0.021
-447.895	94.308	0.190	-0.217
-446.880	-104.615	0.332	0.077
-445.865	457.577	-0.023	-0.052
-444.851	42.944	0.121	0.111
-443.836	581.101	-0.132	-0.325
-442.822	199.676	0.034	0.052
-441.807	-200.000	0.058	-0.396
-440.792	-36.576	0.192	-0.104
-439.778	-200.000	-0.042	0.204
-438.763	-200.000	-0.014	0.148
-437.749	-5.492	0.246	0.169
-436.734	-112.710	-0.227	0.045
-435.719	205.048	0.187	0.291
-434.705	533.104	0.080	0.191
-433.690	43.216	-0.167	-0.154
-432.676	442.094	0.081	0.178
-431.661	438.644	-0.055	-0.121
-430.646	-1.179	0.138	0.098
-429.632	83.068	0.190	0.208
-428.617	-19.486	-0.119	-0.074
-427.603	463.023	-0.103	-0.232
-426.588	-101.842	-0.403	-0.098
-425.573	798.242	0.131	0.363
-424.559	-140.477	0.186	-0.019
-423.544	800.000	0.023	-0.067
-422.530	217.370	-0.090	0.144
-421.515	382.027	-0.167	0.346
-420.500	24.989	0.036	0.030
-419.486	-200.000	-0.014	-0.194
-418.471	391.073	-0.193	-0.402
-417.457	800.000	-0.100	-0.330
-416.442	-122.628	0.225	-0.037
-415.428	-71.817	0.240	0.090
-414.413	144.545	-0.167	0.224
-413.398	-6.349	0.191	0.131
-412.384	-77.306	-0.156	0.055
-411.369	-20.885	-0.190	0.117
-410.355	134.947	0.131	0.170
-409.340	800.000	0.039	0.120
-408.325	230.411	-0.084	-0.138
-407.311	-65.368	-0.216	0.087
-406.296	-191.657	0.042	0.000
-405.282	-74.888	-0.108	-0.039
-404.267	-200.000	0.017	0.079
-403.252	-106.027	0.282	-0.064
-402.238	-64.935	-0.177	-0.072
-401.223	292.776	-0.072	-0.131
-400.209	13.114	-0.065	-0.050
-399.194	-112.919	-0.374	-0.074
-398.179	-103.219	0.380	0.090
-397.165	-200.000	-0.014	0.163
-396.150	800.000	-0.029	-0.124
-395.136	6.500	-0.116	-0.087
-394.121	0.637	0.257	-0.184
-393.106	-82.754	0.329	0.107
-392.092	-128.088	-0.126	-0.018
-391.077	167.843	0.113	-0.162
-390.063	800.000	-0.062	0.257
-389.048	-96.975	-0.217	0.057
-388.033	-84.553	0.162	-0.051
-387.019	-200.000	0.015	0.251
-386.004	712.956	-0.112	0.297
-384.990	241.217	0.035	-0.059
-383.975	-89.222	0.132	0.039
-382.960	402.105	-0.029	0.062
-381.946	-200.000	0.040	-0.201
-380.931	800.000	-0.094	0.410
-379.917	-134.446	-0.100	0.012
-378.902	-114.394	0.185	-0.036
-377.888	-200.000	0.018	-0.237
-376.873	800.000	0.033	0.109
-375.858	23.728	-0.141	-0.116
-374.844	47.116	-0.343	0.320
-373.829	332.590	0.140	0.271
-372.815	150.899	0.063	0.086
-371.800	-160.319	-0.371	-0.020
-370.785	-102.586	0.178	0.043
-369.771	-171.145	0.241	-0.008
-368.756	-111.713	0.141	-0.029
-367.742	-200.000	0.060	0.346
-366.727	-200.000	0.010	0.045
-365.712	-107.759	0.465	-0.102
-364.698	39.398	0.150	-0.134
-363.683	98.974	-0.047	-0.054
-362.669	-59.867	0.057	-0.024
-361.654	-118.841	0.169	-0.030
-360.639	-200.000	-0.034	-0.259
-359.625	-127.238	0.264	-0.039
-358.610	11.181	0.078	-0.060
-357.596	-200.000	-0.015	-0.087
-356.581	-200.000	0.000	0.071
-355.566	29.334	-0.252	0.214
-354.552	-106.663	-0.093	0.021
-353.537	-146.502	0.322	0.028
-352.523	-69.334	-0.160	-0.062
-351.508	102.415	-0.240	0.281
-350.493	-67.738	0.267	-0.105
-349.479	-113.974	0.370	-0.072
-348.464	-200.000	0.035	0.174
-347.450	-11.140	0.096	-0.063
-346.435	755.758	-0.090	-0.243
-345.420	-52.443	-0.220	0.102
-344.406	800.000	0.036	0.128
-343.391	41.905	0.234	-0.213
-342.377	-166.016	-0.492	-0.021
-341.362	577.686	0.175	-0.429
-340.348	-55.176	-0.252	0.113
-339.333	800.000	-0.079	0.331
-338.318	502.292	0.146	0.339
-337.304	800.000	0.090	-0.272
-336.289	800.000	0.060	-0.256
-335.275	172.195	-0.059	-0.085
-334.260	73.741	0.036	0.038
-333.245	-56.418	0.283	-0.126
-332.231	-52.377	-0.116	-0.054
-331.216	-200.000	-0.001	0.044
-330.202	-173.951	0.106	0.003
-329.187	297.636	-0.149	0.273
-328.172	310.375	-0.182	-0.341
-327.158	58.478	-0.028	0.028
-326.143	-166.659	0.278	-0.012
-325.129	-38.514	0.017	-0.009
-324.114	-200.000	-0.006	0.184
-323.099	316.893	0.062	-0.117
-322.085	238.674	0.189	-0.315
-321.070	19.764	-0.227	0.183
-320.056	-172.936	-0.235	0.007
-319.041	-104.382	-0.152	0.035
-318.026	-63.592	-0.131	-0.054
-317.012	137.714	-0.125	-0.163
-315.997	257.139	-0.077	-0.133
-314.983	-9.085	-0.162	-0.108
-313.968	198.257	-0.130	0.200
-312.953	-38.739	-0.318	-0.168
-311.939	49.073	-0.199	-0.187
-310.924	45.641	-0.186	-0.172
-309.910	800.000	0.103	0.292
-308.895	-4.093	-0.349	-0.242
-307.880	-200.000	-0.053	0.240
-306.866	800.000	-0.068	0.208
-305.851	-74.281	-0.284	-0.103
-304.837	276.123	0.087	0.154
-303.822	-83.789	0.179	-0.057
-302.807	242.163	-0.100	0.168
-301.793	800.000	-0.089	0.256
-300.778	-53.228	-0.415	0.191
-299.764	766.598	-0.093	0.253
-298.749	-159.342	-0.222	0.012
-297.735	-162.362	-0.304	-0.015
-296.720	3.908	0.216	0.158
-295.705	689.319	0.026	-0.069
-294.691	76.746	-0.055	0.059
-293.676	-136.316	0.201	-0.023
-292.662	190.294	0.126	-0.189
-291.647	83.844	-0.241	-0.263
-290.632	284.081	0.072	0.129
-289.618	139.444	0.094	0.123
-288.603	-67.510	-0.283	0.111
-287.589	-88.913	-0.310	-0.092
-286.574	-133.307	0.224	-0.028
-285.559	43.409	-0.085	0.078
-284.545	-200.000	0.022	0.229
-283.530	-200.000	-0.014	0.289
-282.516	-22.301	0.067	0.041
-281.501	199.455	0.073	-0.111
-280.486	-103.725	-0.167	0.039
-279.472	80.956	-0.040	-0.043
-278.457	800.000	0.072	0.292
-277.443	4.831	0.105	-0.077
-276.428	-87.511	0.126	0.038
-275.413	12.843	0.252	0.194
-274.399	7.642	0.093	0.070
-273.384	-200.000	-0.026	0.179
-272.370	-148.444	0.095	-0.008
-271.355	202.444	-0.060	-0.093
-270.340	-171.946	-0.402	-0.013
-269.326	673.832	0.080	-0.207
-268.311	-133.789	-0.195	0.024
-267.297	550.211	-0.070	0.168
-266.282	-64.070	-0.076	0.031
-265.267	192.886	0.105	0.158
-264.253	-71.528	-0.124	-0.046
-263.238	289.424	-0.142	-0.257
-262.224	-37.584	-0.132	-0.070
-261.209	-28.663	0.080	-0.046
-260.195	508.549	0.020	0.047
-259.180	800.000	0.107	-0.335
-258.165	238.328	0.153	0.253
-257.151	-157.028	0.233	-0.014
-256.136	-175.807	0.045	-0.001
-255.122	11.030	0.316	-0.241
-254.107	-200.000	-0.008	-0.329
-253.092	477.510	0.130	-0.294
-252.078	42.000	0.045	-0.041
-251.063	-107.791	0.188	0.041
-250.049	-200.000	0.001	0.114
-249.034	470.198	-0.044	0.099
-248.019	-72.794	0.213	0.078
-247.005	-90.206	-0.099	-0.029
-245.990	-171.149	0.272	0.009
-244.976	-200.000	-0.002	0.012
-243.961	-141.687	-0.085	0.009
-242.946	-200.000	0.028	0.130
-241.932	634.307	-0.030	-0.077
-240.917	103.833	0.090	-0.106
-239.903	-141.943	0.059	0.006
-238.888	-51.850	-0.080	0.037
-237.873	-35.503	0.108	0.059
-236.859	147.323	0.070	0.094
-235.844	40.144	0.159	-0.142
-234.830	595.031	0.046	0.113
-233.815	-72.557	0.221	-0.081
-232.800	43.900	-0.094	0.086
-231.786	-166.579	-0.144	-0.006
-230.771	-73.136	0.125	-0.046
-229.757	-34.317	-0.268	0.147
-228.742	-200.000	0.035	0.273
-227.727	-158.587	-0.149	0.009
-226.713	-14.122	0.020	0.013
-225.698	130.796	-0.127	0.163
-224.684	-115.532	0.414	0.078
-223.669	-8.854	-0.031	0.021
-222.655	-31.850	0.138	0.077
-221.640	411.022	0.061	0.129
-220.625	271.829	-0.052	-0.091
-219.611	-61.091	0.180	-0.076
-218.596	-20.628	0.061	-0.037
-217.582	343.703	-0.212	0.415
-216.567	-200.000	-0.000	-0.032
-215.552	228.996	-0.112	-0.182
-214.538	325.885	-0.081	-0.155
-213.523	97.105	0.021	-0.024
-212.509	-59.355	-0.161	0.069
-211.494	-89.959	-0.025	0.007
-210.479	-161.576	0.169	0.009
-209.465	-107.225	0.375	0.082
-208.450	-200.000	0.031	0.352
-207.436	256.453	0.107	-0.183
-206.421	-80.397	-0.376	-0.125
-205.406	-200.000	-0.006	-0.327
-204.392	55.933	0.124	-0.120
-203.377	-46.104	0.130	-0.064
-202.363	-173.379	-0.212	0.006
-201.348	28.275	0.164	0.138
-200.333	-76.468	-0.090	-0.032
-199.319	1.937	-0.246	0.177
-198.304	-7.426	0.093	0.063
-197.290	-200.000	-0.035	-0.177
-196.275	67.891	0.119	-0.121
-195.260	110.946	-0.149	-0.179
-194.246	-101.097	0.191	0.047
-193.231	-73.416	0.202	0.074
-192.217	800.000	-0.065	0.251
-191.202	-200.000	0.018	0.345
-190.187	-50.321	-0.164	-0.077
-189.173	-68.957	-0.241	0.093
-188.158	74.132	-0.108	-0.113
-187.144	27.110	0.201	-0.168
-186.129	570.998	0.095	0.231
-185.114	221.856	0.100	0.160
-184.100	-152.715	0.118	0.008
-183.085	-200.000	-0.028	-0.269
-182.071	-120.121	0.114	0.019
-181.056	27.846	0.190	0.159
-180.042	106.366	-0.068	-0.081
-179.027	-16.644	0.043	-0.027
-178.012	-188.869	0.219	-0.003
-176.998	-200.000	-0.022	0.114
-175.983	-161.270	0.104	0.005
-174.969	157.878	-0.086	-0.118
-173.954	-140.717	-0.140	0.014
-172.939	-13.923	0.230	-0.148
-171.925	-200.000	-0.056	-0.278
-170.910	-200.000	0.014	-0.206
-169.896	-200.000	-0.030	0.178
-168.881	-119.841	-0.285	-0.049
-167.866	-103.882	0.060	-0.014
-166.852	-46.566	-0.284	-0.138
-165.837	580.175	0.161	-0.391
-164.823	101.235	-0.128	0.148
-163.808	183.977	-0.139	-0.205
-162.793	34.577	0.165	-0.143
-161.779	-44.981	0.281	-0.139
-160.764	800.000	0.031	0.130
-159.750	-118.684	-0.283	0.050
-158.735	-36.013	-0.326	-0.175
-157.720	22.538	0.127	-0.104
-156.706	480.309	-0.036	-0.082
-155.691	800.000	-0.044	-0.178
-154.677	-200.000	0.058	-0.490
-153.662	384.935	-0.102	-0.209
-152.647	-147.806	0.374	0.031
-151.633	-140.041	0.128	0.013
-150.618	220.113	0.213	-0.339
-149.604	-146.873	-0.291	0.025
-148.589	88.625	0.123	0.136
-147.574	-200.000	-0.047	0.291
-146.560	163.540	0.118	0.165
-145.545	387.619	0.147	-0.303
-144.531	-107.840	0.129	0.028
-143.516	-26.054	-0.081	-0.048
-142.502	-70.035	0.250	-0.095
-141.487	-200.000	0.032	-0.307
-140.472	143.247	0.279	-0.369
-139.458	563.780	0.132	-0.317
-138.443	-104.347	-0.044	-0.010
-137.429	309.575	-0.065	-0.120
-136.414	-155.657	-0.202	0.013
-135.399	-119.695	-0.177	0.030
-134.385	-200.000	-0.024	-0.152
-133.370	-129.837	-0.169	-0.023
-132.356	-200.000	0.030	0.174
-131.341	-83.409	-0.090	0.029
-130.326	-200.000	-0.002	0.152
-129.312	-145.830	0.089	0.008
-128.297	26.487	-0.167	-0.139
-127.283	-144.170	-0.187	0.017
-126.268	247.005	-0.055	-0.091
-125.253	170.461	-0.072	-0.102
-124.239	43.496	-0.277	-0.251
-123.224	547.344	0.143	0.341
-122.210	-138.902	-0.154	-0.017
