DTS Sentinel unit serial number:	SN413079Multiplexer serial number:	ORYXHardware model number:	OX4-SRSoftware version number:	ORYX F/W v4.00 Oryx Data Collector v3.7.2.0data status	okinstallation	princeton_trtdifferential loss correction	single-endedforward channel	channel 4reverse channel	N/Adate	2019/09/14time	02:13:35forward acquisition time	60.00reverse acquisition time	0.00gamma	496.2192k internal	0.2323k external	0.2323temperature offset calibration	1.0129default loss term (dB/km)	0.3790temperature slope calibration	1.0000multiplexer offset coefficient	1.0000multiplexer slope coefficient	1.0000fibre end	0.00T internal ref (°C)	26.50T ext. ref 1 (°C)	3.22T ext. ref 2 (°C)	21.48length (m)	temperature (°C)	Stokes	anti-Stokes-747.200	545.338	0.060	-0.144
-746.185	-135.678	-0.368	-0.044
-745.171	-173.946	0.167	-0.005
-744.156	-126.081	-0.643	-0.097
-743.142	-200.000	-0.050	0.229
-742.127	-200.000	0.007	0.048
-741.112	519.151	-0.162	-0.383
-740.098	800.000	0.084	-0.269
-739.083	122.463	0.119	0.150
-738.069	65.310	-0.342	0.349
-737.054	-200.000	-0.001	0.276
-736.039	-200.000	0.014	-0.300
-735.025	-108.741	0.212	-0.046
-734.010	-200.000	0.015	0.192
-732.996	30.967	-0.271	-0.235
-731.981	800.000	0.024	-0.088
-730.966	63.968	0.152	0.154
-729.952	800.000	0.055	-0.181
-728.937	276.606	-0.183	0.327
-727.923	124.625	-0.118	-0.150
-726.908	122.891	-0.310	0.392
-725.894	-39.995	0.346	-0.182
-724.879	-4.370	0.232	-0.162
-723.864	-151.049	-0.326	0.025
-722.850	-113.082	-0.055	-0.011
-721.835	193.435	-0.186	-0.283
-720.821	-31.297	-0.231	0.131
-719.806	108.079	-0.136	-0.163
-718.791	187.600	0.168	-0.252
-717.777	-200.000	-0.112	0.000
-716.762	-26.728	-0.062	0.037
-715.748	-152.018	0.317	-0.023
-714.733	286.337	-0.125	0.228
-713.718	-200.000	0.011	-0.167
-712.704	-200.000	-0.011	0.123
-711.689	-8.799	-0.145	-0.098
-710.675	-17.286	-0.147	0.094
-709.660	-200.000	0.017	-0.356
-708.645	584.185	-0.088	0.217
-707.631	-84.031	0.276	0.088
-706.616	800.000	0.074	-0.215
-705.602	-60.224	0.076	0.033
-704.587	-200.000	-0.005	-0.029
-703.572	-200.000	0.008	0.123
-702.558	-77.725	-0.109	0.038
-701.543	-84.062	0.178	-0.057
-700.529	570.870	-0.077	-0.190
-699.514	-200.000	0.056	-0.289
-698.499	-200.000	0.008	-0.046
-697.485	641.561	-0.082	-0.210
-696.470	135.291	0.084	-0.110
-695.456	58.840	0.159	-0.158
-694.441	-29.632	0.334	0.192
-693.426	-162.789	-0.633	-0.031
-692.412	-200.000	-0.009	0.087
-691.397	-87.438	0.301	-0.092
-690.383	254.282	-0.092	0.158
-689.368	-200.000	-0.022	-0.179
-688.354	-4.297	-0.132	-0.092
-687.339	299.286	-0.121	-0.224
-686.324	-200.000	0.053	0.295
-685.310	-200.000	-0.026	0.136
-684.295	-97.860	-0.356	-0.093
-683.281	238.145	0.170	-0.285
-682.266	-8.746	0.281	-0.190
-681.251	31.840	-0.097	-0.084
-680.237	-48.449	0.284	-0.138
-679.222	-200.000	0.012	-0.438
-678.208	45.574	0.038	-0.035
-677.193	-154.225	-0.151	0.010
-676.178	-95.665	-0.354	-0.095
-675.164	83.716	0.098	-0.108
-674.149	41.619	-0.056	0.051
-673.135	-123.689	-0.079	0.013
-672.120	-119.160	-0.122	0.021
-671.105	-103.041	0.432	0.103
-670.091	800.000	-0.089	0.265
-669.076	313.914	0.069	-0.130
-668.062	206.069	0.155	0.243
-667.047	-182.277	0.205	-0.004
-666.032	-98.953	-0.094	-0.024
-665.018	173.849	-0.150	-0.219
-664.003	-141.537	-0.150	-0.015
-662.989	79.263	-0.174	0.188
-661.974	800.000	0.060	0.177
-660.959	57.369	-0.289	-0.284
-659.945	120.386	-0.167	-0.208
-658.930	-200.000	-0.004	0.121
-657.916	87.168	0.071	-0.079
-656.901	-18.554	-0.178	0.112
-655.886	-72.006	0.247	0.092
-654.872	298.093	-0.092	-0.171
-653.857	-200.000	-0.000	0.261
-652.843	800.000	-0.029	-0.125
-651.828	23.052	0.122	0.101
-650.814	48.639	0.120	-0.113
-649.799	-104.223	0.332	0.078
-648.784	-137.852	-0.149	0.017
-647.770	-200.000	0.002	-0.151
-646.755	800.000	-0.056	0.165
-645.741	-120.705	-0.295	0.050
-644.726	85.695	0.156	-0.172
-643.711	299.699	0.154	0.286
-642.697	-152.915	-0.138	0.010
-641.682	-47.221	0.410	-0.201
-640.668	-183.297	0.152	0.003
-639.653	-200.000	-0.010	-0.229
-638.638	19.100	0.195	-0.157
-637.624	-81.027	-0.165	0.055
-636.609	-93.339	-0.035	0.010
-635.595	136.824	0.011	0.014
-634.580	168.764	-0.125	-0.179
-633.565	-48.455	0.160	-0.078
-632.551	176.734	-0.098	-0.143
-631.536	-200.000	0.016	0.130
-630.522	-75.420	0.183	-0.066
-629.507	-180.602	-0.147	0.003
-628.492	64.515	0.081	0.082
-627.478	800.000	-0.092	-0.270
-626.463	674.668	-0.064	0.166
-625.449	-86.670	0.199	-0.061
-624.434	-16.181	-0.401	0.256
-623.419	-78.889	0.144	0.049
-622.405	165.056	-0.054	-0.077
-621.390	5.510	0.149	0.110
-620.376	336.204	-0.143	-0.279
-619.361	-200.000	0.014	-0.220
-618.346	-200.000	0.051	-0.425
-617.332	-67.776	0.244	-0.096
-616.317	384.205	0.107	0.222
-615.303	-6.378	0.077	0.053
-614.288	-200.000	-0.072	-0.425
-613.273	125.207	-0.270	-0.342
-612.259	-69.421	0.327	-0.126
-611.244	-74.275	-0.164	0.060
-610.230	665.123	0.030	0.078
-609.215	787.530	-0.034	0.092
-608.201	520.810	0.044	-0.103
-607.186	-52.376	-0.252	-0.117
-606.171	-78.173	-0.208	-0.072
-605.157	-200.000	-0.012	-0.352
-604.142	-200.000	0.010	-0.050
-603.128	-200.000	0.006	0.140
-602.113	-200.000	0.002	-0.047
-601.098	-200.000	-0.015	0.340
-600.084	800.000	0.054	0.197
-599.069	18.925	-0.161	0.130
-598.055	612.088	-0.087	0.219
-597.040	64.081	-0.128	0.129
-596.025	100.570	-0.156	-0.182
-595.011	705.366	0.091	-0.240
-593.996	-126.507	0.119	-0.018
-592.982	-200.000	0.026	-0.206
-591.967	-151.197	0.385	0.029
-590.952	195.630	-0.013	-0.020
-589.938	800.000	-0.115	-0.331
-588.923	-200.000	0.022	0.270
-587.909	141.092	0.054	-0.072
-586.894	800.000	0.065	0.186
-585.879	-200.000	0.008	0.168
-584.865	37.080	-0.035	-0.031
-583.850	3.015	0.171	-0.125
-582.836	-61.521	-0.283	-0.119
-581.821	395.811	-0.094	-0.196
-580.806	-137.511	0.079	0.009
-579.792	-77.476	-0.107	0.037
-578.777	12.153	-0.127	-0.098
-577.763	-155.627	-0.046	0.003
-576.748	559.815	0.046	0.112
-575.733	-38.934	0.436	-0.231
-574.719	800.000	-0.014	-0.050
-573.704	-139.157	0.474	0.051
-572.690	-78.992	0.113	-0.039
-571.675	89.801	-0.331	-0.371
-570.661	800.000	-0.040	-0.171
-569.646	661.073	0.063	-0.162
-568.631	278.111	0.070	-0.125
-567.617	-200.000	-0.022	-0.121
-566.602	-23.896	-0.235	-0.141
-565.588	87.482	0.356	0.396
-564.573	-7.065	0.321	0.218
-563.558	510.485	-0.056	-0.130
-562.544	5.063	-0.145	-0.107
-561.529	-58.761	-0.209	0.091
-560.515	196.255	-0.075	0.114
-559.500	-69.989	-0.212	-0.081
-558.485	-103.398	-0.142	-0.034
-557.471	-87.432	-0.158	0.048
-556.456	290.909	0.033	0.059
-555.442	-85.378	0.138	0.043
-554.427	-73.532	0.072	0.026
-553.412	-90.161	0.077	0.022
-552.398	353.083	0.208	0.413
-551.383	-72.184	-0.245	-0.091
-550.369	-2.113	0.060	0.042
-549.354	95.314	-0.108	-0.124
-548.339	800.000	0.103	-0.311
-547.325	81.486	-0.173	-0.188
-546.310	-97.921	-0.237	0.061
-545.296	-153.120	-0.167	0.012
-544.281	-123.595	-0.322	-0.051
-543.266	-200.000	0.045	-0.249
-542.252	-14.504	0.148	0.095
-541.237	76.172	0.143	0.151
-540.223	0.245	0.210	0.150
-539.208	123.058	-0.120	0.150
-538.193	-160.199	-0.166	0.009
-537.179	-53.947	0.257	-0.117
-536.164	617.721	-0.110	-0.277
-535.150	-142.036	-0.183	0.018
-534.135	-136.505	0.187	-0.022
-533.121	284.837	-0.040	-0.072
-532.106	126.958	0.082	-0.104
-531.091	-118.093	0.178	-0.032
-530.077	800.000	-0.033	-0.099
-529.062	800.000	-0.026	-0.075
-528.048	-200.000	0.003	0.131
-527.033	412.695	-0.173	-0.368
-526.018	-121.637	0.082	-0.014
-525.004	-173.589	-0.346	-0.010
-523.989	-200.000	0.033	0.160
-522.975	-86.090	0.458	-0.141
-521.960	800.000	-0.024	0.093
-520.945	-84.057	0.231	0.074
-519.931	27.125	-0.205	-0.172
-518.916	-101.484	-0.169	0.041
-517.902	754.151	0.086	-0.234
-516.887	-200.000	-0.054	0.323
-515.872	-92.836	0.004	-0.001
-514.858	-200.000	-0.008	0.187
-513.843	204.685	-0.080	-0.124
-512.829	-127.254	0.093	0.014
-511.814	-50.200	0.304	-0.144
-510.799	25.205	-0.266	0.221
-509.785	22.892	-0.086	-0.071
-508.770	516.578	-0.122	-0.285
-507.756	-200.000	0.008	0.086
-506.741	800.000	-0.016	-0.048
-505.726	800.000	0.048	-0.155
-504.712	13.797	0.181	-0.141
-503.697	-150.674	-0.081	0.006
-502.683	-200.000	-0.019	0.132
-501.668	-200.000	-0.022	-0.175
-500.653	-200.000	-0.015	0.143
-499.639	-200.000	0.355	0.000
-498.624	-137.318	0.119	-0.013
-497.610	128.744	-0.046	0.059
-496.595	-144.864	0.108	-0.010
-495.581	515.336	0.046	0.106
-494.566	-200.000	0.005	-0.170
-493.551	800.000	-0.058	-0.228
-492.537	-121.456	-0.139	0.023
-491.522	-68.731	0.156	0.060
-490.508	-93.003	0.231	-0.065
-489.493	-72.926	-0.283	0.104
-488.478	-200.000	0.008	0.148
-487.464	-28.426	0.219	0.127
-486.449	98.932	-0.038	-0.044
-485.435	-200.000	-0.037	-0.165
-484.420	-2.402	0.035	-0.025
-483.405	-78.097	0.085	0.029
-482.391	132.813	0.339	0.438
-481.376	-200.000	0.005	-0.213
-480.362	-189.870	-0.237	0.003
-479.347	-200.000	0.034	-0.178
-478.332	-127.183	0.269	-0.039
-477.318	-66.437	0.231	0.092
-476.303	-200.000	0.032	0.354
-475.289	-175.173	-0.255	-0.007
-474.274	-36.420	-0.041	0.022
-473.259	199.036	-0.076	0.117
-472.245	31.549	-0.068	-0.058
-471.230	231.124	-0.147	0.241
-470.216	3.427	0.266	0.194
-469.201	-0.654	0.284	-0.201
-468.186	301.491	-0.057	-0.106
-467.172	53.601	-0.109	0.104
-466.157	-200.000	-0.000	0.214
-465.143	-200.000	-0.005	0.213
-464.128	-200.000	0.031	0.205
-463.113	-22.667	0.214	-0.129
-462.099	-65.507	0.098	0.039
-461.084	58.503	0.208	0.204
-460.070	-74.187	0.168	-0.061
-459.055	-59.720	-0.239	-0.102
-458.040	369.259	-0.171	-0.346
-457.026	-128.847	0.138	0.019
-456.011	-200.000	0.016	0.110
-454.997	73.720	-0.133	0.139
-453.982	165.357	0.186	0.263
-452.968	53.600	-0.278	-0.266
-451.953	-24.604	-0.260	-0.154
-450.938	-177.525	0.082	0.002
-449.924	311.975	0.064	-0.120
-448.909	-146.169	-0.207	0.018
-447.895	-159.095	-0.168	-0.009
-446.880	-200.000	-0.010	-0.096
-445.865	800.000	-0.041	0.172
-444.851	-104.695	-0.282	0.065
-443.836	270.353	0.055	0.096
-442.822	110.430	0.060	-0.072
-441.807	800.000	-0.046	0.186
-440.792	-29.076	0.190	-0.109
-439.778	800.000	0.038	-0.130
-438.763	-91.171	-0.122	0.035
-437.749	0.408	0.188	-0.134
-436.734	-200.000	0.000	0.070
-435.719	7.865	-0.024	0.018
-434.705	-74.822	0.120	0.043
-433.690	179.262	-0.096	-0.140
-432.676	-161.538	0.039	0.002
-431.661	-121.432	0.212	0.035
-430.646	-200.000	-0.007	-0.097
-429.632	-120.550	-0.082	-0.014
-428.617	46.584	-0.111	-0.103
-427.603	-104.570	-0.039	0.009
-426.588	-55.668	-0.113	0.050
-425.573	-136.330	-0.356	-0.041
-424.559	-200.000	0.001	0.035
-423.544	19.270	-0.105	-0.084
-422.530	-200.000	-0.029	0.348
-421.515	128.404	-0.221	-0.280
-420.500	325.227	-0.043	-0.082
-419.486	-200.000	-0.025	0.118
-418.471	8.025	-0.160	0.120
-417.457	-200.000	0.045	-0.206
-416.442	-40.704	0.247	-0.128
-415.428	-166.307	-0.043	0.002
-414.413	-76.692	-0.100	-0.035
-413.398	88.343	-0.295	0.327
-412.384	-93.665	0.387	-0.106
-411.369	-96.318	0.045	-0.012
-410.355	536.537	-0.040	-0.095
-409.340	-200.000	-0.006	-0.128
-408.325	-29.966	-0.213	0.121
-407.311	-127.931	-0.114	-0.016
-406.296	45.926	0.167	-0.154
-405.282	-107.950	0.218	-0.047
-404.267	727.754	-0.085	0.225
-403.252	331.897	-0.139	0.268
-402.238	-55.339	0.138	0.062
-401.223	229.120	-0.093	-0.152
-400.209	-39.727	-0.216	0.113
-399.194	800.000	-0.097	-0.399
-398.179	154.047	-0.072	0.099
-397.165	-139.432	0.202	0.022
-396.150	-200.000	-0.009	-0.333
-395.136	-179.737	-0.186	-0.004
-394.121	-89.898	-0.128	0.037
-393.106	23.628	0.187	0.153
-392.092	32.875	-0.100	0.086
-391.077	485.566	0.187	-0.424
-390.063	11.035	-0.187	-0.143
-389.048	-92.407	0.176	0.049
-388.033	39.380	0.244	-0.218
-387.019	-55.884	-0.260	-0.116
-386.004	494.259	-0.073	0.166
-384.990	140.508	0.093	0.123
-383.975	123.705	0.206	0.257
-382.960	7.182	0.028	0.020
-381.946	31.793	0.188	0.161
-380.931	-30.013	-0.394	-0.223
-379.917	-139.322	0.058	0.006
-378.902	145.799	0.065	-0.087
-377.888	800.000	-0.058	-0.170
-376.873	184.761	-0.128	0.189
-375.858	137.356	-0.047	-0.062
-374.844	173.988	-0.067	0.097
-373.829	15.641	0.095	0.074
-372.815	-200.000	-0.034	0.280
-371.800	-200.000	0.005	-0.339
-370.785	-193.298	0.118	-0.001
-369.771	-123.442	-0.480	-0.076
-368.756	800.000	0.105	0.306
-367.742	-77.770	0.234	0.081
-366.727	800.000	0.114	0.317
-365.712	113.546	-0.265	0.320
-364.698	-99.137	0.319	0.080
-363.683	800.000	0.071	-0.243
-362.669	273.456	-0.201	-0.353
-361.654	521.638	0.111	-0.260
-360.639	63.925	0.105	-0.106
-359.625	709.960	-0.080	0.210
-358.610	394.201	-0.090	0.186
-357.596	63.050	-0.168	0.168
-356.581	-70.678	-0.177	0.066
-355.566	26.318	0.220	0.182
-354.552	298.965	-0.007	-0.012
-353.537	470.744	-0.093	-0.207
-352.523	800.000	-0.013	0.053
-351.508	168.618	0.165	-0.234
-350.493	-97.249	-0.259	0.067
-349.479	-47.673	0.221	-0.107
-348.464	56.949	-0.059	-0.057
-347.450	-200.000	0.056	-0.326
-346.435	168.352	-0.119	-0.169
-345.420	-1.199	-0.067	0.047
-344.406	32.777	0.134	-0.115
-343.391	101.840	0.067	0.078
-342.377	-200.000	-0.003	-0.111
-341.362	-7.112	0.332	0.224
-340.348	-0.933	0.096	0.067
-339.333	73.552	-0.172	-0.179
-338.318	109.977	0.132	-0.157
-337.304	800.000	0.053	0.152
-336.289	132.336	0.106	0.136
-335.275	-143.931	-0.056	0.005
-334.260	29.796	0.040	0.034
-333.245	-13.805	-0.172	-0.110
-332.231	800.000	0.108	-0.344
-331.216	38.493	-0.047	0.042
-330.202	165.441	-0.169	-0.238
-329.187	192.001	0.024	0.036
-328.172	800.000	-0.091	-0.317
-327.158	-200.000	0.016	-0.204
-326.143	-33.979	-0.171	0.094
-325.129	-91.720	-0.203	0.057
-324.114	-110.915	-0.150	0.031
-323.099	-25.779	0.217	-0.127
-322.085	492.954	0.026	-0.060
-321.070	-73.499	0.132	-0.048
-320.056	-200.000	-0.024	0.457
-319.041	-200.000	-0.020	-0.174
-318.026	429.950	-0.180	-0.387
-317.012	-103.998	-0.197	-0.046
-315.997	64.609	-0.179	-0.179
-314.983	-143.182	-0.170	-0.016
-313.968	800.000	0.037	-0.148
-312.953	800.000	-0.101	-0.339
-311.939	296.207	-0.128	-0.233
-310.924	207.953	0.149	0.231
-309.910	800.000	0.014	-0.048
-308.895	-70.129	-0.165	-0.062
-307.880	800.000	-0.056	-0.228
-306.866	194.739	0.087	0.131
-305.851	800.000	0.051	0.206
-304.837	-200.000	-0.048	-0.238
-303.822	282.550	-0.090	0.160
-302.807	-36.862	0.093	-0.049
-301.793	-17.694	-0.164	-0.103
-300.778	-123.773	-0.290	-0.045
-299.764	67.927	0.090	0.092
-298.749	363.461	0.079	0.158
-297.735	-28.678	-0.324	0.185
-296.720	-4.005	-0.130	0.089
-295.705	131.860	0.292	0.373
-294.691	-71.254	0.034	-0.013
-293.676	18.312	-0.044	0.035
-292.662	96.390	-0.263	-0.299
-291.647	-73.560	0.318	0.115
-290.632	800.000	0.133	-0.375
-289.618	-73.453	-0.136	-0.049
-288.603	64.448	-0.106	0.106
-287.589	-83.185	0.164	0.052
-286.574	307.517	0.178	0.330
-285.559	242.796	-0.185	0.307
-284.545	1.844	-0.107	0.077
-283.530	-200.000	-0.211	-0.001
-282.516	50.625	0.069	0.065
-281.501	313.103	0.076	0.142
-280.486	800.000	0.109	0.370
-279.472	-77.700	0.086	-0.030
-278.457	74.987	0.084	-0.087
-277.443	153.926	0.234	0.318
-276.428	800.000	0.041	-0.113
-275.413	58.520	0.227	-0.221
-274.399	62.045	-0.252	-0.250
-273.384	-200.000	-0.000	0.186
-272.370	-200.000	-0.045	0.225
-271.355	27.387	0.245	0.204
-270.340	187.814	-0.077	-0.115
-269.326	800.000	0.111	0.312
-268.311	97.749	0.137	0.157
-267.297	-200.000	0.009	0.087
-266.282	-97.437	-0.271	0.070
-265.267	-95.661	0.043	0.011
-264.253	-118.843	0.144	0.025
-263.238	800.000	-0.075	0.278
-262.224	300.260	-0.033	0.060
-261.209	168.981	-0.180	-0.255
-260.195	56.055	-0.347	0.334
-259.180	36.368	0.115	-0.101
-258.165	-200.000	-0.000	0.162
-257.151	-99.429	-0.118	-0.030
-256.136	-60.680	-0.099	0.042
-255.122	800.000	-0.105	-0.294
-254.107	-122.144	0.057	0.009
-253.092	-13.717	-0.185	-0.119
-252.078	-25.314	-0.317	0.186
-251.063	800.000	-0.045	0.149
-250.049	-144.848	-0.070	0.006
-249.034	16.017	-0.273	-0.213
-248.019	800.000	-0.086	-0.331
-247.005	516.896	-0.189	-0.438
-245.990	20.098	0.229	0.183
-244.976	363.508	0.071	0.141
-243.961	89.926	-0.093	0.103
-242.946	-200.000	0.064	0.310
-241.932	-168.415	0.397	0.015
-240.917	15.098	-0.217	0.168
-239.903	800.000	0.050	0.197
-238.888	-120.138	-0.274	-0.046
-237.873	-112.620	0.147	-0.029
-236.859	800.000	-0.067	0.283
-235.844	616.727	0.101	0.251
-234.830	-200.000	-0.005	-0.063
-233.815	257.774	0.251	0.428
-232.800	207.988	0.076	-0.117
-231.786	21.055	-0.094	0.075
-230.771	139.604	0.091	0.119
-229.757	311.516	0.117	-0.216
-228.742	-51.883	-0.078	-0.036
-227.727	144.269	-0.198	0.261
-226.713	375.120	-0.206	0.415
-225.698	49.320	0.149	0.139
-224.684	-200.000	0.015	0.065
-223.669	197.856	-0.147	0.222
-222.655	205.556	-0.074	0.113
-221.640	194.994	0.117	0.175
-220.625	-200.000	0.035	-0.244
-219.611	653.443	0.083	0.209
-218.596	800.000	-0.033	0.112
-217.582	-87.514	0.232	-0.070
-216.567	-7.642	0.166	-0.111
-215.552	77.258	0.075	-0.079
-214.538	167.275	-0.118	-0.165
-213.523	-71.167	-0.138	0.051
-212.509	13.303	0.176	0.135
-211.494	-200.000	-0.097	0.464
-210.479	73.733	-0.108	-0.112
-209.465	800.000	-0.037	-0.155
-208.450	299.867	0.199	0.363
-207.436	-37.840	-0.180	-0.095
-206.421	800.000	0.034	0.122
-205.406	-113.601	-0.057	0.011
-204.392	473.458	0.163	0.363
-203.377	-200.000	0.012	-0.097
-202.363	-3.998	0.143	0.098
-201.348	-67.276	0.110	0.043
-200.333	-62.661	-0.018	-0.008
-199.319	-53.096	0.236	-0.107
-198.304	197.581	0.223	0.336
-197.290	-117.235	-0.510	-0.092
-196.275	34.087	-0.230	0.198
-195.260	-200.000	0.003	0.129
-194.246	2.186	0.284	-0.203
-193.231	-86.180	0.373	0.114
-192.217	-200.000	-0.037	-0.164
-191.202	-112.466	0.281	0.055
-190.187	-12.587	0.208	-0.134
-189.173	213.819	0.016	-0.024
-188.158	302.862	0.081	-0.148
-187.144	616.891	0.058	0.143
-186.129	-51.315	-0.213	0.099
-185.114	-200.000	-0.050	0.000
-184.100	-29.587	0.476	0.269
-183.085	-162.338	0.331	0.016
-182.071	264.630	0.038	-0.065
-181.056	-85.678	0.100	-0.031
-180.042	-162.053	-0.078	0.004
-179.027	-10.818	0.308	0.201
-178.012	230.718	-0.141	-0.227
-176.998	-39.532	0.088	-0.046
-175.983	-40.958	-0.131	0.067
-174.969	-137.740	-0.252	0.028
-173.954	23.952	0.119	0.097
-172.939	139.040	-0.035	0.045
-171.925	5.600	-0.052	0.038
-170.910	194.758	-0.067	-0.101
-169.896	82.775	0.019	-0.020
-168.881	-31.142	0.025	0.014
-167.866	800.000	-0.088	-0.374
-166.852	344.629	-0.095	0.185
-165.837	-200.000	0.055	0.321
-164.823	220.853	-0.139	-0.220
-163.808	-200.000	0.108	0.000
-162.793	-69.538	-0.165	0.063
-161.779	-167.585	0.536	-0.021
-160.764	95.035	0.070	-0.078
-159.750	83.588	-0.153	0.165
-158.735	116.892	-0.031	-0.038
-157.720	14.715	0.145	0.112
-156.706	88.393	-0.188	-0.206
-155.691	-20.370	0.160	-0.097
-154.677	86.498	0.093	-0.101
-153.662	781.502	-0.020	-0.055
-152.647	561.885	-0.119	-0.285
-151.633	800.000	0.026	0.090
-150.618	-84.247	-0.335	0.105
-149.604	-200.000	0.014	0.319
-148.589	82.859	0.223	-0.239
-147.574	-78.034	0.212	-0.072
-146.560	800.000	-0.092	-0.324
-145.545	76.938	-0.074	0.078
-144.531	-140.621	-0.143	0.015
-143.516	-200.000	-0.078	-0.494
-142.502	-65.848	0.394	0.155
-141.487	332.261	-0.057	-0.108
-140.472	-186.238	0.357	-0.005
-139.458	800.000	-0.042	-0.130
-138.443	-133.595	-0.111	0.014
-137.429	96.272	-0.151	-0.170
-136.414	-200.000	-0.009	-0.230
-135.399	-104.290	-0.240	-0.055
-134.385	85.223	0.210	0.228
-133.370	513.188	-0.063	0.146
-132.356	279.341	-0.100	0.176
-131.341	86.853	-0.212	0.231
-130.326	-59.097	-0.095	0.040
-129.312	-84.847	0.248	-0.077
-128.297	-146.368	0.257	0.022
-127.283	-200.000	0.022	-0.096
-126.268	-200.000	0.034	-0.156
-125.253	-140.239	-0.313	-0.032
-124.239	-12.411	-0.190	0.122
-123.224	-200.000	0.036	-0.181
-122.210	170.969	0.171	-0.242
-121.195	-123.988	0.152	-0.024
