DTS Sentinel unit serial number:	SN413079Multiplexer serial number:	ORYXHardware model number:	OX4-SRSoftware version number:	ORYX F/W v4.00 Oryx Data Collector v3.7.2.0data status	okinstallation	princeton_trtdifferential loss correction	single-endedforward channel	channel 4reverse channel	N/Adate	2019/09/11time	01:31:11forward acquisition time	60.00reverse acquisition time	0.00gamma	496.2192k internal	0.2317k external	0.2317temperature offset calibration	0.9952default loss term (dB/km)	0.3790temperature slope calibration	1.0000multiplexer offset coefficient	1.0000multiplexer slope coefficient	1.0000fibre end	0.00T internal ref (°C)	29.12T ext. ref 1 (°C)	-0.29T ext. ref 2 (°C)	23.35length (m)	temperature (°C)	Stokes	anti-Stokes-747.200	162.549	-0.065	0.092
-746.185	397.006	0.114	0.242
-745.171	800.000	-0.034	0.134
-744.156	-138.662	-0.170	0.019
-743.142	-19.402	0.077	-0.049
-742.127	-4.024	-0.278	-0.195
-741.112	-200.000	0.014	-0.062
-740.098	157.049	-0.075	0.105
-739.083	557.269	0.134	0.326
-738.069	-57.212	0.070	-0.031
-737.054	-106.283	-0.159	0.036
-736.039	144.788	0.123	-0.167
-735.025	800.000	-0.074	0.219
-734.010	307.362	-0.078	-0.148
-732.996	235.227	-0.057	-0.095
-731.981	-171.730	-0.112	-0.004
-730.966	-56.562	0.089	-0.040
-729.952	104.631	-0.064	0.076
-728.937	-114.664	-0.248	0.048
-727.923	294.822	0.080	-0.148
-726.908	-57.012	-0.092	-0.041
-725.894	800.000	-0.083	-0.255
-724.879	677.555	0.049	0.130
-723.864	5.785	-0.140	-0.104
-722.850	800.000	0.043	-0.156
-721.835	64.171	-0.322	-0.328
-720.821	-200.000	-0.021	-0.366
-719.806	-200.000	0.003	0.130
-718.791	-10.831	0.217	0.145
-717.777	357.789	-0.088	-0.178
-716.762	-36.125	-0.439	-0.240
-715.748	73.440	-0.057	0.061
-714.733	146.676	0.080	0.108
-713.718	-89.228	0.256	-0.076
-712.704	214.299	0.133	0.213
-711.689	461.583	-0.065	0.147
-710.675	-200.000	-0.041	-0.251
-709.660	-55.507	0.396	-0.179
-708.645	187.800	-0.141	0.213
-707.631	576.344	-0.109	0.269
-706.616	-177.668	-0.244	-0.006
-705.602	-11.739	-0.224	-0.149
-704.587	795.852	0.014	0.039
-703.572	-157.812	0.245	-0.015
-702.558	84.756	0.281	-0.311
-701.543	135.478	-0.043	-0.056
-700.529	82.581	-0.076	0.084
-699.514	-136.528	0.394	0.046
-698.499	-8.048	-0.104	-0.071
-697.485	-72.586	0.195	0.073
-696.470	69.663	0.161	-0.168
-695.456	73.385	-0.222	-0.235
-694.441	-200.000	0.028	-0.162
-693.426	175.637	-0.252	0.369
-692.412	-45.189	0.200	0.101
-691.397	-200.000	0.004	0.031
-690.383	24.758	0.111	-0.093
-689.368	-200.000	0.037	0.191
-688.354	-200.000	-0.037	0.374
-687.339	-38.125	-0.108	-0.058
-686.324	-126.308	0.167	0.025
-685.310	-200.000	-0.004	-0.240
-684.295	800.000	-0.117	-0.442
-683.281	103.470	-0.155	-0.183
-682.266	191.652	-0.077	0.116
-681.251	-200.000	0.024	-0.245
-680.237	-200.000	0.012	-0.152
-679.222	-48.780	-0.085	-0.041
-678.208	-170.120	0.342	0.012
-677.193	-84.506	-0.385	-0.123
-676.178	-29.277	0.131	0.076
-675.164	-94.807	-0.174	-0.048
-674.149	56.297	0.189	-0.185
-673.135	-122.383	-0.306	-0.050
-672.120	-24.653	-0.348	-0.209
-671.105	-200.000	0.006	0.098
-670.091	-182.609	0.254	0.005
-669.076	-60.288	-0.084	0.036
-668.062	-18.425	-0.289	0.182
-667.047	-200.000	0.013	-0.075
-666.032	129.974	-0.064	0.083
-665.018	-200.000	0.010	-0.236
-664.003	-200.000	-0.044	-0.282
-662.989	-94.894	-0.097	0.027
-661.974	64.656	0.209	0.212
-660.959	-76.945	-0.165	0.058
-659.945	236.681	0.165	-0.275
-658.930	54.198	0.163	0.159
-657.916	-146.019	-0.134	-0.012
-656.901	-200.000	-0.024	-0.113
-655.886	55.167	0.175	-0.171
-654.872	800.000	-0.133	-0.377
-653.857	-114.610	-0.168	0.033
-652.843	-26.058	-0.214	-0.127
-651.828	2.376	0.119	-0.087
-650.814	196.867	-0.076	-0.117
-649.799	95.009	-0.117	0.135
-648.784	173.899	-0.145	-0.211
-647.770	-200.000	0.016	-0.337
-646.755	-200.000	0.012	-0.131
-645.741	-63.549	0.020	0.008
-644.726	2.006	-0.253	-0.184
-643.711	65.718	-0.036	0.037
-642.697	-86.853	0.382	-0.118
-641.682	257.997	0.157	-0.273
-640.668	800.000	0.082	-0.362
-639.653	220.742	-0.137	-0.222
-638.638	-80.225	-0.075	0.025
-637.624	263.955	0.079	0.138
-636.609	0.088	-0.108	-0.078
-635.595	-200.000	0.001	-0.020
-634.580	90.483	-0.114	-0.129
-633.565	60.576	0.027	-0.027
-632.551	13.194	0.217	0.169
-631.536	169.945	0.324	-0.467
-630.522	34.891	-0.401	-0.353
-629.507	187.227	0.056	0.084
-628.492	-30.316	-0.375	-0.215
-627.478	-82.941	-0.109	-0.035
-626.463	-48.251	-0.180	0.087
-625.449	-105.078	0.092	-0.021
-624.434	-54.767	-0.130	-0.059
-623.419	556.214	-0.047	0.115
-622.405	782.374	0.091	0.252
-621.390	-123.067	-0.203	-0.033
-620.376	57.395	0.234	-0.231
-619.361	-200.000	-0.031	-0.203
-618.346	-137.496	-0.181	-0.021
-617.332	28.937	0.132	0.113
-616.317	-115.151	0.100	-0.019
-615.303	-109.866	-0.457	-0.097
-614.288	-117.040	-0.254	-0.047
-613.273	221.463	0.178	-0.288
-612.259	19.118	-0.199	-0.161
-611.244	367.550	0.040	0.082
-610.230	-61.439	-0.107	-0.045
-609.215	-200.000	-0.002	-0.423
-608.201	-56.350	0.033	0.015
-607.186	131.132	-0.263	0.340
-606.171	-200.000	-0.015	0.119
-605.157	800.000	0.103	0.303
-604.142	-29.426	-0.229	0.132
-603.128	800.000	-0.079	-0.339
-602.113	800.000	-0.077	-0.235
-601.098	800.000	-0.140	0.412
-600.084	19.983	0.244	0.198
-599.069	242.459	0.140	0.236
-598.055	-3.938	-0.076	-0.053
-597.040	35.759	-0.117	-0.104
-596.025	-113.790	0.343	0.067
-595.011	-96.557	-0.502	-0.133
-593.996	-87.742	-0.117	0.036
-592.982	-24.334	-0.160	-0.096
-591.967	-200.000	0.005	0.237
-590.952	-110.225	0.080	0.017
-589.938	316.891	0.250	0.475
-588.923	-122.095	0.206	-0.034
-587.909	-82.100	-0.255	0.084
-586.894	-197.588	-0.368	-0.002
-585.879	-32.659	-0.241	-0.135
-584.865	139.355	0.093	0.124
-583.850	39.723	-0.220	-0.199
-582.836	-140.750	-0.476	-0.049
-581.821	365.244	-0.065	0.132
-580.806	-200.000	-0.031	-0.243
-579.792	71.309	0.047	0.049
-578.777	-110.437	-0.333	0.069
-577.763	-38.299	0.092	-0.049
-576.748	259.026	0.037	0.064
-575.733	-120.693	0.240	0.041
-574.719	800.000	0.051	0.169
-573.704	631.868	0.053	0.135
-572.690	-63.316	-0.096	0.040
-571.675	-200.000	-0.028	-0.159
-570.661	-166.710	-0.447	0.019
-569.646	9.231	0.086	-0.066
-568.631	39.952	-0.249	-0.225
-567.617	168.686	-0.091	-0.130
-566.602	-200.000	0.070	0.360
-565.588	-200.000	0.021	-0.246
-564.573	-164.015	0.109	-0.005
-563.558	-200.000	-0.061	0.410
-562.544	-41.112	0.494	0.257
-561.529	-200.000	-0.033	0.171
-560.515	104.149	-0.357	0.423
-559.500	800.000	-0.024	0.084
-558.485	-33.917	0.171	-0.095
-557.471	172.972	-0.208	0.301
-556.456	-24.816	-0.278	0.166
-555.442	365.060	0.058	0.117
-554.427	-75.889	-0.199	0.071
-553.412	-156.550	-0.273	0.017
-552.398	53.682	-0.070	0.068
-551.383	800.000	-0.048	0.162
-550.369	-87.426	-0.377	0.115
-549.354	122.472	0.076	0.095
-548.339	-35.503	0.220	-0.120
-547.325	255.066	0.074	-0.127
-546.310	726.804	-0.025	-0.066
-545.296	-83.899	0.300	-0.096
-544.281	342.497	-0.074	0.145
-543.266	-30.213	-0.107	-0.061
-542.252	-102.995	0.234	-0.056
-541.237	8.417	-0.246	0.186
-540.223	-126.282	0.257	-0.039
-539.208	23.390	0.191	-0.158
-538.193	12.340	0.091	-0.071
-537.179	-38.265	-0.056	-0.030
-536.164	518.095	0.114	-0.267
-535.150	-166.412	0.249	0.010
-534.135	-80.487	-0.094	-0.031
-533.121	-200.000	0.048	0.336
-532.106	28.376	-0.242	0.206
-531.091	-200.000	0.018	-0.228
-530.077	800.000	0.055	-0.239
-529.062	-84.547	-0.025	-0.008
-528.048	-52.476	-0.127	0.059
-527.033	254.114	0.073	-0.126
-526.018	-145.878	0.379	0.034
-525.004	800.000	0.068	-0.283
-523.989	236.899	-0.073	-0.122
-522.975	-26.459	0.006	0.004
-521.960	-12.492	0.120	0.078
-520.945	-134.087	0.199	0.025
-519.931	246.911	-0.163	-0.276
-518.916	-200.000	0.046	0.304
-517.902	212.903	-0.222	0.351
-516.887	-89.310	0.296	0.088
-515.872	101.875	-0.178	0.209
-514.858	171.179	0.075	-0.109
-513.843	-116.547	0.080	0.015
-512.829	-154.886	0.200	-0.013
-511.814	-55.446	0.267	0.120
-510.799	240.581	0.094	0.157
-509.785	-85.014	-0.014	0.005
-508.770	466.823	0.140	-0.315
-507.756	211.630	0.136	-0.214
-506.741	-200.000	-0.002	-0.310
-505.726	62.061	-0.139	-0.139
-504.712	800.000	-0.050	-0.186
-503.697	-94.538	0.366	-0.100
-502.683	800.000	0.093	-0.314
-501.668	-200.000	-0.034	-0.188
-500.653	8.955	-0.135	-0.102
-499.639	79.441	0.298	0.321
-498.624	-44.308	0.235	0.118
-497.610	800.000	0.066	0.262
-496.595	-149.561	0.192	0.015
-495.581	-147.239	0.369	-0.031
-494.566	-130.424	0.282	-0.038
-493.551	68.802	0.106	0.109
-492.537	-200.000	0.011	-0.144
-491.522	-200.000	-0.007	-0.102
-490.508	752.900	0.140	-0.380
-489.493	270.486	0.059	0.104
-488.478	-70.516	-0.358	-0.136
-487.464	149.769	0.070	-0.095
-486.449	720.977	0.107	-0.285
-485.435	567.006	-0.160	0.389
-484.420	58.523	0.226	0.222
-483.405	-102.998	0.272	0.065
-482.391	63.962	0.216	0.217
-481.376	249.229	-0.280	0.475
-480.362	800.000	0.076	0.306
-479.347	800.000	-0.101	0.324
-478.332	-169.556	0.111	-0.004
-477.318	-200.000	-0.101	0.000
-476.303	113.566	-0.185	-0.226
-475.289	-83.278	-0.176	0.057
-474.274	-171.348	0.189	0.006
-473.259	-63.441	-0.376	-0.155
-472.245	281.284	-0.149	-0.268
-471.230	-200.000	-0.072	-0.455
-470.216	80.404	-0.082	0.089
-469.201	-14.771	0.143	-0.092
-468.186	-79.301	0.206	-0.070
-467.172	-200.000	0.046	-0.231
-466.157	-25.744	0.297	0.175
-465.143	-200.000	-0.011	0.152
-464.128	800.000	-0.054	0.209
-463.113	87.722	0.073	0.081
-462.099	104.672	0.303	0.358
-461.084	10.424	-0.058	0.044
-460.070	113.504	0.145	-0.176
-459.055	59.439	0.145	0.143
-458.040	-114.884	0.137	-0.026
-457.026	24.542	0.303	-0.251
-456.011	-82.922	-0.203	-0.066
-454.997	-93.425	0.022	-0.006
-453.982	-94.958	-0.183	-0.050
-452.968	363.279	0.165	0.332
-451.953	800.000	-0.015	0.065
-450.938	-153.487	0.082	-0.006
-449.924	800.000	0.053	0.197
-448.909	10.855	0.269	0.206
-447.895	763.676	0.099	-0.269
-446.880	-200.000	0.047	0.234
-445.865	-16.612	0.057	-0.036
-444.851	-68.303	-0.229	-0.089
-443.836	-200.000	-0.028	0.327
-442.822	-119.796	0.202	0.035
-441.807	310.913	-0.155	-0.290
-440.792	11.115	0.092	-0.071
-439.778	-200.000	0.004	0.051
-438.763	-200.000	-0.008	-0.201
-437.749	-31.904	-0.161	-0.090
-436.734	198.599	0.137	0.210
-435.719	-150.208	0.322	-0.025
-434.705	296.189	0.154	-0.282
-433.690	256.662	0.072	-0.124
-432.676	-15.854	0.083	-0.053
-431.661	-200.000	-0.034	-0.184
-430.646	124.982	-0.140	0.177
-429.632	-27.302	0.184	-0.107
-428.617	472.290	0.075	-0.168
-427.603	-5.811	0.169	0.116
-426.588	649.373	0.158	0.405
-425.573	39.680	0.227	0.204
-424.559	-16.280	0.068	-0.043
-423.544	-8.859	-0.319	0.214
-422.530	-75.542	-0.184	-0.065
-421.515	12.989	0.227	0.175
-420.500	5.668	-0.288	0.213
-419.486	-200.000	-0.003	-0.327
-418.471	-13.600	0.069	-0.045
-417.457	-107.396	0.244	0.054
-416.442	-13.219	0.243	-0.157
-415.428	800.000	-0.040	-0.156
-414.413	734.413	-0.049	0.130
-413.398	800.000	-0.039	-0.149
-412.384	-200.000	-0.001	-0.178
-411.369	800.000	-0.181	0.522
-410.355	-134.906	-0.263	-0.032
-409.340	-136.762	0.361	-0.042
-408.325	355.459	-0.140	-0.279
-407.311	800.000	-0.045	0.184
-406.296	-37.052	0.102	0.055
-405.282	800.000	0.038	0.132
-404.267	643.570	0.061	-0.157
-403.252	-29.224	-0.214	-0.123
-402.238	36.779	0.128	-0.113
-401.223	800.000	0.083	-0.297
-400.209	-18.911	0.201	-0.125
-399.194	800.000	0.113	-0.364
-398.179	782.572	-0.151	-0.414
-397.165	-200.000	0.017	-0.082
-396.150	-159.983	0.281	-0.015
-395.136	476.999	-0.133	0.301
-394.121	-159.382	0.203	-0.011
-393.106	-42.520	0.106	-0.054
-392.092	303.915	0.042	-0.078
-391.077	-34.063	-0.329	0.180
-390.063	7.327	-0.339	0.253
-389.048	352.974	0.112	0.223
-388.033	49.701	-0.144	0.136
-387.019	67.796	0.260	0.265
-386.004	-200.000	-0.081	-0.671
-384.990	-114.892	-0.531	-0.101
-383.975	13.440	0.132	-0.102
-382.960	800.000	-0.055	0.165
-381.946	-62.808	0.356	-0.147
-380.931	17.354	-0.140	-0.111
-379.917	-200.000	0.010	-0.321
-378.902	-60.518	-0.304	-0.129
-377.888	-116.806	-0.260	0.048
-376.873	479.719	0.063	-0.143
-375.858	54.328	0.084	-0.081
-374.844	-8.104	-0.026	0.017
-373.829	-86.062	0.272	-0.084
-372.815	-183.629	-0.154	0.003
-371.800	-200.000	-0.011	-0.259
-370.785	-52.507	0.341	-0.157
-369.771	-200.000	-0.022	-0.221
-368.756	-110.966	-0.365	-0.075
-367.742	151.301	-0.211	0.286
-366.727	-10.337	0.048	-0.032
-365.712	-200.000	-0.054	0.250
-364.698	97.785	-0.371	-0.426
-363.683	-171.317	-0.034	0.001
-362.669	-169.625	-0.148	-0.005
-361.654	31.702	-0.208	-0.178
-360.639	800.000	0.065	0.239
-359.625	361.262	-0.029	-0.058
-358.610	-19.974	-0.154	-0.095
-357.596	100.535	-0.253	0.293
-356.581	240.695	-0.079	-0.131
-355.566	-127.612	0.183	0.026
-354.552	800.000	-0.107	-0.337
-353.537	139.544	-0.111	0.146
-352.523	229.025	-0.067	-0.110
-351.508	-165.436	0.365	-0.016
-350.493	367.279	-0.098	0.198
-349.479	-52.175	0.238	-0.110
-348.464	-155.956	0.358	0.023
-347.450	35.871	0.167	-0.147
-346.435	166.932	-0.085	0.120
-345.420	-35.132	-0.095	0.051
-344.406	6.628	0.070	-0.052
-343.391	122.502	-0.074	0.093
-342.377	441.762	0.125	0.273
-341.362	-117.882	-0.123	-0.022
-340.348	-83.737	-0.397	-0.126
-339.333	-62.956	-0.098	0.040
-338.318	108.570	-0.100	-0.119
-337.304	-111.257	0.238	0.048
-336.289	-145.116	0.339	0.031
-335.275	-105.794	-0.259	0.058
-334.260	-200.000	0.010	0.212
-333.245	-130.787	-0.159	-0.021
-332.231	357.103	-0.028	0.055
-331.216	-200.000	0.000	-0.063
-330.202	-200.000	-0.006	-0.160
-329.187	800.000	0.102	0.358
-328.172	516.738	-0.060	0.140
-327.158	-83.542	0.247	-0.079
-326.143	38.634	0.072	0.064
-325.129	700.599	-0.092	-0.242
-324.114	-200.000	0.008	-0.077
-323.099	51.524	0.131	-0.124
-322.085	-52.352	-0.296	0.137
-321.070	-180.066	0.166	0.003
-320.056	800.000	0.079	0.261
-319.041	162.322	0.307	-0.429
-318.026	-126.712	-0.290	-0.043
-317.012	-5.414	0.067	-0.046
-315.997	-48.268	0.084	-0.040
-314.983	-200.000	-0.080	-0.386
-313.968	-200.000	-0.032	0.173
-312.953	28.169	0.128	0.108
-311.939	-200.000	-0.007	-0.089
-310.924	-56.005	0.151	-0.067
-309.910	800.000	-0.086	0.281
-308.895	-200.000	0.014	0.132
-307.880	23.818	0.057	0.047
-306.866	423.833	0.086	0.185
-305.851	-200.000	-0.022	-0.110
-304.837	187.029	-0.105	0.156
-303.822	-200.000	-0.023	0.128
-302.807	-200.000	0.038	0.260
-301.793	10.334	-0.236	-0.179
-300.778	70.411	-0.053	-0.054
-299.764	261.390	0.006	0.011
-298.749	-200.000	0.099	-0.000
-297.735	317.723	0.067	0.125
-296.720	98.016	-0.164	0.188
-295.705	568.785	0.094	0.228
-294.691	-174.069	-0.165	-0.005
-293.676	452.109	-0.024	0.053
-292.662	-123.957	-0.167	-0.026
-291.647	137.404	-0.159	-0.207
-290.632	107.302	-0.236	-0.280
-289.618	-121.722	0.153	-0.025
-288.603	181.492	0.182	-0.267
-287.589	-200.000	-0.015	0.115
-286.574	-4.036	0.202	0.139
-285.559	-131.730	-0.159	-0.021
-284.545	-200.000	0.003	-0.216
-283.530	-2.452	0.291	0.203
-282.516	76.827	-0.154	0.162
-281.501	-172.532	0.133	-0.004
-280.486	-55.103	-0.186	0.083
-279.472	-81.513	0.181	-0.059
-278.457	-86.951	0.014	-0.004
-277.443	-111.736	0.135	0.027
-276.428	74.681	-0.113	-0.119
-275.413	192.632	0.083	-0.125
-274.399	120.264	0.159	0.196
-273.384	138.511	-0.047	0.061
-272.370	105.104	0.112	0.132
-271.355	36.912	0.242	-0.212
-270.340	800.000	0.037	-0.146
-269.326	268.914	-0.062	-0.108
-268.311	42.978	-0.213	-0.193
-267.297	101.468	0.051	-0.059
-266.282	-163.697	0.075	0.003
-265.267	800.000	0.081	0.298
-264.253	-40.354	0.177	0.092
-263.238	-45.802	0.100	-0.049
-262.224	-5.015	0.055	0.038
-261.209	22.457	0.268	-0.218
-260.195	798.766	0.069	0.188
-259.180	-200.000	-0.016	-0.079
-258.165	-117.905	0.290	-0.052
-257.151	-200.000	0.013	0.331
-256.136	-16.924	0.311	-0.195
-255.122	-200.000	-0.010	-0.289
-254.107	-156.611	-0.319	0.020
-253.092	800.000	0.035	0.136
-252.078	227.629	-0.080	0.129
-251.063	-200.000	0.012	-0.283
-250.049	-123.771	-0.345	-0.054
-249.034	-179.980	0.156	-0.003
-248.019	99.107	-0.104	-0.119
-247.005	-74.140	0.196	-0.071
-245.990	-67.910	-0.146	-0.057
-244.976	-4.314	-0.122	0.084
-243.961	-81.272	0.016	0.005
-242.946	-64.370	-0.371	0.150
-241.932	43.185	0.341	0.309
-240.917	-171.631	-0.221	0.007
-239.903	120.718	-0.147	0.182
-238.888	-94.068	-0.381	0.104
-237.873	11.998	-0.092	-0.070
-236.859	-200.000	-0.014	0.233
-235.844	46.332	0.216	-0.198
-234.830	-135.587	-0.337	0.040
-233.815	-148.032	-0.487	0.040
-232.800	265.275	0.090	0.156
-231.786	-200.000	0.111	0.551
-230.771	800.000	0.074	-0.204
-229.757	59.001	-0.097	0.095
-228.742	458.296	-0.246	-0.543
-227.727	800.000	0.042	-0.153
-226.713	-14.765	0.145	0.093
-225.698	-200.000	-0.012	-0.180
-224.684	162.521	0.070	0.097
-223.669	51.635	-0.167	-0.157
-222.655	-200.000	-0.069	-0.345
-221.640	14.034	0.132	-0.102
-220.625	-89.223	0.130	-0.038
-219.611	-160.009	0.363	-0.020
-218.596	235.800	-0.122	-0.201
-217.582	-19.568	0.089	0.054
-216.567	-142.039	-0.286	-0.028
-215.552	-70.998	-0.255	-0.095
-214.538	-200.000	0.026	-0.195
-213.523	800.000	0.096	-0.285
-212.509	-82.335	0.066	0.021
-211.494	380.567	0.111	0.227
-210.479	88.577	0.170	0.187
-209.465	-149.183	-0.231	-0.018
-208.450	800.000	-0.123	0.345
-207.436	45.344	-0.140	-0.128
-206.421	-200.000	0.019	0.138
-205.406	527.019	-0.051	-0.120
-204.392	-84.167	0.312	0.098
-203.377	45.744	-0.203	0.186
-202.363	83.880	-0.246	-0.267
-201.348	151.443	0.280	0.378
-200.333	-200.000	0.043	0.215
-199.319	-64.871	-0.312	-0.125
-198.304	-200.000	0.009	-0.067
-197.290	-73.190	0.135	0.049
-196.275	-111.815	0.385	-0.077
-195.260	-129.123	0.224	0.031
-194.246	231.985	-0.132	0.214
-193.231	125.934	-0.069	0.086
-192.217	622.814	-0.227	0.565
-191.202	517.263	0.068	-0.158
-190.187	15.267	0.219	0.170
-189.173	53.364	0.291	0.277
-188.158	132.582	0.353	0.450
-187.144	-109.535	-0.207	-0.043
-186.129	-25.860	0.222	0.129
-185.114	-139.199	0.246	0.026
-184.100	-115.932	0.275	0.051
-183.085	85.239	-0.118	-0.128
-182.071	-17.863	0.322	-0.200
-181.056	-124.373	0.086	-0.013
-180.042	-2.375	0.038	-0.026
-179.027	-39.043	-0.464	-0.242
-178.012	-6.121	-0.586	-0.396
-176.998	-179.606	-0.140	-0.003
-175.983	-132.825	-0.228	-0.029
-174.969	243.136	-0.121	-0.202
-173.954	-93.168	-0.489	-0.135
-172.939	-4.510	0.246	0.168
-171.925	-39.838	-0.157	-0.081
-170.910	-49.538	-0.163	-0.077
-169.896	-91.175	-0.075	0.021
-168.881	800.000	-0.104	0.356
-167.866	-173.094	0.288	-0.009
-166.852	-200.000	0.149	0.646
-165.837	-200.000	-0.002	0.186
-164.823	-200.000	0.033	0.266
-163.808	-93.870	-0.251	0.068
-162.793	310.846	-0.084	0.156
-161.779	187.520	0.159	-0.234
-160.764	-63.385	0.162	0.066
-159.750	-12.282	-0.317	-0.205
-158.735	-173.179	0.365	0.011
-157.720	10.584	-0.191	0.144
-156.706	181.201	-0.070	-0.102
-155.691	746.780	0.120	0.319
-154.677	-200.000	-0.051	-0.308
-153.662	215.531	0.213	0.335
-152.647	800.000	0.035	0.116
-151.633	142.521	-0.153	0.202
-150.618	193.515	-0.154	-0.231
-149.604	-200.000	0.020	-0.130
-148.589	223.261	0.136	-0.216
-147.574	28.114	0.173	-0.144
-146.560	120.599	0.114	0.140
-145.545	-69.619	-0.055	-0.021
-144.531	-9.982	0.477	0.314
-143.516	-158.856	-0.186	0.010
-142.502	444.975	-0.047	-0.101
-141.487	468.500	-0.095	-0.212
-140.472	-72.084	-0.049	-0.018
-139.458	-20.684	-0.118	0.072
-138.443	-23.376	0.036	-0.021
-137.429	-200.000	-0.045	-0.230
-136.414	-43.924	-0.040	-0.020
-135.399	-200.000	0.036	-0.207
-134.385	-129.584	-0.124	-0.017
-133.370	155.500	0.059	0.080
-132.356	-200.000	0.047	-0.207
-131.341	-76.639	-0.245	0.085
-130.326	-45.509	0.218	0.107
-129.312	-129.066	-0.212	-0.029
-128.297	-79.733	-0.287	0.096
-127.283	694.136	0.108	-0.279
-126.268	-186.396	-0.317	-0.005
-125.253	-66.029	-0.348	-0.137
-124.239	-161.029	0.125	0.006
-123.224	281.545	0.083	-0.146
-122.210	-100.410	0.209	0.051
