DTS Sentinel unit serial number:	SN413079Multiplexer serial number:	ORYXHardware model number:	OX4-SRSoftware version number:	ORYX F/W v4.00 Oryx Data Collector v3.7.2.0data status	okinstallation	princeton_trtdifferential loss correction	single-endedforward channel	channel 4reverse channel	N/Adate	2019/09/14time	06:37:35forward acquisition time	60.00reverse acquisition time	0.00gamma	496.2192k internal	0.2324k external	0.2324temperature offset calibration	1.0135default loss term (dB/km)	0.3790temperature slope calibration	1.0000multiplexer offset coefficient	1.0000multiplexer slope coefficient	1.0000fibre end	0.00T internal ref (°C)	26.37T ext. ref 1 (°C)	3.41T ext. ref 2 (°C)	20.43length (m)	temperature (°C)	Stokes	anti-Stokes-747.200	-70.381	0.030	0.011
-746.185	-59.810	-0.392	-0.170
-745.171	61.657	0.249	-0.250
-744.156	199.589	0.090	-0.139
-743.142	329.672	-0.059	0.115
-742.127	5.776	-0.304	0.227
-741.112	-105.146	-0.159	-0.037
-740.098	-19.725	-0.154	0.096
-739.083	668.445	0.135	0.353
-738.069	178.511	-0.112	0.165
-737.054	507.280	-0.071	-0.166
-736.039	-103.173	-0.374	0.089
-735.025	-174.690	0.302	0.009
-734.010	151.195	0.074	-0.101
-732.996	-36.522	-0.091	0.049
-731.981	-159.264	-0.387	0.022
-730.966	-69.681	-0.268	-0.104
-729.952	519.924	0.138	-0.326
-728.937	236.646	0.165	-0.275
-727.923	800.000	-0.057	0.228
-726.908	-127.566	-0.458	0.067
-725.894	-66.645	-0.021	0.008
-724.879	-35.559	0.169	0.092
-723.864	-165.997	0.165	0.007
-722.850	800.000	0.058	-0.248
-721.835	187.104	-0.137	0.206
-720.821	-102.542	-0.040	0.010
-719.806	-65.989	-0.140	-0.056
-718.791	199.693	-0.072	-0.112
-717.777	800.000	-0.036	0.127
-716.762	-30.976	-0.267	0.152
-715.748	-200.000	0.048	-0.334
-714.733	237.362	-0.120	0.201
-713.718	-36.272	-0.113	-0.062
-712.704	-50.295	-0.288	-0.137
-711.689	71.261	-0.126	0.131
-710.675	-73.494	0.044	0.016
-709.660	800.000	0.128	-0.371
-708.645	179.829	-0.175	-0.259
-707.631	-163.808	-0.329	0.016
-706.616	-200.000	-0.098	-0.456
-705.602	59.603	0.055	0.055
-704.587	10.907	-0.032	0.025
-703.572	12.088	0.110	0.085
-702.558	-94.527	0.189	-0.052
-701.543	-68.484	0.316	0.124
-700.529	-2.371	-0.107	-0.076
-699.514	-104.994	-0.204	-0.047
-698.499	-135.519	0.218	-0.026
-697.485	-69.223	0.272	-0.105
-696.470	-38.757	-0.070	-0.037
-695.456	48.722	-0.250	-0.237
-694.441	-48.212	-0.195	0.095
-693.426	-154.647	0.031	0.002
-692.412	17.199	0.074	-0.059
-691.397	41.955	0.123	-0.112
-690.383	-200.000	0.026	-0.446
-689.368	91.060	0.182	-0.206
-688.354	-132.444	-0.223	0.029
-687.339	-17.867	-0.064	-0.040
-686.324	-102.046	-0.129	-0.031
-685.310	-200.000	-0.001	-0.180
-684.295	-83.354	-0.269	-0.087
-683.281	800.000	-0.033	0.095
-682.266	-200.000	0.017	-0.127
-681.251	-200.000	-0.012	0.155
-680.237	-59.935	0.141	-0.061
-679.222	-54.867	-0.372	-0.169
-678.208	715.862	0.055	-0.146
-677.193	405.345	0.049	-0.104
-676.178	297.456	0.115	-0.213
-675.164	800.000	-0.074	-0.275
-674.149	-120.344	-0.362	0.062
-673.135	-24.120	-0.218	0.131
-672.120	-200.000	-0.018	-0.221
-671.105	399.637	-0.108	-0.228
-670.091	-189.193	-0.430	-0.005
-669.076	-27.720	0.265	0.155
-668.062	-111.665	-0.361	-0.074
-667.047	19.338	-0.309	0.250
-666.032	496.343	-0.117	0.271
-665.018	-200.000	0.004	-0.040
-664.003	106.815	0.064	0.076
-662.989	72.180	-0.210	0.220
-661.974	-200.000	-0.008	-0.125
-660.959	6.474	-0.126	0.094
-659.945	800.000	-0.034	0.132
-658.930	-22.729	0.040	0.024
-657.916	131.674	-0.082	0.106
-656.901	220.009	-0.052	-0.084
-655.886	22.541	0.177	0.146
-654.872	-12.334	0.172	0.113
-653.857	-30.554	-0.127	-0.072
-652.843	-116.415	0.038	-0.007
-651.828	-200.000	0.013	-0.123
-650.814	-197.536	-0.213	0.001
-649.799	34.977	-0.225	-0.198
-648.784	105.293	-0.163	-0.194
-647.770	-200.000	0.081	-0.544
-646.755	-89.262	-0.182	0.054
-645.741	270.909	0.232	0.412
-644.726	-102.943	-0.191	-0.046
-643.711	584.206	-0.132	-0.327
-642.697	-94.036	0.100	-0.028
-641.682	-132.807	-0.201	0.026
-640.668	-200.000	-0.017	-0.171
-639.653	-200.000	0.013	0.315
-638.638	-200.000	0.015	-0.245
-637.624	800.000	-0.032	-0.089
-636.609	41.329	-0.137	0.125
-635.595	800.000	-0.083	-0.248
-634.580	-97.314	0.430	0.113
-633.565	-127.889	0.077	-0.011
-632.551	24.153	-0.141	-0.117
-631.536	-91.048	-0.154	0.044
-630.522	220.492	-0.125	-0.201
-629.507	-152.684	0.305	0.022
-628.492	-130.443	0.095	0.013
-627.478	-57.058	0.190	-0.084
-626.463	-117.391	0.235	-0.043
-625.449	-200.000	0.306	-0.001
-624.434	-43.133	0.152	0.077
-623.419	-49.468	0.264	-0.127
-622.405	800.000	-0.067	0.199
-621.390	20.665	0.172	-0.140
-620.376	-49.674	0.178	-0.085
-619.361	-83.985	-0.356	0.114
-618.346	-200.000	-0.005	0.192
-617.332	-200.000	0.042	-0.302
-616.317	-200.000	0.010	-0.051
-615.303	15.898	0.038	0.030
-614.288	-22.386	-0.118	-0.072
-613.273	-200.000	-0.007	-0.082
-612.259	581.791	-0.062	-0.151
-611.244	-94.136	-0.234	-0.064
-610.230	183.257	-0.082	0.121
-609.215	340.606	-0.155	0.303
-608.201	-5.287	0.153	0.105
-607.186	67.513	-0.126	0.129
-606.171	317.748	0.008	-0.014
-605.157	-200.000	0.000	0.110
-604.142	-94.616	0.214	0.059
-603.128	365.155	-0.100	0.203
-602.113	106.662	0.284	0.338
-601.098	-103.466	-0.129	-0.030
-600.084	-54.823	-0.423	-0.192
-599.069	-58.552	0.090	-0.039
-598.055	-119.467	-0.048	0.008
-597.040	-20.701	0.056	0.035
-596.025	-94.408	-0.189	0.052
-595.011	439.638	-0.187	-0.409
-593.996	72.793	0.034	0.035
-592.982	-42.997	0.035	0.018
-591.967	-193.886	-0.124	-0.001
-590.952	247.614	0.033	-0.056
-589.938	41.476	0.110	0.100
-588.923	506.415	-0.013	-0.031
-587.909	-200.000	-0.015	-0.118
-586.894	-37.291	-0.059	-0.031
-585.879	777.630	-0.137	0.376
-584.865	-65.495	0.423	-0.171
-583.850	-200.000	0.032	-0.400
-582.836	800.000	-0.032	0.139
-581.821	-164.319	0.167	0.008
-580.806	287.201	-0.075	0.135
-579.792	74.228	0.196	0.207
-578.777	-81.683	0.278	-0.091
-577.763	98.961	-0.227	-0.263
-576.748	18.391	-0.276	0.221
-575.733	-167.329	-0.275	0.011
-574.719	384.980	0.069	0.144
-573.704	-107.708	-0.473	-0.104
-572.690	-146.892	-0.270	0.023
-571.675	558.331	-0.090	0.217
-570.661	-193.366	0.317	-0.003
-569.646	326.275	-0.068	0.131
-568.631	-200.000	0.017	0.312
-567.617	533.991	-0.046	0.109
-566.602	-25.380	0.161	0.096
-565.588	-84.814	-0.179	-0.056
-564.573	348.283	0.040	0.080
-563.558	800.000	0.071	-0.249
-562.544	-19.408	0.200	0.124
-561.529	-46.906	0.207	-0.101
-560.515	-133.731	0.222	0.028
-559.500	-129.998	0.099	-0.014
-558.485	-5.320	-0.174	-0.120
-557.471	-166.473	-0.403	0.017
-556.456	33.729	0.071	-0.062
-555.442	-200.000	-0.018	-0.078
-554.427	800.000	0.038	-0.122
-553.412	30.794	0.215	-0.185
-552.398	55.425	0.189	-0.184
-551.383	53.432	-0.136	0.131
-550.369	-167.393	0.104	0.004
-549.354	-155.547	0.303	-0.020
-548.339	-49.996	0.041	-0.020
-547.325	-8.466	0.218	0.147
-546.310	-200.000	0.006	0.093
-545.296	90.327	0.245	-0.275
-544.281	-200.000	-0.002	0.229
-543.266	76.733	0.068	-0.073
-542.252	800.000	0.094	-0.274
-541.237	800.000	-0.072	0.219
-540.223	100.273	0.151	-0.176
-539.208	-54.884	-0.289	-0.131
-538.193	-101.648	-0.230	-0.056
-537.179	-42.905	0.026	-0.013
-536.164	-200.000	0.065	-0.333
-535.150	-129.650	0.084	0.012
-534.135	-200.000	0.024	-0.186
-533.121	-120.104	0.246	0.042
-532.106	800.000	-0.058	-0.193
-531.091	-34.908	-0.037	-0.020
-530.077	59.484	0.212	-0.209
-529.062	8.781	0.181	-0.137
-528.048	-145.902	-0.318	-0.028
-527.033	431.824	-0.072	-0.156
-526.018	-30.894	-0.079	0.045
-525.004	-200.000	-0.055	0.280
-523.989	65.683	0.036	-0.036
-522.975	9.774	-0.137	0.104
-521.960	622.327	-0.053	0.133
-520.945	287.374	0.257	0.465
-519.931	100.282	0.154	-0.179
-518.916	-121.262	-0.039	0.007
-517.902	112.928	0.039	-0.047
-516.887	7.216	0.098	-0.073
-515.872	-98.517	-0.308	-0.079
-514.858	464.620	-0.137	-0.306
-513.843	167.194	0.137	0.194
-512.829	800.000	-0.065	0.210
-511.814	-200.000	-0.014	-0.267
-510.799	-200.000	0.022	-0.098
-509.785	-38.510	0.234	0.124
-508.770	-120.821	0.118	0.020
-507.756	-13.121	-0.187	0.122
-506.741	178.203	-0.116	-0.169
-505.726	-200.000	-0.004	-0.351
-504.712	-20.042	0.407	-0.251
-503.697	800.000	-0.071	0.270
-502.683	-27.307	0.208	0.121
-501.668	48.916	-0.092	-0.086
-500.653	49.900	-0.112	0.106
-499.639	168.547	-0.123	0.175
-498.624	-21.402	-0.148	0.091
-497.610	800.000	0.088	0.293
-496.595	-50.071	-0.175	0.083
-495.581	800.000	-0.079	0.257
-494.566	-200.000	-0.000	0.368
-493.551	-40.399	0.088	0.046
-492.537	48.708	0.254	0.238
-491.522	-150.000	-0.119	-0.009
-490.508	-142.603	0.130	-0.013
-489.493	321.840	-0.138	-0.262
-488.478	800.000	0.037	-0.140
-487.464	26.628	-0.289	0.242
-486.449	-200.000	-0.003	-0.232
-485.435	800.000	-0.090	-0.272
-484.420	155.651	0.064	0.089
-483.405	-6.565	-0.090	-0.061
-482.391	800.000	-0.066	0.224
-481.376	457.915	0.086	-0.191
-480.362	-200.000	-0.016	0.264
-479.347	-200.000	-0.080	0.401
-478.332	-96.823	0.238	-0.062
-477.318	800.000	0.019	-0.080
-476.303	-54.577	-0.187	-0.085
-475.289	111.341	0.128	0.154
-474.274	130.113	0.108	0.139
-473.259	-50.338	0.081	0.038
-472.245	-200.000	0.021	-0.116
-471.230	510.445	0.147	-0.342
-470.216	13.256	0.185	0.143
-469.201	150.056	0.079	0.108
-468.186	-200.000	-0.079	0.397
-467.172	-172.444	0.319	0.010
-466.157	602.299	-0.101	-0.250
-465.143	-142.973	-0.213	-0.021
-464.128	800.000	0.036	-0.118
-463.113	28.775	0.139	0.118
-462.099	-200.000	-0.004	-0.202
-461.084	164.262	0.189	-0.267
-460.070	-200.000	-0.067	-0.336
-459.055	800.000	-0.104	-0.340
-458.040	-200.000	0.012	0.056
-457.026	512.252	-0.116	0.269
-456.011	4.512	0.174	0.127
-454.997	-200.000	-0.013	-0.130
-453.982	16.061	0.043	0.034
-452.968	-46.656	-0.197	0.097
-451.953	7.040	0.099	0.074
-450.938	306.646	-0.052	0.097
-449.924	-200.000	0.010	-0.279
-448.909	-162.715	0.143	0.007
-447.895	-170.392	0.089	-0.003
-446.880	-200.000	-0.009	0.136
-445.865	319.719	-0.032	-0.060
-444.851	-110.906	-0.066	0.014
-443.836	333.428	0.076	0.147
-442.822	-7.967	-0.113	0.076
-441.807	235.264	-0.153	-0.251
-440.792	-67.980	0.186	-0.072
-439.778	-52.244	0.306	-0.142
-438.763	5.786	0.257	0.190
-437.749	486.378	-0.091	-0.207
-436.734	78.475	0.019	-0.020
-435.719	111.621	-0.018	0.022
-434.705	-62.503	0.055	0.023
-433.690	70.771	-0.205	-0.212
-432.676	137.723	-0.169	-0.221
-431.661	-61.620	0.202	-0.084
-430.646	36.029	-0.213	-0.187
-429.632	-108.076	-0.310	0.067
-428.617	-200.000	-0.022	-0.268
-427.603	149.306	0.109	0.147
-426.588	30.370	0.278	0.237
-425.573	-56.278	0.213	0.095
-424.559	-68.991	-0.087	-0.034
-423.544	135.514	0.149	0.193
-422.530	87.910	-0.054	0.060
-421.515	302.254	0.065	-0.119
-420.500	-200.000	-0.017	0.075
-419.486	-200.000	-0.028	0.136
-418.471	733.790	0.069	0.183
-417.457	94.634	-0.217	-0.246
-416.442	14.927	-0.248	-0.194
-415.428	-127.884	0.187	-0.027
-414.413	800.000	-0.149	0.484
-413.398	-200.000	0.258	-0.001
-412.384	204.057	-0.177	-0.273
-411.369	-200.000	-0.048	-0.297
-410.355	-8.756	0.150	0.100
-409.340	800.000	0.072	-0.198
-408.325	-44.022	0.226	-0.113
-407.311	-79.358	-0.383	0.129
-406.296	-191.508	-0.182	0.002
-405.282	-169.496	0.159	-0.006
-404.267	-168.077	-0.499	-0.019
-403.252	63.770	0.145	0.145
-402.238	-200.000	-0.000	-0.138
-401.223	-144.513	0.445	0.041
-400.209	-200.000	-0.016	-0.206
-399.194	228.985	0.102	-0.165
-398.179	77.075	0.141	-0.149
-397.165	-27.081	0.232	0.135
-396.150	800.000	-0.111	0.462
-395.136	800.000	0.102	-0.433
-394.121	35.878	0.156	-0.137
-393.106	-16.219	0.025	-0.016
-392.092	-200.000	-0.028	-0.134
-391.077	25.076	-0.115	-0.095
-390.063	297.199	0.202	0.369
-389.048	-83.982	-0.476	-0.151
-388.033	269.426	0.137	0.239
-387.019	-200.000	0.007	0.099
-386.004	343.803	-0.088	-0.172
-384.990	63.141	-0.056	0.056
-383.975	141.950	-0.116	-0.154
-382.960	-122.912	-0.143	0.023
-381.946	59.754	-0.088	0.086
-380.931	-145.335	-0.044	0.004
-379.917	38.451	-0.095	0.084
-378.902	-40.238	0.140	-0.072
-377.888	146.396	-0.149	0.199
-376.873	10.849	-0.069	-0.052
-375.858	77.899	0.156	0.165
-374.844	-37.015	0.156	-0.083
-373.829	-125.179	0.119	0.018
-372.815	146.085	-0.128	0.171
-371.800	7.759	-0.257	0.192
-370.785	800.000	0.130	0.411
-369.771	-200.000	-0.012	0.367
-368.756	-3.608	0.186	-0.128
-367.742	26.866	-0.165	-0.138
-366.727	-44.599	0.108	0.054
-365.712	-59.522	0.041	0.018
-364.698	-200.000	0.076	0.335
-363.683	-126.880	0.175	-0.026
-362.669	-200.000	-0.340	-0.000
-361.654	-200.000	0.000	-0.419
-360.639	-145.279	-0.382	0.034
-359.625	-111.804	-0.218	-0.044
-358.610	-129.503	-0.253	0.035
-357.596	-200.000	0.007	0.031
-356.581	800.000	-0.017	0.047
-355.566	12.932	-0.354	0.272
-354.552	177.897	-0.077	0.112
-353.537	-200.000	0.468	-0.002
-352.523	-6.773	0.077	-0.052
-351.508	182.448	0.129	0.189
-350.493	-110.285	-0.072	0.015
-349.479	4.969	0.259	-0.190
-348.464	397.853	-0.041	-0.086
-347.450	-20.714	0.273	-0.166
-346.435	109.146	0.333	0.396
-345.420	633.793	-0.096	0.243
-344.406	-173.839	0.076	-0.002
-343.391	35.229	0.174	0.152
-342.377	-124.030	-0.240	0.037
-341.362	-169.129	-0.154	0.006
-340.348	-44.579	-0.087	-0.043
-339.333	-200.000	-0.010	-0.072
-338.318	-200.000	-0.023	-0.167
-337.304	-200.000	0.262	0.001
-336.289	329.990	-0.176	0.336
-335.275	178.315	0.005	0.007
-334.260	401.126	0.159	-0.332
-333.245	-200.000	-0.022	-0.188
-332.231	-110.865	-0.416	-0.085
-331.216	35.340	-0.187	-0.163
-330.202	51.689	-0.051	0.048
-329.187	-74.814	0.184	0.066
-328.172	-200.000	-0.023	-0.299
-327.158	146.154	-0.161	-0.215
-326.143	-200.000	0.008	0.086
-325.129	317.623	-0.071	0.134
-324.114	574.481	-0.120	0.290
-323.099	-44.130	-0.301	0.150
-322.085	134.784	-0.049	0.063
-321.070	-80.481	0.284	-0.094
-320.056	-40.952	-0.149	0.076
-319.041	0.083	-0.127	0.090
-318.026	-200.000	0.000	-0.150
-317.012	-132.054	0.307	0.040
-315.997	489.771	0.130	0.296
-314.983	51.314	-0.150	-0.141
-313.968	11.172	-0.222	0.169
-312.953	-144.719	-0.091	0.008
-311.939	130.392	-0.114	0.145
-310.924	-200.000	0.005	0.034
-309.910	-114.641	0.367	0.070
-308.895	-200.000	-0.052	0.329
-307.880	-115.762	0.192	-0.036
-306.866	60.390	0.210	0.206
-305.851	-198.093	-0.303	0.002
-304.837	800.000	-0.038	0.134
-303.822	-51.439	0.082	-0.038
-302.807	8.608	0.055	-0.041
-301.793	-86.042	0.240	-0.074
-300.778	-92.288	-0.068	0.019
-299.764	-75.886	0.082	-0.029
-298.749	-63.209	-0.132	0.054
-297.735	-5.984	-0.159	-0.108
-296.720	-200.000	-0.024	0.138
-295.705	-200.000	0.002	0.223
-294.691	-52.567	0.107	-0.049
-293.676	800.000	-0.013	0.046
-292.662	-38.534	-0.191	-0.100
-291.647	-102.109	0.051	0.012
-290.632	-153.578	-0.256	0.018
-289.618	-12.467	-0.078	0.051
-288.603	-174.528	0.075	0.002
-287.589	31.111	0.238	0.203
-286.574	-65.332	0.066	0.026
-285.559	315.183	-0.129	-0.242
-284.545	-73.803	0.172	-0.062
-283.530	8.608	0.149	0.111
-282.516	-45.547	0.314	-0.154
-281.501	-74.196	0.364	-0.131
-280.486	-116.244	0.091	0.017
-279.472	-200.000	-0.008	0.403
-278.457	199.438	-0.087	0.132
-277.443	493.691	-0.088	-0.201
-276.428	557.723	-0.084	0.200
-275.413	180.220	-0.024	0.035
-274.399	33.769	0.336	0.290
-273.384	800.000	0.072	-0.213
-272.370	78.155	0.173	-0.183
-271.355	10.381	-0.206	-0.155
-270.340	-55.195	-0.367	0.164
-269.326	0.934	-0.109	-0.077
-268.311	129.125	-0.176	-0.223
-267.297	800.000	0.051	0.170
-266.282	800.000	0.034	0.145
-265.267	800.000	0.074	-0.256
-264.253	-200.000	0.013	-0.161
-263.238	621.328	0.035	-0.086
-262.224	-47.839	-0.255	0.122
-261.209	-51.219	-0.118	0.055
-260.195	126.597	0.026	-0.033
-259.180	-200.000	-0.020	-0.086
-258.165	-79.172	-0.264	0.089
-257.151	-200.000	-0.342	-0.001
-256.136	-200.000	-0.003	-0.071
-255.122	-67.197	0.252	0.098
-254.107	-99.656	-0.197	-0.049
-253.092	-171.035	-0.255	0.009
-252.078	-27.305	-0.174	0.100
-251.063	-49.264	-0.211	-0.100
-250.049	99.881	-0.091	-0.104
-249.034	76.491	0.113	0.119
-248.019	-106.948	-0.387	-0.085
-247.005	-181.193	-0.165	0.003
-245.990	800.000	-0.080	0.250
-244.976	126.369	0.120	0.150
-243.961	800.000	0.108	-0.313
-242.946	-104.528	-0.272	0.062
-241.932	26.343	0.218	-0.180
-240.917	-120.084	-0.472	-0.080
-239.903	-75.819	0.162	0.057
-238.888	800.000	0.047	-0.176
-237.873	31.041	-0.158	0.134
-236.859	800.000	-0.068	0.232
-235.844	63.056	-0.159	0.158
-234.830	-200.000	-0.045	-0.258
-233.815	294.649	-0.059	-0.107
-232.800	-79.277	-0.246	-0.083
-231.786	619.898	0.090	0.223
-230.771	-27.977	-0.264	-0.151
-229.757	97.847	-0.158	0.180
-228.742	800.000	0.076	0.325
-227.727	728.581	0.102	0.271
-226.713	-137.222	0.201	-0.023
-225.698	19.937	0.126	-0.100
-224.684	-200.000	0.018	-0.257
-223.669	-73.051	0.159	0.058
-222.655	-77.261	0.296	-0.102
-221.640	-200.000	0.015	0.211
-220.625	-42.980	-0.232	0.116
-219.611	171.438	0.246	0.349
-218.596	198.053	0.079	0.119
-217.582	185.239	-0.185	-0.271
-216.567	-200.000	0.028	0.213
-215.552	-164.446	0.070	0.003
-214.538	-200.000	0.047	-0.381
-213.523	-200.000	-0.010	-0.084
-212.509	-96.517	-0.241	0.063
-211.494	-200.000	0.031	-0.265
-210.479	-36.098	0.058	0.031
-209.465	51.403	0.060	-0.056
-208.450	-120.306	-0.285	0.048
-207.436	-200.000	-0.024	-0.175
-206.421	400.529	-0.137	0.283
-205.406	-200.000	-0.030	-0.164
-204.392	368.347	-0.078	-0.155
-203.377	66.730	-0.075	-0.076
-202.363	-31.630	0.156	-0.087
-201.348	-200.000	-0.009	-0.064
-200.333	58.784	0.124	0.121
-199.319	-200.000	0.016	0.384
-198.304	73.857	0.294	-0.304
-197.290	688.098	-0.087	0.226
-196.275	-165.492	0.127	-0.005
-195.260	-200.000	-0.071	-0.313
-194.246	607.991	0.097	-0.239
-193.231	73.751	-0.061	0.063
-192.217	-200.000	-0.019	0.138
-191.202	93.483	0.026	0.029
-190.187	-194.437	0.469	-0.004
-189.173	-6.127	0.251	-0.170
-188.158	-101.676	-0.047	0.011
-187.144	-200.000	0.006	-0.332
-186.129	-122.157	0.324	0.052
-185.114	-1.047	0.188	0.132
-184.100	-200.000	-0.020	-0.091
-183.085	-54.110	-0.091	0.041
-182.071	-200.000	0.026	0.199
-181.056	45.919	-0.095	-0.086
-180.042	800.000	-0.101	-0.301
-179.027	-81.089	0.263	0.086
-178.012	114.289	0.134	-0.161
-176.998	382.451	0.128	0.259
-175.983	-55.620	-0.201	-0.089
-174.969	3.402	0.109	0.079
-173.954	113.372	0.101	0.121
-172.939	-91.930	-0.120	0.034
-171.925	-88.046	-0.153	0.045
-170.910	-200.000	-0.014	0.170
-169.896	-200.000	-0.082	0.417
-168.881	214.005	0.188	-0.294
-167.866	68.715	0.090	-0.092
-166.852	473.317	-0.058	-0.130
-165.837	-21.377	-0.295	0.178
-164.823	-200.000	0.012	-0.128
-163.808	-200.000	-0.004	0.125
-162.793	193.073	-0.067	0.100
-161.779	18.111	0.098	0.077
-160.764	464.993	-0.134	0.296
-159.750	343.430	0.172	-0.333
-158.735	86.333	0.206	-0.224
-157.720	0.057	-0.118	0.083
-156.706	800.000	-0.084	-0.247
-155.691	88.791	0.290	-0.319
-154.677	76.332	-0.181	-0.189
-153.662	778.785	-0.044	0.120
-152.647	-26.663	0.120	-0.069
-151.633	76.913	-0.125	0.131
-150.618	161.034	0.179	0.247
-149.604	292.816	0.222	-0.399
-148.589	-200.000	0.089	-0.389
-147.574	-200.000	0.014	0.228
-146.560	-92.423	0.268	0.074
-145.545	689.387	0.139	0.359
-144.531	-115.534	-0.283	-0.052
-143.516	-3.939	-0.159	0.109
-142.502	88.589	-0.139	-0.152
-141.487	-6.531	0.130	0.087
-140.472	-164.256	-0.211	-0.010
-139.458	800.000	0.038	-0.125
-138.443	-91.940	0.235	-0.066
-137.429	35.554	-0.197	0.170
-136.414	356.242	-0.134	-0.262
-135.399	-200.000	-0.019	-0.248
-134.385	-178.252	-0.357	-0.008
-133.370	800.000	-0.036	-0.155
-132.356	-200.000	0.012	-0.222
-131.341	800.000	-0.133	0.382
-130.326	37.068	0.271	0.236
-129.312	-48.852	0.293	-0.138
-128.297	-94.227	0.288	0.078
-127.283	-200.000	-0.007	-0.196
-126.268	-0.622	0.037	-0.026
-125.253	-125.059	0.229	-0.035
-124.239	-59.765	0.198	-0.083
-123.224	-44.623	-0.106	0.052
-122.210	8.097	0.234	0.173
-121.195	177.026	0.219	0.314
