DTS Sentinel unit serial number:	SN413079Multiplexer serial number:	ORYXHardware model number:	OX4-SRSoftware version number:	ORYX F/W v4.00 Oryx Data Collector v3.7.2.0data status	okinstallation	princeton_trtdifferential loss correction	single-endedforward channel	channel 4reverse channel	N/Adate	2019/09/17time	05:13:35forward acquisition time	60.00reverse acquisition time	0.00gamma	496.2192k internal	0.2312k external	0.2312temperature offset calibration	0.9979default loss term (dB/km)	0.3790temperature slope calibration	1.0000multiplexer offset coefficient	1.0000multiplexer slope coefficient	1.0000fibre end	0.00T internal ref (°C)	29.39T ext. ref 1 (°C)	0.14T ext. ref 2 (°C)	23.83length (m)	temperature (°C)	Stokes	anti-Stokes-747.200	90.830	0.081	-0.092
-746.185	800.000	-0.076	0.245
-745.171	153.062	-0.102	0.142
-744.156	-200.000	0.060	0.587
-743.142	24.599	-0.082	-0.069
-742.127	771.190	-0.014	-0.039
-741.112	-39.158	0.235	0.125
-740.098	121.809	-0.171	0.217
-739.083	-64.945	0.183	0.075
-738.069	-200.000	-0.045	0.385
-737.054	221.254	-0.164	0.267
-736.039	-200.000	-0.025	0.124
-735.025	54.426	0.193	0.189
-734.010	46.051	0.157	0.148
-732.996	31.882	-0.265	-0.231
-731.981	252.266	-0.022	0.037
-730.966	140.814	-0.086	0.115
-729.952	-192.214	-0.243	0.002
-728.937	-200.000	0.010	0.158
-727.923	-200.000	-0.043	0.193
-726.908	-200.000	-0.012	-0.172
-725.894	-200.000	-0.001	-0.060
-724.879	-200.000	-0.008	0.206
-723.864	37.938	-0.378	-0.341
-722.850	-95.608	-0.260	-0.071
-721.835	-91.903	0.049	-0.014
-720.821	-200.000	0.067	0.430
-719.806	449.661	-0.106	-0.237
-718.791	22.426	-0.073	-0.061
-717.777	336.880	0.129	-0.254
-716.762	243.320	-0.085	0.145
-715.748	368.914	-0.190	0.389
-714.733	-75.045	-0.178	-0.064
-713.718	425.754	-0.178	-0.388
-712.704	10.516	-0.205	-0.158
-711.689	800.000	0.024	0.100
-710.675	30.062	-0.044	0.038
-709.660	203.077	-0.022	0.035
-708.645	-89.937	-0.251	0.074
-707.631	-109.813	0.149	-0.032
-706.616	-200.000	-0.011	-0.497
-705.602	481.207	0.123	-0.283
-704.587	-130.077	0.263	0.036
-703.572	-175.717	-0.115	-0.003
-702.558	51.195	-0.255	-0.245
-701.543	800.000	-0.085	0.358
-700.529	-25.867	-0.264	0.157
-699.514	778.925	0.085	-0.234
-698.499	-11.021	-0.057	-0.038
-697.485	800.000	-0.025	-0.101
-696.470	256.676	0.236	0.410
-695.456	-99.070	0.120	-0.031
-694.441	-104.190	0.536	-0.126
-693.426	-200.000	-0.038	-0.183
-692.412	120.960	-0.200	-0.252
-691.397	169.832	0.135	0.196
-690.383	-200.000	0.009	0.196
-689.368	-200.000	-0.024	0.299
-688.354	-29.389	-0.153	-0.089
-687.339	800.000	0.041	-0.174
-686.324	-3.258	-0.346	-0.244
-685.310	-101.917	0.489	-0.120
-684.295	-91.870	-0.190	0.054
-683.281	-127.407	0.213	-0.031
-682.266	362.037	-0.125	0.254
-681.251	-75.016	0.243	-0.088
-680.237	800.000	-0.078	0.274
-679.222	-33.579	0.153	-0.086
-678.208	-40.636	0.112	-0.059
-677.193	-157.450	0.031	0.002
-676.178	68.703	-0.152	0.158
-675.164	800.000	-0.076	-0.285
-674.149	81.675	0.250	0.274
-673.135	137.462	-0.057	0.075
-672.120	-200.000	0.036	0.233
-671.105	47.226	-0.147	0.138
-670.091	105.325	-0.169	-0.202
-669.076	-127.389	0.113	-0.017
-668.062	230.509	0.053	-0.087
-667.047	-154.506	0.057	0.004
-666.032	494.642	0.027	-0.063
-665.018	91.992	0.078	0.089
-664.003	-108.949	-0.284	-0.061
-662.989	104.121	0.222	0.265
-661.974	-200.000	0.057	0.266
-660.959	-200.000	0.025	0.199
-659.945	665.909	-0.037	0.096
-658.930	-60.815	0.187	0.080
-657.916	75.718	-0.168	0.179
-656.901	126.387	-0.151	-0.193
-655.886	-103.119	-0.326	0.078
-654.872	2.619	-0.108	0.079
-653.857	-39.109	-0.129	-0.068
-652.843	-155.748	-0.263	0.017
-651.828	800.000	0.067	0.284
-650.814	-110.005	0.448	0.095
-649.799	-20.862	0.078	0.048
-648.784	-2.206	-0.169	0.120
-647.770	35.826	0.149	0.133
-646.755	-200.000	0.023	-0.334
-645.741	800.000	-0.095	-0.283
-644.726	-160.662	0.068	0.004
-643.711	-169.303	0.184	0.007
-642.697	87.466	0.100	-0.111
-641.682	800.000	0.038	-0.127
-640.668	375.662	0.207	-0.428
-639.653	-200.000	-0.014	-0.244
-638.638	13.935	0.159	0.125
-637.624	214.017	0.019	0.031
-636.609	-49.036	-0.130	0.063
-635.595	-195.923	0.211	0.002
-634.580	-68.842	-0.372	-0.145
-633.565	800.000	0.067	-0.206
-632.551	726.800	-0.083	-0.225
-631.536	-23.042	0.159	0.097
-630.522	258.514	0.073	-0.127
-629.507	-200.000	0.025	0.339
-628.492	38.082	0.206	0.185
-627.478	314.714	-0.154	0.293
-626.463	77.596	-0.307	0.330
-625.449	-62.800	0.146	0.061
-624.434	800.000	0.069	0.252
-623.419	-145.298	-0.125	-0.011
-622.405	-158.658	-0.232	0.013
-621.390	140.714	0.062	0.082
-620.376	-200.000	0.056	-0.317
-619.361	-200.000	-0.008	0.193
-618.346	-200.000	0.151	0.000
-617.332	-104.886	-0.346	-0.080
-616.317	-169.627	-0.242	0.009
-615.303	-58.287	0.081	-0.036
-614.288	-200.000	-0.079	-0.435
-613.273	0.305	0.303	0.219
-612.259	-32.280	0.227	0.128
-611.244	-200.000	0.020	0.151
-610.230	-146.976	-0.054	0.005
-609.215	619.870	0.055	-0.140
-608.201	-139.107	0.274	0.030
-607.186	-124.888	0.103	0.016
-606.171	800.000	0.019	0.076
-605.157	-157.066	0.261	0.016
-604.142	-26.188	-0.197	-0.117
-603.128	158.632	-0.086	0.120
-602.113	800.000	0.062	0.187
-601.098	-108.769	0.313	-0.068
-600.084	-200.000	0.018	0.279
-599.069	-200.000	-0.169	0.000
-598.055	-200.000	0.065	-0.321
-597.040	800.000	0.047	0.187
-596.025	-200.000	-0.007	0.060
-595.011	800.000	0.079	0.286
-593.996	-146.945	-0.093	-0.008
-592.982	-111.609	-0.132	-0.027
-591.967	353.914	0.042	-0.084
-590.952	-200.000	0.039	-0.224
-589.938	-134.280	0.450	-0.056
-588.923	-200.000	0.061	-0.340
-587.909	26.691	-0.295	-0.249
-586.894	-39.497	-0.240	-0.127
-585.879	-114.575	-0.112	-0.022
-584.865	38.694	-0.171	-0.154
-583.850	69.612	-0.184	-0.191
-582.836	211.678	0.068	0.107
-581.821	-95.536	-0.330	-0.089
-580.806	-96.555	-0.052	-0.014
-579.792	204.195	0.017	0.027
-578.777	-200.000	-0.025	0.217
-577.763	-71.271	-0.172	0.065
-576.748	-127.458	0.087	0.013
-575.733	197.857	-0.347	0.534
-574.719	-137.718	0.194	0.022
-573.704	61.274	0.121	0.121
-572.690	49.864	0.188	0.178
-571.675	347.061	0.066	-0.131
-570.661	-82.928	-0.386	0.126
-569.646	-76.485	0.164	-0.058
-568.631	800.000	-0.078	-0.299
-567.617	800.000	0.020	-0.079
-566.602	89.357	-0.270	-0.303
-565.588	345.161	0.011	0.021
-564.573	-200.000	0.011	-0.087
-563.558	-155.193	-0.027	-0.002
-562.544	463.740	-0.032	0.073
-561.529	51.452	-0.074	0.071
-560.515	-172.890	0.086	0.003
-559.500	800.000	-0.051	-0.163
-558.485	-161.490	-0.421	0.022
-557.471	193.234	-0.070	0.107
-556.456	-89.790	0.204	0.060
-555.442	206.125	0.117	0.183
-554.427	800.000	-0.068	-0.216
-553.412	-160.881	-0.301	0.016
-552.398	800.000	-0.061	-0.229
-551.383	254.814	0.089	0.154
-550.369	684.148	0.048	-0.126
-549.354	-34.068	0.125	-0.069
-548.339	-173.555	0.112	-0.003
-547.325	-200.000	0.040	0.215
-546.310	800.000	-0.030	0.106
-545.296	291.216	-0.036	0.065
-544.281	-200.000	0.027	0.243
-543.266	277.910	-0.041	0.074
-542.252	800.000	0.046	0.140
-541.237	-76.452	0.139	0.049
-540.223	-20.817	-0.190	0.117
-539.208	164.535	-0.092	-0.131
-538.193	80.071	0.092	0.099
-537.179	-171.707	0.205	0.007
-536.164	353.572	-0.022	0.043
-535.150	181.951	0.163	-0.241
-534.135	60.860	0.326	-0.325
-533.121	-72.371	-0.024	-0.009
-532.106	-200.000	0.015	0.174
-531.091	-61.922	0.080	0.033
-530.077	88.130	-0.073	-0.081
-529.062	-10.886	0.231	-0.153
-528.048	99.651	-0.099	-0.115
-527.033	106.397	0.207	0.246
-526.018	714.200	0.062	0.164
-525.004	-118.020	0.225	-0.040
-523.989	-200.000	-0.027	-0.156
-522.975	800.000	0.105	-0.430
-521.960	290.775	0.127	0.232
-520.945	688.799	-0.074	0.195
-519.931	394.220	0.075	-0.158
-518.916	-200.000	-0.059	-0.264
-517.902	67.751	0.051	-0.053
-516.887	-82.044	-0.256	-0.084
-515.872	-119.856	-0.067	0.012
-514.858	-114.501	0.097	-0.019
-513.843	-92.329	-0.334	-0.095
-512.829	207.176	0.120	-0.189
-511.814	-29.821	-0.075	0.043
-510.799	-150.615	0.479	-0.037
-509.785	46.290	-0.187	-0.174
-508.770	113.737	-0.145	-0.177
-507.756	98.734	0.132	0.153
-506.741	-200.000	0.032	0.147
-505.726	800.000	0.044	-0.148
-504.712	-200.000	-0.014	0.063
-503.697	21.307	0.119	-0.097
-502.683	-76.157	0.282	-0.100
-501.668	-135.039	-0.224	0.027
-500.653	800.000	-0.034	-0.096
-499.639	800.000	-0.025	-0.106
-498.624	129.040	-0.066	-0.085
-497.610	493.889	0.099	0.229
-496.595	-91.239	0.325	0.094
-495.581	-110.155	0.374	-0.078
-494.566	272.145	0.095	0.169
-493.551	-200.000	0.039	0.176
-492.537	230.710	0.068	-0.111
-491.522	-200.000	-0.082	0.395
-490.508	-200.000	-0.009	-0.131
-489.493	-200.000	-0.001	0.163
-488.478	757.495	-0.082	-0.222
-487.464	-200.000	-0.045	-0.316
-486.449	-85.857	-0.260	0.081
-485.435	800.000	0.060	0.249
-484.420	248.082	0.033	0.056
-483.405	-60.626	0.100	-0.043
-482.391	701.419	-0.084	-0.222
-481.376	7.095	-0.211	-0.158
-480.362	-38.091	-0.249	0.133
-479.347	316.444	-0.084	-0.159
-478.332	-47.634	-0.120	0.059
-477.318	-146.512	-0.378	-0.033
-476.303	65.692	0.222	-0.225
-475.289	-135.594	-0.203	0.024
-474.274	800.000	-0.059	-0.231
-473.259	61.689	0.086	-0.086
-472.245	-47.871	-0.216	0.105
-471.230	800.000	0.078	0.278
-470.216	-155.532	-0.329	0.021
-469.201	-200.000	0.009	0.062
-468.186	-200.000	-0.063	-0.353
-467.172	-45.216	-0.124	0.062
-466.157	-200.000	0.009	-0.111
-465.143	53.226	-0.222	-0.213
-464.128	800.000	0.044	-0.166
-463.113	-124.608	0.215	-0.033
-462.099	37.955	-0.134	0.119
-461.084	-38.567	-0.344	-0.182
-460.070	-81.219	0.055	0.018
-459.055	240.146	-0.185	-0.309
-458.040	-97.571	0.390	0.102
-457.026	-77.202	0.054	0.019
-456.011	38.228	-0.257	0.230
-454.997	-39.382	0.182	0.096
-453.982	-200.000	0.001	0.289
-452.968	-200.000	-0.024	0.217
-451.953	4.705	0.133	-0.098
-450.938	292.454	-0.137	0.251
-449.924	-200.000	0.023	-0.118
-448.909	93.313	0.300	-0.341
-447.895	-200.000	0.040	0.242
-446.880	11.496	0.120	-0.092
-445.865	800.000	0.024	-0.102
-444.851	70.186	0.228	-0.236
-443.836	-81.162	-0.145	-0.048
-442.822	-200.000	0.006	-0.245
-441.807	5.438	-0.071	-0.052
-440.792	-23.065	-0.065	-0.040
-439.778	433.431	0.056	0.122
-438.763	-16.597	0.107	0.068
-437.749	156.659	-0.216	0.300
-436.734	452.301	-0.146	-0.323
-435.719	161.771	0.118	0.166
-434.705	-200.000	-0.005	-0.259
-433.690	-200.000	-0.001	0.479
-432.676	800.000	-0.088	0.304
-431.661	166.089	0.129	-0.182
-430.646	-56.015	-0.324	0.145
-429.632	-144.760	0.286	0.026
-428.617	-36.556	-0.093	-0.050
-427.603	-32.576	0.076	0.043
-426.588	-87.045	0.020	0.006
-425.573	-200.000	0.041	0.213
-424.559	30.081	0.110	0.094
-423.544	-85.198	-0.275	0.086
-422.530	182.261	-0.126	0.186
-421.515	-200.000	-0.005	-0.092
-420.500	24.907	-0.150	-0.125
-419.486	775.238	-0.042	0.116
-418.471	-200.000	-0.030	-0.338
-417.457	122.393	-0.046	-0.058
-416.442	-200.000	-0.067	-0.498
-415.428	12.161	0.144	0.111
-414.413	-117.186	-0.125	0.023
-413.398	800.000	0.077	0.226
-412.384	-200.000	0.031	0.469
-411.369	-200.000	0.031	-0.195
-410.355	-97.154	0.149	-0.039
-409.340	-182.002	-0.220	-0.004
-408.325	800.000	0.076	-0.238
-407.311	-200.000	0.006	-0.259
-406.296	-91.840	0.165	0.047
-405.282	-200.000	-0.036	-0.291
-404.267	-34.707	-0.339	0.185
-403.252	-66.818	0.178	0.071
-402.238	35.098	-0.136	0.119
-401.223	-111.839	-0.526	0.106
-400.209	-132.059	0.239	0.031
-399.194	402.437	-0.124	0.261
-398.179	-122.135	-0.365	0.060
-397.165	-10.357	-0.083	-0.055
-396.150	-35.713	-0.146	0.079
-395.136	800.000	-0.044	-0.128
-394.121	-72.121	0.117	-0.043
-393.106	158.496	0.232	0.322
-392.092	209.541	0.117	-0.183
-391.077	-15.147	-0.226	-0.145
-390.063	83.095	0.241	-0.263
-389.048	800.000	0.037	0.133
-388.033	-200.000	0.046	0.245
-387.019	-138.322	0.347	0.038
-386.004	-200.000	0.034	0.272
-384.990	-121.636	-0.361	0.060
-383.975	-12.845	-0.159	-0.104
-382.960	-22.968	0.288	-0.174
-381.946	-200.000	-0.009	-0.091
-380.931	1.824	-0.403	-0.291
-379.917	329.047	-0.066	0.126
-378.902	196.156	-0.119	0.181
-377.888	-11.038	-0.183	0.121
-376.873	-11.093	0.125	-0.083
-375.858	-16.605	-0.187	0.118
-374.844	640.676	0.047	-0.120
-373.829	635.377	-0.094	0.238
-372.815	-117.641	0.079	0.014
-371.800	-35.190	0.136	-0.074
-370.785	-148.711	-0.048	-0.004
-369.771	-92.363	-0.614	-0.173
-368.756	800.000	-0.038	-0.146
-367.742	-89.982	-0.130	0.038
-366.727	-56.718	0.294	0.130
-365.712	-200.000	-0.048	0.293
-364.698	164.926	0.049	-0.069
-363.683	114.709	0.126	0.154
-362.669	-169.509	0.106	-0.004
-361.654	80.272	-0.185	-0.198
-360.639	28.466	0.136	-0.115
-359.625	-135.352	0.026	0.003
-358.610	478.651	-0.153	-0.346
-357.596	599.633	-0.034	-0.084
-356.581	-79.785	0.226	-0.076
-355.566	-200.000	-0.013	0.366
-354.552	-200.000	0.004	0.173
-353.537	132.343	0.116	-0.150
-352.523	649.053	-0.046	0.119
-351.508	134.788	-0.084	-0.109
-350.493	-63.866	-0.271	-0.111
-349.479	253.309	0.082	-0.140
-348.464	-114.433	-0.153	0.029
-347.450	800.000	0.054	-0.198
-346.435	-72.123	-0.213	0.079
-345.420	-200.000	0.008	0.251
-344.406	-30.455	-0.197	0.111
-343.391	11.491	0.244	-0.187
-342.377	490.778	0.062	-0.142
-341.362	-146.296	0.141	0.012
-340.348	9.103	0.128	-0.096
-339.333	-3.874	0.145	0.100
-338.318	-200.000	-0.027	0.414
-337.304	-162.565	0.210	-0.010
-336.289	145.589	-0.015	-0.020
-335.275	-6.393	0.143	0.097
-334.260	-5.797	0.174	0.119
-333.245	-114.125	0.224	0.043
-332.231	-14.899	0.109	-0.070
-331.216	135.184	-0.103	0.133
-330.202	13.142	-0.153	-0.119
-329.187	14.011	0.427	0.331
-328.172	61.089	0.173	-0.171
-327.158	-144.122	-0.065	-0.006
-326.143	69.941	0.048	-0.049
-325.129	85.331	-0.166	-0.182
-324.114	-200.000	-0.037	-0.188
-323.099	-21.505	-0.294	0.179
-322.085	-147.470	0.124	0.010
-321.070	140.461	-0.196	-0.258
-320.056	-24.040	0.303	0.181
-319.041	5.957	-0.073	-0.054
-318.026	9.024	0.203	-0.153
-317.012	800.000	0.056	0.181
-315.997	98.989	0.164	0.189
-314.983	-139.746	0.089	-0.009
-313.968	-200.000	0.031	-0.362
-312.953	-118.425	-0.191	-0.034
-311.939	-140.939	-0.228	0.023
-310.924	645.328	-0.172	0.438
-309.910	-200.000	0.019	0.166
-308.895	-149.666	0.166	0.013
-307.880	-16.715	-0.133	-0.084
-306.866	-161.888	-0.175	-0.009
-305.851	78.069	-0.197	-0.210
-304.837	668.990	0.126	-0.324
-303.822	-35.106	0.085	0.046
-302.807	-122.942	-0.495	-0.079
-301.793	-130.435	0.263	-0.035
-300.778	800.000	-0.097	-0.317
-299.764	210.648	-0.188	0.295
-298.749	-8.473	-0.159	-0.107
-297.735	800.000	-0.091	-0.318
-296.720	176.259	-0.036	0.051
-295.705	719.151	0.084	-0.224
-294.691	350.009	0.052	-0.103
-293.676	58.552	-0.097	-0.095
-292.662	166.517	-0.161	0.228
-291.647	-159.309	-0.379	0.021
-290.632	303.788	0.192	-0.354
-289.618	-50.776	-0.121	0.057
-288.603	-33.990	0.290	-0.159
-287.589	-83.742	-0.523	-0.166
-286.574	14.237	0.201	-0.156
-285.559	19.443	0.278	0.222
-284.545	-110.245	-0.153	0.032
-283.530	-21.309	0.147	-0.090
-282.516	-128.582	0.058	0.008
-281.501	-17.030	0.151	0.095
-280.486	800.000	0.150	-0.430
-279.472	123.226	0.112	0.140
-278.457	-53.106	-0.187	0.085
-277.443	-10.651	0.282	-0.186
-276.428	-171.390	-0.117	0.004
-275.413	-200.000	-0.017	-0.271
-274.399	10.689	0.065	0.049
-273.384	-85.659	0.174	-0.054
-272.370	-200.000	0.028	-0.124
-271.355	-110.591	0.050	0.010
-270.340	-48.618	0.010	0.005
-269.326	273.889	0.059	0.105
-268.311	-66.222	-0.074	-0.029
-267.297	800.000	-0.119	0.389
-266.282	-8.092	0.183	0.123
-265.267	75.093	-0.045	-0.047
-264.253	335.670	-0.048	0.093
-263.238	394.636	-0.041	-0.084
-262.224	-85.437	0.142	0.044
-261.209	-46.296	0.296	0.145
-260.195	30.566	0.193	-0.164
-259.180	-96.513	-0.108	-0.028
-258.165	131.036	-0.043	-0.055
-257.151	-5.863	0.088	0.060
-256.136	-20.870	-0.132	-0.080
-255.122	-33.880	-0.120	-0.066
-254.107	58.715	-0.117	0.114
-253.092	25.185	0.134	0.111
-252.078	138.532	0.090	0.118
-251.063	159.475	-0.051	-0.071
-250.049	800.000	0.045	0.147
-249.034	88.099	-0.223	0.246
-248.019	386.528	-0.026	0.054
-247.005	358.114	-0.168	-0.334
-245.990	-200.000	-0.000	-0.069
-244.976	-62.917	0.291	-0.120
-243.961	57.111	-0.107	0.104
-242.946	-169.780	-0.169	0.006
-241.932	-137.706	0.113	0.013
-240.917	289.988	0.087	0.157
-239.903	289.306	0.038	0.069
-238.888	-200.000	-0.018	-0.115
-237.873	341.324	0.201	-0.391
-236.859	533.658	0.176	0.414
-235.844	166.719	-0.207	0.293
-234.830	84.677	-0.165	-0.180
-233.815	-200.000	0.007	-0.056
-232.800	141.892	0.056	0.074
-231.786	-74.140	0.386	-0.139
-230.771	533.948	0.135	0.317
-229.757	657.863	0.042	-0.108
-228.742	-200.000	0.023	0.410
-227.727	-154.428	0.422	-0.028
-226.713	142.152	-0.132	-0.174
-225.698	-134.208	-0.156	0.019
-224.684	-200.000	0.004	-0.256
-223.669	115.573	0.050	-0.061
-222.655	99.385	-0.054	0.062
-221.640	434.941	0.054	-0.116
-220.625	800.000	-0.062	0.218
-219.611	16.707	-0.129	0.101
-218.596	-200.000	0.030	0.210
-217.582	503.832	-0.071	-0.163
-216.567	270.232	-0.084	-0.147
-215.552	-200.000	-0.001	0.142
-214.538	-130.578	0.298	-0.040
-213.523	480.432	-0.087	0.196
-212.509	-63.920	0.359	-0.146
-211.494	-164.287	-0.201	-0.009
-210.479	20.423	-0.267	-0.215
-209.465	-200.000	0.026	0.274
-208.450	199.938	-0.085	0.130
-207.436	-200.000	-0.031	-0.143
-206.421	-57.547	-0.137	-0.060
-205.406	109.632	-0.159	0.189
-204.392	-200.000	0.023	0.232
-203.377	32.753	-0.212	-0.182
-202.363	800.000	0.030	0.086
-201.348	-129.080	0.254	0.035
-200.333	-172.263	-0.145	-0.005
-199.319	85.261	-0.091	-0.099
-198.304	-30.339	0.266	-0.150
-197.290	-200.000	0.001	0.060
-196.275	-54.843	-0.029	-0.013
-195.260	-119.967	0.159	-0.027
-194.246	-200.000	0.043	0.261
-193.231	22.279	-0.158	-0.128
-192.217	114.746	0.227	0.275
-191.202	95.665	-0.215	-0.244
-190.187	800.000	-0.096	-0.364
-189.173	800.000	0.043	-0.187
-188.158	296.738	0.103	0.188
-187.144	-15.339	-0.199	0.126
-186.129	-64.651	-0.320	0.129
-185.114	-81.580	0.405	0.132
-184.100	48.652	-0.042	0.039
-183.085	-28.363	0.319	0.183
-182.071	-73.407	-0.081	-0.030
-181.056	573.593	0.092	-0.223
-180.042	473.321	0.029	-0.066
-179.027	-114.660	0.236	-0.045
-178.012	-108.714	0.239	-0.051
-176.998	-78.326	0.126	-0.043
-175.983	-200.000	0.039	0.368
-174.969	-4.734	-0.141	-0.097
-173.954	-200.000	0.025	-0.159
-172.939	-200.000	-0.015	0.117
-171.925	800.000	0.089	0.258
-170.910	-13.157	0.355	0.229
-169.896	100.818	-0.208	-0.240
-168.881	-99.102	0.436	0.109
-167.866	-200.000	0.011	0.086
-166.852	-46.678	0.324	0.158
-165.837	-66.575	-0.110	0.043
-164.823	-113.599	-0.171	0.033
-163.808	57.753	-0.279	0.271
-162.793	800.000	0.049	0.198
-161.779	-38.964	0.267	-0.139
-160.764	-74.941	-0.422	-0.150
-159.750	-200.000	-0.010	0.160
-158.735	138.254	-0.033	-0.042
-157.720	54.851	-0.233	0.223
-156.706	-200.000	0.085	0.371
-155.691	-55.325	-0.135	0.060
-154.677	-200.000	0.047	0.206
-153.662	-18.038	0.234	-0.145
-152.647	196.737	-0.083	0.125
-151.633	-34.748	-0.160	0.087
-150.618	130.049	0.076	-0.096
-149.604	151.736	0.146	0.198
-148.589	11.149	-0.061	0.046
-147.574	26.735	-0.103	-0.086
-146.560	-136.889	0.289	0.033
-145.545	306.558	0.095	-0.175
-144.531	-153.669	0.261	0.018
-143.516	-14.133	0.182	0.116
-142.502	91.417	-0.065	0.072
-141.487	389.027	-0.041	-0.085
-140.472	373.897	0.142	0.286
-139.458	33.335	-0.142	0.122
-138.443	151.424	-0.055	0.074
-137.429	-200.000	0.018	0.235
-136.414	-13.847	-0.194	0.124
-135.399	-61.676	-0.107	0.044
-134.385	56.399	-0.196	-0.189
-133.370	-104.224	0.165	-0.038
-132.356	-87.140	-0.136	0.041
-131.341	35.705	0.131	-0.114
-130.326	60.653	0.131	-0.129
-129.312	-169.881	-0.099	0.004
-128.297	-200.000	-0.031	-0.221
-127.283	-178.408	0.198	0.005
-126.268	47.666	-0.015	0.014
-125.253	20.099	0.077	-0.062
-124.239	800.000	-0.040	-0.116
-123.224	800.000	0.065	0.253
-122.210	-200.000	0.009	0.047
-121.195	-1.238	-0.117	-0.082
