DTS Sentinel unit serial number:	SN413079Multiplexer serial number:	ORYXHardware model number:	OX4-SRSoftware version number:	ORYX F/W v4.00 Oryx Data Collector v3.7.2.0data status	okinstallation	princeton_trtdifferential loss correction	single-endedforward channel	channel 4reverse channel	N/Adate	2019/09/14time	09:37:34forward acquisition time	60.00reverse acquisition time	0.00gamma	496.2192k internal	0.2304k external	0.2304temperature offset calibration	1.0135default loss term (dB/km)	0.3790temperature slope calibration	1.0000multiplexer offset coefficient	1.0000multiplexer slope coefficient	1.0000fibre end	0.00T internal ref (°C)	31.83T ext. ref 1 (°C)	3.90T ext. ref 2 (°C)	29.97length (m)	temperature (°C)	Stokes	anti-Stokes-747.200	75.034	-0.181	0.195
-746.185	131.586	0.170	0.222
-745.171	-45.664	-0.290	-0.146
-744.156	-33.949	-0.249	0.140
-743.142	279.377	0.129	0.234
-742.127	14.229	-0.024	0.019
-741.112	-131.357	-0.097	0.013
-740.098	-200.000	0.053	0.301
-739.083	1.282	0.373	0.273
-738.069	-200.000	-0.008	0.187
-737.054	518.377	0.101	-0.240
-736.039	134.382	-0.167	-0.220
-735.025	-106.662	-0.331	0.075
-734.010	-200.000	-0.046	0.240
-732.996	-23.984	-0.280	0.170
-731.981	800.000	-0.024	-0.086
-730.966	284.243	-0.091	0.167
-729.952	232.882	0.143	0.239
-728.937	-20.874	-0.353	-0.220
-727.923	-71.499	-0.126	-0.048
-726.908	-200.000	-0.031	-0.194
-725.894	-76.418	-0.558	0.200
-724.879	-188.220	0.206	0.003
-723.864	-200.000	0.022	-0.103
-722.850	-155.164	0.031	-0.002
-721.835	75.628	0.162	0.174
-720.821	343.930	-0.063	-0.125
-719.806	800.000	-0.062	-0.197
-718.791	33.382	-0.275	-0.243
-717.777	-104.992	-0.422	-0.098
-716.762	-164.489	0.240	-0.011
-715.748	-200.000	-0.055	0.268
-714.733	137.237	-0.116	0.154
-713.718	-51.906	0.110	-0.052
-712.704	52.596	-0.246	-0.239
-711.689	70.408	-0.147	-0.154
-710.675	25.062	-0.355	0.299
-709.660	-200.000	0.069	-0.312
-708.645	-19.738	0.135	0.085
-707.631	-61.561	0.270	-0.115
-706.616	-99.381	-0.157	-0.040
-705.602	769.160	0.108	-0.299
-704.587	117.494	-0.199	0.249
-703.572	800.000	-0.079	-0.345
-702.558	-200.000	0.073	-0.408
-701.543	-151.621	0.077	-0.006
-700.529	-122.350	-0.057	0.009
-699.514	149.679	0.214	-0.295
-698.499	-190.644	0.246	-0.003
-697.485	397.701	-0.029	0.062
-696.470	88.313	0.167	-0.189
-695.456	-19.035	0.161	-0.102
-694.441	-16.183	-0.186	-0.120
-693.426	-10.675	0.071	-0.048
-692.412	-200.000	0.001	-0.187
-691.397	34.753	0.133	-0.118
-690.383	-46.749	0.148	-0.073
-689.368	-200.000	-0.020	-0.166
-688.354	265.062	0.035	0.063
-687.339	43.674	0.221	-0.205
-686.324	800.000	0.177	0.594
-685.310	-114.601	-0.147	0.029
-684.295	-200.000	-0.008	0.041
-683.281	-44.100	0.160	0.081
-682.266	634.680	-0.027	0.069
-681.251	-200.000	-0.008	-0.153
-680.237	-144.518	-0.069	-0.007
-679.222	-12.382	-0.195	-0.130
-678.208	-2.359	-0.197	0.140
-677.193	-25.940	0.245	-0.146
-676.178	335.565	0.118	-0.233
-675.164	-22.087	-0.166	-0.103
-674.149	-151.976	0.290	0.021
-673.135	-22.784	-0.117	-0.072
-672.120	-11.521	-0.090	-0.060
-671.105	-200.000	-0.028	-0.177
-670.091	-69.297	0.244	-0.095
-669.076	394.875	0.046	-0.098
-668.062	800.000	0.106	-0.408
-667.047	800.000	0.066	-0.241
-666.032	-200.000	-0.024	-0.388
-665.018	303.916	-0.013	0.025
-664.003	-42.094	-0.059	0.030
-662.989	-53.176	0.324	0.151
-661.974	800.000	-0.051	-0.223
-660.959	-18.383	0.165	-0.105
-659.945	-131.998	0.344	-0.046
-658.930	132.647	-0.133	-0.174
-657.916	-200.000	0.010	-0.088
-656.901	280.598	0.087	0.157
-655.886	97.563	-0.016	-0.018
-654.872	-3.293	-0.124	-0.088
-653.857	744.023	-0.114	-0.311
-652.843	-200.000	0.016	-0.310
-651.828	-170.218	-0.166	-0.006
-650.814	106.759	-0.161	-0.194
-649.799	-73.800	-0.269	-0.099
-648.784	23.470	0.108	0.090
-647.770	169.931	-0.188	-0.272
-646.755	-19.650	0.186	-0.117
-645.741	82.007	-0.243	0.267
-644.726	-177.044	0.321	0.008
-643.711	-154.746	0.176	-0.012
-642.697	151.009	0.166	-0.229
-641.682	-200.000	0.006	0.152
-640.668	-193.019	-0.210	-0.002
-639.653	354.787	-0.052	0.104
-638.638	5.645	-0.072	0.054
-637.624	-95.688	-0.128	0.035
-636.609	183.491	0.194	-0.290
-635.595	4.762	-0.238	-0.177
-634.580	135.368	0.081	-0.107
-633.565	-8.086	-0.196	-0.134
-632.551	55.494	0.102	-0.100
-631.536	43.455	0.253	0.235
-630.522	-70.061	-0.130	-0.050
-629.507	-200.000	-0.102	-0.535
-628.492	800.000	0.065	0.193
-627.478	-104.519	0.170	0.040
-626.463	51.479	-0.166	-0.160
-625.449	27.276	0.138	-0.117
-624.434	-85.633	0.210	0.066
-623.419	139.543	-0.064	0.085
-622.405	284.924	0.054	0.098
-621.390	-72.981	0.419	-0.156
-620.376	-124.617	0.076	0.012
-619.361	0.609	-0.119	0.086
-618.346	5.347	-0.101	0.075
-617.332	-200.000	-0.009	0.090
-616.317	800.000	-0.035	-0.125
-615.303	56.423	0.238	-0.235
-614.288	241.886	0.091	-0.155
-613.273	800.000	-0.046	-0.171
-612.259	-200.000	-0.058	0.262
-611.244	541.631	-0.055	0.132
-610.230	-200.000	-0.009	0.359
-609.215	-44.330	-0.282	0.143
-608.201	-200.000	0.001	0.397
-607.186	-155.040	-0.047	-0.003
-606.171	-92.289	0.048	0.014
-605.157	37.332	0.100	0.090
-604.142	-97.892	0.089	-0.023
-603.128	89.933	-0.107	0.121
-602.113	26.593	0.368	-0.312
-601.098	-46.534	0.205	-0.102
-600.084	141.164	-0.128	0.171
-599.069	-21.419	0.141	0.087
-598.055	-200.000	-0.003	-0.147
-597.040	207.399	0.069	0.109
-596.025	29.198	-0.271	-0.233
-595.011	-82.689	0.161	0.053
-593.996	-140.700	-0.214	-0.022
-592.982	-200.000	0.018	0.101
-591.967	-84.558	-0.196	0.063
-590.952	-54.601	-0.160	0.073
-589.938	-115.164	0.275	-0.053
-588.923	-37.089	0.138	-0.075
-587.909	14.233	-0.056	0.044
-586.894	-34.603	0.319	-0.177
-585.879	-200.000	0.005	0.283
-584.865	-152.296	0.087	-0.006
-583.850	-63.940	-0.052	0.022
-582.836	-109.469	0.159	0.034
-581.821	-42.145	0.032	0.017
-580.806	182.452	0.026	-0.038
-579.792	-32.999	0.240	0.134
-578.777	68.805	0.118	-0.123
-577.763	274.440	-0.081	0.145
-576.748	800.000	-0.074	0.270
-575.733	-11.569	-0.115	0.076
-574.719	38.875	-0.138	0.125
-573.704	360.879	-0.036	-0.073
-572.690	-101.653	0.118	0.029
-571.675	275.388	-0.049	-0.088
-570.661	-108.976	0.155	-0.033
-569.646	-41.622	-0.068	0.035
-568.631	-200.000	-0.063	-0.582
-567.617	800.000	0.035	-0.142
-566.602	-158.302	-0.078	0.005
-565.588	-62.183	0.366	-0.154
-564.573	279.973	-0.213	0.385
-563.558	800.000	0.055	-0.172
-562.544	-102.848	-0.145	-0.035
-561.529	800.000	0.082	-0.244
-560.515	-27.266	-0.354	-0.208
-559.500	20.045	-0.408	-0.333
-558.485	4.466	-0.035	0.026
-557.471	6.719	-0.119	0.090
-556.456	68.751	-0.239	0.248
-555.442	-96.713	0.155	0.041
-554.427	800.000	0.038	-0.105
-553.412	89.371	0.146	0.164
-552.398	294.381	0.035	0.064
-551.383	800.000	-0.089	-0.276
-550.369	-67.978	-0.060	0.024
-549.354	4.471	-0.198	0.146
-548.339	287.980	-0.118	-0.215
-547.325	-116.562	-0.183	0.034
-546.310	-145.179	0.188	0.017
-545.296	85.865	-0.160	0.177
-544.281	273.071	-0.161	-0.288
-543.266	169.481	-0.092	-0.133
-542.252	330.348	-0.190	0.370
-541.237	99.794	-0.123	-0.143
-540.223	-37.552	-0.185	0.099
-539.208	187.444	0.102	-0.153
-538.193	-200.000	-0.015	-0.227
-537.179	427.708	-0.165	0.360
-536.164	-200.000	0.029	-0.145
-535.150	-71.685	0.204	0.077
-534.135	41.157	0.158	-0.144
-533.121	-200.000	0.035	-0.288
-532.106	-39.798	-0.084	0.044
-531.091	211.991	0.132	-0.210
-530.077	416.801	0.049	-0.106
-529.062	176.850	0.266	-0.390
-528.048	81.415	-0.060	0.066
-527.033	-88.060	-0.402	0.122
-526.018	108.675	0.049	0.059
-525.004	800.000	-0.018	0.050
-523.989	119.020	-0.096	-0.120
-522.975	-85.712	0.248	0.078
-521.960	800.000	-0.172	-0.498
-520.945	-163.013	-0.306	-0.015
-519.931	-128.838	-0.135	-0.019
-518.916	45.241	0.298	0.278
-517.902	-200.000	0.017	0.215
-516.887	-167.287	-0.141	-0.006
-515.872	800.000	0.060	0.233
-514.858	4.239	0.029	0.022
-513.843	62.016	0.268	-0.269
-512.829	448.324	-0.129	0.287
-511.814	-33.424	-0.091	-0.051
-510.799	0.924	-0.225	0.163
-509.785	-13.073	-0.145	0.095
-508.770	65.958	0.199	-0.204
-507.756	-53.721	0.238	-0.109
-506.741	9.012	-0.244	-0.186
-505.726	-48.923	0.176	0.085
-504.712	-200.000	-0.095	0.479
-503.697	-45.211	0.119	-0.059
-502.683	-200.000	0.064	0.344
-501.668	55.387	-0.287	0.280
-500.653	751.846	-0.071	0.193
-499.639	502.167	0.124	0.288
-498.624	-200.000	0.004	-0.050
-497.610	11.745	-0.211	0.164
-496.595	-55.353	-0.179	0.081
-495.581	56.060	0.120	-0.117
-494.566	-200.000	-0.013	-0.224
-493.551	-65.645	0.338	-0.137
-492.537	-56.783	0.098	0.044
-491.522	162.661	-0.123	-0.175
-490.508	-200.000	0.040	-0.262
-489.493	163.720	0.157	0.223
-488.478	-60.327	-0.396	0.170
-487.464	95.074	-0.061	0.071
-486.449	268.693	-0.135	0.238
-485.435	800.000	-0.040	0.118
-484.420	255.355	0.072	0.124
-483.405	800.000	-0.026	0.105
-482.391	800.000	0.080	-0.285
-481.376	-30.529	0.047	0.027
-480.362	800.000	-0.090	0.319
-479.347	-84.751	-0.411	0.130
-478.332	800.000	0.139	0.417
-477.318	-68.891	-0.275	0.107
-476.303	-83.246	-0.081	0.026
-475.289	-36.574	-0.280	-0.152
-474.274	-131.661	-0.208	0.028
-473.259	800.000	-0.045	0.158
-472.245	-200.000	0.027	-0.156
-471.230	-43.099	0.307	-0.157
-470.216	151.852	0.284	-0.391
-469.201	61.127	-0.169	0.169
-468.186	13.702	-0.232	-0.182
-467.172	57.179	0.309	-0.303
-466.157	-200.000	-0.029	-0.224
-465.143	247.170	0.078	-0.133
-464.128	-40.667	0.134	-0.070
-463.113	-96.291	0.083	0.022
-462.099	-153.241	-0.356	0.025
-461.084	50.218	0.268	0.255
-460.070	29.080	0.312	0.266
-459.055	16.898	0.155	-0.123
-458.040	92.361	-0.219	-0.249
-457.026	-200.000	0.012	-0.319
-456.011	-200.000	-0.003	-0.180
-454.997	-70.322	0.140	0.053
-453.982	-74.673	-0.105	0.038
-452.968	-41.812	0.167	-0.086
-451.953	288.019	-0.151	0.275
-450.938	103.218	0.110	0.130
-449.924	-36.394	0.127	0.069
-448.909	17.807	-0.106	-0.085
-447.895	800.000	-0.074	-0.212
-446.880	241.089	0.090	-0.152
-445.865	159.809	-0.132	-0.185
-444.851	-115.471	0.038	0.007
-443.836	-200.000	-0.048	-0.211
-442.822	-78.819	-0.143	0.049
-441.807	129.625	-0.144	-0.185
-440.792	-81.861	-0.211	0.070
-439.778	-109.536	-0.240	0.051
-438.763	97.153	0.125	0.144
-437.749	-109.640	-0.100	0.021
-436.734	216.750	-0.063	-0.100
-435.719	-68.535	-0.153	0.060
-434.705	800.000	-0.075	0.220
-433.690	-45.824	0.057	0.028
-432.676	62.534	-0.243	0.244
-431.661	569.931	0.041	0.100
-430.646	280.764	0.115	0.207
-429.632	800.000	-0.018	-0.060
-428.617	-49.703	-0.163	0.078
-427.603	-103.050	-0.123	-0.029
-426.588	-200.000	-0.000	-0.088
-425.573	-200.000	0.001	0.018
-424.559	-200.000	-0.042	-0.282
-423.544	409.542	0.033	0.070
-422.530	800.000	0.043	-0.174
-421.515	-94.874	0.250	-0.068
-420.500	-128.749	-0.271	0.038
-419.486	78.521	0.200	-0.214
-418.471	-200.000	0.037	-0.216
-417.457	-48.609	-0.144	-0.070
-416.442	800.000	-0.053	0.151
-415.428	560.873	0.070	-0.171
-414.413	96.679	0.246	-0.283
-413.398	-200.000	0.023	0.284
-412.384	-21.458	-0.377	0.231
-411.369	43.687	-0.032	0.029
-410.355	-146.418	0.290	0.025
-409.340	42.255	0.068	-0.062
-408.325	-37.170	-0.473	0.254
-407.311	-200.000	-0.014	0.092
-406.296	31.159	0.191	-0.164
-405.282	301.045	0.018	0.033
-404.267	227.808	-0.065	0.106
-403.252	-75.691	0.202	0.072
-402.238	-62.845	0.106	-0.044
-401.223	-200.000	-0.004	-0.299
-400.209	-123.381	0.155	0.025
-399.194	136.981	0.042	0.055
-398.179	-155.599	-0.259	-0.017
-397.165	-108.547	-0.161	0.035
-396.150	43.388	-0.391	0.359
-395.136	741.083	-0.081	-0.218
-394.121	-27.572	-0.256	0.149
-393.106	-200.000	-0.037	0.243
-392.092	154.008	0.095	-0.130
-391.077	-56.025	0.238	0.107
-390.063	-87.825	-0.366	0.111
-389.048	-48.700	-0.008	0.004
-388.033	-128.207	0.152	-0.022
-387.019	-78.890	-0.132	0.045
-386.004	800.000	0.033	0.142
-384.990	122.681	0.050	0.063
-383.975	-104.156	0.387	-0.090
-382.960	-132.223	-0.080	0.010
-381.946	-86.976	0.267	0.082
-380.931	407.566	0.097	-0.205
-379.917	229.697	-0.105	0.172
-378.902	201.644	-0.206	0.319
-377.888	53.526	-0.150	-0.145
-376.873	-113.718	0.124	0.024
-375.858	-162.072	-0.194	0.010
-374.844	800.000	0.080	-0.255
-373.829	-134.789	0.017	-0.002
-372.815	29.648	-0.177	-0.151
-371.800	-31.301	-0.259	-0.146
-370.785	336.584	0.039	-0.076
-369.771	800.000	-0.013	-0.047
-368.756	-200.000	0.047	0.226
-367.742	55.395	-0.181	0.176
-366.727	118.122	-0.139	0.172
-365.712	97.320	0.217	0.249
-364.698	-28.261	0.180	-0.104
-363.683	-141.095	0.214	0.022
-362.669	747.198	0.016	-0.044
-361.654	800.000	-0.022	-0.091
-360.639	342.288	-0.061	0.119
-359.625	492.394	-0.131	0.302
-358.610	362.179	0.116	0.233
-357.596	-200.000	-0.021	-0.292
-356.581	-90.934	0.125	-0.036
-355.566	-11.494	-0.099	-0.065
-354.552	-113.369	-0.280	-0.055
-353.537	-137.591	-0.294	-0.033
-352.523	10.142	0.467	-0.356
-351.508	10.506	0.122	0.093
-350.493	500.166	0.059	-0.135
-349.479	441.134	-0.130	-0.284
-348.464	-66.772	-0.066	-0.026
-347.450	150.133	0.067	0.092
-346.435	477.320	-0.083	-0.188
-345.420	-200.000	-0.040	-0.176
-344.406	800.000	-0.025	0.080
-343.391	-183.622	0.422	0.007
-342.377	112.601	0.116	0.141
-341.362	-57.095	-0.336	0.148
-340.348	-149.482	0.425	-0.034
-339.333	-39.624	-0.355	-0.186
-338.318	205.096	-0.100	0.156
-337.304	286.670	0.093	-0.169
-336.289	58.172	0.352	-0.346
-335.275	-181.604	-0.244	0.005
-334.260	-132.090	0.136	0.018
-333.245	800.000	-0.084	0.310
-332.231	800.000	0.109	0.313
-331.216	-200.000	0.011	-0.082
-330.202	-94.931	0.348	-0.094
-329.187	800.000	-0.084	-0.244
-328.172	-15.797	-0.216	0.138
-327.158	162.397	-0.088	0.124
-326.143	800.000	0.067	-0.197
-325.129	-200.000	-0.007	-0.173
-324.114	50.518	0.239	-0.226
-323.099	329.358	0.103	0.199
-322.085	-68.032	0.148	-0.058
-321.070	-160.817	0.213	-0.011
-320.056	11.788	-0.128	-0.098
-319.041	5.461	0.112	-0.083
-318.026	94.378	0.162	-0.184
-317.012	-200.000	-0.012	-0.365
-315.997	-84.751	-0.358	0.113
-314.983	-28.042	0.201	0.117
-313.968	-106.196	-0.293	0.066
-312.953	468.743	-0.041	-0.091
-311.939	800.000	0.074	0.243
-310.924	382.207	-0.090	-0.185
-309.910	-120.464	-0.108	-0.018
-308.895	-51.757	0.267	0.125
-307.880	-53.913	0.179	-0.082
-306.866	56.389	-0.069	-0.067
-305.851	-41.004	-0.118	-0.061
-304.837	-23.048	-0.198	-0.119
-303.822	194.966	-0.100	-0.152
-302.807	247.923	0.049	0.084
-301.793	207.192	-0.067	0.104
-300.778	-200.000	-0.040	-0.239
-299.764	-124.518	0.260	-0.040
-298.749	-153.744	-0.431	0.030
-297.735	143.857	-0.058	-0.077
-296.720	-79.175	0.220	0.075
-295.705	-17.998	0.031	-0.019
-294.691	-200.000	0.001	-0.077
-293.676	-57.246	0.129	-0.057
-292.662	484.244	0.107	-0.243
-291.647	-152.971	0.133	0.009
-290.632	-68.729	0.230	0.089
-289.618	-68.464	-0.169	-0.066
-288.603	-75.318	0.149	0.053
-287.589	13.169	-0.344	-0.267
-286.574	-200.000	0.042	-0.350
-285.559	800.000	-0.086	-0.298
-284.545	-200.000	0.005	-0.403
-283.530	-24.802	0.124	0.074
-282.516	-116.707	0.431	-0.079
-281.501	343.329	-0.189	0.371
-280.486	-53.096	-0.318	0.146
-279.472	-200.000	-0.002	0.232
-278.457	-49.110	0.161	-0.077
-277.443	108.842	0.052	0.062
-276.428	23.156	-0.164	0.135
-275.413	-79.402	-0.226	-0.076
-274.399	103.419	0.112	0.131
-273.384	89.746	0.221	0.246
-272.370	-158.971	-0.065	0.004
-271.355	-41.327	-0.395	0.203
-270.340	324.694	-0.135	0.258
-269.326	-1.759	0.211	0.149
-268.311	800.000	-0.048	-0.135
-267.297	-193.949	0.234	0.002
-266.282	800.000	0.046	-0.135
-265.267	80.283	-0.133	-0.143
-264.253	-44.868	-0.137	-0.068
-263.238	386.073	-0.141	0.292
-262.224	226.850	-0.080	-0.130
-261.209	379.913	-0.036	0.074
-260.195	-200.000	-0.015	-0.123
-259.180	113.323	0.167	0.203
-258.165	-129.197	0.198	0.028
-257.151	-100.077	-0.094	-0.023
-256.136	-174.122	0.178	-0.005
-255.122	133.696	0.090	0.117
-254.107	-123.010	-0.120	-0.019
-253.092	-61.871	0.026	-0.011
-252.078	-194.347	0.222	-0.002
-251.063	-42.457	0.257	-0.131
-250.049	30.225	0.177	-0.151
-249.034	-138.320	-0.137	-0.015
-248.019	-200.000	0.070	0.522
-247.005	434.163	-0.067	0.145
-245.990	-200.000	0.019	0.251
-244.976	111.236	0.132	0.159
-243.961	800.000	0.022	-0.072
-242.946	-119.068	-0.218	-0.038
-241.932	-81.673	-0.075	-0.024
-240.917	192.262	0.163	-0.245
-239.903	-13.642	0.106	-0.068
-238.888	-27.946	-0.168	0.097
-237.873	-200.000	0.055	-0.247
-236.859	-92.792	0.276	-0.077
-235.844	-200.000	-0.022	0.149
-234.830	-200.000	0.012	-0.179
-233.815	-81.618	-0.041	-0.013
-232.800	-200.000	-0.030	-0.236
-231.786	-41.571	0.277	-0.142
-230.771	-9.086	-0.039	0.026
-229.757	-46.552	-0.312	-0.153
-228.742	27.806	-0.092	0.078
-227.727	223.850	0.047	0.075
-226.713	-92.175	0.184	-0.052
-225.698	-39.619	0.319	0.167
-224.684	-41.188	-0.226	0.117
-223.669	42.551	0.197	0.179
-222.655	-82.843	-0.387	0.125
-221.640	103.322	0.247	0.290
-220.625	145.377	-0.142	0.190
-219.611	24.365	0.157	0.129
-218.596	-72.199	-0.097	0.036
-217.582	-139.384	0.157	-0.017
-216.567	51.306	-0.067	0.064
-215.552	533.724	0.064	-0.151
-214.538	-23.091	0.308	-0.185
-213.523	800.000	0.057	-0.176
-212.509	-78.610	-0.022	-0.007
-211.494	49.890	-0.288	0.271
-210.479	-103.883	-0.121	0.028
-209.465	89.158	-0.177	0.197
-208.450	57.995	0.135	0.132
-207.436	87.400	-0.189	0.208
-206.421	-200.000	0.058	-0.286
-205.406	10.969	0.304	-0.231
-204.392	162.884	0.059	0.083
-203.377	-200.000	-0.004	0.053
-202.363	-56.684	-0.082	0.036
-201.348	484.981	-0.089	0.203
-200.333	164.145	-0.154	-0.216
-199.319	192.981	0.109	-0.165
-198.304	787.566	-0.168	0.461
-197.290	91.385	-0.095	0.106
-196.275	-143.294	-0.295	0.028
-195.260	-39.798	-0.508	0.265
-194.246	-140.070	0.126	0.013
-193.231	-200.000	-0.066	0.329
-192.217	-200.000	0.030	0.376
-191.202	-55.859	-0.160	-0.071
-190.187	96.036	0.111	0.126
-189.173	661.564	0.164	0.422
-188.158	-116.116	-0.063	0.012
-187.144	-3.805	0.286	-0.198
-186.129	281.219	0.075	0.133
-185.114	3.453	-0.209	0.152
-184.100	360.335	0.142	-0.283
-183.085	186.009	0.141	0.209
-182.071	483.510	-0.066	0.150
-181.056	-49.877	0.372	0.176
-180.042	-33.814	0.275	-0.151
-179.027	-49.860	-0.038	0.018
-178.012	-53.711	0.253	0.115
-176.998	-165.917	0.114	0.005
-175.983	-93.630	-0.193	-0.053
-174.969	59.996	0.296	-0.291
-173.954	800.000	0.096	-0.357
-172.939	-93.611	-0.210	0.058
-171.925	-138.953	-0.063	-0.007
-170.910	130.334	0.110	0.141
-169.896	-50.435	0.304	-0.143
-168.881	37.861	0.152	-0.134
-167.866	104.918	-0.096	-0.113
-166.852	-200.000	0.026	-0.431
-165.837	-125.869	0.208	-0.031
-164.823	-96.967	0.124	0.032
-163.808	-33.104	-0.204	-0.112
-162.793	-125.272	0.035	0.005
-161.779	19.742	-0.176	0.141
-160.764	-200.000	0.004	-0.028
-159.750	-168.775	0.276	-0.010
-158.735	241.683	0.066	0.110
-157.720	-46.475	-0.141	0.069
-156.706	-200.000	0.029	-0.329
-155.691	-153.874	0.314	0.021
-154.677	-200.000	-0.005	0.245
-153.662	-53.210	0.132	0.061
-152.647	-200.000	-0.004	-0.197
-151.633	-153.550	0.010	-0.001
-150.618	56.850	0.064	0.062
-149.604	-200.000	-0.000	0.018
-148.589	-200.000	-0.023	-0.104
-147.574	800.000	-0.035	-0.111
-146.560	-7.445	-0.264	-0.178
-145.545	-133.029	0.367	-0.046
-144.531	800.000	-0.015	0.051
-143.516	128.275	0.093	0.117
-142.502	-68.566	0.121	0.047
-141.487	-5.785	0.127	0.086
-140.472	-200.000	0.006	0.194
-139.458	-142.591	0.099	0.010
-138.443	-108.280	0.049	0.011
-137.429	-53.751	0.384	0.174
-136.414	-16.034	0.040	-0.025
-135.399	-31.558	0.046	0.026
-134.385	-15.943	0.040	-0.025
-133.370	20.715	-0.167	0.135
-132.356	-200.000	-0.025	-0.166
-131.341	101.068	0.045	0.052
-130.326	126.332	0.353	0.444
-129.312	-133.813	0.109	0.014
-128.297	508.622	-0.109	-0.251
-127.283	135.004	-0.030	-0.039
-126.268	148.327	0.057	0.076
-125.253	316.469	-0.009	-0.017
-124.239	-29.628	0.243	-0.138
-123.224	-34.480	0.312	-0.170
-122.210	-128.045	-0.185	-0.026
-121.195	-72.388	0.139	0.051
-120.180	800.000	0.076	0.268
