DTS Sentinel unit serial number:	SN413079Multiplexer serial number:	ORYXHardware model number:	OX4-SRSoftware version number:	ORYX F/W v4.00 Oryx Data Collector v3.7.2.0data status	okinstallation	princeton_trtdifferential loss correction	single-endedforward channel	channel 4reverse channel	N/Adate	2019/09/18time	02:01:35forward acquisition time	60.00reverse acquisition time	0.00gamma	496.2192k internal	0.2334k external	0.2334temperature offset calibration	0.9993default loss term (dB/km)	0.3790temperature slope calibration	1.0000multiplexer offset coefficient	1.0000multiplexer slope coefficient	1.0000fibre end	0.00T internal ref (°C)	22.92T ext. ref 1 (°C)	0.16T ext. ref 2 (°C)	16.69length (m)	temperature (°C)	Stokes	anti-Stokes-747.200	-58.933	0.294	-0.128
-746.185	486.852	-0.075	0.173
-745.171	33.255	0.074	0.064
-744.156	-128.216	-0.190	0.027
-743.142	-200.000	0.006	-0.096
-742.127	-78.592	-0.495	-0.170
-741.112	316.901	0.221	0.419
-740.098	-2.708	-0.257	-0.180
-739.083	-5.737	0.309	-0.213
-738.069	-7.226	-0.180	0.122
-737.054	136.034	0.118	-0.155
-736.039	17.337	-0.140	0.112
-735.025	-136.403	0.068	0.008
-734.010	89.362	-0.257	-0.288
-732.996	-58.265	-0.200	0.087
-731.981	18.472	0.153	-0.123
-730.966	-200.000	0.006	0.277
-729.952	800.000	-0.027	-0.078
-728.937	-58.801	-0.142	0.062
-727.923	-109.251	-0.281	0.060
-726.908	-15.323	0.076	0.049
-725.894	-131.689	-0.246	0.032
-724.879	418.650	-0.100	0.214
-723.864	-52.892	0.245	-0.113
-722.850	-76.714	0.116	-0.041
-721.835	-46.680	-0.278	-0.137
-720.821	-62.217	-0.147	-0.061
-719.806	307.340	0.103	-0.193
-718.791	132.008	0.149	0.193
-717.777	-48.866	0.131	-0.063
-716.762	-200.000	0.030	0.267
-715.748	-151.003	-0.269	0.020
-714.733	-91.224	-0.036	0.010
-713.718	800.000	0.098	-0.396
-712.704	-200.000	-0.020	-0.179
-711.689	277.625	0.197	0.351
-710.675	-9.440	0.269	-0.180
-709.660	-41.504	-0.134	-0.069
-708.645	123.253	-0.091	-0.115
-707.631	73.086	0.150	0.157
-706.616	800.000	-0.084	-0.338
-705.602	-136.468	0.279	0.032
-704.587	-24.207	-0.081	-0.048
-703.572	294.516	0.057	0.105
-702.558	-69.285	-0.389	-0.150
-701.543	-70.161	0.253	-0.096
-700.529	200.360	0.063	-0.096
-699.514	336.335	0.150	0.292
-698.499	563.297	-0.051	-0.125
-697.485	256.895	0.063	0.109
-696.470	800.000	-0.088	0.325
-695.456	-137.022	0.341	-0.039
-694.441	15.354	-0.052	-0.041
-693.426	150.184	0.117	0.160
-692.412	-114.597	0.072	0.014
-691.397	30.228	-0.098	0.084
-690.383	-200.000	-0.038	-0.235
-689.368	241.606	0.087	0.146
-688.354	-200.000	0.047	0.336
-687.339	-200.000	0.052	0.450
-686.324	130.468	0.125	0.160
-685.310	800.000	-0.093	0.381
-684.295	-146.420	-0.545	0.048
-683.281	364.077	-0.084	-0.169
-682.266	-162.056	-0.367	-0.019
-681.251	-200.000	0.008	-0.121
-680.237	-122.868	0.368	0.059
-679.222	34.722	0.194	-0.170
-678.208	33.248	0.136	-0.118
-677.193	800.000	-0.094	0.391
-676.178	-81.753	-0.078	0.025
-675.164	-35.486	0.095	-0.052
-674.149	141.108	-0.247	-0.327
-673.135	-116.031	-0.187	-0.035
-672.120	-105.818	-0.197	-0.045
-671.105	4.391	0.212	-0.156
-670.091	-50.921	0.382	-0.180
-669.076	-173.590	0.438	-0.013
-668.062	311.458	-0.188	-0.353
-667.047	164.047	-0.051	-0.072
-666.032	-45.427	0.176	0.088
-665.018	-67.203	-0.234	-0.092
-664.003	-63.306	0.066	-0.027
-662.989	607.297	-0.138	0.345
-661.974	800.000	-0.049	-0.151
-660.959	800.000	-0.137	-0.398
-659.945	-200.000	-0.009	-0.086
-658.930	-200.000	-0.031	0.232
-657.916	800.000	-0.058	-0.236
-656.901	32.602	-0.228	0.197
-655.886	-200.000	0.006	0.060
-654.872	-128.073	0.115	0.016
-653.857	121.230	-0.137	0.171
-652.843	-200.000	0.022	-0.234
-651.828	-152.660	0.372	0.027
-650.814	133.207	-0.252	0.326
-649.799	31.460	-0.152	-0.131
-648.784	436.527	-0.102	-0.223
-647.770	-41.616	-0.244	-0.126
-646.755	176.693	-0.153	0.223
-645.741	-200.000	-0.019	0.256
-644.726	800.000	0.057	0.173
-643.711	-200.000	-0.015	-0.069
-642.697	268.464	-0.172	-0.302
-641.682	-66.748	-0.011	-0.004
-640.668	-200.000	0.030	0.189
-639.653	-200.000	0.021	0.106
-638.638	-56.239	-0.226	-0.101
-637.624	-169.755	0.164	-0.006
-636.609	-200.000	0.058	-0.335
-635.595	112.764	0.059	-0.071
-634.580	443.707	0.073	0.160
-633.565	800.000	-0.044	-0.182
-632.551	800.000	-0.039	0.124
-631.536	-32.696	-0.172	0.096
-630.522	-34.712	-0.221	-0.121
-629.507	-200.000	-0.027	-0.224
-628.492	125.429	0.058	0.073
-627.478	-97.850	0.332	0.086
-626.463	800.000	-0.108	-0.347
-625.449	-54.329	-0.397	-0.180
-624.434	203.502	0.064	0.100
-623.419	-116.434	-0.018	-0.003
-622.405	-101.373	0.266	0.065
-621.390	-200.000	0.008	-0.129
-620.376	-200.000	-0.021	0.171
-619.361	-59.329	0.159	-0.069
-618.346	-56.325	0.286	0.127
-617.332	157.105	-0.055	-0.076
-616.317	190.331	0.162	0.243
-615.303	-30.947	-0.074	0.042
-614.288	-165.714	-0.778	-0.034
-613.273	492.643	0.058	0.133
-612.259	800.000	-0.101	0.344
-611.244	-98.021	0.080	-0.021
-610.230	101.836	-0.074	-0.086
-609.215	-200.000	0.001	0.074
-608.201	-80.514	0.111	-0.037
-607.186	26.904	0.216	-0.181
-606.171	123.117	0.273	-0.342
-605.157	800.000	0.098	0.274
-604.142	-200.000	-0.006	0.415
-603.128	-143.296	-0.346	-0.033
-602.113	-200.000	-0.033	0.180
-601.098	-113.298	-0.092	-0.018
-600.084	92.780	0.126	-0.142
-599.069	-200.000	-0.090	0.452
-598.055	-79.036	-0.102	0.035
-597.040	-66.392	-0.261	0.103
-596.025	-96.273	0.133	0.035
-595.011	246.916	0.172	-0.290
-593.996	800.000	-0.010	-0.041
-592.982	-15.652	-0.175	-0.112
-591.967	148.225	0.118	0.159
-590.952	-29.757	0.258	0.147
-589.938	-17.752	-0.304	-0.191
-588.923	30.034	-0.280	-0.239
-587.909	-94.457	0.140	-0.038
-586.894	-200.000	-0.070	-0.445
-585.879	126.339	0.198	0.250
-584.865	279.727	0.196	0.350
-583.850	-200.000	-0.009	0.246
-582.836	281.434	-0.045	-0.080
-581.821	-156.099	0.078	0.005
-580.806	101.997	-0.150	0.175
-579.792	70.238	0.100	-0.103
-578.777	-5.754	-0.236	-0.161
-577.763	-69.139	0.147	-0.057
-576.748	800.000	0.019	0.057
-575.733	169.347	-0.079	-0.112
-574.719	-200.000	0.016	-0.307
-573.704	435.479	-0.116	-0.252
-572.690	-13.098	0.040	0.026
-571.675	-90.105	-0.136	-0.039
-570.661	800.000	0.076	-0.304
-569.646	800.000	-0.118	0.335
-568.631	143.964	0.163	0.217
-567.617	344.179	-0.153	-0.299
-566.602	-119.777	-0.234	-0.040
-565.588	-48.989	-0.269	0.128
-564.573	-39.257	0.139	0.073
-563.558	-200.000	-0.025	0.251
-562.544	45.239	0.135	-0.124
-561.529	-33.439	-0.257	-0.142
-560.515	15.805	0.063	0.050
-559.500	-156.574	-0.264	0.016
-558.485	800.000	0.182	0.534
-557.471	-200.000	0.075	0.409
-556.456	121.394	-0.294	-0.365
-555.442	230.839	0.128	0.209
-554.427	-160.909	0.268	-0.014
-553.412	-200.000	-0.013	-0.076
-552.398	-200.000	0.016	-0.244
-551.383	-62.478	0.195	-0.081
-550.369	-111.543	-0.124	0.025
-549.354	-97.354	0.294	-0.076
-548.339	228.581	0.083	0.135
-547.325	382.644	0.060	-0.123
-546.310	-200.000	-0.044	0.292
-545.296	-128.109	-0.241	0.034
-544.281	51.466	-0.088	0.084
-543.266	1.148	-0.356	-0.255
-542.252	-188.014	0.081	-0.001
-541.237	46.527	-0.322	-0.298
-540.223	518.245	-0.017	-0.040
-539.208	97.306	0.158	0.180
-538.193	-96.235	-0.348	0.092
-537.179	-79.489	0.039	-0.013
-536.164	-200.000	-0.002	0.364
-535.150	87.444	-0.030	-0.033
-534.135	-200.000	0.009	0.195
-533.121	-59.626	-0.191	0.082
-532.106	800.000	-0.024	-0.094
-531.091	-44.817	0.305	0.152
-530.077	-137.522	-0.071	-0.008
-529.062	20.408	0.257	0.207
-528.048	270.412	0.048	-0.084
-527.033	-37.031	0.197	-0.105
-526.018	-50.637	0.215	0.101
-525.004	-26.814	-0.241	-0.140
-523.989	-200.000	-0.052	-0.236
-522.975	800.000	-0.016	-0.058
-521.960	258.059	-0.048	0.083
-520.945	-200.000	-0.015	0.106
-519.931	-140.694	0.482	-0.050
-518.916	800.000	-0.070	0.210
-517.902	-43.415	-0.410	0.206
-516.887	-103.896	0.244	-0.057
-515.872	640.810	-0.096	0.244
-514.858	-200.000	0.042	0.372
-513.843	800.000	0.089	-0.275
-512.829	800.000	-0.051	0.153
-511.814	85.840	0.316	0.346
-510.799	30.305	-0.132	0.112
-509.785	-91.525	-0.096	0.027
-508.770	432.638	0.030	-0.065
-507.756	-200.000	0.090	-0.423
-506.741	313.594	0.042	0.079
-505.726	-87.428	-0.586	0.177
-504.712	-137.787	0.227	0.025
-503.697	12.001	0.100	0.076
-502.683	-180.187	-0.199	0.004
-501.668	-32.716	0.142	-0.079
-500.653	-200.000	0.006	-0.064
-499.639	86.368	0.139	0.153
-498.624	800.000	-0.050	0.211
-497.610	-200.000	0.004	0.070
-496.595	-47.206	0.250	0.121
-495.581	434.068	0.133	0.288
-494.566	-200.000	0.031	0.215
-493.551	390.928	-0.168	0.348
-492.537	-81.533	-0.136	0.045
-491.522	-200.000	-0.084	-0.435
-490.508	-63.147	-0.140	-0.058
-489.493	65.348	-0.268	-0.270
-488.478	-54.714	-0.264	-0.119
-487.464	-7.310	-0.181	-0.122
-486.449	134.214	-0.208	-0.268
-485.435	123.871	0.095	-0.119
-484.420	647.481	-0.095	0.242
-483.405	800.000	0.129	-0.410
-482.391	-9.247	0.245	0.163
-481.376	573.031	0.112	-0.271
-480.362	-105.537	-0.239	0.054
-479.347	-83.825	0.276	-0.088
-478.332	-176.883	-0.335	-0.008
-477.318	800.000	0.032	0.112
-476.303	126.038	0.120	0.151
-475.289	43.030	0.122	0.111
-474.274	-200.000	-0.016	0.124
-473.259	-200.000	-0.011	0.109
-472.245	33.353	0.187	-0.162
-471.230	-23.622	0.032	-0.019
-470.216	-124.273	0.083	0.013
-469.201	548.297	0.050	0.118
-468.186	-200.000	0.003	-0.026
-467.172	-112.261	0.160	-0.032
-466.157	-0.738	-0.216	0.152
-465.143	-200.000	-0.011	0.279
-464.128	-114.491	-0.183	0.035
-463.113	-139.631	0.242	-0.026
-462.099	-137.480	-0.337	0.038
-461.084	134.630	-0.064	0.082
-460.070	165.539	0.167	0.235
-459.055	-118.643	0.055	-0.010
-458.040	-139.033	-0.257	-0.028
-457.026	-78.387	-0.106	-0.036
-456.011	-77.662	-0.089	0.031
-454.997	-99.768	-0.293	-0.073
-453.982	-129.152	-0.120	0.017
-452.968	-144.596	-0.187	0.017
-451.953	63.509	-0.171	-0.171
-450.938	-2.289	0.392	-0.273
-449.924	-200.000	0.002	0.154
-448.909	568.387	-0.223	0.538
-447.895	-60.362	0.108	-0.046
-446.880	-200.000	0.059	0.514
-445.865	184.076	0.086	-0.126
-444.851	-200.000	-0.000	-0.062
-443.836	-60.049	-0.234	-0.099
-442.822	7.617	0.240	-0.178
-441.807	221.314	0.036	0.057
-440.792	123.052	0.137	-0.171
-439.778	-53.402	-0.342	0.156
-438.763	-63.964	0.221	-0.090
-437.749	-106.909	0.377	0.083
-436.734	-163.541	-0.208	0.010
-435.719	-145.072	0.337	0.030
-434.705	-42.242	0.320	-0.162
-433.690	782.170	-0.048	-0.130
-432.676	-61.144	0.274	0.115
-431.661	-133.308	-0.051	-0.006
-430.646	-128.018	-0.320	0.046
-429.632	-17.056	-0.100	-0.063
-428.617	215.981	0.098	0.154
-427.603	800.000	-0.031	0.093
-426.588	181.363	0.151	0.220
-425.573	-33.481	0.138	0.076
-424.559	636.448	-0.156	0.392
-423.544	57.192	0.139	-0.135
-422.530	-200.000	0.006	-0.245
-421.515	800.000	0.016	0.065
-420.500	-200.000	-0.022	0.168
-419.486	-121.421	-0.155	0.026
-418.471	4.692	-0.037	0.027
-417.457	259.084	0.162	-0.277
-416.442	-128.295	-0.287	0.041
-415.428	-115.330	0.323	-0.060
-414.413	-110.726	-0.212	0.043
-413.398	800.000	-0.100	-0.368
-412.384	3.173	-0.065	0.047
-411.369	-200.000	-0.031	-0.332
-410.355	-51.003	0.163	0.076
-409.340	-1.680	-0.125	0.087
-408.325	-200.000	0.074	0.383
-407.311	-128.122	-0.096	0.014
-406.296	129.643	-0.085	-0.108
-405.282	-200.000	0.016	0.276
-404.267	800.000	-0.085	0.260
-403.252	249.911	-0.152	-0.255
-402.238	-66.374	0.184	0.072
-401.223	528.484	0.092	0.215
-400.209	-137.113	-0.329	0.037
-399.194	-200.000	0.020	0.141
-398.179	-94.126	-0.208	-0.056
-397.165	-71.876	-0.239	0.088
-396.150	-120.002	0.248	-0.042
-395.136	-28.847	-0.149	-0.085
-394.121	168.131	-0.111	0.157
-393.106	300.022	-0.219	0.399
-392.092	11.025	0.156	-0.118
-391.077	800.000	-0.093	0.259
-390.063	-170.815	-0.183	-0.006
-389.048	800.000	-0.086	0.241
-388.033	-200.000	0.017	-0.298
-387.019	-78.995	0.221	-0.074
-386.004	-200.000	0.040	-0.539
-384.990	521.282	0.133	-0.308
-383.975	26.881	0.206	0.171
-382.960	-35.199	0.213	0.115
-381.946	-20.679	-0.120	-0.073
-380.931	-121.632	-0.102	-0.017
-379.917	15.276	-0.228	-0.177
-378.902	219.226	0.131	-0.208
-377.888	-51.912	0.084	-0.039
-376.873	-200.000	0.068	-0.346
-375.858	-115.512	-0.282	0.053
-374.844	-57.650	0.176	0.076
-373.829	800.000	0.029	0.093
-372.815	800.000	-0.059	-0.181
-371.800	-200.000	0.017	0.282
-370.785	-98.574	-0.397	0.100
-369.771	-200.000	0.002	0.163
-368.756	-200.000	0.019	0.273
-367.742	328.928	0.034	0.065
-366.727	-200.000	0.028	0.170
-365.712	-64.455	0.305	0.123
-364.698	-53.606	-0.051	-0.023
-363.683	-115.153	-0.092	0.017
-362.669	83.928	0.178	-0.192
-361.654	-163.007	-0.195	0.009
-360.639	162.403	0.136	-0.189
-359.625	60.608	0.075	0.074
-358.610	38.408	0.259	-0.228
-357.596	90.770	0.287	-0.318
-356.581	4.650	-0.084	0.061
-355.566	221.107	-0.182	0.289
-354.552	-92.035	0.223	0.062
-353.537	800.000	0.046	-0.146
-352.523	-10.927	-0.144	0.094
-351.508	-134.577	-0.311	-0.038
-350.493	-43.394	-0.156	-0.078
-349.479	-200.000	0.025	-0.121
-348.464	62.774	0.182	0.180
-347.450	800.000	0.056	0.205
-346.435	-93.142	-0.179	-0.049
-345.420	-200.000	-0.086	-0.376
-344.406	-98.268	0.082	-0.021
-343.391	-41.589	0.202	0.103
-342.377	-174.242	-0.305	0.009
-341.362	51.574	0.176	-0.165
-340.348	-104.938	-0.233	0.053
-339.333	-135.847	-0.099	-0.012
-338.318	-24.269	0.270	0.159
-337.304	-97.962	-0.289	-0.074
-336.289	-12.146	0.221	0.143
-335.275	800.000	-0.138	0.466
-334.260	83.899	0.152	0.164
-333.245	157.090	0.074	0.101
-332.231	320.505	0.126	0.236
-331.216	43.237	0.125	0.113
-330.202	-117.769	-0.245	0.043
-329.187	-75.739	0.035	-0.012
-328.172	-90.734	0.243	-0.069
-327.158	-24.755	0.085	0.050
-326.143	-79.065	0.146	-0.049
-325.129	104.785	0.134	0.156
-324.114	-56.378	0.287	-0.126
-323.099	-10.347	0.064	-0.042
-322.085	-75.667	-0.347	-0.122
-321.070	-90.370	-0.231	-0.066
-320.056	-97.600	0.361	-0.092
-319.041	30.194	-0.110	-0.093
-318.026	-200.000	0.024	-0.148
-317.012	-125.505	-0.189	0.028
-315.997	-200.000	-0.026	0.299
-314.983	800.000	0.018	-0.061
-313.968	-200.000	0.026	-0.269
-312.953	-114.910	0.180	0.034
-311.939	-200.000	-0.012	-0.154
-310.924	-140.129	0.370	-0.038
-309.910	-200.000	0.014	-0.202
-308.895	155.758	-0.187	-0.255
-307.880	-72.428	-0.184	0.067
-306.866	15.581	0.128	0.100
-305.851	-200.000	-0.046	-0.220
-304.837	11.773	-0.165	0.125
-303.822	-157.469	0.185	0.011
-302.807	-102.415	0.182	-0.043
-301.793	800.000	-0.061	-0.226
-300.778	156.518	0.147	-0.201
-299.764	102.781	0.105	-0.121
-298.749	79.707	0.082	-0.087
-297.735	-16.259	0.178	0.112
-296.720	10.231	0.255	0.192
-295.705	800.000	0.188	0.553
-294.691	-56.010	0.310	0.136
-293.676	-200.000	0.003	-0.311
-292.662	-108.581	-0.139	-0.030
-291.647	-200.000	-0.057	-0.267
-290.632	52.035	0.101	-0.095
-289.618	800.000	0.067	0.249
-288.603	-19.868	0.226	0.138
-287.589	-83.875	0.183	0.058
-286.574	-177.184	0.277	0.007
-285.559	-200.000	0.008	0.073
-284.545	-77.374	-0.174	-0.060
-283.530	-200.000	-0.027	0.207
-282.516	-37.859	-0.417	-0.219
-281.501	114.765	0.053	-0.064
-280.486	800.000	0.095	-0.300
-279.472	800.000	0.047	0.198
-278.457	284.830	-0.024	-0.042
-277.443	302.080	-0.062	-0.112
-276.428	456.280	-0.026	-0.057
-275.413	-26.593	-0.210	0.121
-274.399	-42.239	-0.104	-0.053
-273.384	-4.935	0.289	-0.196
-272.370	800.000	0.075	-0.228
-271.355	94.980	0.193	-0.217
-270.340	59.626	-0.089	-0.087
-269.326	-55.274	-0.501	0.222
-268.311	-200.000	-0.010	0.251
-267.297	-152.641	-0.080	0.006
-266.282	52.411	-0.167	-0.157
-265.267	-138.393	-0.173	-0.019
-264.253	-104.763	-0.204	-0.046
-263.238	-20.868	-0.105	0.063
-262.224	-112.208	0.318	0.063
-261.209	-173.898	0.264	-0.008
-260.195	-200.000	-0.004	0.129
-259.180	-200.000	0.077	0.000
-258.165	258.814	-0.199	-0.338
-257.151	-200.000	0.017	-0.197
-256.136	-105.091	-0.424	-0.096
-255.122	800.000	-0.059	-0.250
-254.107	-173.561	-0.346	-0.010
-253.092	492.621	0.102	0.231
-252.078	-164.257	-0.075	-0.003
-251.063	42.217	0.197	0.176
-250.049	310.271	-0.111	0.204
-249.034	-200.000	-0.005	-0.433
-248.019	-113.937	-0.197	0.038
-247.005	-10.742	0.202	-0.131
-245.990	800.000	-0.037	0.134
-244.976	-38.597	-0.116	-0.061
-243.961	-200.000	0.063	0.295
-242.946	515.978	-0.030	0.068
-241.932	-62.340	-0.063	-0.026
-240.917	84.562	-0.130	0.140
-239.903	528.373	0.091	0.212
-238.888	31.061	0.187	-0.158
-237.873	-76.915	0.329	0.113
-236.859	55.053	0.143	0.136
-235.844	319.110	-0.143	-0.267
-234.830	-200.000	-0.027	-0.476
-233.815	-131.539	-0.194	0.025
-232.800	720.111	-0.085	-0.222
-231.786	418.212	0.145	0.306
-230.771	303.536	0.084	-0.153
-229.757	68.872	-0.255	-0.258
-228.742	409.544	0.147	-0.306
-227.727	-35.625	-0.257	0.137
-226.713	273.508	0.088	-0.153
-225.698	-165.209	0.075	-0.003
-224.684	-107.487	0.139	0.030
-223.669	-141.861	-0.238	-0.023
-222.655	226.868	-0.008	-0.013
-221.640	-200.000	0.013	-0.257
-220.625	800.000	0.111	-0.332
-219.611	-15.463	0.080	-0.050
-218.596	-200.000	-0.008	-0.255
-217.582	13.359	-0.087	0.066
-216.567	-137.542	0.138	0.015
-215.552	289.068	-0.104	-0.185
-214.538	63.313	-0.073	-0.072
-213.523	-200.000	0.003	0.361
-212.509	-135.210	0.049	-0.006
-211.494	782.165	-0.079	-0.212
-210.479	-200.000	-0.027	-0.273
-209.465	-200.000	-0.009	0.260
-208.450	107.369	-0.342	0.400
-207.436	11.214	0.301	0.227
-206.421	800.000	0.061	-0.210
-205.406	757.721	-0.010	0.026
-204.392	753.454	-0.196	-0.520
-203.377	38.106	0.100	-0.087
-202.363	-22.215	0.138	0.083
-201.348	146.927	-0.148	-0.196
-200.333	241.465	0.064	0.105
-199.319	-84.926	0.410	0.126
-198.304	-200.000	-0.021	-0.149
-197.290	34.836	0.047	0.040
-196.275	-200.000	-0.005	0.065
-195.260	170.877	0.298	-0.420
-194.246	-27.683	-0.188	-0.107
-193.231	652.728	0.078	-0.195
-192.217	129.230	0.208	0.261
-191.202	342.166	-0.147	-0.283
-190.187	662.870	0.059	0.151
-189.173	715.051	0.078	0.203
-188.158	233.927	-0.094	0.152
-187.144	180.155	0.150	-0.217
-186.129	221.546	0.160	0.253
-185.114	-200.000	-0.056	0.459
-184.100	-35.007	0.161	0.086
-183.085	774.583	-0.036	-0.098
-182.071	246.110	0.103	-0.171
-181.056	-58.569	0.202	-0.086
-180.042	800.000	0.031	0.093
-179.027	36.619	0.112	-0.097
-178.012	110.146	0.114	0.135
-176.998	-200.000	-0.027	0.158
-175.983	-5.353	0.257	0.173
-174.969	-32.798	-0.068	-0.037
-173.954	505.314	0.088	-0.201
-172.939	319.650	0.085	-0.158
-171.925	202.572	0.110	-0.167
-170.910	296.887	-0.140	0.253
-169.896	-82.832	-0.183	-0.058
-168.881	203.896	-0.225	-0.343
-167.866	-140.832	-0.076	0.008
-166.852	371.738	0.089	-0.177
-165.837	-10.543	0.237	-0.154
-164.823	-200.000	0.024	-0.140
-163.808	-1.664	-0.033	-0.023
-162.793	294.165	-0.125	-0.224
-161.779	-14.719	-0.219	-0.138
-160.764	74.922	0.096	0.099
-159.750	633.514	-0.089	0.221
-158.735	80.545	0.121	0.128
-157.720	-66.906	0.090	-0.035
-156.706	446.325	0.082	-0.176
-155.691	-10.633	-0.124	-0.081
-154.677	-81.827	0.452	0.145
-153.662	254.684	-0.117	-0.196
-152.647	77.673	0.163	-0.170
-151.633	-200.000	-0.001	0.367
-150.618	-54.072	0.362	-0.162
-149.604	800.000	0.034	0.116
-148.589	169.152	-0.065	-0.091
-147.574	256.494	-0.123	-0.207
-146.560	173.957	-0.180	0.256
-145.545	-99.983	0.445	-0.109
-144.531	-133.483	-0.408	0.050
-143.516	196.951	-0.128	0.192
-142.502	-120.763	-0.196	0.032
-141.487	-57.344	0.401	-0.173
-140.472	386.621	-0.112	-0.226
-139.458	-200.000	-0.089	-0.460
-138.443	800.000	0.077	0.237
-137.429	43.991	0.048	-0.044
-136.414	-45.500	0.181	0.088
-135.399	59.101	-0.126	0.121
-134.385	-39.794	0.204	0.105
-133.370	-70.237	0.296	0.110
-132.356	-200.000	-0.009	-0.059
-131.341	-200.000	0.034	-0.206
-130.326	-171.261	-0.175	0.006
-129.312	92.109	-0.356	0.393
-128.297	-170.859	0.176	0.006
-127.283	629.469	-0.110	-0.273
-126.268	-200.000	-0.010	-0.201
-125.253	498.939	-0.082	-0.186
-124.239	800.000	-0.035	-0.136
-123.224	420.838	-0.091	0.191
-122.210	87.634	0.290	0.314
