DTS Sentinel unit serial number:	SN413079Multiplexer serial number:	ORYXHardware model number:	OX4-SRSoftware version number:	ORYX F/W v4.00 Oryx Data Collector v3.7.2.0data status	okinstallation	princeton_trtdifferential loss correction	single-endedforward channel	channel 4reverse channel	N/Adate	2019/09/19time	15:49:34forward acquisition time	60.00reverse acquisition time	0.00gamma	496.2192k internal	0.2297k external	0.2297temperature offset calibration	1.0030default loss term (dB/km)	0.3790temperature slope calibration	1.0000multiplexer offset coefficient	1.0000multiplexer slope coefficient	1.0000fibre end	0.00T internal ref (°C)	35.05T ext. ref 1 (°C)	1.19T ext. ref 2 (°C)	33.72length (m)	temperature (°C)	Stokes	anti-Stokes-747.200	-5.146	0.089	0.063
-746.185	-31.966	-0.318	0.182
-745.171	726.528	-0.054	-0.147
-744.156	-200.000	0.039	0.236
-743.142	151.765	-0.189	0.264
-742.127	2.328	-0.198	0.146
-741.112	-96.039	0.105	0.029
-740.098	301.387	-0.159	0.301
-739.083	-109.355	-0.181	0.039
-738.069	-87.350	0.261	-0.081
-737.054	-60.410	0.168	-0.073
-736.039	243.618	-0.239	-0.409
-735.025	-97.865	0.278	0.073
-734.010	223.288	0.105	0.172
-732.996	800.000	-0.048	-0.146
-731.981	4.707	-0.455	0.341
-730.966	157.850	0.030	-0.043
-729.952	-45.476	-0.206	0.104
-728.937	383.483	-0.112	-0.235
-727.923	19.200	-0.205	-0.168
-726.908	-154.334	0.157	0.011
-725.894	-107.669	-0.212	-0.047
-724.879	800.000	-0.093	-0.297
-723.864	-17.643	0.274	0.176
-722.850	-116.510	-0.149	0.028
-721.835	198.738	-0.020	-0.032
-720.821	205.268	-0.071	-0.113
-719.806	-131.109	-0.387	0.053
-718.791	70.561	0.160	0.168
-717.777	-78.227	-0.234	-0.082
-716.762	103.431	-0.215	-0.258
-715.748	-18.418	-0.237	0.151
-714.733	523.062	-0.070	-0.168
-713.718	86.299	0.133	0.149
-712.704	-184.507	-0.469	-0.008
-711.689	64.045	-0.339	-0.348
-710.675	184.112	0.070	0.105
-709.660	601.056	-0.030	-0.077
-708.645	58.433	-0.085	0.085
-707.631	107.101	0.157	-0.191
-706.616	9.783	0.171	-0.132
-705.602	-69.955	-0.328	0.127
-704.587	-200.000	-0.016	-0.369
-703.572	124.293	-0.065	0.083
-702.558	-94.127	0.234	0.066
-701.543	800.000	0.035	-0.155
-700.529	191.886	-0.123	0.190
-699.514	96.615	0.025	-0.029
-698.499	-200.000	0.045	0.422
-697.485	-200.000	0.036	-0.301
-696.470	39.813	-0.186	-0.171
-695.456	41.639	-0.070	0.065
-694.441	400.643	-0.053	0.113
-693.426	800.000	0.074	-0.246
-692.412	71.631	-0.352	-0.373
-691.397	-43.133	0.047	-0.024
-690.383	-134.155	0.208	-0.026
-689.368	-200.000	-0.014	-0.554
-688.354	93.008	0.021	-0.024
-687.339	731.727	0.061	-0.168
-686.324	-142.068	-0.314	0.032
-685.310	-53.635	0.338	0.158
-684.295	-200.000	0.001	-0.292
-683.281	-200.000	-0.057	-0.312
-682.266	800.000	0.112	0.339
-681.251	293.013	0.118	0.219
-680.237	159.495	0.281	-0.399
-679.222	-200.000	-0.031	-0.245
-678.208	-149.678	-0.176	-0.014
-677.193	-8.126	-0.073	-0.050
-676.178	-14.481	0.260	-0.170
-675.164	43.997	-0.092	-0.086
-674.149	800.000	-0.035	0.149
-673.135	-112.330	-0.164	0.033
-672.120	-198.659	0.063	-0.000
-671.105	-86.153	-0.435	-0.137
-670.091	103.352	0.090	-0.107
-669.076	-93.130	-0.376	-0.107
-668.062	216.989	-0.120	0.195
-667.047	97.240	-0.198	0.231
-666.032	-104.524	-0.112	-0.026
-665.018	-147.493	-0.161	-0.014
-664.003	-137.793	0.136	-0.015
-662.989	63.923	-0.212	-0.217
-661.974	-8.955	-0.266	0.181
-660.959	800.000	0.061	0.216
-659.945	-100.069	-0.035	-0.009
-658.930	128.840	0.169	0.219
-657.916	198.843	0.056	-0.087
-656.901	-18.450	-0.114	0.073
-655.886	301.263	0.148	0.277
-654.872	286.386	0.126	0.232
-653.857	293.270	0.100	0.186
-652.843	-123.316	-0.277	-0.045
-651.828	153.319	-0.077	-0.107
-650.814	-1.188	0.051	0.036
-649.799	-69.264	-0.244	0.096
-648.784	-13.532	-0.284	0.188
-647.770	-79.707	0.322	-0.110
-646.755	-200.000	-0.024	0.191
-645.741	-157.304	0.413	-0.025
-644.726	-149.911	0.240	0.019
-643.711	-62.890	-0.218	0.092
-642.697	271.907	0.121	-0.217
-641.682	-149.191	0.440	0.036
-640.668	800.000	0.022	-0.097
-639.653	304.933	-0.077	0.146
-638.638	-200.000	-0.053	-0.396
-637.624	-200.000	-0.072	-0.467
-636.609	-25.325	0.131	-0.079
-635.595	-200.000	-0.025	-0.266
-634.580	22.444	0.130	0.108
-633.565	-23.846	-0.125	0.076
-632.551	-141.741	0.312	-0.032
-631.536	-110.408	-0.283	-0.060
-630.522	-73.129	0.281	-0.105
-629.507	-200.000	-0.084	-0.380
-628.492	-138.920	-0.268	0.030
-627.478	-77.598	-0.151	0.053
-626.463	800.000	-0.035	0.100
-625.449	-41.836	-0.196	-0.102
-624.434	183.182	0.160	-0.240
-623.419	-130.571	0.220	0.030
-622.405	-200.000	0.093	0.506
-621.390	-41.599	0.168	-0.088
-620.376	-200.000	-0.078	-0.392
-619.361	156.235	0.109	0.153
-618.346	-117.798	0.156	-0.028
-617.332	800.000	0.038	0.165
-616.317	9.642	-0.216	-0.166
-615.303	-54.495	0.096	-0.044
-614.288	-84.730	0.535	-0.171
-613.273	-158.772	-0.322	-0.019
-612.259	601.079	-0.067	-0.169
-611.244	-66.836	0.178	0.072
-610.230	47.678	0.034	-0.032
-609.215	-121.087	0.218	-0.037
-608.201	-18.662	0.060	-0.038
-607.186	-123.486	-0.221	0.036
-606.171	-200.000	0.022	-0.168
-605.157	-200.000	-0.014	0.078
-604.142	282.855	0.160	-0.292
-603.128	-117.043	0.095	-0.018
-602.113	-200.000	0.034	0.274
-601.098	-24.114	-0.085	-0.052
-600.084	-107.854	0.181	0.040
-599.069	20.995	0.141	0.116
-598.055	-200.000	0.065	0.490
-597.040	-14.146	0.208	-0.136
-596.025	800.000	-0.085	-0.277
-595.011	3.871	-0.153	0.114
-593.996	-29.870	-0.173	-0.100
-592.982	22.906	-0.093	0.078
-591.967	-17.918	0.162	-0.103
-590.952	-200.000	0.000	0.152
-589.938	163.432	0.068	-0.097
-588.923	181.851	-0.162	0.243
-587.909	-200.000	-0.001	0.206
-586.894	5.903	0.140	0.105
-585.879	140.467	0.085	-0.114
-584.865	-200.000	0.026	-0.275
-583.850	-92.142	0.256	0.073
-582.836	-200.000	-0.042	-0.333
-581.821	223.613	-0.177	-0.290
-580.806	498.763	0.084	0.196
-579.792	-151.224	-0.337	0.026
-578.777	-8.012	0.094	-0.064
-577.763	-157.616	0.317	0.019
-576.748	132.398	0.095	-0.124
-575.733	-98.779	-0.189	-0.049
-574.719	520.523	-0.064	0.153
-573.704	6.995	0.237	-0.180
-572.690	183.232	0.119	-0.178
-571.675	-115.129	0.203	-0.039
-570.661	565.447	-0.091	-0.223
-569.646	-12.551	-0.203	0.135
-568.631	-200.000	-0.013	-0.132
-567.617	-70.918	-0.307	0.117
-566.602	42.690	0.246	-0.227
-565.588	46.951	-0.050	0.047
-564.573	-200.000	0.003	0.099
-563.558	52.731	-0.059	-0.057
-562.544	800.000	0.079	0.232
-561.529	-200.000	0.001	-0.196
-560.515	-20.466	0.237	-0.148
-559.500	164.713	-0.084	0.121
-558.485	-156.100	0.163	0.010
-557.471	79.519	-0.315	0.343
-556.456	-131.745	0.151	0.020
-555.442	-189.712	0.351	-0.004
-554.427	85.460	-0.223	0.248
-553.412	-200.000	-0.009	-0.221
-552.398	-125.009	-0.116	-0.018
-551.383	-5.991	-0.073	0.051
-550.369	131.270	0.069	-0.090
-549.354	-200.000	0.057	0.261
-548.339	80.851	0.123	0.135
-547.325	-46.479	-0.140	-0.070
-546.310	-113.379	0.109	0.022
-545.296	-84.392	-0.178	-0.057
-544.281	-121.161	-0.209	0.036
-543.266	27.047	0.275	0.234
-542.252	-43.654	0.164	0.084
-541.237	800.000	-0.031	0.099
-540.223	71.347	-0.239	-0.252
-539.208	242.798	0.093	-0.158
-538.193	-59.937	-0.286	0.124
-537.179	-109.304	0.162	-0.035
-536.164	800.000	-0.057	-0.220
-535.150	32.022	-0.061	-0.053
-534.135	-200.000	-0.027	-0.372
-533.121	-80.674	0.335	-0.113
-532.106	-99.639	0.112	-0.028
-531.091	-82.958	0.112	-0.037
-530.077	168.082	0.046	0.067
-529.062	466.181	0.037	0.085
-528.048	4.185	-0.400	0.297
-527.033	22.824	0.057	0.047
-526.018	-200.000	0.012	-0.241
-525.004	32.957	-0.115	0.101
-523.989	107.952	0.150	-0.181
-522.975	-77.209	-0.125	-0.044
-521.960	-68.908	0.096	0.038
-520.945	36.927	-0.030	0.027
-519.931	264.298	-0.050	-0.089
-518.916	800.000	-0.079	0.223
-517.902	-200.000	-0.042	-0.208
-516.887	325.597	-0.065	-0.126
-515.872	-200.000	-0.028	-0.481
-514.858	148.591	0.106	-0.145
-513.843	-200.000	-0.003	0.016
-512.829	800.000	0.051	0.199
-511.814	-0.268	0.245	-0.177
-510.799	137.312	-0.122	-0.162
-509.785	43.501	0.154	0.142
-508.770	112.171	-0.056	0.068
-507.756	109.266	-0.135	-0.163
-506.741	-200.000	0.016	0.163
-505.726	-200.000	0.056	0.259
-504.712	-200.000	0.023	0.184
-503.697	193.402	0.153	-0.234
-502.683	800.000	0.042	0.160
-501.668	800.000	-0.041	0.133
-500.653	-39.413	-0.212	-0.112
-499.639	-112.316	-0.232	-0.047
-498.624	158.709	0.097	-0.136
-497.610	-33.099	0.331	0.186
-496.595	-173.044	-0.141	0.004
-495.581	-200.000	0.003	-0.165
-494.566	-200.000	-0.034	-0.173
-493.551	178.036	0.097	-0.143
-492.537	138.529	-0.197	-0.261
-491.522	-200.000	-0.019	0.330
-490.508	-5.346	-0.199	-0.138
-489.493	9.540	0.264	0.202
-488.478	15.533	0.036	0.029
-487.464	-139.136	0.032	0.003
-486.449	-37.849	-0.230	0.124
-485.435	-163.961	0.301	-0.014
-484.420	-71.887	-0.305	-0.115
-483.405	800.000	0.052	-0.204
-482.391	-112.294	0.247	-0.050
-481.376	-200.000	0.005	-0.246
-480.362	-142.936	-0.069	0.007
-479.347	132.050	-0.055	-0.072
-478.332	-23.051	0.100	0.061
-477.318	67.206	-0.094	0.097
-476.303	86.887	-0.121	0.135
-475.289	0.884	-0.141	0.102
-474.274	154.058	0.022	0.030
-473.259	-69.632	-0.186	0.072
-472.245	-116.457	-0.208	0.039
-471.230	-77.185	-0.126	0.044
-470.216	85.376	0.165	-0.183
-469.201	-12.158	0.043	-0.028
-468.186	56.497	0.077	-0.076
-467.172	334.957	-0.175	0.342
-466.157	407.158	0.077	-0.164
-465.143	656.662	0.117	-0.305
-464.128	-200.000	-0.004	-0.047
-463.113	-200.000	0.002	0.092
-462.099	233.957	0.094	0.156
-461.084	-95.749	0.204	-0.055
-460.070	409.962	0.021	0.045
-459.055	800.000	0.051	0.216
-458.040	-94.920	0.147	0.040
-457.026	-180.365	-0.066	-0.001
-456.011	-118.999	0.207	-0.037
-454.997	-52.314	-0.229	-0.107
-453.982	-49.382	-0.165	0.080
-452.968	-200.000	0.030	-0.252
-451.953	-184.507	0.113	-0.002
-450.938	-123.884	0.162	0.026
-449.924	-113.468	-0.231	0.046
-448.909	800.000	-0.063	0.178
-447.895	0.921	-0.190	-0.138
-446.880	-200.000	0.032	0.163
-445.865	265.841	-0.053	0.093
-444.851	800.000	0.025	0.094
-443.836	-200.000	0.027	-0.171
-442.822	-48.587	-0.367	-0.178
-441.807	-92.534	0.211	0.060
-440.792	239.221	-0.103	0.172
-439.778	42.034	0.088	0.081
-438.763	376.315	0.039	-0.080
-437.749	-93.472	-0.183	0.051
-436.734	-200.000	-0.044	-0.258
-435.719	-71.477	0.164	0.062
-434.705	251.919	-0.051	0.088
-433.690	-144.882	-0.088	0.008
-432.676	-178.304	-0.205	0.005
-431.661	-33.367	0.417	0.233
-430.646	-32.209	0.249	-0.140
-429.632	40.257	0.120	-0.109
-428.617	33.325	-0.159	0.140
-427.603	-134.908	-0.198	0.024
-426.588	-65.598	-0.175	-0.071
-425.573	-60.325	-0.210	-0.090
-424.559	-200.000	0.003	0.114
-423.544	800.000	-0.056	0.170
-422.530	720.910	-0.067	-0.181
-421.515	274.208	-0.186	0.331
-420.500	141.131	0.144	0.192
-419.486	-11.137	-0.150	-0.100
-418.471	38.415	-0.159	-0.143
-417.457	645.632	0.047	0.120
-416.442	-16.022	-0.138	0.089
-415.428	8.365	0.112	-0.085
-414.413	-136.998	-0.205	0.024
-413.398	-55.299	-0.333	0.151
-412.384	-200.000	0.005	0.190
-411.369	752.914	-0.050	-0.135
-410.355	368.117	-0.104	0.211
-409.340	-170.546	0.049	0.002
-408.325	78.453	0.211	-0.227
-407.311	254.905	0.059	-0.101
-406.296	-23.207	-0.312	-0.189
-405.282	125.786	-0.183	-0.233
-404.267	172.493	0.133	0.192
-403.252	-200.000	0.003	-0.175
-402.238	-30.277	0.154	0.088
-401.223	324.167	-0.035	-0.067
-400.209	232.462	-0.074	-0.122
-399.194	-200.000	-0.069	0.399
-398.179	800.000	0.035	0.117
-397.165	253.176	-0.022	-0.037
-396.150	291.868	-0.283	-0.520
-395.136	-153.199	-0.327	0.023
-394.121	62.372	0.135	-0.136
-393.106	447.032	0.087	0.192
-392.092	13.773	-0.085	0.067
-391.077	800.000	-0.044	0.166
-390.063	-79.421	0.215	-0.073
-389.048	12.047	0.183	-0.142
-388.033	432.532	0.049	0.107
-387.019	-200.000	-0.003	0.217
-386.004	20.138	-0.267	0.217
-384.990	-163.294	0.183	0.009
-383.975	-12.326	0.132	0.087
-382.960	-157.754	0.133	0.008
-381.946	26.685	0.263	0.222
-380.931	278.756	-0.078	-0.139
-379.917	18.225	-0.158	-0.127
-378.902	-106.476	-0.409	-0.092
-377.888	28.055	-0.308	0.262
-376.873	800.000	-0.051	0.193
-375.858	-4.890	0.179	-0.124
-374.844	48.001	-0.154	-0.145
-373.829	800.000	0.081	-0.263
-372.815	39.407	0.180	-0.162
-371.800	40.753	0.167	-0.151
-370.785	120.773	0.067	-0.083
-369.771	-87.939	-0.116	-0.035
-368.756	-144.589	0.176	-0.016
-367.742	66.085	-0.031	0.032
-366.727	298.287	0.131	-0.243
-365.712	85.292	-0.159	-0.176
-364.698	-135.189	-0.222	0.027
-363.683	584.917	-0.129	0.318
-362.669	-200.000	-0.062	0.287
-361.654	800.000	-0.123	-0.383
-360.639	800.000	-0.023	0.066
-359.625	-199.220	-0.343	-0.002
-358.610	255.737	-0.092	-0.159
-357.596	-200.000	-0.018	-0.269
-356.581	326.105	-0.156	0.300
-355.566	235.765	-0.017	-0.028
-354.552	-200.000	0.054	0.309
-353.537	-104.372	0.166	-0.039
-352.523	-196.718	0.168	0.001
-351.508	20.229	-0.311	0.252
-350.493	-79.368	-0.187	0.064
-349.479	-200.000	0.037	-0.194
-348.464	800.000	-0.071	-0.223
-347.450	-18.497	-0.502	-0.315
-346.435	257.557	0.033	0.056
-345.420	-130.799	-0.097	-0.013
-344.406	-178.589	-0.233	-0.005
-343.391	-185.549	0.268	0.004
-342.377	117.517	-0.151	-0.186
-341.362	697.576	0.136	0.360
-340.348	-200.000	0.001	0.027
-339.333	-30.734	-0.210	0.119
-338.318	-200.000	-0.021	-0.190
-337.304	-136.133	0.251	-0.030
-336.289	387.902	0.042	-0.088
-335.275	-55.568	0.076	0.034
-334.260	-90.412	-0.272	-0.079
-333.245	-200.000	0.003	-0.274
-332.231	-158.649	-0.194	0.011
-331.216	407.070	-0.053	0.113
-330.202	154.217	-0.072	0.099
-329.187	96.645	-0.112	-0.129
-328.172	-154.637	0.210	0.014
-327.158	-100.490	0.410	0.102
-326.143	660.243	0.152	-0.394
-325.129	-23.065	-0.174	0.105
-324.114	-200.000	0.014	0.136
-323.099	-113.350	0.373	0.074
-322.085	800.000	0.073	0.245
-321.070	-16.320	0.220	0.140
-320.056	800.000	0.124	-0.389
-319.041	-108.235	-0.263	0.057
-318.026	-12.276	-0.183	-0.120
-317.012	-125.983	-0.053	-0.008
-315.997	225.067	-0.192	-0.312
-314.983	322.419	-0.010	0.018
-313.968	-200.000	-0.015	0.093
-312.953	-200.000	0.036	-0.195
-311.939	55.074	0.130	0.126
-310.924	146.797	0.118	-0.159
-309.910	-200.000	0.006	-0.070
-308.895	-76.322	0.202	0.071
-307.880	-6.087	-0.054	0.037
-306.866	-200.000	-0.010	0.120
-305.851	126.953	-0.027	-0.034
-304.837	-27.735	-0.202	0.118
-303.822	-128.960	-0.090	-0.013
-302.807	-200.000	-0.004	0.475
-301.793	800.000	-0.088	0.367
-300.778	-1.174	-0.204	-0.145
-299.764	-137.721	0.067	0.007
-298.749	15.264	0.143	0.113
-297.735	-101.068	-0.323	-0.080
-296.720	-200.000	0.020	0.103
-295.705	299.911	-0.088	0.162
-294.691	-77.980	-0.075	-0.026
-293.676	800.000	-0.049	0.198
-292.662	513.481	0.051	-0.120
-291.647	800.000	0.026	0.101
-290.632	-97.058	-0.131	-0.034
-289.618	800.000	-0.088	0.368
-288.603	-44.917	0.049	-0.024
-287.589	800.000	0.020	0.079
-286.574	-79.459	-0.127	-0.043
-285.559	-200.000	0.081	-0.390
-284.545	473.344	0.093	-0.211
-283.530	-101.760	-0.263	0.064
-282.516	81.157	-0.417	-0.451
-281.501	-57.734	0.325	-0.143
-280.486	-32.881	0.013	-0.007
-279.472	-131.994	0.404	0.053
-278.457	-97.044	0.122	0.032
-277.443	230.489	-0.152	-0.250
-276.428	72.844	0.159	0.167
-275.413	800.000	0.076	-0.236
-274.399	-76.114	-0.170	0.060
-273.384	46.308	-0.219	0.204
-272.370	-152.791	0.197	0.014
-271.355	641.068	-0.030	-0.077
-270.340	77.053	0.076	-0.081
-269.326	304.080	-0.095	0.176
-268.311	-200.000	-0.019	0.093
-267.297	10.565	-0.208	0.159
-266.282	-41.582	-0.032	-0.017
-265.267	-53.579	-0.156	-0.072
-264.253	-62.689	0.180	-0.075
-263.238	-80.106	-0.204	0.068
-262.224	-64.646	0.300	0.122
-261.209	87.479	0.029	0.032
-260.195	178.409	0.162	-0.238
-259.180	-25.650	-0.180	0.107
-258.165	138.198	-0.040	-0.052
-257.151	-200.000	0.077	0.372
-256.136	45.820	0.215	0.199
-255.122	54.189	-0.042	-0.041
-254.107	226.047	0.108	-0.176
-253.092	-200.000	-0.048	-0.326
-252.078	-90.497	-0.331	-0.096
-251.063	-0.699	0.307	0.218
-250.049	-107.794	-0.229	-0.050
-249.034	-78.886	0.082	0.028
-248.019	16.239	-0.360	0.285
-247.005	-51.475	0.117	-0.055
-245.990	-200.000	0.006	-0.102
-244.976	13.103	-0.178	-0.138
-243.961	-158.528	-0.329	-0.019
-242.946	530.101	0.045	0.106
-241.932	2.088	0.051	0.037
-240.917	598.644	-0.019	-0.047
-239.903	-93.744	-0.080	-0.022
-238.888	141.670	0.188	-0.250
-237.873	-57.308	0.168	0.074
-236.859	-60.333	-0.063	0.027
-235.844	800.000	-0.032	-0.128
-234.830	800.000	-0.194	-0.588
-233.815	-200.000	0.048	0.323
-232.800	-200.000	-0.032	-0.201
-231.786	-86.493	-0.232	-0.071
-230.771	-1.653	0.364	0.257
-229.757	-200.000	-0.010	-0.057
-228.742	-113.776	0.098	0.019
-227.727	-200.000	0.011	-0.049
-226.713	800.000	-0.055	-0.174
-225.698	760.644	0.043	0.115
-224.684	-72.993	0.107	0.039
-223.669	379.262	-0.090	0.185
-222.655	-39.059	-0.057	-0.030
-221.640	800.000	-0.102	0.322
-220.625	-154.165	0.082	0.006
-219.611	-141.537	-0.169	-0.017
-218.596	698.515	0.024	0.064
-217.582	497.715	-0.074	0.172
-216.567	54.051	0.168	0.162
-215.552	-20.897	-0.121	-0.074
-214.538	103.707	-0.325	-0.382
-213.523	-68.008	-0.028	-0.011
-212.509	-78.209	0.321	0.110
-211.494	517.346	0.169	0.395
-210.479	111.356	0.126	0.152
-209.465	102.348	0.251	0.294
-208.450	-111.419	0.235	0.048
-207.436	66.881	0.046	0.047
-206.421	-99.811	-0.305	0.076
-205.406	-68.538	-0.360	0.140
-204.392	404.108	-0.083	-0.174
-203.377	177.673	-0.221	0.322
-202.363	800.000	0.085	0.367
-201.348	-63.293	0.178	0.073
-200.333	-133.349	0.144	-0.018
-199.319	-85.775	0.427	-0.132
-198.304	800.000	-0.074	0.255
-197.290	146.957	-0.080	0.107
-196.275	-200.000	0.028	-0.159
-195.260	-105.256	0.635	0.145
-194.246	-82.904	-0.196	-0.063
-193.231	133.739	0.131	0.170
-192.217	-115.496	-0.138	0.026
-191.202	-112.839	0.336	0.067
-190.187	-80.646	0.197	0.065
-189.173	295.768	-0.048	-0.088
-188.158	168.212	0.078	0.111
-187.144	-153.435	-0.230	-0.016
-186.129	418.242	-0.130	-0.277
-185.114	49.072	-0.120	-0.113
-184.100	207.792	0.101	-0.158
-183.085	93.550	-0.104	0.118
-182.071	-200.000	0.137	-0.000
-181.056	-200.000	-0.009	-0.166
-180.042	272.254	-0.105	0.186
-179.027	12.406	0.433	0.334
-178.012	-200.000	-0.049	-0.227
-176.998	135.850	-0.134	-0.174
-175.983	196.413	0.123	-0.187
-174.969	800.000	0.049	0.204
-173.954	361.840	0.073	0.147
-172.939	274.961	-0.155	-0.274
-171.925	-200.000	0.037	-0.165
-170.910	800.000	0.058	0.175
-169.896	-84.395	0.202	0.064
-168.881	599.383	0.021	0.052
-167.866	615.366	-0.087	0.217
-166.852	-161.754	0.284	-0.014
-165.837	649.339	-0.126	0.322
-164.823	383.254	-0.034	0.069
-163.808	-134.173	0.176	-0.022
-162.793	-108.158	0.129	-0.028
-161.779	60.635	0.248	0.245
-160.764	-133.629	-0.328	-0.041
-159.750	45.547	0.158	0.145
-158.735	-160.375	0.313	-0.017
-157.720	800.000	-0.040	-0.146
-156.706	800.000	-0.075	0.264
-155.691	84.597	0.196	0.214
-154.677	-200.000	-0.036	-0.176
-153.662	-44.179	0.161	0.081
-152.647	-124.019	0.039	-0.006
-151.633	512.783	-0.065	0.151
-150.618	-200.000	-0.010	0.043
-149.604	800.000	0.003	-0.011
-148.589	800.000	0.067	-0.285
-147.574	-117.356	0.459	-0.083
-146.560	800.000	-0.072	-0.213
-145.545	-200.000	0.012	0.183
-144.531	97.620	-0.210	0.241
-143.516	-73.535	-0.061	-0.022
-142.502	-65.954	-0.178	0.071
-141.487	-26.105	0.141	-0.083
-140.472	229.351	0.230	-0.375
-139.458	5.860	-0.302	0.223
-138.443	-200.000	-0.026	0.152
-137.429	200.907	0.115	-0.177
-136.414	-200.000	-0.044	-0.252
-135.399	-93.872	-0.221	0.061
-134.385	-200.000	0.029	-0.142
-133.370	29.012	0.370	0.313
-132.356	655.426	0.176	-0.450
-131.341	-4.070	0.131	0.091
-130.326	223.028	-0.093	-0.149
-129.312	238.441	-0.125	-0.207
-128.297	-156.096	0.088	-0.006
-127.283	-77.196	0.128	-0.044
-126.268	-42.640	0.091	0.046
-125.253	50.008	-0.113	-0.106
-124.239	-200.000	-0.022	0.437
-123.224	-68.763	0.241	-0.093
-122.210	-116.893	-0.090	0.016
-121.195	-9.199	0.186	-0.124
