DTS Sentinel unit serial number:	SN413079Multiplexer serial number:	ORYXHardware model number:	OX4-SRSoftware version number:	ORYX F/W v4.00 Oryx Data Collector v3.7.2.0data status	okinstallation	princeton_trtdifferential loss correction	single-endedforward channel	channel 4reverse channel	N/Adate	2019/09/18time	12:45:35forward acquisition time	60.00reverse acquisition time	0.00gamma	496.2192k internal	0.2304k external	0.2304temperature offset calibration	0.9991default loss term (dB/km)	0.3790temperature slope calibration	1.0000multiplexer offset coefficient	1.0000multiplexer slope coefficient	1.0000fibre end	0.00T internal ref (°C)	32.92T ext. ref 1 (°C)	0.55T ext. ref 2 (°C)	30.19length (m)	temperature (°C)	Stokes	anti-Stokes-747.200	-139.609	-0.193	-0.021
-746.185	192.241	-0.217	0.333
-745.171	-51.849	0.236	-0.112
-744.156	40.747	0.243	0.223
-743.142	-53.425	0.231	-0.108
-742.127	542.517	0.128	0.311
-741.112	800.000	-0.074	0.325
-740.098	-110.719	-0.091	0.019
-739.083	53.461	-0.054	-0.053
-738.069	212.115	0.055	0.089
-737.054	-200.000	0.020	0.385
-736.039	-31.776	-0.222	-0.127
-735.025	495.525	0.076	-0.177
-734.010	245.550	-0.219	-0.376
-732.996	-200.000	0.015	-0.107
-731.981	377.793	0.038	-0.080
-730.966	30.675	0.123	-0.107
-729.952	-7.263	0.395	-0.272
-728.937	221.507	0.178	-0.291
-727.923	791.446	0.059	-0.164
-726.908	-103.274	0.155	0.037
-725.894	309.802	-0.122	-0.232
-724.879	-200.000	-0.031	-0.164
-723.864	77.350	-0.068	-0.073
-722.850	200.706	0.073	-0.114
-721.835	278.193	0.167	-0.303
-720.821	226.113	0.177	-0.292
-719.806	-41.634	0.055	0.029
-718.791	84.090	0.150	-0.167
-717.777	-11.204	0.184	0.124
-716.762	800.000	-0.039	0.170
-715.748	-63.326	0.246	-0.103
-714.733	-200.000	-0.015	0.200
-713.718	-40.042	0.237	0.126
-712.704	-131.998	-0.214	0.028
-711.689	-200.000	0.049	0.282
-710.675	162.359	-0.180	-0.256
-709.660	-67.985	0.306	-0.122
-708.645	-49.216	0.236	-0.115
-707.631	-98.630	-0.311	0.081
-706.616	-126.613	0.042	0.006
-705.602	-200.000	0.110	-0.560
-704.587	-200.000	0.046	-0.266
-703.572	-101.565	0.194	-0.048
-702.558	-124.362	0.101	0.016
-701.543	-53.355	-0.173	0.081
-700.529	28.705	-0.273	-0.235
-699.514	-54.380	-0.157	-0.072
-698.499	114.943	-0.212	-0.263
-697.485	170.540	-0.222	-0.323
-696.470	157.350	-0.173	-0.243
-695.456	-150.539	-0.100	-0.008
-694.441	106.454	0.032	-0.039
-693.426	113.719	0.203	-0.250
-692.412	-157.737	0.225	-0.014
-691.397	-21.140	-0.091	0.057
-690.383	-71.663	-0.438	-0.166
-689.368	800.000	-0.130	-0.391
-688.354	-87.809	0.182	-0.056
-687.339	133.114	-0.089	-0.116
-686.324	219.528	0.162	-0.263
-685.310	-141.231	-0.076	-0.008
-684.295	-124.502	0.040	0.006
-683.281	-16.006	-0.170	-0.110
-682.266	-118.741	-0.223	0.040
-681.251	158.221	0.234	0.330
-680.237	-119.913	-0.217	0.038
-679.222	-200.000	-0.017	0.398
-678.208	533.876	0.070	0.168
-677.193	-200.000	-0.027	-0.193
-676.178	800.000	-0.017	0.064
-675.164	91.836	-0.048	0.055
-674.149	-54.728	-0.159	-0.073
-673.135	-200.000	-0.026	-0.347
-672.120	44.777	0.249	-0.233
-671.105	-91.933	0.188	0.054
-670.091	273.234	-0.160	0.287
-669.076	498.257	-0.064	0.150
-668.062	-179.546	-0.237	0.005
-667.047	113.075	-0.043	0.053
-666.032	-10.461	0.154	0.103
-665.018	-31.063	0.151	0.086
-664.003	3.511	-0.061	0.045
-662.989	-123.995	0.088	-0.014
-661.974	183.640	-0.136	-0.204
-660.959	7.557	-0.322	-0.245
-659.945	-200.000	-0.003	-0.184
-658.930	-200.000	-0.005	0.060
-657.916	-124.351	-0.090	0.014
-656.901	-200.000	0.043	0.195
-655.886	-66.843	-0.077	-0.031
-654.872	-200.000	0.013	0.111
-653.857	800.000	-0.032	0.109
-652.843	-12.735	0.276	-0.183
-651.828	800.000	-0.065	-0.277
-650.814	-140.707	0.170	0.018
-649.799	-70.670	-0.210	0.080
-648.784	-152.557	-0.069	-0.005
-647.770	-81.311	0.222	-0.074
-646.755	-18.743	-0.152	-0.096
-645.741	-197.121	-0.354	-0.002
-644.726	800.000	0.101	0.288
-643.711	444.475	-0.020	0.046
-642.697	-105.749	-0.285	0.065
-641.682	48.379	-0.184	-0.175
-640.668	-200.000	-0.017	0.184
-639.653	-121.259	-0.153	-0.026
-638.638	103.588	-0.112	-0.133
-637.624	73.202	-0.158	0.167
-636.609	-28.304	-0.177	0.104
-635.595	53.689	0.198	-0.192
-634.580	-200.000	-0.009	0.200
-633.565	-108.369	-0.162	0.036
-632.551	-14.374	-0.449	0.293
-631.536	-200.000	-0.017	0.247
-630.522	-98.991	-0.164	-0.042
-629.507	-200.000	0.067	-0.642
-628.492	-200.000	-0.020	-0.195
-627.478	45.939	-0.083	0.078
-626.463	-200.000	-0.001	0.403
-625.449	-22.268	-0.121	-0.074
-624.434	186.455	-0.200	0.301
-623.419	-2.740	0.327	0.232
-622.405	-114.600	0.099	0.019
-621.390	-200.000	0.071	0.368
-620.376	698.414	-0.037	-0.098
-619.361	116.329	-0.159	0.197
-618.346	-200.000	0.001	0.014
-617.332	128.609	0.101	0.130
-616.317	-200.000	-0.072	-0.462
-615.303	-200.000	-0.013	-0.107
-614.288	59.880	0.235	-0.235
-613.273	49.993	-0.288	-0.275
-612.259	-32.663	-0.325	0.183
-611.244	138.989	-0.201	0.268
-610.230	-200.000	0.001	0.104
-609.215	-70.811	-0.020	0.007
-608.201	84.220	-0.249	-0.275
-607.186	90.965	-0.230	-0.261
-606.171	146.318	0.125	-0.170
-605.157	-94.358	-0.199	0.055
-604.142	-56.221	0.181	-0.081
-603.128	553.148	-0.094	0.229
-602.113	800.000	0.066	0.289
-601.098	-153.448	0.155	0.011
-600.084	-154.255	-0.064	0.004
-599.069	242.003	0.088	0.148
-598.055	26.511	-0.177	-0.150
-597.040	667.451	0.144	-0.376
-596.025	-38.764	-0.143	0.076
-595.011	-63.571	-0.078	-0.033
-593.996	-200.000	-0.057	0.291
-592.982	-110.265	0.331	-0.070
-591.967	-200.000	-0.009	0.148
-590.952	-200.000	0.013	-0.061
-589.938	-113.099	0.263	-0.052
-588.923	-200.000	0.000	-0.009
-587.909	-165.526	-0.506	0.022
-586.894	159.679	-0.070	0.098
-585.879	75.260	-0.155	0.165
-584.865	9.813	0.099	-0.076
-583.850	-200.000	0.008	0.076
-582.836	-200.000	-0.005	0.037
-581.821	-71.578	-0.173	0.065
-580.806	-1.699	-0.278	-0.198
-579.792	-146.533	0.237	-0.021
-578.777	202.272	0.154	0.240
-577.763	-52.743	0.137	-0.064
-576.748	800.000	0.123	0.384
-575.733	263.277	-0.088	-0.155
-574.719	-200.000	0.017	-0.191
-573.704	23.217	0.186	-0.155
-572.690	461.827	0.095	0.215
-571.675	103.550	-0.019	-0.022
-570.661	211.228	-0.140	-0.223
-569.646	514.073	0.026	-0.061
-568.631	-145.884	0.437	0.039
-567.617	-200.000	0.068	-0.353
-566.602	525.987	-0.105	-0.251
-565.588	213.208	0.162	0.259
-564.573	71.755	-0.123	-0.129
-563.558	-130.712	0.209	0.028
-562.544	-200.000	0.060	-0.425
-561.529	195.380	0.016	0.025
-560.515	-59.459	0.061	0.026
-559.500	478.116	-0.054	0.123
-558.485	-13.983	0.274	0.179
-557.471	-102.242	-0.161	0.039
-556.456	212.560	-0.030	-0.048
-555.442	-22.384	0.019	0.012
-554.427	628.029	0.065	0.165
-553.412	169.208	-0.162	0.234
-552.398	-104.430	0.191	0.045
-551.383	520.242	-0.105	-0.249
-550.369	5.526	-0.114	-0.085
-549.354	654.504	0.104	-0.269
-548.339	18.795	0.156	0.126
-547.325	-124.280	0.451	-0.071
-546.310	-200.000	0.049	-0.264
-545.296	-21.699	0.220	-0.136
-544.281	26.284	-0.115	0.097
-543.266	-26.192	0.135	-0.080
-542.252	516.533	0.062	-0.147
-541.237	132.390	-0.136	0.177
-540.223	82.989	-0.061	0.067
-539.208	3.978	-0.115	-0.085
-538.193	-170.603	-0.121	0.004
-537.179	-200.000	0.012	-0.288
-536.164	-23.971	0.042	0.025
-535.150	-74.984	-0.279	0.101
-534.135	800.000	0.092	-0.333
-533.121	-121.174	0.192	-0.032
-532.106	-200.000	0.037	0.227
-531.091	91.991	0.043	0.049
-530.077	47.428	-0.080	-0.075
-529.062	-200.000	0.058	0.276
-528.048	324.074	0.129	0.250
-527.033	75.349	0.086	-0.091
-526.018	-183.365	-0.266	-0.005
-525.004	-80.891	-0.287	-0.096
-523.989	-73.861	-0.175	0.064
-522.975	-15.039	0.247	0.160
-521.960	-123.148	0.331	-0.054
-520.945	-101.005	-0.061	0.015
-519.931	-77.312	-0.217	0.076
-518.916	245.075	-0.079	-0.134
-517.902	164.762	0.078	0.111
-516.887	-20.220	0.293	0.182
-515.872	39.167	0.043	-0.039
-514.858	-40.290	-0.229	-0.120
-513.843	148.978	-0.050	-0.068
-512.829	7.006	-0.157	-0.118
-511.814	-101.049	-0.356	-0.088
-510.799	-114.765	-0.271	-0.052
-509.785	800.000	0.052	0.145
-508.770	-121.757	-0.266	0.044
-507.756	-89.146	-0.301	-0.090
-506.741	-137.683	-0.055	0.006
-505.726	58.723	0.106	0.105
-504.712	735.187	-0.120	-0.324
-503.697	800.000	0.042	0.120
-502.683	-79.887	0.070	-0.024
-501.668	-200.000	0.091	0.455
-500.653	-167.853	-0.096	-0.004
-499.639	201.797	0.200	-0.311
-498.624	-169.214	0.128	0.005
-497.610	-73.267	0.118	-0.044
-496.595	61.482	0.216	0.217
-495.581	119.260	0.118	-0.147
-494.566	-89.933	-0.094	0.028
-493.551	172.018	-0.245	0.355
-492.537	-136.786	0.395	0.046
-491.522	-1.796	0.186	-0.132
-490.508	444.417	0.172	0.381
-489.493	-145.186	-0.272	-0.025
-488.478	-148.715	-0.059	-0.005
-487.464	-200.000	-0.032	0.265
-486.449	-149.061	-0.173	-0.014
-485.435	214.423	-0.127	-0.202
-484.420	-69.653	0.136	-0.053
-483.405	734.104	0.089	0.241
-482.391	800.000	-0.062	0.197
-481.376	-49.128	-0.141	-0.068
-480.362	285.642	-0.077	-0.141
-479.347	800.000	-0.094	-0.304
-478.332	-97.635	0.396	-0.103
-477.318	67.751	0.369	0.380
-476.303	-200.000	-0.004	-0.118
-475.289	800.000	-0.097	-0.289
-474.274	65.257	-0.065	0.066
-473.259	800.000	-0.117	0.375
-472.245	-154.006	0.306	0.021
-471.230	55.970	0.068	-0.067
-470.216	392.692	0.030	0.064
-469.201	701.292	0.065	0.173
-468.186	-200.000	-0.018	-0.185
-467.172	-77.920	-0.329	-0.114
-466.157	116.313	0.136	0.168
-465.143	-11.692	0.318	-0.211
-464.128	-200.000	-0.009	-0.235
-463.113	410.806	0.117	-0.251
-462.099	-200.000	-0.048	0.213
-461.084	-200.000	-0.014	0.188
-460.070	800.000	-0.066	-0.276
-459.055	-120.975	-0.209	0.035
-458.040	-27.797	0.113	-0.066
-457.026	-200.000	-0.030	0.138
-456.011	-182.876	-0.211	-0.004
-454.997	56.695	-0.288	0.282
-453.982	462.458	0.097	-0.217
-452.968	-200.000	-0.030	-0.260
-451.953	25.134	-0.150	-0.126
-450.938	289.997	-0.032	-0.058
-449.924	516.585	-0.061	-0.144
-448.909	80.268	0.056	0.061
-447.895	-200.000	0.007	0.044
-446.880	-71.632	0.048	0.018
-445.865	205.252	-0.074	-0.116
-444.851	91.979	0.191	-0.217
-443.836	-30.105	0.254	-0.146
-442.822	785.652	-0.093	0.257
-441.807	-200.000	-0.001	-0.140
-440.792	629.565	-0.185	-0.470
-439.778	-22.371	0.220	-0.134
-438.763	77.807	0.030	-0.032
-437.749	155.922	0.057	-0.079
-436.734	582.892	0.046	-0.115
-435.719	-27.786	-0.261	-0.152
-434.705	-153.079	-0.161	-0.011
-433.690	-102.729	-0.113	-0.027
-432.676	-200.000	0.002	0.217
-431.661	-127.288	-0.106	-0.016
-430.646	112.230	0.149	-0.182
-429.632	-143.118	-0.204	0.020
-428.617	16.021	0.197	0.156
-427.603	724.295	0.063	0.169
-426.588	32.281	0.235	0.204
-425.573	-99.844	0.189	-0.047
-424.559	800.000	0.069	-0.228
-423.544	-54.745	0.064	0.029
-422.530	-200.000	-0.004	-0.094
-421.515	-20.273	-0.013	-0.008
-420.500	82.660	0.231	0.252
-419.486	-92.404	0.153	-0.043
-418.471	-200.000	0.018	0.223
-417.457	455.997	0.132	-0.295
-416.442	21.564	-0.251	-0.206
-415.428	-0.077	-0.143	0.102
-414.413	206.418	-0.108	0.169
-413.398	180.992	0.130	-0.192
-412.384	-200.000	-0.020	-0.292
-411.369	-200.000	-0.030	0.273
-410.355	-200.000	0.013	-0.116
-409.340	-154.410	0.274	-0.018
-408.325	-200.000	0.045	0.464
-407.311	800.000	0.013	0.038
-406.296	735.149	-0.103	-0.277
-405.282	20.637	-0.135	-0.109
-404.267	-200.000	-0.002	-0.069
-403.252	800.000	0.070	0.236
-402.238	57.222	0.056	-0.055
-401.223	-68.987	0.146	0.057
-400.209	-7.829	-0.217	-0.148
-399.194	499.859	-0.085	-0.197
-398.179	-54.950	0.160	-0.073
-397.165	-200.000	0.068	-0.321
-396.150	238.452	-0.119	-0.199
-395.136	-200.000	0.021	0.168
-394.121	-200.000	-0.053	0.301
-393.106	-200.000	0.007	0.049
-392.092	449.604	-0.039	0.087
-391.077	43.245	-0.135	-0.124
-390.063	-21.390	0.106	0.065
-389.048	800.000	-0.076	0.320
-388.033	97.884	-0.062	0.072
-387.019	34.133	0.164	0.143
-386.004	-190.241	-0.167	0.002
-384.990	40.583	-0.044	-0.040
-383.975	-200.000	0.222	-0.000
-382.960	-45.834	-0.102	-0.051
-381.946	-157.486	-0.181	0.011
-380.931	179.079	-0.072	0.105
-379.917	177.471	0.147	-0.216
-378.902	120.118	-0.071	-0.089
-377.888	193.510	-0.073	0.111
-376.873	-200.000	0.016	0.156
-375.858	-200.000	0.048	-0.238
-374.844	-200.000	0.068	-0.383
-373.829	50.450	-0.092	-0.087
-372.815	-200.000	-0.061	-0.291
-371.800	345.065	-0.049	0.097
-370.785	79.833	-0.115	-0.124
-369.771	-40.723	-0.133	-0.069
-368.756	85.508	0.378	0.416
-367.742	-200.000	-0.013	0.170
-366.727	265.372	0.010	0.018
-365.712	196.466	0.054	0.082
-364.698	-200.000	0.017	-0.130
-363.683	-22.779	-0.154	0.093
-362.669	-42.824	-0.398	0.203
-361.654	140.122	0.110	0.146
-360.639	-200.000	-0.029	-0.447
-359.625	-52.723	-0.295	0.136
-358.610	-101.845	0.174	0.042
-357.596	-94.769	0.288	-0.078
-356.581	800.000	0.055	-0.180
-355.566	659.117	-0.138	-0.356
-354.552	280.421	0.141	-0.252
-353.537	-200.000	0.044	-0.258
-352.523	-121.679	0.178	-0.030
-351.508	72.971	0.139	-0.146
-350.493	679.616	0.079	-0.206
-349.479	-164.982	-0.068	0.003
-348.464	531.108	0.086	-0.204
-347.450	-14.401	0.431	0.278
-346.435	362.762	0.119	0.239
-345.420	-3.137	0.176	0.123
-344.406	800.000	-0.155	-0.499
-343.391	283.973	0.147	-0.266
-342.377	-5.384	-0.020	0.014
-341.362	267.497	0.053	0.092
-340.348	-200.000	0.009	-0.314
-339.333	-100.101	0.192	0.048
-338.318	-160.166	-0.113	0.006
-337.304	-37.358	-0.159	-0.085
-336.289	-70.001	0.118	-0.045
-335.275	-61.127	0.192	0.081
-334.260	-200.000	0.366	-0.001
-333.245	800.000	0.045	0.156
-332.231	-72.631	-0.169	-0.062
-331.216	170.317	-0.122	-0.175
-330.202	-199.067	-0.183	-0.001
-329.187	-63.343	-0.060	0.025
-328.172	-127.160	-0.205	-0.030
-327.158	175.421	0.209	-0.303
-326.143	800.000	-0.098	0.302
-325.129	59.964	-0.266	0.263
-324.114	-86.998	0.192	0.059
-323.099	506.407	-0.110	-0.255
-322.085	-200.000	0.006	-0.146
-321.070	662.645	0.038	-0.099
-320.056	30.862	-0.035	-0.030
-319.041	293.438	-0.111	0.203
-318.026	-54.303	-0.433	-0.197
-317.012	-8.807	0.277	-0.186
-315.997	-200.000	0.014	0.148
-314.983	-70.795	0.190	-0.072
-313.968	-64.078	-0.164	-0.067
-312.953	143.973	0.027	0.036
-311.939	-176.368	0.150	0.004
-310.924	800.000	0.031	0.134
-309.910	80.542	-0.097	0.104
-308.895	54.337	-0.192	0.185
-307.880	-56.427	0.083	-0.037
-306.866	-72.193	0.228	0.084
-305.851	43.768	0.197	-0.181
-304.837	21.859	-0.215	0.175
-303.822	-139.878	0.168	-0.018
-302.807	-159.558	0.231	-0.013
-301.793	-57.501	0.324	0.142
-300.778	52.604	0.240	0.230
-299.764	118.701	0.126	-0.156
-298.749	-156.298	-0.356	-0.022
-297.735	175.801	-0.254	0.368
-296.720	-48.360	0.162	0.078
-295.705	800.000	0.075	0.283
-294.691	99.807	-0.134	-0.155
-293.676	-200.000	0.018	0.361
-292.662	-50.828	0.286	0.134
-291.647	9.034	0.042	-0.032
-290.632	148.970	-0.065	0.088
-289.618	800.000	-0.066	0.222
-288.603	406.760	-0.096	0.204
-287.589	246.629	-0.038	-0.064
-286.574	55.264	0.129	0.124
-285.559	-140.049	-0.083	-0.009
-284.545	28.005	-0.180	-0.152
-283.530	249.224	0.295	0.500
-282.516	-126.541	0.235	-0.035
-281.501	-10.728	0.307	0.203
-280.486	-25.807	-0.095	0.056
-279.472	-97.213	0.062	0.016
-278.457	-169.513	0.278	0.010
-277.443	-200.000	-0.006	-0.423
-276.428	-99.708	0.121	0.030
-275.413	37.494	-0.250	0.222
-274.399	-47.507	-0.341	0.165
-273.384	-190.969	-0.038	-0.000
-272.370	14.043	0.090	-0.070
-271.355	-23.094	0.081	-0.049
-270.340	117.021	0.221	-0.272
-269.326	-200.000	-0.008	0.180
-268.311	226.790	-0.121	-0.196
-267.297	13.187	-0.176	-0.136
-266.282	-7.773	-0.178	0.120
-265.267	-161.478	0.039	-0.002
-264.253	508.293	0.087	-0.202
-263.238	-81.992	0.190	0.062
-262.224	78.172	-0.240	-0.256
-261.209	4.091	-0.293	0.214
-260.195	375.462	-0.089	-0.180
-259.180	800.000	0.031	0.086
-258.165	-120.807	-0.237	0.040
-257.151	-43.832	0.172	0.086
-256.136	105.712	0.166	0.196
-255.122	800.000	0.059	0.221
-254.107	11.310	0.193	0.147
-253.092	-76.916	-0.272	0.095
-252.078	0.326	-0.388	-0.277
-251.063	800.000	-0.033	0.134
-250.049	7.094	0.055	-0.041
-249.034	-83.143	0.246	-0.079
-248.019	-45.295	-0.091	0.045
-247.005	-139.227	0.322	0.035
-245.990	-143.212	-0.211	-0.020
-244.976	68.822	-0.130	0.134
-243.961	-71.322	0.240	0.090
-242.946	-125.463	-0.228	0.035
-241.932	57.179	0.156	-0.152
-240.917	115.280	0.179	0.218
-239.903	158.904	0.197	0.273
-238.888	-16.921	0.077	0.049
-237.873	-58.720	0.204	-0.088
-236.859	-81.657	-0.097	-0.032
-235.844	-200.000	0.044	0.249
-234.830	16.159	-0.262	-0.206
-233.815	-200.000	0.005	-0.056
-232.800	-44.448	0.042	0.021
-231.786	-132.984	-0.639	-0.081
-230.771	-109.711	0.218	-0.046
-229.757	-67.464	0.300	-0.118
-228.742	48.221	-0.097	-0.091
-227.727	4.238	-0.121	0.088
-226.713	-113.153	-0.311	-0.061
-225.698	343.130	0.092	0.180
-224.684	800.000	-0.042	0.141
-223.669	-46.450	0.211	-0.103
-222.655	-45.952	0.100	-0.049
-221.640	537.107	-0.139	-0.328
-220.625	-200.000	0.003	-0.134
-219.611	-74.972	0.305	-0.109
-218.596	-14.230	-0.120	0.077
-217.582	-200.000	0.003	0.217
-216.567	800.000	-0.061	0.182
-215.552	-46.416	-0.154	-0.076
-214.538	-179.514	0.349	0.008
-213.523	232.353	-0.095	-0.156
-212.509	364.377	-0.079	-0.159
-211.494	353.465	0.117	-0.232
-210.479	-63.365	0.256	-0.105
-209.465	736.467	0.116	-0.310
-208.450	-59.158	0.121	0.052
-207.436	-200.000	-0.011	0.097
-206.421	-138.602	-0.140	0.015
-205.406	-200.000	-0.008	0.240
-204.392	256.418	-0.200	-0.342
-203.377	-39.649	-0.195	-0.102
-202.363	-38.128	-0.068	-0.036
-201.348	-200.000	-0.039	-0.173
-200.333	-200.000	0.007	0.035
-199.319	191.282	-0.220	0.330
-198.304	-46.010	0.109	-0.053
-197.290	268.066	0.056	0.098
-196.275	132.799	-0.158	0.203
-195.260	-200.000	-0.042	0.568
-194.246	-77.463	-0.248	0.086
-193.231	-45.179	0.091	-0.045
-192.217	274.412	-0.042	-0.074
-191.202	-175.882	0.232	-0.006
-190.187	-200.000	-0.030	0.225
-189.173	54.016	-0.062	-0.060
-188.158	-148.700	-0.205	-0.017
-187.144	-140.528	-0.084	-0.009
-186.129	149.335	0.145	0.195
-185.114	6.869	-0.164	-0.122
-184.100	800.000	-0.012	-0.051
-183.085	-98.600	-0.189	-0.048
-182.071	-200.000	0.002	-0.324
-181.056	800.000	-0.034	-0.110
-180.042	748.308	-0.022	-0.060
-179.027	-174.666	0.149	0.004
-178.012	-33.847	-0.235	0.129
-176.998	-8.716	0.250	-0.167
-175.983	193.913	-0.164	-0.247
-174.969	101.518	0.153	-0.178
-173.954	587.746	0.088	0.215
-172.939	137.684	0.074	0.096
-171.925	-75.263	0.013	0.005
-170.910	-2.496	-0.119	0.083
-169.896	-138.871	0.190	-0.021
-168.881	-200.000	-0.059	0.333
-167.866	800.000	-0.042	0.126
-166.852	-120.055	-0.174	-0.030
-165.837	149.149	0.142	-0.192
-164.823	315.321	0.094	-0.177
-163.808	149.668	0.061	0.083
-162.793	800.000	0.102	0.331
-161.779	57.110	0.077	-0.075
-160.764	27.101	0.070	0.058
-159.750	154.841	0.106	0.145
-158.735	167.425	0.133	-0.188
-157.720	6.285	0.201	0.149
-156.706	-169.210	-0.393	0.014
-155.691	-38.272	0.110	-0.058
-154.677	-200.000	-0.007	-0.051
-153.662	-150.502	-0.108	-0.008
-152.647	174.184	0.105	0.150
-151.633	440.903	0.203	0.441
-150.618	38.308	-0.179	0.159
-149.604	411.514	-0.058	-0.122
-148.589	-113.713	-0.387	-0.075
-147.574	-28.240	0.234	-0.134
-146.560	56.855	-0.286	0.277
-145.545	279.033	0.072	-0.127
-144.531	92.994	-0.149	0.167
-143.516	243.851	-0.133	0.222
-142.502	379.837	0.081	-0.164
-141.487	337.347	-0.157	0.304
-140.472	-66.479	-0.109	-0.043
-139.458	-200.000	-0.071	0.000
-138.443	19.509	0.131	-0.104
-137.429	18.048	-0.061	0.048
-136.414	24.980	0.365	0.301
-135.399	20.538	0.215	-0.173
-134.385	-152.235	0.170	0.012
-133.370	195.308	0.162	0.245
-132.356	345.316	-0.059	-0.115
-131.341	-52.652	0.190	0.087
-130.326	800.000	-0.039	0.113
-129.312	-200.000	0.038	0.351
-128.297	-28.777	-0.217	-0.124
-127.283	-55.693	0.290	-0.129
-126.268	168.758	0.206	-0.292
-125.253	-16.901	-0.109	0.069
-124.239	800.000	0.040	0.157
-123.224	800.000	-0.027	-0.075
-122.210	800.000	-0.048	0.195
