DTS Sentinel unit serial number:	SN413079Multiplexer serial number:	ORYXHardware model number:	OX4-SRSoftware version number:	ORYX F/W v4.00 Oryx Data Collector v3.7.2.0data status	okinstallation	princeton_trtdifferential loss correction	single-endedforward channel	channel 4reverse channel	N/Adate	2019/09/15time	15:21:34forward acquisition time	60.00reverse acquisition time	0.00gamma	496.2192k internal	0.2286k external	0.2286temperature offset calibration	0.9961default loss term (dB/km)	0.3790temperature slope calibration	1.0000multiplexer offset coefficient	1.0000multiplexer slope coefficient	1.0000fibre end	0.00T internal ref (°C)	40.87T ext. ref 1 (°C)	5.05T ext. ref 2 (°C)	38.25length (m)	temperature (°C)	Stokes	anti-Stokes-747.200	-200.000	-0.058	-0.304
-746.185	800.000	0.067	0.203
-745.171	-2.493	-0.032	0.023
-744.156	800.000	-0.068	0.248
-743.142	-8.955	-0.077	-0.053
-742.127	800.000	-0.048	0.158
-741.112	98.592	-0.012	-0.014
-740.098	318.146	-0.135	0.262
-739.083	800.000	-0.095	-0.315
-738.069	116.668	0.139	0.175
-737.054	752.238	-0.109	-0.302
-736.039	556.568	-0.117	-0.290
-735.025	211.282	0.211	0.340
-734.010	37.375	0.181	-0.164
-732.996	-158.051	-0.356	0.021
-731.981	800.000	-0.094	0.331
-730.966	-48.129	-0.242	-0.120
-729.952	248.813	-0.124	0.216
-728.937	-200.000	0.027	0.266
-727.923	-31.748	0.117	-0.068
-726.908	-79.928	0.536	-0.185
-725.894	800.000	-0.041	0.185
-724.879	-183.360	-0.272	0.005
-723.864	800.000	-0.039	-0.112
-722.850	-200.000	0.010	-0.079
-721.835	-75.441	-0.143	0.052
-720.821	171.155	-0.083	-0.123
-719.806	-105.863	0.208	0.048
-718.791	-85.744	0.186	-0.059
-717.777	209.498	0.075	0.120
-716.762	57.507	-0.346	-0.346
-715.748	-64.180	0.085	-0.036
-714.733	-51.363	-0.247	0.119
-713.718	34.852	0.251	0.225
-712.704	800.000	0.048	-0.137
-711.689	110.340	0.051	-0.063
-710.675	800.000	0.043	0.124
-709.660	146.486	-0.211	0.290
-708.645	21.383	-0.043	-0.036
-707.631	-80.579	-0.236	0.081
-706.616	40.297	-0.146	-0.135
-705.602	56.201	-0.209	0.208
-704.587	22.328	-0.219	0.183
-703.572	-200.000	0.009	0.162
-702.558	35.705	0.152	-0.137
-701.543	32.304	0.162	-0.144
-700.529	800.000	-0.102	-0.379
-699.514	70.244	-0.011	-0.012
-698.499	-20.444	-0.262	-0.165
-697.485	-200.000	-0.033	-0.259
-696.470	114.512	-0.219	0.273
-695.456	126.437	-0.025	-0.032
-694.441	-200.000	0.022	-0.215
-693.426	-0.884	0.325	-0.235
-692.412	-149.469	-0.469	0.038
-691.397	-200.000	-0.002	-0.196
-690.383	-132.910	-0.288	-0.038
-689.368	576.526	-0.117	0.293
-688.354	800.000	-0.024	0.086
-687.339	388.254	-0.018	-0.039
-686.324	-95.729	-0.329	-0.090
-685.310	-39.177	0.199	-0.107
-684.295	-200.000	-0.026	-0.203
-683.281	10.650	-0.121	-0.095
-682.266	234.599	0.143	-0.241
-681.251	-48.310	0.122	-0.060
-680.237	-57.954	-0.146	0.065
-679.222	-200.000	0.041	-0.224
-678.208	-24.095	0.218	-0.133
-677.193	-200.000	0.082	-0.389
-676.178	144.617	-0.042	-0.057
-675.164	4.877	-0.497	0.374
-674.149	-41.114	0.131	-0.069
-673.135	102.216	-0.234	-0.280
-672.120	-120.978	-0.018	-0.003
-671.105	-200.000	-0.015	-0.106
-670.091	-159.659	-0.189	-0.011
-669.076	800.000	-0.092	-0.273
-668.062	203.432	0.039	-0.062
-667.047	320.884	0.048	0.093
-666.032	-117.581	-0.421	0.078
-665.018	-200.000	0.026	0.125
-664.003	5.118	-0.306	0.231
-662.989	-200.000	0.042	-0.225
-661.974	384.588	-0.176	-0.372
-660.959	119.571	0.075	-0.095
-659.945	-200.000	-0.015	0.350
-658.930	-66.394	-0.262	-0.107
-657.916	-73.883	0.157	-0.058
-656.901	-130.305	-0.186	0.026
-655.886	17.507	-0.302	-0.246
-654.872	800.000	0.013	0.045
-653.857	-70.488	-0.161	0.063
-652.843	-200.000	-0.041	-0.389
-651.828	-58.820	-0.126	-0.056
-650.814	318.421	0.180	-0.349
-649.799	-104.930	0.032	-0.007
-648.784	-200.000	0.020	0.221
-647.770	-23.380	-0.155	0.095
-646.755	-200.000	-0.051	0.338
-645.741	-187.747	0.112	-0.002
-644.726	-53.401	-0.201	-0.094
-643.711	-77.718	-0.081	0.029
-642.697	8.184	-0.055	-0.042
-641.682	50.234	-0.120	-0.116
-640.668	79.638	0.141	-0.155
-639.653	31.344	-0.095	0.083
-638.638	431.513	-0.036	0.079
-637.624	-135.727	-0.158	-0.019
-636.609	-200.000	-0.297	0.001
-635.595	-200.000	0.051	-0.266
-634.580	-57.827	0.203	-0.091
-633.565	173.393	0.064	-0.094
-632.551	663.699	0.035	0.093
-631.536	-62.442	-0.104	-0.044
-630.522	-159.459	-0.047	0.003
-629.507	107.935	-0.135	-0.164
-628.492	800.000	0.133	-0.383
-627.478	-53.548	-0.096	0.045
-626.463	-78.803	0.405	0.141
-625.449	35.162	-0.300	-0.269
-624.434	-117.565	-0.355	-0.065
-623.419	53.813	0.212	-0.208
-622.405	-95.346	-0.041	-0.011
-621.390	-184.272	-0.095	0.002
-620.376	-139.571	-0.129	0.014
-619.361	-84.885	-0.340	-0.109
-618.346	-158.017	0.054	-0.003
-617.332	340.599	0.191	0.381
-616.317	-68.627	-0.117	0.046
-615.303	22.967	0.307	0.258
-614.288	-98.559	-0.185	-0.048
-613.273	-99.387	0.206	-0.053
-612.259	-66.948	-0.377	-0.152
-611.244	800.000	-0.123	-0.377
-610.230	47.276	-0.080	-0.076
-609.215	-77.739	-0.104	0.037
-608.201	-200.000	0.005	-0.158
-607.186	-200.000	-0.056	0.266
-606.171	-47.396	0.142	-0.071
-605.157	55.486	-0.137	-0.136
-604.142	223.466	0.098	-0.161
-603.128	800.000	0.077	-0.288
-602.113	-11.668	0.156	-0.104
-601.098	-82.436	-0.100	0.033
-600.084	-187.502	0.370	0.005
-599.069	800.000	-0.047	-0.153
-598.055	142.586	0.158	-0.214
-597.040	-114.937	-0.165	0.032
-596.025	-23.938	0.146	0.089
-595.011	-196.757	-0.194	0.001
-593.996	-135.421	0.091	-0.011
-592.982	-200.000	0.009	0.052
-591.967	185.376	-0.076	-0.115
-590.952	-149.871	-0.178	0.014
-589.938	-38.142	-0.175	-0.095
-588.923	37.697	-0.384	0.348
-587.909	-70.918	0.170	-0.065
-586.894	105.350	-0.291	0.350
-585.879	-200.000	-0.001	0.026
-584.865	-106.303	0.109	0.025
-583.850	183.854	0.203	-0.306
-582.836	-70.470	-0.275	0.106
-581.821	-159.498	0.240	-0.014
-580.806	25.816	-0.142	0.121
-579.792	-78.265	-0.080	0.028
-578.777	11.614	0.172	0.134
-577.763	111.787	0.087	-0.107
-576.748	-115.686	-0.031	-0.006
-575.733	256.858	-0.039	-0.068
-574.719	-200.000	0.035	-0.311
-573.704	-200.000	0.071	-0.398
-572.690	59.599	0.025	0.025
-571.675	260.889	0.159	0.280
-570.661	800.000	0.058	0.175
-569.646	-119.010	-0.167	0.030
-568.631	-147.031	-0.261	0.023
-567.617	-4.455	-0.115	0.081
-566.602	-116.215	0.157	0.030
-565.588	800.000	0.064	-0.191
-564.573	390.391	-0.047	-0.099
-563.558	521.943	-0.118	-0.283
-562.544	-200.000	0.034	0.311
-561.529	-144.501	-0.251	-0.024
-560.515	54.029	-0.164	0.161
-559.500	782.929	-0.116	-0.324
-558.485	-200.000	-0.059	0.000
-557.471	-156.089	-0.191	-0.012
-556.456	260.526	0.180	-0.316
-555.442	-69.549	0.109	-0.043
-554.427	-42.673	0.328	0.170
-553.412	-1.553	-0.148	0.106
-552.398	19.557	0.070	0.057
-551.383	-200.000	0.034	-0.223
-550.369	-108.537	-0.112	-0.024
-549.354	-158.546	-0.202	-0.012
-548.339	-7.596	0.111	-0.076
-547.325	2.298	-0.118	-0.087
-546.310	14.692	0.161	-0.128
-545.296	200.844	0.078	-0.122
-544.281	-65.612	-0.180	-0.074
-543.266	-21.260	-0.247	-0.154
-542.252	-200.000	-0.005	0.115
-541.237	2.396	-0.172	0.126
-540.223	23.258	0.161	0.135
-539.208	-200.000	-0.005	-0.144
-538.193	-116.900	0.147	-0.027
-537.179	42.431	0.219	-0.203
-536.164	738.885	-0.053	0.146
-535.150	-107.887	0.469	-0.104
-534.135	-200.000	-0.006	0.284
-533.121	510.563	-0.044	0.105
-532.106	-1.669	0.372	-0.267
-531.091	-200.000	-0.025	-0.122
-530.077	30.366	0.153	-0.133
-529.062	-75.153	0.284	-0.103
-528.048	573.521	0.188	-0.466
-527.033	-126.680	0.037	0.006
-526.018	800.000	-0.040	0.125
-525.004	-58.788	-0.261	0.115
-523.989	-37.932	-0.257	-0.139
-522.975	748.546	0.160	0.439
-521.960	-200.000	0.038	0.341
-520.945	49.874	0.217	0.208
-519.931	-200.000	0.033	0.175
-518.916	800.000	0.036	0.125
-517.902	423.990	-0.024	0.053
-516.887	-107.489	0.299	0.067
-515.872	800.000	0.072	0.207
-514.858	58.681	-0.093	0.093
-513.843	329.077	-0.117	0.229
-512.829	800.000	0.142	0.420
-511.814	800.000	0.086	-0.286
-510.799	-41.513	-0.142	-0.074
-509.785	-73.134	-0.067	0.025
-508.770	-200.000	0.015	0.105
-507.756	800.000	0.066	0.213
-506.741	-200.000	0.015	0.147
-505.726	257.393	0.173	0.303
-504.712	482.562	-0.056	0.130
-503.697	-200.000	0.023	-0.373
-502.683	611.461	-0.060	0.152
-501.668	212.061	-0.074	0.118
-500.653	170.069	0.122	0.177
-499.639	-200.000	0.052	-0.435
-498.624	-14.173	-0.125	0.082
-497.610	327.499	0.139	0.270
-496.595	-200.000	0.050	0.245
-495.581	-137.616	-0.467	0.053
-494.566	-200.000	0.042	0.244
-493.551	-124.479	0.108	0.017
-492.537	800.000	0.050	0.181
-491.522	350.485	0.077	0.156
-490.508	48.752	-0.141	0.134
-489.493	800.000	0.054	0.153
-488.478	676.645	0.100	0.264
-487.464	-137.362	0.182	0.021
-486.449	-106.899	0.060	0.013
-485.435	227.924	0.188	-0.311
-484.420	-175.702	0.287	0.008
-483.405	-200.000	-0.044	0.221
-482.391	-111.527	0.084	0.017
-481.376	159.192	-0.130	0.183
-480.362	-118.525	-0.204	0.037
-479.347	263.431	-0.088	0.155
-478.332	-128.921	0.126	0.018
-477.318	-25.843	0.183	0.109
-476.303	800.000	0.056	0.180
-475.289	-116.841	0.292	-0.054
-474.274	-200.000	-0.024	-0.161
-473.259	-200.000	-0.027	0.169
-472.245	-22.443	-0.246	-0.151
-471.230	-189.657	-0.370	-0.004
-470.216	-112.595	0.031	-0.006
-469.201	-148.749	0.226	0.019
-468.186	109.233	-0.201	0.244
-467.172	185.265	-0.190	0.287
-466.157	457.009	-0.219	0.494
-465.143	-200.000	-0.035	0.186
-464.128	-200.000	0.019	0.199
-463.113	-46.678	-0.240	-0.119
-462.099	107.943	0.083	-0.100
-461.084	239.296	-0.131	0.221
-460.070	-130.528	-0.077	-0.011
-459.055	-161.700	-0.234	0.012
-458.040	-81.840	-0.388	0.129
-457.026	60.648	-0.106	-0.106
-456.011	-57.679	-0.166	0.074
-454.997	-179.280	-0.269	0.006
-453.982	-200.000	-0.041	0.224
-452.968	243.285	-0.109	-0.186
-451.953	251.472	-0.203	0.351
-450.938	160.409	-0.096	-0.135
-449.924	800.000	-0.036	-0.143
-448.909	-200.000	0.018	-0.138
-447.895	108.735	-0.081	0.099
-446.880	800.000	0.075	-0.290
-445.865	-17.005	-0.220	0.141
-444.851	125.597	0.185	0.237
-443.836	109.874	0.189	-0.230
-442.822	192.422	0.121	-0.186
-441.807	-32.182	0.126	-0.071
-440.792	211.761	0.092	-0.147
-439.778	-125.027	-0.190	-0.030
-438.763	272.290	0.149	0.267
-437.749	-38.753	-0.107	-0.057
-436.734	106.086	0.275	0.330
-435.719	399.812	-0.075	0.160
-434.705	-3.539	0.075	0.053
-433.690	121.461	0.186	-0.235
-432.676	-35.724	0.071	0.039
-431.661	-115.481	-0.119	0.023
-430.646	253.744	0.165	-0.285
-429.632	576.956	-0.027	-0.066
-428.617	-12.784	-0.143	-0.094
-427.603	281.144	-0.103	0.187
-426.588	162.905	-0.268	0.381
-425.573	800.000	-0.078	0.250
-424.559	800.000	0.115	-0.449
-423.544	793.243	-0.099	-0.275
-422.530	102.753	-0.116	0.137
-421.515	9.877	0.106	0.081
-420.500	-35.833	-0.283	-0.155
-419.486	4.621	0.357	0.266
-418.471	679.016	0.179	-0.472
-417.457	349.497	0.018	0.035
-416.442	-104.708	0.190	0.044
-415.428	-192.508	-0.095	0.001
-414.413	-18.707	0.199	0.125
-413.398	-93.508	0.320	-0.090
-412.384	279.982	-0.059	0.107
-411.369	-112.126	0.068	-0.014
-410.355	-200.000	0.079	0.466
-409.340	-200.000	-0.061	0.283
-408.325	800.000	0.057	0.222
-407.311	-200.000	0.024	0.144
-406.296	546.983	-0.057	-0.139
-405.282	-200.000	0.000	-0.264
-404.267	-200.000	0.007	-0.033
-403.252	117.089	-0.261	-0.325
-402.238	-170.250	-0.240	0.009
-401.223	-200.000	0.056	-0.303
-400.209	202.352	-0.155	-0.242
-399.194	-143.940	-0.112	0.011
-398.179	44.491	-0.171	0.159
-397.165	-52.818	-0.154	0.072
-396.150	800.000	0.110	-0.312
-395.136	11.926	-0.238	-0.185
-394.121	-51.097	0.074	0.035
-393.106	430.004	-0.089	0.196
-392.092	800.000	-0.068	-0.262
-391.077	-88.029	0.302	0.092
-390.063	-28.168	-0.199	-0.116
-389.048	104.111	-0.165	0.196
-388.033	-111.881	0.586	0.120
-387.019	110.052	-0.231	-0.280
-386.004	259.846	0.133	0.232
-384.990	-80.768	-0.330	0.111
-383.975	699.664	0.045	-0.121
-382.960	800.000	0.036	0.135
-381.946	-145.053	0.079	0.007
-380.931	-200.000	-0.021	-0.485
-379.917	310.536	-0.113	0.215
-378.902	-200.000	-0.007	-0.200
-377.888	-132.185	0.019	-0.003
-376.873	96.104	0.094	-0.109
-375.858	-200.000	-0.001	-0.293
-374.844	800.000	-0.064	-0.181
-373.829	296.661	-0.160	-0.297
-372.815	138.392	-0.051	0.068
-371.800	800.000	-0.053	0.233
-370.785	2.931	-0.091	-0.067
-369.771	3.185	-0.200	0.147
-368.756	800.000	-0.037	-0.157
-367.742	342.082	0.027	0.054
-366.727	603.218	0.033	0.082
-365.712	-28.746	-0.175	-0.102
-364.698	-149.480	0.054	-0.004
-363.683	30.933	0.307	0.266
-362.669	424.519	-0.057	0.125
-361.654	-25.938	0.230	0.137
-360.639	-138.832	0.366	0.040
-359.625	524.657	0.128	0.304
-358.610	-35.207	-0.187	-0.103
-357.596	137.883	0.069	-0.091
-356.581	-39.137	-0.211	-0.112
-355.566	-55.547	0.323	0.146
-354.552	-200.000	0.010	0.208
-353.537	567.065	-0.086	0.212
-352.523	-32.090	-0.141	-0.080
-351.508	-200.000	-0.032	-0.405
-350.493	-19.971	0.201	-0.125
-349.479	-1.903	-0.292	0.208
-348.464	-72.594	0.176	0.066
-347.450	800.000	0.056	0.200
-346.435	89.721	0.140	-0.157
-345.420	-144.812	-0.029	-0.003
-344.406	186.532	-0.141	0.212
-343.391	264.221	-0.053	-0.093
-342.377	-141.970	0.334	-0.034
-341.362	61.963	-0.163	0.164
-340.348	565.712	0.070	0.172
-339.333	39.530	0.097	-0.088
-338.318	37.931	0.143	0.128
-337.304	800.000	0.081	-0.241
-336.289	-58.961	0.192	0.084
-335.275	-154.961	-0.087	0.006
-334.260	-59.273	0.284	0.123
-333.245	172.488	-0.104	0.152
-332.231	487.845	0.105	-0.243
-331.216	-2.080	0.095	0.068
-330.202	87.066	0.201	0.225
-329.187	-60.186	0.191	-0.082
-328.172	800.000	0.094	0.328
-327.158	-200.000	0.011	-0.064
-326.143	-200.000	-0.037	0.269
-325.129	144.575	0.048	-0.064
-324.114	-42.848	-0.220	0.113
-323.099	-85.302	-0.236	0.074
-322.085	-200.000	0.004	-0.192
-321.070	35.582	0.465	-0.412
-320.056	-35.001	0.141	-0.078
-319.041	800.000	0.063	-0.182
-318.026	172.745	-0.113	0.164
-317.012	-200.000	-0.064	-0.517
-315.997	-200.000	-0.009	-0.128
-314.983	-80.697	-0.115	-0.039
-313.968	-200.000	-0.027	-0.250
-312.953	636.853	-0.145	-0.371
-311.939	-137.764	-0.301	-0.034
-310.924	75.598	-0.358	0.381
-309.910	249.176	-0.142	0.242
-308.895	-77.372	-0.159	-0.056
-307.880	-127.424	0.287	-0.042
-306.866	800.000	0.012	0.041
-305.851	-46.903	-0.180	-0.089
-304.837	-200.000	0.065	-0.447
-303.822	312.001	0.250	-0.473
-302.807	800.000	0.062	0.241
-301.793	-25.195	-0.171	0.102
-300.778	189.875	0.142	0.214
-299.764	-111.215	0.120	0.025
-298.749	51.677	0.414	-0.397
-297.735	119.948	-0.068	0.085
-296.720	800.000	0.013	-0.045
-295.705	-83.779	0.200	-0.064
-294.691	-23.314	-0.087	0.053
-293.676	233.396	-0.109	0.181
-292.662	800.000	0.017	0.056
-291.647	-131.725	0.347	-0.046
-290.632	-200.000	0.000	-0.127
-289.618	93.502	0.074	-0.084
-288.603	-80.003	0.307	-0.104
-287.589	-112.731	0.361	-0.072
-286.574	-52.858	0.053	0.024
-285.559	152.800	-0.223	-0.308
-284.545	-200.000	-0.042	0.200
-283.530	-25.914	-0.021	0.012
-282.516	-177.534	-0.525	-0.013
-281.501	-200.000	-0.028	0.147
-280.486	50.012	-0.004	0.004
-279.472	800.000	-0.109	0.318
-278.457	-71.150	0.116	-0.044
-277.443	-200.000	0.173	0.001
-276.428	122.525	-0.051	0.064
-275.413	800.000	0.052	-0.194
-274.399	-200.000	0.007	-0.072
-273.384	169.681	0.057	-0.082
-272.370	19.101	-0.224	-0.181
-271.355	393.231	-0.090	-0.189
-270.340	-200.000	-0.027	0.371
-269.326	328.467	-0.094	0.181
-268.311	113.457	-0.044	0.054
-267.297	-2.586	-0.075	-0.053
-266.282	-200.000	0.029	0.254
-265.267	800.000	0.035	0.112
-264.253	800.000	-0.070	0.292
-263.238	-72.299	-0.342	-0.128
-262.224	-10.747	-0.217	0.144
-261.209	800.000	-0.005	0.016
-260.195	84.909	-0.097	-0.107
-259.180	800.000	0.065	0.248
-258.165	-64.877	0.149	-0.061
-257.151	36.304	-0.147	0.131
-256.136	-51.376	0.208	-0.098
-255.122	-94.938	0.254	0.069
-254.107	-140.093	0.160	-0.017
-253.092	-150.005	-0.155	0.012
-252.078	196.181	-0.105	-0.160
-251.063	146.750	0.085	-0.115
-250.049	21.441	0.196	0.160
-249.034	-128.174	0.291	-0.042
-248.019	-24.329	0.014	-0.008
-247.005	-184.850	-0.111	-0.002
-245.990	-200.000	0.011	-0.246
-244.976	-125.880	-0.244	0.037
-243.961	-200.000	0.011	-0.226
-242.946	-25.400	-0.052	0.031
-241.932	-200.000	0.012	0.095
-240.917	157.996	0.055	-0.076
-239.903	-40.578	-0.095	-0.049
-238.888	24.597	0.307	-0.256
-237.873	363.325	-0.067	-0.136
-236.859	-39.280	0.198	0.105
-235.844	278.501	-0.050	-0.089
-234.830	-200.000	0.029	0.163
-233.815	273.179	-0.099	-0.177
-232.800	-131.400	0.048	0.006
-231.786	39.959	0.042	0.038
-230.771	-26.216	0.320	0.189
-229.757	71.921	0.032	0.033
-228.742	-47.707	-0.223	0.109
-227.727	-200.000	0.022	0.244
-226.713	232.845	-0.126	-0.208
-225.698	467.466	-0.106	-0.240
-224.684	-112.751	-0.205	0.041
-223.669	-200.000	0.002	0.085
-222.655	800.000	0.081	-0.282
-221.640	13.850	-0.164	-0.128
-220.625	18.342	-0.431	-0.346
-219.611	20.461	0.090	0.073
-218.596	-140.203	-0.059	0.006
-217.582	800.000	0.135	0.422
-216.567	-125.223	0.197	0.030
-215.552	24.153	0.118	0.098
-214.538	800.000	-0.060	-0.171
-213.523	800.000	-0.055	0.167
-212.509	333.754	-0.185	-0.360
-211.494	107.425	0.306	-0.366
-210.479	-200.000	-0.025	-0.189
-209.465	-104.039	0.261	0.061
-208.450	-61.885	-0.163	-0.068
-207.436	330.805	0.048	-0.093
-206.421	-5.409	0.196	0.135
-205.406	-200.000	-0.045	-0.252
-204.392	0.574	-0.118	-0.085
-203.377	-115.910	-0.177	0.033
-202.363	429.953	-0.232	-0.503
-201.348	-20.602	-0.394	-0.243
-200.333	144.114	0.245	0.328
-199.319	101.129	0.083	-0.096
-198.304	-145.060	-0.052	-0.005
-197.290	643.356	0.082	0.210
-196.275	-200.000	-0.019	0.273
-195.260	800.000	0.071	0.218
-194.246	-73.426	0.157	0.057
-193.231	512.231	-0.013	-0.032
-192.217	-83.925	0.233	0.074
-191.202	-200.000	0.021	-0.230
-190.187	269.063	-0.072	0.128
-189.173	800.000	-0.033	-0.117
-188.158	-51.555	-0.546	-0.256
-187.144	461.213	0.095	-0.213
-186.129	-55.143	-0.124	-0.056
-185.114	-200.000	0.027	-0.132
-184.100	-86.221	0.154	0.048
-183.085	800.000	-0.045	-0.157
-182.071	-200.000	0.018	-0.206
-181.056	-192.072	-0.258	0.002
-180.042	-80.981	0.232	0.077
-179.027	31.658	-0.252	-0.218
-178.012	-200.000	-0.065	-0.368
-176.998	-157.727	0.134	-0.008
-175.983	-3.041	-0.134	0.094
-174.969	200.924	0.179	0.277
-173.954	-125.589	0.042	0.006
-172.939	127.144	0.155	-0.198
-171.925	188.486	0.115	0.173
-170.910	544.800	0.090	0.216
-169.896	237.466	0.114	0.190
-168.881	800.000	-0.083	-0.356
-167.866	-70.642	-0.065	-0.025
-166.852	-131.054	0.192	0.026
-165.837	-73.504	0.628	-0.230
-164.823	-68.712	0.210	-0.081
-163.808	146.121	-0.019	0.025
-162.793	-97.048	0.076	-0.020
-161.779	24.521	0.090	0.075
-160.764	800.000	-0.071	0.226
-159.750	404.360	0.076	0.161
-158.735	-49.897	0.072	0.034
-157.720	65.976	-0.232	-0.236
-156.706	-200.000	0.035	0.368
-155.691	296.563	-0.152	0.280
-154.677	106.873	0.069	0.082
-153.662	89.100	0.059	0.066
-152.647	-145.696	0.147	0.013
-151.633	-34.792	0.115	0.063
-150.618	-17.105	0.216	-0.137
-149.604	-42.261	0.161	0.082
-148.589	67.814	-0.142	-0.145
-147.574	-200.000	-0.044	-0.315
-146.560	800.000	0.053	-0.206
-145.545	800.000	0.042	0.185
-144.531	56.420	-0.236	0.230
-143.516	-57.485	0.219	0.096
-142.502	37.895	-0.052	-0.046
-141.487	-19.754	-0.289	-0.179
-140.472	5.498	-0.322	-0.238
-139.458	-1.749	0.164	-0.116
-138.443	-36.139	-0.327	-0.177
-137.429	737.883	0.083	0.223
-136.414	-88.319	0.241	-0.072
-135.399	-86.998	-0.197	0.060
-134.385	-1.151	-0.238	0.169
-133.370	25.348	0.133	0.111
-132.356	120.757	0.133	-0.165
-131.341	-200.000	0.052	0.238
-130.326	84.858	0.127	0.139
-129.312	522.769	0.121	0.285
-128.297	64.387	-0.186	0.188
-127.283	129.715	-0.096	-0.123
-126.268	158.379	0.067	0.093
-125.253	800.000	0.035	-0.125
-124.239	54.824	-0.202	0.196
-123.224	-69.440	-0.180	-0.069
-122.210	-157.655	0.102	-0.006
-121.195	-72.912	-0.288	-0.106
