DTS Sentinel unit serial number:	SN413079Multiplexer serial number:	ORYXHardware model number:	OX4-SRSoftware version number:	ORYX F/W v4.00 Oryx Data Collector v3.7.2.0data status	okinstallation	princeton_trtdifferential loss correction	single-endedforward channel	channel 4reverse channel	N/Adate	2019/09/16time	15:57:35forward acquisition time	60.00reverse acquisition time	0.00gamma	496.2192k internal	0.2288k external	0.2288temperature offset calibration	0.9938default loss term (dB/km)	0.3790temperature slope calibration	1.0000multiplexer offset coefficient	1.0000multiplexer slope coefficient	1.0000fibre end	0.00T internal ref (°C)	41.02T ext. ref 1 (°C)	14.87T ext. ref 2 (°C)	35.52length (m)	temperature (°C)	Stokes	anti-Stokes-747.200	-164.892	-0.243	0.011
-746.185	-119.800	0.216	0.038
-745.171	102.612	-0.158	0.190
-744.156	-200.000	0.039	0.345
-743.142	307.171	0.076	0.145
-742.127	139.143	0.152	-0.205
-741.112	397.087	0.127	-0.271
-740.098	-200.000	-0.030	0.135
-739.083	800.000	0.037	-0.113
-738.069	-187.708	0.182	-0.002
-737.054	-172.936	0.279	-0.009
-736.039	-200.000	-0.004	0.252
-735.025	16.726	0.173	0.141
-734.010	-146.632	-0.233	0.021
-732.996	-100.901	-0.297	-0.075
-731.981	-200.000	-0.003	0.413
-730.966	800.000	-0.033	0.096
-729.952	412.850	0.225	-0.490
-728.937	800.000	-0.016	0.059
-727.923	-53.152	-0.140	-0.066
-726.908	-49.611	-0.317	-0.154
-725.894	-31.175	0.160	-0.092
-724.879	-79.554	-0.488	0.169
-723.864	-116.376	-0.197	-0.037
-722.850	191.647	0.017	-0.026
-721.835	-136.774	-0.063	0.007
-720.821	11.434	0.173	0.136
-719.806	-115.871	-0.196	-0.037
-718.791	-200.000	0.031	-0.219
-717.777	610.605	0.068	-0.174
-716.762	-45.790	0.171	0.087
-715.748	-82.068	0.207	0.069
-714.733	162.417	0.083	-0.119
-713.718	-118.275	0.403	-0.073
-712.704	318.682	-0.158	-0.306
-711.689	108.651	0.247	0.302
-710.675	800.000	-0.049	-0.208
-709.660	-200.000	0.042	0.363
-708.645	-56.579	0.495	0.225
-707.631	-159.382	0.312	-0.018
-706.616	-34.074	0.203	-0.114
-705.602	377.966	-0.078	0.163
-704.587	-181.986	-0.040	0.001
-703.572	-152.218	-0.103	0.008
-702.558	800.000	0.023	-0.087
-701.543	-169.431	0.073	-0.003
-700.529	-85.316	-0.164	-0.052
-699.514	227.888	-0.144	-0.240
-698.499	20.237	-0.013	0.011
-697.485	219.495	0.022	0.036
-696.470	-33.347	0.130	0.073
-695.456	15.671	0.123	0.099
-694.441	-40.796	-0.130	-0.069
-693.426	289.392	0.042	-0.078
-692.412	25.970	0.151	0.129
-691.397	189.736	-0.051	0.078
-690.383	800.000	0.029	0.113
-689.368	81.215	-0.145	-0.160
-688.354	-162.060	-0.145	0.007
-687.339	5.892	-0.253	-0.192
-686.324	-54.145	0.132	0.061
-685.310	105.008	0.085	-0.102
-684.295	17.651	0.262	-0.213
-683.281	-158.724	-0.201	-0.012
-682.266	601.569	0.055	-0.140
-681.251	-77.654	0.139	-0.049
-680.237	421.517	-0.129	-0.284
-679.222	-200.000	-0.024	-0.195
-678.208	-15.451	-0.328	0.214
-677.193	-200.000	-0.018	-0.158
-676.178	121.043	0.030	-0.038
-675.164	4.277	-0.298	-0.223
-674.149	12.331	0.100	0.079
-673.135	-200.000	-0.025	0.328
-672.120	112.882	0.162	0.200
-671.105	-12.466	0.305	0.204
-670.091	800.000	0.083	0.347
-669.076	-63.549	0.311	-0.130
-668.062	-200.000	0.010	-0.194
-667.047	-81.785	-0.233	0.078
-666.032	-6.102	-0.121	0.085
-665.018	-200.000	-0.045	-0.261
-664.003	108.073	0.237	0.289
-662.989	64.214	-0.087	0.089
-661.974	-127.635	-0.313	-0.046
-660.959	33.737	0.232	0.206
-659.945	362.391	-0.009	-0.018
-658.930	260.433	-0.088	-0.155
-657.916	333.429	-0.018	-0.036
-656.901	-200.000	-0.021	-0.139
-655.886	-40.309	-0.097	-0.052
-654.872	668.485	0.053	-0.141
-653.857	-200.000	0.002	-0.015
-652.843	30.875	-0.117	0.102
-651.828	424.410	-0.138	0.302
-650.814	-71.286	-0.094	-0.036
-649.799	265.494	0.156	-0.277
-648.784	-102.347	0.112	-0.027
-647.770	-81.684	-0.215	-0.072
-646.755	-78.589	0.103	-0.036
-645.741	596.840	-0.024	-0.061
-644.726	800.000	0.112	0.320
-643.711	-200.000	-0.025	-0.173
-642.697	-64.082	-0.320	-0.133
-641.682	223.266	0.172	-0.283
-640.668	-35.314	0.298	0.165
-639.653	-114.234	-0.034	-0.007
-638.638	-66.798	-0.266	-0.107
-637.624	26.056	-0.169	-0.144
-636.609	28.193	-0.143	-0.123
-635.595	800.000	0.079	0.334
-634.580	800.000	-0.099	0.312
-633.565	-145.719	0.245	-0.022
-632.551	800.000	0.041	0.147
-631.536	-136.461	-0.103	0.012
-630.522	76.542	-0.146	-0.158
-629.507	84.941	-0.265	0.296
-628.492	-200.000	-0.040	0.197
-627.478	-200.000	-0.028	-0.324
-626.463	-81.081	0.222	-0.075
-625.449	-183.307	0.231	-0.004
-624.434	800.000	-0.052	-0.209
-623.419	-127.794	-0.128	0.019
-622.405	357.944	-0.012	0.025
-621.390	581.192	-0.117	-0.292
-620.376	-200.000	0.051	-0.247
-619.361	800.000	-0.025	0.076
-618.346	-61.923	0.254	-0.108
-617.332	57.164	-0.048	-0.048
-616.317	-43.350	0.135	-0.070
-615.303	-200.000	-0.012	-0.144
-614.288	-35.822	0.236	0.130
-613.273	-200.000	-0.031	0.217
-612.259	-20.838	0.202	0.126
-611.244	800.000	0.097	-0.372
-610.230	136.680	-0.093	0.124
-609.215	-200.000	0.001	0.031
-608.201	-200.000	0.027	0.178
-607.186	-200.000	0.054	-0.272
-606.171	-91.635	0.278	-0.081
-605.157	-32.952	-0.103	-0.059
-604.142	371.477	0.060	0.124
-603.128	-35.283	-0.138	0.077
-602.113	589.317	0.084	-0.212
-601.098	-38.314	-0.278	0.150
-600.084	-98.230	-0.130	-0.034
-599.069	663.846	-0.083	0.219
-598.055	10.524	0.108	0.084
-597.040	262.155	0.046	-0.082
-596.025	800.000	0.012	-0.034
-595.011	64.789	-0.122	-0.125
-593.996	23.468	0.315	0.264
-592.982	386.024	0.025	-0.053
-591.967	228.679	-0.164	-0.272
-590.952	800.000	0.075	-0.293
-589.938	525.817	-0.100	-0.240
-588.923	-3.412	-0.140	-0.099
-587.909	719.431	-0.056	-0.151
-586.894	403.949	-0.082	-0.175
-585.879	-17.138	0.173	-0.111
-584.865	-200.000	0.029	0.169
-583.850	-130.873	-0.197	0.027
-582.836	266.868	0.065	-0.115
-581.821	98.242	-0.226	-0.265
-580.806	129.659	-0.114	-0.149
-579.792	8.271	-0.135	-0.103
-578.777	-200.000	0.004	0.160
-577.763	-45.613	-0.187	-0.095
-576.748	304.100	0.074	0.139
-575.733	125.454	-0.256	0.329
-574.719	51.325	-0.227	-0.220
-573.704	-200.000	0.005	-0.066
-572.690	800.000	-0.055	0.164
-571.675	233.618	-0.163	0.274
-570.661	-200.000	-0.018	-0.202
-569.646	329.440	-0.099	-0.194
-568.631	-56.371	0.292	-0.132
-567.617	145.119	-0.198	-0.270
-566.602	-127.506	-0.418	-0.062
-565.588	-165.001	-0.034	0.002
-564.573	688.285	0.029	-0.076
-563.558	-200.000	0.003	0.223
-562.544	546.243	0.150	0.364
-561.529	-200.000	-0.004	-0.098
-560.515	98.442	0.107	-0.126
-559.500	330.941	-0.031	0.060
-558.485	-152.823	0.481	0.035
-557.471	62.729	0.177	-0.180
-556.456	-200.000	-0.022	-0.159
-555.442	-134.685	0.200	0.025
-554.427	-105.884	-0.289	0.066
-553.412	-7.599	0.064	0.044
-552.398	51.388	-0.191	0.184
-551.383	-76.155	0.146	-0.053
-550.369	-102.004	-0.290	0.071
-549.354	116.007	-0.098	0.122
-548.339	-77.124	-0.319	0.113
-547.325	-81.125	0.277	0.093
-546.310	72.807	-0.100	0.106
-545.296	-200.000	0.010	-0.104
-544.281	-80.581	-0.192	0.065
-543.266	-34.110	-0.216	0.121
-542.252	-200.000	0.032	0.347
-541.237	-90.815	-0.339	0.099
-540.223	665.965	0.107	-0.282
-539.208	-57.715	-0.056	-0.025
-538.193	-121.537	-0.111	0.019
-537.179	-4.136	0.238	-0.168
-536.164	800.000	-0.078	-0.308
-535.150	-11.151	0.050	0.034
-534.135	-40.649	0.294	0.155
-533.121	-36.611	0.232	0.127
-532.106	457.388	-0.088	-0.199
-531.091	-112.394	-0.332	0.068
-530.077	114.127	-0.102	-0.126
-529.062	-200.000	0.020	-0.152
-528.048	-74.946	0.063	-0.023
-527.033	-200.000	0.037	0.280
-526.018	-58.394	-0.274	-0.121
-525.004	-59.771	-0.040	-0.017
-523.989	-53.444	0.199	-0.093
-522.975	487.680	0.042	0.098
-521.960	76.744	-0.193	0.208
-520.945	-4.476	-0.244	0.171
-519.931	-200.000	0.030	0.147
-518.916	25.855	-0.081	-0.068
-517.902	199.639	0.178	0.278
-516.887	-200.000	-0.010	0.144
-515.872	94.873	0.209	0.241
-514.858	40.467	0.104	0.095
-513.843	800.000	-0.016	-0.044
-512.829	-88.850	0.436	-0.132
-511.814	-200.000	0.044	0.362
-510.799	-94.170	0.072	0.020
-509.785	800.000	0.029	0.087
-508.770	-53.374	0.131	-0.061
-507.756	786.233	-0.022	-0.063
-506.741	-20.906	-0.220	0.137
-505.726	-58.831	-0.155	-0.068
-504.712	-144.276	-0.370	-0.035
-503.697	-140.354	-0.356	-0.038
-502.683	35.551	-0.169	0.151
-501.668	411.966	0.071	0.153
-500.653	-200.000	0.009	-0.095
-499.639	573.076	0.010	-0.026
-498.624	-200.000	-0.000	-0.156
-497.610	-62.134	0.121	-0.051
-496.595	-29.275	0.169	-0.098
-495.581	-6.238	0.159	-0.110
-494.566	-171.749	-0.260	-0.009
-493.551	-70.059	0.136	0.053
-492.537	325.957	-0.151	0.293
-491.522	-103.330	-0.212	0.051
-490.508	-19.274	0.092	0.058
-489.493	301.066	0.142	-0.266
-488.478	-116.329	0.134	0.025
-487.464	690.824	0.018	0.049
-486.449	-200.000	0.009	0.167
-485.435	136.797	-0.150	0.199
-484.420	693.355	0.052	0.139
-483.405	81.613	-0.185	-0.203
-482.391	-63.927	-0.201	-0.083
-481.376	167.190	0.217	-0.312
-480.362	-163.466	0.165	-0.008
-479.347	800.000	-0.014	-0.062
-478.332	56.315	0.250	0.247
-477.318	-62.777	0.177	-0.074
-476.303	800.000	0.016	-0.070
-475.289	516.316	0.087	-0.206
-474.274	244.432	0.139	-0.237
-473.259	183.836	0.068	0.102
-472.245	-115.849	0.087	-0.017
-471.230	566.705	0.109	-0.268
-470.216	-97.281	0.201	-0.053
-469.201	-93.022	0.190	-0.054
-468.186	20.575	0.420	0.345
-467.172	655.881	-0.012	0.032
-466.157	-116.011	-0.300	-0.057
-465.143	800.000	-0.030	0.108
-464.128	184.256	0.098	0.147
-463.113	361.438	0.211	-0.429
-462.099	-200.000	-0.002	0.024
-461.084	800.000	-0.006	-0.023
-460.070	-50.568	-0.278	-0.133
-459.055	-30.094	0.209	-0.120
-458.040	95.959	-0.175	-0.203
-457.026	159.155	-0.069	-0.098
-456.011	-35.040	-0.245	0.135
-454.997	-200.000	-0.013	0.303
-453.982	2.963	0.209	-0.154
-452.968	284.883	-0.197	-0.359
-451.953	227.686	0.100	-0.164
-450.938	202.059	0.038	-0.060
-449.924	-200.000	-0.018	0.128
-448.909	795.915	0.016	0.045
-447.895	-21.704	0.111	-0.068
-446.880	1.421	0.130	0.095
-445.865	-200.000	-0.048	-0.220
-444.851	457.751	-0.015	-0.033
-443.836	800.000	0.038	0.110
-442.822	-200.000	-0.015	-0.156
-441.807	-115.071	-0.066	-0.013
-440.792	-87.435	0.041	-0.013
-439.778	-32.884	-0.266	0.150
-438.763	-93.155	-0.476	0.134
-437.749	537.982	-0.044	-0.105
-436.734	277.355	0.094	-0.169
-435.719	-84.789	0.156	0.050
-434.705	-40.897	-0.106	-0.055
-433.690	800.000	-0.050	0.170
-432.676	-35.976	0.309	-0.169
-431.661	537.484	0.069	0.166
-430.646	-64.108	-0.146	-0.060
-429.632	800.000	-0.069	-0.206
-428.617	-35.248	-0.200	0.110
-427.603	-143.905	-0.218	-0.021
-426.588	110.733	-0.065	0.079
-425.573	-141.679	-0.119	-0.012
-424.559	-200.000	0.016	-0.262
-423.544	12.257	0.114	0.089
-422.530	-200.000	-0.074	0.340
-421.515	-200.000	0.012	-0.127
-420.500	191.953	-0.120	-0.183
-419.486	15.490	0.125	-0.099
-418.471	-200.000	0.009	-0.190
-417.457	782.085	0.066	-0.184
-416.442	-200.000	-0.002	-0.215
-415.428	-125.068	-0.226	-0.035
-414.413	-5.976	0.027	-0.019
-413.398	-200.000	-0.006	0.238
-412.384	-38.747	0.055	-0.029
-411.369	-40.554	-0.348	0.183
-410.355	-42.311	0.364	0.188
-409.340	148.427	0.174	-0.238
-408.325	71.333	-0.285	0.299
-407.311	89.865	-0.190	0.215
-406.296	800.000	-0.077	0.310
-405.282	107.000	0.271	0.326
-404.267	-116.599	0.152	0.028
-403.252	58.685	-0.076	0.075
-402.238	-41.458	-0.295	0.154
-401.223	193.284	0.058	-0.089
-400.209	-200.000	0.021	0.272
-399.194	-119.770	0.041	-0.007
-398.179	323.565	0.045	-0.087
-397.165	65.925	0.152	-0.156
-396.150	-124.209	-0.237	-0.037
-395.136	-65.020	-0.047	-0.019
-394.121	475.858	0.158	-0.360
-393.106	81.308	0.066	0.072
-392.092	-200.000	0.019	-0.132
-391.077	800.000	-0.045	-0.137
-390.063	-145.662	-0.179	0.016
-389.048	-200.000	-0.039	-0.333
-388.033	-22.783	-0.272	-0.166
-387.019	7.733	-0.051	0.038
-386.004	-42.707	-0.048	-0.025
-384.990	-200.000	-0.009	-0.142
-383.975	159.301	0.067	0.095
-382.960	800.000	0.087	0.275
-381.946	800.000	0.095	-0.270
-380.931	129.713	0.174	0.225
-379.917	800.000	0.053	0.169
-378.902	-76.722	0.348	0.123
-377.888	71.410	0.080	0.084
-376.873	-112.173	-0.095	0.019
-375.858	130.413	0.150	0.194
-374.844	14.671	0.182	-0.143
-373.829	-200.000	-0.022	-0.155
-372.815	16.950	0.104	0.083
-371.800	426.279	0.106	-0.232
-370.785	-152.817	0.105	-0.007
-369.771	581.606	0.071	0.175
-368.756	210.443	0.114	0.181
-367.742	-200.000	0.022	0.135
-366.727	-103.917	0.205	0.048
-365.712	-42.359	-0.388	-0.200
-364.698	-31.643	-0.415	0.236
-363.683	-43.509	-0.342	0.175
-362.669	124.224	-0.111	-0.141
-361.654	-66.987	0.324	-0.129
-360.639	82.618	0.051	0.056
-359.625	14.954	0.276	0.218
-358.610	150.863	0.160	-0.220
-357.596	-75.899	-0.102	0.037
-356.581	-161.843	-0.299	0.015
-355.566	-159.508	-0.213	-0.012
-354.552	113.796	-0.111	0.137
-353.537	286.303	0.099	0.181
-352.523	61.772	-0.184	0.185
-351.508	-73.242	0.271	-0.100
-350.493	-25.217	-0.222	-0.133
-349.479	-60.535	-0.227	-0.098
-348.464	-58.641	-0.298	0.130
-347.450	39.363	-0.377	-0.341
-346.435	371.052	-0.091	0.187
-345.420	-6.173	0.107	-0.074
-344.406	542.155	0.106	-0.255
-343.391	-53.574	-0.264	0.122
-342.377	29.057	-0.223	0.191
-341.362	319.702	0.155	-0.298
-340.348	800.000	-0.024	-0.098
-339.333	-93.728	0.338	-0.094
-338.318	2.111	0.073	-0.053
-337.304	4.548	0.206	0.152
-336.289	-71.549	-0.302	0.114
-335.275	-124.759	0.188	-0.029
-334.260	-177.617	0.275	-0.007
-333.245	27.401	-0.245	0.208
-332.231	59.044	0.094	-0.093
-331.216	33.078	0.136	0.119
-330.202	349.048	0.213	-0.424
-329.187	86.265	-0.144	0.160
-328.172	70.892	0.163	0.170
-327.158	-200.000	0.006	-0.206
-326.143	234.003	-0.217	-0.360
-325.129	-95.067	0.263	0.072
-324.114	-9.319	0.181	0.122
-323.099	485.266	0.160	-0.368
-322.085	-200.000	-0.041	-0.344
-321.070	107.653	-0.245	-0.294
-320.056	800.000	-0.047	-0.176
-319.041	62.043	0.117	-0.117
-318.026	-60.551	0.139	-0.060
-317.012	-20.461	0.292	-0.181
-315.997	131.252	0.122	0.158
-314.983	-200.000	0.033	0.204
-313.968	800.000	0.099	0.298
-312.953	-129.730	-0.121	0.017
-311.939	68.445	0.148	-0.153
-310.924	275.765	-0.089	-0.159
-309.910	85.229	-0.056	-0.062
-308.895	98.855	0.131	0.153
-307.880	-200.000	-0.045	0.279
-306.866	-200.000	-0.016	0.389
-305.851	-200.000	-0.039	0.309
-304.837	547.758	-0.055	0.134
-303.822	214.823	0.078	-0.125
-302.807	-36.717	0.358	0.194
-301.793	-140.639	-0.259	-0.027
-300.778	223.401	0.135	0.220
-299.764	236.254	0.174	0.290
-298.749	-91.045	-0.218	-0.063
-297.735	-5.265	-0.106	-0.073
-296.720	-114.970	0.137	-0.026
-295.705	84.154	0.189	0.208
-294.691	-121.863	-0.091	0.015
-293.676	671.358	-0.060	0.155
-292.662	335.697	-0.035	-0.068
-291.647	-197.091	-0.218	-0.001
-290.632	-61.674	-0.515	0.217
-289.618	-2.921	-0.204	0.144
-288.603	252.784	-0.104	-0.179
-287.589	800.000	-0.046	-0.152
-286.574	-135.519	-0.219	-0.026
-285.559	65.140	0.052	-0.053
-284.545	800.000	0.091	0.343
-283.530	800.000	-0.014	0.043
-282.516	107.416	0.147	0.177
-281.501	216.746	-0.139	-0.223
-280.486	282.586	0.064	0.115
-279.472	75.501	0.253	-0.269
-278.457	-45.601	0.216	-0.107
-277.443	-200.000	0.050	-0.333
-276.428	-112.102	-0.175	-0.035
-275.413	-30.565	0.218	-0.124
-274.399	-200.000	0.011	0.080
-273.384	-155.889	0.256	-0.016
-272.370	-47.186	0.103	-0.050
-271.355	-200.000	0.008	-0.163
-270.340	-146.895	-0.197	0.017
-269.326	302.704	-0.028	-0.052
-268.311	168.420	0.142	0.203
-267.297	800.000	-0.059	-0.243
-266.282	36.783	0.049	0.043
-265.267	-9.949	-0.102	-0.068
-264.253	79.743	-0.128	-0.138
-263.238	-160.214	0.195	0.011
-262.224	87.270	0.019	0.021
-261.209	-76.782	-0.238	-0.084
-260.195	57.539	0.247	0.243
-259.180	-116.258	-0.124	0.023
-258.165	613.753	-0.065	0.163
-257.151	-200.000	0.014	-0.268
-256.136	234.854	0.113	-0.187
-255.122	-41.179	-0.122	0.063
-254.107	121.399	0.150	0.188
-253.092	72.903	-0.096	0.101
-252.078	-1.098	0.172	0.122
-251.063	406.297	-0.065	-0.139
-250.049	-31.329	-0.147	0.083
-249.034	-42.351	0.229	-0.117
-248.019	598.214	0.090	0.225
-247.005	348.151	0.134	0.265
-245.990	-14.287	0.183	0.118
-244.976	-149.764	-0.046	-0.004
-243.961	-79.943	0.260	0.088
-242.946	446.299	0.040	-0.089
-241.932	800.000	-0.025	0.081
-240.917	-200.000	-0.000	0.341
-239.903	-189.039	0.359	0.004
-238.888	519.127	0.069	0.163
-237.873	58.720	0.151	-0.149
-236.859	-42.282	-0.447	-0.230
-235.844	-200.000	0.063	-0.293
-234.830	680.189	-0.131	-0.342
-233.815	10.075	0.118	-0.090
-232.800	430.403	0.096	0.208
-231.786	-93.937	-0.145	-0.040
-230.771	-200.000	-0.028	0.242
-229.757	23.835	0.119	-0.098
-228.742	-120.546	-0.346	-0.059
-227.727	138.951	0.157	0.207
-226.713	800.000	-0.126	0.368
-225.698	-200.000	-0.010	-0.098
-224.684	-200.000	0.024	-0.405
-223.669	2.934	-0.221	-0.161
-222.655	-166.488	0.182	-0.008
-221.640	380.790	-0.050	0.103
-220.625	800.000	0.071	-0.203
-219.611	-112.190	0.096	0.019
-218.596	-157.048	0.105	0.006
-217.582	-34.562	0.315	-0.173
-216.567	341.164	0.028	0.054
-215.552	-56.288	0.199	-0.089
-214.538	-200.000	0.015	-0.169
-213.523	800.000	-0.033	0.139
-212.509	-140.527	0.244	0.025
-211.494	-19.969	0.108	-0.067
-210.479	-152.030	0.262	0.019
-209.465	343.934	0.171	-0.337
-208.450	800.000	0.049	-0.196
-207.436	800.000	-0.135	0.378
-206.421	19.636	0.301	-0.243
-205.406	-132.262	-0.280	0.036
-204.392	-200.000	0.038	0.245
-203.377	-18.054	-0.116	-0.073
-202.363	-71.122	-0.180	-0.068
-201.348	-62.687	-0.061	0.025
-200.333	-72.047	-0.092	0.034
-199.319	182.685	-0.212	0.315
-198.304	745.374	-0.055	0.148
-197.290	173.297	0.026	0.037
-196.275	-200.000	0.004	0.178
-195.260	330.371	-0.145	0.281
-194.246	-200.000	0.030	0.145
-193.231	-53.724	-0.138	0.063
-192.217	-71.764	-0.129	0.048
-191.202	-200.000	0.023	0.121
-190.187	-10.339	0.154	0.102
-189.173	20.343	0.168	0.137
-188.158	800.000	-0.077	-0.225
-187.144	106.552	0.208	0.248
-186.129	-87.851	0.120	0.036
-185.114	126.613	-0.187	0.237
-184.100	-7.828	0.443	-0.300
-183.085	324.356	-0.068	-0.131
-182.071	129.390	0.090	0.116
-181.056	113.257	-0.145	-0.177
-180.042	-182.332	0.235	-0.004
-179.027	-45.046	0.305	0.152
-178.012	14.918	-0.212	-0.167
-176.998	-200.000	-0.076	0.367
-175.983	107.256	-0.129	-0.153
-174.969	-72.990	0.255	0.094
-173.954	261.948	-0.105	0.182
-172.939	23.115	-0.120	0.099
-171.925	0.925	-0.121	-0.087
-170.910	-24.428	-0.149	0.089
-169.896	-157.850	0.074	0.004
-168.881	-200.000	-0.011	-0.340
-167.866	-44.950	0.033	0.016
-166.852	204.979	0.226	-0.352
-165.837	87.953	-0.185	0.205
-164.823	-7.112	0.226	0.154
-163.808	49.900	-0.300	-0.284
-162.793	24.081	-0.184	0.152
-161.779	-200.000	0.032	0.348
-160.764	790.251	-0.155	0.427
-159.750	118.105	0.054	0.066
-158.735	-139.296	0.121	-0.013
-157.720	-163.520	-0.095	-0.005
-156.706	-200.000	-0.017	-0.270
-155.691	206.690	0.034	-0.054
-154.677	126.772	-0.123	0.156
-153.662	156.617	-0.090	-0.125
-152.647	800.000	-0.013	0.037
-151.633	-200.000	-0.025	0.266
-150.618	-102.448	0.225	0.054
-149.604	-27.270	-0.184	-0.107
-148.589	707.349	0.162	-0.427
-147.574	-91.403	0.288	0.082
-146.560	-200.000	-0.008	-0.047
-145.545	-98.634	0.192	0.049
-144.531	10.335	0.185	0.141
-143.516	-161.352	-0.250	-0.013
-142.502	-77.189	-0.062	0.022
-141.487	-101.714	-0.151	-0.037
-140.472	800.000	0.081	-0.273
-139.458	63.930	0.254	-0.255
-138.443	-56.774	0.065	0.029
-137.429	-3.073	-0.127	0.089
-136.414	-36.995	0.203	-0.109
-135.399	-100.534	0.127	0.031
-134.385	-127.810	0.100	-0.014
-133.370	-34.574	0.125	0.068
-132.356	35.863	-0.163	0.143
-131.341	-40.197	0.210	-0.109
-130.326	639.404	0.094	0.239
-129.312	-200.000	-0.003	0.259
-128.297	-200.000	-0.026	0.195
-127.283	102.508	0.135	0.158
-126.268	13.008	-0.233	-0.180
-125.253	387.036	0.127	-0.262
-124.239	481.301	-0.154	0.349
-123.224	-119.109	-0.320	0.056
-122.210	800.000	0.034	-0.131
-121.195	60.751	0.086	-0.086
