DTS Sentinel unit serial number:	SN413079Multiplexer serial number:	ORYXHardware model number:	OX4-SRSoftware version number:	ORYX F/W v4.00 Oryx Data Collector v3.7.2.0data status	okinstallation	princeton_trtdifferential loss correction	single-endedforward channel	channel 4reverse channel	N/Adate	2019/09/14time	02:29:34forward acquisition time	60.00reverse acquisition time	0.00gamma	496.2192k internal	0.2322k external	0.2322temperature offset calibration	1.0131default loss term (dB/km)	0.3790temperature slope calibration	1.0000multiplexer offset coefficient	1.0000multiplexer slope coefficient	1.0000fibre end	0.00T internal ref (°C)	26.52T ext. ref 1 (°C)	3.22T ext. ref 2 (°C)	21.49length (m)	temperature (°C)	Stokes	anti-Stokes-747.200	218.531	-0.126	-0.203
-746.185	2.224	-0.051	0.037
-745.171	-129.466	0.543	0.076
-744.156	-200.000	-0.015	0.285
-743.142	227.983	-0.041	0.068
-742.127	-200.000	-0.044	0.267
-741.112	230.999	0.026	0.043
-740.098	243.386	0.067	0.113
-739.083	-66.111	0.042	0.017
-738.069	-175.674	-0.113	-0.003
-737.054	-52.414	0.037	-0.017
-736.039	212.369	-0.201	-0.320
-735.025	46.260	-0.052	-0.049
-734.010	-22.699	0.121	0.074
-732.996	-200.000	0.000	0.178
-731.981	198.412	-0.137	-0.212
-730.966	287.370	0.180	-0.329
-729.952	800.000	-0.085	0.347
-728.937	106.668	-0.121	-0.145
-727.923	570.551	-0.044	0.108
-726.908	195.018	-0.323	0.494
-725.894	800.000	0.003	-0.013
-724.879	383.648	-0.091	0.189
-723.864	800.000	-0.083	0.262
-722.850	331.381	-0.022	-0.042
-721.835	800.000	-0.111	-0.368
-720.821	57.950	0.295	-0.292
-719.806	793.892	-0.164	0.456
-718.791	800.000	-0.033	-0.136
-717.777	-101.575	-0.377	0.092
-716.762	-200.000	0.013	-0.087
-715.748	-200.000	0.026	-0.143
-714.733	800.000	0.094	0.326
-713.718	-200.000	-0.033	-0.155
-712.704	11.738	-0.159	-0.123
-711.689	-23.201	0.184	0.112
-710.675	411.350	-0.089	0.191
-709.660	-1.535	0.111	0.079
-708.645	-200.000	0.005	-0.100
-707.631	-44.839	0.439	-0.221
-706.616	-104.756	-0.337	0.078
-705.602	-143.539	-0.138	0.013
-704.587	-29.334	-0.351	0.203
-703.572	20.913	0.123	-0.101
-702.558	-148.418	0.095	-0.008
-701.543	-75.137	0.156	-0.056
-700.529	104.244	0.200	-0.237
-699.514	-28.407	0.154	-0.090
-698.499	-197.730	0.199	0.001
-697.485	259.225	0.128	0.223
-696.470	800.000	0.105	-0.395
-695.456	-67.442	0.121	-0.048
-694.441	68.475	-0.148	-0.152
-693.426	92.303	-0.185	-0.210
-692.412	9.481	0.067	0.051
-691.397	2.282	0.216	-0.158
-690.383	66.638	0.158	-0.162
-689.368	-94.968	0.101	-0.028
-688.354	6.462	-0.116	0.087
-687.339	101.252	-0.215	-0.253
-686.324	-62.731	-0.124	-0.052
-685.310	76.165	-0.132	0.141
-684.295	9.107	-0.043	-0.033
-683.281	111.363	-0.044	-0.053
-682.266	293.331	-0.145	0.266
-681.251	-7.272	0.321	0.219
-680.237	-200.000	0.009	0.097
-679.222	424.629	0.222	-0.480
-678.208	-200.000	-0.014	0.155
-677.193	800.000	-0.052	-0.176
-676.178	-200.000	-0.035	0.451
-675.164	315.402	0.184	0.349
-674.149	53.029	0.299	0.288
-673.135	33.364	0.176	0.154
-672.120	-19.500	-0.286	-0.179
-671.105	-200.000	0.107	0.563
-670.091	625.556	0.055	-0.139
-669.076	333.251	-0.102	-0.199
-668.062	-31.238	0.320	0.181
-667.047	127.205	-0.109	0.140
-666.032	-1.679	0.221	0.156
-665.018	-200.000	-0.015	0.108
-664.003	52.760	-0.091	0.088
-662.989	98.727	0.314	0.365
-661.974	800.000	-0.067	-0.261
-660.959	800.000	0.088	0.254
-659.945	-153.495	0.183	0.013
-658.930	-115.200	-0.354	-0.067
-657.916	325.678	-0.068	-0.131
-656.901	14.273	0.168	-0.132
-655.886	800.000	0.109	0.366
-654.872	-83.548	-0.183	0.059
-653.857	-145.268	0.234	-0.021
-652.843	624.908	-0.033	0.085
-651.828	800.000	0.033	0.109
-650.814	123.819	0.134	-0.169
-649.799	471.291	-0.123	0.278
-648.784	61.240	0.079	0.079
-647.770	-60.924	-0.119	0.051
-646.755	155.868	-0.085	0.118
-645.741	-200.000	-0.001	-0.048
-644.726	31.106	0.056	0.049
-643.711	364.999	-0.136	0.275
-642.697	-57.291	-0.253	0.112
-641.682	-73.558	-0.272	-0.100
-640.668	95.996	-0.166	0.191
-639.653	-18.480	0.224	-0.141
-638.638	482.572	0.128	-0.293
-637.624	800.000	0.045	-0.129
-636.609	-68.057	-0.136	0.053
-635.595	800.000	-0.028	0.118
-634.580	-162.821	0.304	-0.015
-633.565	-200.000	-0.066	-0.341
-632.551	-200.000	0.008	-0.196
-631.536	142.673	0.072	0.096
-630.522	-53.687	0.175	0.080
-629.507	394.454	-0.087	-0.183
-628.492	800.000	-0.120	-0.476
-627.478	16.804	0.228	0.182
-626.463	-200.000	0.011	-0.061
-625.449	8.764	0.061	0.047
-624.434	-99.920	-0.393	0.099
-623.419	-28.583	0.049	0.029
-622.405	55.252	0.253	-0.246
-621.390	-108.315	0.186	-0.040
-620.376	420.471	-0.091	-0.196
-619.361	-21.374	0.222	-0.136
-618.346	-20.225	-0.053	0.033
-617.332	-123.140	-0.237	-0.038
-616.317	19.494	-0.269	-0.218
-615.303	-73.433	-0.178	0.065
-614.288	-57.672	-0.249	-0.110
-613.273	10.715	-0.122	-0.094
-612.259	29.325	0.113	0.096
-611.244	-52.334	-0.192	-0.089
-610.230	-51.327	0.431	-0.203
-609.215	-68.959	-0.090	-0.035
-608.201	110.220	0.134	-0.161
-607.186	-200.000	0.008	-0.280
-606.171	20.930	-0.208	-0.169
-605.157	-200.000	-0.009	0.039
-604.142	59.290	0.260	-0.257
-603.128	-124.592	-0.281	0.044
-602.113	-200.000	-0.006	0.083
-601.098	-56.418	-0.320	-0.143
-600.084	54.780	-0.096	-0.093
-599.069	-165.786	-0.179	0.008
-598.055	-200.000	0.030	0.134
-597.040	-136.332	-0.460	0.054
-596.025	-24.327	0.023	0.014
-595.011	800.000	-0.043	-0.143
-593.996	103.003	-0.050	0.059
-592.982	3.097	-0.087	-0.064
-591.967	-23.355	0.276	-0.166
-590.952	-155.052	-0.275	0.018
-589.938	-200.000	0.001	0.190
-588.923	800.000	0.044	0.136
-587.909	488.914	-0.152	-0.349
-586.894	181.777	0.179	0.265
-585.879	-114.309	-0.285	-0.055
-584.865	366.327	0.148	-0.299
-583.850	28.987	0.112	-0.095
-582.836	-104.659	0.313	-0.072
-581.821	-200.000	-0.028	-0.201
-580.806	-69.801	0.270	-0.103
-579.792	-200.000	0.037	-0.368
-578.777	111.169	-0.236	0.285
-577.763	800.000	-0.085	0.341
-576.748	661.046	0.039	0.101
-575.733	152.635	0.248	-0.340
-574.719	-123.484	-0.084	-0.013
-573.704	-84.493	0.081	-0.026
-572.690	-24.525	0.226	-0.135
-571.675	-200.000	0.020	0.242
-570.661	-64.519	-0.309	-0.126
-569.646	248.856	-0.155	-0.264
-568.631	-16.225	0.176	-0.112
-567.617	120.291	0.250	0.311
-566.602	74.842	-0.253	0.268
-565.588	-62.039	0.208	-0.087
-564.573	9.571	0.113	-0.086
-563.558	800.000	0.049	-0.138
-562.544	-89.617	0.311	0.091
-561.529	-200.000	0.030	0.276
-560.515	-87.560	-0.244	-0.074
-559.500	-155.786	-0.206	0.013
-558.485	273.553	0.091	-0.162
-557.471	521.890	-0.086	-0.202
-556.456	800.000	-0.030	0.099
-555.442	14.083	-0.271	0.211
-554.427	-68.889	0.306	0.119
-553.412	-200.000	-0.006	0.105
-552.398	13.130	-0.205	-0.159
-551.383	-125.129	0.207	0.032
-550.369	11.596	-0.133	-0.102
-549.354	-143.608	0.157	-0.015
-548.339	800.000	-0.053	-0.227
-547.325	-132.903	-0.115	-0.015
-546.310	55.833	0.134	0.130
-545.296	-90.865	-0.194	-0.056
-544.281	-24.802	0.189	0.112
-543.266	-68.082	0.047	-0.018
-542.252	-3.334	-0.171	-0.119
-541.237	-75.454	-0.130	-0.046
-540.223	37.393	0.222	0.197
-539.208	-47.821	-0.189	-0.092
-538.193	-200.000	0.015	0.132
-537.179	-143.507	-0.290	0.028
-536.164	-62.417	0.170	0.071
-535.150	382.248	0.160	0.329
-534.135	148.857	0.111	-0.150
-533.121	207.087	-0.096	0.150
-532.106	143.311	0.054	0.072
-531.091	-87.893	0.293	0.088
-530.077	-46.973	0.112	0.055
-529.062	-200.000	0.042	0.223
-528.048	-200.000	0.002	-0.225
-527.033	-70.075	0.366	0.140
-526.018	-62.905	-0.262	-0.108
-525.004	-186.525	0.179	0.003
-523.989	184.455	-0.165	0.245
-522.975	-159.173	-0.090	0.005
-521.960	2.969	-0.165	0.120
-520.945	-53.669	0.111	0.051
-519.931	169.189	0.114	0.163
-518.916	19.655	-0.168	0.136
-517.902	326.956	-0.124	-0.238
-516.887	-200.000	0.016	0.192
-515.872	-39.283	-0.108	-0.057
-514.858	-150.367	0.195	0.015
-513.843	-145.930	-0.246	0.022
-512.829	38.063	0.118	-0.106
-511.814	-200.000	-0.008	0.111
-510.799	64.921	0.096	0.097
-509.785	300.127	-0.120	-0.221
-508.770	19.070	-0.379	-0.304
-507.756	-200.000	0.007	0.233
-506.741	167.504	0.075	-0.106
-505.726	430.356	-0.048	0.104
-504.712	-149.625	-0.323	0.026
-503.697	760.845	-0.050	0.136
-502.683	800.000	-0.034	0.140
-501.668	95.169	0.112	0.128
-500.653	-142.330	-0.130	-0.013
-499.639	-200.000	-0.002	0.192
-498.624	-98.313	0.167	0.043
-497.610	612.495	-0.115	0.287
-496.595	-48.308	0.293	-0.141
-495.581	408.739	0.174	-0.368
-494.566	-33.080	-0.334	0.185
-493.551	-192.981	-0.045	-0.000
-492.537	-102.481	-0.336	-0.080
-491.522	800.000	-0.027	-0.087
-490.508	-150.184	0.222	-0.017
-489.493	3.662	-0.113	-0.083
-488.478	54.563	-0.150	0.145
-487.464	-109.452	-0.220	0.047
-486.449	-200.000	-0.036	0.170
-485.435	136.086	-0.122	0.159
-484.420	-171.341	-0.563	0.019
-483.405	-200.000	-0.063	0.531
-482.391	200.939	0.168	-0.259
-481.376	192.623	0.204	-0.307
-480.362	391.003	-0.040	-0.084
-479.347	-0.769	-0.163	0.116
-478.332	-84.886	-0.048	0.015
-477.318	547.350	-0.064	0.153
-476.303	-118.811	-0.171	0.030
-475.289	-89.059	0.371	0.110
-474.274	-73.299	0.133	-0.049
-473.259	-11.545	0.086	0.056
-472.245	107.292	0.017	0.020
-471.230	114.342	0.071	0.086
-470.216	-168.737	-0.099	0.004
-469.201	75.262	0.274	0.288
-468.186	265.603	-0.074	0.129
-467.172	87.496	-0.035	0.039
-466.157	11.890	-0.219	-0.168
-465.143	-116.883	0.249	-0.046
-464.128	28.485	0.104	0.088
-463.113	800.000	-0.137	0.378
-462.099	-75.969	-0.110	-0.039
-461.084	-59.406	0.176	0.075
-460.070	-76.995	0.155	0.054
-459.055	237.158	0.085	0.141
-458.040	341.454	-0.115	0.224
-457.026	-4.643	0.099	-0.068
-456.011	-200.000	-0.013	0.070
-454.997	-57.915	-0.244	0.107
-453.982	-118.428	0.521	0.092
-452.968	346.966	0.007	-0.014
-451.953	234.057	-0.063	0.104
-450.938	-106.108	0.326	0.073
-449.924	-47.664	-0.287	-0.139
-448.909	98.245	0.274	-0.315
-447.895	-31.494	0.213	-0.120
-446.880	-200.000	0.050	-0.237
-445.865	74.339	0.081	0.085
-444.851	800.000	-0.063	0.217
-443.836	800.000	-0.044	0.166
-442.822	-200.000	-0.001	0.007
-441.807	417.627	-0.040	0.086
-440.792	-57.352	-0.161	-0.071
-439.778	-97.860	-0.344	0.089
-438.763	-126.697	0.209	-0.031
-437.749	800.000	-0.040	-0.119
-436.734	117.163	0.144	-0.177
-435.719	94.995	-0.040	-0.046
-434.705	-171.230	-0.374	-0.013
-433.690	132.825	0.248	-0.320
-432.676	11.038	-0.093	-0.071
-431.661	156.459	0.116	0.160
-430.646	196.056	-0.091	-0.138
-429.632	-84.227	0.178	0.056
-428.617	-200.000	0.009	-0.328
-427.603	-104.822	0.290	0.067
-426.588	800.000	-0.102	0.361
-425.573	-126.758	-0.303	0.045
-424.559	80.575	-0.145	-0.156
-423.544	-200.000	0.036	0.173
-422.530	49.303	0.152	0.142
-421.515	226.939	0.067	-0.109
-420.500	-139.807	0.089	-0.009
-419.486	-84.704	0.248	-0.078
-418.471	17.389	-0.056	0.044
-417.457	-200.000	-0.008	0.142
-416.442	-200.000	0.056	-0.299
-415.428	800.000	0.025	0.076
-414.413	344.627	-0.017	-0.033
-413.398	-103.256	-0.369	0.087
-412.384	-200.000	-0.034	-0.165
-411.369	-113.635	0.137	-0.027
-410.355	292.749	-0.210	0.382
-409.340	351.684	0.080	-0.158
-408.325	290.010	-0.087	-0.158
-407.311	77.147	-0.068	-0.072
-406.296	105.643	0.112	0.132
-405.282	-41.243	-0.210	0.108
-404.267	800.000	0.034	-0.108
-403.252	-141.944	0.274	-0.027
-402.238	-200.000	0.053	-0.364
-401.223	-200.000	-0.003	-0.279
-400.209	-200.000	-0.055	0.302
-399.194	-200.000	0.056	0.412
-398.179	800.000	-0.058	-0.232
-397.165	800.000	0.077	0.259
-396.150	-191.402	0.143	-0.001
-395.136	-68.049	-0.188	0.073
-394.121	-30.289	-0.262	-0.148
-393.106	30.760	-0.236	0.202
-392.092	-18.497	0.271	-0.169
-391.077	36.168	-0.291	0.256
-390.063	70.091	0.390	0.401
-389.048	87.599	-0.208	0.229
-388.033	-147.180	-0.089	0.008
-387.019	26.608	0.116	0.097
-386.004	-40.923	0.249	-0.128
-384.990	-200.000	-0.000	-0.020
-383.975	319.721	0.012	0.023
-382.960	174.744	-0.009	-0.014
-381.946	-14.164	0.424	-0.273
-380.931	50.428	0.213	0.201
-379.917	111.209	-0.150	0.180
-378.902	-199.079	-0.380	-0.002
-377.888	-33.860	0.163	-0.089
-376.873	582.829	-0.013	0.032
-375.858	-111.550	0.243	0.049
-374.844	2.357	0.210	-0.151
-373.829	800.000	-0.011	0.044
-372.815	-166.222	-0.212	0.009
-371.800	-40.024	0.139	0.072
-370.785	-200.000	0.030	-0.192
-369.771	51.873	0.185	0.175
-368.756	-51.133	-0.042	-0.020
-367.742	-160.481	-0.066	-0.004
-366.727	12.380	0.182	-0.140
-365.712	-39.859	0.202	-0.105
-364.698	13.866	0.096	0.074
-363.683	800.000	-0.047	-0.160
-362.669	216.168	-0.067	0.105
-361.654	-75.505	-0.189	0.067
-360.639	521.572	0.106	-0.247
-359.625	-200.000	-0.012	-0.118
-358.610	800.000	-0.016	0.066
-357.596	-41.963	0.252	-0.128
-356.581	58.688	0.108	-0.105
-355.566	606.114	0.100	0.247
-354.552	-32.198	-0.220	0.122
-353.537	110.358	-0.047	0.056
-352.523	543.698	0.061	0.144
-351.508	-10.665	-0.092	0.061
-350.493	-115.485	0.269	-0.050
-349.479	-200.000	-0.014	0.137
-348.464	-200.000	-0.051	-0.294
-347.450	-67.194	-0.423	-0.166
-346.435	-157.697	0.178	0.011
-345.420	800.000	0.093	-0.396
-344.406	-15.017	-0.291	-0.186
-343.391	-86.705	-0.317	-0.096
-342.377	800.000	0.017	-0.062
-341.362	-70.972	-0.413	-0.155
-340.348	-200.000	-0.015	0.173
-339.333	-200.000	-0.009	-0.104
-338.318	309.587	-0.093	-0.173
-337.304	-55.779	-0.238	0.106
-336.289	-153.394	-0.347	-0.024
-335.275	-21.862	-0.134	-0.081
-334.260	96.078	-0.074	0.084
-333.245	-200.000	0.005	-0.068
-332.231	67.033	0.202	-0.205
-331.216	103.371	-0.258	0.301
-330.202	-85.003	-0.189	0.059
-329.187	-147.684	-0.204	-0.017
-328.172	-200.000	-0.022	0.131
-327.158	-0.557	-0.229	-0.161
-326.143	343.659	-0.107	-0.207
-325.129	800.000	0.043	0.122
-324.114	800.000	-0.085	-0.277
-323.099	-41.023	-0.255	-0.131
-322.085	23.424	-0.115	0.094
-321.070	-200.000	-0.043	0.396
-320.056	-200.000	0.031	0.231
-319.041	-74.119	-0.056	-0.020
-318.026	25.397	-0.039	-0.032
-317.012	-6.748	0.200	-0.135
-315.997	-200.000	-0.056	0.414
-314.983	92.647	0.033	0.037
-313.968	322.628	0.124	0.235
-312.953	-200.000	0.010	-0.235
-311.939	6.265	0.181	0.133
-310.924	-43.218	0.180	0.091
-309.910	134.543	0.109	0.141
-308.895	-200.000	0.025	-0.124
-307.880	461.368	0.058	0.128
-306.866	-200.000	-0.035	0.322
-305.851	216.246	0.119	0.187
-304.837	800.000	0.089	0.350
-303.822	800.000	-0.118	0.465
-302.807	18.741	0.146	-0.116
-301.793	-8.218	-0.065	0.044
-300.778	95.294	0.017	-0.019
-299.764	-93.102	0.116	0.032
-298.749	220.354	-0.090	0.143
-297.735	55.874	0.183	0.176
-296.720	-150.714	-0.072	-0.005
-295.705	-200.000	-0.018	-0.187
-294.691	220.757	-0.143	-0.228
-293.676	-26.957	0.381	-0.221
-292.662	-107.350	0.330	-0.072
-291.647	-200.000	-0.053	-0.270
-290.632	-121.194	0.264	0.044
-289.618	63.353	0.077	-0.077
-288.603	-200.000	-0.008	0.192
-287.589	-182.525	-0.108	0.002
-286.574	-133.667	0.187	-0.023
-285.559	759.664	-0.012	0.032
-284.545	800.000	-0.096	0.289
-283.530	192.505	0.077	0.115
-282.516	2.630	0.129	-0.093
-281.501	36.603	-0.143	-0.125
-280.486	522.704	-0.117	-0.272
-279.472	-139.561	0.130	0.014
-278.457	-200.000	0.042	0.240
-277.443	-50.037	-0.233	-0.110
-276.428	229.032	-0.093	0.150
-275.413	-145.996	-0.090	0.008
-274.399	-46.978	-0.170	-0.082
-273.384	-42.243	0.336	-0.170
-272.370	-66.616	0.425	0.167
-271.355	-200.000	0.018	0.325
-270.340	140.446	0.184	0.241
-269.326	-107.240	-0.181	0.039
-268.311	800.000	-0.028	0.117
-267.297	54.203	0.184	0.176
-266.282	42.385	-0.178	-0.161
-265.267	800.000	0.088	-0.247
-264.253	800.000	0.087	-0.248
-263.238	-53.264	-0.081	0.037
-262.224	-4.706	0.095	0.065
-261.209	-200.000	0.004	-0.348
-260.195	800.000	-0.036	-0.117
-259.180	158.173	0.155	-0.213
-258.165	-200.000	-0.066	-0.331
-257.151	-45.334	0.278	-0.137
-256.136	-200.000	0.031	0.145
-255.122	800.000	-0.033	-0.139
-254.107	-57.550	0.264	0.115
-253.092	-200.000	0.066	0.292
-252.078	98.300	0.090	0.102
-251.063	198.913	0.070	-0.107
-250.049	800.000	0.046	-0.134
-249.034	-135.387	0.015	0.002
-248.019	41.079	-0.206	0.184
-247.005	173.466	-0.318	-0.454
-245.990	-200.000	0.033	0.225
-244.976	-21.488	0.118	-0.071
-243.961	45.671	0.297	-0.272
-242.946	-175.612	0.154	-0.004
-241.932	-90.116	0.289	0.083
-240.917	-120.118	-0.422	0.071
-239.903	-200.000	-0.005	0.196
-238.888	-132.644	0.406	-0.052
-237.873	786.010	-0.086	-0.233
-236.859	177.497	-0.170	-0.245
-235.844	303.283	0.149	0.273
-234.830	26.575	-0.188	0.156
-233.815	23.832	0.148	-0.121
-232.800	800.000	-0.028	-0.104
-231.786	155.398	0.186	0.254
-230.771	-80.674	0.211	-0.069
-229.757	-181.124	0.216	-0.004
-228.742	-179.786	0.203	0.004
-227.727	470.761	-0.021	0.048
-226.713	-129.787	0.281	-0.038
-225.698	69.632	-0.191	-0.194
-224.684	441.789	-0.154	-0.335
-223.669	800.000	-0.060	-0.173
-222.655	724.177	-0.034	0.090
-221.640	-63.955	-0.183	-0.074
-220.625	800.000	0.108	0.339
-219.611	800.000	-0.020	-0.075
-218.596	219.718	-0.244	0.386
-217.582	225.207	0.184	0.295
-216.567	412.916	0.127	0.267
-215.552	74.217	-0.129	0.134
-214.538	0.075	0.172	-0.121
-213.523	800.000	0.052	-0.210
-212.509	-200.000	0.043	0.187
-211.494	-182.251	-0.094	-0.002
-210.479	-194.845	0.217	0.002
-209.465	800.000	0.055	-0.175
-208.450	306.342	0.203	0.373
-207.436	86.185	-0.076	0.083
-206.421	-60.956	-0.215	-0.090
-205.406	-200.000	-0.021	0.272
-204.392	-122.626	0.165	0.026
-203.377	800.000	0.011	0.036
-202.363	800.000	-0.031	-0.126
-201.348	-119.413	0.240	0.041
-200.333	160.648	0.026	-0.036
-199.319	-52.073	0.107	-0.049
-198.304	-200.000	-0.034	0.455
-197.290	117.089	0.017	-0.021
-196.275	-127.794	-0.104	-0.015
-195.260	-200.000	-0.165	-0.000
-194.246	-43.940	-0.081	-0.040
-193.231	800.000	0.053	-0.193
-192.217	-200.000	-0.013	0.090
-191.202	-10.822	0.165	0.108
-190.187	-200.000	0.001	-0.287
-189.173	41.108	-0.184	-0.164
-188.158	-200.000	-0.010	-0.141
-187.144	13.058	-0.262	-0.200
-186.129	189.015	0.149	0.221
-185.114	800.000	-0.049	-0.148
-184.100	-44.071	0.057	0.028
-183.085	-194.318	-0.246	0.002
-182.071	-81.500	-0.284	-0.092
-181.056	-102.839	0.246	-0.058
-180.042	800.000	-0.055	0.213
-179.027	58.221	0.150	-0.145
-178.012	-200.000	0.001	-0.169
-176.998	-104.333	-0.369	0.085
-175.983	-101.981	-0.104	-0.025
-174.969	-11.132	0.148	0.096
-173.954	-58.319	0.067	0.029
-172.939	-7.398	0.325	-0.217
-171.925	800.000	-0.046	-0.175
-170.910	68.698	-0.043	0.044
-169.896	-136.045	-0.318	0.037
-168.881	-54.596	0.126	0.056
-167.866	83.149	0.151	-0.163
-166.852	-200.000	0.056	0.364
-165.837	-200.000	0.006	-0.116
-164.823	71.789	-0.080	-0.083
-163.808	90.591	-0.233	-0.257
-162.793	40.263	-0.120	-0.107
-161.779	-78.918	0.093	0.031
-160.764	-200.000	-0.011	0.065
-159.750	91.501	0.216	-0.240
-158.735	-76.358	-0.096	0.033
-157.720	232.343	0.028	0.045
-156.706	158.632	-0.151	-0.207
-155.691	-54.292	0.222	0.100
-154.677	-200.000	-0.086	-0.416
-153.662	35.697	-0.052	-0.045
-152.647	-4.434	-0.037	-0.025
-151.633	489.187	0.061	-0.138
-150.618	800.000	-0.053	-0.162
-149.604	-40.987	-0.248	-0.127
-148.589	-31.250	0.244	-0.135
-147.574	-106.992	0.517	-0.113
-146.560	-115.510	-0.255	0.047
-145.545	155.797	-0.039	0.054
-144.531	-64.432	0.152	0.061
-143.516	-177.313	-0.138	-0.003
-142.502	169.375	0.218	0.307
-141.487	-200.000	-0.043	0.243
-140.472	85.165	-0.046	-0.050
-139.458	159.795	0.202	-0.277
-138.443	-57.398	0.164	-0.071
-137.429	-200.000	-0.004	0.094
-136.414	423.089	0.068	0.145
-135.399	-67.418	0.124	-0.048
-134.385	165.778	-0.237	-0.330
-133.370	148.838	0.015	-0.020
-132.356	-200.000	-0.031	-0.194
-131.341	-200.000	0.012	0.130
-130.326	-47.853	0.202	-0.097
-129.312	-186.942	-0.328	0.004
-128.297	-23.256	-0.159	0.094
-127.283	-5.676	0.339	-0.229
-126.268	464.434	-0.015	-0.032
-125.253	-29.624	0.220	-0.124
-124.239	-200.000	-0.017	-0.133
-123.224	105.739	-0.149	0.173
-122.210	-81.811	-0.188	0.061
-121.195	-1.848	0.290	-0.201
