DTS Sentinel unit serial number:	SN413079Multiplexer serial number:	ORYXHardware model number:	OX4-SRSoftware version number:	ORYX F/W v4.00 Oryx Data Collector v3.7.2.0data status	okinstallation	princeton_trtdifferential loss correction	single-endedforward channel	channel 4reverse channel	N/Adate	2019/09/16time	03:45:35forward acquisition time	60.00reverse acquisition time	0.00gamma	496.2192k internal	0.2320k external	0.2320temperature offset calibration	0.9976default loss term (dB/km)	0.3790temperature slope calibration	1.0000multiplexer offset coefficient	1.0000multiplexer slope coefficient	1.0000fibre end	0.00T internal ref (°C)	27.56T ext. ref 1 (°C)	10.64T ext. ref 2 (°C)	21.69length (m)	temperature (°C)	Stokes	anti-Stokes-747.200	-68.483	0.312	0.123
-746.185	-99.823	0.074	0.019
-745.171	-102.123	0.361	-0.088
-744.156	800.000	-0.075	0.258
-743.142	256.908	0.100	-0.173
-742.127	800.000	0.040	-0.175
-741.112	-42.060	-0.301	-0.156
-740.098	62.195	-0.202	0.203
-739.083	289.917	0.203	-0.372
-738.069	83.998	0.028	0.031
-737.054	47.294	-0.138	0.130
-736.039	613.839	0.076	-0.193
-735.025	-126.952	0.162	-0.024
-734.010	-50.273	-0.436	-0.208
-732.996	-97.172	-0.266	-0.070
-731.981	-56.574	0.051	-0.023
-730.966	127.553	0.217	0.278
-729.952	32.195	-0.401	-0.350
-728.937	235.703	0.067	-0.111
-727.923	-17.709	-0.231	-0.146
-726.908	-144.683	-0.263	0.024
-725.894	166.513	0.083	-0.120
-724.879	-200.000	0.015	-0.079
-723.864	143.303	-0.178	-0.239
-722.850	269.322	0.115	-0.204
-721.835	-74.127	-0.139	0.051
-720.821	-128.742	0.104	0.015
-719.806	-200.000	-0.041	0.201
-718.791	242.592	0.053	0.090
-717.777	169.559	-0.031	0.044
-716.762	-200.000	-0.002	0.188
-715.748	178.201	0.147	-0.216
-714.733	-44.644	-0.293	-0.148
-713.718	-157.924	-0.092	-0.005
-712.704	190.681	0.081	-0.123
-711.689	81.889	-0.107	0.117
-710.675	800.000	0.034	0.149
-709.660	215.235	0.175	-0.280
-708.645	-85.854	0.288	0.090
-707.631	800.000	0.046	0.127
-706.616	-39.180	0.365	-0.194
-705.602	800.000	0.016	-0.055
-704.587	-74.229	0.176	-0.064
-703.572	38.014	-0.219	-0.196
-702.558	106.101	-0.127	-0.151
-701.543	13.051	0.159	0.124
-700.529	800.000	0.042	-0.121
-699.514	7.117	0.158	0.119
-698.499	118.048	-0.131	-0.162
-697.485	-147.167	-0.327	-0.028
-696.470	-200.000	0.007	-0.068
-695.456	-75.599	0.331	-0.119
-694.441	-200.000	0.035	-0.272
-693.426	31.046	-0.302	0.261
-692.412	-98.226	-0.160	0.042
-691.397	738.329	-0.063	0.171
-690.383	800.000	0.069	0.198
-689.368	-76.415	-0.149	0.053
-688.354	35.154	-0.175	0.154
-687.339	223.437	0.162	-0.263
-686.324	-200.000	-0.010	-0.158
-685.310	-200.000	0.022	0.254
-684.295	-22.308	-0.164	0.100
-683.281	-97.677	0.173	0.045
-682.266	287.548	-0.191	-0.349
-681.251	73.856	0.106	-0.112
-680.237	249.924	0.028	-0.048
-679.222	-3.353	-0.094	0.066
-678.208	-56.450	0.123	-0.055
-677.193	120.658	-0.130	0.163
-676.178	800.000	-0.180	0.593
-675.164	118.335	-0.160	0.200
-674.149	-120.124	0.311	-0.054
-673.135	800.000	0.041	0.150
-672.120	13.877	0.212	0.166
-671.105	61.462	-0.100	0.100
-670.091	-63.765	0.243	-0.100
-669.076	-2.450	-0.105	-0.074
-668.062	570.032	-0.088	-0.215
-667.047	-143.738	0.157	0.015
-666.032	790.038	-0.034	-0.094
-665.018	-56.771	0.131	0.058
-664.003	548.076	0.046	-0.111
-662.989	-131.661	-0.231	-0.031
-661.974	40.922	-0.055	-0.050
-660.959	-49.939	-0.258	0.123
-659.945	-84.524	-0.358	0.114
-658.930	-8.054	-0.113	0.076
-657.916	800.000	-0.038	-0.142
-656.901	572.867	0.076	0.187
-655.886	-47.146	-0.356	0.175
-654.872	-19.302	-0.210	-0.131
-653.857	-200.000	-0.037	-0.297
-652.843	32.584	0.296	0.258
-651.828	-200.000	-0.003	0.179
-650.814	800.000	-0.059	-0.226
-649.799	451.792	-0.070	0.155
-648.784	-200.000	0.029	-0.262
-647.770	298.825	-0.141	-0.261
-646.755	186.547	-0.103	-0.155
-645.741	545.299	-0.079	0.189
-644.726	702.464	-0.075	0.198
-643.711	521.508	-0.043	0.101
-642.697	-119.903	-0.325	-0.056
-641.682	166.409	-0.069	0.099
-640.668	102.841	0.156	0.184
-639.653	-111.906	-0.015	0.003
-638.638	-54.225	-0.224	-0.103
-637.624	-86.965	-0.160	0.049
-636.609	-127.383	-0.050	0.007
-635.595	43.620	0.167	0.154
-634.580	-200.000	0.013	0.290
-633.565	-64.644	-0.268	0.110
-632.551	502.855	0.125	-0.291
-631.536	-69.738	0.187	0.072
-630.522	748.281	0.143	0.389
-629.507	-148.363	-0.217	-0.018
-628.492	-3.328	0.009	-0.006
-627.478	533.511	-0.163	-0.388
-626.463	52.039	-0.081	-0.078
-625.449	800.000	0.041	0.163
-624.434	-200.000	-0.022	0.383
-623.419	-125.494	-0.190	0.029
-622.405	515.347	0.044	-0.103
-621.390	-200.000	-0.003	0.195
-620.376	-17.245	0.048	0.031
-619.361	-82.157	-0.115	-0.038
-618.346	697.083	-0.037	-0.098
-617.332	800.000	0.050	0.217
-616.317	-9.826	0.165	-0.110
-615.303	-179.632	-0.339	0.007
-614.288	-21.308	-0.241	-0.148
-613.273	15.647	0.154	0.122
-612.259	800.000	0.078	-0.289
-611.244	-103.446	-0.063	0.015
-610.230	575.206	-0.097	-0.238
-609.215	-200.000	0.002	-0.071
-608.201	-173.639	-0.152	-0.005
-607.186	-66.077	0.039	-0.016
-606.171	-45.689	0.292	0.145
-605.157	-55.943	0.186	0.084
-604.142	800.000	0.076	0.236
-603.128	800.000	-0.019	0.069
-602.113	-200.000	0.020	0.108
-601.098	-200.000	-0.031	0.153
-600.084	-58.302	0.424	0.186
-599.069	10.718	0.048	-0.037
-598.055	800.000	-0.142	-0.421
-597.040	-200.000	0.155	-0.001
-596.025	496.477	0.147	-0.340
-595.011	163.002	-0.050	0.070
-593.996	-62.293	-0.113	0.047
-592.982	-141.669	0.285	-0.029
-591.967	-56.354	0.214	-0.095
-590.952	497.349	-0.128	-0.297
-589.938	208.650	0.201	0.317
-588.923	-65.092	-0.152	0.062
-587.909	-200.000	-0.015	0.067
-586.894	-122.644	0.032	0.005
-585.879	538.723	0.115	0.275
-584.865	197.621	-0.112	-0.172
-583.850	51.255	-0.097	0.092
-582.836	-51.830	0.181	0.085
-581.821	-6.240	0.172	0.118
-580.806	16.079	0.115	-0.091
-579.792	-103.882	0.114	0.027
-578.777	222.801	0.165	-0.267
-577.763	46.798	-0.077	-0.072
-576.748	14.988	0.117	0.092
-575.733	-81.207	0.228	-0.076
-574.719	146.230	-0.124	0.166
-573.704	194.637	0.180	0.274
-572.690	-13.449	0.085	0.055
-571.675	4.798	0.116	-0.085
-570.661	-18.810	0.243	0.152
-569.646	-72.371	-0.080	-0.030
-568.631	800.000	-0.011	-0.039
-567.617	36.728	0.249	0.221
-566.602	800.000	-0.027	0.093
-565.588	162.463	0.192	0.271
-564.573	-71.111	0.133	-0.050
-563.558	-200.000	0.026	-0.571
-562.544	-200.000	0.008	0.044
-561.529	40.935	-0.039	-0.035
-560.515	121.022	-0.232	-0.290
-559.500	-46.807	0.327	-0.161
-558.485	800.000	0.086	-0.244
-557.471	-8.353	-0.248	0.167
-556.456	-121.319	-0.183	-0.031
-555.442	-200.000	0.003	-0.278
-554.427	153.021	0.190	-0.261
-553.412	-200.000	-0.008	-0.133
-552.398	79.989	0.159	0.171
-551.383	-200.000	0.017	-0.201
-550.369	29.656	0.152	-0.130
-549.354	-102.884	0.239	-0.057
-548.339	-200.000	0.004	-0.130
-547.325	-200.000	-0.021	-0.178
-546.310	-130.363	0.288	0.039
-545.296	-153.330	-0.214	-0.015
-544.281	-75.394	0.325	0.116
-543.266	-109.296	0.132	-0.028
-542.252	-200.000	0.023	-0.374
-541.237	-83.796	-0.219	0.070
-540.223	-12.817	0.312	-0.204
-539.208	-55.481	0.285	0.128
-538.193	-10.286	0.017	-0.011
-537.179	-159.827	-0.154	0.008
-536.164	439.712	0.131	0.287
-535.150	-24.263	0.138	0.082
-534.135	-151.157	0.148	0.011
-533.121	403.645	-0.132	0.278
-532.106	-200.000	0.009	0.191
-531.091	240.744	-0.100	-0.168
-530.077	-200.000	-0.008	-0.271
-529.062	529.829	0.044	-0.104
-528.048	-200.000	-0.002	-0.056
-527.033	-200.000	0.014	-0.169
-526.018	-120.402	-0.175	0.030
-525.004	-200.000	0.022	-0.108
-523.989	85.995	-0.079	-0.087
-522.975	-200.000	-0.033	0.236
-521.960	-86.025	-0.202	0.063
-520.945	60.365	-0.003	0.003
-519.931	54.733	0.120	-0.116
-518.916	28.911	-0.202	-0.171
-517.902	-61.625	0.186	0.078
-516.887	486.140	-0.111	-0.254
-515.872	-200.000	0.030	0.172
-514.858	-124.802	-0.371	-0.057
-513.843	-142.060	0.229	0.023
-512.829	-107.398	-0.375	0.083
-511.814	-0.990	0.043	-0.030
-510.799	180.928	-0.171	0.252
-509.785	40.110	0.231	-0.208
-508.770	-30.214	-0.196	0.111
-507.756	72.599	-0.137	0.143
-506.741	-200.000	0.026	-0.254
-505.726	14.479	-0.155	0.121
-504.712	42.995	0.179	0.164
-503.697	-48.744	0.391	0.188
-502.683	-174.172	0.128	0.004
-501.668	461.062	0.051	0.113
-500.653	-93.918	-0.203	-0.056
-499.639	-56.307	-0.221	-0.098
-498.624	35.221	-0.102	0.090
-497.610	800.000	0.031	-0.137
-496.595	504.555	-0.049	0.113
-495.581	-84.484	0.037	-0.012
-494.566	800.000	0.023	0.081
-493.551	32.880	-0.255	0.221
-492.537	-180.484	0.252	0.005
-491.522	244.185	-0.105	0.176
-490.508	-68.209	0.214	-0.084
-489.493	276.817	0.083	-0.148
-488.478	-118.772	0.037	-0.007
-487.464	-100.725	0.272	0.067
-486.449	-143.691	-0.217	-0.021
-485.435	-16.993	0.218	0.138
-484.420	39.019	-0.168	0.150
-483.405	9.446	-0.138	-0.104
-482.391	184.985	-0.245	0.364
-481.376	-200.000	-0.062	-0.389
-480.362	800.000	0.079	-0.305
-479.347	-121.489	-0.181	0.030
-478.332	516.790	0.039	0.091
-477.318	-168.317	-0.335	-0.013
-476.303	25.286	-0.085	0.070
-475.289	545.816	0.081	0.193
-474.274	203.055	0.269	0.416
-473.259	800.000	0.067	-0.210
-472.245	99.892	-0.246	-0.285
-471.230	800.000	-0.030	-0.103
-470.216	-130.938	0.196	-0.026
-469.201	-200.000	-0.013	-0.422
-468.186	-24.078	0.346	-0.207
-467.172	-2.030	-0.432	-0.304
-466.157	-174.004	-0.191	-0.006
-465.143	-200.000	0.020	-0.427
-464.128	230.624	-0.056	0.092
-463.113	175.788	-0.189	-0.274
-462.099	384.035	-0.096	0.198
-461.084	-116.487	-0.066	0.012
-460.070	85.501	-0.084	0.092
-459.055	-84.643	0.148	0.047
-458.040	-53.471	0.054	-0.025
-457.026	800.000	0.163	0.466
-456.011	280.586	0.018	0.031
-454.997	21.261	-0.227	0.184
-453.982	108.997	0.081	-0.096
-452.968	800.000	0.053	-0.206
-451.953	-200.000	-0.001	-0.023
-450.938	119.063	0.100	0.124
-449.924	-86.589	-0.163	0.050
-448.909	7.838	0.162	0.121
-447.895	-154.224	0.127	-0.009
-446.880	267.981	0.069	-0.121
-445.865	439.284	-0.120	-0.261
-444.851	-200.000	0.042	0.328
-443.836	-26.463	-0.157	0.092
-442.822	322.213	-0.135	0.257
-441.807	-4.013	-0.240	0.166
-440.792	-200.000	-0.015	-0.184
-439.778	305.683	0.044	-0.082
-438.763	-82.647	-0.286	-0.093
-437.749	190.528	-0.126	0.189
-436.734	-5.144	-0.226	0.156
-435.719	-163.725	-0.205	-0.010
-434.705	-7.546	-0.099	0.067
-433.690	-200.000	-0.012	-0.203
-432.676	-200.000	-0.026	-0.201
-431.661	-200.000	0.035	0.324
-430.646	315.844	-0.059	0.111
-429.632	-85.699	0.073	-0.023
-428.617	-89.034	0.286	-0.085
-427.603	247.523	-0.131	-0.222
-426.588	-200.000	0.008	0.036
-425.573	-133.875	-0.101	0.012
-424.559	-43.566	0.023	0.012
-423.544	90.435	0.220	0.246
-422.530	800.000	-0.111	0.309
-421.515	262.428	-0.075	0.129
-420.500	-142.436	-0.270	-0.027
-419.486	-200.000	-0.028	0.148
-418.471	-12.285	-0.167	0.109
-417.457	-200.000	-0.002	-0.312
-416.442	-40.771	-0.108	0.056
-415.428	-92.884	-0.281	-0.078
-414.413	-135.077	-0.310	0.037
-413.398	-200.000	-0.013	0.250
-412.384	267.171	-0.157	0.274
-411.369	800.000	-0.038	-0.130
-410.355	283.427	0.066	-0.119
-409.340	609.163	-0.049	0.122
-408.325	-200.000	-0.014	0.217
-407.311	46.281	-0.244	-0.226
-406.296	-85.229	-0.194	0.061
-405.282	-200.000	0.010	-0.050
-404.267	-114.260	0.200	-0.038
-403.252	82.435	0.085	0.092
-402.238	-46.152	0.184	0.091
-401.223	-61.350	-0.078	0.033
-400.209	59.203	-0.152	0.150
-399.194	252.781	0.091	0.155
-398.179	-49.924	-0.343	-0.162
-397.165	221.779	-0.025	0.039
-396.150	72.383	0.125	-0.130
-395.136	131.036	0.109	-0.139
-394.121	320.863	-0.123	0.233
-393.106	301.864	-0.026	-0.049
-392.092	738.596	-0.058	-0.155
-391.077	-128.802	-0.247	0.035
-390.063	-36.447	-0.250	0.134
-389.048	-111.595	0.029	-0.006
-388.033	-67.787	-0.164	-0.064
-387.019	3.293	-0.006	-0.004
-386.004	-124.140	-0.368	0.058
-384.990	-200.000	0.012	0.120
-383.975	10.009	0.060	-0.046
-382.960	800.000	-0.037	-0.114
-381.946	-2.983	0.309	0.215
-380.931	-19.482	0.020	0.012
-379.917	-200.000	0.030	0.134
-378.902	42.015	-0.170	-0.154
-377.888	58.338	-0.075	0.073
-376.873	335.288	-0.124	0.239
-375.858	800.000	-0.118	0.344
-374.844	-74.260	0.007	0.003
-373.829	737.527	0.075	0.200
-372.815	-71.872	0.301	0.112
-371.800	-149.580	0.253	0.020
-370.785	-87.782	-0.319	-0.096
-369.771	61.287	0.071	-0.071
-368.756	800.000	0.063	-0.192
-367.742	-157.450	-0.332	-0.020
-366.727	-112.828	0.106	-0.021
-365.712	-200.000	0.006	0.149
-364.698	76.261	0.139	0.147
-363.683	5.837	0.200	0.147
-362.669	-70.973	-0.259	0.097
-361.654	263.448	0.046	-0.079
-360.639	76.634	0.203	-0.214
-359.625	-39.291	-0.359	0.188
-358.610	-200.000	-0.052	-0.292
-357.596	800.000	-0.136	0.509
-356.581	800.000	-0.028	-0.082
-355.566	-69.442	-0.181	-0.069
-354.552	800.000	0.061	0.175
-353.537	431.133	-0.110	-0.238
-352.523	-200.000	0.051	0.256
-351.508	-21.695	-0.215	-0.130
-350.493	-173.105	0.229	0.007
-349.479	-2.993	0.385	-0.268
-348.464	800.000	-0.067	0.201
-347.450	-19.698	-0.166	-0.102
-346.435	-200.000	0.034	0.248
-345.420	459.934	-0.053	0.118
-344.406	87.736	0.120	-0.132
-343.391	117.342	0.101	0.123
-342.377	800.000	0.040	-0.162
-341.362	-200.000	-0.002	-0.011
-340.348	740.144	0.111	-0.297
-339.333	167.163	-0.096	-0.136
-338.318	-106.295	-0.422	0.094
-337.304	-200.000	0.033	0.306
-336.289	-0.230	-0.122	0.087
-335.275	271.538	0.033	-0.057
-334.260	-200.000	-0.006	-0.346
-333.245	55.242	-0.083	-0.080
-332.231	-200.000	-0.002	0.039
-331.216	-91.927	0.139	-0.039
-330.202	345.353	0.052	0.103
-329.187	228.589	0.242	0.393
-328.172	32.344	-0.390	0.335
-327.158	-200.000	0.001	-0.079
-326.143	230.547	0.165	-0.269
-325.129	70.636	-0.182	0.187
-324.114	-200.000	-0.007	-0.121
-323.099	-200.000	0.035	0.194
-322.085	-139.539	0.109	0.012
-321.070	97.935	-0.059	-0.068
-320.056	-114.272	0.177	0.034
-319.041	-104.510	0.480	-0.110
-318.026	-182.562	-0.107	0.002
-317.012	-120.025	-0.248	-0.042
-315.997	-200.000	0.001	-0.022
-314.983	-126.377	-0.217	-0.032
-313.968	-200.000	0.015	-0.138
-312.953	-111.396	0.476	0.096
-311.939	-32.309	-0.194	0.108
-310.924	800.000	-0.040	-0.156
-309.910	-30.520	0.258	-0.146
-308.895	139.219	-0.029	-0.038
-307.880	104.976	-0.285	0.335
-306.866	219.816	-0.066	0.104
-305.851	-83.189	-0.147	-0.047
-304.837	280.513	0.126	-0.224
-303.822	-7.136	-0.128	-0.086
-302.807	-97.352	-0.150	-0.039
-301.793	234.651	-0.184	-0.302
-300.778	800.000	-0.090	-0.264
-299.764	216.353	0.106	0.168
-298.749	-110.666	0.288	-0.059
-297.735	-200.000	-0.064	0.453
-296.720	7.189	0.062	-0.046
-295.705	800.000	-0.074	0.230
-294.691	-54.152	0.196	-0.088
-293.676	-43.893	0.116	0.058
-292.662	663.995	0.104	-0.268
-291.647	41.359	0.097	0.087
-290.632	165.618	0.100	-0.140
-289.618	-33.406	-0.070	-0.038
-288.603	624.238	0.190	-0.475
-287.589	185.807	-0.167	-0.246
-286.574	-99.771	0.164	-0.041
-285.559	-12.097	-0.167	0.109
-284.545	31.079	-0.331	0.282
-283.530	-114.682	-0.182	0.035
-282.516	-200.000	-0.010	0.230
-281.501	136.439	0.108	-0.139
-280.486	194.603	-0.245	-0.369
-279.472	205.007	0.179	-0.276
-278.457	800.000	-0.026	-0.103
-277.443	-200.000	-0.030	-0.226
-276.428	800.000	-0.040	0.153
-275.413	800.000	-0.074	0.304
-274.399	-52.642	-0.248	0.114
-273.384	9.187	0.135	0.101
-272.370	-148.271	-0.350	0.029
-271.355	-30.819	0.283	0.159
-270.340	-30.175	-0.180	-0.102
-269.326	-200.000	0.018	-0.089
-268.311	-106.838	0.067	0.015
-267.297	-111.104	-0.409	0.083
-266.282	-200.000	0.027	-0.211
-265.267	166.983	-0.141	0.199
-264.253	89.742	0.065	-0.072
-263.238	-200.000	0.039	-0.390
-262.224	-105.289	-0.386	-0.087
-261.209	567.533	0.108	-0.260
-260.195	133.909	0.105	0.135
-259.180	300.226	0.143	0.262
-258.165	-200.000	-0.014	0.221
-257.151	397.373	-0.121	0.252
-256.136	145.830	0.084	-0.112
-255.122	108.609	0.258	0.306
-254.107	-81.043	0.235	-0.077
-253.092	-87.187	-0.253	-0.076
-252.078	800.000	0.081	-0.294
-251.063	-126.356	0.094	0.014
-250.049	800.000	-0.138	0.443
-249.034	-200.000	0.018	0.259
-248.019	46.816	0.240	-0.221
-247.005	-103.595	-0.043	-0.010
-245.990	-200.000	0.006	0.229
-244.976	800.000	0.066	0.207
-243.961	-200.000	0.008	0.156
-242.946	800.000	-0.064	0.247
-241.932	152.850	0.122	-0.165
-240.917	219.031	0.186	0.295
-239.903	800.000	-0.039	-0.162
-238.888	-118.108	0.142	-0.025
-237.873	-200.000	-0.049	0.266
-236.859	49.205	-0.040	-0.038
-235.844	-97.758	0.156	-0.040
-234.830	-200.000	-0.031	-0.153
-233.815	101.460	0.291	0.336
-232.800	94.197	0.136	0.153
-231.786	-104.972	0.209	-0.047
-230.771	7.157	0.242	-0.179
-229.757	-200.000	-0.101	-0.589
-228.742	-9.740	0.342	-0.226
-227.727	-17.785	0.200	-0.124
-226.713	-195.184	-0.242	0.002
-225.698	64.572	-0.181	0.181
-224.684	800.000	0.023	0.069
-223.669	-200.000	-0.048	-0.451
-222.655	198.235	0.122	-0.184
-221.640	-155.055	0.135	0.009
-220.625	64.234	0.208	-0.208
-219.611	-70.862	-0.272	0.102
-218.596	350.879	-0.068	0.134
-217.582	254.551	0.081	-0.138
-216.567	151.478	-0.038	-0.052
-215.552	-200.000	0.016	0.251
-214.538	-200.000	0.015	-0.078
-213.523	-57.939	0.300	-0.130
-212.509	-75.559	0.139	0.049
-211.494	800.000	-0.070	-0.270
-210.479	800.000	0.032	-0.109
-209.465	535.150	0.036	-0.085
-208.450	135.936	0.165	-0.213
-207.436	-200.000	0.023	0.254
-206.421	-85.976	-0.317	0.097
-205.406	28.433	0.178	-0.149
-204.392	-200.000	0.000	0.104
-203.377	-88.573	0.170	-0.050
-202.363	-113.580	0.104	0.020
-201.348	81.313	-0.125	0.134
-200.333	-27.462	0.166	-0.096
-199.319	-42.450	0.177	-0.089
-198.304	379.162	0.097	-0.196
-197.290	-200.000	-0.048	-0.227
-196.275	73.779	0.255	0.265
-195.260	358.280	0.028	0.055
-194.246	221.522	-0.033	0.053
-193.231	-48.796	0.338	-0.161
-192.217	506.241	0.133	0.306
-191.202	800.000	-0.052	-0.171
-190.187	-50.824	-0.086	0.040
-189.173	-200.000	-0.013	0.344
-188.158	-200.000	0.030	-0.156
-187.144	-48.037	0.187	0.089
-186.129	-132.050	0.184	-0.024
-185.114	-76.646	0.350	-0.121
-184.100	-21.400	-0.138	0.083
-183.085	-98.148	0.323	0.082
-182.071	-16.035	-0.094	-0.059
-181.056	213.207	-0.143	-0.223
-180.042	800.000	0.043	-0.135
-179.027	-139.078	-0.191	0.020
-178.012	444.254	0.026	-0.056
-176.998	176.983	0.151	0.218
-175.983	-1.101	0.143	0.100
-174.969	355.085	-0.096	0.190
-173.954	474.634	0.115	-0.257
-172.939	237.783	0.056	-0.092
-171.925	143.928	0.215	-0.284
-170.910	98.371	0.216	-0.247
-169.896	-200.000	0.001	-0.072
-168.881	-118.908	-0.185	0.032
-167.866	-200.000	-0.027	-0.315
-166.852	800.000	0.009	0.032
-165.837	-68.092	0.232	0.089
-164.823	98.547	-0.146	-0.167
-163.808	-59.616	-0.306	0.130
-162.793	-131.201	-0.347	0.046
-161.779	-90.730	-0.303	-0.086
-160.764	-200.000	0.054	0.254
-159.750	-38.089	0.391	-0.205
-158.735	-175.971	-0.074	-0.002
-157.720	5.348	-0.345	-0.251
-156.706	6.137	0.181	-0.133
-155.691	600.157	0.095	0.232
-154.677	800.000	0.045	0.140
-153.662	70.427	0.154	-0.157
-152.647	-106.666	-0.307	0.068
-151.633	19.467	-0.129	-0.102
-150.618	-200.000	-0.007	-0.187
-149.604	293.200	0.078	-0.140
-148.589	529.834	0.131	0.305
-147.574	-200.000	-0.013	-0.228
-146.560	14.086	-0.145	-0.112
-145.545	92.672	0.053	-0.059
-144.531	-133.848	0.030	-0.004
-143.516	-58.768	0.017	0.007
-142.502	69.466	0.188	0.191
-141.487	-70.245	0.326	0.122
-140.472	-200.000	0.010	0.067
-139.458	100.321	-0.070	-0.080
-138.443	-200.000	0.046	0.231
-137.429	242.009	0.022	-0.036
-136.414	-200.000	0.020	-0.262
-135.399	86.437	0.236	0.257
-134.385	-200.000	0.020	0.105
-133.370	169.192	0.191	-0.269
-132.356	-86.954	0.223	-0.067
-131.341	86.817	0.103	0.113
-130.326	800.000	-0.038	-0.124
-129.312	321.046	-0.110	-0.207
-128.297	-18.851	0.008	-0.005
-127.283	491.698	-0.041	0.092
-126.268	-200.000	0.016	0.188
-125.253	-58.882	0.282	-0.120
-124.239	423.208	-0.125	0.265
-123.224	369.565	0.088	0.175
-122.210	670.841	0.094	0.240
-121.195	-11.942	0.305	-0.197
