DTS Sentinel unit serial number:	SN413079Multiplexer serial number:	ORYXHardware model number:	OX4-SRSoftware version number:	ORYX F/W v4.00 Oryx Data Collector v3.7.2.0data status	okinstallation	princeton_trtdifferential loss correction	single-endedforward channel	channel 4reverse channel	N/Adate	2019/09/11time	08:47:11forward acquisition time	60.00reverse acquisition time	0.00gamma	496.2192k internal	0.2301k external	0.2301temperature offset calibration	0.9972default loss term (dB/km)	0.3790temperature slope calibration	1.0000multiplexer offset coefficient	1.0000multiplexer slope coefficient	1.0000fibre end	0.00T internal ref (°C)	33.70T ext. ref 1 (°C)	0.12T ext. ref 2 (°C)	30.98length (m)	temperature (°C)	Stokes	anti-Stokes-747.200	64.935	0.231	0.238
-746.185	-44.181	-0.296	0.152
-745.171	602.666	-0.095	-0.241
-744.156	578.480	0.043	0.107
-743.142	800.000	0.078	0.220
-742.127	800.000	0.166	0.585
-741.112	-36.195	-0.212	0.117
-740.098	152.810	-0.198	0.276
-739.083	-112.025	-0.103	-0.021
-738.069	-54.139	-0.055	0.025
-737.054	-200.000	0.001	-0.138
-736.039	-75.185	-0.148	-0.054
-735.025	87.681	-0.068	0.077
-734.010	274.139	-0.143	-0.259
-732.996	-16.123	-0.252	0.163
-731.981	800.000	0.053	0.161
-730.966	-200.000	0.040	-0.316
-729.952	-4.581	-0.165	-0.116
-728.937	-200.000	-0.047	-0.240
-727.923	-200.000	-0.007	-0.638
-726.908	-105.604	-0.062	0.014
-725.894	-11.078	-0.126	-0.084
-724.879	-151.446	-0.044	-0.003
-723.864	45.385	0.225	-0.212
-722.850	-200.000	0.030	-0.215
-721.835	22.203	-0.099	-0.082
-720.821	800.000	0.009	-0.038
-719.806	58.756	-0.021	0.021
-718.791	-200.000	-0.002	-0.090
-717.777	-127.501	0.244	0.036
-716.762	800.000	-0.028	-0.124
-715.748	-200.000	0.014	-0.086
-714.733	229.131	0.180	-0.299
-713.718	-35.938	-0.117	-0.064
-712.704	-163.884	0.192	0.009
-711.689	-49.938	-0.132	-0.064
-710.675	25.933	-0.041	-0.035
-709.660	118.901	0.043	-0.053
-708.645	29.882	-0.149	-0.129
-707.631	800.000	0.063	0.195
-706.616	-200.000	0.003	0.047
-705.602	152.290	-0.122	-0.170
-704.587	-50.731	0.048	0.023
-703.572	279.809	-0.086	0.156
-702.558	95.379	0.254	0.295
-701.543	-181.065	0.195	0.004
-700.529	-200.000	-0.001	-0.221
-699.514	373.514	0.076	0.158
-698.499	-158.538	-0.151	-0.009
-697.485	-152.784	-0.256	0.019
-696.470	9.805	-0.087	0.067
-695.456	34.660	0.368	0.327
-694.441	202.088	-0.141	0.221
-693.426	-200.000	-0.049	-0.409
-692.412	-200.000	-0.063	0.299
-691.397	212.821	-0.213	-0.341
-690.383	490.946	-0.067	-0.156
-689.368	0.015	0.113	0.082
-688.354	-200.000	-0.002	0.171
-687.339	-119.714	0.175	0.031
-686.324	-200.000	0.004	-0.312
-685.310	17.949	-0.089	0.072
-684.295	605.093	0.043	-0.108
-683.281	265.042	0.162	0.288
-682.266	-42.174	-0.206	0.107
-681.251	-115.032	0.060	0.012
-680.237	178.979	0.139	0.206
-679.222	-200.000	-0.051	0.276
-678.208	-137.651	-0.059	-0.007
-677.193	107.131	-0.077	-0.094
-676.178	-56.562	-0.128	-0.058
-675.164	122.310	-0.159	0.202
-674.149	-200.000	-0.004	-0.123
-673.135	189.879	-0.090	-0.137
-672.120	111.098	-0.107	0.131
-671.105	394.780	-0.160	0.340
-670.091	45.743	0.191	-0.180
-669.076	114.569	0.170	0.211
-668.062	68.485	-0.099	-0.103
-667.047	95.656	0.164	0.190
-666.032	139.579	-0.038	-0.051
-665.018	-18.572	0.365	0.231
-664.003	-21.603	0.196	0.121
-662.989	63.424	-0.074	-0.075
-661.974	72.630	0.321	-0.341
-660.959	800.000	-0.101	-0.387
-659.945	277.150	-0.130	-0.234
-658.930	-200.000	-0.043	-0.201
-657.916	-200.000	0.026	-0.442
-656.901	-164.876	0.316	0.014
-655.886	65.329	-0.124	-0.128
-654.872	-200.000	0.052	-0.334
-653.857	-98.169	0.163	-0.043
-652.843	142.212	0.016	0.022
-651.828	-72.701	0.243	0.091
-650.814	699.916	-0.056	-0.149
-649.799	216.349	-0.236	-0.381
-648.784	-200.000	-0.018	0.175
-647.770	-70.396	-0.259	0.100
-646.755	85.337	-0.245	0.273
-645.741	297.832	0.164	-0.306
-644.726	-200.000	-0.008	-0.044
-643.711	-200.000	0.003	-0.221
-642.697	-200.000	0.017	0.187
-641.682	-80.576	-0.531	-0.180
-640.668	-11.741	-0.038	0.025
-639.653	107.080	-0.057	0.068
-638.638	-200.000	-0.046	-0.242
-637.624	-128.481	-0.028	-0.004
-636.609	45.951	0.109	0.103
-635.595	-102.799	-0.036	-0.009
-634.580	61.012	-0.092	-0.093
-633.565	178.114	0.239	-0.354
-632.551	41.428	0.266	-0.244
-631.536	-2.690	0.072	0.051
-630.522	-12.815	0.274	-0.181
-629.507	-3.956	0.211	0.148
-628.492	-74.062	-0.440	-0.162
-627.478	38.528	0.195	-0.176
-626.463	12.767	-0.083	-0.065
-625.449	-161.207	-0.190	-0.010
-624.434	-102.366	-0.291	0.071
-623.419	238.369	-0.197	0.333
-622.405	141.119	-0.187	-0.250
-621.390	-78.108	-0.225	0.078
-620.376	-200.000	0.211	0.001
-619.361	610.946	-0.067	0.170
-618.346	-60.412	0.082	-0.035
-617.332	461.495	0.060	0.135
-616.317	156.900	-0.110	-0.154
-615.303	-200.000	0.009	0.299
-614.288	-162.387	-0.040	0.002
-613.273	-200.000	-0.005	-0.055
-612.259	-139.025	0.174	0.019
-611.244	-47.935	-0.099	-0.048
-610.230	800.000	0.083	-0.273
-609.215	-200.000	-0.002	-0.287
-608.201	800.000	-0.101	0.290
-607.186	-38.437	0.078	0.042
-606.171	47.188	0.136	0.129
-605.157	-15.237	0.130	-0.084
-604.142	32.764	0.245	0.215
-603.128	123.723	0.130	0.166
-602.113	-121.747	0.227	-0.038
-601.098	767.637	0.037	0.101
-600.084	-200.000	0.012	-0.073
-599.069	-138.010	0.525	0.059
-598.055	-169.823	0.192	-0.007
-597.040	-101.208	-0.190	-0.047
-596.025	-200.000	-0.008	0.110
-595.011	327.908	0.184	-0.359
-593.996	-191.991	0.298	0.003
-592.982	-53.480	0.241	-0.112
-591.967	-103.717	-0.070	0.017
-590.952	21.851	-0.089	-0.073
-589.938	705.837	-0.106	-0.283
-588.923	800.000	0.078	0.340
-587.909	0.592	-0.200	0.145
-586.894	-121.667	-0.182	-0.031
-585.879	-68.580	-0.384	-0.151
-584.865	-61.726	-0.269	-0.114
-583.850	146.072	-0.111	0.151
-582.836	800.000	-0.053	0.197
-581.821	413.986	0.110	0.236
-580.806	-39.936	0.170	-0.090
-579.792	43.380	0.140	-0.129
-578.777	53.076	-0.073	-0.071
-577.763	-121.586	-0.112	-0.019
-576.748	-146.431	-0.189	0.017
-575.733	-75.274	0.163	-0.059
-574.719	800.000	0.075	-0.242
-573.704	-200.000	-0.008	0.113
-572.690	-123.950	0.416	-0.066
-571.675	-6.952	0.225	-0.154
-570.661	712.478	0.079	-0.212
-569.646	-200.000	-0.021	0.186
-568.631	-114.148	-0.066	-0.013
-567.617	91.390	0.129	0.147
-566.602	57.509	0.107	-0.106
-565.588	-108.649	-0.306	-0.067
-564.573	-200.000	-0.081	-0.382
-563.558	55.579	-0.063	-0.062
-562.544	89.075	0.092	-0.104
-561.529	-169.560	0.140	0.005
-560.515	-8.701	0.071	-0.048
-559.500	-11.492	-0.071	-0.047
-558.485	800.000	-0.157	0.548
-557.471	-55.881	-0.240	0.109
-556.456	-200.000	0.017	-0.432
-555.442	-59.264	0.077	0.034
-554.427	-97.271	0.112	-0.029
-553.412	46.438	-0.129	-0.121
-552.398	-147.360	-0.423	-0.036
-551.383	29.484	-0.077	0.067
-550.369	-66.041	-0.477	-0.193
-549.354	-16.018	-0.189	-0.122
-548.339	-200.000	0.023	-0.162
-547.325	-200.000	-0.067	-0.515
-546.310	103.384	-0.122	-0.145
-545.296	53.557	-0.120	0.117
-544.281	253.685	0.256	-0.443
-543.266	-95.431	0.135	-0.037
-542.252	-89.923	-0.497	0.147
-541.237	-200.000	0.009	0.274
-540.223	87.453	-0.161	0.180
-539.208	-170.756	0.059	0.002
-538.193	54.239	0.211	0.206
-537.179	800.000	-0.043	0.168
-536.164	28.932	-0.125	-0.107
-535.150	-102.943	0.132	0.032
-534.135	-90.653	-0.212	0.062
-533.121	800.000	0.013	-0.051
-532.106	-105.405	-0.387	0.089
-531.091	800.000	0.052	0.163
-530.077	-108.139	-0.198	0.043
-529.062	232.549	0.105	0.175
-528.048	15.934	-0.180	0.143
-527.033	20.692	-0.205	0.168
-526.018	-200.000	0.025	-0.170
-525.004	-94.716	0.062	0.017
-523.989	-167.020	-0.132	-0.005
-522.975	-13.566	0.209	0.137
-521.960	-102.328	-0.054	0.013
-520.945	253.153	-0.193	0.334
-519.931	31.921	-0.334	-0.290
-518.916	66.608	0.056	0.057
-517.902	325.178	0.038	0.074
-516.887	31.101	-0.040	-0.035
-515.872	-68.432	-0.460	-0.180
-514.858	13.070	0.040	-0.031
-513.843	800.000	-0.063	0.274
-512.829	130.361	-0.099	0.128
-511.814	-142.722	0.453	-0.045
-510.799	-200.000	-0.022	0.244
-509.785	-200.000	-0.010	0.178
-508.770	-33.117	0.099	-0.056
-507.756	18.318	-0.252	-0.203
-506.741	-55.212	-0.117	0.053
-505.726	800.000	0.069	0.281
-504.712	46.978	0.247	-0.232
-503.697	-142.669	-0.132	-0.013
-502.683	-106.391	0.065	-0.015
-501.668	-190.706	-0.215	-0.002
-500.653	-108.593	0.475	-0.103
-499.639	-87.418	-0.255	0.078
-498.624	-200.000	0.017	-0.233
-497.610	8.655	-0.198	-0.151
-496.595	262.124	0.106	-0.185
-495.581	333.573	-0.133	0.260
-494.566	214.280	-0.143	-0.228
-493.551	116.677	0.175	-0.217
-492.537	-92.542	-0.220	-0.062
-491.522	-36.707	0.169	0.092
-490.508	-102.063	-0.080	-0.019
-489.493	-73.130	-0.037	-0.014
-488.478	-122.099	-0.184	0.030
-487.464	9.401	-0.151	-0.116
-486.449	-200.000	-0.058	-0.374
-485.435	-44.779	0.181	0.091
-484.420	-106.057	0.200	-0.045
-483.405	-62.218	0.159	0.067
-482.391	-103.773	-0.152	-0.036
-481.376	800.000	-0.024	0.077
-480.362	-137.471	0.074	0.008
-479.347	-200.000	0.068	-0.312
-478.332	-34.397	0.051	-0.028
-477.318	-57.483	0.026	-0.012
-476.303	-64.820	0.256	-0.104
-475.289	21.029	0.235	0.192
-474.274	-0.209	0.120	0.086
-473.259	-113.864	0.163	-0.032
-472.245	-126.083	0.116	-0.018
-471.230	174.268	-0.165	0.240
-470.216	450.141	0.143	0.318
-469.201	800.000	0.045	0.179
-468.186	206.476	-0.073	0.115
-467.172	303.452	-0.127	0.238
-466.157	-136.400	-0.127	0.015
-465.143	-156.686	-0.256	-0.016
-464.128	-200.000	-0.013	0.352
-463.113	447.613	0.138	-0.306
-462.099	426.806	0.153	-0.333
-461.084	206.434	-0.032	-0.050
-460.070	1.946	-0.176	-0.128
-459.055	735.860	0.132	0.357
-458.040	-200.000	0.009	0.349
-457.026	-200.000	0.181	-0.001
-456.011	-200.000	0.002	0.017
-454.997	-200.000	0.029	-0.164
-453.982	-200.000	-0.047	-0.244
-452.968	-92.840	-0.154	-0.043
-451.953	185.687	0.015	-0.023
-450.938	98.906	0.196	-0.228
-449.924	-21.385	-0.099	-0.061
-448.909	44.062	-0.185	-0.171
-447.895	-200.000	-0.040	-0.195
-446.880	-133.122	0.186	-0.024
-445.865	-92.995	-0.351	0.099
-444.851	568.449	0.048	-0.116
-443.836	-68.548	0.112	0.044
-442.822	429.325	0.089	0.193
-441.807	-34.433	0.138	0.076
-440.792	-115.550	-0.063	0.012
-439.778	464.501	-0.049	-0.110
-438.763	-172.997	-0.298	0.009
-437.749	-120.297	0.386	-0.066
-436.734	-3.927	0.289	0.202
-435.719	249.062	-0.162	0.277
-434.705	-19.670	0.204	0.127
-433.690	800.000	0.097	0.419
-432.676	185.028	0.065	-0.097
-431.661	-57.664	0.295	0.130
-430.646	1.032	-0.226	-0.163
-429.632	-93.120	-0.059	0.017
-428.617	-143.070	-0.191	0.019
-427.603	-37.415	-0.190	-0.102
-426.588	-200.000	0.018	0.174
-425.573	-200.000	0.082	-0.367
-424.559	60.693	-0.206	0.206
-423.544	-84.501	-0.216	-0.069
-422.530	-114.065	-0.190	0.037
-421.515	79.530	-0.147	0.158
-420.500	-61.094	-0.146	0.062
-419.486	-39.616	0.202	0.107
-418.471	-67.517	-0.116	-0.046
-417.457	-73.339	-0.498	-0.183
-416.442	39.117	0.086	-0.077
-415.428	800.000	-0.056	0.235
-414.413	-13.922	0.288	0.187
-413.398	800.000	0.109	0.364
-412.384	94.621	-0.168	-0.192
-411.369	800.000	-0.044	0.192
-410.355	277.323	-0.213	0.381
-409.340	15.451	0.064	0.051
-408.325	252.099	-0.076	0.130
-407.311	-200.000	-0.014	0.104
-406.296	10.254	-0.107	0.082
-405.282	800.000	0.030	0.119
-404.267	-200.000	-0.018	-0.165
-403.252	-98.591	-0.149	-0.038
-402.238	193.693	-0.080	0.122
-401.223	234.621	0.074	-0.122
-400.209	621.821	-0.081	0.205
-399.194	-107.922	0.174	0.038
-398.179	-190.693	-0.158	0.002
-397.165	-200.000	0.041	-0.455
-396.150	215.672	-0.125	0.199
-395.136	-46.599	-0.254	-0.125
-394.121	742.783	0.008	-0.021
-393.106	-41.644	0.059	-0.030
-392.092	522.657	0.040	0.094
-391.077	-146.940	-0.184	-0.016
-390.063	160.699	-0.061	0.086
-389.048	800.000	-0.106	0.303
-388.033	105.349	0.248	-0.295
-387.019	-126.006	0.076	0.012
-386.004	-137.917	-0.101	0.011
-384.990	-85.395	0.183	-0.057
-383.975	-39.490	0.291	-0.153
-382.960	-149.126	-0.071	0.006
-381.946	-200.000	0.041	0.209
-380.931	-116.526	0.071	-0.013
-379.917	800.000	0.022	-0.082
-378.902	-96.272	-0.410	0.109
-377.888	-200.000	-0.016	0.149
-376.873	-74.296	-0.310	-0.112
-375.858	-125.930	-0.116	0.018
-374.844	396.684	0.107	0.224
-373.829	-143.243	0.191	0.018
-372.815	-184.314	-0.429	0.007
-371.800	64.276	-0.101	0.103
-370.785	-200.000	0.006	0.128
-369.771	-131.744	-0.279	0.037
-368.756	123.889	0.063	0.079
-367.742	9.474	-0.330	0.251
-366.727	-181.569	0.097	0.002
-365.712	-200.000	-0.021	-0.141
-364.698	800.000	0.062	-0.194
-363.683	113.593	-0.123	0.150
-362.669	800.000	0.078	0.217
-361.654	-200.000	-0.001	0.054
-360.639	-200.000	-0.009	-0.062
-359.625	490.498	-0.070	-0.161
-358.610	300.823	0.049	0.090
-357.596	800.000	0.050	0.218
-356.581	52.400	0.312	-0.299
-355.566	-200.000	-0.046	0.297
-354.552	35.039	0.226	-0.199
-353.537	-29.092	-0.219	-0.126
-352.523	-107.006	-0.167	-0.037
-351.508	-57.326	0.183	0.081
-350.493	52.944	0.130	0.125
-349.479	-49.058	0.119	-0.057
-348.464	-125.871	-0.298	0.045
-347.450	-94.873	0.049	-0.013
-346.435	319.678	-0.062	-0.118
-345.420	212.115	0.223	-0.353
-344.406	356.003	-0.089	-0.178
-343.391	800.000	-0.033	-0.097
-342.377	-16.375	-0.332	-0.211
-341.362	-200.000	0.048	-0.285
-340.348	-41.233	-0.144	0.074
-339.333	-124.325	0.070	0.011
-338.318	-200.000	-0.014	-0.268
-337.304	148.252	-0.079	0.107
-336.289	75.587	-0.090	0.095
-335.275	800.000	0.039	0.124
-334.260	-80.513	-0.187	-0.063
-333.245	-200.000	0.042	0.204
-332.231	800.000	0.021	-0.063
-331.216	684.519	-0.051	0.132
-330.202	-200.000	0.016	0.253
-329.187	800.000	0.101	-0.388
-328.172	413.888	-0.027	-0.057
-327.158	800.000	0.065	-0.258
-326.143	-71.984	0.277	0.103
-325.129	-200.000	0.006	-0.228
-324.114	-83.663	-0.257	-0.082
-323.099	174.197	-0.219	-0.318
-322.085	112.187	-0.045	-0.055
-321.070	-101.666	-0.352	0.086
-320.056	-44.448	0.093	-0.047
-319.041	182.057	0.278	0.411
-318.026	-28.998	-0.188	0.108
-317.012	3.139	0.138	0.100
-315.997	-91.209	-0.162	-0.047
-314.983	-200.000	0.016	-0.088
-313.968	-200.000	0.005	-0.139
-312.953	468.363	-0.095	0.214
-311.939	97.213	0.087	-0.100
-310.924	21.554	0.222	-0.181
-309.910	-200.000	-0.043	0.273
-308.895	283.052	0.072	-0.130
-307.880	-200.000	0.061	-0.271
-306.866	523.190	-0.165	-0.388
-305.851	-86.186	0.228	-0.071
-304.837	274.676	0.170	0.301
-303.822	800.000	0.130	-0.386
-302.807	-86.041	0.386	-0.120
-301.793	538.636	-0.122	-0.290
-300.778	-11.032	-0.070	0.046
-299.764	800.000	0.055	-0.153
-298.749	527.554	0.090	0.212
-297.735	-130.696	0.140	0.019
-296.720	-120.259	-0.527	-0.090
-295.705	800.000	0.081	0.287
-294.691	-177.085	0.174	0.004
-293.676	800.000	0.049	-0.174
-292.662	200.651	0.047	0.073
-291.647	46.709	-0.229	0.213
-290.632	104.628	0.197	0.233
-289.618	-200.000	-0.002	0.195
-288.603	-200.000	0.021	0.246
-287.589	394.239	-0.047	-0.097
-286.574	678.287	-0.083	0.217
-285.559	-200.000	0.017	-0.357
-284.545	-200.000	0.014	-0.123
-283.530	-6.295	0.130	0.089
-282.516	642.191	-0.091	0.231
-281.501	-200.000	-0.009	-0.324
-280.486	-200.000	0.024	-0.256
-279.472	-200.000	-0.024	-0.204
-278.457	-93.618	0.136	0.038
-277.443	35.974	-0.141	-0.124
-276.428	-200.000	0.022	-0.143
-275.413	62.990	-0.116	-0.116
-274.399	-200.000	0.032	0.179
-273.384	-152.974	0.065	0.005
-272.370	103.688	0.117	0.137
-271.355	-200.000	0.040	0.219
-270.340	-52.021	0.367	0.171
-269.326	47.555	0.100	-0.093
-268.311	-70.164	-0.097	-0.037
-267.297	91.211	0.092	0.103
-266.282	246.821	0.077	-0.130
-265.267	-43.634	0.215	-0.109
-264.253	-200.000	0.047	0.383
-263.238	2.138	-0.078	0.056
-262.224	-156.687	0.315	0.020
-261.209	-170.134	-0.196	0.007
-260.195	264.831	-0.094	0.164
-259.180	-200.000	0.008	0.144
-258.165	261.785	0.120	-0.208
-257.151	-9.260	-0.126	-0.084
-256.136	800.000	-0.022	-0.062
-255.122	546.748	0.097	-0.233
-254.107	-83.511	0.283	-0.090
-253.092	-4.887	-0.066	0.045
-252.078	-56.593	0.358	-0.158
-251.063	66.485	0.162	-0.164
-250.049	-42.426	0.188	0.096
-249.034	453.994	-0.108	0.240
-248.019	205.502	-0.078	0.121
-247.005	-200.000	0.015	0.097
-245.990	14.450	-0.053	-0.041
-244.976	353.608	-0.169	0.335
-243.961	800.000	0.060	0.183
-242.946	-200.000	-0.008	0.154
-241.932	134.144	-0.045	0.059
-240.917	40.301	0.128	0.115
-239.903	305.377	-0.162	0.301
-238.888	-200.000	0.044	-0.390
-237.873	-200.000	0.002	0.109
-236.859	-200.000	-0.017	0.305
-235.844	45.547	0.248	0.229
-234.830	-96.496	0.023	0.006
-233.815	305.456	-0.150	-0.279
-232.800	244.340	0.150	-0.251
-231.786	253.641	0.138	-0.236
-230.771	377.265	-0.045	0.091
-229.757	-76.651	-0.234	0.082
-228.742	-84.847	0.111	-0.035
-227.727	36.012	-0.155	-0.136
-226.713	123.993	0.267	0.335
-225.698	-85.520	0.173	0.054
-224.684	63.139	-0.018	0.018
-223.669	-42.656	-0.059	-0.030
-222.655	-40.194	-0.055	-0.029
-221.640	365.919	0.072	0.146
-220.625	558.606	0.051	-0.124
-219.611	-59.447	-0.089	-0.038
-218.596	-200.000	0.028	-0.207
-217.582	-200.000	0.042	-0.320
-216.567	-97.054	-0.066	0.017
-215.552	162.822	0.123	-0.172
-214.538	263.704	0.097	-0.168
-213.523	-115.323	-0.152	-0.029
-212.509	597.316	0.052	-0.128
-211.494	-22.187	-0.129	0.078
-210.479	-67.920	0.147	-0.057
-209.465	-122.880	0.353	0.057
-208.450	157.964	0.032	0.045
-207.436	215.038	-0.064	-0.102
-206.421	-104.078	-0.265	0.062
-205.406	-17.194	-0.173	-0.109
-204.392	356.787	0.083	0.166
-203.377	-172.658	-0.206	0.006
-202.363	2.075	0.140	0.101
-201.348	-121.594	0.256	0.042
-200.333	-46.570	-0.148	0.072
-199.319	183.240	-0.067	-0.099
-198.304	10.733	0.464	0.354
-197.290	416.578	0.130	-0.278
-196.275	-26.368	-0.088	0.051
-195.260	-85.769	0.182	-0.056
-194.246	84.439	0.384	0.419
-193.231	-200.000	-0.014	0.195
-192.217	-149.405	-0.102	-0.008
-191.202	-159.106	0.299	0.017
-190.187	-29.892	-0.026	-0.015
-189.173	-103.202	0.204	-0.048
-188.158	-84.726	0.292	-0.092
-187.144	-49.781	0.237	-0.112
-186.129	16.778	-0.202	-0.159
-185.114	180.126	0.159	0.232
-184.100	22.762	-0.030	0.024
-183.085	33.489	0.253	0.219
-182.071	-200.000	-0.001	-0.059
-181.056	-200.000	-0.017	-0.091
-180.042	102.146	0.189	-0.220
-179.027	-5.295	0.194	-0.133
-178.012	-45.304	-0.353	0.175
-176.998	91.485	-0.307	-0.344
-175.983	-200.000	0.010	0.156
-174.969	-104.854	0.160	0.037
-173.954	62.581	-0.238	0.237
-172.939	-82.875	0.193	-0.062
-171.925	-143.595	0.186	0.018
-170.910	59.367	-0.051	0.050
-169.896	-33.627	-0.097	-0.054
-168.881	-149.438	-0.098	0.008
-167.866	1.624	0.064	-0.046
-166.852	-191.277	0.181	0.002
-165.837	-170.303	0.401	0.014
-164.823	-150.158	0.164	0.013
-163.808	-200.000	-0.024	0.162
-162.793	800.000	0.024	-0.100
-161.779	800.000	-0.054	-0.169
-160.764	5.870	0.130	-0.096
-159.750	64.272	-0.098	0.098
-158.735	798.540	-0.108	0.296
-157.720	406.569	0.064	0.136
-156.706	337.864	0.154	0.298
-155.691	-200.000	-0.028	-0.153
-154.677	-200.000	0.023	-0.183
-153.662	-160.687	0.196	0.010
-152.647	60.445	0.118	0.117
-151.633	5.477	-0.116	-0.085
-150.618	-13.664	-0.230	0.148
-149.604	-138.873	-0.169	0.018
-148.589	83.933	-0.029	0.031
-147.574	-200.000	0.033	0.225
-146.560	800.000	-0.074	-0.300
-145.545	-172.589	0.342	-0.011
-144.531	-10.269	0.131	0.086
-143.516	-66.482	-0.152	0.060
-142.502	-129.014	0.353	0.049
-141.487	800.000	0.040	0.175
-140.472	95.928	-0.067	-0.076
-139.458	-29.027	-0.478	-0.273
-138.443	-105.183	-0.367	0.083
-137.429	-200.000	-0.014	0.174
-136.414	716.478	0.128	0.339
-135.399	50.898	-0.166	-0.156
-134.385	-94.852	-0.434	-0.117
-133.370	331.058	-0.188	0.361
-132.356	15.504	0.313	0.245
-131.341	83.404	-0.123	-0.133
-130.326	195.253	0.123	0.185
-129.312	800.000	0.023	0.065
-128.297	-73.345	0.206	-0.075
-127.283	-200.000	-0.023	0.242
-126.268	-119.316	-0.155	0.027
-125.253	22.679	-0.080	-0.066
-124.239	-97.173	-0.113	0.029
-123.224	-124.346	0.139	0.022
-122.210	17.214	0.158	-0.124
-121.195	-68.275	0.081	0.031
