DTS Sentinel unit serial number:	SN413079Multiplexer serial number:	ORYXHardware model number:	OX4-SRSoftware version number:	ORYX F/W v4.00 Oryx Data Collector v3.7.2.0data status	okinstallation	princeton_trtdifferential loss correction	single-endedforward channel	channel 4reverse channel	N/Adate	2019/09/13time	12:41:35forward acquisition time	60.00reverse acquisition time	0.00gamma	496.2192k internal	0.2296k external	0.2296temperature offset calibration	1.0216default loss term (dB/km)	0.3790temperature slope calibration	1.0000multiplexer offset coefficient	1.0000multiplexer slope coefficient	1.0000fibre end	0.00T internal ref (°C)	34.66T ext. ref 1 (°C)	4.61T ext. ref 2 (°C)	31.28length (m)	temperature (°C)	Stokes	anti-Stokes-747.200	-14.751	0.216	-0.142
-746.185	-80.889	-0.436	0.148
-745.171	-67.849	-0.202	-0.081
-744.156	283.128	-0.090	0.166
-743.142	33.297	0.144	-0.127
-742.127	-200.000	-0.043	0.301
-741.112	-127.359	0.371	-0.055
-740.098	-141.377	0.313	0.032
-739.083	293.899	0.091	-0.171
-738.069	-123.568	0.260	0.042
-737.054	62.421	0.262	0.268
-736.039	-11.050	-0.102	-0.069
-735.025	-83.137	0.321	-0.105
-734.010	-99.475	-0.200	-0.051
-732.996	564.227	-0.041	-0.102
-731.981	-21.076	-0.219	0.137
-730.966	166.025	-0.190	-0.275
-729.952	-94.905	0.175	-0.048
-728.937	-47.836	-0.160	0.079
-727.923	109.116	-0.328	0.400
-726.908	-87.874	-0.098	-0.030
-725.894	572.939	-0.080	-0.198
-724.879	184.846	0.055	-0.084
-723.864	-121.199	0.316	0.054
-722.850	234.996	-0.014	-0.023
-721.835	-200.000	0.011	0.215
-720.821	-169.230	0.099	-0.004
-719.806	-112.442	-0.451	-0.092
-718.791	139.156	-0.081	-0.109
-717.777	-56.713	0.086	0.039
-716.762	-200.000	-0.073	-0.444
-715.748	-200.000	0.037	-0.197
-714.733	-181.729	0.077	-0.002
-713.718	-97.274	0.131	-0.035
-712.704	-135.292	-0.221	-0.027
-711.689	611.573	-0.043	-0.110
-710.675	-200.000	-0.051	-0.288
-709.660	-89.934	0.229	0.068
-708.645	106.969	0.046	0.056
-707.631	-160.466	-0.515	-0.028
-706.616	-126.130	0.324	0.050
-705.602	-104.183	-0.259	-0.061
-704.587	-170.217	0.184	0.007
-703.572	-62.090	-0.140	-0.060
-702.558	-10.959	-0.244	0.164
-701.543	299.123	-0.132	-0.247
-700.529	-200.000	-0.008	-0.097
-699.514	-109.452	0.179	0.039
-698.499	12.486	0.287	-0.226
-697.485	-145.147	0.090	-0.008
-696.470	-200.000	-0.020	-0.101
-695.456	-15.456	0.076	0.049
-694.441	90.800	0.137	0.156
-693.426	510.220	0.202	-0.480
-692.412	-84.449	-0.273	-0.088
-691.397	-151.140	0.279	0.021
-690.383	-200.000	0.010	-0.197
-689.368	-31.845	-0.090	0.052
-688.354	-100.124	-0.102	-0.026
-687.339	800.000	0.038	0.139
-686.324	-156.424	0.107	0.007
-685.310	202.647	0.061	0.096
-684.295	800.000	0.113	-0.335
-683.281	-87.288	-0.130	-0.040
-682.266	231.660	0.103	-0.172
-681.251	800.000	-0.018	0.062
-680.237	-8.800	-0.110	-0.075
-679.222	-23.133	0.265	0.163
-678.208	134.625	-0.120	-0.158
-677.193	800.000	0.033	-0.098
-676.178	-82.283	0.326	0.108
-675.164	86.758	-0.409	0.460
-674.149	-61.074	-0.109	0.047
-673.135	-141.578	-0.180	0.019
-672.120	-117.539	0.436	0.080
-671.105	-200.000	-0.008	0.068
-670.091	-7.545	0.337	0.233
-669.076	-35.224	0.223	0.124
-668.062	491.110	-0.054	-0.125
-667.047	361.498	0.070	0.143
-666.032	-0.952	-0.030	-0.022
-665.018	244.327	0.023	-0.039
-664.003	800.000	-0.033	-0.139
-662.989	-121.389	-0.404	-0.069
-661.974	51.124	0.170	-0.164
-660.959	-189.312	-0.088	-0.001
-659.945	-200.000	0.039	-0.257
-658.930	-22.567	-0.182	0.112
-657.916	247.447	0.083	0.142
-656.901	324.418	-0.128	0.249
-655.886	-80.823	0.058	0.020
-654.872	-127.368	-0.688	0.102
-653.857	-200.000	-0.001	-0.360
-652.843	99.080	-0.178	0.209
-651.828	175.864	-0.062	-0.092
-650.814	773.726	0.037	-0.103
-649.799	351.523	0.084	0.170
-648.784	169.201	-0.094	-0.136
-647.770	264.935	0.096	0.171
-646.755	-200.000	-0.012	-0.270
-645.741	-129.156	-0.207	-0.029
-644.726	-139.879	0.112	-0.012
-643.711	23.362	-0.049	-0.041
-642.697	178.816	0.065	-0.097
-641.682	-136.021	-0.222	0.027
-640.668	165.041	0.057	0.082
-639.653	352.855	0.080	0.162
-638.638	-31.819	0.363	-0.207
-637.624	-200.000	0.021	-0.097
-636.609	17.010	-0.256	0.207
-635.595	210.267	0.050	-0.080
-634.580	-59.069	-0.371	0.163
-633.565	187.968	-0.146	0.223
-632.551	-108.699	-0.284	0.062
-631.536	-118.071	-0.240	0.044
-630.522	-200.000	-0.030	-0.171
-629.507	140.642	-0.206	-0.277
-628.492	-82.025	0.089	0.029
-627.478	86.063	0.305	-0.341
-626.463	-74.367	-0.418	-0.154
-625.449	-200.000	0.030	0.162
-624.434	623.134	0.043	0.110
-623.419	85.247	-0.217	-0.242
-622.405	800.000	0.040	0.118
-621.390	-91.519	0.303	0.088
-620.376	-200.000	0.012	-0.095
-619.361	-48.151	-0.205	-0.101
-618.346	-44.695	0.109	0.055
-617.332	285.518	-0.199	0.365
-616.317	-200.000	0.002	-0.069
-615.303	-43.903	-0.133	0.068
-614.288	48.522	0.138	-0.132
-613.273	483.851	0.060	-0.138
-612.259	-76.101	0.183	0.066
-611.244	-142.107	0.269	-0.027
-610.230	800.000	-0.074	0.293
-609.215	800.000	0.132	-0.433
-608.201	330.555	-0.068	0.133
-607.186	141.130	0.129	-0.173
-606.171	-20.946	0.344	0.214
-605.157	39.895	0.200	-0.182
-604.142	-37.004	0.080	0.044
-603.128	449.032	-0.127	-0.284
-602.113	-135.594	-0.078	0.009
-601.098	17.034	0.192	0.155
-600.084	55.329	0.141	-0.139
-599.069	-200.000	0.036	0.355
-598.055	800.000	0.069	0.275
-597.040	-43.989	0.172	0.088
-596.025	-176.449	-0.168	0.004
-595.011	-200.000	0.013	0.202
-593.996	-73.951	-0.144	0.053
-592.982	278.564	-0.110	-0.199
-591.967	85.302	-0.118	0.131
-590.952	800.000	0.020	-0.082
-589.938	-200.000	0.051	0.232
-588.923	-81.898	-0.079	-0.026
-587.909	-81.933	-0.221	-0.073
-586.894	87.948	-0.060	-0.068
-585.879	-69.288	0.124	-0.048
-584.865	339.285	0.057	0.112
-583.850	311.697	-0.164	-0.312
-582.836	-171.326	-0.136	-0.005
-581.821	800.000	0.041	0.127
-580.806	-62.316	0.441	-0.187
-579.792	94.531	-0.097	-0.112
-578.777	-93.818	0.265	-0.074
-577.763	-12.373	-0.151	0.100
-576.748	95.124	0.178	-0.205
-575.733	-80.471	-0.335	-0.113
-574.719	-34.073	0.270	0.151
-573.704	94.667	0.092	-0.106
-572.690	-82.407	-0.165	0.054
-571.675	-15.731	0.182	0.118
-570.661	788.480	0.067	-0.187
-569.646	53.102	-0.348	-0.338
-568.631	-68.001	-0.254	0.100
-567.617	-144.888	0.237	-0.022
-566.602	800.000	-0.047	0.163
-565.588	-200.000	0.057	0.303
-564.573	-12.716	0.260	-0.172
-563.558	-51.139	-0.299	-0.142
-562.544	-86.816	-0.099	0.031
-561.529	-112.328	0.387	0.079
-560.515	-200.000	0.033	-0.210
-559.500	68.136	-0.074	0.077
-558.485	114.502	0.044	-0.055
-557.471	-134.653	-0.229	0.028
-556.456	-124.308	0.181	-0.029
-555.442	-81.720	-0.173	-0.057
-554.427	800.000	0.065	0.191
-553.412	359.276	0.151	-0.306
-552.398	-148.420	0.228	-0.019
-551.383	-200.000	-0.004	-0.344
-550.369	50.173	0.094	-0.090
-549.354	128.624	0.118	-0.153
-548.339	-23.747	0.180	0.110
-547.325	-116.012	-0.286	-0.054
-546.310	800.000	-0.051	-0.226
-545.296	9.249	0.287	0.220
-544.281	-94.714	-0.162	-0.044
-543.266	-200.000	-0.029	0.146
-542.252	-200.000	-0.039	0.535
-541.237	-200.000	-0.019	0.093
-540.223	384.553	0.122	-0.255
-539.208	-22.377	0.181	-0.111
-538.193	12.627	-0.254	-0.199
-537.179	800.000	0.112	0.441
-536.164	-10.846	-0.228	-0.152
-535.150	89.316	0.087	-0.098
-534.135	159.837	0.117	-0.165
-533.121	-200.000	0.068	0.408
-532.106	800.000	-0.086	-0.272
-531.091	-125.520	-0.095	0.015
-530.077	800.000	0.067	0.234
-529.062	-151.963	0.176	0.013
-528.048	800.000	0.016	-0.045
-527.033	-109.441	-0.066	0.014
-526.018	26.625	0.008	-0.006
-525.004	40.455	-0.011	-0.010
-523.989	-46.983	-0.140	-0.069
-522.975	-111.453	0.312	-0.064
-521.960	-200.000	-0.095	0.530
-520.945	423.542	0.058	0.126
-519.931	-200.000	-0.020	-0.141
-518.916	397.468	-0.148	-0.314
-517.902	-81.629	0.174	0.058
-516.887	800.000	-0.061	0.211
-515.872	-133.580	0.358	0.045
-514.858	217.560	-0.157	-0.254
-513.843	-127.676	0.107	-0.016
-512.829	-200.000	0.011	-0.118
-511.814	258.985	0.011	0.018
-510.799	430.888	0.037	0.081
-509.785	800.000	-0.095	0.288
-508.770	-144.896	-0.248	0.023
-507.756	800.000	0.027	0.083
-506.741	-157.587	0.386	0.023
-505.726	30.999	0.156	-0.135
-504.712	432.352	-0.130	-0.285
-503.697	800.000	-0.065	0.272
-502.683	235.026	-0.118	-0.197
-501.668	-7.779	-0.050	0.034
-500.653	-21.243	-0.174	-0.107
-499.639	-24.688	-0.055	-0.033
-498.624	-88.627	0.095	0.029
-497.610	633.277	-0.042	-0.108
-496.595	-87.431	0.083	-0.025
-495.581	-10.771	-0.129	0.086
-494.566	-45.164	-0.241	-0.121
-493.551	437.653	0.193	0.425
-492.537	129.324	0.022	-0.028
-491.522	379.049	-0.030	0.063
-490.508	-79.185	-0.307	0.105
-489.493	252.766	-0.116	-0.200
-488.478	94.859	-0.129	-0.149
-487.464	114.431	-0.081	-0.099
-486.449	-2.238	-0.232	0.165
-485.435	-82.812	-0.174	-0.057
-484.420	-134.082	-0.083	0.010
-483.405	800.000	-0.129	0.492
-482.391	-200.000	0.072	-0.390
-481.376	-17.988	-0.259	-0.164
-480.362	666.551	-0.038	0.098
-479.347	253.570	0.135	0.233
-478.332	40.617	0.204	-0.186
-477.318	-91.543	0.216	-0.062
-476.303	-174.653	0.248	-0.007
-475.289	-200.000	-0.016	0.421
-474.274	-200.000	-0.024	-0.337
-473.259	-200.000	0.052	-0.349
-472.245	149.147	-0.142	0.195
-471.230	241.601	-0.141	-0.238
-470.216	-144.246	-0.157	0.015
-469.201	-139.336	-0.262	0.028
-468.186	197.557	0.161	0.248
-467.172	-47.426	-0.030	0.015
-466.157	-131.413	-0.256	0.034
-465.143	-200.000	-0.005	0.026
-464.128	-200.000	-0.017	0.196
-463.113	-106.866	0.439	0.098
-462.099	-200.000	0.042	0.202
-461.084	-200.000	0.004	-0.156
-460.070	-72.924	-0.066	-0.024
-459.055	-153.086	0.309	0.022
-458.040	800.000	0.045	0.142
-457.026	142.052	0.153	-0.205
-456.011	-112.003	-0.042	-0.009
-454.997	22.525	0.130	-0.107
-453.982	-110.728	-0.256	-0.053
-452.968	13.228	-0.121	-0.094
-451.953	-108.307	0.029	0.006
-450.938	-200.000	0.015	0.289
-449.924	12.073	-0.171	-0.133
-448.909	800.000	0.014	-0.058
-447.895	146.138	0.160	0.216
-446.880	-127.420	0.115	-0.017
-445.865	-123.370	0.149	-0.024
-444.851	-114.426	0.157	0.031
-443.836	-200.000	-0.015	0.453
-442.822	346.565	-0.046	-0.090
-441.807	-69.071	0.196	-0.076
-440.792	-98.883	-0.217	-0.056
-439.778	6.839	0.237	-0.179
-438.763	256.395	-0.158	-0.275
-437.749	87.929	-0.013	0.014
-436.734	372.825	-0.087	0.179
-435.719	98.268	0.141	-0.164
-434.705	67.839	0.183	0.189
-433.690	-2.547	0.204	-0.145
-432.676	303.420	-0.115	-0.214
-431.661	-130.150	-0.168	-0.023
-430.646	-147.560	-0.284	-0.024
-429.632	-200.000	0.046	-0.261
-428.617	166.961	-0.039	0.056
-427.603	284.132	-0.154	0.279
-426.588	-200.000	0.049	0.305
-425.573	800.000	0.023	0.086
-424.559	-200.000	0.043	-0.362
-423.544	-99.576	-0.176	0.045
-422.530	-200.000	0.014	0.282
-421.515	-148.002	-0.241	-0.020
-420.500	-151.437	0.356	-0.027
-419.486	-37.749	0.148	-0.079
-418.471	-57.672	-0.338	-0.149
-417.457	302.643	-0.075	-0.140
-416.442	-126.814	-0.281	0.042
-415.428	-10.914	-0.094	0.063
-414.413	18.510	-0.212	0.171
-413.398	-2.354	-0.222	-0.157
-412.384	-200.000	0.005	0.148
-411.369	160.084	0.120	-0.169
-410.355	800.000	-0.103	-0.370
-409.340	-200.000	0.019	-0.093
-408.325	22.416	-0.117	0.096
-407.311	-56.786	-0.251	0.112
-406.296	129.212	0.058	0.075
-405.282	-200.000	-0.011	0.196
-404.267	-200.000	0.015	-0.178
-403.252	12.452	0.359	-0.279
-402.238	334.451	-0.179	0.349
-401.223	216.273	0.079	-0.127
-400.209	-74.453	0.171	0.062
-399.194	369.454	-0.049	0.101
-398.179	133.833	0.319	0.417
-397.165	-21.938	0.118	-0.072
-396.150	188.824	0.083	0.125
-395.136	-121.912	-0.293	0.049
-394.121	207.652	0.191	-0.301
-393.106	800.000	-0.085	0.340
-392.092	196.576	-0.106	-0.163
-391.077	-121.436	-0.292	0.049
-390.063	-200.000	0.003	-0.015
-389.048	-155.912	-0.377	0.024
-388.033	285.435	-0.116	-0.211
-387.019	-61.497	-0.115	0.049
-386.004	-132.251	0.074	0.010
-384.990	171.017	0.118	-0.170
-383.975	-200.000	0.001	0.133
-382.960	800.000	-0.082	0.280
-381.946	-77.749	0.232	-0.081
-380.931	78.616	0.130	-0.140
-379.917	-23.325	0.196	0.118
-378.902	53.334	0.255	-0.246
-377.888	-128.973	0.272	0.038
-376.873	6.084	-0.215	-0.160
-375.858	29.371	0.124	-0.106
-374.844	-200.000	-0.005	-0.121
-373.829	126.378	-0.175	0.223
-372.815	316.277	0.149	-0.283
-371.800	10.617	0.269	0.206
-370.785	62.924	0.162	-0.164
-369.771	186.578	-0.119	-0.179
-368.756	-147.469	-0.156	0.013
-367.742	30.916	0.100	-0.086
-366.727	-104.443	0.162	-0.038
-365.712	55.586	-0.149	-0.145
-364.698	800.000	0.076	-0.295
-363.683	263.597	0.070	-0.123
-362.669	-74.592	-0.197	-0.071
-361.654	800.000	-0.064	0.269
-360.639	35.968	0.194	0.172
-359.625	0.515	-0.335	-0.241
-358.610	-139.314	-0.285	-0.031
-357.596	80.293	-0.064	-0.070
-356.581	19.057	0.098	0.079
-355.566	-154.029	-0.187	-0.013
-354.552	-69.786	-0.396	0.152
-353.537	469.215	0.175	-0.396
-352.523	666.242	-0.076	0.198
-351.508	94.798	0.092	-0.106
-350.493	60.224	-0.232	-0.231
-349.479	22.009	0.178	0.146
-348.464	8.340	0.251	0.190
-347.450	246.837	0.021	0.035
-346.435	323.086	0.175	-0.335
-345.420	160.872	-0.166	-0.233
-344.406	-69.108	0.316	-0.122
-343.391	-134.461	0.489	0.060
-342.377	-193.892	0.214	-0.002
-341.362	-200.000	0.059	0.444
-340.348	64.803	0.230	0.234
-339.333	-200.000	0.009	-0.362
-338.318	2.173	-0.091	-0.066
-337.304	544.267	-0.075	0.181
-336.289	-98.929	0.138	0.035
-335.275	-200.000	-0.009	0.040
-334.260	-200.000	-0.009	0.107
-333.245	5.434	-0.203	0.151
-332.231	96.973	0.109	0.126
-331.216	264.655	0.160	0.281
-330.202	-200.000	-0.068	0.678
-329.187	443.878	-0.063	0.140
-328.172	242.810	0.140	-0.235
-327.158	156.843	-0.085	-0.118
-326.143	-166.284	0.538	0.023
-325.129	-112.924	-0.337	0.067
-324.114	-79.418	-0.206	0.070
-323.099	800.000	-0.041	0.148
-322.085	-97.953	0.200	-0.052
-321.070	-125.705	-0.318	0.048
-320.056	50.053	0.183	0.174
-319.041	-73.533	-0.290	-0.106
-318.026	321.349	-0.125	-0.240
-317.012	-116.112	-0.233	-0.043
-315.997	800.000	0.012	-0.040
-314.983	-76.031	0.202	0.072
-313.968	-77.195	-0.140	0.049
-312.953	-200.000	0.070	0.366
-311.939	-200.000	-0.009	0.097
-310.924	262.081	0.031	-0.054
-309.910	-161.561	0.357	-0.018
-308.895	-33.397	-0.220	-0.122
-307.880	199.916	0.223	-0.343
-306.866	107.828	-0.129	-0.154
-305.851	-28.830	-0.057	0.033
-304.837	9.859	-0.269	0.205
-303.822	-24.743	0.105	-0.062
-302.807	-119.125	0.262	0.046
-301.793	-200.000	0.024	0.151
-300.778	-200.000	-0.061	0.322
-299.764	205.105	0.151	-0.235
-298.749	45.911	-0.261	-0.243
-297.735	-130.732	0.203	0.027
-296.720	552.075	-0.085	0.204
-295.705	-200.000	-0.018	0.144
-294.691	-3.425	0.216	-0.151
-293.676	-50.915	-0.212	0.100
-292.662	550.767	-0.200	0.482
-291.647	800.000	0.082	0.264
-290.632	-91.715	0.264	0.075
-289.618	76.276	-0.059	0.063
-288.603	-200.000	0.008	-0.179
-287.589	-119.248	0.017	0.003
-286.574	-175.407	-0.320	-0.009
-285.559	-58.114	-0.116	-0.051
-284.545	223.698	0.052	0.084
-283.530	-57.164	0.163	0.072
-282.516	-109.878	0.276	-0.058
-281.501	800.000	-0.066	-0.238
-280.486	336.448	-0.178	-0.346
-279.472	400.728	0.050	-0.105
-278.457	41.387	0.135	0.123
-277.443	800.000	0.049	0.203
-276.428	-86.565	-0.171	-0.053
-275.413	13.478	0.243	-0.189
-274.399	39.822	-0.212	0.191
-273.384	-95.905	-0.262	-0.070
-272.370	-14.362	-0.170	-0.110
-271.355	-200.000	-0.038	-0.196
-270.340	46.504	0.151	-0.141
-269.326	-54.934	-0.210	-0.095
-268.311	139.839	0.256	-0.339
-267.297	-95.258	-0.185	-0.050
-266.282	351.507	0.021	0.041
-265.267	27.667	0.115	0.097
-264.253	-148.528	-0.137	0.011
-263.238	-135.258	0.201	0.024
-262.224	-148.270	-0.390	-0.032
-261.209	125.919	0.215	0.272
-260.195	800.000	-0.012	-0.044
-259.180	800.000	0.059	0.226
-258.165	-91.437	-0.217	-0.062
-257.151	-12.987	0.183	-0.119
-256.136	-148.519	0.117	0.010
-255.122	379.960	0.125	0.256
-254.107	472.815	0.059	-0.133
-253.092	-2.350	0.259	0.182
-252.078	18.025	-0.108	-0.086
-251.063	89.247	0.148	0.165
-250.049	-168.175	0.076	0.003
-249.034	-200.000	0.001	0.363
-248.019	-55.766	0.381	-0.171
-247.005	-83.776	-0.029	-0.009
-245.990	-4.046	-0.398	-0.277
-244.976	-81.804	0.009	0.003
-243.961	800.000	-0.048	-0.195
-242.946	-30.061	-0.225	-0.128
-241.932	-93.310	0.289	0.080
-240.917	-67.685	-0.218	-0.085
-239.903	-27.463	-0.247	0.144
-238.888	-200.000	0.003	-0.173
-237.873	-117.123	0.263	-0.048
-236.859	573.555	-0.109	-0.266
-235.844	-144.694	0.270	-0.025
-234.830	438.528	-0.207	-0.452
-233.815	-39.637	-0.175	-0.092
-232.800	800.000	-0.084	-0.243
-231.786	-200.000	0.030	0.171
-230.771	800.000	-0.163	-0.522
-229.757	8.444	0.227	0.171
-228.742	-137.210	0.113	-0.013
-227.727	-128.338	-0.070	-0.010
-226.713	800.000	0.039	0.135
-225.698	345.538	-0.102	0.201
-224.684	-39.428	-0.186	-0.098
-223.669	33.592	-0.113	0.099
-222.655	-186.988	0.148	0.002
-221.640	104.881	-0.091	-0.108
-220.625	-154.677	-0.185	-0.012
-219.611	186.756	0.085	0.127
-218.596	278.503	-0.169	0.301
-217.582	-200.000	0.050	0.330
-216.567	-96.879	-0.020	0.005
-215.552	-106.514	0.217	0.048
-214.538	171.451	0.066	0.095
-213.523	-100.032	-0.206	-0.051
-212.509	-69.519	-0.313	0.120
-211.494	-55.564	0.077	-0.034
-210.479	-82.187	0.324	0.106
-209.465	-53.463	-0.167	0.077
-208.450	-124.932	0.333	0.051
-207.436	9.258	0.147	-0.111
-206.421	493.257	-0.027	-0.061
-205.406	118.646	-0.228	0.282
-204.392	-200.000	0.003	-0.179
-203.377	-200.000	0.008	0.213
-202.363	-134.882	0.326	-0.039
-201.348	165.754	-0.283	-0.401
-200.333	-200.000	0.038	0.343
-199.319	-200.000	0.000	-0.024
-198.304	155.167	-0.017	0.024
-197.290	460.208	0.132	-0.293
-196.275	-166.467	-0.155	0.006
-195.260	-102.250	-0.297	0.071
-194.246	-59.944	0.103	0.044
-193.231	409.113	0.088	0.187
-192.217	-58.632	-0.449	0.194
-191.202	21.810	0.213	-0.174
-190.187	292.345	-0.078	0.142
-189.173	-196.542	0.150	0.001
-188.158	-117.895	-0.093	-0.017
-187.144	-52.884	-0.222	0.102
-186.129	29.076	0.291	0.247
-185.114	-17.300	0.129	-0.081
-184.100	800.000	-0.055	-0.234
-183.085	343.389	-0.113	0.221
-182.071	95.094	0.142	0.162
-181.056	-105.496	-0.169	0.038
-180.042	-200.000	-0.021	0.151
-179.027	3.965	-0.198	0.145
-178.012	800.000	-0.100	0.310
-176.998	800.000	-0.065	-0.212
-175.983	-200.000	0.013	-0.119
-174.969	-72.290	-0.212	0.079
-173.954	333.250	0.080	-0.154
-172.939	-200.000	0.017	0.086
-171.925	800.000	0.044	0.191
-170.910	-6.593	0.385	-0.262
-169.896	687.980	-0.105	-0.276
-168.881	544.494	0.052	-0.123
-167.866	-84.634	-0.203	0.064
-166.852	307.697	0.117	-0.217
-165.837	-164.228	0.239	-0.011
-164.823	-120.772	-0.288	0.049
-163.808	0.069	-0.207	0.147
-162.793	-200.000	0.023	-0.150
-161.779	-77.416	0.062	-0.022
-160.764	-71.138	0.129	0.048
-159.750	-122.195	-0.254	0.041
-158.735	-29.473	0.352	-0.201
-157.720	-52.905	0.203	-0.093
-156.706	-51.265	-0.211	0.099
-155.691	351.793	0.038	-0.075
-154.677	-162.571	0.328	0.016
-153.662	-110.303	0.153	-0.032
-152.647	-7.081	0.110	0.075
-151.633	110.603	0.136	0.164
-150.618	-200.000	-0.004	-0.133
-149.604	800.000	-0.086	0.250
-148.589	-109.154	0.313	0.066
-147.574	128.317	0.098	0.125
-146.560	-172.304	0.377	-0.012
-145.545	-200.000	0.003	0.279
-144.531	233.132	0.142	-0.234
-143.516	800.000	0.069	0.232
-142.502	134.321	-0.191	0.247
-141.487	37.442	0.194	0.172
-140.472	-96.058	0.133	0.035
-139.458	225.768	0.171	-0.277
-138.443	164.921	-0.069	-0.097
-137.429	145.813	0.271	0.362
-136.414	-148.285	0.227	0.019
-135.399	-125.617	0.396	-0.060
-134.385	141.508	-0.203	-0.268
-133.370	-200.000	0.012	0.222
-132.356	-20.998	0.050	0.031
-131.341	-59.720	-0.213	0.091
-130.326	-116.973	0.095	0.017
-129.312	47.383	-0.068	-0.063
-128.297	-200.000	-0.007	0.056
-127.283	-108.783	0.249	-0.053
-126.268	13.132	-0.240	-0.185
-125.253	214.921	0.205	0.324
-124.239	800.000	-0.128	-0.432
-123.224	-2.889	-0.110	0.077
-122.210	-69.399	0.048	-0.018
