DTS Sentinel unit serial number:	SN413079Multiplexer serial number:	ORYXHardware model number:	OX4-SRSoftware version number:	ORYX F/W v4.00 Oryx Data Collector v3.7.2.0data status	okinstallation	princeton_trtdifferential loss correction	single-endedforward channel	channel 4reverse channel	N/Adate	2019/09/11time	02:39:11forward acquisition time	60.00reverse acquisition time	0.00gamma	496.2192k internal	0.2317k external	0.2317temperature offset calibration	0.9950default loss term (dB/km)	0.3790temperature slope calibration	1.0000multiplexer offset coefficient	1.0000multiplexer slope coefficient	1.0000fibre end	0.00T internal ref (°C)	29.25T ext. ref 1 (°C)	-0.32T ext. ref 2 (°C)	23.14length (m)	temperature (°C)	Stokes	anti-Stokes-747.200	258.586	-0.091	-0.159
-746.185	21.323	-0.233	0.192
-745.171	-200.000	0.004	0.216
-744.156	-200.000	-0.011	-0.084
-743.142	0.170	0.118	0.085
-742.127	-46.967	-0.466	0.230
-741.112	-141.212	-0.443	-0.046
-740.098	-200.000	-0.036	0.327
-739.083	328.764	0.093	0.181
-738.069	-114.595	-0.444	-0.086
-737.054	-45.300	0.245	-0.123
-736.039	-200.000	-0.013	0.393
-735.025	222.362	0.184	-0.300
-734.010	-81.587	-0.186	-0.062
-732.996	-119.070	-0.061	-0.011
-731.981	251.416	-0.099	-0.170
-730.966	56.504	0.078	-0.077
-729.952	-28.585	-0.083	0.049
-728.937	-125.380	-0.314	-0.049
-727.923	-31.138	-0.062	-0.036
-726.908	-200.000	0.024	-0.222
-725.894	-200.000	-0.019	-0.161
-724.879	-180.086	0.199	0.004
-723.864	35.666	-0.170	-0.151
-722.850	141.681	0.045	-0.060
-721.835	-200.000	0.004	-0.157
-720.821	-152.207	-0.127	0.009
-719.806	129.786	-0.219	-0.283
-718.791	-95.545	-0.214	-0.058
-717.777	-0.465	-0.174	0.125
-716.762	-52.213	-0.309	-0.145
-715.748	219.162	0.132	0.213
-714.733	-57.713	0.431	0.191
-713.718	800.000	0.029	-0.123
-712.704	32.154	-0.190	-0.166
-711.689	-116.708	0.339	-0.063
-710.675	800.000	-0.103	-0.361
-709.660	223.077	-0.067	-0.109
-708.645	-163.743	-0.229	-0.011
-707.631	163.829	0.066	-0.094
-706.616	-200.000	-0.001	-0.087
-705.602	-138.031	0.213	-0.024
-704.587	-149.013	0.143	0.012
-703.572	329.622	-0.050	-0.097
-702.558	-16.555	-0.254	0.163
-701.543	203.704	-0.263	-0.411
-700.529	-11.644	0.297	0.197
-699.514	-54.365	0.298	0.136
-698.499	297.753	-0.067	-0.125
-697.485	26.430	-0.412	-0.348
-696.470	-45.294	0.179	-0.090
-695.456	377.620	-0.069	-0.142
-694.441	132.280	-0.033	0.043
-693.426	-12.248	0.105	-0.070
-692.412	126.830	0.150	0.192
-691.397	329.398	0.040	0.077
-690.383	-200.000	0.037	-0.215
-689.368	-36.868	-0.137	0.074
-688.354	-164.743	-0.282	0.013
-687.339	-7.277	-0.119	0.082
-686.324	539.556	0.176	-0.422
-685.310	-23.315	-0.035	0.022
-684.295	-171.280	-0.307	-0.010
-683.281	800.000	-0.016	0.052
-682.266	-200.000	0.047	-0.236
-681.251	-200.000	-0.020	-0.184
-680.237	-67.000	-0.231	-0.092
-679.222	-68.852	-0.142	0.055
-678.208	217.369	0.117	-0.188
-677.193	272.552	0.062	0.111
-676.178	-200.000	0.079	-0.465
-675.164	-130.305	-0.223	0.031
-674.149	154.830	-0.058	0.081
-673.135	-162.726	0.125	-0.006
-672.120	-47.322	-0.032	-0.016
-671.105	-89.416	0.128	0.038
-670.091	-200.000	-0.011	-0.064
-669.076	-200.000	0.019	0.107
-668.062	105.289	-0.256	-0.305
-667.047	-200.000	-0.014	-0.077
-666.032	-200.000	0.044	-0.399
-665.018	-48.523	0.073	-0.036
-664.003	-200.000	0.010	0.124
-662.989	172.275	-0.125	0.182
-661.974	141.926	-0.144	0.193
-660.959	240.366	0.038	0.064
-659.945	-53.872	-0.309	-0.142
-658.930	-112.606	-0.400	-0.080
-657.916	697.286	-0.023	0.061
-656.901	800.000	-0.092	-0.307
-655.886	-42.345	0.074	-0.038
-654.872	-200.000	0.045	0.253
-653.857	-59.085	-0.093	0.040
-652.843	-164.672	0.388	0.018
-651.828	-43.983	-0.119	-0.061
-650.814	457.197	-0.157	0.352
-649.799	413.934	-0.009	0.020
-648.784	6.352	0.180	0.135
-647.770	-200.000	0.009	-0.060
-646.755	-163.494	-0.142	-0.007
-645.741	-79.965	0.131	-0.045
-644.726	81.587	0.130	-0.142
-643.711	-33.943	0.203	-0.113
-642.697	800.000	-0.031	-0.126
-641.682	-200.000	-0.043	-0.338
-640.668	179.587	0.150	0.222
-639.653	82.294	-0.177	-0.194
-638.638	-127.471	0.250	0.037
-637.624	800.000	0.074	-0.269
-636.609	281.452	0.030	0.054
-635.595	120.737	0.168	0.211
-634.580	399.761	-0.031	0.066
-633.565	742.065	0.042	0.115
-632.551	-61.068	-0.270	-0.115
-631.536	338.571	-0.003	0.007
-630.522	217.897	-0.174	0.280
-629.507	800.000	-0.075	-0.287
-628.492	648.974	-0.070	-0.179
-627.478	389.476	-0.042	-0.087
-626.463	151.215	-0.160	-0.220
-625.449	-10.348	-0.049	0.032
-624.434	-200.000	-0.010	-0.321
-623.419	379.682	-0.140	-0.288
-622.405	-200.000	-0.016	0.263
-621.390	287.309	0.165	0.300
-620.376	-105.011	-0.317	-0.073
-619.361	800.000	-0.073	-0.240
-618.346	-7.539	-0.144	0.098
-617.332	800.000	0.022	-0.081
-616.317	-200.000	0.021	-0.203
-615.303	116.907	-0.082	-0.101
-614.288	91.202	0.140	-0.158
-613.273	800.000	0.014	-0.048
-612.259	-26.281	0.271	0.160
-611.244	-53.690	-0.398	0.183
-610.230	-140.661	-0.172	0.018
-609.215	800.000	-0.079	0.261
-608.201	56.267	-0.249	-0.244
-607.186	44.101	-0.104	-0.096
-606.171	85.313	-0.158	0.175
-605.157	80.288	-0.031	0.033
-604.142	-200.000	-0.063	0.646
-603.128	78.073	0.072	0.077
-602.113	-10.722	0.101	0.067
-601.098	164.347	0.151	-0.215
-600.084	-127.392	0.316	-0.046
-599.069	800.000	0.025	-0.109
-598.055	142.534	-0.114	0.152
-597.040	-200.000	-0.022	0.142
-596.025	-39.459	0.031	-0.017
-595.011	33.018	0.201	-0.175
-593.996	157.606	-0.052	0.072
-592.982	113.397	0.122	0.149
-591.967	-47.220	-0.199	-0.097
-590.952	-18.987	0.025	0.015
-589.938	-73.371	0.332	-0.122
-588.923	422.141	-0.020	0.042
-587.909	-68.366	-0.087	0.034
-586.894	-200.000	0.007	0.146
-585.879	-160.233	0.332	-0.018
-584.865	-118.820	-0.395	-0.070
-583.850	671.362	0.034	-0.088
-582.836	-135.357	0.124	-0.015
-581.821	-98.540	-0.273	0.070
-580.806	77.598	-0.105	0.113
-579.792	-162.815	-0.389	-0.019
-578.777	156.615	0.226	0.313
-577.763	678.081	0.073	-0.190
-576.748	-121.842	0.176	0.029
-575.733	19.311	0.268	-0.217
-574.719	-98.726	-0.131	-0.034
-573.704	27.657	-0.228	-0.193
-572.690	287.547	-0.090	0.163
-571.675	41.761	-0.156	-0.143
-570.661	85.252	0.198	0.218
-569.646	61.096	-0.217	-0.217
-568.631	800.000	0.029	0.116
-567.617	123.946	0.018	0.023
-566.602	-64.244	0.093	-0.038
-565.588	10.684	-0.129	0.099
-564.573	-121.857	0.068	0.011
-563.558	-200.000	0.010	0.154
-562.544	-102.097	0.228	-0.055
-561.529	-200.000	0.001	-0.136
-560.515	-200.000	0.001	0.146
-559.500	17.484	-0.182	0.145
-558.485	800.000	0.127	-0.364
-557.471	-200.000	0.005	0.044
-556.456	800.000	-0.133	-0.387
-555.442	-200.000	0.041	0.203
-554.427	42.982	-0.027	-0.024
-553.412	-77.348	-0.087	-0.030
-552.398	-200.000	-0.009	0.366
-551.383	-38.689	-0.145	-0.077
-550.369	35.458	-0.162	-0.143
-549.354	250.511	0.036	-0.062
-548.339	-75.127	0.023	-0.008
-547.325	244.487	0.103	0.174
-546.310	217.459	-0.109	-0.175
-545.296	-108.444	0.171	0.037
-544.281	153.381	0.231	0.318
-543.266	-86.196	-0.215	-0.067
-542.252	-11.000	0.216	0.143
-541.237	103.339	0.104	0.122
-540.223	497.860	-0.147	-0.339
-539.208	20.286	-0.135	0.109
-538.193	83.878	-0.127	0.139
-537.179	-200.000	0.025	0.117
-536.164	-37.339	-0.110	-0.059
-535.150	-94.694	0.422	-0.115
-534.135	-8.800	0.230	0.155
-533.121	-200.000	0.061	0.271
-532.106	-118.870	-0.127	0.022
-531.091	399.413	0.028	0.059
-530.077	291.853	0.073	0.133
-529.062	-141.482	-0.116	-0.012
-528.048	-200.000	0.001	-0.014
-527.033	-200.000	-0.036	0.379
-526.018	-200.000	-0.017	0.313
-525.004	800.000	-0.083	-0.330
-523.989	-128.021	0.023	0.003
-522.975	60.516	0.123	-0.122
-521.960	128.867	-0.402	0.515
-520.945	-200.000	-0.010	0.247
-519.931	127.789	0.069	0.088
-518.916	-158.170	0.099	0.006
-517.902	-200.000	-0.012	-0.150
-516.887	476.350	-0.252	0.571
-515.872	383.528	-0.133	0.274
-514.858	-77.993	0.049	-0.017
-513.843	-102.309	0.115	-0.028
-512.829	-101.659	0.026	0.006
-511.814	142.063	0.085	-0.113
-510.799	90.109	-0.101	0.114
-509.785	-200.000	-0.011	-0.138
-508.770	133.186	-0.047	-0.061
-507.756	21.872	-0.251	0.206
-506.741	28.034	0.164	-0.139
-505.726	189.212	0.009	0.013
-504.712	-24.507	-0.428	0.256
-503.697	800.000	-0.073	0.269
-502.683	-190.718	-0.184	0.002
-501.668	800.000	0.035	-0.142
-500.653	407.229	0.094	-0.199
-499.639	254.555	0.083	0.143
-498.624	-135.909	-0.120	0.014
-497.610	-65.276	-0.223	0.090
-496.595	-94.818	0.157	0.043
-495.581	11.055	-0.041	-0.032
-494.566	379.764	0.122	0.251
-493.551	-17.442	0.098	0.062
-492.537	-105.776	-0.237	0.054
-491.522	-200.000	0.005	0.188
-490.508	-200.000	0.006	-0.058
-489.493	347.846	0.219	0.434
-488.478	525.046	0.137	-0.323
-487.464	105.908	-0.147	-0.174
-486.449	-1.214	-0.238	0.168
-485.435	296.038	0.147	-0.270
-484.420	109.254	-0.106	-0.127
-483.405	800.000	-0.082	0.285
-482.391	-174.802	0.515	0.015
-481.376	-133.326	-0.252	-0.032
-480.362	-126.297	-0.181	0.027
-479.347	182.968	0.130	-0.192
-478.332	-50.238	0.268	0.127
-477.318	19.014	0.219	-0.176
-476.303	102.026	0.158	0.185
-475.289	-200.000	0.013	0.246
-474.274	320.403	-0.066	-0.126
-473.259	9.958	-0.199	0.151
-472.245	-73.076	-0.225	0.083
-471.230	-51.206	-0.394	-0.185
-470.216	368.935	-0.073	0.147
-469.201	322.196	-0.066	-0.125
-468.186	-200.000	-0.043	0.214
-467.172	800.000	0.038	-0.129
-466.157	-200.000	-0.020	0.167
-465.143	159.109	0.152	-0.212
-464.128	-46.510	0.121	0.059
-463.113	55.530	0.116	0.113
-462.099	-200.000	-0.047	-0.225
-461.084	-88.004	0.340	0.102
-460.070	800.000	-0.098	-0.282
-459.055	50.048	0.158	0.150
-458.040	87.418	0.142	-0.157
-457.026	18.844	0.113	0.091
-456.011	-200.000	-0.026	-0.190
-454.997	-200.000	0.068	-0.342
-453.982	800.000	0.028	-0.117
-452.968	69.600	-0.083	0.086
-451.953	55.850	-0.263	-0.256
-450.938	-115.411	0.174	-0.033
-449.924	-131.016	-0.482	-0.064
-448.909	-82.752	0.244	-0.079
-447.895	630.127	-0.053	0.134
-446.880	248.352	0.096	0.163
-445.865	-110.989	-0.289	0.059
-444.851	42.274	0.083	0.076
-443.836	-53.912	0.118	-0.054
-442.822	-154.712	-0.356	-0.024
-441.807	-200.000	0.007	0.410
-440.792	800.000	0.027	0.100
-439.778	791.912	0.111	-0.305
-438.763	492.701	-0.083	0.190
-437.749	75.792	0.036	-0.038
-436.734	71.104	-0.090	0.093
-435.719	-200.000	0.066	0.296
-434.705	800.000	0.076	0.282
-433.690	112.131	0.108	-0.130
-432.676	356.276	0.021	-0.042
-431.661	-49.782	-0.277	0.132
-430.646	103.820	0.095	0.112
-429.632	-54.729	-0.160	-0.072
-428.617	316.755	0.028	-0.053
-427.603	-39.149	0.141	0.074
-426.588	182.557	0.031	0.046
-425.573	14.617	-0.192	0.150
-424.559	-98.697	-0.251	0.064
-423.544	-150.797	-0.285	-0.022
-422.530	-86.358	-0.245	0.075
-421.515	-7.868	0.173	0.117
-420.500	-44.200	-0.373	0.187
-419.486	170.916	0.232	0.333
-418.471	523.181	-0.036	0.084
-417.457	42.968	0.049	-0.044
-416.442	-79.555	0.301	-0.102
-415.428	-19.116	-0.198	-0.123
-414.413	-118.380	0.168	-0.030
-413.398	113.184	0.078	0.094
-412.384	-90.803	0.122	0.035
-411.369	-80.227	0.250	-0.084
-410.355	-77.718	0.343	-0.118
-409.340	-74.049	-0.162	0.059
-408.325	-55.028	-0.224	0.101
-407.311	419.683	-0.116	0.248
-406.296	141.743	0.220	0.292
-405.282	-159.387	-0.233	-0.013
-404.267	183.192	0.041	-0.061
-403.252	391.419	-0.072	-0.150
-402.238	-70.658	0.121	-0.046
-401.223	478.056	-0.058	0.132
-400.209	800.000	0.014	0.057
-399.194	-2.627	0.175	0.122
-398.179	22.179	-0.097	0.079
-397.165	255.127	-0.128	-0.220
-396.150	800.000	-0.117	-0.431
-395.136	-200.000	-0.010	-0.299
-394.121	46.831	0.157	-0.146
-393.106	412.017	0.105	-0.222
-392.092	-144.272	-0.084	0.008
-391.077	473.045	-0.068	-0.154
-390.063	-127.779	-0.225	0.032
-389.048	481.580	0.113	-0.256
-388.033	-200.000	-0.004	-0.264
-387.019	-57.066	0.243	0.107
-386.004	-200.000	-0.023	0.246
-384.990	481.788	-0.106	-0.240
-383.975	800.000	0.065	-0.237
-382.960	226.980	-0.141	-0.229
-381.946	-134.520	0.062	0.008
-380.931	-44.539	-0.060	-0.030
-379.917	156.055	-0.038	0.052
-378.902	-200.000	0.050	-0.236
-377.888	-156.238	0.369	-0.023
-376.873	-104.232	-0.231	0.054
-375.858	-42.593	-0.246	0.125
-374.844	-135.922	-0.189	0.022
-373.829	-200.000	-0.016	-0.226
-372.815	-33.695	0.129	-0.071
-371.800	-54.184	0.123	0.056
-370.785	-153.161	-0.148	-0.010
-369.771	108.804	-0.167	0.199
-368.756	6.141	0.107	0.079
-367.742	800.000	-0.078	-0.301
-366.727	-104.086	0.168	-0.039
-365.712	-52.621	0.279	0.128
-364.698	-42.365	0.228	0.116
-363.683	15.576	-0.405	-0.317
-362.669	2.314	-0.105	-0.075
-361.654	-128.186	0.164	-0.023
-360.639	-30.512	0.180	0.102
-359.625	800.000	-0.011	0.042
-358.610	-200.000	0.038	0.207
-357.596	-16.494	-0.312	0.197
-356.581	-12.392	-0.168	0.110
-355.566	137.825	-0.075	-0.098
-354.552	-123.113	0.313	0.050
-353.537	533.135	-0.063	-0.148
-352.523	-200.000	-0.007	-0.117
-351.508	-184.087	-0.096	0.002
-350.493	-59.866	-0.236	-0.100
-349.479	424.374	0.128	0.274
-348.464	95.164	0.077	-0.087
-347.450	-96.657	0.288	-0.076
-346.435	-95.386	0.266	0.071
-345.420	238.903	0.029	-0.048
-344.406	-27.833	0.195	0.113
-343.391	-83.770	-0.208	0.066
-342.377	-146.198	-0.370	-0.032
-341.362	25.996	-0.314	-0.261
-340.348	650.631	0.094	0.240
-339.333	-150.441	-0.209	0.016
-338.318	-160.050	0.147	-0.008
-337.304	-13.782	0.052	-0.034
-336.289	148.428	-0.036	0.049
-335.275	146.429	0.088	-0.118
-334.260	10.306	0.187	0.141
-333.245	-154.504	-0.148	0.010
-332.231	-110.547	0.111	-0.023
-331.216	33.926	0.133	-0.116
-330.202	-17.205	0.108	0.068
-329.187	-107.059	0.193	0.042
-328.172	-41.864	-0.196	-0.100
-327.158	219.392	0.206	-0.328
-326.143	-158.497	0.164	-0.009
-325.129	294.911	-0.145	0.263
-324.114	91.052	0.114	-0.127
-323.099	13.308	0.150	-0.116
-322.085	-85.428	0.136	-0.042
-321.070	-200.000	-0.032	-0.404
-320.056	-14.805	-0.285	0.182
-319.041	-158.305	-0.199	0.012
-318.026	-200.000	0.034	-0.207
-317.012	-105.183	0.357	-0.081
-315.997	800.000	0.050	0.156
-314.983	-44.450	0.214	0.107
-313.968	-62.160	-0.472	0.196
-312.953	382.095	0.047	0.096
-311.939	111.893	-0.132	-0.158
-310.924	213.912	0.104	0.163
-309.910	188.584	0.233	-0.346
-308.895	800.000	0.016	0.067
-307.880	-200.000	-0.039	0.377
-306.866	-115.026	-0.385	-0.073
-305.851	240.897	0.188	-0.312
-304.837	-200.000	0.033	0.240
-303.822	800.000	0.060	-0.231
-302.807	-94.155	0.031	0.009
-301.793	203.918	-0.136	0.210
-300.778	-200.000	0.021	-0.258
-299.764	-112.723	-0.034	-0.007
-298.749	20.084	-0.096	-0.077
-297.735	39.475	0.177	0.157
-296.720	-143.920	-0.549	-0.051
-295.705	554.977	0.171	0.410
-294.691	356.196	-0.253	-0.502
-293.676	800.000	0.056	-0.180
-292.662	-146.697	0.261	0.022
-291.647	26.188	0.144	-0.120
-290.632	228.194	-0.053	-0.086
-289.618	-68.110	0.225	0.087
-288.603	-42.236	0.118	-0.060
-287.589	27.634	-0.024	0.020
-286.574	60.870	0.329	-0.325
-285.559	226.780	-0.170	-0.275
-284.545	523.756	0.051	0.118
-283.530	-110.381	-0.113	0.023
-282.516	800.000	0.014	-0.049
-281.501	-133.959	-0.438	0.054
-280.486	-159.373	-0.235	-0.013
-279.472	316.692	0.158	-0.296
-278.457	174.108	0.127	-0.183
-277.443	68.681	-0.115	-0.117
-276.428	-99.455	-0.443	0.111
-275.413	653.002	0.118	-0.301
-274.399	-131.747	-0.599	0.078
-273.384	-169.271	0.066	0.002
-272.370	-0.186	-0.048	-0.034
-271.355	-200.000	-0.048	-0.439
-270.340	-200.000	0.004	-0.216
-269.326	800.000	0.064	-0.181
-268.311	254.188	0.133	-0.226
-267.297	-56.487	-0.150	0.066
-266.282	800.000	0.055	-0.196
-265.267	126.250	-0.098	0.123
-264.253	-200.000	0.028	0.205
-263.238	-35.121	-0.218	-0.118
-262.224	-2.894	0.099	0.069
-261.209	-200.000	0.028	0.153
-260.195	-114.210	-0.307	0.059
-259.180	-73.635	0.272	-0.099
-258.165	456.230	0.168	-0.369
-257.151	90.366	0.239	0.266
-256.136	-200.000	-0.030	0.214
-255.122	233.941	0.121	0.198
-254.107	-179.503	0.309	-0.007
-253.092	676.003	-0.109	0.282
-252.078	448.567	-0.075	-0.164
-251.063	-200.000	-0.081	-0.381
-250.049	56.900	-0.173	-0.167
-249.034	3.396	-0.267	0.193
-248.019	16.672	-0.141	0.111
-247.005	541.130	0.034	-0.080
-245.990	-102.161	-0.131	0.031
-244.976	137.541	-0.121	-0.157
-243.961	-200.000	0.039	0.180
-242.946	-129.488	0.126	-0.017
-241.932	-200.000	-0.011	0.175
-240.917	-168.084	0.296	0.011
-239.903	800.000	0.116	0.426
-238.888	-200.000	0.006	0.159
-237.873	69.493	0.095	0.097
-236.859	-30.739	0.060	0.034
-235.844	517.516	0.201	-0.467
-234.830	53.317	-0.136	0.129
-233.815	-141.184	-0.143	0.014
-232.800	254.221	0.150	-0.254
-231.786	317.497	0.108	0.202
-230.771	-200.000	-0.032	-0.193
-229.757	-85.111	0.206	-0.064
-228.742	22.382	0.082	0.066
-227.727	32.313	-0.202	0.173
-226.713	-72.592	0.263	-0.096
-225.698	-200.000	0.029	-0.308
-224.684	-51.624	0.414	0.192
-223.669	800.000	0.047	0.191
-222.655	86.244	0.100	0.109
-221.640	-200.000	0.034	0.388
-220.625	-156.406	0.092	0.006
-219.611	-200.000	0.005	0.052
-218.596	800.000	0.055	0.215
-217.582	253.536	0.033	-0.057
-216.567	-66.961	0.155	-0.061
-215.552	55.884	0.077	0.074
-214.538	251.830	-0.172	0.291
-213.523	-154.661	0.384	0.025
-212.509	95.136	-0.267	-0.301
-211.494	-200.000	-0.073	-0.399
-210.479	-105.440	0.177	0.040
-209.465	-200.000	-0.019	0.111
-208.450	-200.000	-0.007	0.030
-207.436	-200.000	-0.005	0.225
-206.421	409.809	0.071	0.148
-205.406	800.000	-0.042	-0.129
-204.392	-3.129	0.217	0.150
-203.377	-200.000	-0.018	-0.254
-202.363	342.400	0.072	0.139
-201.348	151.246	0.083	-0.112
-200.333	-64.033	-0.250	0.101
-199.319	-182.806	0.085	-0.002
-198.304	28.942	0.295	-0.248
-197.290	-200.000	-0.002	0.301
-196.275	-104.867	0.263	0.060
-195.260	188.097	-0.120	0.177
-194.246	800.000	0.075	-0.223
-193.231	-79.303	0.244	0.082
-192.217	-31.696	-0.169	0.094
-191.202	-32.365	-0.042	0.023
-190.187	-25.780	0.188	-0.110
-189.173	-149.472	0.170	-0.013
-188.158	-200.000	-0.014	-0.227
-187.144	-74.983	-0.089	0.032
-186.129	472.485	0.040	0.090
-185.114	-20.292	0.297	0.181
-184.100	426.208	0.101	0.216
-183.085	-47.565	0.087	0.042
-182.071	64.290	0.131	0.131
-181.056	138.901	-0.134	0.175
-180.042	-73.568	0.132	0.048
-179.027	-15.898	-0.316	-0.199
-178.012	22.718	-0.107	0.087
-176.998	800.000	0.043	-0.119
-175.983	-22.756	0.156	0.094
-174.969	26.988	-0.081	-0.067
-173.954	6.290	-0.095	0.070
-172.939	-138.821	0.262	0.028
-171.925	-200.000	-0.007	0.093
-170.910	800.000	0.048	-0.204
-169.896	-200.000	-0.006	-0.421
-168.881	-25.857	0.024	0.014
-167.866	800.000	-0.007	0.024
-166.852	-73.868	0.125	0.045
-165.837	-200.000	-0.003	-0.322
-164.823	-87.430	-0.286	-0.086
-163.808	-93.100	0.305	0.084
-162.793	199.982	-0.265	0.403
-161.779	-74.723	-0.330	-0.117
-160.764	-64.467	0.113	0.045
-159.750	-167.522	-0.100	-0.004
-158.735	800.000	0.051	-0.191
-157.720	-107.054	-0.259	0.057
-156.706	165.117	0.101	-0.142
-155.691	62.959	-0.254	-0.251
-154.677	-43.251	-0.122	0.061
-153.662	800.000	0.075	-0.296
-152.647	161.076	-0.174	-0.241
-151.633	-99.424	0.408	0.102
-150.618	71.307	-0.211	0.217
-149.604	74.855	-0.172	0.179
-148.589	-200.000	-0.032	-0.206
-147.574	-40.924	-0.118	-0.060
-146.560	-175.072	-0.370	0.010
-145.545	483.519	0.031	0.071
-144.531	-200.000	-0.005	0.029
-143.516	-51.558	-0.107	0.050
-142.502	50.822	0.084	0.079
-141.487	48.318	0.238	0.220
-140.472	46.163	-0.141	-0.129
-139.458	-144.605	0.209	-0.019
-138.443	-200.000	-0.018	0.173
-137.429	556.748	-0.207	0.494
-136.414	4.198	0.221	0.160
-135.399	-200.000	0.010	0.075
-134.385	259.680	0.037	-0.064
-133.370	-200.000	-0.042	-0.280
-132.356	188.957	-0.145	-0.214
-131.341	-91.711	0.148	0.042
-130.326	35.215	0.191	-0.166
-129.312	-200.000	0.006	-0.065
-128.297	318.252	-0.111	-0.207
-127.283	183.789	0.120	-0.175
-126.268	145.199	-0.112	0.149
-125.253	-70.281	-0.085	0.032
-124.239	-114.141	0.266	-0.051
-123.224	45.744	-0.199	-0.182
-122.210	-200.000	-0.003	0.026
-121.195	800.000	-0.071	0.235
