DTS Sentinel unit serial number:	SN413079Multiplexer serial number:	ORYXHardware model number:	OX4-SRSoftware version number:	ORYX F/W v4.00 Oryx Data Collector v3.7.2.0data status	okinstallation	princeton_trtdifferential loss correction	single-endedforward channel	channel 4reverse channel	N/Adate	2019/09/17time	20:29:34forward acquisition time	60.00reverse acquisition time	0.00gamma	496.2192k internal	0.2319k external	0.2319temperature offset calibration	0.9989default loss term (dB/km)	0.3790temperature slope calibration	1.0000multiplexer offset coefficient	1.0000multiplexer slope coefficient	1.0000fibre end	0.00T internal ref (°C)	30.70T ext. ref 1 (°C)	0.21T ext. ref 2 (°C)	21.31length (m)	temperature (°C)	Stokes	anti-Stokes-747.200	-189.068	-0.285	-0.003
-746.185	318.037	-0.301	0.577
-745.171	-93.180	-0.103	-0.029
-744.156	-119.934	0.069	-0.012
-743.142	-83.824	0.272	0.088
-742.127	-200.000	0.073	0.434
-741.112	-49.233	0.287	0.139
-740.098	-52.131	-0.129	-0.061
-739.083	-125.067	0.181	0.028
-738.069	-28.637	-0.167	0.097
-737.054	98.488	0.120	-0.140
-736.039	-51.142	-0.556	0.264
-735.025	182.254	0.191	-0.285
-734.010	141.051	-0.172	-0.230
-732.996	363.973	-0.141	-0.287
-731.981	-200.000	0.000	-0.161
-730.966	70.239	-0.160	-0.168
-729.952	-130.122	-0.458	0.063
-728.937	49.660	-0.111	0.105
-727.923	-29.353	-0.265	0.153
-726.908	0.940	0.251	0.182
-725.894	-134.490	-0.193	-0.024
-724.879	-109.077	-0.224	0.048
-723.864	-200.000	-0.020	-0.263
-722.850	294.571	-0.058	-0.106
-721.835	800.000	-0.071	-0.237
-720.821	-179.683	0.212	-0.005
-719.806	800.000	-0.076	-0.260
-718.791	-99.364	-0.159	0.040
-717.777	-200.000	0.033	-0.327
-716.762	263.196	0.129	0.227
-715.748	108.673	0.115	-0.139
-714.733	-101.667	0.129	-0.032
-713.718	261.628	0.044	0.076
-712.704	-68.884	-0.080	0.031
-711.689	762.246	-0.082	-0.224
-710.675	-200.000	-0.032	-0.174
-709.660	-147.343	-0.440	0.038
-708.645	201.206	-0.026	-0.040
-707.631	-111.489	-0.157	0.032
-706.616	693.382	0.090	-0.238
-705.602	-85.344	0.075	0.024
-704.587	-127.673	-0.143	-0.021
-703.572	-70.286	-0.109	0.042
-702.558	-121.968	-0.249	0.041
-701.543	-121.672	0.174	-0.029
-700.529	-118.363	0.261	-0.047
-699.514	800.000	-0.092	0.349
-698.499	403.081	0.008	0.017
-697.485	15.958	0.201	0.160
-696.470	210.860	0.143	-0.227
-695.456	55.532	-0.200	-0.196
-694.441	-200.000	-0.004	0.061
-693.426	-8.140	-0.235	-0.160
-692.412	120.920	0.090	-0.113
-691.397	-18.803	0.113	0.071
-690.383	-149.860	0.355	-0.028
-689.368	87.221	-0.102	-0.114
-688.354	-9.473	0.210	-0.142
-687.339	-8.068	0.256	-0.174
-686.324	-87.953	-0.397	-0.121
-685.310	-200.000	0.004	-0.242
-684.295	-96.713	-0.106	0.028
-683.281	-117.910	-0.308	0.056
-682.266	525.076	0.195	-0.463
-681.251	11.858	0.032	0.025
-680.237	7.544	-0.170	0.128
-679.222	-130.467	0.152	-0.021
-678.208	-200.000	0.035	0.166
-677.193	566.277	-0.155	-0.380
-676.178	15.865	0.026	-0.021
-675.164	-32.806	-0.202	0.113
-674.149	533.856	0.094	-0.224
-673.135	-55.455	0.167	-0.075
-672.120	-200.000	0.358	-0.002
-671.105	305.411	-0.068	-0.128
-670.091	-200.000	0.013	0.169
-669.076	-175.027	-0.331	-0.009
-668.062	-200.000	-0.002	0.357
-667.047	296.082	0.164	0.303
-666.032	-200.000	-0.011	0.379
-665.018	293.190	0.048	0.088
-664.003	-157.080	0.170	0.010
-662.989	-200.000	-0.004	0.357
-661.974	-136.780	0.179	-0.021
-660.959	21.397	-0.058	0.047
-659.945	-160.230	-0.195	0.011
-658.930	626.493	-0.116	-0.295
-657.916	-132.412	0.282	0.037
-656.901	120.187	-0.343	-0.430
-655.886	41.147	0.061	-0.056
-654.872	-116.690	-0.220	-0.041
-653.857	-200.000	0.016	0.154
-652.843	-200.000	-0.010	0.183
-651.828	-166.720	-0.278	-0.012
-650.814	800.000	-0.015	0.047
-649.799	-155.344	-0.044	-0.003
-648.784	-114.807	0.369	0.071
-647.770	-200.000	0.027	-0.325
-646.755	31.628	-0.192	-0.166
-645.741	-29.491	0.137	0.079
-644.726	800.000	-0.068	-0.255
-643.711	7.528	-0.025	0.019
-642.697	88.807	-0.191	-0.214
-641.682	-142.515	-0.335	0.033
-640.668	-1.567	0.212	-0.151
-639.653	-66.085	0.100	-0.040
-638.638	93.237	-0.096	0.110
-637.624	800.000	0.047	0.146
-636.609	219.148	-0.208	-0.335
-635.595	-7.439	-0.086	-0.058
-634.580	-200.000	-0.006	-0.219
-633.565	-200.000	-0.026	-0.232
-632.551	-200.000	0.323	0.000
-631.536	-25.941	-0.126	-0.075
-630.522	82.345	-0.156	0.170
-629.507	248.611	0.012	0.021
-628.492	461.120	-0.083	-0.186
-627.478	-0.678	-0.202	0.145
-626.463	-30.017	-0.298	-0.171
-625.449	-40.054	0.180	-0.094
-624.434	-8.615	0.206	-0.139
-623.419	52.562	-0.305	-0.293
-622.405	196.631	-0.080	-0.123
-621.390	-175.755	0.261	0.007
-620.376	800.000	0.022	-0.073
-619.361	-200.000	0.007	-0.173
-618.346	625.363	0.127	-0.323
-617.332	-183.044	-0.213	0.004
-616.317	-140.357	0.448	-0.047
-615.303	-45.443	-0.036	-0.018
-614.288	-113.909	-0.259	-0.051
-613.273	40.801	0.195	0.177
-612.259	-3.328	0.267	0.187
-611.244	173.294	0.326	-0.473
-610.230	587.040	-0.084	0.208
-609.215	800.000	-0.047	-0.136
-608.201	-110.992	-0.258	0.053
-607.186	243.352	-0.042	-0.071
-606.171	27.869	0.019	0.016
-605.157	69.215	-0.383	-0.396
-604.142	-121.364	0.103	0.017
-603.128	-97.361	0.168	0.044
-602.113	73.001	-0.150	-0.158
-601.098	-157.577	-0.146	-0.009
-600.084	-44.982	0.246	-0.123
-599.069	-200.000	0.065	-0.369
-598.055	16.757	-0.341	-0.271
-597.040	-113.061	-0.099	-0.020
-596.025	-200.000	-0.024	-0.194
-595.011	-90.829	0.336	0.097
-593.996	57.544	-0.316	0.311
-592.982	-200.000	0.041	0.256
-591.967	288.766	-0.160	0.292
-590.952	97.237	-0.133	-0.153
-589.938	-73.029	0.123	0.046
-588.923	-97.761	-0.066	-0.017
-587.909	280.481	0.201	0.361
-586.894	-112.553	0.142	0.029
-585.879	-137.157	-0.344	-0.039
-584.865	-22.604	0.092	0.056
-583.850	422.264	0.055	-0.119
-582.836	800.000	-0.082	-0.264
-581.821	26.816	0.170	-0.143
-580.806	34.540	-0.164	-0.144
-579.792	-200.000	0.135	0.000
-578.777	-88.730	0.233	0.070
-577.763	191.632	0.100	-0.152
-576.748	-200.000	0.018	0.115
-575.733	-40.496	-0.270	0.141
-574.719	-99.080	-0.224	0.057
-573.704	-200.000	0.036	0.483
-572.690	-79.399	-0.271	-0.092
-571.675	-115.884	0.198	0.037
-570.661	-7.286	-0.164	-0.111
-569.646	-200.000	-0.040	0.250
-568.631	-200.000	-0.000	-0.278
-567.617	84.143	0.200	0.219
-566.602	-106.816	-0.171	0.038
-565.588	186.646	-0.053	-0.079
-564.573	-94.186	-0.380	0.105
-563.558	-101.825	-0.213	0.052
-562.544	-200.000	-0.066	0.498
-561.529	-200.000	0.007	-0.127
-560.515	-200.000	-0.003	-0.314
-559.500	123.879	-0.110	0.139
-558.485	-200.000	0.002	-0.026
-557.471	-200.000	-0.008	0.073
-556.456	80.988	-0.253	0.275
-555.442	-119.822	0.235	-0.041
-554.427	-200.000	0.030	-0.211
-553.412	50.174	-0.162	0.154
-552.398	-200.000	0.010	0.126
-551.383	148.579	0.055	-0.075
-550.369	39.902	0.201	-0.182
-549.354	-200.000	0.003	-0.029
-548.339	-50.872	0.373	-0.176
-547.325	84.305	0.120	-0.132
-546.310	-46.692	-0.267	0.131
-545.296	19.898	-0.179	0.145
-544.281	-36.288	-0.126	-0.068
-543.266	-90.218	0.223	-0.065
-542.252	800.000	0.015	-0.050
-541.237	343.662	-0.117	-0.230
-540.223	192.104	0.084	0.127
-539.208	89.374	-0.203	-0.227
-538.193	-21.531	-0.104	0.064
-537.179	-25.424	0.237	-0.140
-536.164	-118.417	-0.102	-0.018
-535.150	-184.376	0.124	-0.002
-534.135	-185.995	-0.083	-0.001
-533.121	-108.466	0.163	-0.035
-532.106	-128.675	-0.271	0.038
-531.091	800.000	-0.048	-0.186
-530.077	202.201	0.201	-0.311
-529.062	-200.000	-0.035	-0.340
-528.048	800.000	0.069	0.205
-527.033	800.000	0.040	0.173
-526.018	45.052	0.276	0.255
-525.004	-174.358	0.562	-0.016
-523.989	-8.161	-0.212	-0.144
-522.975	563.008	0.046	0.112
-521.960	-200.000	-0.065	0.350
-520.945	-131.668	-0.045	0.006
-519.931	-9.303	-0.271	0.181
-518.916	-184.148	-0.261	0.004
-517.902	-140.934	-0.063	0.006
-516.887	14.017	-0.091	0.071
-515.872	-56.657	0.245	-0.109
-514.858	27.813	-0.037	0.031
-513.843	676.942	0.098	-0.256
-512.829	3.560	0.114	0.083
-511.814	306.666	-0.097	0.182
-510.799	235.373	-0.173	-0.287
-509.785	-165.578	0.227	0.010
-508.770	-0.577	0.055	0.039
-507.756	-109.602	0.171	0.036
-506.741	184.522	0.068	-0.101
-505.726	104.710	-0.174	-0.206
-504.712	19.829	0.193	-0.156
-503.697	-200.000	-0.034	0.369
-502.683	-15.113	0.340	-0.218
-501.668	-200.000	-0.054	-0.404
-500.653	-139.918	-0.112	0.012
-499.639	46.865	-0.200	0.186
-498.624	115.682	-0.137	0.168
-497.610	412.222	0.213	0.453
-496.595	-121.650	0.384	0.064
-495.581	-79.934	0.182	0.061
-494.566	626.184	0.111	-0.282
-493.551	31.951	0.510	-0.440
-492.537	768.902	-0.128	-0.348
-491.522	-51.579	0.181	-0.085
-490.508	-47.427	-0.122	0.060
-489.493	-48.164	0.233	-0.113
-488.478	133.577	-0.047	0.061
-487.464	-200.000	0.010	-0.045
-486.449	800.000	0.086	-0.309
-485.435	-200.000	-0.012	-0.232
-484.420	-95.338	0.336	0.091
-483.405	-105.316	0.135	-0.031
-482.391	-84.550	-0.310	0.098
-481.376	17.837	-0.409	0.326
-480.362	-191.158	-0.406	0.004
-479.347	-40.127	0.193	0.101
-478.332	-200.000	0.175	-0.000
-477.318	143.882	0.070	-0.094
-476.303	187.545	-0.173	0.259
-475.289	3.711	-0.242	0.177
-474.274	-200.000	0.032	0.185
-473.259	-12.226	-0.225	-0.147
-472.245	-157.124	0.327	0.020
-471.230	800.000	-0.044	-0.177
-470.216	-200.000	-0.076	0.368
-469.201	-104.170	-0.208	0.048
-468.186	-10.454	-0.193	-0.128
-467.172	800.000	0.066	-0.241
-466.157	388.941	-0.022	0.046
-465.143	19.174	-0.134	0.107
-464.128	-200.000	-0.005	0.061
-463.113	-50.790	0.328	0.155
-462.099	54.235	0.266	0.256
-461.084	179.774	-0.086	-0.126
-460.070	-93.928	0.115	-0.032
-459.055	47.272	0.422	0.394
-458.040	-142.919	-0.329	0.032
-457.026	-148.183	-0.277	0.023
-456.011	-200.000	0.029	-0.164
-454.997	168.642	0.097	-0.138
-453.982	-115.366	-0.088	0.017
-452.968	-50.950	0.188	0.088
-451.953	30.191	-0.302	-0.258
-450.938	-200.000	0.024	0.141
-449.924	-140.716	-0.271	0.028
-448.909	-200.000	0.017	0.203
-447.895	-200.000	-0.008	-0.104
-446.880	-7.354	0.220	0.149
-445.865	199.020	0.045	-0.069
-444.851	-75.111	-0.144	-0.051
-443.836	56.477	0.132	-0.128
-442.822	119.318	0.101	-0.125
-441.807	-182.534	-0.350	0.006
-440.792	-159.156	-0.154	0.009
-439.778	800.000	0.109	0.418
-438.763	800.000	-0.104	0.359
-437.749	-200.000	0.005	0.050
-436.734	-80.629	-0.274	-0.091
-435.719	83.896	-0.140	-0.152
-434.705	622.542	0.161	-0.406
-433.690	-200.000	0.026	0.147
-432.676	-67.959	0.271	-0.106
-431.661	324.799	-0.065	-0.125
-430.646	800.000	-0.049	-0.176
-429.632	-200.000	-0.004	0.165
-428.617	-36.519	-0.177	-0.095
-427.603	1.315	0.225	-0.162
-426.588	-138.095	0.103	-0.011
-425.573	-200.000	0.003	-0.027
-424.559	116.070	0.123	0.151
-423.544	-6.042	-0.076	0.052
-422.530	800.000	0.082	0.303
-421.515	88.288	0.100	0.111
-420.500	117.198	-0.382	0.469
-419.486	-80.238	-0.129	-0.043
-418.471	-89.287	0.373	0.110
-417.457	-168.492	0.119	-0.005
-416.442	29.283	-0.077	0.065
-415.428	493.164	0.005	0.011
-414.413	-200.000	-0.011	-0.198
-413.398	-120.389	0.284	-0.048
-412.384	800.000	0.050	-0.152
-411.369	27.092	0.164	-0.137
-410.355	-93.990	-0.245	0.067
-409.340	22.311	-0.111	-0.091
-408.325	77.167	-0.191	-0.203
-407.311	-85.494	0.207	-0.064
-406.296	800.000	0.068	-0.277
-405.282	383.941	-0.101	-0.209
-404.267	280.362	0.108	-0.193
-403.252	125.374	-0.213	-0.268
-402.238	-200.000	0.001	-0.151
-401.223	-44.822	-0.243	0.121
-400.209	460.013	-0.087	0.193
-399.194	-63.055	0.100	-0.041
-398.179	184.131	0.203	-0.301
-397.165	248.059	0.077	0.130
-396.150	148.190	0.139	0.187
-395.136	294.027	0.159	0.290
-394.121	-200.000	0.025	-0.138
-393.106	112.578	-0.203	0.246
-392.092	-85.800	-0.141	-0.043
-391.077	-200.000	0.002	0.031
-390.063	-122.157	-0.333	0.055
-389.048	800.000	0.031	-0.092
-388.033	150.776	-0.174	0.236
-387.019	800.000	-0.037	0.128
-386.004	-130.964	0.385	-0.051
-384.990	-110.951	-0.098	-0.020
-383.975	-200.000	-0.012	0.073
-382.960	-107.895	0.070	-0.015
-381.946	-200.000	0.014	-0.411
-380.931	1.923	0.160	-0.115
-379.917	487.877	0.109	-0.249
-378.902	800.000	0.056	-0.169
-377.888	-89.238	0.157	-0.046
-376.873	-14.922	0.134	-0.086
-375.858	-66.965	0.275	0.108
-374.844	-200.000	0.004	-0.166
-373.829	69.065	-0.288	0.296
-372.815	-191.528	-0.292	-0.003
-371.800	-54.010	0.184	-0.084
-370.785	-100.684	0.121	0.030
-369.771	-51.068	0.176	0.082
-368.756	-105.887	0.378	0.085
-367.742	224.619	-0.129	-0.208
-366.727	631.422	-0.133	0.335
-365.712	174.057	0.302	0.434
-364.698	-135.044	-0.152	0.018
-363.683	296.304	0.175	0.320
-362.669	276.309	0.060	0.107
-361.654	-147.629	0.136	0.011
-360.639	-42.915	-0.217	-0.110
-359.625	-200.000	0.065	0.401
-358.610	306.876	-0.155	0.287
-357.596	-200.000	-0.055	-0.496
-356.581	1.996	-0.162	0.116
-355.566	-200.000	-0.034	-0.170
-354.552	52.991	0.243	0.231
-353.537	51.496	0.179	0.170
-352.523	-25.952	-0.109	0.064
-351.508	-129.360	0.158	-0.022
-350.493	-68.335	-0.145	-0.056
-349.479	279.367	0.103	-0.184
-348.464	294.400	-0.115	-0.209
-347.450	41.452	0.139	0.125
-346.435	800.000	-0.044	0.136
-345.420	179.744	-0.142	0.207
-344.406	-81.172	-0.081	0.027
-343.391	-200.000	0.009	-0.057
-342.377	55.744	-0.177	0.171
-341.362	800.000	0.012	0.041
-340.348	-29.685	0.182	0.104
-339.333	-200.000	-0.025	0.315
-338.318	-105.684	0.092	0.021
-337.304	-28.373	0.230	0.132
-336.289	-42.776	0.110	0.056
-335.275	99.023	0.104	-0.120
-334.260	155.143	-0.010	-0.014
-333.245	-139.550	-0.063	-0.007
-332.231	288.215	0.157	0.283
-331.216	347.819	-0.076	0.149
-330.202	242.727	-0.148	0.247
-329.187	-97.302	0.151	0.039
-328.172	516.105	0.129	-0.300
-327.158	-58.983	0.325	0.140
-326.143	-200.000	-0.033	0.267
-325.129	-116.426	-0.132	-0.024
-324.114	-200.000	0.007	0.290
-323.099	-1.115	-0.221	0.156
-322.085	800.000	0.105	-0.388
-321.070	44.490	0.160	-0.146
-320.056	51.557	-0.108	0.102
-319.041	70.333	-0.250	0.257
-318.026	-76.795	0.144	0.050
-317.012	800.000	-0.055	-0.231
-315.997	-58.763	-0.124	-0.054
-314.983	-200.000	-0.005	-0.168
-313.968	-184.420	-0.304	0.005
-312.953	150.748	0.216	0.292
-311.939	800.000	-0.070	0.245
-310.924	-130.887	0.040	0.005
-309.910	-131.620	-0.221	0.029
-308.895	-157.343	-0.098	0.006
-307.880	199.690	-0.164	0.250
-306.866	230.450	-0.060	-0.098
-305.851	-200.000	0.033	-0.339
-304.837	124.022	0.047	0.059
-303.822	338.416	-0.116	0.224
-302.807	629.209	0.139	0.348
-301.793	110.370	-0.153	-0.183
-300.778	800.000	0.113	-0.341
-299.764	266.400	0.164	0.285
-298.749	-124.590	-0.151	-0.023
-297.735	14.202	0.318	-0.247
-296.720	-112.923	0.107	-0.021
-295.705	-200.000	0.025	0.269
-294.691	-32.805	-0.086	0.048
-293.676	0.876	0.141	-0.101
-292.662	608.204	0.051	0.125
-291.647	173.803	-0.181	-0.260
-290.632	12.665	0.222	-0.171
-289.618	344.834	-0.114	-0.223
-288.603	307.645	-0.145	0.269
-287.589	-200.000	0.025	-0.231
-286.574	800.000	-0.050	0.140
-285.559	800.000	-0.029	-0.104
-284.545	800.000	-0.055	0.191
-283.530	56.782	0.140	-0.136
-282.516	38.994	0.106	-0.094
-281.501	-70.593	-0.187	0.070
-280.486	800.000	-0.085	-0.299
-279.472	-65.150	-0.147	-0.059
-278.457	-11.870	-0.165	-0.108
-277.443	9.870	0.151	0.114
-276.428	113.902	0.318	-0.384
-275.413	-104.787	-0.141	-0.032
-274.399	338.804	0.177	0.343
-273.384	-200.000	-0.003	-0.037
-272.370	656.760	0.017	0.042
-271.355	-87.941	0.083	-0.025
-270.340	-200.000	-0.413	-0.002
-269.326	-166.336	0.492	-0.021
-268.311	-165.622	-0.238	-0.010
-267.297	-200.000	-0.066	-0.395
-266.282	124.848	0.195	-0.244
-265.267	60.889	-0.188	-0.185
-264.253	800.000	0.072	-0.199
-263.238	-44.196	-0.278	0.138
-262.224	-200.000	0.035	-0.163
-261.209	77.105	-0.094	-0.100
-260.195	3.685	0.073	0.053
-259.180	106.337	0.061	0.072
-258.165	37.721	-0.110	-0.097
-257.151	-126.512	0.049	-0.007
-256.136	85.077	-0.020	-0.022
-255.122	774.473	0.123	-0.332
-254.107	74.111	-0.119	0.124
-253.092	-200.000	-0.036	0.295
-252.078	16.045	0.127	-0.099
-251.063	-200.000	-0.032	0.201
-250.049	250.857	-0.119	0.201
-249.034	417.310	-0.205	-0.435
-248.019	67.415	0.240	0.243
-247.005	27.210	0.174	-0.145
-245.990	-0.049	-0.149	-0.106
-244.976	70.775	-0.107	0.110
-243.961	800.000	0.016	-0.047
-242.946	312.722	0.096	0.179
-241.932	495.203	0.097	0.220
-240.917	313.849	0.118	0.221
-239.903	-141.487	0.426	-0.043
-238.888	22.320	-0.268	0.217
-237.873	800.000	-0.083	0.272
-236.859	-98.407	0.264	-0.067
-235.844	800.000	0.066	-0.213
-234.830	-109.668	-0.383	0.080
-233.815	-38.746	0.168	-0.088
-232.800	-73.449	0.140	-0.051
-231.786	40.856	-0.179	-0.160
-230.771	800.000	0.023	0.072
-229.757	-63.332	-0.387	-0.158
-228.742	-135.429	-0.361	0.043
-227.727	-76.129	-0.032	0.011
-226.713	-58.615	0.338	-0.146
-225.698	74.543	0.017	0.017
-224.684	-168.210	-0.350	-0.013
-223.669	-133.584	-0.137	-0.017
-222.655	-118.747	0.125	0.022
-221.640	53.865	0.144	0.137
-220.625	225.227	-0.104	-0.167
-219.611	61.487	-0.204	0.201
-218.596	-160.082	-0.084	-0.005
-217.582	800.000	-0.106	0.317
-216.567	356.057	0.019	0.037
-215.552	-78.263	0.161	-0.055
-214.538	-18.354	0.175	0.109
-213.523	-200.000	-0.023	0.257
-212.509	-8.390	-0.310	0.207
-211.494	146.940	0.237	0.316
-210.479	-127.987	0.295	-0.042
-209.465	160.652	-0.192	0.266
-208.450	800.000	-0.055	0.180
-207.436	282.044	0.025	0.044
-206.421	-127.217	0.298	-0.043
-205.406	-115.054	-0.261	0.049
-204.392	83.267	0.169	0.183
-203.377	-2.227	-0.100	-0.070
-202.363	7.738	-0.228	-0.169
-201.348	-200.000	0.040	0.260
-200.333	-134.672	0.136	-0.016
-199.319	-24.521	-0.072	0.042
-198.304	-126.341	-0.378	-0.056
-197.290	-93.719	0.116	-0.032
-196.275	-107.145	0.384	0.084
-195.260	-120.368	-0.201	-0.034
-194.246	-7.722	0.107	0.071
-193.231	13.041	-0.236	0.181
-192.217	-120.030	0.079	-0.013
-191.202	-200.000	-0.044	0.275
-190.187	132.674	0.052	0.067
-189.173	-167.978	-0.139	-0.005
-188.158	-153.895	0.253	0.017
-187.144	100.257	-0.084	-0.097
-186.129	-80.180	0.147	0.049
-185.114	172.704	-0.029	-0.042
-184.100	-200.000	0.016	0.274
-183.085	176.197	-0.093	-0.134
-182.071	70.936	0.128	0.132
-181.056	-200.000	-0.016	-0.263
-180.042	452.667	0.131	-0.287
-179.027	-200.000	-0.018	-0.092
-178.012	136.768	0.096	0.124
-176.998	-200.000	0.056	-0.452
-175.983	-3.192	-0.156	0.108
-174.969	-43.496	-0.102	-0.051
-173.954	-25.462	0.096	0.056
-172.939	-101.841	0.223	0.053
-171.925	-200.000	0.028	-0.137
-170.910	122.974	0.146	-0.180
-169.896	-36.630	-0.134	0.071
-168.881	800.000	-0.036	0.100
-167.866	-200.000	0.004	-0.179
-166.852	62.573	-0.270	-0.267
-165.837	62.487	-0.231	0.228
-164.823	800.000	-0.039	0.135
-163.808	45.055	-0.133	0.121
-162.793	36.172	0.010	-0.009
-161.779	566.691	0.163	-0.392
-160.764	-200.000	0.004	-0.086
-159.750	760.859	0.021	0.057
-158.735	-200.000	-0.010	0.205
-157.720	-105.697	0.263	0.059
-156.706	-66.048	-0.031	0.012
-155.691	800.000	0.056	0.213
-154.677	-200.000	0.004	-0.044
-153.662	329.335	0.078	0.149
-152.647	-200.000	-0.012	0.215
-151.633	-92.702	-0.153	-0.042
-150.618	800.000	-0.048	0.151
-149.604	-200.000	0.016	-0.139
-148.589	800.000	0.103	-0.295
-147.574	-200.000	0.009	0.109
-146.560	800.000	-0.082	-0.323
-145.545	-200.000	0.018	0.247
-144.531	-200.000	-0.022	0.141
-143.516	-128.229	-0.151	-0.021
-142.502	-89.404	-0.214	-0.062
-141.487	-200.000	0.198	0.000
-140.472	800.000	0.042	-0.174
-139.458	143.969	-0.075	-0.098
-138.443	108.437	0.163	0.193
-137.429	32.533	0.225	0.192
-136.414	276.981	-0.275	0.483
-135.399	614.058	-0.117	-0.289
-134.385	104.644	0.197	0.229
-133.370	20.854	0.247	0.198
-132.356	-14.546	0.222	0.141
-131.341	138.837	-0.250	0.324
-130.326	62.511	-0.072	0.071
-129.312	-137.147	-0.340	0.038
-128.297	-84.557	0.270	-0.084
-127.283	131.105	0.048	-0.061
-126.268	-200.000	-0.004	-0.029
-125.253	-95.150	-0.274	0.073
-124.239	86.842	0.208	0.227
-123.224	-141.272	-0.234	-0.024
-122.210	16.001	0.194	-0.151
-121.195	366.048	-0.098	0.194
