DTS Sentinel unit serial number:	SN413079Multiplexer serial number:	ORYXHardware model number:	OX4-SRSoftware version number:	ORYX F/W v4.00 Oryx Data Collector v3.7.2.0data status	okinstallation	princeton_trtdifferential loss correction	single-endedforward channel	channel 4reverse channel	N/Adate	2019/09/11time	16:35:11forward acquisition time	60.00reverse acquisition time	0.00gamma	496.2192k internal	0.2274k external	0.2274temperature offset calibration	1.0019default loss term (dB/km)	0.3790temperature slope calibration	1.0000multiplexer offset coefficient	1.0000multiplexer slope coefficient	1.0000fibre end	0.00T internal ref (°C)	43.75T ext. ref 1 (°C)	1.09T ext. ref 2 (°C)	39.11length (m)	temperature (°C)	Stokes	anti-Stokes-747.200	484.289	-0.022	0.051
-746.185	800.000	-0.177	0.521
-745.171	21.276	-0.070	-0.058
-744.156	-200.000	-0.020	0.370
-743.142	-171.283	0.160	0.006
-742.127	196.148	-0.271	0.426
-741.112	341.236	-0.046	0.093
-740.098	-119.022	0.071	-0.013
-739.083	800.000	0.048	-0.173
-738.069	-76.254	0.217	0.079
-737.054	-149.512	-0.092	0.007
-736.039	800.000	-0.078	0.233
-735.025	-200.000	0.004	0.131
-734.010	-110.312	-0.313	0.067
-732.996	6.881	-0.083	0.064
-731.981	-200.000	-0.037	-0.548
-730.966	60.715	0.259	-0.265
-729.952	119.317	-0.178	-0.227
-728.937	-200.000	0.004	0.054
-727.923	134.660	0.115	-0.154
-726.908	178.102	0.030	-0.045
-725.894	-12.843	-0.270	-0.182
-724.879	147.487	0.124	0.172
-723.864	-29.071	-0.162	-0.096
-722.850	-78.497	-0.120	0.042
-721.835	800.000	-0.062	0.259
-720.821	265.682	-0.090	-0.163
-719.806	-19.127	0.262	-0.168
-718.791	-200.000	-0.017	-0.198
-717.777	-74.036	0.225	0.084
-716.762	-200.000	-0.005	-0.108
-715.748	-200.000	0.005	0.095
-714.733	106.325	-0.165	-0.202
-713.718	159.143	-0.103	-0.147
-712.704	-200.000	0.027	-0.204
-711.689	30.639	-0.057	-0.050
-710.675	472.510	0.026	0.059
-709.660	174.711	-0.140	0.209
-708.645	-200.000	0.003	-0.100
-707.631	-102.108	-0.392	-0.097
-706.616	-200.000	-0.022	-0.291
-705.602	-162.916	0.086	0.004
-704.587	-46.530	0.056	-0.028
-703.572	800.000	-0.078	0.223
-702.558	332.524	0.131	-0.261
-701.543	205.239	-0.191	-0.305
-700.529	143.995	-0.193	-0.265
-699.514	800.000	0.027	0.106
-698.499	73.962	0.058	0.062
-697.485	-200.000	-0.076	-0.388
-696.470	-102.566	-0.315	-0.077
-695.456	197.116	0.185	0.291
-694.441	25.263	0.129	-0.110
-693.426	391.790	-0.069	-0.147
-692.412	-200.000	0.002	0.170
-691.397	253.142	0.029	0.051
-690.383	332.354	0.140	-0.278
-689.368	-42.114	-0.086	0.045
-688.354	-200.000	0.006	0.108
-687.339	275.213	-0.199	0.364
-686.324	129.475	-0.140	0.184
-685.310	-200.000	-0.010	0.335
-684.295	800.000	0.021	0.073
-683.281	-123.993	0.129	0.021
-682.266	-200.000	0.007	0.092
-681.251	164.368	-0.191	-0.276
-680.237	277.675	-0.204	0.374
-679.222	800.000	0.036	0.109
-678.208	-200.000	-0.013	0.157
-677.193	115.454	-0.249	-0.313
-676.178	-34.309	0.072	0.041
-675.164	50.565	-0.189	0.183
-674.149	140.575	0.045	-0.061
-673.135	43.019	0.173	-0.162
-672.120	-31.878	-0.238	0.137
-671.105	-78.962	0.148	-0.052
-670.091	-128.985	-0.372	-0.054
-669.076	279.299	-0.026	-0.047
-668.062	-111.687	-0.217	0.045
-667.047	-162.753	0.254	-0.013
-666.032	-89.442	-0.100	0.030
-665.018	-200.000	-0.037	0.206
-664.003	-36.730	-0.101	-0.056
-662.989	-109.975	0.196	-0.042
-661.974	169.564	-0.094	-0.138
-660.959	-56.451	-0.120	0.055
-659.945	83.392	0.157	-0.176
-658.930	-183.533	-0.358	0.006
-657.916	-200.000	-0.017	0.410
-656.901	-200.000	0.008	-0.352
-655.886	800.000	0.045	-0.149
-654.872	100.276	-0.055	-0.065
-653.857	800.000	-0.051	-0.217
-652.843	800.000	0.066	0.193
-651.828	800.000	0.080	-0.310
-650.814	-200.000	-0.017	0.127
-649.799	-47.508	-0.250	0.125
-648.784	-88.638	0.165	-0.051
-647.770	18.334	0.112	-0.092
-646.755	134.501	-0.172	-0.230
-645.741	-200.000	0.002	-0.225
-644.726	-161.651	-0.417	0.022
-643.711	-16.293	-0.306	-0.199
-642.697	800.000	-0.085	-0.247
-641.682	682.229	0.084	-0.224
-640.668	800.000	-0.023	0.097
-639.653	-200.000	0.109	-0.501
-638.638	125.718	0.029	0.037
-637.624	-200.000	0.005	-0.465
-636.609	54.653	0.174	-0.173
-635.595	5.143	0.237	-0.179
-634.580	-18.378	-0.082	-0.053
-633.565	601.489	-0.058	-0.149
-632.551	-56.273	0.180	0.082
-631.536	218.738	-0.152	0.250
-630.522	215.765	-0.025	-0.040
-629.507	171.948	-0.140	0.206
-628.492	-159.760	0.176	-0.010
-627.478	106.135	0.053	-0.065
-626.463	25.980	-0.149	0.127
-625.449	-13.608	-0.272	0.181
-624.434	-46.150	-0.273	-0.138
-623.419	-97.102	-0.245	-0.066
-622.405	-200.000	0.094	0.472
-621.390	63.984	0.327	-0.338
-620.376	-98.284	0.189	-0.050
-619.361	-200.000	-0.048	0.333
-618.346	101.882	-0.315	0.377
-617.332	102.598	-0.161	0.194
-616.317	86.336	-0.157	0.178
-615.303	188.902	-0.161	-0.248
-614.288	81.666	-0.152	-0.169
-613.273	16.445	-0.270	0.219
-612.259	454.065	-0.136	0.310
-611.244	-46.031	-0.254	0.128
-610.230	597.668	0.083	-0.211
-609.215	77.044	-0.087	-0.094
-608.201	88.578	-0.039	0.045
-607.186	-200.000	-0.046	0.227
-606.171	-26.193	0.171	0.103
-605.157	170.023	-0.167	0.245
-604.142	216.902	-0.067	0.109
-603.128	-55.115	0.147	0.068
-602.113	-141.768	0.117	-0.012
-601.098	300.109	-0.120	-0.228
-600.084	-179.534	-0.212	-0.005
-599.069	69.293	-0.264	0.279
-598.055	-54.114	0.314	0.147
-597.040	-146.833	-0.048	-0.004
-596.025	319.800	0.078	0.152
-595.011	-200.000	-0.024	-0.176
-593.996	81.723	-0.228	-0.253
-592.982	182.149	-0.036	0.055
-591.967	30.404	0.211	0.185
-590.952	-178.965	-0.259	0.006
-589.938	198.256	-0.016	-0.025
-588.923	-85.553	-0.129	0.041
-587.909	800.000	-0.147	-0.451
-586.894	-47.445	0.259	0.129
-585.879	-57.934	0.231	0.103
-584.865	-154.629	-0.279	0.019
-583.850	54.856	0.229	0.227
-582.836	45.605	0.128	0.121
-581.821	33.555	0.159	-0.141
-580.806	-188.156	-0.335	-0.004
-579.792	-121.090	-0.294	0.051
-578.777	700.949	0.068	-0.183
-577.763	116.829	0.204	-0.257
-576.748	86.063	-0.075	-0.084
-575.733	-17.339	0.120	0.077
-574.719	-96.778	0.184	-0.049
-573.704	-143.544	0.298	-0.029
-572.690	92.614	-0.024	0.028
-571.675	-80.295	-0.392	-0.134
-570.661	800.000	0.055	0.210
-569.646	9.453	-0.154	0.119
-568.631	-60.491	-0.389	0.169
-567.617	-89.793	-0.102	-0.031
-566.602	-123.953	-0.109	-0.018
-565.588	800.000	-0.053	0.181
-564.573	-145.296	-0.290	0.027
-563.558	265.499	0.107	0.191
-562.544	468.062	-0.048	0.111
-561.529	-200.000	0.004	-0.408
-560.515	-200.000	0.022	-0.175
-559.500	-133.304	0.201	-0.026
-558.485	581.878	0.156	-0.392
-557.471	-148.943	0.198	-0.016
-556.456	-161.209	-0.179	-0.010
-555.442	682.296	-0.050	-0.133
-554.427	-200.000	-0.011	0.057
-553.412	155.399	-0.027	-0.038
-552.398	31.093	0.062	-0.054
-551.383	155.332	0.064	-0.090
-550.369	212.232	0.044	-0.071
-549.354	-200.000	0.027	0.308
-548.339	260.868	-0.119	-0.211
-547.325	-38.020	0.037	0.020
-546.310	215.413	0.103	-0.167
-545.296	-200.000	-0.089	-0.419
-544.281	-64.393	-0.165	-0.069
-543.266	10.324	-0.057	-0.045
-542.252	123.453	0.200	-0.256
-541.237	-28.207	-0.162	0.096
-540.223	-83.215	0.072	-0.024
-539.208	-126.336	0.242	0.037
-538.193	56.695	-0.091	0.090
-537.179	-105.796	0.173	-0.040
-536.164	-200.000	0.004	0.047
-535.150	-200.000	-0.006	0.408
-534.135	-94.905	-0.127	-0.035
-533.121	-99.467	0.125	-0.032
-532.106	-185.912	-0.113	-0.002
-531.091	800.000	-0.117	0.339
-530.077	-76.931	-0.276	0.098
-529.062	101.879	0.159	-0.190
-528.048	-59.653	0.128	0.056
-527.033	140.219	-0.109	0.147
-526.018	75.122	-0.128	-0.139
-525.004	-188.026	-0.359	0.005
-523.989	-127.782	0.113	0.017
-522.975	-135.297	0.229	0.028
-521.960	128.810	-0.135	-0.177
-520.945	100.587	0.149	0.177
-519.931	-77.218	0.068	0.024
-518.916	-2.327	0.230	0.165
-517.902	-75.912	-0.296	-0.107
-516.887	-200.000	-0.035	-0.339
-515.872	-172.676	0.348	0.011
-514.858	-85.651	0.202	0.064
-513.843	-200.000	0.012	0.072
-512.829	-171.688	0.044	-0.001
-511.814	-200.000	0.444	0.000
-510.799	85.923	0.264	0.297
-509.785	121.870	0.136	0.174
-508.770	-60.946	-0.262	0.113
-507.756	-21.625	-0.224	-0.140
-506.741	191.091	-0.060	-0.093
-505.726	-200.000	0.016	-0.129
-504.712	-149.461	0.051	0.004
-503.697	-78.886	-0.216	0.075
-502.683	-87.196	0.192	0.060
-501.668	-200.000	0.048	-0.223
-500.653	-200.000	0.007	-0.122
-499.639	-200.000	-0.006	-0.195
-498.624	10.411	-0.155	-0.120
-497.610	44.437	0.156	0.146
-496.595	-69.644	0.171	0.067
-495.581	61.440	-0.286	0.290
-494.566	-78.015	-0.206	0.073
-493.551	161.014	0.089	0.127
-492.537	83.159	0.281	0.312
-491.522	30.572	-0.031	0.027
-490.508	-200.000	0.023	0.108
-489.493	-34.278	0.109	-0.061
-488.478	-200.000	-0.049	-0.364
-487.464	-141.608	0.119	0.012
-486.449	-68.908	0.246	-0.097
-485.435	-21.375	0.100	-0.062
-484.420	-64.132	0.290	0.121
-483.405	-31.041	0.182	-0.105
-482.391	-200.000	0.022	-0.099
-481.376	800.000	-0.086	-0.262
-480.362	-200.000	0.002	0.028
-479.347	-200.000	0.028	-0.201
-478.332	-200.000	-0.064	0.300
-477.318	-67.998	0.287	0.114
-476.303	-200.000	-0.016	0.233
-475.289	529.570	-0.109	-0.262
-474.274	637.075	0.053	-0.137
-473.259	205.275	-0.203	-0.322
-472.245	350.120	0.091	0.183
-471.230	-99.255	0.227	0.059
-470.216	3.595	0.053	-0.039
-469.201	-179.012	0.119	0.003
-468.186	419.174	0.075	0.163
-467.172	-32.793	0.157	0.089
-466.157	261.089	-0.045	-0.079
-465.143	-87.875	-0.396	0.122
-464.128	-200.000	0.023	0.105
-463.113	-80.544	0.268	0.091
-462.099	-69.080	-0.332	0.131
-461.084	42.021	0.097	0.090
-460.070	-200.000	0.080	0.373
-459.055	-200.000	0.018	-0.189
-458.040	-153.700	0.224	-0.016
-457.026	-44.806	-0.458	0.233
-456.011	-179.037	0.187	0.004
-454.997	15.440	-0.117	0.094
-453.982	-99.496	0.176	-0.045
-452.968	-120.082	0.173	-0.030
-451.953	-148.020	0.243	-0.021
-450.938	800.000	0.027	0.098
-449.924	-41.450	0.131	-0.069
-448.909	31.669	-0.193	0.169
-447.895	-200.000	-0.028	-0.417
-446.880	429.268	0.068	-0.151
-445.865	-73.399	0.224	0.083
-444.851	743.598	0.137	0.377
-443.836	800.000	-0.093	0.319
-442.822	-37.695	-0.097	-0.053
-441.807	-170.586	-0.142	0.005
-440.792	614.169	0.086	0.220
-439.778	-200.000	0.009	0.113
-438.763	-85.775	-0.282	-0.089
-437.749	800.000	-0.110	0.376
-436.734	3.755	-0.237	-0.176
-435.719	170.876	0.263	0.385
-434.705	6.667	0.246	-0.187
-433.690	167.048	-0.074	-0.107
-432.676	-200.000	0.056	0.505
-431.661	-135.200	0.129	-0.016
-430.646	153.557	-0.175	0.244
-429.632	77.383	0.145	-0.157
-428.617	-200.000	0.021	0.104
-427.603	800.000	0.054	-0.163
-426.588	-56.942	-0.057	-0.026
-425.573	-63.637	0.081	-0.034
-424.559	800.000	-0.040	-0.167
-423.544	800.000	0.076	-0.216
-422.530	169.478	-0.068	0.099
-421.515	-41.163	-0.280	0.147
-420.500	111.331	-0.181	0.223
-419.486	800.000	0.085	-0.377
-418.471	-200.000	0.026	0.154
-417.457	-30.733	0.207	-0.119
-416.442	245.687	-0.310	-0.532
-415.428	274.486	-0.055	-0.100
-414.413	-94.233	-0.158	-0.044
-413.398	-59.467	-0.193	0.085
-412.384	800.000	0.083	0.288
-411.369	-115.778	0.204	0.039
-410.355	-200.000	0.028	0.177
-409.340	61.123	-0.256	0.259
-408.325	-137.726	-0.495	0.057
-407.311	800.000	0.029	-0.107
-406.296	-97.792	-0.115	-0.030
-405.282	225.570	0.120	-0.198
-404.267	106.902	-0.126	0.152
-403.252	29.186	-0.112	-0.097
-402.238	1.219	0.158	-0.115
-401.223	9.155	-0.269	0.207
-400.209	144.886	0.052	-0.071
-399.194	-169.113	-0.051	0.002
-398.179	-60.653	0.427	0.184
-397.165	485.147	0.103	-0.240
-396.150	-200.000	-0.006	-0.362
-395.136	-200.000	0.015	0.083
-394.121	291.487	-0.095	-0.176
-393.106	-200.000	0.011	-0.107
-392.092	-110.135	0.187	0.040
-391.077	282.684	-0.081	0.147
-390.063	-177.400	-0.288	-0.007
-389.048	35.210	-0.123	-0.110
-388.033	-125.113	0.141	0.022
-387.019	345.843	0.126	0.253
-386.004	-164.689	-0.328	-0.015
-384.990	-200.000	-0.010	0.128
-383.975	160.965	-0.148	-0.210
-382.960	159.651	-0.051	0.072
-381.946	102.481	-0.109	-0.129
-380.931	800.000	-0.064	0.180
-379.917	-200.000	-0.043	0.223
-378.902	-200.000	0.021	-0.234
-377.888	12.420	-0.177	0.139
-376.873	-200.000	0.039	-0.310
-375.858	-74.605	0.117	-0.043
-374.844	-90.256	-0.117	-0.035
-373.829	266.264	-0.102	-0.181
-372.815	38.832	0.295	-0.268
-371.800	25.224	0.024	0.021
-370.785	800.000	0.024	-0.100
-369.771	800.000	0.130	0.454
-368.756	59.519	-0.406	0.407
-367.742	-173.297	-0.199	-0.006
-366.727	-124.459	-0.095	-0.015
-365.712	-32.570	-0.098	0.055
-364.698	-54.894	0.135	-0.062
-363.683	-200.000	0.025	-0.208
-362.669	-90.807	-0.287	-0.084
-361.654	-26.338	-0.128	-0.076
-360.639	-149.940	0.209	0.017
-359.625	800.000	0.031	0.097
-358.610	-25.076	0.125	-0.075
-357.596	-118.410	-0.195	-0.035
-356.581	800.000	0.080	0.346
-355.566	-100.408	-0.533	-0.134
-354.552	-84.089	-0.139	0.045
-353.537	800.000	0.076	-0.251
-352.523	234.835	-0.187	-0.314
-351.508	141.500	-0.140	-0.188
-350.493	-200.000	-0.029	-0.138
-349.479	-83.236	0.225	0.073
-348.464	-72.638	0.091	-0.034
-347.450	800.000	-0.065	0.213
-346.435	455.520	0.066	0.148
-345.420	-126.593	-0.017	0.003
-344.406	-31.082	-0.084	0.048
-343.391	46.492	-0.208	-0.196
-342.377	4.349	-0.136	-0.101
-341.362	-159.978	0.391	0.022
-340.348	-176.184	0.078	-0.002
-339.333	-104.014	0.270	0.064
-338.318	-200.000	-0.025	-0.289
-337.304	136.857	-0.084	0.111
-336.289	-43.656	-0.164	-0.084
-335.275	66.625	-0.344	-0.355
-334.260	-41.176	-0.163	-0.085
-333.245	-176.123	0.230	-0.006
-332.231	-200.000	-0.006	0.052
-331.216	-200.000	-0.009	0.251
-330.202	161.275	-0.095	0.135
-329.187	67.711	-0.234	0.242
-328.172	-200.000	0.023	-0.195
-327.158	297.029	0.023	-0.044
-326.143	-78.282	0.157	-0.055
-325.129	423.664	-0.059	-0.128
-324.114	34.346	0.126	0.111
-323.099	600.269	0.052	-0.130
-322.085	348.447	0.075	0.151
-321.070	-119.374	0.263	0.046
-320.056	538.990	-0.046	-0.111
-319.041	105.269	0.174	-0.208
-318.026	398.215	-0.178	0.377
-317.012	116.698	0.210	-0.261
-315.997	255.326	0.095	0.166
-314.983	-83.721	0.337	-0.109
-313.968	-49.720	0.142	-0.068
-312.953	-0.330	0.373	-0.269
-311.939	701.760	-0.068	-0.181
-310.924	-127.460	0.338	0.050
-309.910	-53.643	-0.277	-0.128
-308.895	-151.102	0.164	0.013
-307.880	27.444	-0.183	-0.156
-306.866	140.926	0.088	0.118
-305.851	754.024	0.050	0.136
-304.837	800.000	0.044	0.155
-303.822	-200.000	0.046	0.214
-302.807	-200.000	-0.034	-0.257
-301.793	294.228	-0.058	-0.107
-300.778	412.160	0.042	0.090
-299.764	-88.061	-0.120	-0.036
-298.749	-113.101	0.140	0.028
-297.735	277.212	0.151	-0.272
-296.720	9.618	0.267	0.205
-295.705	-4.467	-0.160	0.112
-294.691	-200.000	-0.044	0.226
-293.676	-200.000	-0.010	0.092
-292.662	-95.738	0.337	0.091
-291.647	159.554	-0.203	-0.286
-290.632	43.982	0.174	-0.161
-289.618	-70.046	0.227	-0.088
-288.603	65.496	-0.067	0.069
-287.589	396.387	-0.061	-0.128
-286.574	-113.791	0.107	0.021
-285.559	181.213	0.054	0.081
-284.545	-200.000	-0.014	-0.123
-283.530	-200.000	-0.023	-0.120
-282.516	800.000	0.103	0.335
-281.501	-56.938	-0.279	-0.125
-280.486	-200.000	0.031	-0.160
-279.472	739.100	-0.065	0.176
-278.457	-92.214	-0.152	-0.044
-277.443	-29.481	-0.179	-0.104
-276.428	-137.455	0.285	-0.033
-275.413	-14.475	0.304	-0.198
-274.399	-76.616	-0.132	-0.047
-273.384	-82.325	0.215	-0.071
-272.370	-30.397	-0.072	0.041
-271.355	800.000	-0.180	-0.549
-270.340	62.889	-0.008	-0.008
-269.326	-200.000	0.024	-0.198
-268.311	106.143	0.202	0.242
-267.297	338.797	0.017	-0.033
-266.282	1.525	0.193	0.140
-265.267	241.596	-0.084	0.141
-264.253	363.286	-0.047	0.095
-263.238	-64.166	0.301	-0.124
-262.224	61.277	0.209	0.210
-261.209	800.000	-0.057	-0.163
-260.195	249.370	0.072	0.123
-259.180	59.726	0.034	0.034
-258.165	-88.460	0.382	0.115
-257.151	-96.756	0.118	-0.031
-256.136	-125.121	0.241	0.037
-255.122	-156.152	-0.074	0.005
-254.107	482.783	0.099	0.227
-253.092	-142.679	-0.339	0.033
-252.078	80.851	0.172	0.188
-251.063	-76.300	0.217	0.077
-250.049	255.173	-0.093	0.161
-249.034	72.903	0.115	-0.121
-248.019	-200.000	0.008	-0.136
-247.005	-35.083	-0.310	0.171
-245.990	-136.632	0.320	0.037
-244.976	-9.042	-0.179	0.121
-243.961	-127.735	0.124	0.018
-242.946	-200.000	-0.035	-0.190
-241.932	125.588	0.281	-0.358
-240.917	166.817	0.110	-0.158
-239.903	-167.242	0.056	-0.002
-238.888	344.120	-0.167	-0.331
-237.873	22.334	0.360	-0.298
-236.859	141.351	-0.134	-0.180
-235.844	-200.000	0.011	-0.192
-234.830	-0.670	-0.056	-0.040
-233.815	-85.016	-0.130	-0.041
-232.800	-119.423	0.260	0.046
-231.786	437.219	0.069	0.153
-230.771	800.000	-0.087	-0.249
-229.757	-35.635	0.116	-0.064
-228.742	-200.000	0.067	-0.335
-227.727	19.213	0.044	-0.036
-226.713	800.000	-0.062	-0.188
-225.698	68.359	-0.234	0.242
-224.684	-59.990	-0.336	0.145
-223.669	-200.000	0.042	-0.282
-222.655	800.000	-0.108	0.369
-221.640	-166.443	0.201	0.009
-220.625	-160.172	-0.282	-0.015
-219.611	-129.901	-0.115	-0.016
-218.596	800.000	0.082	0.240
-217.582	241.298	0.117	0.197
-216.567	-82.261	-0.109	-0.036
-215.552	44.727	-0.146	-0.135
-214.538	412.675	0.085	-0.183
-213.523	-200.000	0.022	-0.255
-212.509	-200.000	0.016	-0.161
-211.494	-200.000	0.002	0.140
-210.479	144.541	-0.160	-0.216
-209.465	46.401	0.178	0.166
-208.450	239.978	-0.166	0.279
-207.436	797.749	0.048	0.134
-206.421	-104.384	-0.203	0.048
-205.406	-108.075	-0.075	0.017
-204.392	68.829	0.279	0.289
-203.377	800.000	0.012	-0.046
-202.363	-40.819	-0.238	-0.125
-201.348	40.785	0.126	-0.115
-200.333	-164.213	0.083	-0.004
-199.319	-200.000	-0.012	-0.322
-198.304	432.485	0.138	0.303
-197.290	127.747	-0.125	-0.160
-196.275	800.000	0.067	0.221
-195.260	-26.974	0.355	0.209
-194.246	-163.435	-0.151	0.007
-193.231	-39.453	0.197	0.104
-192.217	-200.000	0.047	0.530
-191.202	271.424	0.108	0.192
-190.187	-95.688	0.210	0.057
-189.173	101.192	-0.354	0.416
-188.158	55.247	0.130	-0.127
-187.144	-200.000	0.003	0.136
-186.129	7.079	-0.135	-0.102
-185.114	-30.808	0.188	-0.107
-184.100	-200.000	0.046	0.375
-183.085	-94.705	-0.189	0.052
-182.071	0.997	0.251	0.182
-181.056	67.969	-0.127	-0.131
-180.042	121.930	-0.308	-0.388
-179.027	239.341	0.111	0.187
-178.012	-200.000	0.032	-0.196
-176.998	-47.346	0.225	0.111
-175.983	212.504	-0.113	0.180
-174.969	-200.000	-0.014	0.523
-173.954	-146.901	-0.087	-0.008
-172.939	57.952	-0.159	-0.157
-171.925	800.000	0.022	0.074
-170.910	-200.000	-0.034	0.245
-169.896	-115.455	-0.224	0.043
-168.881	-134.091	0.390	-0.049
-167.866	68.605	0.210	-0.217
-166.852	-200.000	-0.028	-0.193
-165.837	126.825	0.020	0.025
-164.823	8.742	-0.169	-0.129
-163.808	-105.733	-0.190	-0.043
-162.793	-128.865	-0.100	-0.014
-161.779	113.606	-0.091	-0.111
-160.764	-115.320	0.029	-0.006
-159.750	9.509	0.231	0.177
-158.735	-186.080	-0.045	0.001
-157.720	-50.209	0.245	-0.117
-156.706	-92.363	-0.167	0.047
-155.691	800.000	-0.091	0.314
-154.677	67.050	-0.134	0.138
-153.662	100.858	0.048	0.056
-152.647	704.467	-0.026	-0.068
-151.633	-200.000	-0.025	-0.144
-150.618	-51.823	0.219	-0.103
-149.604	581.715	0.053	-0.132
-148.589	800.000	-0.044	-0.127
-147.574	-200.000	-0.057	0.313
-146.560	800.000	0.074	-0.272
-145.545	-49.350	0.201	-0.097
-144.531	-71.170	-0.172	-0.065
-143.516	378.554	-0.015	-0.032
-142.502	-134.754	-0.067	-0.008
-141.487	-18.713	0.310	-0.195
-140.472	-200.000	-0.030	-0.289
-139.458	226.728	-0.177	0.290
-138.443	-139.626	0.313	0.034
-137.429	-161.652	-0.302	0.016
-136.414	800.000	-0.012	-0.044
-135.399	-123.774	0.209	0.033
-134.385	-98.059	0.272	-0.071
-133.370	316.916	-0.013	-0.025
-132.356	284.528	0.241	0.437
-131.341	-200.000	0.002	0.253
-130.326	-200.000	0.016	-0.223
-129.312	-26.428	0.112	-0.066
-128.297	19.919	-0.136	-0.111
-127.283	54.340	-0.190	0.184
-126.268	376.430	0.049	0.100
-125.253	80.197	-0.189	0.205
-124.239	-19.263	-0.091	0.057
-123.224	-13.635	0.161	-0.105
-122.210	656.199	0.077	0.200
