DTS Sentinel unit serial number:	SN413079Multiplexer serial number:	ORYXHardware model number:	OX4-SRSoftware version number:	ORYX F/W v4.00 Oryx Data Collector v3.7.2.0data status	okinstallation	princeton_trtdifferential loss correction	single-endedforward channel	channel 4reverse channel	N/Adate	2019/09/13time	21:21:34forward acquisition time	60.00reverse acquisition time	0.00gamma	496.2192k internal	0.2319k external	0.2319temperature offset calibration	1.0127default loss term (dB/km)	0.3790temperature slope calibration	1.0000multiplexer offset coefficient	1.0000multiplexer slope coefficient	1.0000fibre end	0.00T internal ref (°C)	28.37T ext. ref 1 (°C)	3.08T ext. ref 2 (°C)	22.90length (m)	temperature (°C)	Stokes	anti-Stokes-747.200	-98.236	0.405	0.105
-746.185	447.637	-0.091	0.202
-745.171	-43.819	0.087	-0.044
-744.156	-160.135	0.201	-0.011
-743.142	800.000	0.040	0.132
-742.127	-173.367	-0.123	0.004
-741.112	-200.000	0.039	-0.207
-740.098	317.627	0.124	0.238
-739.083	-37.238	0.102	0.055
-738.069	-41.254	-0.238	0.124
-737.054	-200.000	0.048	-0.278
-736.039	-40.706	-0.129	0.068
-735.025	-42.775	0.365	0.188
-734.010	-38.421	-0.144	-0.077
-732.996	800.000	0.030	-0.105
-731.981	800.000	-0.039	-0.149
-730.966	264.153	0.176	-0.309
-729.952	-200.000	-0.047	-0.267
-728.937	217.290	-0.147	-0.237
-727.923	186.206	0.091	0.136
-726.908	-173.498	0.120	-0.004
-725.894	-22.505	0.112	0.069
-724.879	-200.000	0.018	0.240
-723.864	-143.342	-0.172	-0.017
-722.850	-117.406	0.188	-0.034
-721.835	-60.599	-0.153	0.066
-720.821	301.017	0.034	-0.064
-719.806	-200.000	0.043	0.250
-718.791	102.764	0.108	0.128
-717.777	105.250	0.090	0.108
-716.762	68.200	0.226	0.234
-715.748	-59.797	-0.407	-0.176
-714.733	800.000	0.023	-0.084
-713.718	-200.000	-0.034	-0.318
-712.704	-100.338	-0.398	-0.100
-711.689	-39.749	0.355	-0.188
-710.675	-148.577	0.095	-0.008
-709.660	-200.000	0.060	0.320
-708.645	-113.842	-0.113	-0.022
-707.631	115.414	0.126	0.155
-706.616	165.242	0.193	-0.275
-705.602	-200.000	-0.007	-0.083
-704.587	242.176	0.214	0.362
-703.572	-73.776	-0.294	0.108
-702.558	569.554	0.101	0.248
-701.543	64.883	-0.149	-0.152
-700.529	147.605	0.103	0.140
-699.514	-86.390	0.241	0.075
-698.499	-44.510	-0.128	-0.064
-697.485	-92.982	0.166	0.047
-696.470	-102.945	0.140	0.034
-695.456	-56.096	-0.128	-0.058
-694.441	63.225	0.062	0.063
-693.426	800.000	-0.130	-0.438
-692.412	91.770	-0.148	0.169
-691.397	133.064	0.165	-0.215
-690.383	-109.300	-0.267	0.057
-689.368	66.268	0.115	-0.118
-688.354	-93.348	-0.154	-0.043
-687.339	-200.000	-0.008	-0.211
-686.324	110.035	-0.142	0.172
-685.310	-34.114	0.161	0.089
-684.295	-200.000	0.053	-0.541
-683.281	-57.239	-0.140	-0.062
-682.266	800.000	0.044	0.153
-681.251	20.516	-0.276	0.225
-680.237	-36.147	-0.166	-0.091
-679.222	24.003	0.211	0.176
-678.208	-146.682	0.082	-0.007
-677.193	-42.780	0.373	0.191
-676.178	-194.093	-0.225	-0.002
-675.164	-200.000	-0.020	-0.233
-674.149	800.000	-0.034	-0.120
-673.135	-54.540	-0.209	0.095
-672.120	442.401	0.074	-0.163
-671.105	-100.239	0.332	0.083
-670.091	-181.661	0.111	-0.002
-669.076	327.824	-0.047	-0.090
-668.062	-149.149	-0.181	-0.015
-667.047	-200.000	-0.020	-0.253
-666.032	-149.978	-0.209	-0.016
-665.018	-29.926	0.217	0.125
-664.003	46.641	-0.089	0.083
-662.989	-113.394	0.046	-0.009
-661.974	-200.000	-0.019	0.268
-660.959	800.000	-0.034	0.100
-659.945	-68.965	-0.083	0.032
-658.930	143.099	-0.095	-0.127
-657.916	-22.258	0.092	0.056
-656.901	800.000	0.067	-0.239
-655.886	-51.417	-0.144	0.068
-654.872	459.119	-0.130	0.291
-653.857	112.797	-0.125	-0.152
-652.843	199.512	-0.122	-0.188
-651.828	-39.117	-0.094	0.050
-650.814	-62.863	0.325	0.135
-649.799	50.839	-0.096	0.091
-648.784	800.000	0.134	0.384
-647.770	-86.169	-0.162	-0.050
-646.755	-4.785	0.114	-0.080
-645.741	677.392	0.053	0.138
-644.726	-27.905	-0.061	0.036
-643.711	-161.762	0.363	-0.019
-642.697	-200.000	-0.026	0.389
-641.682	-93.725	0.213	0.059
-640.668	800.000	0.084	0.239
-639.653	800.000	0.041	-0.134
-638.638	28.800	0.182	-0.156
-637.624	-200.000	0.011	-0.414
-636.609	263.992	-0.107	-0.187
-635.595	42.905	0.188	0.173
-634.580	304.482	0.182	-0.341
-633.565	-78.868	-0.232	-0.080
-632.551	342.072	0.057	-0.112
-631.536	-200.000	0.009	0.092
-630.522	-114.238	0.254	-0.049
-629.507	-98.857	0.297	0.076
-628.492	86.939	0.122	-0.136
-627.478	-136.482	-0.390	-0.046
-626.463	209.512	-0.270	-0.425
-625.449	-40.789	0.097	-0.050
-624.434	-70.257	-0.338	0.129
-623.419	-20.868	-0.094	-0.058
-622.405	58.289	0.213	0.211
-621.390	-178.855	-0.199	-0.005
-620.376	-200.000	0.005	-0.184
-619.361	31.579	0.291	-0.252
-618.346	-200.000	0.019	-0.123
-617.332	-200.000	-0.029	0.242
-616.317	82.198	-0.166	-0.182
-615.303	175.616	-0.086	0.126
-614.288	-30.861	-0.110	0.062
-613.273	48.975	0.121	0.114
-612.259	-198.998	0.340	-0.002
-611.244	-174.504	0.127	-0.004
-610.230	320.388	-0.131	-0.250
-609.215	29.760	-0.224	-0.192
-608.201	800.000	-0.029	0.089
-607.186	-200.000	-0.019	0.163
-606.171	-143.207	-0.234	-0.023
-605.157	416.257	-0.089	-0.190
-604.142	-200.000	0.035	-0.235
-603.128	-133.685	0.172	-0.022
-602.113	-154.335	-0.362	0.025
-601.098	-54.143	0.304	-0.139
-600.084	92.212	-0.029	0.033
-599.069	-65.244	0.173	0.070
-598.055	46.463	0.085	0.080
-597.040	-152.889	-0.428	0.030
-596.025	800.000	0.052	-0.172
-595.011	43.521	-0.150	0.138
-593.996	-54.383	0.214	-0.098
-592.982	-200.000	0.001	0.261
-591.967	-13.824	-0.447	-0.291
-590.952	38.957	-0.034	-0.030
-589.938	192.538	0.053	-0.081
-588.923	-36.439	0.370	0.201
-587.909	-186.844	-0.291	-0.004
-586.894	75.705	0.117	-0.125
-585.879	-79.645	0.141	0.048
-584.865	-200.000	0.016	-0.275
-583.850	143.556	0.057	-0.076
-582.836	-200.000	-0.046	-0.243
-581.821	-18.983	0.236	-0.148
-580.806	-14.795	-0.155	0.100
-579.792	44.083	-0.180	0.166
-578.777	-200.000	0.003	-0.157
-577.763	-182.458	0.140	-0.003
-576.748	-24.192	-0.050	0.030
-575.733	-135.695	0.177	0.021
-574.719	59.187	0.162	-0.160
-573.704	97.211	-0.137	-0.158
-572.690	-88.245	-0.182	-0.055
-571.675	32.905	-0.143	0.125
-570.661	-62.533	-0.195	-0.081
-569.646	321.945	0.099	0.189
-568.631	244.713	0.086	-0.145
-567.617	177.131	0.014	0.021
-566.602	753.458	0.022	0.059
-565.588	340.087	0.072	0.141
-564.573	148.923	0.136	0.184
-563.558	627.183	-0.044	-0.111
-562.544	-6.627	-0.318	-0.217
-561.529	-69.986	0.146	-0.056
-560.515	-155.078	-0.429	0.028
-559.500	1.423	0.225	-0.162
-558.485	-200.000	-0.039	0.230
-557.471	194.761	0.031	-0.047
-556.456	67.718	0.306	0.314
-555.442	102.565	0.079	-0.092
-554.427	-23.872	0.136	0.082
-553.412	-157.709	-0.165	-0.010
-552.398	86.540	-0.156	0.173
-551.383	800.000	0.034	-0.120
-550.369	197.285	0.132	-0.203
-549.354	318.462	0.070	-0.133
-548.339	386.232	0.085	0.176
-547.325	178.536	0.198	0.290
-546.310	39.457	-0.210	-0.189
-545.296	800.000	-0.068	-0.275
-544.281	14.267	0.223	-0.175
-543.266	233.733	-0.151	0.250
-542.252	-23.598	0.429	0.258
-541.237	-200.000	-0.009	-0.131
-540.223	56.746	0.309	-0.301
-539.208	-200.000	0.009	0.084
-538.193	-113.858	-0.204	0.040
-537.179	-32.674	0.057	0.032
-536.164	-119.804	0.101	-0.017
-535.150	42.092	0.092	-0.084
-534.135	-100.078	-0.148	0.037
-533.121	567.924	0.011	0.027
-532.106	81.719	-0.028	-0.030
-531.091	-160.001	-0.218	-0.012
-530.077	243.149	-0.037	-0.062
-529.062	50.879	-0.160	0.152
-528.048	-200.000	0.024	0.157
-527.033	-118.477	-0.302	0.054
-526.018	-180.945	0.137	-0.003
-525.004	95.967	0.259	0.297
-523.989	-62.542	0.215	0.090
-522.975	288.302	-0.058	0.106
-521.960	-200.000	-0.036	0.260
-520.945	-142.378	-0.274	-0.027
-519.931	-16.002	0.133	0.085
-518.916	-25.765	-0.271	-0.160
-517.902	-173.646	-0.043	-0.001
-516.887	-200.000	0.055	0.278
-515.872	114.519	-0.102	-0.124
-514.858	113.357	-0.194	-0.236
-513.843	88.839	0.165	-0.184
-512.829	-84.015	0.327	-0.104
-511.814	-101.883	-0.416	0.101
-510.799	368.640	-0.052	0.106
-509.785	-100.491	-0.171	0.042
-508.770	-200.000	-0.307	-0.001
-507.756	-68.717	0.168	0.065
-506.741	800.000	0.059	0.169
-505.726	-153.497	-0.179	-0.012
-504.712	-200.000	-0.002	-0.278
-503.697	539.896	-0.147	-0.350
-502.683	-200.000	0.023	-0.126
-501.668	155.430	-0.056	-0.078
-500.653	36.367	-0.058	-0.051
-499.639	203.935	-0.045	-0.070
-498.624	-79.042	-0.071	0.024
-497.610	15.502	-0.099	-0.078
-496.595	249.560	0.054	0.092
-495.581	-200.000	0.006	-0.253
-494.566	-58.172	0.203	-0.089
-493.551	45.472	-0.197	0.183
-492.537	-200.000	0.004	0.069
-491.522	-78.943	0.224	-0.076
-490.508	-59.196	-0.217	-0.093
-489.493	-71.988	-0.284	-0.106
-488.478	-7.018	0.182	0.124
-487.464	-35.602	-0.056	-0.030
-486.449	761.064	0.108	0.293
-485.435	-95.228	-0.464	0.125
-484.420	-62.166	0.092	-0.038
-483.405	-200.000	0.005	0.106
-482.391	93.282	-0.316	0.358
-481.376	-200.000	0.067	-0.326
-480.362	-200.000	-0.045	-0.323
-479.347	-57.106	-0.263	-0.116
-478.332	-23.475	0.160	0.096
-477.318	85.662	-0.262	-0.288
-476.303	-35.066	0.104	-0.057
-475.289	76.014	-0.397	0.420
-474.274	259.067	0.149	-0.258
-473.259	492.669	0.083	-0.191
-472.245	-105.691	-0.249	-0.056
-471.230	-200.000	0.045	-0.229
-470.216	-200.000	-0.004	-0.263
-469.201	800.000	-0.069	0.276
-468.186	362.910	-0.086	-0.173
-467.172	608.934	0.106	-0.265
-466.157	-200.000	-0.005	-0.149
-465.143	-84.081	-0.449	-0.143
-464.128	-84.423	-0.246	-0.078
-463.113	-92.280	-0.271	0.077
-462.099	800.000	0.051	0.165
-461.084	-54.458	-0.078	-0.036
-460.070	10.052	-0.162	0.123
-459.055	32.238	-0.310	-0.267
-458.040	-58.876	0.336	0.145
-457.026	-200.000	-0.027	0.207
-456.011	405.033	-0.088	-0.186
-454.997	800.000	-0.019	0.070
-453.982	-136.879	-0.088	0.010
-452.968	191.242	-0.159	-0.239
-451.953	-200.000	0.018	0.200
-450.938	97.345	0.166	-0.191
-449.924	-134.165	-0.302	0.037
-448.909	-200.000	-0.011	0.082
-447.895	-14.623	0.072	0.046
-446.880	-200.000	-0.027	-0.170
-445.865	-95.008	0.272	-0.074
-444.851	-200.000	-0.068	-0.428
-443.836	128.787	0.030	-0.038
-442.822	101.283	0.136	0.158
-441.807	-193.423	0.180	-0.002
-440.792	-79.247	-0.377	0.128
-439.778	-65.942	-0.129	0.052
-438.763	-40.041	0.014	-0.007
-437.749	-200.000	-0.013	-0.148
-436.734	221.139	-0.086	0.138
-435.719	800.000	-0.078	-0.235
-434.705	7.235	0.382	0.285
-433.690	-24.176	-0.047	-0.028
-432.676	409.778	-0.061	-0.129
-431.661	-200.000	-0.018	0.451
-430.646	-102.336	-0.357	-0.085
-429.632	105.131	-0.146	0.172
-428.617	-130.999	-0.148	0.020
-427.603	-200.000	0.015	-0.126
-426.588	-200.000	0.050	-0.406
-425.573	-51.340	-0.293	0.137
-424.559	-52.142	0.026	0.012
-423.544	-138.693	0.126	-0.014
-422.530	-64.790	0.173	0.070
-421.515	-135.588	0.218	-0.026
-420.500	-37.378	-0.226	0.121
-419.486	-200.000	-0.043	-0.190
-418.471	32.626	0.157	-0.136
-417.457	-200.000	-0.032	0.246
-416.442	-53.546	0.381	-0.174
-415.428	800.000	-0.051	0.150
-414.413	-200.000	-0.012	-0.146
-413.398	-200.000	0.024	0.273
-412.384	47.108	0.269	-0.250
-411.369	477.866	0.102	0.230
-410.355	161.709	0.160	0.223
-409.340	-84.761	-0.242	0.076
-408.325	-96.485	-0.311	-0.082
-407.311	-200.000	-0.032	-0.209
-406.296	800.000	-0.070	-0.238
-405.282	11.249	-0.269	0.206
-404.267	-131.481	0.076	-0.010
-403.252	155.149	0.121	0.166
-402.238	123.035	0.154	-0.192
-401.223	148.111	0.065	-0.087
-400.209	1.554	0.184	0.132
-399.194	-200.000	-0.012	-0.437
-398.179	-126.760	-0.082	-0.012
-397.165	-71.178	-0.080	0.030
-396.150	-200.000	0.013	-0.075
-395.136	-168.390	0.137	-0.005
-394.121	313.312	0.102	0.191
-393.106	-56.608	0.078	-0.034
-392.092	-26.454	0.257	-0.151
-391.077	-57.213	0.339	-0.149
-390.063	-129.308	-0.178	0.025
-389.048	-102.154	0.123	-0.029
-388.033	-26.745	0.102	0.060
-387.019	-200.000	-0.004	0.025
-386.004	15.649	0.173	-0.136
-384.990	671.611	-0.095	-0.245
-383.975	154.813	0.114	-0.156
-382.960	492.519	-0.041	0.093
-381.946	-171.021	-0.150	0.005
-380.931	-102.267	0.268	-0.064
-379.917	800.000	0.143	-0.404
-378.902	-200.000	0.007	0.183
-377.888	157.991	-0.076	0.104
-376.873	-200.000	0.027	0.309
-375.858	-149.646	0.107	-0.008
-374.844	99.326	0.058	-0.066
-373.829	-52.501	-0.248	0.114
-372.815	-88.405	-0.402	-0.120
-371.800	-66.354	-0.486	-0.192
-370.785	-200.000	-0.034	0.286
-369.771	125.212	-0.099	-0.125
-368.756	210.015	0.071	-0.110
-367.742	301.126	-0.057	-0.105
-366.727	800.000	0.007	0.026
-365.712	-200.000	-0.029	0.253
-364.698	-50.114	0.090	-0.042
-363.683	800.000	-0.047	0.199
-362.669	-121.877	-0.176	0.029
-361.654	-91.458	0.194	-0.055
-360.639	-57.094	0.180	-0.079
-359.625	-200.000	0.018	-0.281
-358.610	-65.697	-0.090	-0.036
-357.596	-94.164	0.191	-0.052
-356.581	25.570	0.147	-0.122
-355.566	-200.000	0.012	-0.101
-354.552	-200.000	0.063	-0.291
-353.537	-62.239	0.102	0.042
-352.523	-200.000	-0.025	0.255
-351.508	-176.529	-0.084	-0.002
-350.493	-30.684	-0.064	-0.036
-349.479	800.000	-0.055	0.203
-348.464	290.361	-0.061	0.110
-347.450	-200.000	-0.023	0.129
-346.435	-58.613	-0.038	-0.016
-345.420	97.435	-0.135	0.154
-344.406	-200.000	0.002	0.069
-343.391	-87.877	0.425	0.127
-342.377	-200.000	0.017	-0.149
-341.362	-119.219	0.432	0.075
-340.348	-99.297	-0.063	-0.016
-339.333	-106.804	-0.134	-0.030
-338.318	-174.513	0.081	-0.002
-337.304	37.843	0.156	-0.138
-336.289	-200.000	-0.009	-0.089
-335.275	-73.648	-0.126	0.046
-334.260	-23.708	-0.107	-0.064
-333.245	-200.000	0.014	0.072
-332.231	489.281	-0.127	-0.289
-331.216	800.000	0.054	-0.221
-330.202	-114.005	0.305	-0.059
-329.187	-47.223	0.121	0.059
-328.172	714.393	0.049	0.129
-327.158	800.000	0.076	0.257
-326.143	-150.080	0.212	-0.016
-325.129	16.500	-0.229	-0.180
-324.114	-172.667	-0.145	0.005
-323.099	87.354	0.236	-0.259
-322.085	800.000	0.060	-0.213
-321.070	-200.000	0.003	0.022
-320.056	-100.197	0.127	-0.031
-319.041	146.411	0.186	0.249
-318.026	202.389	0.052	-0.080
-317.012	369.596	0.153	0.309
-315.997	699.545	-0.197	0.516
-314.983	800.000	0.106	0.345
-313.968	96.251	0.302	0.344
-312.953	14.017	0.149	0.115
-311.939	-59.333	-0.156	0.067
-310.924	-200.000	-0.006	-0.332
-309.910	-200.000	0.017	0.387
-308.895	249.938	-0.142	-0.239
-307.880	426.992	0.120	-0.258
-306.866	-81.440	-0.196	0.064
-305.851	-142.005	0.201	-0.020
-304.837	196.638	0.054	-0.083
-303.822	6.958	-0.179	-0.132
-302.807	170.756	-0.123	-0.176
-301.793	221.247	0.244	0.389
-300.778	-8.002	-0.317	0.213
-299.764	-58.777	-0.132	-0.057
-298.749	51.055	0.289	-0.272
-297.735	-83.202	0.110	0.035
-296.720	-56.799	-0.218	-0.096
-295.705	81.767	0.247	-0.265
-294.691	66.808	-0.073	0.073
-293.676	639.711	0.071	0.180
-292.662	143.708	-0.040	0.053
-291.647	-70.611	-0.165	0.062
-290.632	244.486	-0.172	0.287
-289.618	-85.222	-0.376	-0.117
-288.603	-7.791	0.125	-0.084
-287.589	-45.479	0.196	0.097
-286.574	-62.165	0.145	-0.060
-285.559	693.910	0.095	0.247
-284.545	-73.044	0.195	0.071
-283.530	285.414	0.031	-0.055
-282.516	-139.693	0.231	0.024
-281.501	29.966	0.154	0.131
-280.486	224.738	-0.053	0.086
-279.472	3.217	-0.093	-0.067
-278.457	186.478	-0.293	-0.433
-277.443	800.000	0.064	-0.186
-276.428	800.000	0.123	0.437
-275.413	-144.813	0.139	-0.013
-274.399	6.352	-0.048	0.035
-273.384	-200.000	-0.031	0.271
-272.370	230.644	0.133	0.215
-271.355	146.756	0.161	-0.214
-270.340	-86.990	0.126	0.038
-269.326	-143.223	-0.230	0.022
-268.311	329.872	0.115	0.220
-267.297	800.000	0.028	-0.107
-266.282	-57.678	0.129	0.056
-265.267	-87.573	0.093	0.028
-264.253	800.000	0.064	0.230
-263.238	401.871	-0.029	0.060
-262.224	-77.735	0.138	0.047
-261.209	110.074	-0.202	0.241
-260.195	94.916	-0.084	-0.094
-259.180	-137.083	-0.274	-0.031
-258.165	-110.752	-0.163	-0.033
-257.151	531.912	0.069	-0.162
-256.136	221.991	-0.077	-0.123
-255.122	-110.200	-0.466	-0.096
-254.107	800.000	0.062	0.187
-253.092	235.418	0.076	0.125
-252.078	431.123	0.203	0.437
-251.063	27.494	0.175	0.146
-250.049	40.799	-0.129	0.115
-249.034	375.531	-0.101	-0.204
-248.019	-98.447	-0.446	0.113
-247.005	-200.000	-0.007	0.270
-245.990	-200.000	-0.047	-0.396
-244.976	-134.177	-0.064	0.008
-243.961	-111.765	0.164	0.033
-242.946	-28.519	-0.297	-0.170
-241.932	-88.954	-0.144	-0.042
-240.917	329.119	0.088	-0.168
-239.903	-38.772	0.283	0.148
-238.888	13.558	0.104	0.080
-237.873	140.546	0.071	0.093
-236.859	160.020	-0.074	-0.102
-235.844	-33.527	-0.195	0.107
-234.830	-200.000	-0.052	0.346
-233.815	-200.000	0.009	-0.085
-232.800	24.283	0.110	-0.090
-231.786	-200.000	-0.026	0.116
-230.771	257.372	-0.195	-0.333
-229.757	-46.257	-0.275	0.134
-228.742	800.000	0.083	-0.247
-227.727	-167.323	-0.135	0.005
-226.713	247.350	0.079	0.133
-225.698	-73.580	0.183	0.066
-224.684	-200.000	0.009	0.054
-223.669	-103.560	-0.287	0.067
-222.655	86.365	0.140	0.153
-221.640	-200.000	-0.010	0.113
-220.625	-147.529	-0.350	0.029
-219.611	-70.833	-0.041	-0.015
-218.596	-75.556	0.136	-0.048
-217.582	-200.000	-0.007	0.153
-216.567	-74.220	-0.169	-0.061
-215.552	-1.320	-0.097	0.068
-214.538	-156.813	-0.303	0.018
-213.523	-75.066	0.316	0.112
-212.509	-163.493	0.235	-0.011
-211.494	800.000	0.086	-0.299
-210.479	-14.234	0.408	0.261
-209.465	-166.343	-0.467	0.019
-208.450	-200.000	-0.021	0.262
-207.436	61.748	-0.122	0.120
-206.421	-127.916	-0.190	0.027
-205.406	-114.507	0.211	-0.040
-204.392	30.069	-0.143	0.121
-203.377	800.000	0.077	0.219
-202.363	-200.000	-0.003	-0.190
-201.348	-157.347	0.289	-0.017
-200.333	58.986	-0.174	0.169
-199.319	101.778	-0.058	-0.067
-198.304	7.829	0.250	0.186
-197.290	-200.000	-0.017	-0.167
-196.275	-133.195	0.461	-0.058
-195.260	-200.000	0.009	0.144
-194.246	3.523	-0.081	0.059
-193.231	-106.601	0.256	0.056
-192.217	-110.437	-0.365	-0.075
-191.202	-57.905	0.173	0.075
-190.187	192.224	0.124	0.185
-189.173	577.440	0.068	-0.166
-188.158	-118.363	0.147	-0.026
-187.144	228.952	0.139	0.225
-186.129	703.643	-0.137	0.358
-185.114	15.411	-0.083	0.064
-184.100	-3.490	0.218	-0.150
-183.085	800.000	0.098	0.383
-182.071	2.497	0.097	-0.069
-181.056	-147.404	-0.235	-0.020
-180.042	800.000	-0.047	0.200
-179.027	404.223	-0.087	0.181
-178.012	43.940	0.139	0.126
-176.998	13.079	-0.171	0.131
-175.983	-200.000	0.043	-0.193
-174.969	71.785	0.163	-0.167
-173.954	54.468	-0.169	0.161
-172.939	-200.000	0.075	-0.348
-171.925	800.000	0.037	-0.130
-170.910	396.831	0.077	0.159
-169.896	3.752	0.173	0.125
-168.881	259.784	0.206	-0.351
-167.866	-200.000	-0.019	-0.436
-166.852	800.000	0.060	0.187
-165.837	-200.000	0.048	-0.227
-164.823	-200.000	-0.018	-0.105
-163.808	-107.192	-0.232	-0.050
-162.793	800.000	0.091	0.263
-161.779	-200.000	-0.048	-0.286
-160.764	-29.277	-0.128	-0.073
-159.750	172.779	0.181	0.258
-158.735	-29.656	-0.097	0.055
-157.720	-200.000	-0.001	0.142
-156.706	800.000	0.040	0.170
-155.691	-147.700	-0.047	-0.004
-154.677	-174.443	0.384	-0.011
-153.662	255.988	-0.133	0.225
-152.647	-3.562	0.242	0.166
-151.633	74.670	0.344	-0.358
-150.618	-200.000	-0.028	-0.141
-149.604	-91.235	0.099	-0.028
-148.589	196.213	-0.141	-0.212
-147.574	492.571	-0.051	-0.116
-146.560	-200.000	-0.010	-0.117
-145.545	-200.000	-0.048	-0.471
-144.531	-117.606	0.261	0.046
-143.516	800.000	-0.126	0.534
-142.502	152.122	-0.189	0.254
-141.487	-200.000	0.027	0.208
-140.472	-63.974	-0.289	0.117
-139.458	147.170	0.122	0.162
-138.443	-21.686	-0.457	-0.275
-137.429	612.824	0.188	0.464
-136.414	66.006	-0.200	0.200
-135.399	-55.518	0.196	-0.087
-134.385	-200.000	0.010	-0.131
-133.370	48.102	0.239	0.221
-132.356	203.341	0.103	-0.157
-131.341	800.000	0.045	0.166
-130.326	75.526	0.122	-0.128
-129.312	-200.000	0.029	0.146
-128.297	-6.339	0.228	0.153
-127.283	-92.219	-0.185	0.052
-126.268	50.124	0.136	0.126
-125.253	120.824	0.129	-0.158
-124.239	424.460	-0.052	0.109
-123.224	-200.000	-0.045	0.339
-122.210	49.237	0.096	-0.089
