DTS Sentinel unit serial number:	SN413079Multiplexer serial number:	ORYXHardware model number:	OX4-SRSoftware version number:	ORYX F/W v4.00 Oryx Data Collector v3.7.2.0data status	okinstallation	princeton_trtdifferential loss correction	single-endedforward channel	channel 4reverse channel	N/Adate	2019/09/15time	18:21:35forward acquisition time	60.00reverse acquisition time	0.00gamma	496.2192k internal	0.2276k external	0.2276temperature offset calibration	0.9916default loss term (dB/km)	0.3790temperature slope calibration	1.0000multiplexer offset coefficient	1.0000multiplexer slope coefficient	1.0000fibre end	0.00T internal ref (°C)	44.37T ext. ref 1 (°C)	6.65T ext. ref 2 (°C)	38.58length (m)	temperature (°C)	Stokes	anti-Stokes-747.200	111.844	-0.047	0.058
-746.185	359.974	-0.041	0.085
-745.171	-21.827	0.221	-0.138
-744.156	-200.000	-0.034	0.321
-743.142	83.623	0.231	0.259
-742.127	-54.410	-0.335	-0.157
-741.112	-51.270	0.200	-0.096
-740.098	-34.535	0.042	0.024
-739.083	25.194	0.059	0.051
-738.069	-80.567	0.093	0.032
-737.054	800.000	0.103	-0.413
-736.039	-154.983	-0.142	-0.010
-735.025	344.006	0.113	0.228
-734.010	52.372	-0.210	-0.207
-732.996	57.449	0.198	-0.200
-731.981	31.947	-0.256	-0.227
-730.966	80.929	0.032	0.036
-729.952	-28.716	-0.264	-0.157
-728.937	213.940	-0.172	-0.281
-727.923	171.217	0.177	-0.261
-726.908	-173.709	0.358	-0.011
-725.894	78.199	-0.106	0.117
-724.879	43.209	-0.068	-0.064
-723.864	-113.245	-0.248	0.050
-722.850	-47.370	0.242	-0.121
-721.835	110.987	0.121	0.151
-720.821	-136.148	-0.191	0.023
-719.806	92.019	-0.224	-0.260
-718.791	-200.000	0.051	0.319
-717.777	-113.601	-0.082	0.017
-716.762	299.656	0.073	0.138
-715.748	800.000	0.051	0.179
-714.733	581.456	-0.114	-0.288
-713.718	-115.557	-0.207	-0.040
-712.704	800.000	-0.038	-0.146
-711.689	800.000	0.080	-0.321
-710.675	-200.000	0.049	-0.344
-709.660	-69.161	-0.063	0.025
-708.645	-107.108	-0.213	0.048
-707.631	-96.831	-0.351	0.095
-706.616	-131.716	-0.253	-0.034
-705.602	800.000	-0.057	0.201
-704.587	-123.995	-0.336	-0.054
-703.572	-8.437	0.251	0.174
-702.558	44.968	-0.100	-0.095
-701.543	-78.767	-0.222	-0.078
-700.529	26.285	-0.206	-0.178
-699.514	-200.000	-0.005	-0.333
-698.499	-89.263	0.232	-0.070
-697.485	245.411	-0.104	0.179
-696.470	65.128	0.231	0.241
-695.456	150.125	-0.182	-0.254
-694.441	800.000	-0.043	-0.135
-693.426	-185.327	0.028	0.000
-692.412	-28.251	0.216	-0.128
-691.397	-20.637	-0.091	-0.058
-690.383	800.000	0.014	-0.063
-689.368	800.000	-0.077	0.331
-688.354	-24.778	0.366	0.224
-687.339	-200.000	-0.003	-0.147
-686.324	91.633	-0.174	-0.201
-685.310	-200.000	-0.068	0.351
-684.295	-88.578	0.127	0.039
-683.281	-18.313	0.353	0.227
-682.266	-24.076	-0.064	-0.039
-681.251	800.000	0.144	-0.474
-680.237	800.000	-0.078	0.259
-679.222	-1.827	0.071	-0.052
-678.208	-129.979	0.182	0.026
-677.193	800.000	-0.165	-0.496
-676.178	166.552	-0.040	0.058
-675.164	-194.974	-0.319	-0.003
-674.149	-16.351	-0.026	0.017
-673.135	-200.000	-0.026	0.202
-672.120	-134.004	0.257	-0.033
-671.105	-58.309	0.184	0.082
-670.091	629.563	-0.135	-0.350
-669.076	-28.159	-0.319	-0.190
-668.062	-12.463	0.327	0.219
-667.047	-160.179	0.069	0.004
-666.032	-134.045	-0.182	-0.023
-665.018	60.304	-0.082	0.083
-664.003	-142.661	-0.244	-0.024
-662.989	20.327	0.216	-0.179
-661.974	-69.348	0.312	0.123
-660.959	32.348	0.246	0.218
-659.945	-69.628	-0.013	0.005
-658.930	724.055	0.046	0.126
-657.916	-200.000	0.046	-0.295
-656.901	38.029	-0.225	0.205
-655.886	-88.930	0.154	0.047
-654.872	-189.537	-0.311	0.004
-653.857	-116.565	-0.114	-0.022
-652.843	800.000	-0.060	-0.170
-651.828	800.000	-0.093	-0.271
-650.814	122.239	-0.045	-0.058
-649.799	24.216	-0.085	-0.072
-648.784	305.534	0.117	0.223
-647.770	800.000	-0.161	-0.508
-646.755	-136.354	-0.102	0.012
-645.741	-60.084	0.136	0.059
-644.726	-91.363	-0.283	0.083
-643.711	-200.000	-0.006	-0.296
-642.697	103.467	-0.083	-0.100
-641.682	283.497	-0.165	0.304
-640.668	108.964	-0.181	0.222
-639.653	-200.000	0.007	0.213
-638.638	-200.000	0.009	-0.149
-637.624	257.961	-0.105	0.185
-636.609	-200.000	0.029	-0.235
-635.595	-68.794	0.252	0.100
-634.580	-130.754	-0.167	-0.023
-633.565	-75.946	-0.310	0.113
-632.551	-40.396	-0.174	0.093
-631.536	167.529	0.240	-0.350
-630.522	4.115	-0.093	-0.070
-629.507	-64.852	-0.062	-0.026
-628.492	-23.157	0.396	-0.245
-627.478	71.988	0.152	-0.163
-626.463	-149.009	-0.167	-0.014
-625.449	-200.000	0.174	-0.001
-624.434	259.933	0.058	-0.102
-623.419	-81.482	-0.355	0.120
-622.405	-67.474	0.300	0.121
-621.390	10.859	-0.263	0.206
-620.376	-200.000	-0.091	-0.428
-619.361	-200.000	0.013	0.182
-618.346	155.458	-0.167	0.235
-617.332	307.109	-0.035	-0.066
-616.317	58.514	0.213	-0.214
-615.303	-200.000	0.003	-0.059
-614.288	105.210	-0.379	-0.459
-613.273	-32.361	0.249	0.143
-612.259	-104.561	0.225	-0.053
-611.244	81.805	-0.043	0.048
-610.230	42.092	0.179	-0.167
-609.215	-200.000	0.102	0.534
-608.201	-100.084	-0.165	0.042
-607.186	407.821	-0.092	0.198
-606.171	-200.000	-0.007	0.064
-605.157	-110.066	0.193	0.041
-604.142	-92.550	-0.306	-0.088
-603.128	-60.229	0.166	0.073
-602.113	800.000	0.024	0.098
-601.098	-200.000	-0.065	0.317
-600.084	-79.391	0.291	0.101
-599.069	-47.974	-0.070	0.035
-598.055	800.000	-0.141	-0.470
-597.040	32.108	0.230	-0.203
-596.025	166.809	-0.121	0.175
-595.011	164.870	-0.075	0.108
-593.996	164.209	-0.082	0.119
-592.982	55.974	0.200	0.199
-591.967	118.744	-0.261	0.330
-590.952	-184.409	-0.418	-0.007
-589.938	-192.854	-0.064	0.001
-588.923	-177.063	-0.212	0.005
-587.909	378.126	0.117	0.245
-586.894	120.319	-0.156	0.198
-585.879	16.694	-0.012	0.010
-584.865	154.336	-0.137	-0.192
-583.850	-111.544	0.609	0.127
-582.836	348.634	-0.094	-0.189
-581.821	33.110	-0.140	-0.124
-580.806	47.957	0.161	0.154
-579.792	-2.147	-0.213	0.153
-578.777	183.946	-0.137	-0.208
-577.763	-112.264	0.325	0.067
-576.748	-63.382	-0.388	0.164
-575.733	800.000	0.024	-0.106
-574.719	-200.000	-0.042	0.213
-573.704	-137.734	0.240	0.028
-572.690	-5.007	-0.132	-0.093
-571.675	381.867	-0.061	0.128
-570.661	-22.197	0.352	-0.218
-569.646	-131.675	0.182	0.024
-568.631	-62.215	-0.204	-0.087
-567.617	-200.000	0.043	-0.192
-566.602	62.637	-0.188	-0.192
-565.588	781.498	-0.023	-0.065
-564.573	-34.273	-0.212	0.119
-563.558	389.673	0.166	0.353
-562.544	800.000	-0.056	-0.183
-561.529	-200.000	0.000	0.005
-560.515	-200.000	0.015	-0.139
-559.500	57.024	-0.248	-0.248
-558.485	-25.802	-0.302	0.182
-557.471	5.905	-0.107	0.081
-556.456	7.392	0.085	0.065
-555.442	-200.000	-0.013	-0.385
-554.427	-200.000	-0.005	0.039
-553.412	-69.202	0.226	0.089
-552.398	-27.382	-0.041	-0.024
-551.383	-160.853	-0.241	0.013
-550.369	294.813	-0.081	0.151
-549.354	96.635	0.216	-0.253
-548.339	396.368	0.051	-0.110
-547.325	155.925	0.147	0.207
-546.310	731.341	0.028	0.076
-545.296	-200.000	-0.316	0.001
-544.281	305.669	-0.088	0.167
-543.266	-200.000	-0.003	0.059
-542.252	78.797	0.343	0.376
-541.237	66.809	0.121	-0.126
-540.223	-170.815	0.480	0.017
-539.208	236.181	-0.007	0.012
-538.193	-51.748	-0.183	-0.087
-537.179	143.573	-0.107	-0.145
-536.164	-104.212	0.203	0.048
-535.150	328.409	-0.295	0.580
-534.135	-200.000	0.060	0.297
-533.121	382.317	0.141	-0.296
-532.106	-116.549	0.129	-0.024
-531.091	-146.104	-0.166	0.015
-530.077	-200.000	0.027	-0.298
-529.062	136.124	-0.227	-0.303
-528.048	329.906	0.152	-0.300
-527.033	121.251	0.119	-0.152
-526.018	-16.287	0.177	0.115
-525.004	800.000	-0.110	0.318
-523.989	800.000	0.078	-0.273
-522.975	298.960	0.104	-0.196
-521.960	-10.638	-0.171	0.115
-520.945	31.142	0.264	0.231
-519.931	12.595	0.253	-0.199
-518.916	-161.930	0.204	0.011
-517.902	-52.142	0.124	-0.059
-516.887	-66.395	0.348	-0.142
-515.872	364.250	-0.129	-0.265
-514.858	226.084	-0.145	-0.241
-513.843	215.804	-0.147	0.238
-512.829	-4.161	0.234	0.165
-511.814	-200.000	-0.026	0.199
-510.799	32.160	0.155	0.136
-509.785	-73.247	0.271	0.101
-508.770	-75.824	-0.197	0.071
-507.756	58.180	0.259	-0.260
-506.741	-191.017	-0.181	0.002
-505.726	551.589	-0.125	0.306
-504.712	-166.750	0.182	-0.008
-503.697	280.581	-0.115	-0.210
-502.683	18.065	-0.194	0.158
-501.668	-200.000	0.004	0.361
-500.653	-200.000	-0.014	0.151
-499.639	800.000	-0.037	0.125
-498.624	-24.873	-0.045	-0.028
-497.610	-163.697	-0.093	-0.004
-496.595	-200.000	-0.008	0.150
-495.581	800.000	0.021	0.079
-494.566	-157.759	-0.159	-0.010
-493.551	-42.823	-0.434	-0.225
-492.537	-200.000	-0.251	0.001
-491.522	-48.564	0.268	0.132
-490.508	370.184	-0.062	-0.128
-489.493	800.000	-0.029	-0.113
-488.478	245.448	-0.028	0.047
-487.464	-187.455	-0.421	0.006
-486.449	-103.906	0.195	-0.046
-485.435	-85.229	-0.154	-0.049
-484.420	138.830	0.118	-0.158
-483.405	-80.397	-0.260	0.089
-482.391	-200.000	-0.051	-0.295
-481.376	30.208	-0.061	0.053
-480.362	800.000	0.031	-0.091
-479.347	-41.009	0.361	-0.190
-478.332	-200.000	-0.067	-0.308
-477.318	-200.000	-0.007	0.155
-476.303	-200.000	-0.002	0.310
-475.289	504.312	-0.068	-0.160
-474.274	-132.809	-0.105	0.014
-473.259	-62.823	-0.105	0.044
-472.245	800.000	-0.051	-0.155
-471.230	492.146	-0.085	-0.199
-470.216	51.959	0.141	0.136
-469.201	14.001	0.067	0.053
-468.186	147.199	0.187	0.257
-467.172	84.349	0.155	0.173
-466.157	13.750	-0.253	-0.200
-465.143	-146.348	-0.378	0.034
-464.128	345.021	0.103	0.207
-463.113	-104.669	0.142	-0.033
-462.099	754.559	0.062	0.171
-461.084	0.679	0.207	0.151
-460.070	-48.804	0.166	-0.081
-459.055	-25.571	-0.098	-0.059
-458.040	34.072	0.129	0.115
-457.026	-200.000	-0.007	-0.350
-456.011	800.000	0.115	-0.386
-454.997	-88.196	0.215	0.066
-453.982	-109.997	-0.319	0.068
-452.968	273.879	-0.077	0.139
-451.953	800.000	-0.155	-0.482
-450.938	-200.000	0.051	0.298
-449.924	236.223	-0.219	0.369
-448.909	-67.901	-0.266	-0.106
-447.895	-200.000	0.023	-0.260
-446.880	-200.000	-0.026	0.198
-445.865	-47.582	-0.153	-0.076
-444.851	101.409	0.066	-0.078
-443.836	-139.002	0.172	-0.019
-442.822	432.620	0.055	0.121
-441.807	-200.000	-0.001	0.118
-440.792	-200.000	-0.025	-0.352
-439.778	-8.724	0.245	-0.168
-438.763	219.787	0.236	-0.385
-437.749	200.743	0.113	0.177
-436.734	-200.000	0.003	0.063
-435.719	-66.645	-0.317	-0.128
-434.705	-126.775	-0.148	-0.022
-433.690	-200.000	0.011	0.086
-432.676	-137.277	-0.098	0.011
-431.661	-143.620	-0.375	0.036
-430.646	-24.773	0.146	0.088
-429.632	121.091	0.094	0.119
-428.617	-200.000	0.000	-0.032
-427.603	-82.788	0.135	-0.044
-426.588	209.696	-0.058	-0.093
-425.573	9.852	0.290	-0.224
-424.559	135.315	-0.087	0.115
-423.544	-79.365	-0.220	-0.076
-422.530	-76.027	-0.300	-0.108
-421.515	-145.309	-0.451	0.041
-420.500	2.361	0.131	-0.096
-419.486	-21.388	0.139	0.086
-418.471	-200.000	-0.035	-0.243
-417.457	77.549	0.294	-0.319
-416.442	428.124	-0.103	-0.226
-415.428	171.246	0.055	-0.081
-414.413	36.012	-0.034	0.030
-413.398	7.723	-0.058	0.044
-412.384	32.049	0.274	0.240
-411.369	-200.000	-0.028	0.285
-410.355	-200.000	0.037	0.374
-409.340	800.000	-0.013	0.053
-408.325	-200.000	0.016	-0.088
-407.311	-200.000	-0.024	-0.112
-406.296	128.987	0.209	-0.272
-405.282	140.314	-0.153	0.206
-404.267	354.949	0.131	-0.264
-403.252	-0.676	0.393	-0.284
-402.238	192.505	0.094	-0.144
-401.223	13.560	-0.296	-0.233
-400.209	450.272	-0.023	0.051
-399.194	-27.676	-0.260	0.154
-398.179	-76.707	0.240	-0.086
-397.165	-136.373	-0.288	0.034
-396.150	-162.311	0.243	-0.012
-395.136	665.087	0.052	-0.137
-394.121	119.067	-0.107	-0.134
-393.106	800.000	0.031	0.091
-392.092	270.167	0.114	0.205
-391.077	16.966	0.196	0.158
-390.063	-74.151	-0.237	0.087
-389.048	-89.822	-0.401	0.119
-388.033	63.440	-0.154	-0.157
-387.019	40.572	-0.264	0.242
-386.004	3.974	-0.150	0.111
-384.990	-176.271	-0.134	0.004
-383.975	-200.000	-0.033	-0.257
-382.960	469.077	-0.155	-0.354
-381.946	24.783	0.108	0.091
-380.931	-104.684	-0.221	0.052
-379.917	800.000	-0.029	0.108
-378.902	-36.349	0.372	0.204
-377.888	-99.290	0.192	0.049
-376.873	-85.658	-0.100	0.031
-375.858	-30.212	0.187	-0.108
-374.844	-108.620	0.054	0.012
-373.829	-68.932	0.111	-0.044
-372.815	-200.000	0.020	0.517
-371.800	-148.857	-0.255	-0.021
-370.785	-29.982	-0.217	0.126
-369.771	-52.602	-0.351	0.165
-368.756	-139.567	-0.145	0.016
-367.742	265.864	0.170	0.302
-366.727	-140.858	-0.112	0.012
-365.712	-53.393	-0.455	0.212
-364.698	-83.624	-0.061	-0.020
-363.683	79.846	0.243	0.265
-362.669	98.866	0.111	-0.130
-361.654	775.016	-0.040	0.111
-360.639	-114.079	-0.283	0.056
-359.625	8.845	0.145	0.111
-358.610	74.591	0.080	0.086
-357.596	800.000	-0.041	-0.130
-356.581	-48.900	0.208	-0.101
-355.566	-200.000	-0.000	0.067
-354.552	157.643	-0.133	0.187
-353.537	-43.775	-0.190	0.097
-352.523	12.809	0.239	0.187
-351.508	800.000	-0.026	0.081
-350.493	114.966	-0.257	0.319
-349.479	343.484	0.106	-0.212
-348.464	41.158	0.033	-0.030
-347.450	258.698	-0.060	-0.104
-346.435	-70.782	-0.323	-0.124
-345.420	-40.898	-0.124	-0.065
-344.406	7.017	0.129	-0.098
-343.391	-31.363	0.261	0.149
-342.377	-200.000	-0.015	-0.163
-341.362	-175.553	-0.173	-0.005
-340.348	-67.035	-0.533	-0.213
-339.333	-44.028	-0.233	-0.119
-338.318	66.041	-0.102	-0.105
-337.304	690.214	0.180	-0.478
-336.289	-127.576	0.356	0.052
-335.275	-1.552	-0.177	-0.126
-334.260	-70.752	-0.145	0.055
-333.245	20.540	-0.328	0.269
-332.231	763.388	-0.077	0.211
-331.216	-164.804	0.261	-0.012
-330.202	169.737	0.041	0.059
-329.187	-200.000	0.001	0.222
-328.172	800.000	-0.085	-0.245
-327.158	216.744	-0.062	-0.100
-326.143	-200.000	0.000	-0.269
-325.129	-196.122	0.582	0.004
-324.114	360.245	-0.141	-0.286
-323.099	374.322	-0.055	-0.114
-322.085	-106.874	-0.336	0.076
-321.070	-193.333	-0.288	-0.003
-320.056	114.387	0.127	-0.157
-319.041	-200.000	-0.011	0.070
-318.026	228.626	0.117	-0.193
-317.012	22.874	-0.269	-0.224
-315.997	-26.565	-0.305	0.181
-314.983	159.055	-0.105	0.148
-313.968	26.686	-0.247	0.209
-312.953	-38.448	-0.227	-0.122
-311.939	187.247	0.251	0.379
-310.924	800.000	0.104	0.451
-309.910	303.999	0.044	0.082
-308.895	149.344	0.140	-0.192
-307.880	-75.466	-0.238	0.086
-306.866	-84.386	0.471	-0.151
-305.851	800.000	0.040	0.157
-304.837	103.479	0.160	-0.190
-303.822	392.823	0.042	0.088
-302.807	110.155	-0.132	0.161
-301.793	-6.587	-0.020	-0.014
-300.778	800.000	0.031	-0.131
-299.764	270.410	0.108	0.192
-298.749	30.279	0.172	-0.149
-297.735	36.263	0.204	0.182
-296.720	800.000	0.081	0.269
-295.705	185.749	0.085	-0.128
-294.691	800.000	-0.063	-0.215
-293.676	-200.000	-0.003	0.211
-292.662	132.501	-0.093	-0.121
-291.647	-200.000	-0.024	0.144
-290.632	274.651	0.035	-0.063
-289.618	-84.149	-0.183	0.059
-288.603	243.477	-0.160	-0.272
-287.589	194.922	-0.147	-0.227
-286.574	377.238	-0.032	0.066
-285.559	210.647	0.037	-0.059
-284.545	-83.842	-0.230	-0.074
-283.530	-39.019	0.054	0.029
-282.516	87.213	-0.317	0.355
-281.501	-200.000	-0.034	0.165
-280.486	73.584	0.055	0.058
-279.472	800.000	-0.096	0.305
-278.457	-200.000	-0.030	0.225
-277.443	164.706	-0.020	-0.028
-276.428	225.168	-0.207	-0.339
-275.413	32.123	0.111	0.097
-274.399	-29.751	0.133	0.077
-273.384	-172.703	0.056	0.002
-272.370	-105.016	-0.076	0.018
-271.355	21.829	-0.147	-0.121
-270.340	-138.082	0.181	0.020
-269.326	628.007	-0.151	-0.386
-268.311	36.347	-0.094	0.084
-267.297	-200.000	-0.013	-0.302
-266.282	251.293	0.152	-0.262
-265.267	-93.197	0.243	-0.068
-264.253	562.516	0.047	0.115
-263.238	-0.105	0.223	0.161
-262.224	218.560	-0.243	0.393
-261.209	-167.712	0.237	0.009
-260.195	-57.589	0.506	0.224
-259.180	337.613	0.110	-0.216
-258.165	-23.149	0.068	-0.041
-257.151	-23.702	0.166	-0.100
-256.136	669.495	-0.146	-0.383
-255.122	12.743	-0.331	-0.259
-254.107	-127.472	0.211	-0.031
-253.092	-168.241	-0.106	0.004
-252.078	58.447	0.101	-0.100
-251.063	-136.699	0.160	-0.019
-250.049	-200.000	-0.025	-0.351
-249.034	167.676	0.097	0.139
-248.019	-200.000	-0.022	0.313
-247.005	800.000	-0.050	-0.170
-245.990	752.740	0.053	0.145
-244.976	334.180	0.071	-0.138
-243.961	-137.072	-0.031	-0.004
-242.946	86.842	0.056	-0.062
-241.932	-17.614	-0.272	-0.173
-240.917	-9.360	0.132	0.089
-239.903	-200.000	-0.009	0.046
-238.888	-55.688	0.189	-0.086
-237.873	-200.000	-0.013	-0.123
-236.859	-123.928	0.236	0.038
-235.844	-53.466	0.158	0.073
-234.830	-62.499	0.403	0.169
-233.815	42.821	0.307	-0.283
-232.800	-200.000	0.026	0.118
-231.786	37.613	0.297	0.266
-230.771	-40.141	-0.071	-0.037
-229.757	79.899	-0.082	-0.090
-228.742	155.645	0.128	-0.178
-227.727	-200.000	-0.017	-0.090
-226.713	22.903	0.401	0.332
-225.698	-48.172	-0.168	0.082
-224.684	-2.502	0.421	0.298
-223.669	-92.973	-0.159	0.045
-222.655	800.000	0.046	-0.163
-221.640	401.452	0.182	-0.385
-220.625	-78.437	-0.113	-0.039
-219.611	-38.550	-0.114	0.061
-218.596	-51.280	-0.116	-0.055
-217.582	2.915	-0.207	0.152
-216.567	-135.727	0.228	-0.027
-215.552	-200.000	-0.058	-0.309
-214.538	395.896	-0.112	-0.237
-213.523	395.612	0.128	0.269
-212.509	-116.089	0.200	0.037
-211.494	-120.291	0.118	0.020
-210.479	-200.000	-0.044	0.260
-209.465	33.516	0.150	0.132
-208.450	-57.912	0.092	0.041
-207.436	-10.096	0.082	-0.055
-206.421	-18.972	-0.104	-0.065
-205.406	521.225	0.084	-0.198
-204.392	-54.083	-0.313	-0.144
-203.377	-110.593	0.255	0.053
-202.363	65.057	-0.145	0.148
-201.348	28.774	0.240	-0.205
-200.333	220.306	-0.120	0.193
-199.319	-155.265	0.178	0.012
-198.304	-200.000	-0.069	-0.431
-197.290	714.088	0.052	0.139
-196.275	210.877	-0.012	0.019
-195.260	800.000	-0.056	0.193
-194.246	800.000	0.022	0.096
-193.231	318.496	-0.144	0.274
-192.217	800.000	0.034	0.131
-191.202	124.695	0.170	0.216
-190.187	-123.350	0.089	-0.014
-189.173	395.088	-0.267	-0.561
-188.158	487.678	-0.088	0.202
-187.144	-200.000	-0.066	-0.296
-186.129	242.147	0.182	0.307
-185.114	445.286	-0.163	-0.362
-184.100	400.293	-0.114	-0.241
-183.085	-200.000	0.038	0.197
-182.071	18.856	-0.118	-0.095
-181.056	191.250	-0.137	0.208
-180.042	-153.742	0.233	-0.016
-179.027	-19.314	0.362	0.227
-178.012	-90.482	0.276	0.080
-176.998	372.338	0.021	0.043
-175.983	-149.304	0.116	0.009
-174.969	-51.935	0.076	0.036
-173.954	-32.331	0.131	0.074
-172.939	-74.306	0.166	-0.061
-171.925	644.606	0.079	0.202
-170.910	246.474	-0.103	-0.175
-169.896	-157.903	0.311	0.019
-168.881	347.956	0.131	-0.259
-167.866	800.000	0.066	-0.231
-166.852	66.329	0.362	0.371
-165.837	8.472	-0.067	0.051
-164.823	47.714	-0.051	-0.048
-163.808	-200.000	-0.016	0.086
-162.793	-200.000	0.193	-0.001
-161.779	-111.869	0.544	0.111
-160.764	-200.000	-0.021	-0.116
-159.750	-62.950	0.374	-0.156
-158.735	-7.477	-0.156	0.107
-157.720	-102.294	-0.062	0.015
-156.706	-184.841	-0.211	0.003
-155.691	-155.881	0.007	0.000
-154.677	-150.439	-0.095	0.007
-153.662	-101.600	-0.144	0.035
-152.647	-200.000	-0.006	-0.154
-151.633	622.299	-0.089	-0.227
-150.618	800.000	0.082	-0.272
-149.604	55.544	0.056	-0.054
-148.589	-133.577	-0.221	-0.028
-147.574	429.059	0.095	-0.207
-146.560	-200.000	0.009	0.063
-145.545	-150.707	-0.189	-0.015
-144.531	-200.000	0.036	0.376
-143.516	-65.291	0.245	0.099
-142.502	-200.000	0.004	0.240
-141.487	697.893	-0.022	-0.058
-140.472	-18.124	-0.100	0.063
-139.458	183.762	-0.082	0.123
-138.443	61.889	-0.224	-0.225
-137.429	-110.882	-0.385	-0.080
-136.414	75.115	-0.118	-0.125
-135.399	-177.808	0.141	-0.003
-134.385	407.202	-0.241	0.514
-133.370	-200.000	0.081	0.413
-132.356	-104.151	0.397	0.093
-131.341	-97.764	0.080	-0.021
-130.326	800.000	-0.044	-0.185
-129.312	-123.244	-0.381	0.061
-128.297	800.000	0.041	-0.157
-127.283	65.037	0.123	0.125
-126.268	-200.000	0.082	-0.382
-125.253	-200.000	-0.016	-0.084
-124.239	-85.704	0.163	0.051
-123.224	-200.000	0.032	0.323
-122.210	231.456	0.053	-0.087
-121.195	-200.000	0.031	0.330
