DTS Sentinel unit serial number:	SN413079Multiplexer serial number:	ORYXHardware model number:	OX4-SRSoftware version number:	ORYX F/W v4.00 Oryx Data Collector v3.7.2.0data status	okinstallation	princeton_trtdifferential loss correction	single-endedforward channel	channel 4reverse channel	N/Adate	2019/09/16time	04:01:34forward acquisition time	60.00reverse acquisition time	0.00gamma	496.2192k internal	0.2321k external	0.2321temperature offset calibration	0.9978default loss term (dB/km)	0.3790temperature slope calibration	1.0000multiplexer offset coefficient	1.0000multiplexer slope coefficient	1.0000fibre end	0.00T internal ref (°C)	27.47T ext. ref 1 (°C)	10.72T ext. ref 2 (°C)	21.44length (m)	temperature (°C)	Stokes	anti-Stokes-747.200	800.000	-0.046	-0.138
-746.185	49.123	0.144	0.137
-745.171	-25.413	0.203	0.121
-744.156	380.639	0.052	0.108
-743.142	152.748	0.141	0.194
-742.127	142.615	-0.167	0.224
-741.112	-129.507	-0.236	-0.033
-740.098	-102.909	-0.331	-0.079
-739.083	586.734	-0.171	-0.425
-738.069	146.492	-0.111	0.150
-737.054	-101.927	0.190	-0.046
-736.039	342.744	-0.096	-0.189
-735.025	82.033	0.219	0.240
-734.010	518.208	-0.313	-0.739
-732.996	-76.495	-0.190	0.068
-731.981	414.451	0.095	0.204
-730.966	800.000	0.107	0.370
-729.952	-200.000	-0.005	0.078
-728.937	49.637	-0.092	-0.087
-727.923	-86.487	-0.104	0.032
-726.908	-130.876	-0.567	0.077
-725.894	800.000	0.037	-0.140
-724.879	234.391	0.045	0.076
-723.864	-78.438	-0.219	-0.076
-722.850	479.339	-0.020	0.046
-721.835	-59.618	-0.055	0.024
-720.821	-200.000	-0.014	0.151
-719.806	-200.000	-0.004	0.317
-718.791	-42.853	-0.521	-0.267
-717.777	207.889	0.070	-0.111
-716.762	-52.609	0.285	-0.133
-715.748	800.000	-0.059	-0.201
-714.733	-84.009	-0.257	0.083
-713.718	-200.000	-0.034	0.241
-712.704	800.000	0.078	-0.231
-711.689	329.827	-0.135	0.262
-710.675	-200.000	0.038	-0.219
-709.660	-94.874	0.382	0.104
-708.645	-77.206	0.138	0.048
-707.631	475.178	0.090	-0.205
-706.616	-60.668	-0.114	0.049
-705.602	-200.000	-0.023	-0.228
-704.587	7.428	-0.118	0.089
-703.572	-88.666	-0.532	0.160
-702.558	33.107	-0.200	-0.175
-701.543	-165.251	-0.327	-0.015
-700.529	-54.175	-0.259	0.119
-699.514	141.314	-0.179	0.239
-698.499	684.030	-0.104	-0.274
-697.485	57.686	0.128	-0.126
-696.470	215.307	0.031	-0.049
-695.456	-78.926	-0.163	-0.056
-694.441	-182.640	-0.190	-0.004
-693.426	-97.417	-0.093	0.024
-692.412	-76.373	-0.203	-0.072
-691.397	76.060	0.186	0.198
-690.383	96.237	0.116	0.133
-689.368	-28.838	-0.129	0.075
-688.354	-122.560	0.111	-0.018
-687.339	-125.414	0.059	0.009
-686.324	44.483	-0.180	-0.166
-685.310	-151.456	-0.388	-0.029
-684.295	-200.000	0.006	0.066
-683.281	23.675	0.050	0.042
-682.266	-46.570	-0.329	-0.163
-681.251	-99.462	0.177	0.045
-680.237	-200.000	-0.002	-0.239
-679.222	17.003	-0.297	0.237
-678.208	1.535	-0.102	0.074
-677.193	-58.844	-0.209	-0.091
-676.178	800.000	0.052	0.201
-675.164	-200.000	-0.035	0.216
-674.149	50.594	-0.235	0.224
-673.135	367.563	0.070	-0.142
-672.120	800.000	0.049	-0.187
-671.105	378.063	0.111	0.228
-670.091	-163.935	0.204	-0.010
-669.076	358.067	-0.085	0.170
-668.062	-0.241	0.175	0.126
-667.047	-200.000	0.012	0.147
-666.032	-95.527	0.247	0.067
-665.018	2.161	0.208	-0.151
-664.003	427.868	-0.163	-0.356
-662.989	-50.388	-0.171	-0.081
-661.974	-100.090	-0.220	0.055
-660.959	-16.533	-0.063	0.040
-659.945	123.918	0.293	0.370
-658.930	-200.000	0.044	0.196
-657.916	-63.687	0.090	0.037
-656.901	-200.000	0.026	0.130
-655.886	-130.687	0.178	-0.024
-654.872	87.708	-0.063	-0.071
-653.857	69.494	0.545	-0.566
-652.843	128.935	-0.096	-0.123
-651.828	278.547	0.156	0.279
-650.814	271.734	-0.082	-0.145
-649.799	-107.990	-0.183	0.040
-648.784	-121.213	0.181	-0.031
-647.770	-45.317	0.377	0.189
-646.755	38.247	-0.125	-0.113
-645.741	13.275	-0.083	0.065
-644.726	275.297	0.065	0.116
-643.711	-72.508	-0.246	0.092
-642.697	-20.908	0.086	0.053
-641.682	-103.558	0.143	0.034
-640.668	201.052	0.199	0.308
-639.653	-145.392	-0.099	0.009
-638.638	-25.029	0.439	-0.262
-637.624	800.000	-0.032	-0.131
-636.609	198.821	-0.171	-0.264
-635.595	-19.922	-0.229	0.142
-634.580	633.098	0.041	-0.106
-633.565	-157.841	0.213	-0.013
-632.551	-200.000	-0.033	-0.240
-631.536	-76.567	-0.078	0.028
-630.522	535.622	-0.087	0.207
-629.507	146.216	0.225	-0.304
-628.492	227.282	0.156	0.255
-627.478	-200.000	0.012	0.315
-626.463	-200.000	-0.006	-0.149
-625.449	42.020	-0.168	0.153
-624.434	800.000	-0.079	-0.285
-623.419	219.824	0.102	0.164
-622.405	18.692	-0.293	0.236
-621.390	-24.371	0.264	-0.158
-620.376	-145.461	-0.467	0.042
-619.361	516.643	0.009	0.022
-618.346	75.110	-0.316	-0.335
-617.332	194.773	0.197	0.301
-616.317	-105.027	0.182	-0.042
-615.303	-137.000	-0.244	-0.028
-614.288	-200.000	0.011	-0.171
-613.273	-85.771	0.151	0.047
-612.259	260.281	-0.106	0.185
-611.244	-200.000	0.009	-0.107
-610.230	306.077	-0.132	0.247
-609.215	-109.523	0.222	-0.047
-608.201	-125.754	-0.173	-0.026
-607.186	-54.444	-0.173	0.079
-606.171	-54.674	-0.006	0.003
-605.157	83.275	0.106	-0.116
-604.142	-18.937	0.166	-0.104
-603.128	-200.000	-0.043	-0.315
-602.113	197.350	-0.047	-0.072
-601.098	800.000	0.072	-0.234
-600.084	-29.427	0.261	0.150
-599.069	-36.477	0.190	-0.103
-598.055	36.507	-0.145	-0.129
-597.040	-20.605	0.207	0.128
-596.025	1.270	-0.049	-0.036
-595.011	-133.394	-0.293	-0.037
-593.996	28.991	-0.308	-0.263
-592.982	297.263	0.054	0.100
-591.967	218.610	-0.162	0.260
-590.952	46.463	0.103	-0.096
-589.938	31.320	0.068	-0.058
-588.923	505.887	0.082	-0.191
-587.909	136.449	0.157	0.206
-586.894	-18.974	0.199	-0.124
-585.879	-59.894	0.228	-0.098
-584.865	-75.944	-0.424	-0.151
-583.850	13.472	-0.042	0.033
-582.836	134.464	0.156	0.203
-581.821	800.000	-0.049	0.211
-580.806	-139.458	0.417	-0.045
-579.792	670.323	0.026	0.067
-578.777	61.492	0.136	-0.135
-577.763	-200.000	0.016	0.286
-576.748	197.747	-0.049	-0.076
-575.733	240.943	-0.164	0.275
-574.719	4.911	-0.173	-0.128
-573.704	284.762	0.087	-0.158
-572.690	119.445	-0.157	0.195
-571.675	-36.211	0.104	-0.056
-570.661	-33.373	-0.298	-0.165
-569.646	-200.000	-0.004	-0.170
-568.631	34.482	0.395	0.346
-567.617	-153.111	0.288	-0.020
-566.602	20.699	0.109	-0.089
-565.588	800.000	0.046	-0.180
-564.573	-200.000	0.009	-0.468
-563.558	85.541	-0.076	0.083
-562.544	-174.725	-0.321	-0.009
-561.529	-109.375	-0.184	-0.039
-560.515	800.000	0.082	-0.346
-559.500	83.194	-0.118	-0.129
-558.485	800.000	0.066	0.277
-557.471	41.010	-0.328	0.297
-556.456	-102.739	-0.132	0.032
-555.442	51.442	-0.078	0.074
-554.427	6.487	-0.083	-0.062
-553.412	58.199	0.032	0.031
-552.398	800.000	-0.044	0.177
-551.383	-87.424	0.155	-0.047
-550.369	-113.533	-0.262	0.051
-549.354	-6.298	0.334	0.229
-548.339	-200.000	-0.014	-0.168
-547.325	182.301	-0.082	0.121
-546.310	579.580	0.006	-0.014
-545.296	-24.911	-0.076	0.045
-544.281	-94.979	0.101	-0.027
-543.266	-101.835	0.123	-0.030
-542.252	31.012	0.153	0.132
-541.237	11.830	-0.222	0.171
-540.223	140.759	0.072	0.095
-539.208	28.025	0.180	0.153
-538.193	-131.611	0.211	0.028
-537.179	195.857	-0.093	-0.141
-536.164	575.413	-0.085	-0.208
-535.150	-142.447	-0.162	0.016
-534.135	212.393	0.112	0.177
-533.121	-81.909	0.239	0.078
-532.106	-7.457	-0.119	-0.081
-531.091	800.000	0.031	-0.089
-530.077	800.000	-0.077	0.250
-529.062	-67.566	-0.355	0.140
-528.048	-98.207	-0.231	-0.060
-527.033	284.482	0.035	-0.063
-526.018	-54.872	-0.272	-0.123
-525.004	-19.137	-0.227	0.141
-523.989	800.000	0.076	-0.275
-522.975	34.235	-0.239	0.209
-521.960	737.265	0.086	0.232
-520.945	-121.747	0.311	0.052
-519.931	-56.532	0.352	0.157
-518.916	-127.552	0.426	0.062
-517.902	-200.000	-0.007	0.069
-516.887	117.864	-0.060	0.074
-515.872	65.021	0.072	0.073
-514.858	265.922	-0.070	0.123
-513.843	0.479	0.052	0.037
-512.829	-147.551	-0.418	0.035
-511.814	120.442	0.128	0.159
-510.799	-183.834	-0.061	0.001
-509.785	190.842	0.096	0.144
-508.770	-88.527	-0.413	-0.123
-507.756	-200.000	0.079	-0.400
-506.741	-200.000	-0.121	0.000
-505.726	-111.231	-0.145	-0.030
-504.712	400.826	-0.032	-0.068
-503.697	-200.000	-0.014	0.232
-502.683	-46.806	0.336	0.165
-501.668	-36.823	-0.062	0.033
-500.653	-146.382	-0.156	-0.014
-499.639	505.719	0.071	-0.164
-498.624	-49.563	-0.107	-0.051
-497.610	-200.000	-0.003	-0.104
-496.595	-200.000	-0.051	-0.237
-495.581	-92.400	-0.092	0.026
-494.566	735.632	0.050	0.133
-493.551	-38.921	-0.180	0.095
-492.537	-200.000	0.027	0.276
-491.522	-200.000	0.007	-0.045
-490.508	-81.739	-0.142	0.047
-489.493	-111.757	-0.206	0.042
-488.478	-115.426	-0.139	-0.026
-487.464	-179.769	-0.107	-0.002
-486.449	-153.082	0.253	0.018
-485.435	-68.287	0.206	-0.080
-484.420	-200.000	-0.009	-0.255
-483.405	800.000	0.046	0.167
-482.391	-200.000	-0.039	-0.208
-481.376	54.656	0.207	-0.199
-480.362	188.785	0.160	-0.239
-479.347	125.025	-0.238	-0.300
-478.332	-200.000	-0.002	0.219
-477.318	-70.890	0.336	-0.127
-476.303	583.687	-0.062	-0.152
-475.289	53.390	-0.289	-0.277
-474.274	-46.163	0.183	0.090
-473.259	13.278	-0.335	-0.259
-472.245	4.766	0.335	-0.247
-471.230	-62.798	0.333	0.138
-470.216	-53.462	0.198	-0.091
-469.201	-125.866	0.114	-0.017
-468.186	-52.910	-0.256	0.118
-467.172	-200.000	0.011	0.289
-466.157	-21.374	0.179	-0.110
-465.143	3.977	-0.341	0.250
-464.128	-200.000	0.019	0.329
-463.113	-48.323	0.329	0.158
-462.099	-70.136	-0.173	-0.066
-461.084	65.103	-0.377	-0.380
-460.070	-20.186	0.280	-0.173
-459.055	144.244	-0.055	-0.073
-458.040	234.481	-0.133	-0.220
-457.026	-121.461	-0.253	0.042
-456.011	-82.484	-0.154	0.050
-454.997	-200.000	-0.015	-0.217
-453.982	-120.326	-0.208	-0.035
-452.968	782.839	-0.105	-0.289
-451.953	2.747	0.326	0.237
-450.938	-3.766	0.355	-0.246
-449.924	655.332	0.043	-0.111
-448.909	-172.737	0.050	-0.002
-447.895	-200.000	0.012	-0.194
-446.880	-56.931	0.245	0.108
-445.865	-11.651	0.117	0.077
-444.851	-67.984	-0.093	-0.036
-443.836	-200.000	-0.005	0.168
-442.822	-172.404	-0.286	0.009
-441.807	-126.807	-0.259	0.038
-440.792	-88.317	0.136	0.041
-439.778	515.293	-0.017	-0.039
-438.763	-146.199	-0.421	0.037
-437.749	174.239	-0.057	0.083
-436.734	-81.098	0.107	0.035
-435.719	-47.792	0.276	0.134
-434.705	-123.601	0.203	-0.032
-433.690	-200.000	0.026	0.206
-432.676	79.125	-0.104	-0.112
-431.661	-83.370	0.309	0.099
-430.646	-157.907	-0.217	0.013
-429.632	-200.000	0.001	-0.103
-428.617	166.496	-0.118	-0.167
-427.603	648.292	0.041	0.104
-426.588	-75.852	-0.159	0.056
-425.573	-35.351	-0.295	-0.160
-424.559	157.757	0.198	-0.274
-423.544	800.000	-0.109	-0.383
-422.530	-52.061	-0.242	0.112
-421.515	713.951	0.140	-0.370
-420.500	175.194	-0.101	0.147
-419.486	800.000	-0.119	-0.375
-418.471	302.626	0.245	-0.453
-417.457	144.851	0.055	-0.073
-416.442	-22.780	-0.231	0.139
-415.428	-200.000	-0.001	-0.101
-414.413	101.017	-0.080	-0.093
-413.398	-200.000	0.030	0.324
-412.384	34.997	0.169	-0.148
-411.369	-31.120	0.360	-0.202
-410.355	326.429	0.106	0.203
-409.340	-28.238	-0.137	-0.079
-408.325	120.607	0.146	0.181
-407.311	3.805	0.305	0.222
-406.296	-200.000	-0.013	0.056
-405.282	-93.390	-0.156	-0.043
-404.267	-45.477	0.109	-0.054
-403.252	-200.000	0.005	-0.080
-402.238	352.501	-0.061	-0.121
-401.223	-96.417	-0.309	0.081
-400.209	49.335	0.091	-0.085
-399.194	14.714	0.361	0.281
-398.179	-200.000	-0.052	0.295
-397.165	621.532	-0.074	0.185
-396.150	285.207	0.071	0.128
-395.136	-34.436	-0.198	-0.108
-394.121	-105.101	0.182	-0.042
-393.106	41.707	0.091	-0.083
-392.092	-200.000	0.019	0.155
-391.077	-200.000	-0.030	0.182
-390.063	54.588	-0.138	0.132
-389.048	-200.000	-0.033	0.266
-388.033	-102.796	-0.195	-0.046
-387.019	-200.000	-0.025	-0.145
-386.004	-200.000	-0.021	-0.170
-384.990	15.354	0.177	0.138
-383.975	800.000	0.065	-0.270
-382.960	284.364	-0.151	0.272
-381.946	-160.010	0.157	-0.009
-380.931	-137.987	-0.112	0.012
-379.917	800.000	0.077	0.329
-378.902	-200.000	-0.009	-0.055
-377.888	800.000	0.031	-0.130
-376.873	-5.901	-0.093	0.064
-375.858	-108.301	0.423	-0.091
-374.844	-200.000	0.002	-0.176
-373.829	73.708	-0.279	-0.291
-372.815	-108.245	-0.225	-0.048
-371.800	129.398	0.047	-0.060
-370.785	-200.000	0.010	-0.231
-369.771	265.023	0.131	0.227
-368.756	-6.847	0.144	0.098
-367.742	367.827	-0.114	-0.229
-366.727	665.331	0.127	0.328
-365.712	426.925	0.041	-0.087
-364.698	-125.822	0.327	0.049
-363.683	800.000	0.079	-0.231
-362.669	89.656	-0.183	0.203
-361.654	-200.000	-0.156	0.001
-360.639	92.261	0.076	-0.085
-359.625	138.074	-0.162	-0.211
-358.610	-50.659	0.267	-0.125
-357.596	-161.535	-0.164	-0.008
-356.581	-32.915	0.162	-0.089
-355.566	-170.628	-0.311	0.011
-354.552	800.000	-0.058	-0.182
-353.537	-78.762	0.214	0.073
-352.523	-18.510	0.151	0.094
-351.508	-75.143	-0.117	-0.042
-350.493	-55.253	0.251	-0.112
-349.479	-200.000	-0.026	0.410
-348.464	276.337	-0.115	0.203
-347.450	262.966	0.167	0.288
-346.435	-17.732	0.399	-0.250
-345.420	653.443	0.026	-0.067
-344.406	800.000	0.011	0.037
-343.391	-7.682	-0.342	0.230
-342.377	625.292	-0.085	0.214
-341.362	456.870	0.087	-0.193
-340.348	80.884	-0.068	0.072
-339.333	-161.371	0.243	0.013
-338.318	-64.624	-0.112	0.045
-337.304	113.472	-0.269	0.325
-336.289	428.762	-0.085	-0.183
-335.275	-166.986	-0.198	0.008
-334.260	-200.000	0.064	0.443
-333.245	186.130	-0.021	0.031
-332.231	-132.577	-0.149	-0.019
-331.216	-200.000	-0.015	-0.135
-330.202	-200.000	-0.012	0.121
-329.187	88.068	-0.060	0.066
-328.172	255.701	0.108	-0.184
-327.158	-152.216	-0.450	0.032
-326.143	87.719	0.057	0.063
-325.129	-31.484	-0.181	0.101
-324.114	-56.069	0.226	-0.100
-323.099	-76.800	0.371	0.129
-322.085	637.274	-0.032	0.082
-321.070	7.117	-0.166	-0.123
-320.056	309.441	-0.160	-0.297
-319.041	14.955	-0.106	-0.083
-318.026	453.586	0.090	-0.198
-317.012	-200.000	-0.030	0.250
-315.997	17.721	-0.204	-0.161
-314.983	-165.431	-0.261	-0.011
-313.968	97.559	0.234	-0.267
-312.953	-18.224	0.115	0.071
-311.939	389.049	0.058	0.119
-310.924	108.743	0.065	0.078
-309.910	157.799	-0.049	-0.067
-308.895	-104.070	-0.255	0.059
-307.880	716.865	0.053	-0.141
-306.866	-101.536	0.178	-0.043
-305.851	-16.039	0.134	-0.085
-304.837	800.000	0.063	-0.188
-303.822	1.454	-0.070	0.050
-302.807	160.316	0.045	-0.062
-301.793	-36.884	0.127	-0.068
-300.778	146.498	-0.042	-0.056
-299.764	800.000	-0.056	0.155
-298.749	-200.000	0.039	0.381
-297.735	-200.000	-0.007	0.099
-296.720	53.784	0.068	0.065
-295.705	-21.451	0.397	-0.241
-294.691	-73.244	-0.162	0.059
-293.676	28.299	-0.035	0.030
-292.662	800.000	0.033	-0.104
-291.647	-48.725	-0.194	-0.092
-290.632	800.000	-0.029	-0.096
-289.618	11.801	0.069	-0.053
-288.603	-200.000	0.031	-0.274
-287.589	-200.000	0.079	-0.393
-286.574	-115.675	0.314	0.058
-285.559	-90.243	-0.164	0.047
-284.545	-200.000	0.041	0.310
-283.530	-14.961	0.116	-0.074
-282.516	172.910	0.151	0.215
-281.501	-62.556	-0.320	-0.132
-280.486	-33.019	0.316	-0.174
-279.472	-200.000	0.052	-0.244
-278.457	214.236	0.044	0.069
-277.443	260.834	0.167	-0.287
-276.428	-98.002	-0.253	-0.065
-275.413	-10.657	0.131	0.086
-274.399	-200.000	0.030	-0.132
-273.384	2.592	-0.344	-0.247
-272.370	-200.000	0.005	0.077
-271.355	-137.803	0.195	0.022
-270.340	-133.016	-0.477	-0.060
-269.326	-74.311	-0.289	0.104
-268.311	-121.368	-0.137	0.023
-267.297	-71.974	-0.155	-0.057
-266.282	-169.079	0.159	-0.006
-265.267	42.535	0.236	0.213
-264.253	-61.757	0.263	0.109
-263.238	310.156	-0.182	-0.338
-262.224	-97.480	-0.273	-0.070
-261.209	408.875	0.119	0.249
-260.195	135.703	0.224	-0.289
-259.180	-200.000	0.030	0.272
-258.165	-200.000	0.015	0.281
-257.151	294.927	-0.143	0.259
-256.136	-200.000	0.005	0.137
-255.122	254.755	0.167	-0.284
-254.107	-200.000	-0.007	-0.221
-253.092	-31.836	0.101	0.056
-252.078	203.996	0.050	0.077
-251.063	800.000	-0.060	0.182
-250.049	401.306	-0.095	-0.199
-249.034	-45.328	-0.071	0.035
-248.019	-77.473	0.137	0.047
-247.005	-16.303	-0.138	0.087
-245.990	-92.514	-0.317	-0.088
-244.976	30.598	0.189	0.160
-243.961	103.914	-0.085	-0.099
-242.946	-200.000	-0.015	0.159
-241.932	-5.638	-0.237	-0.161
-240.917	800.000	0.105	0.340
-239.903	21.776	0.252	0.203
-238.888	83.956	-0.093	-0.101
-237.873	338.717	-0.088	-0.169
-236.859	-48.043	0.176	0.084
-235.844	55.836	0.235	0.226
-234.830	-105.609	0.272	-0.061
-233.815	-200.000	0.015	0.285
-232.800	800.000	0.085	-0.280
-231.786	-35.004	-0.178	0.096
-230.771	-47.357	0.235	0.114
-229.757	-32.352	0.170	0.094
-228.742	800.000	0.041	0.125
-227.727	-62.747	0.276	-0.113
-226.713	11.755	0.182	0.139
-225.698	-68.105	0.139	-0.054
-224.684	-69.196	-0.074	-0.028
-223.669	-38.800	-0.134	0.070
-222.655	-26.674	0.172	0.099
-221.640	479.874	0.042	0.094
-220.625	-22.770	-0.304	0.182
-219.611	182.213	0.071	0.104
-218.596	800.000	-0.034	-0.139
-217.582	-102.287	-0.515	0.122
-216.567	-75.012	0.152	0.054
-215.552	-176.289	0.118	-0.003
-214.538	-150.093	-0.256	-0.020
-213.523	-135.958	0.187	0.022
-212.509	-200.000	0.030	0.328
-211.494	-92.760	-0.312	-0.086
-210.479	-59.242	-0.168	-0.071
-209.465	-200.000	0.073	-0.326
-208.450	23.856	0.087	0.071
-207.436	44.541	0.222	0.202
-206.421	-21.531	0.092	0.055
-205.406	-48.184	0.125	-0.060
-204.392	-200.000	-0.028	-0.157
-203.377	35.931	-0.277	0.241
-202.363	131.284	0.062	0.079
-201.348	-200.000	-0.007	-0.114
-200.333	-108.061	-0.182	-0.039
-199.319	-179.330	0.226	0.005
-198.304	-104.990	0.147	-0.033
-197.290	-138.498	0.483	-0.053
-196.275	125.303	-0.175	0.218
-195.260	-23.516	0.209	0.124
-194.246	496.335	-0.053	0.120
-193.231	-145.282	0.478	0.043
-192.217	-200.000	0.007	-0.131
-191.202	-126.315	-0.260	0.038
-190.187	26.459	-0.273	0.226
-189.173	22.413	-0.187	0.151
-188.158	-92.005	-0.039	0.011
-187.144	12.584	0.142	0.109
-186.129	385.959	-0.126	-0.257
-185.114	-152.694	-0.264	-0.019
-184.100	-72.729	0.324	-0.118
-183.085	-143.593	0.356	-0.033
-182.071	800.000	-0.057	-0.178
-181.056	-78.493	0.259	0.088
-180.042	-122.703	0.297	-0.048
-179.027	-67.571	-0.207	-0.080
-178.012	-200.000	0.022	-0.253
-176.998	800.000	0.014	-0.040
-175.983	-19.647	0.233	-0.143
-174.969	132.347	-0.216	0.275
-173.954	-144.931	-0.166	-0.015
-172.939	-200.000	0.033	-0.274
-171.925	-71.242	0.237	0.088
-170.910	800.000	-0.121	0.390
-169.896	-70.882	-0.149	0.056
-168.881	81.388	-0.158	0.169
-167.866	97.919	-0.222	0.253
-166.852	152.557	0.160	0.217
-165.837	-200.000	-0.007	0.189
-164.823	-78.385	-0.137	-0.046
-163.808	-11.561	-0.192	0.125
-162.793	-90.242	-0.074	-0.021
-161.779	800.000	-0.083	-0.292
-160.764	800.000	0.050	-0.175
-159.750	-58.246	-0.401	0.172
-158.735	-96.784	-0.084	0.022
-157.720	-42.471	-0.048	0.024
-156.706	99.638	-0.173	-0.198
-155.691	800.000	0.077	-0.255
-154.677	-101.233	0.290	-0.070
-153.662	-137.184	-0.298	-0.034
-152.647	-200.000	-0.013	0.181
-151.633	800.000	-0.120	-0.393
-150.618	-100.865	-0.151	0.037
-149.604	800.000	-0.098	0.350
-148.589	-82.170	0.303	-0.098
-147.574	-67.874	0.204	0.079
-146.560	-200.000	-0.020	-0.265
-145.545	143.415	-0.179	0.235
-144.531	-126.439	0.093	0.014
-143.516	466.128	-0.156	0.344
-142.502	544.263	-0.066	-0.155
-141.487	152.856	-0.199	-0.269
-140.472	-200.000	0.047	0.225
-139.458	571.217	0.099	-0.237
-138.443	12.644	0.058	-0.044
-137.429	-37.984	-0.166	-0.087
-136.414	-180.513	-0.128	-0.003
-135.399	-46.072	-0.025	0.012
-134.385	464.647	-0.235	-0.518
-133.370	800.000	0.051	0.218
-132.356	-41.394	0.146	0.074
-131.341	-116.916	0.218	0.039
-130.326	800.000	-0.075	-0.207
-129.312	-143.952	-0.131	-0.012
-128.297	287.655	0.118	0.210
-127.283	136.607	-0.172	0.221
-126.268	-148.390	0.392	0.032
-125.253	51.395	-0.249	-0.233
-124.239	-50.280	-0.435	-0.203
-123.224	-66.393	-0.054	0.021
-122.210	-27.289	0.178	0.102
-121.195	-179.640	0.235	-0.005
