DTS Sentinel unit serial number:	SN413079Multiplexer serial number:	ORYXHardware model number:	OX4-SRSoftware version number:	ORYX F/W v4.00 Oryx Data Collector v3.7.2.0data status	okinstallation	princeton_trtdifferential loss correction	single-endedforward channel	channel 4reverse channel	N/Adate	2019/09/12time	09:19:11forward acquisition time	60.00reverse acquisition time	0.00gamma	496.2192k internal	0.2297k external	0.2297temperature offset calibration	1.0068default loss term (dB/km)	0.3790temperature slope calibration	1.0000multiplexer offset coefficient	1.0000multiplexer slope coefficient	1.0000fibre end	0.00T internal ref (°C)	34.98T ext. ref 1 (°C)	1.79T ext. ref 2 (°C)	33.49length (m)	temperature (°C)	Stokes	anti-Stokes-747.200	-96.119	0.317	0.086
-746.185	-200.000	-0.075	0.624
-745.171	-27.183	-0.399	0.238
-744.156	-146.818	-0.091	0.008
-743.142	8.792	-0.306	-0.235
-742.127	-18.834	-0.040	0.026
-741.112	-65.305	-0.290	0.119
-740.098	-200.000	0.005	-0.103
-739.083	-200.000	-0.095	-0.488
-738.069	276.807	0.126	0.229
-737.054	-105.428	-0.353	-0.082
-736.039	-44.105	-0.215	0.110
-735.025	215.362	0.155	0.251
-734.010	800.000	-0.031	-0.124
-732.996	-83.947	-0.300	-0.097
-731.981	800.000	0.039	0.172
-730.966	-74.354	0.088	0.032
-729.952	571.298	0.019	-0.048
-728.937	-183.088	-0.329	-0.006
-727.923	-200.000	-0.067	-0.420
-726.908	86.116	-0.095	0.106
-725.894	-127.109	-0.089	0.013
-724.879	-76.871	-0.180	0.064
-723.864	-37.402	-0.098	0.054
-722.850	77.672	-0.133	0.145
-721.835	431.997	-0.115	0.255
-720.821	86.241	0.156	-0.175
-719.806	-113.219	-0.151	-0.030
-718.791	-33.938	-0.321	-0.181
-717.777	-114.516	0.132	0.026
-716.762	-22.073	-0.104	-0.065
-715.748	-151.060	0.106	-0.008
-714.733	-200.000	0.012	-0.105
-713.718	156.931	0.146	0.206
-712.704	23.452	-0.154	-0.129
-711.689	-87.651	-0.385	0.119
-710.675	-200.000	-0.040	0.377
-709.660	48.702	0.066	-0.064
-708.645	120.237	0.068	-0.086
-707.631	39.204	0.087	0.079
-706.616	-152.709	-0.210	0.015
-705.602	305.394	-0.132	0.251
-704.587	533.197	-0.117	-0.282
-703.572	-133.121	0.207	-0.027
-702.558	125.216	-0.277	-0.357
-701.543	-117.414	0.258	0.048
-700.529	479.374	0.093	0.215
-699.514	-200.000	-0.006	0.068
-698.499	81.375	-0.327	-0.361
-697.485	472.187	-0.097	0.222
-696.470	-75.823	-0.326	0.118
-695.456	-200.000	0.010	-0.107
-694.441	32.605	0.268	0.236
-693.426	81.989	-0.156	-0.173
-692.412	25.110	-0.157	0.133
-691.397	-68.216	0.364	-0.144
-690.383	423.793	0.158	-0.347
-689.368	-200.000	0.059	0.329
-688.354	52.395	0.174	0.169
-687.339	-200.000	0.008	-0.258
-686.324	96.653	-0.056	-0.065
-685.310	-105.125	0.037	-0.009
-684.295	-200.000	0.040	-0.210
-683.281	519.149	0.154	-0.367
-682.266	623.023	0.033	-0.083
-681.251	-12.690	0.193	0.128
-680.237	146.478	0.074	0.101
-679.222	-60.222	0.099	-0.043
-678.208	-95.885	0.296	-0.080
-677.193	-110.413	-0.203	0.043
-676.178	-80.807	-0.126	0.043
-675.164	-97.197	0.218	-0.058
-674.149	-68.808	0.164	-0.064
-673.135	-5.783	-0.158	0.110
-672.120	-60.150	0.168	0.073
-671.105	-93.218	0.310	0.088
-670.091	-0.615	0.113	0.082
-669.076	-93.333	-0.123	0.035
-668.062	55.914	-0.353	0.349
-667.047	800.000	0.045	-0.183
-666.032	-97.275	0.420	-0.112
-665.018	-200.000	-0.009	-0.287
-664.003	-200.000	0.013	-0.261
-662.989	32.408	-0.107	0.094
-661.974	30.843	-0.093	-0.081
-660.959	195.648	-0.070	0.108
-659.945	528.596	-0.052	-0.125
-658.930	-200.000	-0.015	-0.332
-657.916	160.054	-0.256	-0.363
-656.901	-135.584	-0.111	-0.013
-655.886	-116.183	0.295	-0.056
-654.872	26.414	-0.209	-0.178
-653.857	800.000	0.004	0.016
-652.843	-112.062	-0.088	-0.018
-651.828	-200.000	-0.037	-0.177
-650.814	-200.000	-0.038	-0.271
-649.799	-135.420	-0.217	0.026
-648.784	800.000	-0.023	0.088
-647.770	112.810	0.087	0.108
-646.755	41.568	0.227	-0.210
-645.741	-57.228	0.064	-0.029
-644.726	-115.524	-0.207	0.040
-643.711	54.917	-0.076	0.075
-642.697	-200.000	0.003	-0.088
-641.682	10.120	-0.274	-0.212
-640.668	231.257	0.049	0.081
-639.653	800.000	-0.036	0.119
-638.638	-200.000	-0.019	0.196
-637.624	1.945	0.272	-0.199
-636.609	32.883	0.038	-0.033
-635.595	-200.000	-0.026	-0.155
-634.580	-163.241	0.161	-0.008
-633.565	-200.000	-0.056	-0.271
-632.551	128.949	-0.254	-0.329
-631.536	132.113	0.275	0.361
-630.522	-149.493	-0.164	-0.013
-629.507	800.000	0.054	-0.193
-628.492	800.000	0.025	-0.107
-627.478	-16.527	0.099	-0.064
-626.463	105.299	-0.324	-0.389
-625.449	-141.027	0.197	-0.021
-624.434	564.263	0.102	-0.251
-623.419	228.231	-0.151	-0.250
-622.405	-100.558	-0.144	0.036
-621.390	-62.136	0.177	-0.075
-620.376	126.690	0.062	0.080
-619.361	22.993	-0.145	0.121
-618.346	-31.353	0.286	-0.163
-617.332	206.043	-0.345	-0.546
-616.317	284.145	-0.093	0.169
-615.303	-25.761	-0.269	0.161
-614.288	297.072	0.188	-0.351
-613.273	14.408	-0.219	0.173
-612.259	800.000	-0.035	-0.099
-611.244	-200.000	-0.041	-0.246
-610.230	-12.004	-0.283	-0.189
-609.215	-72.569	0.334	-0.125
-608.201	208.814	0.267	0.424
-607.186	456.652	0.185	0.416
-606.171	800.000	-0.034	-0.107
-605.157	33.336	-0.177	-0.156
-604.142	226.414	0.136	0.224
-603.128	184.942	0.285	0.430
-602.113	-113.876	0.063	0.012
-601.098	65.752	0.148	-0.152
-600.084	-99.250	0.171	-0.044
-599.069	403.866	-0.194	-0.416
-598.055	28.998	0.156	-0.134
-597.040	800.000	-0.079	-0.251
-596.025	-25.524	-0.293	0.175
-595.011	372.255	-0.090	0.186
-593.996	48.700	0.079	-0.075
-592.982	-200.000	0.000	0.490
-591.967	-47.222	0.193	-0.096
-590.952	277.301	-0.170	-0.307
-589.938	-131.743	-0.093	0.012
-588.923	95.218	-0.201	0.232
-587.909	270.233	0.062	0.111
-586.894	-36.166	-0.134	0.073
-585.879	800.000	-0.043	0.163
-584.865	-43.262	0.220	0.113
-583.850	39.791	-0.144	0.131
-582.836	-117.391	-0.161	-0.030
-581.821	-78.057	0.187	-0.065
-580.806	800.000	-0.059	0.168
-579.792	-200.000	0.059	0.354
-578.777	-40.277	0.043	-0.023
-577.763	149.554	-0.119	-0.164
-576.748	-100.949	-0.069	0.017
-575.733	-41.455	0.192	-0.100
-574.719	232.095	-0.140	-0.233
-573.704	11.508	0.350	0.272
-572.690	-141.218	-0.181	-0.019
-571.675	45.200	-0.183	0.171
-570.661	36.442	0.094	0.084
-569.646	-53.249	-0.160	0.074
-568.631	-143.148	0.296	-0.029
-567.617	-72.888	-0.229	-0.085
-566.602	-32.869	0.343	0.193
-565.588	800.000	0.078	0.231
-564.573	85.363	-0.118	0.131
-563.558	-4.965	-0.403	-0.282
-562.544	-15.533	0.048	0.031
-561.529	146.377	0.079	0.108
-560.515	-200.000	-0.028	0.202
-559.500	276.983	0.096	-0.173
-558.485	-101.945	-0.133	-0.033
-557.471	26.988	0.253	0.215
-556.456	-51.052	-0.072	-0.034
-555.442	404.547	0.075	0.160
-554.427	-25.713	0.275	0.164
-553.412	147.837	-0.128	0.175
-552.398	341.213	-0.106	-0.210
-551.383	-90.743	-0.140	0.041
-550.369	123.973	-0.056	-0.071
-549.354	38.486	0.133	0.120
-548.339	474.511	-0.130	0.297
-547.325	13.066	0.117	0.092
-546.310	7.513	0.388	0.294
-545.296	-79.736	-0.281	-0.096
-544.281	-22.172	-0.346	-0.213
-543.266	-18.536	0.214	-0.135
-542.252	-84.700	0.303	0.097
-541.237	-32.116	-0.324	-0.184
-540.223	-200.000	0.002	0.066
-539.208	744.084	-0.005	0.013
-538.193	-81.466	0.179	0.060
-537.179	-200.000	-0.052	0.244
-536.164	-20.846	0.292	-0.181
-535.150	506.207	-0.054	0.127
-534.135	312.386	-0.114	0.217
-533.121	-121.256	0.074	0.012
-532.106	-200.000	0.003	0.222
-531.091	-200.000	-0.029	0.173
-530.077	-200.000	-0.030	0.187
-529.062	-141.691	0.131	-0.013
-528.048	-76.358	0.314	-0.112
-527.033	-200.000	0.466	-0.001
-526.018	-200.000	0.005	0.034
-525.004	-63.784	-0.094	-0.039
-523.989	-143.945	-0.338	-0.032
-522.975	-151.652	0.244	-0.018
-521.960	-200.000	0.004	0.095
-520.945	800.000	0.049	0.171
-519.931	-37.654	-0.278	0.150
-518.916	251.827	-0.078	-0.134
-517.902	-68.594	-0.225	-0.088
-516.887	-86.197	0.398	-0.124
-515.872	-200.000	0.005	0.032
-514.858	72.149	-0.231	-0.244
-513.843	-16.465	0.088	0.057
-512.829	-200.000	-0.008	-0.125
-511.814	-98.729	-0.173	0.045
-510.799	421.148	0.043	0.094
-509.785	-80.524	0.324	-0.109
-508.770	504.320	0.095	-0.223
-507.756	-16.357	0.136	-0.088
-506.741	-24.122	-0.111	-0.067
-505.726	59.397	-0.095	-0.095
-504.712	-25.601	0.046	0.027
-503.697	-200.000	0.002	-0.120
-502.683	193.116	-0.142	-0.217
-501.668	-88.816	-0.271	-0.081
-500.653	442.867	0.007	-0.016
-499.639	423.464	-0.034	0.074
-498.624	800.000	-0.055	0.177
-497.610	-200.000	-0.041	0.285
-496.595	-87.453	0.181	-0.055
-495.581	50.680	-0.202	-0.193
-494.566	75.240	-0.023	0.025
-493.551	-200.000	0.005	-0.409
-492.537	385.796	0.108	0.226
-491.522	-70.642	0.051	-0.019
-490.508	-151.675	0.179	0.013
-489.493	-58.775	0.265	-0.116
-488.478	178.777	-0.083	0.123
-487.464	340.120	-0.044	0.087
-486.449	-24.770	-0.242	0.145
-485.435	33.297	0.142	0.125
-484.420	-92.437	-0.217	-0.062
-483.405	437.054	-0.080	0.177
-482.391	66.531	0.116	0.119
-481.376	35.704	0.114	-0.102
-480.362	-116.570	0.105	0.019
-479.347	14.480	0.379	0.299
-478.332	-59.558	-0.330	-0.143
-477.318	170.837	0.160	-0.232
-476.303	51.697	-0.094	0.091
-475.289	-102.472	-0.089	-0.022
-474.274	139.722	0.144	0.192
-473.259	62.701	0.236	0.238
-472.245	-52.570	-0.105	-0.049
-471.230	-52.539	0.099	-0.046
-470.216	-113.822	0.290	-0.057
-469.201	-200.000	0.002	0.134
-468.186	685.692	0.062	0.163
-467.172	-15.864	-0.244	0.157
-466.157	-200.000	-0.011	-0.066
-465.143	-119.825	-0.281	0.049
-464.128	60.524	0.147	-0.147
-463.113	-64.595	-0.248	0.102
-462.099	-31.355	0.023	0.013
-461.084	114.727	-0.095	-0.117
-460.070	11.606	-0.183	-0.141
-459.055	-38.993	0.153	-0.081
-458.040	145.603	-0.181	-0.245
-457.026	800.000	-0.042	-0.135
-456.011	-33.919	-0.219	0.122
-454.997	-55.593	0.133	0.060
-453.982	-200.000	-0.010	0.150
-452.968	30.007	0.101	-0.087
-451.953	-179.483	0.287	-0.006
-450.938	112.322	0.060	0.074
-449.924	680.386	-0.057	0.151
-448.909	79.454	-0.195	0.211
-447.895	45.114	0.098	0.092
-446.880	-36.175	0.113	-0.061
-445.865	800.000	0.055	-0.154
-444.851	97.065	-0.242	-0.280
-443.836	-127.115	-0.504	0.075
-442.822	106.909	-0.070	-0.084
-441.807	-123.041	0.107	0.017
-440.792	313.196	0.074	0.141
-439.778	3.782	-0.157	-0.116
-438.763	505.871	-0.110	-0.258
-437.749	181.074	-0.141	0.208
-436.734	117.545	-0.069	-0.086
-435.719	271.983	-0.060	0.107
-434.705	-167.803	-0.070	0.003
-433.690	-92.314	0.132	0.038
-432.676	-5.965	-0.196	-0.136
-431.661	-200.000	0.047	0.331
-430.646	118.591	0.169	0.211
-429.632	-96.750	-0.358	0.095
-428.617	800.000	-0.085	-0.292
-427.603	-79.930	-0.148	0.050
-426.588	-200.000	-0.060	-0.354
-425.573	304.402	0.084	-0.158
-424.559	58.116	-0.137	-0.135
-423.544	40.596	-0.309	-0.281
-422.530	182.690	0.061	-0.091
-421.515	-200.000	0.019	0.113
-420.500	480.309	-0.098	0.224
-419.486	-21.716	0.038	0.023
-418.471	-74.914	-0.213	-0.077
-417.457	225.597	-0.104	-0.170
-416.442	365.283	0.137	0.279
-415.428	-200.000	-0.011	-0.130
-414.413	-200.000	0.056	-0.509
-413.398	47.385	-0.087	0.082
-412.384	-151.756	-0.074	-0.006
-411.369	-200.000	0.006	0.248
-410.355	23.191	-0.140	-0.116
-409.340	26.932	-0.090	0.076
-408.325	-151.204	-0.230	0.017
-407.311	-200.000	-0.036	0.220
-406.296	-115.106	-0.217	-0.042
-405.282	-21.751	-0.124	0.076
-404.267	-144.997	-0.100	0.009
-403.252	800.000	-0.107	-0.343
-402.238	-67.186	0.188	-0.075
-401.223	23.820	0.170	-0.141
-400.209	132.615	-0.144	-0.187
-399.194	-49.514	-0.624	-0.299
-398.179	141.964	0.077	-0.103
-397.165	201.659	0.072	0.113
-396.150	-200.000	-0.047	0.363
-395.136	-124.158	0.180	0.028
-394.121	-200.000	-0.021	0.191
-393.106	188.955	-0.081	0.122
-392.092	194.766	-0.136	-0.207
-391.077	82.735	0.112	-0.123
-390.063	14.418	-0.122	0.096
-389.048	-64.950	-0.364	0.148
-388.033	202.415	-0.064	-0.100
-387.019	44.206	-0.172	-0.159
-386.004	-105.545	0.323	0.074
-384.990	14.961	0.269	-0.212
-383.975	132.698	-0.076	-0.099
-382.960	17.874	-0.135	-0.108
-381.946	191.568	-0.236	0.358
-380.931	800.000	-0.065	-0.229
-379.917	-53.594	0.103	-0.047
-378.902	-200.000	0.006	0.132
-377.888	-43.635	0.169	0.086
-376.873	32.293	-0.051	-0.044
-375.858	800.000	0.062	-0.269
-374.844	800.000	-0.120	0.360
-373.829	-200.000	-0.003	-0.291
-372.815	334.394	-0.155	0.303
-371.800	-109.856	-0.180	0.038
-370.785	-13.883	0.077	-0.050
-369.771	367.755	-0.067	-0.137
-368.756	-73.913	-0.399	-0.146
-367.742	800.000	-0.070	-0.238
-366.727	-38.798	0.078	-0.042
-365.712	-200.000	0.009	-0.095
-364.698	-96.690	0.249	-0.066
-363.683	-47.924	-0.221	-0.108
-362.669	-200.000	-0.045	-0.330
-361.654	271.130	0.243	-0.430
-360.639	56.103	0.193	0.188
-359.625	52.645	-0.057	-0.055
-358.610	-28.961	0.116	-0.067
-357.596	-57.115	-0.091	0.040
-356.581	-200.000	-0.001	0.175
-355.566	213.417	0.092	-0.146
-354.552	-100.163	0.043	0.011
-353.537	-70.762	0.151	-0.057
-352.523	-139.876	0.361	0.038
-351.508	-200.000	0.016	0.248
-350.493	103.919	0.286	0.338
-349.479	367.189	-0.016	-0.032
-348.464	-16.200	-0.178	-0.114
-347.450	-0.567	0.186	-0.132
-346.435	27.883	0.113	-0.096
-345.420	20.431	0.068	-0.055
-344.406	-24.628	0.088	0.053
-343.391	-135.210	0.156	0.019
-342.377	65.984	0.190	-0.194
-341.362	-9.407	0.175	-0.118
-340.348	73.364	0.184	-0.193
-339.333	54.932	0.062	0.060
-338.318	800.000	0.036	-0.130
-337.304	-200.000	0.017	-0.163
-336.289	-200.000	-0.022	0.123
-335.275	579.104	0.088	-0.217
-334.260	-110.749	-0.248	0.051
-333.245	-200.000	0.017	-0.425
-332.231	-200.000	0.000	0.081
-331.216	149.314	-0.216	0.293
-330.202	261.379	-0.354	-0.617
-329.187	-119.966	0.355	-0.061
-328.172	-54.539	0.165	0.075
-327.158	52.971	0.061	-0.059
-326.143	-21.801	-0.208	-0.127
-325.129	-11.350	0.297	-0.196
-324.114	-200.000	-0.094	0.437
-323.099	466.925	0.048	0.109
-322.085	9.729	0.344	-0.262
-321.070	329.493	0.128	0.246
-320.056	430.756	-0.099	-0.215
-319.041	-22.892	-0.146	-0.089
-318.026	-109.910	0.476	-0.100
-317.012	226.957	-0.074	0.121
-315.997	-31.632	0.215	-0.121
-314.983	-79.423	-0.159	0.054
-313.968	139.149	0.122	0.161
-312.953	87.191	-0.130	0.145
-311.939	202.188	0.173	-0.268
-310.924	-127.114	0.359	-0.053
-309.910	-200.000	0.024	0.348
-308.895	-186.872	0.285	0.004
-307.880	-58.575	0.214	0.093
-306.866	-66.615	0.105	0.042
-305.851	408.982	-0.120	-0.255
-304.837	-9.077	0.175	0.118
-303.822	-112.634	-0.138	-0.028
-302.807	-139.157	-0.196	0.021
-301.793	800.000	-0.062	0.241
-300.778	-101.340	0.120	-0.029
-299.764	-176.751	-0.192	0.005
-298.749	-52.802	-0.081	-0.037
-297.735	800.000	-0.058	0.213
-296.720	349.078	0.041	0.081
-295.705	293.873	0.173	-0.317
-294.691	-62.671	-0.154	0.064
-293.676	800.000	-0.054	0.208
-292.662	202.171	0.087	0.135
-291.647	509.279	0.133	-0.310
-290.632	226.518	-0.111	0.181
-289.618	-74.088	0.272	0.099
-288.603	265.687	-0.121	0.211
-287.589	-114.018	0.253	-0.049
-286.574	295.227	-0.053	-0.098
-285.559	-200.000	0.019	0.115
-284.545	-119.889	0.298	-0.051
-283.530	-33.870	-0.303	-0.168
-282.516	307.436	-0.079	0.147
-281.501	800.000	-0.078	-0.220
-280.486	248.177	-0.141	0.240
-279.472	-44.215	0.413	0.208
-278.457	2.672	0.181	0.132
-277.443	-200.000	-0.086	-0.378
-276.428	92.049	0.116	-0.131
-275.413	-200.000	0.017	0.251
-274.399	286.296	-0.170	0.307
-273.384	235.302	-0.077	-0.128
-272.370	800.000	-0.046	0.129
-271.355	800.000	-0.032	0.094
-270.340	-160.925	0.123	0.007
-269.326	54.328	0.116	0.112
-268.311	-200.000	-0.026	0.134
-267.297	-200.000	-0.026	0.152
-266.282	-200.000	0.008	0.244
-265.267	10.239	-0.215	0.164
-264.253	9.289	0.247	-0.187
-263.238	-6.516	-0.173	0.118
-262.224	88.557	-0.303	0.338
-261.209	671.632	-0.116	-0.301
-260.195	286.113	-0.115	0.209
-259.180	283.951	0.158	0.284
-258.165	90.567	0.062	-0.070
-257.151	239.451	0.167	-0.279
-256.136	-91.795	-0.135	-0.038
-255.122	-114.602	-0.156	0.030
-254.107	-118.842	0.286	-0.050
-253.092	800.000	-0.045	-0.147
-252.078	-200.000	0.010	0.479
-251.063	-200.000	-0.000	-0.063
-250.049	-24.757	0.167	-0.099
-249.034	800.000	-0.034	-0.141
-248.019	-126.766	0.157	-0.023
-247.005	-42.308	-0.142	-0.073
-245.990	-200.000	-0.030	-0.212
-244.976	-200.000	-0.010	0.196
-243.961	9.579	-0.268	0.204
-242.946	3.061	-0.195	0.142
-241.932	146.502	-0.086	-0.115
-240.917	144.708	0.161	0.216
-239.903	-200.000	0.031	0.141
-238.888	68.658	-0.051	0.052
-237.873	800.000	-0.112	0.349
-236.859	14.598	-0.221	-0.173
-235.844	-200.000	0.013	-0.253
-234.830	-54.782	-0.136	0.061
-233.815	-200.000	-0.013	-0.158
-232.800	224.143	0.190	-0.307
-231.786	191.695	0.010	-0.015
-230.771	60.723	0.106	-0.105
-229.757	800.000	0.065	0.224
-228.742	-200.000	-0.013	0.107
-227.727	-39.843	-0.124	-0.065
-226.713	800.000	-0.015	0.053
-225.698	391.019	-0.090	-0.187
-224.684	-2.614	-0.094	-0.066
-223.669	48.959	0.136	0.127
-222.655	440.097	0.101	0.221
-221.640	-15.483	0.176	-0.112
-220.625	-83.728	-0.160	0.051
-219.611	162.174	0.242	0.339
-218.596	22.317	-0.039	0.032
-217.582	-82.730	0.513	-0.166
-216.567	168.055	-0.253	-0.360
-215.552	77.759	0.200	0.213
-214.538	441.079	-0.189	0.413
-213.523	-110.469	-0.316	0.066
-212.509	-38.091	-0.130	-0.069
-211.494	620.615	-0.136	0.341
-210.479	-96.585	0.372	-0.098
-209.465	-200.000	0.022	-0.140
-208.450	-38.050	0.262	-0.139
-207.436	-129.786	0.189	-0.026
-206.421	-154.246	0.290	-0.020
-205.406	6.634	-0.247	-0.183
-204.392	-200.000	-0.009	0.164
-203.377	651.994	-0.152	-0.389
-202.363	800.000	0.023	0.082
-201.348	63.255	-0.247	0.248
-200.333	42.790	0.114	0.103
-199.319	-11.991	0.150	-0.098
-198.304	-200.000	-0.020	-0.197
-197.290	147.004	-0.236	-0.318
-196.275	-107.876	-0.063	-0.014
-195.260	-117.660	-0.154	-0.028
-194.246	-52.199	0.184	0.085
-193.231	45.283	0.059	-0.054
-192.217	21.002	0.133	0.107
-191.202	69.718	0.153	-0.158
-190.187	528.432	0.082	0.194
-189.173	307.466	0.065	-0.121
-188.158	280.155	-0.038	0.067
-187.144	-18.768	-0.263	0.164
-186.129	-200.000	-0.018	0.172
-185.114	800.000	0.006	0.018
-184.100	235.213	0.099	0.164
-183.085	115.848	-0.146	0.178
-182.071	-146.757	-0.476	0.041
-181.056	163.643	0.151	0.212
-180.042	170.957	0.046	-0.066
-179.027	653.301	-0.155	0.396
-178.012	-200.000	0.050	0.362
-176.998	-84.895	-0.298	-0.094
-175.983	-42.849	0.350	-0.178
-174.969	-93.771	0.324	-0.089
-173.954	719.631	0.055	-0.146
-172.939	285.604	0.054	-0.097
-171.925	35.638	-0.241	-0.211
-170.910	-42.670	0.281	-0.143
-169.896	-200.000	-0.003	-0.300
-168.881	-33.711	0.243	0.134
-167.866	200.648	-0.075	-0.115
-166.852	-73.303	-0.132	0.048
-165.837	18.792	-0.041	-0.033
-164.823	455.581	0.082	-0.182
-163.808	-200.000	0.034	-0.180
-162.793	-43.101	-0.163	-0.083
-161.779	-200.000	0.019	0.109
-160.764	116.290	0.048	0.059
-159.750	197.758	-0.015	0.023
-158.735	800.000	0.134	-0.439
-157.720	-82.119	-0.079	0.026
-156.706	357.295	-0.163	0.325
-155.691	0.720	-0.082	0.059
-154.677	113.896	0.036	-0.044
-153.662	-200.000	-0.026	0.255
-152.647	381.216	-0.073	0.150
-151.633	-147.937	0.348	-0.029
-150.618	-100.591	-0.188	0.046
-149.604	-102.192	0.213	0.051
-148.589	800.000	0.081	-0.233
-147.574	-47.911	-0.244	-0.118
-146.560	-61.393	-0.098	0.041
-145.545	-18.465	-0.093	-0.058
-144.531	21.887	-0.154	-0.125
-143.516	-5.782	0.059	0.040
-142.502	800.000	-0.054	0.223
-141.487	-103.550	0.334	0.078
-140.472	491.380	0.099	-0.227
-139.458	-62.054	-0.081	0.034
-138.443	-41.833	0.319	0.163
-137.429	-129.949	0.268	-0.037
-136.414	-102.107	-0.172	0.041
-135.399	-37.710	0.310	0.165
-134.385	419.779	-0.119	-0.253
-133.370	-183.407	0.275	0.005
-132.356	-1.878	0.093	0.065
-131.341	-183.600	-0.215	-0.004
-130.326	7.084	0.092	0.069
-129.312	-158.722	-0.335	0.019
-128.297	-176.427	-0.213	-0.006
-127.283	-132.358	-0.109	-0.014
-126.268	-200.000	0.096	0.457
-125.253	8.327	-0.215	0.161
-124.239	800.000	-0.033	0.121
-123.224	-95.996	0.184	-0.049
-122.210	-157.503	-0.315	0.019
-121.195	69.667	0.087	0.089
