DTS Sentinel unit serial number:	SN413079Multiplexer serial number:	ORYXHardware model number:	OX4-SRSoftware version number:	ORYX F/W v4.00 Oryx Data Collector v3.7.2.0data status	okinstallation	princeton_trtdifferential loss correction	single-endedforward channel	channel 4reverse channel	N/Adate	2019/09/12time	17:39:11forward acquisition time	60.00reverse acquisition time	0.00gamma	496.2192k internal	0.2308k external	0.2308temperature offset calibration	1.0130default loss term (dB/km)	0.3790temperature slope calibration	1.0000multiplexer offset coefficient	1.0000multiplexer slope coefficient	1.0000fibre end	0.00T internal ref (°C)	34.34T ext. ref 1 (°C)	2.87T ext. ref 2 (°C)	28.37length (m)	temperature (°C)	Stokes	anti-Stokes-747.200	-58.079	-0.324	-0.143
-746.185	800.000	-0.047	0.135
-745.171	-49.421	-0.235	0.114
-744.156	85.091	0.227	0.253
-743.142	5.688	-0.113	0.085
-742.127	-200.000	0.049	0.226
-741.112	-12.881	0.245	-0.162
-740.098	-125.209	0.204	0.032
-739.083	800.000	0.030	0.132
-738.069	-200.000	-0.001	-0.156
-737.054	36.209	-0.244	-0.218
-736.039	-108.589	-0.292	0.064
-735.025	547.509	-0.040	0.096
-734.010	-98.589	0.049	-0.013
-732.996	16.364	-0.368	-0.295
-731.981	-200.000	0.037	-0.295
-730.966	224.286	-0.149	-0.244
-729.952	110.428	0.101	0.124
-728.937	-115.527	0.092	-0.018
-727.923	273.648	-0.091	-0.164
-726.908	-200.000	-0.010	0.105
-725.894	339.955	0.067	-0.133
-724.879	-173.108	-0.109	-0.003
-723.864	-200.000	-0.005	0.346
-722.850	800.000	0.094	0.328
-721.835	21.934	-0.128	0.106
-720.821	-200.000	0.013	0.215
-719.806	29.957	0.207	0.180
-718.791	100.203	-0.195	-0.229
-717.777	69.947	-0.094	-0.098
-716.762	82.087	0.148	-0.163
-715.748	-55.530	0.476	0.217
-714.733	800.000	-0.030	-0.101
-713.718	-3.642	0.406	0.286
-712.704	655.160	-0.030	0.079
-711.689	72.365	-0.182	-0.192
-710.675	800.000	0.024	-0.107
-709.660	-148.618	0.137	0.011
-708.645	-64.582	-0.177	-0.073
-707.631	-120.434	-0.336	0.058
-706.616	-200.000	0.007	-0.359
-705.602	80.693	0.216	-0.236
-704.587	-117.143	0.083	0.015
-703.572	238.315	-0.093	-0.156
-702.558	-17.034	0.041	-0.026
-701.543	352.848	-0.042	-0.084
-700.529	-200.000	0.018	-0.149
-699.514	241.990	0.077	-0.131
-698.499	-29.410	-0.196	0.114
-697.485	-48.252	-0.376	0.184
-696.470	-1.723	0.173	0.124
-695.456	-200.000	0.012	-0.149
-694.441	-119.279	-0.142	-0.025
-693.426	146.259	0.340	0.463
-692.412	-64.313	0.083	0.034
-691.397	165.705	-0.166	-0.239
-690.383	800.000	-0.069	-0.213
-689.368	322.793	-0.058	0.113
-688.354	124.911	0.133	0.170
-687.339	-200.000	0.067	-0.381
-686.324	-62.559	0.106	-0.045
-685.310	54.903	-0.156	-0.152
-684.295	-65.385	-0.430	-0.175
-683.281	-81.551	0.062	-0.021
-682.266	-13.748	0.262	-0.172
-681.251	-160.727	-0.238	0.013
-680.237	201.534	-0.051	-0.079
-679.222	-105.246	-0.017	0.004
-678.208	-44.435	-0.077	0.039
-677.193	174.956	-0.096	0.140
-676.178	328.022	-0.130	-0.253
-675.164	-117.235	-0.459	0.085
-674.149	-117.338	0.231	-0.042
-673.135	-200.000	0.024	0.107
-672.120	84.893	0.206	-0.229
-671.105	800.000	0.054	-0.153
-670.091	-200.000	0.001	0.322
-669.076	329.380	0.080	-0.156
-668.062	27.385	-0.094	-0.080
-667.047	56.785	0.124	0.123
-666.032	-34.970	0.121	0.067
-665.018	40.677	-0.039	-0.036
-664.003	219.693	-0.255	-0.413
-662.989	62.481	0.049	-0.049
-661.974	-3.451	-0.168	-0.118
-660.959	109.376	0.086	-0.105
-659.945	41.695	-0.145	-0.133
-658.930	380.885	-0.121	0.252
-657.916	-82.073	-0.399	0.132
-656.901	387.275	-0.167	-0.349
-655.886	134.427	-0.128	0.169
-654.872	-130.693	-0.081	0.011
-653.857	-116.657	-0.387	0.072
-652.843	246.586	-0.277	-0.473
-651.828	-200.000	0.026	-0.363
-650.814	163.907	0.176	0.252
-649.799	337.113	-0.192	0.377
-648.784	-200.000	0.035	-0.290
-647.770	-12.312	-0.284	-0.188
-646.755	3.288	0.305	-0.225
-645.741	351.919	0.241	-0.483
-644.726	-65.681	-0.104	0.042
-643.711	161.408	0.120	0.171
-642.697	-200.000	0.203	-0.000
-641.682	800.000	0.057	0.164
-640.668	-133.442	0.158	-0.020
-639.653	52.837	0.235	0.228
-638.638	89.562	0.206	-0.233
-637.624	48.864	0.038	0.036
-636.609	-190.296	0.140	-0.002
-635.595	-56.606	0.215	-0.096
-634.580	309.122	-0.117	-0.220
-633.565	-69.756	-0.083	-0.032
-632.551	-106.468	0.247	0.056
-631.536	2.026	0.174	0.127
-630.522	222.241	0.246	-0.401
-629.507	-200.000	-0.003	-0.133
-628.492	20.776	0.168	-0.137
-627.478	229.639	-0.154	-0.255
-626.463	423.791	0.107	-0.233
-625.449	171.352	-0.170	-0.247
-624.434	122.949	0.120	-0.151
-623.419	-86.844	0.219	-0.068
-622.405	90.703	0.158	-0.179
-621.390	-4.023	0.182	-0.128
-620.376	800.000	0.007	-0.023
-619.361	-86.124	0.177	0.055
-618.346	-200.000	0.051	0.275
-617.332	-56.359	0.304	-0.136
-616.317	800.000	-0.045	-0.146
-615.303	-1.291	-0.142	0.101
-614.288	-76.362	0.111	-0.040
-613.273	-171.109	-0.022	-0.001
-612.259	-131.721	0.164	-0.022
-611.244	-34.110	-0.223	0.124
-610.230	-137.846	0.183	0.021
-609.215	800.000	-0.075	0.222
-608.201	-22.712	0.296	-0.181
-607.186	224.727	-0.051	-0.083
-606.171	23.378	0.211	-0.176
-605.157	-200.000	-0.008	-0.166
-604.142	80.674	0.240	-0.261
-603.128	-47.765	-0.135	-0.066
-602.113	268.376	-0.076	0.135
-601.098	-18.490	0.120	0.076
-600.084	-200.000	-0.004	-0.152
-599.069	4.234	-0.154	-0.114
-598.055	-200.000	-0.006	-0.126
-597.040	730.772	-0.113	0.304
-596.025	800.000	-0.034	0.119
-595.011	451.684	0.089	-0.198
-593.996	472.314	0.035	0.080
-592.982	47.199	-0.053	-0.050
-591.967	-200.000	-0.002	-0.266
-590.952	75.627	-0.070	0.075
-589.938	39.667	-0.129	-0.117
-588.923	108.187	0.201	-0.242
-587.909	-112.933	0.285	0.057
-586.894	800.000	-0.024	0.098
-585.879	44.391	0.148	0.137
-584.865	171.756	-0.093	-0.135
-583.850	-21.546	-0.194	0.120
-582.836	70.193	0.162	0.169
-581.821	240.201	-0.083	-0.140
-580.806	333.951	0.174	0.339
-579.792	-26.278	-0.247	-0.146
-578.777	213.929	0.114	-0.182
-577.763	-81.018	0.276	0.092
-576.748	-87.670	-0.232	-0.071
-575.733	-200.000	-0.039	-0.284
-574.719	-200.000	0.049	0.238
-573.704	577.840	0.181	0.447
-572.690	-200.000	-0.018	0.117
-571.675	-200.000	-0.019	-0.117
-570.661	200.909	0.069	-0.108
-569.646	-200.000	-0.031	0.288
-568.631	-44.702	0.340	-0.171
-567.617	-42.652	0.260	0.134
-566.602	120.660	-0.185	-0.232
-565.588	117.401	-0.195	-0.242
-564.573	-200.000	0.006	0.181
-563.558	280.227	0.147	0.265
-562.544	-133.785	-0.045	0.006
-561.529	-163.129	0.291	0.014
-560.515	-104.671	-0.202	-0.047
-559.500	-57.666	-0.016	-0.007
-558.485	-200.000	-0.026	-0.226
-557.471	54.122	-0.273	0.265
-556.456	495.705	0.099	0.230
-555.442	800.000	-0.126	0.457
-554.427	-57.240	-0.336	-0.149
-553.412	-131.156	-0.194	0.026
-552.398	-200.000	0.021	-0.311
-551.383	-200.000	-0.042	-0.197
-550.369	-200.000	-0.008	-0.215
-549.354	-22.112	-0.123	-0.075
-548.339	-200.000	-0.015	0.174
-547.325	299.773	0.084	0.155
-546.310	800.000	-0.041	0.153
-545.296	293.235	0.127	0.233
-544.281	-98.174	0.273	0.071
-543.266	20.088	0.082	-0.067
-542.252	66.894	-0.109	0.111
-541.237	-128.499	-0.215	0.031
-540.223	-144.555	0.254	-0.024
-539.208	-89.321	0.198	-0.059
-538.193	-200.000	-0.000	0.128
-537.179	767.539	0.086	-0.237
-536.164	7.308	-0.090	-0.067
-535.150	800.000	0.045	-0.177
-534.135	-38.858	0.320	0.170
-533.121	294.318	0.102	-0.188
-532.106	-9.557	0.092	-0.062
-531.091	-175.052	-0.240	-0.007
-530.077	-200.000	0.044	-0.209
-529.062	-200.000	-0.055	0.281
-528.048	629.689	0.167	0.425
-527.033	-151.712	0.039	0.003
-526.018	23.885	0.115	-0.096
-525.004	230.726	0.195	0.321
-523.989	-56.908	-0.138	-0.061
-522.975	146.354	-0.118	-0.159
-521.960	-64.640	-0.373	-0.152
-520.945	-107.549	-0.078	0.017
-519.931	-127.302	0.241	0.035
-518.916	-74.934	-0.307	0.111
-517.902	-11.499	0.238	0.158
-516.887	470.320	0.056	0.127
-515.872	-200.000	-0.038	0.173
-514.858	-138.412	0.394	0.044
-513.843	-77.973	-0.244	-0.085
-512.829	-161.944	0.071	-0.004
-511.814	179.907	-0.105	0.155
-510.799	281.295	-0.026	0.047
-509.785	-35.590	0.313	0.171
-508.770	312.294	0.147	0.278
-507.756	-200.000	0.036	-0.231
-506.741	326.305	-0.076	-0.146
-505.726	221.946	-0.029	0.046
-504.712	37.316	0.191	0.171
-503.697	800.000	0.034	-0.146
-502.683	-160.307	-0.304	-0.017
-501.668	-3.005	0.133	-0.094
-500.653	196.204	-0.167	0.255
-499.639	574.946	0.238	-0.585
-498.624	319.027	-0.148	-0.282
-497.610	7.924	-0.256	0.194
-496.595	800.000	-0.123	0.434
-495.581	624.359	-0.201	0.510
-494.566	-38.540	0.168	-0.089
-493.551	-142.653	0.401	0.039
-492.537	-200.000	0.000	-0.069
-491.522	-70.845	0.102	0.039
-490.508	288.709	-0.125	-0.227
-489.493	262.193	-0.061	0.106
-488.478	648.494	-0.179	-0.462
-487.464	96.275	-0.328	-0.377
-486.449	281.089	0.167	-0.301
-485.435	800.000	0.015	-0.051
-484.420	-27.480	-0.179	0.105
-483.405	155.145	-0.050	0.069
-482.391	57.408	0.136	-0.133
-481.376	800.000	-0.072	-0.226
-480.362	-97.797	-0.140	0.036
-479.347	164.623	-0.205	-0.292
-478.332	-51.436	-0.118	-0.055
-477.318	610.811	0.111	-0.278
-476.303	-130.695	0.242	-0.033
-475.289	-63.946	0.155	-0.064
-474.274	-106.506	0.234	0.052
-473.259	17.300	-0.139	-0.111
-472.245	66.353	0.204	-0.209
-471.230	3.344	0.124	-0.091
-470.216	-80.031	-0.231	-0.078
-469.201	-200.000	0.000	-0.066
-468.186	-35.000	0.096	0.052
-467.172	161.574	-0.233	0.327
-466.157	90.562	0.108	0.122
-465.143	-156.724	0.327	-0.020
-464.128	-200.000	0.028	-0.387
-463.113	-15.182	0.206	0.133
-462.099	-59.850	0.110	-0.047
-461.084	-16.761	-0.166	-0.106
-460.070	-52.669	-0.126	-0.059
-459.055	119.326	0.084	-0.104
-458.040	360.568	-0.109	0.220
-457.026	-154.617	0.213	0.014
-456.011	147.880	-0.139	-0.189
-454.997	-77.883	-0.090	0.031
-453.982	-119.317	-0.324	-0.057
-452.968	91.158	0.126	0.142
-451.953	-136.838	0.196	0.023
-450.938	-200.000	-0.021	0.271
-449.924	49.352	0.124	0.118
-448.909	497.016	-0.052	-0.119
-447.895	291.497	0.170	0.310
-446.880	-60.379	-0.285	-0.122
-445.865	-200.000	-0.030	0.244
-444.851	-94.339	-0.277	0.076
-443.836	-41.310	-0.199	0.103
-442.822	-200.000	0.016	-0.103
-441.807	346.180	0.105	0.208
-440.792	-200.000	0.005	0.027
-439.778	445.501	0.064	0.140
-438.763	22.801	-0.310	0.255
-437.749	77.147	0.185	-0.197
-436.734	87.042	-0.087	-0.097
-435.719	-7.114	0.172	-0.117
-434.705	-86.261	0.244	-0.075
-433.690	-86.510	-0.135	-0.042
-432.676	-106.119	0.221	-0.050
-431.661	507.421	0.160	-0.372
-430.646	-66.281	0.283	-0.113
-429.632	250.596	-0.109	0.185
-428.617	800.000	0.041	-0.154
-427.603	-10.129	0.129	0.086
-426.588	-48.120	-0.198	-0.096
-425.573	-3.582	-0.141	0.098
-424.559	87.301	-0.170	0.189
-423.544	569.207	-0.160	0.390
-422.530	19.375	0.102	-0.082
-421.515	115.242	0.140	0.171
-420.500	51.255	-0.207	0.198
-419.486	-200.000	-0.010	0.220
-418.471	800.000	-0.037	0.144
-417.457	-8.693	-0.332	0.224
-416.442	225.775	0.148	-0.241
-415.428	88.798	0.060	-0.067
-414.413	-13.133	0.256	0.167
-413.398	-114.173	0.083	0.016
-412.384	-104.075	0.171	0.040
-411.369	139.770	-0.131	0.173
-410.355	-86.689	-0.279	0.086
-409.340	472.712	0.042	0.095
-408.325	166.567	-0.103	0.147
-407.311	-200.000	-0.009	0.111
-406.296	-25.199	-0.249	-0.148
-405.282	-19.143	0.072	-0.045
-404.267	-105.855	0.437	-0.099
-403.252	112.049	-0.290	-0.351
-402.238	-42.771	-0.395	-0.201
-401.223	-31.102	0.201	0.114
-400.209	-87.609	-0.275	0.083
-399.194	-200.000	-0.026	-0.149
-398.179	-159.670	0.321	-0.018
-397.165	-16.975	-0.082	-0.052
-396.150	59.990	-0.052	-0.051
-395.136	-70.522	-0.015	-0.006
-394.121	507.529	0.084	-0.195
-393.106	96.839	-0.158	-0.182
-392.092	103.081	-0.077	-0.090
-391.077	61.899	-0.140	0.140
-390.063	586.783	0.153	-0.377
-389.048	325.015	-0.155	0.296
-388.033	4.027	0.122	0.089
-387.019	421.314	-0.113	0.244
-386.004	-141.063	-0.478	0.049
-384.990	-200.000	0.009	-0.158
-383.975	13.766	-0.170	0.133
-382.960	-50.226	-0.136	-0.064
-381.946	218.435	-0.100	0.160
-380.931	-200.000	0.012	-0.292
-379.917	12.500	-0.127	-0.098
-378.902	-0.495	-0.380	0.270
-377.888	-200.000	-0.011	0.207
-376.873	252.950	-0.118	0.201
-375.858	800.000	-0.052	-0.177
-374.844	-36.928	0.114	0.061
-373.829	-16.734	0.281	-0.178
-372.815	-200.000	0.014	0.327
-371.800	105.384	-0.196	0.232
-370.785	-26.570	-0.181	0.106
-369.771	308.186	0.043	-0.079
-368.756	-99.950	0.221	-0.055
-367.742	4.683	0.083	0.061
-366.727	552.331	-0.126	-0.304
-365.712	-2.398	0.136	0.096
-364.698	166.798	0.146	-0.207
-363.683	800.000	-0.063	0.246
-362.669	800.000	-0.139	0.453
-361.654	318.049	-0.065	-0.122
-360.639	-85.343	-0.092	0.029
-359.625	-8.314	-0.214	-0.144
-358.610	609.509	0.069	-0.172
-357.596	77.481	0.091	-0.097
-356.581	-200.000	0.001	-0.080
-355.566	39.624	-0.206	-0.185
-354.552	800.000	-0.052	-0.158
-353.537	-170.657	0.086	-0.003
-352.523	250.874	0.031	0.053
-351.508	-52.044	-0.280	0.130
-350.493	-200.000	-0.065	0.364
-349.479	-95.839	-0.216	0.058
-348.464	6.198	0.017	0.013
-347.450	-30.669	-0.191	-0.108
-346.435	73.134	-0.141	-0.148
-345.420	-74.531	-0.178	-0.064
-344.406	-7.381	0.118	0.080
-343.391	-11.830	-0.110	0.072
-342.377	-167.028	-0.227	-0.009
-341.362	46.060	-0.097	0.090
-340.348	-77.017	-0.152	0.053
-339.333	71.763	0.205	0.213
-338.318	-200.000	-0.043	0.255
-337.304	174.129	0.115	0.166
-336.289	207.512	0.159	-0.249
-335.275	30.428	0.154	-0.132
-334.260	-32.280	-0.190	0.106
-333.245	-52.971	-0.179	-0.083
-332.231	423.219	0.057	-0.123
-331.216	-54.198	0.209	0.095
-330.202	-44.976	0.057	0.029
-329.187	800.000	-0.080	0.220
-328.172	452.256	-0.140	0.310
-327.158	800.000	0.029	0.124
-326.143	800.000	0.104	0.321
-325.129	33.475	-0.209	0.181
-324.114	-165.468	0.300	-0.013
-323.099	-24.979	-0.121	0.072
-322.085	-182.516	0.367	0.007
-321.070	13.698	-0.246	0.191
-320.056	-74.355	0.277	0.100
-319.041	-16.833	-0.158	-0.100
-318.026	181.878	-0.120	-0.177
-317.012	-200.000	0.070	-0.344
-315.997	800.000	-0.112	0.368
-314.983	101.946	0.078	0.091
-313.968	800.000	0.039	0.119
-312.953	-200.000	0.024	-0.207
-311.939	-8.502	0.206	0.139
-310.924	800.000	0.064	-0.269
-309.910	-68.772	-0.159	-0.061
-308.895	415.555	0.083	-0.176
-307.880	-200.000	-0.012	0.067
-306.866	-153.932	-0.207	0.014
-305.851	-71.002	-0.302	-0.114
-304.837	-26.529	-0.225	-0.131
-303.822	-60.690	0.220	-0.093
-302.807	800.000	0.075	0.218
-301.793	-103.644	0.093	-0.022
-300.778	-200.000	-0.020	-0.133
-299.764	-200.000	-0.021	0.291
-298.749	-37.192	-0.133	-0.071
-297.735	-118.164	-0.055	-0.010
-296.720	-98.833	0.308	-0.078
-295.705	-70.970	0.193	-0.073
-294.691	211.890	0.043	0.068
-293.676	5.373	0.315	-0.232
-292.662	-200.000	-0.023	-0.206
-291.647	800.000	-0.102	-0.307
-290.632	800.000	0.004	0.014
-289.618	320.920	0.081	0.153
-288.603	-75.975	-0.141	0.050
-287.589	-139.615	0.243	-0.026
-286.574	-122.245	-0.169	0.028
-285.559	-168.605	-0.427	-0.016
-284.545	-125.394	0.177	0.027
-283.530	-200.000	-0.039	0.173
-282.516	-200.000	-0.003	-0.067
-281.501	-200.000	-0.002	-0.156
-280.486	-200.000	-0.029	0.193
-279.472	-169.020	-0.109	0.004
-278.457	129.690	0.109	-0.139
-277.443	-114.085	-0.161	0.031
-276.428	800.000	-0.041	0.167
-275.413	-116.361	-0.131	0.024
-274.399	131.110	-0.040	-0.051
-273.384	-200.000	-0.032	-0.191
-272.370	800.000	0.060	0.209
-271.355	-87.864	0.073	-0.022
-270.340	59.315	0.058	-0.057
-269.326	-200.000	-0.001	-0.288
-268.311	-96.367	0.196	-0.052
-267.297	-116.776	-0.333	-0.061
-266.282	61.224	0.063	0.062
-265.267	-21.885	-0.214	0.130
-264.253	-93.969	0.179	-0.049
-263.238	-139.803	-0.575	-0.061
-262.224	-84.061	0.143	0.045
-261.209	-185.925	-0.085	0.001
-260.195	-200.000	-0.000	0.109
-259.180	-22.405	-0.134	-0.081
-258.165	-128.194	0.443	-0.063
-257.151	-200.000	-0.026	0.373
-256.136	-74.756	-0.328	0.118
-255.122	-200.000	0.019	0.142
-254.107	41.631	-0.150	0.136
-253.092	-55.835	0.404	-0.180
-252.078	-200.000	0.007	-0.282
-251.063	-66.106	0.294	-0.117
-250.049	109.061	0.083	0.098
-249.034	-103.772	0.041	-0.010
-248.019	-145.508	-0.079	-0.007
-247.005	46.342	0.184	0.170
-245.990	-200.000	0.039	0.260
-244.976	-200.000	0.086	-0.423
-243.961	-87.579	0.187	-0.056
-242.946	271.245	-0.108	0.189
-241.932	-89.393	-0.335	0.098
-240.917	-200.000	-0.004	-0.057
-239.903	-80.834	-0.201	-0.067
-238.888	134.956	0.074	0.096
-237.873	531.663	-0.040	0.094
-236.859	800.000	-0.070	-0.238
-235.844	-120.588	-0.155	-0.026
-234.830	-148.989	-0.272	-0.022
-233.815	-60.441	0.217	0.092
-232.800	-49.320	0.026	-0.012
-231.786	-147.122	0.071	-0.006
-230.771	212.827	-0.198	-0.311
-229.757	-200.000	0.000	-0.052
-228.742	336.583	-0.130	-0.251
-227.727	57.169	-0.274	-0.266
-226.713	45.676	0.091	0.084
-225.698	38.121	0.039	0.034
-224.684	-124.460	0.325	0.050
-223.669	79.456	-0.088	-0.094
-222.655	-66.825	-0.245	-0.096
-221.640	-142.724	0.349	-0.034
-220.625	-17.050	-0.044	0.027
-219.611	788.076	0.012	-0.032
-218.596	108.824	-0.086	-0.102
-217.582	626.501	-0.015	0.038
-216.567	272.289	-0.156	-0.273
-215.552	45.624	-0.169	-0.155
-214.538	43.360	-0.112	0.101
-213.523	-32.629	0.166	0.092
-212.509	-17.623	-0.211	0.132
-211.494	160.090	-0.140	-0.195
-210.479	100.746	-0.155	-0.179
-209.465	-174.935	-0.223	-0.006
-208.450	-167.080	-0.016	0.001
-207.436	155.017	-0.169	0.232
-206.421	-200.000	-0.012	-0.173
-205.406	88.823	0.195	0.216
-204.392	159.646	0.323	0.447
-203.377	-9.123	0.139	0.092
-202.363	-75.382	0.085	0.030
-201.348	-200.000	-0.015	0.111
-200.333	-200.000	0.020	0.352
-199.319	-88.675	0.304	0.090
-198.304	768.796	0.037	-0.099
-197.290	800.000	0.015	-0.042
-196.275	-42.679	-0.302	0.153
-195.260	-49.008	0.172	0.082
-194.246	-200.000	-0.068	0.299
-193.231	800.000	-0.067	0.240
-192.217	241.046	-0.112	-0.186
-191.202	-146.311	0.010	0.001
-190.187	-200.000	0.021	-0.177
-189.173	-45.938	-0.217	-0.107
-188.158	141.428	-0.197	0.259
-187.144	-200.000	0.022	0.244
-186.129	-98.092	-0.108	0.028
-185.114	-104.037	0.171	-0.040
-184.100	135.929	0.164	-0.212
-183.085	214.719	0.059	-0.092
-182.071	60.665	-0.193	0.190
-181.056	-188.000	0.150	-0.002
-180.042	355.318	0.159	-0.314
-179.027	-6.371	-0.410	0.278
-178.012	-200.000	0.056	-0.266
-176.998	-160.030	0.295	-0.016
-175.983	-19.213	0.224	-0.138
-174.969	73.806	-0.094	0.098
-173.954	-54.083	-0.246	0.111
-172.939	-71.412	0.041	-0.015
-171.925	-38.028	0.263	0.139
-170.910	-59.067	0.110	0.047
-169.896	-66.773	-0.331	0.130
-168.881	800.000	0.093	0.342
-167.866	4.606	-0.213	0.156
-166.852	800.000	-0.048	-0.135
-165.837	-16.906	0.206	0.129
-164.823	189.329	0.151	-0.224
-163.808	276.789	-0.142	-0.251
-162.793	21.327	0.065	-0.053
-161.779	-73.212	0.036	-0.013
-160.764	-10.317	0.255	0.168
-159.750	800.000	-0.086	0.330
-158.735	800.000	0.036	0.106
-157.720	-200.000	-0.034	0.327
-156.706	-11.191	-0.102	0.067
-155.691	-80.526	0.175	-0.058
-154.677	-200.000	0.010	0.129
-153.662	-200.000	-0.044	-0.364
-152.647	154.861	-0.180	-0.246
-151.633	-200.000	0.051	-0.248
-150.618	-200.000	0.021	-0.194
-149.604	-65.670	0.267	-0.106
-148.589	733.447	-0.106	-0.282
-147.574	351.902	0.065	0.129
-146.560	800.000	-0.073	0.201
-145.545	-180.868	0.298	0.006
-144.531	800.000	0.045	0.132
-143.516	-200.000	-0.022	0.122
-142.502	-64.149	-0.303	0.123
-141.487	-200.000	0.025	0.188
-140.472	493.896	0.056	-0.128
-139.458	36.725	-0.210	-0.184
-138.443	116.429	0.141	-0.171
-137.429	182.774	-0.005	-0.007
-136.414	-200.000	0.015	-0.138
-135.399	286.453	0.076	-0.136
-134.385	191.304	-0.236	0.352
-133.370	310.155	0.064	0.119
-132.356	-33.531	-0.172	-0.094
-131.341	52.487	0.265	-0.251
-130.326	-76.744	-0.183	-0.064
-129.312	800.000	-0.033	0.116
-128.297	84.726	-0.229	0.249
-127.283	-48.980	0.103	0.049
-126.268	-38.228	-0.260	-0.137
-125.253	108.267	0.186	0.220
-124.239	133.158	-0.178	0.228
-123.224	74.683	-0.081	-0.085
-122.210	22.882	0.191	0.155
-121.195	-200.000	0.120	0.594
