DTS Sentinel unit serial number:	SN413079Multiplexer serial number:	ORYXHardware model number:	OX4-SRSoftware version number:	ORYX F/W v4.00 Oryx Data Collector v3.7.2.0data status	okinstallation	princeton_trtdifferential loss correction	single-endedforward channel	channel 4reverse channel	N/Adate	2019/09/19time	07:01:35forward acquisition time	60.00reverse acquisition time	0.00gamma	496.2192k internal	0.2340k external	0.2340temperature offset calibration	1.0026default loss term (dB/km)	0.3790temperature slope calibration	1.0000multiplexer offset coefficient	1.0000multiplexer slope coefficient	1.0000fibre end	0.00T internal ref (°C)	19.00T ext. ref 1 (°C)	0.56T ext. ref 2 (°C)	12.95length (m)	temperature (°C)	Stokes	anti-Stokes-747.200	-200.000	0.007	-0.106
-746.185	-94.352	-0.308	-0.084
-745.171	274.294	0.189	-0.336
-744.156	605.030	0.145	0.362
-743.142	800.000	-0.082	-0.255
-742.127	257.788	0.136	0.234
-741.112	365.348	0.164	-0.331
-740.098	99.758	-0.186	0.216
-739.083	468.260	0.154	-0.346
-738.069	-200.000	-0.024	-0.140
-737.054	800.000	0.003	0.013
-736.039	3.760	-0.242	-0.177
-735.025	283.302	0.114	-0.205
-734.010	91.115	-0.101	0.114
-732.996	-127.935	-0.429	-0.062
-731.981	514.361	-0.043	0.101
-730.966	445.203	0.058	-0.128
-729.952	-200.000	0.003	0.333
-728.937	309.341	-0.080	-0.151
-727.923	-200.000	-0.041	0.196
-726.908	165.141	-0.095	0.135
-725.894	-4.141	-0.142	0.099
-724.879	408.918	-0.100	-0.211
-723.864	63.903	-0.311	0.313
-722.850	-76.935	-0.118	-0.041
-721.835	-200.000	0.040	-0.202
-720.821	800.000	0.117	-0.395
-719.806	123.637	0.146	0.184
-718.791	-70.920	0.400	0.151
-717.777	-149.224	-0.178	0.014
-716.762	-35.683	0.225	-0.122
-715.748	124.012	-0.162	-0.204
-714.733	-7.739	-0.108	0.073
-713.718	-200.000	-0.003	-0.021
-712.704	-36.112	-0.107	0.058
-711.689	800.000	0.057	-0.233
-710.675	282.618	0.166	-0.298
-709.660	-68.286	0.082	-0.032
-708.645	738.820	0.097	0.260
-707.631	-138.819	-0.156	0.017
-706.616	93.834	-0.309	0.350
-705.602	-45.539	0.074	0.037
-704.587	222.877	-0.204	-0.329
-703.572	175.646	0.099	0.143
-702.558	-160.575	-0.184	-0.010
-701.543	800.000	-0.049	0.196
-700.529	79.120	0.012	0.013
-699.514	800.000	0.030	0.082
-698.499	434.465	-0.101	-0.220
-697.485	286.738	-0.091	0.165
-696.470	-33.533	0.088	-0.049
-695.456	-164.500	-0.130	0.006
-694.441	800.000	-0.046	0.140
-693.426	83.949	0.351	0.383
-692.412	800.000	-0.034	0.140
-691.397	80.917	-0.030	-0.032
-690.383	-23.747	0.221	0.132
-689.368	299.922	-0.195	0.360
-688.354	239.726	0.109	-0.182
-687.339	-124.347	-0.274	0.043
-686.324	800.000	-0.046	-0.136
-685.310	-61.195	-0.007	-0.003
-684.295	312.704	0.073	-0.137
-683.281	-200.000	-0.007	-0.039
-682.266	800.000	-0.123	-0.398
-681.251	800.000	-0.033	0.126
-680.237	-120.218	-0.064	0.011
-679.222	800.000	0.104	0.382
-678.208	-200.000	0.036	0.164
-677.193	-200.000	0.069	0.515
-676.178	-200.000	0.007	0.130
-675.164	-200.000	0.033	0.295
-674.149	550.894	-0.042	-0.102
-673.135	157.554	-0.277	-0.384
-672.120	-100.407	0.172	0.043
-671.105	-200.000	-0.009	0.170
-670.091	68.275	-0.047	0.048
-669.076	800.000	0.166	-0.508
-668.062	427.965	-0.128	-0.275
-667.047	289.066	0.102	-0.186
-666.032	636.941	0.089	-0.227
-665.018	-116.304	-0.310	-0.057
-664.003	800.000	-0.023	-0.079
-662.989	392.491	0.097	-0.202
-661.974	-39.126	-0.287	-0.151
-660.959	800.000	-0.079	0.265
-659.945	-5.819	0.227	0.156
-658.930	-140.599	-0.261	-0.027
-657.916	-200.000	-0.032	-0.205
-656.901	-9.109	-0.216	-0.144
-655.886	372.326	0.019	0.038
-654.872	20.240	0.209	-0.168
-653.857	-151.471	-0.105	-0.008
-652.843	800.000	-0.101	-0.291
-651.828	-59.747	0.378	0.162
-650.814	154.907	0.108	-0.148
-649.799	-175.565	-0.210	-0.006
-648.784	588.898	-0.052	-0.127
-647.770	-85.227	-0.238	-0.074
-646.755	170.909	-0.044	-0.063
-645.741	-24.041	-0.455	0.271
-644.726	-89.537	0.096	-0.028
-643.711	-30.959	0.231	-0.131
-642.697	488.768	0.088	0.201
-641.682	-126.255	-0.229	0.034
-640.668	800.000	0.037	-0.110
-639.653	-200.000	0.006	0.091
-638.638	120.802	0.028	0.034
-637.624	-123.638	0.214	0.034
-636.609	800.000	0.010	0.042
-635.595	35.685	-0.198	0.173
-634.580	-61.280	-0.048	-0.020
-633.565	-200.000	0.057	0.269
-632.551	-200.000	0.022	-0.232
-631.536	312.850	0.029	-0.055
-630.522	-42.592	-0.122	0.062
-629.507	-175.830	-0.248	0.007
-628.492	-60.853	-0.073	-0.031
-627.478	28.022	-0.161	-0.136
-626.463	-200.000	0.035	0.201
-625.449	126.896	-0.196	0.248
-624.434	174.961	0.177	-0.256
-623.419	19.515	0.149	-0.120
-622.405	800.000	-0.105	-0.447
-621.390	-200.000	0.022	0.105
-620.376	44.468	0.155	-0.142
-619.361	-62.101	-0.323	0.134
-618.346	-43.759	-0.658	0.331
-617.332	-200.000	-0.083	-0.483
-616.317	-200.000	-0.006	0.118
-615.303	-200.000	-0.051	0.276
-614.288	-57.882	0.349	0.152
-613.273	125.399	-0.093	0.117
-612.259	-99.394	-0.235	0.059
-611.244	2.449	0.461	0.333
-610.230	-137.583	-0.161	-0.018
-609.215	-200.000	0.016	0.118
-608.201	152.367	-0.087	0.118
-607.186	-200.000	0.008	0.263
-606.171	112.155	0.074	-0.090
-605.157	54.591	-0.136	0.131
-604.142	-82.603	0.123	0.040
-603.128	-163.497	0.079	-0.004
-602.113	-65.159	-0.197	-0.079
-601.098	-119.431	0.130	-0.023
-600.084	-200.000	-0.022	0.225
-599.069	-198.246	0.221	0.001
-598.055	2.605	-0.162	-0.117
-597.040	800.000	0.121	0.347
-596.025	137.870	0.135	-0.177
-595.011	272.724	-0.109	-0.192
-593.996	-23.886	0.178	0.106
-592.982	-200.000	-0.015	-0.175
-591.967	-200.000	0.012	-0.201
-590.952	68.969	0.238	-0.244
-589.938	-200.000	-0.079	-0.377
-588.923	1.226	-0.169	-0.121
-587.909	50.059	-0.174	-0.164
-586.894	-17.938	-0.334	-0.209
-585.879	236.015	-0.093	-0.153
-584.865	-28.356	-0.123	0.071
-583.850	800.000	-0.051	0.190
-582.836	25.764	-0.121	-0.100
-581.821	-161.149	-0.302	0.016
-580.806	52.050	0.255	0.242
-579.792	800.000	0.058	-0.221
-578.777	-200.000	-0.025	0.154
-577.763	43.407	-0.218	-0.199
-576.748	-80.238	0.032	0.011
-575.733	-58.035	0.191	-0.083
-574.719	-200.000	-0.008	0.050
-573.704	-170.267	-0.199	-0.007
-572.690	-23.819	0.328	0.196
-571.675	-200.000	0.017	-0.111
-570.661	-37.287	0.230	0.123
-569.646	-113.339	-0.225	-0.044
-568.631	51.469	0.185	0.175
-567.617	-32.475	-0.232	-0.129
-566.602	95.477	0.237	0.269
-565.588	-2.617	0.229	0.159
-564.573	-79.989	-0.217	-0.073
-563.558	-164.508	-0.387	-0.018
-562.544	18.938	-0.218	0.174
-561.529	34.992	0.042	0.036
-560.515	-42.267	0.208	-0.106
-559.500	-40.936	0.337	-0.174
-558.485	248.889	0.052	0.088
-557.471	-154.442	-0.316	-0.021
-556.456	-108.956	-0.378	-0.080
-555.442	-200.000	-0.022	0.205
-554.427	339.472	-0.105	0.204
-553.412	50.041	-0.056	-0.053
-552.398	530.226	-0.118	-0.277
-551.383	112.705	-0.055	0.066
-550.369	-23.789	-0.172	0.103
-549.354	-33.319	0.340	-0.187
-548.339	165.811	0.177	-0.249
-547.325	44.816	0.179	0.164
-546.310	-200.000	0.015	-0.082
-545.296	-52.752	-0.228	-0.105
-544.281	356.497	-0.087	0.173
-543.266	-37.761	0.065	0.034
-542.252	-56.869	-0.162	0.071
-541.237	-73.405	0.293	0.107
-540.223	-200.000	-0.011	-0.265
-539.208	44.354	-0.190	-0.173
-538.193	-83.657	-0.459	-0.146
-537.179	-200.000	-0.004	0.160
-536.164	136.688	-0.100	-0.129
-535.150	-200.000	0.020	0.213
-534.135	15.992	0.294	-0.230
-533.121	540.675	-0.034	-0.081
-532.106	413.131	0.033	-0.070
-531.091	60.553	0.354	0.348
-530.077	-200.000	0.030	-0.138
-529.062	84.636	-0.167	0.182
-528.048	-159.916	0.129	-0.007
-527.033	800.000	-0.013	-0.050
-526.018	-200.000	-0.014	-0.219
-525.004	278.893	0.114	0.203
-523.989	-200.000	-0.075	0.339
-522.975	26.705	0.333	-0.277
-521.960	-18.132	-0.198	-0.123
-520.945	800.000	-0.030	-0.114
-519.931	171.216	-0.241	-0.343
-518.916	-200.000	0.063	0.317
-517.902	-35.424	0.193	0.104
-516.887	800.000	0.016	0.069
-515.872	-125.557	-0.179	0.027
-514.858	-159.484	0.153	-0.008
-513.843	800.000	0.084	-0.245
-512.829	70.579	0.150	-0.154
-511.814	-119.934	-0.242	0.041
-510.799	-43.643	0.238	-0.119
-509.785	781.523	-0.038	0.103
-508.770	681.949	-0.123	0.318
-507.756	-0.371	-0.144	-0.101
-506.741	-200.000	0.031	0.185
-505.726	101.438	-0.041	0.048
-504.712	602.246	-0.169	0.417
-503.697	-139.468	0.147	-0.016
-502.683	150.559	0.182	-0.245
-501.668	-92.606	0.210	-0.059
-500.653	301.190	-0.034	0.063
-499.639	-116.064	0.328	-0.061
-498.624	800.000	-0.078	-0.241
-497.610	-10.104	-0.136	0.090
-496.595	-82.056	0.175	0.057
-495.581	800.000	-0.028	-0.088
-494.566	-25.183	0.086	-0.051
-493.551	-200.000	-0.019	0.094
-492.537	-200.000	-0.006	0.117
-491.522	-84.441	-0.151	-0.047
-490.508	553.018	0.099	0.236
-489.493	396.753	-0.067	-0.138
-488.478	0.434	0.133	-0.094
-487.464	-200.000	0.015	0.100
-486.449	3.845	-0.108	0.078
-485.435	259.839	0.277	0.474
-484.420	-22.608	-0.123	0.074
-483.405	-200.000	0.019	-0.127
-482.391	-150.869	0.027	0.002
-481.376	-37.334	-0.070	-0.037
-480.362	-131.531	0.185	-0.024
-479.347	-200.000	0.030	-0.132
-478.332	-127.343	-0.163	-0.024
-477.318	-44.039	0.423	0.211
-476.303	-200.000	0.291	-0.000
-475.289	-159.253	-0.249	0.014
-474.274	126.999	-0.151	-0.190
-473.259	-0.658	-0.160	0.113
-472.245	32.075	-0.160	0.137
-471.230	-109.077	0.109	0.023
-470.216	89.437	0.193	-0.214
-469.201	-121.707	-0.195	0.032
-468.186	-57.221	-0.300	-0.131
-467.172	120.440	0.072	-0.089
-466.157	-117.784	0.394	-0.070
-465.143	51.149	-0.091	0.086
-464.128	-23.450	0.118	0.071
-463.113	-200.000	0.028	-0.160
-462.099	65.206	-0.241	-0.242
-461.084	23.770	-0.416	-0.340
-460.070	147.814	0.026	0.035
-459.055	38.457	0.334	0.295
-458.040	-48.071	-0.319	-0.153
-457.026	-105.111	0.125	0.028
-456.011	-200.000	0.020	-0.191
-454.997	255.166	-0.086	0.146
-453.982	59.415	0.116	0.113
-452.968	-91.000	-0.421	0.120
-451.953	-50.484	-0.292	0.137
-450.938	-30.597	-0.085	0.048
-449.924	-49.883	0.259	0.122
-448.909	480.343	-0.053	0.119
-447.895	-200.000	-0.000	0.395
-446.880	-49.010	-0.030	-0.014
-445.865	92.477	0.237	0.265
-444.851	359.195	-0.085	-0.167
-443.836	-109.692	0.061	-0.013
-442.822	242.065	0.162	0.268
-441.807	-200.000	-0.004	-0.074
-440.792	52.906	0.101	-0.096
-439.778	-136.674	0.188	-0.022
-438.763	-200.000	0.040	-0.388
-437.749	-103.121	0.343	0.080
-436.734	6.853	-0.311	-0.230
-435.719	0.323	-0.117	-0.083
-434.705	13.872	0.178	0.137
-433.690	562.998	-0.035	-0.085
-432.676	-135.518	-0.116	-0.014
-431.661	-200.000	-0.005	0.258
-430.646	-200.000	-0.012	-0.097
-429.632	163.017	0.275	-0.382
-428.617	-41.445	-0.055	0.028
-427.603	-83.819	0.337	-0.106
-426.588	-200.000	0.010	0.153
-425.573	148.988	0.144	-0.193
-424.559	800.000	0.043	-0.155
-423.544	-200.000	0.012	0.106
-422.530	9.474	-0.144	0.108
-421.515	-200.000	0.021	-0.185
-420.500	4.891	0.163	-0.119
-419.486	800.000	0.078	-0.336
-418.471	-200.000	-0.012	0.130
-417.457	800.000	0.074	-0.249
-416.442	273.370	-0.210	-0.367
-415.428	800.000	0.137	-0.417
-414.413	252.878	0.157	-0.265
-413.398	-200.000	-0.020	0.232
-412.384	-78.168	0.240	0.082
-411.369	-20.211	-0.084	0.051
-410.355	800.000	0.061	-0.185
-409.340	92.951	-0.137	-0.153
-408.325	547.754	0.114	-0.271
-407.311	-146.732	0.392	-0.034
-406.296	-119.546	-0.030	0.005
-405.282	158.511	0.183	-0.252
-404.267	-0.196	0.065	-0.046
-403.252	196.977	0.232	-0.350
-402.238	-52.199	0.311	0.143
-401.223	137.960	0.095	0.124
-400.209	74.101	0.106	-0.110
-399.194	269.691	-0.217	-0.377
-398.179	135.137	0.260	0.334
-397.165	-45.511	-0.239	0.117
-396.150	-2.550	-0.104	0.072
-395.136	800.000	-0.029	0.083
-394.121	-49.164	0.168	0.080
-393.106	-71.566	0.135	-0.050
-392.092	71.788	-0.239	-0.245
-391.077	464.282	-0.020	-0.044
-390.063	164.872	-0.231	-0.322
-389.048	-102.950	0.485	-0.114
-388.033	172.110	-0.093	0.133
-387.019	-140.360	0.266	-0.027
-386.004	-124.939	0.165	0.025
-384.990	19.054	-0.230	0.182
-383.975	26.188	0.052	-0.043
-382.960	-66.093	-0.254	-0.100
-381.946	-136.839	-0.152	0.017
-380.931	-14.781	-0.127	0.081
-379.917	92.304	-0.167	0.186
-378.902	-117.248	0.242	0.043
-377.888	-147.965	-0.607	-0.050
-376.873	-40.250	0.270	-0.139
-375.858	-62.862	0.186	0.076
-374.844	14.245	0.169	0.130
-373.829	-57.463	-0.181	0.079
-372.815	-42.554	0.265	-0.133
-371.800	239.895	-0.087	0.143
-370.785	-112.829	0.529	-0.104
-369.771	800.000	0.064	0.190
-368.756	-136.409	-0.070	0.008
-367.742	-200.000	-0.024	0.211
-366.727	159.637	0.241	0.331
-365.712	421.796	-0.174	-0.368
-364.698	800.000	0.103	0.289
-363.683	-140.046	0.192	0.020
-362.669	-17.895	-0.135	0.083
-361.654	19.478	0.129	-0.103
-360.639	532.452	-0.105	-0.246
-359.625	-200.000	0.007	-0.126
-358.610	800.000	-0.007	0.031
-357.596	287.397	-0.170	-0.303
-356.581	616.936	0.093	-0.231
-355.566	-70.183	-0.050	0.019
-354.552	-82.205	0.076	-0.024
-353.537	94.353	0.162	-0.181
-352.523	-17.430	-0.208	0.129
-351.508	172.759	0.096	0.137
-350.493	-87.025	0.531	-0.160
-349.479	-46.842	0.405	0.196
-348.464	153.205	-0.131	0.177
-347.450	-86.629	0.191	0.058
-346.435	29.715	-0.348	0.292
-345.420	-200.000	-0.008	-0.241
-344.406	162.107	0.267	-0.369
-343.391	-41.653	0.082	-0.041
-342.377	128.197	-0.118	-0.148
-341.362	-200.000	0.085	-0.368
-340.348	800.000	-0.046	0.130
-339.333	245.863	0.107	-0.178
-338.318	-200.000	-0.057	0.319
-337.304	52.953	-0.068	-0.064
-336.289	-40.302	-0.129	-0.066
-335.275	194.472	-0.116	0.174
-334.260	-33.423	0.104	0.057
-333.245	-200.000	-0.008	-0.085
-332.231	108.222	-0.020	0.024
-331.216	52.082	0.261	0.245
-330.202	-50.231	-0.215	-0.101
-329.187	179.129	-0.197	-0.284
-328.172	19.187	-0.152	0.120
-327.158	-18.482	0.369	0.227
-326.143	-73.234	-0.346	0.125
-325.129	-11.219	0.056	-0.036
-324.114	-90.318	0.181	-0.052
-323.099	258.875	-0.045	-0.076
-322.085	86.734	-0.079	0.086
-321.070	80.517	0.234	-0.249
-320.056	274.161	-0.035	0.061
-319.041	-29.687	0.161	-0.091
-318.026	-13.910	0.118	0.075
-317.012	101.420	0.127	0.146
-315.997	-94.091	-0.230	-0.062
-314.983	-125.381	-0.117	0.018
-313.968	18.811	-0.344	-0.271
-312.953	-200.000	-0.053	0.333
-311.939	-52.724	0.077	-0.035
-310.924	-21.527	0.157	-0.094
-309.910	392.443	0.054	0.110
-308.895	-200.000	0.055	-0.255
-307.880	800.000	-0.002	0.005
-306.866	184.015	-0.103	-0.151
-305.851	-42.581	0.256	0.129
-304.837	-131.559	0.166	0.022
-303.822	800.000	-0.027	0.103
-302.807	-169.778	-0.252	-0.009
-301.793	-87.889	0.174	0.051
-300.778	-62.949	0.230	0.094
-299.764	-83.536	-0.108	0.034
-298.749	-113.732	-0.059	0.011
-297.735	-72.070	-0.222	0.081
-296.720	2.650	0.254	0.181
-295.705	-88.530	-0.179	0.052
-294.691	-165.857	-0.485	-0.021
-293.676	-200.000	0.021	0.165
-292.662	-81.304	0.395	0.128
-291.647	-5.101	-0.355	-0.241
-290.632	-200.000	-0.012	-0.185
-289.618	291.585	0.069	0.123
-288.603	-109.825	-0.169	-0.035
-287.589	96.206	0.142	0.160
-286.574	800.000	0.150	0.536
-285.559	-160.569	-0.164	-0.009
-284.545	63.517	-0.135	-0.134
-283.530	-53.930	-0.106	0.047
-282.516	270.440	0.045	-0.078
-281.501	-45.704	0.018	0.009
-280.486	-121.934	0.074	-0.012
-279.472	-81.360	-0.339	0.110
-278.457	20.142	-0.109	0.086
-277.443	-200.000	-0.049	0.324
-276.428	-97.752	-0.429	0.109
-275.413	-200.000	-0.002	0.044
-274.399	-112.331	-0.164	0.032
-273.384	-200.000	0.042	0.543
-272.370	403.340	-0.034	-0.070
-271.355	150.970	0.130	0.175
-270.340	117.231	-0.059	-0.071
-269.326	-70.283	0.297	-0.111
-268.311	-101.822	0.233	-0.056
-267.297	-111.854	0.066	-0.013
-266.282	142.264	0.291	-0.380
-265.267	-200.000	-0.028	-0.164
-264.253	-104.292	0.386	0.088
-263.238	-122.020	-0.206	-0.033
-262.224	-15.683	-0.172	0.108
-261.209	40.309	-0.299	-0.264
-260.195	737.144	0.059	0.157
-259.180	-50.123	-0.631	0.294
-258.165	-127.469	0.485	-0.069
-257.151	61.377	-0.256	0.251
-256.136	139.439	-0.153	-0.198
-255.122	116.254	-0.213	-0.256
-254.107	800.000	-0.043	-0.170
-253.092	-134.288	0.190	0.023
-252.078	406.059	-0.274	0.568
-251.063	800.000	0.060	0.200
-250.049	-200.000	0.032	-0.145
-249.034	632.741	-0.047	0.118
-248.019	800.000	-0.057	-0.186
-247.005	800.000	0.126	0.350
-245.990	-12.749	-0.201	-0.129
-244.976	154.998	0.171	-0.231
-243.961	-89.738	-0.211	0.061
-242.946	800.000	-0.067	-0.222
-241.932	-92.153	-0.253	-0.070
-240.917	-28.444	-0.360	-0.204
-239.903	52.586	-0.125	0.117
-238.888	-200.000	0.028	0.141
-237.873	-134.410	-0.147	0.018
-236.859	207.292	-0.175	0.269
-235.844	-81.898	0.265	-0.085
-234.830	-142.950	0.022	-0.002
-233.815	-36.676	0.327	0.173
-232.800	0.274	-0.306	0.215
-231.786	55.912	0.163	0.155
-230.771	-200.000	0.001	0.187
-229.757	800.000	-0.015	0.049
-228.742	738.807	-0.097	0.255
-227.727	359.944	0.119	0.235
-226.713	350.283	0.023	0.045
-225.698	-4.747	-0.151	0.102
-224.684	-87.286	0.090	-0.027
-223.669	606.772	0.062	0.152
-222.655	-28.399	0.243	-0.138
-221.640	-200.000	-0.027	0.181
-220.625	135.745	0.089	0.114
-219.611	465.568	0.220	0.484
-218.596	-200.000	0.018	-0.087
-217.582	800.000	-0.020	-0.068
-216.567	136.097	0.144	-0.184
-215.552	264.504	-0.094	-0.162
-214.538	-200.000	-0.001	-0.016
-213.523	-116.122	-0.238	0.043
-212.509	-134.933	-0.237	-0.028
-211.494	-141.670	0.101	-0.010
-210.479	-142.143	0.087	-0.008
-209.465	64.907	-0.115	-0.114
-208.450	-200.000	-0.030	0.254
-207.436	-43.640	0.049	-0.024
-206.421	800.000	0.004	-0.014
-205.406	411.079	0.133	-0.277
-204.392	-111.732	-0.221	0.044
-203.377	25.485	-0.160	0.130
-202.363	-102.119	0.270	-0.064
-201.348	547.783	-0.049	0.115
-200.333	504.141	-0.028	0.064
-199.319	18.172	0.276	0.216
-198.304	-10.469	-0.167	0.109
-197.290	629.773	-0.069	-0.171
-196.275	-200.000	-0.028	0.355
-195.260	-51.480	-0.276	0.127
-194.246	-72.773	0.267	-0.096
-193.231	48.124	0.125	0.114
-192.217	-42.044	0.060	0.030
-191.202	108.919	-0.079	-0.093
-190.187	69.547	0.126	0.128
-189.173	112.134	0.067	-0.079
-188.158	-64.147	0.099	-0.039
-187.144	-20.179	-0.180	-0.109
-186.129	2.560	-0.040	0.028
-185.114	54.587	0.118	0.112
-184.100	-200.000	0.008	0.158
-183.085	-90.365	0.122	-0.035
-182.071	-1.081	-0.085	-0.059
-181.056	90.996	-0.155	0.170
-180.042	-200.000	0.012	-0.162
-179.027	-32.484	0.267	0.146
-178.012	-76.729	0.124	0.043
-176.998	-128.034	-0.272	-0.038
-175.983	287.505	0.212	-0.376
-174.969	800.000	0.008	-0.028
-173.954	5.296	0.130	0.094
-172.939	-200.000	0.058	-0.262
-171.925	111.920	-0.238	-0.281
-170.910	13.041	0.333	0.253
-169.896	85.142	-0.181	0.194
-168.881	800.000	-0.049	-0.172
-167.866	-200.000	-0.003	-0.295
-166.852	130.761	0.014	-0.018
-165.837	-200.000	0.014	-0.093
-164.823	77.709	0.134	0.139
-163.808	-200.000	-0.031	-0.216
-162.793	347.579	0.233	-0.449
-161.779	-74.432	-0.187	-0.066
-160.764	-200.000	0.023	-0.337
-159.750	-29.521	-0.207	-0.116
-158.735	-32.594	0.067	0.037
-157.720	-166.132	-0.250	-0.010
-156.706	800.000	-0.012	-0.050
-155.691	39.861	0.132	-0.116
-154.677	-200.000	-0.004	0.068
-153.662	-59.811	-0.128	-0.054
-152.647	-98.372	0.271	-0.068
-151.633	-12.128	-0.118	0.076
-150.618	-184.355	-0.123	-0.002
-149.604	174.323	0.156	-0.221
-148.589	28.622	-0.224	0.186
-147.574	-181.666	0.297	0.006
-146.560	-131.786	0.306	0.039
-145.545	432.340	-0.171	0.363
-144.531	570.596	-0.094	-0.225
-143.516	-114.514	-0.440	-0.083
-142.502	132.110	-0.126	-0.158
-141.487	-121.991	0.103	0.017
-140.472	292.431	0.163	0.290
-139.458	800.000	0.050	0.174
-138.443	-200.000	-0.016	-0.185
-137.429	-28.699	-0.224	0.126
-136.414	-28.770	0.134	-0.075
-135.399	629.337	-0.133	-0.329
-134.385	-40.006	0.366	0.187
-133.370	44.408	-0.159	0.143
-132.356	138.220	0.046	0.059
-131.341	800.000	-0.050	-0.197
-130.326	66.472	0.195	-0.194
-129.312	-17.840	0.131	-0.081
-128.297	-82.097	0.195	0.062
-127.283	-183.719	-0.161	-0.003
-126.268	-0.967	0.164	-0.114
-125.253	40.332	0.094	-0.083
-124.239	112.810	-0.232	0.274
-123.224	654.847	-0.116	0.290
-122.210	-5.644	0.228	-0.153
-121.195	-192.195	-0.348	0.003
