DTS Sentinel unit serial number:	SN413079Multiplexer serial number:	ORYXHardware model number:	OX4-SRSoftware version number:	ORYX F/W v4.00 Oryx Data Collector v3.7.2.0data status	okinstallation	princeton_trtdifferential loss correction	single-endedforward channel	channel 4reverse channel	N/Adate	2019/09/12time	18:15:18forward acquisition time	15.00reverse acquisition time	0.00gamma	496.2192k internal	0.2307k external	0.2307temperature offset calibration	1.0138default loss term (dB/km)	0.3790temperature slope calibration	1.0000multiplexer offset coefficient	1.0000multiplexer slope coefficient	1.0000fibre end	0.00T internal ref (°C)	33.50T ext. ref 1 (°C)	2.96T ext. ref 2 (°C)	28.07length (m)	temperature (°C)	Stokes	anti-Stokes-747.200	800.000	-0.179	-0.623
-746.185	254.480	-0.142	-0.247
-745.171	-200.000	-0.027	0.344
-744.156	238.591	-0.248	0.419
-743.142	-11.721	0.225	-0.150
-742.127	144.322	-0.143	-0.194
-741.112	43.755	0.205	0.190
-740.098	-200.000	-0.010	0.124
-739.083	1.885	0.434	-0.318
-738.069	350.384	0.078	-0.157
-737.054	62.837	-0.438	-0.446
-736.039	122.346	0.412	-0.524
-735.025	-84.308	0.388	-0.125
-734.010	-103.773	0.581	0.138
-732.996	-200.000	-0.045	-0.318
-731.981	-28.508	0.649	-0.380
-730.966	800.000	0.029	-0.128
-729.952	80.390	0.171	-0.187
-728.937	-31.402	0.157	-0.090
-727.923	211.279	-0.104	-0.167
-726.908	-132.886	-0.681	0.088
-725.894	410.102	0.099	0.214
-724.879	380.424	-0.483	1.006
-723.864	9.227	0.607	0.466
-722.850	-136.226	-0.476	0.057
-721.835	70.801	0.577	-0.607
-720.821	-30.764	-0.271	-0.156
-719.806	83.231	-0.153	0.169
-718.791	-22.458	0.125	0.077
-717.777	-140.516	-0.212	0.022
-716.762	-67.347	0.339	-0.135
-715.748	-15.097	0.430	0.280
-714.733	-105.946	-0.283	0.065
-713.718	113.100	-0.227	0.279
-712.704	795.809	-0.199	-0.558
-711.689	387.389	0.271	-0.569
-710.675	-70.668	-0.732	-0.281
-709.660	-103.660	0.446	-0.106
-708.645	-200.000	-0.024	-0.265
-707.631	-200.000	0.004	-1.265
-706.616	-55.631	0.432	0.196
-705.602	-131.242	0.127	0.017
-704.587	-200.000	-0.090	0.580
-703.572	-200.000	0.034	0.204
-702.558	153.444	-0.231	0.322
-701.543	800.000	0.253	1.099
-700.529	100.633	0.631	-0.744
-699.514	107.884	0.566	0.684
-698.499	365.837	-0.223	-0.455
-697.485	-54.933	-0.298	-0.137
-696.470	86.667	-0.684	0.766
-695.456	800.000	0.295	0.959
-694.441	800.000	-0.033	0.109
-693.426	9.364	0.449	-0.345
-692.412	-127.370	-0.308	0.046
-691.397	96.220	-0.027	-0.031
-690.383	478.243	-0.202	-0.465
-689.368	800.000	0.046	-0.140
-688.354	346.522	0.632	-1.262
-687.339	-10.298	-0.134	0.090
-686.324	322.302	-0.359	0.694
-685.310	800.000	0.231	0.758
-684.295	800.000	-0.100	-0.340
-683.281	64.991	0.145	-0.148
-682.266	115.295	-0.469	-0.581
-681.251	-132.077	0.356	0.047
-680.237	-200.000	-0.136	0.802
-679.222	156.552	-0.615	-0.861
-678.208	279.083	-0.168	-0.304
-677.193	-90.220	0.814	-0.240
-676.178	36.113	-0.561	0.501
-675.164	57.726	0.514	-0.509
-674.149	-200.000	-0.023	0.186
-673.135	75.775	0.567	0.607
-672.120	-37.458	-0.699	0.378
-671.105	392.981	-0.317	-0.668
-670.091	85.506	-0.602	0.670
-669.076	730.247	0.136	-0.368
-668.062	314.871	-0.076	-0.146
-667.047	800.000	0.194	0.571
-666.032	42.788	0.248	0.229
-665.018	344.798	-0.065	0.129
-664.003	-77.346	0.212	0.075
-662.989	-51.370	0.184	0.087
-661.974	22.710	0.203	0.168
-660.959	208.832	0.379	-0.602
-659.945	-200.000	-0.008	-0.511
-658.930	-200.000	-0.072	-0.808
-657.916	49.950	-0.222	0.212
-656.901	800.000	0.147	-0.566
-655.886	45.732	0.193	-0.181
-654.872	150.250	-0.423	-0.582
-653.857	-36.487	0.253	-0.138
-652.843	87.187	0.294	0.330
-651.828	-51.233	-0.262	0.124
-650.814	23.880	0.239	-0.200
-649.799	431.965	-0.102	-0.225
-648.784	-31.155	0.182	-0.104
-647.770	-200.000	0.046	0.318
-646.755	-200.000	0.079	-1.030
-645.741	-200.000	0.020	0.261
-644.726	210.141	-0.099	-0.158
-643.711	-112.721	0.362	-0.073
-642.697	678.694	0.106	0.279
-641.682	139.431	-0.477	-0.636
-640.668	31.422	-0.277	-0.241
-639.653	800.000	-0.271	-0.937
-638.638	-200.000	-0.039	0.252
-637.624	148.442	0.383	0.524
-636.609	134.235	0.307	-0.403
-635.595	9.877	-0.633	-0.487
-634.580	455.319	-0.111	-0.249
-633.565	489.426	-0.418	-0.968
-632.551	-200.000	0.127	-0.670
-631.536	634.783	-0.151	-0.387
-630.522	448.952	-0.490	-1.092
-629.507	156.324	-0.328	0.459
-628.492	-102.031	-0.253	0.062
-627.478	-123.995	0.804	-0.128
-626.463	123.826	-0.628	-0.799
-625.449	-86.147	-0.268	-0.084
-624.434	267.156	0.122	0.216
-623.419	-173.627	-0.484	0.015
-622.405	-43.972	-0.171	-0.087
-621.390	-137.707	-0.502	-0.057
-620.376	46.487	-0.191	0.179
-619.361	316.795	-0.100	-0.192
-618.346	-59.371	0.246	-0.107
-617.332	134.379	0.394	-0.516
-616.317	-90.539	-0.372	0.109
-615.303	-99.929	0.313	-0.079
-614.288	396.383	-0.546	1.154
-613.273	17.037	0.562	-0.450
-612.259	-88.574	-0.584	0.176
-611.244	-41.145	-1.008	-0.526
-610.230	116.283	-0.372	0.461
-609.215	-133.972	1.163	-0.146
-608.201	-105.496	-0.622	0.143
-607.186	-171.172	0.923	-0.032
-606.171	800.000	0.153	0.635
-605.157	183.387	-0.343	-0.513
-604.142	-148.256	1.146	0.096
-603.128	-200.000	0.015	0.175
-602.113	513.095	-0.129	-0.304
-601.098	-93.436	1.011	0.283
-600.084	-200.000	-0.047	0.476
-599.069	384.170	0.299	-0.623
-598.055	-43.479	-0.629	-0.321
-597.040	-200.000	-0.109	1.317
-596.025	23.379	0.054	0.045
-595.011	-200.000	0.054	-1.007
-593.996	-200.000	0.045	0.385
-592.982	79.871	-0.247	0.268
-591.967	191.178	-0.561	-0.854
-590.952	-181.506	-0.503	-0.010
-589.938	-129.979	0.257	0.036
-588.923	267.303	-0.323	0.571
-587.909	-169.812	0.713	0.026
-586.894	-200.000	-0.001	-0.344
-585.879	-93.796	-0.956	0.266
-584.865	-200.000	-0.055	0.254
-583.850	98.063	-0.332	-0.386
-582.836	800.000	0.241	0.792
-581.821	-141.590	-0.513	0.052
-580.806	-200.000	0.258	1.408
-579.792	-171.180	0.835	-0.028
-578.777	27.405	0.074	-0.063
-577.763	-200.000	-0.013	0.095
-576.748	104.371	-0.852	1.013
-575.733	-79.034	-0.713	0.245
-574.719	667.761	-0.159	-0.414
-573.704	800.000	0.093	0.297
-572.690	-72.719	1.040	-0.387
-571.675	-200.000	0.037	-0.574
-570.661	-72.743	-0.709	-0.264
-569.646	-117.077	-0.875	-0.161
-568.631	-165.827	-0.645	0.028
-567.617	184.447	0.759	1.135
-566.602	454.499	-0.029	0.065
-565.588	-112.396	0.592	0.120
-564.573	-119.073	-1.007	0.178
-563.558	-200.000	0.023	0.439
-562.544	-20.280	0.358	0.222
-561.529	367.047	0.297	0.606
-560.515	800.000	0.173	0.564
-559.500	-144.146	-0.101	0.010
-558.485	-200.000	-0.062	-0.405
-557.471	-105.347	-0.600	0.138
-556.456	147.848	0.230	0.313
-555.442	-35.689	-0.281	0.154
-554.427	-57.024	-0.228	0.102
-553.412	800.000	0.016	-0.049
-552.398	-190.987	-0.519	-0.005
-551.383	477.425	0.123	-0.281
-550.369	-4.145	0.520	-0.364
-549.354	-200.000	-0.045	-0.538
-548.339	727.342	-0.156	-0.421
-547.325	385.745	-0.456	-0.949
-546.310	29.794	-0.351	0.302
-545.296	-130.782	0.134	-0.018
-544.281	76.435	-0.238	0.255
-543.266	566.518	0.066	0.162
-542.252	2.520	-0.384	0.280
-541.237	-118.696	-0.448	0.080
-540.223	-174.257	0.506	-0.015
-539.208	79.176	0.427	0.461
-538.193	172.194	-0.270	-0.392
-537.179	147.432	-0.427	0.580
-536.164	49.919	0.176	-0.167
-535.150	-53.702	-0.311	-0.143
-534.135	107.144	-0.425	0.510
-533.121	68.888	0.451	-0.467
-532.106	-200.000	-0.041	-0.316
-531.091	93.447	0.219	0.250
-530.077	6.653	0.452	-0.339
-529.062	-200.000	0.234	-1.142
-528.048	800.000	0.096	-0.394
-527.033	312.890	0.216	0.409
-526.018	800.000	-0.044	0.133
-525.004	332.408	-0.344	-0.670
-523.989	460.465	-0.228	-0.512
-522.975	-32.291	-1.058	0.596
-521.960	-200.000	-0.062	-0.366
-520.945	-200.000	0.032	-0.328
-519.931	800.000	-0.150	-0.519
-518.916	-200.000	0.014	-0.099
-517.902	236.801	0.199	0.332
-516.887	599.940	0.144	-0.361
-515.872	256.872	-0.132	0.229
-514.858	-200.000	-0.019	0.153
-513.843	-200.000	0.221	1.129
-512.829	54.063	0.148	-0.143
-511.814	-105.580	0.411	-0.094
-510.799	-100.580	-0.610	0.152
-509.785	800.000	-0.193	0.841
-508.770	212.128	0.182	-0.288
-507.756	-22.950	-0.092	0.056
-506.741	800.000	0.064	0.218
-505.726	-200.000	0.028	0.243
-504.712	-200.000	0.023	0.211
-503.697	-86.181	0.441	0.137
-502.683	-74.844	-0.685	-0.248
-501.668	-142.555	-0.940	-0.093
-500.653	47.423	-0.635	0.596
-499.639	272.054	0.462	0.821
-498.624	-200.000	0.015	0.279
-497.610	484.090	-0.425	-0.974
-496.595	-55.646	-0.864	0.389
-495.581	-11.805	0.366	0.242
-494.566	-6.473	-0.648	-0.445
-493.551	-130.887	0.868	-0.117
-492.537	800.000	-0.127	-0.493
-491.522	-71.948	-0.261	0.098
-490.508	135.203	-0.163	-0.213
-489.493	-194.887	-0.631	-0.005
-488.478	-106.270	-0.362	0.082
-487.464	38.906	0.607	-0.546
-486.449	385.491	-0.154	-0.320
-485.435	212.250	0.168	0.266
-484.420	-7.370	0.472	0.322
-483.405	307.297	0.334	-0.627
-482.391	11.615	0.487	-0.376
-481.376	-88.753	-0.714	0.213
-480.362	-175.949	-0.312	-0.008
-479.347	-61.382	-0.161	-0.068
-478.332	-145.400	1.113	-0.101
-477.318	46.986	0.321	0.301
-476.303	322.357	0.178	-0.341
-475.289	120.714	0.236	-0.296
-474.274	243.549	-0.212	-0.358
-473.259	20.469	0.390	-0.317
-472.245	-47.634	0.365	0.178
-471.230	53.474	-0.246	-0.237
-470.216	185.792	-0.533	0.796
-469.201	-200.000	0.061	-0.413
-468.186	226.841	0.068	-0.111
-467.172	-200.000	0.006	-0.631
-466.157	-146.262	-0.193	0.017
-465.143	-43.559	0.591	0.300
-464.128	-100.985	0.116	-0.029
-463.113	88.890	0.851	0.952
-462.099	-154.634	1.062	-0.071
-461.084	-13.979	-0.511	0.332
-460.070	-183.593	1.023	-0.018
-459.055	-72.266	-0.995	0.371
-458.040	616.378	0.345	0.870
-457.026	134.936	-0.141	0.185
-456.011	574.911	0.150	0.368
-454.997	-142.088	0.586	-0.059
-453.982	-166.777	-0.654	0.027
-452.968	-48.799	-0.339	-0.164
-451.953	-152.215	1.153	-0.084
-450.938	134.838	-0.462	-0.603
-449.924	9.058	0.081	0.061
-448.909	53.076	-0.208	-0.200
-447.895	-47.532	0.300	-0.146
-446.880	-200.000	-0.019	0.091
-445.865	800.000	0.181	-0.646
-444.851	-156.699	0.369	0.023
-443.836	30.900	-0.351	0.302
-442.822	-59.328	0.316	0.136
-441.807	-34.649	-0.281	0.154
-440.792	296.238	0.382	0.704
-439.778	800.000	-0.045	0.177
-438.763	-125.238	-0.350	0.054
-437.749	-200.000	0.066	-0.311
-436.734	-69.783	0.348	-0.133
-435.719	-200.000	0.094	-0.521
-434.705	132.741	0.322	0.418
-433.690	800.000	-0.152	0.608
-432.676	800.000	0.253	-0.903
-431.661	194.107	0.664	-1.011
-430.646	-29.301	0.738	-0.424
-429.632	800.000	0.009	0.032
-428.617	343.861	-0.283	0.557
-427.603	7.256	-0.560	-0.420
-426.588	-47.719	0.139	0.068
-425.573	-200.000	-0.031	0.322
-424.559	-35.248	-0.874	-0.477
-423.544	800.000	-0.070	-0.246
-422.530	140.918	-0.336	-0.446
-421.515	105.538	-0.552	0.655
-420.500	-30.568	0.671	0.382
-419.486	800.000	-0.124	0.405
-418.471	-200.000	-0.081	0.726
-417.457	11.176	0.084	-0.065
-416.442	-200.000	0.130	-0.893
-415.428	-105.847	0.528	0.120
-414.413	-101.241	-0.617	0.151
-413.398	-105.574	0.257	-0.058
-412.384	-200.000	-0.124	0.691
-411.369	-46.071	-0.573	-0.283
-410.355	-200.000	-0.015	-0.572
-409.340	-96.719	0.730	-0.193
-408.325	49.413	-0.263	0.249
-407.311	-200.000	0.121	0.811
-406.296	-22.990	-0.336	0.203
-405.282	84.138	-0.224	0.246
-404.267	-200.000	-0.029	0.156
-403.252	109.293	0.461	0.553
-402.238	-76.394	0.865	-0.305
-401.223	26.732	-1.249	1.050
-400.209	563.757	0.129	-0.313
-399.194	-85.578	0.185	0.058
-398.179	11.832	-0.267	0.205
-397.165	56.211	0.225	0.219
-396.150	52.078	-0.347	0.332
-395.136	-200.000	-0.116	0.754
-394.121	-36.434	-0.343	-0.185
-393.106	-54.946	-0.372	0.168
-392.092	58.380	0.133	0.130
-391.077	127.302	0.407	-0.518
-390.063	-200.000	0.070	-0.437
-389.048	-106.131	0.244	-0.055
-388.033	744.073	-0.323	0.870
-387.019	-52.099	-0.553	0.257
-386.004	15.059	0.860	0.675
-384.990	800.000	0.061	0.169
-383.975	-200.000	0.046	-0.496
-382.960	34.477	0.213	0.187
-381.946	-111.469	0.486	-0.099
-380.931	-200.000	-0.077	-1.134
-379.917	-200.000	-0.020	0.551
-378.902	72.791	0.103	-0.108
-377.888	-40.110	0.124	0.065
-376.873	550.112	-0.396	0.953
-375.858	-200.000	-0.129	-0.577
-374.844	800.000	0.120	-0.391
-373.829	800.000	0.142	0.529
-372.815	-105.562	-0.349	0.079
-371.800	6.198	-0.380	0.282
-370.785	-200.000	0.014	-0.104
-369.771	-74.285	-0.298	-0.108
-368.756	-33.514	0.629	-0.348
-367.742	37.481	-0.311	-0.277
-366.727	157.197	0.165	-0.229
-365.712	-123.273	-0.276	0.044
-364.698	343.865	-0.360	0.707
-363.683	-128.389	-0.405	-0.058
-362.669	248.186	-0.306	-0.519
-361.654	343.859	0.232	-0.456
-360.639	54.178	-0.560	-0.540
-359.625	-124.708	0.737	0.114
-358.610	72.422	0.303	0.317
-357.596	727.045	0.118	-0.316
-356.581	51.746	-0.212	-0.202
-355.566	748.959	-0.144	-0.388
-354.552	29.360	0.649	0.552
-353.537	-200.000	-0.135	1.196
-352.523	-74.196	0.407	-0.148
-351.508	-102.314	-0.408	0.098
-350.493	43.588	0.371	-0.340
-349.479	-200.000	0.072	0.327
-348.464	-200.000	0.050	-0.411
-347.450	-40.641	0.286	0.149
-346.435	-141.542	0.562	-0.057
-345.420	114.810	0.221	0.269
-344.406	-141.418	-0.580	-0.059
-343.391	-200.000	0.049	-0.576
-342.377	-110.038	0.682	0.143
-341.362	-200.000	0.032	-0.222
-340.348	-64.371	0.217	0.088
-339.333	747.380	0.273	-0.736
-338.318	50.108	-0.544	0.514
-337.304	92.963	0.226	0.256
-336.289	743.000	-0.163	0.439
-335.275	446.756	-0.254	0.560
-334.260	-152.086	-0.278	-0.020
-333.245	37.478	-0.435	-0.386
-332.231	-200.000	-0.128	-0.774
-331.216	-95.687	-0.886	-0.237
-330.202	-101.818	-1.105	0.267
-329.187	-73.785	0.256	0.093
-328.172	-12.357	-0.246	0.161
-327.158	100.508	-0.243	0.282
-326.143	-38.770	-0.260	0.137
-325.129	-200.000	0.044	-0.512
-324.114	-200.000	-0.166	1.062
-323.099	-130.748	-0.255	-0.034
-322.085	800.000	0.260	-0.968
-321.070	-200.000	-0.026	0.785
-320.056	-189.813	0.480	0.005
-319.041	-168.383	-0.869	-0.033
-318.026	800.000	0.135	-0.515
-317.012	-200.000	0.014	-0.671
-315.997	800.000	0.276	0.769
-314.983	-200.000	0.020	0.246
-313.968	-200.000	0.045	0.462
-312.953	800.000	-0.100	0.396
-311.939	-26.373	-0.343	-0.201
-310.924	65.969	0.388	-0.394
-309.910	800.000	-0.074	0.249
-308.895	-117.107	0.875	0.159
-307.880	78.366	0.711	0.759
-306.866	366.972	0.162	0.327
-305.851	-72.486	-0.544	0.201
-304.837	-44.479	-0.707	-0.353
-303.822	-99.997	0.078	0.019
-302.807	-200.000	-0.025	0.855
-301.793	573.020	-0.096	0.233
-300.778	463.858	0.278	0.621
-299.764	-200.000	0.041	0.272
-298.749	86.562	-0.277	0.305
-297.735	11.327	-0.227	-0.174
-296.720	-200.000	0.088	-0.690
-295.705	758.005	0.341	-0.923
-294.691	9.069	0.390	0.294
-293.676	188.834	-0.268	-0.401
-292.662	-104.723	-0.093	-0.021
-291.647	45.814	-0.696	-0.643
-290.632	662.386	0.231	-0.595
-289.618	197.408	0.099	-0.151
-288.603	-51.526	0.666	0.311
-287.589	-200.000	0.023	0.195
-286.574	422.448	0.387	0.830
-285.559	-200.000	0.023	-0.257
-284.545	-57.970	0.731	0.319
-283.530	-186.931	-0.498	0.007
-282.516	-143.881	0.558	-0.053
-281.501	-200.000	0.037	-0.236
-280.486	-22.550	-0.111	0.067
-279.472	-95.641	0.599	-0.160
-278.457	-200.000	0.033	-0.525
-277.443	147.834	0.417	-0.562
-276.428	-200.000	0.073	-0.345
-275.413	-10.967	0.197	-0.130
-274.399	-3.416	-0.176	0.122
-273.384	748.785	0.253	0.681
-272.370	-200.000	-0.001	0.369
-271.355	96.220	0.204	-0.233
-270.340	-142.905	-0.340	-0.033
-269.326	-2.381	0.176	-0.123
-268.311	530.404	-0.080	-0.189
-267.297	-200.000	-0.049	-0.357
-266.282	-200.000	-0.033	-0.169
-265.267	-200.000	0.212	-1.092
-264.253	358.215	-0.084	0.168
-263.238	694.092	-0.110	0.287
-262.224	-200.000	0.031	-0.141
-261.209	291.593	0.345	0.626
-260.195	800.000	-0.245	0.965
-259.180	-200.000	0.027	-0.171
-258.165	-97.237	0.833	0.217
-257.151	-200.000	0.022	0.592
-256.136	-200.000	-0.070	0.349
-255.122	-200.000	0.058	1.110
-254.107	187.002	-0.323	-0.480
-253.092	-17.616	0.230	0.144
-252.078	-200.000	-0.021	-0.764
-251.063	26.353	0.550	-0.459
-250.049	-130.328	0.373	-0.051
-249.034	343.109	0.339	-0.662
-248.019	-105.054	-0.263	0.060
-247.005	419.551	0.075	0.161
-245.990	23.581	0.210	-0.172
-244.976	280.247	-0.284	-0.506
-243.961	-41.625	-0.483	-0.248
-242.946	-105.177	0.541	-0.123
-241.932	125.219	-0.329	0.413
-240.917	-200.000	0.029	0.404
-239.903	331.915	-0.214	-0.411
-238.888	800.000	0.193	0.621
-237.873	-122.952	-0.561	0.090
-236.859	-200.000	-0.056	0.538
-235.844	319.243	0.323	0.611
-234.830	-40.114	-0.276	0.143
-233.815	-149.120	0.070	-0.006
-232.800	800.000	0.175	0.551
-231.786	46.985	-0.432	0.400
-230.771	-200.000	-0.091	-0.943
-229.757	-140.260	-0.479	0.050
-228.742	105.168	0.215	-0.252
-227.727	-24.375	-0.488	-0.290
-226.713	-200.000	-0.019	-0.395
-225.698	-145.680	-1.201	-0.107
-224.684	318.959	0.456	0.861
-223.669	-57.330	0.543	-0.238
-222.655	-54.657	-0.447	-0.202
-221.640	-39.037	0.641	-0.336
-220.625	-11.191	0.226	-0.149
-219.611	80.922	-0.255	-0.274
-218.596	680.132	0.346	-0.897
-217.582	257.900	0.172	0.296
-216.567	-53.480	-0.660	-0.301
-215.552	-181.318	-0.152	0.003
-214.538	-78.089	0.597	-0.205
-213.523	-83.377	0.164	-0.052
-212.509	-200.000	0.133	0.632
-211.494	-108.026	0.517	0.112
-210.479	49.132	-0.408	0.382
-209.465	-135.462	-0.562	-0.067
-208.450	78.154	0.050	-0.053
-207.436	-50.049	0.543	0.256
-206.421	-200.000	-0.037	-0.169
-205.406	-101.973	-0.455	0.109
-204.392	16.910	0.491	0.387
-203.377	800.000	-0.198	-0.792
-202.363	276.882	-0.206	0.364
-201.348	47.055	-0.042	-0.039
-200.333	93.738	-0.286	0.323
-199.319	-200.000	0.041	1.125
-198.304	195.861	-0.206	-0.312
-197.290	-28.232	0.548	0.315
-196.275	-14.682	0.668	-0.427
-195.260	800.000	0.110	0.348
-194.246	-115.392	0.874	-0.164
-193.231	800.000	-0.150	-0.605
-192.217	-107.019	0.057	-0.012
-191.202	-200.000	0.012	-0.170
-190.187	227.593	0.299	-0.485
-189.173	-118.847	0.393	-0.069
-188.158	800.000	-0.062	0.207
-187.144	800.000	0.194	-0.674
-186.129	122.955	0.256	-0.318
-185.114	800.000	-0.259	0.808
-184.100	-200.000	-0.137	1.162
-183.085	107.634	-0.072	0.085
-182.071	-200.000	-0.003	-0.372
-181.056	52.283	0.245	-0.233
-180.042	50.309	-0.124	0.116
-179.027	-135.090	0.211	0.025
-178.012	-200.000	-0.010	0.094
-176.998	-200.000	0.449	-0.002
-175.983	-135.180	-0.175	0.021
-174.969	723.624	0.167	-0.443
-173.954	-109.738	-0.109	-0.023
-172.939	800.000	-0.137	0.485
-171.925	-12.780	-0.148	-0.096
-170.910	239.740	0.268	0.444
-169.896	47.677	-0.380	-0.353
-168.881	634.860	-0.292	-0.736
-167.866	-127.478	-0.823	0.119
-166.852	303.764	-0.268	-0.494
-165.837	-119.933	0.944	0.161
-164.823	384.460	0.184	-0.378
-163.808	-85.268	-0.407	0.126
-162.793	189.281	0.497	-0.740
-161.779	6.784	-0.248	-0.183
-160.764	-200.000	-0.033	-0.292
-159.750	330.256	0.443	-0.849
-158.735	-48.096	-0.353	0.170
-157.720	-123.809	0.748	-0.117
-156.706	-154.296	0.366	-0.024
-155.691	-77.552	0.153	-0.053
-154.677	-35.236	0.685	-0.371
-153.662	10.411	-0.245	0.186
-152.647	-29.916	-0.595	0.337
-151.633	-136.551	0.962	0.111
-150.618	-200.000	-0.157	-0.724
-149.604	181.933	0.217	-0.317
-148.589	64.370	0.508	-0.508
-147.574	749.719	0.265	0.709
-146.560	41.616	0.061	-0.055
-145.545	-80.129	0.462	-0.154
-144.531	85.146	-0.186	-0.202
-143.516	-135.095	-0.335	-0.040
-142.502	215.401	-0.280	-0.441
-141.487	-37.300	0.535	0.284
-140.472	123.579	-0.348	-0.434
-139.458	53.184	0.469	-0.446
-138.443	100.197	0.409	0.472
-137.429	-200.000	-0.012	0.671
-136.414	-200.000	-0.018	0.560
-135.399	108.068	0.342	-0.404
-134.385	-49.575	0.259	-0.123
-133.370	-200.000	-0.021	0.103
-132.356	-200.000	0.003	0.621
-131.341	-82.942	0.728	-0.233
-130.326	-200.000	0.054	-0.274
-129.312	800.000	0.217	0.659
-128.297	-138.163	0.425	0.047
-127.283	410.573	0.158	-0.333
-126.268	-13.519	0.569	-0.366
-125.253	-200.000	0.045	0.316
-124.239	681.431	-0.032	0.084
-123.224	-200.000	0.004	0.183
-122.210	-50.989	0.597	-0.278
