DTS Sentinel unit serial number:	SN413079Multiplexer serial number:	ORYXHardware model number:	OX4-SRSoftware version number:	ORYX F/W v4.00 Oryx Data Collector v3.7.2.0data status	okinstallation	princeton_trtdifferential loss correction	single-endedforward channel	channel 4reverse channel	N/Adate	2019/09/17time	02:09:35forward acquisition time	60.00reverse acquisition time	0.00gamma	496.2192k internal	0.2312k external	0.2312temperature offset calibration	0.9977default loss term (dB/km)	0.3790temperature slope calibration	1.0000multiplexer offset coefficient	1.0000multiplexer slope coefficient	1.0000fibre end	0.00T internal ref (°C)	29.69T ext. ref 1 (°C)	0.12T ext. ref 2 (°C)	24.61length (m)	temperature (°C)	Stokes	anti-Stokes-747.200	-111.305	-0.412	-0.085
-746.185	-200.000	-0.008	0.214
-745.171	97.501	0.042	-0.048
-744.156	21.936	-0.189	0.156
-743.142	264.048	0.252	-0.445
-742.127	351.586	-0.094	0.188
-741.112	-105.698	-0.259	0.059
-740.098	-200.000	-0.002	-0.023
-739.083	-200.000	-0.003	0.098
-738.069	-128.114	-0.008	0.001
-737.054	161.508	-0.113	-0.161
-736.039	-95.160	-0.254	0.069
-735.025	-82.825	0.212	0.069
-734.010	159.998	0.143	-0.202
-732.996	-67.452	-0.204	-0.081
-731.981	211.073	-0.255	0.407
-730.966	41.330	0.076	-0.070
-729.952	348.734	-0.033	-0.066
-728.937	800.000	0.082	-0.356
-727.923	-158.309	-0.185	0.011
-726.908	-121.566	-0.094	-0.016
-725.894	-200.000	-0.045	-0.347
-724.879	-200.000	-0.018	-0.160
-723.864	-163.235	0.348	-0.017
-722.850	-135.129	0.178	-0.022
-721.835	20.586	-0.117	-0.096
-720.821	453.902	0.157	0.353
-719.806	-200.000	0.008	-0.074
-718.791	-200.000	-0.054	-0.398
-717.777	-200.000	0.000	0.118
-716.762	-200.000	-0.006	-0.090
-715.748	-161.083	0.115	-0.006
-714.733	-200.000	-0.016	-0.123
-713.718	115.695	-0.172	-0.213
-712.704	5.835	-0.197	-0.148
-711.689	800.000	0.033	0.103
-710.675	800.000	0.049	-0.189
-709.660	215.884	0.191	0.308
-708.645	-31.932	-0.117	0.066
-707.631	19.357	0.204	-0.166
-706.616	377.738	0.130	-0.269
-705.602	800.000	0.042	0.140
-704.587	-140.490	-0.155	-0.016
-703.572	242.978	0.059	-0.099
-702.558	725.980	0.222	0.601
-701.543	19.701	0.231	-0.189
-700.529	-200.000	0.008	-0.133
-699.514	352.649	0.014	0.029
-698.499	-200.000	0.015	0.092
-697.485	-200.000	-0.013	0.154
-696.470	120.569	-0.073	0.091
-695.456	800.000	-0.042	0.121
-694.441	384.251	-0.096	0.200
-693.426	-108.979	0.129	-0.028
-692.412	-92.477	0.345	0.098
-691.397	-159.535	-0.214	-0.012
-690.383	-35.919	0.289	-0.159
-689.368	249.374	0.137	0.235
-688.354	22.838	-0.318	-0.263
-687.339	58.691	-0.154	0.153
-686.324	-40.472	-0.258	-0.136
-685.310	132.593	0.235	0.307
-684.295	-103.837	0.032	-0.008
-683.281	-167.947	0.201	0.008
-682.266	45.864	-0.297	-0.278
-681.251	-124.363	0.323	-0.051
-680.237	-54.791	-0.081	0.037
-679.222	800.000	0.092	0.364
-678.208	-100.074	-0.180	0.045
-677.193	79.629	0.142	-0.154
-676.178	38.250	-0.137	-0.124
-675.164	-56.783	0.227	-0.102
-674.149	-153.976	-0.383	-0.026
-673.135	-159.463	0.084	0.005
-672.120	163.641	-0.118	-0.168
-671.105	-200.000	-0.037	-0.224
-670.091	-22.771	-0.190	0.116
-669.076	800.000	-0.030	0.095
-668.062	-200.000	0.032	-0.315
-667.047	-200.000	-0.044	-0.343
-666.032	451.870	0.068	-0.152
-665.018	800.000	-0.005	0.016
-664.003	614.575	0.056	-0.142
-662.989	558.062	-0.182	-0.444
-661.974	587.140	-0.128	-0.319
-660.959	-95.651	-0.171	-0.046
-659.945	-70.830	-0.148	0.056
-658.930	464.447	0.022	-0.049
-657.916	-42.509	-0.292	-0.151
-656.901	-200.000	-0.051	-0.318
-655.886	561.456	-0.014	-0.034
-654.872	-76.090	-0.134	0.048
-653.857	-135.480	0.146	-0.018
-652.843	800.000	-0.059	0.168
-651.828	479.474	0.164	-0.376
-650.814	-185.674	0.372	-0.006
-649.799	-45.817	-0.084	0.042
-648.784	705.259	-0.130	0.347
-647.770	230.874	0.083	-0.138
-646.755	800.000	0.047	-0.161
-645.741	-37.206	-0.042	0.023
-644.726	-200.000	-0.066	-0.402
-643.711	-115.871	-0.080	-0.015
-642.697	-47.375	-0.117	0.057
-641.682	-78.585	-0.145	-0.050
-640.668	68.390	-0.165	-0.171
-639.653	10.527	0.164	0.126
-638.638	-169.538	-0.363	-0.013
-637.624	-184.907	-0.328	-0.005
-636.609	-11.462	-0.120	0.080
-635.595	-77.489	-0.282	-0.099
-634.580	800.000	-0.013	-0.051
-633.565	-2.168	0.252	0.178
-632.551	578.593	0.080	-0.197
-631.536	-200.000	0.013	0.144
-630.522	-46.949	-0.138	0.068
-629.507	-75.901	-0.238	-0.085
-628.492	39.965	-0.277	-0.251
-627.478	95.593	-0.155	0.179
-626.463	800.000	-0.029	0.092
-625.449	-89.125	0.169	-0.050
-624.434	-200.000	0.086	0.000
-623.419	-57.020	-0.204	0.091
-622.405	-119.243	-0.189	-0.033
-621.390	83.907	0.049	0.054
-620.376	-51.834	0.074	0.035
-619.361	137.615	0.060	-0.079
-618.346	723.594	-0.020	0.054
-617.332	97.459	-0.188	-0.218
-616.317	-61.871	-0.323	-0.137
-615.303	436.976	-0.061	0.135
-614.288	51.603	0.078	-0.075
-613.273	-126.490	-0.256	-0.038
-612.259	365.759	-0.171	0.348
-611.244	-200.000	-0.045	-0.243
-610.230	-135.558	-0.176	-0.021
-609.215	800.000	-0.141	0.452
-608.201	124.778	-0.079	0.100
-607.186	-179.024	-0.387	-0.009
-606.171	-111.635	0.146	-0.030
-605.157	71.278	-0.089	-0.094
-604.142	-200.000	0.009	-0.069
-603.128	-176.344	-0.275	0.007
-602.113	114.347	0.115	-0.142
-601.098	-200.000	-0.052	0.233
-600.084	58.763	0.047	0.046
-599.069	72.691	0.222	-0.234
-598.055	281.706	-0.041	-0.074
-597.040	-96.971	0.343	-0.091
-596.025	-147.416	-0.091	-0.008
-595.011	800.000	-0.038	-0.138
-593.996	-200.000	0.034	0.208
-592.982	-150.618	0.282	-0.022
-591.967	800.000	-0.075	0.235
-590.952	-135.037	-0.287	-0.035
-589.938	-134.869	-0.341	0.042
-588.923	81.574	0.050	-0.054
-587.909	315.893	-0.103	0.196
-586.894	800.000	0.058	0.187
-585.879	-62.365	-0.207	-0.087
-584.865	-200.000	-0.031	0.163
-583.850	635.057	0.208	-0.533
-582.836	800.000	0.053	-0.211
-581.821	-57.707	-0.247	0.109
-580.806	205.997	0.089	0.140
-579.792	800.000	0.044	-0.132
-578.777	-200.000	0.040	-0.230
-577.763	699.397	0.108	-0.286
-576.748	-17.363	-0.181	-0.115
-575.733	-112.863	0.096	0.019
-574.719	-38.552	-0.110	-0.059
-573.704	-200.000	-0.057	0.253
-572.690	46.206	0.078	-0.072
-571.675	799.543	0.104	-0.288
-570.661	98.017	-0.066	-0.077
-569.646	-50.027	-0.203	-0.097
-568.631	77.570	-0.184	-0.197
-567.617	-56.564	0.217	0.097
-566.602	-111.119	0.079	0.016
-565.588	69.568	-0.152	-0.157
-564.573	28.084	0.394	-0.335
-563.558	-6.130	-0.040	-0.028
-562.544	123.810	-0.066	0.084
-561.529	800.000	0.086	0.260
-560.515	-135.997	0.130	0.015
-559.500	335.839	0.127	0.248
-558.485	14.551	0.120	-0.094
-557.471	-200.000	0.001	0.146
-556.456	-103.911	0.154	-0.036
-555.442	434.496	0.049	0.108
-554.427	800.000	-0.061	0.173
-553.412	-200.000	-0.017	-0.117
-552.398	249.008	-0.173	0.295
-551.383	-175.898	-0.150	-0.004
-550.369	-120.402	0.319	-0.055
-549.354	-200.000	-0.052	0.262
-548.339	-83.327	-0.237	-0.077
-547.325	67.096	0.137	0.141
-546.310	-47.403	0.215	0.105
-545.296	800.000	0.044	-0.127
-544.281	-10.037	-0.077	0.052
-543.266	291.035	0.068	0.125
-542.252	146.911	0.068	0.092
-541.237	-185.213	0.220	-0.003
-540.223	-42.860	-0.204	0.104
-539.208	13.420	0.320	0.249
-538.193	-11.447	0.043	-0.029
-537.179	181.427	-0.103	-0.152
-536.164	-200.000	0.038	0.333
-535.150	-75.819	0.305	-0.109
-534.135	-200.000	-0.040	-0.177
-533.121	100.658	0.259	0.303
-532.106	87.389	-0.337	0.375
-531.091	-200.000	0.011	-0.063
-530.077	3.236	0.346	-0.254
-529.062	-200.000	-0.067	-0.295
-528.048	-68.573	0.065	-0.025
-527.033	800.000	-0.045	0.172
-526.018	-116.868	-0.139	-0.026
-525.004	-200.000	0.010	-0.056
-523.989	39.837	-0.070	-0.063
-522.975	-200.000	0.019	0.110
-521.960	-15.323	-0.175	0.113
-520.945	-48.671	0.190	-0.092
-519.931	-121.914	-0.150	0.025
-518.916	133.291	0.299	-0.389
-517.902	-200.000	-0.033	0.148
-516.887	-95.719	0.115	-0.031
-515.872	-135.698	0.192	-0.023
-514.858	780.795	0.120	-0.331
-513.843	-200.000	0.018	0.091
-512.829	-176.989	0.072	-0.002
-511.814	119.218	0.307	-0.382
-510.799	-172.080	-0.296	0.010
-509.785	-200.000	0.020	0.253
-508.770	-66.847	-0.231	0.092
-507.756	45.648	-0.206	-0.191
-506.741	204.162	-0.103	0.160
-505.726	-84.466	0.056	0.018
-504.712	352.475	0.137	-0.273
-503.697	800.000	-0.013	-0.045
-502.683	55.451	-0.122	-0.118
-501.668	45.765	0.191	0.178
-500.653	14.882	0.179	0.141
-499.639	-112.093	0.126	0.025
-498.624	89.929	-0.207	-0.233
-497.610	-65.065	0.167	-0.068
-496.595	-120.871	-0.245	-0.042
-495.581	140.134	0.214	0.284
-494.566	443.736	-0.034	0.075
-493.551	800.000	0.075	-0.225
-492.537	-108.986	0.168	-0.036
-491.522	-152.067	0.254	-0.019
-490.508	159.734	-0.142	-0.198
-489.493	252.446	-0.190	-0.325
-488.478	800.000	-0.091	-0.335
-487.464	-117.351	-0.203	-0.037
-486.449	-143.932	-0.150	0.014
-485.435	-47.594	0.052	0.025
-484.420	-200.000	-0.025	0.158
-483.405	800.000	-0.029	-0.082
-482.391	-66.895	0.240	0.095
-481.376	58.408	0.053	0.053
-480.362	-78.397	-0.357	-0.123
-479.347	-94.367	0.345	-0.095
-478.332	70.017	-0.214	0.221
-477.318	-33.994	0.187	-0.104
-476.303	36.572	0.164	0.145
-475.289	-84.439	0.163	-0.052
-474.274	-108.506	0.164	-0.035
-473.259	523.949	0.102	-0.241
-472.245	440.921	-0.161	-0.353
-471.230	-35.421	-0.153	0.084
-470.216	-200.000	-0.041	-0.516
-469.201	319.930	0.063	0.120
-468.186	-131.733	-0.313	-0.041
-467.172	34.262	0.212	0.186
-466.157	470.869	0.094	0.213
-465.143	-192.962	0.236	-0.002
-464.128	-200.000	0.008	-0.270
-463.113	-171.381	0.130	-0.004
-462.099	369.209	-0.116	-0.235
-461.084	-127.416	-0.224	-0.033
-460.070	-30.596	-0.096	0.055
-459.055	139.915	0.082	0.109
-458.040	494.638	0.096	-0.222
-457.026	-42.869	0.126	0.064
-456.011	30.655	0.152	0.130
-454.997	94.660	0.079	-0.091
-453.982	108.293	-0.272	-0.326
-452.968	61.488	0.108	-0.108
-451.953	118.529	0.234	0.290
-450.938	800.000	0.060	0.207
-449.924	-200.000	-0.038	0.312
-448.909	61.673	-0.132	0.132
-447.895	-165.575	0.108	0.005
-446.880	203.362	-0.164	-0.255
-445.865	-104.623	-0.054	0.013
-444.851	38.838	-0.040	0.036
-443.836	-138.029	0.159	0.018
-442.822	-164.371	-0.267	0.012
-441.807	569.753	0.028	0.067
-440.792	-49.839	0.105	0.050
-439.778	44.838	0.102	-0.094
-438.763	8.710	-0.187	0.141
-437.749	54.521	0.256	-0.247
-436.734	260.649	0.146	-0.254
-435.719	-50.143	-0.117	-0.056
-434.705	-143.998	0.244	-0.023
-433.690	-200.000	-0.003	0.181
-432.676	-69.432	-0.175	0.067
-431.661	34.808	0.384	-0.337
-430.646	-26.539	0.369	-0.216
-429.632	-21.314	-0.205	-0.126
-428.617	800.000	-0.016	-0.072
-427.603	-30.049	-0.203	0.116
-426.588	147.321	-0.269	-0.363
-425.573	168.134	-0.219	-0.313
-424.559	135.284	-0.103	0.134
-423.544	800.000	-0.047	-0.159
-422.530	-70.687	-0.203	-0.077
-421.515	800.000	0.084	-0.243
-420.500	377.062	-0.058	-0.119
-419.486	186.614	0.063	0.094
-418.471	-135.981	0.083	-0.010
-417.457	800.000	0.079	0.246
-416.442	-200.000	0.018	-0.281
-415.428	-200.000	0.031	0.222
-414.413	18.864	-0.282	-0.226
-413.398	-200.000	0.009	0.359
-412.384	-89.971	0.267	-0.078
-411.369	387.137	0.061	0.127
-410.355	-40.994	-0.081	0.042
-409.340	195.426	-0.074	0.113
-408.325	-140.048	-0.191	0.020
-407.311	-200.000	-0.519	-0.001
-406.296	-74.242	-0.270	-0.098
-405.282	414.063	0.078	0.166
-404.267	-62.709	-0.112	0.047
-403.252	610.083	0.111	0.278
-402.238	-200.000	-0.046	-0.325
-401.223	-200.000	0.001	0.317
-400.209	-13.561	-0.240	-0.156
-399.194	-52.825	0.289	0.133
-398.179	-200.000	0.001	0.045
-397.165	-109.831	-0.016	-0.003
-396.150	449.134	0.083	-0.183
-395.136	75.738	0.136	-0.143
-394.121	607.372	-0.029	-0.072
-393.106	-125.669	-0.364	0.055
-392.092	-92.325	0.099	-0.028
-391.077	-29.730	-0.090	0.051
-390.063	-163.188	-0.254	-0.012
-389.048	-94.485	0.089	0.024
-388.033	266.747	0.183	-0.321
-387.019	800.000	-0.047	0.146
-386.004	0.330	-0.386	-0.276
-384.990	800.000	-0.058	-0.167
-383.975	-200.000	-0.007	-0.116
-382.960	-51.819	0.249	0.116
-381.946	205.079	0.137	0.213
-380.931	68.256	-0.158	0.162
-379.917	104.613	0.214	0.252
-378.902	-120.830	0.174	-0.029
-377.888	55.986	0.087	0.084
-376.873	800.000	-0.093	0.287
-375.858	-80.534	-0.165	-0.055
-374.844	-32.154	-0.174	0.098
-373.829	-200.000	0.054	0.268
-372.815	-200.000	-0.032	-0.153
-371.800	256.701	0.229	0.393
-370.785	800.000	-0.024	-0.102
-369.771	23.133	0.231	0.190
-368.756	-106.046	0.384	-0.086
-367.742	800.000	0.026	0.081
-366.727	800.000	0.132	0.435
-365.712	-56.231	-0.241	0.107
-364.698	1.201	0.175	-0.125
-363.683	-36.383	-0.134	-0.072
-362.669	-200.000	0.044	0.248
-361.654	800.000	-0.145	0.416
-360.639	-71.444	-0.191	-0.072
-359.625	-45.252	0.198	0.099
-358.610	-125.675	0.387	-0.059
-357.596	800.000	0.064	0.280
-356.581	85.035	-0.287	0.314
-355.566	-96.890	0.047	0.012
-354.552	402.820	0.090	0.190
-353.537	-126.641	0.296	0.044
-352.523	-122.598	0.250	0.041
-351.508	110.933	0.072	-0.086
-350.493	120.808	-0.242	0.300
-349.479	800.000	0.035	0.122
-348.464	331.651	-0.055	-0.105
-347.450	58.558	-0.252	-0.247
-346.435	-16.601	-0.189	0.119
-345.420	719.389	0.080	-0.212
-344.406	-81.656	0.209	-0.069
-343.391	-16.942	0.140	0.088
-342.377	171.880	0.118	0.169
-341.362	-100.832	-0.301	0.074
-340.348	-200.000	-0.022	-0.114
-339.333	797.018	0.104	0.286
-338.318	204.687	-0.098	0.152
-337.304	47.993	0.289	0.270
-336.289	-37.121	0.247	0.132
-335.275	-178.708	0.158	-0.004
-334.260	-140.058	-0.184	-0.019
-333.245	149.171	-0.102	-0.138
-332.231	-139.623	-0.170	-0.018
-331.216	-59.681	0.268	-0.115
-330.202	334.160	0.045	-0.088
-329.187	116.016	0.189	-0.231
-328.172	292.843	-0.100	-0.181
-327.158	173.323	-0.134	-0.193
-326.143	411.400	-0.094	-0.199
-325.129	-115.882	-0.006	0.001
-324.114	800.000	-0.079	-0.250
-323.099	22.345	-0.283	-0.231
-322.085	788.921	0.172	0.471
-321.070	409.159	0.129	0.273
-320.056	800.000	-0.077	0.218
-319.041	-142.866	0.267	-0.026
-318.026	-32.884	-0.147	0.082
-317.012	-52.115	0.089	-0.041
-315.997	-109.208	0.155	0.033
-314.983	456.913	0.031	-0.068
-313.968	-165.340	-0.106	-0.005
-312.953	-200.000	-0.024	0.354
-311.939	-197.932	0.094	0.001
-310.924	-105.716	0.162	-0.037
-309.910	-189.114	-0.239	-0.003
-308.895	-48.327	0.199	-0.096
-307.880	196.100	0.192	-0.292
-306.866	12.416	0.120	-0.093
-305.851	-200.000	0.034	0.190
-304.837	-146.186	-0.234	-0.021
-303.822	-60.671	-0.281	-0.119
-302.807	41.401	-0.116	-0.105
-301.793	206.888	0.022	0.034
-300.778	690.921	0.113	-0.295
-299.764	-52.262	0.149	0.069
-298.749	-30.404	-0.185	0.105
-297.735	118.762	0.185	0.228
-296.720	70.306	-0.101	0.104
-295.705	673.950	0.196	-0.506
-294.691	800.000	-0.038	0.135
-293.676	-106.450	0.173	-0.038
-292.662	-132.364	-0.572	0.074
-291.647	-200.000	-0.002	0.030
-290.632	-117.689	-0.323	0.058
-289.618	-124.087	0.279	0.044
-288.603	73.155	-0.132	0.138
-287.589	23.088	0.262	0.214
-286.574	37.411	-0.111	0.098
-285.559	-95.021	0.297	-0.080
-284.545	212.201	0.125	0.196
-283.530	27.158	0.075	-0.062
-282.516	53.661	-0.035	0.034
-281.501	-200.000	0.005	-0.274
-280.486	-200.000	-0.016	-0.083
-279.472	-200.000	-0.039	0.342
-278.457	32.128	0.186	0.160
-277.443	-31.654	0.160	-0.089
-276.428	-158.877	0.323	0.018
-275.413	-200.000	-0.041	-0.246
-274.399	-57.035	0.174	-0.076
-273.384	800.000	-0.054	0.153
-272.370	97.168	-0.099	0.113
-271.355	99.389	-0.056	-0.065
-270.340	-69.423	0.431	-0.165
-269.326	290.754	-0.145	0.262
-268.311	-93.172	-0.422	0.117
-267.297	294.301	-0.098	-0.178
-266.282	-119.515	-0.305	0.053
-265.267	-192.769	0.159	0.001
-264.253	-46.593	-0.143	0.070
-263.238	-102.404	0.301	-0.072
-262.224	-71.034	-0.039	0.015
-261.209	800.000	-0.180	0.594
-260.195	41.901	-0.146	0.132
-259.180	-54.348	0.162	0.073
-258.165	170.763	0.170	0.242
-257.151	-200.000	-0.012	0.086
-256.136	-36.753	-0.181	-0.097
-255.122	-132.009	0.039	0.005
-254.107	-200.000	-0.040	-0.183
-253.092	-8.980	0.358	0.238
-252.078	-200.000	0.009	0.313
-251.063	205.403	-0.098	-0.151
-250.049	97.939	0.102	0.117
-249.034	-7.207	-0.088	-0.059
-248.019	187.340	-0.221	-0.328
-247.005	-3.669	0.035	-0.024
-245.990	8.805	0.083	-0.063
-244.976	-161.957	0.026	0.001
-243.961	800.000	0.052	0.204
-242.946	164.800	-0.053	0.074
-241.932	142.415	-0.127	-0.168
-240.917	-131.320	-0.439	0.058
-239.903	104.308	-0.106	0.125
-238.888	27.907	-0.233	-0.195
-237.873	-41.060	-0.173	0.089
-236.859	800.000	-0.044	-0.131
-235.844	-14.267	-0.178	0.114
-234.830	-152.166	0.317	-0.023
-233.815	-124.641	0.308	0.048
-232.800	-1.026	-0.269	0.189
-231.786	214.828	-0.152	-0.240
-230.771	55.818	-0.028	0.027
-229.757	198.824	0.309	-0.470
-228.742	-200.000	-0.040	-0.248
-227.727	-95.115	0.078	-0.021
-226.713	-135.089	0.270	-0.032
-225.698	19.547	-0.154	0.123
-224.684	-200.000	-0.006	-0.286
-223.669	-25.320	-0.305	0.179
-222.655	110.109	-0.200	-0.239
-221.640	-166.516	-0.288	0.012
-220.625	451.418	-0.058	-0.128
-219.611	237.095	0.184	0.302
-218.596	25.831	0.050	-0.042
-217.582	-50.228	0.323	0.152
-216.567	319.371	0.139	-0.262
-215.552	42.483	0.370	0.335
-214.538	493.011	0.129	0.293
-213.523	-55.951	0.240	-0.106
-212.509	596.405	0.150	0.369
-211.494	-74.252	0.238	-0.086
-210.479	-186.016	-0.281	0.004
-209.465	-200.000	-0.082	0.372
-208.450	-85.529	0.165	-0.051
-207.436	-200.000	0.056	-0.307
-206.421	-200.000	-0.022	-0.112
-205.406	126.748	-0.134	0.168
-204.392	15.783	0.179	-0.140
-203.377	-32.382	0.263	-0.146
-202.363	222.673	0.044	0.070
-201.348	526.276	0.116	0.271
-200.333	800.000	-0.048	-0.186
-199.319	46.291	-0.317	-0.292
-198.304	-70.603	-0.080	0.030
-197.290	-137.357	0.240	-0.027
-196.275	156.305	-0.128	0.176
-195.260	-30.675	-0.050	-0.028
-194.246	98.678	-0.215	-0.247
-193.231	-111.989	-0.122	-0.024
-192.217	-183.844	-0.090	-0.002
-191.202	-200.000	-0.006	-0.221
-190.187	103.697	0.148	-0.173
-189.173	-200.000	-0.004	-0.370
-188.158	-154.704	0.240	0.016
-187.144	-200.000	-0.012	0.228
-186.129	-32.694	0.133	0.073
-185.114	429.518	-0.021	-0.046
-184.100	-77.852	0.169	-0.058
-183.085	-200.000	0.028	-0.138
-182.071	669.502	0.069	-0.176
-181.056	-131.103	0.323	-0.043
-180.042	590.140	-0.053	0.129
-179.027	143.555	0.147	-0.194
-178.012	-156.697	0.186	0.011
-176.998	587.947	-0.078	0.190
-175.983	53.889	0.106	-0.101
-174.969	-200.000	-0.026	0.375
-173.954	-30.671	0.188	-0.106
-172.939	-200.000	-0.016	-0.078
-171.925	-200.000	-0.147	-0.000
-170.910	47.327	0.224	0.207
-169.896	-39.131	-0.576	-0.301
-168.881	-116.213	-0.177	-0.033
-167.866	-200.000	-0.011	0.095
-166.852	-200.000	0.066	0.507
-165.837	-200.000	-0.029	0.191
-164.823	16.603	0.122	0.096
-163.808	-98.425	0.270	0.068
-162.793	800.000	-0.142	-0.578
-161.779	-31.758	-0.116	0.064
-160.764	103.536	-0.168	-0.196
-159.750	-200.000	0.032	0.241
-158.735	-200.000	-0.024	-0.147
-157.720	48.459	0.088	-0.082
-156.706	-54.383	-0.192	-0.086
-155.691	-200.000	-0.019	-0.347
-154.677	-93.314	-0.198	0.054
-153.662	460.329	0.170	0.375
-152.647	-96.047	0.229	0.060
-151.633	-143.675	-0.247	0.023
-150.618	-1.481	0.084	-0.058
-149.604	-179.290	-0.319	-0.007
-148.589	109.864	0.191	0.227
-147.574	800.000	0.062	0.264
-146.560	33.280	0.313	-0.269
-145.545	-200.000	0.013	0.130
-144.531	-38.151	0.204	-0.107
-143.516	106.149	0.236	0.277
-142.502	-39.359	-0.233	-0.121
-141.487	-141.541	0.187	-0.019
-140.472	-200.000	-0.022	-0.153
-139.458	26.523	-0.212	0.176
-138.443	60.700	-0.086	0.085
-137.429	800.000	0.043	0.145
-136.414	-200.000	-0.021	-0.140
-135.399	9.606	0.233	-0.175
-134.385	-59.473	-0.245	-0.104
-133.370	152.837	-0.232	0.314
-132.356	-66.682	-0.279	0.109
-131.341	173.303	-0.124	0.178
-130.326	169.821	0.046	0.064
-129.312	203.155	-0.042	0.065
-128.297	-104.011	0.274	0.063
-127.283	-200.000	-0.016	-0.144
-126.268	525.478	0.019	-0.045
-125.253	-200.000	-0.019	-0.124
-124.239	59.741	-0.195	-0.190
-123.224	800.000	0.073	-0.265
