DTS Sentinel unit serial number:	SN413079Multiplexer serial number:	ORYXHardware model number:	OX4-SRSoftware version number:	ORYX F/W v4.00 Oryx Data Collector v3.7.2.0data status	okinstallation	princeton_trtdifferential loss correction	single-endedforward channel	channel 4reverse channel	N/Adate	2019/09/18time	05:05:35forward acquisition time	60.00reverse acquisition time	0.00gamma	496.2192k internal	0.2331k external	0.2331temperature offset calibration	0.9994default loss term (dB/km)	0.3790temperature slope calibration	1.0000multiplexer offset coefficient	1.0000multiplexer slope coefficient	1.0000fibre end	0.00T internal ref (°C)	23.50T ext. ref 1 (°C)	0.19T ext. ref 2 (°C)	17.68length (m)	temperature (°C)	Stokes	anti-Stokes-747.200	-52.820	0.213	0.099
-746.185	-72.399	-0.178	0.066
-745.171	619.814	-0.140	0.355
-744.156	-200.000	0.014	0.428
-743.142	120.505	0.082	0.102
-742.127	-192.747	-0.228	-0.002
-741.112	-16.660	-0.194	-0.124
-740.098	-135.889	-0.438	0.052
-739.083	-200.000	0.004	-0.058
-738.069	97.994	-0.087	0.101
-737.054	-60.090	-0.310	0.133
-736.039	-174.713	-0.276	-0.008
-735.025	-23.889	0.077	0.046
-734.010	-152.723	-0.097	0.007
-732.996	-75.839	-0.189	0.067
-731.981	193.675	0.175	-0.267
-730.966	-200.000	-0.004	0.106
-729.952	48.831	-0.245	0.231
-728.937	-81.475	0.054	-0.018
-727.923	-87.274	-0.106	-0.032
-726.908	41.054	-0.205	-0.187
-725.894	-132.849	-0.444	0.057
-724.879	-200.000	-0.023	-0.330
-723.864	85.456	-0.212	-0.234
-722.850	34.215	-0.206	0.181
-721.835	-108.139	-0.114	0.025
-720.821	92.263	-0.321	-0.363
-719.806	176.467	0.083	-0.122
-718.791	-59.288	0.309	-0.134
-717.777	149.970	-0.048	-0.066
-716.762	131.871	-0.154	0.200
-715.748	200.485	-0.102	-0.158
-714.733	-21.856	-0.332	0.203
-713.718	156.806	-0.031	-0.043
-712.704	105.431	0.147	0.175
-711.689	444.540	0.043	-0.095
-710.675	-169.228	0.233	0.009
-709.660	97.004	0.127	0.146
-708.645	-200.000	-0.026	-0.270
-707.631	708.176	-0.194	-0.516
-706.616	282.058	-0.049	0.089
-705.602	-200.000	0.025	-0.125
-704.587	-59.470	-0.299	-0.129
-703.572	-134.504	-0.377	-0.046
-702.558	800.000	0.047	-0.133
-701.543	79.597	-0.078	0.084
-700.529	-200.000	-0.016	0.112
-699.514	-200.000	0.020	-0.109
-698.499	47.327	-0.307	-0.288
-697.485	-90.773	0.224	0.065
-696.470	13.833	-0.218	-0.170
-695.456	-85.410	-0.216	-0.068
-694.441	-17.880	-0.218	-0.137
-693.426	-55.778	0.342	0.153
-692.412	87.036	0.135	0.150
-691.397	82.508	0.170	0.185
-690.383	-48.742	-0.222	-0.107
-689.368	-150.353	-0.157	-0.012
-688.354	-41.313	-0.212	0.110
-687.339	145.071	-0.235	-0.316
-686.324	-16.722	0.193	-0.122
-685.310	717.525	-0.049	-0.130
-684.295	-109.694	-0.455	0.096
-683.281	790.383	0.096	-0.264
-682.266	106.701	0.200	-0.238
-681.251	-0.883	0.340	-0.242
-680.237	46.642	0.225	0.210
-679.222	40.024	0.427	0.385
-678.208	768.493	-0.097	0.265
-677.193	-8.954	-0.097	0.065
-676.178	-200.000	-0.034	-0.266
-675.164	800.000	0.037	0.151
-674.149	-31.757	0.178	0.100
-673.135	-149.831	0.242	-0.019
-672.120	57.365	0.234	-0.230
-671.105	270.527	-0.118	-0.208
-670.091	74.459	0.195	-0.206
-669.076	-200.000	-0.065	0.356
-668.062	-200.000	0.018	0.212
-667.047	-67.175	0.294	0.116
-666.032	16.102	-0.101	0.080
-665.018	800.000	-0.031	-0.120
-664.003	-132.986	-0.460	0.059
-662.989	34.254	0.080	0.070
-661.974	-93.634	-0.094	0.026
-660.959	-124.458	0.265	0.041
-659.945	244.398	-0.213	-0.358
-658.930	-200.000	0.003	-0.062
-657.916	-124.939	0.375	-0.058
-656.901	-11.421	0.126	0.083
-655.886	-64.526	-0.116	0.047
-654.872	-21.618	-0.112	0.068
-653.857	107.137	-0.042	0.050
-652.843	-200.000	0.024	-0.284
-651.828	213.740	0.082	0.131
-650.814	7.254	0.091	-0.069
-649.799	-200.000	-0.018	0.151
-648.784	629.313	-0.085	-0.217
-647.770	-59.853	-0.342	-0.147
-646.755	236.055	0.022	-0.037
-645.741	486.615	0.035	-0.079
-644.726	-40.543	0.073	-0.038
-643.711	-62.617	-0.254	-0.105
-642.697	800.000	-0.050	0.170
-641.682	-87.935	0.468	0.141
-640.668	22.829	0.162	0.133
-639.653	-200.000	-0.027	-0.158
-638.638	800.000	-0.022	-0.080
-637.624	303.538	-0.048	-0.090
-636.609	-153.477	-0.237	0.016
-635.595	-101.493	0.114	0.028
-634.580	156.932	-0.111	0.154
-633.565	541.186	0.056	-0.133
-632.551	-8.563	-0.178	-0.120
-631.536	-200.000	-0.007	0.181
-630.522	-122.698	-0.359	0.058
-629.507	-55.409	0.220	-0.099
-628.492	-200.000	0.021	0.289
-627.478	-200.000	-0.028	-0.189
-626.463	-200.000	-0.001	0.022
-625.449	800.000	0.131	-0.423
-624.434	36.447	-0.303	0.268
-623.419	-200.000	-0.069	-0.384
-622.405	-79.674	-0.087	-0.030
-621.390	23.127	0.263	0.217
-620.376	549.482	0.087	-0.208
-619.361	-200.000	-0.016	-0.170
-618.346	-95.449	0.183	-0.049
-617.332	142.065	-0.187	-0.248
-616.317	-76.599	-0.212	-0.075
-615.303	-99.778	-0.349	-0.087
-614.288	800.000	-0.072	0.209
-613.273	11.490	-0.152	-0.116
-612.259	22.840	0.136	-0.112
-611.244	139.917	-0.069	0.092
-610.230	-99.488	-0.251	-0.063
-609.215	4.415	-0.261	-0.191
-608.201	-128.737	-0.202	-0.028
-607.186	-200.000	-0.034	0.179
-606.171	-130.083	0.083	0.011
-605.157	-80.667	-0.263	-0.088
-604.142	233.231	0.082	-0.135
-603.128	-1.347	-0.059	-0.042
-602.113	160.236	0.132	0.184
-601.098	-170.598	-0.108	0.004
-600.084	-173.445	-0.221	-0.007
-599.069	694.991	-0.048	-0.125
-598.055	-121.561	0.228	-0.038
-597.040	154.121	-0.011	-0.015
-596.025	283.102	-0.137	-0.245
-595.011	25.823	0.104	0.086
-593.996	-56.192	-0.218	-0.097
-592.982	800.000	0.123	-0.401
-591.967	-135.469	-0.155	0.019
-590.952	348.380	0.181	-0.358
-589.938	13.398	0.261	-0.203
-588.923	190.787	-0.251	0.378
-587.909	34.082	-0.200	0.174
-586.894	-9.682	0.292	-0.195
-585.879	-82.804	-0.251	0.081
-584.865	119.172	0.082	0.102
-583.850	-200.000	0.031	0.159
-582.836	-200.000	-0.034	0.336
-581.821	-200.000	-0.002	-0.390
-580.806	-179.710	0.187	0.004
-579.792	-200.000	0.002	-0.138
-578.777	-83.193	0.251	0.081
-577.763	-44.554	-0.295	-0.148
-576.748	-109.174	-0.253	-0.054
-575.733	-10.191	0.191	-0.127
-574.719	-131.832	0.348	-0.045
-573.704	110.889	-0.071	0.085
-572.690	214.655	-0.068	0.108
-571.675	-66.164	0.110	-0.044
-570.661	159.256	0.162	0.225
-569.646	-200.000	0.048	-0.402
-568.631	800.000	-0.076	0.231
-567.617	-200.000	0.067	-0.344
-566.602	44.129	-0.201	-0.184
-565.588	172.402	-0.077	0.111
-564.573	800.000	0.047	-0.204
-563.558	-200.000	-0.006	-0.095
-562.544	-200.000	0.005	0.152
-561.529	-200.000	0.000	0.051
-560.515	221.901	-0.062	-0.100
-559.500	531.420	-0.099	0.235
-558.485	-200.000	-0.007	-0.035
-557.471	533.876	-0.117	-0.278
-556.456	-13.140	0.178	0.116
-555.442	165.865	-0.331	-0.468
-554.427	177.147	-0.095	-0.138
-553.412	242.849	-0.142	-0.238
-552.398	-109.267	0.226	-0.048
-551.383	-18.461	0.199	0.124
-550.369	-6.569	0.051	0.035
-549.354	0.733	-0.269	0.193
-548.339	-43.278	-0.079	-0.040
-547.325	-70.908	0.219	0.082
-546.310	-159.865	0.193	0.011
-545.296	-52.518	0.333	0.154
-544.281	-76.506	0.335	0.117
-543.266	50.875	0.099	-0.094
-542.252	-155.810	-0.233	0.015
-541.237	24.316	-0.111	-0.091
-540.223	312.104	-0.145	-0.272
-539.208	-64.759	0.136	-0.055
-538.193	-169.384	-0.337	0.012
-537.179	-139.754	0.286	0.030
-536.164	-200.000	0.017	0.205
-535.150	800.000	0.020	-0.056
-534.135	-200.000	0.008	-0.311
-533.121	-200.000	-0.028	-0.134
-532.106	-2.191	-0.318	0.223
-531.091	800.000	0.125	0.366
-530.077	172.751	-0.064	0.092
-529.062	600.405	0.046	0.113
-528.048	424.453	-0.060	0.128
-527.033	-200.000	0.053	0.330
-526.018	388.345	-0.080	0.165
-525.004	109.143	-0.202	0.241
-523.989	-20.164	-0.308	-0.189
-522.975	444.406	-0.069	-0.150
-521.960	-200.000	0.072	0.430
-520.945	-106.368	0.350	-0.078
-519.931	98.527	-0.111	-0.127
-518.916	26.091	0.107	0.089
-517.902	-120.027	-0.368	0.063
-516.887	-118.062	-0.392	0.070
-515.872	800.000	0.075	0.236
-514.858	-62.802	-0.118	0.049
-513.843	22.949	-0.112	0.091
-512.829	-112.924	0.147	-0.029
-511.814	-200.000	-0.006	0.115
-510.799	-36.752	-0.157	-0.084
-509.785	-90.239	-0.285	0.083
-508.770	402.083	0.030	-0.064
-507.756	155.850	0.166	-0.228
-506.741	120.903	-0.293	-0.363
-505.726	-75.727	-0.297	-0.105
-504.712	800.000	0.075	-0.268
-503.697	800.000	0.040	0.153
-502.683	64.471	0.218	-0.219
-501.668	800.000	0.073	-0.213
-500.653	-154.016	0.007	-0.000
-499.639	-15.064	0.065	-0.042
-498.624	443.347	-0.085	-0.185
-497.610	-145.441	0.093	0.008
-496.595	-119.941	-0.243	-0.042
-495.581	-153.922	0.182	0.012
-494.566	-167.343	0.152	-0.006
-493.551	-114.063	0.345	0.067
-492.537	-8.212	-0.047	0.031
-491.522	75.607	0.122	-0.128
-490.508	-3.389	0.198	-0.137
-489.493	230.590	0.033	0.053
-488.478	785.933	-0.089	0.245
-487.464	-130.124	-0.184	-0.025
-486.449	-200.000	-0.010	0.133
-485.435	-105.154	-0.373	-0.085
-484.420	107.860	-0.075	0.089
-483.405	-200.000	-0.032	0.337
-482.391	772.458	0.103	0.280
-481.376	497.241	-0.137	0.313
-480.362	228.164	0.104	-0.169
-479.347	21.918	-0.251	-0.204
-478.332	383.499	0.114	0.233
-477.318	-10.978	-0.136	-0.090
-476.303	-149.293	0.041	0.003
-475.289	-200.000	0.001	0.004
-474.274	-123.909	0.172	-0.027
-473.259	227.591	-0.052	-0.084
-472.245	800.000	0.108	0.315
-471.230	-71.320	0.414	0.155
-470.216	-16.361	-0.218	-0.138
-469.201	-69.530	-0.241	-0.092
-468.186	239.364	0.094	0.155
-467.172	18.749	-0.070	-0.056
-466.157	271.816	0.079	0.139
-465.143	139.503	-0.063	0.083
-464.128	-200.000	0.028	-0.168
-463.113	315.170	-0.149	0.279
-462.099	48.170	-0.311	-0.289
-461.084	-118.279	0.172	-0.030
-460.070	-73.605	-0.191	-0.069
-459.055	-82.090	0.118	0.038
-458.040	-81.765	-0.140	0.046
-457.026	-200.000	0.011	-0.094
-456.011	489.456	-0.118	0.268
-454.997	-200.000	0.034	-0.263
-453.982	69.709	0.086	-0.089
-452.968	-67.196	0.283	0.111
-451.953	-200.000	0.016	-0.565
-450.938	155.202	-0.190	-0.260
-449.924	221.743	-0.140	0.224
-448.909	154.323	0.176	0.240
-447.895	-164.196	-0.204	-0.009
-446.880	-200.000	-0.074	0.330
-445.865	-200.000	-0.026	-0.126
-444.851	-24.755	0.056	0.033
-443.836	116.869	-0.115	0.140
-442.822	116.076	0.098	0.119
-441.807	-123.205	-0.286	-0.046
-440.792	-118.861	0.397	-0.069
-439.778	-200.000	-0.060	0.278
-438.763	-59.482	-0.269	0.115
-437.749	-29.522	0.239	0.136
-436.734	-200.000	-0.051	0.324
-435.719	800.000	0.070	0.230
-434.705	-39.278	0.260	0.136
-433.690	-18.918	-0.178	-0.110
-432.676	-200.000	0.001	0.263
-431.661	50.588	-0.076	-0.072
-430.646	396.848	-0.097	-0.202
-429.632	-200.000	-0.019	0.305
-428.617	-200.000	-0.052	0.266
-427.603	-200.000	-0.003	0.127
-426.588	1.469	0.102	-0.073
-425.573	382.976	0.202	-0.413
-424.559	229.037	0.153	-0.248
-423.544	-162.959	0.148	-0.007
-422.530	116.361	0.189	-0.230
-421.515	-93.618	-0.160	0.044
-420.500	-61.305	-0.273	-0.114
-419.486	800.000	0.136	0.403
-418.471	800.000	-0.072	-0.206
-417.457	386.876	-0.136	0.278
-416.442	800.000	-0.034	0.132
-415.428	-71.659	-0.088	0.033
-414.413	-200.000	0.010	-0.114
-413.398	-150.974	0.053	0.004
-412.384	-70.441	-0.290	0.109
-411.369	-18.298	0.269	0.167
-410.355	800.000	0.017	-0.061
-409.340	800.000	-0.104	-0.318
-408.325	-1.684	0.143	-0.100
-407.311	78.775	-0.086	0.091
-406.296	63.683	-0.172	-0.171
-405.282	-9.351	-0.192	0.127
-404.267	-102.774	-0.088	0.021
-403.252	-70.315	-0.217	0.082
-402.238	114.789	0.113	-0.137
-401.223	-16.798	0.079	-0.050
-400.209	-111.145	-0.433	-0.088
-399.194	-200.000	0.089	-0.408
-398.179	93.349	-0.157	0.176
-397.165	-200.000	0.021	0.401
-396.150	-200.000	-0.032	-0.220
-395.136	10.437	0.198	0.150
-394.121	-25.768	-0.285	0.167
-393.106	59.664	-0.128	0.126
-392.092	90.283	-0.050	-0.055
-391.077	198.803	-0.054	0.082
-390.063	-59.902	0.174	-0.074
-389.048	99.199	0.147	0.168
-388.033	-95.177	0.230	0.061
-387.019	-200.000	0.073	0.395
-386.004	800.000	-0.051	0.181
-384.990	234.309	0.212	-0.347
-383.975	99.078	-0.123	-0.140
-382.960	-74.644	-0.110	0.039
-381.946	-200.000	0.030	0.176
-380.931	462.048	0.072	0.159
-379.917	-131.348	-0.033	-0.004
-378.902	-200.000	-0.051	-0.231
-377.888	694.300	-0.181	-0.471
-376.873	-37.926	0.230	0.121
-375.858	-119.771	0.363	-0.062
-374.844	-59.657	0.175	0.075
-373.829	478.721	-0.148	0.333
-372.815	-117.560	-0.413	0.074
-371.800	-70.701	-0.042	0.016
-370.785	-51.558	0.350	-0.162
-369.771	-58.210	0.077	0.033
-368.756	-179.628	0.145	-0.003
-367.742	-105.845	0.212	-0.048
-366.727	-200.000	-0.031	-0.370
-365.712	-16.945	-0.171	0.107
-364.698	22.088	0.301	0.244
-363.683	-92.597	-0.199	0.055
-362.669	-200.000	-0.007	0.075
-361.654	-64.384	0.146	-0.059
-360.639	-166.214	0.315	-0.013
-359.625	-89.690	0.178	0.052
-358.610	67.303	-0.215	-0.217
-357.596	-200.000	0.021	0.108
-356.581	31.561	0.100	-0.085
-355.566	-89.040	-0.272	0.080
-354.552	-166.915	-0.371	0.015
-353.537	668.543	0.105	0.269
-352.523	470.227	0.047	-0.104
-351.508	277.848	0.088	0.155
-350.493	678.367	0.099	0.256
-349.479	-168.576	-0.041	0.002
-348.464	-76.847	-0.058	-0.020
-347.450	144.120	-0.067	-0.089
-346.435	217.238	-0.134	0.211
-345.420	-145.543	0.169	-0.015
-344.406	142.299	0.023	0.030
-343.391	-161.660	-0.177	0.009
-342.377	197.834	0.097	0.147
-341.362	104.228	0.038	0.044
-340.348	-11.887	-0.163	-0.106
-339.333	800.000	-0.032	0.105
-338.318	-35.543	0.079	-0.042
-337.304	202.624	0.065	-0.100
-336.289	-32.558	-0.183	0.101
-335.275	70.913	0.331	0.340
-334.260	315.823	0.112	0.208
-333.245	-169.820	-0.022	0.001
-332.231	-66.863	-0.070	0.028
-331.216	114.589	0.234	0.283
-330.202	-151.501	0.194	-0.014
-329.187	154.844	0.078	0.106
-328.172	-46.013	0.292	0.142
-327.158	800.000	0.086	0.352
-326.143	333.046	-0.090	-0.172
-325.129	145.606	0.054	0.072
-324.114	97.736	-0.142	-0.162
-323.099	-69.755	-0.140	-0.053
-322.085	31.504	-0.093	-0.079
-321.070	800.000	0.019	-0.081
-320.056	-71.016	0.262	0.098
-319.041	-89.302	-0.218	-0.064
-318.026	-98.612	0.075	-0.019
-317.012	162.560	0.174	0.242
-315.997	-120.673	0.261	0.044
-314.983	-200.000	0.040	0.240
-313.968	89.783	0.312	0.344
-312.953	-52.243	0.244	-0.112
-311.939	800.000	-0.084	-0.249
-310.924	297.012	0.098	-0.177
-309.910	458.899	-0.088	-0.194
-308.895	-200.000	-0.020	0.157
-307.880	-12.647	0.199	0.128
-306.866	690.173	-0.066	-0.171
-305.851	-159.393	0.260	-0.014
-304.837	-200.000	-0.008	-0.132
-303.822	19.922	-0.138	0.110
-302.807	800.000	0.082	-0.290
-301.793	-123.585	0.186	-0.029
-300.778	800.000	0.064	-0.242
-299.764	-100.820	0.151	0.037
-298.749	560.988	0.085	-0.202
-297.735	301.685	0.150	-0.275
-296.720	-127.104	-0.181	0.026
-295.705	55.734	0.205	0.196
-294.691	-4.790	-0.275	0.187
-293.676	800.000	0.033	0.114
-292.662	-92.313	-0.176	-0.049
-291.647	-88.713	0.268	0.079
-290.632	-70.980	0.180	0.067
-289.618	-167.587	-0.667	-0.026
-288.603	-5.101	0.015	-0.010
-287.589	21.428	-0.293	-0.236
-286.574	-34.730	-0.282	0.153
-285.559	228.295	0.030	0.048
-284.545	800.000	0.041	-0.114
-283.530	-200.000	-0.066	-0.400
-282.516	-200.000	0.086	0.400
-281.501	-178.332	-0.296	-0.007
-280.486	-54.291	0.225	-0.101
-279.472	-29.499	0.132	-0.075
-278.457	-31.355	-0.168	-0.094
-277.443	-104.379	0.306	-0.070
-276.428	-112.865	0.196	-0.038
-275.413	250.036	0.110	0.185
-274.399	361.271	0.145	-0.288
-273.384	-85.599	-0.081	0.025
-272.370	2.755	0.128	0.092
-271.355	64.950	0.283	0.283
-270.340	-36.115	0.161	-0.086
-269.326	-200.000	-0.019	0.327
-268.311	311.405	0.089	0.164
-267.297	108.520	0.092	-0.109
-266.282	97.066	0.064	0.072
-265.267	-200.000	-0.131	-0.599
-264.253	70.931	0.404	-0.414
-263.238	-33.430	-0.567	-0.310
-262.224	-200.000	-0.002	-0.013
-261.209	31.810	-0.078	0.066
-260.195	-164.529	-0.127	0.006
-259.180	800.000	-0.059	-0.161
-258.165	800.000	0.053	0.152
-257.151	-183.785	0.231	-0.004
-256.136	-83.405	-0.245	0.078
-255.122	800.000	0.048	-0.201
-254.107	-200.000	0.013	0.366
-253.092	-174.174	-0.346	-0.010
-252.078	-67.017	0.327	0.128
-251.063	83.321	-0.117	-0.126
-250.049	-12.210	-0.209	0.135
-249.034	-77.569	-0.230	0.079
-248.019	9.798	0.146	0.110
-247.005	104.472	-0.144	0.168
-245.990	78.745	0.118	-0.124
-244.976	-124.032	-0.286	0.044
-243.961	10.509	-0.126	0.095
-242.946	800.000	0.031	0.103
-241.932	800.000	0.057	-0.191
-240.917	-200.000	0.006	-0.122
-239.903	-118.290	0.338	0.059
-238.888	141.101	0.045	0.058
-237.873	571.062	-0.075	0.180
-236.859	-111.254	0.218	-0.044
-235.844	-59.646	-0.128	0.054
-234.830	419.038	0.158	0.334
-233.815	800.000	-0.042	-0.180
-232.800	-66.023	-0.144	0.057
-231.786	218.576	0.169	-0.267
-230.771	-92.248	-0.228	0.063
-229.757	194.513	-0.168	-0.251
-228.742	-70.942	0.318	-0.118
-227.727	-200.000	-0.014	0.126
-226.713	1.480	-0.038	-0.027
-225.698	-151.957	0.085	0.006
-224.684	9.805	-0.271	-0.203
-223.669	488.228	0.054	0.123
-222.655	13.436	0.298	0.228
-221.640	-110.970	0.206	0.042
-220.625	-12.106	-0.273	-0.176
-219.611	403.601	0.104	-0.216
-218.596	-116.884	-0.110	0.020
-217.582	30.657	0.238	-0.201
-216.567	-24.919	-0.209	-0.122
-215.552	199.371	0.101	0.152
-214.538	170.079	0.079	-0.112
-213.523	-108.956	0.311	0.065
-212.509	339.674	0.185	0.356
-211.494	1.539	-0.121	-0.086
-210.479	-75.334	-0.263	-0.092
-209.465	-33.451	0.123	0.067
-208.450	-30.028	0.336	-0.188
-207.436	-116.323	-0.187	-0.034
-206.421	-200.000	-0.008	0.086
-205.406	24.563	0.073	0.060
-204.392	-66.886	-0.298	0.116
-203.377	-15.295	-0.239	0.150
-202.363	195.799	0.160	0.240
-201.348	-200.000	0.019	-0.422
-200.333	-21.095	0.218	-0.132
-199.319	40.124	-0.061	-0.054
-198.304	-21.653	-0.094	-0.057
-197.290	-200.000	0.013	0.132
-196.275	-104.209	0.050	0.012
-195.260	25.493	0.115	0.094
-194.246	-200.000	0.005	0.274
-193.231	-51.008	-0.395	0.183
-192.217	800.000	0.023	-0.068
-191.202	-21.650	-0.311	0.186
-190.187	-200.000	0.007	0.066
-189.173	8.122	-0.101	-0.075
-188.158	11.547	0.200	-0.151
-187.144	-11.070	-0.154	0.100
-186.129	-50.283	0.142	-0.066
-185.114	-200.000	-0.097	-0.479
-184.100	-88.636	0.154	0.045
-183.085	800.000	-0.049	-0.147
-182.071	-161.346	0.258	0.013
-181.056	432.247	0.117	-0.251
-180.042	-172.279	-0.067	-0.002
-179.027	12.105	0.111	-0.084
-178.012	26.556	0.110	0.091
-176.998	135.930	-0.308	0.395
-175.983	75.326	0.195	0.203
-174.969	-200.000	-0.021	-0.382
-173.954	-200.000	0.037	-0.327
-172.939	-145.684	0.038	0.003
-171.925	-189.278	0.359	-0.004
-170.910	-200.000	-0.011	-0.099
-169.896	25.905	-0.160	0.131
-168.881	174.613	0.221	-0.314
-167.866	800.000	-0.095	-0.354
-166.852	351.584	-0.059	-0.115
-165.837	-197.398	-0.261	0.002
-164.823	-63.533	-0.084	0.034
-163.808	-200.000	-0.013	0.141
-162.793	53.929	0.422	0.399
-161.779	45.193	0.314	-0.285
-160.764	-119.886	0.066	0.011
-159.750	81.008	0.132	-0.140
-158.735	-200.000	0.003	-0.051
-157.720	306.915	-0.116	0.213
-156.706	-53.633	-0.248	0.111
-155.691	35.966	0.039	0.034
-154.677	-55.751	0.138	-0.061
-153.662	5.665	0.336	0.244
-152.647	194.641	0.094	0.141
-151.633	-147.757	0.160	-0.013
-150.618	-148.785	0.034	0.003
-149.604	448.159	-0.176	0.381
-148.589	417.642	-0.051	-0.107
-147.574	-200.000	-0.029	0.131
-146.560	-115.000	-0.355	0.066
-145.545	70.280	0.065	-0.066
-144.531	-73.531	-0.136	0.049
-143.516	36.909	-0.010	-0.008
-142.502	477.493	0.148	0.329
-141.487	39.497	0.074	-0.065
-140.472	-33.309	0.072	-0.039
-139.458	56.399	-0.166	0.159
-138.443	-200.000	0.019	-0.202
-137.429	-81.268	0.301	0.098
-136.414	-169.989	-0.128	0.005
-135.399	87.364	-0.067	0.072
-134.385	76.918	-0.184	0.192
-133.370	-54.847	0.397	0.176
-132.356	98.572	0.246	0.279
-131.341	71.479	-0.135	-0.138
-130.326	-83.748	0.068	-0.021
-129.312	-62.229	0.258	0.106
-128.297	-93.819	0.175	-0.047
-127.283	-64.422	0.047	-0.019
-126.268	550.346	-0.032	-0.075
-125.253	392.206	0.125	0.256
-124.239	746.581	0.081	0.215
-123.224	304.562	-0.093	0.169
-122.210	-200.000	0.047	0.291
-121.195	-200.000	0.010	0.426
