DTS Sentinel unit serial number:	SN413079Multiplexer serial number:	ORYXHardware model number:	OX4-SRSoftware version number:	ORYX F/W v4.00 Oryx Data Collector v3.7.2.0data status	okinstallation	princeton_trtdifferential loss correction	single-endedforward channel	channel 4reverse channel	N/Adate	2019/09/11time	22:19:11forward acquisition time	60.00reverse acquisition time	0.00gamma	496.2192k internal	0.2307k external	0.2307temperature offset calibration	1.0075default loss term (dB/km)	0.3790temperature slope calibration	1.0000multiplexer offset coefficient	1.0000multiplexer slope coefficient	1.0000fibre end	0.00T internal ref (°C)	35.25T ext. ref 1 (°C)	1.75T ext. ref 2 (°C)	29.37length (m)	temperature (°C)	Stokes	anti-Stokes-747.200	57.483	-0.025	-0.025
-746.185	-143.717	0.176	-0.017
-745.171	-135.859	0.120	-0.014
-744.156	800.000	-0.061	0.203
-743.142	66.689	-0.094	-0.097
-742.127	-26.103	0.168	0.101
-741.112	526.617	0.156	0.375
-740.098	141.582	0.233	0.313
-739.083	-159.379	-0.261	-0.015
-738.069	-140.064	-0.410	-0.044
-737.054	-191.254	-0.458	0.005
-736.039	800.000	-0.049	0.191
-735.025	41.730	0.223	0.205
-734.010	-69.106	0.132	0.052
-732.996	-200.000	0.023	0.292
-731.981	129.858	0.122	-0.159
-730.966	32.492	0.129	0.114
-729.952	800.000	-0.121	0.351
-728.937	800.000	-0.099	-0.306
-727.923	271.686	0.136	0.244
-726.908	-120.901	-0.226	-0.039
-725.894	151.236	0.239	0.330
-724.879	-120.967	-0.396	0.068
-723.864	-71.794	-0.134	-0.051
-722.850	-200.000	0.002	-0.235
-721.835	19.499	-0.392	0.321
-720.821	-90.796	-0.389	0.114
-719.806	-200.000	0.008	0.353
-718.791	-141.612	-0.217	-0.022
-717.777	-200.000	0.030	0.148
-716.762	459.006	0.132	0.298
-715.748	204.874	-0.173	0.273
-714.733	-200.000	0.037	0.395
-713.718	-32.120	-0.134	-0.076
-712.704	800.000	-0.057	0.195
-711.689	-102.879	0.177	-0.043
-710.675	562.371	-0.082	-0.202
-709.660	11.076	-0.193	0.150
-708.645	-151.345	-0.200	0.015
-707.631	-93.093	0.110	0.031
-706.616	800.000	0.065	-0.199
-705.602	363.192	0.173	-0.353
-704.587	426.742	-0.056	-0.122
-703.572	-145.858	-0.231	-0.021
-702.558	65.777	-0.092	-0.094
-701.543	477.292	0.064	0.146
-700.529	800.000	-0.047	0.161
-699.514	-200.000	0.011	-0.140
-698.499	-169.928	0.114	-0.004
-697.485	-92.011	-0.393	0.113
-696.470	-45.648	0.402	0.202
-695.456	800.000	0.048	0.162
-694.441	40.593	0.156	0.143
-693.426	144.741	-0.070	0.095
-692.412	86.314	0.170	-0.190
-691.397	-200.000	0.026	-0.160
-690.383	-82.573	-0.111	0.037
-689.368	-200.000	-0.002	-0.028
-688.354	75.059	-0.289	0.309
-687.339	-37.795	0.227	0.123
-686.324	220.065	0.029	-0.047
-685.310	275.456	-0.097	0.175
-684.295	398.288	-0.101	0.215
-683.281	-155.158	-0.185	-0.012
-682.266	259.068	-0.075	-0.132
-681.251	34.001	-0.283	0.250
-680.237	-200.000	-0.166	0.000
-679.222	-69.132	-0.249	0.097
-678.208	-38.876	-0.286	0.153
-677.193	1.076	0.219	-0.160
-676.178	-138.763	0.294	0.033
-675.164	-200.000	0.004	-0.323
-674.149	653.069	-0.163	0.424
-673.135	-100.548	0.311	-0.078
-672.120	-66.890	0.118	-0.047
-671.105	-26.148	-0.241	-0.144
-670.091	-141.156	-0.111	0.011
-669.076	13.107	0.303	0.238
-668.062	15.472	-0.042	-0.034
-667.047	7.350	0.141	-0.107
-666.032	-67.517	-0.128	-0.051
-665.018	-200.000	0.025	-0.211
-664.003	-102.692	-0.137	-0.033
-662.989	175.117	0.034	0.050
-661.974	202.579	-0.150	-0.235
-660.959	800.000	0.024	0.070
-659.945	-174.164	-0.467	-0.014
-658.930	-200.000	0.014	0.198
-657.916	252.750	-0.012	0.022
-656.901	-78.128	-0.091	-0.032
-655.886	-144.170	0.460	-0.044
-654.872	-200.000	-0.038	0.226
-653.857	-39.067	-0.223	0.119
-652.843	1.839	-0.190	-0.139
-651.828	-35.219	-0.271	-0.150
-650.814	-25.864	-0.273	-0.163
-649.799	67.027	-0.169	-0.174
-648.784	-200.000	0.001	-0.183
-647.770	-200.000	0.003	0.199
-646.755	-157.771	-0.154	-0.009
-645.741	279.957	0.195	0.352
-644.726	163.838	-0.124	0.177
-643.711	-180.188	-0.236	-0.005
-642.697	-36.688	0.102	0.056
-641.682	667.478	-0.134	-0.351
-640.668	-124.118	-0.164	-0.026
-639.653	-138.841	-0.043	-0.005
-638.638	314.134	-0.111	0.212
-637.624	-200.000	-0.015	0.145
-636.609	-5.663	-0.181	-0.126
-635.595	-61.372	-0.227	0.097
-634.580	-167.964	-0.051	-0.002
-633.565	173.505	0.145	-0.212
-632.551	-5.954	-0.125	-0.087
-631.536	-102.237	-0.213	-0.052
-630.522	67.770	0.075	-0.078
-629.507	-58.807	-0.346	-0.152
-628.492	315.121	0.099	-0.189
-627.478	32.029	0.059	0.052
-626.463	110.555	0.138	0.168
-625.449	-100.202	0.204	0.051
-624.434	93.576	-0.333	-0.382
-623.419	273.974	0.101	-0.181
-622.405	244.934	-0.040	-0.068
-621.390	89.927	-0.267	0.302
-620.376	531.432	-0.051	-0.122
-619.361	-200.000	0.055	0.280
-618.346	-5.329	-0.021	-0.014
-617.332	55.185	0.095	0.093
-616.317	73.746	-0.201	0.214
-615.303	-138.175	0.259	-0.029
-614.288	88.717	0.208	0.234
-613.273	-12.333	0.366	-0.242
-612.259	-179.267	0.129	0.003
-611.244	-200.000	-0.075	-0.505
-610.230	-81.540	0.173	-0.058
-609.215	-164.529	-0.180	-0.008
-608.201	-98.753	0.054	-0.014
-607.186	-92.406	0.081	-0.023
-606.171	800.000	-0.059	-0.238
-605.157	435.835	0.088	-0.194
-604.142	293.158	-0.088	0.163
-603.128	-55.259	0.296	-0.134
-602.113	47.950	0.122	-0.116
-601.098	-95.172	-0.267	-0.073
-600.084	-70.862	-0.111	-0.042
-599.069	5.521	0.170	0.127
-598.055	-140.145	-0.205	0.022
-597.040	3.846	0.052	0.038
-596.025	-113.631	-0.102	0.020
-595.011	82.759	0.167	0.183
-593.996	-200.000	0.014	0.287
-592.982	221.189	-0.218	0.353
-591.967	-156.320	0.198	0.013
-590.952	800.000	-0.031	0.136
-589.938	-200.000	-0.030	0.179
-588.923	-11.334	-0.025	0.017
-587.909	800.000	-0.037	-0.157
-586.894	507.508	0.052	0.122
-585.879	-150.077	0.205	-0.016
-584.865	800.000	-0.077	-0.280
-583.850	-67.396	-0.202	0.080
-582.836	800.000	-0.092	-0.369
-581.821	-200.000	-0.009	-0.050
-580.806	-17.083	0.140	0.089
-579.792	-97.393	-0.053	-0.014
-578.777	1.495	0.185	0.134
-577.763	213.450	-0.069	0.111
-576.748	-112.321	-0.180	-0.036
-575.733	296.534	0.014	-0.026
-574.719	-183.046	-0.181	-0.003
-573.704	-22.682	0.362	0.221
-572.690	-50.454	0.131	0.062
-571.675	-17.888	0.069	-0.044
-570.661	-48.285	0.063	0.030
-569.646	-54.471	-0.028	0.013
-568.631	150.942	-0.124	0.170
-567.617	-107.716	-0.150	-0.033
-566.602	-200.000	0.027	0.207
-565.588	199.192	0.076	0.117
-564.573	-107.525	-0.093	0.021
-563.558	-103.961	-0.109	0.026
-562.544	248.742	-0.133	-0.227
-561.529	115.277	0.058	0.071
-560.515	-50.183	0.251	0.120
-559.500	197.782	-0.104	-0.160
-558.485	-200.000	0.046	-0.228
-557.471	800.000	0.130	-0.427
-556.456	-86.132	-0.035	-0.011
-555.442	161.337	-0.155	0.220
-554.427	-200.000	-0.007	0.229
-553.412	-21.402	-0.123	-0.075
-552.398	-40.435	-0.318	-0.167
-551.383	470.034	-0.028	-0.064
-550.369	51.897	0.072	0.069
-549.354	55.197	-0.145	-0.142
-548.339	-9.642	0.378	0.254
-547.325	800.000	-0.070	0.295
-546.310	35.203	-0.140	0.124
-545.296	191.785	0.080	-0.122
-544.281	-84.944	-0.360	0.114
-543.266	106.975	0.227	0.272
-542.252	-144.893	0.442	0.041
-541.237	21.608	0.248	0.203
-540.223	296.054	0.172	-0.318
-539.208	103.984	-0.031	-0.037
-538.193	-63.927	-0.430	0.177
-537.179	800.000	-0.048	0.136
-536.164	384.983	0.097	0.201
-535.150	-4.013	0.375	0.262
-534.135	56.506	-0.116	0.114
-533.121	800.000	0.084	0.252
-532.106	-27.482	0.049	0.029
-531.091	91.945	-0.219	0.248
-530.077	-92.951	-0.265	0.075
-529.062	-75.098	-0.179	0.065
-528.048	-200.000	0.031	0.160
-527.033	-169.695	-0.218	0.008
-526.018	322.449	-0.140	-0.270
-525.004	331.953	-0.148	-0.288
-523.989	455.525	-0.062	0.138
-522.975	166.043	0.102	-0.145
-521.960	-151.504	0.292	0.022
-520.945	-13.491	-0.180	-0.118
-519.931	137.693	0.172	-0.227
-518.916	-200.000	-0.022	-0.144
-517.902	-200.000	0.003	0.279
-516.887	44.704	-0.113	0.105
-515.872	-108.981	0.235	0.050
-514.858	80.218	-0.116	-0.126
-513.843	-200.000	-0.005	0.035
-512.829	-1.303	0.087	0.062
-511.814	-10.025	0.156	0.104
-510.799	800.000	-0.063	-0.177
-509.785	177.274	-0.102	0.149
-508.770	44.954	-0.238	-0.221
-507.756	-90.542	0.197	-0.058
-506.741	47.004	-0.132	-0.123
-505.726	-66.429	0.123	0.049
-504.712	31.586	0.120	0.104
-503.697	-105.992	0.340	-0.077
-502.683	-34.001	0.259	0.143
-501.668	-108.758	-0.018	-0.004
-500.653	-63.978	-0.292	-0.120
-499.639	163.427	0.032	-0.046
-498.624	81.538	-0.136	-0.149
-497.610	-100.047	-0.221	-0.056
-496.595	51.424	0.228	0.218
-495.581	800.000	0.108	0.385
-494.566	322.294	-0.051	-0.097
-493.551	65.025	0.152	-0.155
-492.537	-34.188	0.200	-0.111
-491.522	236.302	-0.028	0.047
-490.508	-114.690	0.259	-0.050
-489.493	185.567	-0.134	0.200
-488.478	234.758	-0.099	0.165
-487.464	639.195	-0.129	0.332
-486.449	317.236	-0.069	0.132
-485.435	-200.000	-0.001	0.072
-484.420	162.039	0.090	-0.127
-483.405	1.382	-0.263	0.191
-482.391	-200.000	-0.008	0.451
-481.376	-126.063	-0.056	0.008
-480.362	127.018	-0.232	0.296
-479.347	301.224	-0.072	0.135
-478.332	-200.000	0.023	-0.158
-477.318	800.000	0.081	-0.303
-476.303	-23.850	-0.335	0.202
-475.289	-151.554	0.237	0.018
-474.274	-103.303	-0.249	0.059
-473.259	628.551	0.087	-0.220
-472.245	159.992	0.169	0.237
-471.230	-113.972	-0.103	-0.020
-470.216	-52.341	0.074	-0.034
-469.201	-105.294	-0.170	-0.039
-468.186	800.000	0.004	-0.013
-467.172	-200.000	-0.016	-0.438
-466.157	242.948	0.260	-0.438
-465.143	27.108	-0.252	0.212
-464.128	-70.618	-0.352	0.134
-463.113	-6.709	0.146	-0.100
-462.099	15.386	-0.400	0.315
-461.084	-200.000	-0.015	0.286
-460.070	-154.727	0.081	-0.005
-459.055	1.326	-0.189	-0.136
-458.040	-57.633	-0.327	-0.144
-457.026	-141.677	-0.192	-0.019
-456.011	76.772	0.092	-0.098
-454.997	185.760	-0.115	0.172
-453.982	34.265	-0.201	0.177
-452.968	269.469	0.091	-0.160
-451.953	253.289	-0.027	-0.047
-450.938	420.696	-0.160	0.346
-449.924	188.845	0.128	-0.193
-448.909	-10.950	-0.145	-0.096
-447.895	-118.816	0.258	0.046
-446.880	-65.698	0.477	0.192
-445.865	-78.661	0.062	-0.021
-444.851	-200.000	0.006	0.432
-443.836	-72.563	0.035	0.013
-442.822	-200.000	-0.078	0.517
-441.807	394.514	-0.063	0.132
-440.792	350.502	0.047	0.094
-439.778	161.580	-0.089	-0.124
-438.763	387.311	-0.108	0.224
-437.749	-200.000	-0.034	-0.183
-436.734	55.139	-0.093	-0.091
-435.719	10.397	-0.239	0.183
-434.705	-200.000	-0.024	-0.257
-433.690	55.190	-0.185	-0.180
-432.676	6.281	-0.178	0.133
-431.661	-2.777	-0.107	0.075
-430.646	-61.692	0.203	0.086
-429.632	-55.163	-0.236	0.107
-428.617	83.787	-0.130	-0.142
-427.603	23.860	0.088	-0.073
-426.588	-55.335	-0.274	0.124
-425.573	-14.037	0.188	0.122
-424.559	-66.636	-0.036	0.014
-423.544	-53.406	-0.101	-0.046
-422.530	-83.615	0.051	0.016
-421.515	-39.289	-0.201	0.106
-420.500	800.000	0.081	-0.259
-419.486	1.283	0.182	0.132
-418.471	-142.220	0.215	-0.021
-417.457	27.770	0.307	-0.259
-416.442	800.000	-0.037	0.148
-415.428	200.537	0.159	-0.245
-414.413	-200.000	0.028	-0.203
-413.398	21.142	-0.149	-0.121
-412.384	800.000	0.071	-0.229
-411.369	-200.000	-0.060	-0.277
-410.355	-200.000	-0.045	-0.277
-409.340	-200.000	0.009	0.375
-408.325	409.537	-0.058	0.123
-407.311	385.466	0.044	-0.091
-406.296	-19.637	-0.147	0.091
-405.282	-65.309	-0.105	0.043
-404.267	-200.000	0.038	-0.267
-403.252	-9.580	-0.060	-0.040
-402.238	-81.432	0.059	-0.019
-401.223	-200.000	0.000	-0.041
-400.209	-46.222	-0.156	-0.077
-399.194	-200.000	-0.053	0.392
-398.179	800.000	0.030	-0.092
-397.165	-179.989	-0.295	-0.006
-396.150	800.000	-0.089	-0.324
-395.136	800.000	0.048	-0.197
-394.121	-187.851	0.069	0.001
-393.106	-37.741	0.184	0.098
-392.092	800.000	0.059	-0.184
-391.077	151.757	-0.060	0.081
-390.063	-153.174	0.053	-0.004
-389.048	-200.000	-0.004	0.188
-388.033	-46.745	-0.134	-0.066
-387.019	12.357	0.196	-0.151
-386.004	242.901	0.123	0.207
-384.990	22.216	-0.148	0.121
-383.975	-3.568	0.236	-0.165
-382.960	-89.581	0.085	-0.025
-381.946	105.678	0.077	-0.091
-380.931	381.815	-0.055	-0.113
-379.917	87.765	0.180	-0.200
-378.902	-63.603	0.413	-0.170
-377.888	442.947	-0.037	0.082
-376.873	58.840	-0.078	0.077
-375.858	192.994	0.109	0.165
-374.844	256.173	0.147	0.252
-373.829	-117.073	0.087	0.016
-372.815	13.538	-0.222	-0.173
-371.800	19.048	-0.225	-0.181
-370.785	101.344	0.130	0.152
-369.771	800.000	0.116	0.346
-368.756	-89.834	-0.057	-0.017
-367.742	-200.000	0.032	-0.274
-366.727	163.407	0.177	0.249
-365.712	800.000	-0.030	-0.099
-364.698	-65.189	0.152	0.061
-363.683	203.081	-0.121	0.187
-362.669	-7.258	0.090	0.061
-361.654	22.628	0.198	0.162
-360.639	-22.854	0.156	0.094
-359.625	554.025	0.037	-0.088
-358.610	117.921	0.230	-0.284
-357.596	-54.030	0.306	0.140
-356.581	112.672	0.109	-0.133
-355.566	156.631	0.152	-0.211
-354.552	-167.569	0.244	0.010
-353.537	26.248	-0.041	-0.034
-352.523	21.675	-0.192	0.157
-351.508	-200.000	-0.059	0.273
-350.493	-23.962	-0.130	0.078
-349.479	109.415	0.141	0.169
-348.464	99.485	-0.094	-0.109
-347.450	6.345	0.082	0.061
-346.435	800.000	0.095	-0.303
-345.420	-5.642	0.059	-0.040
-344.406	800.000	0.057	0.247
-343.391	800.000	0.070	-0.288
-342.377	-70.835	0.165	0.062
-341.362	153.598	0.203	0.279
-340.348	160.182	0.113	-0.157
-339.333	202.131	-0.090	0.139
-338.318	-200.000	0.026	0.181
-337.304	-63.810	-0.131	-0.054
-336.289	-30.627	0.239	0.135
-335.275	800.000	-0.018	-0.054
-334.260	250.271	0.143	0.243
-333.245	278.173	-0.026	0.046
-332.231	-156.127	-0.098	0.006
-331.216	181.767	-0.062	0.092
-330.202	-200.000	0.022	-0.211
-329.187	201.808	0.279	-0.431
-328.172	177.045	0.135	0.196
-327.158	-137.604	-0.082	-0.009
-326.143	-124.413	0.254	-0.040
-325.129	117.404	-0.105	0.129
-324.114	-90.015	-0.184	-0.054
-323.099	582.081	0.122	-0.298
-322.085	296.399	0.093	-0.171
-321.070	-67.098	-0.325	0.128
-320.056	212.360	-0.297	0.469
-319.041	-163.627	0.345	-0.016
-318.026	-87.031	-0.127	-0.039
-317.012	48.460	-0.219	-0.205
-315.997	477.793	0.075	-0.170
-314.983	475.414	-0.040	-0.090
-313.968	238.912	-0.171	0.284
-312.953	-200.000	-0.013	-0.127
-311.939	322.963	-0.088	-0.168
-310.924	-3.011	0.125	-0.088
-309.910	800.000	0.023	-0.071
-308.895	336.924	0.150	0.291
-307.880	800.000	0.039	-0.141
-306.866	452.847	-0.061	-0.135
-305.851	132.192	0.090	-0.116
-304.837	-73.395	-0.339	0.124
-303.822	800.000	-0.066	0.190
-302.807	-129.213	0.282	-0.039
-301.793	800.000	-0.064	-0.201
-300.778	11.461	-0.203	-0.155
-299.764	-160.223	0.155	0.008
-298.749	128.905	0.301	0.383
-297.735	113.521	0.113	0.137
-296.720	-161.868	-0.149	-0.008
-295.705	-31.282	0.137	-0.077
-294.691	-40.314	-0.445	0.231
-293.676	147.420	0.094	0.126
-292.662	43.560	0.193	-0.177
-291.647	-71.788	-0.202	-0.075
-290.632	-200.000	0.009	0.351
-289.618	800.000	-0.053	-0.149
-288.603	-21.520	-0.255	-0.155
-287.589	154.402	-0.298	-0.409
-286.574	-55.793	0.248	-0.111
-285.559	-30.050	0.098	0.056
-284.545	-103.965	-0.261	-0.061
-283.530	338.405	0.096	-0.187
-282.516	43.478	-0.320	-0.292
-281.501	-99.831	0.236	0.059
-280.486	33.447	-0.048	0.042
-279.472	-200.000	-0.051	-0.229
-278.457	42.218	0.024	0.022
-277.443	-68.893	-0.125	-0.048
-276.428	246.400	-0.083	0.140
-275.413	-200.000	-0.022	0.309
-274.399	-122.502	0.163	0.026
-273.384	159.287	0.109	-0.152
-272.370	800.000	0.038	-0.134
-271.355	-200.000	-0.002	0.142
-270.340	275.034	0.094	-0.167
-269.326	-17.039	0.272	-0.171
-268.311	63.910	0.243	-0.244
-267.297	-200.000	-0.000	-0.034
-266.282	390.000	-0.158	-0.326
-265.267	11.820	-0.101	0.077
-264.253	-59.388	0.346	0.148
-263.238	252.485	0.143	-0.243
-262.224	-148.759	-0.227	-0.018
-261.209	-141.954	0.202	0.020
-260.195	144.132	-0.194	0.258
-259.180	-143.676	0.234	-0.022
-258.165	-89.495	-0.115	-0.034
-257.151	219.603	0.171	-0.273
-256.136	347.279	0.144	0.283
-255.122	-26.293	0.050	0.029
-254.107	-97.388	0.207	-0.054
-253.092	82.399	-0.189	-0.205
-252.078	194.583	-0.098	0.148
-251.063	-10.303	-0.193	-0.127
-250.049	163.405	-0.065	-0.091
-249.034	131.109	-0.227	0.291
-248.019	-112.622	-0.227	0.045
-247.005	0.653	-0.241	-0.172
-245.990	-104.930	0.171	0.039
-244.976	-91.155	-0.010	0.003
-243.961	2.747	-0.073	-0.053
-242.946	-27.193	-0.172	0.100
-241.932	247.986	0.096	0.162
-240.917	-0.954	-0.275	0.194
-239.903	8.304	0.178	-0.134
-238.888	9.153	0.040	0.030
-237.873	-200.000	0.029	-0.385
-236.859	-41.816	-0.051	0.026
-235.844	800.000	-0.060	0.231
-234.830	324.830	-0.122	0.233
-233.815	-120.736	0.286	-0.048
-232.800	794.405	0.077	0.210
-231.786	-60.163	-0.313	-0.133
-230.771	39.099	0.238	-0.213
-229.757	-200.000	0.011	0.271
-228.742	-15.555	-0.109	0.069
-227.727	364.815	-0.023	-0.046
-226.713	-124.217	-0.163	0.025
-225.698	97.416	0.119	0.136
-224.684	604.164	0.087	-0.216
-223.669	-122.423	-0.397	-0.064
-222.655	2.080	0.305	-0.220
-221.640	-134.078	-0.152	-0.019
-220.625	-39.549	0.058	0.031
-219.611	-200.000	-0.009	-0.182
-218.596	800.000	0.052	0.160
-217.582	-40.670	-0.325	0.168
-216.567	150.284	0.141	-0.191
-215.552	211.021	0.207	0.324
-214.538	-104.398	-0.271	0.062
-213.523	502.636	-0.135	-0.310
-212.509	36.324	-0.257	-0.226
-211.494	-97.072	0.274	-0.071
-210.479	-118.673	0.131	-0.023
-209.465	117.180	-0.169	0.207
-208.450	27.029	0.212	-0.177
-207.436	-139.110	-0.187	-0.020
-206.421	-86.984	-0.126	-0.038
-205.406	-89.703	0.208	0.061
-204.392	-144.501	0.188	0.017
-203.377	800.000	-0.083	-0.259
-202.363	-135.047	0.299	-0.036
-201.348	550.787	0.028	-0.066
-200.333	-51.823	0.347	0.161
-199.319	-54.922	-0.165	0.074
-198.304	-0.424	-0.082	0.058
-197.290	-111.247	0.129	-0.026
-196.275	-92.372	-0.105	-0.029
-195.260	616.491	-0.075	-0.186
-194.246	76.076	0.144	-0.152
-193.231	45.197	0.148	-0.136
-192.217	800.000	-0.103	-0.342
-191.202	266.246	-0.109	0.190
-190.187	378.514	0.142	-0.289
-189.173	-200.000	-0.021	-0.284
-188.158	-75.993	-0.014	0.005
-187.144	-200.000	0.023	0.147
-186.129	97.787	-0.102	0.117
-185.114	-200.000	-0.024	-0.123
-184.100	-33.126	-0.110	0.061
-183.085	-183.384	-0.275	0.005
-182.071	-142.141	-0.250	-0.025
-181.056	-63.791	-0.189	-0.077
-180.042	-0.281	0.249	-0.176
-179.027	-200.000	-0.024	-0.213
-178.012	-200.000	0.030	-0.185
-176.998	1.837	-0.226	-0.162
-175.983	138.705	-0.116	0.152
-174.969	800.000	0.087	-0.335
-173.954	800.000	-0.027	-0.094
-172.939	-148.611	-0.122	-0.010
-171.925	205.801	0.161	0.249
-170.910	266.351	0.120	0.208
-169.896	-68.334	0.068	0.026
-168.881	-49.128	-0.226	-0.107
-167.866	-131.644	0.023	-0.003
-166.852	-60.664	0.142	-0.060
-165.837	260.672	0.066	-0.113
-164.823	-180.789	0.263	-0.005
-163.808	-200.000	-0.010	0.150
-162.793	-3.486	0.040	0.028
-161.779	-34.393	0.124	0.067
-160.764	-125.295	0.377	0.057
-159.750	-200.000	0.120	0.531
-158.735	-80.528	0.428	-0.142
-157.720	23.183	-0.177	0.145
-156.706	21.631	0.113	-0.091
-155.691	-117.472	0.157	0.028
-154.677	167.450	0.047	0.067
-153.662	40.335	-0.147	-0.132
-152.647	22.904	-0.032	0.026
-151.633	-69.464	0.291	-0.111
-150.618	278.107	0.108	0.191
-149.604	11.880	-0.075	-0.057
-148.589	105.450	-0.038	0.044
-147.574	253.660	0.117	-0.198
-146.560	-44.201	0.174	0.087
-145.545	-120.831	-0.262	-0.044
-144.531	-16.277	0.245	0.154
-143.516	197.797	-0.073	0.111
-142.502	800.000	-0.101	0.297
-141.487	-175.138	0.218	0.006
-140.472	137.526	0.147	-0.191
-139.458	15.155	-0.173	-0.134
-138.443	-123.362	0.231	0.037
-137.429	-98.151	0.221	-0.056
-136.414	485.443	0.098	-0.222
-135.399	-118.211	-0.120	0.021
-134.385	-121.560	0.077	-0.013
-133.370	-47.395	-0.229	-0.111
-132.356	5.146	0.166	-0.121
-131.341	56.252	-0.104	-0.100
-130.326	-53.295	0.068	0.031
-129.312	35.678	-0.197	0.172
-128.297	3.430	0.227	-0.164
-127.283	29.802	0.170	-0.143
-126.268	-132.679	-0.345	-0.044
-125.253	13.354	-0.154	0.118
-124.239	-200.000	0.025	-0.292
-123.224	-200.000	0.041	0.231
-122.210	93.043	0.213	0.239
-121.195	-3.104	0.044	0.031
-120.180	4.147	-0.049	-0.036
