DTS Sentinel unit serial number:	SN413079Multiplexer serial number:	ORYXHardware model number:	OX4-SRSoftware version number:	ORYX F/W v4.00 Oryx Data Collector v3.7.2.0data status	okinstallation	princeton_trtdifferential loss correction	single-endedforward channel	channel 4reverse channel	N/Adate	2019/09/18time	17:05:35forward acquisition time	60.00reverse acquisition time	0.00gamma	496.2192k internal	0.2291k external	0.2291temperature offset calibration	1.0014default loss term (dB/km)	0.3790temperature slope calibration	1.0000multiplexer offset coefficient	1.0000multiplexer slope coefficient	1.0000fibre end	0.00T internal ref (°C)	39.94T ext. ref 1 (°C)	0.88T ext. ref 2 (°C)	32.62length (m)	temperature (°C)	Stokes	anti-Stokes-747.200	-200.000	-0.026	0.175
-746.185	-121.326	-0.188	-0.032
-745.171	-200.000	0.028	-0.439
-744.156	40.483	0.154	-0.142
-743.142	-200.000	-0.025	-0.152
-742.127	-200.000	0.011	0.294
-741.112	655.649	0.125	0.330
-740.098	320.190	-0.219	0.425
-739.083	-66.192	0.239	0.097
-738.069	-149.701	-0.034	0.003
-737.054	50.370	-0.322	-0.311
-736.039	-79.491	0.378	0.131
-735.025	131.241	0.236	0.310
-734.010	296.887	-0.174	0.327
-732.996	75.831	-0.081	0.088
-731.981	-200.000	0.020	-0.225
-730.966	-30.565	-0.257	-0.149
-729.952	724.303	-0.081	-0.220
-728.937	-57.594	-0.113	-0.051
-727.923	-200.000	0.026	0.189
-726.908	18.672	-0.210	-0.172
-725.894	530.003	-0.253	0.611
-724.879	-73.941	-0.266	0.099
-723.864	-20.451	0.337	-0.212
-722.850	-138.927	-0.103	-0.011
-721.835	313.425	0.077	-0.148
-720.821	-46.940	-0.264	0.132
-719.806	800.000	-0.045	-0.198
-718.791	776.986	-0.088	-0.245
-717.777	306.727	0.093	-0.177
-716.762	-65.413	-0.362	0.149
-715.748	54.695	-0.142	0.140
-714.733	-22.882	-0.388	0.239
-713.718	-185.808	-0.182	-0.003
-712.704	197.805	0.134	0.209
-711.689	-200.000	-0.010	0.051
-710.675	-133.212	0.124	0.016
-709.660	-200.000	-0.034	-0.407
-708.645	800.000	0.073	-0.239
-707.631	127.990	-0.071	0.092
-706.616	-200.000	-0.035	-0.185
-705.602	-162.743	-0.432	-0.022
-704.587	-200.000	0.017	-0.350
-703.572	241.400	-0.198	0.338
-702.558	800.000	0.031	0.095
-701.543	-97.753	-0.321	-0.085
-700.529	-200.000	0.044	0.234
-699.514	328.107	-0.092	-0.181
-698.499	-200.000	0.058	0.368
-697.485	-57.976	-0.354	-0.158
-696.470	-57.880	-0.107	-0.048
-695.456	800.000	0.096	-0.392
-694.441	119.178	-0.167	0.211
-693.426	-200.000	0.013	0.129
-692.412	-6.250	-0.056	0.039
-691.397	-9.522	-0.215	-0.147
-690.383	800.000	-0.065	0.199
-689.368	-200.000	-0.009	0.067
-688.354	210.950	-0.069	-0.111
-687.339	237.586	0.191	-0.324
-686.324	-200.000	-0.053	-0.261
-685.310	121.974	0.049	0.063
-684.295	462.036	0.087	-0.199
-683.281	-200.000	-0.002	0.081
-682.266	268.092	-0.159	-0.284
-681.251	-23.491	-0.084	0.052
-680.237	-29.799	0.113	0.066
-679.222	20.841	-0.292	-0.241
-678.208	90.222	0.204	0.233
-677.193	-200.000	0.063	-0.338
-676.178	458.301	-0.074	-0.169
-675.164	297.232	-0.219	-0.411
-674.149	-104.544	0.440	-0.104
-673.135	270.765	0.052	-0.094
-672.120	-45.668	0.240	0.121
-671.105	-73.579	0.362	0.135
-670.091	-200.000	0.061	0.499
-669.076	-23.588	-0.244	0.150
-668.062	-200.000	-0.006	-0.150
-667.047	-200.000	0.044	0.198
-666.032	-200.000	-0.006	0.062
-665.018	3.294	-0.178	0.132
-664.003	-200.000	0.013	0.160
-662.989	-54.618	-0.497	0.229
-661.974	331.415	-0.146	-0.288
-660.959	-200.000	-0.016	0.259
-659.945	800.000	-0.043	-0.167
-658.930	-200.000	-0.016	-0.083
-657.916	800.000	0.058	-0.258
-656.901	84.434	0.135	-0.151
-655.886	-122.072	0.303	0.051
-654.872	-94.718	-0.257	-0.071
-653.857	697.576	0.189	-0.507
-652.843	-200.000	-0.024	-0.165
-651.828	800.000	0.025	0.109
-650.814	-114.853	-0.126	-0.024
-649.799	800.000	-0.020	-0.075
-648.784	106.918	0.056	-0.068
-647.770	-132.962	-0.127	0.016
-646.755	704.769	-0.015	-0.041
-645.741	-55.145	0.275	0.126
-644.726	800.000	0.109	-0.358
-643.711	57.512	0.151	-0.150
-642.697	-200.000	0.034	0.160
-641.682	-156.450	-0.221	0.014
-640.668	-2.198	-0.122	0.087
-639.653	187.540	0.060	-0.092
-638.638	-57.649	-0.079	0.035
-637.624	800.000	-0.064	-0.199
-636.609	-200.000	-0.065	-0.309
-635.595	79.182	0.087	-0.095
-634.580	15.368	0.154	-0.123
-633.565	-116.540	-0.100	0.019
-632.551	-200.000	-0.001	-0.010
-631.536	-169.323	-0.144	-0.005
-630.522	36.414	-0.219	0.197
-629.507	-44.139	0.232	0.119
-628.492	127.680	-0.081	-0.105
-627.478	800.000	0.035	-0.151
-626.463	-200.000	0.003	0.139
-625.449	-200.000	0.011	0.088
-624.434	219.626	-0.206	-0.336
-623.419	-150.730	-0.223	-0.017
-622.405	-6.966	-0.283	-0.196
-621.390	-141.707	0.070	0.007
-620.376	-88.986	-0.026	-0.008
-619.361	-200.000	-0.002	0.167
-618.346	-6.931	0.103	0.071
-617.332	644.231	0.067	0.175
-616.317	-66.601	-0.237	0.096
-615.303	-134.745	0.089	0.011
-614.288	24.487	0.408	0.343
-613.273	124.103	-0.033	-0.042
-612.259	800.000	0.209	-0.598
-611.244	-79.159	-0.544	-0.188
-610.230	-200.000	-0.007	0.325
-609.215	45.012	-0.296	-0.278
-608.201	157.246	0.197	-0.278
-607.186	206.221	0.152	-0.240
-606.171	800.000	-0.058	-0.174
-605.157	800.000	0.034	-0.109
-604.142	-32.414	-0.191	-0.109
-603.128	-200.000	0.027	-0.124
-602.113	-35.325	0.044	-0.024
-601.098	536.897	-0.056	0.136
-600.084	-200.000	0.021	-0.172
-599.069	-200.000	-0.033	-0.238
-598.055	-2.557	0.075	0.054
-597.040	-107.490	0.334	0.075
-596.025	-200.000	-0.044	0.302
-595.011	17.714	0.077	-0.062
-593.996	-41.324	-0.170	0.089
-592.982	99.536	-0.234	0.276
-591.967	440.240	-0.064	-0.142
-590.952	-133.990	-0.307	-0.039
-589.938	-178.035	0.121	-0.003
-588.923	-150.021	0.040	0.003
-587.909	1.648	0.094	0.069
-586.894	73.888	-0.196	0.209
-585.879	-51.979	0.163	0.077
-584.865	378.996	-0.078	0.163
-583.850	178.949	0.022	-0.033
-582.836	-21.710	-0.290	-0.180
-581.821	-33.755	0.286	-0.160
-580.806	494.530	-0.100	-0.234
-579.792	6.105	-0.373	0.281
-578.777	-117.347	0.507	0.094
-577.763	-200.000	0.026	0.263
-576.748	687.190	-0.059	0.156
-575.733	-9.026	-0.160	0.109
-574.719	-143.575	0.229	0.022
-573.704	-200.000	-0.017	0.182
-572.690	-37.795	-0.392	0.212
-571.675	11.653	-0.133	-0.104
-570.661	-43.932	0.174	-0.089
-569.646	-34.435	-0.217	0.121
-568.631	-170.198	-0.464	-0.017
-567.617	-85.116	-0.400	-0.127
-566.602	14.750	-0.152	-0.120
-565.588	-102.583	0.103	0.025
-564.573	-124.611	0.014	-0.002
-563.558	41.611	0.261	0.240
-562.544	-83.242	-0.226	-0.074
-561.529	-75.874	0.179	-0.064
-560.515	-101.943	0.266	0.065
-559.500	104.890	0.137	0.164
-558.485	-200.000	-0.016	-0.226
-557.471	137.231	-0.062	0.083
-556.456	-200.000	0.023	0.176
-555.442	138.593	0.079	0.106
-554.427	-33.393	-0.232	0.130
-553.412	4.058	-0.218	0.162
-552.398	-15.956	0.211	0.136
-551.383	800.000	0.027	-0.119
-550.369	247.045	0.173	-0.297
-549.354	-200.000	0.003	-0.344
-548.339	-2.563	-0.149	0.106
-547.325	-200.000	0.020	0.236
-546.310	108.900	0.113	-0.137
-545.296	-16.810	-0.201	0.129
-544.281	363.283	-0.135	-0.276
-543.266	800.000	-0.038	-0.125
-542.252	337.521	-0.092	-0.182
-541.237	-200.000	0.005	0.079
-540.223	6.112	-0.059	-0.045
-539.208	-42.845	-0.029	-0.015
-538.193	-200.000	-0.043	-0.212
-537.179	-200.000	-0.011	0.137
-536.164	800.000	-0.044	-0.155
-535.150	197.952	-0.215	-0.334
-534.135	1.550	0.237	0.173
-533.121	-31.476	0.270	-0.154
-532.106	-72.229	-0.068	0.025
-531.091	-143.066	-0.147	0.014
-530.077	-66.856	0.416	-0.167
-529.062	-6.948	-0.171	-0.118
-528.048	491.827	0.131	-0.305
-527.033	-150.856	-0.136	-0.010
-526.018	800.000	-0.058	0.224
-525.004	571.022	-0.076	-0.187
-523.989	800.000	0.025	0.083
-522.975	112.138	0.110	-0.135
-521.960	-18.357	0.054	0.034
-520.945	41.213	-0.018	0.016
-519.931	-200.000	0.015	-0.147
-518.916	-128.768	-0.039	0.006
-517.902	-29.831	0.593	0.343
-516.887	800.000	-0.047	-0.134
-515.872	800.000	-0.054	0.176
-514.858	-188.569	0.068	-0.001
-513.843	-65.984	0.378	-0.153
-512.829	153.902	-0.133	0.185
-511.814	-107.708	0.106	-0.023
-510.799	-41.842	0.171	0.089
-509.785	-70.781	-0.423	-0.162
-508.770	800.000	-0.062	-0.235
-507.756	-200.000	0.013	-0.254
-506.741	-132.229	0.281	0.037
-505.726	34.804	-0.181	-0.161
-504.712	-99.236	-0.152	0.039
-503.697	-184.502	0.150	0.002
-502.683	153.281	0.058	-0.081
-501.668	34.335	0.116	-0.102
-500.653	152.856	0.183	0.253
-499.639	800.000	0.055	-0.203
-498.624	156.720	-0.045	-0.063
-497.610	-22.470	-0.186	0.114
-496.595	-200.000	-0.042	-0.313
-495.581	-99.380	-0.144	-0.037
-494.566	21.915	-0.159	-0.131
-493.551	460.646	-0.130	0.295
-492.537	-90.479	-0.027	0.008
-491.522	-200.000	0.004	0.224
-490.508	51.471	-0.137	0.132
-489.493	-45.026	-0.359	-0.181
-488.478	-200.000	-0.037	0.194
-487.464	2.746	0.097	0.071
-486.449	800.000	0.067	-0.273
-485.435	66.896	0.279	-0.288
-484.420	800.000	0.029	-0.089
-483.405	65.432	-0.126	0.129
-482.391	-73.619	0.471	-0.174
-481.376	-74.671	-0.339	-0.123
-480.362	-189.669	-0.086	-0.001
-479.347	139.025	-0.075	0.100
-478.332	222.693	-0.240	-0.391
-477.318	-181.820	-0.309	-0.006
-476.303	-10.332	-0.316	-0.213
-475.289	26.486	0.212	0.180
-474.274	35.201	0.090	-0.080
-473.259	-29.790	0.169	0.098
-472.245	-88.098	-0.119	-0.036
-471.230	-131.488	-0.114	0.015
-470.216	97.391	-0.114	0.132
-469.201	63.942	0.102	0.104
-468.186	-200.000	-0.019	0.116
-467.172	-58.297	-0.314	-0.138
-466.157	800.000	0.035	0.143
-465.143	372.769	-0.037	-0.076
-464.128	-132.855	-0.054	-0.007
-463.113	-200.000	0.010	0.074
-462.099	-12.062	-0.127	0.084
-461.084	7.718	0.183	-0.138
-460.070	-200.000	-0.040	-0.333
-459.055	164.730	-0.256	0.365
-458.040	662.844	0.188	0.491
-457.026	-200.000	-0.221	-0.001
-456.011	-82.795	0.328	-0.107
-454.997	-200.000	0.041	0.261
-453.982	-95.608	-0.133	-0.036
-452.968	-200.000	0.009	-0.147
-451.953	-200.000	0.036	-0.166
-450.938	-50.765	0.179	-0.085
-449.924	-44.528	0.033	0.016
-448.909	-118.581	0.454	0.081
-447.895	-0.879	0.086	0.062
-446.880	-200.000	0.004	0.119
-445.865	-177.898	-0.203	0.005
-444.851	-152.368	-0.155	-0.011
-443.836	-200.000	0.034	0.364
-442.822	106.097	0.112	0.134
-441.807	-53.396	-0.262	0.121
-440.792	-200.000	0.012	0.059
-439.778	-20.296	-0.219	-0.137
-438.763	556.285	-0.055	-0.135
-437.749	7.454	0.508	0.385
-436.734	737.298	0.015	0.040
-435.719	180.378	-0.071	-0.105
-434.705	320.897	-0.111	0.214
-433.690	-90.825	0.199	0.058
-432.676	-131.375	-0.212	-0.028
-431.661	-200.000	0.020	0.367
-430.646	132.062	-0.065	-0.085
-429.632	800.000	0.057	-0.214
-428.617	-156.349	-0.228	-0.014
-427.603	-200.000	0.002	0.035
-426.588	800.000	-0.063	0.181
-425.573	-90.050	-0.229	-0.068
-424.559	-37.858	-0.156	0.084
-423.544	-21.922	0.107	-0.066
-422.530	-121.332	-0.281	-0.047
-421.515	-200.000	-0.006	-0.168
-420.500	-2.450	0.236	-0.167
-419.486	119.316	0.238	-0.298
-418.471	756.609	0.064	0.176
-417.457	-200.000	-0.017	0.143
-416.442	-167.325	0.278	-0.011
-415.428	-37.249	-0.059	0.032
-414.413	-13.905	-0.139	0.091
-413.398	-150.772	0.315	0.024
-412.384	-99.840	-0.300	0.076
-411.369	-15.801	-0.089	-0.058
-410.355	800.000	0.074	0.221
-409.340	-145.635	0.242	-0.022
-408.325	800.000	-0.082	-0.247
-407.311	56.927	-0.068	0.066
-406.296	-200.000	-0.044	0.353
-405.282	-61.497	0.293	-0.124
-404.267	423.683	0.082	0.179
-403.252	800.000	-0.189	-0.532
-402.238	105.029	0.243	0.290
-401.223	-200.000	0.018	-0.182
-400.209	170.498	0.037	0.054
-399.194	800.000	0.015	-0.052
-398.179	39.302	0.275	0.248
-397.165	-173.193	0.119	-0.004
-396.150	61.374	-0.062	0.062
-395.136	-86.755	-0.147	-0.046
-394.121	-192.798	-0.264	-0.002
-393.106	-200.000	0.016	-0.121
-392.092	143.920	-0.174	0.234
-391.077	218.676	0.070	0.112
-390.063	14.740	0.036	0.029
-389.048	-200.000	0.045	0.217
-388.033	114.454	0.137	-0.169
-387.019	-136.581	-0.073	-0.009
-386.004	196.822	0.085	-0.131
-384.990	237.657	0.126	0.211
-383.975	800.000	0.066	0.272
-382.960	-200.000	0.012	-0.209
-381.946	-63.497	0.042	0.018
-380.931	-200.000	-0.023	-0.237
-379.917	-200.000	-0.028	0.155
-378.902	800.000	-0.064	-0.236
-377.888	-13.512	0.345	-0.226
-376.873	-200.000	0.063	0.324
-375.858	-160.021	-0.230	-0.013
-374.844	271.711	0.120	0.214
-373.829	-41.265	-0.104	0.054
-372.815	262.266	-0.084	0.147
-371.800	-121.055	-0.413	0.070
-370.785	-99.979	0.229	0.058
-369.771	210.237	0.146	0.232
-368.756	-59.804	-0.222	-0.096
-367.742	735.512	0.054	0.146
-366.727	-200.000	0.006	0.259
-365.712	-103.957	-0.191	-0.045
-364.698	-21.469	-0.106	-0.065
-363.683	-113.816	-0.086	0.017
-362.669	-200.000	0.013	-0.571
-361.654	50.305	0.031	-0.029
-360.639	245.090	-0.107	-0.181
-359.625	386.361	0.063	-0.132
-358.610	2.748	0.221	0.162
-357.596	-130.759	-0.277	0.037
-356.581	-16.111	0.142	0.091
-355.566	-10.305	-0.047	-0.032
-354.552	-21.768	-0.390	-0.239
-353.537	-124.078	-0.075	0.012
-352.523	240.428	0.050	-0.083
-351.508	-28.372	-0.167	-0.097
-350.493	266.727	0.080	-0.140
-349.479	800.000	-0.054	-0.160
-348.464	-139.817	-0.106	0.011
-347.450	-200.000	0.061	-0.300
-346.435	141.250	0.076	0.102
-345.420	164.680	0.140	0.200
-344.406	451.504	-0.122	0.272
-343.391	-28.238	-0.060	0.035
-342.377	572.589	-0.018	0.045
-341.362	-18.721	-0.073	-0.046
-340.348	-61.180	0.128	-0.054
-339.333	-200.000	-0.027	-0.280
-338.318	-95.528	0.331	0.089
-337.304	-32.684	0.116	0.065
-336.289	170.538	-0.221	0.319
-335.275	-57.480	0.158	-0.070
-334.260	63.859	-0.212	0.214
-333.245	-133.408	-0.145	0.018
-332.231	-200.000	0.008	0.334
-331.216	173.443	0.204	0.296
-330.202	800.000	0.058	0.225
-329.187	-109.456	0.122	0.026
-328.172	-200.000	0.018	0.198
-327.158	800.000	0.101	0.428
-326.143	168.397	-0.047	-0.067
-325.129	63.300	-0.067	-0.067
-324.114	-200.000	0.015	-0.275
-323.099	-73.191	-0.120	-0.044
-322.085	-99.344	-0.158	-0.040
-321.070	-116.960	0.212	0.039
-320.056	-81.065	0.041	0.014
-319.041	-187.695	0.275	0.004
-318.026	164.594	0.060	0.085
-317.012	218.279	0.192	0.308
-315.997	800.000	-0.040	0.170
-314.983	800.000	-0.106	-0.397
-313.968	2.243	0.060	-0.044
-312.953	25.036	0.218	-0.182
-311.939	-32.190	0.097	-0.055
-310.924	-200.000	-0.072	0.331
-309.910	93.902	-0.030	0.035
-308.895	-200.000	0.011	-0.168
-307.880	-48.613	-0.251	0.122
-306.866	55.050	-0.125	0.122
-305.851	-48.976	-0.201	-0.097
-304.837	-146.286	0.076	-0.007
-303.822	175.051	0.165	-0.240
-302.807	-97.207	0.097	-0.026
-301.793	-25.592	0.056	0.033
-300.778	-23.473	0.110	-0.067
-299.764	164.510	-0.056	0.079
-298.749	-69.596	-0.263	0.101
-297.735	176.403	0.194	-0.284
-296.720	-200.000	0.018	-0.121
-295.705	-1.698	0.023	-0.017
-294.691	334.706	0.122	0.238
-293.676	72.409	-0.237	-0.249
-292.662	32.508	-0.279	0.243
-291.647	99.224	-0.082	0.095
-290.632	175.806	0.165	-0.240
-289.618	2.424	0.139	0.101
-288.603	-200.000	-0.036	0.199
-287.589	549.931	0.237	0.573
-286.574	-10.952	0.186	-0.124
-285.559	38.375	-0.144	0.129
-284.545	34.427	0.242	0.213
-283.530	84.378	-0.303	-0.333
-282.516	-51.878	-0.201	-0.094
-281.501	-12.964	0.115	0.075
-280.486	337.422	-0.077	-0.150
-279.472	-137.755	-0.193	-0.022
-278.457	-42.054	-0.218	-0.112
-277.443	-200.000	0.040	-0.330
-276.428	-200.000	-0.019	-0.154
-275.413	-133.784	0.193	0.024
-274.399	-120.264	-0.122	0.021
-273.384	76.172	0.162	-0.173
-272.370	-113.464	-0.306	0.060
-271.355	-138.876	0.139	-0.015
-270.340	20.920	-0.233	0.190
-269.326	800.000	0.196	0.550
-268.311	-48.874	0.258	-0.125
-267.297	54.623	0.205	-0.199
-266.282	800.000	0.045	-0.157
-265.267	-136.098	0.209	-0.025
-264.253	-200.000	0.040	-0.259
-263.238	150.586	-0.102	-0.140
-262.224	-200.000	-0.058	0.323
-261.209	-81.923	-0.227	0.074
-260.195	-38.895	-0.125	0.066
-259.180	-142.070	0.223	0.022
-258.165	-8.102	0.024	-0.016
-257.151	176.404	0.095	0.139
-256.136	134.163	0.147	-0.191
-255.122	83.576	-0.261	-0.286
-254.107	-109.319	-0.369	0.079
-253.092	-9.666	-0.185	-0.124
-252.078	-86.133	0.181	-0.056
-251.063	292.042	-0.041	0.075
-250.049	800.000	-0.007	-0.032
-249.034	-200.000	0.056	-0.412
-248.019	-53.263	-0.096	0.044
-247.005	32.975	-0.255	0.222
-245.990	-121.547	0.171	-0.029
-244.976	-68.966	-0.474	0.184
-243.961	242.393	0.216	-0.362
-242.946	-70.212	-0.199	0.076
-241.932	-56.793	0.309	0.137
-240.917	126.412	0.205	0.260
-239.903	-53.716	-0.018	-0.008
-238.888	-131.683	-0.162	0.021
-237.873	-160.861	0.133	-0.007
-236.859	-61.953	-0.455	0.191
-235.844	311.435	0.196	-0.368
-234.830	-120.016	-0.132	-0.023
-233.815	91.702	0.075	-0.085
-232.800	395.060	0.200	0.418
-231.786	-104.991	-0.297	0.068
-230.771	800.000	-0.031	0.118
-229.757	800.000	0.028	-0.113
-228.742	91.976	0.152	0.171
-227.727	-200.000	-0.018	0.292
-226.713	800.000	0.068	-0.240
-225.698	-200.000	-0.175	0.000
-224.684	-148.730	-0.162	0.013
-223.669	45.491	-0.118	-0.109
-222.655	298.128	-0.113	-0.208
-221.640	-58.440	0.148	0.064
-220.625	-67.209	-0.225	0.089
-219.611	-200.000	0.014	0.069
-218.596	800.000	-0.109	0.465
-217.582	-54.395	0.118	0.053
-216.567	134.860	0.162	0.211
-215.552	175.352	0.079	-0.114
-214.538	-57.203	0.084	-0.037
-213.523	-200.000	0.023	-0.289
-212.509	-30.030	0.193	0.110
-211.494	36.207	0.113	-0.100
-210.479	320.833	0.086	-0.164
-209.465	92.509	0.163	0.184
-208.450	218.133	-0.031	-0.050
-207.436	-64.369	-0.127	-0.052
-206.421	-16.701	0.153	0.097
-205.406	-200.000	-0.022	0.116
-204.392	-115.318	-0.179	0.034
-203.377	85.154	0.069	0.076
-202.363	57.672	0.052	-0.051
-201.348	-49.873	0.137	0.065
-200.333	691.640	0.123	-0.323
-199.319	-200.000	-0.055	-0.458
-198.304	-100.417	0.193	0.048
-197.290	53.228	0.032	-0.031
-196.275	9.914	-0.226	-0.172
-195.260	-200.000	-0.021	-0.194
-194.246	68.082	0.099	-0.101
-193.231	427.819	-0.099	-0.213
-192.217	407.748	0.063	-0.133
-191.202	-88.758	0.150	-0.045
-190.187	32.411	0.297	-0.257
-189.173	70.971	-0.245	0.254
-188.158	443.073	0.102	-0.224
-187.144	800.000	-0.041	-0.173
-186.129	800.000	0.013	0.045
-185.114	-200.000	-0.016	0.158
-184.100	599.739	-0.093	0.231
-183.085	-85.053	-0.170	0.053
-182.071	228.650	0.291	0.475
-181.056	133.479	0.227	0.294
-180.042	800.000	-0.078	-0.238
-179.027	256.834	0.189	0.325
-178.012	83.782	0.065	0.071
-176.998	312.540	0.092	-0.172
-175.983	-200.000	0.047	-0.226
-174.969	0.447	0.421	-0.301
-173.954	-10.048	0.151	0.101
-172.939	-146.322	0.264	-0.023
-171.925	-94.817	0.083	0.023
-170.910	-200.000	0.046	0.378
-169.896	-3.086	0.230	0.161
-168.881	-98.316	0.311	-0.080
-167.866	-200.000	0.030	-0.194
-166.852	800.000	0.010	-0.045
-165.837	76.936	0.240	0.255
-164.823	800.000	0.062	0.184
-163.808	146.755	-0.099	0.133
-162.793	91.970	-0.085	-0.096
-161.779	70.730	0.128	-0.133
-160.764	-200.000	0.023	-0.190
-159.750	800.000	0.059	-0.167
-158.735	29.993	0.094	-0.080
-157.720	164.927	0.135	0.191
-156.706	683.370	-0.091	0.237
-155.691	133.241	-0.115	0.149
-154.677	-92.699	0.143	-0.040
-153.662	51.316	0.046	0.044
-152.647	32.355	-0.111	-0.096
-151.633	-123.960	-0.272	0.043
-150.618	106.331	0.050	-0.059
-149.604	-74.944	-0.208	-0.075
-148.589	52.624	-0.139	-0.133
-147.574	-200.000	-0.026	-0.213
-146.560	241.325	-0.160	-0.268
-145.545	501.183	0.021	0.050
-144.531	800.000	-0.054	0.201
-143.516	-55.143	-0.165	-0.074
-142.502	-57.558	-0.353	-0.155
-141.487	-37.318	0.198	0.106
-140.472	-16.091	0.067	0.043
-139.458	608.175	0.065	0.161
-138.443	-118.406	-0.143	0.025
-137.429	34.341	0.224	0.195
-136.414	-200.000	0.038	-0.175
-135.399	-200.000	0.039	-0.201
-134.385	-81.414	0.303	-0.100
-133.370	-6.931	-0.368	0.250
-132.356	-4.601	0.319	0.220
-131.341	-200.000	0.006	0.051
-130.326	-116.526	-0.202	-0.037
-129.312	51.111	0.251	-0.238
-128.297	800.000	0.024	-0.071
-127.283	-200.000	-0.020	0.090
-126.268	-140.286	-0.053	0.006
-125.253	-128.907	0.097	-0.014
-124.239	-29.953	0.281	0.160
-123.224	-160.932	0.194	-0.010
-122.210	251.381	0.126	-0.214
-121.195	-163.681	-0.095	0.004
