DTS Sentinel unit serial number:	SN413079Multiplexer serial number:	ORYXHardware model number:	OX4-SRSoftware version number:	ORYX F/W v4.00 Oryx Data Collector v3.7.2.0data status	okinstallation	princeton_trtdifferential loss correction	single-endedforward channel	channel 4reverse channel	N/Adate	2019/09/16time	06:41:35forward acquisition time	60.00reverse acquisition time	0.00gamma	496.2192k internal	0.2320k external	0.2320temperature offset calibration	0.9979default loss term (dB/km)	0.3790temperature slope calibration	1.0000multiplexer offset coefficient	1.0000multiplexer slope coefficient	1.0000fibre end	0.00T internal ref (°C)	27.37T ext. ref 1 (°C)	11.42T ext. ref 2 (°C)	21.94length (m)	temperature (°C)	Stokes	anti-Stokes-747.200	-121.690	-0.153	-0.026
-746.185	-112.438	0.025	0.005
-745.171	-41.639	-0.276	0.144
-744.156	-200.000	-0.044	0.372
-743.142	-43.179	0.210	0.107
-742.127	-111.812	-0.128	-0.026
-741.112	-31.910	0.172	0.098
-740.098	-32.751	0.158	-0.089
-739.083	89.288	-0.257	0.290
-738.069	633.881	-0.144	0.369
-737.054	-94.709	-0.103	0.028
-736.039	-200.000	-0.022	-0.220
-735.025	800.000	0.025	-0.107
-734.010	-156.604	-0.286	-0.018
-732.996	800.000	0.064	-0.233
-731.981	-68.341	0.056	0.022
-730.966	11.531	-0.191	-0.148
-729.952	-200.000	-0.028	-0.163
-728.937	-200.000	-0.049	0.262
-727.923	161.570	0.115	-0.163
-726.908	297.473	-0.056	0.103
-725.894	395.791	-0.161	-0.340
-724.879	14.778	0.083	0.066
-723.864	608.008	-0.100	-0.251
-722.850	-25.345	-0.127	0.076
-721.835	27.025	0.283	0.240
-720.821	399.654	-0.069	-0.146
-719.806	-175.577	-0.303	-0.008
-718.791	5.506	-0.145	0.108
-717.777	-63.400	0.383	-0.159
-716.762	-200.000	0.030	0.191
-715.748	14.501	0.162	-0.128
-714.733	-169.361	-0.140	0.005
-713.718	67.233	-0.117	0.121
-712.704	23.096	0.077	-0.064
-711.689	567.310	0.058	-0.142
-710.675	-200.000	-0.108	0.481
-709.660	-84.223	-0.212	0.068
-708.645	154.934	-0.134	0.186
-707.631	-45.427	-0.466	-0.233
-706.616	-200.000	-0.043	-0.284
-705.602	112.651	0.116	-0.142
-704.587	-200.000	0.032	0.247
-703.572	402.275	0.038	0.080
-702.558	-200.000	0.009	-0.279
-701.543	80.416	-0.102	0.111
-700.529	-168.428	0.146	0.006
-699.514	800.000	-0.082	-0.267
-698.499	89.997	0.184	0.208
-697.485	-79.835	-0.214	0.073
-696.470	39.805	-0.042	0.038
-695.456	84.146	0.154	-0.169
-694.441	411.201	0.145	-0.311
-693.426	-24.221	0.162	0.098
-692.412	166.703	0.105	-0.150
-691.397	-93.456	-0.313	-0.087
-690.383	-9.484	-0.144	0.097
-689.368	-200.000	0.021	0.094
-688.354	307.717	-0.089	0.168
-687.339	-104.367	0.256	-0.060
-686.324	-47.176	-0.181	-0.089
-685.310	584.143	-0.087	-0.216
-684.295	534.279	-0.056	-0.133
-683.281	-200.000	0.038	0.173
-682.266	95.931	0.086	0.099
-681.251	172.314	-0.182	0.264
-680.237	-200.000	-0.001	0.363
-679.222	26.123	-0.112	-0.094
-678.208	-200.000	-0.023	-0.161
-677.193	238.384	0.084	-0.141
-676.178	-140.244	0.146	0.015
-675.164	-2.952	-0.367	0.258
-674.149	106.347	-0.031	-0.037
-673.135	-200.000	0.008	-0.156
-672.120	-139.654	-0.181	0.019
-671.105	800.000	0.063	-0.266
-670.091	-200.000	-0.002	0.262
-669.076	19.749	-0.414	-0.336
-668.062	-97.404	0.145	0.038
-667.047	171.398	-0.139	-0.201
-666.032	78.734	-0.225	0.242
-665.018	53.302	-0.193	-0.187
-664.003	-7.201	-0.259	0.177
-662.989	-33.737	-0.336	0.187
-661.974	382.688	-0.089	-0.185
-660.959	-50.256	0.385	-0.184
-659.945	40.259	-0.282	-0.256
-658.930	424.835	0.119	0.259
-657.916	-200.000	-0.000	0.021
-656.901	-200.000	-0.021	-0.362
-655.886	800.000	-0.025	0.106
-654.872	-137.077	0.152	0.017
-653.857	117.558	-0.133	0.164
-652.843	800.000	0.060	-0.225
-651.828	-12.448	0.040	-0.026
-650.814	196.173	0.098	-0.151
-649.799	-73.420	0.276	0.101
-648.784	-200.000	-0.003	0.133
-647.770	800.000	-0.131	0.480
-646.755	-200.000	-0.008	-0.045
-645.741	-120.798	0.097	-0.016
-644.726	-125.293	0.307	-0.047
-643.711	111.162	0.061	0.074
-642.697	-9.943	-0.143	-0.095
-641.682	-69.458	-0.129	0.050
-640.668	800.000	0.088	-0.323
-639.653	34.397	0.239	0.210
-638.638	687.525	0.089	0.234
-637.624	-200.000	0.001	-0.012
-636.609	-200.000	0.024	0.333
-635.595	-147.136	-0.234	-0.020
-634.580	669.771	-0.089	0.233
-633.565	-200.000	-0.020	-0.205
-632.551	686.069	-0.022	-0.058
-631.536	-18.970	-0.364	-0.228
-630.522	179.440	0.105	-0.155
-629.507	423.104	-0.062	0.134
-628.492	-200.000	-0.018	0.170
-627.478	-200.000	-0.059	-0.375
-626.463	420.313	0.025	-0.053
-625.449	736.146	-0.153	0.412
-624.434	800.000	-0.017	0.073
-623.419	153.325	-0.075	-0.103
-622.405	326.484	-0.065	-0.126
-621.390	120.527	-0.028	0.035
-620.376	65.555	-0.282	0.288
-619.361	-200.000	0.019	-0.124
-618.346	28.718	-0.077	-0.065
-617.332	-2.600	-0.216	0.152
-616.317	-200.000	0.010	-0.295
-615.303	-55.869	-0.246	-0.111
-614.288	-96.772	0.239	-0.063
-613.273	121.238	0.166	-0.209
-612.259	800.000	0.026	0.074
-611.244	800.000	-0.116	0.433
-610.230	230.489	0.028	-0.045
-609.215	-41.136	0.082	0.042
-608.201	218.321	0.069	0.111
-607.186	114.426	0.198	-0.243
-606.171	175.097	-0.065	-0.095
-605.157	113.280	-0.148	-0.180
-604.142	29.642	0.140	-0.120
-603.128	-119.362	0.216	0.038
-602.113	-142.785	0.209	-0.020
-601.098	101.273	0.120	-0.140
-600.084	43.617	0.173	-0.159
-599.069	-200.000	0.070	-0.331
-598.055	-149.682	0.068	0.005
-597.040	410.720	-0.180	-0.384
-596.025	468.849	0.007	0.016
-595.011	106.817	0.177	0.211
-593.996	311.106	0.041	0.077
-592.982	-83.915	0.213	-0.068
-591.967	736.695	-0.125	0.337
-590.952	-53.191	-0.050	-0.023
-589.938	704.565	-0.073	0.193
-588.923	47.802	0.048	0.045
-587.909	800.000	-0.123	-0.398
-586.894	631.231	0.162	-0.412
-585.879	-192.095	-0.459	-0.004
-584.865	127.704	-0.239	-0.306
-583.850	-200.000	0.017	0.083
-582.836	64.226	-0.215	0.217
-581.821	-138.884	0.137	-0.015
-580.806	-200.000	-0.026	0.448
-579.792	-33.399	-0.188	0.104
-578.777	139.151	0.251	0.332
-577.763	-121.132	-0.237	-0.040
-576.748	-135.266	-0.106	0.013
-575.733	515.165	-0.096	0.226
-574.719	-116.158	0.164	-0.031
-573.704	800.000	-0.070	-0.201
-572.690	51.030	-0.217	-0.206
-571.675	297.236	0.120	-0.220
-570.661	-84.172	0.089	0.028
-569.646	-132.234	-0.165	-0.021
-568.631	5.449	0.224	-0.166
-567.617	92.943	0.112	-0.127
-566.602	729.319	0.158	-0.425
-565.588	8.631	-0.379	-0.287
-564.573	237.080	0.133	-0.221
-563.558	174.681	0.204	-0.297
-562.544	-98.980	-0.403	0.103
-561.529	-200.000	0.022	-0.145
-560.515	-63.420	-0.015	-0.006
-559.500	-200.000	0.013	-0.181
-558.485	-120.680	0.262	0.044
-557.471	-54.976	0.332	0.150
-556.456	-28.225	-0.305	-0.177
-555.442	-147.565	0.328	-0.028
-554.427	800.000	-0.063	-0.262
-553.412	113.009	0.236	0.287
-552.398	-200.000	0.029	0.239
-551.383	3.381	-0.099	0.072
-550.369	345.260	0.083	0.163
-549.354	143.172	-0.197	0.263
-548.339	-37.525	0.270	0.145
-547.325	800.000	-0.024	-0.089
-546.310	188.079	-0.043	-0.065
-545.296	21.113	-0.164	-0.133
-544.281	-100.342	-0.098	0.024
-543.266	800.000	-0.104	0.332
-542.252	248.017	-0.120	0.204
-541.237	261.721	0.010	-0.017
-540.223	-89.144	-0.449	0.133
-539.208	360.647	-0.174	0.350
-538.193	700.603	-0.084	0.222
-537.179	54.304	0.123	-0.119
-536.164	-200.000	-0.270	-0.001
-535.150	-200.000	0.017	-0.160
-534.135	-170.743	-0.177	0.006
-533.121	35.925	-0.094	0.083
-532.106	-129.533	0.093	0.013
-531.091	83.624	-0.274	0.300
-530.077	-70.547	0.251	0.095
-529.062	-42.133	-0.165	-0.085
-528.048	-185.399	0.252	0.004
-527.033	67.698	-0.046	0.047
-526.018	-200.000	-0.014	0.180
-525.004	-137.102	0.162	-0.019
-523.989	-200.000	0.018	0.154
-522.975	-58.226	-0.073	0.032
-521.960	-81.308	0.319	0.106
-520.945	121.412	0.054	-0.068
-519.931	-4.287	-0.081	0.056
-518.916	-200.000	-0.012	-0.415
-517.902	-72.644	0.142	-0.052
-516.887	-115.554	0.095	0.018
-515.872	-200.000	-0.025	-0.246
-514.858	-63.675	-0.111	-0.046
-513.843	-118.074	0.074	-0.013
-512.829	85.082	0.137	0.151
-511.814	-152.452	-0.245	-0.018
-510.799	-103.001	0.510	0.121
-509.785	18.700	-0.280	-0.224
-508.770	-110.046	-0.163	-0.034
-507.756	-200.000	0.108	-0.479
-506.741	800.000	0.092	-0.362
-505.726	800.000	0.040	0.149
-504.712	-200.000	0.011	-0.066
-503.697	78.969	0.046	-0.050
-502.683	-122.804	-0.253	0.041
-501.668	181.013	-0.253	0.372
-500.653	344.773	-0.042	0.083
-499.639	622.034	-0.024	0.060
-498.624	148.206	0.208	0.281
-497.610	-144.120	0.235	-0.022
-496.595	-200.000	-0.058	-0.466
-495.581	-200.000	0.011	0.129
-494.566	13.789	-0.218	-0.170
-493.551	-200.000	0.031	-0.288
-492.537	24.846	0.245	0.203
-491.522	-51.444	0.370	-0.173
-490.508	-132.081	-0.112	0.015
-489.493	28.834	-0.263	0.223
-488.478	73.733	0.243	0.255
-487.464	135.013	-0.131	0.170
-486.449	-140.511	0.376	0.039
-485.435	-82.891	0.366	-0.118
-484.420	-140.879	0.468	-0.048
-483.405	-127.660	-0.115	0.017
-482.391	234.576	-0.042	0.069
-481.376	-200.000	0.004	0.067
-480.362	128.231	-0.147	-0.187
-479.347	528.967	0.116	0.274
-478.332	-90.221	-0.289	0.084
-477.318	-13.780	0.339	0.219
-476.303	-40.931	-0.126	0.065
-475.289	800.000	-0.064	0.244
-474.274	259.043	-0.056	0.096
-473.259	18.018	-0.055	-0.044
-472.245	-18.368	-0.056	-0.035
-471.230	-59.970	0.242	-0.103
-470.216	800.000	0.081	0.261
-469.201	-61.720	-0.217	-0.091
-468.186	454.300	-0.124	-0.274
-467.172	-34.983	-0.070	-0.038
-466.157	714.784	-0.075	0.198
-465.143	66.262	0.236	0.240
-464.128	-104.748	0.182	-0.042
-463.113	-200.000	-0.009	-0.088
-462.099	133.900	0.120	0.156
-461.084	115.634	-0.097	0.119
-460.070	153.682	-0.114	0.156
-459.055	264.381	-0.149	0.259
-458.040	230.649	-0.052	0.084
-457.026	-168.372	0.196	-0.008
-456.011	186.386	-0.227	0.337
-454.997	23.459	-0.262	-0.215
-453.982	296.642	0.135	-0.247
-452.968	-47.972	-0.299	0.144
-451.953	568.356	-0.146	-0.354
-450.938	-200.000	0.047	0.215
-449.924	134.458	-0.305	0.395
-448.909	-0.125	0.283	-0.201
-447.895	234.485	-0.058	-0.096
-446.880	800.000	-0.067	0.185
-445.865	259.049	-0.261	-0.449
-444.851	209.683	-0.045	0.070
-443.836	-62.929	-0.168	-0.069
-442.822	800.000	-0.064	-0.177
-441.807	52.886	0.106	-0.101
-440.792	20.620	0.310	0.251
-439.778	195.561	0.077	0.117
-438.763	448.266	-0.078	-0.171
-437.749	93.810	-0.104	0.118
-436.734	120.485	0.210	-0.261
-435.719	-200.000	0.014	-0.172
-434.705	35.452	0.153	0.134
-433.690	42.205	0.444	-0.403
-432.676	800.000	-0.045	0.142
-431.661	563.381	-0.120	-0.290
-430.646	-93.347	0.166	0.046
-429.632	169.436	0.095	0.135
-428.617	-136.061	0.178	-0.021
-427.603	-46.933	-0.250	-0.122
-426.588	331.251	-0.069	-0.132
-425.573	71.100	0.251	-0.260
-424.559	-200.000	0.018	0.247
-423.544	-26.744	0.210	-0.123
-422.530	800.000	0.033	-0.123
-421.515	-57.295	0.199	-0.087
-420.500	-200.000	0.077	-0.414
-419.486	-105.706	0.087	-0.020
-418.471	-200.000	0.005	-0.098
-417.457	91.964	-0.020	-0.022
-416.442	-174.962	-0.137	-0.004
-415.428	546.215	-0.043	0.102
-414.413	-146.455	0.270	-0.024
-413.398	800.000	-0.070	0.216
-412.384	-93.861	0.156	0.043
-411.369	800.000	-0.060	-0.183
-410.355	-4.430	-0.168	-0.116
-409.340	17.351	0.309	-0.245
-408.325	-137.568	0.062	0.007
-407.311	-64.279	-0.155	0.063
-406.296	-42.890	-0.128	0.065
-405.282	383.229	-0.082	0.168
-404.267	-107.945	0.267	-0.058
-403.252	233.312	-0.121	0.199
-402.238	150.819	-0.088	-0.119
-401.223	-40.856	-0.313	0.162
-400.209	655.810	-0.060	-0.153
-399.194	112.835	0.260	0.314
-398.179	-200.000	-0.019	-0.270
-397.165	5.946	-0.073	-0.054
-396.150	49.169	0.163	0.153
-395.136	583.398	-0.091	0.222
-394.121	800.000	0.076	0.300
-393.106	-67.674	0.128	0.050
-392.092	-30.512	-0.181	0.102
-391.077	-200.000	0.011	0.171
-390.063	64.295	0.094	-0.094
-389.048	800.000	-0.082	-0.311
-388.033	-200.000	0.008	0.039
-387.019	-57.887	0.461	0.201
-386.004	57.975	-0.301	0.294
-384.990	800.000	0.107	0.308
-383.975	-84.419	0.422	0.133
-382.960	461.667	-0.026	0.058
-381.946	7.799	0.278	0.207
-380.931	800.000	0.105	0.344
-379.917	50.295	-0.315	-0.297
-378.902	-66.326	0.176	0.070
-377.888	800.000	-0.017	0.064
-376.873	-49.250	0.286	0.136
-375.858	-109.371	-0.327	-0.069
-374.844	-94.537	0.221	0.060
-373.829	-45.932	-0.359	0.177
-372.815	395.817	0.085	-0.178
-371.800	100.076	-0.087	-0.100
-370.785	800.000	-0.125	0.480
-369.771	-200.000	0.009	0.313
-368.756	236.099	-0.156	-0.258
-367.742	-20.722	0.081	0.050
-366.727	402.430	-0.088	-0.185
-365.712	-200.000	0.020	0.169
-364.698	-64.360	0.385	0.156
-363.683	117.769	0.060	-0.073
-362.669	-73.009	0.260	0.095
-361.654	26.805	-0.027	0.023
-360.639	573.314	-0.071	-0.171
-359.625	-143.491	0.245	0.023
-358.610	-95.159	0.414	0.111
-357.596	-11.673	-0.205	-0.134
-356.581	319.313	-0.214	-0.403
-355.566	-200.000	0.000	-0.010
-354.552	-132.648	-0.225	0.029
-353.537	331.228	-0.038	-0.073
-352.523	42.803	-0.105	-0.095
-351.508	181.807	-0.049	0.073
-350.493	-200.000	0.016	0.169
-349.479	121.456	-0.304	-0.377
-348.464	8.589	0.069	-0.052
-347.450	180.778	0.044	0.064
-346.435	36.312	0.202	-0.177
-345.420	159.139	0.173	0.240
-344.406	-200.000	-0.014	0.255
-343.391	200.451	0.132	0.202
-342.377	-13.636	-0.319	0.206
-341.362	102.308	0.053	0.061
-340.348	-174.487	-0.130	0.004
-339.333	114.665	-0.237	-0.288
-338.318	278.096	0.193	-0.342
-337.304	-52.500	0.114	-0.053
-336.289	-50.265	-0.245	0.115
-335.275	800.000	-0.044	-0.160
-334.260	467.583	-0.014	-0.032
-333.245	172.997	-0.081	0.116
-332.231	-144.794	0.249	0.023
-331.216	-8.319	0.313	-0.210
-330.202	55.726	0.283	-0.273
-329.187	-42.886	0.148	-0.075
-328.172	-83.636	-0.085	-0.027
-327.158	-68.586	0.205	0.079
-326.143	-200.000	-0.006	-0.271
-325.129	459.512	-0.087	0.193
-324.114	-111.729	0.305	-0.061
-323.099	-68.988	0.223	0.086
-322.085	-200.000	-0.063	0.380
-321.070	-76.843	-0.271	0.094
-320.056	71.606	0.065	-0.067
-319.041	800.000	0.040	-0.147
-318.026	-111.408	-0.293	-0.059
-317.012	153.920	0.296	0.403
-315.997	-64.314	-0.189	0.077
-314.983	-124.318	0.235	0.036
-313.968	510.969	0.100	-0.231
-312.953	-200.000	0.067	-0.314
-311.939	-200.000	0.023	-0.254
-310.924	-18.522	0.073	0.045
-309.910	225.843	-0.108	0.174
-308.895	800.000	0.054	0.189
-307.880	800.000	-0.060	0.197
-306.866	-23.353	-0.081	-0.048
-305.851	-196.695	0.113	0.001
-304.837	-165.040	0.252	0.011
-303.822	21.771	0.203	0.165
-302.807	641.760	0.156	0.394
-301.793	21.574	0.026	-0.021
-300.778	-200.000	-0.057	-0.513
-299.764	-78.941	-0.054	-0.018
-298.749	-139.493	0.289	0.031
-297.735	257.360	-0.069	0.117
-296.720	307.963	-0.005	-0.009
-295.705	158.033	-0.227	-0.312
-294.691	800.000	-0.014	0.052
-293.676	-200.000	0.045	-0.210
-292.662	-18.090	0.130	-0.081
-291.647	532.784	0.170	-0.399
-290.632	-200.000	-0.002	-0.050
-289.618	-130.086	0.012	0.002
-288.603	-78.450	-0.319	0.109
-287.589	-33.416	0.112	-0.062
-286.574	-146.459	-0.388	-0.034
-285.559	-87.984	-0.574	0.171
-284.545	-200.000	-0.004	-0.170
-283.530	133.902	-0.343	0.441
-282.516	86.008	-0.316	-0.346
-281.501	124.668	-0.075	-0.094
-280.486	-121.613	-0.033	-0.005
-279.472	-94.646	-0.235	-0.063
-278.457	-200.000	0.002	-0.077
-277.443	-173.637	-0.154	-0.005
-276.428	1.872	-0.182	-0.130
-275.413	-30.994	-0.137	-0.077
-274.399	51.632	-0.169	-0.159
-273.384	-200.000	0.058	-0.305
-272.370	86.645	-0.024	-0.026
-271.355	-42.983	-0.179	0.090
-270.340	146.542	0.143	-0.191
-269.326	800.000	0.016	0.050
-268.311	-200.000	0.031	-0.144
-267.297	123.851	0.140	0.174
-266.282	-56.753	-0.325	0.142
-265.267	-73.376	0.220	0.080
-264.253	-135.612	-0.141	0.017
-263.238	7.996	-0.149	0.111
-262.224	170.808	0.156	-0.222
-261.209	-78.572	0.158	-0.054
-260.195	114.937	-0.053	0.064
-259.180	187.219	-0.251	0.372
-258.165	-50.613	0.196	0.091
-257.151	-105.911	-0.137	0.031
-256.136	-155.233	-0.225	0.015
-255.122	32.830	-0.057	-0.049
-254.107	-200.000	0.016	-0.199
-253.092	95.836	-0.106	-0.120
-252.078	-18.435	0.075	-0.047
-251.063	-72.804	0.118	0.043
-250.049	-21.573	0.187	-0.113
-249.034	800.000	0.035	-0.109
-248.019	725.942	0.049	0.131
-247.005	-69.363	-0.232	-0.088
-245.990	-37.171	0.287	-0.153
-244.976	300.546	-0.034	0.062
-243.961	54.016	-0.290	0.277
-242.946	-57.011	-0.188	0.082
-241.932	31.607	0.361	-0.308
-240.917	-200.000	0.012	0.266
-239.903	-5.100	-0.195	-0.133
-238.888	-200.000	-0.029	0.320
-237.873	62.560	-0.087	0.086
-236.859	501.930	0.015	-0.034
-235.844	81.523	-0.099	-0.106
-234.830	29.805	-0.218	-0.184
-233.815	-200.000	-0.006	0.030
-232.800	-132.786	0.186	-0.024
-231.786	-75.446	-0.126	0.044
-230.771	12.501	-0.218	0.166
-229.757	-123.194	-0.191	-0.030
-228.742	-200.000	0.084	0.381
-227.727	-200.000	-0.062	-0.271
-226.713	-47.412	-0.277	-0.133
-225.698	61.316	0.097	0.096
-224.684	142.042	0.228	0.299
-223.669	-200.000	0.035	-0.202
-222.655	-200.000	-0.008	-0.107
-221.640	49.312	0.282	0.263
-220.625	-119.488	-0.169	-0.029
-219.611	-44.984	-0.578	0.285
-218.596	-1.757	0.117	-0.082
-217.582	-66.446	0.146	-0.058
-216.567	61.350	-0.042	0.041
-215.552	23.356	0.229	0.186
-214.538	-200.000	0.021	0.223
-213.523	800.000	0.031	0.101
-212.509	-74.122	0.224	-0.080
-211.494	-166.916	-0.406	0.016
-210.479	-38.337	0.083	-0.044
-209.465	-200.000	-0.018	0.245
-208.450	-200.000	0.017	0.092
-207.436	257.416	-0.073	-0.124
-206.421	280.200	-0.052	0.092
-205.406	-143.031	-0.199	-0.019
-204.392	-128.346	-0.372	0.052
-203.377	424.394	0.059	-0.125
-202.363	159.002	-0.149	0.204
-201.348	-200.000	0.020	-0.348
-200.333	441.270	0.065	-0.141
-199.319	-117.771	0.184	-0.033
-198.304	127.701	-0.072	-0.090
-197.290	-145.423	0.122	0.011
-196.275	-119.759	0.371	-0.063
-195.260	4.785	-0.228	-0.166
-194.246	151.317	0.133	-0.179
-193.231	-200.000	-0.009	0.115
-192.217	667.521	-0.039	-0.100
-191.202	23.782	-0.096	-0.078
-190.187	-81.525	0.234	-0.076
-189.173	-200.000	0.036	0.204
-188.158	-200.000	0.003	-0.035
-187.144	-107.111	0.092	0.020
-186.129	-8.486	-0.148	0.099
-185.114	-64.870	-0.079	0.032
-184.100	-200.000	-0.089	-0.390
-183.085	294.114	-0.102	0.184
-182.071	-200.000	-0.027	-0.285
-181.056	773.477	0.144	-0.388
-180.042	-200.000	-0.005	-0.119
-179.027	5.528	-0.162	-0.118
-178.012	69.080	-0.069	0.070
-176.998	800.000	0.073	0.306
-175.983	110.696	0.245	-0.291
-174.969	514.598	-0.088	-0.203
-173.954	-200.000	0.045	0.210
-172.939	-200.000	0.019	0.090
-171.925	-109.951	-0.154	0.032
-170.910	551.093	0.064	0.152
-169.896	414.650	0.155	0.326
-168.881	64.758	0.462	0.461
-167.866	-200.000	0.024	0.336
-166.852	-200.000	-0.019	-0.254
-165.837	219.776	0.097	-0.154
-164.823	-200.000	-0.045	-0.200
-163.808	52.914	0.143	0.135
-162.793	-175.618	0.143	-0.004
-161.779	33.547	-0.215	-0.184
-160.764	172.210	-0.185	-0.262
-159.750	-95.889	-0.049	0.013
-158.735	614.690	-0.186	0.459
-157.720	-43.452	0.147	-0.073
-156.706	3.075	-0.165	0.118
-155.691	-200.000	0.021	-0.145
-154.677	-200.000	-0.027	-0.294
-153.662	-200.000	-0.027	-0.326
-152.647	-200.000	-0.077	0.373
-151.633	-98.097	0.351	-0.089
-150.618	630.274	-0.110	0.274
-149.604	72.227	-0.163	0.167
-148.589	-50.685	-0.153	-0.071
-147.574	-32.693	0.144	0.079
-146.560	305.605	-0.151	0.278
-145.545	-200.000	-0.071	-0.444
-144.531	-86.041	-0.312	0.095
-143.516	-165.150	0.200	0.009
-142.502	-24.266	-0.280	0.165
-141.487	-200.000	0.035	0.163
-140.472	-91.937	0.470	0.132
-139.458	741.482	-0.122	-0.323
-138.443	-200.000	-0.004	0.087
-137.429	-97.654	-0.164	-0.042
-136.414	-200.000	-0.006	0.117
-135.399	-163.124	-0.290	-0.014
-134.385	-200.000	0.091	-0.416
-133.370	-59.698	-0.345	-0.146
-132.356	5.222	0.097	0.071
-131.341	800.000	-0.068	-0.267
-130.326	-12.898	0.101	-0.065
-129.312	800.000	0.049	-0.146
-128.297	24.196	0.264	0.215
-127.283	-168.083	-0.259	0.010
-126.268	76.556	-0.157	-0.164
-125.253	-117.875	-0.237	-0.042
-124.239	800.000	-0.031	-0.109
-123.224	-200.000	0.050	0.232
-122.210	21.820	-0.046	-0.037
