DTS Sentinel unit serial number:	SN413079Multiplexer serial number:	ORYXHardware model number:	OX4-SRSoftware version number:	ORYX F/W v4.00 Oryx Data Collector v3.7.2.0data status	okinstallation	princeton_trtdifferential loss correction	single-endedforward channel	channel 4reverse channel	N/Adate	2019/09/13time	09:41:35forward acquisition time	60.00reverse acquisition time	0.00gamma	496.2192k internal	0.2311k external	0.2311temperature offset calibration	1.0189default loss term (dB/km)	0.3790temperature slope calibration	1.0000multiplexer offset coefficient	1.0000multiplexer slope coefficient	1.0000fibre end	0.00T internal ref (°C)	29.70T ext. ref 1 (°C)	4.43T ext. ref 2 (°C)	26.18length (m)	temperature (°C)	Stokes	anti-Stokes-747.200	800.000	0.067	0.214
-746.185	22.050	0.062	0.051
-745.171	-137.704	0.341	-0.039
-744.156	-34.745	0.220	0.122
-743.142	-112.236	0.345	0.070
-742.127	800.000	-0.113	0.340
-741.112	-200.000	-0.022	-0.227
-740.098	-200.000	0.008	0.073
-739.083	-48.592	-0.226	-0.110
-738.069	-46.929	-0.159	-0.079
-737.054	200.839	0.107	-0.167
-736.039	226.425	-0.178	0.293
-735.025	-65.846	0.334	0.136
-734.010	-133.055	-0.250	0.032
-732.996	-200.000	-0.012	-0.251
-731.981	-130.855	-0.299	-0.041
-730.966	-178.766	-0.311	0.007
-729.952	210.850	-0.212	-0.337
-728.937	76.134	-0.197	-0.211
-727.923	38.471	0.200	-0.181
-726.908	91.744	0.193	-0.220
-725.894	407.129	-0.158	-0.338
-724.879	-67.897	-0.255	-0.101
-723.864	98.559	-0.028	0.033
-722.850	-127.914	-0.234	-0.034
-721.835	-53.255	0.339	-0.158
-720.821	800.000	-0.032	-0.117
-719.806	686.334	0.030	0.079
-718.791	800.000	0.047	-0.150
-717.777	61.248	-0.162	0.164
-716.762	800.000	0.073	-0.228
-715.748	-74.963	0.226	-0.082
-714.733	-84.871	-0.261	0.083
-713.718	-200.000	-0.007	-0.165
-712.704	-31.016	0.255	-0.146
-711.689	-140.162	0.271	-0.029
-710.675	-80.068	0.227	-0.077
-709.660	556.493	-0.096	0.235
-708.645	419.496	0.166	-0.360
-707.631	800.000	0.029	0.107
-706.616	384.691	0.024	0.050
-705.602	237.875	0.079	-0.133
-704.587	63.469	0.270	-0.274
-703.572	23.899	0.137	-0.115
-702.558	53.675	-0.388	-0.378
-701.543	376.541	0.101	-0.209
-700.529	-154.480	0.132	0.009
-699.514	489.211	-0.089	-0.207
-698.499	90.018	0.084	0.095
-697.485	-30.790	-0.131	0.075
-696.470	83.163	-0.169	0.186
-695.456	-39.309	-0.076	0.040
-694.441	-200.000	-0.007	-0.394
-693.426	-62.985	-0.243	-0.102
-692.412	21.091	0.138	0.114
-691.397	54.253	0.218	0.212
-690.383	467.934	-0.022	0.049
-689.368	44.005	-0.160	-0.149
-688.354	-146.534	0.172	-0.015
-687.339	496.613	-0.130	-0.304
-686.324	800.000	0.083	-0.292
-685.310	-200.000	0.076	-0.379
-684.295	800.000	0.053	-0.178
-683.281	-200.000	0.037	-0.266
-682.266	150.426	0.198	0.272
-681.251	88.864	-0.097	-0.109
-680.237	-135.603	-0.392	-0.047
-679.222	-200.000	-0.028	0.299
-678.208	92.183	-0.229	0.261
-677.193	123.789	0.128	-0.163
-676.178	-26.953	-0.247	0.146
-675.164	-200.000	0.005	-0.070
-674.149	-174.536	-0.360	-0.010
-673.135	184.005	0.164	0.246
-672.120	202.470	-0.045	0.071
-671.105	-59.184	-0.167	-0.073
-670.091	88.652	0.168	-0.189
-669.076	-12.076	-0.250	0.166
-668.062	-200.000	0.007	-0.074
-667.047	-164.200	0.125	0.006
-666.032	-14.397	0.423	-0.276
-665.018	-84.303	-0.134	-0.043
-664.003	195.562	0.113	0.174
-662.989	-154.518	0.314	0.021
-661.974	-111.126	-0.160	-0.033
-660.959	800.000	-0.024	0.070
-659.945	102.847	-0.180	-0.213
-658.930	199.327	0.218	0.338
-657.916	-87.483	0.163	-0.050
-656.901	-200.000	0.028	0.167
-655.886	222.022	-0.033	0.053
-654.872	701.695	0.028	-0.074
-653.857	-42.873	-0.171	0.088
-652.843	413.585	-0.083	0.179
-651.828	327.037	0.050	-0.098
-650.814	-14.271	-0.080	-0.052
-649.799	-0.634	-0.060	-0.043
-648.784	-105.332	0.097	0.022
-647.770	77.990	-0.283	-0.306
-646.755	-75.171	-0.282	-0.102
-645.741	-17.478	-0.118	-0.075
-644.726	73.388	0.048	-0.050
-643.711	-190.539	-0.209	-0.002
-642.697	-98.439	-0.347	0.090
-641.682	-173.605	0.242	-0.007
-640.668	800.000	0.056	-0.169
-639.653	-200.000	-0.066	0.344
-638.638	800.000	-0.024	0.071
-637.624	62.143	0.230	0.232
-636.609	-94.559	0.348	-0.096
-635.595	-145.246	-0.111	-0.010
-634.580	800.000	0.109	-0.400
-633.565	-139.136	-0.180	-0.020
-632.551	-85.266	-0.322	0.102
-631.536	-104.035	-0.247	-0.058
-630.522	-84.954	0.252	0.080
-629.507	641.464	0.031	-0.079
-628.492	-122.352	0.379	-0.063
-627.478	517.357	-0.101	-0.238
-626.463	107.432	0.148	0.178
-625.449	506.112	0.111	0.259
-624.434	119.128	-0.143	-0.179
-623.419	-200.000	0.014	-0.123
-622.405	-100.674	0.225	0.056
-621.390	-22.794	-0.364	0.222
-620.376	-8.496	-0.227	0.154
-619.361	-126.972	-0.239	0.036
-618.346	-119.224	0.223	0.039
-617.332	96.484	0.091	-0.105
-616.317	800.000	0.083	-0.360
-615.303	-200.000	0.021	0.198
-614.288	-89.201	-0.135	0.040
-613.273	-36.294	0.372	-0.203
-612.259	-200.000	0.044	-0.428
-611.244	381.952	0.068	-0.141
-610.230	-200.000	0.049	-0.220
-609.215	-142.171	0.153	-0.015
-608.201	-200.000	0.010	-0.077
-607.186	552.474	-0.126	-0.305
-606.171	259.769	-0.053	0.093
-605.157	-200.000	0.017	0.184
-604.142	537.329	-0.091	-0.218
-603.128	-45.352	-0.287	-0.144
-602.113	-71.468	-0.116	-0.044
-601.098	-80.714	-0.232	-0.078
-600.084	289.231	0.097	-0.178
-599.069	0.656	-0.107	-0.077
-598.055	163.573	-0.222	-0.315
-597.040	-156.296	0.336	0.021
-596.025	-110.269	-0.333	-0.070
-595.011	-108.091	-0.168	0.037
-593.996	-109.495	0.012	-0.003
-592.982	-66.621	-0.140	0.056
-591.967	-200.000	-0.023	0.341
-590.952	-150.457	0.198	-0.015
-589.938	5.917	0.258	-0.193
-588.923	537.819	0.080	0.192
-587.909	340.190	0.119	-0.233
-586.894	-119.810	0.087	0.015
-585.879	174.858	0.105	0.153
-584.865	151.217	-0.124	0.170
-583.850	300.980	0.055	-0.103
-582.836	-200.000	0.001	-0.133
-581.821	-17.448	0.066	0.042
-580.806	-2.666	0.182	-0.128
-579.792	-29.292	0.153	0.088
-578.777	195.285	0.174	0.266
-577.763	394.069	-0.112	0.236
-576.748	236.874	-0.142	-0.237
-575.733	-138.929	0.247	0.027
-574.719	-118.093	-0.081	-0.015
-573.704	-200.000	-0.033	-0.299
-572.690	-200.000	-0.075	-0.000
-571.675	-70.027	0.150	-0.058
-570.661	-64.573	-0.084	0.034
-569.646	-200.000	0.007	-0.088
-568.631	305.480	-0.174	-0.327
-567.617	-33.864	-0.229	-0.127
-566.602	-89.227	-0.403	0.120
-565.588	-200.000	-0.004	-0.167
-564.573	43.109	0.168	0.155
-563.558	14.102	-0.122	0.096
-562.544	4.501	-0.216	-0.160
-561.529	156.565	-0.061	0.084
-560.515	217.870	-0.055	-0.088
-559.500	-145.930	-0.350	-0.031
-558.485	-200.000	-0.038	0.440
-557.471	-48.686	0.105	-0.051
-556.456	-108.309	-0.100	-0.022
-555.442	15.373	-0.160	-0.126
-554.427	511.251	-0.056	-0.131
-553.412	12.773	-0.306	-0.238
-552.398	146.596	-0.214	-0.289
-551.383	-68.430	-0.444	0.174
-550.369	162.262	0.194	-0.275
-549.354	800.000	-0.068	0.252
-548.339	-57.764	0.109	0.048
-547.325	516.880	-0.028	-0.066
-546.310	765.319	0.052	-0.143
-545.296	-0.202	0.275	-0.197
-544.281	-19.266	0.463	0.289
-543.266	57.145	-0.082	0.081
-542.252	-200.000	-0.063	0.363
-541.237	81.377	-0.168	0.183
-540.223	21.682	0.132	-0.108
-539.208	-200.000	-0.003	-0.333
-538.193	-159.034	-0.175	-0.010
-537.179	343.023	0.017	-0.033
-536.164	38.763	-0.126	0.113
-535.150	-167.176	0.384	-0.016
-534.135	800.000	0.025	-0.093
-533.121	-138.392	-0.202	0.022
-532.106	-87.758	-0.229	-0.069
-531.091	-200.000	-0.035	-0.320
-530.077	-95.848	-0.118	0.032
-529.062	241.045	-0.103	0.174
-528.048	-200.000	-0.059	0.331
-527.033	256.757	0.063	-0.109
-526.018	41.583	0.169	0.154
-525.004	800.000	-0.114	0.321
-523.989	159.149	-0.117	-0.163
-522.975	800.000	0.033	0.140
-521.960	-200.000	-0.009	-0.229
-520.945	87.273	-0.190	-0.211
-519.931	-101.136	0.405	-0.100
-518.916	532.211	-0.184	-0.439
-517.902	391.413	-0.071	-0.148
-516.887	170.647	-0.100	0.144
-515.872	-178.676	0.312	0.007
-514.858	356.689	-0.046	-0.091
-513.843	-200.000	0.054	0.251
-512.829	800.000	-0.055	0.227
-511.814	-67.007	0.191	-0.076
-510.799	-127.869	0.225	-0.033
-509.785	-17.897	-0.307	-0.193
-508.770	-38.021	0.449	-0.240
-507.756	-94.848	0.235	-0.064
-506.741	-134.692	0.439	0.054
-505.726	94.851	0.265	-0.303
-504.712	-23.111	0.377	-0.228
-503.697	-172.570	-0.148	0.005
-502.683	800.000	-0.045	-0.152
-501.668	-52.310	-0.085	0.040
-500.653	-2.870	-0.193	-0.135
-499.639	800.000	0.070	-0.218
-498.624	211.190	-0.158	0.250
-497.610	-127.677	0.226	-0.033
-496.595	553.127	-0.032	-0.077
-495.581	-36.418	0.089	0.048
-494.566	800.000	0.054	0.203
-493.551	-90.848	-0.189	0.055
-492.537	-137.466	-0.115	0.013
-491.522	-200.000	0.060	-0.365
-490.508	52.525	0.293	0.281
-489.493	315.826	-0.133	0.253
-488.478	-96.322	-0.130	-0.035
-487.464	244.214	0.028	0.047
-486.449	56.038	-0.056	-0.055
-485.435	800.000	0.046	-0.150
-484.420	-200.000	0.043	0.197
-483.405	-200.000	0.024	0.205
-482.391	-200.000	0.009	0.631
-481.376	-89.557	-0.177	-0.052
-480.362	272.507	0.056	0.099
-479.347	404.955	0.097	0.206
-478.332	239.539	-0.112	-0.187
-477.318	-18.688	0.074	0.046
-476.303	-132.677	0.245	-0.032
-475.289	-141.769	-0.366	0.037
-474.274	-72.155	0.099	0.037
-473.259	-200.000	-0.012	0.095
-472.245	47.519	0.099	-0.092
-471.230	800.000	0.042	-0.123
-470.216	-135.091	0.097	0.012
-469.201	-109.386	0.095	0.020
-468.186	3.276	-0.267	-0.195
-467.172	800.000	-0.064	0.278
-466.157	-84.495	-0.191	0.061
-465.143	-85.381	-0.270	0.085
-464.128	360.550	0.076	0.154
-463.113	-200.000	0.028	0.158
-462.099	-200.000	-0.031	-0.265
-461.084	208.744	-0.115	0.181
-460.070	354.416	0.133	0.266
-459.055	-6.953	0.177	0.120
-458.040	-76.656	0.289	-0.102
-457.026	-200.000	-0.010	-0.064
-456.011	101.733	0.167	-0.196
-454.997	800.000	0.058	-0.165
-453.982	-200.000	0.025	-0.357
-452.968	515.013	0.074	0.172
-451.953	-200.000	-0.024	0.116
-450.938	140.389	0.032	0.042
-449.924	19.983	0.275	0.222
-448.909	-58.127	-0.101	0.044
-447.895	-39.414	-0.191	0.101
-446.880	-200.000	-0.024	0.182
-445.865	-193.017	-0.390	-0.004
-444.851	-200.000	0.019	-0.187
-443.836	800.000	-0.038	-0.134
-442.822	500.186	0.062	-0.143
-441.807	166.056	0.035	0.050
-440.792	478.340	-0.114	0.259
-439.778	198.284	-0.055	-0.084
-438.763	-64.159	-0.396	-0.162
-437.749	800.000	0.051	0.159
-436.734	-200.000	-0.031	0.139
-435.719	800.000	-0.055	0.233
-434.705	-200.000	-0.005	-0.081
-433.690	379.483	-0.104	0.214
-432.676	-200.000	0.022	-0.191
-431.661	-200.000	-0.004	-0.112
-430.646	-200.000	-0.027	0.235
-429.632	16.416	-0.107	0.084
-428.617	477.660	-0.036	0.081
-427.603	800.000	-0.066	-0.201
-426.588	800.000	0.104	-0.348
-425.573	323.699	0.188	0.360
-424.559	-200.000	0.014	-0.443
-423.544	-62.355	0.094	0.039
-422.530	42.367	0.202	0.184
-421.515	-32.455	0.134	0.075
-420.500	-54.768	-0.253	0.114
-419.486	800.000	-0.087	-0.331
-418.471	-32.594	0.230	-0.128
-417.457	-19.578	-0.077	0.048
-416.442	-200.000	0.001	0.133
-415.428	-200.000	-0.104	0.698
-414.413	800.000	0.097	-0.392
-413.398	426.244	-0.140	-0.302
-412.384	107.621	0.302	-0.360
-411.369	-66.422	-0.217	0.086
-410.355	-33.450	-0.282	0.156
-409.340	345.117	-0.031	0.061
-408.325	42.179	-0.153	0.139
-407.311	-19.734	0.226	-0.140
-406.296	68.993	-0.207	-0.213
-405.282	800.000	0.076	-0.229
-404.267	77.869	0.129	0.138
-403.252	-103.968	0.176	0.041
-402.238	-112.153	0.174	0.035
-401.223	-118.130	0.015	-0.003
-400.209	-114.146	-0.164	0.032
-399.194	38.915	0.200	0.179
-398.179	549.826	-0.140	0.336
-397.165	156.558	-0.152	-0.210
-396.150	-87.930	0.133	-0.040
-395.136	402.190	-0.055	-0.115
-394.121	-200.000	-0.010	-0.249
-393.106	-200.000	-0.027	0.363
-392.092	5.926	-0.337	-0.250
-391.077	-200.000	-0.011	0.138
-390.063	-38.803	0.087	0.046
-389.048	-89.278	0.335	-0.099
-388.033	800.000	-0.052	0.173
-387.019	-200.000	0.044	-0.433
-386.004	353.481	0.021	-0.041
-384.990	263.194	-0.092	-0.160
-383.975	127.019	-0.195	-0.247
-382.960	112.277	0.268	0.325
-381.946	-142.017	0.068	0.007
-380.931	70.843	0.076	-0.079
-379.917	26.203	-0.241	-0.201
-378.902	-18.832	-0.126	0.079
-377.888	-100.642	-0.257	-0.064
-376.873	800.000	-0.104	0.342
-375.858	-101.001	-0.097	-0.024
-374.844	-140.636	-0.429	-0.044
-373.829	154.338	-0.075	-0.103
-372.815	152.276	0.186	-0.255
-371.800	800.000	0.035	-0.107
-370.785	-138.318	0.172	0.019
-369.771	147.945	-0.276	-0.372
-368.756	365.973	-0.091	0.184
-367.742	-200.000	-0.010	0.068
-366.727	178.962	-0.195	0.285
-365.712	1.772	0.146	0.105
-364.698	-42.571	-0.122	0.062
-363.683	-200.000	0.024	0.198
-362.669	712.728	-0.080	-0.212
-361.654	-159.985	0.207	-0.011
-360.639	-2.662	-0.067	0.047
-359.625	-152.852	-0.225	0.016
-358.610	-89.679	-0.237	-0.069
-357.596	-78.923	0.066	-0.023
-356.581	-108.009	-0.199	0.043
-355.566	800.000	-0.027	-0.116
-354.552	27.656	-0.130	0.109
-353.537	-200.000	0.003	0.242
-352.523	-200.000	-0.009	-0.274
-351.508	652.485	0.126	0.322
-350.493	167.060	-0.073	0.103
-349.479	-91.513	0.292	-0.083
-348.464	69.013	-0.072	0.074
-347.450	264.739	-0.094	-0.164
-346.435	533.099	0.133	-0.316
-345.420	800.000	-0.025	0.072
-344.406	-153.810	0.185	0.013
-343.391	17.168	-0.074	-0.059
-342.377	-43.293	0.170	0.086
-341.362	571.905	-0.025	-0.060
-340.348	-61.187	0.114	-0.048
-339.333	-200.000	0.018	-0.193
-338.318	-46.496	-0.232	0.114
-337.304	-23.550	-0.224	-0.135
-336.289	-161.658	0.066	-0.003
-335.275	-1.684	-0.184	-0.129
-334.260	2.903	-0.042	0.030
-333.245	-168.179	0.496	0.019
-332.231	-200.000	0.012	0.156
-331.216	95.096	0.254	-0.289
-330.202	-85.494	-0.086	0.027
-329.187	-96.666	0.389	0.102
-328.172	14.670	-0.053	-0.041
-327.158	-10.783	0.299	-0.198
-326.143	-83.779	-0.449	-0.143
-325.129	-112.933	-0.234	0.046
-324.114	-200.000	0.005	-0.123
-323.099	-5.830	-0.032	0.022
-322.085	-136.001	-0.235	0.028
-321.070	627.105	-0.050	0.127
-320.056	-66.390	-0.271	0.108
-319.041	355.584	0.109	0.216
-318.026	800.000	-0.044	-0.144
-317.012	216.630	0.160	-0.255
-315.997	-200.000	-0.037	-0.183
-314.983	-133.954	0.221	-0.027
-313.968	-200.000	-0.018	0.149
-312.953	105.796	-0.159	0.187
-311.939	376.503	-0.143	0.291
-310.924	-200.000	0.006	0.188
-309.910	-92.558	0.046	-0.013
-308.895	-63.283	-0.223	0.092
-307.880	-153.404	-0.028	0.002
-306.866	114.394	0.137	-0.166
-305.851	1.265	0.307	-0.220
-304.837	-101.252	-0.149	0.036
-303.822	-200.000	-0.005	-0.114
-302.807	351.678	0.110	-0.217
-301.793	800.000	0.043	0.171
-300.778	-101.352	0.168	0.041
-299.764	-79.729	-0.215	0.072
-298.749	-200.000	-0.065	0.468
-297.735	640.984	0.082	0.207
-296.720	260.333	0.064	-0.111
-295.705	-77.074	0.092	0.032
-294.691	800.000	0.079	0.249
-293.676	-200.000	-0.048	0.466
-292.662	800.000	-0.127	0.360
-291.647	439.113	-0.154	-0.336
-290.632	-34.155	0.235	-0.129
-289.618	85.309	-0.098	-0.107
-288.603	229.673	0.016	-0.025
-287.589	81.821	0.183	0.198
-286.574	800.000	0.075	0.283
-285.559	-130.973	-0.194	-0.026
-284.545	-44.383	-0.115	0.057
-283.530	93.696	-0.111	-0.125
-282.516	-200.000	-0.048	0.231
-281.501	-200.000	-0.028	-0.399
-280.486	-200.000	-0.019	0.098
-279.472	144.065	0.103	0.137
-278.457	138.304	0.084	0.110
-277.443	8.601	-0.152	0.114
-276.428	708.878	-0.067	0.177
-275.413	15.629	0.108	0.085
-274.399	4.158	0.100	0.073
-273.384	800.000	-0.061	0.226
-272.370	550.714	0.148	0.354
-271.355	-165.017	-0.131	0.006
-270.340	269.461	-0.212	-0.371
-269.326	-98.037	0.436	-0.112
-268.311	72.778	0.089	0.092
-267.297	-83.994	-0.060	0.019
-266.282	229.973	-0.047	-0.077
-265.267	-97.227	0.108	0.028
-264.253	96.569	-0.219	0.249
-263.238	112.497	0.226	0.272
-262.224	307.246	0.145	-0.270
-261.209	-5.581	0.135	0.092
-260.195	17.290	0.121	-0.096
-259.180	-21.532	0.232	-0.141
-258.165	-125.913	-0.162	0.024
-257.151	585.149	0.139	0.341
-256.136	-157.199	-0.261	-0.016
-255.122	-133.682	0.267	0.033
-254.107	800.000	0.031	-0.120
-253.092	-18.368	0.204	0.127
-252.078	-57.378	0.139	-0.061
-251.063	-20.370	0.102	0.063
-250.049	-200.000	0.023	-0.182
-249.034	-38.993	0.232	-0.122
-248.019	-200.000	0.024	-0.153
-247.005	-109.549	-0.230	0.048
-245.990	-200.000	0.012	0.255
-244.976	172.783	-0.249	0.357
-243.961	-82.151	0.184	-0.060
-242.946	-53.449	-0.155	-0.071
-241.932	-121.778	-0.139	0.023
-240.917	-85.617	-0.210	-0.065
-239.903	-199.823	-0.284	0.001
-238.888	-36.211	0.273	0.147
-237.873	185.003	-0.119	0.175
-236.859	177.233	-0.158	0.228
-235.844	800.000	-0.040	-0.145
-234.830	-174.493	0.054	0.002
-233.815	-106.202	-0.464	-0.104
-232.800	265.755	0.143	-0.249
-231.786	800.000	0.077	0.305
-230.771	52.021	-0.118	0.112
-229.757	76.013	-0.068	-0.071
-228.742	800.000	0.082	0.338
-227.727	162.899	0.155	0.217
-226.713	-200.000	0.007	-0.128
-225.698	-192.025	-0.395	0.004
-224.684	1.556	-0.218	-0.156
-223.669	800.000	-0.107	0.437
-222.655	-20.499	0.192	0.117
-221.640	-127.943	0.172	0.025
-220.625	-134.786	-0.266	0.032
-219.611	-76.539	-0.104	0.036
-218.596	-200.000	-0.013	-0.156
-217.582	-0.773	0.200	-0.141
-216.567	-83.264	-0.152	0.049
-215.552	-200.000	-0.053	0.255
-214.538	-200.000	-0.050	0.253
-213.523	-147.298	-0.164	-0.014
-212.509	800.000	-0.048	0.179
-211.494	-132.809	0.370	0.047
-210.479	800.000	0.089	0.254
-209.465	-12.138	0.152	-0.099
-208.450	49.792	-0.258	0.242
-207.436	138.353	0.138	-0.180
-206.421	62.260	0.104	0.103
-205.406	96.769	0.071	0.080
-204.392	-88.833	0.193	0.057
-203.377	-68.172	-0.120	-0.046
-202.363	628.614	-0.031	-0.079
-201.348	215.547	-0.046	0.073
-200.333	566.681	0.021	-0.051
-199.319	-200.000	-0.068	-0.406
-198.304	36.496	-0.294	-0.258
-197.290	425.451	0.082	-0.175
-196.275	12.551	0.087	-0.067
-195.260	208.526	0.062	-0.096
-194.246	-133.395	0.196	0.025
-193.231	149.766	-0.091	0.122
-192.217	-200.000	-0.032	0.313
-191.202	-45.031	0.190	0.094
-190.187	391.452	-0.093	-0.192
-189.173	-121.122	0.226	-0.038
-188.158	50.215	0.175	-0.165
-187.144	-85.426	0.307	0.095
-186.129	50.989	-0.194	-0.182
-185.114	-27.859	0.340	-0.195
-184.100	26.951	0.205	-0.171
-183.085	800.000	-0.034	0.129
-182.071	3.868	0.249	-0.180
-181.056	-107.079	-0.035	-0.008
-180.042	-200.000	-0.027	0.174
-179.027	800.000	-0.098	0.309
-178.012	-39.913	0.334	-0.173
-176.998	557.068	-0.087	0.208
-175.983	530.318	-0.065	0.153
-174.969	-74.841	-0.127	-0.045
-173.954	10.424	-0.186	0.141
-172.939	193.195	0.167	-0.250
-171.925	141.343	0.130	-0.171
-170.910	6.546	0.286	0.211
-169.896	-110.157	-0.393	-0.081
-168.881	94.787	0.087	-0.098
-167.866	-49.518	0.121	0.057
-166.852	-200.000	-0.004	0.055
-165.837	-54.726	0.485	-0.218
-164.823	-55.036	0.202	-0.090
-163.808	-200.000	0.052	0.286
-162.793	-200.000	0.013	0.089
-161.779	486.459	-0.050	0.113
-160.764	13.104	0.178	-0.137
-159.750	-122.528	-0.291	-0.047
-158.735	-56.667	0.328	0.144
-157.720	0.288	0.159	-0.113
-156.706	266.478	-0.044	-0.076
-155.691	-130.276	0.197	0.027
-154.677	-74.119	0.109	0.039
-153.662	-200.000	0.000	-0.197
-152.647	587.297	0.073	-0.177
-151.633	-23.496	0.259	-0.154
-150.618	-200.000	-0.020	-0.094
-149.604	23.422	-0.184	-0.150
-148.589	800.000	-0.076	-0.295
-147.574	-200.000	0.063	-0.525
-146.560	-86.505	-0.302	-0.092
-145.545	-200.000	-0.025	0.338
-144.531	51.810	0.263	-0.249
-143.516	-86.242	-0.145	-0.044
-142.502	-6.451	0.187	-0.126
-141.487	-109.327	-0.139	-0.029
-140.472	-103.995	-0.175	0.040
-139.458	-86.631	0.516	0.157
-138.443	-156.201	0.212	-0.013
-137.429	800.000	-0.079	-0.249
-136.414	39.041	-0.206	0.182
-135.399	26.231	-0.120	0.100
-134.385	-148.126	0.299	-0.025
-133.370	800.000	-0.140	-0.395
-132.356	-1.308	-0.176	-0.123
-131.341	-5.083	-0.272	-0.186
-130.326	-7.110	-0.173	-0.117
-129.312	-67.975	0.107	0.042
-128.297	-2.414	0.151	-0.105
-127.283	178.826	-0.115	-0.166
-126.268	50.324	-0.424	-0.397
-125.253	-74.817	-0.115	-0.041
-124.239	228.455	-0.033	0.053
-123.224	-18.278	0.288	0.179
-122.210	-100.405	-0.246	-0.060
