DTS Sentinel unit serial number:	SN413079Multiplexer serial number:	ORYXHardware model number:	OX4-SRSoftware version number:	ORYX F/W v4.00 Oryx Data Collector v3.7.2.0data status	okinstallation	princeton_trtdifferential loss correction	single-endedforward channel	channel 4reverse channel	N/Adate	2019/09/14time	01:57:35forward acquisition time	60.00reverse acquisition time	0.00gamma	496.2192k internal	0.2323k external	0.2323temperature offset calibration	1.0128default loss term (dB/km)	0.3790temperature slope calibration	1.0000multiplexer offset coefficient	1.0000multiplexer slope coefficient	1.0000fibre end	0.00T internal ref (°C)	26.50T ext. ref 1 (°C)	3.19T ext. ref 2 (°C)	21.51length (m)	temperature (°C)	Stokes	anti-Stokes-747.200	127.032	-0.107	-0.138
-746.185	-81.756	-0.225	0.075
-745.171	196.673	0.027	0.041
-744.156	88.117	0.035	0.039
-743.142	179.293	-0.194	-0.287
-742.127	-12.513	-0.326	0.215
-741.112	24.078	0.082	-0.069
-740.098	84.189	-0.103	-0.114
-739.083	331.546	0.086	0.168
-738.069	-82.051	-0.365	-0.120
-737.054	-90.038	0.162	0.048
-736.039	-200.000	-0.040	-0.337
-735.025	163.587	0.180	-0.255
-734.010	-44.942	-0.208	0.104
-732.996	800.000	-0.031	0.106
-731.981	-167.600	-0.347	-0.014
-730.966	37.399	-0.267	-0.239
-729.952	-58.910	-0.216	-0.094
-728.937	430.661	-0.040	-0.087
-727.923	-200.000	0.009	-0.332
-726.908	-37.237	-0.389	-0.210
-725.894	-114.343	0.234	0.046
-724.879	383.096	-0.115	-0.239
-723.864	800.000	-0.026	0.092
-722.850	-5.824	-0.150	-0.104
-721.835	-123.799	-0.038	-0.006
-720.821	-143.132	-0.408	-0.040
-719.806	-38.965	-0.228	0.121
-718.791	-184.826	-0.224	0.004
-717.777	-86.474	0.217	0.067
-716.762	-59.116	-0.018	0.008
-715.748	82.392	-0.194	-0.212
-714.733	327.233	-0.182	-0.352
-713.718	-118.974	0.071	-0.013
-712.704	-115.897	0.203	-0.038
-711.689	613.748	-0.063	0.160
-710.675	54.524	-0.128	0.124
-709.660	-200.000	0.061	-0.304
-708.645	-127.084	-0.142	-0.021
-707.631	800.000	0.132	0.378
-706.616	-34.940	0.115	-0.063
-705.602	85.344	-0.151	-0.167
-704.587	-118.348	-0.227	-0.041
-703.572	-200.000	0.013	0.067
-702.558	779.841	-0.034	-0.094
-701.543	326.882	-0.025	0.048
-700.529	-120.655	0.074	-0.013
-699.514	493.241	-0.086	-0.198
-698.499	144.109	-0.189	-0.254
-697.485	22.744	-0.227	0.188
-696.470	800.000	0.105	0.376
-695.456	-200.000	0.077	0.406
-694.441	-143.099	-0.512	0.050
-693.426	302.245	0.068	-0.127
-692.412	-60.834	-0.235	0.100
-691.397	-16.686	0.234	0.149
-690.383	-200.000	0.019	-0.150
-689.368	-200.000	-0.007	-0.390
-688.354	418.189	-0.052	0.113
-687.339	84.926	0.056	-0.062
-686.324	48.027	0.214	0.202
-685.310	-27.486	-0.227	-0.133
-684.295	-9.878	0.267	0.179
-683.281	208.634	0.098	0.155
-682.266	-40.056	-0.112	-0.059
-681.251	-193.022	0.312	0.003
-680.237	-157.424	-0.556	0.034
-679.222	8.528	0.197	0.149
-678.208	-35.531	-0.337	-0.185
-677.193	272.593	-0.150	0.267
-676.178	-200.000	-0.052	0.305
-675.164	46.988	-0.143	-0.134
-674.149	189.953	0.157	-0.238
-673.135	-200.000	-0.035	0.180
-672.120	58.284	-0.090	-0.089
-671.105	-90.493	0.246	0.072
-670.091	-199.967	-0.274	0.001
-669.076	17.627	-0.172	0.138
-668.062	28.714	0.096	0.082
-667.047	-101.748	-0.172	-0.042
-666.032	-59.561	0.250	-0.108
-665.018	-156.678	0.260	-0.016
-664.003	173.609	0.139	-0.202
-662.989	-200.000	-0.024	-0.374
-661.974	-115.907	0.338	-0.064
-660.959	4.062	0.244	-0.180
-659.945	-107.273	-0.156	0.035
-658.930	482.108	0.071	0.163
-657.916	-18.951	0.089	-0.056
-656.901	-96.940	-0.325	0.086
-655.886	496.601	-0.040	0.092
-654.872	-74.518	0.103	0.038
-653.857	-88.455	0.252	-0.076
-652.843	318.012	-0.080	0.152
-651.828	-103.018	0.137	0.033
-650.814	-29.895	0.275	0.158
-649.799	-200.000	-0.058	-0.282
-648.784	-200.000	0.008	-0.047
-647.770	-200.000	-0.004	0.245
-646.755	91.584	-0.262	-0.296
-645.741	-3.796	0.238	-0.166
-644.726	54.161	-0.208	-0.201
-643.711	94.891	0.215	0.246
-642.697	-75.941	0.259	-0.092
-641.682	97.677	-0.174	0.201
-640.668	161.065	-0.265	0.372
-639.653	-200.000	0.003	-0.230
-638.638	-7.098	-0.086	0.059
-637.624	-116.195	-0.215	-0.040
-636.609	-200.000	-0.006	-0.091
-635.595	420.018	-0.065	-0.139
-634.580	466.660	-0.036	0.081
-633.565	68.174	0.177	-0.182
-632.551	800.000	0.082	0.263
-631.536	800.000	0.008	-0.032
-630.522	-147.685	-0.256	-0.022
-629.507	800.000	0.263	-0.798
-628.492	131.778	-0.262	0.338
-627.478	-200.000	0.056	0.358
-626.463	-200.000	0.005	0.077
-625.449	-200.000	0.024	-0.199
-624.434	800.000	-0.049	0.155
-623.419	110.283	-0.102	-0.124
-622.405	-8.882	-0.120	0.080
-621.390	-63.383	0.051	0.021
-620.376	245.293	0.091	-0.154
-619.361	367.984	0.052	-0.105
-618.346	800.000	0.087	-0.338
-617.332	-76.300	-0.181	0.064
-616.317	-113.694	-0.414	0.081
-615.303	7.588	0.181	-0.136
-614.288	1.806	0.039	-0.028
-613.273	151.479	0.087	-0.119
-612.259	80.704	0.110	-0.119
-611.244	137.248	0.094	0.123
-610.230	800.000	-0.049	-0.146
-609.215	-34.469	-0.159	0.087
-608.201	40.221	-0.083	-0.075
-607.186	693.207	0.073	-0.193
-606.171	-127.360	-0.298	-0.044
-605.157	-78.323	-0.264	0.091
-604.142	88.717	-0.039	0.044
-603.128	-200.000	0.003	0.019
-602.113	262.885	0.075	-0.130
-601.098	-47.723	-0.232	-0.113
-600.084	-139.970	-0.368	0.039
-599.069	5.616	0.226	0.168
-598.055	-63.919	-0.251	0.103
-597.040	-27.036	0.230	0.135
-596.025	-103.753	0.505	0.119
-595.011	-80.323	0.240	-0.080
-593.996	-121.008	-0.303	0.051
-592.982	2.891	0.301	0.220
-591.967	-59.877	-0.144	-0.062
-590.952	215.293	0.078	0.124
-589.938	109.945	-0.214	-0.258
-588.923	-74.628	0.261	-0.094
-587.909	149.699	0.122	0.166
-586.894	120.956	0.062	0.077
-585.879	-81.258	-0.217	0.072
-584.865	36.181	0.357	0.316
-583.850	800.000	0.011	-0.045
-582.836	-2.571	0.143	-0.101
-581.821	-101.456	0.259	0.063
-580.806	-46.875	0.259	0.127
-579.792	-71.038	0.283	0.107
-578.777	7.018	0.170	0.127
-577.763	579.361	-0.027	-0.067
-576.748	-110.007	0.089	0.019
-575.733	-66.403	0.262	0.105
-574.719	-106.516	0.104	-0.023
-573.704	73.536	0.104	-0.109
-572.690	-200.000	0.053	-0.317
-571.675	-79.441	-0.150	0.051
-570.661	-107.941	0.104	-0.023
-569.646	-28.409	0.050	0.029
-568.631	800.000	-0.022	-0.063
-567.617	-143.796	0.516	-0.049
-566.602	71.491	0.067	0.070
-565.588	114.842	-0.103	-0.126
-564.573	800.000	0.043	-0.130
-563.558	-146.861	0.359	0.031
-562.544	759.638	-0.024	-0.065
-561.529	145.868	-0.095	0.128
-560.515	-95.222	-0.074	-0.020
-559.500	800.000	0.027	-0.117
-558.485	343.685	-0.020	0.039
-557.471	-200.000	0.040	0.327
-556.456	800.000	-0.066	-0.229
-555.442	169.852	0.082	0.117
-554.427	-148.480	0.209	-0.017
-553.412	-200.000	-0.031	0.159
-552.398	-115.884	-0.477	0.089
-551.383	-75.254	-0.200	-0.071
-550.369	-43.167	0.205	0.104
-549.354	159.622	0.025	-0.035
-548.339	726.203	-0.079	0.212
-547.325	-18.199	-0.129	0.081
-546.310	-111.340	0.278	-0.057
-545.296	31.972	-0.090	-0.078
-544.281	-109.297	0.100	-0.021
-543.266	800.000	-0.126	-0.369
-542.252	141.375	-0.027	0.036
-541.237	-20.162	-0.240	0.148
-540.223	148.111	0.168	-0.227
-539.208	379.189	0.019	0.039
-538.193	-127.792	-0.349	-0.050
-537.179	147.201	0.129	-0.174
-536.164	-13.853	-0.174	-0.113
-535.150	75.257	0.301	0.318
-534.135	-157.502	-0.458	-0.028
-533.121	48.616	0.280	-0.263
-532.106	-65.735	0.068	-0.027
-531.091	108.184	0.122	-0.145
-530.077	212.096	-0.144	-0.228
-529.062	59.675	-0.027	-0.027
-528.048	-59.161	-0.170	0.073
-527.033	115.492	0.324	0.396
-526.018	-162.830	-0.190	-0.009
-525.004	292.313	-0.122	0.222
-523.989	89.831	0.138	0.154
-522.975	-26.840	0.297	0.174
-521.960	-119.906	-0.140	-0.024
-520.945	46.957	-0.129	-0.120
-519.931	113.038	-0.099	-0.120
-518.916	123.772	-0.081	-0.102
-517.902	271.504	-0.176	-0.311
-516.887	-23.082	0.319	-0.193
-515.872	-38.505	-0.267	-0.141
-514.858	-200.000	0.012	-0.309
-513.843	574.666	-0.174	0.424
-512.829	-53.147	-0.410	0.188
-511.814	-200.000	0.006	0.051
-510.799	-139.226	-0.181	-0.020
-509.785	800.000	0.072	0.217
-508.770	109.014	0.346	-0.414
-507.756	-200.000	-0.036	-0.163
-506.741	56.485	0.059	0.057
-505.726	98.730	-0.299	-0.345
-504.712	694.650	-0.116	-0.305
-503.697	800.000	-0.018	-0.060
-502.683	1.306	0.058	0.042
-501.668	134.121	-0.049	0.063
-500.653	-200.000	0.090	0.000
-499.639	-200.000	-0.006	0.204
-498.624	-200.000	0.009	-0.196
-497.610	187.047	-0.039	-0.059
-496.595	-200.000	0.038	0.217
-495.581	-200.000	0.041	0.226
-494.566	-82.563	0.233	0.075
-493.551	-200.000	0.017	0.132
-492.537	38.903	0.191	0.171
-491.522	378.157	-0.101	-0.207
-490.508	-200.000	-0.113	-0.578
-489.493	800.000	-0.086	0.355
-488.478	396.542	0.023	-0.048
-487.464	626.897	-0.078	-0.197
-486.449	-9.587	-0.186	-0.124
-485.435	261.821	-0.152	-0.263
-484.420	29.632	-0.179	0.152
-483.405	-144.342	-0.121	-0.011
-482.391	-200.000	0.018	0.198
-481.376	1.879	0.111	-0.080
-480.362	-129.038	-0.090	0.013
-479.347	220.271	-0.196	-0.314
-478.332	-40.561	0.436	0.226
-477.318	-112.498	-0.343	0.068
-476.303	-200.000	0.001	0.054
-475.289	-200.000	-0.005	-0.367
-474.274	40.059	-0.296	-0.266
-473.259	-116.179	-0.325	0.060
-472.245	461.704	-0.105	-0.234
-471.230	25.078	0.064	0.053
-470.216	-108.110	-0.257	-0.056
-469.201	151.674	-0.289	0.394
-468.186	47.445	0.240	0.224
-467.172	-200.000	0.055	0.243
-466.157	-173.359	-0.235	0.007
-465.143	212.473	-0.094	-0.147
-464.128	536.083	0.056	0.132
-463.113	549.959	-0.017	-0.040
-462.099	168.003	-0.065	0.093
-461.084	800.000	-0.036	-0.158
-460.070	107.835	0.237	0.282
-459.055	460.888	0.143	0.319
-458.040	800.000	-0.035	0.131
-457.026	9.585	-0.285	-0.216
-456.011	58.031	-0.135	0.132
-454.997	196.568	-0.197	0.300
-453.982	-200.000	-0.026	-0.139
-452.968	103.318	-0.090	-0.106
-451.953	-200.000	-0.008	-0.290
-450.938	-44.472	0.131	0.066
-449.924	-185.066	0.427	-0.007
-448.909	-7.233	-0.044	0.030
-447.895	-105.885	0.293	-0.066
-446.880	-5.450	0.259	0.177
-445.865	-9.374	0.149	0.099
-444.851	-170.851	-0.084	0.003
-443.836	-154.970	0.345	-0.023
-442.822	87.071	0.191	0.211
-441.807	127.104	-0.026	-0.032
-440.792	737.991	-0.090	0.242
-439.778	-200.000	0.008	-0.222
-438.763	40.206	0.108	-0.097
-437.749	136.405	0.023	-0.030
-436.734	712.865	0.077	-0.204
-435.719	-200.000	0.004	0.066
-434.705	-154.089	0.214	-0.014
-433.690	12.765	-0.142	-0.110
-432.676	-54.424	-0.364	-0.165
-431.661	-200.000	-0.008	0.122
-430.646	-9.916	0.271	0.180
-429.632	800.000	-0.054	0.213
-428.617	-5.806	-0.169	0.116
-427.603	58.573	-0.080	-0.078
-426.588	800.000	-0.058	0.204
-425.573	-200.000	-0.005	0.036
-424.559	79.238	-0.082	-0.088
-423.544	249.047	-0.073	0.124
-422.530	-196.005	-0.057	-0.000
-421.515	-200.000	-0.026	-0.409
-420.500	-52.428	0.299	-0.138
-419.486	294.806	0.134	0.244
-418.471	-33.317	-0.143	-0.079
-417.457	800.000	0.029	-0.110
-416.442	-35.442	-0.221	0.120
-415.428	677.276	0.199	0.515
-414.413	94.404	-0.245	-0.277
-413.398	-128.133	-0.456	-0.065
-412.384	17.845	-0.179	-0.142
-411.369	147.459	0.055	0.074
-410.355	-89.855	-0.254	0.074
-409.340	39.579	0.171	-0.153
-408.325	-128.399	-0.080	-0.011
-407.311	719.567	0.097	-0.256
-406.296	-24.216	-0.138	0.082
-405.282	165.206	0.166	0.234
-404.267	240.201	-0.070	0.117
-403.252	-74.831	0.190	-0.068
-402.238	520.853	0.047	-0.111
-401.223	-200.000	-0.008	-0.043
-400.209	-200.000	-0.006	0.050
-399.194	25.724	-0.120	0.099
-398.179	-32.036	-0.054	-0.030
-397.165	323.318	0.088	0.167
-396.150	-32.253	-0.514	0.286
-395.136	226.260	-0.039	-0.063
-394.121	-103.278	0.170	0.040
-393.106	-200.000	0.025	0.167
-392.092	-200.000	-0.002	-0.148
-391.077	-200.000	-0.044	-0.248
-390.063	-96.618	-0.539	-0.142
-389.048	-20.057	0.118	-0.073
-388.033	-80.628	-0.149	0.049
-387.019	-87.915	0.148	-0.044
-386.004	-20.059	-0.488	0.299
-384.990	212.260	0.215	0.337
-383.975	-64.860	0.246	0.099
-382.960	-101.574	-0.097	-0.024
-381.946	55.240	0.176	0.169
-380.931	217.131	0.126	-0.199
-379.917	-33.490	0.037	0.020
-378.902	75.395	-0.161	-0.169
-377.888	-19.037	0.299	0.185
-376.873	-200.000	0.029	0.254
-375.858	-93.578	0.138	-0.038
-374.844	-62.622	-0.170	0.070
-373.829	1.678	-0.238	-0.170
-372.815	32.632	-0.293	0.252
-371.800	800.000	0.014	0.042
-370.785	-200.000	0.041	0.266
-369.771	747.316	-0.093	0.248
-368.756	89.663	-0.294	0.326
-367.742	127.387	0.237	0.299
-366.727	640.276	0.030	-0.077
-365.712	-148.121	-0.280	-0.023
-364.698	35.311	-0.148	0.129
-363.683	-108.433	0.368	0.079
-362.669	-200.000	0.020	0.148
-361.654	19.800	0.163	-0.131
-360.639	-120.305	-0.234	0.040
-359.625	44.054	-0.117	-0.107
-358.610	221.871	-0.112	0.179
-357.596	-200.000	-0.002	-0.206
-356.581	-6.029	0.187	0.127
-355.566	160.632	-0.105	-0.145
-354.552	121.280	-0.126	0.156
-353.537	800.000	-0.026	-0.097
-352.523	231.191	-0.097	-0.158
-351.508	-121.801	0.121	-0.020
-350.493	-137.633	-0.256	0.029
-349.479	-77.606	-0.167	0.057
-348.464	-38.996	-0.218	-0.114
-347.450	-83.857	0.299	0.095
-346.435	-104.567	0.296	-0.068
-345.420	185.246	-0.082	-0.121
-344.406	236.420	-0.206	0.338
-343.391	-86.882	-0.165	0.050
-342.377	609.637	-0.044	0.109
-341.362	-59.719	-0.050	-0.021
-340.348	-60.017	0.251	0.107
-339.333	800.000	-0.062	0.237
-338.318	235.964	-0.200	-0.329
-337.304	661.260	0.071	0.182
-336.289	129.805	-0.093	-0.119
-335.275	58.515	-0.113	-0.110
-334.260	115.098	-0.132	-0.160
-333.245	71.374	0.094	0.097
-332.231	-200.000	0.019	0.281
-331.216	-200.000	0.033	-0.257
-330.202	372.729	0.097	0.195
-329.187	800.000	-0.039	-0.138
-328.172	800.000	-0.015	-0.062
-327.158	34.739	0.145	-0.126
-326.143	153.019	0.075	-0.101
-325.129	-92.478	-0.169	0.047
-324.114	2.315	0.210	-0.151
-323.099	4.160	-0.117	0.085
-322.085	-41.738	-0.164	0.083
-321.070	6.448	0.041	0.030
-320.056	-15.736	0.252	0.160
-319.041	84.443	-0.011	-0.012
-318.026	-168.792	0.150	-0.006
-317.012	757.526	0.040	-0.109
-315.997	800.000	0.029	-0.114
-314.983	207.122	0.132	0.204
-313.968	-55.894	-0.280	-0.124
-312.953	248.701	-0.043	0.072
-311.939	-68.408	-0.152	-0.058
-310.924	-200.000	0.012	-0.329
-309.910	-18.250	0.375	-0.233
-308.895	284.226	0.082	0.147
-307.880	-43.849	0.320	0.160
-306.866	-65.840	0.352	-0.140
-305.851	596.905	-0.067	-0.165
-304.837	-147.916	0.124	0.010
-303.822	-48.026	-0.097	0.046
-302.807	-149.901	0.185	-0.014
-301.793	-106.726	-0.138	-0.031
-300.778	-24.470	0.091	-0.054
-299.764	-200.000	-0.042	0.253
-298.749	-24.934	0.255	-0.150
-297.735	335.655	0.124	-0.240
-296.720	-86.921	-0.461	-0.139
-295.705	-23.348	-0.237	-0.141
-294.691	-200.000	-0.030	-0.167
-293.676	63.109	0.114	-0.113
-292.662	255.939	-0.135	-0.230
-291.647	800.000	-0.109	-0.303
-290.632	-9.315	-0.160	-0.106
-289.618	-200.000	0.061	0.311
-288.603	-200.000	0.000	-0.142
-287.589	-96.320	-0.111	-0.029
-286.574	108.855	-0.298	0.353
-285.559	800.000	0.022	0.087
-284.545	800.000	-0.139	-0.380
-283.530	39.561	0.239	-0.212
-282.516	145.858	-0.152	-0.202
-281.501	46.086	-0.145	0.134
-280.486	800.000	0.077	0.263
-279.472	-68.574	-0.305	0.117
-278.457	-46.821	0.223	-0.108
-277.443	39.826	-0.246	0.218
-276.428	-200.000	0.021	0.151
-275.413	-200.000	0.015	0.206
-274.399	788.461	0.043	0.118
-273.384	800.000	0.225	-0.685
-272.370	563.435	0.180	-0.432
-271.355	-83.488	0.083	-0.026
-270.340	-58.622	0.147	-0.063
-269.326	418.640	-0.089	-0.188
-268.311	-200.000	-0.021	0.158
-267.297	-19.092	0.294	-0.181
-266.282	-200.000	0.008	-0.168
-265.267	-70.936	0.139	-0.052
-264.253	-57.764	0.242	0.105
-263.238	-89.627	-0.189	0.055
-262.224	-9.985	-0.095	0.063
-261.209	800.000	-0.085	0.311
-260.195	12.252	0.524	0.400
-259.180	71.564	-0.085	0.088
-258.165	48.178	0.337	-0.313
-257.151	40.410	0.248	0.221
-256.136	0.859	-0.168	-0.119
-255.122	-84.249	-0.031	0.010
-254.107	-200.000	0.074	-0.367
-253.092	-5.735	-0.225	0.153
-252.078	178.335	-0.047	-0.067
-251.063	-57.503	0.302	-0.131
-250.049	-116.055	-0.144	0.027
-249.034	42.253	0.183	-0.165
-248.019	-200.000	0.005	0.062
-247.005	71.820	0.281	-0.289
-245.990	-200.000	0.003	0.231
-244.976	-145.494	0.115	-0.010
-243.961	800.000	-0.058	0.192
-242.946	242.755	0.312	-0.517
-241.932	-200.000	-0.033	-0.274
-240.917	-72.954	0.081	0.030
-239.903	179.078	0.120	-0.174
-238.888	-200.000	0.054	-0.300
-237.873	360.856	-0.213	-0.422
-236.859	227.574	-0.167	-0.269
-235.844	-35.939	0.199	0.106
-234.830	6.073	0.057	-0.042
-233.815	177.925	0.046	0.066
-232.800	304.555	-0.028	-0.051
-231.786	800.000	0.074	0.285
-230.771	800.000	-0.028	0.090
-229.757	-59.330	0.159	-0.068
-228.742	6.290	0.176	-0.129
-227.727	41.259	-0.116	-0.104
-226.713	-75.978	-0.195	-0.068
-225.698	-160.830	0.334	-0.017
-224.684	-69.932	-0.239	-0.090
-223.669	61.664	0.018	-0.017
-222.655	-58.101	0.246	-0.106
-221.640	-200.000	-0.034	0.187
-220.625	-49.665	-0.175	0.082
-219.611	-200.000	0.045	0.266
-218.596	-39.423	0.045	0.023
-217.582	-171.110	0.379	-0.013
-216.567	-74.676	-0.236	-0.084
-215.552	27.254	0.137	0.114
-214.538	222.288	0.097	0.155
-213.523	-104.776	-0.259	-0.059
-212.509	166.993	-0.087	0.122
-211.494	800.000	-0.074	0.284
-210.479	800.000	-0.043	0.149
-209.465	800.000	-0.060	-0.200
-208.450	-152.389	0.344	0.024
-207.436	129.596	0.141	0.179
-206.421	800.000	-0.054	0.155
-205.406	143.805	0.246	0.324
-204.392	152.334	0.076	0.103
-203.377	-200.000	0.024	0.248
-202.363	463.354	0.164	0.362
-201.348	160.428	0.064	0.089
-200.333	-200.000	0.038	0.211
-199.319	-18.920	0.106	-0.065
-198.304	-155.851	0.259	0.016
-197.290	-200.000	0.044	0.194
-196.275	-200.000	-0.009	-0.086
-195.260	-200.000	0.078	0.376
-194.246	572.756	0.097	0.234
-193.231	-143.700	0.041	-0.004
-192.217	-143.413	-0.168	0.016
-191.202	-132.183	-0.034	0.004
-190.187	212.825	-0.249	-0.389
-189.173	-200.000	-0.025	-0.285
-188.158	-30.150	0.241	0.136
-187.144	800.000	-0.053	0.221
-186.129	120.925	0.145	-0.178
-185.114	9.965	0.249	-0.186
-184.100	-53.279	0.177	0.080
-183.085	144.813	-0.129	-0.171
-182.071	-22.821	-0.376	-0.224
-181.056	800.000	-0.060	0.251
-180.042	-10.218	-0.118	-0.078
-179.027	-43.012	-0.072	-0.036
-178.012	211.318	-0.222	0.345
-176.998	-2.805	-0.128	-0.088
-175.983	-27.229	-0.258	-0.148
-174.969	-57.497	0.208	0.090
-173.954	-109.649	-0.099	-0.021
-172.939	-130.087	0.421	-0.057
-171.925	282.639	-0.038	-0.067
-170.910	-60.671	0.378	0.158
-169.896	-62.931	0.170	-0.070
-168.881	236.464	-0.098	-0.160
-167.866	176.700	0.123	0.177
-166.852	749.888	-0.055	0.147
-165.837	-67.716	-0.269	0.104
-164.823	27.751	-0.253	0.211
-163.808	-70.595	-0.174	0.065
-162.793	-200.000	-0.015	0.261
-161.779	80.924	-0.102	-0.109
-160.764	441.597	0.005	0.010
-159.750	-23.299	0.178	-0.106
-158.735	-103.741	-0.203	-0.047
-157.720	-2.295	0.080	-0.056
-156.706	-31.819	0.135	0.075
-155.691	415.181	0.063	-0.132
-154.677	-6.899	0.153	-0.103
-153.662	14.935	-0.104	-0.080
-152.647	-200.000	-0.021	0.105
-151.633	-8.876	-0.168	0.111
-150.618	425.816	0.026	-0.054
-149.604	82.935	0.041	0.044
-148.589	-63.977	-0.392	-0.158
-147.574	37.448	-0.144	0.126
-146.560	-24.946	-0.062	-0.037
-145.545	-125.134	0.024	-0.004
-144.531	-119.055	-0.369	0.064
-143.516	328.270	0.196	0.371
-142.502	169.167	0.175	0.246
-141.487	800.000	0.021	0.058
-140.472	644.704	-0.085	-0.215
-139.458	-200.000	0.007	0.134
-138.443	-200.000	0.020	-0.189
-137.429	800.000	-0.046	-0.179
-136.414	20.028	0.109	0.087
-135.399	-38.659	-0.287	-0.150
-134.385	-59.149	0.452	-0.192
-133.370	7.944	-0.151	-0.112
-132.356	-110.380	0.518	-0.106
-131.341	-200.000	-0.009	0.047
-130.326	-9.974	-0.208	0.137
-129.312	-107.913	0.203	-0.043
-128.297	-200.000	0.030	-0.145
-127.283	2.370	0.225	-0.160
-126.268	-25.241	0.326	0.191
-125.253	-58.271	-0.218	0.094
-124.239	800.000	-0.005	-0.017
-123.224	26.615	0.037	-0.031
-122.210	359.861	0.130	0.256
-121.195	267.806	0.112	0.193
-120.180	800.000	0.131	-0.531
