DTS Sentinel unit serial number:	SN413079Multiplexer serial number:	ORYXHardware model number:	OX4-SRSoftware version number:	ORYX F/W v4.00 Oryx Data Collector v3.7.2.0data status	okinstallation	princeton_trtdifferential loss correction	single-endedforward channel	channel 4reverse channel	N/Adate	2019/09/16time	21:17:35forward acquisition time	60.00reverse acquisition time	0.00gamma	496.2192k internal	0.2313k external	0.2313temperature offset calibration	0.9964default loss term (dB/km)	0.3790temperature slope calibration	1.0000multiplexer offset coefficient	1.0000multiplexer slope coefficient	1.0000fibre end	0.00T internal ref (°C)	31.69T ext. ref 1 (°C)	0.05T ext. ref 2 (°C)	25.50length (m)	temperature (°C)	Stokes	anti-Stokes-747.200	-200.000	0.056	0.313
-746.185	-200.000	-0.013	0.063
-745.171	800.000	0.062	0.232
-744.156	-77.759	0.098	-0.035
-743.142	-79.454	0.129	-0.044
-742.127	-84.659	-0.141	0.045
-741.112	800.000	-0.175	0.572
-740.098	800.000	-0.078	0.342
-739.083	-101.561	-0.222	0.055
-738.069	-200.000	-0.047	0.000
-737.054	-62.949	0.291	-0.122
-736.039	-32.835	-0.264	0.149
-735.025	206.794	-0.109	0.172
-734.010	35.481	0.243	0.216
-732.996	174.098	-0.174	-0.255
-731.981	-41.702	0.165	-0.086
-730.966	-58.525	0.341	0.150
-729.952	-84.025	-0.162	-0.052
-728.937	-134.408	-0.035	0.004
-727.923	-143.966	-0.381	-0.036
-726.908	-37.368	0.346	-0.187
-725.894	-157.786	-0.130	-0.008
-724.879	-200.000	-0.035	0.156
-723.864	44.115	-0.192	0.178
-722.850	-32.367	-0.142	-0.080
-721.835	-200.000	0.012	0.145
-720.821	-102.050	0.149	-0.036
-719.806	-60.747	0.204	0.088
-718.791	101.062	-0.303	-0.357
-717.777	488.819	0.022	-0.051
-716.762	-200.000	-0.010	-0.172
-715.748	112.054	0.080	-0.098
-714.733	149.615	-0.068	0.094
-713.718	165.671	0.141	0.202
-712.704	-200.000	-0.035	0.507
-711.689	800.000	0.063	-0.237
-710.675	-133.213	-0.207	0.027
-709.660	377.988	-0.043	-0.088
-708.645	592.884	0.041	-0.103
-707.631	66.803	0.033	0.034
-706.616	-200.000	-0.031	-0.258
-705.602	42.087	0.236	-0.217
-704.587	-64.156	-0.479	-0.198
-703.572	-149.172	-0.142	-0.012
-702.558	800.000	0.090	0.358
-701.543	-200.000	0.007	0.356
-700.529	-88.640	0.032	0.010
-699.514	-56.940	0.238	-0.107
-698.499	-200.000	-0.005	-0.209
-697.485	-182.911	-0.183	0.003
-696.470	-134.484	-0.494	-0.061
-695.456	800.000	-0.067	0.240
-694.441	170.987	-0.107	0.155
-693.426	-20.152	0.299	-0.186
-692.412	-200.000	0.068	-0.418
-691.397	-35.169	-0.062	-0.034
-690.383	286.712	0.090	0.165
-689.368	-200.000	0.015	-0.163
-688.354	123.570	0.064	0.081
-687.339	-114.320	0.156	-0.030
-686.324	167.718	0.199	-0.286
-685.310	46.114	-0.231	-0.217
-684.295	-200.000	-0.014	-0.083
-683.281	117.846	-0.022	-0.028
-682.266	384.734	0.067	-0.139
-681.251	466.650	-0.181	-0.410
-680.237	-150.126	0.210	0.016
-679.222	14.382	-0.199	0.157
-678.208	203.325	-0.129	0.201
-677.193	702.308	-0.020	-0.053
-676.178	-176.703	-0.287	0.007
-675.164	-11.490	-0.183	0.122
-674.149	60.175	-0.355	-0.356
-673.135	178.630	-0.096	0.142
-672.120	800.000	0.079	0.296
-671.105	-14.860	0.170	-0.111
-670.091	51.853	0.038	0.036
-669.076	146.717	0.077	-0.105
-668.062	-85.108	-0.252	-0.080
-667.047	-7.751	-0.208	0.142
-666.032	-143.608	0.301	0.029
-665.018	-157.881	0.252	0.015
-664.003	-200.000	0.037	0.212
-662.989	-62.940	0.119	-0.050
-661.974	-17.428	-0.153	0.097
-660.959	93.517	0.157	-0.180
-659.945	-10.123	-0.076	0.051
-658.930	449.761	-0.080	0.178
-657.916	-121.548	-0.277	0.046
-656.901	-64.473	-0.173	0.071
-655.886	74.690	0.119	-0.126
-654.872	-200.000	0.071	-0.362
-653.857	-141.462	0.284	0.029
-652.843	-170.262	-0.181	0.006
-651.828	800.000	0.021	0.091
-650.814	-131.074	-0.219	-0.029
-649.799	192.210	-0.010	-0.015
-648.784	-91.026	0.246	-0.071
-647.770	580.367	-0.170	-0.421
-646.755	-83.665	0.236	-0.076
-645.741	377.685	-0.201	0.415
-644.726	-22.997	0.069	-0.042
-643.711	-161.815	0.203	-0.010
-642.697	-19.075	-0.277	0.174
-641.682	-87.043	0.197	-0.061
-640.668	800.000	-0.025	0.084
-639.653	-200.000	0.012	-0.189
-638.638	-12.853	-0.273	0.180
-637.624	800.000	-0.066	0.227
-636.609	-21.889	-0.217	-0.133
-635.595	-200.000	-0.028	-0.448
-634.580	-49.215	0.159	-0.077
-633.565	188.520	0.089	0.135
-632.551	800.000	-0.054	0.167
-631.536	-200.000	0.016	-0.197
-630.522	-124.265	0.362	0.057
-629.507	-113.957	-0.381	-0.075
-628.492	800.000	0.037	0.134
-627.478	-13.016	-0.264	-0.173
-626.463	800.000	0.086	-0.334
-625.449	199.714	-0.047	0.073
-624.434	465.037	-0.111	-0.250
-623.419	40.074	-0.142	-0.129
-622.405	489.594	-0.054	-0.125
-621.390	-47.545	-0.160	0.078
-620.376	57.543	-0.122	0.120
-619.361	213.896	0.031	-0.049
-618.346	-200.000	0.002	0.044
-617.332	-33.202	0.088	-0.049
-616.317	800.000	-0.006	-0.017
-615.303	-110.543	-0.068	-0.014
-614.288	-71.805	0.186	-0.070
-613.273	-179.324	-0.199	0.004
-612.259	-66.107	0.235	-0.095
-611.244	-155.820	-0.418	-0.027
-610.230	-200.000	-0.012	-0.127
-609.215	209.620	-0.121	0.191
-608.201	800.000	0.088	-0.258
-607.186	800.000	-0.094	-0.269
-606.171	102.158	-0.089	-0.105
-605.157	149.652	-0.155	0.212
-604.142	79.912	0.267	-0.290
-603.128	-200.000	-0.015	-0.094
-602.113	-146.214	-0.181	0.016
-601.098	-200.000	-0.067	-0.320
-600.084	-50.260	-0.138	0.066
-599.069	-15.999	-0.052	0.034
-598.055	72.665	-0.100	-0.105
-597.040	-111.093	-0.039	-0.008
-596.025	-130.516	0.154	0.021
-595.011	-80.033	0.366	-0.124
-593.996	-118.480	-0.270	0.048
-592.982	429.618	-0.025	0.055
-591.967	-142.621	0.456	0.045
-590.952	-119.505	0.395	0.069
-589.938	109.980	0.053	-0.064
-588.923	800.000	0.069	-0.252
-587.909	451.602	0.108	-0.240
-586.894	153.286	-0.175	-0.241
-585.879	191.052	-0.045	0.068
-584.865	-88.454	-0.314	-0.094
-583.850	800.000	0.096	0.360
-582.836	800.000	-0.046	-0.131
-581.821	-9.772	-0.219	-0.147
-580.806	-200.000	0.030	0.249
-579.792	800.000	0.047	-0.160
-578.777	161.013	-0.144	0.202
-577.763	88.081	-0.083	-0.093
-576.748	787.487	0.097	0.268
-575.733	147.684	-0.244	-0.331
-574.719	-108.953	-0.409	0.088
-573.704	-58.864	0.157	-0.069
-572.690	69.558	0.054	-0.056
-571.675	279.783	-0.105	0.189
-570.661	-200.000	-0.018	0.128
-569.646	800.000	-0.037	-0.126
-568.631	-24.262	0.305	-0.184
-567.617	-110.511	0.204	0.043
-566.602	-90.168	-0.127	-0.037
-565.588	-200.000	0.018	-0.326
-564.573	49.486	-0.044	-0.042
-563.558	-200.000	0.003	0.239
-562.544	-2.847	-0.284	-0.200
-561.529	65.166	0.109	-0.111
-560.515	173.681	-0.108	0.158
-559.500	247.408	0.118	0.201
-558.485	-190.004	0.419	0.005
-557.471	-19.129	0.196	0.123
-556.456	-53.173	0.109	0.051
-555.442	24.872	-0.136	-0.114
-554.427	0.288	0.122	0.088
-553.412	-200.000	0.007	-0.121
-552.398	-200.000	-0.011	0.305
-551.383	-22.128	0.316	-0.193
-550.369	610.967	-0.117	0.294
-549.354	-111.410	-0.157	0.032
-548.339	-116.478	0.463	0.086
-547.325	146.211	0.077	-0.104
-546.310	5.555	0.148	0.110
-545.296	-200.000	-0.038	-0.188
-544.281	-106.600	0.228	-0.051
-543.266	375.273	-0.065	-0.134
-542.252	-200.000	-0.011	-0.526
-541.237	611.572	0.064	-0.160
-540.223	-71.719	-0.312	0.117
-539.208	65.158	0.096	0.097
-538.193	26.588	0.207	-0.174
-537.179	195.132	0.016	-0.024
-536.164	-200.000	0.046	-0.204
-535.150	-6.550	0.292	0.200
-534.135	468.338	0.112	-0.252
-533.121	524.118	0.116	0.273
-532.106	30.407	0.089	0.077
-531.091	-65.174	0.212	-0.086
-530.077	-106.184	-0.013	-0.003
-529.062	-150.032	-0.052	0.004
-528.048	-168.601	-0.509	-0.019
-527.033	-72.764	-0.088	0.032
-526.018	122.165	0.111	-0.139
-525.004	-200.000	0.040	0.442
-523.989	118.498	0.219	-0.272
-522.975	737.447	-0.167	0.450
-521.960	-85.254	-0.329	0.103
-520.945	-200.000	-0.027	-0.212
-519.931	-200.000	-0.015	-0.070
-518.916	-13.718	-0.044	-0.028
-517.902	800.000	0.066	0.196
-516.887	800.000	0.033	0.143
-515.872	-200.000	0.015	0.296
-514.858	-112.660	0.325	0.065
-513.843	176.985	-0.202	-0.295
-512.829	473.669	0.013	0.028
-511.814	-96.805	-0.333	-0.088
-510.799	64.498	-0.090	0.091
-509.785	-200.000	0.031	0.147
-508.770	-200.000	0.030	0.245
-507.756	114.639	-0.051	-0.063
-506.741	800.000	-0.028	-0.122
-505.726	50.051	-0.068	-0.064
-504.712	630.606	-0.079	-0.201
-503.697	-200.000	-0.016	0.164
-502.683	78.463	-0.226	0.242
-501.668	38.548	0.145	0.130
-500.653	281.699	-0.127	0.229
-499.639	-128.966	-0.241	-0.034
-498.624	-200.000	0.013	-0.140
-497.610	-40.486	0.250	-0.130
-496.595	-200.000	0.093	0.000
-495.581	-80.367	-0.251	0.084
-494.566	25.641	-0.078	-0.065
-493.551	-54.915	-0.129	0.058
-492.537	-161.900	-0.086	-0.004
-491.522	-200.000	0.059	0.390
-490.508	-82.341	0.313	0.102
-489.493	-104.420	0.352	0.082
-488.478	536.827	-0.196	-0.468
-487.464	-151.397	-0.129	0.010
-486.449	-48.718	0.074	0.036
-485.435	-133.686	0.198	0.025
-484.420	-103.146	-0.090	0.021
-483.405	678.085	0.039	0.103
-482.391	-144.757	-0.189	0.017
-481.376	800.000	0.036	-0.148
-480.362	268.085	-0.116	-0.204
-479.347	-200.000	-0.079	-0.456
-478.332	800.000	-0.039	0.140
-477.318	384.839	0.087	-0.180
-476.303	379.886	0.051	0.104
-475.289	800.000	0.047	0.184
-474.274	-115.744	0.072	-0.014
-473.259	11.817	-0.247	0.191
-472.245	-200.000	0.016	0.443
-471.230	51.447	-0.098	0.093
-470.216	-121.738	0.215	-0.036
-469.201	-200.000	-0.011	0.183
-468.186	-200.000	0.137	0.000
-467.172	75.649	-0.177	0.187
-466.157	-80.124	0.183	0.062
-465.143	-200.000	-0.027	0.144
-464.128	-52.429	-0.303	-0.141
-463.113	207.351	-0.112	0.175
-462.099	-146.356	-0.303	0.027
-461.084	111.537	-0.124	0.150
-460.070	-34.552	-0.388	0.213
-459.055	-200.000	0.444	0.000
-458.040	722.858	0.085	-0.226
-457.026	-200.000	-0.015	-0.209
-456.011	-127.135	0.152	-0.022
-454.997	-200.000	0.001	0.328
-453.982	-163.029	0.179	-0.009
-452.968	-113.105	0.287	0.057
-451.953	-129.235	0.233	-0.033
-450.938	-147.027	0.066	-0.006
-449.924	-200.000	0.003	0.262
-448.909	-200.000	-0.045	0.269
-447.895	17.213	-0.284	-0.226
-446.880	-104.772	-0.043	-0.010
-445.865	99.530	-0.071	-0.083
-444.851	-103.278	0.155	0.037
-443.836	800.000	-0.076	-0.275
-442.822	51.694	-0.184	0.175
-441.807	-139.097	0.480	-0.052
-440.792	-30.854	-0.023	0.013
-439.778	-68.124	-0.198	-0.077
-438.763	-200.000	-0.003	0.181
-437.749	-200.000	0.049	0.504
-436.734	-147.188	-0.424	-0.036
-435.719	-22.548	0.133	-0.081
-434.705	-26.136	0.449	0.265
-433.690	219.438	-0.130	-0.208
-432.676	625.491	-0.067	-0.171
-431.661	-47.683	0.057	0.028
-430.646	-200.000	0.007	0.114
-429.632	800.000	-0.087	0.296
-428.617	-11.967	0.205	-0.134
-427.603	-141.260	-0.145	0.015
-426.588	128.301	-0.108	0.138
-425.573	122.176	-0.138	-0.173
-424.559	73.248	-0.173	-0.181
-423.544	482.101	0.122	0.277
-422.530	48.994	0.308	-0.289
-421.515	-96.001	0.117	0.031
-420.500	-49.752	0.123	0.058
-419.486	-200.000	-0.054	0.274
-418.471	-88.977	-0.277	0.082
-417.457	74.001	0.231	0.243
-416.442	-120.395	-0.078	0.013
-415.428	-29.406	-0.063	0.036
-414.413	800.000	-0.044	-0.125
-413.398	-200.000	-0.361	0.002
-412.384	800.000	0.192	-0.640
-411.369	140.435	-0.168	0.223
-410.355	-200.000	-0.047	-0.369
-409.340	-4.786	-0.184	0.127
-408.325	-150.714	-0.037	-0.003
-407.311	-133.337	0.146	-0.018
-406.296	-12.139	-0.186	-0.122
-405.282	329.162	0.038	0.074
-404.267	800.000	0.086	-0.325
-403.252	-69.674	0.033	0.013
-402.238	-200.000	-0.007	0.150
-401.223	-89.878	-0.371	0.109
-400.209	-51.281	-0.152	0.071
-399.194	-55.979	0.125	-0.056
-398.179	61.720	0.249	-0.248
-397.165	-52.176	0.093	0.043
-396.150	-175.552	0.065	0.002
-395.136	388.507	0.087	-0.181
-394.121	-48.590	-0.143	-0.069
-393.106	-9.946	-0.199	-0.133
-392.092	79.049	-0.334	-0.358
-391.077	-94.456	-0.414	0.113
-390.063	-35.247	0.237	-0.129
-389.048	-200.000	-0.041	0.281
-388.033	-78.992	-0.248	-0.084
-387.019	800.000	-0.068	0.194
-386.004	-137.706	-0.218	0.024
-384.990	29.810	-0.139	0.119
-383.975	-200.000	-0.019	0.229
-382.960	139.587	-0.286	-0.376
-381.946	-200.000	0.021	-0.103
-380.931	-73.392	0.131	0.048
-379.917	800.000	0.006	0.024
-378.902	106.540	0.007	-0.009
-377.888	136.291	0.173	0.225
-376.873	631.559	0.032	0.081
-375.858	5.329	0.421	0.311
-374.844	-82.455	0.351	-0.114
-373.829	-42.436	-0.321	-0.164
-372.815	800.000	0.057	0.223
-371.800	800.000	-0.055	0.170
-370.785	-200.000	0.018	-0.329
-369.771	-200.000	0.003	-0.281
-368.756	65.275	0.072	-0.073
-367.742	-58.086	-0.068	0.030
-366.727	-200.000	0.004	0.055
-365.712	-200.000	0.010	0.160
-364.698	-136.856	0.186	-0.021
-363.683	69.125	-0.269	-0.276
-362.669	155.324	-0.084	0.115
-361.654	-111.418	0.058	-0.012
-360.639	-200.000	-0.182	0.001
-359.625	216.647	-0.041	0.066
-358.610	-117.124	-0.077	0.014
-357.596	-79.918	-0.106	0.035
-356.581	-19.930	-0.324	-0.200
-355.566	-75.523	0.267	-0.095
-354.552	800.000	0.009	0.037
-353.537	149.515	0.167	0.226
-352.523	-200.000	0.006	-0.195
-351.508	57.648	0.235	-0.230
-350.493	-61.959	0.105	-0.044
-349.479	-200.000	0.000	-0.144
-348.464	-24.494	0.208	-0.124
-347.450	110.591	-0.175	0.210
-346.435	155.645	-0.142	0.195
-345.420	-53.266	-0.079	0.036
-344.406	30.864	0.322	-0.275
-343.391	-200.000	-0.004	0.075
-342.377	50.463	-0.274	0.259
-341.362	618.750	0.040	-0.101
-340.348	-85.610	0.287	-0.089
-339.333	-43.744	-0.216	-0.109
-338.318	223.705	0.131	-0.211
-337.304	800.000	0.026	0.086
-336.289	-79.556	0.075	0.025
-335.275	118.758	0.043	-0.052
-334.260	743.217	-0.041	-0.110
-333.245	-200.000	0.004	0.376
-332.231	53.187	0.189	0.181
-331.216	153.518	-0.101	0.138
-330.202	-200.000	0.085	-0.515
-329.187	461.787	0.147	-0.327
-328.172	580.861	-0.076	-0.185
-327.158	-84.883	-0.307	0.096
-326.143	-200.000	-0.022	0.103
-325.129	-200.000	-0.005	-0.158
-324.114	68.548	-0.101	0.103
-323.099	-128.072	0.068	-0.010
-322.085	461.507	-0.104	0.231
-321.070	-200.000	-0.019	0.230
-320.056	-93.713	0.226	0.062
-319.041	-147.547	0.441	0.037
-318.026	46.364	0.272	-0.252
-317.012	-165.699	0.138	-0.006
-315.997	-177.223	0.206	0.005
-314.983	-200.000	-0.060	0.426
-313.968	-142.520	-0.217	0.021
-312.953	142.773	0.104	0.138
-311.939	-151.431	-0.450	-0.033
-310.924	6.103	0.375	-0.277
-309.910	-167.161	-0.204	-0.008
-308.895	32.955	-0.252	0.218
-307.880	-114.303	-0.227	0.044
-306.866	38.551	0.066	0.059
-305.851	-200.000	0.012	0.070
-304.837	270.223	-0.079	-0.139
-303.822	-43.734	0.172	0.086
-302.807	800.000	0.014	0.038
-301.793	532.318	0.057	-0.135
-300.778	-77.368	0.199	0.069
-299.764	266.260	-0.090	0.156
-298.749	508.783	0.092	-0.213
-297.735	-200.000	0.004	-0.244
-296.720	-200.000	0.014	0.064
-295.705	-200.000	0.007	-0.089
-294.691	-77.028	-0.204	-0.071
-293.676	-104.955	-0.178	-0.041
-292.662	277.640	-0.135	0.240
-291.647	-158.834	0.095	0.005
-290.632	102.378	-0.087	-0.101
-289.618	-41.948	-0.090	-0.046
-288.603	-60.103	-0.152	0.064
-287.589	63.697	0.219	0.219
-286.574	150.773	-0.136	0.184
-285.559	-80.344	-0.288	-0.096
-284.545	-79.341	-0.113	0.038
-283.530	139.049	0.138	-0.180
-282.516	-56.817	0.539	0.238
-281.501	495.586	0.121	0.277
-280.486	-17.599	0.127	0.079
-279.472	551.362	0.010	-0.024
-278.457	365.491	-0.110	-0.221
-277.443	-60.381	0.362	-0.153
-276.428	428.176	-0.100	0.215
-275.413	43.038	0.271	0.246
-274.399	-109.688	-0.231	-0.048
-273.384	-120.714	-0.263	-0.044
-272.370	66.417	0.209	-0.211
-271.355	360.929	-0.156	-0.312
-270.340	150.490	0.109	-0.148
-269.326	-155.343	0.112	-0.007
-268.311	71.377	0.213	-0.220
-267.297	800.000	-0.074	0.235
-266.282	123.663	-0.103	0.129
-265.267	181.059	-0.054	0.079
-264.253	-140.988	-0.031	-0.003
-263.238	180.960	0.246	0.360
-262.224	101.366	-0.097	0.113
-261.209	-58.743	0.036	-0.015
-260.195	-89.789	-0.310	0.090
-259.180	-82.226	0.116	0.037
-258.165	-200.000	-0.007	0.190
-257.151	-31.686	0.237	-0.132
-256.136	-194.795	0.193	-0.001
-255.122	-137.642	0.194	-0.022
-254.107	555.612	-0.126	0.303
-253.092	800.000	0.085	0.264
-252.078	-44.172	0.053	0.026
-251.063	-200.000	0.001	0.032
-250.049	-138.057	-0.233	-0.026
-249.034	-86.239	-0.486	0.149
-248.019	485.292	0.097	0.219
-247.005	470.485	-0.078	0.174
-245.990	-200.000	0.011	-0.111
-244.976	-151.364	-0.244	-0.018
-243.961	-200.000	-0.046	-0.256
-242.946	-61.916	-0.221	0.092
-241.932	2.839	0.437	-0.315
-240.917	99.832	0.053	-0.061
-239.903	-200.000	-0.013	-0.169
-238.888	184.554	0.118	-0.174
-237.873	-200.000	-0.034	-0.422
-236.859	-170.371	0.244	0.009
-235.844	-5.876	0.177	-0.120
-234.830	800.000	-0.062	-0.227
-233.815	327.397	0.089	-0.169
-232.800	-200.000	0.001	0.105
-231.786	73.087	-0.097	-0.100
-230.771	-29.363	-0.118	0.067
-229.757	190.982	-0.241	0.360
-228.742	800.000	-0.043	-0.124
-227.727	-85.144	-0.103	-0.032
-226.713	-200.000	-0.012	0.075
-225.698	95.766	0.200	-0.227
-224.684	800.000	0.026	-0.079
-223.669	83.911	-0.144	0.156
-222.655	-124.326	-0.251	0.039
-221.640	-80.724	0.410	0.136
-220.625	299.935	0.079	-0.144
-219.611	175.145	-0.076	-0.109
-218.596	-120.873	0.048	-0.008
-217.582	114.740	-0.117	-0.142
-216.567	-200.000	-0.053	0.247
-215.552	-90.477	-0.238	-0.069
-214.538	83.726	-0.236	-0.256
-213.523	800.000	-0.078	-0.261
-212.509	-200.000	-0.005	0.044
-211.494	800.000	0.107	0.425
-210.479	49.000	0.066	-0.061
-209.465	785.010	0.081	0.219
-208.450	-136.047	0.265	0.031
-207.436	107.594	0.169	0.200
-206.421	800.000	-0.066	-0.248
-205.406	118.614	-0.113	0.139
-204.392	-6.273	-0.217	0.147
-203.377	282.810	-0.036	-0.063
-202.363	326.867	0.122	0.231
-201.348	800.000	0.136	-0.390
-200.333	2.844	0.134	-0.096
-199.319	54.348	-0.205	0.196
-198.304	-200.000	0.004	-0.039
-197.290	229.450	0.131	0.212
-196.275	533.902	0.016	0.037
-195.260	108.425	0.027	-0.032
-194.246	48.724	0.189	0.176
-193.231	142.147	-0.041	0.054
-192.217	-200.000	0.004	0.231
-191.202	-112.311	-0.364	-0.072
-190.187	-200.000	0.011	0.118
-189.173	800.000	-0.023	0.080
-188.158	-63.717	0.166	0.068
-187.144	-115.818	0.194	-0.036
-186.129	113.053	-0.128	0.155
-185.114	-96.333	0.301	0.079
-184.100	83.791	0.196	-0.212
-183.085	-92.100	0.400	-0.112
-182.071	-52.878	-0.095	-0.044
-181.056	-115.006	0.140	-0.026
-180.042	-200.000	0.032	0.197
-179.027	13.246	-0.196	-0.151
-178.012	800.000	-0.066	-0.266
-176.998	-34.826	0.190	0.103
-175.983	800.000	-0.062	-0.202
-174.969	195.080	-0.172	-0.259
-173.954	4.575	-0.119	0.086
-172.939	-94.401	-0.244	-0.066
-171.925	112.425	-0.095	-0.114
-170.910	10.141	-0.063	0.048
-169.896	800.000	-0.060	0.188
-168.881	800.000	0.056	0.164
-167.866	413.537	-0.131	-0.276
-166.852	-28.610	0.281	0.161
-165.837	190.169	0.060	-0.090
-164.823	213.238	0.052	-0.081
-163.808	-200.000	0.030	0.245
-162.793	19.092	-0.169	0.134
-161.779	-84.123	-0.373	-0.117
-160.764	-85.522	0.240	-0.074
-159.750	-171.164	-0.086	0.003
-158.735	212.363	0.256	0.400
-157.720	200.436	0.062	0.094
-156.706	83.252	0.336	0.363
-155.691	334.378	0.123	-0.237
-154.677	-189.603	0.206	0.002
-153.662	-200.000	0.031	-0.182
-152.647	-61.102	0.305	-0.128
-151.633	124.894	-0.139	0.173
-150.618	800.000	-0.090	-0.300
-149.604	-200.000	-0.007	0.090
-148.589	157.033	-0.103	0.141
-147.574	-142.618	0.143	-0.014
-146.560	-87.382	-0.339	-0.102
-145.545	-71.559	-0.370	0.137
-144.531	-5.035	0.189	0.129
-143.516	-40.409	0.377	0.194
-142.502	320.688	-0.225	0.423
-141.487	-116.999	0.234	0.042
-140.472	-32.793	-0.154	0.085
-139.458	800.000	0.098	-0.352
-138.443	-34.151	-0.155	-0.084
-137.429	-200.000	-0.089	0.508
-136.414	173.386	-0.093	-0.133
-135.399	-38.186	0.308	0.162
-134.385	21.823	0.218	0.176
-133.370	-132.945	0.404	-0.051
-132.356	-200.000	0.026	-0.286
-131.341	-88.305	0.060	0.018
-130.326	-189.879	-0.224	0.003
-129.312	-138.433	0.290	0.032
-128.297	108.868	-0.104	-0.123
-127.283	800.000	0.110	-0.310
-126.268	-89.617	0.355	0.103
-125.253	800.000	0.087	0.254
-124.239	35.882	0.107	0.094
-123.224	-200.000	-0.023	0.266
-122.210	3.724	-0.167	0.121
