DTS Sentinel unit serial number:	SN413079Multiplexer serial number:	ORYXHardware model number:	OX4-SRSoftware version number:	ORYX F/W v4.00 Oryx Data Collector v3.7.2.0data status	okinstallation	princeton_trtdifferential loss correction	single-endedforward channel	channel 4reverse channel	N/Adate	2019/09/19time	01:17:35forward acquisition time	60.00reverse acquisition time	0.00gamma	496.2192k internal	0.2339k external	0.2339temperature offset calibration	1.0028default loss term (dB/km)	0.3790temperature slope calibration	1.0000multiplexer offset coefficient	1.0000multiplexer slope coefficient	1.0000fibre end	0.00T internal ref (°C)	21.75T ext. ref 1 (°C)	0.71T ext. ref 2 (°C)	15.19length (m)	temperature (°C)	Stokes	anti-Stokes-747.200	55.448	0.113	0.110
-746.185	118.835	0.054	0.067
-745.171	-200.000	0.023	0.113
-744.156	605.805	0.006	0.014
-743.142	-124.229	0.238	0.037
-742.127	-149.404	-0.175	0.014
-741.112	-147.902	-0.204	0.017
-740.098	-29.037	-0.193	0.111
-739.083	224.697	-0.048	0.078
-738.069	126.299	-0.175	-0.222
-737.054	-25.686	0.316	-0.187
-736.039	261.693	-0.039	-0.068
-735.025	472.101	0.047	-0.106
-734.010	225.271	0.165	-0.268
-732.996	-88.523	-0.254	0.076
-731.981	225.281	-0.083	0.134
-730.966	49.696	-0.115	0.108
-729.952	-59.748	-0.348	-0.149
-728.937	-99.063	-0.056	0.014
-727.923	-51.364	0.137	-0.064
-726.908	800.000	0.034	0.145
-725.894	-83.645	-0.247	0.079
-724.879	84.073	0.061	-0.067
-723.864	414.565	0.014	-0.030
-722.850	509.563	0.086	-0.200
-721.835	-92.929	-0.273	-0.076
-720.821	-141.677	-0.514	-0.052
-719.806	-63.302	0.069	0.028
-718.791	2.893	0.251	-0.182
-717.777	4.867	-0.235	0.173
-716.762	-136.213	0.302	0.035
-715.748	537.389	0.149	-0.355
-714.733	153.869	0.131	-0.180
-713.718	76.598	-0.271	0.288
-712.704	139.728	0.030	-0.040
-711.689	489.335	-0.103	-0.235
-710.675	7.722	-0.198	-0.149
-709.660	93.020	-0.135	0.153
-708.645	30.198	-0.118	-0.101
-707.631	-157.934	-0.078	0.005
-706.616	-131.194	-0.287	-0.038
-705.602	-200.000	0.053	-0.711
-704.587	800.000	-0.047	-0.152
-703.572	55.133	-0.161	0.156
-702.558	88.500	0.123	-0.136
-701.543	10.271	0.132	0.100
-700.529	93.694	0.137	-0.155
-699.514	-98.649	-0.424	0.108
-698.499	-200.000	-0.031	0.216
-697.485	314.925	0.113	-0.213
-696.470	-130.308	-0.271	-0.037
-695.456	-33.758	-0.248	-0.137
-694.441	-200.000	0.017	0.095
-693.426	71.932	0.135	0.141
-692.412	97.019	-0.300	-0.345
-691.397	800.000	-0.038	-0.106
-690.383	-155.105	0.140	-0.009
-689.368	-73.373	-0.355	-0.130
-688.354	-1.664	-0.180	-0.127
-687.339	-160.345	-0.292	0.016
-686.324	358.731	-0.065	0.130
-685.310	-129.729	0.167	0.023
-684.295	-17.534	-0.189	0.119
-683.281	-200.000	0.012	0.209
-682.266	-200.000	-0.001	-0.080
-681.251	-130.153	0.165	-0.023
-680.237	-84.486	-0.091	-0.029
-679.222	-120.932	0.063	0.011
-678.208	-83.031	-0.310	0.100
-677.193	475.806	0.033	-0.076
-676.178	-8.164	-0.080	-0.054
-675.164	-172.947	-0.105	-0.003
-674.149	616.792	-0.013	-0.033
-673.135	-150.052	-0.131	-0.010
-672.120	96.506	-0.218	-0.249
-671.105	-200.000	-0.046	-0.259
-670.091	115.189	0.194	-0.237
-669.076	800.000	-0.059	-0.235
-668.062	176.133	-0.153	-0.223
-667.047	-159.455	-0.325	0.018
-666.032	-200.000	0.021	0.103
-665.018	307.425	-0.119	-0.222
-664.003	800.000	0.073	0.286
-662.989	800.000	0.049	-0.154
-661.974	-200.000	0.010	-0.073
-660.959	143.915	0.084	-0.112
-659.945	-24.122	-0.098	-0.059
-658.930	-114.174	0.375	0.072
-657.916	-86.066	0.416	0.128
-656.901	-84.590	-0.192	-0.060
-655.886	243.942	0.041	-0.069
-654.872	-200.000	0.046	0.248
-653.857	156.035	0.209	-0.288
-652.843	-84.543	-0.328	-0.103
-651.828	-45.499	0.199	-0.098
-650.814	77.523	0.267	-0.284
-649.799	122.271	-0.120	-0.149
-648.784	-14.152	0.230	-0.148
-647.770	-70.749	-0.248	0.093
-646.755	236.616	-0.237	-0.391
-645.741	76.746	-0.127	-0.135
-644.726	-36.422	-0.161	0.087
-643.711	-109.665	0.117	-0.025
-642.697	45.358	-0.188	-0.173
-641.682	179.064	-0.324	-0.473
-640.668	-166.737	-0.071	-0.003
-639.653	139.972	-0.063	-0.083
-638.638	231.067	0.127	-0.207
-637.624	170.854	0.158	-0.226
-636.609	800.000	0.024	-0.070
-635.595	-131.163	-0.325	0.043
-634.580	0.391	0.156	0.111
-633.565	-50.947	0.272	0.128
-632.551	-200.000	-0.038	-0.430
-631.536	-200.000	-0.021	-0.134
-630.522	390.782	0.175	0.363
-629.507	-71.300	-0.297	-0.111
-628.492	-3.840	0.153	-0.106
-627.478	-87.130	0.117	-0.036
-626.463	800.000	0.017	0.066
-625.449	-158.115	-0.174	-0.010
-624.434	-30.769	-0.264	0.149
-623.419	-200.000	-0.005	-0.280
-622.405	-179.918	-0.383	0.008
-621.390	34.375	0.037	0.032
-620.376	800.000	-0.084	0.263
-619.361	-36.571	-0.024	-0.013
-618.346	-159.001	0.230	-0.013
-617.332	-200.000	0.032	-0.206
-616.317	-12.707	0.284	0.185
-615.303	-200.000	0.012	-0.229
-614.288	-100.674	0.309	-0.076
-613.273	-200.000	0.013	0.108
-612.259	151.920	0.210	0.286
-611.244	183.577	-0.085	-0.125
-610.230	-54.854	0.105	0.047
-609.215	800.000	0.138	0.397
-608.201	-200.000	-0.004	-0.411
-607.186	800.000	0.048	0.146
-606.171	-200.000	0.062	-0.317
-605.157	218.683	-0.128	0.204
-604.142	773.988	-0.101	-0.276
-603.128	-187.762	0.309	0.004
-602.113	251.657	0.091	0.155
-601.098	-200.000	0.061	0.271
-600.084	76.833	0.158	-0.167
-599.069	-107.545	-0.385	-0.084
-598.055	96.440	0.072	-0.082
-597.040	-70.250	-0.241	-0.091
-596.025	39.867	-0.142	0.127
-595.011	146.290	-0.287	-0.384
-593.996	175.576	0.030	-0.044
-592.982	-159.171	-0.175	0.010
-591.967	-120.576	-0.192	-0.032
-590.952	-139.214	-0.420	-0.045
-589.938	800.000	0.057	0.159
-588.923	-87.156	0.029	-0.009
-587.909	-112.525	-0.019	0.004
-586.894	-144.715	0.350	-0.032
-585.879	-120.815	0.194	0.033
-584.865	131.320	-0.076	0.097
-583.850	800.000	-0.093	0.258
-582.836	-178.664	0.296	-0.007
-581.821	-15.108	-0.172	-0.110
-580.806	491.460	0.111	-0.254
-579.792	235.276	0.119	-0.195
-578.777	800.000	0.092	-0.395
-577.763	-190.196	0.281	-0.003
-576.748	213.387	0.175	-0.275
-575.733	6.699	-0.124	-0.092
-574.719	487.056	-0.144	-0.328
-573.704	-102.585	-0.510	-0.121
-572.690	-19.354	0.138	-0.085
-571.675	800.000	0.049	0.155
-570.661	-42.880	0.186	-0.094
-569.646	-200.000	0.000	-0.190
-568.631	188.049	0.157	0.233
-567.617	253.529	0.372	0.632
-566.602	-74.420	-0.087	0.031
-565.588	-19.207	0.020	0.013
-564.573	-79.718	-0.175	-0.059
-563.558	30.172	0.181	-0.154
-562.544	800.000	-0.045	-0.161
-561.529	686.788	-0.053	-0.137
-560.515	-200.000	-0.004	-0.185
-559.500	800.000	-0.005	-0.019
-558.485	183.032	-0.132	0.194
-557.471	-200.000	0.008	0.264
-556.456	25.115	0.104	0.086
-555.442	800.000	0.009	0.032
-554.427	-178.678	-0.167	-0.004
-553.412	204.350	0.198	0.305
-552.398	-200.000	0.045	0.322
-551.383	-132.553	-0.268	0.034
-550.369	-127.423	0.192	0.028
-549.354	800.000	-0.041	-0.117
-548.339	-6.177	-0.149	0.101
-547.325	-200.000	-0.008	0.158
-546.310	197.413	-0.081	0.122
-545.296	-200.000	0.010	-0.285
-544.281	14.340	-0.090	0.070
-543.266	-164.194	-0.129	-0.006
-542.252	103.634	0.235	-0.275
-541.237	223.540	-0.176	0.282
-540.223	599.532	-0.077	-0.189
-539.208	-200.000	-0.039	0.176
-538.193	-20.177	0.122	-0.075
-537.179	72.528	-0.062	-0.064
-536.164	-18.428	-0.261	-0.162
-535.150	-109.963	0.385	0.080
-534.135	-160.037	-0.225	0.012
-533.121	16.879	-0.073	0.057
-532.106	-33.939	0.197	0.108
-531.091	341.999	-0.190	0.370
-530.077	350.734	-0.027	-0.053
-529.062	199.826	-0.258	-0.394
-528.048	-53.797	-0.187	-0.085
-527.033	166.680	0.184	-0.259
-526.018	800.000	0.022	-0.065
-525.004	234.363	0.069	0.113
-523.989	800.000	-0.035	0.096
-522.975	-39.991	-0.233	-0.121
-521.960	-4.596	-0.126	-0.086
-520.945	-200.000	0.024	0.106
-519.931	136.271	-0.169	0.219
-518.916	-41.558	-0.210	-0.107
-517.902	-41.073	0.188	0.097
-516.887	-27.885	0.073	-0.042
-515.872	16.814	0.346	0.272
-514.858	30.530	-0.043	-0.036
-513.843	-89.960	-0.126	-0.037
-512.829	-11.501	-0.079	-0.052
-511.814	800.000	0.056	0.211
-510.799	436.212	-0.144	-0.311
-509.785	113.820	-0.104	-0.126
-508.770	-76.217	-0.508	-0.178
-507.756	430.514	0.033	0.072
-506.741	255.131	-0.145	-0.247
-505.726	162.289	0.190	0.265
-504.712	-82.169	-0.068	0.022
-503.697	369.308	0.227	-0.457
-502.683	80.200	-0.133	-0.142
-501.668	444.000	-0.140	-0.305
-500.653	-200.000	0.095	0.495
-499.639	-113.907	0.235	0.045
-498.624	-123.561	-0.156	-0.025
-497.610	-200.000	-0.001	0.041
-496.595	-200.000	-0.044	-0.348
-495.581	-140.667	-0.173	0.018
-494.566	31.671	0.325	-0.278
-493.551	-82.980	0.348	-0.111
-492.537	-155.242	-0.231	-0.015
-491.522	-32.509	0.091	-0.050
-490.508	-90.386	0.318	0.091
-489.493	132.005	-0.117	0.150
-488.478	-200.000	-0.015	-0.125
-487.464	26.850	0.079	-0.066
-486.449	-200.000	-0.012	0.125
-485.435	-200.000	-0.052	-0.287
-484.420	-140.451	0.189	-0.020
-483.405	800.000	0.060	0.198
-482.391	-16.114	0.369	0.233
-481.376	-200.000	-0.035	0.251
-480.362	476.650	-0.085	-0.191
-479.347	-55.763	-0.085	-0.038
-478.332	-3.372	-0.125	-0.087
-477.318	-19.486	0.173	-0.106
-476.303	-85.410	0.144	-0.045
-475.289	-141.884	-0.493	0.049
-474.274	631.656	-0.063	0.158
-473.259	800.000	0.041	0.119
-472.245	361.796	-0.111	0.221
-471.230	70.323	0.106	-0.109
-470.216	-200.000	0.037	0.255
-469.201	-200.000	-0.032	-0.297
-468.186	-38.881	0.188	0.098
-467.172	800.000	-0.076	-0.277
-466.157	147.996	-0.162	0.216
-465.143	-119.003	0.237	-0.041
-464.128	-200.000	-0.008	-0.076
-463.113	207.794	0.145	0.225
-462.099	-200.000	0.042	0.274
-461.084	-61.280	0.156	0.065
-460.070	-78.712	-0.122	0.041
-459.055	-182.378	-0.070	-0.001
-458.040	637.885	-0.079	0.198
-457.026	515.366	-0.069	0.159
-456.011	-42.451	0.199	-0.100
-454.997	-200.000	-0.006	-0.054
-453.982	48.237	-0.128	-0.119
-452.968	-194.374	-0.136	0.001
-451.953	-23.867	0.180	-0.107
-450.938	-200.000	0.239	-0.001
-449.924	-200.000	-0.006	0.178
-448.909	96.971	-0.298	0.339
-447.895	582.959	-0.063	-0.153
-446.880	102.981	-0.074	0.085
-445.865	-82.001	0.148	0.048
-444.851	108.616	-0.168	-0.199
-443.836	-81.040	-0.225	0.074
-442.822	-110.577	0.239	0.049
-441.807	128.011	-0.166	0.209
-440.792	-50.630	-0.284	0.133
-439.778	600.475	0.170	-0.418
-438.763	-200.000	0.025	-0.132
-437.749	499.724	0.053	-0.121
-436.734	-35.052	-0.364	0.197
-435.719	-84.431	-0.371	0.116
-434.705	800.000	-0.029	-0.089
-433.690	-11.345	-0.127	-0.083
-432.676	-52.037	-0.305	-0.140
-431.661	-105.804	-0.324	-0.073
-430.646	356.778	0.064	0.125
-429.632	289.769	0.155	-0.278
-428.617	-52.636	-0.173	0.079
-427.603	-200.000	0.091	0.495
-426.588	-150.128	0.121	-0.009
-425.573	60.195	0.229	-0.224
-424.559	-200.000	-0.004	0.118
-423.544	398.913	0.049	-0.102
-422.530	239.152	0.254	-0.418
-421.515	96.132	-0.266	0.301
-420.500	-200.000	-0.047	0.284
-419.486	264.271	-0.123	-0.212
-418.471	179.984	0.171	-0.248
-417.457	0.104	0.066	0.046
-416.442	8.726	-0.545	-0.407
-415.428	498.078	-0.063	0.144
-414.413	51.139	-0.194	-0.182
-413.398	23.273	-0.314	0.255
-412.384	465.734	0.114	0.252
-411.369	23.407	0.087	-0.071
-410.355	185.274	0.146	-0.214
-409.340	154.964	-0.212	0.289
-408.325	800.000	-0.013	0.037
-407.311	-200.000	0.030	-0.303
-406.296	125.332	0.096	-0.120
-405.282	-200.000	0.058	-0.303
-404.267	-200.000	-0.005	0.115
-403.252	-100.400	-0.209	0.051
-402.238	-200.000	0.028	0.243
-401.223	-200.000	-0.006	0.134
-400.209	-146.371	-0.224	-0.019
-399.194	213.757	-0.043	0.067
-398.179	800.000	0.111	0.355
-397.165	461.646	-0.120	0.265
-396.150	143.502	-0.154	0.202
-395.136	184.844	0.232	0.341
-394.121	800.000	0.043	0.133
-393.106	-105.462	-0.216	0.048
-392.092	-5.558	-0.290	0.196
-391.077	-157.464	-0.094	-0.006
-390.063	610.690	0.049	0.121
-389.048	109.243	-0.209	0.247
-388.033	485.351	0.166	-0.374
-387.019	-14.901	0.152	-0.097
-386.004	535.324	0.059	0.138
-384.990	-31.158	0.134	-0.075
-383.975	-60.511	-0.194	-0.081
-382.960	-48.647	-0.018	0.009
-381.946	-200.000	0.021	-0.153
-380.931	800.000	0.094	-0.381
-379.917	-38.637	0.197	-0.103
-378.902	-1.028	0.265	-0.185
-377.888	265.699	-0.126	0.218
-376.873	-66.149	0.317	0.125
-375.858	-200.000	0.037	0.173
-374.844	-39.427	-0.282	-0.146
-373.829	800.000	0.157	-0.520
-372.815	195.419	0.029	-0.044
-371.800	800.000	0.093	-0.274
-370.785	-169.925	0.436	0.015
-369.771	33.635	-0.192	-0.165
-368.756	469.564	0.206	0.458
-367.742	165.466	0.252	0.351
-366.727	-17.045	-0.196	-0.122
-365.712	800.000	-0.094	0.338
-364.698	213.185	-0.124	-0.194
-363.683	104.832	0.231	-0.269
-362.669	-131.322	0.168	0.022
-361.654	800.000	-0.032	0.125
-360.639	-11.983	0.136	0.088
-359.625	-179.252	-0.448	0.010
-358.610	84.974	0.078	0.084
-357.596	-28.293	0.213	0.121
-356.581	-200.000	-0.087	-0.388
-355.566	6.923	-0.065	0.048
-354.552	-123.479	-0.232	-0.036
-353.537	-200.000	0.013	-0.328
-352.523	178.858	0.034	-0.050
-351.508	182.839	-0.140	-0.205
-350.493	5.914	0.155	-0.114
-349.479	-15.173	0.108	-0.068
-348.464	-88.776	0.161	0.047
-347.450	-48.121	0.174	0.083
-346.435	22.035	-0.038	-0.031
-345.420	353.604	0.065	-0.128
-344.406	-114.112	0.241	-0.046
-343.391	800.000	0.056	0.192
-342.377	25.342	-0.104	-0.086
-341.362	-131.030	-0.315	-0.041
-340.348	-51.826	-0.149	-0.069
-339.333	-200.000	-0.023	-0.254
-338.318	-200.000	0.022	-0.242
-337.304	280.008	0.126	0.222
-336.289	296.791	-0.080	-0.144
-335.275	479.242	0.120	-0.269
-334.260	2.076	-0.194	0.138
-333.245	10.393	0.146	0.109
-332.231	152.451	-0.120	-0.162
-331.216	24.349	-0.101	-0.082
-330.202	297.011	-0.120	0.218
-329.187	227.219	-0.102	0.163
-328.172	93.763	0.122	0.137
-327.158	-0.428	-0.199	-0.139
-326.143	-200.000	-0.005	0.087
-325.129	-43.359	0.200	-0.100
-324.114	-89.058	-0.164	0.048
-323.099	-62.251	0.092	-0.038
-322.085	-147.045	-0.293	-0.025
-321.070	-84.467	0.265	0.082
-320.056	25.921	0.325	-0.268
-319.041	-10.152	0.111	0.073
-318.026	-118.557	-0.196	0.034
-317.012	-200.000	-0.037	0.226
-315.997	-57.955	-0.250	0.108
-314.983	-80.323	0.444	0.146
-313.968	-41.224	0.113	-0.057
-312.953	-200.000	0.011	0.356
-311.939	-13.505	-0.143	-0.091
-310.924	800.000	0.080	0.296
-309.910	-62.270	0.376	-0.154
-308.895	-56.668	0.171	-0.075
-307.880	-10.560	-0.100	-0.065
-306.866	800.000	0.047	0.179
-305.851	122.759	0.104	-0.129
-304.837	-178.963	-0.182	0.004
-303.822	-63.176	0.244	0.099
-302.807	-2.697	-0.171	0.118
-301.793	-74.424	-0.136	-0.048
-300.778	-148.826	0.181	0.014
-299.764	295.326	-0.253	0.456
-298.749	800.000	0.054	0.169
-297.735	-137.387	0.186	-0.021
-296.720	112.252	-0.267	0.318
-295.705	-40.111	-0.198	0.102
-294.691	-200.000	0.006	-0.143
-293.676	156.260	0.148	-0.201
-292.662	56.512	-0.128	0.123
-291.647	280.269	0.020	-0.034
-290.632	-200.000	-0.067	0.530
-289.618	-52.147	0.254	-0.116
-288.603	102.009	0.217	0.250
-287.589	-20.598	-0.196	-0.118
-286.574	-200.000	0.010	0.147
-285.559	-155.528	0.385	0.024
-284.545	336.862	0.019	0.036
-283.530	-200.000	-0.029	0.269
-282.516	-36.734	0.145	0.077
-281.501	-200.000	0.000	-0.102
-280.486	-87.710	0.257	0.076
-279.472	-200.000	0.029	0.138
-278.457	56.925	-0.084	0.081
-277.443	163.591	-0.032	-0.044
-276.428	204.100	0.036	-0.056
-275.413	-13.333	0.121	-0.077
-274.399	800.000	0.090	-0.287
-273.384	-103.423	-0.126	0.029
-272.370	-53.608	0.318	-0.143
-271.355	-52.629	-0.128	-0.058
-270.340	-77.567	-0.168	0.057
-269.326	800.000	0.073	0.254
-268.311	-142.297	0.191	0.019
-267.297	-200.000	-0.014	-0.100
-266.282	-200.000	0.025	0.360
-265.267	532.268	0.034	-0.080
-264.253	-92.858	0.189	0.052
-263.238	46.709	0.120	0.110
-262.224	-200.000	-0.026	0.159
-261.209	-153.972	-0.142	0.010
-260.195	43.262	0.072	-0.064
-259.180	-20.352	-0.162	-0.098
-258.165	-200.000	-0.018	0.368
-257.151	800.000	0.063	0.205
-256.136	171.243	-0.086	0.122
-255.122	-48.971	0.100	-0.047
-254.107	21.983	-0.116	-0.093
-253.092	671.337	0.031	-0.079
-252.078	67.024	0.173	0.173
-251.063	23.494	0.153	0.123
-250.049	-146.967	0.207	-0.017
-249.034	800.000	-0.089	-0.350
-248.019	800.000	-0.041	0.170
-247.005	-102.696	0.213	-0.050
-245.990	96.700	-0.180	0.203
-244.976	679.858	0.082	-0.210
-243.961	-200.000	-0.027	0.243
-242.946	-200.000	0.057	0.263
-241.932	316.952	0.059	-0.110
-240.917	208.718	0.123	-0.189
-239.903	69.263	-0.064	0.065
-238.888	-61.710	0.145	0.060
-237.873	132.209	0.162	-0.206
-236.859	800.000	0.097	0.349
-235.844	16.604	-0.041	0.032
-234.830	-111.573	0.230	0.046
-233.815	-136.065	-0.102	0.012
-232.800	11.270	-0.159	0.119
-231.786	-16.202	0.171	-0.107
-230.771	48.599	0.191	-0.176
-229.757	800.000	-0.061	0.258
-228.742	-148.576	0.170	0.014
-227.727	-200.000	-0.035	-0.223
-226.713	158.480	-0.157	0.214
-225.698	99.369	0.135	0.154
-224.684	-105.474	-0.055	0.012
-223.669	47.244	-0.306	-0.280
-222.655	-81.160	-0.084	-0.027
-221.640	102.720	-0.291	-0.335
-220.625	522.911	-0.019	0.045
-219.611	-79.522	-0.318	0.106
-218.596	-200.000	-0.021	-0.174
-217.582	-200.000	0.009	-0.068
-216.567	-200.000	0.068	0.364
-215.552	2.474	0.132	0.094
-214.538	-200.000	0.002	0.453
-213.523	114.318	-0.111	-0.132
-212.509	188.922	0.145	0.213
-211.494	800.000	0.053	-0.199
-210.479	24.031	0.207	-0.168
-209.465	-114.016	-0.212	-0.040
-208.450	800.000	-0.057	-0.167
-207.436	-58.407	-0.128	0.055
-206.421	-200.000	-0.005	0.166
-205.406	-200.000	0.041	-0.263
-204.392	-143.861	-0.093	0.009
-203.377	-106.596	-0.083	0.018
-202.363	412.667	0.022	0.046
-201.348	-200.000	0.042	0.239
-200.333	-9.984	0.095	-0.062
-199.319	-200.000	-0.043	-0.212
-198.304	336.722	-0.039	0.074
-197.290	-61.064	0.146	0.061
-196.275	18.497	-0.147	0.116
-195.260	-59.570	-0.350	-0.147
-194.246	-200.000	-0.030	-0.189
-193.231	-130.266	-0.097	0.013
-192.217	-13.550	-0.254	0.161
-191.202	-200.000	0.001	0.088
-190.187	-31.572	0.214	-0.118
-189.173	-59.976	0.176	-0.074
-188.158	773.034	-0.103	0.276
-187.144	-15.529	-0.087	-0.054
-186.129	-200.000	0.024	0.193
-185.114	-200.000	-0.030	-0.157
-184.100	-151.555	0.130	-0.009
-183.085	-200.000	-0.014	-0.117
-182.071	-200.000	-0.019	0.122
-181.056	-102.239	0.014	0.003
-180.042	143.967	-0.152	-0.199
-179.027	-105.963	0.409	-0.090
-178.012	-85.252	0.261	0.080
-176.998	-200.000	-0.003	-0.070
-175.983	800.000	-0.128	-0.426
-174.969	-122.861	0.143	0.023
-173.954	474.268	0.102	0.225
-172.939	-101.904	0.055	0.013
-171.925	420.262	0.085	-0.178
-170.910	-29.174	0.136	-0.076
-169.896	800.000	-0.023	0.070
-168.881	-176.850	0.270	0.007
-167.866	-3.345	-0.159	-0.108
-166.852	-200.000	0.040	0.273
-165.837	-200.000	0.052	-0.277
-164.823	49.427	0.291	0.269
-163.808	-200.000	0.051	0.224
-162.793	-191.797	0.159	0.002
-161.779	800.000	0.030	-0.098
-160.764	-7.421	-0.343	0.228
-159.750	-21.923	0.054	-0.032
-158.735	-200.000	-0.029	-0.127
-157.720	18.831	-0.131	0.103
-156.706	-135.745	0.348	-0.040
-155.691	704.363	-0.087	-0.224
-154.677	-67.526	-0.099	-0.038
-153.662	-181.486	-0.487	-0.009
-152.647	323.037	0.052	-0.098
-151.633	-178.887	0.354	0.008
-150.618	9.257	-0.158	-0.117
-149.604	304.201	0.087	-0.157
-148.589	800.000	-0.065	-0.230
-147.574	800.000	0.048	0.141
-146.560	142.448	0.081	0.106
-145.545	-146.124	-0.240	-0.021
-144.531	-200.000	-0.023	0.136
-143.516	236.646	-0.071	0.116
-142.502	395.494	0.151	0.308
-141.487	-145.346	-0.171	0.015
-140.472	53.819	-0.195	-0.183
-139.458	800.000	-0.029	0.110
-138.443	703.337	0.095	-0.244
-137.429	-200.000	-0.028	0.274
-136.414	-145.647	0.199	0.017
-135.399	155.272	0.062	0.084
-134.385	8.866	-0.152	-0.112
-133.370	157.992	0.135	-0.183
-132.356	-28.286	0.210	-0.119
-131.341	-160.558	-0.023	0.001
-130.326	90.398	-0.145	-0.159
-129.312	-48.583	-0.218	0.103
-128.297	68.657	0.035	-0.035
-127.283	173.194	0.080	0.113
-126.268	-19.418	0.090	0.055
-125.253	-130.324	-0.255	-0.034
-124.239	56.564	-0.160	-0.152
-123.224	431.856	-0.124	0.263
-122.210	6.286	0.338	0.245
