DTS Sentinel unit serial number:	SN413079Multiplexer serial number:	ORYXHardware model number:	OX4-SRSoftware version number:	ORYX F/W v4.00 Oryx Data Collector v3.7.2.0data status	okinstallation	princeton_trtdifferential loss correction	single-endedforward channel	channel 4reverse channel	N/Adate	2019/09/18time	10:37:35forward acquisition time	60.00reverse acquisition time	0.00gamma	496.2192k internal	0.2316k external	0.2316temperature offset calibration	0.9982default loss term (dB/km)	0.3790temperature slope calibration	1.0000multiplexer offset coefficient	1.0000multiplexer slope coefficient	1.0000fibre end	0.00T internal ref (°C)	28.61T ext. ref 1 (°C)	0.36T ext. ref 2 (°C)	25.25length (m)	temperature (°C)	Stokes	anti-Stokes-747.200	-200.000	-0.009	-0.240
-746.185	-200.000	-0.408	0.001
-745.171	40.042	-0.219	-0.199
-744.156	-36.599	-0.197	-0.107
-743.142	-12.853	0.353	-0.233
-742.127	749.307	-0.124	0.338
-741.112	800.000	-0.092	-0.328
-740.098	-98.145	-0.173	-0.045
-739.083	-112.462	-0.353	0.071
-738.069	17.719	-0.131	-0.106
-737.054	-14.745	-0.242	-0.157
-736.039	229.742	0.185	-0.306
-735.025	-168.099	0.206	0.008
-734.010	109.457	0.123	0.149
-732.996	-63.293	-0.300	-0.125
-731.981	161.599	0.165	-0.234
-730.966	108.033	-0.010	0.012
-729.952	-123.729	0.211	0.034
-728.937	-11.761	-0.157	-0.105
-727.923	800.000	-0.065	0.288
-726.908	-22.052	-0.203	-0.125
-725.894	32.843	-0.098	-0.086
-724.879	-37.481	0.302	-0.163
-723.864	9.254	0.107	0.082
-722.850	-95.689	0.402	0.109
-721.835	-36.307	-0.212	-0.116
-720.821	-200.000	-0.002	-0.139
-719.806	2.892	0.075	0.055
-718.791	-62.713	0.114	0.048
-717.777	57.655	0.174	-0.173
-716.762	157.168	-0.187	0.262
-715.748	-200.000	0.001	-0.031
-714.733	-200.000	-0.022	0.130
-713.718	-200.000	-0.031	-0.181
-712.704	-105.894	-0.161	-0.037
-711.689	-200.000	-0.003	-0.159
-710.675	800.000	-0.067	-0.238
-709.660	-20.267	0.148	0.092
-708.645	800.000	0.053	0.150
-707.631	185.050	0.356	0.534
-706.616	800.000	-0.033	-0.137
-705.602	-103.380	-0.185	0.044
-704.587	800.000	0.071	-0.267
-703.572	-106.857	-0.060	-0.014
-702.558	197.615	0.245	0.378
-701.543	-37.543	0.424	0.228
-700.529	-200.000	-0.035	0.276
-699.514	-26.499	-0.153	0.090
-698.499	-200.000	-0.043	0.337
-697.485	10.753	-0.191	-0.148
-696.470	-200.000	-0.026	0.138
-695.456	800.000	-0.027	0.103
-694.441	-136.728	0.242	-0.028
-693.426	800.000	-0.081	0.248
-692.412	-9.296	-0.142	-0.096
-691.397	-200.000	0.037	0.169
-690.383	-41.698	-0.260	0.135
-689.368	-1.159	-0.158	-0.113
-688.354	782.467	-0.043	0.120
-687.339	212.822	0.149	0.237
-686.324	74.451	-0.168	-0.178
-685.310	800.000	-0.062	0.240
-684.295	33.014	-0.132	0.116
-683.281	296.638	-0.146	0.270
-682.266	-200.000	-0.019	0.121
-681.251	-107.807	0.315	0.069
-680.237	493.576	0.183	0.423
-679.222	-48.799	0.196	0.095
-678.208	800.000	-0.018	0.060
-677.193	-72.480	-0.122	-0.046
-676.178	-161.429	0.091	-0.005
-675.164	-100.664	0.312	0.078
-674.149	578.143	0.032	-0.079
-673.135	-135.397	0.240	-0.029
-672.120	9.108	-0.159	0.121
-671.105	-58.458	0.339	0.149
-670.091	-82.025	0.251	-0.083
-669.076	800.000	-0.072	0.218
-668.062	-200.000	0.004	-0.162
-667.047	-114.479	-0.403	-0.078
-666.032	366.297	-0.072	0.147
-665.018	45.616	-0.178	-0.166
-664.003	-200.000	-0.038	-0.172
-662.989	800.000	-0.026	0.109
-661.974	-82.310	0.198	0.065
-660.959	477.465	-0.096	-0.219
-659.945	-126.360	-0.125	0.019
-658.930	708.266	0.031	0.084
-657.916	-200.000	0.040	-0.336
-656.901	94.651	-0.038	0.043
-655.886	-101.058	-0.162	0.040
-654.872	-66.096	-0.225	0.090
-653.857	-12.830	-0.418	0.275
-652.843	-200.000	-0.019	0.129
-651.828	223.724	-0.279	-0.455
-650.814	-171.388	0.064	0.002
-649.799	800.000	0.021	0.078
-648.784	264.806	0.097	-0.171
-647.770	-107.108	-0.243	-0.054
-646.755	302.855	-0.159	0.296
-645.741	-200.000	0.036	0.329
-644.726	394.935	-0.076	-0.160
-643.711	449.002	-0.041	-0.091
-642.697	-200.000	0.007	-0.140
-641.682	-200.000	0.007	0.046
-640.668	-23.375	-0.155	0.094
-639.653	-3.651	-0.181	-0.127
-638.638	800.000	-0.048	-0.163
-637.624	-200.000	0.068	-0.322
-636.609	-18.637	-0.236	-0.149
-635.595	800.000	-0.036	0.110
-634.580	105.882	-0.223	-0.266
-633.565	-200.000	0.001	0.202
-632.551	800.000	0.090	0.396
-631.536	414.458	0.114	0.245
-630.522	-82.133	0.130	-0.043
-629.507	-25.382	-0.109	0.065
-628.492	676.700	-0.215	-0.563
-627.478	239.507	-0.183	0.307
-626.463	-130.003	-0.124	0.017
-625.449	-200.000	0.001	-0.384
-624.434	-22.035	0.147	0.090
-623.419	-200.000	-0.020	0.134
-622.405	-53.998	0.212	0.097
-621.390	144.560	-0.238	-0.320
-620.376	307.442	-0.050	-0.094
-619.361	-200.000	0.006	0.083
-618.346	445.835	-0.093	-0.205
-617.332	-200.000	0.023	-0.389
-616.317	-110.720	-0.143	0.030
-615.303	-200.000	0.026	0.121
-614.288	149.399	-0.127	0.174
-613.273	-143.808	-0.385	-0.037
-612.259	292.734	0.023	-0.042
-611.244	156.009	-0.091	0.127
-610.230	-200.000	-0.041	-0.193
-609.215	118.764	-0.071	-0.088
-608.201	-200.000	-0.006	-0.150
-607.186	-71.949	0.380	0.142
-606.171	-200.000	0.008	0.121
-605.157	-100.534	-0.127	-0.032
-604.142	-154.399	0.201	0.014
-603.128	-200.000	-0.003	-0.304
-602.113	641.823	0.035	0.090
-601.098	-200.000	-0.005	-0.264
-600.084	-195.375	0.248	0.002
-599.069	21.600	-0.319	-0.262
-598.055	113.547	0.070	0.086
-597.040	25.761	0.121	0.102
-596.025	-157.032	-0.102	0.006
-595.011	0.367	-0.175	0.126
-593.996	46.488	0.062	0.058
-592.982	-200.000	0.047	-0.247
-591.967	94.009	-0.211	-0.241
-590.952	356.830	0.077	0.155
-589.938	284.025	0.218	0.395
-588.923	284.583	0.106	0.192
-587.909	-121.082	0.308	0.052
-586.894	49.533	0.047	-0.044
-585.879	-17.671	-0.228	-0.144
-584.865	125.291	0.227	0.288
-583.850	-200.000	-0.026	-0.147
-582.836	-200.000	0.005	-0.134
-581.821	-200.000	0.048	-0.251
-580.806	227.503	-0.150	-0.246
-579.792	-57.039	0.100	-0.045
-578.777	-137.164	0.137	0.016
-577.763	-200.000	0.016	-0.126
-576.748	-27.467	0.182	-0.106
-575.733	-200.000	-0.055	-0.244
-574.719	-42.518	-0.189	-0.097
-573.704	404.188	-0.082	0.174
-572.690	183.431	-0.117	-0.174
-571.675	800.000	-0.070	0.228
-570.661	-131.799	0.068	-0.009
-569.646	-200.000	0.045	-0.226
-568.631	-190.944	0.448	0.005
-567.617	800.000	-0.048	0.185
-566.602	383.764	0.206	0.426
-565.588	-48.122	-0.211	0.103
-564.573	-14.586	0.185	0.120
-563.558	-200.000	-0.011	-0.088
-562.544	-63.487	0.161	-0.067
-561.529	292.785	-0.078	-0.144
-560.515	-61.057	0.102	-0.043
-559.500	9.695	0.271	0.206
-558.485	-200.000	-0.026	0.227
-557.471	91.256	0.143	0.161
-556.456	60.642	-0.056	-0.056
-555.442	-122.792	-0.113	-0.018
-554.427	-75.940	0.022	-0.008
-553.412	-11.203	-0.147	-0.097
-552.398	-99.879	0.270	0.068
-551.383	148.293	0.268	-0.364
-550.369	-24.171	-0.061	0.037
-549.354	174.902	0.186	0.271
-548.339	-7.112	0.240	0.164
-547.325	800.000	-0.049	0.195
-546.310	53.316	-0.103	-0.099
-545.296	-2.683	0.220	0.154
-544.281	221.135	-0.108	-0.174
-543.266	-158.930	0.134	0.008
-542.252	-187.671	-0.244	0.003
-541.237	213.227	0.101	-0.160
-540.223	800.000	0.110	0.377
-539.208	-130.380	-0.387	0.053
-538.193	-200.000	-0.051	0.457
-537.179	586.622	-0.052	-0.129
-536.164	-200.000	0.037	-0.190
-535.150	-200.000	-0.045	-0.235
-534.135	800.000	-0.111	0.422
-533.121	-169.491	0.155	0.006
-532.106	641.290	-0.046	0.117
-531.091	-200.000	0.014	-0.112
-530.077	-98.730	-0.144	0.037
-529.062	18.557	0.242	0.195
-528.048	-40.503	0.245	0.128
-527.033	224.316	0.065	0.106
-526.018	53.092	0.029	-0.027
-525.004	731.569	-0.064	0.172
-523.989	47.685	-0.198	0.185
-522.975	-48.978	0.137	0.066
-521.960	730.487	0.074	-0.200
-520.945	73.876	0.060	0.063
-519.931	-200.000	-0.014	0.176
-518.916	1.721	-0.280	-0.203
-517.902	-94.806	0.133	-0.036
-516.887	-200.000	0.001	-0.226
-515.872	-112.210	-0.139	-0.028
-514.858	168.364	0.071	-0.101
-513.843	-145.345	0.142	0.013
-512.829	-200.000	0.010	0.150
-511.814	-18.405	-0.354	0.222
-510.799	-127.291	-0.159	0.023
-509.785	-185.677	-0.295	-0.004
-508.770	224.496	-0.229	-0.372
-507.756	-200.000	0.042	0.253
-506.741	-166.507	-0.118	0.005
-505.726	-38.792	-0.185	0.098
-504.712	50.006	-0.127	0.121
-503.697	-0.401	0.256	-0.183
-502.683	-200.000	-0.013	-0.129
-501.668	98.217	0.106	-0.123
-500.653	15.361	0.205	-0.162
-499.639	-200.000	-0.008	0.037
-498.624	-115.033	-0.154	-0.029
-497.610	-128.011	0.312	0.045
-496.595	-200.000	-0.079	0.398
-495.581	146.102	-0.053	0.072
-494.566	332.501	-0.101	0.196
-493.551	370.747	0.108	0.220
-492.537	-78.659	-0.322	-0.111
-491.522	790.671	-0.162	-0.448
-490.508	-16.939	-0.110	-0.070
-489.493	-13.584	0.170	0.111
-488.478	58.478	-0.147	0.144
-487.464	-200.000	-0.026	-0.248
-486.449	160.073	-0.197	0.275
-485.435	-93.037	0.151	0.042
-484.420	188.065	0.035	-0.052
-483.405	103.559	-0.262	0.308
-482.391	-4.724	-0.173	-0.120
-481.376	-200.000	-0.039	0.212
-480.362	28.694	-0.069	-0.059
-479.347	795.499	-0.082	0.226
-478.332	303.026	-0.030	-0.055
-477.318	29.679	0.062	-0.053
-476.303	-200.000	0.005	0.064
-475.289	-114.862	0.294	0.056
-474.274	-200.000	0.062	-0.324
-473.259	-22.788	-0.263	-0.159
-472.245	800.000	0.086	-0.239
-471.230	-73.604	-0.267	0.098
-470.216	-106.237	0.153	-0.034
-469.201	-160.679	-0.130	0.007
-468.186	-101.408	-0.334	-0.082
-467.172	-200.000	-0.036	-0.162
-466.157	-142.037	-0.182	-0.018
-465.143	379.791	0.066	0.135
-464.128	-131.619	0.290	0.038
-463.113	-34.966	0.355	-0.194
-462.099	122.752	0.086	-0.108
-461.084	-51.338	0.257	-0.120
-460.070	-160.703	-0.400	0.021
-459.055	-110.238	0.087	0.018
-458.040	-122.333	0.093	-0.015
-457.026	30.098	-0.206	-0.176
-456.011	-110.000	0.082	0.017
-454.997	24.019	0.028	-0.023
-453.982	-57.904	-0.270	-0.118
-452.968	-200.000	-0.034	-0.331
-451.953	160.346	0.257	-0.359
-450.938	-200.000	-0.004	-0.284
-449.924	-26.826	0.243	-0.142
-448.909	100.198	0.023	-0.027
-447.895	800.000	-0.124	-0.349
-446.880	-101.251	0.098	0.024
-445.865	107.888	-0.145	-0.173
-444.851	-200.000	-0.010	-0.058
-443.836	110.942	-0.127	0.153
-442.822	-200.000	-0.031	0.333
-441.807	800.000	-0.048	-0.186
-440.792	-200.000	-0.017	-0.161
-439.778	-100.245	0.379	-0.094
-438.763	54.936	0.077	-0.075
-437.749	-26.412	-0.171	0.100
-436.734	14.657	-0.096	0.075
-435.719	-138.621	0.339	0.037
-434.705	-38.864	-0.250	-0.132
-433.690	80.337	0.118	-0.127
-432.676	-43.260	0.230	0.117
-431.661	-200.000	-0.017	0.143
-430.646	69.004	0.045	-0.046
-429.632	-16.122	0.269	0.171
-428.617	-126.630	-0.357	0.053
-427.603	306.646	-0.073	0.136
-426.588	-42.369	0.064	0.033
-425.573	-200.000	-0.078	0.399
-424.559	-200.000	-0.003	-0.115
-423.544	-45.764	0.318	-0.157
-422.530	25.520	0.132	0.110
-421.515	-111.024	0.267	-0.055
-420.500	50.009	0.055	0.052
-419.486	-129.438	0.275	0.038
-418.471	-105.543	-0.254	-0.058
-417.457	-39.534	-0.223	0.117
-416.442	-26.583	-0.074	-0.043
-415.428	-200.000	0.043	0.340
-414.413	-19.923	0.148	0.092
-413.398	110.453	0.015	0.018
-412.384	-19.362	-0.234	-0.145
-411.369	-139.061	-0.246	-0.027
-410.355	-27.014	0.274	0.160
-409.340	-200.000	0.049	0.308
-408.325	655.552	0.048	-0.123
-407.311	92.203	-0.105	-0.118
-406.296	145.836	-0.153	0.206
-405.282	302.471	-0.081	-0.149
-404.267	272.258	0.141	0.249
-403.252	-130.904	-0.359	-0.048
-402.238	149.110	-0.278	0.376
-401.223	-200.000	0.002	0.064
-400.209	800.000	-0.121	-0.433
-399.194	20.376	0.123	-0.099
-398.179	800.000	0.074	0.264
-397.165	-75.600	-0.324	0.115
-396.150	165.885	0.158	-0.224
-395.136	-115.022	-0.204	0.039
-394.121	-171.436	0.226	0.008
-393.106	-108.728	0.169	0.036
-392.092	-200.000	0.000	0.276
-391.077	6.186	-0.231	0.171
-390.063	800.000	-0.083	-0.312
-389.048	800.000	-0.015	-0.054
-388.033	-29.662	0.144	-0.082
-387.019	-70.719	0.395	0.149
-386.004	-91.618	-0.258	0.073
-384.990	36.554	-0.259	-0.228
-383.975	205.816	0.041	0.063
-382.960	74.896	-0.150	0.157
-381.946	478.476	-0.102	0.232
-380.931	-46.298	-0.225	0.110
-379.917	0.796	-0.265	0.190
-378.902	-155.854	-0.546	-0.035
-377.888	-29.874	0.196	-0.111
-376.873	6.004	0.212	0.156
-375.858	93.894	-0.148	-0.167
-374.844	-25.521	-0.160	-0.094
-373.829	-41.630	0.033	-0.017
-372.815	89.545	-0.041	-0.046
-371.800	-52.370	-0.116	-0.054
-370.785	164.657	-0.124	-0.175
-369.771	-200.000	0.033	-0.177
-368.756	-200.000	0.003	0.338
-367.742	-70.765	0.080	-0.030
-366.727	-200.000	0.031	0.270
-365.712	-133.599	-0.257	-0.032
-364.698	-106.326	0.181	0.040
-363.683	800.000	0.028	0.091
-362.669	-78.489	0.232	0.079
-361.654	800.000	0.021	0.070
-360.639	800.000	-0.045	0.133
-359.625	-200.000	-0.036	-0.177
-358.610	47.182	-0.055	0.052
-357.596	-119.979	-0.302	0.052
-356.581	-57.046	-0.134	-0.059
-355.566	237.625	0.215	-0.356
-354.552	70.091	-0.160	0.165
-353.537	68.757	0.180	0.185
-352.523	256.569	0.050	0.085
-351.508	-174.088	-0.260	-0.008
-350.493	337.619	-0.085	-0.166
-349.479	42.555	0.230	-0.209
-348.464	189.950	-0.129	0.193
-347.450	-200.000	-0.050	-0.230
-346.435	-83.266	0.180	0.058
-345.420	-148.498	0.023	0.002
-344.406	-190.303	-0.210	0.002
-343.391	-105.141	0.406	0.093
-342.377	-200.000	0.029	-0.162
-341.362	-200.000	0.003	0.070
-340.348	-102.206	0.282	-0.068
-339.333	-37.864	0.059	0.031
-338.318	-51.467	0.458	0.213
-337.304	-92.121	-0.324	0.091
-336.289	150.466	-0.036	-0.049
-335.275	-200.000	0.010	0.166
-334.260	-142.052	-0.295	-0.029
-333.245	800.000	-0.059	0.209
-332.231	-152.997	0.244	0.017
-331.216	-200.000	0.017	0.189
-330.202	-60.790	0.225	0.095
-329.187	-58.327	-0.168	-0.073
-328.172	47.399	-0.176	-0.164
-327.158	-194.044	0.452	-0.004
-326.143	55.216	0.014	0.013
-325.129	-186.887	-0.180	0.002
-324.114	-36.562	0.181	0.097
-323.099	-156.381	-0.105	-0.007
-322.085	800.000	0.045	-0.149
-321.070	146.998	-0.105	0.141
-320.056	-158.073	-0.166	0.010
-319.041	-153.233	0.242	0.017
-318.026	-200.000	-0.056	0.270
-317.012	-145.334	0.460	-0.041
-315.997	-107.945	-0.083	-0.018
-314.983	-124.028	-0.062	0.010
-313.968	-200.000	0.042	-0.615
-312.953	18.525	-0.144	0.115
-311.939	-66.483	0.128	-0.051
-310.924	-84.130	0.180	0.057
-309.910	439.877	-0.170	-0.371
-308.895	482.849	0.110	-0.248
-307.880	80.674	-0.126	0.135
-306.866	213.179	0.081	0.128
-305.851	-200.000	-0.074	0.340
-304.837	336.585	-0.139	0.268
-303.822	272.403	0.097	0.171
-302.807	124.546	-0.283	0.355
-301.793	-27.454	0.137	-0.079
-300.778	310.986	0.107	0.200
-299.764	-54.034	0.153	-0.069
-298.749	364.423	-0.103	-0.207
-297.735	-61.743	0.276	-0.115
-296.720	-18.946	-0.237	0.147
-295.705	-60.442	-0.121	-0.051
-294.691	-200.000	-0.052	-0.284
-293.676	249.058	0.107	0.181
-292.662	-200.000	0.028	0.145
-291.647	-28.811	-0.177	-0.101
-290.632	35.573	0.243	-0.212
-289.618	-149.333	0.252	-0.020
-288.603	245.641	0.188	-0.315
-287.589	-200.000	-0.081	0.355
-286.574	15.967	0.056	0.044
-285.559	-200.000	0.037	0.315
-284.545	496.564	-0.037	0.085
-283.530	-200.000	-0.006	-0.154
-282.516	118.983	-0.144	-0.177
-281.501	218.066	0.123	0.195
-280.486	-135.408	-0.469	0.056
-279.472	-90.509	0.197	-0.057
-278.457	-81.660	-0.139	-0.045
-277.443	-200.000	-0.000	-0.072
-276.428	-200.000	0.047	-0.229
-275.413	-111.396	0.081	-0.016
-274.399	23.641	0.267	-0.219
-273.384	9.171	0.173	0.130
-272.370	-94.935	0.050	0.013
-271.355	-200.000	0.077	0.378
-270.340	-52.720	0.141	-0.065
-269.326	-79.729	0.254	-0.085
-268.311	734.759	-0.047	-0.125
-267.297	-12.242	0.135	-0.088
-266.282	-113.938	0.114	-0.022
-265.267	91.533	0.076	0.085
-264.253	-116.363	0.337	-0.062
-263.238	-200.000	-0.013	0.239
-262.224	-119.031	-0.334	0.058
-261.209	0.691	0.214	0.152
-260.195	800.000	0.032	-0.125
-259.180	145.981	0.050	-0.066
-258.165	133.762	-0.173	-0.222
-257.151	333.921	0.045	0.087
-256.136	-132.084	-0.280	-0.036
-255.122	-10.028	-0.169	-0.112
-254.107	-85.032	-0.156	0.048
-253.092	76.648	-0.251	-0.264
-252.078	-184.341	0.510	-0.008
-251.063	96.179	0.096	-0.110
-250.049	-33.731	0.255	0.140
-249.034	-200.000	0.052	0.237
-248.019	-158.849	0.313	0.018
-247.005	-200.000	-0.020	-0.171
-245.990	22.120	0.071	0.058
-244.976	-200.000	0.065	-0.296
-243.961	70.190	-0.134	0.137
-242.946	102.696	0.157	-0.182
-241.932	-200.000	-0.057	-0.299
-240.917	-29.710	0.238	0.135
-239.903	191.113	-0.134	0.201
-238.888	199.894	-0.271	0.413
-237.873	502.199	-0.078	0.179
-236.859	800.000	0.068	-0.246
-235.844	-63.757	-0.126	0.051
-234.830	800.000	-0.019	-0.056
-233.815	800.000	-0.066	-0.268
-232.800	-174.674	-0.255	0.007
-231.786	-200.000	0.006	0.162
-230.771	800.000	0.040	0.146
-229.757	-62.756	-0.232	0.096
-228.742	218.587	0.179	0.283
-227.727	-90.350	0.156	0.045
-226.713	217.391	0.272	0.430
-225.698	-115.626	0.240	0.045
-224.684	-37.855	-0.095	0.050
-223.669	-173.421	-0.272	-0.008
-222.655	-200.000	0.019	0.190
-221.640	-2.605	0.006	0.004
-220.625	-155.617	-0.192	0.012
-219.611	257.403	-0.090	-0.153
-218.596	-18.779	0.013	-0.008
-217.582	800.000	-0.030	0.115
-216.567	-25.817	0.223	-0.130
-215.552	-200.000	0.043	-0.365
-214.538	-162.692	-0.190	0.009
-213.523	12.858	0.133	0.102
-212.509	15.496	0.335	-0.261
-211.494	-150.779	-0.171	0.013
-210.479	125.774	0.262	-0.328
-209.465	312.613	-0.084	-0.157
-208.450	-34.406	0.193	0.105
-207.436	78.398	-0.086	-0.091
-206.421	301.306	0.180	-0.329
-205.406	656.856	0.069	0.177
-204.392	-159.013	-0.510	0.029
-203.377	800.000	-0.006	-0.018
-202.363	-43.710	-0.035	0.017
-201.348	800.000	0.091	-0.272
-200.333	-58.835	0.303	-0.130
-199.319	-130.573	0.236	0.032
-198.304	-60.482	-0.043	0.018
-197.290	-39.069	-0.224	0.117
-196.275	-111.126	-0.181	-0.037
-195.260	800.000	0.015	0.062
-194.246	16.679	-0.093	0.073
-193.231	-113.950	0.355	-0.068
-192.217	96.190	-0.277	-0.314
-191.202	-135.495	0.044	-0.005
-190.187	74.254	-0.188	0.196
-189.173	-4.534	-0.222	-0.152
-188.158	6.742	0.060	0.044
-187.144	800.000	0.025	0.088
-186.129	102.595	-0.188	-0.218
-185.114	-200.000	0.000	0.190
-184.100	-47.162	-0.036	-0.017
-183.085	-145.319	0.202	-0.018
-182.071	170.984	-0.326	0.463
-181.056	94.947	0.092	-0.104
-180.042	-200.000	-0.032	0.305
-179.027	-200.000	-0.028	-0.138
-178.012	-40.522	0.093	-0.048
-176.998	145.429	-0.238	-0.316
-175.983	-154.553	0.236	0.016
-174.969	-92.496	0.166	-0.046
-173.954	202.746	-0.056	0.085
-172.939	239.111	-0.204	-0.335
-171.925	800.000	0.138	-0.402
-170.910	-76.063	-0.234	0.082
-169.896	800.000	0.085	0.235
-168.881	-99.451	-0.285	-0.071
-167.866	10.772	0.233	-0.176
-166.852	165.576	0.159	0.222
-165.837	603.976	0.157	-0.387
-164.823	-71.817	0.451	-0.166
-163.808	-200.000	-0.075	0.422
-162.793	55.148	0.051	0.049
-161.779	321.455	-0.122	-0.229
-160.764	-200.000	0.039	0.291
-159.750	-69.201	-0.101	-0.039
-158.735	74.693	0.342	-0.357
-157.720	105.096	-0.108	-0.126
-156.706	800.000	-0.041	0.161
-155.691	-98.010	0.374	0.095
-154.677	-170.249	0.050	0.002
-153.662	-126.312	0.033	-0.005
-152.647	-115.152	-0.239	-0.045
-151.633	332.420	-0.138	0.264
-150.618	800.000	0.105	-0.350
-149.604	-200.000	-0.048	-0.310
-148.589	-200.000	0.056	0.277
-147.574	310.685	0.211	0.391
-146.560	-19.477	0.089	0.055
-145.545	-78.175	0.353	-0.120
-144.531	-200.000	0.019	-0.170
-143.516	-168.949	-0.330	-0.012
-142.502	127.616	0.163	0.205
-141.487	502.318	-0.164	0.376
-140.472	24.171	0.046	-0.038
-139.458	-39.746	0.323	-0.167
-138.443	0.145	-0.257	-0.181
-137.429	800.000	0.078	-0.286
-136.414	61.311	0.138	0.136
-135.399	-45.435	-0.109	-0.053
-134.385	79.812	-0.245	0.260
-133.370	-72.774	-0.090	-0.033
-132.356	-200.000	0.045	-0.271
-131.341	95.486	-0.122	-0.138
-130.326	-117.585	-0.162	-0.029
-129.312	133.509	-0.119	-0.152
-128.297	196.772	0.171	0.258
-127.283	-43.880	0.119	-0.059
-126.268	-200.000	0.021	-0.196
-125.253	-2.422	-0.137	-0.095
-124.239	204.907	0.099	0.152
-123.224	416.238	0.063	0.133
-122.210	-171.463	0.109	-0.004
