DTS Sentinel unit serial number:	SN413079Multiplexer serial number:	ORYXHardware model number:	OX4-SRSoftware version number:	ORYX F/W v4.00 Oryx Data Collector v3.7.2.0data status	okinstallation	princeton_trtdifferential loss correction	single-endedforward channel	channel 4reverse channel	N/Adate	2019/09/17time	17:57:35forward acquisition time	60.00reverse acquisition time	0.00gamma	496.2192k internal	0.2278k external	0.2278temperature offset calibration	0.9980default loss term (dB/km)	0.3790temperature slope calibration	1.0000multiplexer offset coefficient	1.0000multiplexer slope coefficient	1.0000fibre end	0.00T internal ref (°C)	43.50T ext. ref 1 (°C)	0.33T ext. ref 2 (°C)	38.24length (m)	temperature (°C)	Stokes	anti-Stokes-747.200	52.085	0.294	-0.289
-746.185	-200.000	0.063	0.353
-745.171	355.980	-0.081	0.167
-744.156	-37.670	-0.108	0.059
-743.142	-200.000	-0.027	0.134
-742.127	-66.423	0.066	0.027
-741.112	-200.000	0.004	-0.234
-740.098	-153.841	0.306	0.022
-739.083	-200.000	0.010	-0.116
-738.069	274.247	-0.100	-0.182
-737.054	274.820	0.053	0.096
-736.039	-21.769	0.271	-0.170
-735.025	-117.595	0.212	-0.039
-734.010	-200.000	-0.049	0.269
-732.996	-99.845	-0.413	0.106
-731.981	-200.000	-0.073	0.000
-730.966	3.782	0.153	0.115
-729.952	800.000	-0.020	0.066
-728.937	-66.102	-0.365	-0.150
-727.923	-33.487	-0.294	-0.167
-726.908	-114.495	0.155	0.031
-725.894	-183.197	-0.085	0.002
-724.879	-45.756	0.362	-0.184
-723.864	800.000	0.102	0.307
-722.850	800.000	-0.145	0.414
-721.835	42.926	0.119	0.112
-720.821	741.254	0.118	-0.326
-719.806	-200.000	0.067	-0.336
-718.791	15.894	-0.024	-0.020
-717.777	179.817	-0.168	0.254
-716.762	-200.000	-0.024	0.126
-715.748	-200.000	0.046	0.224
-714.733	262.303	0.094	-0.168
-713.718	634.032	0.103	-0.269
-712.704	-200.000	0.025	0.230
-711.689	-97.174	-0.065	0.018
-710.675	519.716	0.085	0.205
-709.660	-130.272	0.265	-0.037
-708.645	-16.312	-0.197	-0.128
-707.631	-65.807	0.119	-0.049
-706.616	-49.550	0.294	0.144
-705.602	-95.153	0.517	-0.144
-704.587	170.327	-0.100	0.147
-703.572	-145.712	0.416	0.038
-702.558	378.378	0.131	0.275
-701.543	-200.000	-0.021	-0.282
-700.529	281.488	0.158	0.292
-699.514	-200.000	-0.010	-0.049
-698.499	-109.354	-0.219	0.048
-697.485	-97.801	-0.353	0.094
-696.470	454.519	0.047	0.106
-695.456	-121.476	-0.209	-0.036
-694.441	800.000	0.032	-0.106
-693.426	74.505	-0.306	0.331
-692.412	626.207	0.055	0.143
-691.397	207.334	0.092	0.147
-690.383	-51.305	0.189	0.091
-689.368	165.907	-0.208	0.302
-688.354	280.486	-0.084	0.154
-687.339	-10.279	0.125	-0.085
-686.324	-49.490	-0.208	0.102
-685.310	231.972	0.165	-0.278
-684.295	-141.845	-0.102	0.011
-683.281	242.381	0.046	-0.080
-682.266	-164.000	0.090	0.004
-681.251	-200.000	0.096	0.469
-680.237	-99.064	-0.033	0.009
-679.222	451.684	0.135	-0.305
-678.208	91.396	0.226	-0.260
-677.193	52.712	0.047	0.046
-676.178	178.036	-0.070	-0.105
-675.164	-200.000	0.047	-0.279
-674.149	-61.290	0.203	0.088
-673.135	214.163	0.220	-0.357
-672.120	365.849	-0.033	-0.069
-671.105	-150.058	-0.092	-0.007
-670.091	115.812	0.090	-0.113
-669.076	-83.656	0.259	0.085
-668.062	27.279	-0.202	0.174
-667.047	264.866	0.093	0.166
-666.032	-43.040	0.302	0.157
-665.018	-20.748	0.169	-0.106
-664.003	-200.000	0.027	0.194
-662.989	55.351	0.104	0.104
-661.974	-123.460	-0.135	0.022
-660.959	-83.172	0.091	0.030
-659.945	-149.629	-0.163	0.013
-658.930	-111.914	0.143	-0.030
-657.916	57.424	-0.245	0.245
-656.901	252.977	-0.068	-0.120
-655.886	206.054	-0.085	0.136
-654.872	216.902	-0.090	0.147
-653.857	537.032	0.047	-0.113
-652.843	-87.231	-0.149	0.047
-651.828	-200.000	-0.045	0.217
-650.814	-66.438	-0.079	-0.032
-649.799	-85.367	0.236	0.076
-648.784	-200.000	-0.030	0.378
-647.770	-200.000	-0.004	0.133
-646.755	-82.446	-0.372	-0.124
-645.741	464.309	-0.162	0.373
-644.726	10.922	-0.152	0.119
-643.711	-200.000	-0.026	0.180
-642.697	-124.483	0.213	-0.034
-641.682	-200.000	0.015	0.220
-640.668	309.784	-0.147	-0.282
-639.653	338.054	-0.208	-0.414
-638.638	157.568	0.122	0.173
-637.624	74.038	-0.167	-0.180
-636.609	-200.000	-0.003	-0.373
-635.595	-100.902	0.063	0.016
-634.580	251.729	-0.128	-0.224
-633.565	-74.312	0.288	0.107
-632.551	426.668	-0.117	0.258
-631.536	333.778	0.077	0.154
-630.522	-76.725	-0.196	0.070
-629.507	-124.784	-0.125	-0.020
-628.492	-200.000	-0.085	0.432
-627.478	154.575	0.284	0.401
-626.463	713.017	0.077	-0.210
-625.449	-39.726	0.134	-0.072
-624.434	147.378	0.089	0.123
-623.419	-200.000	-0.019	-0.236
-622.405	-110.689	-0.240	0.051
-621.390	-163.313	-0.170	0.008
-620.376	523.048	-0.087	0.209
-619.361	-200.000	0.026	0.270
-618.346	-54.789	0.158	0.073
-617.332	63.520	-0.177	-0.182
-616.317	-18.583	0.142	-0.091
-615.303	183.751	-0.165	-0.250
-614.288	16.864	-0.185	-0.150
-613.273	518.057	-0.031	0.074
-612.259	52.933	0.185	0.181
-611.244	-200.000	-0.015	-0.093
-610.230	146.362	0.265	-0.364
-609.215	21.717	0.178	0.148
-608.201	673.377	-0.050	0.134
-607.186	211.648	-0.068	0.110
-606.171	56.817	0.113	0.113
-605.157	244.359	-0.180	-0.310
-604.142	-200.000	-0.014	0.314
-603.128	135.084	0.033	-0.044
-602.113	132.959	0.122	-0.162
-601.098	-151.227	0.348	-0.027
-600.084	-200.000	0.008	0.182
-599.069	299.900	-0.054	0.102
-598.055	-200.000	-0.061	-0.365
-597.040	-46.511	-0.239	-0.120
-596.025	-123.729	-0.167	0.027
-595.011	-105.057	-0.281	0.066
-593.996	8.500	-0.169	-0.130
-592.982	330.304	0.097	-0.190
-591.967	143.308	0.127	0.173
-590.952	165.122	0.069	0.100
-589.938	-72.947	-0.185	-0.069
-588.923	126.318	-0.080	-0.103
-587.909	-68.518	0.156	-0.062
-586.894	-6.163	0.134	-0.094
-585.879	800.000	0.119	-0.359
-584.865	-200.000	0.035	0.178
-583.850	-12.939	0.098	0.065
-582.836	69.664	-0.174	-0.183
-581.821	-200.000	-0.022	0.142
-580.806	800.000	0.071	-0.274
-579.792	-82.486	-0.270	0.090
-578.777	-65.713	-0.108	0.044
-577.763	71.831	-0.058	-0.061
-576.748	-113.444	0.140	0.028
-575.733	-200.000	0.009	0.255
-574.719	-200.000	-0.015	-0.131
-573.704	-200.000	0.010	-0.083
-572.690	-89.220	-0.023	-0.007
-571.675	26.142	0.269	0.229
-570.661	452.423	-0.082	0.185
-569.646	30.629	-0.177	-0.155
-568.631	-82.318	0.142	0.047
-567.617	-129.670	-0.103	-0.014
-566.602	-43.383	-0.245	0.126
-565.588	-74.020	0.230	-0.085
-564.573	-200.000	-0.015	-0.167
-563.558	800.000	-0.010	-0.036
-562.544	-7.238	-0.192	-0.133
-561.529	-17.258	0.242	0.156
-560.515	-16.337	0.062	0.040
-559.500	-77.531	-0.271	-0.096
-558.485	-90.386	-0.061	-0.018
-557.471	-177.510	-0.038	0.001
-556.456	184.155	-0.112	-0.170
-555.442	184.467	-0.306	-0.463
-554.427	242.538	0.107	-0.183
-553.412	72.354	-0.024	0.026
-552.398	44.568	-0.313	0.294
-551.383	74.696	0.156	-0.168
-550.369	38.590	-0.431	0.393
-549.354	-98.979	0.101	0.026
-548.339	-108.632	-0.078	0.017
-547.325	575.783	0.220	0.550
-546.310	-200.000	-0.056	-0.259
-545.296	-200.000	-0.176	0.001
-544.281	-200.000	0.013	-0.236
-543.266	800.000	0.026	-0.081
-542.252	-107.250	-0.074	-0.017
-541.237	-130.417	-0.098	-0.014
-540.223	151.420	0.075	-0.104
-539.208	800.000	-0.082	-0.291
-538.193	-200.000	0.028	-0.166
-537.179	446.210	-0.058	0.130
-536.164	-36.505	-0.264	-0.145
-535.150	59.899	0.107	-0.108
-534.135	110.795	-0.066	0.081
-533.121	-114.301	0.502	0.099
-532.106	202.666	-0.165	-0.259
-531.091	325.966	-0.068	-0.134
-530.077	-3.773	-0.163	0.115
-529.062	677.606	0.119	0.316
-528.048	-21.176	0.217	-0.136
-527.033	-114.370	0.106	-0.021
-526.018	223.119	-0.019	-0.031
-525.004	-13.126	-0.468	0.311
-523.989	385.303	-0.063	0.132
-522.975	-27.449	0.209	0.124
-521.960	-55.794	-0.320	0.146
-520.945	-58.021	0.125	-0.056
-519.931	-118.524	0.370	-0.067
-518.916	800.000	0.050	0.169
-517.902	-65.274	0.233	0.096
-516.887	-200.000	-0.005	0.036
-515.872	-122.086	0.354	0.059
-514.858	-59.618	0.122	0.053
-513.843	-68.948	0.305	-0.120
-512.829	17.699	-0.107	-0.086
-511.814	234.625	0.100	0.169
-510.799	-200.000	-0.027	-0.137
-509.785	-61.685	-0.120	-0.052
-508.770	-61.612	-0.134	0.057
-507.756	-75.814	0.142	0.051
-506.741	-96.152	0.195	-0.053
-505.726	89.515	-0.037	-0.043
-504.712	-15.130	-0.058	-0.038
-503.697	-200.000	0.016	-0.109
-502.683	19.307	-0.194	-0.159
-501.668	-139.947	0.143	0.015
-500.653	4.228	-0.148	-0.111
-499.639	-200.000	-0.054	-0.415
-498.624	272.577	-0.143	0.257
-497.610	-143.420	-0.175	0.017
-496.595	-200.000	0.017	0.343
-495.581	-42.543	0.156	0.081
-494.566	40.634	-0.235	-0.216
-493.551	9.377	0.158	-0.122
-492.537	-200.000	-0.041	-0.479
-491.522	344.948	0.026	0.052
-490.508	-21.330	0.317	-0.197
-489.493	42.078	-0.279	-0.259
-488.478	-16.479	-0.095	0.062
-487.464	267.788	0.058	0.104
-486.449	-200.000	0.005	-0.229
-485.435	-110.595	0.234	-0.049
-484.420	-28.024	0.088	0.052
-483.405	279.982	0.092	-0.167
-482.391	-105.312	0.321	0.074
-481.376	405.877	-0.028	0.061
-480.362	-122.923	0.430	-0.071
-479.347	-200.000	-0.027	0.270
-478.332	-76.571	0.109	0.039
-477.318	710.214	-0.080	-0.216
-476.303	547.721	-0.131	-0.319
-475.289	252.178	0.090	-0.156
-474.274	182.831	-0.165	0.249
-473.259	128.433	-0.246	-0.320
-472.245	-200.000	-0.013	-0.243
-471.230	190.669	0.062	-0.094
-470.216	-200.000	0.028	-0.157
-469.201	-47.964	-0.231	-0.114
-468.186	20.489	-0.060	0.049
-467.172	75.483	0.059	-0.064
-466.157	-72.001	-0.286	-0.108
-465.143	20.736	-0.085	-0.070
-464.128	-14.189	0.298	0.196
-463.113	-182.823	-0.122	0.002
-462.099	-59.148	-0.304	0.134
-461.084	3.447	-0.177	-0.131
-460.070	-63.797	0.024	0.010
-459.055	115.317	0.233	0.290
-458.040	-114.151	-0.131	-0.026
-457.026	-81.377	-0.279	-0.094
-456.011	-101.191	0.216	0.054
-454.997	-200.000	-0.084	-0.434
-453.982	96.506	0.289	-0.336
-452.968	391.383	-0.066	-0.139
-451.953	-32.800	0.035	0.020
-450.938	-139.281	-0.272	-0.030
-449.924	-94.614	0.292	0.081
-448.909	-200.000	0.039	-0.353
-447.895	-36.485	-0.096	0.053
-446.880	-112.953	-0.240	-0.048
-445.865	8.267	0.286	-0.219
-444.851	518.747	0.113	-0.270
-443.836	516.100	-0.089	-0.211
-442.822	-63.615	-0.193	0.081
-441.807	-11.266	-0.049	0.033
-440.792	-200.000	-0.017	-0.083
-439.778	200.723	-0.055	-0.086
-438.763	217.593	-0.053	0.085
-437.749	30.218	0.154	-0.134
-436.734	51.071	0.071	0.068
-435.719	-200.000	0.013	-0.226
-434.705	-200.000	-0.018	0.168
-433.690	-13.371	-0.244	-0.161
-432.676	-200.000	-0.024	-0.263
-431.661	-13.520	-0.221	0.146
-430.646	183.805	-0.229	0.344
-429.632	-19.098	-0.177	-0.112
-428.617	-159.241	-0.028	-0.002
-427.603	425.608	0.035	0.076
-426.588	-200.000	-0.078	0.383
-425.573	-78.118	0.224	-0.078
-424.559	-172.593	0.084	0.003
-423.544	492.244	0.136	0.318
-422.530	-22.184	0.317	-0.195
-421.515	-200.000	0.047	-0.360
-420.500	-115.621	-0.264	0.050
-419.486	-38.467	0.139	-0.075
-418.471	-88.571	0.366	0.111
-417.457	-200.000	0.028	0.211
-416.442	120.514	0.174	0.219
-415.428	63.094	-0.136	-0.138
-414.413	83.434	-0.211	-0.234
-413.398	58.530	0.182	-0.181
-412.384	214.726	0.128	-0.206
-411.369	-200.000	0.001	-0.043
-410.355	158.384	-0.164	-0.232
-409.340	-200.000	0.005	-0.096
-408.325	60.938	-0.087	0.087
-407.311	-200.000	-0.007	0.079
-406.296	262.231	-0.048	0.085
-405.282	112.262	-0.151	0.185
-404.267	-200.000	0.034	0.225
-403.252	168.534	0.057	0.082
-402.238	23.811	0.229	0.192
-401.223	568.878	-0.014	-0.034
-400.209	-150.328	0.276	-0.022
-399.194	-177.961	0.181	-0.004
-398.179	33.872	0.168	-0.148
-397.165	-200.000	0.036	-0.163
-396.150	-200.000	-0.001	0.084
-395.136	-120.186	-0.081	-0.014
-394.121	8.557	-0.163	-0.124
-393.106	-104.026	0.261	0.062
-392.092	-200.000	0.000	-0.082
-391.077	-104.456	0.183	0.043
-390.063	35.184	-0.319	-0.284
-389.048	167.806	-0.045	-0.065
-388.033	152.626	0.103	0.143
-387.019	28.310	-0.192	0.165
-386.004	64.742	0.043	-0.044
-384.990	-37.330	0.307	0.167
-383.975	-79.196	0.314	-0.108
-382.960	-149.675	-0.205	-0.016
-381.946	800.000	0.048	-0.141
-380.931	-120.595	-0.289	-0.050
-379.917	-159.575	0.069	0.004
-378.902	-131.912	0.292	0.039
-377.888	95.900	-0.397	-0.460
-376.873	-122.533	0.198	-0.033
-375.858	-200.000	0.024	0.274
-374.844	5.753	0.087	-0.065
-373.829	454.361	-0.222	0.500
-372.815	48.615	0.163	-0.156
-371.800	-33.732	-0.103	0.058
-370.785	-46.655	-0.178	-0.089
-369.771	-200.000	-0.101	0.487
-368.756	103.224	-0.155	-0.184
-367.742	800.000	0.075	-0.234
-366.727	170.675	0.023	-0.034
-365.712	416.686	0.110	0.239
-364.698	800.000	0.012	0.043
-363.683	800.000	0.045	-0.173
-362.669	-37.174	-0.175	0.095
-361.654	-200.000	0.102	-0.594
-360.639	-75.577	0.295	-0.106
-359.625	-146.064	-0.223	0.020
-358.610	238.092	0.033	-0.055
-357.596	800.000	0.044	0.148
-356.581	-169.739	0.075	-0.003
-355.566	15.868	0.209	0.167
-354.552	197.268	-0.201	0.312
-353.537	-141.003	0.081	0.008
-352.523	618.381	0.132	-0.337
-351.508	601.930	0.068	0.172
-350.493	248.219	0.071	0.122
-349.479	-98.904	-0.206	0.053
-348.464	-91.592	-0.312	-0.090
-347.450	-9.954	0.110	-0.074
-346.435	787.558	-0.037	0.102
-345.420	262.903	0.058	0.102
-344.406	-120.459	0.199	0.034
-343.391	-200.000	0.000	0.052
-342.377	-43.415	0.136	0.070
-341.362	-22.863	0.154	0.094
-340.348	-128.799	0.302	0.043
-339.333	-134.689	0.273	-0.034
-338.318	240.028	0.119	-0.202
-337.304	-1.727	-0.258	0.184
-336.289	-200.000	-0.010	-0.313
-335.275	180.390	0.101	-0.150
-334.260	-113.492	0.313	-0.062
-333.245	-152.992	0.257	0.018
-332.231	89.049	0.288	0.325
-331.216	300.212	0.124	0.231
-330.202	-200.000	-0.060	0.534
-329.187	-105.969	0.219	-0.050
-328.172	-175.877	0.189	0.005
-327.158	800.000	-0.055	-0.241
-326.143	63.911	-0.103	-0.105
-325.129	-200.000	0.047	-0.321
-324.114	533.039	0.042	0.101
-323.099	-52.439	0.236	0.110
-322.085	-200.000	-0.021	0.257
-321.070	-200.000	0.017	0.223
-320.056	-172.398	-0.118	-0.004
-319.041	-200.000	-0.015	0.200
-318.026	800.000	-0.093	-0.383
-317.012	-127.863	0.304	-0.044
-315.997	800.000	-0.040	0.177
-314.983	-192.950	0.099	0.001
-313.968	800.000	0.068	-0.268
-312.953	-131.886	-0.184	-0.024
-311.939	-47.277	0.296	0.146
-310.924	17.085	-0.098	0.079
-309.910	11.673	0.143	0.111
-308.895	274.908	0.080	0.143
-307.880	-200.000	0.015	0.251
-306.866	-50.154	-0.076	-0.036
-305.851	466.947	0.120	0.271
-304.837	-200.000	-0.014	-0.307
-303.822	-121.151	-0.560	0.095
-302.807	0.412	0.144	-0.104
-301.793	35.731	-0.168	-0.149
-300.778	-200.000	-0.007	-0.123
-299.764	-170.261	-0.126	0.005
-298.749	263.184	-0.063	-0.111
-297.735	-200.000	-0.039	-0.272
-296.720	179.743	0.045	-0.067
-295.705	-56.917	0.358	-0.160
-294.691	420.324	-0.017	-0.038
-293.676	-200.000	-0.000	-0.009
-292.662	119.954	-0.164	0.206
-291.647	-200.000	0.056	-0.273
-290.632	-51.625	-0.381	-0.180
-289.618	800.000	-0.074	0.267
-288.603	-142.359	-0.768	0.077
-287.589	-108.826	-0.203	-0.044
-286.574	608.984	0.096	0.242
-285.559	-200.000	-0.001	-0.078
-284.545	-172.823	-0.112	-0.004
-283.530	145.274	0.216	0.292
-282.516	-200.000	-0.005	-0.339
-281.501	291.473	0.049	-0.090
-280.486	-200.000	-0.026	0.143
-279.472	-155.642	-0.184	-0.012
-278.457	-166.364	-0.164	-0.007
-277.443	-200.000	0.141	0.001
-276.428	241.407	0.035	0.059
-275.413	185.800	-0.260	0.391
-274.399	54.522	-0.128	0.124
-273.384	800.000	0.034	-0.142
-272.370	8.573	-0.380	0.289
-271.355	-81.069	-0.146	0.049
-270.340	-113.077	0.232	0.046
-269.326	-200.000	-0.280	-0.001
-268.311	800.000	0.118	0.338
-267.297	800.000	-0.033	0.096
-266.282	347.849	-0.097	-0.194
-265.267	-94.191	-0.206	-0.057
-264.253	588.067	-0.046	-0.114
-263.238	-9.918	0.086	0.058
-262.224	670.431	0.011	0.028
-261.209	-29.990	-0.222	-0.128
-260.195	-152.512	-0.311	0.023
-259.180	188.353	-0.018	0.027
-258.165	119.500	-0.099	-0.124
-257.151	800.000	0.037	-0.122
-256.136	201.145	-0.109	0.169
-255.122	-86.783	-0.359	-0.111
-254.107	-27.483	0.194	-0.114
-253.092	-127.492	-0.269	-0.040
-252.078	83.893	0.143	0.158
-251.063	-110.664	0.221	-0.046
-250.049	131.698	0.162	-0.210
-249.034	-17.557	-0.049	0.031
-248.019	-136.826	0.337	0.039
-247.005	-125.449	0.162	-0.025
-245.990	-200.000	0.022	-0.289
-244.976	-152.970	-0.319	-0.023
-243.961	363.078	0.137	0.277
-242.946	-54.747	0.246	0.112
-241.932	93.465	0.222	0.254
-240.917	-163.206	-0.233	0.011
-239.903	-200.000	-0.008	0.225
-238.888	724.536	-0.076	0.203
-237.873	-12.192	0.276	0.182
-236.859	13.204	0.045	-0.035
-235.844	125.592	0.206	0.263
-234.830	-79.312	0.243	-0.083
-233.815	-138.327	0.186	-0.021
-232.800	134.205	0.089	-0.117
-231.786	260.596	-0.153	-0.268
-230.771	486.800	-0.116	-0.267
-229.757	-149.807	-0.367	0.029
-228.742	800.000	-0.073	-0.226
-227.727	-84.778	-0.198	0.063
-226.713	800.000	0.063	0.217
-225.698	96.300	-0.122	0.141
-224.684	54.730	-0.107	-0.104
-223.669	800.000	0.105	0.344
-222.655	52.744	0.208	0.200
-221.640	20.022	0.163	-0.133
-220.625	153.063	0.246	0.339
-219.611	256.815	-0.136	0.236
-218.596	-117.793	-0.296	-0.054
-217.582	112.819	-0.135	0.165
-216.567	238.114	0.105	0.176
-215.552	-157.109	0.348	0.021
-214.538	-94.762	-0.282	-0.077
-213.523	168.242	-0.057	-0.082
-212.509	-112.480	-0.133	0.027
-211.494	-42.375	0.234	0.120
-210.479	17.359	-0.185	-0.148
-209.465	-105.576	0.170	0.039
-208.450	-45.102	0.140	-0.070
-207.436	325.905	0.090	0.174
-206.421	-200.000	-0.009	-0.260
-205.406	-63.930	0.224	-0.092
-204.392	27.135	0.129	0.109
-203.377	-40.443	-0.346	0.181
-202.363	800.000	0.011	-0.031
-201.348	-107.107	-0.339	0.075
-200.333	-200.000	-0.006	0.059
-199.319	800.000	0.094	0.331
-198.304	209.942	-0.159	0.251
-197.290	-157.072	0.379	0.023
-196.275	166.405	0.038	-0.054
-195.260	99.012	0.134	-0.156
-194.246	-153.391	0.269	0.019
-193.231	90.752	-0.061	0.068
-192.217	-24.734	-0.274	0.164
-191.202	-165.277	-0.110	0.005
-190.187	-117.695	-0.177	-0.032
-189.173	164.643	0.148	0.211
-188.158	-53.618	0.047	-0.022
-187.144	-200.000	-0.015	-0.100
-186.129	-128.883	-0.131	-0.019
-185.114	800.000	0.020	0.056
-184.100	-186.038	0.316	-0.005
-183.085	471.528	0.114	-0.259
-182.071	800.000	0.064	0.240
-181.056	-166.114	0.433	-0.019
-180.042	326.548	0.023	-0.044
-179.027	-200.000	-0.016	-0.260
-178.012	-200.000	-0.034	0.389
-176.998	-200.000	0.002	0.442
-175.983	-84.229	-0.148	0.047
-174.969	-200.000	-0.075	-0.379
-173.954	-24.074	0.132	0.079
-172.939	800.000	-0.074	0.227
-171.925	-42.940	0.123	0.063
-170.910	-60.613	0.246	-0.105
-169.896	-77.387	-0.195	-0.068
-168.881	800.000	0.077	0.303
-167.866	197.027	-0.214	0.328
-166.852	-104.075	-0.202	0.047
-165.837	620.940	0.099	0.252
-164.823	684.452	-0.076	0.201
-163.808	-55.956	-0.161	-0.072
-162.793	650.977	0.089	-0.231
-161.779	135.799	-0.106	-0.139
-160.764	-200.000	-0.059	-0.274
-159.750	-176.271	-0.200	-0.005
-158.735	88.443	0.129	-0.145
-157.720	800.000	-0.100	0.366
-156.706	-149.972	0.419	0.033
-155.691	59.505	0.164	-0.162
-154.677	-147.425	0.148	0.013
-153.662	284.649	-0.055	-0.100
-152.647	-83.124	-0.357	0.116
-151.633	705.145	0.123	-0.327
-150.618	-66.364	0.209	0.084
-149.604	169.636	0.103	0.148
-148.589	-200.000	-0.014	-0.337
-147.574	78.177	-0.104	-0.112
-146.560	34.628	-0.070	0.062
-145.545	697.786	-0.037	0.097
-144.531	-129.082	-0.145	-0.020
-143.516	-136.682	0.201	0.023
-142.502	221.938	0.010	-0.016
-141.487	-200.000	-0.008	0.051
-140.472	-103.815	0.162	0.038
-139.458	-46.836	-0.366	0.180
-138.443	-198.187	-0.178	0.001
-137.429	-25.291	-0.350	0.208
-136.414	66.751	-0.183	0.187
-135.399	800.000	0.045	-0.148
-134.385	-126.119	0.162	-0.024
-133.370	6.354	-0.225	0.168
-132.356	800.000	0.073	0.301
-131.341	-200.000	-0.032	0.292
-130.326	774.703	-0.074	-0.202
-129.312	-120.454	0.161	0.027
-128.297	-0.222	-0.022	-0.016
-127.283	342.083	0.044	0.087
-126.268	-98.329	-0.156	-0.040
-125.253	56.810	0.105	0.102
-124.239	158.558	-0.099	0.139
-123.224	-106.780	0.292	-0.065
-122.210	800.000	-0.046	-0.141
