DTS Sentinel unit serial number:	SN413079Multiplexer serial number:	ORYXHardware model number:	OX4-SRSoftware version number:	ORYX F/W v4.00 Oryx Data Collector v3.7.2.0data status	okinstallation	princeton_trtdifferential loss correction	single-endedforward channel	channel 4reverse channel	N/Adate	2019/09/19time	01:21:35forward acquisition time	60.00reverse acquisition time	0.00gamma	496.2192k internal	0.2339k external	0.2339temperature offset calibration	1.0030default loss term (dB/km)	0.3790temperature slope calibration	1.0000multiplexer offset coefficient	1.0000multiplexer slope coefficient	1.0000fibre end	0.00T internal ref (°C)	21.67T ext. ref 1 (°C)	0.70T ext. ref 2 (°C)	15.02length (m)	temperature (°C)	Stokes	anti-Stokes-747.200	-200.000	-0.022	-0.151
-746.185	21.367	-0.460	0.375
-745.171	-6.461	0.126	-0.086
-744.156	-200.000	0.042	0.195
-743.142	462.523	-0.136	0.305
-742.127	601.270	0.070	0.175
-741.112	94.039	-0.161	-0.183
-740.098	-168.273	0.170	-0.007
-739.083	-80.008	-0.190	-0.064
-738.069	-49.978	-0.405	0.193
-737.054	258.423	-0.158	0.274
-736.039	-18.633	-0.232	-0.145
-735.025	-143.218	0.217	0.021
-734.010	-200.000	0.090	-0.400
-732.996	-156.111	-0.148	0.009
-731.981	-200.000	0.004	0.155
-730.966	-200.000	-0.081	0.382
-729.952	-78.141	-0.040	0.014
-728.937	-200.000	-0.009	-0.095
-727.923	-84.590	-0.234	0.074
-726.908	-96.892	0.441	-0.116
-725.894	-98.831	-0.341	-0.087
-724.879	-200.000	-0.018	0.302
-723.864	-200.000	0.003	-0.044
-722.850	-200.000	-0.012	0.074
-721.835	-112.433	-0.342	0.069
-720.821	-113.430	-0.197	-0.039
-719.806	-81.043	0.042	-0.014
-718.791	271.110	-0.065	-0.115
-717.777	-107.289	0.462	0.102
-716.762	234.581	0.125	0.207
-715.748	-200.000	-0.047	0.491
-714.733	46.266	0.071	-0.066
-713.718	499.803	-0.094	0.218
-712.704	-29.661	0.131	0.075
-711.689	143.318	-0.107	0.143
-710.675	-128.763	0.060	-0.008
-709.660	-102.799	-0.351	-0.084
-708.645	-57.296	-0.229	-0.101
-707.631	36.520	-0.065	-0.058
-706.616	800.000	0.084	0.325
-705.602	-200.000	-0.001	-0.111
-704.587	55.920	-0.040	-0.039
-703.572	-200.000	0.008	0.038
-702.558	385.912	-0.141	0.292
-701.543	-200.000	0.005	-0.131
-700.529	61.959	-0.062	0.062
-699.514	800.000	-0.068	0.290
-698.499	-200.000	-0.025	-0.214
-697.485	-9.650	-0.152	0.101
-696.470	-32.291	0.085	0.047
-695.456	161.304	0.253	0.354
-694.441	676.158	-0.130	-0.338
-693.426	-200.000	-0.026	-0.275
-692.412	-9.230	-0.045	0.030
-691.397	-200.000	0.016	-0.177
-690.383	-200.000	0.004	0.094
-689.368	-83.163	-0.308	-0.099
-688.354	67.729	0.173	0.177
-687.339	-200.000	0.023	0.419
-686.324	70.170	0.092	0.095
-685.310	41.583	-0.231	-0.210
-684.295	-178.900	-0.459	-0.010
-683.281	-108.076	-0.263	0.057
-682.266	-200.000	0.002	0.066
-681.251	-99.855	0.123	0.031
-680.237	160.268	0.136	-0.190
-679.222	200.370	-0.135	-0.207
-678.208	7.655	0.212	-0.159
-677.193	39.599	-0.134	-0.120
-676.178	-173.769	-0.095	-0.003
-675.164	-176.148	0.178	0.005
-674.149	55.525	-0.155	0.150
-673.135	-163.422	0.207	-0.010
-672.120	-71.646	-0.263	-0.098
-671.105	800.000	-0.041	0.125
-670.091	800.000	0.087	-0.262
-669.076	292.098	-0.170	-0.310
-668.062	-200.000	-0.006	-0.069
-667.047	-122.483	-0.124	-0.020
-666.032	284.758	0.068	-0.122
-665.018	-200.000	-0.032	0.295
-664.003	800.000	0.025	-0.100
-662.989	-71.885	-0.227	0.084
-661.974	-88.325	0.234	0.070
-660.959	-166.113	-0.110	-0.005
-659.945	-3.992	-0.138	0.096
-658.930	335.677	0.055	0.107
-657.916	458.760	-0.097	0.216
-656.901	522.769	0.113	-0.265
-655.886	-77.030	-0.209	-0.073
-654.872	-200.000	0.045	-0.218
-653.857	-200.000	0.076	0.446
-652.843	-90.881	0.336	0.097
-651.828	-26.852	-0.300	0.175
-650.814	-87.495	-0.262	0.079
-649.799	-135.548	-0.428	0.051
-648.784	800.000	-0.021	0.066
-647.770	-200.000	0.007	0.060
-646.755	-200.000	0.041	0.234
-645.741	-12.206	-0.131	-0.086
-644.726	307.903	-0.152	-0.283
-643.711	-139.580	0.299	-0.032
-642.697	-179.762	0.169	0.004
-641.682	-73.410	-0.166	-0.061
-640.668	-67.376	0.445	-0.175
-639.653	18.480	0.164	-0.131
-638.638	29.697	0.076	0.065
-637.624	46.707	0.140	-0.130
-636.609	219.523	0.040	0.064
-635.595	151.112	0.023	0.031
-634.580	800.000	-0.070	0.225
-633.565	-104.660	-0.175	-0.040
-632.551	-160.857	-0.165	0.009
-631.536	157.997	0.135	0.186
-630.522	800.000	0.090	0.257
-629.507	52.725	0.099	0.094
-628.492	-200.000	0.031	-0.185
-627.478	-200.000	-0.024	0.176
-626.463	-200.000	-0.004	-0.167
-625.449	608.472	0.083	-0.208
-624.434	-52.201	0.109	0.051
-623.419	56.439	0.073	0.071
-622.405	-11.038	0.228	0.150
-621.390	800.000	-0.083	-0.362
-620.376	-117.478	-0.149	0.027
-619.361	-200.000	0.015	-0.194
-618.346	176.088	0.107	-0.155
-617.332	139.467	-0.170	0.224
-616.317	14.014	0.144	0.112
-615.303	-200.000	-0.103	-0.475
-614.288	207.459	-0.191	-0.298
-613.273	-14.542	0.264	-0.169
-612.259	203.220	-0.081	0.125
-611.244	-85.646	0.108	-0.034
-610.230	-200.000	-0.031	-0.247
-609.215	-117.224	-0.262	-0.048
-608.201	345.618	0.173	-0.338
-607.186	6.522	-0.267	0.198
-606.171	402.648	0.116	0.243
-605.157	-200.000	-0.028	0.393
-604.142	-21.194	-0.053	0.032
-603.128	234.033	-0.071	0.117
-602.113	-71.015	-0.172	-0.064
-601.098	-65.601	-0.203	-0.081
-600.084	-200.000	0.006	-0.488
-599.069	-42.399	-0.306	-0.156
-598.055	-200.000	-0.013	0.268
-597.040	481.169	0.088	-0.198
-596.025	-200.000	0.044	-0.390
-595.011	68.708	0.251	0.257
-593.996	91.656	-0.119	-0.133
-592.982	159.995	-0.153	-0.212
-591.967	-16.897	-0.334	0.211
-590.952	114.652	0.029	-0.035
-589.938	417.331	-0.028	-0.060
-588.923	-90.873	0.180	0.052
-587.909	44.295	0.121	0.110
-586.894	493.479	0.075	-0.171
-585.879	-9.795	-0.093	-0.062
-584.865	31.889	-0.059	0.050
-583.850	-123.663	-0.168	0.027
-582.836	107.289	0.196	-0.233
-581.821	-5.035	0.368	-0.252
-580.806	93.427	-0.228	-0.257
-579.792	-122.063	-0.340	-0.056
-578.777	-200.000	0.009	0.064
-577.763	-19.804	0.097	-0.060
-576.748	-43.897	0.145	0.073
-575.733	255.162	-0.119	0.203
-574.719	-140.469	0.349	-0.036
-573.704	-89.039	-0.445	-0.131
-572.690	433.390	0.141	0.304
-571.675	309.141	-0.134	-0.249
-570.661	-56.432	0.275	-0.122
-569.646	-85.704	0.082	0.025
-568.631	380.920	0.157	-0.320
-567.617	-200.000	0.033	-0.196
-566.602	382.745	-0.177	-0.363
-565.588	157.685	0.194	-0.267
-564.573	134.441	-0.230	-0.297
-563.558	0.617	0.487	-0.347
-562.544	504.283	0.041	0.094
-561.529	87.429	-0.162	0.178
-560.515	-118.350	0.180	-0.032
-559.500	-150.175	0.334	0.026
-558.485	-166.112	-0.242	-0.010
-557.471	-200.000	-0.029	0.320
-556.456	-200.000	-0.016	0.181
-555.442	-110.842	-0.079	-0.016
-554.427	-14.653	-0.178	0.114
-553.412	4.272	-0.107	0.078
-552.398	-200.000	0.032	-0.158
-551.383	-132.096	0.229	0.030
-550.369	-187.365	0.132	0.002
-549.354	-94.313	0.124	0.034
-548.339	-84.753	0.301	0.094
-547.325	800.000	-0.024	0.092
-546.310	530.255	0.133	-0.313
-545.296	-200.000	-0.021	-0.114
-544.281	-121.751	0.374	-0.061
-543.266	-69.913	0.181	0.069
-542.252	33.882	0.093	0.080
-541.237	800.000	0.056	0.231
-540.223	180.317	-0.081	-0.118
-539.208	-120.502	-0.176	0.030
-538.193	-45.371	0.152	-0.075
-537.179	-53.449	0.269	-0.122
-536.164	68.926	-0.164	-0.168
-535.150	165.868	-0.081	0.113
-534.135	393.054	0.156	0.323
-533.121	-50.336	-0.308	0.145
-532.106	-79.915	-0.361	0.121
-531.091	152.803	0.194	0.264
-530.077	-200.000	0.049	-0.255
-529.062	-99.308	0.300	-0.075
-528.048	-2.730	-0.190	0.132
-527.033	23.335	-0.353	0.288
-526.018	603.576	-0.048	-0.118
-525.004	-194.198	-0.135	-0.001
-523.989	-133.715	0.019	0.002
-522.975	-148.136	0.246	-0.020
-521.960	-200.000	0.031	0.375
-520.945	-161.969	-0.368	-0.018
-519.931	646.848	0.018	-0.046
-518.916	150.834	0.116	-0.156
-517.902	-74.949	-0.197	-0.070
-516.887	-53.858	0.114	-0.052
-515.872	-134.345	-0.147	0.018
-514.858	733.493	0.039	-0.103
-513.843	-40.841	0.095	0.049
-512.829	800.000	-0.048	0.166
-511.814	222.555	0.062	-0.100
-510.799	182.855	0.157	-0.231
-509.785	45.518	-0.442	-0.405
-508.770	-200.000	-0.041	-0.205
-507.756	423.071	-0.029	0.062
-506.741	172.165	-0.138	0.197
-505.726	-200.000	0.044	-0.220
-504.712	-23.764	-0.256	-0.152
-503.697	-140.352	0.105	-0.011
-502.683	-200.000	0.018	-0.191
-501.668	-200.000	-0.019	-0.096
-500.653	126.033	-0.085	-0.107
-499.639	49.379	0.037	0.035
-498.624	-100.799	-0.247	0.060
-497.610	-3.913	-0.251	0.173
-496.595	509.144	-0.018	0.041
-495.581	61.713	0.191	-0.189
-494.566	-200.000	0.021	-0.236
-493.551	16.063	0.131	-0.103
-492.537	-28.555	-0.175	-0.100
-491.522	-200.000	0.020	0.316
-490.508	-200.000	-0.037	-0.286
-489.493	11.611	-0.088	-0.067
-488.478	-4.131	-0.192	-0.132
-487.464	100.156	0.143	0.164
-486.449	800.000	0.060	0.226
-485.435	113.381	-0.098	-0.118
-484.420	-163.655	-0.112	-0.005
-483.405	-102.507	-0.146	0.035
-482.391	486.194	-0.182	0.412
-481.376	121.600	-0.012	0.015
-480.362	-83.658	-0.188	0.060
-479.347	241.231	-0.235	-0.390
-478.332	482.241	0.050	0.112
-477.318	398.464	0.043	0.089
-476.303	58.456	0.205	0.200
-475.289	800.000	-0.071	-0.279
-474.274	-133.719	0.155	0.019
-473.259	-0.087	0.065	-0.046
-472.245	-65.072	0.580	-0.232
-471.230	-27.846	0.340	-0.196
-470.216	-124.182	0.162	-0.025
-469.201	319.637	0.201	0.378
-468.186	77.476	0.015	-0.016
-467.172	8.698	0.053	-0.040
-466.157	-200.000	-0.232	0.000
-465.143	-136.770	0.452	-0.052
-464.128	-95.502	0.156	-0.042
-463.113	-200.000	0.046	0.515
-462.099	19.094	-0.074	0.059
-461.084	10.110	-0.076	-0.057
-460.070	-39.372	-0.170	0.089
-459.055	621.899	-0.100	-0.249
-458.040	537.693	-0.025	0.060
-457.026	-200.000	0.001	0.083
-456.011	530.699	-0.082	0.193
-454.997	800.000	0.007	0.022
-453.982	800.000	0.085	0.242
-452.968	-91.348	0.080	0.023
-451.953	800.000	-0.045	0.127
-450.938	-122.277	-0.258	-0.042
-449.924	-115.890	0.382	0.071
-448.909	-200.000	0.008	0.197
-447.895	-171.995	0.132	0.004
-446.880	800.000	-0.086	-0.333
-445.865	413.759	-0.130	-0.274
-444.851	-132.736	0.331	0.042
-443.836	109.004	-0.189	-0.224
-442.822	-79.294	0.243	0.081
-441.807	800.000	-0.054	0.210
-440.792	20.958	-0.174	-0.140
-439.778	69.975	-0.111	-0.114
-438.763	-200.000	0.013	-0.090
-437.749	-22.142	0.387	0.233
-436.734	-132.886	-0.202	-0.026
-435.719	-46.811	0.244	-0.118
-434.705	57.749	-0.167	-0.162
-433.690	-164.919	0.270	0.012
-432.676	91.300	-0.136	0.151
-431.661	227.800	-0.167	0.269
-430.646	16.910	0.224	0.175
-429.632	-80.105	-0.169	-0.056
-428.617	-200.000	-0.023	-0.161
-427.603	800.000	-0.111	0.331
-426.588	129.226	-0.198	-0.251
-425.573	56.648	0.054	0.052
-424.559	427.174	0.069	0.147
-423.544	111.209	0.081	-0.097
-422.530	-0.181	-0.071	-0.050
-421.515	-149.400	-0.129	0.010
-420.500	-137.590	0.064	0.007
-419.486	-80.743	-0.299	-0.098
-418.471	-200.000	-0.022	-0.136
-417.457	800.000	0.092	0.280
-416.442	331.383	-0.170	-0.324
-415.428	86.590	-0.235	-0.257
-414.413	702.773	-0.100	0.262
-413.398	41.478	-0.147	0.132
-412.384	-173.547	0.084	0.003
-411.369	267.005	-0.208	0.361
-410.355	800.000	-0.059	0.202
-409.340	151.238	0.103	0.139
-408.325	-14.299	-0.188	-0.120
-407.311	-77.015	-0.066	0.023
-406.296	-58.397	-0.203	0.087
-405.282	164.221	-0.100	-0.139
-404.267	-18.265	-0.161	-0.100
-403.252	-81.415	0.242	0.079
-402.238	30.449	-0.047	-0.040
-401.223	-103.704	-0.234	0.054
-400.209	800.000	0.096	-0.290
-399.194	-153.168	0.009	-0.001
-398.179	-48.808	-0.208	-0.099
-397.165	-0.724	0.128	-0.090
-396.150	270.819	0.078	0.137
-395.136	-55.100	0.165	-0.074
-394.121	800.000	-0.076	-0.216
-393.106	-200.000	-0.031	0.186
-392.092	-163.007	0.037	-0.002
-391.077	277.881	-0.196	0.344
-390.063	800.000	0.055	-0.157
-389.048	13.079	-0.184	-0.141
-388.033	-95.217	0.266	0.071
-387.019	273.766	0.051	0.089
-386.004	293.238	-0.107	-0.193
-384.990	800.000	-0.042	0.137
-383.975	-140.518	-0.038	-0.004
-382.960	-76.026	0.117	-0.041
-381.946	-184.962	-0.115	-0.002
-380.931	166.708	-0.167	-0.234
-379.917	-100.159	-0.248	-0.061
-378.902	-200.000	-0.000	0.184
-377.888	-200.000	0.035	-0.181
-376.873	37.483	-0.266	0.234
-375.858	-162.028	0.063	-0.003
-374.844	-91.750	-0.237	-0.067
-373.829	-55.127	0.259	-0.115
-372.815	-17.867	-0.361	-0.224
-371.800	-54.798	0.311	0.139
-370.785	-103.675	-0.280	-0.065
-369.771	800.000	0.056	0.163
-368.756	-118.695	0.287	-0.050
-367.742	473.299	0.130	0.289
-366.727	-136.721	-0.170	0.019
-365.712	42.214	-0.126	0.113
-364.698	21.147	-0.200	-0.160
-363.683	488.827	0.080	-0.181
-362.669	43.611	0.197	-0.178
-361.654	-200.000	0.018	0.111
-360.639	-134.648	0.089	-0.011
-359.625	-79.095	0.180	0.060
-358.610	-60.334	0.237	-0.100
-357.596	-96.414	-0.061	-0.016
-356.581	-14.334	-0.267	-0.170
-355.566	-131.842	0.194	0.025
-354.552	-200.000	0.024	-0.120
-353.537	-194.734	-0.232	-0.002
-352.523	8.842	-0.144	0.107
-351.508	29.280	0.288	0.242
-350.493	46.105	-0.132	-0.121
-349.479	26.361	-0.121	-0.100
-348.464	-95.891	-0.106	0.028
-347.450	106.270	0.146	-0.170
-346.435	-88.845	-0.146	0.043
-345.420	-92.766	0.123	0.034
-344.406	-43.664	0.327	0.163
-343.391	-200.000	-0.046	0.281
-342.377	-200.000	-0.037	-0.163
-341.362	-34.093	-0.202	-0.110
-340.348	-1.332	-0.100	-0.070
-339.333	45.090	0.234	0.213
-338.318	52.557	0.086	-0.081
-337.304	-111.239	-0.221	0.045
-336.289	-38.621	0.219	-0.114
-335.275	-200.000	0.011	0.103
-334.260	-149.961	0.119	0.009
-333.245	-200.000	0.047	-0.291
-332.231	-200.000	-0.017	-0.121
-331.216	-62.190	0.136	-0.056
-330.202	-114.619	-0.134	0.025
-329.187	-110.687	0.556	-0.113
-328.172	-200.000	-0.009	0.158
-327.158	20.727	-0.292	0.234
-326.143	583.046	-0.118	0.285
-325.129	-200.000	0.029	-0.226
-324.114	-81.607	0.115	-0.037
-323.099	-80.924	-0.235	-0.077
-322.085	-200.000	0.025	-0.499
-321.070	-134.916	-0.021	0.003
-320.056	388.552	-0.077	0.157
-319.041	22.838	-0.072	-0.058
-318.026	780.462	0.163	-0.440
-317.012	800.000	-0.092	0.376
-315.997	-28.189	-0.182	0.104
-314.983	-40.527	-0.275	-0.141
-313.968	800.000	0.153	-0.525
-312.953	97.834	-0.061	0.069
-311.939	-200.000	0.013	-0.091
-310.924	-200.000	-0.058	-0.423
-309.910	-151.348	-0.150	-0.011
-308.895	-200.000	-0.047	0.211
-307.880	-147.674	0.318	0.026
-306.866	35.075	-0.195	-0.168
-305.851	-73.113	-0.151	0.055
-304.837	-36.772	0.382	0.202
-303.822	94.222	-0.227	0.254
-302.807	89.198	-0.292	0.320
-301.793	-1.647	-0.176	-0.123
-300.778	-105.621	0.088	-0.020
-299.764	-200.000	0.018	0.205
-298.749	190.247	-0.186	0.276
-297.735	118.920	0.080	0.098
-296.720	-200.000	-0.002	0.216
-295.705	-105.844	0.273	0.061
-294.691	800.000	0.044	-0.179
-293.676	144.973	0.060	0.079
-292.662	225.158	0.105	-0.167
-291.647	-200.000	0.009	0.103
-290.632	611.660	-0.095	-0.234
-289.618	138.255	0.115	0.148
-288.603	-45.603	0.250	0.122
-287.589	-2.479	0.103	-0.071
-286.574	-200.000	0.020	0.197
-285.559	-24.105	0.188	0.111
-284.545	-200.000	0.049	0.301
-283.530	-200.000	-0.011	0.085
-282.516	800.000	-0.038	0.154
-281.501	-105.475	-0.177	-0.040
-280.486	-136.844	-0.008	-0.001
-279.472	623.248	0.067	0.166
-278.457	-47.005	-0.193	-0.093
-277.443	531.200	0.156	0.364
-276.428	-11.763	-0.161	0.104
-275.413	140.052	-0.064	0.083
-274.399	-175.165	0.082	-0.002
-273.384	-200.000	0.035	0.422
-272.370	26.654	0.207	0.171
-271.355	-200.000	-0.032	0.315
-270.340	-4.625	-0.352	0.239
-269.326	-200.000	0.001	-0.213
-268.311	132.240	-0.128	0.163
-267.297	41.657	-0.089	0.079
-266.282	-54.558	-0.289	-0.129
-265.267	-111.362	0.192	0.039
-264.253	412.560	-0.096	-0.201
-263.238	297.523	-0.126	-0.228
-262.224	-200.000	0.006	-0.206
-261.209	35.033	0.124	-0.107
-260.195	-51.655	0.200	0.092
-259.180	313.389	0.146	0.270
-258.165	-113.087	-0.207	0.040
-257.151	-49.247	0.203	-0.096
-256.136	-130.230	0.167	-0.022
-255.122	-107.101	0.516	-0.112
-254.107	182.380	-0.051	-0.074
-253.092	-21.122	0.171	0.103
-252.078	-200.000	0.007	0.115
-251.063	-142.056	-0.184	-0.018
-250.049	63.485	-0.079	0.078
-249.034	-7.148	-0.095	-0.063
-248.019	-160.894	0.300	0.016
-247.005	137.799	-0.107	0.138
-245.990	800.000	0.018	0.064
-244.976	270.600	0.097	0.167
-243.961	43.063	0.126	-0.113
-242.946	-118.852	-0.159	-0.028
-241.932	608.913	0.074	-0.181
-240.917	-10.191	0.200	0.131
-239.903	-105.465	-0.195	0.043
-238.888	-78.862	-0.191	-0.064
-237.873	39.594	0.180	0.159
-236.859	-110.280	-0.317	0.065
-235.844	3.670	0.290	-0.208
-234.830	-23.956	-0.144	0.085
-233.815	139.860	0.117	-0.151
-232.800	-200.000	-0.036	-0.156
-231.786	-200.000	-0.027	0.225
-230.771	-200.000	-0.012	0.139
-229.757	-21.886	0.218	0.130
-228.742	766.278	-0.045	-0.120
-227.727	-34.351	0.202	0.109
-226.713	-155.758	-0.483	0.030
-225.698	-21.658	-0.381	-0.228
-224.684	-10.237	-0.155	0.101
-223.669	162.586	0.139	-0.192
-222.655	27.531	0.176	0.145
-221.640	570.792	0.068	0.163
-220.625	88.025	0.178	-0.194
-219.611	800.000	0.061	0.234
-218.596	-92.244	0.334	0.093
-217.582	520.774	-0.040	0.093
-216.567	-165.865	-0.075	-0.003
-215.552	-92.747	0.245	-0.067
-214.538	-10.022	-0.140	-0.092
-213.523	84.277	-0.137	0.147
-212.509	221.774	0.133	0.210
-211.494	-200.000	0.060	0.299
-210.479	-200.000	-0.008	-0.212
-209.465	-22.602	-0.131	-0.078
-208.450	800.000	-0.078	0.272
-207.436	139.952	0.080	0.103
-206.421	800.000	-0.055	0.159
-205.406	-1.843	0.075	-0.052
-204.392	-200.000	-0.003	-0.174
-203.377	-7.860	0.129	0.085
-202.363	800.000	-0.092	-0.273
-201.348	-200.000	0.037	0.282
-200.333	-31.957	-0.071	0.039
-199.319	-200.000	-0.035	0.188
-198.304	-79.974	0.209	-0.069
-197.290	-6.222	-0.190	0.127
-196.275	144.543	0.109	-0.142
-195.260	-200.000	0.049	0.286
-194.246	-99.295	0.389	0.096
-193.231	-98.519	0.295	0.074
-192.217	-171.415	-0.215	-0.007
-191.202	-200.000	0.049	0.218
-190.187	800.000	-0.035	0.146
-189.173	16.568	-0.051	-0.039
-188.158	392.799	0.212	-0.434
-187.144	-117.948	-0.135	-0.024
-186.129	-11.837	0.114	0.073
-185.114	-66.407	-0.054	-0.021
-184.100	800.000	0.105	-0.303
-183.085	-59.032	0.160	0.068
-182.071	-120.618	0.155	0.026
-181.056	690.532	0.075	-0.193
-180.042	3.022	0.226	-0.161
-179.027	158.641	-0.367	0.500
-178.012	-0.413	0.298	0.208
-176.998	-8.365	0.151	0.100
-175.983	-144.709	-0.265	-0.024
-174.969	-29.030	-0.236	0.133
-173.954	161.777	-0.297	-0.408
-172.939	-120.633	-0.174	-0.029
-171.925	800.000	0.068	-0.190
-170.910	-194.547	0.475	0.004
-169.896	800.000	-0.021	0.066
-168.881	-75.267	-0.254	0.089
-167.866	35.443	0.231	0.199
-166.852	31.572	0.175	-0.148
-165.837	74.225	-0.066	0.068
-164.823	800.000	0.061	0.190
-163.808	-54.454	-0.262	-0.116
-162.793	-69.849	0.145	0.054
-161.779	-69.380	-0.244	0.092
-160.764	-75.662	-0.210	0.073
-159.750	3.934	0.365	0.262
-158.735	-134.906	-0.208	0.025
-157.720	-200.000	0.001	-0.193
-156.706	800.000	0.040	-0.143
-155.691	-200.000	0.103	-0.443
-154.677	99.611	-0.282	-0.320
-153.662	-200.000	0.045	0.321
-152.647	173.726	-0.138	0.195
-151.633	-200.000	-0.018	-0.107
-150.618	182.863	0.261	0.377
-149.604	497.194	-0.085	-0.191
-148.589	800.000	-0.039	-0.149
-147.574	800.000	-0.031	0.100
-146.560	-200.000	0.010	-0.065
-145.545	-200.000	-0.003	-0.127
-144.531	-200.000	0.045	0.327
-143.516	-47.877	0.398	0.189
-142.502	800.000	-0.052	0.210
-141.487	227.565	-0.064	0.103
-140.472	-144.142	-0.324	0.030
-139.458	-138.455	0.213	0.023
-138.443	377.849	-0.128	0.257
-137.429	-35.385	-0.090	-0.048
-136.414	31.697	0.218	0.183
-135.399	-36.138	-0.213	0.112
-134.385	479.750	-0.154	0.342
-133.370	800.000	0.029	0.090
-132.356	-143.136	0.242	0.023
-131.341	-200.000	-0.026	-0.124
-130.326	800.000	-0.111	0.310
-129.312	-200.000	0.089	0.459
-128.297	-151.603	-0.324	-0.023
-127.283	800.000	-0.037	-0.123
-126.268	-106.286	0.205	-0.045
-125.253	-200.000	0.042	-0.270
-124.239	719.320	-0.150	-0.389
-123.224	164.602	-0.154	-0.213
-122.210	179.542	-0.218	-0.313
