DTS Sentinel unit serial number:	SN413079Multiplexer serial number:	ORYXHardware model number:	OX4-SRSoftware version number:	ORYX F/W v4.00 Oryx Data Collector v3.7.2.0data status	okinstallation	princeton_trtdifferential loss correction	single-endedforward channel	channel 4reverse channel	N/Adate	2019/09/11time	02:07:10forward acquisition time	60.00reverse acquisition time	0.00gamma	496.2192k internal	0.2318k external	0.2318temperature offset calibration	0.9950default loss term (dB/km)	0.3790temperature slope calibration	1.0000multiplexer offset coefficient	1.0000multiplexer slope coefficient	1.0000fibre end	0.00T internal ref (°C)	29.19T ext. ref 1 (°C)	-0.28T ext. ref 2 (°C)	23.08length (m)	temperature (°C)	Stokes	anti-Stokes-747.200	-111.280	0.248	-0.051
-746.185	251.839	-0.026	-0.044
-745.171	133.559	-0.108	-0.141
-744.156	-103.085	-0.259	-0.062
-743.142	334.650	0.061	0.120
-742.127	-63.436	0.115	0.048
-741.112	-200.000	-0.067	0.301
-740.098	120.072	-0.111	0.139
-739.083	-27.559	-0.080	0.047
-738.069	30.860	0.110	0.095
-737.054	-38.147	0.132	0.071
-736.039	-197.110	0.112	0.001
-735.025	480.865	-0.107	-0.245
-734.010	-34.814	-0.274	0.151
-732.996	38.199	0.082	-0.074
-731.981	258.806	-0.190	0.331
-730.966	-120.700	0.157	0.027
-729.952	-116.968	0.280	-0.052
-728.937	-200.000	-0.001	0.046
-727.923	280.501	-0.077	0.138
-726.908	-200.000	0.052	0.284
-725.894	-67.045	-0.327	-0.130
-724.879	-64.315	-0.130	0.053
-723.864	-32.293	-0.078	-0.044
-722.850	800.000	-0.129	-0.373
-721.835	-93.402	-0.122	0.034
-720.821	-200.000	0.011	-0.274
-719.806	12.930	-0.185	-0.145
-718.791	491.398	0.031	0.072
-717.777	-60.849	0.221	-0.095
-716.762	-40.236	-0.087	-0.046
-715.748	65.127	-0.161	0.165
-714.733	114.838	0.183	-0.226
-713.718	371.790	-0.172	-0.352
-712.704	-200.000	0.058	-0.275
-711.689	283.664	-0.077	-0.139
-710.675	226.964	-0.126	0.207
-709.660	-160.876	0.092	-0.005
-708.645	213.349	-0.220	-0.351
-707.631	81.200	0.028	-0.031
-706.616	-39.527	0.160	-0.085
-705.602	573.000	-0.104	-0.257
-704.587	120.919	-0.143	0.180
-703.572	118.167	0.039	0.049
-702.558	61.107	0.210	0.210
-701.543	-100.656	0.276	0.069
-700.529	800.000	0.069	0.271
-699.514	-1.739	-0.276	-0.196
-698.499	-177.491	-0.097	-0.002
-697.485	317.906	-0.025	0.048
-696.470	-200.000	0.005	0.038
-695.456	435.422	0.148	-0.325
-694.441	224.872	0.017	0.028
-693.426	11.196	0.273	-0.211
-692.412	-200.000	0.187	-0.000
-691.397	-200.000	-0.008	0.152
-690.383	531.800	0.134	-0.319
-689.368	-92.700	0.217	-0.061
-688.354	79.302	0.169	-0.183
-687.339	7.327	-0.123	-0.093
-686.324	-200.000	0.018	0.200
-685.310	800.000	-0.094	-0.352
-684.295	800.000	0.055	0.235
-683.281	94.161	-0.255	-0.292
-682.266	-44.637	0.041	0.021
-681.251	-143.850	0.308	-0.029
-680.237	-200.000	0.033	-0.197
-679.222	-22.649	0.144	-0.088
-678.208	79.032	-0.179	0.194
-677.193	-200.000	0.042	0.210
-676.178	-126.253	-0.115	-0.017
-675.164	183.261	0.042	0.063
-674.149	-17.428	-0.174	0.110
-673.135	444.926	-0.072	-0.159
-672.120	-69.309	-0.098	0.038
-671.105	362.800	-0.163	0.331
-670.091	577.288	0.097	0.240
-669.076	-200.000	0.009	0.196
-668.062	262.496	0.054	0.095
-667.047	241.978	-0.190	-0.320
-666.032	800.000	-0.051	0.162
-665.018	-78.366	0.181	-0.063
-664.003	-61.239	0.129	0.055
-662.989	800.000	0.056	0.241
-661.974	800.000	-0.055	0.243
-660.959	186.233	0.119	-0.179
-659.945	4.712	0.205	-0.152
-658.930	95.657	0.142	-0.163
-657.916	4.151	0.270	0.200
-656.901	-200.000	0.010	-0.090
-655.886	800.000	-0.055	0.226
-654.872	-162.464	0.196	-0.010
-653.857	57.770	-0.155	0.152
-652.843	-83.706	0.248	-0.080
-651.828	609.063	0.100	0.251
-650.814	50.929	0.115	-0.110
-649.799	27.221	-0.057	-0.048
-648.784	-97.879	-0.135	-0.035
-647.770	236.667	-0.065	-0.108
-646.755	-200.000	-0.013	-0.111
-645.741	800.000	0.051	0.190
-644.726	171.387	0.077	-0.112
-643.711	-105.584	0.354	-0.081
-642.697	27.379	0.237	-0.201
-641.682	212.825	0.119	0.189
-640.668	573.716	0.132	0.324
-639.653	-73.791	-0.169	0.062
-638.638	119.090	-0.196	0.244
-637.624	-140.883	-0.315	-0.033
-636.609	224.232	0.113	-0.185
-635.595	-90.670	-0.219	0.064
-634.580	800.000	-0.072	-0.239
-633.565	-96.940	0.216	-0.057
-632.551	65.401	0.216	-0.220
-631.536	-20.702	-0.579	-0.358
-630.522	110.176	0.111	-0.134
-629.507	166.884	-0.120	-0.171
-628.492	-200.000	0.041	0.196
-627.478	-21.894	-0.272	0.166
-626.463	232.048	-0.102	0.169
-625.449	-200.000	0.005	0.196
-624.434	-200.000	-0.047	0.257
-623.419	18.388	0.213	0.171
-622.405	82.195	0.298	0.325
-621.390	-97.392	-0.277	-0.073
-620.376	747.152	-0.051	0.139
-619.361	350.127	0.095	-0.189
-618.346	20.551	-0.172	0.140
-617.332	168.567	-0.126	0.181
-616.317	-17.869	0.165	-0.104
-615.303	-14.004	-0.353	0.230
-614.288	-200.000	-0.009	-0.314
-613.273	-200.000	-0.076	-0.365
-612.259	70.882	-0.079	-0.082
-611.244	-67.370	-0.334	-0.132
-610.230	54.466	0.058	0.056
-609.215	521.378	0.109	-0.257
-608.201	156.753	0.174	-0.241
-607.186	-166.816	0.294	-0.012
-606.171	6.680	-0.206	0.154
-605.157	457.882	0.038	0.085
-604.142	-29.168	0.103	-0.059
-603.128	-164.316	0.158	-0.007
-602.113	-200.000	-0.035	-0.274
-601.098	-200.000	-0.008	-0.297
-600.084	-149.527	-0.299	0.024
-599.069	-17.253	0.285	0.181
-598.055	28.268	-0.203	-0.172
-597.040	330.693	-0.052	-0.101
-596.025	-169.361	-0.356	0.013
-595.011	259.587	-0.063	0.109
-593.996	355.512	0.113	0.226
-592.982	520.049	-0.012	0.029
-591.967	545.228	0.074	0.179
-590.952	54.478	0.053	-0.051
-589.938	-149.868	0.268	-0.021
-588.923	18.945	-0.060	0.048
-587.909	77.528	0.131	-0.140
-586.894	-112.664	-0.445	-0.089
-585.879	-200.000	-0.184	0.001
-584.865	152.733	0.179	0.246
-583.850	-200.000	-0.037	0.214
-582.836	-39.977	0.221	0.116
-581.821	-200.000	0.026	0.142
-580.806	-121.649	0.225	-0.038
-579.792	-200.000	0.008	-0.265
-578.777	481.523	-0.033	0.075
-577.763	74.168	-0.273	0.288
-576.748	468.171	0.049	-0.110
-575.733	-200.000	-0.016	-0.166
-574.719	-103.138	0.145	-0.034
-573.704	-200.000	0.047	-0.228
-572.690	539.271	-0.033	0.080
-571.675	409.685	-0.032	-0.069
-570.661	52.230	0.441	0.422
-569.646	174.476	-0.132	0.191
-568.631	-52.158	0.281	0.131
-567.617	32.319	0.088	-0.076
-566.602	13.960	-0.288	-0.225
-565.588	-167.642	0.446	-0.018
-564.573	-134.890	-0.474	0.058
-563.558	99.958	0.084	0.098
-562.544	5.222	-0.014	0.010
-561.529	162.910	0.178	0.250
-560.515	-71.276	-0.202	0.076
-559.500	-110.260	0.486	0.102
-558.485	-200.000	0.008	-0.187
-557.471	174.120	0.205	-0.298
-556.456	73.972	0.139	0.147
-555.442	-18.861	0.142	0.089
-554.427	132.129	0.214	-0.277
-553.412	-138.967	0.114	0.012
-552.398	-69.038	0.108	-0.042
-551.383	-134.076	0.177	-0.022
-550.369	-16.192	-0.119	-0.076
-549.354	-173.978	0.171	-0.005
-548.339	-200.000	0.010	-0.118
-547.325	-133.624	-0.029	0.004
-546.310	71.905	0.133	-0.139
-545.296	-72.829	-0.144	-0.053
-544.281	-200.000	0.047	-0.259
-543.266	-51.142	0.125	-0.059
-542.252	608.264	-0.120	0.301
-541.237	-167.326	-0.150	0.006
-540.223	-16.338	-0.179	-0.114
-539.208	-45.721	-0.154	0.076
-538.193	146.599	-0.122	-0.165
-537.179	96.466	-0.247	-0.283
-536.164	-200.000	0.032	-0.354
-535.150	-2.609	-0.175	-0.123
-534.135	-111.544	0.188	0.038
-533.121	210.224	0.106	-0.167
-532.106	189.168	0.171	0.257
-531.091	466.579	-0.158	-0.354
-530.077	87.576	0.099	-0.110
-529.062	21.263	-0.098	0.080
-528.048	356.652	0.066	-0.131
-527.033	-200.000	-0.047	-0.208
-526.018	800.000	-0.180	-0.505
-525.004	65.637	0.095	-0.097
-523.989	6.044	-0.303	-0.225
-522.975	-200.000	-0.003	0.222
-521.960	277.615	-0.113	-0.202
-520.945	55.820	0.144	-0.140
-519.931	-149.136	-0.330	-0.027
-518.916	271.193	-0.024	-0.042
-517.902	-122.692	-0.202	-0.033
-516.887	-128.758	-0.305	-0.043
-515.872	-130.165	-0.246	0.034
-514.858	5.418	-0.089	0.066
-513.843	-166.456	0.186	0.008
-512.829	404.616	0.078	0.165
-511.814	384.881	0.023	0.048
-510.799	15.172	-0.053	0.042
-509.785	-183.419	-0.228	0.004
-508.770	800.000	-0.045	-0.168
-507.756	-49.697	0.072	0.035
-506.741	-12.240	-0.147	0.096
-505.726	-15.272	0.232	0.149
-504.712	110.515	0.105	-0.127
-503.697	-159.632	-0.138	0.008
-502.683	291.470	-0.140	-0.255
-501.668	130.522	-0.299	-0.384
-500.653	-200.000	-0.056	0.331
-499.639	-71.728	-0.118	-0.044
-498.624	42.187	0.202	0.183
-497.610	-29.782	-0.164	0.094
-496.595	-53.875	0.095	-0.044
-495.581	185.674	-0.213	-0.317
-494.566	248.900	-0.025	0.043
-493.551	178.653	0.128	-0.188
-492.537	229.119	-0.216	0.352
-491.522	28.878	-0.222	-0.188
-490.508	-111.452	-0.293	0.060
-489.493	201.369	-0.062	0.096
-488.478	800.000	-0.051	0.187
-487.464	-170.143	0.364	-0.013
-486.449	-20.289	-0.196	0.121
-485.435	322.502	-0.090	-0.171
-484.420	97.755	0.097	0.112
-483.405	129.601	-0.208	-0.266
-482.391	-200.000	0.055	-0.267
-481.376	-200.000	-0.037	-0.218
-480.362	-20.701	0.058	0.035
-479.347	-200.000	0.006	0.247
-478.332	-95.684	-0.319	0.086
-477.318	758.397	-0.096	0.260
-476.303	800.000	0.036	-0.143
-475.289	-88.038	-0.070	0.021
-474.274	103.010	0.076	0.090
-473.259	131.117	0.070	-0.089
-472.245	-51.469	-0.287	0.134
-471.230	-147.760	0.123	0.010
-470.216	-162.053	0.217	0.011
-469.201	-200.000	0.061	0.483
-468.186	48.432	0.178	0.166
-467.172	553.068	0.119	-0.285
-466.157	136.104	0.019	0.024
-465.143	-47.118	0.061	0.030
-464.128	407.300	-0.050	0.106
-463.113	-124.902	0.186	-0.029
-462.099	-27.067	-0.191	-0.111
-461.084	-90.566	-0.098	0.028
-460.070	-120.812	0.230	-0.039
-459.055	800.000	-0.029	0.110
-458.040	-200.000	-0.001	-0.283
-457.026	-90.528	0.359	-0.104
-456.011	-200.000	0.009	-0.198
-454.997	-67.614	0.084	-0.033
-453.982	141.076	0.194	-0.256
-452.968	-32.206	-0.063	-0.035
-451.953	800.000	0.045	0.132
-450.938	50.581	0.247	-0.234
-449.924	13.277	0.080	0.062
-448.909	414.834	0.035	-0.075
-447.895	-92.742	0.187	0.052
-446.880	-200.000	-0.082	0.000
-445.865	-200.000	0.013	-0.370
-444.851	800.000	0.113	-0.316
-443.836	-200.000	-0.034	-0.266
-442.822	321.714	-0.251	0.477
-441.807	313.021	0.158	-0.297
-440.792	-123.497	0.303	-0.048
-439.778	-200.000	0.005	-0.041
-438.763	89.044	-0.123	0.137
-437.749	-200.000	0.001	0.035
-436.734	-69.823	-0.413	0.158
-435.719	-148.133	0.099	-0.008
-434.705	-119.676	-0.229	-0.040
-433.690	280.531	0.271	-0.485
-432.676	300.688	-0.136	-0.252
-431.661	542.498	0.206	0.490
-430.646	-59.445	0.219	0.094
-429.632	-194.054	-0.450	-0.004
-428.617	3.602	-0.273	-0.199
-427.603	-200.000	-0.041	-0.207
-426.588	621.287	-0.111	0.278
-425.573	-98.763	-0.066	-0.017
-424.559	800.000	-0.022	-0.087
-423.544	-137.579	-0.221	0.025
-422.530	118.402	-0.060	0.074
-421.515	-129.321	0.105	-0.015
-420.500	-200.000	0.044	-0.377
-419.486	800.000	-0.025	0.079
-418.471	-173.019	0.215	0.007
-417.457	-65.795	-0.173	-0.069
-416.442	-5.826	0.134	-0.092
-415.428	3.167	0.161	0.117
-414.413	-200.000	-0.013	0.076
-413.398	-70.812	0.195	0.074
-412.384	-79.518	0.288	0.097
-411.369	-200.000	0.016	0.299
-410.355	6.607	0.155	0.115
-409.340	541.572	-0.195	0.465
-408.325	-50.890	0.164	-0.077
-407.311	43.457	-0.094	0.086
-406.296	29.847	-0.175	0.149
-405.282	800.000	-0.041	-0.164
-404.267	-2.791	0.124	0.087
-403.252	98.664	-0.061	0.070
-402.238	-76.883	0.444	0.155
-401.223	-73.346	-0.330	0.120
-400.209	-9.462	-0.455	0.303
-399.194	-200.000	-0.005	-0.109
-398.179	216.812	-0.181	0.288
-397.165	-36.385	-0.223	0.120
-396.150	-150.037	0.188	0.015
-395.136	-26.251	-0.290	0.170
-394.121	-200.000	0.030	0.245
-393.106	423.163	0.054	0.116
-392.092	-15.242	-0.154	0.099
-391.077	537.464	-0.146	-0.347
-390.063	-155.719	-0.166	0.011
-389.048	114.800	0.118	0.143
-388.033	599.547	0.150	-0.371
-387.019	-140.729	0.069	0.007
-386.004	405.700	-0.038	0.080
-384.990	321.547	-0.099	0.188
-383.975	-200.000	-0.050	0.231
-382.960	-198.158	-0.277	0.002
-381.946	-4.144	0.114	-0.079
-380.931	-77.289	0.091	0.031
-379.917	27.787	-0.093	-0.078
-378.902	290.186	0.058	-0.104
-377.888	175.443	-0.185	0.267
-376.873	46.729	0.203	0.189
-375.858	-84.669	0.260	-0.082
-374.844	161.650	0.077	-0.107
-373.829	785.985	-0.072	0.196
-372.815	377.570	0.091	0.185
-371.800	-200.000	0.002	0.532
-370.785	-184.202	-0.179	0.003
-369.771	238.794	0.067	-0.111
-368.756	687.463	-0.006	-0.017
-367.742	48.550	0.112	0.104
-366.727	-200.000	-0.019	0.257
-365.712	255.441	-0.103	0.176
-364.698	-200.000	-0.004	0.023
-363.683	-200.000	-0.015	0.169
-362.669	138.059	0.176	0.230
-361.654	-170.040	0.567	0.020
-360.639	-200.000	-0.011	-0.301
-359.625	54.719	0.170	-0.163
-358.610	-138.705	-0.389	0.042
-357.596	-149.562	0.158	0.012
-356.581	158.976	0.091	-0.126
-355.566	78.495	-0.059	0.063
-354.552	64.280	-0.104	0.104
-353.537	800.000	-0.075	0.293
-352.523	-200.000	-0.012	0.218
-351.508	27.595	-0.303	-0.254
-350.493	3.951	-0.085	0.062
-349.479	-200.000	-0.016	-0.152
-348.464	247.544	-0.122	0.205
-347.450	-111.658	0.166	-0.034
-346.435	404.105	-0.029	-0.061
-345.420	80.606	0.107	-0.115
-344.406	-132.830	-0.234	0.030
-343.391	293.211	0.235	-0.427
-342.377	-200.000	0.098	-0.472
-341.362	-0.730	-0.115	-0.081
-340.348	48.337	0.168	0.157
-339.333	-171.857	-0.090	0.003
-338.318	175.010	0.019	-0.027
-337.304	46.319	0.184	0.170
-336.289	-7.348	-0.137	-0.093
-335.275	-54.203	0.154	-0.070
-334.260	-200.000	-0.016	-0.280
-333.245	426.212	0.078	0.168
-332.231	69.712	0.210	0.215
-331.216	-200.000	-0.009	-0.068
-330.202	-129.817	-0.375	0.051
-329.187	56.964	-0.239	-0.232
-328.172	-200.000	0.043	-0.258
-327.158	607.788	-0.096	-0.239
-326.143	87.726	0.217	-0.239
-325.129	-118.520	0.521	0.092
-324.114	350.131	-0.173	-0.340
-323.099	226.371	0.069	-0.112
-322.085	328.312	0.044	0.084
-321.070	275.509	0.177	0.312
-320.056	530.982	0.139	-0.328
-319.041	13.797	0.115	-0.089
-318.026	-148.079	0.388	-0.032
-317.012	-109.607	0.250	-0.053
-315.997	-200.000	-0.028	0.281
-314.983	282.579	0.099	0.177
-313.968	428.711	-0.102	0.219
-312.953	-96.919	-0.168	-0.044
-311.939	-160.137	-0.274	0.015
-310.924	-44.827	-0.183	-0.091
-309.910	124.859	0.246	-0.308
-308.895	-180.569	-0.132	-0.003
-307.880	203.633	-0.248	-0.382
-306.866	-200.000	-0.046	-0.213
-305.851	50.057	-0.108	-0.101
-304.837	800.000	0.074	-0.308
-303.822	-176.499	-0.207	0.005
-302.807	-200.000	0.000	0.222
-301.793	-85.505	0.272	-0.084
-300.778	45.498	-0.218	0.200
-299.764	37.349	-0.044	0.039
-298.749	800.000	-0.016	-0.062
-297.735	-200.000	0.002	-0.279
-296.720	65.197	-0.385	0.387
-295.705	-200.000	-0.039	-0.262
-294.691	-89.436	0.414	0.121
-293.676	155.934	-0.181	-0.248
-292.662	20.753	-0.149	0.120
-291.647	-200.000	-0.037	0.179
-290.632	-200.000	-0.021	0.243
-289.618	-65.882	0.117	0.047
-288.603	-20.105	0.193	-0.118
-287.589	800.000	-0.017	-0.051
-286.574	-57.847	-0.080	-0.035
-285.559	-148.996	0.156	-0.012
-284.545	31.709	-0.138	-0.118
-283.530	-57.347	-0.211	0.092
-282.516	-18.526	0.122	0.075
-281.501	530.721	0.065	-0.153
-280.486	198.082	0.077	-0.117
-279.472	40.575	0.053	0.048
-278.457	-15.689	0.151	-0.096
-277.443	207.561	-0.033	0.051
-276.428	168.057	-0.222	-0.314
-275.413	-200.000	-0.054	0.305
-274.399	129.119	0.105	0.134
-273.384	30.037	0.167	-0.141
-272.370	800.000	0.083	0.266
-271.355	-200.000	-0.009	0.084
-270.340	196.186	0.067	0.102
-269.326	800.000	-0.069	0.246
-268.311	49.050	0.156	0.145
-267.297	-200.000	-0.035	0.161
-266.282	10.686	-0.109	0.083
-265.267	-177.045	0.286	-0.007
-264.253	-61.931	0.227	0.094
-263.238	313.001	0.087	0.162
-262.224	-174.445	-0.279	0.008
-261.209	-146.353	0.268	0.023
-260.195	322.676	-0.089	0.169
-259.180	-200.000	0.003	0.244
-258.165	-109.881	0.121	0.025
-257.151	-101.338	0.048	0.012
-256.136	-127.200	-0.186	0.027
-255.122	362.748	-0.113	0.225
-254.107	-27.925	0.035	-0.020
-253.092	38.771	0.263	-0.233
-252.078	-40.885	0.078	0.040
-251.063	-200.000	0.062	0.392
-250.049	-68.848	0.127	-0.049
-249.034	557.207	0.008	0.019
-248.019	71.869	-0.160	0.165
-247.005	123.878	-0.211	0.263
-245.990	-118.112	-0.065	-0.011
-244.976	212.510	0.048	0.074
-243.961	-95.852	0.173	-0.046
-242.946	430.624	0.103	0.220
-241.932	-27.607	0.161	-0.093
-240.917	24.677	0.120	-0.099
-239.903	164.378	-0.163	-0.228
-238.888	-96.751	0.162	0.042
-237.873	-40.670	-0.148	0.076
-236.859	-200.000	-0.006	0.135
-235.844	-200.000	0.028	-0.209
-234.830	8.839	0.043	0.032
-233.815	-200.000	-0.048	-0.242
-232.800	-147.562	0.112	-0.009
-231.786	-200.000	-0.013	-0.088
-230.771	-200.000	0.030	-0.155
-229.757	-69.608	0.088	0.033
-228.742	140.143	0.104	0.135
-227.727	15.783	0.136	0.106
-226.713	443.900	0.116	-0.252
-225.698	-200.000	-0.004	0.228
-224.684	-48.079	0.394	-0.189
-223.669	-139.526	0.363	0.039
-222.655	229.980	0.068	-0.111
-221.640	-151.821	0.281	0.020
-220.625	-153.061	-0.259	0.018
-219.611	-28.051	-0.494	0.284
-218.596	800.000	0.057	0.171
-217.582	-86.906	-0.083	0.025
-216.567	-43.031	0.111	0.056
-215.552	-93.520	-0.263	-0.072
-214.538	-121.948	0.513	0.084
-213.523	20.504	0.172	0.138
-212.509	800.000	0.053	0.169
-211.494	200.163	0.064	0.097
-210.479	-200.000	-0.085	0.422
-209.465	-43.448	0.363	0.182
-208.450	386.971	0.151	-0.310
-207.436	58.872	-0.236	0.230
-206.421	14.355	0.048	0.037
-205.406	226.618	0.104	0.168
-204.392	176.374	-0.243	0.349
-203.377	-200.000	0.026	-0.221
-202.363	230.973	-0.026	0.042
-201.348	-78.933	0.367	-0.124
-200.333	370.279	-0.123	-0.247
-199.319	-128.741	0.342	0.048
-198.304	136.687	0.211	-0.273
-197.290	71.195	-0.148	-0.152
-196.275	155.390	0.167	-0.227
-195.260	250.270	-0.010	0.016
-194.246	63.478	0.162	0.161
-193.231	-125.132	0.130	0.020
-192.217	43.494	-0.295	-0.267
-191.202	18.446	-0.471	-0.373
-190.187	800.000	-0.061	0.171
-189.173	31.788	-0.100	0.085
-188.158	36.171	-0.226	-0.197
-187.144	-159.437	-0.150	0.008
-186.129	-200.000	0.002	0.031
-185.114	-163.596	-0.202	0.009
-184.100	-200.000	-0.062	-0.302
-183.085	-200.000	-0.015	-0.210
-182.071	-4.557	-0.174	-0.119
-181.056	3.647	0.031	0.022
-180.042	-48.451	-0.096	-0.046
-179.027	-106.831	0.217	0.048
-178.012	800.000	-0.075	-0.232
-176.998	29.263	-0.300	0.252
-175.983	-91.770	-0.233	0.066
-174.969	143.067	0.158	-0.208
-173.954	-200.000	-0.034	-0.174
-172.939	-200.000	-0.021	0.211
-171.925	-77.489	0.095	0.032
-170.910	-200.000	0.023	0.139
-169.896	355.656	-0.058	0.114
-168.881	-200.000	-0.027	-0.146
-167.866	8.653	0.183	0.136
-166.852	-168.412	0.216	-0.008
-165.837	372.106	-0.117	-0.235
-164.823	-99.879	-0.093	0.023
-163.808	-40.716	-0.044	0.022
-162.793	-85.838	0.270	-0.083
-161.779	800.000	-0.047	-0.187
-160.764	-150.985	-0.282	0.021
-159.750	-9.489	0.265	0.175
-158.735	73.947	-0.086	0.090
-157.720	-67.072	-0.347	0.135
-156.706	-30.545	0.114	0.064
-155.691	748.664	-0.127	0.339
-154.677	-147.900	0.078	-0.006
-153.662	91.584	-0.137	0.153
-152.647	68.302	-0.112	0.114
-151.633	-200.000	-0.009	0.122
-150.618	-88.282	0.201	0.060
-149.604	800.000	0.070	0.243
-148.589	155.459	-0.149	-0.203
-147.574	800.000	-0.023	0.084
-146.560	-137.052	-0.282	-0.032
-145.545	-200.000	0.163	-0.001
-144.531	-50.685	0.197	-0.092
-143.516	-200.000	0.057	0.293
-142.502	-109.745	0.331	0.069
-141.487	563.486	0.032	-0.077
-140.472	-200.000	-0.058	-0.262
-139.458	-200.000	0.080	-0.396
-138.443	18.869	0.446	-0.353
-137.429	-142.028	-0.301	-0.030
-136.414	1.822	0.133	-0.095
-135.399	-23.317	-0.192	-0.114
-134.385	-200.000	-0.045	0.265
-133.370	6.126	0.164	-0.120
-132.356	205.275	0.128	-0.197
-131.341	-113.996	0.455	0.087
-130.326	199.218	-0.036	-0.054
-129.312	184.263	0.106	-0.155
-128.297	669.870	0.051	-0.130
-127.283	338.967	-0.078	0.150
-126.268	-200.000	-0.019	0.198
-125.253	476.375	-0.019	-0.043
-124.239	106.228	-0.164	0.191
-123.224	250.451	0.141	0.237
-122.210	-106.797	-0.530	-0.116
-121.195	43.538	0.101	0.091
-120.180	-82.351	-0.446	0.143
