DTS Sentinel unit serial number:	SN413079Multiplexer serial number:	ORYXHardware model number:	OX4-SRSoftware version number:	ORYX F/W v4.00 Oryx Data Collector v3.7.2.0data status	okinstallation	princeton_trtdifferential loss correction	single-endedforward channel	channel 4reverse channel	N/Adate	2019/09/18time	10:13:35forward acquisition time	60.00reverse acquisition time	0.00gamma	496.2192k internal	0.2319k external	0.2319temperature offset calibration	0.9983default loss term (dB/km)	0.3790temperature slope calibration	1.0000multiplexer offset coefficient	1.0000multiplexer slope coefficient	1.0000fibre end	0.00T internal ref (°C)	27.87T ext. ref 1 (°C)	0.32T ext. ref 2 (°C)	24.19length (m)	temperature (°C)	Stokes	anti-Stokes-747.200	-200.000	-0.004	0.149
-746.185	-200.000	0.004	0.343
-745.171	-155.853	0.394	-0.025
-744.156	425.567	-0.095	0.207
-743.142	-73.115	-0.355	0.132
-742.127	212.595	0.076	0.121
-741.112	391.107	-0.070	-0.147
-740.098	64.444	0.144	0.147
-739.083	800.000	0.083	0.280
-738.069	264.313	0.028	0.050
-737.054	443.795	0.047	0.105
-736.039	128.481	0.314	-0.405
-735.025	-79.657	0.381	0.130
-734.010	-115.821	-0.258	-0.049
-732.996	-4.934	-0.316	-0.220
-731.981	97.791	0.191	-0.222
-730.966	106.493	0.070	0.084
-729.952	5.340	-0.283	-0.211
-728.937	371.308	-0.102	0.208
-727.923	-200.000	-0.032	-0.168
-726.908	105.279	-0.063	0.075
-725.894	52.596	0.201	-0.194
-724.879	-33.962	-0.395	-0.220
-723.864	-72.514	-0.408	-0.152
-722.850	-83.496	-0.197	0.064
-721.835	-31.705	-0.130	-0.074
-720.821	83.938	-0.132	-0.146
-719.806	79.383	-0.148	-0.161
-718.791	-78.899	-0.119	-0.041
-717.777	-66.570	-0.256	-0.103
-716.762	-69.816	-0.081	-0.031
-715.748	-180.763	-0.219	-0.004
-714.733	147.194	-0.161	0.219
-713.718	710.493	-0.131	-0.349
-712.704	-200.000	-0.000	-0.449
-711.689	-60.383	-0.373	-0.160
-710.675	-153.592	-0.139	0.010
-709.660	-31.543	0.179	-0.102
-708.645	81.366	-0.189	0.206
-707.631	-127.197	-0.268	-0.040
-706.616	230.535	-0.183	0.303
-705.602	140.869	-0.179	-0.239
-704.587	416.107	0.025	-0.055
-703.572	370.416	-0.018	-0.038
-702.558	-19.892	-0.313	-0.195
-701.543	800.000	-0.056	-0.195
-700.529	205.349	-0.093	-0.146
-699.514	-35.606	-0.168	0.092
-698.499	67.875	-0.074	-0.076
-697.485	-32.462	-0.100	-0.057
-696.470	800.000	-0.085	-0.287
-695.456	238.735	-0.095	-0.160
-694.441	38.111	-0.091	-0.082
-693.426	138.590	-0.152	0.201
-692.412	63.683	-0.310	0.314
-691.397	-160.502	-0.196	-0.011
-690.383	-15.785	0.056	0.036
-689.368	800.000	-0.068	0.218
-688.354	35.994	-0.186	-0.165
-687.339	-100.474	0.127	-0.032
-686.324	-85.919	-0.240	-0.075
-685.310	324.643	0.152	-0.293
-684.295	-39.709	-0.196	-0.104
-683.281	60.655	-0.065	-0.065
-682.266	-109.984	-0.294	-0.062
-681.251	-200.000	-0.002	0.214
-680.237	150.487	-0.044	-0.060
-679.222	-57.429	0.026	-0.012
-678.208	-152.721	0.038	0.003
-677.193	800.000	0.073	-0.244
-676.178	-200.000	0.023	-0.182
-675.164	-60.717	-0.123	0.053
-674.149	654.017	0.061	-0.158
-673.135	-140.204	-0.082	0.009
-672.120	-76.866	-0.067	0.024
-671.105	800.000	-0.019	0.062
-670.091	800.000	0.025	0.108
-669.076	-2.866	0.279	0.197
-668.062	65.928	-0.080	-0.082
-667.047	-35.117	-0.265	-0.146
-666.032	-16.593	-0.300	-0.192
-665.018	-200.000	0.004	0.289
-664.003	163.403	-0.072	0.102
-662.989	-200.000	-0.041	0.285
-661.974	800.000	-0.084	0.313
-660.959	-34.585	-0.109	-0.060
-659.945	-143.373	-0.177	-0.017
-658.930	-136.753	0.293	0.034
-657.916	-56.921	-0.079	-0.035
-656.901	-200.000	-0.037	0.315
-655.886	-200.000	-0.008	-0.316
-654.872	190.738	-0.135	-0.205
-653.857	-127.327	0.231	-0.034
-652.843	-200.000	-0.031	-0.138
-651.828	-200.000	0.014	-0.229
-650.814	-129.233	0.283	0.040
-649.799	-131.380	-0.321	-0.043
-648.784	-49.716	-0.242	-0.116
-647.770	34.450	0.323	-0.284
-646.755	-13.417	-0.086	0.056
-645.741	78.362	-0.057	0.061
-644.726	-146.247	0.116	-0.010
-643.711	97.692	-0.109	-0.126
-642.697	396.781	-0.167	-0.352
-641.682	-3.137	-0.171	-0.120
-640.668	-124.088	-0.159	0.025
-639.653	-124.490	-0.250	0.039
-638.638	-200.000	-0.006	-0.096
-637.624	284.880	0.129	-0.234
-636.609	258.946	-0.051	-0.088
-635.595	163.495	-0.199	0.282
-634.580	-112.249	0.085	-0.017
-633.565	-79.483	-0.183	0.062
-632.551	-1.209	0.220	0.157
-631.536	-26.100	0.420	-0.249
-630.522	156.961	0.114	0.159
-629.507	707.322	-0.035	-0.093
-628.492	376.184	-0.065	0.133
-627.478	-200.000	0.029	-0.436
-626.463	-200.000	-0.015	0.342
-625.449	191.727	-0.129	-0.196
-624.434	-180.222	0.206	-0.004
-623.419	21.002	-0.229	0.187
-622.405	-73.720	-0.128	0.047
-621.390	800.000	0.124	-0.354
-620.376	38.353	-0.105	0.094
-619.361	-48.585	0.158	0.077
-618.346	800.000	-0.069	-0.229
-617.332	16.656	0.093	0.074
-616.317	-200.000	-0.002	0.042
-615.303	-75.150	-0.379	0.136
-614.288	84.353	-0.149	0.164
-613.273	-2.172	-0.129	-0.091
-612.259	-74.990	0.198	-0.071
-611.244	-103.292	0.256	0.061
-610.230	-127.518	-0.093	0.014
-609.215	-97.588	0.335	0.088
-608.201	536.003	-0.028	-0.067
-607.186	-200.000	0.059	0.265
-606.171	283.492	-0.101	0.183
-605.157	-118.580	-0.409	-0.073
-604.142	-25.331	0.188	-0.112
-603.128	-200.000	0.011	-0.136
-602.113	-119.287	0.409	-0.072
-601.098	-41.603	-0.194	0.101
-600.084	471.035	0.052	0.119
-599.069	134.593	0.030	0.040
-598.055	-200.000	-0.009	-0.069
-597.040	-65.032	-0.045	0.018
-596.025	-42.106	-0.251	-0.129
-595.011	-81.792	-0.127	0.042
-593.996	-200.000	-0.093	-0.573
-592.982	94.969	-0.039	-0.045
-591.967	800.000	0.046	0.187
-590.952	278.220	0.133	0.239
-589.938	-55.252	0.147	-0.066
-588.923	26.167	0.130	0.109
-587.909	177.018	-0.060	0.087
-586.894	106.231	-0.213	-0.253
-585.879	-41.544	0.262	0.136
-584.865	-62.251	-0.116	0.049
-583.850	-4.712	0.221	0.154
-582.836	-200.000	0.061	-0.289
-581.821	14.268	0.349	0.274
-580.806	-200.000	0.014	0.170
-579.792	-113.699	0.378	-0.074
-578.777	-31.052	0.270	0.153
-577.763	-82.497	-0.155	-0.051
-576.748	453.911	-0.044	-0.098
-575.733	-200.000	-0.017	-0.107
-574.719	124.967	0.028	0.036
-573.704	187.938	-0.113	-0.169
-572.690	83.592	-0.038	0.041
-571.675	800.000	0.081	-0.331
-570.661	-60.766	0.144	-0.061
-569.646	191.171	-0.240	-0.362
-568.631	309.289	-0.110	-0.207
-567.617	107.663	-0.215	-0.257
-566.602	-61.141	-0.103	-0.044
-565.588	-157.366	0.109	0.007
-564.573	-57.182	0.175	-0.077
-563.558	-8.160	0.037	-0.025
-562.544	429.724	-0.163	-0.354
-561.529	179.589	0.193	0.283
-560.515	-101.957	-0.160	-0.039
-559.500	28.854	0.154	-0.131
-558.485	-200.000	0.008	0.109
-557.471	-44.709	-0.128	-0.064
-556.456	675.045	0.122	-0.318
-555.442	-155.512	0.239	0.016
-554.427	-31.016	-0.050	0.028
-553.412	-65.268	-0.022	-0.009
-552.398	-200.000	0.002	0.261
-551.383	-85.256	-0.315	0.099
-550.369	26.377	-0.239	0.200
-549.354	317.683	-0.052	-0.099
-548.339	-180.600	-0.119	0.002
-547.325	800.000	-0.044	-0.187
-546.310	229.067	-0.008	-0.014
-545.296	54.650	-0.046	-0.045
-544.281	247.284	-0.021	-0.035
-543.266	-200.000	0.025	0.140
-542.252	213.102	-0.051	-0.081
-541.237	126.421	-0.283	-0.359
-540.223	333.719	-0.080	-0.156
-539.208	800.000	0.086	-0.332
-538.193	173.495	0.146	-0.212
-537.179	144.214	0.222	-0.298
-536.164	800.000	0.073	0.244
-535.150	-44.623	0.134	0.067
-534.135	125.872	-0.227	0.287
-533.121	-200.000	-0.010	0.085
-532.106	-183.667	-0.143	0.002
-531.091	396.570	0.133	-0.278
-530.077	-100.391	0.339	0.084
-529.062	800.000	0.067	0.241
-528.048	-12.646	0.074	-0.048
-527.033	335.575	-0.133	0.258
-526.018	601.531	0.128	-0.320
-525.004	-200.000	0.012	-0.131
-523.989	-20.135	-0.074	-0.046
-522.975	-150.797	-0.262	0.020
-521.960	8.336	0.250	-0.189
-520.945	253.872	0.122	-0.209
-519.931	-125.539	-0.504	-0.077
-518.916	-86.340	-0.289	-0.089
-517.902	84.298	0.131	0.144
-516.887	-47.030	-0.178	0.087
-515.872	11.917	-0.046	0.036
-514.858	-120.841	-0.167	-0.028
-513.843	-55.596	0.375	0.168
-512.829	286.567	0.046	0.083
-511.814	60.739	0.108	0.107
-510.799	-130.660	-0.258	-0.035
-509.785	298.376	-0.131	-0.241
-508.770	-96.613	-0.222	0.059
-507.756	-98.852	-0.402	-0.102
-506.741	800.000	0.020	-0.082
-505.726	462.754	-0.107	0.239
-504.712	-200.000	-0.023	0.212
-503.697	99.082	-0.081	0.094
-502.683	219.838	0.128	0.205
-501.668	-134.382	0.304	-0.037
-500.653	181.229	0.088	-0.130
-499.639	-155.793	0.302	0.019
-498.624	46.657	0.093	-0.086
-497.610	451.436	-0.119	0.265
-496.595	9.541	-0.244	0.185
-495.581	-138.450	-0.202	-0.022
-494.566	800.000	-0.055	-0.186
-493.551	147.426	0.369	-0.497
-492.537	154.580	-0.193	-0.266
-491.522	610.458	0.029	0.072
-490.508	-53.528	0.032	-0.015
-489.493	89.886	-0.146	-0.164
-488.478	800.000	-0.040	0.114
-487.464	448.926	0.075	0.165
-486.449	800.000	-0.097	-0.320
-485.435	30.846	-0.106	-0.091
-484.420	515.309	0.084	0.198
-483.405	165.683	-0.059	-0.083
-482.391	128.552	-0.168	0.214
-481.376	143.802	-0.107	0.143
-480.362	-200.000	0.012	-0.256
-479.347	-122.396	-0.308	-0.050
-478.332	-126.546	-0.077	0.012
-477.318	-6.485	-0.229	-0.157
-476.303	800.000	0.049	0.198
-475.289	18.753	0.033	-0.027
-474.274	760.515	-0.016	0.042
-473.259	-187.856	-0.153	-0.002
-472.245	800.000	-0.036	-0.135
-471.230	-132.816	-0.272	-0.035
-470.216	160.424	-0.149	0.209
-469.201	-92.533	0.070	0.020
-468.186	-200.000	0.017	0.238
-467.172	108.049	-0.104	0.124
-466.157	687.141	0.079	0.207
-465.143	-200.000	0.026	-0.202
-464.128	-32.184	-0.287	0.161
-463.113	-48.630	0.090	-0.043
-462.099	250.197	-0.133	0.226
-461.084	425.464	0.120	-0.259
-460.070	607.407	-0.032	0.080
-459.055	-157.249	-0.097	0.006
-458.040	296.509	-0.094	-0.173
-457.026	88.310	-0.146	0.163
-456.011	-39.025	-0.290	-0.152
-454.997	-200.000	-0.027	0.156
-453.982	387.268	-0.110	0.227
-452.968	-178.848	0.134	0.003
-451.953	-21.457	-0.256	-0.156
-450.938	-71.407	0.268	-0.100
-449.924	81.150	0.331	0.357
-448.909	-94.358	-0.048	0.013
-447.895	-13.383	-0.223	0.144
-446.880	-200.000	-0.050	-0.364
-445.865	-128.281	-0.217	0.031
-444.851	-106.507	0.151	0.034
-443.836	154.941	0.060	-0.082
-442.822	-200.000	-0.017	0.161
-441.807	568.776	0.158	0.384
-440.792	54.574	-0.207	0.200
-439.778	4.478	0.171	0.126
-438.763	-88.276	-0.267	-0.080
-437.749	800.000	0.101	0.288
-436.734	597.203	-0.072	0.178
-435.719	-200.000	-0.024	0.218
-434.705	-60.544	-0.279	-0.118
-433.690	-87.615	-0.166	-0.050
-432.676	800.000	0.103	-0.318
-431.661	-78.216	-0.325	-0.112
-430.646	762.931	0.048	-0.131
-429.632	50.228	-0.053	-0.050
-428.617	169.609	-0.162	0.232
-427.603	-37.120	-0.132	0.070
-426.588	800.000	-0.091	-0.295
-425.573	-200.000	0.027	-0.676
-424.559	7.983	-0.166	-0.124
-423.544	72.267	-0.186	0.194
-422.530	104.277	0.135	0.159
-421.515	360.982	0.147	-0.293
-420.500	-82.857	0.145	0.047
-419.486	-128.682	0.184	-0.026
-418.471	176.501	-0.201	-0.292
-417.457	146.702	-0.086	0.116
-416.442	-7.175	0.099	0.067
-415.428	-35.995	-0.154	0.083
-414.413	703.751	-0.070	0.185
-413.398	311.961	0.055	0.104
-412.384	-81.038	0.155	-0.051
-411.369	800.000	0.030	-0.120
-410.355	-200.000	0.011	0.144
-409.340	-128.577	-0.256	0.036
-408.325	-98.815	-0.129	0.033
-407.311	-80.649	-0.295	-0.098
-406.296	-28.422	-0.158	-0.091
-405.282	800.000	-0.097	0.357
-404.267	2.471	0.208	-0.150
-403.252	-14.770	0.294	-0.189
-402.238	97.677	0.080	-0.092
-401.223	-77.851	0.205	-0.071
-400.209	-144.828	0.096	-0.009
-399.194	282.667	0.138	0.248
-398.179	795.372	-0.111	0.306
-397.165	50.158	0.217	0.205
-396.150	134.933	0.063	-0.082
-395.136	217.972	0.063	-0.100
-394.121	-24.253	0.131	-0.078
-393.106	71.567	-0.095	0.098
-392.092	-103.460	-0.337	0.079
-391.077	-60.130	0.109	-0.046
-390.063	800.000	0.051	0.208
-389.048	591.343	-0.185	0.456
-388.033	-178.130	-0.324	0.008
-387.019	-120.417	-0.127	0.022
-386.004	-97.993	0.128	-0.033
-384.990	328.755	0.089	0.171
-383.975	1.143	-0.133	0.096
-382.960	-63.672	0.261	-0.107
-381.946	338.044	-0.132	-0.256
-380.931	18.609	0.187	-0.149
-379.917	-60.719	-0.344	0.146
-378.902	409.493	0.170	0.359
-377.888	-54.904	0.278	-0.125
-376.873	-87.645	-0.266	0.080
-375.858	-78.926	-0.249	-0.084
-374.844	538.807	-0.063	0.151
-373.829	513.379	-0.097	0.226
-372.815	110.715	-0.264	-0.317
-371.800	-200.000	-0.012	0.130
-370.785	-151.241	-0.237	-0.018
-369.771	289.253	0.101	0.182
-368.756	-73.967	-0.080	-0.029
-367.742	800.000	0.102	0.314
-366.727	-110.097	0.041	0.009
-365.712	800.000	-0.022	0.062
-364.698	301.846	-0.248	-0.458
-363.683	-104.639	-0.164	0.038
-362.669	272.002	-0.071	0.126
-361.654	800.000	-0.034	0.147
-360.639	800.000	-0.080	0.303
-359.625	-178.489	-0.343	-0.008
-358.610	-78.301	0.388	0.133
-357.596	305.061	-0.084	0.156
-356.581	329.171	0.081	0.155
-355.566	482.691	-0.179	0.405
-354.552	-200.000	0.016	-0.197
-353.537	-200.000	-0.043	-0.257
-352.523	-200.000	0.037	0.240
-351.508	-200.000	-0.034	-0.231
-350.493	-200.000	0.031	-0.205
-349.479	702.872	0.062	-0.161
-348.464	-87.938	0.326	0.098
-347.450	-7.969	0.399	0.268
-346.435	98.188	0.055	-0.063
-345.420	-200.000	-0.044	0.387
-344.406	81.712	0.265	-0.286
-343.391	89.619	-0.079	-0.088
-342.377	-50.662	0.177	0.083
-341.362	110.575	0.181	0.217
-340.348	257.063	0.040	-0.068
-339.333	117.117	0.157	-0.193
-338.318	800.000	-0.088	-0.279
-337.304	-123.602	-0.135	0.021
-336.289	728.382	-0.030	0.080
-335.275	-112.379	0.128	0.026
-334.260	-88.639	0.141	-0.042
-333.245	264.022	-0.009	0.016
-332.231	2.030	0.298	-0.214
-331.216	176.173	-0.069	0.099
-330.202	800.000	0.028	-0.079
-329.187	96.893	0.286	0.327
-328.172	-29.694	0.089	0.050
-327.158	304.354	0.075	0.139
-326.143	19.924	0.250	0.200
-325.129	-4.492	0.146	0.101
-324.114	15.863	-0.128	0.100
-323.099	-200.000	0.021	-0.146
-322.085	-200.000	-0.007	-0.093
-321.070	16.164	-0.055	0.044
-320.056	23.583	-0.278	0.228
-319.041	-39.962	0.208	-0.108
-318.026	620.217	0.017	0.042
-317.012	-200.000	0.000	0.015
-315.997	489.624	-0.117	0.266
-314.983	80.103	0.135	0.144
-313.968	-42.216	0.297	-0.151
-312.953	-200.000	-0.015	-0.123
-311.939	47.775	-0.064	0.059
-310.924	-30.865	0.347	-0.195
-309.910	75.188	0.288	0.302
-308.895	374.781	-0.030	-0.060
-307.880	-34.922	0.173	-0.094
-306.866	17.900	-0.061	-0.048
-305.851	79.600	-0.134	-0.143
-304.837	-58.127	0.169	0.073
-303.822	620.510	-0.080	0.201
-302.807	-200.000	0.013	0.412
-301.793	-200.000	0.013	-0.343
-300.778	18.687	-0.236	-0.188
-299.764	-24.861	0.286	-0.169
-298.749	-200.000	0.009	0.197
-297.735	800.000	-0.070	-0.299
-296.720	100.705	-0.307	-0.354
-295.705	605.562	-0.030	-0.075
-294.691	800.000	0.022	0.091
-293.676	-44.707	0.440	-0.219
-292.662	800.000	0.178	0.507
-291.647	379.907	-0.146	-0.298
-290.632	116.631	-0.334	-0.407
-289.618	-51.194	0.102	-0.047
-288.603	-114.974	0.147	0.028
-287.589	155.554	-0.036	0.050
-286.574	283.724	0.052	-0.093
-285.559	418.110	0.127	-0.271
-284.545	-109.264	0.294	0.062
-283.530	800.000	0.084	-0.351
-282.516	21.539	-0.075	0.061
-281.501	359.871	0.115	-0.229
-280.486	-24.140	0.170	0.101
-279.472	11.820	0.079	-0.060
-278.457	-200.000	0.023	0.167
-277.443	160.012	0.067	0.093
-276.428	-200.000	0.000	-0.041
-275.413	-200.000	-0.006	0.031
-274.399	-87.646	-0.119	-0.036
-273.384	79.830	0.070	0.075
-272.370	-54.781	-0.149	0.067
-271.355	-105.021	-0.236	0.054
-270.340	317.238	-0.038	0.072
-269.326	7.150	0.074	-0.055
-268.311	-200.000	0.064	-0.391
-267.297	-200.000	-0.002	0.067
-266.282	-10.416	0.172	0.113
-265.267	652.947	0.115	-0.293
-264.253	15.739	-0.168	0.131
-263.238	-200.000	0.027	0.221
-262.224	518.271	0.096	0.224
-261.209	-152.403	-0.134	0.010
-260.195	-200.000	0.003	-0.184
-259.180	-28.925	0.237	-0.135
-258.165	-200.000	-0.033	0.162
-257.151	45.909	-0.086	0.079
-256.136	78.040	-0.109	-0.116
-255.122	-39.223	0.234	0.122
-254.107	-30.187	0.179	0.101
-253.092	578.816	0.156	-0.379
-252.078	-200.000	0.003	-0.068
-251.063	233.064	0.041	-0.066
-250.049	39.789	-0.138	-0.123
-249.034	39.616	0.036	-0.032
-248.019	178.184	-0.123	-0.179
-247.005	-141.229	0.173	0.017
-245.990	-46.530	0.212	0.103
-244.976	800.000	-0.043	0.187
-243.961	-200.000	-0.028	-0.155
-242.946	80.018	0.061	-0.065
-241.932	-11.355	0.071	-0.046
-240.917	-181.160	0.298	0.006
-239.903	70.581	0.145	-0.148
-238.888	800.000	0.144	-0.420
-237.873	-146.611	0.450	0.039
-236.859	65.298	0.133	0.134
-235.844	752.611	0.137	0.368
-234.830	-200.000	0.035	0.160
-233.815	-71.602	0.357	-0.132
-232.800	93.951	0.058	-0.065
-231.786	-154.450	-0.177	-0.012
-230.771	-133.531	0.124	0.015
-229.757	-37.038	-0.187	0.100
-228.742	-200.000	-0.019	-0.107
-227.727	-25.968	0.055	-0.032
-226.713	117.766	-0.170	0.208
-225.698	-200.000	0.012	-0.129
-224.684	47.902	0.083	0.076
-223.669	800.000	-0.069	-0.190
-222.655	102.570	-0.024	0.027
-221.640	-26.032	-0.060	-0.035
-220.625	-200.000	-0.072	0.414
-219.611	-67.618	0.178	-0.069
-218.596	140.830	-0.302	-0.395
-217.582	-116.699	0.201	-0.037
-216.567	99.349	0.118	0.135
-215.552	72.076	0.153	-0.157
-214.538	94.838	-0.259	0.292
-213.523	-33.386	0.294	0.161
-212.509	437.121	0.067	0.145
-211.494	-200.000	0.016	0.108
-210.479	225.026	-0.102	0.164
-209.465	125.515	0.223	-0.279
-208.450	725.009	0.071	0.188
-207.436	468.519	0.048	0.107
-206.421	-55.729	-0.129	0.057
-205.406	-200.000	0.032	-0.158
-204.392	-34.584	0.102	-0.055
-203.377	-78.435	0.125	-0.042
-202.363	674.321	0.059	-0.153
-201.348	335.916	0.160	0.307
-200.333	800.000	-0.128	0.451
-199.319	296.390	0.206	0.375
-198.304	-132.746	0.249	-0.031
-197.290	800.000	0.086	-0.241
-196.275	-118.507	0.180	0.032
-195.260	27.522	0.142	0.118
-194.246	21.497	-0.126	-0.101
-193.231	151.035	-0.110	-0.148
-192.217	800.000	-0.055	0.224
-191.202	-43.250	0.330	0.165
-190.187	292.351	-0.056	-0.101
-189.173	800.000	-0.067	0.186
-188.158	-200.000	0.013	-0.258
-187.144	39.418	0.142	-0.126
-186.129	800.000	0.088	0.265
-185.114	-200.000	-0.008	-0.072
-184.100	-200.000	-0.014	-0.088
-183.085	-134.848	0.443	0.053
-182.071	800.000	0.035	-0.111
-181.056	74.939	0.211	0.220
-180.042	-122.127	-0.366	0.059
-179.027	-83.557	0.234	-0.074
-178.012	51.226	-0.167	0.157
-176.998	-200.000	0.002	-0.099
-175.983	-200.000	0.019	-0.172
-174.969	545.634	-0.090	0.212
-173.954	-2.385	0.299	-0.208
-172.939	-64.704	-0.329	0.132
-171.925	88.619	0.184	0.202
-170.910	-200.000	-0.061	0.342
-169.896	-200.000	-0.011	-0.207
-168.881	89.063	0.110	-0.121
-167.866	-15.695	-0.239	0.151
-166.852	234.298	-0.068	0.110
-165.837	304.431	-0.076	0.139
-164.823	94.262	-0.107	-0.120
-163.808	3.931	-0.172	0.124
-162.793	56.625	-0.097	-0.093
-161.779	134.902	-0.062	-0.079
-160.764	404.629	-0.135	0.281
-159.750	-167.961	-0.147	-0.006
-158.735	142.827	0.194	-0.255
-157.720	-200.000	0.025	0.359
-156.706	-200.000	0.044	-0.255
-155.691	-26.940	-0.084	-0.048
-154.677	-46.406	-0.408	-0.198
-153.662	376.731	-0.188	-0.379
-152.647	210.252	-0.145	0.225
-151.633	66.397	-0.270	0.272
-150.618	800.000	0.036	-0.103
-149.604	800.000	0.050	0.150
-148.589	19.897	-0.110	0.088
-147.574	-69.273	-0.077	-0.029
-146.560	-25.926	0.183	0.106
-145.545	592.929	0.062	0.152
-144.531	-88.014	-0.185	-0.055
-143.516	-200.000	-0.004	0.038
-142.502	800.000	0.023	0.070
-141.487	-176.015	-0.519	0.014
-140.472	-73.817	0.345	0.124
-139.458	-87.120	0.217	-0.065
-138.443	-200.000	0.021	0.233
-137.429	-177.374	0.167	-0.004
-136.414	416.344	0.142	0.300
-135.399	-35.717	0.288	-0.154
-134.385	15.311	-0.302	0.234
-133.370	-200.000	0.116	-0.595
-132.356	-24.397	0.216	0.127
-131.341	763.637	0.182	-0.488
-130.326	-200.000	0.015	-0.158
-129.312	-94.006	-0.259	-0.070
-128.297	-130.761	0.070	-0.009
-127.283	-200.000	-0.023	-0.187
-126.268	-158.769	-0.332	-0.019
-125.253	2.170	-0.293	-0.209
-124.239	110.543	-0.166	-0.197
-123.224	112.709	-0.033	-0.040
-122.210	-68.295	0.153	0.059
-121.195	409.939	-0.152	0.319
