DTS Sentinel unit serial number:	SN413079Multiplexer serial number:	ORYXHardware model number:	OX4-SRSoftware version number:	ORYX F/W v4.00 Oryx Data Collector v3.7.2.0data status	okinstallation	princeton_trtdifferential loss correction	single-endedforward channel	channel 4reverse channel	N/Adate	2019/09/12time	03:43:10forward acquisition time	60.00reverse acquisition time	0.00gamma	496.2192k internal	0.2309k external	0.2309temperature offset calibration	1.0097default loss term (dB/km)	0.3790temperature slope calibration	1.0000multiplexer offset coefficient	1.0000multiplexer slope coefficient	1.0000fibre end	0.00T internal ref (°C)	32.14T ext. ref 1 (°C)	2.13T ext. ref 2 (°C)	27.33length (m)	temperature (°C)	Stokes	anti-Stokes-747.200	-5.815	0.155	0.108
-746.185	35.159	-0.275	0.245
-745.171	27.278	0.112	-0.095
-744.156	32.170	0.254	0.223
-743.142	-200.000	-0.030	0.200
-742.127	800.000	0.071	0.301
-741.112	266.450	-0.040	0.071
-740.098	-60.336	0.269	-0.116
-739.083	38.738	-0.156	0.141
-738.069	179.928	0.063	0.093
-737.054	575.997	0.180	-0.448
-736.039	-132.713	-0.299	0.039
-735.025	-12.916	0.262	-0.173
-734.010	276.963	0.083	-0.150
-732.996	-196.874	-0.459	-0.003
-731.981	-66.477	0.338	-0.137
-730.966	473.151	-0.129	0.296
-729.952	-69.490	-0.204	0.079
-728.937	-99.719	-0.386	-0.098
-727.923	480.210	-0.050	0.115
-726.908	-131.598	0.137	-0.018
-725.894	-156.761	-0.341	0.021
-724.879	-200.000	0.074	0.420
-723.864	-200.000	0.135	0.000
-722.850	-152.419	0.224	0.016
-721.835	-200.000	-0.014	0.175
-720.821	435.658	-0.116	-0.256
-719.806	-96.121	0.063	-0.017
-718.791	-200.000	-0.048	0.234
-717.777	800.000	-0.126	0.381
-716.762	108.255	-0.134	-0.162
-715.748	113.807	-0.064	-0.079
-714.733	103.284	0.230	0.274
-713.718	130.041	-0.125	-0.162
-712.704	-200.000	0.021	-0.373
-711.689	800.000	0.050	-0.146
-710.675	489.681	0.104	-0.240
-709.660	-200.000	0.015	-0.113
-708.645	-200.000	0.079	-0.498
-707.631	-84.283	0.225	-0.072
-706.616	-20.623	0.248	0.155
-705.602	-200.000	-0.008	-0.181
-704.587	59.393	0.168	-0.168
-703.572	-73.195	0.153	-0.057
-702.558	16.948	0.144	-0.115
-701.543	12.537	0.073	0.057
-700.529	-134.308	0.190	0.024
-699.514	800.000	0.036	-0.130
-698.499	-63.719	-0.355	-0.148
-697.485	703.666	0.124	-0.331
-696.470	-200.000	0.019	-0.284
-695.456	-80.910	0.139	-0.047
-694.441	800.000	-0.018	-0.064
-693.426	800.000	-0.029	-0.109
-692.412	97.727	0.245	-0.286
-691.397	-200.000	-0.218	-0.000
-690.383	-56.289	0.121	0.054
-689.368	-200.000	0.043	-0.249
-688.354	-200.000	0.064	0.000
-687.339	206.061	0.065	-0.102
-686.324	7.542	-0.276	-0.209
-685.310	422.282	-0.188	0.410
-684.295	108.800	-0.197	-0.239
-683.281	-35.626	0.264	0.145
-682.266	800.000	-0.032	-0.107
-681.251	442.526	-0.062	-0.137
-680.237	204.187	0.158	-0.248
-679.222	800.000	0.044	0.127
-678.208	44.571	-0.073	0.068
-677.193	-123.667	0.101	0.016
-676.178	130.124	-0.077	-0.099
-675.164	-29.590	0.092	0.054
-674.149	-162.133	-0.302	0.015
-673.135	-200.000	-0.005	0.339
-672.120	21.106	0.107	-0.088
-671.105	-84.704	0.311	0.099
-670.091	-57.494	-0.023	0.010
-669.076	-4.934	-0.322	-0.225
-668.062	-200.000	0.004	-0.187
-667.047	-200.000	-0.031	-0.200
-666.032	-118.245	-0.232	0.042
-665.018	800.000	-0.013	-0.053
-664.003	-67.161	-0.099	0.040
-662.989	300.904	0.049	0.091
-661.974	800.000	0.062	-0.232
-660.959	-133.728	-0.289	0.037
-659.945	-200.000	-0.001	-0.203
-658.930	-200.000	-0.079	-0.355
-657.916	-66.986	-0.183	-0.073
-656.901	-135.901	0.044	0.005
-655.886	762.861	-0.013	0.035
-654.872	-58.241	0.294	-0.130
-653.857	800.000	0.007	-0.030
-652.843	-86.577	0.334	-0.104
-651.828	800.000	-0.010	-0.030
-650.814	-153.571	-0.109	0.008
-649.799	445.855	-0.165	-0.367
-648.784	800.000	0.087	-0.319
-647.770	171.395	-0.198	-0.288
-646.755	111.247	-0.231	0.281
-645.741	-141.225	0.142	-0.015
-644.726	-56.135	-0.213	0.096
-643.711	71.702	-0.238	-0.251
-642.697	13.443	-0.012	0.010
-641.682	5.346	0.064	0.048
-640.668	111.432	0.231	-0.281
-639.653	-87.612	-0.149	-0.046
-638.638	-200.000	-0.020	-0.116
-637.624	-134.051	-0.166	-0.021
-636.609	341.356	0.031	0.060
-635.595	-52.345	0.280	-0.131
-634.580	377.713	0.057	0.118
-633.565	-30.760	-0.390	0.223
-632.551	-90.546	-0.142	-0.042
-631.536	-138.431	0.372	-0.041
-630.522	-61.161	0.270	0.115
-629.507	334.108	-0.076	-0.149
-628.492	337.503	0.145	0.286
-627.478	800.000	0.100	-0.291
-626.463	129.454	0.141	0.182
-625.449	11.826	-0.179	-0.139
-624.434	-123.429	-0.180	-0.029
-623.419	31.812	0.174	0.151
-622.405	27.864	0.128	0.109
-621.390	-45.334	-0.245	-0.123
-620.376	48.376	-0.185	-0.175
-619.361	-149.376	0.207	0.017
-618.346	-135.436	-0.324	-0.039
-617.332	52.158	0.116	-0.112
-616.317	800.000	-0.033	0.115
-615.303	-200.000	0.022	-0.479
-614.288	304.467	-0.237	0.445
-613.273	742.732	-0.006	-0.015
-612.259	-200.000	-0.020	-0.189
-611.244	-46.886	-0.310	0.153
-610.230	176.068	0.083	0.122
-609.215	114.837	0.199	0.245
-608.201	800.000	0.060	-0.191
-607.186	-75.321	-0.523	-0.189
-606.171	244.886	0.119	-0.203
-605.157	275.348	-0.197	-0.353
-604.142	-200.000	0.038	-0.268
-603.128	120.606	0.305	0.383
-602.113	2.132	0.249	0.181
-601.098	144.685	-0.247	-0.333
-600.084	13.886	0.287	-0.226
-599.069	-23.906	0.186	-0.113
-598.055	34.739	-0.102	0.090
-597.040	-43.241	0.112	-0.057
-596.025	303.074	0.042	-0.078
-595.011	265.175	-0.124	-0.218
-593.996	68.331	0.122	-0.126
-592.982	-148.912	0.075	0.006
-591.967	246.436	0.070	-0.119
-590.952	-97.850	-0.267	-0.070
-589.938	13.922	-0.111	-0.087
-588.923	148.851	-0.072	0.098
-587.909	-122.832	0.147	0.024
-586.894	308.500	0.126	-0.237
-585.879	800.000	0.035	-0.119
-584.865	-44.168	-0.078	-0.040
-583.850	228.673	-0.129	-0.213
-582.836	45.394	0.233	-0.217
-581.821	-18.145	0.216	0.136
-580.806	-126.738	-0.079	0.012
-579.792	195.628	-0.151	0.232
-578.777	785.440	0.121	0.335
-577.763	-18.791	0.216	-0.136
-576.748	754.901	-0.139	0.379
-575.733	-80.422	0.105	0.035
-574.719	48.934	-0.163	-0.154
-573.704	800.000	-0.017	-0.052
-572.690	39.343	-0.113	-0.102
-571.675	-200.000	-0.003	0.304
-570.661	267.442	0.072	0.128
-569.646	800.000	-0.094	0.268
-568.631	-71.818	0.299	0.112
-567.617	146.589	-0.168	0.228
-566.602	-200.000	-0.003	-0.245
-565.588	23.697	-0.494	0.410
-564.573	800.000	-0.071	-0.239
-563.558	-200.000	0.010	0.244
-562.544	-94.936	-0.129	0.035
-561.529	800.000	-0.119	0.370
-560.515	15.119	-0.132	0.104
-559.500	77.231	0.211	0.226
-558.485	-149.643	0.195	-0.016
-557.471	302.878	0.081	-0.151
-556.456	163.854	-0.098	-0.140
-555.442	-80.614	-0.270	0.091
-554.427	145.124	-0.111	-0.150
-553.412	800.000	0.083	-0.324
-552.398	-200.000	0.036	-0.372
-551.383	158.676	-0.040	0.056
-550.369	235.945	-0.144	0.240
-549.354	-91.212	-0.200	-0.058
-548.339	-188.036	-0.290	0.004
-547.325	344.696	0.146	0.290
-546.310	439.947	-0.047	0.103
-545.296	42.652	0.079	0.073
-544.281	-99.340	-0.057	0.014
-543.266	-44.439	0.480	-0.242
-542.252	-59.540	-0.208	-0.090
-541.237	110.287	0.180	-0.218
-540.223	88.165	-0.059	-0.066
-539.208	341.597	0.091	-0.179
-538.193	-87.411	-0.103	-0.032
-537.179	-146.675	0.104	0.009
-536.164	-163.289	0.263	-0.013
-535.150	110.070	0.220	-0.266
-534.135	-200.000	-0.004	-0.033
-533.121	-200.000	0.038	0.255
-532.106	35.560	-0.044	-0.039
-531.091	-200.000	-0.013	-0.132
-530.077	-200.000	0.012	-0.199
-529.062	385.651	0.083	0.173
-528.048	-59.509	0.073	0.031
-527.033	180.039	-0.212	-0.312
-526.018	-19.125	-0.388	0.243
-525.004	-82.471	0.242	-0.079
-523.989	-101.696	-0.322	0.079
-522.975	-200.000	-0.002	-0.398
-521.960	-151.045	-0.206	-0.016
-520.945	23.474	-0.105	-0.087
-519.931	42.973	0.143	0.131
-518.916	-84.133	0.145	0.046
-517.902	65.697	-0.133	0.136
-516.887	-200.000	-0.022	-0.249
-515.872	-34.261	0.166	-0.092
-514.858	17.446	0.223	0.178
-513.843	-200.000	0.022	0.502
-512.829	800.000	-0.046	-0.159
-511.814	-50.366	-0.113	-0.054
-510.799	109.671	0.248	-0.299
-509.785	501.273	-0.209	-0.486
-508.770	8.729	0.145	0.110
-507.756	40.409	0.154	0.140
-506.741	176.624	-0.156	0.229
-505.726	-89.636	-0.223	0.066
-504.712	-49.541	-0.017	0.008
-503.697	154.638	0.159	0.219
-502.683	-17.042	0.329	-0.209
-501.668	-132.939	0.203	-0.026
-500.653	-15.198	-0.296	-0.191
-499.639	800.000	-0.026	-0.093
-498.624	-164.263	0.070	-0.003
-497.610	31.509	-0.060	-0.052
-496.595	92.890	0.193	-0.219
-495.581	425.876	-0.068	-0.148
-494.566	-146.579	0.176	-0.015
-493.551	-64.768	-0.152	-0.062
-492.537	-200.000	-0.038	0.266
-491.522	619.993	-0.177	0.448
-490.508	245.416	0.094	-0.160
-489.493	-47.843	-0.194	0.094
-488.478	-170.992	0.406	-0.014
-487.464	7.587	-0.111	-0.084
-486.449	-95.359	0.339	-0.092
-485.435	-133.387	-0.277	0.035
-484.420	-200.000	-0.020	-0.216
-483.405	-200.000	-0.029	0.191
-482.391	-75.700	0.177	0.063
-481.376	-109.798	-0.078	-0.017
-480.362	292.568	-0.135	0.247
-479.347	-149.613	-0.081	-0.006
-478.332	-95.347	-0.163	0.044
-477.318	96.988	-0.113	-0.130
-476.303	-0.145	0.173	0.124
-475.289	-131.273	-0.248	0.033
-474.274	6.217	-0.114	-0.085
-473.259	-65.745	0.291	-0.117
-472.245	26.098	0.071	0.059
-471.230	668.705	-0.228	-0.594
-470.216	-111.826	-0.145	0.029
-469.201	-200.000	-0.000	-0.025
-468.186	-86.996	-0.095	-0.029
-467.172	76.657	-0.402	-0.429
-466.157	800.000	-0.035	0.151
-465.143	45.485	-0.078	0.072
-464.128	10.352	0.135	0.104
-463.113	-200.000	0.027	-0.164
-462.099	-159.863	-0.186	0.010
-461.084	642.918	-0.068	-0.174
-460.070	-200.000	-0.037	0.166
-459.055	417.799	-0.037	-0.079
-458.040	-9.659	0.194	0.130
-457.026	32.518	-0.152	0.132
-456.011	164.322	-0.141	0.200
-454.997	28.231	-0.150	-0.127
-453.982	-70.537	0.165	-0.063
-452.968	-112.124	0.256	0.052
-451.953	219.321	-0.254	0.407
-450.938	-111.824	0.248	0.050
-449.924	-200.000	-0.032	-0.397
-448.909	-130.629	-0.071	-0.010
-447.895	281.518	-0.077	0.138
-446.880	800.000	0.070	0.265
-445.865	-70.577	-0.363	0.138
-444.851	426.086	0.074	0.159
-443.836	800.000	0.019	-0.078
-442.822	-161.867	-0.499	0.025
-441.807	195.327	-0.102	-0.156
-440.792	0.588	-0.175	-0.126
-439.778	-153.093	0.117	-0.008
-438.763	2.320	0.181	0.132
-437.749	162.671	0.041	0.058
-436.734	2.224	0.175	-0.127
-435.719	-200.000	-0.061	-0.445
-434.705	-51.820	-0.252	-0.118
-433.690	-33.511	-0.362	0.201
-432.676	-200.000	0.035	0.175
-431.661	-30.017	0.111	-0.063
-430.646	38.291	0.201	0.179
-429.632	132.987	-0.106	-0.137
-428.617	800.000	0.095	-0.350
-427.603	125.699	0.032	0.041
-426.588	105.040	-0.079	0.094
-425.573	-61.980	0.200	-0.084
-424.559	148.007	0.095	0.128
-423.544	-181.040	0.016	0.000
-422.530	-153.679	-0.235	0.016
-421.515	-30.111	-0.138	-0.079
-420.500	-112.853	0.110	-0.022
-419.486	66.065	-0.104	-0.106
-418.471	-110.661	0.193	0.040
-417.457	-19.255	-0.259	0.161
-416.442	-200.000	-0.047	0.294
-415.428	341.341	-0.123	0.241
-414.413	-58.070	0.213	-0.093
-413.398	-15.589	0.262	-0.167
-412.384	800.000	0.023	-0.073
-411.369	510.529	0.096	-0.225
-410.355	-29.433	0.098	-0.056
-409.340	336.307	-0.132	-0.257
-408.325	78.649	0.338	-0.362
-407.311	-56.318	0.046	-0.020
-406.296	300.252	0.198	0.367
-405.282	14.068	0.095	0.074
-404.267	378.503	0.191	0.392
-403.252	-8.142	-0.125	-0.084
-402.238	-28.843	0.381	0.219
-401.223	-200.000	-0.038	-0.259
-400.209	343.847	0.113	-0.221
-399.194	800.000	-0.057	0.198
-398.179	-132.438	0.376	-0.049
-397.165	-200.000	-0.008	0.161
-396.150	-126.829	0.275	0.041
-395.136	-200.000	-0.017	-0.118
-394.121	-60.707	-0.224	-0.095
-393.106	-34.369	0.050	0.027
-392.092	48.657	-0.154	0.145
-391.077	-120.149	0.217	-0.037
-390.063	-21.108	0.130	0.080
-389.048	-130.419	0.123	-0.017
-388.033	-114.865	0.155	-0.030
-387.019	103.425	0.052	0.061
-386.004	800.000	-0.046	0.149
-384.990	-91.440	0.309	0.088
-383.975	131.571	-0.066	0.085
-382.960	56.433	-0.116	-0.113
-381.946	-117.691	0.124	0.022
-380.931	-91.903	0.121	0.034
-379.917	12.734	-0.226	-0.175
-378.902	-200.000	-0.037	-0.246
-377.888	800.000	-0.046	0.192
-376.873	-123.230	-0.404	-0.065
-375.858	276.139	0.228	0.406
-374.844	50.174	-0.348	-0.329
-373.829	-73.473	0.068	0.025
-372.815	-200.000	0.012	0.240
-371.800	-200.000	0.042	0.389
-370.785	-11.891	0.236	-0.155
-369.771	800.000	-0.124	-0.457
-368.756	800.000	-0.055	-0.210
-367.742	800.000	-0.148	-0.474
-366.727	-124.719	0.204	-0.032
-365.712	-103.466	-0.259	-0.061
-364.698	-31.804	0.087	-0.049
-363.683	383.763	0.106	-0.219
-362.669	47.965	0.127	-0.118
-361.654	145.915	0.147	0.197
-360.639	-146.979	0.228	0.020
-359.625	800.000	-0.031	-0.093
-358.610	93.336	-0.126	-0.143
-357.596	-133.281	0.227	0.029
-356.581	-200.000	-0.020	0.135
-355.566	-80.662	0.021	-0.007
-354.552	448.109	-0.101	-0.222
-353.537	227.097	0.122	0.199
-352.523	352.136	0.096	-0.190
-351.508	-108.593	-0.089	0.019
-350.493	-76.004	-0.189	0.067
-349.479	-32.666	0.245	-0.137
-348.464	-8.892	0.176	-0.118
-347.450	-28.310	0.066	0.038
-346.435	-8.207	-0.145	0.098
-345.420	800.000	0.123	-0.403
-344.406	-125.336	-0.134	0.020
-343.391	-14.369	0.119	-0.077
-342.377	309.780	-0.129	-0.242
-341.362	800.000	-0.068	-0.270
-340.348	800.000	0.019	-0.077
-339.333	82.765	0.238	0.258
-338.318	800.000	0.029	0.107
-337.304	-200.000	0.021	-0.145
-336.289	11.633	0.217	0.167
-335.275	-63.232	0.233	0.096
-334.260	339.898	0.072	-0.140
-333.245	25.648	-0.266	0.222
-332.231	337.195	0.123	-0.239
-331.216	-19.972	-0.056	-0.035
-330.202	370.298	-0.232	-0.469
-329.187	242.232	0.068	-0.115
-328.172	-200.000	0.062	0.303
-327.158	405.644	0.076	-0.160
-326.143	241.042	-0.049	-0.082
-325.129	-7.743	0.554	-0.374
-324.114	-200.000	-0.092	-0.409
-323.099	-80.811	0.108	-0.036
-322.085	405.731	0.128	-0.270
-321.070	800.000	-0.053	0.205
-320.056	388.340	-0.026	0.054
-319.041	-42.161	0.251	-0.128
-318.026	-126.392	-0.159	-0.024
-317.012	-200.000	-0.010	-0.223
-315.997	159.295	-0.216	-0.300
-314.983	89.116	0.210	0.233
-313.968	24.663	0.012	-0.010
-312.953	190.446	0.097	-0.146
-311.939	-33.803	0.056	0.031
-310.924	-108.523	0.116	-0.025
-309.910	-93.915	0.245	-0.067
-308.895	-122.241	0.227	0.037
-307.880	800.000	-0.086	0.251
-306.866	800.000	-0.085	-0.251
-305.851	-107.698	-0.339	0.074
-304.837	800.000	-0.103	0.435
-303.822	800.000	-0.028	0.101
-302.807	-119.834	0.133	0.023
-301.793	126.072	0.095	-0.120
-300.778	-136.205	-0.306	0.036
-299.764	-1.409	-0.273	-0.193
-298.749	561.377	-0.155	0.373
-297.735	713.942	-0.044	0.117
-296.720	800.000	-0.055	0.158
-295.705	-200.000	-0.045	-0.229
-294.691	122.618	-0.143	-0.179
-293.676	-104.173	0.278	-0.065
-292.662	79.243	0.137	0.146
-291.647	14.760	-0.241	0.188
-290.632	-200.000	0.002	0.198
-289.618	104.749	-0.167	0.197
-288.603	-131.440	-0.077	-0.010
-287.589	-44.284	0.123	0.062
-286.574	66.087	-0.383	0.388
-285.559	-130.904	0.273	0.037
-284.545	-150.418	0.246	0.019
-283.530	544.639	0.137	-0.327
-282.516	800.000	-0.031	-0.088
-281.501	642.640	0.037	-0.095
-280.486	69.307	0.286	0.294
-279.472	404.409	0.089	0.187
-278.457	81.442	-0.061	0.066
-277.443	64.149	-0.152	0.152
-276.428	-55.074	0.227	-0.102
-275.413	296.067	-0.143	0.262
-274.399	-0.536	0.259	0.184
-273.384	325.645	0.136	0.259
-272.370	800.000	0.066	0.232
-271.355	40.790	-0.315	-0.284
-270.340	-65.981	-0.135	-0.054
-269.326	-74.665	0.055	-0.020
-268.311	-200.000	-0.038	0.234
-267.297	-200.000	0.016	0.251
-266.282	231.875	-0.017	-0.028
-265.267	-91.391	0.125	0.036
-264.253	800.000	-0.112	0.325
-263.238	-200.000	-0.033	-0.243
-262.224	-17.707	0.276	0.173
-261.209	800.000	-0.128	-0.364
-260.195	800.000	-0.104	-0.402
-259.180	-200.000	-0.019	0.179
-258.165	83.335	0.025	-0.028
-257.151	800.000	-0.083	0.245
-256.136	582.479	0.169	0.414
-255.122	-116.809	0.151	0.028
-254.107	800.000	-0.068	0.198
-253.092	-38.382	-0.130	0.069
-252.078	-21.761	0.072	-0.044
-251.063	-200.000	-0.023	0.146
-250.049	-200.000	0.027	0.119
-249.034	-113.067	-0.212	0.042
-248.019	800.000	0.041	0.135
-247.005	-109.203	-0.338	0.071
-245.990	-200.000	-0.027	-0.289
-244.976	57.001	0.076	0.074
-243.961	-20.622	-0.180	-0.110
-242.946	89.041	0.233	0.259
-241.932	9.870	0.324	0.245
-240.917	-200.000	0.108	-0.000
-239.903	-21.695	0.253	0.153
-238.888	-0.245	-0.355	0.251
-237.873	173.600	0.088	0.126
-236.859	147.574	0.125	0.167
-235.844	-45.044	-0.291	-0.144
-234.830	-31.069	0.106	-0.060
-233.815	-69.926	0.129	-0.049
-232.800	-1.797	0.184	0.129
-231.786	464.835	-0.018	-0.040
-230.771	75.252	-0.339	0.356
-229.757	113.402	0.201	0.243
-228.742	429.099	0.083	-0.180
-227.727	111.060	0.101	-0.121
-226.713	800.000	0.044	-0.184
-225.698	104.135	-0.049	0.057
-224.684	182.407	-0.166	0.244
-223.669	-200.000	0.051	0.237
-222.655	272.351	0.203	0.356
-221.640	0.173	-0.171	0.121
-220.625	-108.302	-0.224	0.048
-219.611	131.432	0.132	-0.169
-218.596	11.109	-0.028	0.022
-217.582	572.551	-0.166	-0.402
-216.567	92.124	0.144	-0.162
-215.552	-126.811	0.179	0.026
-214.538	-200.000	-0.002	0.222
-213.523	-44.502	-0.382	0.190
-212.509	-200.000	-0.065	0.286
-211.494	-200.000	-0.041	-0.231
-210.479	-126.402	-0.300	0.045
-209.465	-54.050	-0.173	-0.078
-208.450	-166.725	0.357	0.015
-207.436	800.000	-0.087	-0.256
-206.421	-95.265	0.176	-0.047
-205.406	375.829	-0.066	0.135
-204.392	-86.539	0.328	-0.100
-203.377	-84.818	0.132	-0.041
-202.363	-200.000	0.033	0.344
-201.348	-28.723	0.055	-0.031
-200.333	-129.018	-0.131	0.018
-199.319	10.097	0.304	0.230
-198.304	-110.520	-0.091	0.019
-197.290	-98.639	-0.417	-0.106
-196.275	-200.000	-0.059	-0.336
-195.260	800.000	-0.057	-0.202
-194.246	-200.000	-0.003	0.028
-193.231	88.256	-0.343	0.378
-192.217	-200.000	-0.003	0.054
-191.202	-200.000	-0.064	0.447
-190.187	800.000	0.106	-0.330
-189.173	800.000	0.097	-0.344
-188.158	-19.819	0.116	0.071
-187.144	-27.062	-0.202	0.117
-186.129	-200.000	-0.008	-0.064
-185.114	27.134	0.211	-0.176
-184.100	316.164	0.057	-0.106
-183.085	-200.000	0.003	-0.110
-182.071	-101.563	-0.057	-0.014
-181.056	-54.394	0.287	0.129
-180.042	-200.000	-0.021	0.340
-179.027	-200.000	0.032	0.211
-178.012	-91.253	-0.068	-0.019
-176.998	-200.000	-0.014	-0.083
-175.983	-200.000	-0.005	0.272
-174.969	373.791	-0.008	0.016
-173.954	9.685	-0.045	-0.034
-172.939	-200.000	-0.081	-0.000
-171.925	-200.000	-0.001	0.042
-170.910	-61.459	0.336	0.140
-169.896	120.006	0.101	-0.125
-168.881	12.144	0.155	0.118
-167.866	-46.247	-0.154	-0.075
-166.852	-97.349	-0.412	0.107
-165.837	-12.482	-0.192	-0.124
-164.823	342.222	0.134	0.261
-163.808	-93.918	-0.188	-0.051
-162.793	-38.858	-0.111	-0.058
-161.779	800.000	-0.099	0.415
-160.764	-153.524	0.696	-0.048
-159.750	-61.826	-0.111	0.046
-158.735	-157.613	-0.529	-0.031
-157.720	-200.000	0.004	0.163
-156.706	-200.000	0.029	0.471
-155.691	-30.925	-0.260	-0.146
-154.677	-200.000	0.055	-0.488
-153.662	-200.000	0.053	0.372
-152.647	-200.000	-0.022	0.131
-151.633	-81.515	-0.217	-0.071
-150.618	-162.701	0.142	-0.007
-149.604	-131.493	-0.131	-0.017
-148.589	-30.472	0.360	0.203
-147.574	-132.037	0.266	-0.034
-146.560	38.516	0.175	0.155
-145.545	45.792	-0.065	0.059
-144.531	-119.488	0.407	-0.070
-143.516	621.123	-0.091	-0.227
-142.502	517.861	-0.072	-0.168
-141.487	-146.270	0.187	-0.016
-140.472	525.809	0.181	-0.424
-139.458	-76.541	0.295	0.103
-138.443	-143.275	0.187	0.018
-137.429	-28.742	0.282	-0.161
-136.414	-2.461	-0.196	-0.136
-135.399	-78.223	-0.218	0.074
-134.385	230.694	-0.164	0.266
-133.370	31.971	-0.046	-0.040
-132.356	39.720	-0.020	-0.017
-131.341	-200.000	0.046	0.283
-130.326	-104.265	0.308	-0.071
-129.312	-200.000	0.028	-0.125
-128.297	746.995	0.032	-0.085
-127.283	19.641	-0.165	-0.131
-126.268	800.000	0.076	-0.209
-125.253	70.957	-0.316	-0.324
-124.239	-104.904	0.098	0.022
-123.224	-200.000	0.035	0.388
-122.210	239.528	0.119	0.196
-121.195	449.824	0.064	0.141
