DTS Sentinel unit serial number:	SN413079Multiplexer serial number:	ORYXHardware model number:	OX4-SRSoftware version number:	ORYX F/W v4.00 Oryx Data Collector v3.7.2.0data status	okinstallation	princeton_trtdifferential loss correction	single-endedforward channel	channel 4reverse channel	N/Adate	2019/09/18time	08:01:34forward acquisition time	60.00reverse acquisition time	0.00gamma	496.2192k internal	0.2329k external	0.2329temperature offset calibration	0.9992default loss term (dB/km)	0.3790temperature slope calibration	1.0000multiplexer offset coefficient	1.0000multiplexer slope coefficient	1.0000fibre end	0.00T internal ref (°C)	23.62T ext. ref 1 (°C)	0.20T ext. ref 2 (°C)	19.32length (m)	temperature (°C)	Stokes	anti-Stokes-747.200	-200.000	-0.027	0.156
-746.185	-109.529	-0.060	-0.013
-745.171	-48.037	-0.045	0.022
-744.156	800.000	-0.094	0.301
-743.142	-157.653	-0.444	0.027
-742.127	25.303	-0.232	-0.195
-741.112	-200.000	-0.023	-0.269
-740.098	-7.684	0.185	-0.126
-739.083	-134.924	-0.252	-0.031
-738.069	-200.000	0.023	0.215
-737.054	-95.989	-0.028	0.007
-736.039	-49.802	-0.218	-0.104
-735.025	-140.254	0.041	0.004
-734.010	800.000	0.042	-0.136
-732.996	-200.000	0.011	-0.251
-731.981	-124.438	-0.187	0.029
-730.966	-183.590	0.181	0.003
-729.952	-200.000	0.018	0.138
-728.937	-200.000	0.075	-0.341
-727.923	459.829	0.221	-0.494
-726.908	-200.000	-0.018	0.262
-725.894	-75.952	0.085	-0.030
-724.879	-200.000	-0.021	-0.153
-723.864	800.000	0.038	0.136
-722.850	-1.589	0.314	-0.223
-721.835	-200.000	0.003	-0.125
-720.821	800.000	0.054	0.183
-719.806	-170.680	0.299	-0.010
-718.791	174.114	-0.045	-0.065
-717.777	800.000	-0.065	0.210
-716.762	126.550	-0.128	-0.162
-715.748	-18.546	-0.070	0.044
-714.733	166.211	-0.096	0.137
-713.718	288.658	-0.093	-0.170
-712.704	-162.130	0.294	0.015
-711.689	-150.695	-0.207	-0.016
-710.675	220.603	0.088	-0.143
-709.660	-200.000	-0.039	-0.186
-708.645	154.581	0.049	0.067
-707.631	-200.000	-0.050	-0.385
-706.616	-44.604	0.220	0.111
-705.602	-139.812	0.364	-0.039
-704.587	-90.512	0.145	-0.042
-703.572	-102.448	-0.347	-0.084
-702.558	800.000	-0.060	0.232
-701.543	450.342	0.049	-0.108
-700.529	800.000	0.075	0.249
-699.514	-200.000	-0.034	-0.364
-698.499	-200.000	0.013	-0.150
-697.485	-138.152	0.275	0.031
-696.470	-1.675	-0.294	-0.208
-695.456	-66.727	-0.262	-0.104
-694.441	-141.452	-0.267	0.027
-693.426	800.000	-0.057	-0.235
-692.412	2.922	0.193	0.141
-691.397	-49.868	0.338	-0.161
-690.383	-183.077	-0.057	-0.001
-689.368	151.564	0.187	0.256
-688.354	112.320	0.127	-0.155
-687.339	800.000	0.081	-0.245
-686.324	-200.000	-0.005	0.267
-685.310	-91.137	-0.281	0.081
-684.295	21.115	0.138	0.112
-683.281	296.674	0.034	-0.063
-682.266	-86.708	0.140	-0.043
-681.251	-122.415	-0.385	0.063
-680.237	19.946	0.099	0.080
-679.222	-16.673	-0.135	0.086
-678.208	-200.000	0.017	-0.177
-677.193	163.789	-0.123	-0.173
-676.178	136.431	-0.176	-0.231
-675.164	97.211	-0.176	-0.203
-674.149	16.765	-0.327	-0.260
-673.135	-51.132	-0.166	0.078
-672.120	51.490	-0.055	0.053
-671.105	182.662	-0.092	0.136
-670.091	-200.000	0.005	-0.079
-669.076	6.047	0.173	0.129
-668.062	16.372	0.196	0.156
-667.047	-200.000	-0.075	0.412
-666.032	1.119	0.154	-0.111
-665.018	32.199	-0.320	0.278
-664.003	800.000	-0.035	0.116
-662.989	-88.414	-0.116	-0.035
-661.974	306.330	0.093	-0.174
-660.959	-64.118	-0.187	0.077
-659.945	800.000	-0.043	0.151
-658.930	-190.220	-0.202	-0.002
-657.916	-70.056	0.183	-0.070
-656.901	-200.000	-0.016	-0.374
-655.886	196.541	-0.246	0.377
-654.872	210.015	-0.025	-0.040
-653.857	225.772	0.039	-0.063
-652.843	214.879	-0.070	-0.111
-651.828	-17.636	-0.166	0.105
-650.814	-200.000	0.033	-0.212
-649.799	74.652	-0.066	0.070
-648.784	609.346	-0.043	0.108
-647.770	678.208	-0.101	-0.264
-646.755	542.805	-0.071	-0.170
-645.741	86.288	-0.196	-0.217
-644.726	-70.947	0.025	0.009
-643.711	132.361	-0.089	-0.115
-642.697	58.394	0.140	-0.138
-641.682	58.111	-0.159	-0.156
-640.668	3.440	0.242	0.177
-639.653	343.278	0.105	-0.206
-638.638	800.000	-0.049	0.147
-637.624	-200.000	0.005	-0.068
-636.609	-200.000	-0.052	-0.270
-635.595	-0.144	-0.207	-0.148
-634.580	97.166	-0.017	0.019
-633.565	800.000	0.082	-0.284
-632.551	-53.061	-0.186	-0.086
-631.536	412.757	-0.052	0.110
-630.522	-37.843	-0.354	0.189
-629.507	800.000	-0.033	-0.133
-628.492	-200.000	-0.043	-0.309
-627.478	388.227	0.076	-0.158
-626.463	470.789	0.138	-0.312
-625.449	-200.000	0.033	-0.456
-624.434	-22.606	0.063	0.038
-623.419	-25.144	-0.102	0.061
-622.405	189.469	0.052	-0.079
-621.390	132.572	-0.385	-0.498
-620.376	-200.000	-0.009	-0.288
-619.361	40.160	0.052	-0.047
-618.346	357.837	-0.069	0.138
-617.332	-200.000	-0.043	0.368
-616.317	-141.793	-0.294	0.029
-615.303	800.000	-0.012	-0.037
-614.288	-157.629	0.040	-0.002
-613.273	-33.007	-0.167	-0.093
-612.259	800.000	0.121	-0.369
-611.244	-153.572	0.170	0.012
-610.230	800.000	0.016	0.061
-609.215	-66.610	0.212	0.084
-608.201	-200.000	0.031	-0.215
-607.186	63.660	-0.089	-0.090
-606.171	-12.872	-0.187	-0.122
-605.157	-109.563	-0.286	0.061
-604.142	-137.083	-0.105	0.012
-603.128	153.427	-0.242	-0.332
-602.113	-200.000	0.003	-0.015
-601.098	800.000	-0.085	-0.307
-600.084	148.182	0.096	0.129
-599.069	-200.000	-0.021	-0.187
-598.055	61.811	-0.163	-0.163
-597.040	800.000	0.074	-0.275
-596.025	-172.755	0.176	-0.006
-595.011	800.000	-0.023	-0.071
-593.996	800.000	0.156	0.446
-592.982	-196.184	-0.132	0.001
-591.967	-10.861	-0.254	-0.168
-590.952	780.167	-0.072	0.197
-589.938	-65.004	0.151	-0.061
-588.923	115.864	-0.123	-0.151
-587.909	172.242	0.231	-0.333
-586.894	-100.678	0.260	-0.064
-585.879	19.157	0.131	-0.105
-584.865	-116.285	-0.306	0.057
-583.850	17.826	0.163	0.130
-582.836	-35.012	0.047	-0.025
-581.821	-79.774	0.076	0.026
-580.806	-21.837	-0.075	0.046
-579.792	-56.317	-0.264	0.118
-578.777	-19.703	0.216	-0.133
-577.763	91.731	-0.082	-0.092
-576.748	389.923	-0.025	-0.051
-575.733	-0.834	0.047	0.034
-574.719	-48.928	-0.136	-0.065
-573.704	-39.254	0.146	-0.077
-572.690	-166.593	-0.140	0.006
-571.675	40.055	0.212	0.190
-570.661	87.059	0.183	0.203
-569.646	-200.000	-0.016	0.367
-568.631	46.121	-0.118	-0.109
-567.617	-200.000	0.001	0.288
-566.602	1.954	0.188	0.136
-565.588	690.636	0.063	-0.164
-564.573	195.676	-0.079	-0.120
-563.558	66.493	-0.071	0.072
-562.544	121.036	0.167	0.208
-561.529	125.839	0.122	-0.154
-560.515	-31.898	0.171	-0.096
-559.500	85.865	0.183	-0.201
-558.485	-5.896	-0.070	-0.048
-557.471	122.453	-0.150	0.188
-556.456	675.954	-0.063	0.165
-555.442	800.000	-0.037	0.144
-554.427	400.624	0.076	-0.160
-553.412	-91.657	-0.276	0.078
-552.398	-22.312	0.302	0.183
-551.383	-61.674	-0.094	0.039
-550.369	-200.000	0.013	-0.151
-549.354	-82.453	0.163	-0.053
-548.339	205.174	0.173	0.268
-547.325	-115.631	0.320	-0.060
-546.310	800.000	-0.031	-0.088
-545.296	800.000	0.064	0.212
-544.281	-155.943	-0.204	0.013
-543.266	47.662	-0.294	0.274
-542.252	-200.000	0.000	0.169
-541.237	262.054	-0.124	-0.215
-540.223	-200.000	0.039	0.363
-539.208	134.124	-0.095	-0.123
-538.193	448.404	0.120	-0.265
-537.179	6.554	-0.222	-0.165
-536.164	-93.877	0.218	-0.060
-535.150	-85.813	0.287	-0.089
-534.135	237.462	-0.141	-0.234
-533.121	128.392	-0.209	0.266
-532.106	-200.000	-0.010	-0.104
-531.091	104.343	-0.311	0.365
-530.077	-119.246	0.332	0.058
-529.062	14.664	-0.135	0.105
-528.048	-98.427	-0.108	0.028
-527.033	262.375	-0.134	-0.233
-526.018	634.360	-0.112	-0.284
-525.004	543.839	0.115	0.273
-523.989	-48.800	0.235	-0.112
-522.975	800.000	0.102	-0.397
-521.960	-34.583	0.040	-0.022
-520.945	-108.598	0.142	0.031
-519.931	207.241	0.157	0.244
-518.916	-72.089	-0.253	-0.094
-517.902	71.518	0.224	0.232
-516.887	-200.000	0.043	0.306
-515.872	181.310	0.218	-0.320
-514.858	800.000	-0.109	0.369
-513.843	718.902	-0.032	-0.085
-512.829	105.580	-0.279	0.329
-511.814	800.000	0.035	0.112
-510.799	333.842	-0.089	-0.173
-509.785	98.482	-0.126	0.145
-508.770	-200.000	0.015	0.189
-507.756	-20.604	-0.225	0.138
-506.741	276.261	0.069	0.121
-505.726	141.179	-0.138	0.183
-504.712	-171.255	-0.247	0.008
-503.697	-64.445	0.517	-0.210
-502.683	-78.341	-0.294	-0.101
-501.668	-36.493	-0.082	0.044
-500.653	193.630	-0.200	-0.301
-499.639	98.012	-0.256	0.294
-498.624	10.101	0.282	-0.214
-497.610	197.932	-0.049	-0.074
-496.595	800.000	0.033	-0.094
-495.581	-126.933	-0.216	0.032
-494.566	-200.000	-0.011	0.087
-493.551	60.107	-0.141	-0.139
-492.537	-133.375	0.146	0.018
-491.522	180.027	0.105	0.154
-490.508	211.927	0.077	-0.121
-489.493	224.157	-0.125	0.201
-488.478	-1.638	-0.217	0.153
-487.464	158.812	-0.035	-0.048
-486.449	-73.755	0.129	0.047
-485.435	-138.131	0.104	-0.012
-484.420	494.103	0.144	-0.328
-483.405	232.022	0.122	-0.200
-482.391	-57.211	-0.120	-0.052
-481.376	245.915	-0.069	0.115
-480.362	-73.912	-0.338	0.122
-479.347	337.005	-0.057	0.110
-478.332	83.824	-0.120	0.130
-477.318	-121.557	-0.046	-0.008
-476.303	-200.000	0.021	-0.290
-475.289	50.660	-0.209	0.197
-474.274	-104.912	0.114	-0.026
-473.259	-39.109	-0.078	0.041
-472.245	-177.586	0.172	-0.004
-471.230	800.000	0.075	0.208
-470.216	375.268	0.075	-0.153
-469.201	-200.000	0.023	-0.127
-468.186	425.349	0.094	-0.201
-467.172	-32.689	0.047	0.026
-466.157	-200.000	0.002	-0.215
-465.143	-61.129	0.371	-0.156
-464.128	150.809	0.038	0.052
-463.113	-200.000	0.039	0.237
-462.099	-11.811	0.256	0.168
-461.084	-102.043	-0.092	0.022
-460.070	-102.913	-0.131	0.031
-459.055	-89.627	0.256	-0.075
-458.040	-139.907	-0.168	-0.018
-457.026	-64.201	-0.405	-0.164
-456.011	155.161	-0.246	0.337
-454.997	41.288	0.004	-0.004
-453.982	4.959	0.219	-0.160
-452.968	800.000	0.037	0.147
-451.953	-19.904	-0.161	0.099
-450.938	-93.196	0.284	0.079
-449.924	-54.739	0.197	0.089
-448.909	74.181	0.246	0.257
-447.895	-200.000	-0.001	-0.197
-446.880	14.828	-0.450	0.350
-445.865	-200.000	-0.074	-0.368
-444.851	-0.842	-0.076	0.054
-443.836	-1.224	-0.133	0.094
-442.822	88.670	0.143	-0.158
-441.807	20.605	-0.044	-0.035
-440.792	194.124	-0.099	0.149
-439.778	-119.147	0.138	0.024
-438.763	-6.014	0.103	-0.070
-437.749	-200.000	-0.045	0.207
-436.734	522.102	0.066	0.154
-435.719	586.339	-0.046	0.114
-434.705	4.262	0.415	0.303
-433.690	70.567	0.136	0.140
-432.676	-15.798	-0.133	0.084
-431.661	11.883	0.310	0.237
-430.646	-59.558	-0.061	0.026
-429.632	-127.375	0.152	-0.022
-428.617	-126.021	0.210	-0.031
-427.603	-96.968	0.367	-0.096
-426.588	800.000	0.034	-0.106
-425.573	-63.482	-0.242	-0.099
-424.559	553.805	-0.147	-0.351
-423.544	800.000	-0.061	0.187
-422.530	68.802	0.150	0.153
-421.515	-109.128	0.165	-0.035
-420.500	800.000	0.033	-0.127
-419.486	-104.542	0.307	0.071
-418.471	-132.677	0.200	0.026
-417.457	109.782	0.153	-0.183
-416.442	-36.383	0.157	-0.084
-415.428	127.632	0.149	-0.188
-414.413	35.874	-0.044	0.038
-413.398	-133.627	-0.248	-0.031
-412.384	161.189	0.124	0.172
-411.369	227.373	0.242	0.391
-410.355	-132.134	-0.187	0.024
-409.340	-84.896	0.150	0.047
-408.325	-17.336	-0.215	-0.135
-407.311	-133.513	-0.164	-0.020
-406.296	-35.184	-0.158	0.086
-405.282	489.035	-0.106	-0.240
-404.267	385.554	0.057	-0.116
-403.252	216.008	-0.147	-0.232
-402.238	800.000	-0.016	0.044
-401.223	-200.000	-0.017	-0.090
-400.209	52.112	-0.163	-0.155
-399.194	800.000	-0.047	-0.174
-398.179	-200.000	0.021	0.228
-397.165	765.356	-0.157	0.424
-396.150	800.000	0.036	-0.134
-395.136	20.376	0.063	0.050
-394.121	214.926	0.055	-0.086
-393.106	102.366	-0.030	-0.034
-392.092	-200.000	-0.029	-0.285
-391.077	800.000	-0.068	0.223
-390.063	120.382	0.063	0.078
-389.048	2.551	-0.110	-0.079
-388.033	800.000	0.075	-0.251
-387.019	-200.000	0.006	-0.066
-386.004	-200.000	-0.006	-0.083
-384.990	40.642	-0.082	-0.073
-383.975	-28.507	0.065	0.037
-382.960	746.475	0.071	-0.189
-381.946	220.112	0.021	0.034
-380.931	-200.000	0.005	0.067
-379.917	97.467	-0.166	0.189
-378.902	603.041	-0.045	0.112
-377.888	77.807	0.052	0.055
-376.873	512.856	0.037	-0.085
-375.858	26.535	-0.263	0.218
-374.844	443.504	-0.199	0.433
-373.829	60.440	0.117	0.115
-372.815	-106.187	-0.218	0.048
-371.800	800.000	-0.026	0.100
-370.785	78.513	0.188	-0.199
-369.771	115.231	0.065	0.078
-368.756	26.421	-0.070	-0.058
-367.742	-10.757	-0.194	0.127
-366.727	11.709	-0.043	-0.033
-365.712	20.422	-0.211	-0.169
-364.698	107.663	-0.079	-0.094
-363.683	574.862	0.189	0.457
-362.669	-67.995	-0.106	0.041
-361.654	-200.000	0.025	-0.228
-360.639	800.000	-0.037	0.157
-359.625	140.836	-0.103	0.136
-358.610	-10.329	-0.058	0.038
-357.596	800.000	-0.073	-0.318
-356.581	-55.623	0.162	-0.072
-355.566	-85.579	0.209	-0.065
-354.552	37.352	-0.252	0.221
-353.537	-147.221	0.186	0.016
-352.523	59.515	-0.127	0.125
-351.508	-200.000	-0.028	0.278
-350.493	-200.000	-0.095	-0.425
-349.479	6.902	0.366	0.271
-348.464	116.583	0.083	0.101
-347.450	22.402	-0.220	-0.178
-346.435	294.200	-0.098	0.177
-345.420	-69.009	-0.136	-0.052
-344.406	-200.000	-0.068	0.314
-343.391	-125.100	0.028	0.004
-342.377	61.425	-0.249	-0.246
-341.362	-159.362	0.311	0.017
-340.348	800.000	0.046	-0.146
-339.333	800.000	-0.126	0.365
-338.318	276.475	-0.203	0.357
-337.304	-43.785	0.222	0.111
-336.289	-151.258	0.398	0.029
-335.275	-200.000	-0.029	0.212
-334.260	499.516	-0.157	-0.359
-333.245	800.000	0.093	0.272
-332.231	-200.000	-0.009	0.060
-331.216	47.945	0.139	0.129
-330.202	800.000	-0.075	-0.232
-329.187	-14.419	-0.235	0.150
-328.172	45.136	0.234	-0.214
-327.158	-132.974	0.317	0.040
-326.143	-41.830	-0.606	0.308
-325.129	-7.645	0.249	-0.167
-324.114	-35.453	-0.248	0.133
-323.099	248.791	-0.051	-0.085
-322.085	800.000	0.109	0.470
-321.070	-200.000	-0.013	0.134
-320.056	-90.651	0.191	-0.055
-319.041	-9.370	0.144	0.095
-318.026	800.000	-0.120	0.341
-317.012	-27.496	0.280	0.161
-315.997	-200.000	0.090	0.470
-314.983	218.770	-0.144	-0.229
-313.968	-84.279	0.177	0.055
-312.953	0.943	-0.059	-0.042
-311.939	-181.408	0.108	-0.002
-310.924	778.248	0.156	0.423
-309.910	-64.219	-0.397	0.160
-308.895	-121.209	0.202	-0.033
-307.880	60.504	0.344	0.337
-306.866	10.953	0.246	-0.186
-305.851	-96.833	0.142	0.037
-304.837	-108.909	-0.205	-0.043
-303.822	-22.995	0.163	0.097
-302.807	-95.891	0.338	0.089
-301.793	-61.266	-0.313	-0.131
-300.778	-135.443	0.178	-0.021
-299.764	-25.732	-0.302	-0.176
-298.749	800.000	-0.095	-0.279
-297.735	-200.000	-0.040	0.199
-296.720	206.665	-0.097	0.150
-295.705	29.019	-0.213	0.179
-294.691	290.213	0.095	0.171
-293.676	158.213	0.149	0.205
-292.662	-119.977	-0.183	0.031
-291.647	-170.888	0.066	-0.002
-290.632	788.789	0.058	-0.157
-289.618	59.316	-0.210	0.205
-288.603	-153.765	-0.068	0.005
-287.589	-108.940	-0.164	-0.035
-286.574	23.083	-0.197	0.160
-285.559	510.291	-0.029	-0.066
-284.545	138.070	0.067	0.087
-283.530	92.738	-0.056	-0.063
-282.516	-95.341	-0.086	-0.023
-281.501	-30.014	0.160	0.090
-280.486	-168.577	0.106	-0.004
-279.472	269.131	-0.053	0.092
-278.457	-48.107	0.211	-0.101
-277.443	800.000	-0.084	0.345
-276.428	332.313	-0.148	0.282
-275.413	529.829	0.159	-0.371
-274.399	-170.609	0.221	0.008
-273.384	-200.000	0.004	0.269
-272.370	-200.000	0.004	-0.336
-271.355	-108.125	0.241	0.052
-270.340	240.660	-0.144	-0.237
-269.326	328.744	-0.056	-0.106
-268.311	-200.000	0.019	0.139
-267.297	-19.496	0.244	0.149
-266.282	-188.804	0.096	-0.001
-265.267	-200.000	-0.021	0.105
-264.253	-83.828	0.238	0.075
-263.238	-177.052	0.180	-0.004
-262.224	203.238	0.056	-0.085
-261.209	149.795	-0.354	-0.474
-260.195	37.783	-0.223	0.196
-259.180	129.035	0.210	-0.265
-258.165	-120.918	-0.465	0.077
-257.151	800.000	-0.118	-0.387
-256.136	94.271	0.237	-0.266
-255.122	-18.122	-0.170	-0.105
-254.107	-49.286	-0.193	-0.091
-253.092	503.205	-0.051	-0.116
-252.078	47.766	0.245	0.226
-251.063	-135.997	-0.189	-0.022
-250.049	81.545	-0.036	-0.038
-249.034	-73.494	0.115	-0.041
-248.019	-92.703	0.036	0.010
-247.005	-17.080	0.064	-0.040
-245.990	-189.661	0.237	0.003
-244.976	608.148	-0.101	-0.249
-243.961	800.000	0.095	0.293
-242.946	-200.000	0.081	0.351
-241.932	-200.000	0.032	0.229
-240.917	-160.155	-0.157	0.008
-239.903	-200.000	0.015	0.148
-238.888	127.727	0.222	0.279
-237.873	-200.000	-0.037	-0.452
-236.859	800.000	-0.037	0.115
-235.844	-119.172	0.082	-0.014
-234.830	-152.116	0.391	-0.028
-233.815	98.688	-0.230	-0.262
-232.800	-200.000	0.008	-0.428
-231.786	10.579	0.014	-0.010
-230.771	-153.240	0.155	-0.011
-229.757	351.334	-0.104	0.203
-228.742	-101.939	0.376	-0.090
-227.727	327.273	-0.144	-0.273
-226.713	198.860	-0.042	-0.064
-225.698	41.596	-0.199	-0.178
-224.684	-200.000	0.044	-0.492
-223.669	248.338	-0.133	0.223
-222.655	-141.765	-0.415	0.041
-221.640	19.378	-0.145	0.115
-220.625	800.000	-0.118	-0.356
-219.611	800.000	0.041	-0.150
-218.596	-200.000	0.125	-0.568
-217.582	-139.444	-0.166	0.018
-216.567	129.899	-0.193	0.243
-215.552	800.000	0.063	0.242
-214.538	194.750	0.097	-0.146
-213.523	-41.078	-0.111	0.056
-212.509	-34.264	-0.152	0.082
-211.494	-200.000	0.006	0.176
-210.479	-91.614	0.225	0.063
-209.465	-200.000	0.018	0.086
-208.450	153.671	0.102	0.138
-207.436	31.986	-0.282	0.239
-206.421	9.460	0.181	0.135
-205.406	800.000	-0.055	0.186
-204.392	304.720	-0.064	0.117
-203.377	800.000	-0.075	-0.210
-202.363	511.924	-0.146	-0.335
-201.348	-170.223	0.153	-0.005
-200.333	-78.247	0.186	-0.063
-199.319	-200.000	-0.044	0.354
-198.304	-48.850	-0.306	0.145
-197.290	639.128	0.067	-0.167
-196.275	37.697	-0.172	0.151
-195.260	-85.358	-0.216	0.066
-194.246	-79.160	0.127	-0.042
-193.231	-73.075	-0.255	-0.092
-192.217	800.000	0.096	-0.279
-191.202	-116.539	-0.436	-0.079
-190.187	-29.635	0.126	0.071
-189.173	13.060	0.193	0.148
-188.158	307.888	-0.043	0.079
-187.144	-136.648	-0.343	-0.039
-186.129	232.766	-0.068	0.111
-185.114	800.000	-0.015	0.044
-184.100	57.705	0.200	0.193
-183.085	460.648	-0.015	-0.034
-182.071	-191.767	0.243	0.002
-181.056	158.396	-0.207	0.283
-180.042	73.625	0.138	0.142
-179.027	-78.540	0.193	0.065
-178.012	-184.926	0.551	0.009
-176.998	800.000	0.038	-0.137
-175.983	110.208	-0.078	0.092
-174.969	161.112	-0.112	-0.155
-173.954	717.717	0.023	-0.060
-172.939	577.945	0.038	0.091
-171.925	54.880	0.205	0.195
-170.910	180.712	0.045	0.066
-169.896	338.848	0.120	-0.229
-168.881	-200.000	0.026	-0.238
-167.866	-94.122	0.168	-0.045
-166.852	-34.507	0.113	-0.061
-165.837	-200.000	-0.021	0.104
-164.823	115.903	0.091	-0.110
-163.808	174.289	-0.063	-0.090
-162.793	105.120	-0.273	-0.317
-161.779	-31.680	0.224	0.124
-160.764	265.652	0.165	-0.284
-159.750	28.926	-0.280	0.234
-158.735	551.750	0.157	-0.371
-157.720	373.843	0.232	-0.465
-156.706	-200.000	-0.017	-0.178
-155.691	-70.837	-0.134	-0.050
-154.677	-200.000	-0.019	0.458
-153.662	219.153	0.193	-0.305
-152.647	243.827	0.147	-0.243
-151.633	-68.379	0.324	-0.124
-150.618	-160.440	-0.244	-0.013
-149.604	-127.861	0.125	0.018
-148.589	67.660	-0.417	0.419
-147.574	36.071	-0.156	0.135
-146.560	247.632	0.187	0.311
-145.545	660.916	0.039	0.100
-144.531	174.973	0.162	-0.230
-143.516	-23.944	-0.109	-0.064
-142.502	-55.880	-0.419	-0.184
-141.487	115.437	0.298	0.358
-140.472	800.000	-0.028	-0.082
-139.458	18.536	-0.116	0.091
-138.443	-200.000	-0.050	-0.302
-137.429	4.217	0.352	-0.254
-136.414	-141.976	0.443	-0.043
-135.399	190.220	-0.147	0.217
-134.385	-200.000	-0.014	0.189
-133.370	-200.000	-0.010	0.228
-132.356	800.000	0.085	0.343
-131.341	15.799	-0.127	0.098
-130.326	727.312	0.028	0.075
-129.312	800.000	-0.057	0.173
-128.297	280.680	-0.052	0.092
-127.283	169.215	-0.022	-0.031
-126.268	-3.904	0.192	0.131
-125.253	-158.427	-0.190	-0.011
-124.239	58.062	-0.157	-0.151
-123.224	-66.717	0.066	-0.026
-122.210	-35.023	0.141	0.076
-121.195	-200.000	-0.046	0.206
