DTS Sentinel unit serial number:	SN413079Multiplexer serial number:	ORYXHardware model number:	OX4-SRSoftware version number:	ORYX F/W v4.00 Oryx Data Collector v3.7.2.0data status	okinstallation	princeton_trtdifferential loss correction	single-endedforward channel	channel 4reverse channel	N/Adate	2019/09/14time	20:05:35forward acquisition time	60.00reverse acquisition time	0.00gamma	496.2192k internal	0.2304k external	0.2304temperature offset calibration	1.0094default loss term (dB/km)	0.3790temperature slope calibration	1.0000multiplexer offset coefficient	1.0000multiplexer slope coefficient	1.0000fibre end	0.00T internal ref (°C)	33.97T ext. ref 1 (°C)	4.87T ext. ref 2 (°C)	28.35length (m)	temperature (°C)	Stokes	anti-Stokes-747.200	-137.037	-0.182	-0.021
-746.185	120.670	-0.144	0.183
-745.171	-185.952	0.375	-0.006
-744.156	77.756	0.217	0.235
-743.142	-72.484	0.163	0.061
-742.127	-50.447	-0.182	-0.087
-741.112	175.111	0.021	-0.030
-740.098	-200.000	-0.001	-0.075
-739.083	285.303	0.105	-0.193
-738.069	-200.000	0.049	0.481
-737.054	-80.134	0.143	0.049
-736.039	-7.243	-0.262	-0.181
-735.025	-111.095	0.452	0.094
-734.010	-200.000	0.053	-0.364
-732.996	-80.999	-0.222	-0.075
-731.981	-93.026	-0.100	0.028
-730.966	132.339	0.090	0.118
-729.952	800.000	0.074	-0.313
-728.937	-61.232	0.285	0.122
-727.923	30.531	-0.057	0.049
-726.908	-200.000	0.052	-0.342
-725.894	-50.182	-0.191	-0.092
-724.879	73.015	-0.154	-0.164
-723.864	195.900	-0.106	0.164
-722.850	-65.675	-0.289	-0.118
-721.835	-71.104	-0.216	0.083
-720.821	-126.915	-0.193	0.029
-719.806	800.000	-0.091	-0.307
-718.791	-200.000	0.000	0.126
-717.777	412.344	0.053	-0.115
-716.762	-83.939	-0.108	-0.035
-715.748	527.441	-0.083	0.199
-714.733	-122.293	0.133	0.022
-713.718	-200.000	-0.027	0.135
-712.704	-96.568	0.204	0.055
-711.689	-200.000	0.033	0.270
-710.675	76.575	0.119	-0.128
-709.660	296.178	0.103	0.192
-708.645	-200.000	-0.002	0.012
-707.631	-198.737	0.314	0.002
-706.616	114.658	0.199	0.246
-705.602	-200.000	0.043	0.200
-704.587	-184.893	0.230	0.004
-703.572	-200.000	0.005	-0.119
-702.558	190.647	0.221	-0.337
-701.543	-5.587	-0.098	0.069
-700.529	40.290	0.037	0.034
-699.514	-129.111	-0.136	0.019
-698.499	606.366	0.050	-0.126
-697.485	2.265	0.215	0.158
-696.470	242.094	-0.048	-0.082
-695.456	-59.896	0.090	-0.039
-694.441	-200.000	-0.004	-0.404
-693.426	-119.813	0.136	-0.024
-692.412	357.243	-0.146	-0.296
-691.397	-107.112	-0.100	-0.022
-690.383	-52.907	-0.118	-0.055
-689.368	-125.613	-0.048	-0.007
-688.354	327.695	0.073	0.142
-687.339	-13.730	-0.144	-0.095
-686.324	800.000	-0.047	0.162
-685.310	-200.000	-0.058	-0.282
-684.295	474.607	-0.085	-0.194
-683.281	125.421	0.122	-0.157
-682.266	161.836	-0.078	0.111
-681.251	19.826	-0.118	0.097
-680.237	11.072	0.065	-0.050
-679.222	200.339	-0.146	0.228
-678.208	-134.350	-0.228	0.028
-677.193	-10.785	0.271	0.182
-676.178	800.000	-0.083	-0.241
-675.164	9.402	-0.177	0.136
-674.149	800.000	-0.048	-0.139
-673.135	-8.085	-0.160	-0.109
-672.120	175.982	-0.219	0.323
-671.105	800.000	-0.043	0.164
-670.091	-133.471	0.325	0.041
-669.076	-84.868	-0.162	-0.052
-668.062	550.881	0.082	-0.199
-667.047	-82.380	-0.071	0.023
-666.032	524.667	0.116	-0.276
-665.018	378.353	0.009	-0.018
-664.003	84.683	-0.351	-0.390
-662.989	360.980	0.082	0.166
-661.974	260.741	-0.146	0.256
-660.959	375.914	0.067	-0.138
-659.945	285.197	0.015	0.028
-658.930	659.474	-0.101	0.263
-657.916	2.224	-0.207	-0.152
-656.901	251.525	-0.145	-0.250
-655.886	162.633	-0.136	-0.193
-654.872	-89.551	0.431	-0.128
-653.857	52.823	-0.057	-0.055
-652.843	-200.000	-0.080	-0.384
-651.828	167.316	-0.056	0.081
-650.814	-184.457	0.324	-0.005
-649.799	-112.582	0.208	0.042
-648.784	253.448	0.058	-0.100
-647.770	-200.000	-0.013	0.304
-646.755	-200.000	-0.020	-0.261
-645.741	303.862	0.053	0.100
-644.726	307.558	0.055	-0.104
-643.711	-108.783	0.285	-0.062
-642.697	-84.310	0.246	-0.079
-641.682	-71.254	-0.148	0.056
-640.668	-200.000	-0.074	0.429
-639.653	800.000	-0.085	-0.310
-638.638	800.000	0.051	-0.143
-637.624	-80.283	-0.157	0.053
-636.609	-110.384	0.113	0.024
-635.595	51.687	-0.147	-0.142
-634.580	181.742	-0.202	0.302
-633.565	-174.550	0.277	-0.008
-632.551	43.815	0.240	-0.223
-631.536	191.852	0.220	0.336
-630.522	38.492	0.041	0.037
-629.507	800.000	-0.124	-0.367
-628.492	-101.998	-0.160	-0.039
-627.478	-12.627	0.116	0.077
-626.463	309.501	-0.057	0.108
-625.449	464.876	0.061	-0.138
-624.434	42.995	0.181	-0.167
-623.419	-128.394	0.141	-0.020
-622.405	92.023	0.165	0.188
-621.390	-113.259	-0.131	0.026
-620.376	300.459	-0.051	-0.096
-619.361	89.104	0.180	-0.203
-618.346	-119.599	0.156	0.027
-617.332	-200.000	-0.018	0.118
-616.317	-146.679	0.059	-0.005
-615.303	72.264	0.058	-0.061
-614.288	180.922	0.031	0.046
-613.273	-200.000	0.002	0.363
-612.259	507.919	0.027	0.064
-611.244	-200.000	0.041	0.254
-610.230	-200.000	0.034	-0.184
-609.215	-42.132	0.102	-0.053
-608.201	1.087	-0.266	-0.194
-607.186	-69.508	0.231	-0.090
-606.171	-200.000	-0.007	-0.106
-605.157	-58.166	0.086	-0.038
-604.142	-1.013	-0.157	-0.112
-603.128	-58.140	0.094	-0.041
-602.113	-200.000	0.034	-0.170
-601.098	-200.000	-0.061	0.298
-600.084	193.518	-0.177	-0.272
-599.069	246.407	0.160	-0.274
-598.055	8.466	-0.205	-0.156
-597.040	-32.093	-0.036	0.020
-596.025	-121.636	0.152	0.026
-595.011	-113.150	-0.191	0.038
-593.996	-56.618	0.135	-0.061
-592.982	90.381	0.045	0.051
-591.967	441.237	0.076	-0.168
-590.952	11.455	-0.090	0.070
-589.938	24.982	0.091	0.076
-588.923	189.987	-0.222	0.337
-587.909	347.363	0.116	-0.231
-586.894	-34.086	-0.349	-0.194
-585.879	-114.793	-0.099	0.019
-584.865	-17.809	-0.174	0.110
-583.850	-22.506	-0.037	-0.022
-582.836	-60.077	-0.279	0.121
-581.821	-200.000	-0.002	0.244
-580.806	246.232	0.146	0.250
-579.792	-14.535	-0.104	0.067
-578.777	394.752	0.144	0.303
-577.763	69.308	0.156	0.162
-576.748	-56.277	0.322	-0.145
-575.733	630.265	-0.026	-0.066
-574.719	-149.607	-0.065	-0.005
-573.704	-156.018	-0.165	-0.011
-572.690	-200.000	0.036	0.181
-571.675	51.823	-0.177	0.170
-570.661	151.417	0.224	-0.309
-569.646	-191.124	-0.228	-0.002
-568.631	71.261	-0.023	-0.024
-567.617	800.000	0.121	0.350
-566.602	-143.189	0.102	-0.010
-565.588	-200.000	-0.106	-0.473
-564.573	-102.826	-0.355	0.085
-563.558	587.156	-0.098	0.243
-562.544	800.000	-0.044	-0.135
-561.529	-64.713	0.251	-0.103
-560.515	-38.991	-0.161	-0.086
-559.500	-200.000	0.029	0.181
-558.485	-107.887	0.036	-0.008
-557.471	-64.552	-0.169	-0.069
-556.456	-21.122	-0.237	-0.146
-555.442	76.672	0.187	0.200
-554.427	-200.000	0.000	0.164
-553.412	-170.406	0.273	0.010
-552.398	62.470	-0.166	-0.167
-551.383	-115.129	0.124	-0.024
-550.369	374.060	-0.065	-0.134
-549.354	482.409	0.045	0.103
-548.339	-200.000	-0.015	0.238
-547.325	-200.000	0.021	-0.170
-546.310	-68.870	0.264	0.103
-545.296	90.229	0.161	-0.182
-544.281	-200.000	0.015	-0.486
-543.266	0.241	-0.161	-0.116
-542.252	-200.000	-0.008	0.139
-541.237	424.789	0.034	0.075
-540.223	5.952	-0.270	-0.202
-539.208	-2.533	0.267	0.189
-538.193	-64.891	-0.121	0.049
-537.179	-155.322	-0.208	0.014
-536.164	-38.414	0.174	-0.093
-535.150	-157.530	0.375	-0.023
-534.135	75.355	-0.099	-0.105
-533.121	347.394	0.113	0.226
-532.106	182.366	-0.184	-0.273
-531.091	800.000	0.021	-0.092
-530.077	800.000	0.143	0.476
-529.062	-78.714	0.213	-0.073
-528.048	39.971	0.292	-0.265
-527.033	-119.014	0.204	-0.036
-526.018	-200.000	-0.081	-0.556
-525.004	63.745	0.029	-0.030
-523.989	-200.000	-0.011	-0.051
-522.975	51.208	-0.097	-0.093
-521.960	-144.036	0.213	-0.020
-520.945	92.207	-0.256	-0.291
-519.931	-92.534	0.098	0.028
-518.916	-162.590	0.128	0.006
-517.902	-158.158	-0.093	0.005
-516.887	-125.031	0.316	0.049
-515.872	-130.079	0.399	0.055
-514.858	800.000	0.016	-0.045
-513.843	800.000	0.054	-0.154
-512.829	-63.226	-0.224	0.093
-511.814	74.623	-0.115	-0.122
-510.799	62.626	0.188	-0.190
-509.785	-20.795	-0.176	0.109
-508.770	6.159	-0.260	0.194
-507.756	-200.000	0.024	-0.256
-506.741	-75.050	0.221	0.080
-505.726	-178.136	0.087	0.002
-504.712	-65.543	0.275	0.111
-503.697	800.000	0.057	-0.200
-502.683	-15.438	-0.145	-0.093
-501.668	309.791	0.086	0.162
-500.653	-75.622	0.231	0.083
-499.639	-78.503	-0.281	-0.097
-498.624	-22.839	0.240	-0.146
-497.610	-32.828	0.193	0.108
-496.595	683.720	0.077	-0.202
-495.581	228.477	-0.140	0.230
-494.566	-0.435	0.084	0.060
-493.551	34.561	-0.213	-0.188
-492.537	800.000	-0.093	-0.263
-491.522	800.000	-0.063	-0.211
-490.508	-200.000	-0.005	-0.050
-489.493	-21.053	-0.397	0.245
-488.478	59.878	0.075	0.075
-487.464	136.775	-0.246	0.324
-486.449	-70.670	0.187	0.071
-485.435	159.484	-0.144	-0.201
-484.420	38.864	0.281	-0.253
-483.405	522.178	0.080	-0.190
-482.391	800.000	0.103	-0.322
-481.376	-200.000	0.039	-0.179
-480.362	-154.147	-0.476	0.032
-479.347	4.313	0.161	0.119
-478.332	-200.000	0.003	0.022
-477.318	-200.000	-0.033	0.248
-476.303	35.087	0.223	0.197
-475.289	712.642	0.065	0.174
-474.274	-75.295	0.018	0.007
-473.259	-104.082	-0.381	0.089
-472.245	-138.654	-0.007	-0.001
-471.230	-140.845	0.106	0.011
-470.216	-101.788	-0.400	0.097
-469.201	800.000	-0.032	0.118
-468.186	-122.170	0.044	-0.007
-467.172	-103.049	-0.305	0.073
-466.157	-3.724	-0.318	-0.222
-465.143	800.000	0.076	-0.321
-464.128	-120.728	-0.242	0.041
-463.113	109.540	-0.041	0.050
-462.099	395.405	0.052	0.110
-461.084	201.002	-0.039	0.061
-460.070	-54.176	-0.152	0.069
-459.055	-112.065	-0.346	0.070
-458.040	-200.000	-0.031	-0.283
-457.026	-9.184	-0.205	-0.138
-456.011	136.958	-0.060	-0.079
-454.997	-110.214	0.079	-0.016
-453.982	800.000	-0.051	-0.204
-452.968	346.724	0.038	0.075
-451.953	301.665	-0.111	-0.206
-450.938	790.564	0.057	-0.158
-449.924	22.924	0.034	-0.028
-448.909	133.382	0.099	-0.129
-447.895	-17.139	-0.209	0.133
-446.880	800.000	0.069	-0.216
-445.865	800.000	-0.053	-0.167
-444.851	-9.528	-0.179	0.120
-443.836	289.321	-0.027	-0.050
-442.822	569.780	0.163	-0.398
-441.807	-7.023	0.260	-0.177
-440.792	319.734	-0.139	-0.265
-439.778	53.446	-0.226	-0.218
-438.763	-28.809	-0.082	0.047
-437.749	43.176	-0.421	0.386
-436.734	464.253	-0.096	-0.216
-435.719	-49.966	0.140	-0.067
-434.705	-142.798	0.147	-0.014
-433.690	-200.000	-0.041	-0.205
-432.676	-200.000	0.054	0.583
-431.661	-200.000	0.021	0.142
-430.646	800.000	-0.167	0.732
-429.632	-141.519	0.086	0.009
-428.617	-200.000	0.001	0.069
-427.603	-107.182	-0.244	-0.054
-426.588	-75.597	0.218	0.078
-425.573	27.990	-0.300	0.255
-424.559	460.177	0.071	0.158
-423.544	-200.000	0.016	0.345
-422.530	69.339	-0.247	-0.256
-421.515	-162.157	0.436	0.022
-420.500	378.417	-0.052	0.106
-419.486	-184.315	0.215	0.004
-418.471	800.000	0.058	-0.167
-417.457	-200.000	-0.033	-0.156
-416.442	800.000	0.024	0.089
-415.428	-200.000	0.085	-0.378
-414.413	272.320	0.068	-0.120
-413.398	-200.000	0.038	-0.320
-412.384	451.230	0.143	-0.317
-411.369	-125.303	-0.173	0.027
-410.355	-200.000	-0.025	-0.161
-409.340	771.144	0.221	-0.604
-408.325	800.000	0.088	0.273
-407.311	-200.000	-0.026	0.323
-406.296	800.000	0.110	-0.399
-405.282	250.843	-0.067	0.114
-404.267	-167.837	-0.113	-0.004
-403.252	127.372	0.105	0.134
-402.238	224.984	-0.152	0.247
-401.223	271.369	-0.109	-0.193
-400.209	800.000	0.039	-0.153
-399.194	569.817	-0.084	-0.205
-398.179	-200.000	-0.009	-0.052
-397.165	800.000	0.072	0.272
-396.150	-200.000	0.005	-0.129
-395.136	-47.522	-0.325	0.159
-394.121	-150.736	-0.414	-0.032
-393.106	316.305	-0.119	0.226
-392.092	-52.248	-0.162	-0.075
-391.077	-121.724	-0.202	0.034
-390.063	-83.498	0.194	0.062
-389.048	13.504	-0.187	-0.146
-388.033	70.258	0.135	-0.140
-387.019	-200.000	-0.031	0.166
-386.004	-131.889	-0.334	0.044
-384.990	-57.427	-0.211	0.093
-383.975	54.069	0.259	-0.250
-382.960	56.652	0.182	0.178
-381.946	60.929	0.235	0.234
-380.931	232.767	0.041	-0.067
-379.917	800.000	0.068	-0.225
-378.902	5.527	0.256	0.190
-377.888	-200.000	0.025	0.116
-376.873	42.360	-0.279	0.255
-375.858	-46.338	0.105	0.052
-374.844	800.000	-0.141	-0.435
-373.829	177.498	-0.112	-0.164
-372.815	-200.000	0.015	-0.079
-371.800	-91.774	-0.092	0.026
-370.785	-138.954	0.256	0.028
-369.771	-26.671	-0.098	-0.057
-368.756	-200.000	0.014	0.253
-367.742	-33.124	0.056	0.031
-366.727	17.471	-0.213	0.169
-365.712	-138.052	-0.348	-0.039
-364.698	27.046	-0.159	0.134
-363.683	15.919	-0.210	-0.166
-362.669	-105.434	0.207	0.047
-361.654	800.000	0.090	0.287
-360.639	155.664	0.092	0.127
-359.625	800.000	-0.036	0.112
-358.610	-62.163	0.115	-0.048
-357.596	-131.484	-0.331	0.044
-356.581	377.749	0.146	0.300
-355.566	-39.391	0.208	-0.110
-354.552	12.806	-0.247	-0.191
-353.537	79.034	0.214	0.230
-352.523	-110.343	-0.318	0.066
-351.508	-57.220	-0.260	-0.115
-350.493	514.937	-0.048	0.113
-349.479	49.481	0.083	0.078
-348.464	-200.000	0.028	0.289
-347.450	-200.000	-0.004	-0.402
-346.435	225.138	0.168	-0.273
-345.420	134.336	-0.229	-0.297
-344.406	-132.791	0.162	0.021
-343.391	409.096	-0.174	0.368
-342.377	-42.811	0.372	-0.189
-341.362	9.715	0.175	0.133
-340.348	-16.539	0.133	-0.085
-339.333	192.518	-0.055	-0.083
-338.318	800.000	-0.031	-0.110
-337.304	-200.000	0.002	-0.154
-336.289	-10.115	-0.151	-0.101
-335.275	-4.806	-0.187	0.129
-334.260	-159.690	0.180	-0.010
-333.245	-200.000	0.025	-0.167
-332.231	366.885	-0.031	0.063
-331.216	-200.000	0.018	0.168
-330.202	800.000	-0.016	0.054
-329.187	-1.751	0.263	-0.186
-328.172	-81.137	0.281	0.093
-327.158	-200.000	-0.003	0.042
-326.143	764.410	0.059	0.162
-325.129	-129.276	-0.201	0.028
-324.114	120.968	-0.254	0.316
-323.099	-57.765	-0.227	0.099
-322.085	-38.466	-0.048	-0.026
-321.070	57.623	-0.151	-0.148
-320.056	305.410	-0.156	0.291
-319.041	800.000	0.075	0.219
-318.026	-200.000	-0.006	0.487
-317.012	-16.360	-0.148	-0.094
-315.997	734.146	-0.040	0.107
-314.983	-48.813	0.345	0.166
-313.968	-81.221	-0.227	-0.075
-312.953	86.644	0.158	0.175
-311.939	86.428	0.057	0.063
-310.924	-200.000	-0.004	-0.083
-309.910	-88.584	-0.254	-0.076
-308.895	-33.693	-0.116	0.064
-307.880	800.000	-0.128	0.384
-306.866	-200.000	0.032	0.183
-305.851	-15.860	-0.035	0.022
-304.837	45.648	0.243	0.225
-303.822	-12.133	0.479	0.314
-302.807	22.561	0.050	-0.041
-301.793	-43.038	-0.370	0.188
-300.778	-123.255	0.194	0.031
-299.764	-200.000	-0.019	-0.212
-298.749	-127.610	-0.223	0.032
-297.735	800.000	-0.123	0.422
-296.720	-107.659	0.249	-0.054
-295.705	-91.177	0.193	-0.055
-294.691	800.000	0.026	-0.104
-293.676	-133.276	-0.164	-0.021
-292.662	268.454	-0.106	0.186
-291.647	-100.744	0.201	-0.050
-290.632	292.020	0.138	-0.251
-289.618	-200.000	-0.008	0.188
-288.603	-200.000	0.030	0.211
-287.589	39.825	-0.234	-0.210
-286.574	55.401	0.048	0.047
-285.559	-151.851	-0.198	0.015
-284.545	123.872	-0.017	-0.021
-283.530	86.639	-0.182	-0.201
-282.516	-102.618	0.321	0.077
-281.501	32.934	-0.155	0.134
-280.486	-98.297	0.104	0.027
-279.472	68.563	-0.324	-0.332
-278.457	253.936	0.230	0.393
-277.443	350.308	0.154	0.305
-276.428	-9.784	0.306	-0.204
-275.413	60.314	-0.213	0.211
-274.399	-200.000	0.042	-0.371
-273.384	800.000	0.148	-0.551
-272.370	-35.136	-0.133	-0.072
-271.355	65.645	-0.137	-0.138
-270.340	319.685	-0.054	-0.103
-269.326	-25.682	-0.122	-0.072
-268.311	428.684	0.090	0.193
-267.297	451.244	-0.068	-0.150
-266.282	-200.000	-0.065	-0.311
-265.267	64.648	0.051	0.052
-264.253	800.000	-0.061	0.231
-263.238	-93.835	0.061	0.017
-262.224	-137.837	-0.261	0.029
-261.209	20.121	-0.283	-0.228
-260.195	800.000	0.054	-0.195
-259.180	800.000	0.082	-0.331
-258.165	202.139	0.059	0.091
-257.151	-200.000	0.007	0.232
-256.136	-200.000	-0.031	-0.289
-255.122	13.642	0.091	0.070
-254.107	-89.152	0.100	-0.029
-253.092	24.859	0.064	-0.053
-252.078	-200.000	-0.006	0.195
-251.063	800.000	0.055	-0.214
-250.049	-74.577	0.141	-0.051
-249.034	163.685	0.101	-0.141
-248.019	29.247	-0.232	-0.197
-247.005	-122.103	-0.389	-0.064
-245.990	-72.893	0.194	0.071
-244.976	-182.417	0.338	0.006
-243.961	-91.263	-0.211	0.060
-242.946	30.347	0.376	0.321
-241.932	80.098	0.144	0.155
-240.917	375.791	0.096	0.196
-239.903	-124.693	-0.099	0.015
-238.888	68.920	0.204	-0.209
-237.873	26.656	-0.209	0.175
-236.859	109.796	-0.110	0.132
-235.844	-49.469	0.322	-0.153
-234.830	800.000	-0.126	-0.368
-233.815	-200.000	0.004	-0.137
-232.800	-63.318	-0.130	-0.054
-231.786	800.000	0.049	0.149
-230.771	-1.026	-0.024	-0.017
-229.757	-200.000	0.011	-0.139
-228.742	-133.398	-0.223	0.028
-227.727	-126.126	-0.495	-0.074
-226.713	83.829	0.117	-0.127
-225.698	-200.000	0.049	-0.343
-224.684	-33.802	0.178	0.098
-223.669	-184.306	0.216	0.004
-222.655	-9.890	0.062	0.041
-221.640	-200.000	-0.037	-0.300
-220.625	86.470	0.197	0.217
-219.611	-200.000	-0.029	-0.237
-218.596	359.573	-0.100	0.199
-217.582	-177.011	0.331	0.008
-216.567	4.228	0.105	-0.077
-215.552	201.005	0.255	0.392
-214.538	214.791	-0.068	0.108
-213.523	556.933	-0.159	0.382
-212.509	317.065	0.141	-0.266
-211.494	12.905	0.234	-0.180
-210.479	171.445	-0.074	0.107
-209.465	-135.739	0.218	-0.026
-208.450	57.490	0.161	-0.157
-207.436	-175.070	-0.129	-0.004
-206.421	-39.365	0.141	-0.074
-205.406	85.068	-0.174	0.190
-204.392	-192.011	0.047	-0.000
-203.377	-38.150	-0.132	0.070
-202.363	-69.006	0.231	0.089
-201.348	-200.000	0.036	0.219
-200.333	800.000	0.053	0.187
-199.319	76.116	-0.228	0.241
-198.304	-1.225	-0.046	0.032
-197.290	-200.000	-0.022	0.371
-196.275	12.517	0.272	0.209
-195.260	43.645	-0.120	0.110
-194.246	196.691	-0.087	0.133
-193.231	316.341	-0.100	-0.189
-192.217	-58.670	-0.188	0.081
-191.202	60.846	-0.058	0.058
-190.187	161.651	0.206	-0.287
-189.173	-137.398	0.401	-0.045
-188.158	569.655	-0.089	-0.215
-187.144	-200.000	0.041	0.394
-186.129	-117.738	-0.250	-0.045
-185.114	21.035	0.294	0.238
-184.100	151.906	-0.196	0.266
-183.085	-147.999	0.373	0.031
-182.071	532.520	-0.141	-0.333
-181.056	-76.719	0.256	-0.089
-180.042	800.000	-0.120	0.479
-179.027	-44.170	0.277	-0.139
-178.012	-200.000	-0.029	0.319
-176.998	-34.055	-0.242	0.133
-175.983	-88.888	0.180	0.053
-174.969	10.965	-0.164	-0.125
-173.954	35.296	0.037	-0.032
-172.939	-148.224	-0.092	0.008
-171.925	-200.000	-0.019	0.237
-170.910	-155.048	0.073	-0.005
-169.896	98.245	0.171	0.196
-168.881	-89.423	0.067	-0.020
-167.866	300.143	-0.100	-0.183
-166.852	379.420	0.103	0.211
-165.837	-123.290	-0.315	0.050
-164.823	38.233	-0.105	0.093
-163.808	746.902	-0.081	-0.216
-162.793	-200.000	0.024	0.218
-161.779	800.000	-0.022	-0.070
-160.764	-200.000	-0.008	-0.418
-159.750	-136.518	0.255	0.029
-158.735	-74.439	-0.237	-0.085
-157.720	87.343	-0.163	-0.179
-156.706	-200.000	0.041	0.272
-155.691	-200.000	-0.016	-0.211
-154.677	-10.253	0.334	-0.221
-153.662	-200.000	-0.033	0.000
-152.647	-88.110	-0.297	-0.089
-151.633	-5.506	0.292	0.200
-150.618	-91.446	0.127	-0.036
-149.604	-200.000	0.035	0.160
-148.589	-101.349	0.332	-0.081
-147.574	30.021	0.267	-0.226
-146.560	10.809	0.098	0.075
-145.545	-59.119	0.473	0.203
-144.531	-73.180	0.257	0.094
-143.516	800.000	-0.048	0.154
-142.502	-131.619	-0.363	-0.048
-141.487	-200.000	-0.039	0.281
-140.472	-200.000	0.017	0.299
-139.458	-8.589	0.061	0.041
-138.443	-87.384	-0.192	0.058
-137.429	-38.899	0.109	-0.057
-136.414	-200.000	0.041	0.243
-135.399	222.476	0.122	0.196
-134.385	-120.059	0.416	-0.071
-133.370	-114.853	-0.391	0.074
-132.356	-7.736	0.207	-0.139
-131.341	-33.821	0.217	-0.119
-130.326	800.000	0.091	0.317
-129.312	372.585	0.110	-0.222
-128.297	132.575	0.200	-0.256
-127.283	-38.810	-0.524	-0.274
-126.268	-200.000	-0.018	-0.129
-125.253	538.775	0.095	-0.224
-124.239	-57.258	0.145	0.063
-123.224	800.000	0.026	-0.101
-122.210	10.442	-0.290	0.220
-121.195	-49.478	0.439	0.208
-120.180	-37.313	-0.224	-0.119
