DTS Sentinel unit serial number:	SN413079Multiplexer serial number:	ORYXHardware model number:	OX4-SRSoftware version number:	ORYX F/W v4.00 Oryx Data Collector v3.7.2.0data status	okinstallation	princeton_trtdifferential loss correction	single-endedforward channel	channel 4reverse channel	N/Adate	2019/09/11time	11:27:11forward acquisition time	60.00reverse acquisition time	0.00gamma	496.2192k internal	0.2291k external	0.2291temperature offset calibration	0.9966default loss term (dB/km)	0.3790temperature slope calibration	1.0000multiplexer offset coefficient	1.0000multiplexer slope coefficient	1.0000fibre end	0.00T internal ref (°C)	37.94T ext. ref 1 (°C)	0.16T ext. ref 2 (°C)	35.83length (m)	temperature (°C)	Stokes	anti-Stokes-747.200	276.189	0.067	0.122
-746.185	-200.000	0.001	0.186
-745.171	-8.552	-0.246	-0.169
-744.156	618.845	-0.035	0.089
-743.142	785.750	0.051	0.142
-742.127	-38.129	0.071	0.039
-741.112	-22.703	0.131	-0.081
-740.098	681.195	0.058	0.156
-739.083	-44.458	0.301	-0.154
-738.069	50.538	-0.263	-0.255
-737.054	44.530	0.124	0.116
-736.039	50.102	-0.076	0.073
-735.025	17.806	-0.112	-0.091
-734.010	800.000	-0.081	-0.325
-732.996	39.346	0.298	-0.273
-731.981	-200.000	0.005	0.169
-730.966	-29.520	-0.108	0.063
-729.952	-161.363	-0.234	0.012
-728.937	-200.000	0.045	-0.436
-727.923	-37.394	-0.101	-0.055
-726.908	103.649	-0.081	0.097
-725.894	-199.089	-0.495	0.003
-724.879	14.108	-0.103	-0.082
-723.864	800.000	0.021	-0.080
-722.850	800.000	-0.045	0.180
-721.835	-8.857	-0.179	0.123
-720.821	-36.415	0.034	0.019
-719.806	93.775	-0.202	-0.234
-718.791	86.875	-0.070	-0.079
-717.777	800.000	-0.069	-0.209
-716.762	-200.000	-0.001	-0.033
-715.748	179.414	0.059	-0.088
-714.733	800.000	0.142	-0.487
-713.718	-42.311	-0.168	-0.088
-712.704	351.756	0.137	-0.277
-711.689	-79.087	-0.156	0.054
-710.675	-200.000	0.012	0.281
-709.660	-200.000	0.021	0.218
-708.645	800.000	0.010	-0.040
-707.631	-49.714	0.073	0.035
-706.616	77.634	0.129	-0.140
-705.602	-124.768	-0.095	0.015
-704.587	724.267	-0.108	-0.295
-703.572	252.144	0.191	-0.332
-702.558	16.490	0.194	-0.157
-701.543	-73.756	-0.217	0.081
-700.529	284.165	0.089	-0.165
-699.514	-152.478	-0.096	-0.007
-698.499	800.000	-0.060	0.171
-697.485	463.451	-0.175	-0.399
-696.470	-200.000	-0.035	0.275
-695.456	800.000	0.071	0.245
-694.441	-115.926	0.171	-0.033
-693.426	39.315	-0.324	-0.297
-692.412	800.000	0.084	-0.276
-691.397	800.000	-0.063	0.251
-690.383	-117.164	-0.365	0.068
-689.368	-17.466	-0.095	-0.061
-688.354	-200.000	0.002	-0.083
-687.339	-105.264	0.225	-0.052
-686.324	-116.521	-0.229	0.043
-685.310	146.452	0.033	-0.045
-684.295	208.409	-0.075	-0.119
-683.281	3.095	-0.365	0.271
-682.266	-8.488	0.317	-0.218
-681.251	-169.360	-0.262	0.010
-680.237	-17.525	-0.082	-0.053
-679.222	302.583	-0.070	0.132
-678.208	2.504	0.050	0.037
-677.193	-74.982	-0.228	-0.083
-676.178	-162.640	0.249	0.012
-675.164	-74.215	-0.285	-0.105
-674.149	800.000	0.139	-0.471
-673.135	-141.649	-0.249	0.026
-672.120	-87.516	-0.141	-0.044
-671.105	360.953	0.037	0.077
-670.091	-89.783	0.166	0.050
-669.076	167.859	-0.139	0.202
-668.062	-59.389	0.118	0.052
-667.047	-88.071	0.143	-0.044
-666.032	-200.000	0.035	-0.222
-665.018	-200.000	-0.047	0.253
-664.003	284.457	-0.114	-0.209
-662.989	212.410	-0.080	-0.129
-661.974	-200.000	-0.147	0.000
-660.959	63.546	-0.194	-0.199
-659.945	307.247	-0.114	-0.216
-658.930	-189.306	0.030	0.000
-657.916	55.867	0.212	-0.210
-656.901	-176.474	-0.171	0.005
-655.886	-11.658	-0.048	-0.032
-654.872	128.111	-0.202	0.262
-653.857	-200.000	-0.005	0.028
-652.843	164.055	-0.152	-0.218
-651.828	160.876	0.221	0.315
-650.814	2.033	-0.235	0.173
-649.799	-31.589	-0.170	0.098
-648.784	155.675	0.133	0.187
-647.770	-200.000	-0.037	-0.421
-646.755	-110.462	0.321	-0.068
-645.741	-118.722	0.142	0.026
-644.726	-78.451	-0.304	-0.106
-643.711	-60.052	0.170	0.074
-642.697	-118.483	0.295	0.053
-641.682	-21.153	0.230	-0.143
-640.668	83.457	-0.122	-0.136
-639.653	-164.666	0.061	-0.003
-638.638	-1.727	-0.150	-0.108
-637.624	-129.716	-0.119	0.017
-636.609	-90.904	0.271	-0.080
-635.595	183.930	0.081	0.122
-634.580	800.000	-0.065	0.270
-633.565	-33.035	-0.347	-0.196
-632.551	148.714	0.181	0.250
-631.536	-106.028	-0.315	-0.072
-630.522	-23.383	-0.246	-0.151
-629.507	211.383	-0.061	-0.099
-628.492	-96.885	-0.265	0.071
-627.478	-200.000	-0.002	-0.150
-626.463	-30.046	0.250	0.145
-625.449	-200.000	-0.046	-0.222
-624.434	262.783	0.135	0.239
-623.419	-86.921	-0.192	-0.060
-622.405	-182.054	-0.266	-0.005
-621.390	-200.000	-0.011	-0.297
-620.376	-71.290	0.135	-0.052
-619.361	570.063	-0.083	-0.206
-618.346	-84.574	0.211	0.068
-617.332	-161.132	0.090	0.005
-616.317	-200.000	-0.009	0.339
-615.303	-200.000	0.031	-0.192
-614.288	-8.860	0.114	0.078
-613.273	800.000	0.057	-0.186
-612.259	-128.485	-0.305	0.044
-611.244	-101.029	0.196	0.049
-610.230	-79.695	0.140	-0.048
-609.215	800.000	-0.040	0.179
-608.201	761.550	0.090	-0.248
-607.186	-119.404	-0.009	0.002
-606.171	2.728	-0.285	0.210
-605.157	-200.000	-0.033	-0.225
-604.142	-200.000	-0.021	-0.168
-603.128	-200.000	0.042	0.273
-602.113	-200.000	-0.013	-0.221
-601.098	387.171	-0.136	0.287
-600.084	90.798	0.299	-0.341
-599.069	14.679	-0.234	-0.186
-598.055	-34.788	-0.383	-0.213
-597.040	-94.187	0.328	-0.091
-596.025	120.067	0.087	0.110
-595.011	-107.258	-0.077	-0.017
-593.996	800.000	0.013	0.046
-592.982	-200.000	0.005	0.210
-591.967	-94.312	0.338	-0.094
-590.952	800.000	-0.072	-0.267
-589.938	-200.000	0.019	0.113
-588.923	121.375	-0.120	-0.153
-587.909	-57.867	0.431	-0.192
-586.894	-200.000	-0.025	-0.198
-585.879	61.375	0.242	-0.245
-584.865	-200.000	0.046	0.407
-583.850	-85.990	-0.201	0.063
-582.836	800.000	-0.067	0.223
-581.821	-128.258	0.134	0.019
-580.806	3.151	0.216	-0.160
-579.792	800.000	-0.151	0.483
-578.777	4.335	-0.082	0.061
-577.763	-166.956	-0.062	-0.003
-576.748	183.719	0.193	-0.291
-575.733	-151.348	-0.310	0.023
-574.719	-123.818	-0.266	0.043
-573.704	-200.000	0.022	0.176
-572.690	22.569	0.169	-0.140
-571.675	-104.976	0.190	0.044
-570.661	800.000	0.062	-0.190
-569.646	68.115	0.076	0.079
-568.631	-147.248	-0.194	0.017
-567.617	-79.181	-0.096	0.033
-566.602	-84.042	-0.372	0.120
-565.588	800.000	0.010	0.044
-564.573	20.462	0.066	-0.054
-563.558	-141.271	-0.337	0.035
-562.544	-33.927	0.186	0.104
-561.529	800.000	-0.040	-0.114
-560.515	84.013	0.111	0.123
-559.500	-124.252	-0.240	-0.038
-558.485	-88.311	0.250	-0.076
-557.471	-200.000	0.022	-0.301
-556.456	-200.000	-0.018	-0.142
-555.442	192.971	-0.116	-0.178
-554.427	-200.000	-0.045	-0.314
-553.412	0.621	0.093	0.068
-552.398	467.006	-0.087	0.198
-551.383	643.861	0.072	-0.187
-550.369	39.406	-0.222	-0.202
-549.354	62.234	0.220	0.223
-548.339	-48.979	-0.051	0.025
-547.325	-179.942	0.222	0.005
-546.310	-119.047	-0.202	-0.036
-545.296	-178.971	-0.449	0.010
-544.281	-86.285	-0.241	0.075
-543.266	-200.000	-0.003	-0.133
-542.252	-37.848	-0.134	0.072
-541.237	-32.934	-0.062	-0.035
-540.223	-5.929	0.281	0.195
-539.208	-200.000	-0.069	0.317
-538.193	205.362	-0.052	-0.082
-537.179	501.871	0.082	-0.194
-536.164	800.000	0.088	-0.248
-535.150	-54.130	0.457	-0.211
-534.135	-200.000	0.030	-0.152
-533.121	44.654	-0.188	-0.176
-532.106	186.299	-0.100	0.151
-531.091	45.578	0.325	-0.305
-530.077	-132.313	-0.169	-0.022
-529.062	-141.966	-0.220	-0.022
-528.048	-118.034	0.062	0.011
-527.033	-200.000	-0.042	-0.225
-526.018	516.397	-0.173	0.411
-525.004	800.000	0.094	0.333
-523.989	-200.000	0.004	-0.139
-522.975	-200.000	0.028	0.351
-521.960	800.000	0.099	0.340
-520.945	523.332	-0.127	0.303
-519.931	-112.712	-0.187	0.038
-518.916	642.343	-0.068	-0.175
-517.902	445.978	0.067	-0.149
-516.887	-49.095	0.115	-0.056
-515.872	-200.000	0.006	-0.130
-514.858	208.869	0.024	0.038
-513.843	-200.000	-0.005	-0.150
-512.829	-174.793	-0.287	0.008
-511.814	-122.116	0.328	0.055
-510.799	-160.406	0.243	0.013
-509.785	630.305	0.098	0.251
-508.770	190.139	-0.097	-0.147
-507.756	213.150	-0.258	-0.413
-506.741	-59.422	-0.256	-0.112
-505.726	-40.734	0.083	0.044
-504.712	128.298	0.192	-0.248
-503.697	356.378	0.033	-0.068
-502.683	40.532	0.077	-0.070
-501.668	-191.459	-0.118	0.001
-500.653	-2.596	0.302	-0.214
-499.639	63.486	-0.065	0.066
-498.624	112.645	-0.079	0.097
-497.610	-200.000	0.005	0.036
-496.595	-200.000	0.026	-0.244
-495.581	-120.728	0.076	0.013
-494.566	169.857	-0.141	0.204
-493.551	-101.037	0.079	0.020
-492.537	-91.275	-0.251	0.073
-491.522	688.634	-0.109	-0.290
-490.508	146.169	0.167	-0.227
-489.493	-63.301	0.363	0.152
-488.478	-64.482	-0.154	0.063
-487.464	-107.466	-0.170	0.038
-486.449	132.934	0.097	-0.127
-485.435	59.825	0.231	-0.231
-484.420	-200.000	0.017	0.086
-483.405	568.499	-0.160	0.395
-482.391	-71.766	0.147	0.056
-481.376	14.389	0.081	0.064
-480.362	800.000	0.069	0.202
-479.347	-68.421	0.163	0.064
-478.332	-62.835	-0.084	0.035
-477.318	51.128	-0.010	-0.010
-476.303	202.249	-0.054	0.084
-475.289	-200.000	-0.022	0.240
-474.274	-46.121	-0.034	-0.017
-473.259	-62.285	0.258	0.109
-472.245	221.769	0.116	0.190
-471.230	-122.048	0.134	-0.022
-470.216	311.287	-0.057	-0.108
-469.201	244.006	0.064	0.109
-468.186	12.408	0.026	0.020
-467.172	-122.985	-0.285	-0.046
-466.157	674.646	0.081	-0.212
-465.143	662.338	-0.229	0.597
-464.128	-75.298	0.132	0.048
-463.113	800.000	-0.044	-0.172
-462.099	-200.000	0.030	-0.141
-461.084	-200.000	-0.017	-0.157
-460.070	157.958	-0.024	-0.033
-459.055	192.697	-0.121	0.185
-458.040	359.330	0.057	0.116
-457.026	-107.442	-0.211	-0.047
-456.011	91.206	0.116	0.132
-454.997	130.323	-0.224	0.291
-453.982	-67.762	0.129	-0.051
-452.968	-18.831	-0.179	-0.113
-451.953	50.165	0.175	-0.167
-450.938	-137.600	0.430	-0.049
-449.924	-149.553	0.125	0.010
-448.909	-200.000	0.007	0.190
-447.895	-200.000	-0.010	-0.261
-446.880	-200.000	-0.009	-0.240
-445.865	139.879	-0.174	0.232
-444.851	445.493	-0.055	-0.122
-443.836	16.871	-0.135	0.108
-442.822	-30.993	-0.252	-0.144
-441.807	-15.213	0.085	0.055
-440.792	19.134	0.194	-0.158
-439.778	-152.189	-0.114	-0.008
-438.763	-126.634	-0.119	0.018
-437.749	-66.879	-0.137	-0.055
-436.734	-200.000	-0.005	0.202
-435.719	-114.033	0.084	0.017
-434.705	800.000	-0.134	-0.494
-433.690	-200.000	-0.005	0.305
-432.676	800.000	-0.042	0.145
-431.661	-200.000	0.003	0.048
-430.646	-47.332	-0.254	0.125
-429.632	242.370	-0.136	-0.231
-428.617	-21.984	0.161	0.099
-427.603	6.532	-0.262	0.197
-426.588	-152.729	-0.143	0.010
-425.573	631.209	0.091	-0.234
-424.559	800.000	0.027	0.077
-423.544	-61.873	-0.171	-0.072
-422.530	800.000	-0.100	-0.304
-421.515	146.987	0.317	-0.431
-420.500	393.357	-0.108	-0.227
-419.486	-103.733	0.321	-0.076
-418.471	-56.267	-0.260	0.117
-417.457	601.723	0.100	0.251
-416.442	291.213	0.148	0.272
-415.428	387.297	0.046	0.095
-414.413	179.095	0.180	-0.266
-413.398	-200.000	-0.004	-0.091
-412.384	-11.856	0.064	0.042
-411.369	307.276	-0.104	-0.196
-410.355	-57.951	0.168	-0.074
-409.340	207.724	0.055	-0.087
-408.325	-15.542	0.324	-0.209
-407.311	-200.000	0.004	0.354
-406.296	64.070	-0.164	-0.167
-405.282	286.037	-0.045	0.082
-404.267	-200.000	0.000	-0.339
-403.252	711.405	-0.013	-0.036
-402.238	-46.644	0.201	0.100
-401.223	162.143	0.297	-0.420
-400.209	-117.961	-0.440	-0.080
-399.194	247.943	-0.027	-0.046
-398.179	-200.000	-0.015	0.090
-397.165	195.634	-0.115	-0.176
-396.150	-133.907	-0.173	0.022
-395.136	78.304	0.045	0.049
-394.121	-125.898	0.218	0.033
-393.106	800.000	-0.037	-0.138
-392.092	-33.917	-0.156	0.087
-391.077	-90.829	-0.183	0.053
-390.063	800.000	0.069	0.284
-389.048	-20.441	0.192	0.120
-388.033	262.864	-0.036	-0.063
-387.019	-200.000	-0.005	0.440
-386.004	-200.000	0.006	0.048
-384.990	-147.103	0.152	0.013
-383.975	800.000	0.086	-0.292
-382.960	-169.321	0.213	0.008
-381.946	-200.000	0.050	0.272
-380.931	-98.856	-0.274	0.070
-379.917	800.000	0.078	0.279
-378.902	-41.849	0.217	-0.112
-377.888	-43.217	0.032	0.016
-376.873	-38.668	-0.258	-0.138
-375.858	-41.008	-0.428	0.223
-374.844	-59.353	-0.400	0.174
-373.829	-123.475	0.080	-0.013
-372.815	-200.000	-0.010	-0.106
-371.800	-153.812	-0.191	0.013
-370.785	44.670	0.160	-0.149
-369.771	800.000	-0.097	-0.272
-368.756	-11.633	0.450	-0.298
-367.742	-1.926	-0.245	-0.174
-366.727	800.000	-0.100	0.414
-365.712	-200.000	0.042	0.396
-364.698	-109.753	-0.250	-0.053
-363.683	-200.000	-0.033	-0.379
-362.669	800.000	-0.112	-0.355
-361.654	-108.917	0.263	-0.057
-360.639	91.259	-0.040	-0.046
-359.625	104.853	0.085	0.101
-358.610	-200.000	0.112	-0.611
-357.596	-163.773	0.050	-0.002
-356.581	73.827	0.129	0.136
-355.566	800.000	-0.049	-0.175
-354.552	85.714	0.100	0.110
-353.537	117.674	0.218	-0.270
-352.523	-200.000	-0.012	-0.286
-351.508	53.037	-0.250	-0.241
-350.493	370.843	-0.054	0.111
-349.479	-199.732	0.265	0.001
-348.464	241.532	-0.246	-0.415
-347.450	-120.014	0.041	-0.007
-346.435	218.565	-0.152	-0.245
-345.420	57.915	0.211	-0.208
-344.406	800.000	-0.064	0.224
-343.391	17.695	0.199	0.159
-342.377	196.969	0.057	-0.088
-341.362	92.429	-0.175	0.199
-340.348	-98.583	-0.099	-0.025
-339.333	-164.653	-0.152	-0.007
-338.318	34.076	-0.203	0.179
-337.304	356.884	-0.135	0.272
-336.289	169.978	0.117	-0.169
-335.275	-54.532	0.177	0.081
-334.260	288.209	-0.068	-0.124
-333.245	-200.000	0.018	0.086
-332.231	800.000	-0.028	-0.091
-331.216	-39.359	-0.103	0.055
-330.202	-200.000	-0.143	0.000
-329.187	-98.441	-0.133	0.034
-328.172	-49.843	0.183	-0.088
-327.158	17.821	-0.146	-0.117
-326.143	-200.000	0.053	0.310
-325.129	332.948	-0.131	-0.254
-324.114	-200.000	-0.043	0.297
-323.099	-62.071	0.140	-0.059
-322.085	461.839	-0.135	0.304
-321.070	522.226	0.077	-0.183
-320.056	800.000	-0.030	0.102
-319.041	-200.000	-0.013	-0.170
-318.026	-63.456	0.176	0.073
-317.012	391.877	-0.050	0.105
-315.997	-200.000	0.054	-0.259
-314.983	169.547	0.330	0.475
-313.968	3.488	0.360	0.265
-312.953	36.645	-0.105	-0.094
-311.939	-34.698	0.238	0.131
-310.924	169.367	0.080	0.115
-309.910	-159.560	0.431	-0.024
-308.895	71.380	-0.183	-0.191
-307.880	-3.032	0.075	0.053
-306.866	-200.000	-0.036	0.279
-305.851	-18.327	-0.183	-0.115
-304.837	192.441	0.129	0.197
-303.822	-200.000	-0.062	0.302
-302.807	94.152	-0.203	0.232
-301.793	-37.447	-0.266	0.143
-300.778	421.941	0.111	0.239
-299.764	18.722	-0.156	0.126
-298.749	85.112	-0.232	-0.256
-297.735	-78.514	-0.435	-0.150
-296.720	-200.000	0.022	0.180
-295.705	-12.636	0.132	0.086
-294.691	-200.000	-0.027	-0.126
-293.676	-104.671	0.281	0.065
-292.662	308.611	-0.044	0.082
-291.647	-68.554	0.202	0.079
-290.632	-124.129	-0.269	0.042
-289.618	-200.000	-0.006	-0.206
-288.603	-116.536	0.256	0.047
-287.589	172.469	0.184	0.266
-286.574	-200.000	-0.019	-0.152
-285.559	391.607	-0.105	0.220
-284.545	-66.317	0.333	0.133
-283.530	5.981	-0.332	0.247
-282.516	-3.124	-0.299	-0.210
-281.501	-119.582	-0.063	-0.011
-280.486	-164.599	-0.222	0.010
-279.472	82.987	-0.205	-0.225
-278.457	494.338	0.040	0.092
-277.443	800.000	-0.123	0.395
-276.428	-200.000	0.041	0.253
-275.413	-200.000	0.117	0.556
-274.399	-200.000	-0.002	-0.335
-273.384	-49.547	0.174	0.083
-272.370	300.479	-0.149	0.276
-271.355	800.000	0.021	-0.081
-270.340	-147.586	0.230	0.019
-269.326	49.151	0.179	0.169
-268.311	-200.000	-0.007	0.261
-267.297	-200.000	-0.049	0.216
-266.282	-74.809	-0.306	-0.110
-265.267	-195.719	-0.052	-0.000
-264.253	-200.000	-0.004	0.019
-263.238	-104.771	-0.175	0.040
-262.224	-87.907	-0.280	-0.085
-261.209	515.960	0.067	-0.158
-260.195	-57.768	0.385	0.169
-259.180	-68.937	-0.086	0.033
-258.165	83.365	-0.106	0.116
-257.151	-65.529	-0.278	-0.112
-256.136	22.247	0.236	-0.194
-255.122	-200.000	-0.076	-0.365
-254.107	-149.065	0.167	-0.013
-253.092	11.369	0.310	-0.239
-252.078	80.974	-0.181	0.196
-251.063	-200.000	0.015	0.072
-250.049	451.417	0.118	-0.261
-249.034	48.396	-0.231	-0.218
-248.019	152.009	-0.147	0.202
-247.005	196.398	-0.154	0.235
-245.990	22.398	0.139	0.114
-244.976	-200.000	-0.008	-0.240
-243.961	357.901	-0.113	0.227
-242.946	-38.439	-0.229	0.121
-241.932	-21.214	0.045	0.028
-240.917	-200.000	0.027	0.197
-239.903	-155.197	0.276	-0.018
-238.888	14.675	0.213	0.167
-237.873	75.479	0.085	-0.090
-236.859	35.853	-0.186	-0.164
-235.844	675.412	-0.113	-0.293
-234.830	17.460	0.191	-0.152
-233.815	-105.058	-0.192	-0.044
-232.800	-200.000	-0.538	0.003
-231.786	-35.377	-0.179	-0.098
-230.771	-23.473	-0.170	0.102
-229.757	-26.188	-0.275	-0.162
-228.742	10.466	0.116	0.089
-227.727	32.361	0.147	-0.128
-226.713	13.923	-0.211	-0.165
-225.698	-136.994	0.234	0.027
-224.684	-173.451	0.159	-0.005
-223.669	47.215	0.125	0.117
-222.655	-154.195	-0.143	-0.010
-221.640	-162.162	0.347	-0.017
-220.625	-200.000	0.001	0.099
-219.611	-193.001	0.464	0.004
-218.596	711.022	-0.160	-0.424
-217.582	-200.000	0.016	-0.147
-216.567	367.698	-0.092	-0.187
-215.552	-64.793	0.266	-0.108
-214.538	7.912	-0.206	0.155
-213.523	318.321	0.019	0.036
-212.509	800.000	-0.089	0.247
-211.494	-187.172	-0.294	0.004
-210.479	36.050	0.158	-0.140
-209.465	800.000	-0.051	0.171
-208.450	-32.089	-0.006	0.004
-207.436	-108.300	0.223	0.048
-206.421	-144.085	-0.255	0.024
-205.406	-8.939	0.113	0.076
-204.392	-180.212	0.229	-0.005
-203.377	-122.070	0.124	-0.020
-202.363	164.065	-0.032	-0.045
-201.348	107.241	0.163	-0.195
-200.333	-144.975	0.216	0.020
-199.319	-200.000	0.023	-0.136
-198.304	411.936	-0.059	-0.126
-197.290	20.692	0.289	0.234
-196.275	-179.373	0.118	-0.003
-195.260	559.839	-0.060	-0.146
-194.246	-21.281	0.083	-0.051
-193.231	800.000	-0.020	0.064
-192.217	-85.902	0.441	0.137
-191.202	471.538	0.156	0.351
-190.187	-96.116	-0.436	-0.116
-189.173	-200.000	-0.018	0.296
-188.158	54.718	0.146	-0.141
-187.144	800.000	-0.044	0.180
-186.129	-121.800	0.294	0.049
-185.114	-84.810	0.078	-0.025
-184.100	-200.000	-0.050	0.319
-183.085	-0.226	0.287	0.204
-182.071	-52.191	-0.104	-0.048
-181.056	-176.690	0.285	0.007
-180.042	156.883	-0.181	0.251
-179.027	-117.453	0.159	-0.029
-178.012	-44.643	0.103	0.052
-176.998	169.472	0.043	0.061
-175.983	800.000	-0.044	0.156
-174.969	-200.000	-0.043	-0.311
-173.954	-2.857	0.195	0.136
-172.939	346.059	0.105	0.206
-171.925	257.837	-0.147	-0.254
-170.910	-39.156	-0.174	0.092
-169.896	770.377	0.096	-0.262
-168.881	150.206	-0.188	0.255
-167.866	-52.041	-0.318	0.148
-166.852	-117.178	0.106	0.019
-165.837	800.000	0.069	0.290
-164.823	-82.209	0.187	-0.061
-163.808	319.782	0.120	0.228
-162.793	800.000	0.061	0.206
-161.779	-200.000	0.036	-0.343
-160.764	-200.000	-0.019	0.173
-159.750	32.188	-0.230	-0.199
-158.735	-72.261	-0.188	-0.070
-157.720	-76.103	-0.263	-0.093
-156.706	-14.370	-0.188	-0.121
-155.691	44.258	0.399	0.367
-154.677	195.245	-0.063	0.096
-153.662	-28.010	0.194	-0.113
-152.647	113.205	0.147	-0.178
-151.633	-79.619	-0.095	-0.032
-150.618	-200.000	0.005	0.145
-149.604	118.539	0.247	-0.305
-148.589	323.889	0.077	-0.148
-147.574	83.873	0.257	-0.280
-146.560	-67.992	-0.195	0.076
-145.545	133.166	0.124	0.160
-144.531	62.598	0.267	0.267
-143.516	-161.779	-0.121	-0.006
-142.502	723.871	-0.022	0.059
-141.487	800.000	0.183	-0.518
-140.472	-80.646	0.200	0.067
-139.458	87.297	0.133	-0.147
-138.443	-2.249	0.215	0.151
-137.429	-200.000	0.017	-0.171
-136.414	-200.000	0.012	0.142
-135.399	800.000	0.025	-0.076
-134.385	-121.448	-0.112	-0.019
-133.370	-15.885	-0.360	0.229
-132.356	30.545	0.230	-0.196
-131.341	46.886	0.424	0.394
-130.326	-140.702	0.038	-0.004
-129.312	146.606	0.147	-0.197
-128.297	800.000	-0.051	0.187
-127.283	-36.347	-0.129	0.069
-126.268	800.000	0.078	0.229
-125.253	-200.000	-0.015	-0.076
-124.239	-28.004	-0.073	0.042
-123.224	-167.092	-0.057	-0.002
-122.210	251.864	0.015	-0.026
