DTS Sentinel unit serial number:	SN413079Multiplexer serial number:	ORYXHardware model number:	OX4-SRSoftware version number:	ORYX F/W v4.00 Oryx Data Collector v3.7.2.0data status	okinstallation	princeton_trtdifferential loss correction	single-endedforward channel	channel 4reverse channel	N/Adate	2019/09/12time	18:02:19forward acquisition time	15.00reverse acquisition time	0.00gamma	496.2192k internal	0.2307k external	0.2307temperature offset calibration	1.0135default loss term (dB/km)	0.3790temperature slope calibration	1.0000multiplexer offset coefficient	1.0000multiplexer slope coefficient	1.0000fibre end	0.00T internal ref (°C)	33.75T ext. ref 1 (°C)	2.89T ext. ref 2 (°C)	28.29length (m)	temperature (°C)	Stokes	anti-Stokes-747.200	-38.870	-1.222	0.655
-746.185	-113.682	0.568	0.113
-745.171	-69.832	0.514	-0.199
-744.156	-200.000	-0.038	0.265
-743.142	212.831	0.524	-0.841
-742.127	-200.000	-0.001	0.339
-741.112	-154.607	0.682	0.046
-740.098	295.907	0.177	-0.330
-739.083	41.246	-0.524	-0.482
-738.069	-81.046	-0.806	0.271
-737.054	-92.846	-0.900	-0.256
-736.039	179.937	0.329	0.490
-735.025	-64.352	0.057	-0.024
-734.010	-105.942	0.968	0.222
-732.996	-200.000	-0.122	-0.624
-731.981	-108.235	-0.485	-0.107
-730.966	-129.900	0.328	-0.046
-729.952	-138.412	0.808	0.090
-728.937	-72.840	-0.353	0.132
-727.923	318.143	0.240	-0.461
-726.908	205.836	-0.194	-0.307
-725.894	800.000	0.147	0.423
-724.879	-163.720	-0.578	0.028
-723.864	-53.468	0.487	-0.227
-722.850	224.818	0.190	0.313
-721.835	23.575	0.667	-0.558
-720.821	-30.132	0.064	0.037
-719.806	580.725	-0.134	-0.333
-718.791	84.369	0.469	0.521
-717.777	-23.716	0.113	-0.069
-716.762	-200.000	-0.255	0.000
-715.748	-83.776	0.226	-0.073
-714.733	-78.424	0.496	0.173
-713.718	800.000	0.132	-0.507
-712.704	-53.682	-0.227	-0.106
-711.689	-200.000	0.121	-0.569
-710.675	134.025	0.534	0.702
-709.660	800.000	0.200	0.748
-708.645	13.876	0.376	-0.297
-707.631	207.926	-0.469	-0.743
-706.616	-32.917	0.377	0.213
-705.602	-159.940	0.192	-0.011
-704.587	800.000	-0.061	0.196
-703.572	-9.916	0.478	-0.322
-702.558	-200.000	0.034	0.529
-701.543	-57.370	0.510	-0.227
-700.529	597.670	0.290	0.730
-699.514	27.831	0.433	-0.370
-698.499	108.911	0.524	-0.636
-697.485	152.280	-0.026	0.036
-696.470	800.000	0.214	-0.674
-695.456	-200.000	0.003	0.061
-694.441	-7.910	0.326	0.223
-693.426	-40.251	-0.863	0.456
-692.412	-35.280	-0.435	-0.240
-691.397	-13.290	-1.151	-0.758
-690.383	-200.000	-0.038	-0.368
-689.368	-200.000	-0.016	0.489
-688.354	-88.471	0.329	-0.099
-687.339	212.711	0.550	0.880
-686.324	161.417	0.302	-0.428
-685.310	-200.000	0.058	0.383
-684.295	368.859	-0.335	-0.687
-683.281	-200.000	0.140	-0.669
-682.266	-30.983	-0.454	-0.260
-681.251	-92.112	-0.140	0.040
-680.237	164.634	-0.051	-0.073
-679.222	-200.000	0.079	-0.401
-678.208	-44.494	-0.648	-0.329
-677.193	800.000	0.094	-0.272
-676.178	92.811	-0.539	0.618
-675.164	-200.000	0.027	-0.272
-674.149	210.112	0.116	-0.184
-673.135	-103.062	0.772	-0.186
-672.120	37.385	0.425	0.382
-671.105	507.763	-0.238	-0.560
-670.091	-43.393	-0.552	-0.283
-669.076	-120.530	-0.108	-0.019
-668.062	-200.000	-0.095	-0.648
-667.047	-200.000	-0.036	0.637
-666.032	311.084	-0.378	-0.717
-665.018	-70.200	1.360	-0.524
-664.003	-82.578	0.525	-0.172
-662.989	35.160	0.923	-0.820
-661.974	-36.247	0.070	0.038
-660.959	-118.138	-0.458	0.083
-659.945	800.000	0.051	-0.217
-658.930	-64.997	-0.478	-0.196
-657.916	515.677	-0.233	0.552
-656.901	800.000	0.344	-1.009
-655.886	62.129	-0.594	-0.600
-654.872	800.000	-0.272	-0.826
-653.857	222.686	-0.353	0.577
-652.843	-200.000	0.090	-0.567
-651.828	-200.000	-0.002	0.947
-650.814	-170.767	1.077	0.038
-649.799	-80.522	0.298	0.101
-648.784	576.169	-0.316	-0.781
-647.770	-200.000	0.025	0.283
-646.755	-200.000	0.098	0.837
-645.741	-69.334	0.712	0.277
-644.726	-200.000	-0.041	-0.242
-643.711	269.007	0.192	-0.342
-642.697	-76.559	0.941	-0.335
-641.682	45.097	-0.289	0.270
-640.668	92.007	-0.302	-0.344
-639.653	244.980	0.458	-0.781
-638.638	800.000	-0.162	0.518
-637.624	-133.645	-0.338	-0.043
-636.609	-141.109	0.240	0.025
-635.595	-55.671	0.463	-0.210
-634.580	71.812	0.708	-0.745
-633.565	41.723	0.391	-0.359
-632.551	436.261	-0.767	1.691
-631.536	234.869	0.188	0.314
-630.522	800.000	0.048	0.202
-629.507	-10.325	0.523	-0.351
-628.492	-200.000	0.075	-0.560
-627.478	5.507	-0.277	0.207
-626.463	207.747	0.077	-0.122
-625.449	-16.044	-0.868	0.559
-624.434	-106.447	-0.754	0.170
-623.419	-200.000	-0.124	-0.584
-622.405	-200.000	0.001	-0.311
-621.390	-28.123	-0.488	-0.285
-620.376	800.000	-0.184	0.737
-619.361	-61.538	0.536	0.228
-618.346	331.849	-0.328	-0.640
-617.332	635.850	-0.104	0.266
-616.317	48.470	-0.095	-0.090
-615.303	-200.000	-0.132	0.651
-614.288	-70.746	-0.622	-0.237
-613.273	19.725	-0.255	-0.207
-612.259	326.063	-0.147	-0.285
-611.244	-200.000	-0.045	0.365
-610.230	83.324	-0.461	0.508
-609.215	-166.086	-0.321	0.014
-608.201	-93.386	0.587	-0.165
-607.186	-200.000	-0.023	0.538
-606.171	121.639	0.675	0.851
-605.157	-98.097	0.709	0.185
-604.142	-200.000	-0.120	-0.967
-603.128	589.329	0.163	-0.407
-602.113	800.000	-0.227	-0.760
-601.098	-33.110	0.759	-0.425
-600.084	-200.000	0.046	0.460
-599.069	-65.493	0.920	-0.373
-598.055	800.000	-0.148	-0.510
-597.040	237.832	0.246	0.413
-596.025	-98.291	0.321	-0.083
-595.011	800.000	0.098	-0.366
-593.996	372.663	-0.392	-0.806
-592.982	-125.502	0.841	-0.129
-591.967	-200.000	0.026	-0.219
-590.952	-200.000	0.001	0.361
-589.938	121.718	0.260	0.327
-588.923	-169.111	0.406	0.015
-587.909	-92.535	0.279	0.079
-586.894	43.981	0.313	-0.289
-585.879	-200.000	0.002	-0.403
-584.865	-41.523	0.485	0.252
-583.850	-120.503	-0.706	-0.121
-582.836	5.486	0.436	-0.325
-581.821	-115.001	-0.498	-0.096
-580.806	76.361	0.393	0.421
-579.792	-43.383	-0.551	-0.282
-578.777	-19.216	-0.553	-0.347
-577.763	-104.618	-0.385	-0.090
-576.748	-129.732	0.694	-0.097
-575.733	800.000	-0.151	0.453
-574.719	-41.011	0.167	0.087
-573.704	-60.100	0.528	0.228
-572.690	-122.670	0.029	-0.005
-571.675	-72.679	0.407	-0.152
-570.661	-123.349	0.319	-0.051
-569.646	-144.762	-0.530	-0.049
-568.631	-200.000	0.030	-0.379
-567.617	-200.000	0.092	0.531
-566.602	-10.054	-0.734	0.493
-565.588	56.293	0.366	0.359
-564.573	-35.347	-0.368	-0.202
-563.558	-7.000	-0.352	0.241
-562.544	-91.198	0.743	0.215
-561.529	-111.157	-0.328	-0.068
-560.515	-4.920	-0.234	-0.163
-559.500	15.620	-0.709	0.563
-558.485	177.900	-0.471	-0.693
-557.471	34.208	-0.284	-0.250
-556.456	222.035	0.166	-0.270
-555.442	111.791	0.175	0.213
-554.427	-98.656	0.437	-0.113
-553.412	-46.070	0.230	0.114
-552.398	-200.000	-0.021	0.759
-551.383	-148.147	-0.048	0.004
-550.369	217.424	0.464	-0.746
-549.354	-10.393	0.268	-0.180
-548.339	2.502	0.311	-0.227
-547.325	592.317	-0.350	-0.871
-546.310	-200.000	0.022	-0.306
-545.296	-200.000	-0.078	0.584
-544.281	800.000	0.125	-0.351
-543.266	-136.612	0.411	-0.048
-542.252	-200.000	-0.095	-0.656
-541.237	800.000	0.316	-0.897
-540.223	800.000	-0.084	-0.323
-539.208	-35.852	0.320	0.175
-538.193	109.515	-0.471	0.569
-537.179	800.000	-0.292	0.815
-536.164	-200.000	-0.094	0.717
-535.150	108.849	-0.047	0.056
-534.135	-88.064	0.397	0.120
-533.121	215.918	-0.299	-0.480
-532.106	-200.000	0.003	0.283
-531.091	11.654	-0.379	-0.293
-530.077	-59.753	0.158	-0.068
-529.062	-200.000	-0.126	1.052
-528.048	-200.000	-0.132	0.767
-527.033	-157.340	0.387	0.024
-526.018	482.285	0.193	-0.442
-525.004	-200.000	-0.023	0.305
-523.989	-25.825	-0.723	0.429
-522.975	-200.000	0.018	0.427
-521.960	-57.813	0.865	-0.381
-520.945	774.206	-0.160	0.440
-519.931	680.108	-0.207	0.544
-518.916	-200.000	-0.052	0.549
-517.902	800.000	-0.151	0.445
-516.887	-18.596	-0.318	0.200
-515.872	800.000	0.103	0.339
-514.858	-72.146	0.615	-0.230
-513.843	44.392	-0.478	-0.443
-512.829	58.789	-0.476	0.471
-511.814	-133.333	0.420	-0.053
-510.799	23.173	0.267	0.221
-509.785	624.973	0.364	-0.925
-508.770	-133.028	-0.084	-0.011
-507.756	641.292	0.215	0.551
-506.741	-84.856	-0.837	-0.265
-505.726	800.000	0.062	-0.197
-504.712	-90.756	0.574	-0.167
-503.697	-200.000	-0.033	0.799
-502.683	-200.000	0.125	0.868
-501.668	-114.074	-0.258	0.050
-500.653	471.383	-0.537	-1.216
-499.639	-153.973	0.582	-0.040
-498.624	-200.000	-0.030	0.725
-497.610	-173.123	0.801	-0.025
-496.595	-46.710	0.099	0.049
-495.581	-128.597	0.257	0.037
-494.566	34.921	-0.638	-0.562
-493.551	9.598	0.670	-0.511
-492.537	-25.168	0.597	-0.356
-491.522	-64.188	-0.294	0.121
-490.508	602.561	0.081	0.203
-489.493	162.075	-0.267	-0.376
-488.478	95.102	0.296	-0.339
-487.464	-69.437	-0.169	-0.065
-486.449	-189.904	0.590	0.007
-485.435	484.399	0.345	0.791
-484.420	353.546	0.081	0.161
-483.405	0.994	-0.108	0.078
-482.391	800.000	-0.240	-0.672
-481.376	-42.542	-0.409	0.210
-480.362	-70.154	0.365	0.140
-479.347	422.535	-0.042	0.090
-478.332	800.000	0.265	-0.921
-477.318	26.697	-0.330	-0.278
-476.303	800.000	-0.103	0.380
-475.289	800.000	0.243	0.718
-474.274	501.949	0.105	0.245
-473.259	49.865	-0.298	-0.283
-472.245	-91.277	0.259	-0.075
-471.230	101.806	-0.227	0.266
-470.216	-114.243	0.289	0.056
-469.201	800.000	-0.052	0.200
-468.186	-200.000	0.160	1.108
-467.172	9.938	-0.660	0.504
-466.157	-34.309	-0.929	-0.513
-465.143	-99.571	-0.397	-0.100
-464.128	-67.302	0.596	-0.236
-463.113	800.000	0.033	0.144
-462.099	-120.970	0.877	0.148
-461.084	596.355	0.376	-0.935
-460.070	-68.949	-0.320	0.124
-459.055	-9.544	-0.579	0.388
-458.040	-177.213	-0.827	-0.021
-457.026	-200.000	-0.034	0.976
-456.011	800.000	0.238	0.691
-454.997	-49.252	-0.057	0.027
-453.982	-200.000	-0.019	-0.142
-452.968	40.482	0.117	-0.106
-451.953	23.990	0.362	0.300
-450.938	39.285	-0.443	-0.398
-449.924	-43.707	-0.266	-0.135
-448.909	-200.000	-0.033	-0.442
-447.895	41.542	0.301	0.274
-446.880	-170.929	-0.650	-0.022
-445.865	-200.000	0.005	0.602
-444.851	-2.320	-0.778	0.548
-443.836	-200.000	0.022	-0.202
-442.822	407.828	-0.215	0.456
-441.807	-66.867	-0.352	-0.140
-440.792	-200.000	0.082	0.561
-439.778	-174.787	1.090	0.031
-438.763	207.908	0.162	-0.254
-437.749	-200.000	-0.009	0.046
-436.734	-177.407	1.007	-0.025
-435.719	-13.488	0.285	0.185
-434.705	6.405	-0.394	-0.294
-433.690	800.000	0.154	-0.590
-432.676	-27.260	-0.233	-0.136
-431.661	80.798	0.497	-0.538
-430.646	-62.904	-0.288	-0.120
-429.632	800.000	-0.227	0.689
-428.617	800.000	-0.254	0.729
-427.603	626.692	-0.023	-0.059
-426.588	-200.000	0.005	-0.118
-425.573	800.000	0.330	-1.001
-424.559	207.805	0.448	-0.703
-423.544	32.779	0.266	-0.231
-422.530	-40.566	-1.117	-0.582
-421.515	-200.000	-0.007	0.370
-420.500	57.807	-0.489	-0.480
-419.486	-115.155	-0.496	-0.094
-418.471	800.000	-0.087	-0.324
-417.457	80.011	-0.238	0.257
-416.442	420.712	-0.243	-0.522
-415.428	800.000	0.101	0.437
-414.413	111.108	-0.426	-0.515
-413.398	94.182	-0.205	-0.234
-412.384	210.630	0.174	0.275
-411.369	800.000	-0.153	-0.428
-410.355	454.158	-0.162	0.361
-409.340	-8.490	-0.188	-0.127
-408.325	269.438	0.338	-0.596
-407.311	0.889	0.666	-0.479
-406.296	-163.299	0.496	0.024
-405.282	54.686	-0.618	0.598
-404.267	257.677	-0.088	-0.152
-403.252	-200.000	-0.018	0.308
-402.238	193.381	-0.400	-0.607
-401.223	-200.000	-0.035	-0.480
-400.209	-156.600	-0.120	-0.007
-399.194	-132.380	-0.666	-0.086
-398.179	232.835	0.579	0.954
-397.165	-200.000	0.111	0.630
-396.150	-200.000	0.026	0.146
-395.136	-123.146	0.481	0.077
-394.121	-200.000	-0.010	0.427
-393.106	-24.652	-0.656	0.391
-392.092	-24.091	-0.549	0.329
-391.077	611.506	0.193	0.483
-390.063	-200.000	0.024	-0.181
-389.048	83.454	-0.182	0.199
-388.033	500.698	0.419	0.970
-387.019	146.561	0.451	-0.608
-386.004	-120.632	-0.248	-0.042
-384.990	103.708	-0.275	0.323
-383.975	128.035	-0.148	0.189
-382.960	-172.220	0.397	0.013
-381.946	800.000	-0.301	0.844
-380.931	-200.000	0.164	-0.920
-379.917	-200.000	-0.011	0.246
-378.902	114.644	0.310	0.378
-377.888	-141.452	0.313	0.032
-376.873	-54.153	-0.614	0.280
-375.858	-137.843	-1.198	-0.134
-374.844	89.594	0.678	-0.758
-373.829	-155.412	-0.700	0.045
-372.815	-15.507	-0.117	-0.075
-371.800	-72.585	0.827	0.306
-370.785	67.379	-0.273	-0.279
-369.771	405.722	-0.073	0.153
-368.756	-200.000	0.136	-0.651
-367.742	219.176	0.189	0.302
-366.727	236.187	-0.446	0.738
-365.712	79.991	0.727	-0.783
-364.698	52.853	-0.599	-0.574
-363.683	800.000	-0.288	-0.866
-362.669	-57.692	0.127	0.056
-361.654	14.576	-0.368	-0.288
-360.639	25.187	-0.451	-0.376
-359.625	-98.032	0.194	0.050
-358.610	-108.496	0.249	-0.054
-357.596	800.000	0.235	-0.675
-356.581	800.000	-0.225	0.628
-355.566	-59.762	0.532	0.228
-354.552	89.261	0.251	-0.280
-353.537	-43.136	-0.503	0.255
-352.523	800.000	0.186	-0.681
-351.508	155.441	-0.262	-0.362
-350.493	4.958	0.512	0.377
-349.479	-92.377	0.131	0.037
-348.464	-159.397	0.458	-0.026
-347.450	626.003	0.554	1.399
-346.435	55.549	-0.184	-0.178
-345.420	-175.352	-0.576	-0.016
-344.406	800.000	-0.242	-0.732
-343.391	-36.847	0.873	-0.469
-342.377	-200.000	0.049	-0.275
-341.362	-130.586	-0.258	-0.035
-340.348	-161.276	0.407	0.021
-339.333	-9.337	-0.524	0.350
-338.318	-200.000	-0.027	-0.771
-337.304	-23.488	-0.351	-0.211
-336.289	176.473	-0.031	0.046
-335.275	-93.172	-0.677	-0.188
-334.260	-10.818	-0.647	0.428
-333.245	-3.080	-0.433	0.302
-332.231	269.700	0.325	0.572
-331.216	-200.000	0.006	-0.374
-330.202	-200.000	0.043	0.511
-329.187	794.570	-0.195	0.537
-328.172	149.213	-0.295	-0.400
-327.158	250.321	0.265	0.450
-326.143	206.723	0.137	-0.213
-325.129	43.986	-0.250	-0.229
-324.114	-200.000	-0.079	0.736
-323.099	-200.000	-0.032	0.145
-322.085	-78.586	0.312	0.107
-321.070	112.913	0.306	-0.371
-320.056	-52.665	-0.587	-0.271
-319.041	-96.232	-0.346	0.092
-318.026	533.773	0.081	0.191
-317.012	800.000	0.119	-0.457
-315.997	560.255	0.203	-0.490
-314.983	339.606	-0.231	0.450
-313.968	173.426	0.153	-0.221
-312.953	-200.000	0.124	-0.736
-311.939	141.757	-0.695	-0.921
-310.924	-200.000	-0.010	-0.161
-309.910	269.594	-0.215	-0.378
-308.895	-140.185	-0.648	-0.068
-307.880	800.000	0.117	-0.373
-306.866	-33.741	0.351	-0.193
-305.851	41.209	0.570	0.515
-304.837	800.000	0.116	-0.442
-303.822	156.890	-0.199	-0.275
-302.807	152.841	-0.062	0.085
-301.793	-52.967	-0.596	-0.274
-300.778	-158.929	-0.509	0.029
-299.764	-200.000	-0.079	0.371
-298.749	-125.593	0.566	0.086
-297.735	800.000	-0.148	-0.484
-296.720	205.797	0.221	-0.344
-295.705	800.000	0.049	-0.198
-294.691	-104.017	-0.467	-0.109
-293.676	-200.000	0.001	0.752
-292.662	66.495	0.534	-0.542
-291.647	-87.232	0.294	0.089
-290.632	-200.000	-0.010	-0.328
-289.618	-71.479	-0.169	-0.063
-288.603	-57.811	-0.833	-0.364
-287.589	-200.000	0.060	-0.487
-286.574	28.368	-0.401	0.338
-285.559	379.252	-0.282	0.577
-284.545	-61.702	-0.421	0.176
-283.530	-200.000	-0.153	-0.954
-282.516	-200.000	0.126	-0.637
-281.501	-70.626	-0.514	-0.194
-280.486	325.003	0.258	0.493
-279.472	100.633	0.218	0.253
-278.457	-200.000	0.005	0.048
-277.443	126.226	0.411	0.519
-276.428	-200.000	0.011	-0.480
-275.413	-200.000	-0.045	0.781
-274.399	-15.750	-0.336	-0.214
-273.384	-66.007	0.635	0.253
-272.370	7.061	-0.671	0.499
-271.355	170.747	0.527	-0.754
-270.340	-40.280	-0.147	-0.076
-269.326	-160.691	-0.775	-0.041
-268.311	395.108	0.266	-0.553
-267.297	-114.132	0.427	-0.082
-266.282	351.691	-0.197	-0.390
-265.267	78.760	-0.208	0.223
-264.253	42.985	0.625	0.569
-263.238	-0.165	-0.344	0.244
-262.224	98.096	-0.289	-0.332
-261.209	87.867	0.101	-0.112
-260.195	-21.102	-0.376	0.230
-259.180	70.674	-0.484	-0.500
-258.165	-48.906	-0.425	-0.203
-257.151	-200.000	-0.017	-0.183
-256.136	-128.825	0.567	0.080
-255.122	-118.250	0.737	-0.131
-254.107	304.065	0.139	-0.257
-253.092	12.591	-0.177	-0.137
-252.078	-200.000	0.039	0.247
-251.063	-200.000	-0.033	-0.962
-250.049	-138.735	0.767	0.084
-249.034	-43.446	0.262	-0.132
-248.019	-23.389	-0.088	0.053
-247.005	218.946	0.451	0.719
-245.990	-2.659	0.099	-0.069
-244.976	-86.767	-0.571	-0.174
-243.961	224.210	-0.132	-0.213
-242.946	-132.391	0.109	-0.014
-241.932	-130.574	-0.751	0.101
-240.917	-200.000	-0.048	-0.519
-239.903	367.254	0.301	-0.607
-238.888	-70.850	0.462	-0.174
-237.873	253.071	0.054	-0.092
-236.859	-68.250	-0.584	0.226
-235.844	-141.289	-0.559	0.057
-234.830	9.599	-0.069	-0.052
-233.815	-200.000	0.132	-0.597
-232.800	211.219	-0.158	-0.248
-231.786	119.679	-0.475	0.586
-230.771	57.958	0.197	0.193
-229.757	18.219	-0.372	-0.296
-228.742	-200.000	0.060	-0.382
-227.727	-36.299	0.550	-0.296
-226.713	-200.000	-0.065	0.402
-225.698	61.256	-0.449	0.444
-224.684	643.263	0.198	0.503
-223.669	34.940	-0.133	-0.116
-222.655	-200.000	-0.006	1.455
-221.640	49.820	-0.308	0.289
-220.625	-84.894	-0.521	-0.163
-219.611	-200.000	0.058	0.613
-218.596	800.000	-0.037	-0.153
-217.582	323.603	0.493	0.936
-216.567	14.523	0.596	0.463
-215.552	-22.692	-1.081	-0.650
-214.538	241.972	0.439	0.731
-213.523	281.606	0.145	-0.259
-212.509	45.999	-0.244	-0.225
-211.494	800.000	-0.148	0.585
-210.479	800.000	0.150	-0.645
-209.465	-1.169	0.857	0.603
-208.450	-200.000	0.102	0.839
-207.436	-14.498	-0.222	-0.142
-206.421	-200.000	0.215	-0.994
-205.406	39.433	-0.585	-0.522
-204.392	-97.207	0.326	0.085
-203.377	458.348	0.212	0.468
-202.363	-200.000	-0.015	0.537
-201.348	-200.000	0.019	0.377
-200.333	759.357	-0.222	0.598
-199.319	-200.000	0.096	0.536
-198.304	-43.886	0.140	-0.070
-197.290	-9.815	1.097	-0.727
-196.275	85.709	-0.356	-0.390
-195.260	-200.000	0.163	-0.804
-194.246	44.231	-0.245	-0.224
-193.231	-200.000	-0.092	-0.743
-192.217	257.695	-0.128	0.219
-191.202	119.662	0.267	-0.329
-190.187	-72.948	0.263	0.096
-189.173	800.000	0.199	-0.723
-188.158	703.194	0.042	0.110
-187.144	-200.000	0.042	-0.613
-186.129	-10.753	-0.097	-0.064
-185.114	800.000	-0.228	0.897
-184.100	800.000	-0.203	0.632
-183.085	231.367	0.090	0.147
-182.071	369.017	0.440	-0.885
-181.056	1.103	0.544	0.389
-180.042	800.000	0.250	0.822
-179.027	800.000	0.053	-0.202
-178.012	-22.916	0.591	0.355
-176.998	800.000	0.199	0.578
-175.983	800.000	-0.025	0.097
-174.969	13.345	0.449	0.346
-173.954	54.371	0.431	0.413
-172.939	140.316	0.381	0.500
-171.925	-200.000	0.107	-0.650
-170.910	-90.316	-0.405	-0.117
-169.896	99.304	0.302	0.348
-168.881	158.465	-0.199	0.275
-167.866	424.527	-0.218	0.466
-166.852	-191.066	-0.498	-0.005
-165.837	-140.526	-0.320	0.033
-164.823	656.535	-0.281	0.719
-163.808	14.200	0.824	0.638
-162.793	-30.854	0.788	-0.443
-161.779	-200.000	-0.065	0.689
-160.764	800.000	-0.032	0.112
-159.750	8.602	0.375	-0.281
-158.735	800.000	0.085	0.249
-157.720	609.636	-0.188	-0.466
-156.706	63.457	0.326	-0.325
-155.691	-200.000	0.082	-0.573
-154.677	800.000	-0.051	0.179
-153.662	25.805	-0.518	0.429
-152.647	-40.376	-0.580	0.300
-151.633	512.265	-0.197	-0.455
-150.618	-200.000	0.092	0.730
-149.604	-113.303	-0.771	0.151
-148.589	-86.076	0.338	-0.104
-147.574	83.510	0.594	-0.643
-146.560	-13.457	0.753	-0.485
-145.545	800.000	-0.023	-0.078
-144.531	23.344	0.351	0.286
-143.516	-107.615	-0.278	-0.060
-142.502	800.000	0.128	-0.419
-141.487	800.000	-0.155	-0.562
-140.472	166.359	0.464	0.653
-139.458	800.000	0.070	0.216
-138.443	-104.821	-0.305	-0.070
-137.429	-200.000	-0.042	-0.468
-136.414	439.256	-0.321	0.696
-135.399	-136.771	-0.429	0.049
-134.385	25.051	-0.325	0.268
-133.370	-94.778	-0.585	0.158
-132.356	-159.479	0.439	0.024
-131.341	5.953	-0.303	-0.223
-130.326	-138.640	0.486	0.053
-129.312	265.103	-0.130	0.225
-128.297	-129.831	0.434	0.059
-127.283	-119.368	0.691	0.119
-126.268	-24.390	0.325	-0.192
-125.253	-183.066	0.390	-0.007
-124.239	-99.172	0.336	0.084
-123.224	-163.186	-0.229	-0.011
-122.210	52.121	-0.560	0.530
-121.195	-29.751	-0.340	0.193
