DTS Sentinel unit serial number:	SN413079Multiplexer serial number:	ORYXHardware model number:	OX4-SRSoftware version number:	ORYX F/W v4.00 Oryx Data Collector v3.7.2.0data status	okinstallation	princeton_trtdifferential loss correction	single-endedforward channel	channel 4reverse channel	N/Adate	2019/09/12time	15:11:10forward acquisition time	60.00reverse acquisition time	0.00gamma	496.2192k internal	0.2289k external	0.2289temperature offset calibration	1.0087default loss term (dB/km)	0.3790temperature slope calibration	1.0000multiplexer offset coefficient	1.0000multiplexer slope coefficient	1.0000fibre end	0.00T internal ref (°C)	40.62T ext. ref 1 (°C)	2.38T ext. ref 2 (°C)	37.92length (m)	temperature (°C)	Stokes	anti-Stokes-747.200	-28.556	-0.219	-0.129
-746.185	417.936	-0.149	0.326
-745.171	65.768	-0.074	-0.077
-744.156	-200.000	0.101	0.529
-743.142	-23.259	-0.261	0.161
-742.127	-200.000	0.018	0.213
-741.112	-41.199	-0.260	-0.138
-740.098	212.270	-0.223	0.360
-739.083	-175.056	0.111	-0.003
-738.069	-200.000	-0.030	0.206
-737.054	1.781	0.247	0.182
-736.039	-79.019	0.159	0.055
-735.025	-76.568	-0.059	-0.021
-734.010	-200.000	0.000	-0.106
-732.996	121.045	-0.048	0.062
-731.981	146.295	-0.217	0.298
-730.966	-200.000	-0.023	-0.175
-729.952	177.186	-0.063	0.094
-728.937	475.025	-0.059	0.137
-727.923	800.000	-0.067	0.190
-726.908	-200.000	0.014	0.083
-725.894	165.021	-0.119	-0.171
-724.879	-122.447	0.163	-0.027
-723.864	57.814	0.063	-0.063
-722.850	433.414	0.069	0.153
-721.835	75.380	-0.166	0.179
-720.821	-73.664	-0.169	-0.063
-719.806	800.000	-0.019	0.082
-718.791	-200.000	0.056	-0.282
-717.777	-200.000	-0.011	-0.076
-716.762	-200.000	0.030	-0.322
-715.748	28.363	-0.206	-0.178
-714.733	22.099	-0.108	0.090
-713.718	-78.166	0.379	-0.133
-712.704	-76.454	-0.217	0.078
-711.689	297.430	-0.134	-0.252
-710.675	-200.000	0.006	-0.143
-709.660	-17.598	0.019	0.012
-708.645	-126.260	0.100	-0.015
-707.631	559.457	0.088	0.217
-706.616	212.568	0.143	0.231
-705.602	66.590	0.280	0.291
-704.587	-200.000	0.031	0.254
-703.572	26.159	0.190	0.163
-702.558	800.000	-0.049	-0.163
-701.543	800.000	0.057	-0.213
-700.529	800.000	0.091	-0.293
-699.514	-54.893	0.274	0.127
-698.499	282.299	-0.109	-0.200
-697.485	-81.404	0.100	0.034
-696.470	20.418	-0.183	-0.151
-695.456	6.470	-0.117	-0.089
-694.441	800.000	0.112	-0.473
-693.426	275.855	-0.191	0.346
-692.412	-200.000	0.055	0.315
-691.397	-118.049	0.311	0.057
-690.383	-182.552	0.566	0.011
-689.368	-23.199	-0.212	-0.130
-688.354	665.192	-0.052	0.137
-687.339	-152.694	0.134	0.010
-686.324	90.918	0.068	0.078
-685.310	-19.523	0.080	-0.051
-684.295	-96.833	-0.035	0.009
-683.281	598.818	0.127	-0.323
-682.266	-200.000	0.003	-0.021
-681.251	800.000	0.079	-0.247
-680.237	61.173	0.118	-0.120
-679.222	-81.404	0.093	-0.031
-678.208	-200.000	-0.042	-0.345
-677.193	-26.534	-0.112	-0.067
-676.178	18.328	-0.134	0.110
-675.164	155.682	0.117	-0.165
-674.149	132.521	-0.203	-0.268
-673.135	-50.313	-0.164	0.079
-672.120	-200.000	-0.009	0.271
-671.105	528.644	0.137	-0.330
-670.091	-200.000	-0.150	0.000
-669.076	572.781	-0.084	0.210
-668.062	-59.993	-0.212	-0.092
-667.047	122.848	0.084	-0.108
-666.032	-68.748	0.257	0.102
-665.018	-33.551	0.200	0.113
-664.003	-15.797	0.329	-0.214
-662.989	-42.989	-0.129	-0.067
-661.974	-200.000	0.010	-0.081
-660.959	800.000	-0.072	0.218
-659.945	17.159	-0.133	0.108
-658.930	249.764	-0.151	0.262
-657.916	-54.764	-0.142	0.065
-656.901	800.000	-0.043	0.148
-655.886	-7.126	-0.177	-0.122
-654.872	-200.000	0.002	0.329
-653.857	-200.000	0.000	0.401
-652.843	-78.701	0.152	0.053
-651.828	-191.695	0.226	-0.002
-650.814	101.082	-0.146	-0.174
-649.799	-111.885	0.048	-0.010
-648.784	136.763	0.021	0.028
-647.770	-200.000	0.291	-0.001
-646.755	-200.000	-0.027	0.153
-645.741	-19.006	-0.109	0.069
-644.726	800.000	-0.051	-0.156
-643.711	-96.084	-0.257	0.070
-642.697	-105.045	0.186	0.044
-641.682	791.191	-0.091	-0.255
-640.668	541.572	-0.081	-0.196
-639.653	81.500	-0.250	-0.276
-638.638	58.334	-0.110	-0.110
-637.624	-134.465	0.130	0.016
-636.609	-40.529	0.117	-0.062
-635.595	-146.005	0.178	-0.016
-634.580	8.155	-0.238	0.182
-633.565	-200.000	-0.055	0.287
-632.551	76.376	-0.100	-0.108
-631.536	-200.000	-0.020	-0.220
-630.522	800.000	0.079	0.243
-629.507	48.085	0.092	-0.088
-628.492	213.552	0.021	-0.033
-627.478	16.971	-0.137	-0.110
-626.463	210.861	-0.224	-0.360
-625.449	-79.304	0.031	0.011
-624.434	-138.014	0.429	0.049
-623.419	131.321	0.195	-0.255
-622.405	-200.000	0.028	0.144
-621.390	-200.000	-0.007	0.077
-620.376	-6.673	0.172	0.119
-619.361	-6.273	-0.383	-0.267
-618.346	435.737	-0.147	0.326
-617.332	-109.447	0.282	0.061
-616.317	800.000	-0.051	0.203
-615.303	-41.347	0.247	-0.130
-614.288	344.662	-0.026	-0.052
-613.273	-53.399	-0.212	0.099
-612.259	9.828	-0.064	-0.049
-611.244	11.976	-0.033	-0.026
-610.230	-21.905	0.087	-0.054
-609.215	200.285	-0.039	0.062
-608.201	94.536	0.112	-0.130
-607.186	-78.322	0.393	0.138
-606.171	800.000	0.104	-0.333
-605.157	-31.074	-0.223	-0.128
-604.142	-52.093	-0.280	-0.132
-603.128	-200.000	-0.002	-0.174
-602.113	-76.531	0.161	-0.058
-601.098	478.313	0.079	-0.183
-600.084	-200.000	-0.047	-0.232
-599.069	105.319	-0.085	-0.102
-598.055	800.000	-0.156	-0.441
-597.040	587.501	-0.092	-0.232
-596.025	56.053	-0.080	0.079
-595.011	-137.706	0.272	-0.031
-593.996	99.386	-0.100	-0.118
-592.982	445.776	0.078	0.176
-591.967	-90.977	0.154	0.045
-590.952	-115.635	0.196	-0.038
-589.938	101.936	-0.129	-0.154
-588.923	-161.099	-0.321	-0.017
-587.909	154.640	-0.175	-0.245
-586.894	502.264	0.134	-0.316
-585.879	170.544	-0.226	-0.330
-584.865	-54.894	0.111	0.051
-583.850	58.363	-0.350	-0.350
-582.836	-79.684	0.299	0.103
-581.821	-166.908	0.171	-0.007
-580.806	-72.191	-0.225	-0.085
-579.792	-183.743	0.382	0.007
-578.777	-158.629	-0.424	-0.025
-577.763	800.000	0.132	-0.421
-576.748	-79.577	-0.198	0.068
-575.733	800.000	-0.043	-0.157
-574.719	-200.000	0.038	-0.263
-573.704	800.000	0.052	-0.153
-572.690	-31.436	0.201	0.115
-571.675	-12.008	-0.095	0.064
-570.661	22.772	-0.205	-0.171
-569.646	-159.528	0.061	-0.003
-568.631	36.987	0.093	-0.084
-567.617	-21.091	0.101	-0.063
-566.602	800.000	-0.011	-0.036
-565.588	-138.668	0.324	-0.036
-564.573	-119.754	0.124	-0.022
-563.558	36.232	0.167	-0.150
-562.544	-200.000	0.020	0.405
-561.529	24.994	-0.227	0.192
-560.515	-109.951	0.117	-0.025
-559.500	76.407	0.132	-0.143
-558.485	-144.474	0.023	-0.002
-557.471	-200.000	0.024	-0.344
-556.456	14.303	-0.084	-0.066
-555.442	-39.359	-0.236	0.126
-554.427	-200.000	0.019	-0.443
-553.412	-143.078	-0.357	-0.035
-552.398	-200.000	-0.005	-0.135
-551.383	-102.749	0.324	-0.079
-550.369	56.559	-0.064	-0.064
-549.354	-173.270	-0.104	0.003
-548.339	-160.581	0.015	-0.001
-547.325	-106.181	-0.113	-0.026
-546.310	-8.859	-0.131	0.089
-545.296	800.000	0.090	-0.299
-544.281	-36.578	-0.151	-0.083
-543.266	-200.000	0.032	0.253
-542.252	82.909	-0.039	0.043
-541.237	316.968	-0.071	0.137
-540.223	11.240	0.088	0.068
-539.208	-92.742	-0.276	0.079
-538.193	74.197	-0.060	-0.064
-537.179	800.000	0.062	-0.264
-536.164	-10.309	-0.028	-0.019
-535.150	91.376	-0.062	0.071
-534.135	225.316	0.053	-0.087
-533.121	-200.000	0.014	0.070
-532.106	-55.958	-0.062	-0.028
-531.091	-79.513	0.174	-0.060
-530.077	28.507	-0.069	0.059
-529.062	-124.118	0.459	0.073
-528.048	298.754	0.083	-0.155
-527.033	-51.106	-0.292	0.139
-526.018	-87.733	0.288	-0.088
-525.004	32.001	-0.075	0.066
-523.989	126.449	0.235	0.302
-522.975	152.425	-0.050	-0.069
-521.960	800.000	-0.059	0.247
-520.945	-48.563	-0.255	-0.124
-519.931	-80.314	0.318	0.108
-518.916	32.087	-0.070	-0.061
-517.902	340.888	-0.190	0.377
-516.887	-200.000	0.048	0.296
-515.872	-139.734	-0.296	0.032
-514.858	55.131	-0.276	0.271
-513.843	16.604	-0.260	-0.209
-512.829	152.979	0.269	0.373
-511.814	-53.247	0.258	-0.120
-510.799	77.701	0.060	-0.064
-509.785	79.042	-0.101	0.110
-508.770	-156.797	-0.179	-0.011
-507.756	-200.000	-0.017	-0.247
-506.741	297.143	0.022	-0.042
-505.726	43.966	-0.057	-0.053
-504.712	135.466	-0.125	-0.165
-503.697	800.000	0.023	-0.090
-502.683	38.322	-0.245	0.222
-501.668	800.000	-0.051	0.226
-500.653	-72.815	0.159	0.059
-499.639	-60.136	-0.162	-0.070
-498.624	-97.577	0.259	0.068
-497.610	43.352	0.218	-0.202
-496.595	800.000	0.048	0.147
-495.581	-163.482	-0.146	-0.007
-494.566	-3.476	0.146	0.103
-493.551	-22.003	-0.207	-0.128
-492.537	5.047	-0.205	-0.153
-491.522	35.386	-0.118	-0.105
-490.508	281.895	0.065	-0.118
-489.493	-200.000	-0.033	-0.261
-488.478	-194.759	-0.143	0.001
-487.464	-93.982	-0.191	0.053
-486.449	800.000	-0.040	-0.158
-485.435	241.900	0.062	0.105
-484.420	800.000	-0.064	0.248
-483.405	-24.088	0.182	0.110
-482.391	96.085	-0.231	0.268
-481.376	800.000	0.089	0.350
-480.362	127.786	-0.118	0.153
-479.347	-112.465	-0.227	-0.046
-478.332	-200.000	0.005	-0.063
-477.318	-73.215	-0.033	0.012
-476.303	-80.878	-0.271	0.091
-475.289	170.422	0.218	0.316
-474.274	60.370	-0.083	0.083
-473.259	-35.158	-0.040	0.022
-472.245	-200.000	0.003	-0.087
-471.230	-200.000	-0.027	0.140
-470.216	-91.229	0.335	-0.097
-469.201	-78.616	0.208	-0.072
-468.186	-200.000	-0.005	0.248
-467.172	-127.967	-0.334	-0.049
-466.157	-12.459	-0.344	-0.228
-465.143	26.889	0.298	0.253
-464.128	71.509	-0.230	0.243
-463.113	-45.986	0.330	-0.165
-462.099	176.289	0.167	-0.246
-461.084	-200.000	-0.018	-0.111
-460.070	-85.735	0.114	-0.036
-459.055	800.000	-0.079	0.335
-458.040	-127.191	-0.212	0.031
-457.026	-109.074	-0.259	-0.056
-456.011	-200.000	0.006	0.246
-454.997	291.063	0.149	-0.274
-453.982	400.564	-0.045	-0.096
-452.968	-40.687	-0.047	-0.025
-451.953	-34.152	-0.394	0.219
-450.938	298.994	-0.190	0.354
-449.924	-200.000	0.026	0.159
-448.909	-17.836	-0.096	0.061
-447.895	319.698	0.134	0.258
-446.880	-103.330	0.170	0.041
-445.865	-31.565	-0.341	-0.194
-444.851	-92.368	-0.315	-0.090
-443.836	23.647	-0.264	-0.220
-442.822	-60.479	-0.192	-0.083
-441.807	-114.235	0.176	-0.034
-440.792	-200.000	0.006	0.161
-439.778	97.632	-0.221	0.257
-438.763	147.460	-0.100	0.136
-437.749	-200.000	-0.005	-0.037
-436.734	-151.209	-0.111	0.008
-435.719	225.021	0.191	0.313
-434.705	-196.287	0.033	0.000
-433.690	494.907	-0.093	-0.217
-432.676	530.976	0.176	-0.420
-431.661	-98.453	0.273	0.071
-430.646	-115.737	-0.325	0.062
-429.632	-78.498	-0.224	-0.078
-428.617	219.473	0.089	-0.145
-427.603	174.927	0.157	-0.230
-426.588	154.967	-0.104	-0.145
-425.573	-126.465	-0.195	0.029
-424.559	74.533	-0.114	-0.121
-423.544	-76.028	-0.201	-0.072
-422.530	65.647	0.131	-0.135
-421.515	121.901	0.223	-0.282
-420.500	247.857	-0.170	0.292
-419.486	800.000	0.022	0.075
-418.471	-200.000	-0.008	0.314
-417.457	800.000	0.008	0.027
-416.442	-200.000	-0.004	0.127
-415.428	318.898	-0.108	-0.207
-414.413	-200.000	0.051	-0.277
-413.398	800.000	-0.089	-0.256
-412.384	-90.775	-0.126	-0.037
-411.369	-98.261	-0.286	-0.074
-410.355	-200.000	0.001	0.158
-409.340	234.673	0.127	-0.212
-408.325	-200.000	0.035	-0.273
-407.311	144.137	0.055	-0.074
-406.296	99.512	-0.280	-0.327
-405.282	800.000	-0.090	-0.387
-404.267	-104.143	0.114	-0.027
-403.252	22.737	-0.104	0.087
-402.238	208.494	-0.071	0.112
-401.223	354.808	-0.100	-0.200
-400.209	-53.037	-0.307	-0.143
-399.194	409.363	-0.028	0.060
-398.179	-156.591	-0.332	-0.021
-397.165	63.294	0.095	-0.097
-396.150	-87.357	-0.280	-0.086
-395.136	96.362	-0.131	-0.152
-394.121	42.150	0.113	0.104
-393.106	8.509	0.260	-0.198
-392.092	-200.000	-0.011	0.333
-391.077	112.770	0.242	0.297
-390.063	800.000	0.130	-0.437
-389.048	-102.889	0.045	0.011
-388.033	73.606	-0.122	0.130
-387.019	-92.260	-0.387	-0.110
-386.004	800.000	-0.062	-0.178
-384.990	800.000	-0.085	-0.271
-383.975	-80.763	0.252	0.085
-382.960	-123.597	-0.133	0.021
-381.946	-200.000	0.004	0.398
-380.931	-200.000	0.039	-0.214
-379.917	-103.242	0.283	-0.068
-378.902	-200.000	-0.005	0.091
-377.888	800.000	-0.051	0.207
-376.873	-43.591	0.333	0.170
-375.858	636.941	-0.059	-0.152
-374.844	151.228	0.289	-0.397
-373.829	-53.683	-0.010	-0.005
-372.815	-0.075	0.056	0.041
-371.800	-142.254	-0.124	-0.012
-370.785	35.271	0.348	-0.308
-369.771	124.677	0.138	0.175
-368.756	239.493	0.155	0.261
-367.742	168.386	0.082	0.118
-366.727	57.405	-0.335	0.330
-365.712	78.274	-0.079	0.085
-364.698	610.452	0.066	0.166
-363.683	90.172	0.168	0.190
-362.669	293.899	-0.152	0.280
-361.654	290.773	0.153	0.280
-360.639	-126.118	0.180	-0.027
-359.625	-200.000	0.001	0.135
-358.610	-200.000	0.034	0.206
-357.596	154.631	0.087	0.121
-356.581	35.598	-0.157	0.139
-355.566	353.687	-0.090	0.181
-354.552	800.000	0.088	0.284
-353.537	800.000	0.008	-0.031
-352.523	-162.856	-0.260	-0.013
-351.508	-104.417	-0.331	-0.077
-350.493	30.994	-0.200	0.173
-349.479	-115.086	0.176	0.034
-348.464	70.734	-0.102	-0.107
-347.450	-48.068	0.322	-0.157
-346.435	-200.000	0.007	0.095
-345.420	-200.000	-0.089	-0.429
-344.406	55.224	0.066	0.064
-343.391	9.130	0.143	-0.109
-342.377	800.000	-0.104	-0.330
-341.362	-95.935	0.299	-0.080
-340.348	-200.000	-0.042	-0.301
-339.333	800.000	0.101	0.299
-338.318	-52.635	-0.180	-0.084
-337.304	89.646	-0.188	0.212
-336.289	187.256	-0.062	0.093
-335.275	-79.474	0.108	0.037
-334.260	-106.496	-0.098	0.022
-333.245	15.066	0.342	-0.270
-332.231	-130.400	0.044	0.006
-331.216	-48.980	-0.275	0.133
-330.202	800.000	0.073	0.276
-329.187	-117.986	0.257	-0.046
-328.172	-24.334	-0.043	-0.026
-327.158	98.497	0.212	-0.246
-326.143	-136.081	-0.106	0.013
-325.129	-55.210	-0.135	-0.061
-324.114	-200.000	0.050	0.248
-323.099	192.416	-0.195	0.297
-322.085	556.463	-0.059	0.143
-321.070	800.000	-0.107	0.388
-320.056	421.044	0.127	0.275
-319.041	455.237	0.147	0.329
-318.026	-50.238	0.137	-0.065
-317.012	-200.000	0.042	0.243
-315.997	97.445	-0.135	0.156
-314.983	800.000	0.041	-0.167
-313.968	-200.000	0.018	0.132
-312.953	-200.000	0.022	0.100
-311.939	-130.462	0.212	-0.029
-310.924	302.767	-0.201	0.375
-309.910	20.244	0.116	-0.095
-308.895	247.436	-0.213	-0.363
-307.880	459.822	-0.165	0.369
-306.866	-140.832	0.282	0.029
-305.851	-3.636	-0.230	0.161
-304.837	-40.131	-0.217	-0.114
-303.822	-32.423	0.043	-0.024
-302.807	246.540	0.066	0.113
-301.793	97.160	0.184	0.212
-300.778	195.300	0.180	-0.275
-299.764	800.000	0.107	-0.444
-298.749	-133.462	0.280	0.035
-297.735	-200.000	-0.037	0.224
-296.720	-79.758	0.005	0.002
-295.705	241.582	-0.076	0.129
-294.691	-4.824	-0.076	0.053
-293.676	-200.000	0.013	0.370
-292.662	100.832	0.079	0.092
-291.647	-12.327	0.201	0.132
-290.632	-24.717	-0.161	0.096
-289.618	-158.006	0.153	-0.009
-288.603	-200.000	-0.085	0.407
-287.589	-130.548	-0.117	-0.016
-286.574	47.512	-0.103	-0.097
-285.559	-76.023	-0.078	-0.028
-284.545	156.835	-0.103	0.144
-283.530	108.337	0.136	-0.164
-282.516	288.526	-0.172	0.314
-281.501	800.000	0.052	-0.163
-280.486	-200.000	0.078	-0.431
-279.472	23.801	-0.080	0.066
-278.457	185.954	-0.230	-0.344
-277.443	-48.976	0.392	-0.189
-276.428	6.094	0.031	-0.023
-275.413	68.856	0.141	-0.146
-274.399	-191.445	0.402	0.004
-273.384	85.383	0.083	-0.092
-272.370	364.181	0.187	0.379
-271.355	-149.367	0.066	0.005
-270.340	117.866	-0.031	-0.039
-269.326	10.332	-0.171	0.131
-268.311	-128.938	0.339	-0.048
-267.297	-63.976	0.339	-0.140
-266.282	101.352	0.039	0.046
-265.267	-200.000	-0.023	0.126
-264.253	131.477	0.174	0.225
-263.238	105.036	-0.125	0.149
-262.224	300.112	0.040	-0.075
-261.209	328.735	0.242	0.468
-260.195	-60.201	-0.348	-0.149
-259.180	-11.470	-0.206	-0.136
-258.165	-200.000	0.008	-0.165
-257.151	-200.000	-0.017	-0.195
-256.136	-120.494	-0.143	-0.024
-255.122	67.412	-0.157	-0.161
-254.107	-7.760	-0.182	-0.124
-253.092	281.467	-0.067	-0.120
-252.078	169.019	-0.054	0.077
-251.063	82.244	0.090	-0.098
-250.049	555.463	0.021	-0.051
-249.034	-37.247	0.292	-0.157
-248.019	86.276	-0.132	0.146
-247.005	-200.000	0.004	0.064
-245.990	10.783	0.158	-0.121
-244.976	413.015	-0.020	0.043
-243.961	-54.165	0.292	0.133
-242.946	-50.386	0.255	-0.121
-241.932	-25.362	-0.257	0.153
-240.917	57.049	-0.183	0.180
-239.903	-134.702	-0.130	0.016
-238.888	324.376	-0.197	0.379
-237.873	-70.428	-0.139	0.053
-236.859	380.289	-0.064	-0.133
-235.844	88.581	0.036	0.040
-234.830	-182.409	0.274	-0.005
-233.815	356.356	0.124	-0.248
-232.800	-30.507	0.322	-0.183
-231.786	-132.189	0.241	0.031
-230.771	-30.900	0.203	-0.115
-229.757	800.000	0.052	-0.182
-228.742	-91.089	-0.373	0.108
-227.727	-100.618	0.376	0.093
-226.713	-62.142	0.173	0.073
-225.698	-49.222	0.089	-0.043
-224.684	69.424	0.219	0.227
-223.669	-26.393	-0.372	-0.219
-222.655	16.082	0.148	0.117
-221.640	-200.000	0.018	-0.186
-220.625	-135.892	-0.285	0.034
-219.611	95.329	0.122	-0.140
-218.596	800.000	0.071	-0.210
-217.582	-60.469	0.117	0.050
-216.567	193.690	-0.134	0.203
-215.552	181.349	0.066	0.098
-214.538	800.000	-0.065	-0.198
-213.523	170.076	0.196	0.281
-212.509	-20.324	0.273	-0.169
-211.494	682.918	-0.075	0.195
-210.479	-99.563	-0.314	0.079
-209.465	800.000	-0.096	0.376
-208.450	30.205	0.084	-0.072
-207.436	800.000	-0.040	-0.159
-206.421	366.262	-0.033	-0.066
-205.406	581.607	0.063	-0.156
-204.392	-25.470	0.172	0.102
-203.377	510.608	-0.025	-0.058
-202.363	-109.089	-0.130	0.028
-201.348	-200.000	0.014	0.076
-200.333	51.291	-0.234	0.223
-199.319	42.535	-0.089	0.081
-198.304	-200.000	0.045	0.266
-197.290	238.922	0.099	-0.164
-196.275	116.098	0.166	0.204
-195.260	-33.715	-0.215	-0.119
-194.246	4.481	0.155	-0.114
-193.231	421.696	0.082	0.177
-192.217	264.045	0.091	-0.159
-191.202	-116.353	0.220	-0.041
-190.187	-33.490	0.336	-0.186
-189.173	-129.660	0.232	0.032
-188.158	614.924	-0.158	0.397
-187.144	-200.000	-0.003	0.240
-186.129	139.497	0.132	0.174
-185.114	-180.617	-0.298	-0.006
-184.100	-2.547	0.247	-0.174
-183.085	-82.196	-0.103	-0.034
-182.071	-8.653	-0.169	0.114
-181.056	-82.673	0.187	-0.061
-180.042	145.096	-0.159	0.214
-179.027	800.000	0.035	-0.150
-178.012	369.342	0.156	0.316
-176.998	66.719	-0.151	-0.154
-175.983	-134.855	0.171	-0.021
-174.969	-200.000	0.060	0.362
-173.954	-200.000	0.024	0.249
-172.939	354.818	0.035	-0.071
-171.925	-110.345	0.381	-0.079
-170.910	-28.142	-0.221	-0.128
-169.896	-99.835	0.200	-0.050
-168.881	308.365	-0.073	-0.136
-167.866	423.507	0.039	0.084
-166.852	51.668	0.128	0.122
-165.837	303.221	0.063	0.117
-164.823	-200.000	0.023	0.262
-163.808	-55.945	-0.120	-0.054
-162.793	800.000	0.018	0.066
-161.779	2.171	0.116	-0.084
-160.764	-200.000	-0.048	-0.427
-159.750	-66.986	0.416	-0.165
-158.735	-159.102	0.049	0.003
-157.720	-8.730	-0.063	0.042
-156.706	-111.427	0.201	0.041
-155.691	21.935	-0.184	-0.150
-154.677	61.674	-0.070	0.069
-153.662	-44.591	-0.280	-0.140
-152.647	-7.067	0.148	0.101
-151.633	-200.000	0.009	0.119
-150.618	-200.000	0.002	0.096
-149.604	-200.000	-0.014	-0.085
-148.589	-83.144	0.136	-0.044
-147.574	-24.973	0.211	-0.125
-146.560	41.580	-0.158	0.143
-145.545	256.538	0.198	0.340
-144.531	-160.584	-0.190	-0.010
-143.516	-137.832	-0.209	-0.023
-142.502	88.962	0.216	0.241
-141.487	-108.951	0.222	-0.047
-140.472	380.017	-0.079	0.162
-139.458	-125.083	-0.121	-0.019
-138.443	800.000	-0.018	0.059
-137.429	27.125	-0.311	0.261
-136.414	-82.608	0.445	-0.144
-135.399	-10.287	-0.246	-0.164
-134.385	216.310	0.227	-0.362
-133.370	18.907	-0.150	-0.120
-132.356	276.960	0.022	-0.039
-131.341	8.062	0.189	-0.142
-130.326	-11.007	0.023	-0.015
-129.312	-54.572	-0.244	-0.110
-128.297	553.318	-0.144	0.345
-127.283	-147.112	0.246	0.021
-126.268	800.000	-0.060	-0.197
-125.253	-103.568	0.284	0.067
-124.239	800.000	-0.089	0.301
-123.224	-74.534	-0.386	-0.139
-122.210	-200.000	-0.052	-0.302
-121.195	-71.826	0.073	0.027
