DTS Sentinel unit serial number:	SN413079Multiplexer serial number:	ORYXHardware model number:	OX4-SRSoftware version number:	ORYX F/W v4.00 Oryx Data Collector v3.7.2.0data status	okinstallation	princeton_trtdifferential loss correction	single-endedforward channel	channel 4reverse channel	N/Adate	2019/09/17time	17:17:35forward acquisition time	60.00reverse acquisition time	0.00gamma	496.2192k internal	0.2279k external	0.2279temperature offset calibration	0.9978default loss term (dB/km)	0.3790temperature slope calibration	1.0000multiplexer offset coefficient	1.0000multiplexer slope coefficient	1.0000fibre end	0.00T internal ref (°C)	42.94T ext. ref 1 (°C)	0.35T ext. ref 2 (°C)	38.85length (m)	temperature (°C)	Stokes	anti-Stokes-747.200	-137.026	-0.168	0.020
-746.185	-5.327	0.278	0.197
-745.171	779.671	0.017	-0.048
-744.156	305.094	-0.051	0.098
-743.142	-200.000	-0.036	-0.229
-742.127	152.424	0.048	0.067
-741.112	-167.146	0.228	-0.010
-740.098	27.934	0.180	0.156
-739.083	-200.000	-0.039	0.209
-738.069	-200.000	-0.028	-0.345
-737.054	-200.000	-0.022	0.216
-736.039	-200.000	0.003	-0.029
-735.025	211.247	-0.086	0.139
-734.010	55.074	-0.305	-0.303
-732.996	-58.577	-0.173	0.077
-731.981	155.131	0.060	-0.086
-730.966	553.913	0.028	0.069
-729.952	800.000	0.057	0.176
-728.937	250.663	-0.045	-0.078
-727.923	-200.000	0.020	-0.507
-726.908	494.686	-0.177	0.419
-725.894	-28.827	-0.353	-0.209
-724.879	800.000	-0.156	-0.463
-723.864	-68.388	-0.153	-0.061
-722.850	238.709	-0.080	-0.137
-721.835	208.546	0.024	-0.039
-720.821	-21.614	0.244	0.153
-719.806	-200.000	-0.007	0.069
-718.791	-72.017	-0.480	-0.184
-717.777	-105.177	-0.196	-0.046
-716.762	-200.000	0.031	-0.221
-715.748	-140.827	0.161	-0.017
-714.733	44.262	0.213	-0.201
-713.718	290.495	0.142	0.265
-712.704	-74.006	0.095	-0.036
-711.689	-200.000	0.032	-0.179
-710.675	344.164	-0.168	-0.339
-709.660	-200.000	0.009	-0.051
-708.645	48.669	0.303	-0.292
-707.631	24.713	-0.034	0.029
-706.616	-66.688	0.103	0.042
-705.602	-123.259	-0.342	-0.056
-704.587	5.434	-0.142	-0.108
-703.572	-200.000	-0.014	-0.110
-702.558	535.594	0.055	-0.133
-701.543	-7.672	0.152	-0.105
-700.529	-121.440	-0.252	0.043
-699.514	-105.107	-0.134	0.031
-698.499	448.257	0.071	0.160
-697.485	63.307	0.248	-0.255
-696.470	-200.000	0.349	-0.001
-695.456	-77.900	-0.394	-0.140
-694.441	83.020	-0.123	-0.138
-693.426	16.286	-0.153	-0.124
-692.412	-46.393	0.309	0.156
-691.397	-84.474	-0.238	-0.077
-690.383	-97.219	0.118	0.032
-689.368	547.776	0.038	0.092
-688.354	152.532	-0.110	0.155
-687.339	-16.200	0.126	-0.082
-686.324	201.834	0.067	-0.106
-685.310	-95.805	0.226	-0.062
-684.295	800.000	0.041	-0.145
-683.281	-200.000	-0.055	-0.270
-682.266	1.206	-0.141	-0.104
-681.251	688.845	-0.152	0.409
-680.237	-151.334	0.498	-0.038
-679.222	-20.411	0.099	0.063
-678.208	447.713	0.107	-0.243
-677.193	800.000	-0.065	0.220
-676.178	119.746	-0.147	0.187
-675.164	4.492	0.281	-0.211
-674.149	-31.418	0.061	0.035
-673.135	-200.000	0.002	0.232
-672.120	-37.844	-0.223	0.122
-671.105	-12.714	-0.156	0.104
-670.091	-62.652	-0.122	0.052
-669.076	-200.000	-0.062	0.311
-668.062	-101.618	0.201	-0.050
-667.047	-47.442	0.200	0.100
-666.032	335.573	0.054	-0.107
-665.018	154.501	0.214	-0.302
-664.003	800.000	0.102	0.369
-662.989	-48.531	-0.418	-0.206
-661.974	-122.827	0.193	0.032
-660.959	-181.875	0.401	-0.008
-659.945	111.912	-0.022	0.028
-658.930	-129.434	-0.053	0.008
-657.916	224.835	-0.037	0.061
-656.901	-200.000	-0.002	-0.080
-655.886	598.842	0.140	-0.356
-654.872	-184.018	-0.172	0.003
-653.857	-96.529	0.081	0.022
-652.843	-69.287	-0.137	0.054
-651.828	-130.124	-0.436	-0.061
-650.814	-93.739	-0.090	0.025
-649.799	382.117	-0.183	-0.385
-648.784	-130.392	0.404	0.056
-647.770	688.993	0.015	-0.042
-646.755	-89.467	0.558	-0.168
-645.741	-90.523	0.240	-0.071
-644.726	-82.327	0.077	-0.026
-643.711	180.855	0.102	0.153
-642.697	97.052	0.146	-0.172
-641.682	24.875	0.107	-0.091
-640.668	-120.464	0.185	-0.032
-639.653	-200.000	-0.007	0.047
-638.638	-33.820	0.212	-0.120
-637.624	334.202	0.108	-0.214
-636.609	-26.429	-0.126	0.076
-635.595	-116.952	0.152	0.028
-634.580	340.606	-0.121	-0.242
-633.565	800.000	-0.030	0.130
-632.551	800.000	-0.064	-0.216
-631.536	-200.000	-0.006	0.058
-630.522	-57.748	-0.146	0.065
-629.507	-200.000	-0.011	-0.286
-628.492	114.795	0.168	-0.210
-627.478	-16.867	0.072	0.046
-626.463	800.000	-0.006	-0.017
-625.449	800.000	0.172	-0.510
-624.434	391.626	0.042	0.090
-623.419	-200.000	-0.007	0.356
-622.405	-200.000	-0.010	-0.267
-621.390	-200.000	0.012	0.110
-620.376	567.239	-0.130	0.322
-619.361	319.862	0.217	0.421
-618.346	-188.043	-0.158	-0.002
-617.332	-200.000	-0.054	0.244
-616.317	450.665	0.062	0.139
-615.303	569.007	0.083	0.206
-614.288	800.000	0.036	0.126
-613.273	161.043	-0.178	-0.255
-612.259	-111.226	0.315	0.066
-611.244	3.088	0.238	-0.177
-610.230	-23.538	0.111	0.068
-609.215	301.930	0.100	0.189
-608.201	-190.262	-0.198	-0.002
-607.186	-200.000	0.017	0.293
-606.171	-109.465	-0.229	-0.050
-605.157	-12.303	-0.126	-0.084
-604.142	-92.243	-0.232	0.067
-603.128	-200.000	0.037	-0.281
-602.113	-200.000	-0.059	-0.326
-601.098	-200.000	-0.018	-0.093
-600.084	34.739	-0.079	0.071
-599.069	-200.000	0.087	0.391
-598.055	110.476	-0.129	0.158
-597.040	402.982	0.088	0.190
-596.025	-115.173	0.124	-0.024
-595.011	-200.000	0.046	0.504
-593.996	147.475	-0.022	-0.031
-592.982	-200.000	-0.002	0.175
-591.967	-65.201	-0.092	0.038
-590.952	-116.762	-0.246	0.046
-589.938	4.184	-0.104	0.078
-588.923	-127.832	-0.277	0.041
-587.909	505.006	0.062	0.146
-586.894	229.209	0.144	-0.241
-585.879	-51.940	0.267	-0.127
-584.865	-92.051	-0.264	-0.076
-583.850	-200.000	0.011	-0.302
-582.836	792.521	-0.099	-0.277
-581.821	282.630	-0.132	0.242
-580.806	-142.966	0.225	-0.022
-579.792	-13.363	0.196	0.130
-578.777	18.938	-0.127	0.104
-577.763	-200.000	0.065	-0.303
-576.748	-200.000	0.011	0.153
-575.733	336.303	-0.062	-0.124
-574.719	800.000	0.073	-0.296
-573.704	-41.062	-0.158	-0.083
-572.690	-200.000	-0.043	-0.252
-571.675	446.273	-0.200	-0.450
-570.661	68.562	0.174	-0.182
-569.646	-182.489	0.142	-0.003
-568.631	19.816	-0.146	-0.120
-567.617	148.182	0.143	-0.197
-566.602	-52.169	-0.215	-0.102
-565.588	-174.153	0.179	-0.005
-564.573	-137.113	0.299	-0.035
-563.558	12.438	0.113	-0.089
-562.544	153.425	-0.449	0.629
-561.529	800.000	0.017	-0.076
-560.515	-55.279	0.141	0.065
-559.500	-123.087	-0.201	0.033
-558.485	-114.695	0.452	0.088
-557.471	165.892	0.087	0.126
-556.456	-177.049	0.091	0.002
-555.442	614.312	0.117	0.301
-554.427	-14.054	0.080	0.053
-553.412	-126.785	-0.312	-0.047
-552.398	-44.265	-0.202	0.103
-551.383	-67.516	-0.103	-0.041
-550.369	48.491	-0.171	0.164
-549.354	800.000	-0.067	-0.200
-548.339	-12.028	0.194	-0.130
-547.325	39.747	0.170	0.156
-546.310	-120.928	-0.259	-0.044
-545.296	283.755	0.067	-0.123
-544.281	196.000	-0.168	-0.261
-543.266	-200.000	0.018	0.164
-542.252	123.405	0.055	0.070
-541.237	-200.000	0.005	-0.407
-540.223	22.926	0.179	0.150
-539.208	-117.944	0.148	-0.027
-538.193	-123.809	0.373	0.060
-537.179	686.475	-0.092	-0.244
-536.164	9.938	0.179	-0.139
-535.150	-89.683	0.115	-0.035
-534.135	-93.710	-0.302	0.085
-533.121	149.522	0.165	0.228
-532.106	-98.570	-0.158	-0.041
-531.091	-200.000	-0.004	0.144
-530.077	9.260	-0.168	-0.130
-529.062	158.384	0.021	-0.030
-528.048	388.455	-0.152	-0.321
-527.033	-104.530	-0.463	-0.109
-526.018	37.658	-0.222	-0.202
-525.004	-2.870	-0.184	-0.131
-523.989	-24.309	-0.194	-0.118
-522.975	800.000	0.136	-0.384
-521.960	-200.000	-0.013	0.187
-520.945	-7.898	-0.155	0.107
-519.931	-154.402	0.182	-0.012
-518.916	-75.684	0.315	-0.114
-517.902	-193.612	0.225	-0.002
-516.887	-200.000	0.008	0.128
-515.872	-180.319	0.234	0.005
-514.858	-135.566	-0.012	0.001
-513.843	128.640	0.075	0.097
-512.829	287.444	-0.042	-0.078
-511.814	7.252	-0.166	0.126
-510.799	-200.000	0.043	0.410
-509.785	800.000	0.027	-0.091
-508.770	13.731	0.150	0.119
-507.756	800.000	-0.026	-0.076
-506.741	-86.906	-0.420	0.131
-505.726	-64.031	0.076	-0.032
-504.712	522.990	-0.111	-0.267
-503.697	-120.436	0.225	0.039
-502.683	-127.541	0.478	-0.071
-501.668	-136.791	-0.184	0.022
-500.653	-200.000	-0.008	-0.064
-499.639	34.850	0.221	-0.197
-498.624	-200.000	-0.020	0.331
-497.610	-200.000	-0.001	0.416
-496.595	-114.942	-0.218	-0.042
-495.581	-200.000	0.009	0.070
-494.566	46.627	0.148	0.140
-493.551	-29.736	-0.101	0.059
-492.537	-85.458	-0.316	0.100
-491.522	-200.000	0.036	0.288
-490.508	800.000	-0.124	0.446
-489.493	-19.709	0.283	0.179
-488.478	31.234	0.107	-0.094
-487.464	79.469	-0.296	-0.323
-486.449	49.738	-0.250	-0.240
-485.435	-95.254	-0.303	-0.083
-484.420	-40.710	-0.124	0.065
-483.405	800.000	-0.040	-0.161
-482.391	96.931	-0.066	0.077
-481.376	800.000	-0.048	-0.209
-480.362	198.281	-0.041	-0.064
-479.347	-40.872	0.104	-0.055
-478.332	-168.730	0.292	0.011
-477.318	-45.720	-0.351	0.177
-476.303	2.614	0.216	-0.159
-475.289	-18.865	-0.200	-0.127
-474.274	800.000	0.036	0.103
-473.259	625.908	0.054	-0.140
-472.245	-200.000	-0.054	0.246
-471.230	23.076	-0.053	-0.044
-470.216	160.090	-0.076	-0.108
-469.201	-64.772	-0.369	-0.152
-468.186	-36.500	0.130	0.071
-467.172	800.000	-0.049	-0.165
-466.157	253.098	0.206	-0.358
-465.143	117.427	-0.245	-0.307
-464.128	113.892	0.231	0.286
-463.113	58.067	-0.014	-0.014
-462.099	62.390	0.181	0.184
-461.084	568.584	0.033	0.083
-460.070	-200.000	-0.024	0.357
-459.055	-113.249	0.143	0.029
-458.040	713.755	-0.084	-0.227
-457.026	-123.144	0.162	-0.026
-456.011	-89.505	-0.336	0.101
-454.997	800.000	-0.022	0.088
-453.982	25.780	0.222	-0.188
-452.968	800.000	-0.029	0.123
-451.953	-127.462	0.346	-0.051
-450.938	77.140	0.201	0.217
-449.924	-72.517	-0.109	0.041
-448.909	254.687	0.116	0.203
-447.895	38.960	0.135	0.123
-446.880	-200.000	0.020	0.187
-445.865	800.000	0.039	0.161
-444.851	800.000	0.045	-0.135
-443.836	-49.640	0.180	-0.087
-442.822	-124.947	0.034	-0.005
-441.807	-200.000	0.025	0.273
-440.792	-200.000	0.375	0.000
-439.778	79.272	-0.138	-0.150
-438.763	10.039	-0.104	-0.080
-437.749	87.637	-0.084	0.095
-436.734	-171.830	0.331	-0.011
-435.719	-4.053	-0.134	-0.095
-434.705	60.560	-0.179	-0.181
-433.690	-200.000	0.032	-0.340
-432.676	800.000	-0.100	0.312
-431.661	-56.558	-0.211	0.095
-430.646	-200.000	-0.258	0.001
-429.632	332.432	-0.042	-0.082
-428.617	-93.424	-0.078	0.022
-427.603	-200.000	0.028	-0.138
-426.588	-75.984	0.168	-0.060
-425.573	261.325	-0.063	0.111
-424.559	195.756	-0.137	0.212
-423.544	-200.000	0.029	0.247
-422.530	-10.688	-0.157	0.106
-421.515	-92.335	0.308	-0.088
-420.500	-169.783	0.181	0.007
-419.486	-4.913	-0.108	-0.076
-418.471	101.871	0.048	0.057
-417.457	202.846	0.106	0.166
-416.442	-200.000	0.041	-0.257
-415.428	-160.857	0.387	0.021
-414.413	62.157	-0.122	0.124
-413.398	291.245	0.258	-0.477
-412.384	109.595	-0.256	0.312
-411.369	-200.000	0.017	0.164
-410.355	-200.000	-0.046	0.267
-409.340	263.273	0.116	-0.204
-408.325	41.460	0.091	0.084
-407.311	243.816	0.196	0.335
-406.296	-200.000	0.019	-0.097
-405.282	0.486	-0.119	-0.086
-404.267	26.699	0.118	-0.101
-403.252	-87.226	0.198	-0.061
-402.238	-91.122	-0.248	0.072
-401.223	-9.178	-0.184	0.125
-400.209	36.695	0.192	-0.172
-399.194	63.655	0.160	0.163
-398.179	-143.909	0.439	0.042
-397.165	-57.509	-0.376	-0.167
-396.150	158.861	0.176	-0.248
-395.136	41.250	0.252	-0.231
-394.121	344.035	-0.151	0.301
-393.106	-200.000	-0.001	0.329
-392.092	-123.936	-0.278	-0.044
-391.077	-130.982	-0.164	-0.022
-390.063	23.758	0.129	0.108
-389.048	-200.000	0.032	-0.151
-388.033	-181.396	0.214	0.004
-387.019	-11.479	-0.285	0.190
-386.004	-106.103	-0.229	0.052
-384.990	-99.029	-0.070	0.018
-383.975	-166.639	-0.514	-0.022
-382.960	-89.166	-0.406	0.122
-381.946	209.036	0.186	0.296
-380.931	52.620	0.240	-0.233
-379.917	800.000	0.050	-0.187
-378.902	-200.000	0.016	0.191
-377.888	-149.547	-0.229	-0.018
-376.873	14.491	-0.066	-0.052
-375.858	800.000	-0.055	-0.230
-374.844	-200.000	-0.029	0.505
-373.829	200.338	0.147	0.229
-372.815	800.000	-0.050	0.177
-371.800	30.339	-0.183	-0.159
-370.785	200.113	-0.029	0.045
-369.771	800.000	-0.130	-0.387
-368.756	-46.126	-0.328	0.164
-367.742	-91.465	-0.147	0.042
-366.727	-140.691	0.089	-0.009
-365.712	-117.044	-0.293	-0.054
-364.698	729.576	0.085	-0.231
-363.683	656.801	-0.059	0.155
-362.669	-74.805	-0.284	0.103
-361.654	-119.623	0.357	0.063
-360.639	420.098	-0.079	0.172
-359.625	-163.345	-0.247	0.012
-358.610	31.681	0.110	-0.096
-357.596	53.061	0.081	-0.079
-356.581	219.080	-0.074	0.119
-355.566	-120.666	-0.281	0.048
-354.552	94.827	-0.252	0.291
-353.537	-200.000	0.007	-0.136
-352.523	93.378	-0.131	-0.150
-351.508	-59.891	-0.154	0.067
-350.493	-161.246	-0.197	0.010
-349.479	800.000	-0.018	-0.066
-348.464	-102.683	-0.121	-0.029
-347.450	-200.000	-0.002	-0.311
-346.435	-200.000	0.011	-0.189
-345.420	800.000	-0.016	0.071
-344.406	-86.447	-0.117	-0.036
-343.391	-91.000	-0.091	-0.027
-342.377	209.501	0.008	0.013
-341.362	534.929	0.089	0.213
-340.348	-2.966	0.053	0.037
-339.333	-200.000	0.009	0.124
-338.318	-137.270	-0.273	-0.031
-337.304	155.979	-0.095	0.132
-336.289	-200.000	-0.029	0.170
-335.275	-45.680	-0.379	-0.190
-334.260	-47.583	-0.210	-0.103
-333.245	-29.157	0.291	0.169
-332.231	150.167	-0.045	0.061
-331.216	-200.000	-0.003	0.165
-330.202	-79.380	0.148	0.051
-329.187	-100.040	0.083	-0.021
-328.172	192.292	0.076	0.116
-327.158	252.953	-0.140	-0.242
-326.143	-10.275	-0.178	-0.120
-325.129	58.774	-0.037	-0.037
-324.114	347.730	-0.102	0.204
-323.099	-174.621	0.389	0.011
-322.085	1.044	-0.214	-0.155
-321.070	55.872	0.156	-0.153
-320.056	-200.000	-0.005	-0.068
-319.041	268.809	-0.168	-0.298
-318.026	-155.673	-0.294	0.019
-317.012	-88.983	0.287	0.086
-315.997	-2.499	0.292	0.207
-314.983	800.000	-0.132	0.483
-313.968	-200.000	-0.031	0.162
-312.953	800.000	0.036	-0.134
-311.939	-61.223	-0.215	0.092
-310.924	115.774	-0.094	0.117
-309.910	-200.000	-0.018	0.163
-308.895	-3.566	0.198	0.139
-307.880	97.453	-0.106	-0.123
-306.866	-200.000	-0.029	0.359
-305.851	-154.457	0.061	0.004
-304.837	-116.193	-0.485	0.091
-303.822	-200.000	-0.005	-0.085
-302.807	-11.215	-0.352	0.234
-301.793	-11.438	0.296	-0.197
-300.778	-159.556	0.030	-0.002
-299.764	143.094	-0.257	-0.346
-298.749	800.000	-0.024	0.094
-297.735	-96.866	0.359	-0.095
-296.720	-120.173	-0.071	-0.012
-295.705	681.752	0.018	-0.046
-294.691	-151.606	0.161	-0.012
-293.676	-59.165	0.135	-0.059
-292.662	-76.868	0.132	-0.047
-291.647	800.000	0.044	-0.159
-290.632	181.248	-0.133	-0.198
-289.618	800.000	-0.025	0.083
-288.603	388.454	-0.116	-0.242
-287.589	-200.000	-0.028	-0.154
-286.574	254.914	0.164	-0.284
-285.559	800.000	-0.107	0.348
-284.545	-80.122	0.157	-0.053
-283.530	24.960	-0.044	-0.037
-282.516	326.092	-0.138	0.266
-281.501	-200.000	-0.003	-0.022
-280.486	-46.574	0.118	0.059
-279.472	-114.656	-0.241	0.047
-278.457	38.572	-0.145	0.131
-277.443	24.029	-0.195	0.162
-276.428	800.000	-0.084	-0.264
-275.413	-49.966	-0.037	0.018
-274.399	-91.924	0.298	0.085
-273.384	-200.000	-0.002	0.224
-272.370	800.000	0.007	0.028
-271.355	-86.192	-0.034	-0.011
-270.340	26.745	0.105	-0.089
-269.326	-143.243	-0.076	-0.007
-268.311	-200.000	0.009	-0.110
-267.297	9.152	-0.299	0.228
-266.282	-58.876	0.210	0.092
-265.267	-16.744	0.309	-0.197
-264.253	212.714	-0.111	-0.177
-263.238	-87.239	0.280	-0.086
-262.224	73.753	0.250	-0.264
-261.209	800.000	0.072	-0.260
-260.195	800.000	-0.033	0.132
-259.180	-200.000	0.004	0.049
-258.165	25.497	0.070	0.059
-257.151	156.007	0.271	0.378
-256.136	-79.835	-0.192	0.065
-255.122	-73.018	0.221	-0.082
-254.107	-38.048	-0.047	0.025
-253.092	-25.617	-0.145	0.086
-252.078	125.962	-0.006	-0.008
-251.063	65.120	0.170	0.173
-250.049	225.335	0.203	0.332
-249.034	465.025	0.097	-0.219
-248.019	-85.503	-0.218	0.069
-247.005	11.330	-0.065	0.050
-245.990	-200.000	-0.001	0.092
-244.976	-159.201	-0.068	0.004
-243.961	-200.000	-0.033	0.213
-242.946	150.411	0.208	-0.285
-241.932	-151.670	0.164	-0.012
-240.917	-200.000	0.009	-0.069
-239.903	291.014	-0.221	-0.405
-238.888	637.239	-0.200	0.513
-237.873	-200.000	0.041	0.304
-236.859	-132.184	0.111	0.015
-235.844	32.235	0.193	-0.168
-234.830	-200.000	-0.026	0.180
-233.815	294.894	-0.068	0.126
-232.800	498.216	0.080	-0.186
-231.786	348.453	0.010	-0.020
-230.771	-1.759	-0.012	0.008
-229.757	-85.563	-0.158	-0.050
-228.742	119.742	-0.249	0.311
-227.727	-51.911	-0.257	0.121
-226.713	-119.627	-0.155	-0.027
-225.698	60.295	0.220	-0.219
-224.684	55.417	0.307	-0.300
-223.669	-200.000	-0.033	0.149
-222.655	800.000	-0.056	-0.214
-221.640	14.695	0.035	0.028
-220.625	124.562	-0.133	0.169
-219.611	-97.398	-0.230	-0.060
-218.596	321.631	0.012	-0.023
-217.582	-46.617	-0.064	0.032
-216.567	160.403	-0.143	0.201
-215.552	113.959	-0.064	-0.079
-214.538	203.894	0.189	0.295
-213.523	178.242	0.184	0.270
-212.509	-123.388	0.137	0.022
-211.494	800.000	-0.085	0.262
-210.479	800.000	-0.032	-0.095
-209.465	-71.998	0.106	0.040
-208.450	56.766	-0.249	-0.244
-207.436	800.000	0.048	-0.138
-206.421	108.325	0.064	-0.077
-205.406	18.592	0.153	0.123
-204.392	44.145	-0.063	-0.058
-203.377	147.143	0.167	0.227
-202.363	244.911	0.085	-0.143
-201.348	572.926	-0.052	-0.129
-200.333	-91.809	0.521	-0.149
-199.319	570.741	0.049	-0.121
-198.304	-200.000	-0.024	-0.135
-197.290	124.062	0.072	-0.092
-196.275	-80.790	-0.066	0.022
-195.260	-58.237	0.179	0.078
-194.246	46.427	-0.057	0.053
-193.231	-72.205	0.159	0.060
-192.217	-174.619	0.129	0.004
-191.202	42.907	0.232	-0.213
-190.187	347.082	0.091	0.181
-189.173	-21.724	0.126	0.077
-188.158	-3.862	0.114	-0.080
-187.144	-200.000	0.021	0.106
-186.129	781.960	0.129	0.357
-185.114	-200.000	-0.019	0.296
-184.100	800.000	0.049	0.167
-183.085	-108.794	-0.212	-0.046
-182.071	800.000	-0.155	-0.493
-181.056	-35.093	-0.269	-0.148
-180.042	-36.981	0.113	0.061
-179.027	-200.000	0.019	-0.188
-178.012	-200.000	0.058	-0.274
-176.998	-167.006	0.329	-0.014
-175.983	227.324	0.105	0.171
-174.969	-10.713	0.120	-0.080
-173.954	232.281	-0.114	0.189
-172.939	572.909	-0.097	-0.238
-171.925	335.484	-0.230	-0.449
-170.910	70.997	0.179	-0.187
-169.896	-200.000	0.022	0.193
-168.881	-200.000	-0.024	-0.186
-167.866	386.156	-0.239	0.496
-166.852	352.495	0.063	0.126
-165.837	-78.674	-0.118	-0.041
-164.823	187.506	0.215	-0.323
-163.808	472.929	-0.105	-0.237
-162.793	-102.384	0.266	-0.064
-161.779	-200.000	0.016	-0.177
-160.764	-200.000	-0.012	-0.206
-159.750	7.649	0.224	-0.168
-158.735	-182.177	-0.277	-0.005
-157.720	-2.768	-0.059	0.041
-156.706	800.000	-0.090	-0.352
-155.691	-156.489	-0.267	-0.017
-154.677	-200.000	0.007	-0.365
-153.662	516.124	-0.116	-0.273
-152.647	-200.000	0.026	0.196
-151.633	-104.811	0.303	0.070
-150.618	-9.881	-0.176	-0.118
-149.604	19.252	0.239	-0.193
-148.589	116.076	0.100	-0.123
-147.574	339.633	-0.122	0.238
-146.560	-55.974	0.105	-0.047
-145.545	383.144	0.144	0.298
-144.531	-187.243	0.274	-0.004
-143.516	23.948	-0.087	-0.072
-142.502	87.796	-0.240	-0.268
-141.487	500.755	0.085	-0.198
-140.472	-31.793	0.100	0.056
-139.458	176.485	0.129	0.189
-138.443	800.000	-0.089	0.248
-137.429	-200.000	-0.011	-0.052
-136.414	-29.804	0.266	0.153
-135.399	-117.587	-0.105	0.019
-134.385	-200.000	0.013	-0.120
-133.370	800.000	-0.056	-0.196
-132.356	-14.728	-0.177	-0.114
-131.341	-57.308	-0.095	-0.042
-130.326	206.003	0.152	0.237
-129.312	-64.379	-0.310	0.127
-128.297	800.000	0.038	0.114
-127.283	-9.159	0.255	0.171
-126.268	-200.000	0.005	-0.169
-125.253	528.167	-0.059	0.139
-124.239	329.082	0.029	-0.057
-123.224	800.000	0.019	0.081
-122.210	-200.000	0.067	-0.358
