DTS Sentinel unit serial number:	SN413079Multiplexer serial number:	ORYXHardware model number:	OX4-SRSoftware version number:	ORYX F/W v4.00 Oryx Data Collector v3.7.2.0data status	okinstallation	princeton_trtdifferential loss correction	single-endedforward channel	channel 4reverse channel	N/Adate	2019/09/12time	14:03:11forward acquisition time	60.00reverse acquisition time	0.00gamma	496.2192k internal	0.2291k external	0.2291temperature offset calibration	1.0079default loss term (dB/km)	0.3790temperature slope calibration	1.0000multiplexer offset coefficient	1.0000multiplexer slope coefficient	1.0000fibre end	0.00T internal ref (°C)	40.52T ext. ref 1 (°C)	2.18T ext. ref 2 (°C)	34.68length (m)	temperature (°C)	Stokes	anti-Stokes-747.200	800.000	0.048	0.198
-746.185	-9.611	0.417	0.285
-745.171	-200.000	-0.034	0.204
-744.156	-46.660	-0.192	0.097
-743.142	-1.345	0.022	0.016
-742.127	-40.849	-0.414	0.220
-741.112	-61.098	0.320	0.138
-740.098	-150.609	0.203	-0.016
-739.083	-200.000	-0.034	-0.175
-738.069	800.000	-0.046	0.206
-737.054	-25.916	0.057	-0.035
-736.039	800.000	0.023	0.091
-735.025	-100.498	0.208	0.053
-734.010	25.006	-0.161	-0.137
-732.996	2.791	-0.316	-0.235
-731.981	-200.000	0.032	0.208
-730.966	151.077	-0.202	0.281
-729.952	-92.249	-0.321	0.093
-728.937	79.572	-0.150	0.165
-727.923	800.000	-0.098	0.281
-726.908	82.456	-0.153	0.170
-725.894	-102.352	-0.437	0.107
-724.879	-29.366	0.150	0.088
-723.864	-135.476	-0.185	-0.023
-722.850	592.300	-0.156	-0.395
-721.835	-200.000	-0.091	-0.427
-720.821	50.461	-0.146	-0.142
-719.806	800.000	-0.024	-0.106
-718.791	-50.196	-0.007	0.004
-717.777	529.481	-0.046	0.111
-716.762	78.392	-0.318	0.347
-715.748	-200.000	0.035	0.168
-714.733	14.752	-0.094	0.075
-713.718	8.282	0.212	0.163
-712.704	340.826	-0.130	-0.260
-711.689	-159.523	0.196	-0.011
-710.675	137.877	-0.026	0.035
-709.660	-113.714	0.144	-0.029
-708.645	-96.205	-0.110	0.030
-707.631	-112.097	-0.312	-0.064
-706.616	-200.000	-0.016	0.344
-705.602	91.327	0.205	0.235
-704.587	78.173	0.166	0.181
-703.572	-200.000	-0.006	-0.073
-702.558	-104.140	0.146	-0.035
-701.543	800.000	0.072	-0.308
-700.529	-39.906	0.164	-0.088
-699.514	26.447	0.180	0.154
-698.499	-200.000	0.012	-0.120
-697.485	-123.960	0.042	-0.007
-696.470	714.110	-0.095	-0.258
-695.456	-200.000	-0.010	-0.147
-694.441	345.722	0.072	0.146
-693.426	-92.325	-0.154	0.044
-692.412	800.000	-0.070	0.243
-691.397	-29.473	-0.156	0.091
-690.383	-136.195	0.263	-0.031
-689.368	-110.287	-0.147	-0.031
-688.354	54.242	-0.136	-0.134
-687.339	-200.000	0.061	-0.335
-686.324	-200.000	-0.005	-0.225
-685.310	351.212	0.014	-0.029
-684.295	800.000	0.060	-0.241
-683.281	762.706	-0.111	-0.309
-682.266	390.457	0.104	-0.220
-681.251	800.000	0.096	-0.423
-680.237	-200.000	0.023	-0.274
-679.222	-91.097	-0.195	-0.057
-678.208	-200.000	-0.017	-0.101
-677.193	108.838	0.149	0.183
-676.178	-142.964	-0.643	0.064
-675.164	800.000	0.089	-0.317
-674.149	-106.535	-0.210	-0.048
-673.135	292.269	0.146	0.272
-672.120	-200.000	0.005	0.182
-671.105	5.646	-0.348	-0.263
-670.091	-200.000	-0.031	-0.183
-669.076	-87.778	-0.083	-0.026
-668.062	152.615	-0.167	-0.234
-667.047	-139.197	-0.330	-0.036
-666.032	-50.040	0.222	0.107
-665.018	153.036	0.045	0.063
-664.003	746.245	0.105	-0.290
-662.989	-183.883	-0.157	-0.003
-661.974	135.312	-0.211	-0.281
-660.959	-200.000	0.044	-0.273
-659.945	115.183	-0.288	0.358
-658.930	800.000	0.058	0.228
-657.916	63.536	-0.052	0.054
-656.901	70.211	-0.109	0.115
-655.886	-47.508	0.208	-0.103
-654.872	176.135	-0.034	0.051
-653.857	126.445	0.033	-0.042
-652.843	81.000	-0.067	0.074
-651.828	102.132	0.063	0.075
-650.814	171.955	0.290	0.426
-649.799	-99.221	-0.303	0.078
-648.784	25.579	0.013	0.011
-647.770	-61.175	-0.104	0.045
-646.755	-126.944	0.487	0.073
-645.741	-109.512	-0.153	0.033
-644.726	-92.144	-0.057	-0.016
-643.711	-200.000	0.004	0.072
-642.697	388.501	0.059	0.126
-641.682	211.431	-0.087	0.140
-640.668	-52.119	0.141	-0.067
-639.653	-30.538	-0.099	0.057
-638.638	373.358	-0.090	0.186
-637.624	413.428	0.261	0.565
-636.609	16.956	0.045	-0.037
-635.595	-124.939	-0.119	-0.019
-634.580	-200.000	0.025	0.000
-633.565	-200.000	-0.010	0.426
-632.551	-8.069	0.327	0.225
-631.536	271.898	0.225	-0.405
-630.522	115.405	0.125	-0.156
-629.507	-200.000	0.076	0.382
-628.492	-114.956	0.341	0.066
-627.478	536.293	-0.188	0.455
-626.463	-20.059	-0.103	-0.065
-625.449	-25.692	-0.169	0.101
-624.434	-47.084	-0.378	0.188
-623.419	314.649	0.103	-0.197
-622.405	-118.921	-0.266	0.048
-621.390	337.711	-0.044	-0.087
-620.376	-0.497	-0.213	0.154
-619.361	341.416	-0.207	0.411
-618.346	353.104	-0.271	0.548
-617.332	24.138	0.228	-0.191
-616.317	-45.569	0.171	-0.086
-615.303	663.431	-0.057	0.151
-614.288	95.233	-0.151	-0.175
-613.273	81.598	-0.093	-0.102
-612.259	65.553	-0.234	0.242
-611.244	38.676	-0.149	-0.135
-610.230	304.491	0.072	-0.136
-609.215	-119.872	0.325	-0.057
-608.201	265.014	0.144	-0.255
-607.186	-196.174	-0.150	-0.001
-606.171	-39.426	0.256	-0.136
-605.157	-200.000	0.000	-0.188
-604.142	3.943	-0.114	0.085
-603.128	101.002	-0.393	-0.466
-602.113	-127.464	-0.335	-0.050
-601.098	96.951	-0.094	0.110
-600.084	-33.367	0.099	-0.056
-599.069	-67.855	-0.237	-0.094
-598.055	26.577	0.355	0.303
-597.040	-73.004	-0.220	0.082
-596.025	-65.804	0.107	-0.044
-595.011	72.532	-0.149	-0.158
-593.996	369.109	0.125	0.257
-592.982	249.807	-0.076	-0.132
-591.967	800.000	0.096	0.288
-590.952	-29.197	0.264	-0.154
-589.938	125.851	-0.243	-0.312
-588.923	-70.200	0.421	0.163
-587.909	-16.555	0.314	-0.202
-586.894	18.516	0.185	0.150
-585.879	800.000	-0.131	0.386
-584.865	175.953	0.218	-0.322
-583.850	422.021	-0.064	-0.140
-582.836	-1.688	-0.447	0.320
-581.821	145.035	0.251	0.341
-580.806	26.612	0.101	0.086
-579.792	-200.000	0.018	0.146
-578.777	281.225	0.041	-0.075
-577.763	-200.000	0.011	-0.124
-576.748	-5.281	0.312	-0.218
-575.733	2.324	0.195	0.144
-574.719	-200.000	-0.001	-0.100
-573.704	717.786	0.058	0.156
-572.690	-68.300	0.158	0.063
-571.675	-57.189	0.328	0.147
-570.661	73.329	-0.188	0.200
-569.646	76.513	0.081	0.087
-568.631	394.893	0.129	-0.273
-567.617	-50.183	-0.157	0.075
-566.602	205.308	0.164	-0.259
-565.588	800.000	-0.032	0.095
-564.573	-188.691	0.425	0.005
-563.558	-200.000	-0.045	-0.227
-562.544	-119.792	0.101	0.018
-561.529	-200.000	-0.015	-0.138
-560.515	187.840	0.187	0.283
-559.500	100.980	0.098	0.116
-558.485	800.000	0.114	-0.386
-557.471	557.208	-0.064	-0.156
-556.456	-200.000	0.027	-0.125
-555.442	27.038	-0.201	0.171
-554.427	-62.058	-0.132	-0.056
-553.412	-103.123	0.229	0.055
-552.398	154.577	-0.011	0.015
-551.383	-128.262	-0.153	0.022
-550.369	-119.909	0.123	-0.022
-549.354	800.000	-0.076	-0.262
-548.339	159.101	0.049	-0.070
-547.325	96.704	0.132	-0.154
-546.310	224.482	0.226	0.371
-545.296	-59.212	-0.091	-0.040
-544.281	109.566	0.157	-0.191
-543.266	-73.187	0.104	-0.039
-542.252	-200.000	0.017	-0.104
-541.237	128.878	0.187	-0.242
-540.223	-93.740	0.071	0.020
-539.208	-200.000	-0.018	-0.183
-538.193	-107.923	-0.237	0.052
-537.179	14.530	0.130	-0.103
-536.164	-200.000	0.032	-0.216
-535.150	-70.243	-0.205	0.079
-534.135	-49.851	-0.352	-0.170
-533.121	538.369	-0.058	0.139
-532.106	70.493	-0.091	-0.096
-531.091	-126.949	-0.174	-0.026
-530.077	-200.000	-0.009	-0.121
-529.062	7.422	0.036	-0.027
-528.048	2.358	0.086	-0.063
-527.033	110.685	-0.106	-0.129
-526.018	-110.679	-0.132	-0.028
-525.004	-165.078	-0.224	-0.010
-523.989	-200.000	0.055	-0.487
-522.975	-130.615	0.384	0.053
-521.960	609.832	0.030	-0.076
-520.945	27.767	0.191	0.163
-519.931	71.836	-0.085	-0.090
-518.916	24.560	0.020	0.017
-517.902	123.899	-0.111	-0.141
-516.887	222.420	-0.150	-0.245
-515.872	24.644	-0.247	-0.208
-514.858	96.633	0.219	-0.255
-513.843	-200.000	-0.009	0.363
-512.829	54.542	0.043	0.042
-511.814	-24.235	0.169	-0.102
-510.799	28.937	-0.175	-0.150
-509.785	-130.443	0.255	0.035
-508.770	-178.919	-0.283	0.006
-507.756	-190.882	-0.308	-0.003
-506.741	261.673	-0.094	-0.166
-505.726	-73.744	0.327	-0.121
-504.712	-200.000	0.108	0.581
-503.697	71.373	-0.201	0.211
-502.683	-87.800	0.157	0.048
-501.668	-200.000	0.001	-0.230
-500.653	197.066	0.198	-0.307
-499.639	99.316	0.062	-0.073
-498.624	-200.000	0.016	-0.097
-497.610	-126.989	0.435	-0.065
-496.595	-106.491	-0.130	-0.029
-495.581	-82.752	0.198	-0.065
-494.566	-93.567	0.352	0.099
-493.551	-200.000	-0.010	-0.177
-492.537	125.332	-0.155	0.198
-491.522	-200.000	-0.004	0.058
-490.508	800.000	-0.017	-0.051
-489.493	98.787	0.039	0.046
-488.478	-28.750	-0.200	-0.117
-487.464	-200.000	-0.104	-0.470
-486.449	-43.677	-0.485	-0.248
-485.435	-200.000	-0.028	-0.318
-484.420	-200.000	0.005	-0.108
-483.405	297.296	0.025	0.047
-482.391	-200.000	0.044	-0.275
-481.376	226.011	-0.134	0.221
-480.362	-34.466	-0.326	-0.181
-479.347	-200.000	-0.040	-0.190
-478.332	-86.203	-0.499	-0.156
-477.318	-129.446	0.418	-0.059
-476.303	48.081	-0.157	-0.149
-475.289	61.789	-0.207	-0.209
-474.274	-47.623	0.360	0.177
-473.259	800.000	0.051	0.206
-472.245	353.037	0.061	-0.122
-471.230	-36.286	0.215	0.118
-470.216	-36.047	-0.057	-0.031
-469.201	-118.163	0.020	-0.004
-468.186	277.159	-0.105	0.189
-467.172	800.000	0.078	-0.257
-466.157	41.306	0.184	0.169
-465.143	168.238	0.176	0.254
-464.128	465.008	0.004	0.008
-463.113	-99.669	-0.222	-0.056
-462.099	15.627	-0.289	-0.230
-461.084	-200.000	0.019	-0.273
-460.070	-38.498	-0.145	-0.078
-459.055	-166.056	0.068	0.003
-458.040	-187.954	-0.077	0.001
-457.026	800.000	0.018	-0.073
-456.011	-112.688	0.150	-0.030
-454.997	52.659	0.127	0.123
-453.982	-29.384	0.210	-0.122
-452.968	-8.042	0.081	-0.055
-451.953	-42.077	-0.228	-0.118
-450.938	-67.610	0.104	0.041
-449.924	427.102	0.091	-0.199
-448.909	223.089	-0.149	0.243
-447.895	-200.000	-0.040	-0.264
-446.880	-3.618	-0.291	0.205
-445.865	-80.994	-0.237	0.079
-444.851	800.000	0.021	-0.093
-443.836	-145.336	0.336	-0.031
-442.822	126.107	0.180	0.231
-441.807	-9.647	0.236	-0.159
-440.792	800.000	-0.027	0.108
-439.778	-33.314	-0.265	0.148
-438.763	-65.363	-0.095	0.039
-437.749	-200.000	0.017	-0.196
-436.734	787.618	0.086	0.238
-435.719	87.637	0.069	-0.077
-434.705	-200.000	-0.010	-0.067
-433.690	608.373	-0.097	0.246
-432.676	-104.954	-0.223	-0.052
-431.661	322.083	0.040	-0.077
-430.646	245.677	0.103	0.176
-429.632	-200.000	-0.072	0.449
-428.617	-94.106	0.161	0.045
-427.603	30.451	0.066	0.057
-426.588	-200.000	0.006	-0.046
-425.573	-130.223	-0.091	-0.012
-424.559	-71.594	0.167	-0.063
-423.544	330.253	0.150	0.291
-422.530	800.000	0.108	-0.368
-421.515	-56.619	-0.076	-0.034
-420.500	-200.000	-0.009	-0.355
-419.486	-200.000	0.075	0.455
-418.471	-31.127	0.085	-0.049
-417.457	295.395	-0.181	-0.335
-416.442	-42.987	0.153	0.079
-415.428	-10.923	0.077	-0.051
-414.413	189.806	-0.221	-0.335
-413.398	-0.423	-0.110	-0.079
-412.384	-50.446	0.105	-0.050
-411.369	177.878	0.219	0.324
-410.355	165.352	0.102	-0.145
-409.340	-124.562	-0.101	0.016
-408.325	-83.847	0.115	-0.037
-407.311	6.213	-0.200	-0.150
-406.296	-45.207	0.309	0.155
-405.282	-143.571	0.170	-0.016
-404.267	463.045	-0.034	0.077
-403.252	224.524	-0.080	0.131
-402.238	-55.283	-0.186	0.085
-401.223	645.142	0.061	0.158
-400.209	-93.224	0.392	0.110
-399.194	-129.419	-0.202	-0.028
-398.179	-37.907	-0.336	-0.181
-397.165	-141.475	0.287	0.029
-396.150	-200.000	0.020	-0.331
-395.136	17.515	0.193	0.155
-394.121	-50.850	0.255	-0.121
-393.106	771.796	0.056	-0.154
-392.092	745.246	-0.043	0.117
-391.077	800.000	-0.059	0.188
-390.063	-8.262	-0.026	-0.018
-389.048	-79.339	-0.122	0.042
-388.033	-200.000	0.013	-0.069
-387.019	-71.711	-0.272	0.103
-386.004	-69.307	0.028	0.011
-384.990	-144.368	-0.153	0.014
-383.975	216.094	-0.051	-0.081
-382.960	-38.963	0.099	-0.053
-381.946	145.669	-0.205	-0.278
-380.931	461.175	-0.021	0.048
-379.917	-169.343	0.263	0.010
-378.902	-200.000	0.028	-0.247
-377.888	773.119	0.124	0.341
-376.873	-200.000	-0.024	0.131
-375.858	-48.070	-0.140	-0.068
-374.844	-122.164	0.180	-0.030
-373.829	-200.000	0.016	0.201
-372.815	-114.657	-0.183	0.035
-371.800	-20.790	-0.138	0.085
-370.785	-24.978	-0.338	-0.202
-369.771	-200.000	0.081	0.427
-368.756	519.537	0.046	0.108
-367.742	13.370	0.219	0.172
-366.727	-8.407	0.280	0.190
-365.712	800.000	0.079	-0.266
-364.698	800.000	-0.064	-0.220
-363.683	-34.326	0.243	0.135
-362.669	41.799	0.285	0.261
-361.654	800.000	-0.027	0.076
-360.639	-200.000	0.003	-0.149
-359.625	-98.351	0.175	0.045
-358.610	-148.684	0.189	0.016
-357.596	-83.377	0.302	0.098
-356.581	-51.462	-0.335	-0.158
-355.566	-56.816	-0.338	-0.151
-354.552	-10.748	0.105	-0.070
-353.537	-200.000	-0.013	-0.237
-352.523	800.000	-0.025	-0.078
-351.508	4.301	-0.177	-0.131
-350.493	219.945	-0.008	0.013
-349.479	-50.293	0.231	-0.110
-348.464	20.366	-0.132	0.108
-347.450	270.106	-0.157	0.278
-346.435	3.701	-0.231	-0.170
-345.420	168.983	-0.119	0.171
-344.406	8.863	-0.061	0.047
-343.391	83.880	-0.068	-0.075
-342.377	-58.478	-0.213	-0.093
-341.362	38.938	0.201	-0.181
-340.348	800.000	0.010	0.029
-339.333	-86.490	-0.268	-0.083
-338.318	-75.575	0.487	-0.174
-337.304	-140.903	0.122	-0.013
-336.289	390.620	-0.070	0.146
-335.275	-200.000	-0.006	-0.216
-334.260	279.488	-0.265	-0.476
-333.245	-199.551	-0.223	0.001
-332.231	-200.000	0.026	0.277
-331.216	646.339	-0.017	-0.044
-330.202	200.812	0.099	-0.153
-329.187	343.243	-0.104	-0.205
-328.172	-200.000	-0.035	-0.157
-327.158	109.391	0.118	-0.142
-326.143	69.681	0.197	0.204
-325.129	-87.855	-0.023	-0.007
-324.114	-111.045	-0.098	-0.020
-323.099	-159.120	-0.260	0.015
-322.085	310.885	0.108	-0.203
-321.070	-200.000	-0.020	0.226
-320.056	-200.000	-0.003	0.273
-319.041	-200.000	-0.028	0.299
-318.026	212.618	0.114	0.182
-317.012	-69.008	-0.069	0.027
-315.997	314.474	0.090	-0.171
-314.983	-200.000	-0.025	0.149
-313.968	800.000	0.190	0.564
-312.953	17.757	-0.088	0.071
-311.939	-62.815	0.209	-0.087
-310.924	-32.139	-0.090	0.051
-309.910	-70.446	-0.195	-0.074
-308.895	33.461	-0.077	-0.067
-307.880	-150.501	-0.178	0.014
-306.866	-54.385	0.186	0.085
-305.851	102.492	-0.204	-0.240
-304.837	209.870	-0.040	0.064
-303.822	-194.537	-0.496	0.004
-302.807	-6.221	0.144	0.099
-301.793	206.140	0.045	0.071
-300.778	-200.000	0.009	-0.074
-299.764	540.275	0.044	0.106
-298.749	-82.837	-0.306	0.099
-297.735	-200.000	-0.021	0.134
-296.720	800.000	-0.089	0.324
-295.705	-200.000	0.015	-0.304
-294.691	800.000	0.064	-0.269
-293.676	562.200	0.058	0.142
-292.662	220.299	0.132	0.212
-291.647	78.545	-0.139	0.150
-290.632	-200.000	0.003	-0.246
-289.618	167.591	0.129	-0.184
-288.603	132.237	0.122	0.158
-287.589	-92.691	0.054	0.015
-286.574	-109.960	0.279	0.059
-285.559	-200.000	-0.023	-0.230
-284.545	613.881	-0.022	0.054
-283.530	-121.105	0.160	-0.027
-282.516	-93.590	0.244	-0.068
-281.501	-200.000	0.008	0.044
-280.486	87.269	0.117	-0.130
-279.472	-135.256	-0.277	-0.033
-278.457	347.650	-0.029	0.057
-277.443	-92.973	-0.598	-0.168
-276.428	-73.291	0.151	0.056
-275.413	-200.000	0.017	0.100
-274.399	-200.000	-0.020	0.112
-273.384	97.459	0.218	0.252
-272.370	-22.005	0.189	0.116
-271.355	25.482	-0.050	0.042
-270.340	-37.870	0.278	-0.149
-269.326	209.930	0.192	-0.303
-268.311	-186.271	0.165	-0.002
-267.297	-117.364	0.333	-0.061
-266.282	-200.000	-0.037	-0.224
-265.267	-11.976	0.211	0.139
-264.253	464.454	-0.075	-0.169
-263.238	84.827	-0.391	0.431
-262.224	205.833	-0.148	0.231
-261.209	255.578	-0.063	0.109
-260.195	-110.106	0.028	0.006
-259.180	-0.363	0.256	-0.183
-258.165	68.479	-0.093	-0.096
-257.151	-177.771	0.271	-0.007
-256.136	351.162	-0.055	-0.109
-255.122	-200.000	-0.027	-0.277
-254.107	212.723	0.088	-0.139
-253.092	-134.220	0.119	-0.015
-252.078	195.387	-0.264	0.402
-251.063	26.497	-0.224	0.188
-250.049	292.228	0.119	-0.218
-249.034	-54.721	0.081	0.037
-248.019	-54.950	-0.395	0.179
-247.005	-176.262	-0.137	-0.004
-245.990	261.507	-0.125	-0.217
-244.976	602.766	0.048	0.120
-243.961	-101.531	0.131	0.032
-242.946	800.000	0.074	0.293
-241.932	800.000	0.059	-0.174
-240.917	717.648	0.025	0.066
-239.903	-200.000	-0.063	0.278
-238.888	-29.689	0.267	0.153
-237.873	139.405	-0.336	-0.444
-236.859	800.000	0.018	-0.054
-235.844	-104.309	-0.310	0.072
-234.830	-177.645	0.251	-0.006
-233.815	1.289	0.123	-0.089
-232.800	800.000	0.109	-0.306
-231.786	239.214	-0.099	0.165
-230.771	25.840	-0.244	0.204
-229.757	-200.000	-0.055	-0.302
-228.742	-200.000	0.013	-0.099
-227.727	-58.114	-0.269	0.118
-226.713	-148.890	0.291	-0.024
-225.698	-65.384	0.162	0.066
-224.684	-66.748	-0.083	-0.033
-223.669	128.094	0.139	-0.178
-222.655	339.328	0.046	-0.090
-221.640	55.402	-0.272	0.265
-220.625	-91.446	0.092	0.026
-219.611	-161.317	-0.300	-0.016
-218.596	-166.131	-0.318	-0.014
-217.582	-83.007	-0.073	0.024
-216.567	-200.000	-0.008	-0.183
-215.552	592.811	-0.073	0.182
-214.538	0.245	-0.335	0.240
-213.523	-120.507	-0.101	-0.017
-212.509	20.797	-0.138	0.112
-211.494	-94.081	0.388	0.107
-210.479	-200.000	0.003	-0.046
-209.465	-101.011	0.225	-0.055
-208.450	16.331	0.202	-0.160
-207.436	-200.000	0.024	-0.128
-206.421	-76.961	-0.280	-0.098
-205.406	291.811	0.211	0.384
-204.392	-200.000	-0.003	0.050
-203.377	173.413	-0.062	-0.090
-202.363	492.270	0.083	0.190
-201.348	800.000	0.035	-0.120
-200.333	523.755	0.095	0.223
-199.319	6.179	-0.126	0.093
-198.304	800.000	0.059	-0.168
-197.290	-66.172	-0.094	-0.037
-196.275	-41.991	-0.087	0.044
-195.260	375.028	-0.057	0.116
-194.246	-102.894	0.185	0.044
-193.231	-175.005	-0.301	0.008
-192.217	-100.504	-0.125	0.031
-191.202	-200.000	-0.010	-0.122
-190.187	-130.494	-0.268	-0.036
-189.173	-200.000	0.011	0.178
-188.158	108.010	-0.047	0.056
-187.144	-104.732	0.014	-0.003
-186.129	189.980	0.027	0.041
-185.114	-9.883	-0.260	0.173
-184.100	-99.989	0.290	0.072
-183.085	216.736	0.118	0.189
-182.071	-200.000	0.140	0.001
-181.056	151.482	-0.114	0.156
-180.042	-156.506	-0.203	-0.013
-179.027	635.811	0.068	-0.174
-178.012	-150.436	0.397	-0.031
-176.998	179.261	0.177	-0.259
-175.983	-166.523	0.341	-0.014
-174.969	800.000	-0.021	0.077
-173.954	800.000	0.082	-0.246
-172.939	-200.000	-0.128	0.623
-171.925	55.853	-0.219	-0.213
-170.910	-174.558	-0.378	0.011
-169.896	-47.432	-0.361	-0.176
-168.881	-33.961	-0.128	0.071
-167.866	-94.992	0.230	0.062
-166.852	-185.480	-0.157	-0.002
-165.837	215.206	0.161	0.256
-164.823	472.289	-0.027	0.061
-163.808	-44.078	0.200	-0.100
-162.793	174.215	-0.132	0.191
-161.779	321.238	-0.120	0.228
-160.764	-79.172	-0.157	-0.053
-159.750	-200.000	-0.003	0.215
-158.735	-2.846	-0.170	-0.119
-157.720	800.000	-0.070	-0.233
-156.706	-200.000	0.054	0.414
-155.691	-188.479	-0.472	0.006
-154.677	-200.000	-0.030	0.423
-153.662	800.000	0.093	-0.367
-152.647	51.593	0.152	0.145
-151.633	800.000	-0.079	-0.285
-150.618	800.000	-0.034	0.121
-149.604	-147.432	0.280	0.024
-148.589	-200.000	-0.039	0.208
-147.574	800.000	0.057	-0.195
-146.560	-64.265	-0.254	-0.104
-145.545	-200.000	-0.040	0.195
-144.531	23.419	-0.115	-0.094
-143.516	-140.475	0.207	-0.022
-142.502	-200.000	-0.073	0.368
-141.487	-200.000	0.005	0.051
-140.472	-81.517	-0.042	0.014
-139.458	15.920	0.434	-0.342
-138.443	16.734	0.178	0.141
-137.429	-93.446	0.131	0.036
-136.414	-178.814	0.053	-0.001
-135.399	221.691	0.129	0.207
-134.385	70.904	-0.207	-0.214
-133.370	26.213	0.171	-0.143
-132.356	269.837	0.186	0.327
-131.341	-113.110	0.153	0.030
-130.326	-130.367	-0.035	-0.005
-129.312	-174.137	0.332	-0.010
-128.297	167.462	-0.236	0.335
-127.283	206.262	0.095	0.147
-126.268	800.000	0.004	-0.011
-125.253	-19.528	-0.069	-0.043
-124.239	-77.632	-0.140	-0.049
-123.224	122.033	-0.124	0.155
-122.210	-68.052	-0.133	0.052
-121.195	70.298	-0.138	-0.142
