DTS Sentinel unit serial number:	SN413079Multiplexer serial number:	ORYXHardware model number:	OX4-SRSoftware version number:	ORYX F/W v4.00 Oryx Data Collector v3.7.2.0data status	okinstallation	princeton_trtdifferential loss correction	single-endedforward channel	channel 4reverse channel	N/Adate	2019/09/17time	04:49:35forward acquisition time	60.00reverse acquisition time	0.00gamma	496.2192k internal	0.2312k external	0.2312temperature offset calibration	0.9979default loss term (dB/km)	0.3790temperature slope calibration	1.0000multiplexer offset coefficient	1.0000multiplexer slope coefficient	1.0000fibre end	0.00T internal ref (°C)	29.56T ext. ref 1 (°C)	0.13T ext. ref 2 (°C)	24.02length (m)	temperature (°C)	Stokes	anti-Stokes-747.200	-87.151	-0.308	0.095
-746.185	800.000	-0.082	0.248
-745.171	-200.000	0.069	-0.372
-744.156	259.954	-0.188	-0.330
-743.142	800.000	0.129	-0.402
-742.127	-200.000	0.001	0.307
-741.112	-200.000	0.028	-0.148
-740.098	-77.754	-0.244	0.086
-739.083	40.646	0.199	-0.182
-738.069	-139.684	0.459	0.050
-737.054	800.000	-0.197	-0.590
-736.039	-200.000	0.005	0.127
-735.025	-103.458	0.064	-0.015
-734.010	-117.706	-0.170	0.031
-732.996	800.000	-0.040	-0.156
-731.981	-56.523	0.204	-0.092
-730.966	194.033	-0.210	-0.322
-729.952	-14.981	-0.152	-0.099
-728.937	-6.778	-0.065	-0.045
-727.923	3.991	-0.393	-0.292
-726.908	-75.853	-0.124	0.044
-725.894	699.432	-0.067	-0.179
-724.879	105.129	-0.113	0.135
-723.864	12.422	-0.101	-0.079
-722.850	-200.000	-0.001	-0.148
-721.835	-27.176	-0.201	-0.119
-720.821	102.465	-0.084	0.100
-719.806	-59.045	-0.184	-0.080
-718.791	-177.365	0.435	-0.011
-717.777	-200.000	-0.014	-0.248
-716.762	-200.000	-0.001	-0.368
-715.748	129.986	0.131	-0.169
-714.733	-200.000	0.006	0.243
-713.718	56.992	0.051	0.051
-712.704	-66.322	-0.176	-0.071
-711.689	103.024	0.207	-0.246
-710.675	-83.841	-0.364	-0.117
-709.660	-16.192	-0.125	-0.080
-708.645	141.542	0.031	0.042
-707.631	165.408	0.238	-0.341
-706.616	221.876	-0.125	0.203
-705.602	-58.458	-0.330	-0.145
-704.587	140.793	0.168	-0.225
-703.572	97.383	0.101	-0.118
-702.558	-200.000	-0.033	-0.267
-701.543	-200.000	-0.010	-0.252
-700.529	24.116	-0.058	-0.048
-699.514	-54.761	-0.211	-0.097
-698.499	-50.670	-0.149	-0.071
-697.485	-87.909	0.247	-0.075
-696.470	800.000	-0.122	0.384
-695.456	13.463	-0.086	0.067
-694.441	2.436	0.142	0.104
-693.426	83.523	0.211	0.233
-692.412	95.210	0.231	0.266
-691.397	-112.877	0.290	-0.058
-690.383	362.142	-0.086	-0.176
-689.368	-95.671	-0.110	-0.030
-688.354	-95.597	0.107	-0.029
-687.339	-200.000	-0.012	-0.080
-686.324	36.522	-0.293	0.262
-685.310	-200.000	-0.068	-0.366
-684.295	-178.017	-0.232	0.006
-683.281	-40.843	-0.180	-0.094
-682.266	-200.000	0.006	0.035
-681.251	328.372	-0.070	0.137
-680.237	88.629	-0.117	0.131
-679.222	732.899	0.046	-0.123
-678.208	664.087	0.116	0.304
-677.193	-131.244	-0.271	-0.036
-676.178	309.631	0.078	0.148
-675.164	-200.000	0.025	0.144
-674.149	-18.421	0.105	0.066
-673.135	-82.093	-0.127	-0.042
-672.120	-200.000	0.011	0.092
-671.105	-200.000	0.028	0.233
-670.091	-126.232	0.114	-0.017
-669.076	-0.478	0.387	0.278
-668.062	473.661	0.088	-0.200
-667.047	95.443	-0.120	0.138
-666.032	-171.370	0.380	0.013
-665.018	-200.000	-0.035	0.201
-664.003	-200.000	0.002	-0.051
-662.989	67.055	0.143	-0.148
-661.974	9.310	0.127	-0.097
-660.959	506.858	0.030	-0.070
-659.945	-200.000	-0.013	-0.166
-658.930	-200.000	0.030	-0.226
-657.916	-82.194	-0.143	-0.047
-656.901	117.105	-0.131	-0.163
-655.886	-200.000	0.006	-0.180
-654.872	-82.765	-0.148	-0.048
-653.857	-68.449	-0.070	-0.027
-652.843	94.973	0.150	-0.173
-651.828	-26.609	0.365	0.216
-650.814	800.000	-0.039	-0.160
-649.799	-13.753	0.090	-0.059
-648.784	63.556	-0.022	0.023
-647.770	-74.247	-0.240	-0.088
-646.755	119.498	0.258	0.323
-645.741	11.508	-0.240	-0.186
-644.726	210.821	0.169	0.269
-643.711	16.412	0.149	-0.119
-642.697	800.000	0.043	-0.179
-641.682	-46.668	0.173	-0.086
-640.668	514.495	0.118	-0.279
-639.653	193.837	-0.129	0.197
-638.638	192.849	-0.065	-0.099
-637.624	91.706	-0.113	0.128
-636.609	-170.027	0.144	-0.005
-635.595	523.552	0.083	-0.198
-634.580	-90.227	0.309	0.091
-633.565	116.348	0.095	-0.118
-632.551	-105.121	0.217	-0.050
-631.536	-200.000	0.014	-0.080
-630.522	-98.154	-0.297	0.077
-629.507	-62.988	-0.180	-0.075
-628.492	-50.599	0.329	0.157
-627.478	509.606	-0.115	0.270
-626.463	800.000	0.092	0.267
-625.449	25.922	0.087	0.073
-624.434	-159.131	0.195	0.011
-623.419	-88.800	0.308	0.092
-622.405	-200.000	0.001	0.085
-621.390	-89.630	-0.098	-0.029
-620.376	169.050	0.146	0.210
-619.361	4.869	-0.072	0.053
-618.346	183.323	-0.163	-0.243
-617.332	-15.817	0.184	-0.118
-616.317	39.669	0.267	-0.242
-615.303	-200.000	-0.037	0.237
-614.288	103.807	0.198	0.235
-613.273	302.911	0.127	0.237
-612.259	-119.293	0.137	0.024
-611.244	-126.768	-0.195	-0.029
-610.230	-107.976	-0.154	0.034
-609.215	-25.334	-0.093	-0.056
-608.201	770.855	0.018	-0.050
-607.186	-89.905	-0.388	-0.114
-606.171	-140.251	-0.137	-0.015
-605.157	186.879	0.135	0.202
-604.142	118.027	0.101	-0.125
-603.128	514.416	0.077	-0.180
-602.113	-200.000	0.010	-0.230
-601.098	800.000	0.058	-0.193
-600.084	-43.365	0.108	-0.055
-599.069	-106.411	0.179	-0.040
-598.055	155.102	0.126	0.176
-597.040	1.370	-0.125	0.091
-596.025	-194.362	0.146	0.001
-595.011	-200.000	0.003	-0.175
-593.996	-144.576	0.178	0.017
-592.982	-39.811	-0.499	0.263
-591.967	286.059	-0.151	0.275
-590.952	-150.180	0.083	0.006
-589.938	17.808	-0.055	-0.044
-588.923	-3.738	0.037	0.026
-587.909	7.548	0.237	-0.179
-586.894	800.000	0.105	-0.396
-585.879	278.369	0.245	0.440
-584.865	163.908	-0.079	-0.112
-583.850	196.722	0.163	-0.251
-582.836	227.302	-0.068	-0.111
-581.821	-30.490	-0.275	-0.157
-580.806	-200.000	0.016	0.177
-579.792	-29.738	-0.080	-0.046
-578.777	-44.465	-0.279	-0.141
-577.763	552.070	-0.093	-0.226
-576.748	200.177	-0.100	-0.154
-575.733	-200.000	0.041	-0.196
-574.719	21.660	-0.286	-0.235
-573.704	800.000	0.030	0.128
-572.690	457.585	0.095	0.213
-571.675	800.000	0.064	0.195
-570.661	195.502	0.092	-0.141
-569.646	64.494	-0.048	-0.049
-568.631	-20.805	-0.335	0.207
-567.617	-200.000	-0.012	-0.217
-566.602	536.222	-0.073	0.174
-565.588	800.000	0.034	-0.094
-564.573	-200.000	0.005	0.134
-563.558	-150.913	0.311	0.024
-562.544	639.466	-0.110	0.281
-561.529	-94.516	-0.314	0.086
-560.515	-200.000	-0.069	0.486
-559.500	-26.944	-0.064	0.038
-558.485	10.660	0.085	0.066
-557.471	20.703	0.132	0.108
-556.456	-200.000	0.056	-0.361
-555.442	800.000	-0.030	-0.090
-554.427	-200.000	0.019	-0.185
-553.412	-200.000	-0.006	-0.045
-552.398	800.000	-0.048	-0.195
-551.383	14.817	0.176	-0.139
-550.369	10.979	-0.193	-0.148
-549.354	-71.417	-0.216	-0.081
-548.339	249.017	-0.061	0.103
-547.325	-75.493	-0.138	-0.050
-546.310	-165.221	-0.212	0.009
-545.296	-49.022	-0.153	-0.074
-544.281	287.000	0.160	0.292
-543.266	53.526	0.127	0.122
-542.252	19.487	-0.162	0.131
-541.237	589.393	-0.093	-0.231
-540.223	-200.000	-0.047	0.323
-539.208	800.000	0.086	0.336
-538.193	734.836	0.064	0.173
-537.179	-200.000	0.052	0.255
-536.164	-15.433	-0.319	0.205
-535.150	800.000	-0.052	-0.227
-534.135	-10.517	0.040	-0.027
-533.121	339.848	-0.054	0.106
-532.106	-108.427	0.134	-0.029
-531.091	-77.778	-0.167	-0.058
-530.077	13.839	-0.074	-0.058
-529.062	-200.000	0.011	-0.210
-528.048	-51.602	0.121	0.057
-527.033	145.130	-0.056	-0.076
-526.018	7.445	0.162	-0.122
-525.004	168.224	-0.151	-0.216
-523.989	155.339	-0.198	-0.274
-522.975	-145.146	-0.170	0.016
-521.960	646.886	0.071	0.183
-520.945	-44.247	0.167	0.084
-519.931	-125.147	0.119	-0.018
-518.916	56.896	0.239	-0.234
-517.902	186.032	0.174	0.261
-516.887	-200.000	-0.022	-0.129
-515.872	58.810	-0.302	-0.298
-514.858	-63.844	-0.210	0.087
-513.843	-106.796	0.265	0.059
-512.829	-44.400	0.059	-0.029
-511.814	133.745	0.187	-0.243
-510.799	69.593	0.082	-0.085
-509.785	436.840	0.129	-0.282
-508.770	-200.000	0.058	-0.265
-507.756	-200.000	-0.015	0.113
-506.741	-9.971	-0.139	-0.093
-505.726	-101.999	-0.097	0.024
-504.712	-113.158	-0.186	0.037
-503.697	-59.380	0.245	-0.106
-502.683	566.163	-0.138	-0.337
-501.668	-200.000	-0.032	0.208
-500.653	-62.961	0.251	-0.104
-499.639	284.498	-0.052	-0.095
-498.624	-87.855	-0.098	0.030
-497.610	-19.108	-0.280	0.175
-496.595	41.975	-0.224	-0.204
-495.581	-75.212	0.041	-0.015
-494.566	-187.139	0.410	0.006
-493.551	-109.168	0.148	-0.032
-492.537	213.166	0.027	-0.042
-491.522	109.242	-0.061	0.074
-490.508	80.714	-0.298	0.323
-489.493	800.000	0.076	0.229
-488.478	219.294	-0.110	0.177
-487.464	170.214	0.145	-0.209
-486.449	-200.000	-0.013	0.391
-485.435	-72.723	-0.421	0.156
-484.420	-200.000	0.007	0.201
-483.405	-30.591	0.120	-0.068
-482.391	64.517	0.094	0.095
-481.376	-84.001	-0.066	-0.021
-480.362	-200.000	-0.020	-0.114
-479.347	-200.000	-0.006	0.041
-478.332	178.171	0.085	-0.125
-477.318	-200.000	0.011	0.060
-476.303	-126.521	-0.219	0.033
-475.289	274.645	-0.090	-0.160
-474.274	-100.115	-0.081	-0.020
-473.259	76.789	0.177	-0.189
-472.245	-200.000	0.008	-0.190
-471.230	-6.452	-0.118	-0.081
-470.216	-200.000	-0.016	-0.104
-469.201	556.797	-0.046	0.112
-468.186	662.646	0.055	-0.143
-467.172	661.012	-0.029	-0.076
-466.157	-200.000	-0.012	0.115
-465.143	-200.000	0.005	-0.044
-464.128	-108.634	-0.029	-0.006
-463.113	129.684	-0.029	-0.037
-462.099	-46.958	0.362	-0.177
-461.084	75.976	-0.300	0.319
-460.070	282.484	-0.157	-0.283
-459.055	-74.722	-0.320	-0.116
-458.040	800.000	0.226	0.742
-457.026	-168.390	-0.140	-0.005
-456.011	-73.097	0.075	0.028
-454.997	800.000	0.053	0.202
-453.982	-70.964	0.146	0.055
-452.968	800.000	-0.013	0.050
-451.953	140.781	-0.091	0.121
-450.938	-200.000	-0.003	-0.092
-449.924	66.955	-0.171	0.175
-448.909	-200.000	0.007	0.151
-447.895	-200.000	0.008	-0.038
-446.880	-63.996	0.226	0.093
-445.865	-90.484	-0.455	-0.132
-444.851	138.937	0.370	0.488
-443.836	-200.000	-0.026	0.216
-442.822	218.430	-0.098	0.157
-441.807	-200.000	0.012	0.516
-440.792	-200.000	0.026	-0.144
-439.778	-102.376	-0.112	-0.027
-438.763	-152.192	-0.216	0.016
-437.749	109.849	-0.246	-0.296
-436.734	354.546	0.136	0.270
-435.719	-141.756	0.159	-0.016
-434.705	-31.266	0.279	-0.158
-433.690	-76.838	0.235	0.083
-432.676	597.052	-0.092	0.228
-431.661	11.650	-0.101	-0.078
-430.646	-85.901	-0.137	-0.042
-429.632	97.519	-0.123	0.142
-428.617	-200.000	0.019	-0.227
-427.603	-131.535	-0.145	0.019
-426.588	64.290	-0.108	0.109
-425.573	-108.683	0.150	-0.032
-424.559	-200.000	-0.001	0.432
-423.544	-60.087	0.088	-0.038
-422.530	-200.000	-0.030	-0.265
-421.515	-144.310	0.025	-0.002
-420.500	-6.364	0.005	0.003
-419.486	26.615	-0.162	0.136
-418.471	171.041	-0.107	-0.154
-417.457	205.660	0.135	0.210
-416.442	800.000	-0.023	0.098
-415.428	147.516	-0.082	-0.111
-414.413	-82.251	-0.195	0.064
-413.398	800.000	0.097	0.323
-412.384	-1.243	-0.146	-0.104
-411.369	624.878	-0.037	0.094
-410.355	173.620	0.145	-0.209
-409.340	-110.198	0.094	0.020
-408.325	55.382	-0.078	0.076
-407.311	-200.000	-0.014	-0.195
-406.296	152.587	-0.196	-0.268
-405.282	101.693	0.152	-0.177
-404.267	800.000	-0.027	-0.095
-403.252	-32.509	-0.478	-0.267
-402.238	800.000	-0.082	-0.231
-401.223	66.814	-0.086	-0.087
-400.209	397.738	0.031	0.064
-399.194	388.500	-0.036	-0.074
-398.179	-200.000	0.054	-0.410
-397.165	-200.000	-0.010	-0.143
-396.150	-200.000	-0.022	-0.124
-395.136	-200.000	-0.032	0.320
-394.121	342.368	0.046	-0.090
-393.106	-200.000	0.003	-0.341
-392.092	18.734	0.144	-0.115
-391.077	-63.794	-0.241	-0.099
-390.063	-200.000	-0.033	-0.233
-389.048	107.101	0.200	0.237
-388.033	-35.893	0.082	0.045
-387.019	-200.000	-0.031	0.199
-386.004	-30.698	-0.366	-0.207
-384.990	800.000	0.125	-0.487
-383.975	-200.000	0.021	-0.117
-382.960	-86.643	-0.062	-0.019
-381.946	182.847	-0.179	0.264
-380.931	-16.396	0.181	-0.115
-379.917	28.293	-0.100	-0.085
-378.902	128.427	-0.088	-0.112
-377.888	-124.073	0.555	-0.087
-376.873	-109.047	-0.309	0.066
-375.858	800.000	0.141	0.496
-374.844	158.591	0.173	0.240
-373.829	-6.287	-0.116	-0.079
-372.815	-94.619	0.407	0.111
-371.800	365.200	0.099	0.199
-370.785	-85.618	-0.390	0.121
-369.771	-7.583	0.204	-0.138
-368.756	61.249	0.120	-0.119
-367.742	-200.000	-0.016	0.270
-366.727	461.870	0.049	0.109
-365.712	-89.288	-0.252	-0.074
-364.698	152.090	0.092	-0.126
-363.683	-198.949	0.152	0.001
-362.669	-91.576	-0.367	0.105
-361.654	0.286	-0.166	0.118
-360.639	163.181	-0.046	0.065
-359.625	-200.000	0.005	-0.056
-358.610	484.211	0.131	-0.298
-357.596	-92.487	0.179	-0.050
-356.581	-93.462	-0.223	0.062
-355.566	-134.251	-0.146	-0.018
-354.552	-99.298	-0.170	0.043
-353.537	-200.000	-0.076	-0.359
-352.523	251.497	0.112	-0.191
-351.508	264.907	-0.037	-0.064
-350.493	-200.000	-0.000	-0.015
-349.479	-24.307	0.137	0.081
-348.464	70.344	-0.402	0.415
-347.450	-50.533	0.409	0.193
-346.435	800.000	0.019	0.057
-345.420	76.316	0.146	0.155
-344.406	800.000	0.031	0.119
-343.391	-200.000	-0.015	0.105
-342.377	-200.000	-0.048	0.405
-341.362	-200.000	-0.000	-0.392
-340.348	287.661	-0.104	-0.188
-339.333	-90.767	0.281	-0.081
-338.318	46.571	-0.156	-0.145
-337.304	-155.843	0.218	0.014
-336.289	184.754	-0.174	0.258
-335.275	397.363	0.041	-0.085
-334.260	6.067	-0.113	-0.084
-333.245	-200.000	-0.021	0.238
-332.231	-200.000	-0.039	-0.233
-331.216	800.000	0.066	-0.198
-330.202	195.386	-0.192	-0.291
-329.187	626.156	-0.141	-0.354
-328.172	3.840	0.090	0.066
-327.158	-97.800	-0.256	-0.066
-326.143	19.844	-0.292	0.235
-325.129	-53.019	0.157	0.072
-324.114	-200.000	0.006	-0.074
-323.099	22.685	-0.456	0.372
-322.085	493.694	-0.121	0.278
-321.070	128.949	-0.155	0.197
-320.056	-169.621	-0.270	0.010
-319.041	-175.089	-0.324	0.009
-318.026	-50.787	0.141	-0.066
-317.012	-37.569	-0.115	-0.061
-315.997	66.223	-0.113	-0.115
-314.983	-200.000	0.031	-0.353
-313.968	1.078	0.398	0.285
-312.953	-174.902	-0.369	0.010
-311.939	-100.495	0.144	0.035
-310.924	89.330	0.063	-0.070
-309.910	505.955	0.085	-0.197
-308.895	238.790	0.197	-0.326
-307.880	292.693	-0.084	0.153
-306.866	-200.000	-0.003	-0.251
-305.851	43.718	-0.163	0.149
-304.837	-200.000	-0.012	0.281
-303.822	605.824	0.089	0.222
-302.807	-200.000	-0.006	-0.080
-301.793	95.421	0.156	0.177
-300.778	624.677	0.017	-0.043
-299.764	322.380	-0.083	-0.158
-298.749	77.418	0.207	-0.220
-297.735	-200.000	0.047	-0.285
-296.720	16.921	0.275	-0.218
-295.705	260.127	0.019	0.034
-294.691	-124.683	-0.112	0.017
-293.676	-200.000	0.034	0.180
-292.662	-150.557	0.055	-0.004
-291.647	-200.000	-0.014	0.358
-290.632	-99.724	0.403	0.101
-289.618	-57.441	0.079	-0.035
-288.603	-175.019	0.109	-0.003
-287.589	800.000	-0.093	0.306
-286.574	133.318	0.039	-0.050
-285.559	67.712	0.070	-0.071
-284.545	49.038	0.057	0.053
-283.530	-200.000	-0.005	-0.195
-282.516	-144.650	0.138	0.013
-281.501	-12.244	0.205	0.134
-280.486	-148.140	0.331	-0.027
-279.472	-37.207	0.219	-0.117
-278.457	800.000	-0.044	-0.180
-277.443	-121.329	-0.191	0.032
-276.428	-134.550	0.252	0.031
-275.413	150.004	0.236	-0.319
-274.399	-101.909	0.143	0.034
-273.384	-56.680	0.150	-0.066
-272.370	-199.217	-0.206	-0.001
-271.355	29.788	-0.160	-0.136
-270.340	132.663	0.145	0.186
-269.326	133.901	0.084	-0.108
-268.311	14.683	0.123	-0.096
-267.297	-169.993	-0.096	0.003
-266.282	-40.820	-0.061	-0.031
-265.267	-200.000	-0.042	0.209
-264.253	-154.635	0.034	-0.002
-263.238	-5.518	-0.280	-0.191
-262.224	45.541	-0.149	-0.137
-261.209	800.000	0.063	-0.232
-260.195	-200.000	-0.043	0.307
-259.180	-140.211	-0.163	0.017
-258.165	13.540	-0.204	0.158
-257.151	800.000	-0.013	0.041
-256.136	800.000	0.058	0.200
-255.122	-51.187	0.084	0.039
-254.107	-200.000	-0.037	0.306
-253.092	-200.000	0.030	0.182
-252.078	-90.884	0.192	0.055
-251.063	-200.000	0.015	0.000
-250.049	-67.423	0.151	-0.059
-249.034	-200.000	-0.008	-0.369
-248.019	17.667	0.247	0.196
-247.005	8.183	-0.191	0.142
-245.990	-131.185	-0.168	0.022
-244.976	111.772	-0.158	0.190
-243.961	-118.403	0.125	-0.022
-242.946	69.311	-0.126	0.129
-241.932	-93.103	0.197	-0.054
-240.917	-185.573	0.412	-0.006
-239.903	-117.966	-0.251	-0.045
-238.888	412.735	0.067	-0.141
-237.873	-77.782	-0.259	0.089
-236.859	1.691	-0.083	0.059
-235.844	-126.327	-0.067	-0.010
-234.830	90.821	0.161	-0.179
-233.815	-26.592	-0.159	-0.093
-232.800	148.050	0.194	-0.260
-231.786	13.986	0.236	0.183
-230.771	-125.603	-0.392	-0.059
-229.757	-90.188	0.164	0.048
-228.742	169.678	0.201	0.286
-227.727	-200.000	0.012	-0.224
-226.713	800.000	0.058	0.176
-225.698	190.133	-0.037	0.055
-224.684	-4.089	-0.100	-0.069
-223.669	-62.900	0.020	-0.008
-222.655	-200.000	0.002	0.180
-221.640	5.123	0.031	-0.023
-220.625	-200.000	-0.009	-0.081
-219.611	-96.469	0.224	0.059
-218.596	237.078	-0.129	0.212
-217.582	-200.000	0.001	-0.267
-216.567	-24.302	-0.197	-0.117
-215.552	-124.350	-0.071	0.011
-214.538	35.473	0.248	0.216
-213.523	-49.080	0.113	-0.054
-212.509	-157.546	0.259	0.015
-211.494	117.642	0.252	0.308
-210.479	800.000	0.063	-0.202
-209.465	-73.635	0.327	-0.118
-208.450	-200.000	0.020	-0.316
-207.436	284.477	-0.218	-0.390
-206.421	551.356	0.068	-0.163
-205.406	-182.523	-0.241	0.004
-204.392	-133.270	-0.394	-0.049
-203.377	800.000	0.044	-0.158
-202.363	-41.580	-0.064	0.033
-201.348	409.127	0.181	0.381
-200.333	-199.489	0.230	0.001
-199.319	261.658	-0.061	-0.106
-198.304	213.461	-0.109	0.171
-197.290	-200.000	0.005	-0.260
-196.275	-167.774	0.019	0.001
-195.260	38.200	0.025	0.022
-194.246	47.983	0.159	0.148
-193.231	-65.511	0.053	0.021
-192.217	160.288	0.042	-0.059
-191.202	67.519	0.035	-0.035
-190.187	325.944	-0.080	-0.152
-189.173	-200.000	-0.024	0.304
-188.158	-13.574	0.119	-0.076
-187.144	-122.291	0.146	0.024
-186.129	-200.000	-0.048	-0.297
-185.114	4.124	-0.170	0.123
-184.100	76.956	0.319	-0.336
-183.085	-148.434	0.148	-0.012
-182.071	-165.278	-0.041	-0.002
-181.056	-200.000	-0.007	-0.112
-180.042	181.464	0.107	0.156
-179.027	-13.107	0.054	0.035
-178.012	-162.064	0.300	0.015
-176.998	488.702	0.134	-0.305
-175.983	-101.619	-0.535	-0.129
-174.969	79.398	-0.100	-0.107
-173.954	-107.409	0.135	0.029
-172.939	-6.766	-0.485	0.328
-171.925	-200.000	-0.002	-0.118
-170.910	800.000	0.113	0.346
-169.896	218.491	0.047	0.074
-168.881	-160.029	0.446	0.024
-167.866	800.000	-0.108	0.373
-166.852	52.104	0.162	0.153
-165.837	-77.097	-0.087	0.030
-164.823	800.000	0.043	-0.119
-163.808	-82.210	0.128	-0.042
-162.793	331.375	-0.070	-0.135
-161.779	200.069	0.188	-0.286
-160.764	-107.701	0.133	0.029
-159.750	-48.287	-0.188	-0.090
-158.735	58.071	-0.034	-0.033
-157.720	10.917	-0.307	0.233
-156.706	59.441	0.056	0.054
-155.691	-28.107	-0.066	-0.038
-154.677	17.095	-0.108	0.085
-153.662	16.725	0.184	0.144
-152.647	104.079	-0.165	0.192
-151.633	-200.000	0.012	0.117
-150.618	373.344	0.103	0.208
-149.604	-200.000	0.015	-0.161
-148.589	-88.747	-0.232	0.068
-147.574	800.000	0.035	0.136
-146.560	800.000	-0.051	-0.214
-145.545	152.768	-0.107	-0.146
-144.531	-85.935	-0.204	0.063
-143.516	-82.649	-0.506	-0.162
-142.502	-75.026	0.163	-0.058
-141.487	16.851	0.248	0.195
-140.472	259.440	0.243	-0.416
-139.458	359.313	0.116	-0.229
-138.443	-80.636	-0.209	-0.069
-137.429	800.000	0.031	-0.132
-136.414	-56.819	0.616	-0.270
-135.399	559.063	-0.118	0.282
-134.385	12.450	-0.116	0.088
-133.370	-45.930	0.301	-0.147
-132.356	-87.313	0.241	-0.073
-131.341	134.358	-0.125	-0.161
-130.326	7.852	0.082	-0.061
-129.312	800.000	0.031	0.098
-128.297	-41.750	0.300	0.152
-127.283	800.000	-0.089	-0.280
-126.268	95.181	0.258	-0.291
-125.253	-153.887	-0.094	-0.006
-124.239	-38.100	-0.072	-0.038
-123.224	-33.756	0.241	0.132
-122.210	-200.000	-0.008	-0.060
