DTS Sentinel unit serial number:	SN413079Multiplexer serial number:	ORYXHardware model number:	OX4-SRSoftware version number:	ORYX F/W v4.00 Oryx Data Collector v3.7.2.0data status	okinstallation	princeton_trtdifferential loss correction	single-endedforward channel	channel 4reverse channel	N/Adate	2019/09/18time	07:49:35forward acquisition time	60.00reverse acquisition time	0.00gamma	496.2192k internal	0.2332k external	0.2332temperature offset calibration	0.9994default loss term (dB/km)	0.3790temperature slope calibration	1.0000multiplexer offset coefficient	1.0000multiplexer slope coefficient	1.0000fibre end	0.00T internal ref (°C)	23.37T ext. ref 1 (°C)	0.20T ext. ref 2 (°C)	19.03length (m)	temperature (°C)	Stokes	anti-Stokes-747.200	117.320	-0.251	0.311
-746.185	182.837	-0.111	0.165
-745.171	-12.599	-0.230	-0.151
-744.156	29.857	-0.193	0.165
-743.142	5.290	0.173	0.128
-742.127	38.833	-0.141	0.127
-741.112	-131.071	-0.235	-0.032
-740.098	-74.028	-0.202	0.074
-739.083	606.583	-0.051	-0.129
-738.069	120.486	-0.177	0.222
-737.054	12.313	0.364	0.282
-736.039	257.618	-0.107	0.185
-735.025	10.102	0.180	0.138
-734.010	-144.618	-0.361	0.033
-732.996	-200.000	-0.031	0.161
-731.981	401.043	0.153	-0.323
-730.966	174.875	-0.121	-0.176
-729.952	-200.000	0.012	0.105
-728.937	264.169	-0.052	-0.092
-727.923	16.513	-0.013	-0.010
-726.908	-200.000	-0.004	0.120
-725.894	-166.639	-0.138	0.006
-724.879	45.101	0.093	-0.086
-723.864	72.001	-0.138	-0.144
-722.850	-56.351	0.346	-0.155
-721.835	-200.000	0.002	0.319
-720.821	-77.602	-0.609	-0.212
-719.806	132.604	0.130	0.168
-718.791	-129.024	0.112	-0.016
-717.777	-53.139	-0.295	0.136
-716.762	214.753	-0.234	-0.372
-715.748	34.538	-0.248	-0.217
-714.733	-84.608	-0.188	-0.060
-713.718	-14.497	-0.348	-0.225
-712.704	-155.332	-0.080	0.005
-711.689	800.000	0.073	-0.263
-710.675	70.968	-0.059	0.062
-709.660	-27.457	0.251	0.147
-708.645	-113.815	0.328	0.064
-707.631	-200.000	0.019	0.193
-706.616	-151.084	-0.147	-0.011
-705.602	-72.770	-0.173	-0.064
-704.587	-81.384	-0.199	0.066
-703.572	-69.812	0.057	-0.022
-702.558	-61.134	-0.362	0.154
-701.543	-109.136	0.283	-0.060
-700.529	104.133	-0.123	0.145
-699.514	123.104	0.170	0.214
-698.499	-77.994	0.248	0.086
-697.485	171.131	0.146	-0.211
-696.470	800.000	0.051	-0.148
-695.456	-114.171	0.257	0.050
-694.441	-200.000	0.007	-0.102
-693.426	7.108	-0.183	0.137
-692.412	377.816	-0.094	-0.193
-691.397	-187.974	-0.231	-0.003
-690.383	-200.000	0.008	0.194
-689.368	-200.000	0.010	0.326
-688.354	-200.000	0.024	-0.278
-687.339	-73.778	-0.215	-0.079
-686.324	-200.000	0.029	-0.198
-685.310	203.954	0.046	0.072
-684.295	74.062	0.019	0.020
-683.281	164.130	0.085	0.121
-682.266	598.869	0.058	-0.145
-681.251	-5.815	0.129	-0.089
-680.237	-199.316	-0.025	-0.000
-679.222	800.000	-0.038	0.158
-678.208	487.752	-0.101	0.232
-677.193	107.927	0.200	-0.239
-676.178	-58.628	0.012	-0.005
-675.164	-200.000	-0.011	-0.165
-674.149	514.405	-0.057	0.133
-673.135	-200.000	0.012	0.285
-672.120	-136.981	-0.234	0.027
-671.105	800.000	0.028	0.101
-670.091	-15.507	0.223	-0.143
-669.076	-1.411	-0.291	0.206
-668.062	106.947	-0.217	0.258
-667.047	172.405	-0.201	-0.291
-666.032	384.139	-0.080	0.166
-665.018	46.022	-0.196	0.182
-664.003	-99.486	-0.412	-0.104
-662.989	-200.000	-0.058	0.324
-661.974	-109.961	0.042	-0.009
-660.959	-12.583	-0.037	-0.024
-659.945	13.622	-0.224	-0.175
-658.930	800.000	-0.046	-0.185
-657.916	-200.000	0.015	-0.082
-656.901	-23.519	-0.379	0.228
-655.886	800.000	0.092	-0.255
-654.872	-25.042	-0.356	-0.212
-653.857	-49.892	-0.126	-0.060
-652.843	161.177	0.326	-0.457
-651.828	20.421	0.089	-0.072
-650.814	51.208	-0.116	-0.110
-649.799	-200.000	-0.031	0.217
-648.784	343.612	0.143	0.281
-647.770	-200.000	-0.034	-0.198
-646.755	-200.000	-0.005	-0.148
-645.741	-122.327	-0.402	-0.066
-644.726	280.014	0.088	-0.157
-643.711	224.366	0.081	-0.132
-642.697	-200.000	-0.027	-0.315
-641.682	-168.372	-0.442	-0.017
-640.668	-55.516	-0.097	0.044
-639.653	-17.922	-0.195	0.122
-638.638	591.442	0.078	0.192
-637.624	-104.839	-0.084	-0.019
-636.609	246.896	0.076	-0.129
-635.595	-3.619	-0.128	-0.089
-634.580	-64.260	0.085	-0.035
-633.565	184.962	-0.094	0.140
-632.551	-113.317	0.152	-0.030
-631.536	108.741	-0.132	0.158
-630.522	-42.275	0.051	0.026
-629.507	355.202	-0.050	-0.099
-628.492	-200.000	0.003	-0.278
-627.478	97.840	-0.035	0.040
-626.463	-200.000	-0.034	0.188
-625.449	69.642	-0.108	-0.112
-624.434	-92.109	0.269	0.076
-623.419	114.870	0.033	0.041
-622.405	800.000	0.088	-0.366
-621.390	800.000	-0.080	-0.337
-620.376	299.446	-0.114	-0.210
-619.361	263.101	0.074	-0.128
-618.346	238.055	-0.124	-0.207
-617.332	309.195	-0.083	0.156
-616.317	5.334	-0.162	0.120
-615.303	106.346	0.149	-0.177
-614.288	-200.000	-0.082	-0.395
-613.273	-22.151	0.128	-0.078
-612.259	217.371	0.075	-0.120
-611.244	152.130	-0.248	-0.338
-610.230	-71.421	0.298	0.112
-609.215	-3.346	0.102	0.071
-608.201	268.104	-0.159	0.279
-607.186	-200.000	0.081	-0.358
-606.171	279.739	-0.087	0.156
-605.157	-200.000	-0.013	-0.062
-604.142	48.067	0.086	-0.080
-603.128	45.385	0.083	0.077
-602.113	233.548	-0.196	-0.323
-601.098	755.149	-0.082	-0.223
-600.084	132.319	-0.137	0.177
-599.069	800.000	-0.087	-0.315
-598.055	-200.000	0.009	-0.135
-597.040	133.699	-0.153	-0.198
-596.025	142.566	0.067	-0.089
-595.011	239.656	-0.192	0.320
-593.996	208.077	-0.046	-0.072
-592.982	82.171	-0.143	-0.155
-591.967	-63.277	0.044	0.018
-590.952	-188.868	0.243	-0.003
-589.938	-154.228	0.239	0.016
-588.923	-39.309	0.118	-0.062
-587.909	-200.000	0.006	0.090
-586.894	5.606	0.303	-0.224
-585.879	135.510	-0.124	0.161
-584.865	-200.000	0.012	-0.450
-583.850	36.955	-0.210	0.185
-582.836	-136.609	0.277	0.032
-581.821	800.000	-0.062	-0.239
-580.806	162.038	0.218	0.305
-579.792	239.339	-0.071	0.117
-578.777	85.753	0.053	-0.059
-577.763	-113.052	-0.162	-0.032
-576.748	24.241	0.152	-0.126
-575.733	513.437	0.038	-0.089
-574.719	136.745	0.079	-0.103
-573.704	526.410	0.066	-0.155
-572.690	-118.208	0.286	0.051
-571.675	-86.155	0.077	0.024
-570.661	-200.000	-0.045	0.288
-569.646	-108.667	0.195	0.042
-568.631	114.732	0.228	0.277
-567.617	-116.274	-0.103	0.019
-566.602	217.443	-0.231	0.368
-565.588	-200.000	-0.292	0.001
-564.573	152.096	-0.117	-0.159
-563.558	-200.000	-0.028	-0.168
-562.544	800.000	-0.089	0.252
-561.529	800.000	-0.063	0.245
-560.515	-64.761	-0.181	0.073
-559.500	-200.000	-0.008	0.219
-558.485	-49.761	0.208	0.099
-557.471	471.318	-0.049	-0.110
-556.456	118.439	0.171	-0.211
-555.442	-200.000	0.006	-0.170
-554.427	-108.969	0.210	-0.045
-553.412	30.152	-0.106	0.090
-552.398	90.883	0.316	0.354
-551.383	-176.954	0.181	0.005
-550.369	-172.168	0.073	-0.002
-549.354	-200.000	-0.002	-0.012
-548.339	-20.873	-0.075	0.046
-547.325	-200.000	0.004	0.071
-546.310	-83.490	-0.267	-0.085
-545.296	-102.764	-0.155	0.037
-544.281	800.000	-0.028	0.119
-543.266	-9.793	0.091	0.061
-542.252	345.440	0.130	0.256
-541.237	800.000	0.055	0.166
-540.223	158.733	-0.160	-0.222
-539.208	140.345	0.220	-0.290
-538.193	190.185	-0.021	-0.031
-537.179	-42.589	-0.181	0.092
-536.164	-15.407	0.116	-0.074
-535.150	-185.333	0.157	-0.002
-534.135	100.678	0.223	0.259
-533.121	800.000	0.100	-0.281
-532.106	-80.039	0.213	0.071
-531.091	-93.858	0.269	-0.074
-530.077	-200.000	-0.024	0.218
-529.062	800.000	0.131	-0.388
-528.048	325.214	0.087	0.166
-527.033	10.926	-0.243	0.185
-526.018	24.096	0.068	0.056
-525.004	800.000	0.047	-0.133
-523.989	107.170	-0.187	-0.222
-522.975	-83.501	0.054	0.017
-521.960	336.719	0.175	-0.340
-520.945	-2.489	0.384	0.268
-519.931	94.657	0.134	0.152
-518.916	614.918	-0.045	0.114
-517.902	-200.000	0.045	0.258
-516.887	-2.093	-0.165	-0.116
-515.872	3.184	0.224	-0.162
-514.858	70.396	-0.157	0.162
-513.843	-200.000	0.006	0.100
-512.829	-194.094	0.104	0.001
-511.814	407.831	-0.134	-0.282
-510.799	78.647	-0.183	0.195
-509.785	-45.733	-0.215	-0.106
-508.770	220.989	0.096	0.154
-507.756	24.633	-0.122	-0.101
-506.741	-200.000	-0.053	0.265
-505.726	-33.508	-0.109	0.060
-504.712	22.421	0.293	-0.239
-503.697	-26.157	-0.147	0.086
-502.683	-54.385	-0.259	-0.117
-501.668	-98.640	-0.260	0.066
-500.653	48.136	0.135	0.125
-499.639	-41.760	-0.185	0.095
-498.624	42.838	-0.229	-0.208
-497.610	237.869	-0.178	-0.294
-496.595	-47.229	-0.132	-0.064
-495.581	-127.508	0.213	-0.031
-494.566	163.809	0.063	0.088
-493.551	-10.801	-0.211	-0.139
-492.537	-78.458	-0.233	-0.079
-491.522	-155.553	0.145	-0.009
-490.508	-28.157	0.239	0.138
-489.493	336.638	0.053	0.102
-488.478	800.000	-0.052	0.167
-487.464	35.737	0.291	-0.255
-486.449	741.728	0.026	-0.070
-485.435	-41.280	0.227	0.116
-484.420	223.300	0.072	-0.115
-483.405	198.405	-0.071	-0.109
-482.391	138.408	0.124	-0.162
-481.376	-59.997	0.412	-0.175
-480.362	-193.814	-0.181	-0.002
-479.347	113.104	-0.267	0.322
-478.332	-65.429	0.100	0.040
-477.318	-200.000	0.017	0.220
-476.303	-18.745	-0.297	0.184
-475.289	800.000	-0.095	0.392
-474.274	30.782	0.180	-0.154
-473.259	-200.000	-0.003	-0.129
-472.245	-78.701	-0.190	-0.065
-471.230	-87.803	0.265	-0.079
-470.216	-15.492	0.283	-0.180
-469.201	-200.000	0.010	0.243
-468.186	136.025	-0.235	0.305
-467.172	172.995	0.116	0.167
-466.157	19.866	-0.101	0.081
-465.143	275.195	-0.079	0.140
-464.128	-31.573	0.296	-0.166
-463.113	293.810	-0.199	-0.362
-462.099	110.056	0.187	-0.223
-461.084	-114.960	-0.172	-0.033
-460.070	800.000	-0.068	-0.219
-459.055	-183.063	0.328	0.006
-458.040	-200.000	0.036	0.178
-457.026	305.429	0.125	-0.231
-456.011	119.391	-0.194	0.239
-454.997	-200.000	0.013	-0.091
-453.982	-200.000	-0.006	0.065
-452.968	155.565	-0.252	0.345
-451.953	627.625	0.046	-0.116
-450.938	552.766	0.068	0.162
-449.924	13.481	-0.128	-0.099
-448.909	800.000	0.076	-0.293
-447.895	-200.000	-0.041	-0.205
-446.880	80.723	0.228	0.245
-445.865	150.516	0.272	0.367
-444.851	-133.348	0.124	0.016
-443.836	-200.000	0.006	-0.060
-442.822	702.674	-0.083	-0.217
-441.807	-161.538	0.015	-0.001
-440.792	-23.506	0.236	-0.141
-439.778	57.403	-0.171	0.166
-438.763	-200.000	-0.016	0.324
-437.749	-200.000	0.003	0.048
-436.734	48.383	-0.152	-0.141
-435.719	227.895	-0.068	0.109
-434.705	-23.578	0.100	0.060
-433.690	-188.461	-0.164	0.002
-432.676	164.903	-0.096	0.135
-431.661	557.554	-0.093	-0.224
-430.646	69.246	-0.055	-0.056
-429.632	96.235	0.145	-0.165
-428.617	-166.150	0.405	0.017
-427.603	-44.263	0.161	0.080
-426.588	-200.000	0.043	-0.305
-425.573	706.277	0.147	-0.386
-424.559	208.449	0.204	0.317
-423.544	474.901	-0.083	0.185
-422.530	800.000	-0.040	-0.130
-421.515	126.846	0.142	0.178
-420.500	-168.725	-0.127	0.005
-419.486	4.903	0.043	0.032
-418.471	-200.000	0.019	0.093
-417.457	556.453	0.123	0.294
-416.442	-200.000	0.109	-0.593
-415.428	486.509	0.010	0.022
-414.413	800.000	0.080	-0.224
-413.398	-200.000	0.049	-0.229
-412.384	800.000	0.107	0.304
-411.369	19.211	-0.075	-0.060
-410.355	-85.237	0.129	0.040
-409.340	-6.593	0.215	-0.145
-408.325	-107.019	-0.300	-0.066
-407.311	585.156	0.066	-0.162
-406.296	-7.559	-0.153	-0.103
-405.282	-7.779	-0.050	-0.033
-404.267	-93.029	-0.367	0.102
-403.252	-73.309	-0.085	-0.031
-402.238	-93.417	-0.282	0.078
-401.223	-200.000	-0.009	-0.093
-400.209	-10.092	-0.242	0.159
-399.194	95.349	-0.092	0.104
-398.179	-142.778	-0.416	0.040
-397.165	436.931	0.086	-0.186
-396.150	-137.552	-0.184	-0.021
-395.136	800.000	0.048	-0.202
-394.121	299.199	-0.172	0.314
-393.106	-81.346	-0.328	0.107
-392.092	94.399	-0.221	-0.249
-391.077	-55.346	0.283	0.126
-390.063	-200.000	0.001	0.099
-389.048	380.453	-0.059	0.121
-388.033	-200.000	0.005	-0.269
-387.019	-67.609	0.027	0.011
-386.004	-129.348	-0.201	0.028
-384.990	-129.057	0.303	0.042
-383.975	-3.996	-0.071	-0.049
-382.960	65.757	-0.081	-0.081
-381.946	-81.636	0.305	0.099
-380.931	529.641	-0.043	-0.100
-379.917	245.304	-0.082	0.136
-378.902	-147.779	0.215	-0.018
-377.888	-145.533	0.255	0.023
-376.873	281.743	0.052	-0.093
-375.858	89.550	0.135	-0.149
-374.844	-200.000	-0.021	0.123
-373.829	-56.547	0.217	0.096
-372.815	-55.976	-0.221	0.098
-371.800	-86.707	0.356	-0.108
-370.785	23.279	-0.038	-0.031
-369.771	-200.000	0.012	-0.137
-368.756	213.586	-0.075	-0.118
-367.742	344.385	0.160	0.311
-366.727	-127.291	0.189	-0.027
-365.712	-98.554	0.222	-0.056
-364.698	151.883	-0.089	0.121
-363.683	18.269	0.052	-0.041
-362.669	-145.023	0.328	0.030
-361.654	800.000	-0.078	0.307
-360.639	-200.000	-0.053	0.236
-359.625	800.000	-0.008	0.032
-358.610	59.288	0.122	0.119
-357.596	-41.562	-0.141	-0.072
-356.581	800.000	0.109	0.401
-355.566	-131.891	-0.163	0.021
-354.552	705.071	0.146	-0.381
-353.537	11.870	0.135	-0.103
-352.523	-10.223	-0.088	-0.058
-351.508	157.776	-0.191	0.262
-350.493	-200.000	-0.043	0.203
-349.479	-22.843	0.128	0.077
-348.464	-19.107	-0.231	0.142
-347.450	-133.983	-0.324	-0.040
-346.435	108.608	0.033	0.039
-345.420	177.413	-0.235	-0.339
-344.406	-123.410	0.256	-0.040
-343.391	-200.000	0.044	-0.285
-342.377	408.877	-0.075	-0.156
-341.362	-102.821	0.211	0.050
-340.348	-41.255	-0.210	-0.107
-339.333	99.234	-0.115	0.132
-338.318	-51.214	0.119	-0.055
-337.304	101.874	-0.100	0.115
-336.289	23.531	-0.171	0.139
-335.275	-124.926	0.125	0.019
-334.260	-200.000	0.007	0.068
-333.245	82.440	0.282	-0.303
-332.231	-200.000	0.031	-0.401
-331.216	-50.455	-0.302	0.141
-330.202	520.082	-0.198	-0.460
-329.187	-23.451	0.190	-0.113
-328.172	499.092	0.079	-0.179
-327.158	550.436	-0.142	0.336
-326.143	-18.362	0.145	-0.090
-325.129	-200.000	0.076	-0.332
-324.114	182.144	-0.060	-0.087
-323.099	9.356	0.119	0.089
-322.085	-200.000	-0.001	0.132
-321.070	37.725	0.140	0.123
-320.056	69.312	-0.015	-0.015
-319.041	80.899	-0.121	-0.129
-318.026	800.000	-0.027	-0.094
-317.012	450.809	0.122	0.266
-315.997	-130.331	-0.295	0.040
-314.983	58.978	0.166	0.161
-313.968	776.680	0.063	0.169
-312.953	184.495	0.183	-0.269
-311.939	-121.295	-0.158	-0.026
-310.924	-200.000	0.049	-0.216
-309.910	-200.000	-0.013	-0.088
-308.895	800.000	-0.036	0.117
-307.880	-44.235	0.256	0.127
-306.866	-80.205	0.151	0.050
-305.851	10.579	0.274	-0.207
-304.837	-56.328	-0.171	0.075
-303.822	-133.256	-0.155	-0.019
-302.807	800.000	0.110	0.388
-301.793	440.091	-0.025	-0.055
-300.778	-200.000	-0.019	-0.184
-299.764	-200.000	-0.051	0.307
-298.749	-175.466	0.204	0.006
-297.735	-200.000	0.013	0.085
-296.720	3.225	0.175	0.126
-295.705	462.801	-0.053	-0.116
-294.691	-78.040	-0.128	0.044
-293.676	56.562	-0.134	0.129
-292.662	190.446	-0.086	-0.128
-291.647	25.495	0.083	-0.068
-290.632	275.628	-0.083	-0.146
-289.618	-200.000	-0.268	-0.001
-288.603	352.108	-0.098	-0.192
-287.589	-200.000	-0.009	-0.042
-286.574	27.996	0.081	0.068
-285.559	-200.000	-0.045	0.206
-284.545	-153.439	0.445	-0.031
-283.530	300.671	-0.105	-0.191
-282.516	-181.310	-0.183	0.004
-281.501	-34.531	0.191	0.103
-280.486	-97.413	-0.212	0.055
-279.472	-13.271	-0.182	-0.117
-278.457	-196.283	-0.129	-0.001
-277.443	-130.715	0.230	-0.031
-276.428	-165.585	-0.401	0.017
-275.413	180.168	-0.131	-0.189
-274.399	49.109	-0.329	-0.305
-273.384	499.577	0.135	-0.308
-272.370	-74.984	-0.289	0.102
-271.355	800.000	0.091	0.295
-270.340	-79.561	0.269	-0.090
-269.326	124.259	0.056	-0.069
-268.311	-18.498	0.183	0.113
-267.297	-200.000	-0.036	0.235
-266.282	385.412	0.088	0.178
-265.267	-66.194	-0.108	0.042
-264.253	604.721	-0.025	-0.061
-263.238	-3.546	0.318	-0.218
-262.224	292.059	-0.121	-0.217
-261.209	-108.141	-0.327	0.070
-260.195	-104.177	0.065	0.015
-259.180	-88.715	0.198	-0.058
-258.165	-48.229	-0.281	-0.134
-257.151	123.954	-0.211	0.262
-256.136	62.464	0.244	0.241
-255.122	589.006	-0.072	0.174
-254.107	7.683	0.071	0.053
-253.092	10.843	0.066	-0.050
-252.078	-54.115	-0.083	0.037
-251.063	800.000	-0.048	-0.135
-250.049	-150.812	-0.339	-0.025
-249.034	-57.022	0.437	0.190
-248.019	800.000	-0.054	0.199
-247.005	800.000	0.052	0.163
-245.990	759.365	0.140	0.375
-244.976	105.591	0.130	0.151
-243.961	-83.157	0.282	-0.090
-242.946	699.765	0.132	0.344
-241.932	194.182	-0.130	0.194
-240.917	-200.000	-0.011	-0.179
-239.903	-99.853	-0.180	-0.044
-238.888	125.355	-0.154	0.191
-237.873	25.986	-0.297	0.245
-236.859	646.663	-0.111	-0.279
-235.844	50.235	0.178	-0.166
-234.830	10.668	0.126	-0.095
-233.815	3.408	-0.378	0.272
-232.800	-165.932	-0.417	0.018
-231.786	800.000	0.073	0.208
-230.771	13.373	0.069	-0.053
-229.757	88.710	-0.125	0.137
-228.742	464.048	-0.071	0.157
-227.727	800.000	0.108	-0.330
-226.713	163.167	-0.184	0.255
-225.698	310.913	0.077	-0.143
-224.684	154.843	-0.139	0.188
-223.669	-200.000	-0.018	0.170
-222.655	347.031	0.150	0.292
-221.640	-200.000	-0.010	0.282
-220.625	11.735	0.085	-0.064
-219.611	-200.000	0.021	-0.115
-218.596	-101.142	0.294	0.071
-217.582	-200.000	-0.022	0.117
-216.567	-83.738	-0.330	0.104
-215.552	-82.457	0.208	0.066
-214.538	-200.000	-0.001	-0.100
-213.523	-90.480	-0.284	0.081
-212.509	304.218	0.206	0.377
-211.494	18.303	0.261	0.206
-210.479	-74.946	-0.290	0.102
-209.465	-200.000	0.015	-0.437
-208.450	282.117	-0.071	-0.125
-207.436	-200.000	-0.014	-0.095
-206.421	108.419	-0.177	0.209
-205.406	-43.111	-0.368	-0.184
-204.392	43.365	0.220	-0.198
-203.377	33.018	0.162	-0.138
-202.363	798.412	0.093	-0.253
-201.348	22.906	-0.233	-0.188
-200.333	-82.169	-0.346	-0.111
-199.319	-72.916	-0.301	0.109
-198.304	138.890	0.148	-0.192
-197.290	-104.094	0.290	-0.066
-196.275	-68.876	-0.290	0.110
-195.260	785.535	0.058	0.157
-194.246	122.452	-0.183	-0.225
-193.231	-118.731	0.377	0.065
-192.217	-135.877	-0.110	0.013
-191.202	529.589	0.014	0.034
-190.187	-200.000	-0.108	0.502
-189.173	80.358	0.158	0.168
-188.158	-135.856	0.258	0.030
-187.144	178.000	-0.066	-0.095
-186.129	283.627	0.170	-0.301
-185.114	-200.000	-0.006	-0.131
-184.100	-48.704	0.052	-0.025
-183.085	409.064	0.065	0.135
-182.071	-36.874	-0.067	0.035
-181.056	-200.000	0.005	-0.089
-180.042	-129.658	0.176	-0.024
-179.027	38.006	0.098	-0.086
-178.012	-129.228	0.130	-0.018
-176.998	-135.082	-0.323	0.038
-175.983	270.455	-0.078	-0.135
-174.969	118.777	0.150	0.182
-173.954	81.390	-0.254	-0.270
-172.939	-86.219	-0.325	0.099
-171.925	27.362	0.183	0.151
-170.910	336.970	0.206	-0.394
-169.896	759.647	0.053	-0.143
-168.881	-37.158	-0.294	0.155
-167.866	341.587	-0.102	0.196
-166.852	-200.000	0.010	0.212
-165.837	-39.225	0.303	-0.156
-164.823	-200.000	0.073	-0.349
-163.808	28.938	-0.298	0.248
-162.793	248.723	0.092	0.154
-161.779	-200.000	0.002	0.233
-160.764	48.169	0.232	-0.213
-159.750	126.497	-0.064	0.080
-158.735	-200.000	-0.015	-0.162
-157.720	800.000	-0.061	0.166
-156.706	800.000	0.032	0.125
-155.691	800.000	0.065	0.179
-154.677	244.339	0.069	-0.113
-153.662	18.722	-0.219	-0.173
-152.647	52.781	0.094	0.088
-151.633	-200.000	-0.044	0.379
-150.618	800.000	0.100	-0.409
-149.604	-200.000	-0.039	-0.211
-148.589	151.073	-0.245	0.327
-147.574	-51.509	0.253	0.116
-146.560	215.441	0.067	-0.105
-145.545	123.333	0.153	-0.188
-144.531	-107.125	-0.353	-0.077
-143.516	-164.278	0.247	-0.011
-142.502	195.510	-0.039	-0.058
-141.487	194.798	0.043	0.064
-140.472	283.852	0.061	-0.107
-139.458	-98.170	0.064	0.016
-138.443	-200.000	0.006	0.305
-137.429	-200.000	0.031	-0.187
-136.414	-144.246	-0.298	0.027
-135.399	23.780	0.071	0.058
-134.385	-107.699	-0.319	-0.069
-133.370	0.313	-0.161	0.113
-132.356	-200.000	0.040	0.217
-131.341	-124.404	-0.283	0.043
-130.326	800.000	-0.093	-0.262
-129.312	-200.000	-0.015	-0.182
-128.297	-14.623	0.136	-0.086
-127.283	800.000	-0.087	-0.279
-126.268	-35.303	-0.124	-0.066
-125.253	-190.019	-0.219	-0.002
-124.239	-1.195	-0.166	-0.115
-123.224	196.917	-0.072	-0.107
-122.210	696.185	0.042	0.109
-121.195	-63.565	0.220	-0.089
