DTS Sentinel unit serial number:	SN413079Multiplexer serial number:	ORYXHardware model number:	OX4-SRSoftware version number:	ORYX F/W v4.00 Oryx Data Collector v3.7.2.0data status	okinstallation	princeton_trtdifferential loss correction	single-endedforward channel	channel 4reverse channel	N/Adate	2019/09/12time	17:07:10forward acquisition time	60.00reverse acquisition time	0.00gamma	496.2192k internal	0.2306k external	0.2306temperature offset calibration	1.0127default loss term (dB/km)	0.3790temperature slope calibration	1.0000multiplexer offset coefficient	1.0000multiplexer slope coefficient	1.0000fibre end	0.00T internal ref (°C)	35.44T ext. ref 1 (°C)	2.78T ext. ref 2 (°C)	28.81length (m)	temperature (°C)	Stokes	anti-Stokes-747.200	-200.000	0.019	-0.333
-746.185	181.586	-0.185	0.276
-745.171	-113.671	-0.251	-0.050
-744.156	768.443	0.079	0.219
-743.142	-163.109	-0.211	-0.010
-742.127	800.000	0.053	0.160
-741.112	-86.741	-0.059	0.018
-740.098	376.023	0.102	-0.213
-739.083	230.800	-0.089	0.149
-738.069	72.091	-0.265	0.281
-737.054	-79.830	-0.093	0.032
-736.039	-73.910	-0.207	0.076
-735.025	92.062	0.130	0.149
-734.010	-200.000	-0.073	-0.399
-732.996	-53.576	0.087	-0.041
-731.981	25.125	0.139	0.118
-730.966	127.927	0.029	-0.037
-729.952	165.445	0.160	-0.230
-728.937	-20.876	-0.084	-0.053
-727.923	-200.000	-0.034	-0.209
-726.908	-14.107	-0.208	-0.137
-725.894	156.593	0.136	0.191
-724.879	800.000	-0.042	-0.159
-723.864	305.705	-0.121	-0.229
-722.850	32.886	0.138	-0.122
-721.835	-47.548	-0.119	-0.059
-720.821	-200.000	-0.053	-0.408
-719.806	-46.500	-0.131	0.065
-718.791	4.045	0.340	-0.252
-717.777	506.771	0.149	-0.351
-716.762	727.882	0.024	-0.066
-715.748	-200.000	-0.035	-0.162
-714.733	85.586	-0.108	0.121
-713.718	-67.025	0.100	-0.040
-712.704	97.761	-0.128	0.149
-711.689	396.715	0.042	0.088
-710.675	-200.000	-0.024	0.221
-709.660	-13.492	-0.092	0.061
-708.645	534.567	-0.027	-0.064
-707.631	135.506	-0.255	0.337
-706.616	357.462	0.147	0.297
-705.602	-46.907	-0.215	0.107
-704.587	800.000	0.071	0.251
-703.572	800.000	-0.105	0.350
-702.558	376.131	0.046	-0.095
-701.543	-134.763	0.328	0.040
-700.529	131.899	0.146	0.191
-699.514	-106.381	-0.248	-0.056
-698.499	293.110	0.105	-0.195
-697.485	-200.000	0.004	-0.221
-696.470	-157.269	-0.297	0.018
-695.456	-65.931	-0.450	-0.183
-694.441	-94.082	0.266	-0.074
-693.426	800.000	-0.031	0.118
-692.412	294.326	0.048	0.090
-691.397	-200.000	-0.045	-0.412
-690.383	-8.272	-0.397	-0.271
-689.368	723.024	-0.125	-0.337
-688.354	800.000	0.109	-0.378
-687.339	397.786	-0.070	-0.148
-686.324	-1.172	-0.165	0.118
-685.310	371.883	0.187	0.386
-684.295	223.042	-0.183	-0.299
-683.281	484.056	0.109	-0.251
-682.266	-1.874	0.070	0.050
-681.251	-14.349	-0.198	-0.130
-680.237	717.581	-0.148	0.398
-679.222	-143.198	-0.093	-0.009
-678.208	-68.983	-0.259	-0.101
-677.193	800.000	0.069	0.213
-676.178	-32.961	0.224	-0.126
-675.164	800.000	-0.070	0.295
-674.149	17.780	0.269	0.217
-673.135	-200.000	-0.012	-0.458
-672.120	-90.295	-0.163	0.048
-671.105	108.644	-0.043	-0.052
-670.091	-54.514	0.164	-0.076
-669.076	-61.938	-0.143	-0.061
-668.062	-200.000	0.021	0.152
-667.047	-200.000	-0.018	0.093
-666.032	141.604	0.221	0.297
-665.018	-135.583	-0.242	0.029
-664.003	-56.645	-0.240	-0.108
-662.989	71.087	-0.280	-0.294
-661.974	-28.871	-0.323	0.188
-660.959	-113.611	0.196	0.039
-659.945	800.000	0.070	0.242
-658.930	100.316	0.114	-0.134
-657.916	80.705	-0.150	0.164
-656.901	-100.937	-0.181	0.045
-655.886	-138.415	-0.169	-0.019
-654.872	-86.652	0.257	0.080
-653.857	-155.403	-0.417	-0.027
-652.843	150.467	0.163	0.224
-651.828	-200.000	-0.025	0.195
-650.814	80.824	0.183	-0.200
-649.799	-200.000	-0.013	-0.092
-648.784	58.887	0.221	0.221
-647.770	-130.861	0.424	-0.058
-646.755	-190.247	-0.256	-0.003
-645.741	625.950	0.044	0.114
-644.726	-147.933	0.166	0.014
-643.711	393.199	0.087	0.184
-642.697	4.801	-0.116	0.086
-641.682	20.950	-0.204	0.168
-640.668	800.000	0.034	-0.103
-639.653	62.968	-0.287	-0.291
-638.638	514.300	0.168	-0.398
-637.624	-200.000	0.011	0.102
-636.609	166.675	0.254	0.365
-635.595	-200.000	0.049	0.272
-634.580	63.171	-0.049	0.050
-633.565	800.000	-0.069	-0.280
-632.551	-85.038	-0.225	-0.071
-631.536	83.400	-0.118	0.130
-630.522	3.555	-0.113	0.084
-629.507	3.536	0.209	0.154
-628.492	-188.488	0.196	0.002
-627.478	-140.341	-0.136	-0.014
-626.463	26.574	-0.206	0.174
-625.449	-115.973	-0.290	0.055
-624.434	-200.000	0.007	-0.138
-623.419	-70.558	0.155	-0.060
-622.405	25.826	-0.235	0.198
-621.390	800.000	0.143	-0.536
-620.376	285.990	-0.177	-0.323
-619.361	367.136	-0.192	-0.392
-618.346	98.591	0.153	-0.179
-617.332	11.811	0.223	0.174
-616.317	12.610	-0.156	0.122
-615.303	-2.328	0.125	-0.088
-614.288	-200.000	0.007	-0.285
-613.273	800.000	0.010	0.043
-612.259	800.000	0.015	-0.068
-611.244	105.882	0.211	0.253
-610.230	-200.000	-0.011	-0.106
-609.215	-200.000	0.000	-0.417
-608.201	118.962	-0.223	0.279
-607.186	800.000	-0.081	-0.256
-606.171	-62.799	0.289	-0.121
-605.157	417.074	-0.071	0.153
-604.142	506.363	0.054	-0.128
-603.128	-184.796	-0.398	0.006
-602.113	221.234	-0.215	0.350
-601.098	-105.966	-0.232	0.053
-600.084	61.256	0.121	-0.121
-599.069	-91.101	-0.150	-0.044
-598.055	800.000	-0.093	-0.366
-597.040	-200.000	-0.099	-0.498
-596.025	44.025	-0.183	0.170
-595.011	-50.226	0.124	0.059
-593.996	-136.855	-0.108	0.013
-592.982	-200.000	0.007	-0.076
-591.967	-148.906	-0.060	-0.005
-590.952	69.412	-0.096	-0.100
-589.938	-200.000	-0.015	0.200
-588.923	800.000	-0.074	-0.315
-587.909	-200.000	-0.016	-0.202
-586.894	185.489	-0.195	0.293
-585.879	438.787	-0.161	-0.355
-584.865	21.721	0.278	-0.229
-583.850	19.153	-0.232	0.188
-582.836	37.871	-0.144	0.130
-581.821	800.000	-0.050	-0.149
-580.806	-183.694	0.209	0.004
-579.792	-137.723	0.209	0.024
-578.777	-65.249	-0.096	-0.039
-577.763	-65.685	0.242	-0.098
-576.748	-200.000	0.030	-0.141
-575.733	-121.371	-0.178	0.030
-574.719	100.952	-0.203	-0.239
-573.704	800.000	-0.037	-0.115
-572.690	669.516	0.076	0.198
-571.675	-36.339	-0.174	0.095
-570.661	800.000	-0.028	-0.081
-569.646	-90.740	-0.331	-0.096
-568.631	800.000	0.041	-0.177
-567.617	-13.107	0.021	0.014
-566.602	-200.000	-0.007	0.148
-565.588	-110.767	-0.126	0.026
-564.573	99.854	-0.295	0.346
-563.558	-82.359	-0.188	0.062
-562.544	-200.000	-0.007	-0.040
-561.529	-32.035	0.215	-0.122
-560.515	-200.000	0.003	0.148
-559.500	-47.916	-0.107	-0.052
-558.485	327.043	-0.084	0.162
-557.471	-104.707	-0.146	-0.034
-556.456	-148.796	0.304	-0.025
-555.442	800.000	-0.028	-0.091
-554.427	-200.000	0.027	-0.287
-553.412	-108.844	0.148	0.032
-552.398	3.755	-0.103	0.076
-551.383	40.889	0.110	-0.100
-550.369	-200.000	-0.005	0.190
-549.354	-200.000	-0.021	-0.110
-548.339	-200.000	-0.013	0.133
-547.325	-96.251	0.198	-0.053
-546.310	-108.046	-0.336	0.074
-545.296	-145.859	-0.148	-0.013
-544.281	2.884	-0.062	0.045
-543.266	-75.429	0.184	-0.066
-542.252	-173.520	-0.192	0.006
-541.237	186.428	0.171	0.257
-540.223	-200.000	0.061	-0.379
-539.208	34.640	-0.044	0.039
-538.193	-63.354	-0.293	0.122
-537.179	800.000	-0.063	0.230
-536.164	152.382	-0.061	0.084
-535.150	127.973	-0.102	-0.131
-534.135	406.532	0.085	-0.180
-533.121	131.722	0.099	-0.128
-532.106	231.498	-0.066	0.109
-531.091	209.748	0.146	0.230
-530.077	57.466	-0.056	-0.056
-529.062	229.282	0.208	-0.342
-528.048	652.682	0.075	-0.194
-527.033	800.000	-0.024	-0.089
-526.018	680.943	0.052	-0.136
-525.004	-77.952	-0.450	0.156
-523.989	59.235	0.169	-0.168
-522.975	168.122	0.244	0.350
-521.960	-189.053	0.193	-0.002
-520.945	-82.889	0.216	0.070
-519.931	-157.630	0.114	0.007
-518.916	108.474	0.153	-0.184
-517.902	800.000	0.088	-0.249
-516.887	-200.000	0.012	-0.160
-515.872	14.255	0.326	0.256
-514.858	-5.217	-0.152	0.105
-513.843	42.384	-0.069	0.063
-512.829	19.194	-0.235	-0.190
-511.814	-114.078	0.123	-0.024
-510.799	-43.068	-0.139	0.071
-509.785	346.384	0.048	-0.096
-508.770	-200.000	-0.036	0.314
-507.756	-128.122	0.388	-0.056
-506.741	-200.000	0.033	-0.321
-505.726	-67.851	-0.245	0.096
-504.712	-25.903	0.208	0.123
-503.697	-26.285	0.150	-0.088
-502.683	358.693	0.111	-0.223
-501.668	101.280	-0.095	-0.112
-500.653	147.835	-0.085	-0.115
-499.639	347.836	-0.121	-0.240
-498.624	-154.413	-0.127	0.009
-497.610	3.231	0.167	-0.122
-496.595	578.531	-0.081	-0.199
-495.581	471.940	-0.033	0.074
-494.566	-89.991	-0.159	-0.047
-493.551	325.505	-0.071	0.137
-492.537	-130.635	-0.420	0.057
-491.522	30.720	0.119	0.102
-490.508	536.321	0.089	0.213
-489.493	-7.622	0.324	-0.221
-488.478	-200.000	-0.000	0.079
-487.464	121.965	-0.095	-0.119
-486.449	-200.000	-0.025	-0.117
-485.435	47.394	0.147	-0.138
-484.420	463.914	0.176	0.396
-483.405	-47.437	0.287	-0.141
-482.391	-200.000	0.003	0.064
-481.376	63.242	0.155	0.157
-480.362	13.670	0.190	0.149
-479.347	800.000	-0.067	-0.204
-478.332	48.267	-0.189	0.178
-477.318	-157.894	0.116	-0.007
-476.303	17.317	0.043	0.034
-475.289	78.308	-0.088	-0.095
-474.274	-48.635	0.236	0.114
-473.259	139.808	-0.167	0.221
-472.245	-131.300	-0.277	0.037
-471.230	-200.000	0.050	-0.233
-470.216	-49.394	-0.205	-0.098
-469.201	800.000	-0.079	-0.230
-468.186	410.624	0.137	-0.292
-467.172	-6.581	-0.109	0.075
-466.157	-111.900	-0.296	-0.060
-465.143	119.007	-0.074	0.092
-464.128	-113.062	0.484	-0.096
-463.113	-200.000	0.005	0.261
-462.099	-112.267	0.263	-0.053
-461.084	-200.000	0.075	0.340
-460.070	-35.123	-0.199	-0.109
-459.055	-160.642	-0.215	-0.012
-458.040	35.446	0.367	-0.324
-457.026	-58.672	0.280	-0.122
-456.011	-200.000	-0.010	-0.149
-454.997	-31.271	0.191	-0.108
-453.982	-41.580	0.105	0.055
-452.968	800.000	0.069	-0.231
-451.953	103.833	-0.088	0.104
-450.938	70.252	0.168	-0.175
-449.924	347.095	0.093	0.184
-448.909	271.342	-0.126	-0.223
-447.895	-162.326	0.257	0.013
-446.880	-200.000	0.009	0.169
-445.865	-200.000	0.066	0.338
-444.851	10.769	-0.132	0.101
-443.836	-125.135	-0.205	0.032
-442.822	-200.000	0.003	0.127
-441.807	-157.952	0.279	0.017
-440.792	800.000	0.110	-0.398
-439.778	-200.000	-0.031	-0.440
-438.763	718.430	-0.070	-0.186
-437.749	256.458	-0.105	-0.181
-436.734	-75.343	-0.242	-0.087
-435.719	323.436	0.103	0.197
-434.705	-200.000	0.067	0.322
-433.690	192.920	0.169	-0.256
-432.676	-76.731	-0.295	-0.104
-431.661	186.163	0.266	-0.398
-430.646	165.973	0.070	0.100
-429.632	-138.510	-0.149	-0.016
-428.617	-41.695	-0.266	0.137
-427.603	35.365	0.221	-0.195
-426.588	50.432	-0.158	-0.150
-425.573	-200.000	0.003	-0.244
-424.559	0.831	-0.030	-0.022
-423.544	-3.019	-0.058	-0.041
-422.530	42.593	-0.155	-0.142
-421.515	-131.564	0.207	-0.027
-420.500	-15.642	-0.176	-0.113
-419.486	76.990	0.133	-0.142
-418.471	259.873	0.173	0.301
-417.457	800.000	0.147	0.421
-416.442	-84.174	-0.398	0.127
-415.428	-133.799	0.114	-0.014
-414.413	-103.390	-0.142	-0.034
-413.398	212.744	-0.182	0.288
-412.384	800.000	-0.061	0.215
-411.369	-200.000	0.010	0.555
-410.355	9.987	0.171	-0.130
-409.340	-167.295	0.240	0.010
-408.325	44.596	0.140	-0.129
-407.311	104.374	-0.215	-0.254
-406.296	-12.366	0.151	0.099
-405.282	154.146	-0.211	0.291
-404.267	133.149	-0.278	-0.361
-403.252	46.873	0.065	0.061
-402.238	362.770	-0.094	0.189
-401.223	-56.076	-0.374	0.167
-400.209	-40.792	-0.129	-0.067
-399.194	15.126	0.238	-0.187
-398.179	-100.228	0.161	0.040
-397.165	-200.000	-0.003	0.052
-396.150	-131.268	0.321	0.043
-395.136	66.345	0.141	0.144
-394.121	-142.039	0.286	-0.029
-393.106	-106.678	-0.259	-0.058
-392.092	58.302	0.246	-0.242
-391.077	-80.185	0.284	0.095
-390.063	-200.000	-0.002	0.059
-389.048	-23.640	-0.227	-0.136
-388.033	-21.649	-0.186	0.113
-387.019	-60.513	-0.343	0.146
-386.004	-122.933	-0.169	-0.027
-384.990	-62.958	0.144	0.060
-383.975	-200.000	-0.020	0.154
-382.960	800.000	-0.083	0.264
-381.946	117.202	0.241	0.297
-380.931	121.230	0.218	-0.272
-379.917	38.000	0.262	-0.233
-378.902	-55.361	-0.076	0.034
-377.888	129.871	-0.121	-0.155
-376.873	37.174	0.053	-0.047
-375.858	-89.740	-0.277	0.081
-374.844	-71.037	-0.492	-0.185
-373.829	-200.000	0.021	-0.348
-372.815	-10.720	0.363	-0.241
-371.800	-10.735	-0.112	-0.075
-370.785	-43.792	0.266	0.134
-369.771	-143.000	-0.120	-0.012
-368.756	-60.286	0.241	0.103
-367.742	-109.337	0.261	-0.055
-366.727	483.248	-0.181	-0.413
-365.712	-200.000	0.079	0.000
-364.698	82.635	0.059	0.065
-363.683	800.000	0.026	-0.109
-362.669	-53.371	0.130	-0.060
-361.654	-20.445	0.278	0.171
-360.639	-46.011	-0.027	-0.013
-359.625	800.000	0.029	-0.124
-358.610	516.235	0.076	0.177
-357.596	-156.569	-0.089	0.006
-356.581	7.715	-0.294	0.220
-355.566	-24.554	-0.011	-0.006
-354.552	-26.702	-0.089	-0.052
-353.537	800.000	0.053	0.170
-352.523	-200.000	-0.035	0.204
-351.508	222.788	0.064	0.104
-350.493	-108.545	0.364	-0.078
-349.479	93.501	-0.164	0.186
-348.464	-200.000	-0.046	-0.288
-347.450	-149.911	-0.046	0.004
-346.435	383.559	-0.112	0.230
-345.420	-200.000	-0.011	-0.056
-344.406	-200.000	0.010	0.062
-343.391	-200.000	-0.019	0.512
-342.377	-171.494	0.212	0.007
-341.362	-200.000	0.079	0.403
-340.348	800.000	0.021	0.072
-339.333	-78.319	-0.139	-0.048
-338.318	37.261	-0.083	0.073
-337.304	-95.747	-0.199	0.053
-336.289	-200.000	-0.002	-0.318
-335.275	-61.172	-0.145	-0.061
-334.260	13.692	0.153	0.119
-333.245	457.977	-0.078	-0.173
-332.231	200.437	0.091	0.140
-331.216	-200.000	-0.063	-0.336
-330.202	90.455	-0.061	-0.068
-329.187	13.834	0.281	-0.219
-328.172	-70.209	-0.201	-0.077
-327.158	-120.400	-0.130	-0.022
-326.143	251.179	-0.038	-0.065
-325.129	-200.000	0.026	0.221
-324.114	-200.000	0.036	0.177
-323.099	-200.000	-0.034	0.299
-322.085	249.715	-0.150	0.254
-321.070	-119.464	0.123	-0.021
-320.056	-200.000	0.000	-0.173
-319.041	563.252	0.007	-0.016
-318.026	-200.000	0.021	-0.302
-317.012	799.072	-0.166	-0.457
-315.997	-137.942	0.162	-0.018
-314.983	-200.000	0.016	0.366
-313.968	-109.994	0.470	-0.098
-312.953	-142.280	0.397	-0.039
-311.939	-85.491	0.172	-0.054
-310.924	85.782	0.195	-0.214
-309.910	-26.693	-0.241	0.141
-308.895	-52.081	-0.188	0.087
-307.880	-170.249	-0.070	0.002
-306.866	-18.612	0.111	-0.069
-305.851	-108.066	-0.307	0.067
-304.837	-37.196	-0.064	0.034
-303.822	-13.982	-0.074	0.048
-302.807	-78.027	0.273	0.094
-301.793	70.281	0.183	0.189
-300.778	247.764	-0.062	-0.104
-299.764	-200.000	0.040	-0.271
-298.749	221.831	-0.062	-0.099
-297.735	-123.192	0.120	0.019
-296.720	-139.781	0.291	0.031
-295.705	-51.998	-0.338	-0.157
-294.691	-49.185	-0.299	0.143
-293.676	-18.856	0.323	-0.201
-292.662	601.962	0.115	-0.286
-291.647	-37.048	0.194	-0.104
-290.632	-171.709	-0.368	-0.012
-289.618	-200.000	0.012	0.138
-288.603	-148.539	0.257	0.021
-287.589	590.853	0.042	0.104
-286.574	693.813	-0.126	0.330
-285.559	-44.783	-0.101	-0.050
-284.545	44.659	0.092	0.084
-283.530	-53.077	0.114	-0.052
-282.516	-81.642	0.117	-0.038
-281.501	-65.129	0.377	-0.152
-280.486	-200.000	-0.018	0.289
-279.472	115.672	-0.183	-0.224
-278.457	-101.600	-0.101	0.025
-277.443	474.673	-0.037	0.083
-276.428	61.851	0.206	-0.205
-275.413	-125.266	0.234	-0.036
-274.399	-13.252	0.115	-0.074
-273.384	-141.799	-0.374	-0.037
-272.370	41.268	-0.240	0.216
-271.355	460.411	-0.244	0.544
-270.340	200.889	0.135	0.207
-269.326	14.038	-0.228	-0.177
-268.311	800.000	0.053	-0.222
-267.297	-26.374	0.131	0.077
-266.282	-57.984	-0.201	0.087
-265.267	99.848	0.199	-0.230
-264.253	366.173	-0.013	-0.026
-263.238	685.982	-0.063	0.165
-262.224	-200.000	-0.032	0.263
-261.209	-152.221	-0.253	-0.018
-260.195	-11.579	0.086	0.057
-259.180	-84.991	-0.203	-0.064
-258.165	298.144	0.034	0.063
-257.151	-77.864	-0.322	-0.111
-256.136	185.673	-0.267	0.397
-255.122	-158.188	-0.224	-0.013
-254.107	698.530	-0.107	0.280
-253.092	800.000	-0.053	0.198
-252.078	121.561	0.156	-0.194
-251.063	800.000	0.041	0.136
-250.049	287.500	0.144	0.260
-249.034	461.223	0.031	0.068
-248.019	11.880	-0.096	-0.074
-247.005	-64.339	-0.242	0.098
-245.990	-2.368	-0.370	0.259
-244.976	290.200	-0.113	0.205
-243.961	-200.000	-0.011	0.241
-242.946	32.081	-0.174	0.149
-241.932	-200.000	-0.002	0.363
-240.917	800.000	-0.026	0.103
-239.903	800.000	0.064	-0.261
-238.888	-200.000	0.066	0.324
-237.873	-27.728	-0.273	-0.158
-236.859	-200.000	0.006	0.102
-235.844	98.662	0.144	0.165
-234.830	-200.000	-0.024	-0.285
-233.815	-73.897	0.127	0.046
-232.800	43.328	0.239	-0.218
-231.786	-57.002	0.112	0.049
-230.771	34.688	0.334	-0.291
-229.757	800.000	-0.029	-0.113
-228.742	332.334	-0.132	0.253
-227.727	365.163	-0.101	-0.204
-226.713	356.293	-0.265	0.526
-225.698	-20.812	-0.250	-0.153
-224.684	167.945	0.124	-0.176
-223.669	-36.118	0.153	0.082
-222.655	-200.000	0.000	-0.219
-221.640	118.783	0.011	0.013
-220.625	33.891	0.169	-0.146
-219.611	-200.000	-0.016	0.114
-218.596	725.829	0.024	0.064
-217.582	-43.847	0.380	-0.191
-216.567	307.294	-0.120	-0.224
-215.552	-200.000	-0.041	-0.326
-214.538	-56.322	0.157	-0.070
-213.523	-200.000	-0.008	0.080
-212.509	405.490	-0.012	0.025
-211.494	231.354	-0.152	-0.248
-210.479	721.939	0.085	-0.226
-209.465	-200.000	0.028	0.188
-208.450	-200.000	-0.027	0.142
-207.436	-45.220	0.145	0.072
-206.421	-2.829	-0.289	-0.201
-205.406	390.250	0.162	0.335
-204.392	-200.000	0.011	-0.067
-203.377	-165.072	-0.110	-0.005
-202.363	-130.826	-0.093	0.012
-201.348	200.442	-0.190	-0.290
-200.333	-200.000	-0.025	0.150
-199.319	439.368	-0.045	0.097
-198.304	206.539	0.137	0.213
-197.290	-26.253	-0.097	0.057
-196.275	-110.287	0.201	-0.042
-195.260	-23.334	0.249	-0.149
-194.246	110.024	0.135	0.161
-193.231	800.000	0.036	0.124
-192.217	60.178	-0.294	0.289
-191.202	-128.146	0.165	-0.024
-190.187	-200.000	0.048	0.262
-189.173	217.731	-0.105	0.167
-188.158	5.299	-0.182	-0.134
-187.144	-200.000	-0.020	0.264
-186.129	42.797	-0.102	0.092
-185.114	164.235	0.071	0.100
-184.100	229.085	-0.067	-0.109
-183.085	304.438	0.074	0.136
-182.071	758.909	0.138	0.372
-181.056	333.340	-0.035	-0.067
-180.042	-200.000	-0.004	0.074
-179.027	-200.000	-0.006	0.190
-178.012	0.817	-0.231	0.165
-176.998	-72.727	0.061	0.022
-175.983	-134.939	-0.334	-0.040
-174.969	141.075	-0.171	0.224
-173.954	-107.628	0.194	0.042
-172.939	-200.000	0.002	0.069
-171.925	-106.055	-0.158	0.035
-170.910	-200.000	-0.002	0.124
-169.896	152.087	0.123	0.167
-168.881	-14.207	0.199	0.128
-167.866	-117.806	0.082	-0.015
-166.852	800.000	-0.120	-0.466
-165.837	-58.834	0.094	0.041
-164.823	800.000	-0.005	0.017
-163.808	-49.541	0.073	0.034
-162.793	-13.152	0.388	0.251
-161.779	-200.000	-0.020	-0.100
-160.764	-110.358	-0.085	0.018
-159.750	241.810	0.172	-0.286
-158.735	-200.000	-0.063	0.284
-157.720	-71.313	0.277	-0.103
-156.706	458.650	-0.117	-0.260
-155.691	-105.594	0.298	0.067
-154.677	-200.000	-0.003	0.130
-153.662	-200.000	-0.038	-0.283
-152.647	269.149	0.091	-0.158
-151.633	185.492	0.174	0.257
-150.618	765.485	0.037	0.099
-149.604	-200.000	0.077	0.403
-148.589	667.488	0.049	-0.126
-147.574	800.000	-0.107	-0.304
-146.560	-200.000	-0.018	0.325
-145.545	309.417	-0.049	-0.091
-144.531	-163.006	-0.095	-0.005
-143.516	800.000	-0.045	-0.180
-142.502	-107.383	0.276	-0.060
-141.487	-100.220	-0.274	-0.068
-140.472	32.209	0.373	0.320
-139.458	171.992	0.082	-0.117
-138.443	29.847	-0.103	-0.087
-137.429	429.374	-0.058	0.125
-136.414	116.622	-0.139	0.169
-135.399	380.869	0.109	-0.221
-134.385	-200.000	-0.064	-0.429
-133.370	490.333	-0.107	-0.242
-132.356	209.170	0.142	0.221
-131.341	207.644	-0.232	0.359
-130.326	208.823	-0.120	0.187
-129.312	-200.000	0.017	0.118
-128.297	-105.815	0.375	-0.084
-127.283	800.000	0.054	-0.230
-126.268	-200.000	-0.035	0.182
-125.253	-200.000	-0.009	-0.223
-124.239	-128.014	-0.275	-0.039
-123.224	-179.046	-0.055	-0.001
-122.210	483.989	-0.097	0.218
