DTS Sentinel unit serial number:	SN413079Multiplexer serial number:	ORYXHardware model number:	OX4-SRSoftware version number:	ORYX F/W v4.00 Oryx Data Collector v3.7.2.0data status	okinstallation	princeton_trtdifferential loss correction	single-endedforward channel	channel 4reverse channel	N/Adate	2019/09/18time	18:05:34forward acquisition time	60.00reverse acquisition time	0.00gamma	496.2192k internal	0.2292k external	0.2292temperature offset calibration	1.0019default loss term (dB/km)	0.3790temperature slope calibration	1.0000multiplexer offset coefficient	1.0000multiplexer slope coefficient	1.0000fibre end	0.00T internal ref (°C)	39.36T ext. ref 1 (°C)	0.93T ext. ref 2 (°C)	31.90length (m)	temperature (°C)	Stokes	anti-Stokes-747.200	42.771	0.295	0.275
-746.185	3.606	-0.336	0.251
-745.171	-115.660	0.148	-0.028
-744.156	243.941	0.066	0.113
-743.142	-200.000	-0.004	0.159
-742.127	-200.000	-0.002	0.143
-741.112	-52.650	-0.185	-0.087
-740.098	800.000	-0.139	0.449
-739.083	-6.537	0.186	0.130
-738.069	-200.000	-0.035	0.382
-737.054	295.403	-0.169	-0.317
-736.039	-200.000	0.003	-0.240
-735.025	800.000	-0.033	-0.135
-734.010	-200.000	0.023	-0.242
-732.996	572.631	-0.076	-0.188
-731.981	676.211	0.103	0.273
-730.966	290.041	0.026	0.048
-729.952	-200.000	0.000	-0.160
-728.937	-88.475	-0.183	-0.056
-727.923	-200.000	-0.110	-0.000
-726.908	15.118	-0.047	0.038
-725.894	50.871	0.131	0.127
-724.879	-81.857	-0.255	0.085
-723.864	71.519	-0.272	-0.289
-722.850	139.188	-0.179	-0.240
-721.835	9.635	-0.187	0.145
-720.821	220.114	0.111	-0.182
-719.806	-200.000	-0.036	-0.280
-718.791	-15.390	-0.187	0.122
-717.777	-9.943	-0.298	-0.203
-716.762	-142.818	-0.154	-0.015
-715.748	-38.867	0.032	-0.017
-714.733	359.248	-0.113	-0.230
-713.718	800.000	0.088	-0.275
-712.704	22.115	0.142	-0.119
-711.689	214.037	-0.143	0.231
-710.675	-100.333	0.207	-0.052
-709.660	-2.831	0.109	0.078
-708.645	59.720	0.040	0.041
-707.631	-200.000	0.001	0.047
-706.616	5.637	-0.119	-0.090
-705.602	618.901	-0.137	-0.352
-704.587	-63.158	-0.323	-0.136
-703.572	160.887	0.069	-0.099
-702.558	486.342	0.020	0.047
-701.543	-81.457	-0.392	-0.132
-700.529	84.299	0.161	-0.180
-699.514	-1.656	-0.011	0.008
-698.499	-200.000	0.003	0.388
-697.485	296.837	-0.116	-0.217
-696.470	-13.615	-0.172	0.114
-695.456	-88.639	0.038	-0.011
-694.441	-65.275	-0.293	-0.121
-693.426	-109.488	0.199	-0.043
-692.412	-70.029	0.225	-0.087
-691.397	128.374	-0.086	0.112
-690.383	-37.818	-0.288	0.156
-689.368	-119.526	-0.132	0.023
-688.354	-92.923	-0.170	-0.048
-687.339	-85.043	-0.202	0.065
-686.324	363.346	0.026	0.052
-685.310	-10.755	0.060	-0.041
-684.295	225.942	-0.134	0.221
-683.281	-22.920	-0.206	-0.127
-682.266	310.302	-0.021	0.040
-681.251	432.647	0.014	-0.031
-680.237	245.245	-0.178	-0.306
-679.222	-200.000	-0.007	0.045
-678.208	-200.000	-0.018	-0.189
-677.193	-200.000	0.059	-0.309
-676.178	77.062	-0.132	0.143
-675.164	604.800	-0.054	0.137
-674.149	59.147	-0.367	0.368
-673.135	227.658	0.082	-0.137
-672.120	-13.631	0.148	0.098
-671.105	-33.830	0.189	0.106
-670.091	252.025	-0.118	-0.205
-669.076	137.661	0.047	-0.062
-668.062	-200.000	0.007	-0.238
-667.047	-200.000	0.000	-0.392
-666.032	-200.000	-0.063	-0.344
-665.018	-40.326	-0.307	0.163
-664.003	778.944	0.090	-0.251
-662.989	-200.000	0.008	-0.119
-661.974	4.339	-0.130	-0.097
-660.959	11.537	0.181	-0.142
-659.945	128.411	-0.049	-0.064
-658.930	39.031	-0.048	0.044
-657.916	-5.054	-0.166	-0.116
-656.901	-200.000	-0.002	-0.176
-655.886	-200.000	0.031	-0.185
-654.872	564.544	0.087	-0.215
-653.857	-152.458	0.115	0.008
-652.843	800.000	0.062	0.190
-651.828	-75.365	-0.079	0.029
-650.814	231.563	-0.125	-0.208
-649.799	-200.000	-0.054	-0.290
-648.784	216.194	0.088	0.142
-647.770	800.000	0.080	0.298
-646.755	36.230	-0.265	0.238
-645.741	189.087	-0.099	0.151
-644.726	77.340	-0.223	-0.241
-643.711	549.884	-0.070	-0.170
-642.697	612.231	-0.102	-0.261
-641.682	800.000	-0.090	0.366
-640.668	252.727	0.213	-0.370
-639.653	-188.310	0.234	-0.003
-638.638	800.000	0.038	-0.123
-637.624	-37.223	-0.163	-0.089
-636.609	393.478	0.064	-0.136
-635.595	49.196	-0.219	-0.210
-634.580	397.302	0.199	0.423
-633.565	-65.077	-0.157	-0.065
-632.551	12.101	-0.215	-0.168
-631.536	123.465	0.147	-0.188
-630.522	-7.897	0.131	0.090
-629.507	800.000	0.064	-0.262
-628.492	265.151	0.232	-0.412
-627.478	-13.689	0.106	0.070
-626.463	-60.018	0.212	0.092
-625.449	-164.453	-0.116	-0.005
-624.434	-133.504	-0.397	0.051
-623.419	255.894	0.078	-0.136
-622.405	-69.012	0.111	0.044
-621.390	685.662	0.204	-0.543
-620.376	-31.315	-0.102	0.059
-619.361	-78.849	0.322	-0.112
-618.346	-59.087	0.212	0.093
-617.332	17.085	-0.333	0.269
-616.317	-200.000	-0.059	-0.284
-615.303	55.275	-0.216	-0.213
-614.288	-200.000	0.047	0.217
-613.273	693.101	0.124	-0.332
-612.259	-31.962	-0.156	-0.089
-611.244	363.192	-0.197	-0.403
-610.230	-109.289	-0.131	0.028
-609.215	800.000	0.107	0.374
-608.201	-112.281	-0.259	0.053
-607.186	-57.120	0.265	-0.119
-606.171	-165.271	-0.079	0.004
-605.157	29.359	-0.092	0.080
-604.142	132.274	-0.084	0.111
-603.128	704.683	0.063	0.170
-602.113	48.108	-0.100	0.095
-601.098	800.000	-0.057	0.179
-600.084	-33.426	-0.122	0.069
-599.069	58.261	0.284	0.284
-598.055	-159.988	0.093	0.005
-597.040	489.435	0.110	-0.256
-596.025	-174.229	0.296	-0.009
-595.011	-8.044	-0.138	-0.095
-593.996	800.000	-0.071	0.219
-592.982	-26.675	-0.040	0.024
-591.967	-138.410	0.220	0.025
-590.952	-43.014	-0.138	0.071
-589.938	-140.032	-0.123	-0.013
-588.923	-200.000	-0.048	0.227
-587.909	-200.000	-0.120	0.623
-586.894	67.301	-0.159	0.164
-585.879	-200.000	0.008	0.250
-584.865	-171.527	-0.025	0.001
-583.850	41.270	0.130	0.119
-582.836	-69.955	0.244	0.095
-581.821	800.000	-0.043	-0.123
-580.806	55.036	0.282	0.277
-579.792	800.000	-0.057	-0.243
-578.777	148.655	0.176	-0.242
-577.763	116.420	-0.204	-0.254
-576.748	800.000	0.029	-0.111
-575.733	-126.770	-0.124	-0.019
-574.719	-60.165	-0.221	0.096
-573.704	-200.000	0.056	0.270
-572.690	-52.670	0.127	-0.060
-571.675	261.663	-0.144	-0.253
-570.661	-110.020	-0.194	0.041
-569.646	-200.000	-0.016	0.164
-568.631	452.018	-0.076	-0.170
-567.617	-128.888	0.155	-0.022
-566.602	800.000	0.044	-0.178
-565.588	-159.390	0.188	-0.011
-564.573	-200.000	-0.039	-0.209
-563.558	73.569	0.260	-0.277
-562.544	-17.994	-0.005	-0.003
-561.529	800.000	-0.128	-0.417
-560.515	688.529	0.081	-0.215
-559.500	14.478	0.172	-0.136
-558.485	-200.000	-0.004	0.030
-557.471	-200.000	0.006	-0.197
-556.456	-200.000	0.007	0.097
-555.442	-117.107	0.196	-0.036
-554.427	-67.002	-0.043	-0.017
-553.412	23.640	-0.128	0.107
-552.398	-200.000	-0.035	-0.165
-551.383	79.998	0.024	-0.026
-550.369	164.423	0.068	-0.097
-549.354	-71.475	-0.406	-0.154
-548.339	135.072	-0.278	-0.367
-547.325	289.746	0.081	-0.149
-546.310	-159.904	-0.326	-0.018
-545.296	-132.374	0.075	0.010
-544.281	-200.000	-0.022	0.207
-543.266	-200.000	0.015	0.243
-542.252	800.000	-0.033	0.099
-541.237	-22.929	0.274	0.168
-540.223	39.388	-0.149	-0.136
-539.208	-69.301	-0.378	-0.147
-538.193	342.136	-0.051	-0.101
-537.179	150.378	0.069	-0.095
-536.164	-107.931	0.402	0.089
-535.150	55.475	0.088	-0.086
-534.135	-16.508	0.242	0.156
-533.121	-137.357	-0.071	0.008
-532.106	35.800	0.238	-0.213
-531.091	-123.415	-0.573	-0.093
-530.077	-22.268	-0.060	-0.037
-529.062	381.780	0.175	-0.364
-528.048	184.212	-0.108	0.162
-527.033	344.171	-0.228	-0.453
-526.018	-97.341	0.179	0.047
-525.004	-85.766	0.203	0.064
-523.989	30.375	-0.221	-0.191
-522.975	-33.260	0.216	-0.121
-521.960	-9.816	0.143	-0.097
-520.945	43.849	0.231	0.214
-519.931	800.000	-0.040	0.123
-518.916	389.565	-0.132	-0.277
-517.902	800.000	-0.041	-0.174
-516.887	-153.425	-0.280	-0.020
-515.872	62.022	0.039	-0.039
-514.858	-86.525	-0.102	0.032
-513.843	586.854	-0.272	-0.680
-512.829	-107.588	-0.313	-0.069
-511.814	2.897	-0.304	-0.224
-510.799	800.000	-0.116	-0.329
-509.785	-200.000	0.054	-0.407
-508.770	-116.356	-0.380	0.071
-507.756	-125.048	-0.269	0.042
-506.741	-37.805	-0.076	0.041
-505.726	714.611	0.053	0.142
-504.712	-161.249	0.402	0.021
-503.697	-5.835	0.363	-0.252
-502.683	-122.686	-0.173	-0.028
-501.668	-145.017	-0.216	-0.020
-500.653	89.495	0.164	-0.186
-499.639	33.034	0.231	0.203
-498.624	-118.642	0.277	0.050
-497.610	-200.000	0.017	0.178
-496.595	96.211	0.087	-0.100
-495.581	-200.000	0.026	0.143
-494.566	-53.999	0.072	-0.033
-493.551	-200.000	0.002	0.109
-492.537	215.834	-0.029	-0.047
-491.522	-113.922	-0.238	-0.047
-490.508	-55.446	-0.141	0.064
-489.493	594.633	-0.041	0.102
-488.478	468.038	-0.097	0.220
-487.464	299.538	0.046	-0.086
-486.449	-200.000	-0.018	-0.219
-485.435	224.802	-0.063	0.104
-484.420	-200.000	0.007	-0.325
-483.405	-200.000	-0.004	0.347
-482.391	-200.000	-0.003	0.263
-481.376	11.334	-0.151	-0.117
-480.362	732.454	0.171	-0.464
-479.347	-74.093	0.299	0.110
-478.332	217.732	0.082	-0.132
-477.318	-200.000	-0.005	0.274
-476.303	-200.000	0.019	0.244
-475.289	-69.582	-0.120	0.046
-474.274	2.931	0.099	-0.073
-473.259	800.000	0.043	0.171
-472.245	-200.000	-0.008	-0.174
-471.230	149.593	0.071	-0.098
-470.216	-18.323	0.403	-0.255
-469.201	-68.542	-0.226	0.089
-468.186	56.156	-0.250	0.245
-467.172	-134.081	-0.134	-0.017
-466.157	800.000	-0.113	0.428
-465.143	-137.907	0.148	0.017
-464.128	-200.000	-0.052	-0.324
-463.113	149.449	0.175	-0.240
-462.099	553.966	-0.029	0.071
-461.084	331.190	-0.083	0.163
-460.070	-84.628	0.122	0.039
-459.055	115.254	-0.039	-0.048
-458.040	-69.456	0.266	0.103
-457.026	24.517	0.109	-0.092
-456.011	101.842	0.206	-0.243
-454.997	152.951	0.085	0.118
-453.982	104.384	-0.059	0.070
-452.968	59.900	-0.238	-0.238
-451.953	-200.000	0.046	0.000
-450.938	191.046	-0.235	-0.358
-449.924	191.331	0.161	-0.245
-448.909	36.996	-0.136	-0.122
-447.895	80.104	0.042	-0.045
-446.880	-8.307	-0.039	0.026
-445.865	800.000	-0.061	-0.182
-444.851	-58.449	0.076	0.033
-443.836	755.388	-0.086	0.236
-442.822	439.896	-0.046	-0.102
-441.807	-84.834	-0.015	0.005
-440.792	800.000	-0.020	-0.076
-439.778	-154.554	0.294	-0.020
-438.763	-200.000	0.008	0.163
-437.749	111.371	-0.115	-0.140
-436.734	-72.260	-0.084	-0.031
-435.719	800.000	-0.110	-0.358
-434.705	-62.569	0.104	0.044
-433.690	-106.134	0.142	-0.032
-432.676	169.462	-0.213	0.307
-431.661	291.251	0.075	0.138
-430.646	-73.275	0.094	0.035
-429.632	800.000	-0.007	0.028
-428.617	31.139	-0.150	-0.130
-427.603	157.479	-0.131	-0.184
-426.588	-200.000	-0.023	-0.106
-425.573	-200.000	-0.003	0.032
-424.559	-200.000	-0.035	0.272
-423.544	-200.000	0.006	0.196
-422.530	-122.759	0.349	0.057
-421.515	450.202	-0.035	-0.079
-420.500	694.043	-0.132	-0.351
-419.486	-132.801	0.163	0.021
-418.471	-200.000	0.009	0.089
-417.457	135.107	0.133	0.174
-416.442	-47.799	-0.193	0.094
-415.428	800.000	0.050	-0.167
-414.413	204.300	-0.245	0.383
-413.398	-200.000	-0.021	0.182
-412.384	-200.000	0.005	0.280
-411.369	800.000	0.037	-0.118
-410.355	194.015	-0.214	0.328
-409.340	208.443	-0.235	0.371
-408.325	-144.722	-0.362	0.034
-407.311	-76.395	0.197	-0.070
-406.296	800.000	-0.074	-0.307
-405.282	-200.000	-0.030	-0.303
-404.267	140.360	-0.265	-0.353
-403.252	-1.169	0.136	-0.097
-402.238	-59.375	-0.279	0.121
-401.223	-132.645	0.257	0.033
-400.209	800.000	0.087	0.244
-399.194	257.886	-0.085	-0.148
-398.179	-128.084	-0.260	-0.038
-397.165	199.755	0.090	0.140
-396.150	218.380	0.036	0.058
-395.136	-108.943	0.270	0.058
-394.121	339.109	0.051	-0.100
-393.106	14.762	-0.072	-0.057
-392.092	540.849	0.058	-0.140
-391.077	800.000	0.090	-0.266
-390.063	195.243	0.088	0.135
-389.048	-171.965	0.140	0.005
-388.033	102.657	-0.042	0.049
-387.019	-121.588	0.259	0.043
-386.004	383.690	-0.139	0.289
-384.990	-200.000	-0.016	0.637
-383.975	800.000	-0.044	0.189
-382.960	-23.862	0.059	-0.036
-381.946	-200.000	-0.115	0.610
-380.931	73.147	0.178	-0.187
-379.917	-107.408	-0.465	-0.103
-378.902	99.272	-0.148	0.172
-377.888	-71.230	-0.159	0.060
-376.873	176.738	0.079	0.116
-375.858	-164.437	0.347	0.016
-374.844	-94.290	-0.116	0.032
-373.829	45.663	-0.052	0.049
-372.815	-32.571	0.301	0.169
-371.800	-200.000	0.022	0.402
-370.785	-20.082	-0.090	-0.056
-369.771	-29.372	-0.024	0.014
-368.756	-200.000	-0.008	-0.081
-367.742	70.093	0.142	0.148
-366.727	119.543	-0.112	-0.140
-365.712	-44.532	0.305	-0.154
-364.698	-62.389	-0.279	-0.117
-363.683	-200.000	0.009	-0.044
-362.669	37.989	-0.081	-0.073
-361.654	-84.173	0.209	-0.067
-360.639	-65.359	0.238	-0.097
-359.625	35.178	0.342	0.302
-358.610	516.298	-0.088	-0.207
-357.596	-90.406	0.106	0.031
-356.581	-65.978	-0.122	0.049
-355.566	611.551	-0.078	0.196
-354.552	-55.792	0.263	-0.119
-353.537	137.262	-0.312	0.411
-352.523	-96.292	-0.254	0.068
-351.508	-5.256	0.156	0.108
-350.493	-17.013	0.100	0.064
-349.479	11.511	-0.073	-0.057
-348.464	-71.327	0.138	-0.052
-347.450	15.111	0.152	0.120
-346.435	103.863	-0.066	0.078
-345.420	60.290	-0.132	0.132
-344.406	-200.000	0.024	0.210
-343.391	268.325	0.064	-0.112
-342.377	-155.650	-0.140	-0.009
-341.362	-200.000	0.033	0.246
-340.348	-101.687	0.321	-0.078
-339.333	275.728	0.270	0.482
-338.318	-6.232	0.222	-0.153
-337.304	-200.000	-0.052	0.362
-336.289	-200.000	0.059	0.323
-335.275	800.000	0.106	-0.300
-334.260	560.580	-0.048	-0.116
-333.245	-1.801	-0.207	0.147
-332.231	-54.874	-0.330	-0.150
-331.216	-149.531	-0.275	0.022
-330.202	313.120	0.111	-0.211
-329.187	800.000	0.041	0.168
-328.172	80.614	0.040	-0.043
-327.158	-200.000	0.001	-0.180
-326.143	220.703	0.097	-0.156
-325.129	638.749	0.081	0.207
-324.114	-40.137	-0.165	0.087
-323.099	23.170	-0.299	0.247
-322.085	-200.000	0.016	-0.287
-321.070	157.355	-0.077	-0.107
-320.056	-26.491	-0.088	0.052
-319.041	-191.821	0.100	0.001
-318.026	146.249	0.242	0.327
-317.012	-58.530	-0.147	0.064
-315.997	-93.593	-0.065	0.018
-314.983	-114.825	0.295	0.057
-313.968	549.081	-0.180	0.434
-312.953	84.124	0.196	0.215
-311.939	-3.631	-0.122	-0.085
-310.924	-30.891	0.416	-0.236
-309.910	-200.000	-0.020	-0.180
-308.895	432.040	0.195	-0.426
-307.880	-121.518	0.191	0.032
-306.866	9.128	0.179	-0.136
-305.851	-200.000	0.014	-0.093
-304.837	-200.000	-0.008	-0.191
-303.822	105.490	0.130	-0.155
-302.807	219.241	0.157	-0.253
-301.793	-200.000	-0.009	0.254
-300.778	175.793	0.074	0.108
-299.764	-200.000	-0.068	0.304
-298.749	41.701	0.079	-0.072
-297.735	-190.453	0.245	-0.003
-296.720	-200.000	-0.033	0.300
-295.705	-192.866	-0.196	-0.002
-294.691	799.970	-0.083	0.230
-293.676	-102.816	0.108	0.026
-292.662	-135.942	0.401	-0.048
-291.647	-25.694	-0.182	-0.108
-290.632	129.748	-0.241	0.310
-289.618	114.684	-0.125	0.154
-288.603	678.047	0.079	0.208
-287.589	215.942	-0.103	-0.164
-286.574	-139.756	-0.296	0.032
-285.559	-200.000	0.005	-0.107
-284.545	219.593	0.137	-0.220
-283.530	-39.907	0.134	-0.070
-282.516	-55.843	0.264	0.118
-281.501	115.146	-0.149	0.183
-280.486	624.784	0.012	-0.031
-279.472	144.955	-0.116	0.156
-278.457	62.509	-0.177	-0.177
-277.443	800.000	0.050	0.165
-276.428	-200.000	0.009	-0.127
-275.413	-63.996	-0.124	-0.051
-274.399	80.343	-0.086	0.093
-273.384	-94.473	0.242	0.066
-272.370	800.000	-0.033	-0.118
-271.355	95.748	-0.166	0.191
-270.340	53.215	0.176	0.169
-269.326	394.903	0.018	-0.037
-268.311	800.000	0.118	-0.379
-267.297	-200.000	-0.010	-0.177
-266.282	135.443	0.064	-0.083
-265.267	800.000	0.004	0.017
-264.253	-200.000	0.001	-0.004
-263.238	227.233	0.303	0.494
-262.224	-54.134	0.198	0.090
-261.209	-200.000	0.050	-0.434
-260.195	-95.206	0.380	0.103
-259.180	-136.973	-0.197	0.023
-258.165	381.268	-0.091	0.188
-257.151	-50.544	0.141	-0.067
-256.136	-98.982	-0.258	-0.066
-255.122	-142.890	-0.400	0.039
-254.107	-200.000	0.042	0.282
-253.092	-200.000	0.036	-0.390
-252.078	-135.500	-0.124	0.015
-251.063	-1.733	0.242	-0.171
-250.049	-153.138	0.254	0.018
-249.034	-112.413	-0.153	-0.031
-248.019	405.890	-0.086	-0.182
-247.005	-102.038	0.132	0.032
-245.990	377.820	-0.044	0.091
-244.976	-200.000	0.012	-0.156
-243.961	-58.753	0.225	-0.098
-242.946	257.471	0.084	0.146
-241.932	-115.817	0.098	-0.018
-240.917	-200.000	-0.040	-0.307
-239.903	-67.700	0.281	0.110
-238.888	36.431	0.155	0.137
-237.873	6.993	-0.212	-0.159
-236.859	-48.416	-0.276	0.133
-235.844	-90.945	0.245	0.071
-234.830	-134.287	0.113	-0.014
-233.815	232.752	0.110	-0.181
-232.800	158.859	0.123	-0.171
-231.786	-75.704	-0.208	-0.074
-230.771	185.121	-0.195	0.290
-229.757	800.000	0.020	-0.082
-228.742	-200.000	-0.024	0.281
-227.727	-97.993	0.325	-0.084
-226.713	-133.374	-0.156	0.020
-225.698	-56.638	0.192	-0.085
-224.684	168.036	0.134	0.191
-223.669	113.733	0.045	-0.055
-222.655	-9.188	-0.152	0.102
-221.640	-200.000	-0.000	-0.103
-220.625	-13.379	0.105	-0.069
-219.611	35.697	0.268	-0.236
-218.596	-9.882	-0.491	0.327
-217.582	-92.738	-0.172	-0.048
-216.567	86.724	-0.270	0.299
-215.552	-127.751	0.180	-0.026
-214.538	-200.000	0.010	-0.076
-213.523	-200.000	-0.015	0.355
-212.509	800.000	-0.116	0.372
-211.494	2.142	0.108	0.078
-210.479	-77.450	-0.216	-0.075
-209.465	-133.761	-0.179	-0.022
-208.450	-82.847	0.213	0.069
-207.436	800.000	-0.015	-0.062
-206.421	800.000	0.055	-0.209
-205.406	-200.000	0.025	0.116
-204.392	-54.050	-0.163	0.074
-203.377	101.413	-0.191	-0.223
-202.363	-200.000	-0.015	-0.222
-201.348	-50.330	-0.179	-0.085
-200.333	-200.000	0.007	-0.146
-199.319	-101.891	0.213	-0.052
-198.304	-140.034	0.073	0.008
-197.290	240.034	0.069	0.114
-196.275	-200.000	0.064	0.333
-195.260	383.590	-0.066	0.137
-194.246	-159.573	0.048	-0.003
-193.231	-78.916	0.216	0.074
-192.217	49.424	-0.112	0.106
-191.202	693.274	-0.125	0.327
-190.187	530.941	0.117	-0.278
-189.173	-200.000	-0.005	-0.035
-188.158	292.564	-0.092	0.167
-187.144	14.826	0.058	-0.046
-186.129	-200.000	-0.024	0.265
-185.114	-104.820	-0.065	0.015
-184.100	147.374	-0.127	0.171
-183.085	11.683	-0.412	-0.317
-182.071	1.094	0.217	0.156
-181.056	800.000	-0.102	-0.348
-180.042	800.000	0.031	0.099
-179.027	395.058	0.091	-0.190
-178.012	-40.354	0.057	-0.030
-176.998	505.492	-0.167	-0.387
-175.983	-146.393	-0.382	-0.033
-174.969	-94.574	0.031	-0.009
-173.954	-46.170	0.337	0.166
-172.939	315.048	0.089	-0.168
-171.925	-109.938	-0.035	-0.007
-170.910	114.622	-0.107	-0.130
-169.896	800.000	-0.057	0.195
-168.881	-108.087	0.163	0.035
-167.866	227.203	-0.047	0.076
-166.852	70.132	-0.248	0.256
-165.837	-200.000	0.030	0.414
-164.823	-69.083	-0.104	0.040
-163.808	-200.000	-0.012	-0.114
-162.793	75.909	-0.164	-0.173
-161.779	390.795	0.110	0.228
-160.764	-3.487	-0.030	-0.021
-159.750	-73.331	0.226	0.083
-158.735	419.379	0.182	-0.390
-157.720	79.629	0.074	0.079
-156.706	44.096	0.278	0.255
-155.691	-65.374	-0.303	0.122
-154.677	-4.737	0.054	-0.037
-153.662	-177.481	-0.260	0.006
-152.647	-72.306	-0.177	-0.065
-151.633	449.210	-0.086	0.189
-150.618	-196.242	0.264	-0.002
-149.604	224.814	0.139	-0.225
-148.589	-84.969	-0.181	0.057
-147.574	-128.681	0.359	-0.051
-146.560	-200.000	0.019	-0.161
-145.545	-93.103	0.174	-0.048
-144.531	-79.680	0.187	0.063
-143.516	-156.764	-0.140	0.009
-142.502	-6.459	0.095	0.065
-141.487	-27.872	0.181	0.105
-140.472	39.283	0.038	0.034
-139.458	-173.073	0.164	0.005
-138.443	-200.000	-0.036	0.260
-137.429	130.283	-0.194	-0.248
-136.414	-23.991	-0.102	-0.061
-135.399	-142.382	-0.271	0.027
-134.385	-51.338	-0.157	-0.073
-133.370	524.872	-0.092	-0.217
-132.356	380.587	-0.101	0.206
-131.341	800.000	0.027	0.104
-130.326	800.000	0.061	0.206
-129.312	800.000	0.036	-0.102
-128.297	-200.000	0.048	-0.313
-127.283	800.000	0.089	-0.315
-126.268	-67.387	0.135	-0.053
-125.253	-41.408	-0.152	0.078
-124.239	-160.010	0.224	-0.012
-123.224	235.989	0.236	0.389
-122.210	73.154	-0.388	-0.405
