DTS Sentinel unit serial number:	SN413079Multiplexer serial number:	ORYXHardware model number:	OX4-SRSoftware version number:	ORYX F/W v4.00 Oryx Data Collector v3.7.2.0data status	okinstallation	princeton_trtdifferential loss correction	single-endedforward channel	channel 4reverse channel	N/Adate	2019/09/14time	20:41:35forward acquisition time	60.00reverse acquisition time	0.00gamma	496.2192k internal	0.2305k external	0.2305temperature offset calibration	1.0085default loss term (dB/km)	0.3790temperature slope calibration	1.0000multiplexer offset coefficient	1.0000multiplexer slope coefficient	1.0000fibre end	0.00T internal ref (°C)	33.37T ext. ref 1 (°C)	4.79T ext. ref 2 (°C)	28.01length (m)	temperature (°C)	Stokes	anti-Stokes-747.200	190.226	-0.109	-0.167
-746.185	-8.787	-0.152	-0.104
-745.171	-121.975	0.064	-0.011
-744.156	800.000	-0.055	0.187
-743.142	-58.395	-0.234	-0.104
-742.127	-200.000	-0.028	0.226
-741.112	18.371	0.198	-0.161
-740.098	-123.869	-0.164	0.026
-739.083	-59.685	-0.127	-0.055
-738.069	0.787	0.264	0.192
-737.054	32.802	-0.162	-0.143
-736.039	63.741	0.103	0.106
-735.025	104.613	0.094	0.113
-734.010	145.404	-0.172	-0.235
-732.996	800.000	0.053	0.176
-731.981	740.620	0.046	-0.126
-730.966	800.000	-0.103	0.320
-729.952	800.000	0.014	-0.058
-728.937	16.431	0.207	-0.166
-727.923	-35.302	0.253	0.140
-726.908	800.000	-0.024	0.102
-725.894	89.066	0.096	-0.108
-724.879	-7.113	-0.221	-0.152
-723.864	-200.000	0.011	0.130
-722.850	-136.346	-0.122	-0.014
-721.835	23.922	0.316	-0.265
-720.821	750.349	-0.122	-0.335
-719.806	-200.000	0.023	-0.270
-718.791	-73.452	-0.178	0.066
-717.777	-96.780	-0.196	0.052
-716.762	-106.227	-0.188	-0.043
-715.748	-200.000	-0.056	-0.280
-714.733	-135.663	-0.341	0.041
-713.718	-200.000	0.030	0.285
-712.704	115.948	0.181	-0.225
-711.689	800.000	-0.183	-0.729
-710.675	452.507	0.069	0.155
-709.660	800.000	0.017	-0.072
-708.645	-173.545	0.267	0.008
-707.631	269.171	-0.147	-0.262
-706.616	262.018	0.105	-0.185
-705.602	-200.000	-0.032	0.191
-704.587	-67.391	0.337	-0.134
-703.572	800.000	0.016	0.053
-702.558	-18.085	0.205	-0.130
-701.543	-54.349	0.220	0.102
-700.529	1.747	0.146	-0.107
-699.514	-200.000	0.029	-0.274
-698.499	-121.791	0.269	-0.045
-697.485	158.982	-0.090	-0.128
-696.470	-91.757	-0.292	0.084
-695.456	800.000	0.039	-0.125
-694.441	340.003	-0.069	-0.138
-693.426	-38.246	-0.123	-0.066
-692.412	174.040	-0.039	-0.057
-691.397	800.000	-0.030	0.088
-690.383	120.509	0.094	-0.119
-689.368	350.596	-0.142	0.285
-688.354	-172.315	-0.156	-0.005
-687.339	160.293	-0.154	-0.218
-686.324	-112.353	-0.237	-0.048
-685.310	768.339	-0.033	0.091
-684.295	-32.331	-0.126	-0.072
-683.281	152.566	0.108	-0.150
-682.266	-7.031	-0.177	0.122
-681.251	-115.513	-0.229	-0.044
-680.237	-137.149	-0.383	-0.044
-679.222	-161.574	-0.155	0.008
-678.208	-165.789	-0.495	0.022
-677.193	-33.935	-0.127	0.071
-676.178	800.000	-0.134	-0.538
-675.164	-160.135	0.273	0.015
-674.149	-200.000	-0.038	0.196
-673.135	20.363	-0.162	-0.133
-672.120	-153.877	0.194	0.013
-671.105	226.582	-0.021	0.035
-670.091	-33.688	-0.064	-0.036
-669.076	158.744	0.064	-0.090
-668.062	472.351	0.277	0.632
-667.047	-4.089	0.234	-0.164
-666.032	20.546	-0.142	-0.116
-665.018	21.229	0.402	0.331
-664.003	-200.000	-0.029	-0.277
-662.989	800.000	-0.179	0.520
-661.974	-127.397	-0.331	-0.049
-660.959	116.725	-0.283	0.353
-659.945	523.693	0.051	-0.120
-658.930	32.071	-0.168	-0.147
-657.916	352.757	-0.066	0.134
-656.901	-200.000	0.077	0.406
-655.886	-59.048	-0.091	-0.040
-654.872	-79.526	-0.133	0.045
-653.857	-177.317	-0.219	0.005
-652.843	800.000	-0.068	-0.253
-651.828	-175.699	-0.168	0.005
-650.814	20.491	0.089	-0.073
-649.799	-200.000	0.022	-0.130
-648.784	67.498	-0.129	-0.134
-647.770	-166.392	0.307	-0.013
-646.755	-176.467	-0.223	-0.006
-645.741	-30.036	0.173	-0.100
-644.726	-158.336	0.059	-0.003
-643.711	21.539	0.288	-0.238
-642.697	44.421	0.191	-0.178
-641.682	-114.393	-0.350	0.068
-640.668	-56.494	0.095	-0.043
-639.653	-153.604	0.170	0.012
-638.638	-200.000	-0.019	0.342
-637.624	800.000	0.040	0.147
-636.609	57.448	-0.238	-0.236
-635.595	-200.000	-0.047	-0.367
-634.580	-102.841	0.372	-0.090
-633.565	65.654	-0.110	0.113
-632.551	540.217	-0.097	-0.234
-631.536	10.479	-0.260	0.201
-630.522	-200.000	0.043	0.251
-629.507	-200.000	-0.012	-0.307
-628.492	-2.802	0.229	-0.162
-627.478	-105.744	0.092	0.021
-626.463	66.384	0.077	0.080
-625.449	-145.198	0.170	0.016
-624.434	336.811	0.073	0.143
-623.419	-85.350	0.226	-0.072
-622.405	70.086	0.193	0.202
-621.390	367.251	-0.080	-0.164
-620.376	156.114	-0.119	0.166
-619.361	-97.163	0.274	-0.072
-618.346	-13.694	0.145	-0.095
-617.332	800.000	0.092	-0.310
-616.317	218.307	-0.174	-0.282
-615.303	-142.622	0.356	-0.035
-614.288	5.471	0.200	-0.149
-613.273	-43.995	-0.232	-0.118
-612.259	-47.748	-0.119	0.059
-611.244	22.009	-0.126	0.104
-610.230	-141.169	-0.054	-0.006
-609.215	-60.670	-0.523	-0.224
-608.201	594.986	0.032	-0.080
-607.186	389.757	0.109	-0.228
-606.171	72.758	0.253	0.267
-605.157	-118.972	0.130	0.023
-604.142	800.000	0.014	0.060
-603.128	-200.000	0.021	-0.123
-602.113	8.289	0.178	0.135
-601.098	67.927	-0.049	0.050
-600.084	800.000	0.046	0.202
-599.069	-93.101	-0.034	0.010
-598.055	109.215	-0.155	0.188
-597.040	-68.507	-0.153	-0.060
-596.025	286.916	-0.059	-0.107
-595.011	226.076	0.119	0.195
-593.996	717.711	-0.084	-0.226
-592.982	138.165	-0.276	-0.367
-591.967	318.949	-0.070	0.134
-590.952	395.581	0.020	0.042
-589.938	186.404	-0.049	0.074
-588.923	-200.000	0.004	0.176
-587.909	-160.023	-0.071	0.004
-586.894	38.856	0.179	0.162
-585.879	19.366	-0.271	0.220
-584.865	-128.429	0.149	0.021
-583.850	160.171	-0.220	-0.311
-582.836	14.487	0.111	0.088
-581.821	224.940	-0.048	0.078
-580.806	179.306	0.029	0.043
-579.792	-68.457	0.058	-0.023
-578.777	-162.815	-0.102	0.005
-577.763	-158.684	-0.308	-0.018
-576.748	800.000	-0.074	-0.211
-575.733	-77.773	-0.226	-0.079
-574.719	295.734	-0.058	-0.107
-573.704	180.817	-0.196	-0.292
-572.690	-200.000	0.052	0.321
-571.675	210.348	-0.082	0.131
-570.661	115.961	0.234	0.290
-569.646	70.255	-0.228	0.238
-568.631	92.734	0.193	-0.220
-567.617	-64.458	-0.217	-0.089
-566.602	-200.000	0.001	0.024
-565.588	156.452	-0.137	0.192
-564.573	-88.640	0.117	-0.035
-563.558	-200.000	0.024	-0.118
-562.544	592.766	0.055	-0.137
-561.529	22.313	0.148	-0.122
-560.515	495.970	-0.099	-0.229
-559.500	-200.000	0.001	-0.029
-558.485	116.009	-0.216	0.268
-557.471	199.363	0.140	0.217
-556.456	-81.120	0.113	-0.038
-555.442	203.643	0.079	-0.123
-554.427	483.694	-0.077	-0.178
-553.412	1.805	-0.215	0.156
-552.398	-144.389	0.424	0.040
-551.383	174.477	-0.023	-0.034
-550.369	-54.690	0.237	0.108
-549.354	-137.727	-0.425	0.048
-548.339	135.851	-0.211	0.278
-547.325	-5.152	-0.077	-0.054
-546.310	-145.610	-0.095	-0.009
-545.296	-80.969	-0.069	0.023
-544.281	-200.000	0.018	0.362
-543.266	348.482	-0.088	0.175
-542.252	-60.333	0.179	-0.077
-541.237	67.485	-0.042	0.043
-540.223	-139.047	-0.426	-0.047
-539.208	567.750	0.093	-0.227
-538.193	-200.000	-0.008	0.069
-537.179	-44.604	-0.003	-0.001
-536.164	161.475	0.238	0.336
-535.150	-200.000	-0.024	0.000
-534.135	40.764	0.057	-0.052
-533.121	116.129	0.191	-0.236
-532.106	122.835	-0.169	0.213
-531.091	-160.130	0.296	0.016
-530.077	308.597	0.067	-0.126
-529.062	3.971	-0.111	0.082
-528.048	458.536	-0.207	-0.464
-527.033	-19.078	0.304	0.191
-526.018	-200.000	-0.006	0.124
-525.004	-119.685	-0.150	0.026
-523.989	-73.757	0.066	-0.024
-522.975	-81.018	0.090	0.030
-521.960	-103.776	-0.256	0.060
-520.945	-25.136	0.311	-0.186
-519.931	-200.000	0.000	-0.170
-518.916	800.000	0.081	-0.274
-517.902	-21.655	-0.197	0.121
-516.887	750.052	0.071	0.194
-515.872	-200.000	0.005	-0.224
-514.858	800.000	0.047	-0.132
-513.843	524.701	-0.085	0.202
-512.829	199.057	0.029	0.044
-511.814	-170.473	-0.064	-0.002
-510.799	363.137	0.087	-0.175
-509.785	-74.294	-0.094	-0.034
-508.770	-200.000	-0.071	0.468
-507.756	-165.447	0.108	-0.005
-506.741	-76.996	-0.351	0.124
-505.726	-200.000	-0.060	0.308
-504.712	221.843	0.094	0.152
-503.697	-100.855	0.289	0.072
-502.683	-105.960	-0.190	0.043
-501.668	-103.834	0.274	0.065
-500.653	-27.126	-0.323	0.190
-499.639	-128.005	0.141	-0.020
-498.624	-200.000	-0.003	0.028
-497.610	800.000	0.044	0.132
-496.595	800.000	-0.054	0.236
-495.581	-200.000	0.065	0.305
-494.566	18.175	0.048	-0.039
-493.551	-41.155	0.429	0.223
-492.537	-170.586	0.185	0.006
-491.522	-102.379	-0.097	-0.023
-490.508	-200.000	-0.046	-0.378
-489.493	800.000	0.064	0.189
-488.478	-74.970	0.235	0.085
-487.464	-200.000	0.013	-0.377
-486.449	-200.000	-0.083	-0.389
-485.435	-109.856	0.187	0.040
-484.420	-121.017	0.245	-0.041
-483.405	469.261	0.187	-0.423
-482.391	-94.357	0.198	-0.054
-481.376	-22.940	-0.240	-0.146
-480.362	-200.000	-0.018	0.266
-479.347	-174.652	0.404	0.012
-478.332	257.249	0.140	-0.242
-477.318	-75.360	-0.200	-0.072
-476.303	-4.745	-0.127	0.088
-475.289	168.838	-0.056	0.080
-474.274	-101.431	0.245	0.060
-473.259	-49.743	0.208	0.099
-472.245	-123.867	-0.158	-0.025
-471.230	-200.000	-0.013	-0.180
-470.216	152.615	0.105	-0.145
-469.201	124.500	0.020	0.025
-468.186	64.854	0.030	0.031
-467.172	-108.869	-0.302	0.065
-466.157	-95.630	0.108	0.029
-465.143	556.830	0.089	0.216
-464.128	548.362	-0.036	0.086
-463.113	-109.281	-0.337	0.072
-462.099	50.226	0.089	0.085
-461.084	800.000	0.050	0.156
-460.070	329.103	0.104	0.202
-459.055	-107.496	-0.308	0.068
-458.040	-147.604	-0.227	-0.019
-457.026	94.554	0.075	0.085
-456.011	189.662	0.182	-0.275
-454.997	74.950	-0.199	0.211
-453.982	157.370	-0.218	0.304
-452.968	85.446	0.292	-0.323
-451.953	78.749	0.026	-0.028
-450.938	-4.785	-0.341	-0.237
-449.924	197.662	0.210	0.323
-448.909	140.883	0.109	-0.145
-447.895	662.548	-0.065	-0.168
-446.880	-200.000	-0.009	-0.117
-445.865	-200.000	0.027	-0.161
-444.851	269.173	-0.068	0.119
-443.836	-116.094	-0.166	-0.031
-442.822	-21.785	-0.111	0.068
-441.807	18.355	-0.188	0.151
-440.792	-28.409	-0.082	0.047
-439.778	-91.144	-0.233	-0.067
-438.763	304.995	-0.156	0.291
-437.749	362.800	0.109	0.220
-436.734	2.517	0.147	0.107
-435.719	-56.622	0.218	-0.097
-434.705	39.150	0.154	-0.139
-433.690	-41.270	0.169	-0.088
-432.676	-2.315	0.223	-0.157
-431.661	-45.923	-0.129	-0.064
-430.646	174.261	-0.155	-0.225
-429.632	-32.850	0.126	-0.071
-428.617	-139.284	-0.224	0.024
-427.603	-183.673	0.384	0.007
-426.588	800.000	0.065	0.194
-425.573	-200.000	0.027	0.129
-424.559	291.962	-0.078	-0.143
-423.544	-11.765	0.226	0.149
-422.530	-143.156	0.452	-0.044
-421.515	-14.034	0.359	-0.233
-420.500	234.909	0.124	-0.205
-419.486	-200.000	-0.003	0.250
-418.471	-200.000	0.021	-0.220
-417.457	-87.741	0.141	-0.043
-416.442	97.401	0.074	-0.085
-415.428	348.260	-0.117	0.232
-414.413	94.107	0.044	0.050
-413.398	-109.621	0.155	0.033
-412.384	-200.000	0.005	-0.213
-411.369	-74.815	0.089	0.032
-410.355	349.004	-0.067	0.133
-409.340	-37.443	-0.033	0.018
-408.325	472.448	0.047	0.107
-407.311	26.134	0.209	0.175
-406.296	-200.000	-0.053	-0.284
-405.282	-200.000	0.015	-0.242
-404.267	5.517	0.070	0.052
-403.252	-110.931	0.311	0.064
-402.238	800.000	0.048	0.162
-401.223	-35.935	-0.330	-0.179
-400.209	-29.152	-0.242	0.140
-399.194	-200.000	-0.028	-0.190
-398.179	-123.007	-0.275	-0.044
-397.165	61.354	-0.168	-0.167
-396.150	-53.581	-0.291	0.134
-395.136	-200.000	0.062	-0.275
-394.121	-200.000	-0.020	0.141
-393.106	659.647	-0.055	-0.142
-392.092	-131.728	0.106	-0.014
-391.077	-78.841	-0.162	0.055
-390.063	-200.000	-0.018	0.321
-389.048	-6.458	-0.065	0.044
-388.033	-73.422	0.375	0.137
-387.019	348.168	0.131	-0.259
-386.004	95.205	-0.186	0.213
-384.990	-88.397	-0.030	-0.009
-383.975	-6.460	-0.201	-0.137
-382.960	-94.686	-0.013	-0.004
-381.946	95.138	-0.177	0.203
-380.931	494.405	0.048	-0.109
-379.917	47.731	-0.213	-0.200
-378.902	26.642	-0.390	-0.328
-377.888	-71.267	-0.369	-0.139
-376.873	48.232	-0.208	-0.196
-375.858	56.209	-0.153	0.149
-374.844	-25.014	-0.147	-0.087
-373.829	-135.381	-0.292	-0.035
-372.815	19.507	0.031	0.025
-371.800	-80.145	0.225	0.076
-370.785	-200.000	-0.001	-0.086
-369.771	71.151	-0.303	0.315
-368.756	-91.499	0.292	0.083
-367.742	26.677	0.139	-0.117
-366.727	57.009	-0.180	0.176
-365.712	258.663	-0.054	-0.093
-364.698	-98.130	0.191	0.049
-363.683	154.322	0.104	-0.143
-362.669	475.715	0.099	0.225
-361.654	364.675	-0.044	-0.088
-360.639	366.908	0.096	0.195
-359.625	378.706	-0.026	-0.054
-358.610	557.274	0.027	-0.065
-357.596	80.428	-0.128	-0.138
-356.581	-200.000	0.030	0.245
-355.566	-146.821	-0.228	-0.020
-354.552	-170.538	-0.189	0.007
-353.537	-160.990	0.262	-0.014
-352.523	-74.894	-0.174	0.063
-351.508	-200.000	-0.008	0.151
-350.493	-200.000	-0.017	0.313
-349.479	325.962	0.091	-0.174
-348.464	-26.375	0.090	0.053
-347.450	-134.903	0.267	-0.032
-346.435	224.021	-0.059	-0.095
-345.420	435.008	-0.160	0.350
-344.406	-141.910	-0.321	-0.032
-343.391	-14.193	-0.179	-0.115
-342.377	1.321	-0.123	-0.088
-341.362	174.512	-0.180	0.261
-340.348	-114.890	0.154	0.029
-339.333	97.193	-0.140	-0.161
-338.318	710.289	0.098	-0.260
-337.304	356.957	-0.082	-0.163
-336.289	-20.302	0.255	-0.157
-335.275	173.632	-0.091	0.132
-334.260	-35.395	-0.079	-0.043
-333.245	-72.833	0.121	0.045
-332.231	116.428	-0.086	-0.106
-331.216	-109.809	0.221	-0.046
-330.202	-200.000	-0.048	-0.308
-329.187	-33.782	-0.068	0.037
-328.172	-200.000	-0.014	-0.453
-327.158	-19.708	0.214	0.133
-326.143	-200.000	-0.056	-0.303
-325.129	800.000	-0.043	-0.143
-324.114	-97.941	-0.170	-0.044
-323.099	-90.324	-0.132	0.038
-322.085	-200.000	0.059	0.409
-321.070	701.148	-0.073	0.191
-320.056	785.827	-0.184	0.506
-319.041	317.755	-0.088	0.166
-318.026	800.000	0.121	0.446
-317.012	-121.505	0.336	0.056
-315.997	168.770	0.117	0.167
-314.983	-30.391	-0.113	-0.064
-313.968	-108.064	-0.274	-0.060
-312.953	106.127	-0.203	-0.240
-311.939	661.510	0.030	0.078
-310.924	-172.484	-0.206	0.007
-309.910	800.000	-0.023	0.068
-308.895	-59.988	0.192	0.082
-307.880	-9.039	0.163	-0.109
-306.866	532.027	-0.028	-0.067
-305.851	642.056	0.138	-0.352
-304.837	-52.336	-0.306	0.142
-303.822	128.159	0.109	0.139
-302.807	678.230	0.109	-0.284
-301.793	-29.794	0.280	-0.160
-300.778	-87.167	-0.489	-0.149
-299.764	-200.000	0.006	-0.080
-298.749	-200.000	0.036	-0.156
-297.735	27.958	0.012	-0.010
-296.720	-137.130	-0.308	0.035
-295.705	-84.255	0.068	0.021
-294.691	-111.625	-0.339	-0.069
-293.676	536.484	-0.046	-0.110
-292.662	-48.444	0.063	0.030
-291.647	-200.000	-0.011	-0.093
-290.632	112.452	-0.021	-0.025
-289.618	-100.420	-0.222	-0.055
-288.603	-129.835	-0.445	-0.061
-287.589	-67.131	0.088	0.034
-286.574	-161.357	0.235	-0.012
-285.559	108.919	-0.105	0.125
-284.545	800.000	-0.085	0.356
-283.530	-114.058	0.187	0.036
-282.516	461.063	0.241	-0.538
-281.501	47.940	-0.243	-0.226
-280.486	57.704	-0.167	0.163
-279.472	175.806	-0.178	0.259
-278.457	-123.757	0.287	0.045
-277.443	-15.689	0.361	-0.230
-276.428	-200.000	-0.024	-0.193
-275.413	56.618	-0.125	-0.121
-274.399	-121.117	0.096	-0.016
-273.384	-136.268	-0.277	0.032
-272.370	-90.245	0.124	-0.036
-271.355	-31.872	0.154	0.086
-270.340	-99.551	0.128	-0.032
-269.326	-40.812	-0.156	-0.081
-268.311	47.589	0.182	0.169
-267.297	-200.000	0.048	-0.215
-266.282	427.532	-0.072	0.154
-265.267	800.000	-0.062	0.270
-264.253	-200.000	0.069	0.317
-263.238	-62.987	0.061	-0.025
-262.224	46.777	0.260	0.242
-261.209	800.000	-0.141	0.404
-260.195	498.447	0.147	-0.338
-259.180	-65.396	0.452	0.182
-258.165	640.081	0.139	0.353
-257.151	-110.906	0.078	0.016
-256.136	764.589	0.070	-0.191
-255.122	113.601	-0.110	0.133
-254.107	800.000	0.022	0.094
-253.092	-170.297	-0.137	0.005
-252.078	-117.303	-0.119	0.022
-251.063	-200.000	-0.013	-0.251
-250.049	233.484	0.064	0.104
-249.034	-72.770	-0.091	0.033
-248.019	548.066	-0.094	-0.226
-247.005	0.040	-0.167	-0.118
-245.990	-200.000	-0.009	0.069
-244.976	-200.000	-0.012	-0.196
-243.961	10.717	0.124	0.094
-242.946	-200.000	0.013	0.087
-241.932	-200.000	0.089	-0.472
-240.917	-53.791	-0.069	0.032
-239.903	93.897	-0.086	-0.097
-238.888	150.776	0.073	0.099
-237.873	-108.981	-0.186	-0.039
-236.859	-142.469	-0.138	-0.014
-235.844	285.241	0.201	0.361
-234.830	-73.016	-0.387	0.142
-233.815	-53.971	-0.165	0.075
-232.800	-85.721	-0.421	0.130
-231.786	-189.936	-0.263	0.003
-230.771	-200.000	0.034	-0.243
-229.757	800.000	0.008	-0.026
-228.742	-128.940	0.449	0.063
-227.727	26.438	-0.172	-0.143
-226.713	-125.664	0.155	-0.023
-225.698	-81.373	-0.060	0.020
-224.684	-17.323	0.203	0.127
-223.669	187.579	0.035	-0.052
-222.655	800.000	-0.110	0.398
-221.640	-64.829	0.077	-0.031
-220.625	-200.000	0.013	0.073
-219.611	800.000	0.053	0.203
-218.596	-200.000	0.051	-0.327
-217.582	-141.666	0.209	-0.021
-216.567	800.000	0.063	0.223
-215.552	-33.649	-0.108	-0.059
-214.538	655.495	0.006	-0.016
-213.523	-75.602	-0.273	-0.097
-212.509	-127.585	0.253	-0.037
-211.494	-43.837	0.203	-0.102
-210.479	800.000	-0.046	-0.170
-209.465	314.698	-0.040	-0.074
-208.450	201.531	-0.111	0.171
-207.436	-34.452	-0.071	0.039
-206.421	-200.000	-0.000	-0.184
-205.406	256.794	-0.149	0.255
-204.392	19.410	-0.061	0.049
-203.377	-200.000	-0.053	0.375
-202.363	-200.000	0.013	0.083
-201.348	29.948	-0.046	0.039
-200.333	-32.327	0.070	-0.039
-199.319	216.688	-0.149	-0.236
-198.304	195.504	0.023	-0.035
-197.290	-113.640	0.206	-0.040
-196.275	-52.279	-0.332	0.153
-195.260	37.054	0.159	0.140
-194.246	262.095	-0.035	-0.060
-193.231	-200.000	0.013	0.206
-192.217	-167.749	0.145	0.006
-191.202	-200.000	0.070	-0.332
-190.187	-191.638	0.247	-0.002
-189.173	-78.473	-0.220	0.075
-188.158	25.499	-0.114	-0.095
-187.144	-143.781	-0.269	-0.025
-186.129	393.460	0.033	0.068
-185.114	-41.681	0.348	0.178
-184.100	-22.618	-0.248	0.149
-183.085	75.116	0.125	-0.131
-182.071	286.002	0.164	-0.295
-181.056	-29.631	0.128	-0.073
-180.042	411.888	0.034	0.072
-179.027	-20.915	0.331	-0.202
-178.012	13.624	0.202	-0.156
-176.998	-3.925	0.177	-0.122
-175.983	-78.189	-0.278	-0.095
-174.969	-96.418	-0.375	-0.099
-173.954	142.706	0.114	0.151
-172.939	136.707	0.118	-0.154
-171.925	90.058	-0.173	0.192
-170.910	178.658	0.091	-0.132
-169.896	-105.358	0.271	-0.061
-168.881	-200.000	0.025	0.134
-167.866	570.174	-0.075	-0.181
-166.852	133.506	-0.053	0.068
-165.837	-200.000	0.006	0.152
-164.823	-139.144	0.496	-0.053
-163.808	-88.768	0.205	-0.061
-162.793	-200.000	0.054	0.308
-161.779	40.221	-0.151	-0.135
-160.764	174.149	-0.148	0.213
-159.750	100.539	-0.368	-0.425
-158.735	-200.000	0.098	0.000
-157.720	-98.660	0.342	-0.087
-156.706	-141.831	0.279	-0.028
-155.691	33.203	0.068	0.058
-154.677	800.000	-0.068	-0.215
-153.662	-31.484	0.057	-0.032
-152.647	-200.000	0.001	0.266
-151.633	-200.000	-0.027	0.335
-150.618	800.000	-0.052	0.213
-149.604	-26.485	0.413	-0.241
-148.589	800.000	-0.169	-0.520
-147.574	-200.000	0.006	-0.119
-146.560	-63.639	-0.309	-0.126
-145.545	-73.303	-0.133	0.048
-144.531	366.708	-0.080	0.161
-143.516	-59.738	-0.316	0.134
-142.502	-93.989	-0.139	0.038
-141.487	361.373	0.116	-0.232
-140.472	31.658	0.391	0.334
-139.458	800.000	0.027	-0.089
-138.443	-31.510	0.013	0.007
-137.429	-200.000	-0.030	0.271
-136.414	-71.890	0.022	-0.008
-135.399	-130.154	0.326	0.044
-134.385	-200.000	0.032	-0.226
-133.370	-121.373	0.115	0.019
-132.356	-127.731	0.063	-0.009
-131.341	-25.318	0.029	0.017
-130.326	367.309	0.023	-0.045
-129.312	287.440	-0.111	-0.199
-128.297	77.113	0.275	0.291
-127.283	280.714	0.206	-0.365
-126.268	10.102	-0.204	0.154
-125.253	-184.260	0.185	-0.003
-124.239	98.627	-0.136	0.156
-123.224	437.796	0.208	-0.450
-122.210	-200.000	-0.175	-0.000
