DTS Sentinel unit serial number:	SN413079Multiplexer serial number:	ORYXHardware model number:	OX4-SRSoftware version number:	ORYX F/W v4.00 Oryx Data Collector v3.7.2.0data status	okinstallation	princeton_trtdifferential loss correction	single-endedforward channel	channel 4reverse channel	N/Adate	2019/09/13time	11:57:35forward acquisition time	60.00reverse acquisition time	0.00gamma	496.2192k internal	0.2300k external	0.2300temperature offset calibration	1.0212default loss term (dB/km)	0.3790temperature slope calibration	1.0000multiplexer offset coefficient	1.0000multiplexer slope coefficient	1.0000fibre end	0.00T internal ref (°C)	33.50T ext. ref 1 (°C)	4.57T ext. ref 2 (°C)	30.67length (m)	temperature (°C)	Stokes	anti-Stokes-747.200	800.000	0.098	0.344
-746.185	-43.089	0.056	0.029
-745.171	69.463	-0.065	-0.069
-744.156	-200.000	0.014	0.589
-743.142	42.199	0.106	-0.098
-742.127	-98.414	0.152	0.040
-741.112	-73.833	-0.341	-0.126
-740.098	-200.000	-0.036	0.318
-739.083	470.999	-0.125	-0.287
-738.069	7.307	-0.076	-0.058
-737.054	-109.509	-0.225	0.048
-736.039	-106.486	-0.151	-0.034
-735.025	-42.501	0.237	-0.123
-734.010	56.888	-0.192	-0.191
-732.996	-200.000	0.014	0.494
-731.981	-29.494	-0.173	-0.101
-730.966	316.772	0.149	-0.287
-729.952	800.000	-0.034	0.143
-728.937	107.629	-0.045	0.054
-727.923	33.788	0.096	0.085
-726.908	169.880	-0.241	-0.351
-725.894	429.932	-0.100	-0.220
-724.879	-173.424	-0.252	-0.008
-723.864	189.002	-0.236	0.359
-722.850	-125.589	0.254	-0.039
-721.835	32.051	0.177	-0.156
-720.821	-200.000	0.040	-0.294
-719.806	424.482	-0.101	0.221
-718.791	-18.229	-0.131	-0.083
-717.777	318.836	-0.088	0.169
-716.762	120.499	0.154	0.195
-715.748	-178.409	-0.234	0.006
-714.733	-200.000	-0.044	-0.346
-713.718	-200.000	0.016	0.128
-712.704	-200.000	0.039	-0.216
-711.689	113.664	-0.091	-0.112
-710.675	-23.778	0.175	0.107
-709.660	144.835	-0.031	0.042
-708.645	-154.878	-0.096	0.006
-707.631	-66.649	-0.159	0.064
-706.616	-200.000	0.007	-0.150
-705.602	-133.571	0.370	-0.047
-704.587	-101.704	-0.303	0.075
-703.572	-200.000	-0.012	0.075
-702.558	-108.786	-0.232	-0.051
-701.543	-59.792	-0.238	-0.104
-700.529	800.000	-0.007	0.022
-699.514	-47.251	-0.024	0.012
-698.499	-1.314	-0.291	-0.209
-697.485	63.117	0.211	0.215
-696.470	-119.143	-0.295	0.053
-695.456	-106.279	0.463	-0.106
-694.441	345.444	0.077	0.154
-693.426	-94.596	0.148	0.041
-692.412	13.688	0.101	0.080
-691.397	204.293	-0.098	-0.155
-690.383	800.000	0.068	-0.213
-689.368	82.840	-0.206	-0.228
-688.354	-200.000	0.001	0.151
-687.339	44.141	0.164	0.153
-686.324	261.233	-0.169	-0.298
-685.310	-168.947	-0.080	-0.003
-684.295	120.661	0.139	0.175
-683.281	-74.212	0.380	0.140
-682.266	-153.467	0.331	-0.023
-681.251	-123.847	0.488	-0.078
-680.237	-153.013	-0.253	0.018
-679.222	-200.000	0.004	0.095
-678.208	-20.796	0.248	-0.155
-677.193	-83.798	0.191	0.062
-676.178	-74.869	0.268	-0.098
-675.164	-200.000	0.023	-0.193
-674.149	-52.818	-0.053	-0.025
-673.135	8.792	-0.156	-0.120
-672.120	415.681	-0.064	0.139
-671.105	800.000	0.125	-0.370
-670.091	-153.077	-0.511	0.037
-669.076	800.000	-0.127	-0.440
-668.062	62.971	0.072	0.073
-667.047	-45.302	0.235	-0.119
-666.032	-200.000	0.016	0.115
-665.018	125.110	-0.071	0.091
-664.003	-107.554	0.075	0.017
-662.989	-37.991	-0.318	-0.172
-661.974	-86.075	-0.175	0.055
-660.959	331.741	0.163	-0.319
-659.945	-200.000	0.036	-0.396
-658.930	111.965	-0.100	-0.123
-657.916	-51.019	0.213	0.101
-656.901	-107.245	-0.237	0.053
-655.886	-126.687	0.101	-0.015
-654.872	-143.351	-0.126	-0.012
-653.857	-80.191	0.162	0.055
-652.843	268.282	0.083	-0.149
-651.828	-122.047	-0.126	-0.021
-650.814	-165.845	-0.138	-0.006
-649.799	95.551	-0.237	-0.275
-648.784	-66.048	-0.221	-0.090
-647.770	77.144	-0.269	0.291
-646.755	-200.000	-0.012	0.075
-645.741	-31.496	0.107	0.061
-644.726	162.492	0.193	-0.275
-643.711	-54.589	0.143	0.066
-642.697	213.018	0.034	0.055
-641.682	-30.387	0.224	-0.129
-640.668	-55.802	-0.158	0.072
-639.653	33.741	-0.190	-0.168
-638.638	-89.677	-0.137	-0.041
-637.624	800.000	-0.056	0.163
-636.609	57.584	-0.196	-0.194
-635.595	-200.000	0.017	0.175
-634.580	-20.521	-0.083	0.052
-633.565	-200.000	-0.005	0.046
-632.551	-200.000	-0.012	0.379
-631.536	-200.000	-0.001	0.062
-630.522	-5.199	-0.242	0.169
-629.507	-200.000	0.005	0.059
-628.492	-200.000	-0.020	0.172
-627.478	-121.862	0.056	0.009
-626.463	401.036	0.171	-0.365
-625.449	66.334	-0.086	-0.088
-624.434	233.218	0.053	-0.089
-623.419	25.008	0.046	-0.039
-622.405	-27.302	-0.326	-0.193
-621.390	273.784	0.115	-0.207
-620.376	452.747	0.118	-0.266
-619.361	4.822	0.382	-0.285
-618.346	211.144	-0.066	0.105
-617.332	379.584	-0.108	-0.224
-616.317	-68.778	-0.105	-0.041
-615.303	-174.473	-0.140	0.004
-614.288	583.027	-0.118	-0.294
-613.273	-200.000	-0.006	-0.038
-612.259	-200.000	-0.037	0.328
-611.244	-24.616	-0.225	0.136
-610.230	193.570	-0.166	-0.256
-609.215	400.689	-0.105	0.223
-608.201	-18.325	0.095	-0.060
-607.186	800.000	-0.076	-0.260
-606.171	-80.657	-0.205	-0.069
-605.157	-200.000	0.021	-0.119
-604.142	2.546	0.089	-0.065
-603.128	786.027	0.024	-0.068
-602.113	10.358	-0.255	-0.197
-601.098	240.095	-0.118	0.200
-600.084	-200.000	0.006	-0.169
-599.069	800.000	-0.081	0.329
-598.055	173.415	-0.272	-0.398
-597.040	-53.323	0.377	-0.175
-596.025	-157.700	-0.340	-0.021
-595.011	102.846	-0.177	0.211
-593.996	3.410	0.143	-0.105
-592.982	-15.869	-0.170	0.110
-591.967	158.783	-0.171	0.241
-590.952	-41.868	0.550	0.286
-589.938	-151.271	0.130	-0.010
-588.923	231.136	0.067	0.111
-587.909	-80.952	-0.325	-0.109
-586.894	753.537	-0.079	-0.217
-585.879	313.662	0.039	0.074
-584.865	-25.540	-0.230	0.138
-583.850	-200.000	0.008	-0.199
-582.836	78.208	-0.105	-0.114
-581.821	-50.050	-0.031	0.015
-580.806	-56.229	-0.309	0.139
-579.792	-194.284	-0.137	-0.001
-578.777	-200.000	-0.018	0.203
-577.763	-200.000	-0.030	0.476
-576.748	800.000	-0.051	0.210
-575.733	800.000	-0.016	0.051
-574.719	379.034	-0.232	-0.481
-573.704	800.000	-0.114	-0.348
-572.690	83.212	0.117	-0.129
-571.675	9.649	-0.064	-0.049
-570.661	287.629	0.024	0.044
-569.646	290.540	0.138	0.254
-568.631	800.000	0.061	-0.228
-567.617	-134.380	-0.109	-0.014
-566.602	307.139	0.073	-0.137
-565.588	-8.492	0.112	-0.077
-564.573	-200.000	-0.009	-0.041
-563.558	9.742	0.255	-0.196
-562.544	47.654	-0.051	-0.048
-561.529	51.648	-0.123	0.119
-560.515	-52.929	-0.159	-0.074
-559.500	221.874	-0.179	-0.291
-558.485	99.115	0.225	-0.263
-557.471	798.483	0.038	-0.106
-556.456	800.000	0.036	0.131
-555.442	-89.826	0.293	-0.087
-554.427	-200.000	0.028	0.218
-553.412	-127.400	0.061	0.009
-552.398	-14.712	0.229	0.149
-551.383	619.533	0.084	0.214
-550.369	38.030	0.282	0.254
-549.354	-155.547	-0.126	-0.008
-548.339	-119.158	0.094	0.017
-547.325	-200.000	0.029	0.176
-546.310	-32.592	-0.308	-0.173
-545.296	94.900	0.064	-0.074
-544.281	185.202	-0.119	0.178
-543.266	198.688	0.226	-0.351
-542.252	444.341	-0.066	-0.148
-541.237	277.229	0.176	0.317
-540.223	156.039	-0.126	-0.176
-539.208	-83.185	0.149	-0.049
-538.193	-49.180	0.177	-0.086
-537.179	640.868	-0.044	-0.114
-536.164	-62.575	-0.064	-0.027
-535.150	111.042	-0.033	0.040
-534.135	165.802	-0.244	-0.349
-533.121	147.106	-0.120	-0.163
-532.106	353.761	0.100	-0.201
-531.091	-30.758	-0.115	0.066
-530.077	-68.665	0.048	0.019
-529.062	-24.812	-0.085	0.051
-528.048	-36.713	0.380	0.206
-527.033	-97.629	0.249	0.065
-526.018	-117.388	-0.096	-0.018
-525.004	299.623	-0.049	0.091
-523.989	-38.086	0.176	-0.094
-522.975	-120.186	0.194	0.034
-521.960	285.271	0.157	0.285
-520.945	78.929	0.170	0.184
-519.931	800.000	0.029	0.098
-518.916	-79.582	0.378	-0.129
-517.902	-5.388	-0.133	-0.093
-516.887	-31.212	-0.254	-0.145
-515.872	-53.122	0.140	-0.065
-514.858	168.416	0.012	-0.017
-513.843	79.883	0.196	0.212
-512.829	-14.341	0.450	0.293
-511.814	159.703	-0.182	0.256
-510.799	250.299	0.086	-0.147
-509.785	800.000	-0.074	-0.297
-508.770	7.542	0.161	0.121
-507.756	-200.000	0.000	-0.003
-506.741	-200.000	0.035	0.466
-505.726	-159.752	-0.078	-0.004
-504.712	-200.000	0.005	0.101
-503.697	-114.097	-0.128	-0.025
-502.683	-137.726	-0.107	-0.012
-501.668	-130.657	-0.219	-0.030
-500.653	309.959	0.045	-0.085
-499.639	205.364	0.113	0.177
-498.624	18.157	-0.196	-0.158
-497.610	800.000	0.035	0.153
-496.595	565.368	0.102	-0.249
-495.581	258.913	-0.123	-0.215
-494.566	188.873	-0.163	-0.247
-493.551	23.084	-0.123	-0.102
-492.537	9.448	0.167	-0.128
-491.522	-83.156	0.193	0.063
-490.508	-200.000	-0.001	-0.330
-489.493	-100.539	0.187	0.047
-488.478	9.229	0.091	0.070
-487.464	800.000	-0.036	0.122
-486.449	85.849	0.195	-0.217
-485.435	73.024	0.047	-0.050
-484.420	752.742	-0.031	-0.086
-483.405	208.656	-0.150	0.237
-482.391	-158.773	0.065	0.004
-481.376	-200.000	0.037	-0.328
-480.362	-61.883	0.064	-0.027
-479.347	244.149	0.107	-0.181
-478.332	433.771	-0.079	-0.173
-477.318	-200.000	0.025	-0.125
-476.303	413.817	0.124	-0.266
-475.289	800.000	0.057	-0.207
-474.274	-121.752	-0.224	-0.037
-473.259	0.835	-0.224	0.162
-472.245	220.762	-0.308	0.499
-471.230	800.000	-0.055	-0.196
-470.216	-46.585	-0.204	0.101
-469.201	800.000	-0.019	0.061
-468.186	-90.150	-0.337	-0.099
-467.172	181.207	0.148	0.220
-466.157	8.351	-0.048	-0.036
-465.143	256.490	0.042	0.073
-464.128	-153.313	0.269	-0.019
-463.113	-127.524	-0.288	-0.042
-462.099	-15.099	0.088	0.057
-461.084	333.532	-0.069	0.135
-460.070	19.829	0.079	0.064
-459.055	-200.000	-0.006	0.098
-458.040	-170.075	-0.440	0.016
-457.026	-28.974	-0.205	0.119
-456.011	66.313	0.112	0.114
-454.997	-60.849	-0.180	0.077
-453.982	-200.000	-0.019	0.299
-452.968	42.939	-0.093	0.086
-451.953	-162.547	-0.040	-0.002
-450.938	-107.858	0.284	0.062
-449.924	108.065	-0.168	0.202
-448.909	609.952	0.079	0.200
-447.895	-131.504	-0.154	-0.021
-446.880	-1.067	-0.263	-0.188
-445.865	-200.000	-0.039	0.357
-444.851	-4.515	-0.351	0.244
-443.836	68.680	-0.384	-0.398
-442.822	-82.698	-0.225	-0.073
-441.807	109.229	0.061	-0.074
-440.792	-133.339	0.184	-0.023
-439.778	-200.000	-0.006	0.311
-438.763	-22.222	0.094	-0.057
-437.749	103.836	-0.091	0.108
-436.734	6.686	-0.075	0.056
-435.719	688.939	-0.189	-0.499
-434.705	-200.000	-0.021	-0.164
-433.690	-34.916	0.126	-0.069
-432.676	800.000	-0.009	0.033
-431.661	110.181	0.233	-0.282
-430.646	800.000	0.059	-0.190
-429.632	-58.193	0.250	0.110
-428.617	78.065	0.166	-0.178
-427.603	-118.631	0.080	0.014
-426.588	-91.335	0.056	-0.016
-425.573	-149.718	0.377	0.030
-424.559	68.540	-0.113	0.117
-423.544	800.000	-0.038	-0.130
-422.530	481.150	-0.139	0.319
-421.515	-129.458	0.157	-0.022
-420.500	122.057	-0.170	0.214
-419.486	-67.866	0.141	-0.056
-418.471	164.490	0.259	-0.368
-417.457	800.000	-0.018	0.062
-416.442	800.000	-0.060	0.198
-415.428	453.829	-0.107	-0.239
-414.413	-92.754	0.036	0.010
-413.398	-78.374	0.288	-0.099
-412.384	-200.000	0.023	-0.417
-411.369	800.000	-0.054	-0.222
-410.355	80.600	-0.299	-0.324
-409.340	54.011	-0.277	0.268
-408.325	-200.000	0.028	-0.220
-407.311	104.252	-0.116	0.137
-406.296	142.110	-0.095	0.127
-405.282	-119.571	-0.267	-0.046
-404.267	-200.000	0.004	-0.023
-403.252	-104.002	0.075	0.018
-402.238	126.476	0.069	-0.088
-401.223	-155.470	-0.206	0.013
-400.209	-103.650	-0.275	-0.065
-399.194	52.380	0.140	0.134
-398.179	-200.000	-0.061	-0.543
-397.165	-144.836	-0.147	0.014
-396.150	800.000	-0.118	-0.394
-395.136	565.593	-0.209	0.510
-394.121	-200.000	0.001	0.130
-393.106	-94.040	0.280	0.077
-392.092	199.427	0.158	0.243
-391.077	11.236	0.245	0.188
-390.063	-93.729	-0.369	0.102
-389.048	-17.608	-0.114	0.072
-388.033	642.939	0.062	-0.160
-387.019	273.851	-0.077	0.137
-386.004	94.167	0.080	0.092
-384.990	-66.107	-0.279	0.112
-383.975	-147.078	0.237	0.020
-382.960	800.000	-0.070	0.198
-381.946	-6.941	0.263	0.179
-380.931	351.346	0.166	0.331
-379.917	653.342	-0.032	0.082
-378.902	727.137	-0.126	-0.338
-377.888	211.266	-0.178	-0.282
-376.873	-200.000	0.005	0.157
-375.858	-200.000	0.054	0.404
-374.844	152.291	-0.066	-0.091
-373.829	160.155	0.120	0.168
-372.815	85.602	0.057	0.063
-371.800	-95.194	0.200	0.054
-370.785	-200.000	-0.016	0.149
-369.771	-108.242	0.209	0.045
-368.756	-200.000	0.018	0.262
-367.742	-176.356	-0.213	0.006
-366.727	492.812	0.091	0.211
-365.712	47.264	0.292	0.273
-364.698	64.858	0.128	0.130
-363.683	209.183	0.159	-0.250
-362.669	214.017	-0.165	-0.263
-361.654	800.000	-0.067	-0.194
-360.639	-75.026	0.060	-0.021
-359.625	351.261	0.055	-0.109
-358.610	800.000	0.055	0.151
-357.596	-200.000	-0.054	0.241
-356.581	540.423	-0.036	-0.086
-355.566	228.136	-0.133	0.217
-354.552	800.000	-0.119	-0.466
-353.537	23.206	0.102	0.084
-352.523	-188.088	0.352	-0.005
-351.508	266.389	0.072	0.127
-350.493	-200.000	0.047	0.387
-349.479	-200.000	-0.003	-0.101
-348.464	-65.835	0.213	-0.085
-347.450	-29.462	0.244	-0.140
-346.435	37.961	-0.099	-0.088
-345.420	12.551	0.045	0.035
-344.406	-32.599	-0.018	0.010
-343.391	-99.421	-0.064	0.016
-342.377	-117.981	-0.114	-0.021
-341.362	1.417	0.321	-0.232
-340.348	77.466	0.101	-0.108
-339.333	-48.027	0.208	-0.101
-338.318	-43.977	0.284	0.143
-337.304	-50.809	-0.110	-0.052
-336.289	800.000	-0.017	-0.067
-335.275	94.517	-0.281	-0.321
-334.260	-152.033	0.096	-0.007
-333.245	732.974	0.050	0.135
-332.231	369.428	-0.109	-0.220
-331.216	23.279	0.216	0.179
-330.202	-200.000	-0.021	0.156
-329.187	-200.000	0.000	0.045
-328.172	800.000	0.074	-0.269
-327.158	-32.756	-0.340	0.190
-326.143	800.000	0.052	0.161
-325.129	141.724	0.109	0.145
-324.114	-6.578	-0.338	0.231
-323.099	263.777	0.127	-0.221
-322.085	419.139	0.081	0.175
-321.070	-51.139	0.289	-0.136
-320.056	800.000	0.023	-0.098
-319.041	20.678	0.027	-0.022
-318.026	-116.845	0.294	0.054
-317.012	4.143	-0.221	-0.163
-315.997	-80.710	-0.157	-0.052
-314.983	-105.832	-0.083	-0.019
-313.968	-51.896	0.184	0.086
-312.953	141.877	-0.061	-0.081
-311.939	365.677	0.075	0.151
-310.924	-200.000	-0.006	0.185
-309.910	800.000	-0.106	0.373
-308.895	-54.237	0.175	-0.080
-307.880	-65.872	-0.194	-0.078
-306.866	630.471	-0.107	-0.271
-305.851	-129.487	0.188	0.026
-304.837	203.998	-0.090	0.140
-303.822	800.000	0.151	0.465
-302.807	800.000	0.023	0.073
-301.793	418.278	0.089	-0.190
-300.778	-116.170	-0.290	0.054
-299.764	-77.017	-0.169	-0.059
-298.749	-109.727	-0.248	-0.052
-297.735	-200.000	0.043	0.312
-296.720	-200.000	0.025	0.184
-295.705	-12.517	-0.062	-0.041
-294.691	800.000	-0.129	-0.435
-293.676	-179.744	-0.188	0.004
-292.662	-35.533	0.313	-0.170
-291.647	800.000	-0.045	-0.186
-290.632	-120.781	0.078	0.013
-289.618	-11.284	0.195	-0.129
-288.603	-2.174	0.322	0.227
-287.589	-87.438	0.091	-0.028
-286.574	198.574	0.042	0.064
-285.559	61.651	-0.082	-0.082
-284.545	-108.490	-0.256	-0.055
-283.530	-200.000	-0.038	0.279
-282.516	537.492	0.045	0.107
-281.501	-77.445	-0.160	-0.056
-280.486	10.668	0.061	0.047
-279.472	800.000	0.052	-0.173
-278.457	32.251	-0.197	-0.170
-277.443	221.983	-0.086	0.139
-276.428	32.413	-0.212	-0.183
-275.413	800.000	-0.074	0.263
-274.399	-200.000	-0.043	0.225
-273.384	25.087	0.170	0.141
-272.370	800.000	-0.093	0.299
-271.355	169.078	0.248	0.354
-270.340	12.573	0.140	-0.108
-269.326	-62.502	0.071	0.029
-268.311	-121.251	0.110	-0.018
-267.297	24.976	0.025	-0.021
-266.282	-200.000	0.013	0.153
-265.267	180.639	0.218	0.320
-264.253	-169.515	-0.201	0.007
-263.238	49.120	-0.218	-0.205
-262.224	800.000	0.081	-0.274
-261.209	647.222	0.063	-0.162
-260.195	-146.817	-0.155	-0.013
-259.180	57.063	-0.440	-0.430
-258.165	59.881	-0.227	-0.224
-257.151	800.000	-0.130	0.424
-256.136	-8.395	0.236	0.159
-255.122	1.624	-0.430	-0.310
-254.107	180.270	-0.188	0.275
-253.092	-68.296	0.355	-0.138
-252.078	-200.000	0.275	-0.001
-251.063	-200.000	0.004	0.181
-250.049	-200.000	-0.033	0.379
-249.034	-15.682	0.187	0.120
-248.019	-92.294	-0.180	0.051
-247.005	140.140	-0.173	-0.229
-245.990	-200.000	0.038	0.253
-244.976	-117.644	0.108	-0.020
-243.961	-200.000	0.010	0.054
-242.946	-156.313	-0.252	0.016
-241.932	445.077	-0.054	0.120
-240.917	72.816	-0.038	-0.040
-239.903	-64.328	-0.127	0.052
-238.888	58.083	0.106	0.103
-237.873	800.000	-0.094	-0.287
-236.859	-151.836	-0.068	-0.005
-235.844	157.009	0.154	-0.213
-234.830	800.000	-0.099	-0.273
-233.815	-200.000	-0.013	0.132
-232.800	1.220	-0.156	-0.112
-231.786	800.000	0.019	0.059
-230.771	-117.876	0.483	-0.087
-229.757	0.790	-0.088	-0.063
-228.742	236.170	-0.085	-0.141
-227.727	-133.495	0.158	-0.020
-226.713	-48.905	-0.207	0.099
-225.698	-42.654	0.145	-0.074
-224.684	-114.491	0.290	0.056
-223.669	-200.000	-0.016	0.136
-222.655	170.595	0.260	0.373
-221.640	241.130	-0.102	-0.170
-220.625	-200.000	-0.012	-0.252
-219.611	160.314	0.144	-0.201
-218.596	-100.838	-0.096	-0.024
-217.582	-57.645	0.116	-0.051
-216.567	-94.311	0.373	-0.102
-215.552	-111.280	-0.090	0.018
-214.538	800.000	0.055	-0.154
-213.523	6.668	-0.055	-0.041
-212.509	-200.000	0.058	0.282
-211.494	-69.697	0.231	0.088
-210.479	344.437	-0.118	0.231
-209.465	-17.861	0.289	0.181
-208.450	-144.666	0.117	0.011
-207.436	-49.852	0.441	-0.209
-206.421	-141.021	-0.193	-0.020
-205.406	604.762	0.065	0.163
-204.392	-200.000	-0.003	0.176
-203.377	176.370	0.248	0.360
-202.363	325.654	-0.044	0.085
-201.348	161.729	0.227	0.317
-200.333	-115.128	0.259	-0.049
-199.319	197.794	0.058	0.088
-198.304	-103.936	-0.122	-0.028
-197.290	800.000	0.041	-0.172
-196.275	-119.226	0.055	0.010
-195.260	115.273	-0.235	-0.287
-194.246	16.657	0.251	-0.199
-193.231	-80.109	-0.270	-0.090
-192.217	489.323	-0.046	-0.105
-191.202	157.661	-0.243	-0.335
-190.187	-151.336	-0.244	-0.018
-189.173	-92.168	-0.109	-0.031
-188.158	-200.000	0.006	-0.134
-187.144	595.090	-0.136	0.336
-186.129	-200.000	0.203	0.001
-185.114	-200.000	0.024	0.133
-184.100	-78.557	-0.041	-0.014
-183.085	166.965	0.208	-0.294
-182.071	-62.445	0.163	-0.068
-181.056	-136.949	0.117	0.013
-180.042	800.000	-0.070	-0.295
-179.027	-200.000	-0.038	0.167
-178.012	-160.000	0.100	-0.005
-176.998	-130.639	-0.148	0.020
-175.983	-22.384	0.301	0.182
-174.969	-120.073	0.167	0.029
-173.954	-104.898	-0.255	-0.058
-172.939	-165.929	-0.022	-0.001
-171.925	-103.995	-0.123	-0.029
-170.910	-83.732	-0.136	0.043
-169.896	-176.756	0.062	-0.002
-168.881	204.922	0.054	0.084
-167.866	751.094	-0.028	0.075
-166.852	-200.000	-0.013	0.062
-165.837	417.030	-0.070	-0.150
-164.823	-200.000	0.013	0.128
-163.808	138.795	0.198	0.259
-162.793	-200.000	-0.040	0.326
-161.779	269.617	-0.080	-0.139
-160.764	239.767	-0.098	0.163
-159.750	-200.000	0.160	-0.000
-158.735	-25.124	-0.067	-0.039
-157.720	-16.518	0.135	-0.085
-156.706	-200.000	0.033	-0.308
-155.691	800.000	-0.089	0.245
-154.677	-91.283	0.438	-0.125
-153.662	104.404	0.199	-0.233
-152.647	13.639	-0.080	-0.062
-151.633	-200.000	-0.005	0.035
-150.618	-200.000	-0.002	0.119
-149.604	-200.000	0.013	0.312
-148.589	26.340	0.016	0.013
-147.574	709.450	-0.081	0.214
-146.560	108.393	-0.209	-0.249
-145.545	-87.401	-0.211	-0.064
-144.531	-60.213	-0.187	0.079
-143.516	-92.207	0.405	0.114
-142.502	800.000	0.074	0.285
-141.487	35.678	0.237	-0.208
-140.472	-160.232	-0.073	0.004
-139.458	-174.817	0.140	-0.004
-138.443	-146.658	0.373	-0.032
-137.429	-200.000	0.024	-0.440
-136.414	264.413	-0.033	0.058
-135.399	-200.000	-0.033	-0.260
-134.385	-46.524	-0.166	-0.081
-133.370	-76.258	-0.035	-0.012
-132.356	-27.756	-0.169	-0.098
-131.341	-125.937	-0.444	-0.067
-130.326	60.423	-0.080	0.079
-129.312	-200.000	-0.016	-0.322
-128.297	-200.000	0.049	0.338
-127.283	280.121	0.104	0.185
-126.268	-70.200	0.033	-0.013
-125.253	-169.835	-0.151	0.005
-124.239	104.439	-0.231	0.271
-123.224	-23.924	0.322	-0.192
-122.210	256.874	-0.116	0.198
