DTS Sentinel unit serial number:	SN413079Multiplexer serial number:	ORYXHardware model number:	OX4-SRSoftware version number:	ORYX F/W v4.00 Oryx Data Collector v3.7.2.0data status	okinstallation	princeton_trtdifferential loss correction	single-endedforward channel	channel 4reverse channel	N/Adate	2019/09/14time	10:25:35forward acquisition time	60.00reverse acquisition time	0.00gamma	496.2192k internal	0.2297k external	0.2297temperature offset calibration	1.0141default loss term (dB/km)	0.3790temperature slope calibration	1.0000multiplexer offset coefficient	1.0000multiplexer slope coefficient	1.0000fibre end	0.00T internal ref (°C)	34.53T ext. ref 1 (°C)	4.17T ext. ref 2 (°C)	32.78length (m)	temperature (°C)	Stokes	anti-Stokes-747.200	-70.646	0.340	0.131
-746.185	216.158	-0.145	0.235
-745.171	65.322	0.228	0.236
-744.156	-31.626	-0.381	0.218
-743.142	431.467	-0.085	-0.189
-742.127	250.909	-0.121	0.209
-741.112	78.811	0.285	0.311
-740.098	294.379	0.070	0.130
-739.083	444.605	0.064	0.143
-738.069	-200.000	0.031	0.407
-737.054	-84.600	0.345	-0.111
-736.039	676.962	-0.056	-0.148
-735.025	800.000	-0.032	-0.114
-734.010	-87.977	-0.097	0.030
-732.996	547.852	0.153	-0.373
-731.981	800.000	0.042	-0.155
-730.966	780.428	0.027	-0.076
-729.952	-128.369	0.092	-0.013
-728.937	-200.000	0.007	0.250
-727.923	426.712	-0.075	0.165
-726.908	-64.869	0.047	0.019
-725.894	-63.318	0.138	0.058
-724.879	-185.505	-0.212	0.003
-723.864	-117.723	-0.099	0.018
-722.850	141.707	-0.222	-0.300
-721.835	-122.258	0.247	0.041
-720.821	-71.259	-0.106	-0.040
-719.806	-200.000	0.046	-0.248
-718.791	52.386	-0.067	-0.065
-717.777	-116.958	0.209	0.039
-716.762	-200.000	-0.016	-0.124
-715.748	157.181	-0.183	0.259
-714.733	355.583	0.135	0.274
-713.718	90.980	-0.275	-0.315
-712.704	98.054	0.179	0.210
-711.689	800.000	-0.060	-0.217
-710.675	-52.982	-0.109	-0.051
-709.660	-200.000	0.039	0.287
-708.645	106.516	0.201	-0.244
-707.631	138.333	-0.045	0.061
-706.616	337.963	0.054	-0.107
-705.602	117.593	-0.220	-0.276
-704.587	-200.000	0.063	-0.301
-703.572	62.874	0.316	-0.323
-702.558	800.000	0.045	0.162
-701.543	163.500	0.064	-0.091
-700.529	-200.000	-0.045	0.347
-699.514	-35.122	0.240	-0.134
-698.499	163.352	0.118	0.170
-697.485	-104.996	0.133	0.031
-696.470	-39.093	-0.252	0.135
-695.456	-164.968	0.097	0.004
-694.441	159.799	-0.213	0.302
-693.426	237.091	0.138	-0.234
-692.412	-117.207	0.108	-0.020
-691.397	-103.500	-0.420	-0.101
-690.383	-96.929	-0.381	-0.102
-689.368	263.606	-0.206	0.366
-688.354	800.000	0.036	-0.123
-687.339	-114.757	-0.071	0.014
-686.324	-200.000	0.012	-0.110
-685.310	-200.000	-0.028	-0.137
-684.295	-113.493	-0.164	0.033
-683.281	-147.960	0.177	-0.015
-682.266	-5.842	0.168	0.117
-681.251	-92.521	-0.078	-0.022
-680.237	800.000	0.022	0.072
-679.222	16.577	0.181	-0.146
-678.208	40.086	-0.395	-0.362
-677.193	-200.000	-0.034	-0.170
-676.178	-29.645	-0.110	0.064
-675.164	-200.000	-0.069	-0.553
-674.149	78.889	-0.064	-0.070
-673.135	-106.239	-0.089	0.020
-672.120	-200.000	-0.038	-0.173
-671.105	105.207	0.239	-0.288
-670.091	-133.387	0.452	-0.058
-669.076	-125.587	0.103	0.016
-668.062	-129.761	0.123	-0.017
-667.047	492.048	0.050	-0.117
-666.032	-130.744	0.239	0.033
-665.018	657.883	0.046	0.121
-664.003	206.354	0.031	0.049
-662.989	-116.681	-0.066	-0.012
-661.974	62.036	-0.183	0.186
-660.959	115.232	0.162	0.202
-659.945	-73.613	0.122	-0.045
-658.930	800.000	0.049	0.151
-657.916	-98.315	-0.131	0.034
-656.901	-73.057	-0.298	0.111
-655.886	-21.015	0.140	0.087
-654.872	-0.397	0.160	-0.116
-653.857	-200.000	0.036	0.235
-652.843	70.225	0.322	0.338
-651.828	315.665	-0.115	0.220
-650.814	147.639	-0.203	-0.278
-649.799	-56.429	-0.198	-0.089
-648.784	800.000	0.032	0.105
-647.770	0.873	0.233	0.170
-646.755	-200.000	0.002	0.214
-645.741	-200.000	-0.041	-0.295
-644.726	-135.496	-0.219	0.027
-643.711	-105.692	-0.266	0.061
-642.697	-119.688	-0.443	0.078
-641.682	-163.087	0.061	0.003
-640.668	-56.480	-0.096	0.043
-639.653	-80.646	0.087	-0.029
-638.638	-185.328	-0.262	0.004
-637.624	-78.370	0.071	0.025
-636.609	333.714	0.155	-0.305
-635.595	-194.324	0.087	-0.001
-634.580	368.500	-0.071	-0.146
-633.565	-56.922	-0.157	-0.071
-632.551	157.128	-0.182	-0.256
-631.536	-127.606	0.049	-0.007
-630.522	360.637	0.093	-0.189
-629.507	-55.766	0.081	0.037
-628.492	800.000	-0.055	-0.172
-627.478	431.645	0.134	-0.296
-626.463	-200.000	0.005	-0.203
-625.449	-66.027	0.104	0.042
-624.434	-3.802	-0.179	-0.126
-623.419	28.642	0.117	-0.101
-622.405	503.236	0.105	-0.246
-621.390	153.369	0.136	0.189
-620.376	57.822	-0.157	-0.156
-619.361	-65.187	-0.313	-0.128
-618.346	17.267	0.156	0.126
-617.332	-90.059	-0.235	-0.070
-616.317	-200.000	-0.047	-0.493
-615.303	800.000	0.032	-0.113
-614.288	800.000	-0.038	-0.152
-613.273	5.279	-0.252	-0.189
-612.259	-19.952	-0.154	-0.096
-611.244	139.396	0.029	0.039
-610.230	121.969	-0.097	-0.124
-609.215	-27.483	-0.060	-0.035
-608.201	133.666	0.113	-0.149
-607.186	-78.257	0.219	-0.076
-606.171	-200.000	0.103	-0.505
-605.157	-147.987	-0.165	-0.014
-604.142	379.240	-0.041	0.086
-603.128	35.665	0.250	0.223
-602.113	-166.911	-0.294	0.012
-601.098	197.762	-0.240	-0.373
-600.084	800.000	-0.056	-0.197
-599.069	20.458	0.115	0.095
-598.055	393.867	-0.103	-0.219
-597.040	120.441	0.042	-0.053
-596.025	-80.582	0.194	-0.066
-595.011	800.000	-0.052	-0.156
-593.996	-29.787	0.153	-0.088
-592.982	-31.156	0.161	-0.092
-591.967	-97.961	-0.244	-0.064
-590.952	-200.000	0.017	0.122
-589.938	-95.413	-0.114	-0.031
-588.923	38.082	-0.096	-0.087
-587.909	17.801	-0.293	-0.237
-586.894	-128.169	0.434	0.063
-585.879	-192.850	-0.092	0.001
-584.865	-33.422	-0.144	0.081
-583.850	800.000	0.046	0.181
-582.836	131.566	-0.032	-0.041
-581.821	665.994	-0.042	0.111
-580.806	800.000	0.015	0.068
-579.792	-17.391	-0.148	0.095
-578.777	800.000	-0.081	-0.339
-577.763	-138.015	0.149	0.017
-576.748	30.686	-0.213	0.185
-575.733	7.712	0.227	0.173
-574.719	-172.619	-0.143	-0.005
-573.704	522.579	-0.069	-0.163
-572.690	-71.293	0.131	-0.050
-571.675	-161.073	0.101	-0.005
-570.661	33.752	-0.143	0.126
-569.646	-200.000	-0.054	-0.390
-568.631	-102.554	0.157	-0.038
-567.617	-98.526	-0.123	0.032
-566.602	-118.080	-0.152	-0.028
-565.588	92.574	0.090	-0.103
-564.573	-107.897	-0.078	0.017
-563.558	489.277	0.117	-0.270
-562.544	-38.797	0.208	-0.111
-561.529	-200.000	-0.011	0.215
-560.515	800.000	-0.017	0.050
-559.500	-117.008	0.118	0.022
-558.485	314.704	-0.125	-0.238
-557.471	335.220	0.110	0.216
-556.456	800.000	0.064	0.205
-555.442	-123.368	0.179	0.029
-554.427	800.000	-0.013	0.055
-553.412	-200.000	0.015	0.192
-552.398	26.699	0.215	-0.183
-551.383	1.114	0.275	0.200
-550.369	-128.733	0.230	-0.033
-549.354	-10.138	0.164	0.110
-548.339	-113.490	-0.382	0.076
-547.325	132.087	-0.371	-0.485
-546.310	-192.613	0.314	-0.003
-545.296	-33.636	0.161	-0.090
-544.281	81.886	-0.114	-0.125
-543.266	716.571	0.015	0.039
-542.252	-188.383	-0.312	-0.004
-541.237	239.287	-0.046	-0.078
-540.223	-59.904	-0.089	-0.039
-539.208	-162.053	0.353	-0.018
-538.193	-181.639	0.173	-0.003
-537.179	-58.194	-0.126	-0.056
-536.164	-81.690	0.103	-0.034
-535.150	-200.000	-0.031	0.216
-534.135	-200.000	-0.005	-0.080
-533.121	800.000	-0.055	-0.211
-532.106	765.259	0.116	-0.320
-531.091	318.233	-0.147	0.282
-530.077	3.593	0.084	-0.062
-529.062	-109.134	-0.151	-0.033
-528.048	-200.000	-0.008	-0.105
-527.033	-150.988	-0.197	-0.015
-526.018	-41.765	-0.253	-0.131
-525.004	800.000	0.091	-0.288
-523.989	751.950	-0.092	-0.250
-522.975	47.956	0.234	0.221
-521.960	98.976	-0.121	0.141
-520.945	-200.000	0.008	0.175
-519.931	-66.767	-0.119	-0.048
-518.916	-24.529	0.161	-0.097
-517.902	-114.627	0.272	-0.053
-516.887	-74.992	-0.382	0.138
-515.872	83.569	0.031	-0.034
-514.858	569.441	-0.102	-0.251
-513.843	-200.000	-0.005	0.097
-512.829	-200.000	-0.041	0.282
-511.814	-29.977	-0.289	-0.166
-510.799	14.265	-0.086	-0.068
-509.785	221.000	0.060	0.097
-508.770	-129.160	0.257	0.036
-507.756	175.482	-0.078	0.114
-506.741	117.114	-0.166	0.207
-505.726	-200.000	-0.010	0.338
-504.712	-118.240	-0.279	-0.050
-503.697	-28.136	0.097	0.057
-502.683	-94.407	0.133	-0.037
-501.668	-200.000	-0.293	0.001
-500.653	-200.000	-0.033	0.195
-499.639	608.457	-0.130	0.327
-498.624	482.970	0.081	0.186
-497.610	-75.572	-0.097	-0.035
-496.595	-200.000	-0.002	-0.339
-495.581	-42.321	0.172	0.089
-494.566	21.449	-0.029	0.024
-493.551	-42.358	-0.087	-0.045
-492.537	148.799	0.096	-0.132
-491.522	-200.000	0.007	-0.083
-490.508	407.974	-0.049	0.104
-489.493	-58.682	-0.175	0.077
-488.478	69.134	0.161	0.167
-487.464	730.499	0.061	-0.164
-486.449	-5.317	-0.130	-0.090
-485.435	-12.991	0.067	0.044
-484.420	-200.000	-0.051	0.274
-483.405	-115.114	0.077	0.015
-482.391	126.271	0.170	0.217
-481.376	38.880	-0.125	0.112
-480.362	-200.000	0.007	-0.115
-479.347	800.000	-0.070	0.266
-478.332	-78.947	0.177	0.061
-477.318	-121.527	-0.253	-0.042
-476.303	145.609	-0.142	0.192
-475.289	800.000	0.042	-0.156
-474.274	-37.939	0.100	-0.054
-473.259	800.000	0.076	-0.259
-472.245	-200.000	-0.073	0.361
-471.230	3.324	-0.117	0.086
-470.216	-200.000	-0.011	-0.223
-469.201	137.240	-0.165	-0.218
-468.186	12.709	0.153	0.119
-467.172	-200.000	-0.029	0.408
-466.157	77.411	0.103	0.111
-465.143	-49.979	0.307	-0.147
-464.128	-74.906	-0.166	-0.060
-463.113	-131.326	0.129	0.017
-462.099	-200.000	-0.007	-0.053
-461.084	70.851	0.319	0.334
-460.070	-24.890	-0.275	0.165
-459.055	601.110	0.127	-0.318
-458.040	58.719	0.160	-0.159
-457.026	-200.000	0.047	-0.374
-456.011	800.000	-0.109	0.421
-454.997	-19.021	0.128	-0.080
-453.982	405.305	0.157	0.335
-452.968	-64.615	0.345	0.141
-451.953	51.407	0.127	0.122
-450.938	632.599	-0.063	-0.161
-449.924	-184.133	0.254	0.004
-448.909	253.703	-0.157	-0.270
-447.895	-200.000	0.024	-0.236
-446.880	93.352	-0.053	-0.061
-445.865	-200.000	-0.021	0.258
-444.851	800.000	0.030	-0.129
-443.836	-161.328	0.350	-0.018
-442.822	121.224	0.147	-0.185
-441.807	-145.584	0.404	-0.037
-440.792	-44.128	-0.188	0.095
-439.778	270.324	0.072	-0.128
-438.763	800.000	-0.034	-0.098
-437.749	529.287	-0.044	0.105
-436.734	-52.469	-0.200	-0.094
-435.719	-116.586	0.354	0.066
-434.705	-124.063	0.132	-0.021
-433.690	480.799	0.134	0.307
-432.676	181.708	0.033	0.049
-431.661	57.068	0.119	0.117
-430.646	-129.760	0.069	0.010
-429.632	91.539	0.206	-0.233
-428.617	-67.216	-0.180	-0.072
-427.603	3.259	-0.094	-0.069
-426.588	-84.155	-0.182	0.058
-425.573	583.491	0.049	0.121
-424.559	232.807	-0.074	-0.123
-423.544	220.753	0.092	-0.149
-422.530	-16.833	0.257	0.164
-421.515	-129.407	-0.283	0.040
-420.500	361.631	-0.066	0.134
-419.486	172.102	-0.162	0.235
-418.471	-119.693	0.249	-0.043
-417.457	-200.000	-0.011	0.114
-416.442	800.000	0.035	-0.109
-415.428	800.000	0.048	-0.161
-414.413	533.054	0.174	0.415
-413.398	61.839	0.087	-0.087
-412.384	175.516	0.146	-0.213
-411.369	-200.000	-0.022	0.234
-410.355	154.752	0.250	0.347
-409.340	-95.426	-0.251	-0.068
-408.325	-200.000	0.020	-0.217
-407.311	72.636	0.119	-0.126
-406.296	-40.934	0.168	0.088
-405.282	-100.474	-0.275	-0.069
-404.267	-200.000	0.004	0.197
-403.252	-23.996	-0.122	0.074
-402.238	-200.000	0.081	0.541
-401.223	-168.896	0.162	-0.006
-400.209	72.103	0.114	-0.119
-399.194	24.845	0.108	-0.091
-398.179	-133.266	0.303	0.039
-397.165	193.660	0.122	0.186
-396.150	-98.896	-0.263	0.067
-395.136	91.587	0.023	0.027
-394.121	318.577	0.074	-0.142
-393.106	118.620	0.145	0.180
-392.092	-116.353	0.125	-0.023
-391.077	-44.256	-0.199	-0.100
-390.063	99.575	-0.150	-0.175
-389.048	-93.880	-0.092	-0.025
-388.033	-200.000	0.002	0.013
-387.019	-200.000	-0.029	-0.198
-386.004	-127.176	0.255	-0.038
-384.990	-82.123	0.183	-0.060
-383.975	-44.669	-0.122	0.061
-382.960	-200.000	0.072	0.332
-381.946	-174.852	0.198	-0.006
-380.931	425.294	-0.161	-0.350
-379.917	-104.208	0.204	0.048
-378.902	752.676	-0.040	0.108
-377.888	124.818	-0.158	-0.200
-376.873	685.777	-0.032	0.085
-375.858	99.258	-0.156	0.182
-374.844	-159.034	0.279	-0.016
-373.829	-118.317	-0.281	-0.050
-372.815	-6.773	0.353	-0.242
-371.800	44.289	0.240	-0.222
-370.785	800.000	-0.095	0.330
-369.771	-200.000	0.003	-0.163
-368.756	-99.654	0.080	-0.020
-367.742	74.736	0.042	0.045
-366.727	-74.183	-0.239	0.087
-365.712	23.524	0.094	-0.078
-364.698	-95.769	-0.124	-0.033
-363.683	-10.879	-0.227	-0.151
-362.669	-200.000	-0.007	0.254
-361.654	-161.090	-0.295	-0.016
-360.639	31.313	-0.197	0.170
-359.625	-40.940	0.345	-0.180
-358.610	144.527	-0.150	0.202
-357.596	-39.259	0.279	-0.147
-356.581	-157.093	-0.519	-0.032
-355.566	2.373	-0.168	0.122
-354.552	-1.793	-0.113	-0.080
-353.537	-114.655	-0.217	0.042
-352.523	-193.902	-0.217	-0.002
-351.508	-72.179	-0.285	0.106
-350.493	-200.000	-0.043	-0.232
-349.479	-67.683	-0.078	-0.031
-348.464	-69.779	0.082	0.032
-347.450	-200.000	0.042	0.342
-346.435	-141.614	-0.100	-0.010
-345.420	55.078	-0.129	-0.126
-344.406	-172.942	-0.360	0.011
-343.391	-97.214	0.175	-0.046
-342.377	-84.664	-0.304	-0.096
-341.362	-8.683	-0.175	0.118
-340.348	-57.203	0.219	0.097
-339.333	-146.579	0.111	0.010
-338.318	800.000	0.154	0.545
-337.304	-126.870	-0.277	-0.041
-336.289	138.960	0.159	-0.210
-335.275	-78.759	-0.194	-0.067
-334.260	-135.948	0.218	0.026
-333.245	-85.156	-0.141	0.044
-332.231	519.558	-0.122	0.287
-331.216	-31.602	0.151	0.085
-330.202	15.140	0.323	-0.255
-329.187	-200.000	-0.017	0.369
-328.172	209.272	-0.048	-0.076
-327.158	-104.832	0.061	0.014
-326.143	-200.000	0.002	-0.132
-325.129	154.824	0.118	0.163
-324.114	-62.139	-0.092	0.038
-323.099	800.000	-0.047	0.165
-322.085	-29.787	-0.033	-0.019
-321.070	-3.280	-0.122	-0.085
-320.056	-200.000	-0.023	-0.195
-319.041	-72.654	0.197	-0.073
-318.026	279.155	0.156	-0.280
-317.012	-48.294	0.142	0.069
-315.997	800.000	-0.070	0.234
-314.983	-55.354	0.017	0.007
-313.968	185.677	0.195	-0.291
-312.953	215.839	0.046	0.073
-311.939	0.312	-0.126	0.090
-310.924	-200.000	0.010	0.064
-309.910	21.012	0.220	0.179
-308.895	-200.000	-0.001	0.123
-307.880	87.106	-0.200	0.221
-306.866	34.044	0.205	0.179
-305.851	-136.525	-0.152	0.018
-304.837	14.423	0.159	0.124
-303.822	-155.834	0.263	0.017
-302.807	400.911	-0.076	0.161
-301.793	-200.000	-0.003	-0.111
-300.778	59.537	0.166	-0.164
-299.764	-126.874	-0.221	0.033
-298.749	27.698	-0.266	-0.225
-297.735	33.531	0.160	0.140
-296.720	-200.000	-0.089	-0.392
-295.705	190.797	0.158	0.238
-294.691	-124.981	-0.084	0.013
-293.676	-200.000	-0.003	-0.350
-292.662	-121.127	-0.090	-0.015
-291.647	-200.000	0.013	-0.245
-290.632	-99.044	0.268	-0.068
-289.618	800.000	-0.026	-0.088
-288.603	-71.746	-0.034	-0.013
-287.589	21.708	-0.130	-0.106
-286.574	800.000	-0.084	-0.266
-285.559	-142.727	-0.301	0.029
-284.545	-98.070	0.096	0.025
-283.530	235.624	0.121	-0.201
-282.516	8.190	-0.093	-0.070
-281.501	-108.841	0.260	0.056
-280.486	149.840	-0.067	0.092
-279.472	4.164	-0.186	-0.136
-278.457	-200.000	0.030	0.216
-277.443	-11.901	-0.220	0.145
-276.428	-99.304	0.090	0.023
-275.413	109.983	-0.150	-0.180
-274.399	32.238	0.239	0.207
-273.384	-1.298	-0.268	-0.190
-272.370	-126.278	-0.208	-0.031
-271.355	-50.433	0.153	-0.073
-270.340	-200.000	0.004	0.192
-269.326	308.142	-0.079	0.147
-268.311	800.000	-0.034	0.145
-267.297	-191.223	0.024	0.000
-266.282	72.339	0.256	0.268
-265.267	13.024	-0.255	-0.198
-264.253	142.442	0.129	0.171
-263.238	-92.338	-0.372	0.105
-262.224	-182.346	0.121	0.002
-261.209	-200.000	0.022	-0.130
-260.195	-127.173	-0.071	0.010
-259.180	-114.829	-0.368	0.070
-258.165	-133.608	0.261	-0.033
-257.151	40.795	-0.234	-0.212
-256.136	-77.655	-0.351	0.122
-255.122	-6.758	0.098	0.067
-254.107	-148.720	0.323	0.026
-253.092	-200.000	0.039	0.190
-252.078	-200.000	0.018	0.223
-251.063	-78.607	0.460	0.157
-250.049	-94.414	-0.335	-0.091
-249.034	430.710	0.070	0.151
-248.019	-111.796	-0.372	-0.075
-247.005	-200.000	0.020	-0.114
-245.990	100.610	-0.098	-0.114
-244.976	-12.961	-0.097	0.063
-243.961	-42.214	-0.105	0.054
-242.946	-161.053	-0.177	0.009
-241.932	40.213	0.284	-0.256
-240.917	-104.540	0.038	0.009
-239.903	-74.209	-0.207	-0.075
-238.888	-137.607	-0.050	0.006
-237.873	-12.164	0.162	-0.106
-236.859	275.561	0.219	0.389
-235.844	-134.003	0.162	0.020
-234.830	-50.589	0.032	-0.015
-233.815	96.285	-0.102	0.117
-232.800	-102.436	0.257	0.062
-231.786	-73.329	0.103	0.038
-230.771	192.486	0.129	0.194
-229.757	800.000	0.086	0.284
-228.742	522.489	-0.056	-0.131
-227.727	-200.000	-0.030	0.135
-226.713	-200.000	-0.041	-0.185
-225.698	-66.975	-0.288	0.114
-224.684	800.000	0.054	-0.200
-223.669	-78.269	0.096	-0.033
-222.655	-56.331	0.142	-0.063
-221.640	-7.632	0.159	-0.108
-220.625	-175.225	0.380	0.010
-219.611	-18.827	-0.254	-0.158
-218.596	-117.511	0.070	-0.013
-217.582	-144.006	-0.115	0.011
-216.567	-37.551	-0.063	-0.034
-215.552	261.877	0.057	0.098
-214.538	-75.254	-0.133	0.047
-213.523	800.000	-0.044	0.162
-212.509	184.332	0.052	0.077
-211.494	-200.000	0.051	0.242
-210.479	128.208	0.134	0.171
-209.465	800.000	0.089	0.309
-208.450	13.279	0.231	-0.179
-207.436	294.659	-0.139	0.253
-206.421	-5.075	-0.143	0.099
-205.406	56.514	0.114	0.111
-204.392	800.000	0.108	0.398
-203.377	-69.149	-0.084	0.033
-202.363	-124.138	0.144	0.023
-201.348	-200.000	-0.026	0.196
-200.333	335.501	0.121	-0.235
-199.319	156.111	-0.177	0.244
-198.304	334.987	0.059	0.114
-197.290	-200.000	0.006	-0.072
-196.275	-25.651	0.017	-0.010
-195.260	86.916	-0.235	0.259
-194.246	-200.000	-0.019	0.161
-193.231	-23.846	-0.113	0.068
-192.217	-11.320	0.172	0.113
-191.202	-34.084	0.123	-0.068
-190.187	45.100	-0.172	-0.159
-189.173	-82.621	-0.006	0.002
-188.158	-2.140	-0.145	-0.101
-187.144	161.086	0.224	-0.313
-186.129	-200.000	0.007	-0.088
-185.114	-67.877	-0.231	-0.090
-184.100	690.356	0.047	-0.123
-183.085	-34.207	0.218	-0.120
-182.071	23.200	-0.172	0.141
-181.056	-159.762	0.140	-0.008
-180.042	-200.000	0.021	0.110
-179.027	522.729	-0.116	-0.272
-178.012	-200.000	0.008	-0.281
-176.998	-72.290	-0.114	-0.042
-175.983	171.673	0.103	-0.147
-174.969	-200.000	-0.024	0.211
-173.954	800.000	0.026	0.095
-172.939	-7.728	-0.281	-0.190
-171.925	214.999	-0.065	0.102
-170.910	216.376	0.097	0.155
-169.896	-19.999	-0.179	-0.110
-168.881	-100.619	0.109	-0.027
-167.866	5.763	0.145	-0.107
-166.852	154.566	0.081	0.111
-165.837	-7.890	0.272	-0.183
-164.823	-60.905	0.244	0.103
-163.808	-44.613	0.280	0.140
-162.793	-40.122	-0.150	0.078
-161.779	561.135	0.194	0.467
-160.764	16.951	-0.222	-0.176
-159.750	-90.005	0.029	-0.008
-158.735	-106.180	-0.227	-0.051
-157.720	-14.957	-0.217	0.139
-156.706	15.464	0.089	-0.070
-155.691	-55.216	0.199	0.089
-154.677	-179.211	-0.272	-0.006
-153.662	-148.510	-0.221	0.018
-152.647	-9.479	0.410	-0.273
-151.633	68.396	0.149	0.153
-150.618	800.000	0.015	0.055
-149.604	-56.793	-0.076	-0.034
-148.589	-200.000	-0.024	0.127
-147.574	710.420	0.094	-0.249
-146.560	-80.831	-0.210	0.069
-145.545	-21.613	-0.164	-0.100
-144.531	800.000	0.082	-0.309
-143.516	74.342	-0.057	0.060
-142.502	-137.781	0.350	0.039
-141.487	-200.000	0.044	-0.205
-140.472	114.134	-0.096	-0.116
-139.458	-129.558	-0.410	-0.057
-138.443	275.480	0.166	0.293
-137.429	80.569	0.087	0.094
-136.414	153.353	0.228	-0.312
-135.399	457.046	0.026	0.057
-134.385	451.539	0.049	-0.108
-133.370	79.114	-0.146	-0.156
-132.356	184.512	-0.226	0.333
-131.341	-89.953	0.234	0.068
-130.326	800.000	0.078	0.286
-129.312	-200.000	0.009	0.301
-128.297	214.428	-0.044	-0.069
-127.283	227.439	-0.057	0.093
-126.268	-104.758	0.093	0.021
-125.253	-116.172	-0.380	-0.070
-124.239	-111.950	0.401	0.081
-123.224	-72.777	-0.229	0.084
-122.210	-92.985	-0.145	-0.040
-121.195	800.000	-0.024	-0.070
