DTS Sentinel unit serial number:	SN413079Multiplexer serial number:	ORYXHardware model number:	OX4-SRSoftware version number:	ORYX F/W v4.00 Oryx Data Collector v3.7.2.0data status	okinstallation	princeton_trtdifferential loss correction	single-endedforward channel	channel 4reverse channel	N/Adate	2019/09/17time	09:17:35forward acquisition time	60.00reverse acquisition time	0.00gamma	496.2192k internal	0.2314k external	0.2314temperature offset calibration	0.9975default loss term (dB/km)	0.3790temperature slope calibration	1.0000multiplexer offset coefficient	1.0000multiplexer slope coefficient	1.0000fibre end	0.00T internal ref (°C)	28.56T ext. ref 1 (°C)	0.14T ext. ref 2 (°C)	25.52length (m)	temperature (°C)	Stokes	anti-Stokes-747.200	-200.000	-0.030	0.225
-746.185	521.376	-0.036	0.087
-745.171	-101.418	-0.237	0.059
-744.156	337.663	0.149	0.294
-743.142	-92.722	-0.098	-0.028
-742.127	-44.875	-0.422	0.213
-741.112	-98.156	0.181	0.047
-740.098	-41.072	-0.381	0.199
-739.083	-61.958	-0.184	0.078
-738.069	25.459	-0.282	0.238
-737.054	-89.888	0.269	0.080
-736.039	173.076	-0.127	-0.185
-735.025	281.019	0.147	-0.267
-734.010	-116.844	-0.334	-0.062
-732.996	800.000	-0.065	-0.250
-731.981	26.966	0.141	-0.120
-730.966	-88.718	-0.223	-0.067
-729.952	63.689	-0.233	-0.237
-728.937	-143.571	-0.262	0.025
-727.923	-123.367	-0.269	-0.043
-726.908	-86.886	-0.143	0.044
-725.894	800.000	0.095	-0.279
-724.879	79.159	-0.139	-0.151
-723.864	-85.725	-0.356	-0.112
-722.850	204.112	-0.161	0.253
-721.835	322.463	-0.021	-0.041
-720.821	77.812	-0.088	-0.095
-719.806	34.210	0.109	-0.096
-718.791	535.056	0.143	0.343
-717.777	-66.294	0.176	-0.071
-716.762	-200.000	0.037	0.240
-715.748	69.110	0.158	0.164
-714.733	-99.704	-0.143	0.036
-713.718	-165.885	-0.147	-0.006
-712.704	-108.576	-0.462	0.101
-711.689	-200.000	0.070	0.344
-710.675	-29.266	0.339	0.197
-709.660	144.161	-0.230	-0.311
-708.645	-117.672	0.099	0.018
-707.631	800.000	-0.114	-0.325
-706.616	-123.590	0.263	0.042
-705.602	264.059	0.154	-0.271
-704.587	-147.044	0.076	0.007
-703.572	-101.388	0.048	0.012
-702.558	6.278	0.127	-0.095
-701.543	-200.000	0.040	-0.284
-700.529	-200.000	-0.050	-0.268
-699.514	74.276	0.183	0.194
-698.499	117.472	-0.086	-0.107
-697.485	83.953	-0.237	0.262
-696.470	9.616	0.125	-0.096
-695.456	-200.000	-0.001	0.082
-694.441	-200.000	0.011	-0.074
-693.426	132.893	0.259	-0.338
-692.412	-26.620	-0.169	0.100
-691.397	800.000	-0.031	-0.088
-690.383	-200.000	-0.017	0.148
-689.368	137.162	-0.082	0.109
-688.354	-19.518	-0.324	-0.203
-687.339	96.828	-0.023	-0.026
-686.324	295.099	0.031	0.058
-685.310	227.992	-0.101	0.167
-684.295	564.739	-0.023	0.056
-683.281	-200.000	0.035	-0.249
-682.266	-200.000	-0.008	0.355
-681.251	651.201	-0.139	0.361
-680.237	800.000	0.054	0.237
-679.222	208.916	-0.155	0.245
-678.208	-67.376	-0.171	0.068
-677.193	201.795	0.133	0.207
-676.178	-200.000	0.159	-0.000
-675.164	52.902	0.096	0.093
-674.149	-200.000	-0.001	0.096
-673.135	418.516	-0.007	0.016
-672.120	-139.729	-0.092	-0.010
-671.105	-119.254	-0.203	-0.036
-670.091	800.000	0.040	0.134
-669.076	298.866	0.032	-0.059
-668.062	275.145	-0.104	-0.185
-667.047	-14.346	0.239	0.155
-666.032	125.325	-0.151	0.193
-665.018	-200.000	-0.025	0.125
-664.003	800.000	0.016	-0.046
-662.989	-120.922	-0.161	0.027
-661.974	-51.222	0.139	-0.066
-660.959	17.049	0.195	0.156
-659.945	-142.998	-0.168	-0.016
-658.930	-85.638	-0.490	0.154
-657.916	309.538	0.118	0.224
-656.901	-28.427	0.328	-0.191
-655.886	66.669	0.197	0.203
-654.872	-53.372	-0.287	-0.133
-653.857	173.366	0.122	-0.178
-652.843	-119.458	-0.261	-0.046
-651.828	-60.625	-0.109	0.047
-650.814	104.718	0.117	-0.139
-649.799	194.119	0.231	-0.353
-648.784	-165.880	0.110	0.005
-647.770	54.409	0.173	-0.169
-646.755	-134.496	-0.309	0.038
-645.741	-200.000	0.004	-0.151
-644.726	800.000	0.028	0.087
-643.711	432.903	-0.158	0.346
-642.697	-75.580	0.380	0.136
-641.682	44.719	-0.092	0.085
-640.668	3.856	-0.172	0.127
-639.653	214.384	0.087	0.139
-638.638	-122.080	-0.194	-0.032
-637.624	-84.498	0.144	-0.046
-636.609	-17.045	0.134	-0.086
-635.595	56.371	-0.064	0.063
-634.580	112.633	0.063	0.076
-633.565	6.429	-0.136	0.102
-632.551	-200.000	0.030	-0.225
-631.536	99.712	0.062	0.072
-630.522	-35.719	-0.179	-0.098
-629.507	153.515	0.150	0.207
-628.492	-149.254	-0.131	-0.011
-627.478	-200.000	0.055	-0.268
-626.463	-47.865	0.095	-0.046
-625.449	-149.065	-0.367	0.030
-624.434	162.944	0.057	-0.080
-623.419	-5.601	-0.014	0.009
-622.405	185.634	0.099	-0.149
-621.390	-59.287	-0.152	-0.066
-620.376	240.848	0.135	-0.226
-619.361	-7.758	0.208	0.142
-618.346	800.000	-0.111	-0.367
-617.332	-174.559	-0.029	-0.001
-616.317	-200.000	0.047	-0.267
-615.303	-200.000	0.005	0.075
-614.288	124.467	0.232	0.294
-613.273	-62.474	-0.133	-0.056
-612.259	76.934	-0.296	-0.317
-611.244	800.000	-0.016	-0.047
-610.230	-57.904	-0.267	0.118
-609.215	-200.000	0.011	-0.335
-608.201	-200.000	0.007	0.208
-607.186	-200.000	0.011	-0.084
-606.171	-200.000	0.053	-0.388
-605.157	-1.414	0.207	0.147
-604.142	26.830	0.271	-0.229
-603.128	34.254	0.203	0.178
-602.113	-38.615	0.091	0.048
-601.098	109.246	-0.135	-0.163
-600.084	294.815	0.078	-0.143
-599.069	-83.310	0.234	0.076
-598.055	-13.561	-0.265	-0.173
-597.040	239.935	-0.066	0.110
-596.025	-200.000	0.064	-0.307
-595.011	-200.000	-0.015	0.200
-593.996	-103.148	-0.265	-0.063
-592.982	40.748	-0.109	0.099
-591.967	254.582	-0.043	0.073
-590.952	85.674	0.031	-0.034
-589.938	-33.685	0.488	-0.271
-588.923	-59.494	0.107	-0.046
-587.909	81.429	-0.064	-0.070
-586.894	-35.611	-0.344	0.188
-585.879	39.706	-0.238	0.215
-584.865	21.357	0.231	-0.189
-583.850	-111.265	0.112	-0.023
-582.836	762.366	0.037	-0.100
-581.821	-35.880	0.068	-0.037
-580.806	91.783	0.094	0.106
-579.792	13.322	-0.038	0.030
-578.777	-77.020	-0.327	-0.115
-577.763	-146.977	-0.190	-0.016
-576.748	-200.000	0.027	-0.132
-575.733	-95.704	0.137	-0.037
-574.719	-127.133	0.310	0.046
-573.704	-116.058	0.305	0.057
-572.690	214.235	-0.107	0.170
-571.675	-200.000	0.005	0.067
-570.661	-123.961	-0.369	0.059
-569.646	63.614	-0.090	0.091
-568.631	278.857	-0.119	0.213
-567.617	196.080	0.200	0.307
-566.602	173.655	-0.074	-0.108
-565.588	-148.131	-0.137	-0.011
-564.573	56.452	-0.288	0.282
-563.558	85.589	0.156	0.173
-562.544	-200.000	0.000	0.045
-561.529	-112.839	-0.355	-0.071
-560.515	358.257	-0.039	-0.079
-559.500	800.000	-0.026	0.113
-558.485	-157.231	0.500	0.030
-557.471	-140.907	-0.360	-0.037
-556.456	-116.649	-0.181	0.033
-555.442	-20.979	-0.206	0.127
-554.427	276.632	0.157	-0.281
-553.412	-94.610	0.140	0.038
-552.398	800.000	-0.100	-0.382
-551.383	703.278	-0.071	0.188
-550.369	255.212	0.047	-0.081
-549.354	-200.000	0.050	-0.232
-548.339	-10.662	0.137	-0.091
-547.325	-17.374	0.049	-0.031
-546.310	-128.492	-0.125	-0.018
-545.296	-29.928	-0.141	0.081
-544.281	800.000	-0.071	0.207
-543.266	155.754	-0.019	-0.026
-542.252	-200.000	-0.029	0.197
-541.237	203.917	0.054	0.084
-540.223	-200.000	-0.012	0.152
-539.208	121.658	0.086	0.108
-538.193	800.000	-0.075	-0.321
-537.179	-50.894	0.095	0.045
-536.164	16.609	-0.166	-0.132
-535.150	-200.000	0.319	-0.001
-534.135	751.941	0.032	-0.087
-533.121	-48.235	0.121	0.059
-532.106	-86.114	-0.267	-0.083
-531.091	-80.570	0.245	0.082
-530.077	188.362	0.122	-0.183
-529.062	-39.176	-0.149	0.079
-528.048	152.914	0.193	0.266
-527.033	-81.861	0.123	-0.041
-526.018	-134.654	-0.128	0.016
-525.004	-51.621	0.129	0.061
-523.989	14.977	-0.046	0.036
-522.975	-200.000	-0.072	0.417
-521.960	-86.016	-0.247	-0.077
-520.945	-200.000	-0.022	0.317
-519.931	-94.661	-0.240	0.066
-518.916	-200.000	0.115	-0.000
-517.902	-73.812	0.247	0.090
-516.887	-35.558	0.238	0.130
-515.872	297.301	-0.092	0.170
-514.858	800.000	-0.058	0.209
-513.843	255.850	-0.096	-0.166
-512.829	265.867	0.041	-0.072
-511.814	-200.000	0.052	0.247
-510.799	-7.327	0.154	0.104
-509.785	136.536	-0.201	-0.263
-508.770	-200.000	0.073	-0.322
-507.756	276.462	-0.016	-0.029
-506.741	273.317	-0.107	0.190
-505.726	26.819	0.453	0.382
-504.712	800.000	0.051	-0.208
-503.697	8.961	-0.117	0.089
-502.683	20.283	0.171	0.138
-501.668	442.182	-0.039	-0.086
-500.653	125.378	0.094	-0.119
-499.639	108.057	-0.078	-0.093
-498.624	99.655	-0.148	-0.172
-497.610	-200.000	0.058	-0.368
-496.595	-110.387	0.137	0.029
-495.581	410.139	0.039	0.083
-494.566	-200.000	0.006	0.061
-493.551	286.630	0.078	-0.141
-492.537	-61.874	-0.114	0.048
-491.522	-40.670	-0.295	-0.153
-490.508	-200.000	-0.017	0.166
-489.493	-182.447	0.142	-0.003
-488.478	111.215	0.172	-0.208
-487.464	-138.848	0.220	0.024
-486.449	800.000	0.088	-0.371
-485.435	148.995	0.058	-0.079
-484.420	-200.000	-0.004	-0.086
-483.405	40.667	0.199	0.180
-482.391	256.397	-0.164	0.282
-481.376	113.789	0.151	0.185
-480.362	800.000	-0.032	0.112
-479.347	73.507	0.071	-0.075
-478.332	-74.667	-0.217	0.078
-477.318	-65.233	-0.109	-0.044
-476.303	41.592	0.092	-0.083
-475.289	38.564	-0.103	-0.092
-474.274	-46.795	0.197	0.096
-473.259	6.449	0.178	-0.133
-472.245	355.894	0.090	0.179
-471.230	-24.411	-0.106	0.063
-470.216	-200.000	0.008	-0.073
-469.201	-200.000	-0.032	0.311
-468.186	-62.681	-0.259	0.108
-467.172	18.450	0.235	-0.188
-466.157	800.000	-0.089	-0.268
-465.143	-51.268	0.126	0.059
-464.128	-77.539	0.091	-0.032
-463.113	159.118	0.163	0.228
-462.099	33.470	0.159	0.138
-461.084	-41.881	-0.256	0.132
-460.070	83.396	0.142	-0.156
-459.055	500.059	-0.037	0.085
-458.040	-132.072	0.135	-0.018
-457.026	-200.000	-0.066	-0.504
-456.011	132.442	-0.071	0.092
-454.997	44.699	-0.295	0.271
-453.982	-38.834	-0.231	-0.122
-452.968	96.101	0.209	0.239
-451.953	-37.824	-0.541	-0.288
-450.938	-200.000	-0.005	-0.197
-449.924	800.000	0.108	0.377
-448.909	-134.924	0.385	-0.047
-447.895	203.243	0.139	-0.215
-446.880	13.333	0.143	-0.111
-445.865	-34.378	0.113	-0.062
-444.851	251.988	0.192	0.328
-443.836	-105.667	-0.280	-0.064
-442.822	539.887	-0.024	0.058
-441.807	180.739	0.254	0.374
-440.792	-200.000	0.014	-0.361
-439.778	-101.675	0.123	0.030
-438.763	414.167	-0.098	-0.210
-437.749	44.945	-0.158	-0.145
-436.734	26.490	-0.125	0.104
-435.719	800.000	-0.097	-0.292
-434.705	0.108	0.037	-0.026
-433.690	-200.000	0.006	-0.050
-432.676	-133.863	0.480	0.060
-431.661	-108.441	-0.234	0.050
-430.646	-46.871	-0.244	-0.120
-429.632	-88.284	0.032	-0.009
-428.617	-10.248	-0.160	0.106
-427.603	-45.386	0.230	-0.114
-426.588	215.694	0.119	-0.189
-425.573	-186.954	-0.161	0.002
-424.559	-114.566	-0.354	0.068
-423.544	-23.122	-0.391	-0.236
-422.530	-118.933	0.136	0.024
-421.515	76.815	0.106	0.113
-420.500	-85.925	0.020	0.006
-419.486	166.635	-0.093	-0.132
-418.471	-35.281	-0.120	-0.065
-417.457	122.266	-0.170	-0.213
-416.442	800.000	0.062	0.181
-415.428	-7.122	0.225	0.153
-414.413	-200.000	-0.032	0.246
-413.398	103.496	-0.065	-0.076
-412.384	-196.144	0.035	-0.000
-411.369	143.659	0.238	-0.317
-410.355	460.438	-0.107	-0.238
-409.340	-62.374	-0.225	-0.094
-408.325	-14.752	0.198	0.127
-407.311	-41.269	0.162	-0.084
-406.296	-89.818	0.312	-0.091
-405.282	-200.000	0.013	0.108
-404.267	-129.738	0.307	0.042
-403.252	-80.276	0.111	0.037
-402.238	113.866	-0.100	0.121
-401.223	28.789	-0.290	0.246
-400.209	-200.000	-0.019	-0.088
-399.194	-200.000	-0.015	0.186
-398.179	-166.480	0.310	0.013
-397.165	-200.000	-0.029	0.236
-396.150	-153.665	-0.208	-0.014
-395.136	-11.051	-0.081	-0.053
-394.121	169.285	-0.137	0.195
-393.106	-21.010	-0.139	-0.085
-392.092	22.103	-0.062	0.051
-391.077	164.387	-0.078	0.110
-390.063	800.000	-0.120	0.374
-389.048	122.639	0.201	0.251
-388.033	-200.000	-0.054	0.268
-387.019	-128.972	-0.095	-0.013
-386.004	-46.562	-0.120	0.059
-384.990	-67.885	-0.181	-0.071
-383.975	23.757	-0.201	-0.165
-382.960	-200.000	-0.001	-0.124
-381.946	-14.126	-0.294	-0.190
-380.931	99.185	0.069	-0.080
-379.917	800.000	0.064	0.183
-378.902	-39.856	0.090	0.047
-377.888	800.000	-0.058	-0.178
-376.873	800.000	-0.047	-0.145
-375.858	526.229	-0.123	-0.290
-374.844	-51.820	0.099	-0.046
-373.829	-200.000	-0.047	-0.442
-372.815	65.815	-0.063	-0.064
-371.800	800.000	0.088	0.257
-370.785	308.549	0.095	0.176
-369.771	799.016	0.090	0.249
-368.756	-89.665	-0.256	0.075
-367.742	325.126	0.216	-0.412
-366.727	619.652	0.095	-0.239
-365.712	70.881	-0.430	0.445
-364.698	484.424	0.101	0.229
-363.683	-5.389	0.198	0.136
-362.669	-200.000	0.081	-0.421
-361.654	-200.000	-0.012	-0.185
-360.639	-200.000	0.014	-0.171
-359.625	-123.686	0.135	0.021
-358.610	-59.551	-0.301	0.129
-357.596	313.456	0.055	0.104
-356.581	110.403	-0.058	-0.070
-355.566	205.238	0.135	-0.209
-354.552	-200.000	0.049	-0.223
-353.537	-30.533	-0.173	0.098
-352.523	20.402	-0.242	-0.196
-351.508	-76.018	-0.281	0.099
-350.493	-200.000	-0.019	0.233
-349.479	11.459	0.151	0.116
-348.464	219.819	-0.053	0.085
-347.450	-127.201	0.234	-0.034
-346.435	-18.995	0.076	-0.047
-345.420	-200.000	-0.015	0.265
-344.406	-109.828	0.510	0.107
-343.391	-139.687	0.185	-0.020
-342.377	-53.645	-0.112	0.051
-341.362	2.461	-0.153	-0.111
-340.348	-70.715	-0.224	-0.085
-339.333	-19.785	-0.019	-0.012
-338.318	343.756	-0.118	-0.231
-337.304	711.255	-0.134	-0.354
-336.289	800.000	-0.034	0.108
-335.275	48.274	0.257	0.240
-334.260	-41.195	-0.265	-0.137
-333.245	500.695	0.063	-0.146
-332.231	-64.381	-0.119	0.048
-331.216	49.150	-0.152	0.143
-330.202	-11.003	0.214	-0.141
-329.187	-18.117	0.087	0.054
-328.172	-59.562	-0.177	0.076
-327.158	56.353	0.255	-0.247
-326.143	365.588	0.206	-0.413
-325.129	-72.120	-0.368	-0.136
-324.114	15.615	0.343	-0.269
-323.099	-166.466	-0.389	0.016
-322.085	225.782	-0.197	-0.319
-321.070	-80.066	0.167	0.056
-320.056	-67.583	0.331	-0.130
-319.041	-82.629	0.241	0.078
-318.026	800.000	-0.030	0.123
-317.012	-47.782	0.260	-0.126
-315.997	39.401	0.286	0.255
-314.983	-124.836	0.386	-0.059
-313.968	-71.713	-0.244	-0.091
-312.953	800.000	0.079	-0.343
-311.939	-39.216	-0.253	-0.132
-310.924	194.709	-0.084	-0.127
-309.910	712.945	0.095	0.250
-308.895	-200.000	-0.059	-0.379
-307.880	800.000	-0.122	-0.349
-306.866	53.511	0.296	0.283
-305.851	-126.666	0.295	-0.043
-304.837	205.170	0.074	-0.114
-303.822	-61.063	0.059	0.025
-302.807	800.000	-0.032	0.097
-301.793	-27.427	0.028	0.016
-300.778	97.002	0.195	0.223
-299.764	-95.330	0.368	-0.099
-298.749	-49.997	0.284	0.134
-297.735	9.411	0.085	0.064
-296.720	-200.000	0.000	-0.070
-295.705	-77.563	0.372	-0.128
-294.691	7.666	0.124	-0.092
-293.676	-31.689	-0.192	0.107
-292.662	-116.704	-0.371	0.068
-291.647	800.000	0.019	-0.083
-290.632	-200.000	0.003	0.074
-289.618	-200.000	-0.056	-0.255
-288.603	-94.584	0.307	0.083
-287.589	-48.766	0.338	0.161
-286.574	-70.332	-0.041	0.015
-285.559	-94.843	0.405	0.109
-284.545	35.660	0.070	-0.061
-283.530	-5.552	-0.149	0.102
-282.516	800.000	-0.049	-0.151
-281.501	115.724	0.049	0.060
-280.486	-63.704	0.286	0.117
-279.472	1.104	-0.038	-0.027
-278.457	1.039	0.122	0.087
-277.443	4.669	0.104	0.076
-276.428	-200.000	0.010	0.170
-275.413	-41.302	-0.374	-0.192
-274.399	77.949	0.226	-0.240
-273.384	-53.099	0.112	-0.051
-272.370	4.346	0.092	0.067
-271.355	-200.000	-0.029	0.269
-270.340	-115.563	-0.127	-0.024
-269.326	175.325	-0.035	-0.051
-268.311	-105.451	-0.079	-0.018
-267.297	589.257	0.078	0.192
-266.282	-62.187	-0.156	-0.065
-265.267	93.349	0.199	0.224
-264.253	-200.000	-0.001	0.015
-263.238	800.000	0.064	0.209
-262.224	-58.325	-0.154	-0.066
-261.209	-104.181	-0.202	0.047
-260.195	162.538	0.132	0.185
-259.180	134.268	-0.176	-0.226
-258.165	-47.237	-0.251	-0.122
-257.151	-69.166	-0.342	0.131
-256.136	-100.448	-0.211	0.052
-255.122	-136.434	0.345	0.040
-254.107	-200.000	-0.049	-0.406
-253.092	45.765	-0.260	0.239
-252.078	-166.682	0.361	0.015
-251.063	55.119	0.105	-0.100
-250.049	56.731	-0.148	-0.143
-249.034	299.032	0.183	0.334
-248.019	225.873	0.105	0.168
-247.005	-83.269	0.189	-0.060
-245.990	762.998	0.071	-0.191
-244.976	-200.000	-0.035	0.363
-243.961	427.932	-0.167	0.358
-242.946	391.361	-0.118	0.244
-241.932	-21.384	-0.122	0.074
-240.917	-75.646	-0.448	0.158
-239.903	-144.164	-0.246	0.023
-238.888	58.095	0.070	0.068
-237.873	-121.605	-0.125	0.021
-236.859	-64.396	-0.143	0.058
-235.844	-87.261	0.167	-0.050
-234.830	-200.000	0.009	-0.284
-233.815	203.239	0.066	0.101
-232.800	-200.000	0.065	0.348
-231.786	-200.000	-0.012	-0.069
-230.771	-200.000	-0.037	0.258
-229.757	392.954	-0.172	0.355
-228.742	210.921	-0.107	-0.168
-227.727	-200.000	0.003	0.154
-226.713	800.000	0.052	-0.162
-225.698	-2.960	0.081	-0.056
-224.684	350.015	0.152	0.298
-223.669	-59.263	-0.147	-0.063
-222.655	-51.464	0.228	-0.106
-221.640	130.694	0.148	-0.189
-220.625	800.000	-0.059	0.168
-219.611	185.088	0.234	0.345
-218.596	-66.837	-0.117	0.046
-217.582	-200.000	-0.010	0.044
-216.567	-56.301	0.199	-0.088
-215.552	-0.673	-0.328	-0.231
-214.538	196.176	-0.106	-0.161
-213.523	-35.348	-0.143	-0.077
-212.509	-145.972	-0.233	0.020
-211.494	-25.297	-0.436	-0.256
-210.479	-159.375	-0.083	-0.005
-209.465	299.370	-0.054	0.099
-208.450	62.540	-0.064	0.063
-207.436	-42.422	-0.115	-0.058
-206.421	-111.359	0.502	-0.102
-205.406	-122.579	-0.346	0.056
-204.392	-49.615	0.141	-0.067
-203.377	280.991	0.220	-0.390
-202.363	-87.895	-0.408	0.122
-201.348	-13.978	0.115	-0.074
-200.333	-97.121	-0.225	-0.058
-199.319	-26.908	0.298	-0.173
-198.304	81.981	-0.013	-0.014
-197.290	800.000	-0.054	0.229
-196.275	-8.441	0.133	-0.089
-195.260	-4.785	-0.169	0.116
-194.246	143.216	0.113	-0.149
-193.231	183.819	-0.143	-0.209
-192.217	800.000	0.028	-0.118
-191.202	373.412	0.180	0.363
-190.187	-39.925	-0.157	0.081
-189.173	-78.730	-0.164	-0.056
-188.158	-70.005	0.226	-0.085
-187.144	274.834	0.197	0.345
-186.129	-74.342	0.201	0.072
-185.114	-200.000	0.010	-0.062
-184.100	-200.000	-0.008	-0.298
-183.085	-62.530	0.181	0.075
-182.071	-147.222	-0.140	-0.012
-181.056	-200.000	-0.056	0.330
-180.042	-200.000	-0.026	-0.225
-179.027	-64.407	-0.360	-0.145
-178.012	-200.000	-0.094	0.432
-176.998	-105.576	0.064	0.014
-175.983	-200.000	0.027	0.150
-174.969	639.937	0.052	-0.132
-173.954	-200.000	0.001	0.278
-172.939	-123.418	0.127	-0.020
-171.925	778.022	-0.019	0.050
-170.910	800.000	0.062	-0.209
-169.896	-100.482	0.243	-0.060
-168.881	13.758	-0.176	-0.135
-167.866	800.000	-0.070	0.250
-166.852	36.643	0.145	0.127
-165.837	-78.039	0.126	-0.043
-164.823	-39.179	-0.278	-0.145
-163.808	128.709	-0.124	0.156
-162.793	148.958	-0.189	0.254
-161.779	-200.000	-0.022	0.332
-160.764	-200.000	-0.038	0.171
-159.750	-95.861	-0.253	-0.067
-158.735	179.598	0.127	-0.184
-157.720	85.897	-0.194	-0.211
-156.706	-49.036	0.265	-0.126
-155.691	45.152	-0.122	-0.112
-154.677	-200.000	-0.044	-0.202
-153.662	-84.514	-0.341	0.107
-152.647	-76.764	-0.463	0.160
-151.633	-200.000	-0.041	0.257
-150.618	-199.698	0.127	0.001
-149.604	209.729	-0.190	-0.294
-148.589	-45.132	0.040	-0.020
-147.574	800.000	-0.025	-0.089
-146.560	-154.115	0.220	-0.015
-145.545	-200.000	-0.015	-0.292
-144.531	114.498	-0.144	0.174
-143.516	-116.377	0.215	0.039
-142.502	-200.000	-0.003	-0.117
-141.487	-200.000	-0.021	-0.109
-140.472	-162.364	0.322	-0.016
-139.458	-66.069	0.144	-0.057
-138.443	-140.435	0.171	-0.018
-137.429	800.000	0.050	0.145
-136.414	-200.000	-0.066	0.414
-135.399	-200.000	0.025	0.256
-134.385	-32.753	-0.379	-0.209
-133.370	800.000	0.022	-0.082
-132.356	129.020	-0.096	-0.121
-131.341	800.000	-0.058	-0.208
-130.326	324.212	-0.091	0.172
-129.312	95.559	-0.037	0.042
-128.297	145.003	-0.086	0.114
-127.283	93.492	-0.082	0.092
-126.268	81.880	0.093	0.100
-125.253	-29.214	0.343	0.194
-124.239	-52.073	0.190	-0.088
-123.224	-13.927	0.076	-0.049
-122.210	-109.405	0.216	0.045
-121.195	800.000	0.036	0.148
