DTS Sentinel unit serial number:	SN413079Multiplexer serial number:	ORYXHardware model number:	OX4-SRSoftware version number:	ORYX F/W v4.00 Oryx Data Collector v3.7.2.0data status	okinstallation	princeton_trtdifferential loss correction	single-endedforward channel	channel 4reverse channel	N/Adate	2019/09/16time	11:01:35forward acquisition time	60.00reverse acquisition time	0.00gamma	496.2192k internal	0.2297k external	0.2297temperature offset calibration	0.9952default loss term (dB/km)	0.3790temperature slope calibration	1.0000multiplexer offset coefficient	1.0000multiplexer slope coefficient	1.0000fibre end	0.00T internal ref (°C)	36.84T ext. ref 1 (°C)	12.76T ext. ref 2 (°C)	34.14length (m)	temperature (°C)	Stokes	anti-Stokes-747.200	23.209	-0.241	-0.202
-746.185	178.953	-0.304	0.453
-745.171	247.557	0.162	-0.280
-744.156	800.000	0.141	0.479
-743.142	-183.046	0.289	0.005
-742.127	800.000	0.056	0.215
-741.112	800.000	-0.064	-0.223
-740.098	800.000	0.074	0.322
-739.083	-200.000	0.067	-0.351
-738.069	-140.552	-0.247	-0.026
-737.054	221.544	0.079	-0.129
-736.039	-97.847	-0.067	0.018
-735.025	800.000	-0.073	-0.318
-734.010	-7.554	-0.090	-0.062
-732.996	22.445	0.106	-0.088
-731.981	-5.967	0.067	0.047
-730.966	-200.000	0.042	0.197
-729.952	-6.688	-0.366	-0.254
-728.937	49.486	0.098	0.094
-727.923	172.635	0.098	-0.143
-726.908	510.494	-0.037	0.089
-725.894	-92.134	-0.334	-0.096
-724.879	-200.000	0.001	-0.065
-723.864	-200.000	-0.025	-0.134
-722.850	-133.277	-0.385	-0.050
-721.835	-17.965	-0.171	-0.109
-720.821	-88.184	-0.135	-0.041
-719.806	-21.712	0.134	0.083
-718.791	41.117	-0.148	0.137
-717.777	-200.000	0.013	0.159
-716.762	-107.791	-0.193	0.043
-715.748	-200.000	0.000	0.011
-714.733	200.802	-0.090	-0.142
-713.718	258.853	0.148	-0.261
-712.704	-105.357	-0.280	0.065
-711.689	216.077	-0.085	0.137
-710.675	-200.000	0.027	-0.194
-709.660	416.422	0.097	0.212
-708.645	339.925	0.147	-0.293
-707.631	-52.406	0.067	-0.032
-706.616	80.255	-0.089	-0.097
-705.602	-129.177	0.547	-0.078
-704.587	20.146	-0.168	-0.138
-703.572	208.181	-0.175	0.279
-702.558	800.000	0.058	0.187
-701.543	-200.000	-0.004	-0.116
-700.529	-200.000	0.007	0.120
-699.514	-200.000	0.043	-0.218
-698.499	-200.000	-0.003	-0.269
-697.485	-21.731	-0.376	0.233
-696.470	218.413	-0.156	-0.255
-695.456	219.133	0.072	0.117
-694.441	800.000	-0.068	0.260
-693.426	-104.342	0.061	0.014
-692.412	9.503	-0.177	-0.136
-691.397	-16.846	0.132	-0.085
-690.383	-200.000	0.010	-0.277
-689.368	-89.293	0.201	-0.060
-688.354	140.097	-0.035	0.047
-687.339	-58.173	-0.188	-0.083
-686.324	-200.000	0.009	-0.235
-685.310	-96.766	-0.496	0.133
-684.295	-12.569	0.255	-0.169
-683.281	-173.384	-0.191	0.006
-682.266	148.458	0.095	-0.131
-681.251	-200.000	-0.013	-0.147
-680.237	-200.000	-0.056	0.370
-679.222	-200.000	0.023	0.206
-678.208	412.402	0.067	0.144
-677.193	-200.000	0.022	0.340
-676.178	170.844	-0.156	-0.228
-675.164	-11.387	-0.247	-0.166
-674.149	111.268	0.162	-0.198
-673.135	-200.000	-0.047	-0.247
-672.120	-200.000	-0.034	0.308
-671.105	-200.000	-0.023	-0.315
-670.091	131.487	-0.122	0.160
-669.076	495.122	0.153	0.358
-668.062	-94.938	0.297	-0.082
-667.047	-9.746	-0.164	0.111
-666.032	800.000	-0.029	-0.084
-665.018	-200.000	-0.011	-0.362
-664.003	361.403	-0.079	-0.160
-662.989	475.115	0.119	0.273
-661.974	64.417	-0.155	0.159
-660.959	-97.036	-0.171	0.046
-659.945	-200.000	-0.010	0.085
-658.930	632.874	-0.051	0.132
-657.916	-200.000	-0.017	0.125
-656.901	-75.442	-0.185	0.067
-655.886	151.605	0.053	0.073
-654.872	-200.000	-0.014	-0.237
-653.857	-200.000	-0.017	-0.137
-652.843	-18.180	-0.354	-0.225
-651.828	-100.872	0.107	-0.027
-650.814	275.620	-0.104	-0.187
-649.799	34.517	0.071	-0.064
-648.784	-35.468	0.161	0.089
-647.770	59.398	-0.102	0.102
-646.755	163.225	0.081	0.116
-645.741	-200.000	0.025	-0.169
-644.726	-176.748	0.362	-0.009
-643.711	-200.000	0.021	0.102
-642.697	227.221	-0.219	0.363
-641.682	547.806	0.022	-0.054
-640.668	-184.743	-0.235	0.004
-639.653	-200.000	-0.003	-0.235
-638.638	181.422	-0.161	-0.241
-637.624	-90.661	0.188	-0.055
-636.609	-200.000	0.018	0.257
-635.595	163.453	0.037	0.052
-634.580	800.000	-0.030	0.123
-633.565	4.423	-0.182	-0.136
-632.551	-139.892	0.134	0.014
-631.536	8.651	0.262	-0.200
-630.522	800.000	0.015	0.048
-629.507	194.831	0.065	0.100
-628.492	94.313	0.083	-0.096
-627.478	800.000	0.039	-0.138
-626.463	107.413	-0.267	0.322
-625.449	241.620	-0.057	0.097
-624.434	13.570	-0.243	0.192
-623.419	50.640	-0.303	-0.292
-622.405	-150.108	0.122	0.010
-621.390	-4.409	-0.162	-0.114
-620.376	-170.091	-0.402	0.015
-619.361	-159.731	0.316	0.018
-618.346	800.000	0.087	0.291
-617.332	82.419	-0.061	-0.067
-616.317	49.348	0.055	-0.053
-615.303	-200.000	0.001	0.014
-614.288	157.051	0.156	0.220
-613.273	-63.848	0.130	-0.054
-612.259	40.714	0.083	0.076
-611.244	-200.000	0.198	0.001
-610.230	-57.887	-0.166	0.074
-609.215	800.000	-0.073	0.212
-608.201	-89.254	-0.164	-0.049
-607.186	55.308	-0.345	-0.339
-606.171	172.866	-0.105	-0.153
-605.157	-126.105	-0.511	-0.078
-604.142	31.493	-0.147	-0.128
-603.128	-155.760	0.175	-0.011
-602.113	447.259	0.135	0.302
-601.098	-95.135	0.272	0.075
-600.084	-19.350	-0.121	0.076
-599.069	295.876	0.094	0.175
-598.055	-200.000	-0.005	-0.214
-597.040	520.878	-0.076	-0.181
-596.025	11.063	-0.152	0.118
-595.011	-51.274	-0.207	-0.099
-593.996	-90.554	0.193	0.057
-592.982	360.175	-0.173	0.351
-591.967	-83.375	-0.035	-0.011
-590.952	-90.487	0.175	-0.051
-589.938	-200.000	-0.013	0.121
-588.923	-135.293	0.109	0.013
-587.909	-8.243	-0.189	-0.129
-586.894	189.726	-0.065	-0.100
-585.879	-101.059	-0.361	0.090
-584.865	93.537	0.212	-0.243
-583.850	-200.000	-0.004	-0.065
-582.836	-200.000	0.016	0.130
-581.821	800.000	0.027	-0.098
-580.806	-164.556	-0.144	-0.007
-579.792	38.332	-0.214	0.193
-578.777	-155.897	0.100	0.006
-577.763	-154.404	0.221	-0.015
-576.748	123.274	-0.016	0.020
-575.733	-65.199	-0.334	0.137
-574.719	-69.111	0.173	-0.068
-573.704	-161.672	0.168	0.009
-572.690	259.875	-0.128	-0.225
-571.675	725.590	-0.067	-0.181
-570.661	6.912	-0.048	0.036
-569.646	55.502	0.094	-0.092
-568.631	300.187	-0.057	0.107
-567.617	-97.294	0.264	0.070
-566.602	800.000	-0.121	0.384
-565.588	36.954	-0.142	0.127
-564.573	80.298	0.084	0.092
-563.558	95.875	-0.046	0.053
-562.544	694.059	0.030	0.079
-561.529	368.926	-0.027	0.055
-560.515	-200.000	-0.028	0.369
-559.500	-160.423	-0.193	0.011
-558.485	-142.834	0.112	0.011
-557.471	-23.587	-0.266	0.162
-556.456	-10.535	-0.361	-0.243
-555.442	-17.627	0.093	-0.059
-554.427	-0.118	-0.127	-0.092
-553.412	-44.098	-0.244	0.124
-552.398	412.055	0.064	-0.138
-551.383	-200.000	0.021	0.320
-550.369	279.664	0.074	0.133
-549.354	97.880	0.098	-0.114
-548.339	-45.474	0.211	0.106
-547.325	10.612	0.099	0.076
-546.310	-95.206	0.224	-0.061
-545.296	67.358	0.085	-0.088
-544.281	623.873	-0.097	-0.247
-543.266	-45.116	-0.063	-0.032
-542.252	90.745	0.302	-0.343
-541.237	800.000	0.047	0.143
-540.223	2.377	-0.356	-0.261
-539.208	-140.147	-0.081	-0.009
-538.193	15.377	0.058	-0.046
-537.179	388.439	-0.164	-0.345
-536.164	-23.662	0.161	-0.098
-535.150	-167.697	-0.104	-0.004
-534.135	-200.000	-0.015	0.200
-533.121	-55.740	0.295	-0.133
-532.106	102.828	-0.089	0.106
-531.091	-38.760	-0.313	-0.167
-530.077	-200.000	0.020	-0.218
-529.062	194.469	-0.115	0.177
-528.048	13.900	0.198	-0.156
-527.033	612.863	-0.073	0.184
-526.018	800.000	0.079	-0.263
-525.004	79.326	0.146	0.159
-523.989	-200.000	0.015	0.349
-522.975	-78.681	-0.232	-0.080
-521.960	23.588	0.357	0.297
-520.945	-200.000	-0.104	0.499
-519.931	145.743	0.141	0.191
-518.916	17.989	-0.182	0.147
-517.902	-3.671	-0.221	-0.156
-516.887	97.719	0.260	-0.303
-515.872	-50.611	0.032	-0.015
-514.858	416.974	0.093	0.200
-513.843	79.572	-0.137	-0.148
-512.829	800.000	-0.036	-0.157
-511.814	-76.235	-0.246	-0.088
-510.799	107.726	0.095	-0.115
-509.785	444.686	0.050	0.111
-508.770	-44.652	-0.364	-0.184
-507.756	-79.053	0.168	-0.058
-506.741	456.016	-0.168	-0.377
-505.726	-42.682	-0.054	-0.028
-504.712	-49.773	-0.038	-0.018
-503.697	177.404	0.158	0.233
-502.683	-13.004	0.109	0.072
-501.668	129.361	-0.120	-0.155
-500.653	-168.810	0.215	-0.008
-499.639	225.304	0.118	0.193
-498.624	800.000	-0.034	-0.102
-497.610	-4.804	-0.059	0.041
-496.595	-73.163	0.394	0.146
-495.581	43.194	0.224	0.207
-494.566	-94.949	-0.072	-0.020
-493.551	192.392	-0.107	-0.164
-492.537	86.617	0.293	0.327
-491.522	100.858	-0.079	0.093
-490.508	800.000	-0.034	-0.099
-489.493	-39.824	-0.076	0.040
-488.478	-10.752	0.159	0.106
-487.464	-200.000	-0.016	0.135
-486.449	413.771	0.104	-0.224
-485.435	-50.917	-0.210	0.100
-484.420	-10.504	0.116	0.078
-483.405	-134.929	0.272	-0.033
-482.391	-16.155	0.245	-0.157
-481.376	-58.923	-0.227	-0.099
-480.362	532.936	0.053	0.128
-479.347	532.364	0.015	0.035
-478.332	155.503	0.135	-0.188
-477.318	-86.094	0.058	-0.018
-476.303	-200.000	0.041	-0.284
-475.289	-162.994	-0.277	0.014
-474.274	800.000	0.052	0.186
-473.259	699.952	0.079	-0.211
-472.245	-200.000	-0.010	-0.209
-471.230	-43.675	0.217	0.111
-470.216	-37.596	0.277	0.149
-469.201	800.000	0.065	-0.215
-468.186	-133.622	0.085	-0.011
-467.172	-95.335	-0.100	0.027
-466.157	800.000	0.058	-0.251
-465.143	113.254	-0.172	0.210
-464.128	205.940	0.108	0.170
-463.113	22.601	-0.211	-0.175
-462.099	23.073	0.011	0.009
-461.084	-65.300	0.172	-0.070
-460.070	450.892	-0.105	0.234
-459.055	262.557	-0.140	-0.245
-458.040	17.625	0.268	-0.215
-457.026	-94.078	-0.317	-0.088
-456.011	-98.958	0.530	-0.136
-454.997	-167.190	-0.240	0.010
-453.982	605.386	-0.097	-0.243
-452.968	-138.206	-0.061	-0.007
-451.953	354.567	0.108	-0.217
-450.938	800.000	-0.077	0.225
-449.924	275.445	0.023	-0.041
-448.909	-200.000	0.002	-0.237
-447.895	-90.369	0.184	0.054
-446.880	-200.000	-0.029	-0.319
-445.865	-87.297	0.081	-0.025
-444.851	-97.391	0.154	0.040
-443.836	-48.063	-0.162	-0.079
-442.822	41.793	0.064	-0.058
-441.807	78.350	0.040	0.043
-440.792	96.314	0.131	0.151
-439.778	-102.797	0.120	-0.029
-438.763	-200.000	0.059	0.307
-437.749	-62.079	-0.289	-0.122
-436.734	-200.000	-0.029	0.196
-435.719	-123.385	-0.075	0.012
-434.705	60.483	0.228	-0.228
-433.690	39.633	-0.072	0.065
-432.676	-189.976	0.180	-0.002
-431.661	-61.318	0.091	-0.039
-430.646	-85.076	0.103	-0.032
-429.632	-118.961	-0.126	-0.022
-428.617	411.648	-0.030	-0.064
-427.603	800.000	0.085	0.284
-426.588	147.777	-0.122	0.166
-425.573	-200.000	0.009	0.305
-424.559	594.832	-0.079	-0.197
-423.544	-157.304	0.325	-0.020
-422.530	221.076	-0.125	-0.203
-421.515	-92.217	0.235	-0.067
-420.500	-58.393	-0.147	-0.064
-419.486	-200.000	-0.029	0.227
-418.471	-32.594	0.532	0.298
-417.457	46.874	0.204	-0.191
-416.442	-200.000	-0.006	-0.202
-415.428	-80.301	0.249	0.084
-414.413	800.000	-0.021	0.072
-413.398	-61.918	0.050	-0.021
-412.384	68.257	0.231	-0.238
-411.369	126.080	-0.017	0.021
-410.355	36.590	-0.119	0.106
-409.340	-93.764	-0.270	-0.075
-408.325	-200.000	-0.049	0.322
-407.311	458.713	0.051	-0.115
-406.296	-200.000	0.008	-0.156
-405.282	-140.450	0.387	0.041
-404.267	-200.000	-0.047	-0.246
-403.252	-18.367	0.106	0.067
-402.238	121.328	-0.210	-0.264
-401.223	-146.439	0.164	-0.014
-400.209	153.162	0.220	0.303
-399.194	156.830	-0.209	-0.290
-398.179	-149.493	-0.103	0.008
-397.165	-200.000	-0.030	-0.207
-396.150	708.455	0.067	-0.180
-395.136	-70.074	0.330	-0.127
-394.121	-200.000	0.023	-0.132
-393.106	162.100	-0.066	-0.094
-392.092	371.483	0.122	-0.249
-391.077	157.141	0.129	0.180
-390.063	800.000	0.121	0.357
-389.048	315.577	0.070	0.134
-388.033	113.177	0.335	0.410
-387.019	188.767	0.140	-0.212
-386.004	-8.887	-0.165	-0.111
-384.990	-200.000	-0.034	-0.339
-383.975	46.102	0.144	-0.134
-382.960	800.000	-0.165	-0.585
-381.946	71.241	-0.054	-0.056
-380.931	181.522	-0.122	0.181
-379.917	-180.605	-0.271	-0.006
-378.902	788.273	-0.093	-0.256
-377.888	-64.899	-0.039	-0.016
-376.873	-200.000	0.027	-0.177
-375.858	-200.000	-0.005	0.186
-374.844	-18.904	0.143	0.089
-373.829	-15.259	0.091	0.059
-372.815	-11.480	0.286	0.190
-371.800	427.139	0.025	-0.055
-370.785	-61.866	0.088	0.037
-369.771	5.408	0.205	-0.152
-368.756	-200.000	0.052	0.348
-367.742	-200.000	-0.003	0.234
-366.727	-115.447	-0.289	0.055
-365.712	-107.090	-0.221	0.049
-364.698	-200.000	0.004	0.238
-363.683	95.432	-0.199	0.228
-362.669	-200.000	-0.030	0.208
-361.654	-17.142	-0.105	-0.066
-360.639	124.971	0.274	-0.347
-359.625	-140.023	-0.169	-0.018
-358.610	65.666	-0.146	0.148
-357.596	-200.000	0.033	-0.220
-356.581	113.857	0.075	0.092
-355.566	25.862	0.167	-0.140
-354.552	566.276	0.118	-0.287
-353.537	-71.375	-0.250	0.094
-352.523	-183.719	-0.262	-0.004
-351.508	-200.000	0.030	0.200
-350.493	-43.256	0.206	-0.105
-349.479	290.689	0.192	-0.350
-348.464	-42.293	0.109	-0.056
-347.450	485.300	-0.084	-0.192
-346.435	57.313	-0.203	0.199
-345.420	-138.425	0.039	0.004
-344.406	-200.000	-0.021	0.168
-343.391	800.000	0.106	0.382
-342.377	-56.976	0.154	-0.068
-341.362	-64.411	-0.320	-0.131
-340.348	74.785	-0.099	0.104
-339.333	-200.000	0.052	0.270
-338.318	-72.437	-0.092	0.034
-337.304	-156.582	-0.089	0.006
-336.289	-200.000	0.209	0.000
-335.275	-0.177	0.154	-0.110
-334.260	482.743	0.114	-0.261
-333.245	95.169	-0.312	0.357
-332.231	-55.783	-0.100	0.045
-331.216	800.000	0.087	-0.342
-330.202	-13.048	-0.144	-0.094
-329.187	-93.499	0.099	-0.027
-328.172	-14.313	-0.293	-0.189
-327.158	-47.711	0.260	-0.127
-326.143	-145.544	0.242	0.022
-325.129	800.000	0.089	0.361
-324.114	-200.000	-0.029	-0.131
-323.099	800.000	0.043	0.147
-322.085	7.006	-0.136	0.102
-321.070	-200.000	-0.027	0.232
-320.056	-107.915	-0.271	-0.059
-319.041	-200.000	-0.062	0.405
-318.026	-168.029	-0.105	0.004
-317.012	6.343	-0.106	-0.079
-315.997	-156.667	0.035	0.002
-314.983	-21.109	-0.132	0.081
-313.968	432.122	-0.185	-0.403
-312.953	800.000	-0.086	0.286
-311.939	-128.774	-0.227	-0.032
-310.924	120.810	-0.163	-0.204
-309.910	749.464	-0.104	-0.283
-308.895	-75.121	0.207	0.074
-307.880	-96.220	-0.269	0.072
-306.866	-200.000	-0.009	0.153
-305.851	-200.000	0.041	0.270
-304.837	-94.243	0.209	0.058
-303.822	-67.813	0.280	0.110
-302.807	-200.000	0.025	0.138
-301.793	241.026	-0.118	-0.197
-300.778	29.161	-0.153	-0.130
-299.764	-133.475	0.250	-0.032
-298.749	671.357	-0.169	-0.440
-297.735	125.350	0.083	-0.105
-296.720	-132.046	0.160	0.021
-295.705	-102.278	0.327	-0.079
-294.691	55.121	0.077	-0.074
-293.676	-200.000	-0.024	0.195
-292.662	-200.000	0.068	0.307
-291.647	800.000	-0.080	-0.291
-290.632	112.015	-0.118	-0.144
-289.618	512.044	-0.129	-0.302
-288.603	-200.000	0.026	-0.196
-287.589	-87.569	-0.053	-0.016
-286.574	-25.072	0.246	-0.147
-285.559	468.791	0.155	-0.349
-284.545	800.000	-0.080	-0.320
-283.530	-46.851	-0.371	0.182
-282.516	-109.053	-0.321	-0.069
-281.501	-31.137	0.115	0.065
-280.486	-98.561	-0.148	0.038
-279.472	800.000	-0.034	0.129
-278.457	-200.000	0.070	-0.327
-277.443	62.552	0.079	0.079
-276.428	278.972	0.122	0.219
-275.413	175.860	-0.022	-0.032
-274.399	-159.639	-0.082	-0.005
-273.384	-40.778	-0.230	0.119
-272.370	-15.451	-0.264	0.169
-271.355	-101.515	0.232	0.057
-270.340	800.000	0.010	0.038
-269.326	14.933	0.220	0.173
-268.311	-200.000	-0.020	-0.210
-267.297	-185.830	-0.504	0.008
-266.282	-41.406	0.209	0.108
-265.267	189.739	0.123	0.185
-264.253	-49.152	0.317	-0.152
-263.238	361.882	0.100	-0.202
-262.224	-200.000	-0.076	-0.344
-261.209	-76.338	-0.092	0.032
-260.195	-101.936	-0.129	-0.031
-259.180	68.070	-0.064	-0.066
-258.165	-90.390	-0.082	-0.024
-257.151	-38.656	0.404	-0.214
-256.136	337.872	0.096	-0.186
-255.122	-111.184	-0.233	0.048
-254.107	-126.002	0.018	0.003
-253.092	17.676	-0.027	-0.022
-252.078	25.555	0.131	0.109
-251.063	133.010	-0.033	0.043
-250.049	-200.000	-0.005	0.081
-249.034	800.000	0.040	-0.146
-248.019	110.165	0.040	-0.048
-247.005	-96.119	-0.196	0.052
-245.990	800.000	0.143	0.436
-244.976	140.673	0.134	0.177
-243.961	785.639	0.136	0.374
-242.946	-55.193	-0.301	-0.136
-241.932	40.397	0.072	0.065
-240.917	636.265	0.181	-0.460
-239.903	-71.829	0.211	0.079
-238.888	216.596	0.133	0.211
-237.873	-175.439	0.352	-0.010
-236.859	-106.469	0.222	-0.050
-235.844	-200.000	-0.017	0.108
-234.830	-200.000	-0.099	-0.000
-233.815	12.200	0.168	0.129
-232.800	-71.677	-0.191	0.071
-231.786	228.073	-0.038	0.061
-230.771	800.000	0.061	0.178
-229.757	-23.714	-0.506	-0.304
-228.742	-200.000	0.011	-0.096
-227.727	253.531	-0.105	0.179
-226.713	-10.541	-0.233	-0.155
-225.698	12.313	-0.043	-0.033
-224.684	-200.000	0.008	0.111
-223.669	-4.866	0.085	-0.059
-222.655	106.017	-0.195	-0.231
-221.640	646.669	-0.130	-0.333
-220.625	520.653	0.098	0.229
-219.611	-99.269	-0.222	0.056
-218.596	27.164	-0.130	-0.109
-217.582	-200.000	0.011	0.400
-216.567	26.732	0.329	0.275
-215.552	-88.337	-0.327	0.098
-214.538	90.565	0.055	-0.062
-213.523	30.738	-0.441	0.378
-212.509	-126.551	-0.386	-0.057
-211.494	-47.974	0.283	-0.137
-210.479	800.000	-0.083	0.315
-209.465	-160.301	-0.173	-0.009
-208.450	61.492	0.027	0.026
-207.436	30.496	0.131	0.112
-206.421	439.563	0.079	0.173
-205.406	-200.000	-0.020	0.716
-204.392	-16.421	-0.223	0.142
-203.377	-200.000	0.001	0.064
-202.363	800.000	-0.046	0.141
-201.348	-42.541	0.327	-0.167
-200.333	-97.929	0.099	-0.025
-199.319	-41.766	0.195	-0.100
-198.304	90.857	-0.215	0.241
-197.290	-137.665	-0.189	-0.021
-196.275	-200.000	0.027	-0.283
-195.260	-45.141	0.259	-0.129
-194.246	72.565	-0.063	-0.066
-193.231	-184.878	0.194	-0.003
-192.217	-200.000	0.004	-0.050
-191.202	-20.711	-0.244	-0.149
-190.187	-89.993	0.273	0.080
-189.173	-134.430	0.201	0.025
-188.158	-141.609	-0.249	0.025
-187.144	800.000	-0.125	0.464
-186.129	27.463	-0.078	0.065
-185.114	-178.346	0.024	-0.001
-184.100	31.912	-0.030	0.026
-183.085	-87.965	0.168	0.051
-182.071	505.706	-0.149	0.345
-181.056	-127.721	0.039	-0.006
-180.042	75.411	-0.209	-0.220
-179.027	34.743	-0.175	-0.152
-178.012	42.086	0.227	-0.206
-176.998	-197.133	-0.202	-0.001
-175.983	187.215	-0.139	0.207
-174.969	-56.048	0.136	-0.061
-173.954	-36.731	0.246	-0.132
-172.939	710.672	-0.067	0.177
-171.925	-151.290	0.139	0.010
-170.910	19.398	0.286	-0.229
-169.896	-200.000	-0.036	-0.243
-168.881	-55.384	0.110	0.049
-167.866	392.424	-0.068	-0.142
-166.852	178.611	0.167	-0.244
-165.837	317.267	-0.064	-0.120
-164.823	800.000	-0.056	0.192
-163.808	-200.000	0.031	0.257
-162.793	800.000	-0.083	-0.278
-161.779	-200.000	-0.006	0.202
-160.764	76.347	-0.239	-0.252
-159.750	403.559	0.100	-0.210
-158.735	800.000	-0.024	0.091
-157.720	-200.000	0.052	0.238
-156.706	-30.934	-0.255	0.144
-155.691	800.000	-0.033	-0.106
-154.677	54.214	-0.147	0.141
-153.662	69.433	0.112	-0.115
-152.647	236.592	-0.066	0.110
-151.633	-82.336	-0.320	0.104
-150.618	-90.839	0.308	0.089
-149.604	-200.000	-0.021	-0.245
-148.589	737.230	0.059	0.157
-147.574	186.244	-0.245	0.363
-146.560	134.190	0.143	0.185
-145.545	53.068	-0.148	-0.141
-144.531	800.000	0.030	-0.108
-143.516	-200.000	0.084	-0.436
-142.502	120.484	-0.147	-0.183
-141.487	-26.673	0.104	-0.060
-140.472	-96.588	-0.181	-0.048
-139.458	-111.928	0.199	-0.040
-138.443	274.751	0.127	0.225
-137.429	20.180	-0.116	-0.094
-136.414	-29.326	-0.096	0.055
-135.399	-131.261	-0.144	-0.019
-134.385	6.594	0.226	0.168
-133.370	-200.000	-0.007	-0.115
-132.356	125.473	0.061	0.077
-131.341	800.000	0.111	-0.324
-130.326	800.000	0.021	-0.082
-129.312	-200.000	-0.099	0.458
-128.297	-87.872	-0.120	0.036
-127.283	12.750	-0.103	0.079
-126.268	-200.000	0.004	-0.199
-125.253	800.000	-0.111	-0.323
-124.239	366.662	-0.069	0.140
-123.224	-121.099	0.232	-0.039
-122.210	108.729	0.214	-0.255
-121.195	-200.000	-0.067	-0.295
