DTS Sentinel unit serial number:	SN413079Multiplexer serial number:	ORYXHardware model number:	OX4-SRSoftware version number:	ORYX F/W v4.00 Oryx Data Collector v3.7.2.0data status	okinstallation	princeton_trtdifferential loss correction	single-endedforward channel	channel 4reverse channel	N/Adate	2019/09/15time	19:13:35forward acquisition time	60.00reverse acquisition time	0.00gamma	496.2192k internal	0.2293k external	0.2293temperature offset calibration	0.9923default loss term (dB/km)	0.3790temperature slope calibration	1.0000multiplexer offset coefficient	1.0000multiplexer slope coefficient	1.0000fibre end	0.00T internal ref (°C)	40.64T ext. ref 1 (°C)	7.14T ext. ref 2 (°C)	29.95length (m)	temperature (°C)	Stokes	anti-Stokes-747.200	-102.901	0.041	-0.010
-746.185	-200.000	-0.057	0.547
-745.171	-11.506	0.170	0.115
-744.156	475.927	-0.089	0.206
-743.142	402.938	0.060	0.129
-742.127	-19.612	0.348	0.220
-741.112	104.855	-0.068	-0.082
-740.098	-86.740	0.188	0.059
-739.083	-99.875	-0.302	-0.077
-738.069	-63.839	-0.101	-0.042
-737.054	800.000	0.043	-0.187
-736.039	-176.462	-0.235	-0.006
-735.025	90.318	0.142	0.162
-734.010	-200.000	0.007	-0.197
-732.996	-17.930	0.184	0.118
-731.981	-97.317	-0.143	-0.038
-730.966	291.331	-0.052	0.097
-729.952	464.651	-0.143	0.327
-728.937	-194.144	0.089	0.001
-727.923	-200.000	0.018	-0.130
-726.908	-85.983	-0.128	-0.041
-725.894	-124.448	0.106	0.017
-724.879	341.326	-0.119	-0.238
-723.864	-24.363	-0.227	0.139
-722.850	-98.028	-0.133	0.035
-721.835	-117.317	0.151	0.028
-720.821	110.505	-0.143	0.175
-719.806	800.000	0.070	-0.222
-718.791	298.599	-0.012	-0.023
-717.777	-76.805	0.125	0.045
-716.762	-200.000	0.032	0.271
-715.748	800.000	0.057	-0.170
-714.733	-7.946	-0.156	0.107
-713.718	-86.335	0.134	-0.042
-712.704	-68.584	-0.201	-0.080
-711.689	-200.000	-0.027	-0.354
-710.675	800.000	0.088	-0.268
-709.660	7.893	-0.230	-0.176
-708.645	-200.000	-0.006	0.036
-707.631	209.699	-0.118	-0.189
-706.616	800.000	-0.056	-0.219
-705.602	103.179	-0.236	-0.283
-704.587	-141.664	-0.316	-0.033
-703.572	354.022	-0.107	-0.217
-702.558	-1.801	-0.374	0.269
-701.543	627.690	0.095	0.244
-700.529	65.449	-0.237	-0.245
-699.514	54.244	0.175	-0.172
-698.499	-200.000	-0.034	0.210
-697.485	72.034	0.147	0.157
-696.470	800.000	0.100	-0.329
-695.456	301.730	0.104	-0.196
-694.441	-149.618	-0.308	0.025
-693.426	359.173	0.026	0.054
-692.412	-200.000	-0.016	-0.229
-691.397	-98.744	0.247	0.064
-690.383	800.000	-0.037	0.117
-689.368	-116.060	0.229	0.044
-688.354	-121.887	-0.067	-0.011
-687.339	91.899	0.161	-0.185
-686.324	-93.604	-0.118	0.033
-685.310	255.715	-0.080	-0.141
-684.295	-200.000	-0.015	-0.087
-683.281	6.368	-0.113	0.085
-682.266	-138.818	-0.143	0.016
-681.251	800.000	-0.033	-0.101
-680.237	-54.294	-0.267	-0.124
-679.222	146.152	0.064	0.088
-678.208	-200.000	-0.006	0.036
-677.193	477.769	0.132	0.304
-676.178	-63.307	-0.271	-0.114
-675.164	-57.145	0.268	-0.120
-674.149	78.041	-0.223	-0.243
-673.135	-200.000	0.055	0.419
-672.120	-200.000	-0.028	0.231
-671.105	-36.202	0.316	0.174
-670.091	-200.000	0.002	0.456
-669.076	-69.903	-0.240	-0.093
-668.062	57.157	-0.162	-0.161
-667.047	-6.873	-0.138	0.096
-666.032	98.179	-0.271	-0.318
-665.018	-200.000	0.031	-0.347
-664.003	195.703	-0.133	-0.205
-662.989	-200.000	0.026	-0.304
-661.974	-200.000	-0.047	0.220
-660.959	325.834	0.058	-0.113
-659.945	-15.552	0.028	0.018
-658.930	161.686	0.204	-0.291
-657.916	-78.913	0.105	-0.036
-656.901	69.329	-0.063	-0.066
-655.886	646.072	0.093	0.243
-654.872	-66.144	0.236	0.096
-653.857	216.434	-0.060	-0.098
-652.843	-165.307	-0.211	-0.009
-651.828	177.184	-0.140	0.208
-650.814	-200.000	-0.046	0.482
-649.799	197.437	-0.093	0.144
-648.784	153.432	0.091	0.126
-647.770	94.761	0.060	0.070
-646.755	455.527	-0.051	-0.116
-645.741	100.925	-0.055	0.065
-644.726	-5.720	0.068	0.048
-643.711	-4.820	0.127	-0.089
-642.697	800.000	-0.116	-0.393
-641.682	-200.000	0.042	-0.408
-640.668	-200.000	-0.065	-0.444
-639.653	-200.000	0.025	0.274
-638.638	401.835	0.130	-0.279
-637.624	160.295	-0.137	0.195
-636.609	-200.000	0.013	-0.269
-635.595	-122.883	-0.146	0.024
-634.580	-17.015	-0.100	-0.064
-633.565	166.220	0.140	0.203
-632.551	800.000	-0.008	0.034
-631.536	-200.000	-0.007	-0.074
-630.522	-1.815	-0.293	0.210
-629.507	-133.326	-0.145	0.019
-628.492	-122.212	-0.185	0.031
-627.478	10.457	-0.147	-0.114
-626.463	-31.931	-0.197	0.112
-625.449	-200.000	0.045	0.355
-624.434	49.866	-0.063	0.060
-623.419	-113.548	0.186	0.037
-622.405	-127.002	-0.309	0.046
-621.390	57.512	0.126	0.125
-620.376	243.913	0.146	-0.250
-619.361	57.025	-0.069	-0.069
-618.346	-200.000	-0.000	-0.271
-617.332	-200.000	0.002	-0.173
-616.317	277.592	0.060	0.108
-615.303	721.940	0.067	0.182
-614.288	71.244	-0.261	0.276
-613.273	750.128	-0.038	0.103
-612.259	147.332	-0.049	-0.067
-611.244	407.452	0.091	-0.197
-610.230	-144.241	0.410	0.039
-609.215	800.000	-0.091	-0.298
-608.201	84.354	-0.195	0.217
-607.186	546.612	-0.116	-0.283
-606.171	21.917	0.180	0.149
-605.157	-200.000	-0.084	0.402
-604.142	-200.000	-0.003	-0.111
-603.128	65.930	0.194	0.200
-602.113	-200.000	-0.024	0.135
-601.098	307.350	0.160	0.303
-600.084	129.326	-0.083	0.108
-599.069	618.368	-0.138	0.353
-598.055	-60.949	-0.176	0.076
-597.040	11.833	-0.136	0.106
-596.025	-129.513	-0.324	-0.046
-595.011	-5.617	-0.253	0.177
-593.996	231.885	0.058	-0.096
-592.982	38.386	0.021	0.019
-591.967	-61.014	-0.224	-0.096
-590.952	800.000	-0.025	0.084
-589.938	694.528	-0.034	0.091
-588.923	-44.046	-0.162	0.083
-587.909	-63.244	0.292	-0.122
-586.894	292.457	0.041	0.077
-585.879	52.960	-0.132	-0.128
-584.865	155.038	0.075	-0.105
-583.850	-83.260	0.068	-0.022
-582.836	-37.924	0.270	0.146
-581.821	-137.285	0.160	-0.019
-580.806	800.000	0.069	0.234
-579.792	397.121	0.057	-0.122
-578.777	119.978	-0.077	0.097
-577.763	125.041	-0.093	0.119
-576.748	-200.000	0.006	-0.113
-575.733	100.107	0.106	0.125
-574.719	-200.000	-0.034	0.259
-573.704	-186.724	0.407	0.006
-572.690	-120.946	-0.181	0.031
-571.675	-131.270	-0.161	-0.022
-570.661	216.581	0.005	-0.008
-569.646	-82.871	0.070	-0.023
-568.631	0.854	-0.206	0.150
-567.617	-105.916	0.332	-0.076
-566.602	85.592	0.207	-0.231
-565.588	15.754	0.091	0.072
-564.573	-14.569	-0.216	0.141
-563.558	-193.304	0.064	-0.001
-562.544	800.000	0.061	0.241
-561.529	-43.414	-0.141	0.072
-560.515	-0.637	0.161	0.116
-559.500	-82.081	0.363	-0.120
-558.485	-4.521	-0.153	-0.107
-557.471	-114.317	0.352	0.069
-556.456	294.270	-0.123	-0.227
-555.442	-200.000	-0.008	0.144
-554.427	115.569	0.169	0.210
-553.412	-49.967	-0.106	-0.051
-552.398	45.567	0.273	-0.256
-551.383	-52.074	-0.080	0.038
-550.369	49.143	-0.053	0.051
-549.354	-87.570	0.248	-0.076
-548.339	800.000	0.065	0.272
-547.325	63.812	-0.220	-0.225
-546.310	-109.336	-0.149	0.032
-545.296	18.353	0.024	-0.019
-544.281	347.744	0.037	0.075
-543.266	95.176	0.029	-0.034
-542.252	701.818	0.072	-0.192
-541.237	735.586	0.057	-0.154
-540.223	-200.000	-0.062	-0.329
-539.208	252.823	-0.023	0.040
-538.193	-200.000	-0.058	-0.465
-537.179	-200.000	0.014	-0.255
-536.164	-120.454	-0.466	0.080
-535.150	36.225	-0.159	-0.142
-534.135	-117.590	0.275	-0.050
-533.121	-150.860	0.186	0.014
-532.106	-89.534	-0.225	-0.067
-531.091	-177.824	-0.092	0.002
-530.077	129.242	-0.187	-0.242
-529.062	-83.822	-0.318	-0.103
-528.048	-200.000	0.048	0.286
-527.033	-6.361	-0.261	0.181
-526.018	-14.567	0.093	-0.061
-525.004	-200.000	0.028	0.223
-523.989	-31.063	0.059	0.034
-522.975	-110.969	-0.133	0.028
-521.960	-111.783	0.174	0.036
-520.945	800.000	0.030	0.112
-519.931	-92.275	-0.139	0.040
-518.916	-200.000	-0.011	-0.092
-517.902	48.365	-0.233	-0.221
-516.887	133.896	0.037	0.049
-515.872	160.062	0.054	-0.077
-514.858	-115.011	-0.308	-0.059
-513.843	384.635	0.116	0.243
-512.829	-200.000	-0.032	0.252
-511.814	-4.587	0.199	0.139
-510.799	-200.000	-0.015	0.354
-509.785	-76.560	-0.142	0.050
-508.770	-200.000	0.029	0.344
-507.756	-200.000	-0.041	0.297
-506.741	-9.104	-0.213	0.144
-505.726	-81.622	0.290	-0.096
-504.712	-97.429	0.387	0.102
-503.697	-37.981	0.030	-0.016
-502.683	800.000	-0.019	0.057
-501.668	9.283	-0.077	0.059
-500.653	-100.966	0.311	0.077
-499.639	310.249	0.111	0.210
-498.624	227.104	0.170	0.280
-497.610	-102.754	0.305	0.074
-496.595	179.625	0.128	-0.190
-495.581	199.022	-0.153	-0.238
-494.566	-32.696	-0.321	-0.181
-493.551	-59.013	0.165	0.072
-492.537	-200.000	0.006	0.165
-491.522	-137.540	-0.170	0.019
-490.508	50.199	-0.362	0.347
-489.493	-114.803	-0.203	-0.039
-488.478	-63.420	0.174	0.072
-487.464	191.035	0.108	-0.164
-486.449	130.532	-0.171	0.222
-485.435	46.566	0.083	-0.078
-484.420	152.526	-0.081	-0.112
-483.405	800.000	0.076	0.251
-482.391	800.000	0.047	-0.192
-481.376	800.000	0.045	0.182
-480.362	-81.896	-0.310	0.103
-479.347	-200.000	-0.009	-0.499
-478.332	800.000	0.024	0.097
-477.318	150.331	-0.107	-0.147
-476.303	61.952	0.053	0.054
-475.289	-200.000	0.020	-0.161
-474.274	-102.030	-0.217	0.053
-473.259	-73.915	0.260	0.096
-472.245	454.591	0.036	-0.081
-471.230	98.697	-0.118	0.138
-470.216	439.574	0.157	-0.348
-469.201	72.236	-0.111	-0.117
-468.186	-200.000	0.004	-0.228
-467.172	127.854	-0.174	-0.224
-466.157	22.685	-0.153	0.127
-465.143	-200.000	-0.022	0.109
-464.128	450.242	-0.102	-0.227
-463.113	800.000	-0.015	-0.045
-462.099	-200.000	-0.017	0.270
-461.084	800.000	0.039	0.125
-460.070	-109.953	0.219	0.046
-459.055	-200.000	0.030	-0.276
-458.040	26.205	-0.100	0.085
-457.026	-5.666	-0.441	0.306
-456.011	-200.000	-0.007	-0.278
-454.997	800.000	0.082	-0.315
-453.982	-44.136	0.172	-0.087
-452.968	327.102	0.027	-0.052
-451.953	800.000	0.058	0.163
-450.938	-69.784	-0.073	0.028
-449.924	-143.116	-0.070	0.007
-448.909	800.000	-0.065	-0.202
-447.895	-25.930	0.077	0.046
-446.880	138.594	-0.061	-0.081
-445.865	-25.417	-0.146	-0.087
-444.851	-200.000	-0.052	-0.255
-443.836	-52.252	-0.165	0.077
-442.822	28.497	0.055	-0.047
-441.807	507.523	-0.067	-0.157
-440.792	-163.530	0.233	0.011
-439.778	44.604	-0.342	0.318
-438.763	800.000	-0.016	0.054
-437.749	-200.000	-0.003	-0.503
-436.734	-200.000	0.024	-0.215
-435.719	81.937	-0.172	0.189
-434.705	-19.305	-0.219	-0.137
-433.690	43.966	-0.290	-0.268
-432.676	-123.684	0.094	-0.015
-431.661	-200.000	-0.038	-0.208
-430.646	-200.000	0.000	-0.004
-429.632	-43.843	0.171	-0.087
-428.617	46.601	-0.054	0.050
-427.603	109.125	-0.164	0.199
-426.588	467.125	0.089	-0.201
-425.573	197.584	-0.108	0.166
-424.559	-115.387	-0.143	0.027
-423.544	-137.161	0.287	-0.033
-422.530	379.569	-0.051	-0.106
-421.515	-134.167	-0.320	-0.040
-420.500	800.000	0.090	0.322
-419.486	-35.468	-0.332	-0.182
-418.471	-200.000	-0.011	-0.224
-417.457	166.108	0.120	-0.172
-416.442	-200.000	0.006	-0.145
-415.428	-113.004	0.185	0.037
-414.413	332.426	-0.021	-0.041
-413.398	800.000	-0.080	-0.226
-412.384	66.470	0.311	-0.319
-411.369	250.931	0.080	-0.138
-410.355	54.077	0.214	-0.208
-409.340	800.000	0.018	0.081
-408.325	-48.220	0.252	0.123
-407.311	248.387	-0.316	-0.540
-406.296	-200.000	0.003	0.108
-405.282	-99.831	-0.092	-0.023
-404.267	800.000	0.066	-0.185
-403.252	-200.000	-0.016	-0.166
-402.238	-200.000	-0.035	-0.366
-401.223	-16.164	0.067	0.043
-400.209	-200.000	-0.026	-0.177
-399.194	556.030	0.083	-0.201
-398.179	69.856	-0.191	-0.199
-397.165	-200.000	-0.001	0.251
-396.150	-33.066	0.114	0.064
-395.136	-83.427	0.122	0.039
-394.121	65.760	-0.122	0.125
-393.106	150.459	0.216	-0.297
-392.092	-200.000	-0.009	0.128
-391.077	440.901	0.096	0.213
-390.063	366.457	0.199	-0.404
-389.048	800.000	-0.085	-0.261
-388.033	22.755	-0.200	0.165
-387.019	-76.959	0.282	0.099
-386.004	800.000	0.114	0.352
-384.990	-141.628	0.126	0.013
-383.975	-95.323	0.205	0.056
-382.960	283.668	0.056	0.102
-381.946	-38.170	-0.273	-0.146
-380.931	800.000	0.044	-0.129
-379.917	800.000	0.077	0.223
-378.902	152.269	0.328	0.452
-377.888	-55.057	0.100	-0.045
-376.873	145.824	-0.108	0.146
-375.858	788.565	-0.115	0.317
-374.844	800.000	0.045	0.129
-373.829	122.645	-0.100	0.126
-372.815	-89.794	-0.050	-0.015
-371.800	-176.607	0.355	-0.009
-370.785	800.000	-0.035	-0.102
-369.771	122.642	0.200	0.252
-368.756	800.000	-0.107	0.366
-367.742	-97.649	0.156	0.041
-366.727	-200.000	0.030	-0.170
-365.712	-12.381	-0.191	0.126
-364.698	-110.926	0.135	-0.028
-363.683	-200.000	0.037	-0.315
-362.669	-45.759	0.181	0.090
-361.654	4.357	-0.061	-0.045
-360.639	-62.871	0.213	0.089
-359.625	35.029	0.089	-0.079
-358.610	141.189	0.064	0.085
-357.596	-200.000	-0.009	0.092
-356.581	-32.190	-0.270	-0.152
-355.566	128.161	-0.103	-0.133
-354.552	-200.000	-0.060	-0.348
-353.537	-200.000	-0.014	0.304
-352.523	-107.219	-0.256	-0.057
-351.508	37.193	0.194	-0.173
-350.493	216.036	0.054	0.087
-349.479	800.000	-0.019	-0.057
-348.464	124.760	0.213	0.270
-347.450	290.700	0.124	-0.228
-346.435	78.654	-0.166	-0.178
-345.420	-200.000	0.000	0.046
-344.406	6.704	-0.032	0.024
-343.391	-157.095	-0.147	-0.009
-342.377	-0.594	-0.063	-0.045
-341.362	5.579	0.241	-0.180
-340.348	-75.650	0.182	-0.065
-339.333	30.997	0.210	-0.181
-338.318	-200.000	0.008	0.235
-337.304	576.626	-0.149	0.366
-336.289	-16.708	0.317	0.202
-335.275	86.411	-0.087	-0.097
-334.260	-152.146	-0.321	-0.023
-333.245	-66.076	-0.133	0.053
-332.231	73.603	-0.101	0.107
-331.216	-48.352	0.218	-0.106
-330.202	-67.122	0.250	-0.099
-329.187	670.069	-0.080	-0.209
-328.172	-33.217	0.047	0.026
-327.158	-200.000	0.018	0.244
-326.143	688.830	-0.092	0.242
-325.129	769.312	0.177	-0.485
-324.114	107.022	0.103	0.124
-323.099	-51.446	-0.019	-0.009
-322.085	640.498	-0.051	0.130
-321.070	22.438	-0.119	0.098
-320.056	224.502	0.023	0.037
-319.041	-200.000	0.013	0.196
-318.026	800.000	0.061	-0.220
-317.012	-181.464	0.037	-0.001
-315.997	-83.806	0.131	0.042
-314.983	-83.137	-0.111	-0.036
-313.968	545.335	-0.137	0.331
-312.953	-94.568	-0.177	0.049
-311.939	-84.860	-0.241	0.076
-310.924	800.000	0.089	-0.334
-309.910	750.640	-0.043	-0.116
-308.895	-30.694	-0.060	-0.034
-307.880	-137.666	-0.151	0.017
-306.866	101.328	-0.027	0.032
-305.851	-200.000	-0.014	0.144
-304.837	-21.345	0.282	0.173
-303.822	-200.000	0.093	-0.428
-302.807	-0.706	0.305	0.218
-301.793	-23.164	0.121	-0.073
-300.778	116.847	-0.052	0.065
-299.764	-159.966	0.371	0.020
-298.749	2.731	-0.166	0.121
-297.735	-114.764	0.047	-0.009
-296.720	-24.464	0.075	-0.045
-295.705	-149.273	-0.184	0.015
-294.691	-200.000	0.040	-0.259
-293.676	64.309	-0.208	0.211
-292.662	800.000	-0.095	-0.390
-291.647	-2.749	0.188	0.132
-290.632	40.233	-0.271	-0.245
-289.618	41.611	0.109	-0.099
-288.603	800.000	0.032	0.119
-287.589	-200.000	-0.029	0.312
-286.574	800.000	-0.120	0.382
-285.559	207.966	0.100	0.156
-284.545	42.368	0.013	-0.012
-283.530	-52.357	0.016	0.008
-282.516	16.264	-0.127	0.101
-281.501	-200.000	-0.009	-0.253
-280.486	29.078	-0.268	-0.228
-279.472	-134.600	-0.338	-0.041
-278.457	-41.902	0.132	-0.068
-277.443	-61.993	-0.092	-0.039
-276.428	-52.737	-0.025	0.012
-275.413	25.108	-0.173	0.144
-274.399	-3.248	0.077	0.054
-273.384	18.709	0.043	-0.035
-272.370	1.543	0.151	-0.109
-271.355	653.282	0.118	0.305
-270.340	104.129	-0.238	-0.281
-269.326	-200.000	0.060	0.286
-268.311	-56.592	-0.085	0.038
-267.297	366.614	-0.097	-0.196
-266.282	-153.301	0.089	0.006
-265.267	-9.854	0.087	-0.058
-264.253	-200.000	0.003	0.103
-263.238	-200.000	0.076	0.346
-262.224	-41.614	0.101	0.052
-261.209	-22.375	-0.046	0.028
-260.195	-113.106	0.125	0.025
-259.180	42.994	0.094	0.086
-258.165	-140.019	0.028	0.003
-257.151	183.118	-0.153	-0.226
-256.136	-73.071	-0.101	-0.037
-255.122	-80.947	0.179	0.059
-254.107	-37.101	-0.256	0.137
-253.092	170.099	-0.211	0.303
-252.078	366.224	-0.158	0.321
-251.063	800.000	0.079	-0.270
-250.049	76.405	0.017	-0.019
-249.034	368.871	-0.079	-0.159
-248.019	-117.695	-0.164	0.030
-247.005	245.242	-0.045	-0.076
-245.990	164.103	0.256	0.362
-244.976	-57.957	-0.200	-0.087
-243.961	-28.570	0.236	-0.136
-242.946	-200.000	0.012	-0.127
-241.932	531.838	0.029	-0.069
-240.917	800.000	-0.100	-0.291
-239.903	368.060	0.225	0.456
-238.888	-170.398	-0.089	0.003
-237.873	145.455	-0.106	-0.143
-236.859	292.526	0.182	0.332
-235.844	5.286	0.135	0.100
-234.830	-184.453	0.219	0.004
-233.815	800.000	0.094	-0.378
-232.800	-68.404	-0.463	-0.180
-231.786	106.679	-0.038	-0.045
-230.771	318.093	0.139	0.265
-229.757	-200.000	-0.015	0.168
-228.742	-200.000	0.081	0.368
-227.727	-118.427	0.156	-0.028
-226.713	82.380	0.132	0.144
-225.698	240.940	0.048	-0.081
-224.684	-100.333	-0.334	-0.083
-223.669	7.507	0.246	-0.185
-222.655	-68.667	0.155	0.060
-221.640	134.664	0.319	0.415
-220.625	-111.898	0.209	0.042
-219.611	702.375	-0.070	0.184
-218.596	-117.328	0.129	0.023
-217.582	323.073	-0.088	0.167
-216.567	-59.420	0.406	0.175
-215.552	-17.004	-0.465	0.294
-214.538	-21.018	0.200	0.123
-213.523	800.000	0.088	-0.316
-212.509	79.487	-0.077	-0.083
-211.494	76.822	-0.205	0.218
-210.479	-79.850	0.172	-0.058
-209.465	800.000	-0.071	0.212
-208.450	-99.522	-0.088	0.022
-207.436	-200.000	0.052	-0.361
-206.421	800.000	-0.060	0.236
-205.406	-73.501	0.024	-0.009
-204.392	655.941	0.208	-0.535
-203.377	800.000	-0.085	-0.324
-202.363	188.657	0.077	0.115
-201.348	800.000	0.055	-0.199
-200.333	98.883	0.133	-0.154
-199.319	552.918	0.043	-0.105
-198.304	800.000	-0.036	-0.128
-197.290	800.000	-0.056	-0.238
-196.275	702.731	-0.046	-0.121
-195.260	-200.000	-0.006	-0.201
-194.246	-155.939	0.189	-0.012
-193.231	-63.199	0.159	0.065
-192.217	-124.606	0.105	0.016
-191.202	40.929	0.102	0.093
-190.187	-57.636	-0.180	0.079
-189.173	-35.499	0.251	0.137
-188.158	-52.948	0.048	-0.022
-187.144	245.724	-0.120	0.203
-186.129	31.042	0.206	-0.177
-185.114	69.739	-0.152	-0.157
-184.100	175.684	0.138	-0.201
-183.085	800.000	-0.022	-0.065
-182.071	-132.179	0.042	-0.005
-181.056	-72.479	-0.205	-0.076
-180.042	699.802	-0.051	0.135
-179.027	24.350	0.019	-0.016
-178.012	-44.065	0.226	-0.114
-176.998	454.821	0.113	0.251
-175.983	321.213	0.087	-0.165
-174.969	730.007	-0.079	0.211
-173.954	-200.000	-0.041	0.196
-172.939	-70.097	-0.122	0.046
-171.925	-87.247	-0.115	0.035
-170.910	-98.647	0.275	-0.070
-169.896	-200.000	-0.012	0.061
-168.881	104.888	-0.176	0.207
-167.866	119.354	-0.143	0.177
-166.852	103.065	0.190	-0.222
-165.837	-12.260	0.214	-0.140
-164.823	-200.000	-0.316	-0.001
-163.808	10.585	0.349	-0.266
-162.793	-30.890	-0.054	-0.031
-161.779	209.479	0.066	0.103
-160.764	-115.616	-0.224	0.042
-159.750	-154.171	-0.087	-0.006
-158.735	382.973	-0.147	-0.303
-157.720	-115.406	0.032	0.006
-156.706	800.000	-0.088	0.292
-155.691	800.000	-0.083	-0.271
-154.677	48.786	-0.120	0.113
-153.662	-64.094	-0.339	-0.138
-152.647	-97.088	0.217	-0.057
-151.633	134.954	-0.065	-0.084
-150.618	-167.111	-0.292	-0.012
-149.604	-94.020	0.241	-0.066
-148.589	800.000	-0.055	0.171
-147.574	-15.641	-0.118	0.075
-146.560	221.623	0.222	-0.357
-145.545	-200.000	-0.065	0.328
-144.531	-117.188	0.238	-0.043
-143.516	800.000	-0.030	0.125
-142.502	-20.854	0.206	0.126
-141.487	368.838	0.035	-0.070
-140.472	-200.000	-0.069	0.374
-139.458	25.990	0.157	0.131
-138.443	140.670	0.247	-0.326
-137.429	756.865	0.069	-0.187
-136.414	-200.000	-0.025	-0.276
-135.399	47.315	-0.282	0.262
-134.385	22.453	0.209	0.170
-133.370	-90.276	0.161	0.047
-132.356	501.176	-0.130	-0.300
-131.341	-175.593	0.147	-0.004
-130.326	-200.000	0.022	0.131
-129.312	-176.295	0.273	-0.007
-128.297	72.955	-0.118	-0.123
-127.283	800.000	0.147	0.466
-126.268	272.579	0.070	0.123
-125.253	-123.714	0.268	-0.042
-124.239	-198.369	-0.312	0.002
-123.224	-200.000	-0.042	-0.271
-122.210	660.665	-0.124	-0.319
-121.195	-200.000	0.026	-0.300
-120.180	384.448	0.068	0.140
