DTS Sentinel unit serial number:	SN413079Multiplexer serial number:	ORYXHardware model number:	OX4-SRSoftware version number:	ORYX F/W v4.00 Oryx Data Collector v3.7.2.0data status	okinstallation	princeton_trtdifferential loss correction	single-endedforward channel	channel 4reverse channel	N/Adate	2019/09/18time	13:21:35forward acquisition time	60.00reverse acquisition time	0.00gamma	496.2192k internal	0.2303k external	0.2303temperature offset calibration	0.9994default loss term (dB/km)	0.3790temperature slope calibration	1.0000multiplexer offset coefficient	1.0000multiplexer slope coefficient	1.0000fibre end	0.00T internal ref (°C)	34.12T ext. ref 1 (°C)	0.61T ext. ref 2 (°C)	29.48length (m)	temperature (°C)	Stokes	anti-Stokes-747.200	-10.677	-0.321	-0.216
-746.185	507.921	0.107	0.253
-745.171	25.946	0.104	0.088
-744.156	-157.299	-0.254	-0.016
-743.142	59.835	0.124	0.125
-742.127	-42.155	-0.138	0.072
-741.112	-200.000	-0.003	0.348
-740.098	295.604	0.043	-0.080
-739.083	-200.000	-0.011	0.171
-738.069	115.752	0.312	0.388
-737.054	-131.572	-0.318	-0.043
-736.039	-21.633	-0.186	0.116
-735.025	345.112	0.185	0.370
-734.010	800.000	-0.029	-0.103
-732.996	-39.330	-0.125	-0.067
-731.981	-76.674	-0.219	-0.078
-730.966	-89.015	0.231	0.070
-729.952	7.858	-0.109	0.083
-728.937	-200.000	-0.043	-0.378
-727.923	-200.000	0.011	-0.172
-726.908	116.313	-0.186	0.231
-725.894	-132.978	0.258	-0.033
-724.879	-177.301	-0.023	0.001
-723.864	108.124	-0.165	0.201
-722.850	-200.000	0.043	0.198
-721.835	-102.798	-0.311	0.075
-720.821	-200.000	-0.060	-0.449
-719.806	92.472	0.282	-0.324
-718.791	-1.275	0.143	-0.103
-717.777	-43.333	0.229	0.118
-716.762	-200.000	0.026	-0.181
-715.748	-200.000	-0.023	-0.152
-714.733	117.430	0.149	-0.186
-713.718	-200.000	0.008	0.106
-712.704	-81.567	0.061	-0.020
-711.689	339.018	0.050	-0.099
-710.675	32.583	0.323	-0.284
-709.660	-5.954	0.137	0.095
-708.645	-68.966	0.122	-0.048
-707.631	30.306	0.198	-0.172
-706.616	-115.703	0.174	0.033
-705.602	-107.110	-0.059	-0.013
-704.587	-63.411	0.343	-0.144
-703.572	800.000	0.088	0.259
-702.558	122.872	0.036	0.046
-701.543	187.478	-0.122	-0.185
-700.529	292.355	0.175	-0.323
-699.514	-200.000	0.028	0.207
-698.499	-54.021	-0.326	0.151
-697.485	436.820	-0.015	0.034
-696.470	-200.000	0.051	0.321
-695.456	-72.871	0.166	-0.062
-694.441	-200.000	0.057	-0.361
-693.426	-103.564	-0.172	-0.041
-692.412	-58.665	-0.097	0.043
-691.397	-34.004	-0.190	0.106
-690.383	244.952	0.062	-0.105
-689.368	84.369	-0.258	-0.286
-688.354	-15.242	-0.176	-0.114
-687.339	-122.583	0.182	-0.030
-686.324	-105.211	-0.341	0.079
-685.310	-164.810	-0.021	-0.001
-684.295	800.000	-0.142	0.425
-683.281	800.000	-0.074	-0.228
-682.266	-68.020	-0.226	0.090
-681.251	800.000	0.073	-0.215
-680.237	256.161	0.098	0.172
-679.222	-200.000	0.013	0.196
-678.208	-36.289	0.109	-0.059
-677.193	-200.000	-0.056	-0.301
-676.178	223.091	0.065	-0.106
-675.164	-22.845	-0.164	0.101
-674.149	-77.960	-0.171	0.060
-673.135	60.955	-0.185	-0.186
-672.120	-53.877	0.293	-0.136
-671.105	16.764	0.071	0.057
-670.091	22.538	-0.248	-0.206
-669.076	58.997	0.231	-0.231
-668.062	-200.000	-0.046	0.234
-667.047	-168.711	0.191	-0.007
-666.032	-144.655	-0.217	-0.020
-665.018	27.052	0.188	0.160
-664.003	-25.778	-0.280	-0.167
-662.989	-68.172	0.322	-0.127
-661.974	124.183	-0.075	-0.096
-660.959	-11.917	-0.228	0.152
-659.945	-200.000	-0.019	-0.297
-658.930	737.399	0.092	-0.250
-657.916	-200.000	0.107	-0.516
-656.901	-200.000	-0.027	0.383
-655.886	-35.010	-0.268	-0.148
-654.872	33.452	0.108	-0.095
-653.857	-200.000	-0.009	-0.079
-652.843	101.215	-0.076	-0.090
-651.828	-200.000	-0.004	-0.269
-650.814	800.000	0.095	-0.265
-649.799	568.908	-0.026	0.063
-648.784	97.063	-0.161	0.188
-647.770	-200.000	0.049	0.290
-646.755	220.013	-0.040	0.064
-645.741	-90.666	0.055	0.016
-644.726	99.584	-0.149	0.175
-643.711	188.662	-0.156	0.237
-642.697	-74.988	-0.337	0.122
-641.682	-20.941	0.126	-0.078
-640.668	276.227	0.208	0.375
-639.653	800.000	0.042	0.124
-638.638	-110.862	-0.231	0.048
-637.624	-92.280	0.057	-0.016
-636.609	-70.088	-0.218	0.084
-635.595	-200.000	-0.012	-0.204
-634.580	-200.000	-0.006	0.121
-633.565	507.388	-0.023	0.054
-632.551	-200.000	0.011	-0.308
-631.536	-46.458	0.242	-0.120
-630.522	-200.000	-0.016	0.141
-629.507	256.907	0.012	-0.021
-628.492	-56.901	-0.177	-0.079
-627.478	-200.000	-0.044	0.364
-626.463	-110.316	0.098	-0.021
-625.449	-200.000	0.051	-0.302
-624.434	-3.289	0.198	-0.140
-623.419	-200.000	-0.056	-0.266
-622.405	-144.108	0.162	0.015
-621.390	800.000	0.025	-0.088
-620.376	-68.972	0.199	-0.078
-619.361	176.341	0.156	0.230
-618.346	31.291	-0.193	-0.168
-617.332	-80.271	-0.152	0.052
-616.317	-11.162	0.041	0.027
-615.303	-200.000	-0.017	0.351
-614.288	-200.000	0.010	-0.055
-613.273	143.302	-0.143	0.193
-612.259	-162.610	-0.275	0.014
-611.244	-200.000	-0.082	-0.401
-610.230	-53.261	0.188	-0.087
-609.215	-44.850	-0.017	-0.009
-608.201	-154.732	-0.032	-0.002
-607.186	319.709	-0.084	-0.162
-606.171	-200.000	-0.012	-0.151
-605.157	800.000	0.046	0.135
-604.142	61.411	0.154	-0.155
-603.128	32.276	-0.149	-0.130
-602.113	-149.714	-0.092	0.007
-601.098	-200.000	-0.008	0.052
-600.084	2.190	0.091	0.067
-599.069	-18.793	-0.313	-0.197
-598.055	-72.905	0.104	0.039
-597.040	-10.364	-0.263	0.176
-596.025	96.928	0.200	0.232
-595.011	-200.000	0.034	-0.193
-593.996	-200.000	-0.266	-0.001
-592.982	320.113	-0.029	-0.055
-591.967	359.991	-0.061	0.124
-590.952	338.703	-0.069	-0.135
-589.938	-200.000	0.003	-0.179
-588.923	-200.000	-0.008	-0.171
-587.909	-87.104	-0.341	-0.105
-586.894	-200.000	0.017	0.153
-585.879	800.000	0.070	0.266
-584.865	-92.927	0.188	-0.053
-583.850	-74.208	-0.267	0.098
-582.836	800.000	0.128	-0.400
-581.821	-130.489	0.319	-0.044
-580.806	-200.000	-0.021	-0.291
-579.792	103.867	0.183	0.218
-578.777	-91.578	0.173	0.050
-577.763	766.159	-0.064	-0.175
-576.748	606.831	0.181	-0.458
-575.733	239.532	-0.114	-0.193
-574.719	-110.591	0.409	-0.086
-573.704	-111.501	-0.194	0.040
-572.690	21.131	0.141	0.116
-571.675	-11.710	-0.041	0.028
-570.661	-3.685	-0.188	0.132
-569.646	88.009	-0.059	0.066
-568.631	104.709	-0.331	0.394
-567.617	98.599	-0.057	0.067
-566.602	-200.000	-0.016	0.138
-565.588	54.823	-0.017	0.017
-564.573	-82.339	-0.400	-0.132
-563.558	-200.000	0.019	-0.193
-562.544	110.479	-0.055	-0.067
-561.529	-107.930	-0.232	0.051
-560.515	-56.547	-0.154	-0.069
-559.500	800.000	-0.072	-0.310
-558.485	229.981	0.117	-0.193
-557.471	-129.785	0.399	0.056
-556.456	-200.000	0.026	-0.291
-555.442	-78.609	-0.043	-0.015
-554.427	-127.071	-0.417	-0.062
-553.412	7.183	-0.330	0.249
-552.398	-195.793	0.284	0.002
-551.383	-200.000	-0.015	0.075
-550.369	-200.000	-0.012	-0.190
-549.354	28.330	-0.177	-0.151
-548.339	202.166	0.245	0.382
-547.325	-200.000	0.011	0.156
-546.310	-43.800	-0.117	-0.059
-545.296	-200.000	-0.017	-0.153
-544.281	-48.679	0.151	0.073
-543.266	58.832	-0.158	-0.157
-542.252	800.000	0.121	-0.374
-541.237	-44.316	-0.229	0.116
-540.223	4.749	-0.104	0.077
-539.208	-200.000	-0.017	-0.245
-538.193	504.805	-0.166	0.389
-537.179	-200.000	-0.012	-0.093
-536.164	-98.817	-0.197	-0.051
-535.150	370.010	0.032	0.066
-534.135	-14.556	0.222	-0.144
-533.121	-132.861	0.235	-0.030
-532.106	21.733	0.097	-0.080
-531.091	19.746	0.137	-0.111
-530.077	-99.144	-0.155	0.040
-529.062	800.000	0.057	-0.194
-528.048	-30.388	-0.140	0.081
-527.033	-92.995	-0.209	0.059
-526.018	777.682	-0.062	-0.172
-525.004	-81.987	-0.069	0.023
-523.989	800.000	0.099	0.420
-522.975	209.881	0.073	-0.115
-521.960	120.138	0.384	-0.481
-520.945	-45.447	0.176	0.088
-519.931	-102.808	0.094	0.023
-518.916	439.696	-0.079	-0.174
-517.902	-110.046	-0.277	0.059
-516.887	-126.989	0.482	-0.072
-515.872	-110.180	-0.225	0.047
-514.858	146.411	0.048	0.065
-513.843	436.443	0.143	0.314
-512.829	202.968	0.205	0.319
-511.814	-162.768	0.087	0.004
-510.799	3.461	-0.151	0.111
-509.785	264.785	-0.093	0.164
-508.770	-3.219	-0.198	0.139
-507.756	-200.000	0.002	0.106
-506.741	-200.000	0.019	0.086
-505.726	481.681	0.039	-0.089
-504.712	-153.927	0.096	-0.007
-503.697	-200.000	0.009	0.138
-502.683	497.069	-0.057	0.133
-501.668	307.072	-0.071	0.133
-500.653	16.091	0.220	0.175
-499.639	-200.000	-0.017	-0.141
-498.624	-200.000	-0.030	-0.395
-497.610	-121.883	-0.152	-0.025
-496.595	40.717	-0.262	0.239
-495.581	800.000	-0.018	-0.076
-494.566	427.295	-0.026	-0.056
-493.551	800.000	0.031	0.111
-492.537	34.460	-0.069	0.061
-491.522	-104.688	-0.224	-0.052
-490.508	-176.967	0.347	-0.009
-489.493	321.822	-0.078	0.149
-488.478	92.669	0.078	0.089
-487.464	422.349	0.188	0.408
-486.449	66.058	-0.070	-0.072
-485.435	96.020	-0.066	-0.076
-484.420	-200.000	0.016	0.161
-483.405	-61.644	0.226	0.095
-482.391	49.706	0.277	0.263
-481.376	-35.292	0.269	-0.148
-480.362	226.222	-0.195	-0.319
-479.347	-8.158	0.250	-0.170
-478.332	296.677	-0.247	0.457
-477.318	-138.153	-0.603	0.067
-476.303	69.221	-0.008	-0.009
-475.289	-95.468	-0.235	0.064
-474.274	75.865	-0.286	-0.305
-473.259	800.000	-0.038	-0.146
-472.245	-200.000	-0.006	-0.097
-471.230	-82.587	-0.065	-0.021
-470.216	-200.000	0.045	-0.264
-469.201	-121.085	-0.215	0.036
-468.186	-84.237	0.063	0.020
-467.172	-79.792	0.156	0.053
-466.157	295.465	0.170	0.314
-465.143	-26.493	-0.247	-0.146
-464.128	327.185	-0.026	0.051
-463.113	79.919	0.256	-0.277
-462.099	17.202	0.169	0.135
-461.084	-2.120	-0.334	-0.236
-460.070	-56.831	-0.142	-0.063
-459.055	233.235	-0.109	0.181
-458.040	-26.356	0.144	0.085
-457.026	-111.056	-0.311	0.064
-456.011	-200.000	-0.041	-0.255
-454.997	800.000	-0.068	-0.209
-453.982	-17.206	0.157	0.100
-452.968	-93.875	0.091	0.025
-451.953	-121.170	0.011	0.002
-450.938	315.178	0.054	0.103
-449.924	-157.209	-0.137	-0.008
-448.909	31.267	-0.400	-0.345
-447.895	800.000	0.084	-0.267
-446.880	68.240	0.056	0.058
-445.865	445.716	-0.064	0.141
-444.851	457.986	0.032	0.072
-443.836	546.636	0.127	-0.306
-442.822	-200.000	0.012	0.215
-441.807	256.473	-0.010	0.017
-440.792	-197.862	-0.174	-0.001
-439.778	17.524	-0.626	-0.501
-438.763	-200.000	0.028	-0.286
-437.749	-200.000	-0.058	-0.598
-436.734	-68.703	-0.350	0.136
-435.719	-140.898	-0.155	-0.016
-434.705	14.978	0.127	0.100
-433.690	-168.732	0.453	-0.017
-432.676	330.973	0.103	-0.199
-431.661	-3.268	0.090	0.063
-430.646	-131.431	-0.279	-0.037
-429.632	-200.000	-0.013	-0.192
-428.617	226.226	-0.145	0.237
-427.603	510.837	-0.078	0.183
-426.588	-18.165	0.180	0.113
-425.573	-92.341	-0.219	-0.062
-424.559	-158.881	0.238	-0.014
-423.544	-200.000	-0.037	-0.213
-422.530	800.000	0.182	-0.569
-421.515	112.429	0.062	-0.075
-420.500	-25.471	-0.207	-0.123
-419.486	461.296	-0.067	-0.150
-418.471	219.884	-0.125	-0.201
-417.457	-74.313	0.070	-0.025
-416.442	118.975	-0.131	0.163
-415.428	266.699	-0.151	-0.266
-414.413	369.668	0.135	-0.275
-413.398	48.617	0.138	-0.130
-412.384	194.326	0.203	0.310
-411.369	800.000	0.109	-0.405
-410.355	-141.059	-0.176	0.018
-409.340	-37.274	-0.103	0.055
-408.325	-200.000	0.037	0.199
-407.311	281.827	0.045	-0.081
-406.296	-19.297	0.312	-0.195
-405.282	-16.726	-0.209	0.133
-404.267	800.000	-0.026	-0.112
-403.252	-79.951	0.241	0.081
-402.238	800.000	-0.044	0.125
-401.223	363.174	-0.076	0.154
-400.209	-33.900	-0.140	0.077
-399.194	-62.340	0.160	0.067
-398.179	-58.131	0.211	0.093
-397.165	19.093	-0.226	-0.182
-396.150	-200.000	0.066	-0.306
-395.136	-106.133	0.057	0.013
-394.121	-200.000	0.007	-0.250
-393.106	175.624	-0.028	-0.041
-392.092	-63.853	-0.136	0.056
-391.077	-200.000	-0.039	0.352
-390.063	-200.000	0.040	0.234
-389.048	2.965	-0.197	0.144
-388.033	183.727	0.051	-0.076
-387.019	20.650	-0.144	0.117
-386.004	800.000	-0.048	-0.170
-384.990	-200.000	0.062	-0.414
-383.975	-153.201	-0.101	0.007
-382.960	-37.092	0.106	-0.057
-381.946	-200.000	-0.033	0.328
-380.931	-6.429	0.254	0.174
-379.917	-120.826	-0.123	0.021
-378.902	34.537	-0.055	0.048
-377.888	800.000	-0.082	0.234
-376.873	800.000	0.064	-0.199
-375.858	-200.000	0.069	0.320
-374.844	-103.073	-0.131	0.031
-373.829	-162.803	0.333	-0.016
-372.815	42.525	0.115	-0.106
-371.800	800.000	0.040	0.155
-370.785	213.120	0.082	-0.130
-369.771	-200.000	0.007	-0.338
-368.756	-0.524	0.212	0.151
-367.742	14.448	0.239	-0.187
-366.727	758.555	-0.027	-0.074
-365.712	39.031	-0.341	-0.306
-364.698	-64.838	-0.107	-0.044
-363.683	17.890	-0.083	-0.066
-362.669	-57.691	-0.327	-0.144
-361.654	-150.194	-0.149	0.012
-360.639	346.280	0.124	0.244
-359.625	-138.641	0.273	-0.030
-358.610	800.000	0.094	0.280
-357.596	73.766	-0.206	-0.217
-356.581	473.294	0.178	-0.402
-355.566	-112.988	0.405	0.080
-354.552	24.028	-0.162	-0.134
-353.537	10.688	-0.151	0.116
-352.523	-200.000	0.021	0.112
-351.508	82.551	0.166	0.180
-350.493	83.320	0.077	0.084
-349.479	-95.025	-0.352	-0.095
-348.464	272.532	0.085	-0.150
-347.450	-200.000	-0.028	0.155
-346.435	-200.000	-0.019	0.344
-345.420	-200.000	-0.002	0.036
-344.406	60.949	-0.058	-0.058
-343.391	491.891	0.058	-0.134
-342.377	-20.225	0.198	0.122
-341.362	800.000	-0.035	-0.117
-340.348	-45.456	0.189	0.094
-339.333	-200.000	-0.069	0.343
-338.318	532.594	0.032	0.076
-337.304	50.729	0.071	0.067
-336.289	-165.819	-0.518	0.022
-335.275	-54.937	0.236	-0.107
-334.260	48.188	-0.119	-0.112
-333.245	-200.000	0.046	-0.539
-332.231	-200.000	-0.033	-0.199
-331.216	-200.000	-0.268	-0.001
-330.202	-29.054	0.207	-0.119
-329.187	800.000	0.071	-0.288
-328.172	74.547	-0.163	0.172
-327.158	-165.186	0.140	0.006
-326.143	483.243	0.186	0.424
-325.129	575.557	-0.145	0.356
-324.114	304.232	0.146	0.272
-323.099	-119.749	0.272	0.047
-322.085	-152.989	-0.257	0.018
-321.070	58.143	0.138	-0.135
-320.056	-200.000	0.008	-0.070
-319.041	15.093	-0.057	0.044
-318.026	-200.000	0.060	-0.438
-317.012	800.000	-0.036	0.145
-315.997	24.955	0.202	0.168
-314.983	800.000	-0.030	0.128
-313.968	72.982	0.075	-0.079
-312.953	1.362	0.202	-0.146
-311.939	-200.000	-0.061	0.275
-310.924	800.000	-0.017	-0.069
-309.910	9.270	0.210	-0.159
-308.895	0.336	-0.056	0.040
-307.880	71.477	0.152	0.158
-306.866	288.749	-0.150	-0.271
-305.851	-128.674	-0.235	-0.033
-304.837	-23.498	0.083	0.050
-303.822	-129.234	-0.227	0.032
-302.807	316.125	0.015	0.028
-301.793	120.156	0.260	-0.324
-300.778	-200.000	0.018	-0.279
-299.764	20.618	0.047	-0.038
-298.749	269.388	-0.122	0.214
-297.735	121.015	0.171	-0.213
-296.720	230.483	-0.112	-0.184
-295.705	146.314	-0.111	0.149
-294.691	800.000	-0.132	-0.403
-293.676	-10.392	-0.110	0.073
-292.662	-200.000	-0.115	0.516
-291.647	-200.000	0.008	-0.139
-290.632	800.000	0.091	0.342
-289.618	-76.429	-0.090	-0.032
-288.603	103.978	-0.042	-0.050
-287.589	-136.051	-0.095	0.011
-286.574	-126.931	-0.230	-0.034
-285.559	800.000	0.034	-0.097
-284.545	0.622	-0.055	-0.039
-283.530	-147.403	-0.489	0.041
-282.516	-92.348	0.217	-0.061
-281.501	800.000	-0.062	0.240
-280.486	-42.412	-0.209	-0.107
-279.472	-177.465	0.402	-0.010
-278.457	93.874	0.084	0.095
-277.443	-22.535	-0.138	-0.083
-276.428	97.050	0.234	0.268
-275.413	-200.000	-0.021	-0.151
-274.399	-200.000	0.005	-0.034
-273.384	400.340	0.091	0.192
-272.370	-106.748	0.174	-0.039
-271.355	128.611	-0.126	0.161
-270.340	544.604	0.139	0.333
-269.326	-69.815	0.307	-0.117
-268.311	-24.496	-0.111	-0.066
-267.297	-149.661	-0.317	-0.025
-266.282	16.248	0.125	-0.098
-265.267	-85.157	-0.196	0.061
-264.253	122.956	0.266	-0.333
-263.238	-200.000	-0.225	0.001
-262.224	432.642	0.084	-0.181
-261.209	-200.000	0.012	0.169
-260.195	-20.986	0.077	0.047
-259.180	225.577	0.162	-0.262
-258.165	85.576	-0.088	-0.096
-257.151	347.600	-0.140	-0.277
-256.136	169.714	0.160	-0.229
-255.122	-16.175	-0.138	-0.088
-254.107	310.887	0.151	0.283
-253.092	165.076	-0.228	0.322
-252.078	-151.581	0.119	-0.009
-251.063	-18.079	-0.300	-0.188
-250.049	126.553	0.138	-0.174
-249.034	97.773	0.115	0.133
-248.019	-45.418	-0.134	0.067
-247.005	-2.002	0.066	-0.047
-245.990	-147.068	0.077	-0.007
-244.976	-126.501	-0.122	-0.018
-243.961	-48.648	-0.057	0.027
-242.946	-11.884	0.218	0.143
-241.932	-105.494	0.131	0.030
-240.917	-57.674	-0.191	-0.083
-239.903	286.255	0.116	0.209
-238.888	103.058	0.320	0.375
-237.873	328.033	0.048	0.093
-236.859	800.000	0.057	-0.249
-235.844	239.281	-0.074	0.122
-234.830	176.841	-0.109	0.159
-233.815	-100.755	-0.061	0.015
-232.800	241.407	0.057	-0.095
-231.786	-47.817	0.120	0.058
-230.771	-200.000	0.013	0.061
-229.757	-200.000	0.001	0.187
-228.742	229.365	0.127	0.207
-227.727	-23.246	0.079	-0.047
-226.713	346.881	-0.068	0.133
-225.698	-102.033	-0.106	-0.026
-224.684	-38.770	0.311	0.164
-223.669	305.128	-0.192	0.356
-222.655	-200.000	-0.014	0.065
-221.640	-200.000	-0.007	0.032
-220.625	104.793	0.248	0.291
-219.611	18.206	0.420	-0.335
-218.596	-39.946	0.435	-0.226
-217.582	-82.234	0.481	0.156
-216.567	-62.474	-0.243	-0.101
-215.552	385.281	0.102	0.210
-214.538	-46.188	-0.096	-0.047
-213.523	38.020	-0.119	0.105
-212.509	-105.794	0.202	-0.046
-211.494	429.834	0.109	0.234
-210.479	-91.762	-0.306	-0.087
-209.465	-110.939	0.158	0.032
-208.450	-98.895	0.157	0.040
-207.436	125.039	-0.172	0.217
-206.421	-3.118	0.133	0.092
-205.406	418.688	-0.131	0.279
-204.392	388.841	-0.068	0.140
-203.377	-192.701	-0.294	-0.003
-202.363	182.900	0.244	-0.359
-201.348	49.196	0.215	-0.202
-200.333	-9.545	0.313	-0.208
-199.319	-128.328	-0.384	0.055
-198.304	-200.000	-0.002	-0.070
-197.290	800.000	0.043	0.175
-196.275	230.501	-0.023	0.038
-195.260	57.196	0.055	0.054
-194.246	620.664	-0.103	0.258
-193.231	-200.000	0.030	0.495
-192.217	-200.000	-0.080	0.369
-191.202	45.314	-0.157	0.145
-190.187	800.000	0.012	0.041
-189.173	-97.356	0.094	0.024
-188.158	216.909	0.062	0.099
-187.144	232.972	0.089	-0.146
-186.129	-200.000	-0.010	0.143
-185.114	-90.560	0.208	0.060
-184.100	-200.000	0.033	-0.186
-183.085	591.900	-0.077	-0.190
-182.071	-99.062	0.069	0.017
-181.056	206.388	-0.148	-0.230
-180.042	-37.247	0.138	-0.073
-179.027	221.900	-0.098	-0.158
-178.012	-79.833	0.118	-0.040
-176.998	262.185	0.059	0.103
-175.983	29.372	0.165	-0.139
-174.969	-30.714	0.218	-0.123
-173.954	-135.666	-0.431	0.051
-172.939	207.153	0.227	0.352
-171.925	-141.340	0.524	0.053
-170.910	-48.652	0.067	0.032
-169.896	36.792	-0.187	-0.165
-168.881	-200.000	0.003	-0.058
-167.866	-200.000	0.092	0.467
-166.852	-53.629	-0.308	-0.140
-165.837	-1.232	0.069	0.048
-164.823	-151.832	0.421	-0.031
-163.808	-103.180	0.406	-0.096
-162.793	773.192	0.036	0.098
-161.779	-85.642	-0.317	0.098
-160.764	-80.951	0.084	-0.028
-159.750	159.505	0.182	0.252
-158.735	-200.000	0.071	0.331
-157.720	800.000	0.062	0.214
-156.706	278.726	0.057	0.101
-155.691	519.614	0.019	0.044
-154.677	800.000	0.113	-0.312
-153.662	-3.794	0.181	-0.125
-152.647	-104.710	-0.410	-0.094
-151.633	-68.812	-0.153	-0.059
-150.618	545.537	0.078	-0.186
-149.604	482.333	0.069	-0.157
-148.589	2.535	-0.236	0.170
-147.574	800.000	-0.093	-0.334
-146.560	-58.102	0.141	-0.061
-145.545	16.682	-0.106	-0.083
-144.531	-54.878	-0.229	-0.103
-143.516	-200.000	0.000	-0.205
-142.502	-128.054	-0.186	0.027
-141.487	417.934	0.054	-0.115
-140.472	-99.729	-0.258	-0.064
-139.458	55.161	0.269	-0.258
-138.443	-200.000	-0.047	-0.436
-137.429	31.295	0.210	0.179
-136.414	-42.340	0.078	-0.040
-135.399	-15.634	-0.161	-0.102
-134.385	44.564	0.213	-0.194
-133.370	94.361	0.071	-0.080
-132.356	72.530	0.083	0.086
-131.341	244.090	-0.005	0.008
-130.326	-8.729	-0.194	-0.130
-129.312	-200.000	0.016	0.163
-128.297	187.697	-0.183	-0.272
-127.283	19.894	-0.293	0.234
-126.268	74.109	-0.162	0.169
-125.253	-84.389	0.124	-0.039
-124.239	126.800	-0.187	0.236
-123.224	-9.030	0.322	0.214
-122.210	-12.975	-0.337	-0.218
-121.195	-135.493	-0.119	-0.014
