DTS Sentinel unit serial number:	SN413079Multiplexer serial number:	ORYXHardware model number:	OX4-SRSoftware version number:	ORYX F/W v4.00 Oryx Data Collector v3.7.2.0data status	okinstallation	princeton_trtdifferential loss correction	single-endedforward channel	channel 4reverse channel	N/Adate	2019/09/16time	03:57:35forward acquisition time	60.00reverse acquisition time	0.00gamma	496.2192k internal	0.2320k external	0.2320temperature offset calibration	0.9977default loss term (dB/km)	0.3790temperature slope calibration	1.0000multiplexer offset coefficient	1.0000multiplexer slope coefficient	1.0000fibre end	0.00T internal ref (°C)	27.50T ext. ref 1 (°C)	10.70T ext. ref 2 (°C)	21.55length (m)	temperature (°C)	Stokes	anti-Stokes-747.200	149.451	0.029	0.039
-746.185	49.420	-0.210	0.200
-745.171	-75.659	-0.100	-0.036
-744.156	546.684	-0.021	-0.051
-743.142	310.431	-0.085	0.161
-742.127	143.623	-0.081	0.109
-741.112	102.412	-0.062	0.073
-740.098	719.283	-0.087	0.233
-739.083	36.682	0.134	-0.120
-738.069	-148.035	-0.307	0.026
-737.054	220.649	-0.145	-0.236
-736.039	-108.738	-0.129	-0.028
-735.025	-200.000	0.037	0.200
-734.010	-23.404	-0.229	-0.139
-732.996	-121.275	-0.223	-0.038
-731.981	6.792	0.178	-0.134
-730.966	-92.631	-0.110	-0.031
-729.952	-116.571	0.358	-0.067
-728.937	800.000	-0.017	-0.057
-727.923	-119.337	0.102	-0.018
-726.908	800.000	-0.027	0.076
-725.894	-41.341	0.159	0.083
-724.879	129.629	-0.280	-0.361
-723.864	227.921	0.162	0.267
-722.850	-95.847	-0.105	0.028
-721.835	-2.154	-0.335	0.238
-720.821	-113.541	-0.187	0.037
-719.806	26.983	-0.345	0.292
-718.791	241.507	-0.289	-0.487
-717.777	-65.423	-0.285	-0.116
-716.762	-49.129	0.129	-0.062
-715.748	150.401	-0.134	0.184
-714.733	10.394	-0.070	-0.054
-713.718	5.587	0.084	-0.063
-712.704	-200.000	-0.010	0.262
-711.689	394.878	0.102	-0.214
-710.675	78.867	-0.052	0.056
-709.660	800.000	0.119	0.363
-708.645	-66.674	0.262	0.105
-707.631	-180.694	0.172	-0.004
-706.616	-58.802	0.284	0.124
-705.602	407.097	-0.021	-0.045
-704.587	139.746	0.226	0.301
-703.572	-128.204	-0.180	0.026
-702.558	-125.913	0.238	0.036
-701.543	465.302	-0.182	-0.410
-700.529	535.948	-0.043	-0.103
-699.514	208.765	-0.080	0.127
-698.499	-109.136	0.146	-0.031
-697.485	552.094	-0.062	0.151
-696.470	-116.587	-0.343	-0.064
-695.456	-97.269	0.026	0.007
-694.441	800.000	0.064	0.238
-693.426	-69.790	-0.589	0.227
-692.412	-14.903	-0.217	0.140
-691.397	-143.683	-0.254	0.024
-690.383	-121.236	-0.271	0.046
-689.368	800.000	-0.076	0.296
-688.354	551.806	-0.120	0.291
-687.339	232.527	0.033	0.055
-686.324	-185.187	-0.307	-0.005
-685.310	457.771	-0.010	0.022
-684.295	84.342	0.200	0.220
-683.281	-99.871	-0.448	0.113
-682.266	71.071	0.153	-0.160
-681.251	88.261	-0.142	-0.159
-680.237	-77.728	0.188	0.066
-679.222	36.951	0.224	-0.200
-678.208	391.934	-0.077	-0.162
-677.193	163.100	0.207	0.293
-676.178	489.444	-0.190	0.439
-675.164	-91.667	0.276	-0.079
-674.149	-75.388	0.167	0.060
-673.135	800.000	-0.030	-0.115
-672.120	618.070	-0.141	0.357
-671.105	49.425	0.043	-0.041
-670.091	164.980	-0.112	-0.160
-669.076	-69.385	0.123	0.048
-668.062	52.678	0.158	0.152
-667.047	-200.000	-0.026	-0.242
-666.032	-58.432	-0.164	-0.072
-665.018	213.614	0.090	-0.143
-664.003	-89.982	-0.092	0.027
-662.989	800.000	0.028	0.106
-661.974	-34.465	0.060	-0.033
-660.959	68.113	-0.188	0.194
-659.945	95.455	0.070	0.081
-658.930	35.679	0.185	-0.164
-657.916	180.236	-0.158	0.233
-656.901	-80.634	-0.149	0.050
-655.886	297.796	-0.100	0.185
-654.872	18.670	0.167	0.134
-653.857	-113.251	-0.276	-0.055
-652.843	142.046	-0.142	-0.189
-651.828	188.349	-0.129	0.194
-650.814	-38.262	0.216	0.115
-649.799	-200.000	0.022	-0.377
-648.784	250.524	0.182	-0.311
-647.770	-174.433	0.217	0.006
-646.755	-8.214	-0.108	0.073
-645.741	-36.258	0.287	0.156
-644.726	19.016	-0.080	0.065
-643.711	241.789	0.211	0.354
-642.697	-179.838	-0.102	-0.002
-641.682	237.070	0.165	-0.276
-640.668	469.402	0.067	-0.153
-639.653	-45.288	-0.197	-0.099
-638.638	-130.973	-0.340	0.046
-637.624	-200.000	0.050	0.451
-636.609	-35.028	-0.207	0.114
-635.595	179.804	-0.083	-0.123
-634.580	61.367	-0.184	-0.184
-633.565	-91.621	-0.089	-0.025
-632.551	20.039	-0.293	0.238
-631.536	-73.587	-0.218	0.080
-630.522	-165.576	0.315	0.014
-629.507	195.619	-0.135	0.206
-628.492	-200.000	-0.002	-0.117
-627.478	32.571	-0.204	0.178
-626.463	-90.867	-0.156	0.045
-625.449	-63.448	-0.255	-0.105
-624.434	-82.090	-0.049	0.016
-623.419	-64.262	-0.238	0.098
-622.405	313.670	0.069	0.130
-621.390	-200.000	0.009	0.065
-620.376	-200.000	-0.053	-0.308
-619.361	-130.110	0.211	0.029
-618.346	-9.860	0.103	-0.069
-617.332	232.281	0.187	-0.308
-616.317	656.562	-0.041	-0.105
-615.303	800.000	-0.034	-0.142
-614.288	-166.428	0.425	-0.018
-613.273	-117.755	-0.254	-0.046
-612.259	-96.033	-0.255	-0.068
-611.244	-71.886	0.337	0.126
-610.230	-200.000	0.031	0.374
-609.215	-200.000	0.047	-0.327
-608.201	800.000	-0.030	-0.108
-607.186	-111.664	-0.241	-0.049
-606.171	-200.000	0.014	-0.250
-605.157	2.264	0.175	-0.128
-604.142	75.203	0.089	-0.094
-603.128	-8.102	0.179	-0.121
-602.113	-200.000	0.012	0.186
-601.098	-71.669	-0.412	0.155
-600.084	-200.000	0.018	-0.095
-599.069	96.604	0.127	0.147
-598.055	-173.692	0.213	0.006
-597.040	580.343	-0.020	0.049
-596.025	243.191	-0.041	0.069
-595.011	-48.355	-0.244	-0.118
-593.996	148.344	-0.087	-0.118
-592.982	-126.654	0.078	-0.012
-591.967	239.478	-0.054	-0.090
-590.952	-101.599	0.244	0.060
-589.938	132.272	-0.220	-0.285
-588.923	-200.000	-0.063	0.324
-587.909	-200.000	0.005	0.044
-586.894	631.872	-0.080	0.203
-585.879	284.025	-0.064	0.115
-584.865	-97.345	-0.068	0.018
-583.850	-128.757	0.516	0.073
-582.836	-160.797	-0.353	-0.019
-581.821	-120.967	0.132	-0.022
-580.806	196.692	0.113	-0.174
-579.792	-158.823	0.442	0.025
-578.777	-83.316	0.266	-0.086
-577.763	-200.000	-0.004	-0.157
-576.748	-119.405	0.052	-0.009
-575.733	-121.733	-0.220	-0.037
-574.719	73.459	-0.211	-0.222
-573.704	30.209	-0.246	-0.211
-572.690	-74.053	0.145	0.053
-571.675	-1.306	-0.082	0.058
-570.661	-200.000	-0.003	0.203
-569.646	-183.177	0.067	-0.001
-568.631	280.184	-0.054	-0.097
-567.617	62.907	0.184	0.185
-566.602	36.717	-0.141	-0.125
-565.588	-200.000	-0.034	-0.233
-564.573	-94.558	-0.222	-0.061
-563.558	468.068	0.108	-0.244
-562.544	-95.957	-0.162	-0.043
-561.529	-120.027	0.218	0.038
-560.515	108.389	0.146	-0.175
-559.500	8.307	0.223	0.168
-558.485	534.396	-0.154	0.367
-557.471	554.810	0.043	0.103
-556.456	-67.268	-0.142	0.056
-555.442	783.415	0.099	-0.271
-554.427	301.277	0.072	-0.133
-553.412	65.909	-0.093	0.094
-552.398	-19.444	-0.229	0.142
-551.383	-200.000	0.056	0.277
-550.369	236.458	0.106	-0.177
-549.354	-84.189	0.134	-0.043
-548.339	-121.033	-0.082	-0.014
-547.325	800.000	-0.054	0.207
-546.310	-86.771	0.195	0.060
-545.296	-28.201	-0.123	0.071
-544.281	-51.453	0.113	0.053
-543.266	37.628	-0.173	-0.154
-542.252	-200.000	-0.025	-0.305
-541.237	146.500	-0.035	-0.047
-540.223	-77.223	-0.297	-0.104
-539.208	38.506	-0.146	0.130
-538.193	191.028	0.186	0.281
-537.179	297.943	-0.272	0.501
-536.164	-63.817	0.264	0.108
-535.150	135.013	0.161	0.210
-534.135	-49.427	-0.229	0.109
-533.121	268.159	-0.104	0.183
-532.106	208.316	0.068	-0.107
-531.091	209.850	-0.224	0.352
-530.077	-76.601	-0.254	0.089
-529.062	-200.000	0.014	-0.462
-528.048	-28.233	-0.171	0.099
-527.033	-200.000	0.002	-0.088
-526.018	-200.000	-0.046	-0.275
-525.004	-59.578	-0.296	0.127
-523.989	-42.631	0.328	-0.168
-522.975	-200.000	-0.002	-0.136
-521.960	-88.890	0.017	0.005
-520.945	-6.719	-0.167	-0.114
-519.931	800.000	-0.080	-0.327
-518.916	81.255	-0.098	-0.107
-517.902	88.808	0.099	-0.111
-516.887	-115.873	-0.199	0.037
-515.872	-200.000	0.001	0.104
-514.858	22.174	0.227	0.186
-513.843	-96.255	-0.108	0.029
-512.829	-82.681	0.340	0.110
-511.814	800.000	-0.028	-0.086
-510.799	-200.000	0.005	-0.179
-509.785	-200.000	0.019	-0.621
-508.770	800.000	-0.048	-0.150
-507.756	51.551	-0.062	0.059
-506.741	-200.000	-0.018	0.190
-505.726	800.000	0.020	-0.055
-504.712	128.691	-0.218	0.278
-503.697	87.501	0.202	0.224
-502.683	748.809	0.027	-0.072
-501.668	-200.000	0.021	-0.127
-500.653	-13.816	-0.165	0.107
-499.639	-14.674	0.227	-0.146
-498.624	-22.610	0.198	0.120
-497.610	800.000	0.062	-0.211
-496.595	626.979	0.109	0.276
-495.581	-87.056	0.054	0.017
-494.566	-45.752	0.432	-0.214
-493.551	509.968	-0.047	-0.110
-492.537	-200.000	-0.044	-0.207
-491.522	108.505	-0.100	0.120
-490.508	-93.973	0.204	-0.056
-489.493	-200.000	-0.017	-0.182
-488.478	194.784	0.052	0.079
-487.464	-125.741	-0.185	-0.028
-486.449	160.187	0.068	0.095
-485.435	-200.000	-0.003	0.166
-484.420	-200.000	0.004	-0.023
-483.405	-0.673	-0.344	0.244
-482.391	-200.000	-0.001	0.074
-481.376	-1.163	-0.168	-0.119
-480.362	800.000	0.065	0.214
-479.347	-200.000	0.052	0.300
-478.332	-42.396	-0.015	0.007
-477.318	-39.680	-0.284	-0.149
-476.303	-50.563	-0.123	-0.058
-475.289	128.588	-0.229	0.292
-474.274	13.715	-0.326	0.253
-473.259	-114.361	-0.019	-0.004
-472.245	357.852	-0.089	-0.178
-471.230	-125.997	-0.082	-0.012
-470.216	800.000	0.109	0.372
-469.201	141.882	-0.013	-0.018
-468.186	-200.000	-0.015	-0.335
-467.172	-200.000	0.009	0.174
-466.157	-121.443	0.115	-0.019
-465.143	-98.645	0.249	0.064
-464.128	800.000	-0.022	-0.084
-463.113	102.890	-0.190	0.222
-462.099	-177.381	0.295	-0.007
-461.084	-200.000	0.019	-0.179
-460.070	-90.806	-0.324	0.093
-459.055	74.142	-0.210	-0.220
-458.040	98.308	-0.073	0.084
-457.026	-124.014	-0.166	0.026
-456.011	218.182	0.042	0.067
-454.997	-117.732	0.403	-0.072
-453.982	-134.206	-0.576	-0.071
-452.968	-18.300	0.229	-0.143
-451.953	-75.980	-0.171	-0.060
-450.938	-111.198	-0.008	-0.002
-449.924	-146.541	-0.223	-0.019
-448.909	-94.187	0.220	-0.060
-447.895	-97.235	-0.117	0.031
-446.880	178.506	-0.083	0.121
-445.865	-80.517	0.189	0.063
-444.851	-200.000	-0.012	0.079
-443.836	31.797	-0.037	-0.032
-442.822	159.920	-0.053	-0.074
-441.807	-35.925	-0.128	0.069
-440.792	188.069	0.110	-0.164
-439.778	-72.952	0.338	-0.124
-438.763	157.334	-0.219	0.302
-437.749	-115.996	0.306	0.057
-436.734	165.605	0.086	-0.122
-435.719	41.896	-0.082	0.074
-434.705	-36.081	-0.223	0.121
-433.690	501.535	0.176	0.405
-432.676	99.577	0.127	0.147
-431.661	-200.000	0.010	-0.091
-430.646	-59.746	0.232	0.099
-429.632	438.413	-0.102	0.222
-428.617	-73.841	0.428	-0.155
-427.603	-155.926	0.287	-0.018
-426.588	447.767	-0.189	0.415
-425.573	-79.672	0.224	-0.075
-424.559	-123.727	0.381	-0.060
-423.544	-200.000	0.012	0.341
-422.530	235.905	-0.084	0.139
-421.515	-133.115	-0.070	-0.009
-420.500	-21.570	0.176	-0.107
-419.486	800.000	0.068	0.266
-418.471	32.474	0.049	-0.042
-417.457	-100.483	-0.273	0.067
-416.442	269.531	0.130	0.228
-415.428	85.113	0.103	-0.113
-414.413	-6.085	0.138	0.094
-413.398	6.424	-0.213	-0.158
-412.384	484.233	0.153	-0.347
-411.369	800.000	-0.011	-0.040
-410.355	-200.000	0.002	0.117
-409.340	-53.941	-0.119	0.054
-408.325	-93.755	-0.155	-0.043
-407.311	-75.380	0.144	-0.051
-406.296	-200.000	0.020	-0.155
-405.282	181.813	0.040	0.059
-404.267	153.887	-0.187	-0.256
-403.252	297.090	0.094	-0.172
-402.238	-200.000	-0.069	-0.458
-401.223	-50.656	-0.101	-0.048
-400.209	25.991	0.080	0.067
-399.194	800.000	0.068	-0.193
-398.179	228.129	0.125	0.203
-397.165	-71.066	-0.156	-0.059
-396.150	-21.386	0.331	-0.202
-395.136	84.325	0.030	0.032
-394.121	89.205	-0.228	-0.254
-393.106	146.589	-0.067	-0.090
-392.092	165.827	0.143	-0.202
-391.077	-146.509	-0.266	0.023
-390.063	305.493	0.047	0.088
-389.048	-5.474	0.039	-0.027
-388.033	156.603	-0.181	0.250
-387.019	763.840	-0.139	0.376
-386.004	-127.307	-0.245	0.036
-384.990	-200.000	-0.019	-0.101
-383.975	167.983	-0.120	-0.170
-382.960	-30.833	0.417	0.235
-381.946	-115.137	-0.390	0.074
-380.931	-200.000	-0.021	-0.319
-379.917	217.267	0.179	-0.285
-378.902	595.315	0.033	-0.081
-377.888	286.657	0.086	-0.155
-376.873	252.781	0.150	0.254
-375.858	-200.000	-0.013	-0.157
-374.844	387.113	-0.020	0.041
-373.829	392.170	0.055	0.113
-372.815	181.039	-0.050	0.073
-371.800	-15.670	-0.178	0.113
-370.785	116.893	0.031	-0.037
-369.771	100.821	0.150	0.173
-368.756	42.000	-0.309	-0.280
-367.742	-36.251	0.375	0.202
-366.727	204.897	-0.164	-0.254
-365.712	134.319	0.049	-0.064
-364.698	-28.223	0.203	0.117
-363.683	412.840	-0.128	0.272
-362.669	-200.000	-0.001	0.059
-361.654	-32.731	-0.182	0.101
-360.639	-158.478	-0.299	0.017
-359.625	-124.310	0.313	-0.049
-358.610	-114.928	0.213	0.040
-357.596	-200.000	-0.061	0.367
-356.581	-200.000	-0.008	0.188
-355.566	-94.222	0.361	-0.099
-354.552	-200.000	-0.019	-0.115
-353.537	185.288	0.205	0.303
-352.523	-47.620	-0.066	0.032
-351.508	-34.022	0.198	0.108
-350.493	-200.000	0.009	0.105
-349.479	800.000	-0.099	0.367
-348.464	235.971	0.123	0.202
-347.450	54.049	-0.173	0.166
-346.435	-137.549	0.202	-0.023
-345.420	32.839	0.066	-0.057
-344.406	-178.317	-0.197	-0.005
-343.391	-200.000	0.044	-0.272
-342.377	800.000	0.043	-0.147
-341.362	689.641	0.162	0.421
-340.348	-180.446	0.244	0.005
-339.333	-200.000	-0.028	-0.211
-338.318	-154.089	-0.123	0.008
-337.304	800.000	-0.036	0.130
-336.289	-66.907	-0.086	0.034
-335.275	242.295	0.095	0.157
-334.260	-128.694	-0.164	-0.023
-333.245	800.000	0.131	0.463
-332.231	-12.022	0.269	0.175
-331.216	-200.000	-0.028	0.240
-330.202	-160.729	-0.491	-0.026
-329.187	-200.000	0.004	-0.257
-328.172	13.621	0.154	-0.119
-327.158	-173.488	0.141	-0.004
-326.143	800.000	0.010	0.031
-325.129	101.438	0.127	-0.147
-324.114	93.873	-0.091	0.102
-323.099	506.383	0.094	0.217
-322.085	-137.514	-0.172	0.019
-321.070	-200.000	-0.029	-0.250
-320.056	-29.803	0.272	0.154
-319.041	160.529	0.148	0.205
-318.026	-97.499	-0.301	0.078
-317.012	729.507	-0.072	-0.191
-315.997	-200.000	-0.049	0.221
-314.983	138.481	0.130	0.170
-313.968	-62.414	-0.119	0.049
-312.953	-200.000	0.015	0.236
-311.939	-168.577	0.122	0.005
-310.924	800.000	-0.067	-0.212
-309.910	50.769	0.073	-0.069
-308.895	-119.000	-0.042	-0.007
-307.880	-89.889	0.039	-0.011
-306.866	17.873	0.191	-0.151
-305.851	68.488	-0.187	-0.190
-304.837	-200.000	0.021	-0.346
-303.822	800.000	-0.034	0.105
-302.807	-200.000	-0.043	0.277
-301.793	-163.487	0.493	0.023
-300.778	-143.234	-0.254	0.024
-299.764	-200.000	0.049	0.227
-298.749	484.090	-0.106	-0.239
-297.735	45.704	0.286	-0.263
-296.720	-134.395	0.173	0.021
-295.705	-101.098	-0.347	-0.084
-294.691	-200.000	0.010	-0.062
-293.676	-200.000	-0.029	-0.232
-292.662	92.574	-0.154	0.172
-291.647	-51.399	-0.193	0.090
-290.632	-104.192	0.161	-0.037
-289.618	426.595	0.029	0.063
-288.603	262.356	-0.143	0.246
-287.589	369.268	0.106	0.214
-286.574	124.005	0.059	0.073
-285.559	-91.044	0.070	0.020
-284.545	-62.660	-0.174	-0.072
-283.530	356.168	-0.087	-0.172
-282.516	800.000	-0.177	-0.586
-281.501	800.000	0.082	-0.295
-280.486	-56.549	0.222	0.098
-279.472	123.307	-0.172	-0.214
-278.457	-200.000	-0.031	0.200
-277.443	32.048	0.160	0.137
-276.428	-165.099	-0.369	-0.016
-275.413	50.151	0.236	-0.221
-274.399	348.343	0.107	-0.208
-273.384	-120.939	-0.059	-0.010
-272.370	605.105	-0.045	-0.110
-271.355	-4.432	-0.109	-0.075
-270.340	800.000	-0.060	0.214
-269.326	-33.659	-0.249	0.136
-268.311	-87.973	-0.055	0.016
-267.297	-200.000	0.020	-0.130
-266.282	373.363	-0.137	-0.276
-265.267	800.000	0.037	-0.108
-264.253	70.391	-0.041	-0.042
-263.238	-153.273	-0.043	-0.003
-262.224	207.252	-0.068	0.106
-261.209	301.821	0.088	-0.162
-260.195	-200.000	-0.031	-0.203
-259.180	123.031	0.119	-0.148
-258.165	-122.490	0.143	0.023
-257.151	-13.379	0.115	-0.074
-256.136	-168.879	0.189	0.007
-255.122	-75.892	0.298	-0.105
-254.107	-177.909	-0.315	0.007
-253.092	-29.876	0.158	0.089
-252.078	-0.159	0.202	0.142
-251.063	-56.132	0.094	0.041
-250.049	-200.000	-0.012	-0.130
-249.034	165.238	0.118	0.165
-248.019	248.217	0.122	0.205
-247.005	-200.000	0.072	0.329
-245.990	-178.467	-0.171	-0.004
-244.976	-42.886	-0.208	-0.104
-243.961	-4.927	-0.235	-0.160
-242.946	16.116	0.045	-0.035
-241.932	36.061	-0.136	0.119
-240.917	592.964	0.008	0.020
-239.903	243.855	-0.143	-0.238
-238.888	333.644	0.177	-0.340
-237.873	469.214	0.089	-0.199
-236.859	-92.858	0.239	-0.066
-235.844	-37.605	0.303	-0.160
-234.830	-122.123	0.167	-0.027
-233.815	31.285	0.055	0.047
-232.800	359.634	-0.125	0.248
-231.786	-200.000	-0.018	-0.271
-230.771	-200.000	0.000	0.203
-229.757	-84.327	-0.125	-0.039
-228.742	-200.000	0.017	-0.230
-227.727	237.909	-0.155	0.255
-226.713	473.045	-0.146	-0.326
-225.698	-100.241	0.075	0.018
-224.684	-200.000	0.051	0.293
-223.669	541.526	0.042	0.099
-222.655	800.000	-0.076	-0.296
-221.640	800.000	-0.033	0.096
-220.625	207.122	-0.076	-0.118
-219.611	56.088	0.066	-0.063
-218.596	-171.277	0.268	0.009
-217.582	-74.965	0.383	-0.136
-216.567	472.030	-0.092	-0.206
-215.552	375.137	0.220	0.444
-214.538	293.468	-0.142	0.257
-213.523	225.463	0.156	0.251
-212.509	640.440	-0.043	0.108
-211.494	-138.171	0.200	0.022
-210.479	800.000	0.042	0.131
-209.465	-167.994	0.297	0.011
-208.450	-113.522	0.224	-0.043
-207.436	-129.021	-0.227	-0.032
-206.421	-138.233	-0.141	0.015
-205.406	-97.852	-0.086	0.022
-204.392	291.867	-0.110	-0.197
-203.377	-200.000	0.003	-0.185
-202.363	-200.000	0.032	0.453
-201.348	-20.991	0.257	-0.156
-200.333	-39.551	0.182	-0.094
-199.319	-65.158	0.089	0.036
-198.304	-61.300	0.280	0.117
-197.290	-29.311	-0.185	-0.105
-196.275	73.199	0.111	0.115
-195.260	-200.000	0.040	0.287
-194.246	22.773	0.207	-0.167
-193.231	37.630	0.313	0.275
-192.217	-58.667	0.314	0.135
-191.202	-135.603	0.122	0.014
-190.187	800.000	-0.113	-0.376
-189.173	117.118	0.320	-0.389
-188.158	483.832	-0.068	0.153
-187.144	-93.165	-0.325	-0.089
-186.129	454.401	-0.150	-0.329
-185.114	-200.000	0.021	-0.298
-184.100	154.613	-0.115	0.157
-183.085	172.823	0.109	-0.155
-182.071	-200.000	-0.020	-0.527
-181.056	-43.102	-0.159	-0.080
-180.042	593.731	0.032	0.078
-179.027	-0.738	-0.439	0.307
-178.012	142.076	0.126	0.165
-176.998	227.043	0.105	0.169
-175.983	28.118	0.041	-0.034
-174.969	-90.395	-0.140	-0.040
-173.954	-55.725	-0.501	-0.221
-172.939	-200.000	0.016	-0.080
-171.925	800.000	-0.052	0.193
-170.910	-93.798	0.156	0.043
-169.896	-83.707	0.125	0.039
-168.881	-200.000	-0.065	0.307
-167.866	9.201	0.089	-0.067
-166.852	-200.000	-0.077	-0.421
-165.837	144.293	0.136	0.179
-164.823	-160.133	-0.266	0.014
-163.808	143.679	-0.157	-0.206
-162.793	426.703	0.078	0.167
-161.779	800.000	0.045	-0.153
-160.764	800.000	0.058	0.228
-159.750	-124.927	-0.310	0.047
-158.735	-35.042	-0.126	-0.068
-157.720	-114.274	-0.079	-0.015
-156.706	-74.243	-0.143	0.051
-155.691	627.136	-0.058	0.146
-154.677	-157.451	-0.286	-0.017
-153.662	70.035	-0.113	-0.115
-152.647	-139.504	-0.287	0.030
-151.633	144.810	-0.109	-0.143
-150.618	-200.000	-0.012	0.072
-149.604	-200.000	0.066	0.291
-148.589	-200.000	-0.004	-0.187
-147.574	496.109	0.183	-0.416
-146.560	159.896	-0.056	-0.077
-145.545	-48.193	-0.270	0.129
-144.531	-200.000	0.025	-0.314
-143.516	-114.467	0.231	-0.044
-142.502	800.000	0.111	0.313
-141.487	-68.740	-0.156	-0.059
-140.472	83.762	0.197	-0.213
-139.458	400.366	0.027	-0.056
-138.443	60.349	-0.284	0.277
-137.429	-73.772	0.380	0.137
-136.414	-105.584	-0.284	0.064
-135.399	-15.228	-0.213	0.135
-134.385	-200.000	0.009	-0.309
-133.370	-98.870	0.035	-0.009
-132.356	-81.127	-0.249	0.081
-131.341	703.782	0.098	-0.254
-130.326	800.000	0.108	0.347
-129.312	-70.692	-0.192	-0.072
-128.297	20.648	-0.361	-0.288
-127.283	42.186	-0.127	-0.114
-126.268	181.236	0.129	0.188
-125.253	800.000	-0.043	0.172
-124.239	-87.165	-0.360	0.108
-123.224	141.533	0.229	0.299
-122.210	22.523	0.318	0.256
