DTS Sentinel unit serial number:	SN413079Multiplexer serial number:	ORYXHardware model number:	OX4-SRSoftware version number:	ORYX F/W v4.00 Oryx Data Collector v3.7.2.0data status	okinstallation	princeton_trtdifferential loss correction	single-endedforward channel	channel 4reverse channel	N/Adate	2019/09/13time	14:57:35forward acquisition time	60.00reverse acquisition time	0.00gamma	496.2192k internal	0.2294k external	0.2294temperature offset calibration	1.0212default loss term (dB/km)	0.3790temperature slope calibration	1.0000multiplexer offset coefficient	1.0000multiplexer slope coefficient	1.0000fibre end	0.00T internal ref (°C)	35.64T ext. ref 1 (°C)	4.70T ext. ref 2 (°C)	31.08length (m)	temperature (°C)	Stokes	anti-Stokes-747.200	163.171	-0.260	-0.373
-746.185	-73.293	0.247	0.092
-745.171	800.000	0.040	-0.153
-744.156	442.942	-0.088	0.198
-743.142	13.264	0.108	0.086
-742.127	-200.000	0.031	0.395
-741.112	-115.552	-0.475	0.091
-740.098	-200.000	0.119	0.000
-739.083	-170.552	0.155	0.006
-738.069	-32.827	-0.357	0.203
-737.054	250.898	-0.089	-0.154
-736.039	-200.000	-0.004	0.425
-735.025	-77.283	0.163	0.058
-734.010	-153.227	-0.380	-0.027
-732.996	-71.693	-0.130	0.049
-731.981	8.203	0.098	0.075
-730.966	-109.349	-0.264	-0.057
-729.952	800.000	0.029	0.110
-728.937	-147.150	0.061	0.005
-727.923	662.963	0.033	-0.088
-726.908	-200.000	-0.053	-0.273
-725.894	-10.169	-0.168	0.114
-724.879	-90.737	-0.112	0.033
-723.864	98.965	-0.183	0.216
-722.850	800.000	0.110	-0.377
-721.835	-21.851	-0.236	0.147
-720.821	245.971	0.141	0.243
-719.806	-91.904	0.136	-0.039
-718.791	-102.069	-0.174	0.043
-717.777	761.772	0.072	-0.200
-716.762	-200.000	0.006	-0.206
-715.748	-78.316	-0.185	0.065
-714.733	103.699	-0.121	-0.145
-713.718	-11.560	-0.117	0.079
-712.704	800.000	-0.030	0.099
-711.689	-48.004	0.217	-0.107
-710.675	-9.042	-0.021	-0.015
-709.660	131.061	-0.190	-0.249
-708.645	38.051	0.338	-0.307
-707.631	425.996	-0.113	0.248
-706.616	246.512	0.079	0.136
-705.602	87.122	0.229	0.258
-704.587	-29.107	-0.342	0.200
-703.572	-62.972	0.033	-0.014
-702.558	-113.719	-0.177	0.035
-701.543	34.579	-0.281	0.250
-700.529	-3.875	-0.239	0.169
-699.514	33.397	-0.259	0.229
-698.499	-104.934	0.263	0.062
-697.485	50.641	-0.303	-0.293
-696.470	-58.628	0.189	-0.083
-695.456	-99.681	-0.400	-0.103
-694.441	621.027	0.096	0.245
-693.426	-10.479	0.070	-0.047
-692.412	-76.640	-0.262	-0.094
-691.397	192.492	0.113	0.174
-690.383	-200.000	0.004	-0.128
-689.368	-200.000	-0.006	0.070
-688.354	17.589	-0.025	-0.021
-687.339	-200.000	-0.163	-0.001
-686.324	92.931	-0.046	0.053
-685.310	-75.530	0.167	0.061
-684.295	800.000	-0.043	0.177
-683.281	271.500	-0.125	-0.225
-682.266	23.029	-0.268	0.224
-681.251	-77.647	0.499	0.176
-680.237	-71.629	0.237	-0.090
-679.222	-80.298	0.565	-0.193
-678.208	-155.819	0.166	-0.011
-677.193	-85.484	-0.205	0.065
-676.178	64.636	0.156	-0.160
-675.164	75.834	0.120	0.129
-674.149	188.204	-0.066	0.100
-673.135	87.789	0.241	-0.272
-672.120	-54.940	0.239	0.110
-671.105	53.393	-0.061	-0.060
-670.091	-89.546	-0.161	0.048
-669.076	-176.806	-0.178	-0.005
-668.062	198.079	0.040	-0.062
-667.047	32.088	0.133	-0.117
-666.032	552.037	-0.072	0.176
-665.018	215.136	0.103	0.167
-664.003	-200.000	-0.075	0.355
-662.989	77.285	-0.061	0.066
-661.974	-38.056	0.182	-0.098
-660.959	68.624	0.199	-0.208
-659.945	-175.321	-0.107	0.003
-658.930	33.887	-0.349	0.310
-657.916	-200.000	-0.059	-0.299
-656.901	-143.681	-0.114	0.011
-655.886	-19.319	-0.162	-0.102
-654.872	13.590	0.172	-0.136
-653.857	154.530	-0.102	0.143
-652.843	274.959	-0.132	0.238
-651.828	333.011	-0.128	-0.252
-650.814	95.847	0.239	0.278
-649.799	0.269	0.146	-0.106
-648.784	244.948	-0.023	0.039
-647.770	-136.104	0.113	-0.013
-646.755	185.512	-0.131	0.198
-645.741	-136.732	-0.279	-0.033
-644.726	539.731	-0.087	-0.210
-643.711	24.935	-0.142	0.120
-642.697	-142.960	-0.280	0.028
-641.682	-131.626	0.326	0.044
-640.668	-160.520	-0.139	-0.008
-639.653	-156.077	-0.182	-0.012
-638.638	800.000	-0.041	-0.164
-637.624	800.000	0.032	0.124
-636.609	-57.525	-0.014	-0.006
-635.595	-120.351	-0.223	-0.039
-634.580	85.611	0.437	-0.488
-633.565	-93.957	0.226	0.063
-632.551	-73.900	0.185	0.068
-631.536	800.000	-0.048	0.198
-630.522	-129.786	0.148	-0.021
-629.507	85.672	-0.118	0.132
-628.492	800.000	-0.063	0.199
-627.478	-126.858	-0.141	-0.021
-626.463	-200.000	-0.020	0.202
-625.449	-200.000	0.007	0.039
-624.434	23.191	-0.094	0.079
-623.419	-87.719	0.297	-0.091
-622.405	-61.491	-0.116	-0.050
-621.390	-152.104	0.171	0.013
-620.376	-12.406	-0.102	0.068
-619.361	800.000	0.032	-0.114
-618.346	-129.698	-0.223	-0.031
-617.332	119.117	-0.308	-0.388
-616.317	367.103	0.141	-0.290
-615.303	51.773	-0.182	0.176
-614.288	709.251	-0.104	0.279
-613.273	530.339	0.048	-0.116
-612.259	-14.403	-0.087	0.057
-611.244	406.126	-0.094	-0.202
-610.230	306.581	-0.169	0.320
-609.215	333.757	-0.159	0.312
-608.201	178.214	-0.033	-0.049
-607.186	264.951	0.009	0.017
-606.171	776.025	0.075	-0.210
-605.157	-42.544	0.228	-0.118
-604.142	-164.847	-0.237	-0.011
-603.128	-200.000	-0.013	0.071
-602.113	24.689	0.151	0.127
-601.098	-9.094	0.350	-0.239
-600.084	795.083	-0.035	0.099
-599.069	-200.000	-0.068	-0.328
-598.055	101.494	0.111	-0.131
-597.040	-187.796	0.213	0.003
-596.025	-71.880	0.128	0.049
-595.011	-83.715	0.130	-0.042
-593.996	-74.823	-0.093	-0.034
-592.982	351.078	0.081	0.163
-591.967	800.000	-0.105	-0.409
-590.952	-200.000	0.038	-0.232
-589.938	-48.526	-0.069	-0.034
-588.923	-39.279	0.087	0.046
-587.909	-143.084	-0.210	0.021
-586.894	147.899	0.088	0.120
-585.879	-5.809	0.056	0.039
-584.865	-123.248	-0.108	-0.017
-583.850	-200.000	0.030	-0.287
-582.836	800.000	-0.082	0.304
-581.821	133.563	0.102	0.135
-580.806	-95.220	-0.120	0.033
-579.792	-55.977	0.255	-0.115
-578.777	394.918	0.047	-0.099
-577.763	-200.000	-0.050	-0.342
-576.748	-67.070	0.334	-0.134
-575.733	-128.193	0.334	-0.049
-574.719	28.796	0.159	0.137
-573.704	225.913	0.052	-0.085
-572.690	105.565	-0.057	-0.068
-571.675	22.743	0.053	0.044
-570.661	-200.000	0.016	-0.300
-569.646	27.991	-0.274	-0.235
-568.631	-145.380	0.253	0.023
-567.617	423.246	0.051	-0.111
-566.602	-200.000	-0.007	-0.306
-565.588	-89.389	-0.212	0.063
-564.573	335.024	0.045	-0.088
-563.558	-10.708	0.222	-0.149
-562.544	-88.962	-0.083	0.025
-561.529	-12.773	-0.162	-0.107
-560.515	-118.996	0.229	-0.041
-559.500	-41.121	0.151	0.079
-558.485	-200.000	0.013	-0.065
-557.471	-134.684	-0.286	0.035
-556.456	166.301	0.154	0.221
-555.442	-95.044	-0.183	0.050
-554.427	-30.753	0.280	0.161
-553.412	800.000	-0.015	-0.049
-552.398	-28.306	0.247	-0.145
-551.383	42.969	-0.218	-0.201
-550.369	493.559	0.042	0.098
-549.354	-200.000	-0.048	-0.271
-548.339	-200.000	0.035	0.198
-547.325	800.000	0.088	-0.295
-546.310	285.953	-0.176	-0.321
-545.296	-92.212	0.138	0.039
-544.281	300.118	-0.065	0.121
-543.266	48.315	-0.045	-0.043
-542.252	31.019	-0.219	0.190
-541.237	540.139	0.068	0.164
-540.223	-200.000	0.014	-0.237
-539.208	-200.000	0.035	-0.164
-538.193	1.927	-0.296	0.216
-537.179	99.400	-0.175	0.206
-536.164	-200.000	-0.010	-0.207
-535.150	61.316	0.114	-0.115
-534.135	800.000	-0.068	0.196
-533.121	413.294	-0.060	-0.129
-532.106	36.820	-0.155	-0.139
-531.091	45.350	-0.197	-0.184
-530.077	-40.082	-0.156	0.082
-529.062	-200.000	0.014	0.065
-528.048	-178.499	0.246	-0.006
-527.033	-200.000	0.044	0.213
-526.018	-200.000	0.008	-0.082
-525.004	-73.541	-0.158	0.058
-523.989	8.492	0.305	-0.232
-522.975	-200.000	-0.031	0.441
-521.960	-184.507	0.206	-0.003
-520.945	-23.804	-0.199	0.121
-519.931	48.642	0.274	0.260
-518.916	284.754	0.076	0.139
-517.902	800.000	-0.015	-0.058
-516.887	245.250	0.059	-0.101
-515.872	176.297	-0.220	-0.324
-514.858	-35.796	-0.171	-0.094
-513.843	65.816	-0.255	0.262
-512.829	-122.540	-0.225	0.037
-511.814	65.858	0.110	0.113
-510.799	-33.489	-0.091	-0.051
-509.785	500.205	-0.052	-0.122
-508.770	-200.000	-0.005	0.191
-507.756	-109.806	-0.227	0.048
-506.741	-131.724	-0.103	-0.014
-505.726	-111.758	0.131	-0.027
-504.712	-200.000	0.046	-0.214
-503.697	800.000	0.037	-0.140
-502.683	678.744	0.150	-0.395
-501.668	-145.682	-0.174	-0.016
-500.653	-200.000	-0.018	0.254
-499.639	-200.000	0.020	0.305
-498.624	131.535	0.337	0.439
-497.610	800.000	0.100	-0.356
-496.595	106.217	-0.104	0.124
-495.581	318.839	0.110	-0.211
-494.566	50.910	-0.119	-0.114
-493.551	-200.000	0.200	-0.000
-492.537	99.202	-0.197	0.231
-491.522	-161.374	-0.184	0.010
-490.508	167.673	0.036	0.052
-489.493	-108.092	0.283	0.062
-488.478	-35.692	0.190	-0.104
-487.464	-24.515	0.262	-0.158
-486.449	800.000	-0.081	-0.332
-485.435	0.481	0.015	0.011
-484.420	-165.652	-0.284	0.012
-483.405	127.854	-0.195	0.251
-482.391	240.631	0.168	0.284
-481.376	22.522	-0.176	-0.146
-480.362	-54.087	-0.310	-0.143
-479.347	-200.000	0.046	-0.411
-478.332	76.800	-0.154	-0.165
-477.318	-200.000	0.019	-0.166
-476.303	-11.095	0.198	0.132
-475.289	46.026	-0.146	-0.137
-474.274	-29.774	0.188	-0.108
-473.259	-85.902	-0.341	-0.107
-472.245	29.059	0.201	-0.172
-471.230	-131.790	-0.155	-0.021
-470.216	279.740	0.018	0.033
-469.201	45.081	-0.081	0.076
-468.186	8.294	-0.253	-0.192
-467.172	308.682	0.048	0.090
-466.157	-200.000	-0.009	-0.128
-465.143	-148.964	-0.202	-0.016
-464.128	623.540	-0.080	0.205
-463.113	-200.000	-0.003	-0.060
-462.099	400.404	-0.034	-0.071
-461.084	-200.000	-0.068	0.348
-460.070	443.002	-0.102	-0.226
-459.055	66.524	0.238	0.244
-458.040	72.737	-0.082	0.087
-457.026	-200.000	0.100	0.539
-456.011	800.000	0.069	0.224
-454.997	-18.785	-0.408	-0.257
-453.982	-16.692	0.214	-0.137
-452.968	-200.000	0.010	0.061
-451.953	137.733	-0.129	0.171
-450.938	-96.182	-0.197	0.053
-449.924	800.000	0.022	0.061
-448.909	100.447	-0.060	-0.071
-447.895	-200.000	-0.010	-0.217
-446.880	-53.100	0.249	-0.116
-445.865	-200.000	-0.019	0.107
-444.851	608.773	0.032	0.082
-443.836	20.939	-0.096	-0.079
-442.822	-200.000	0.008	0.092
-441.807	-38.315	0.215	0.115
-440.792	800.000	0.050	-0.176
-439.778	-105.116	0.115	-0.027
-438.763	-153.578	0.087	-0.006
-437.749	-115.281	0.565	-0.108
-436.734	-200.000	0.083	-0.539
-435.719	250.179	-0.098	-0.169
-434.705	-96.990	-0.205	-0.054
-433.690	-183.589	-0.102	0.002
-432.676	-136.273	0.094	0.011
-431.661	-110.411	0.134	0.028
-430.646	206.571	0.079	-0.125
-429.632	800.000	0.037	0.114
-428.617	27.148	0.195	0.165
-427.603	-80.555	0.218	0.073
-426.588	0.116	-0.311	0.224
-425.573	-34.584	0.159	-0.088
-424.559	300.583	-0.085	-0.159
-423.544	-200.000	0.012	-0.059
-422.530	142.478	-0.200	-0.268
-421.515	-200.000	0.069	0.377
-420.500	767.451	-0.049	-0.135
-419.486	-75.860	0.167	0.060
-418.471	-20.772	0.234	-0.145
-417.457	-200.000	0.003	-0.145
-416.442	800.000	0.073	-0.253
-415.428	800.000	0.059	0.173
-414.413	-200.000	-0.007	-0.084
-413.398	12.326	-0.139	-0.108
-412.384	392.624	0.020	0.042
-411.369	241.473	-0.149	-0.252
-410.355	56.803	0.131	-0.128
-409.340	471.723	0.104	-0.236
-408.325	-51.628	-0.105	-0.050
-407.311	-151.698	0.026	0.002
-406.296	574.299	-0.132	-0.326
-405.282	800.000	0.095	0.350
-404.267	-142.371	0.310	0.031
-403.252	117.164	0.172	0.213
-402.238	-71.386	-0.151	0.057
-401.223	265.058	0.077	0.136
-400.209	269.367	-0.044	-0.078
-399.194	-200.000	-0.049	0.427
-398.179	-82.649	-0.218	0.071
-397.165	-73.899	-0.167	0.061
-396.150	-56.736	0.049	0.022
-395.136	-167.339	-0.263	0.011
-394.121	-102.294	0.158	0.038
-393.106	800.000	-0.061	-0.188
-392.092	-200.000	0.035	-0.161
-391.077	16.739	-0.308	0.246
-390.063	-88.009	0.476	0.144
-389.048	-0.381	-0.096	0.069
-388.033	-119.117	-0.507	0.089
-387.019	46.885	0.044	0.042
-386.004	-200.000	-0.020	-0.128
-384.990	359.853	-0.097	0.195
-383.975	-154.265	-0.402	0.027
-382.960	800.000	0.008	0.024
-381.946	-78.368	0.077	0.027
-380.931	69.929	0.227	0.236
-379.917	-188.726	-0.394	-0.005
-378.902	-41.150	0.143	0.074
-377.888	336.509	0.099	0.194
-376.873	-23.753	0.183	0.110
-375.858	302.509	-0.068	0.126
-374.844	42.066	0.117	0.107
-373.829	226.292	0.230	0.376
-372.815	800.000	-0.018	0.056
-371.800	67.214	-0.100	-0.103
-370.785	-33.655	-0.043	0.024
-369.771	-200.000	-0.301	0.000
-368.756	206.068	0.210	-0.329
-367.742	175.664	0.193	-0.281
-366.727	-200.000	0.023	-0.351
-365.712	335.531	-0.092	-0.179
-364.698	-34.453	-0.426	0.235
-363.683	-200.000	-0.007	-0.038
-362.669	-139.311	-0.208	-0.023
-361.654	92.294	-0.135	0.153
-360.639	-78.281	0.193	0.067
-359.625	800.000	-0.073	0.294
-358.610	49.180	-0.174	0.164
-357.596	-200.000	0.013	0.108
-356.581	447.587	-0.026	-0.058
-355.566	-65.797	-0.105	0.042
-354.552	-200.000	-0.033	-0.250
-353.537	-151.020	-0.416	-0.032
-352.523	81.551	-0.147	-0.161
-351.508	47.148	-0.171	0.160
-350.493	-97.820	0.166	-0.043
-349.479	6.790	0.216	0.162
-348.464	-99.453	-0.093	-0.024
-347.450	-48.350	0.373	-0.181
-346.435	-115.256	-0.038	0.007
-345.420	-200.000	0.022	0.231
-344.406	-200.000	-0.011	-0.475
-343.391	-156.916	0.231	0.014
-342.377	45.082	0.129	-0.119
-341.362	-200.000	-0.042	0.308
-340.348	800.000	-0.067	0.254
-339.333	-200.000	0.005	-0.297
-338.318	19.578	0.240	-0.194
-337.304	-200.000	0.020	0.150
-336.289	82.237	0.232	0.253
-335.275	683.168	-0.071	-0.185
-334.260	362.497	-0.040	0.081
-333.245	67.935	0.046	-0.047
-332.231	0.086	0.081	-0.058
-331.216	80.790	-0.022	-0.024
-330.202	-200.000	0.009	0.142
-329.187	18.609	0.162	0.130
-328.172	55.476	-0.030	0.029
-327.158	156.356	-0.082	-0.114
-326.143	-200.000	-0.021	0.115
-325.129	250.133	0.092	0.157
-324.114	800.000	0.051	-0.201
-323.099	-200.000	0.059	0.485
-322.085	490.456	-0.124	0.285
-321.070	-116.541	0.167	0.031
-320.056	58.752	0.187	-0.184
-319.041	-63.731	0.112	-0.046
-318.026	-89.931	-0.091	-0.027
-317.012	-200.000	-0.062	-0.296
-315.997	-178.614	-0.115	0.003
-314.983	-70.659	-0.315	-0.120
-313.968	257.978	0.195	-0.338
-312.953	345.233	0.086	0.170
-311.939	-188.757	-0.036	-0.000
-310.924	-200.000	0.042	0.224
-309.910	479.305	0.006	0.013
-308.895	800.000	-0.026	0.096
-307.880	63.189	-0.094	0.094
-306.866	79.854	0.069	-0.074
-305.851	-200.000	-0.045	0.319
-304.837	-131.724	-0.275	-0.036
-303.822	-144.025	0.454	-0.043
-302.807	-200.000	-0.020	0.150
-301.793	86.722	-0.283	0.314
-300.778	-41.239	-0.290	-0.150
-299.764	-126.671	0.268	0.040
-298.749	-200.000	0.021	0.144
-297.735	4.686	-0.134	-0.099
-296.720	-84.608	0.094	0.030
-295.705	-35.336	-0.086	-0.047
-294.691	-89.378	-0.253	-0.075
-293.676	93.500	-0.096	-0.109
-292.662	34.920	-0.133	0.117
-291.647	-63.648	0.114	-0.047
-290.632	-61.946	-0.186	0.078
-289.618	97.424	0.227	0.262
-288.603	178.754	-0.110	0.162
-287.589	-200.000	0.013	0.154
-286.574	81.878	0.086	-0.094
-285.559	122.663	0.192	-0.241
-284.545	82.638	0.137	-0.149
-283.530	-200.000	-0.004	-0.147
-282.516	-40.096	-0.363	-0.190
-281.501	-200.000	0.031	-0.231
-280.486	-99.899	0.067	-0.017
-279.472	278.794	-0.095	0.170
-278.457	-22.855	-0.544	0.329
-277.443	-151.672	0.098	0.007
-276.428	-22.150	0.203	-0.124
-275.413	800.000	-0.035	0.125
-274.399	338.069	-0.039	0.077
-273.384	-106.648	0.202	0.045
-272.370	-159.292	-0.282	-0.016
-271.355	-191.062	0.199	-0.002
-270.340	75.950	0.188	0.200
-269.326	-200.000	-0.027	0.218
-268.311	190.674	-0.093	-0.140
-267.297	9.735	0.105	0.080
-266.282	744.787	0.108	0.293
-265.267	53.041	-0.190	-0.182
-264.253	401.328	0.114	-0.240
-263.238	39.922	0.175	0.158
-262.224	-156.284	0.341	-0.021
-261.209	-119.844	0.224	-0.039
-260.195	303.747	0.037	-0.069
-259.180	79.931	0.209	-0.225
-258.165	800.000	-0.016	-0.062
-257.151	41.691	-0.107	0.097
-256.136	450.223	-0.092	-0.203
-255.122	627.871	0.069	0.175
-254.107	800.000	-0.031	0.118
-253.092	-38.517	0.262	-0.139
-252.078	37.719	-0.182	0.162
-251.063	-200.000	0.007	-0.256
-250.049	-35.733	0.378	0.206
-249.034	-197.219	-0.279	-0.002
-248.019	-137.008	-0.119	0.014
-247.005	441.395	0.263	0.576
-245.990	-200.000	-0.004	-0.081
-244.976	-200.000	-0.004	0.149
-243.961	59.897	-0.237	-0.235
-242.946	-147.737	-0.049	-0.004
-241.932	800.000	-0.093	-0.345
-240.917	800.000	0.070	-0.209
-239.903	613.517	-0.048	-0.121
-238.888	-90.315	0.072	-0.021
-237.873	800.000	-0.076	0.252
-236.859	-44.834	-0.195	0.097
-235.844	29.271	0.145	0.124
-234.830	-200.000	0.049	-0.241
-233.815	589.024	-0.070	-0.174
-232.800	-50.765	0.460	-0.217
-231.786	76.474	-0.052	0.055
-230.771	305.545	0.057	-0.106
-229.757	272.181	0.136	0.240
-228.742	-68.047	0.297	0.116
-227.727	-169.556	0.256	0.009
-226.713	-68.395	0.228	0.089
-225.698	-116.589	-0.295	-0.054
-224.684	207.900	0.148	0.231
-223.669	-99.489	0.362	0.091
-222.655	800.000	0.053	-0.216
-221.640	193.734	-0.063	-0.095
-220.625	103.877	-0.107	0.126
-219.611	360.260	0.060	-0.120
-218.596	-68.509	-0.468	0.182
-217.582	135.490	0.046	-0.059
-216.567	-200.000	0.026	0.302
-215.552	-123.324	-0.220	0.035
-214.538	-200.000	0.052	-0.274
-213.523	-72.211	0.060	0.022
-212.509	-40.273	-0.174	0.091
-211.494	800.000	-0.065	0.267
-210.479	210.681	-0.106	0.167
-209.465	525.290	-0.050	0.117
-208.450	-200.000	-0.018	-0.501
-207.436	-200.000	0.029	-0.157
-206.421	-182.478	0.282	0.005
-205.406	800.000	0.127	-0.428
-204.392	72.006	-0.116	0.121
-203.377	-65.193	0.124	-0.050
-202.363	100.603	-0.392	0.456
-201.348	611.341	0.025	0.064
-200.333	201.872	0.128	-0.197
-199.319	-83.230	-0.241	0.078
-198.304	-200.000	0.060	-0.265
-197.290	-200.000	-0.010	0.142
-196.275	-13.232	0.061	-0.040
-195.260	204.052	-0.116	0.179
-194.246	-200.000	-0.017	0.127
-193.231	16.988	0.151	0.120
-192.217	-167.237	-0.147	-0.006
-191.202	-26.215	0.288	0.169
-190.187	-200.000	-0.015	0.242
-189.173	-103.876	-0.251	0.059
-188.158	384.624	-0.039	0.081
-187.144	258.792	0.237	0.408
-186.129	43.775	-0.160	0.146
-185.114	-22.206	0.125	0.076
-184.100	-123.561	-0.286	0.045
-183.085	-200.000	0.033	-0.179
-182.071	31.652	-0.278	-0.239
-181.056	-200.000	0.024	0.227
-180.042	-120.091	0.277	0.047
-179.027	427.739	0.054	0.116
-178.012	-200.000	0.043	0.300
-176.998	-19.025	0.359	-0.223
-175.983	-23.324	0.062	-0.038
-174.969	-49.599	0.272	0.130
-173.954	-42.255	0.172	-0.088
-172.939	135.577	0.137	-0.179
-171.925	82.345	0.203	-0.220
-170.910	-200.000	0.015	0.076
-169.896	-94.201	0.300	0.082
-168.881	-100.649	-0.284	-0.070
-167.866	-21.247	-0.389	0.238
-166.852	162.148	-0.101	-0.142
-165.837	800.000	0.063	-0.254
-164.823	-111.146	0.252	-0.052
-163.808	-130.285	-0.206	-0.028
-162.793	-200.000	-0.052	0.452
-161.779	2.197	-0.175	0.126
-160.764	200.364	0.158	-0.242
-159.750	123.604	-0.287	-0.359
-158.735	-136.635	-0.451	0.052
-157.720	363.651	-0.122	0.244
-156.706	17.955	0.348	0.277
-155.691	-113.037	0.205	-0.040
-154.677	263.823	-0.249	-0.432
-153.662	-57.722	-0.159	-0.070
-152.647	409.702	0.155	0.328
-151.633	84.230	-0.186	-0.203
-150.618	521.963	-0.110	-0.257
-149.604	-200.000	-0.025	-0.207
-148.589	800.000	-0.042	-0.124
-147.574	157.556	-0.171	-0.237
-146.560	-171.973	-0.174	0.006
-145.545	-110.245	-0.163	0.034
-144.531	-200.000	-0.014	-0.168
-143.516	-97.519	0.309	-0.080
-142.502	451.007	0.125	0.276
-141.487	-175.796	-0.455	-0.012
-140.472	-16.814	-0.149	0.094
-139.458	-105.300	0.200	0.046
-138.443	-82.461	0.198	-0.064
-137.429	164.677	-0.078	-0.110
-136.414	-200.000	0.000	0.071
-135.399	99.102	-0.165	0.190
-134.385	12.170	-0.258	0.199
-133.370	35.087	0.132	-0.116
-132.356	-63.695	0.025	0.010
-131.341	-87.432	0.134	0.040
-130.326	-200.000	0.055	0.318
-129.312	-122.686	-0.463	0.075
-128.297	201.405	-0.142	0.218
-127.283	-200.000	-0.001	0.184
-126.268	-200.000	-0.008	-0.113
-125.253	-200.000	-0.038	0.200
-124.239	43.389	-0.166	-0.151
-123.224	-140.183	0.123	-0.013
-122.210	25.318	-0.256	0.212
-121.195	-140.064	-0.227	-0.024
