DTS Sentinel unit serial number:	SN413079Multiplexer serial number:	ORYXHardware model number:	OX4-SRSoftware version number:	ORYX F/W v4.00 Oryx Data Collector v3.7.2.0data status	okinstallation	princeton_trtdifferential loss correction	single-endedforward channel	channel 4reverse channel	N/Adate	2019/09/17time	00:41:35forward acquisition time	60.00reverse acquisition time	0.00gamma	496.2192k internal	0.2313k external	0.2313temperature offset calibration	0.9978default loss term (dB/km)	0.3790temperature slope calibration	1.0000multiplexer offset coefficient	1.0000multiplexer slope coefficient	1.0000fibre end	0.00T internal ref (°C)	29.44T ext. ref 1 (°C)	0.12T ext. ref 2 (°C)	24.00length (m)	temperature (°C)	Stokes	anti-Stokes-747.200	1.274	-0.058	-0.043
-746.185	-95.062	0.154	0.042
-745.171	800.000	0.094	0.327
-744.156	273.227	-0.126	0.227
-743.142	-2.460	-0.104	0.074
-742.127	60.965	-0.031	-0.031
-741.112	144.725	0.188	0.255
-740.098	-200.000	0.011	0.238
-739.083	172.462	0.120	0.175
-738.069	73.098	-0.375	0.398
-737.054	-88.495	0.159	-0.048
-736.039	-122.708	-0.194	0.032
-735.025	-11.017	0.373	0.250
-734.010	86.096	-0.275	0.307
-732.996	-200.000	0.027	-0.305
-731.981	317.363	-0.070	0.135
-730.966	635.864	0.153	-0.394
-729.952	-20.863	0.300	0.187
-728.937	-59.910	0.283	-0.123
-727.923	528.137	-0.073	-0.174
-726.908	-200.000	0.017	0.147
-725.894	-133.997	-0.191	-0.024
-724.879	-183.550	-0.215	0.004
-723.864	-200.000	-0.044	-0.282
-722.850	-176.779	-0.280	-0.007
-721.835	-103.414	0.159	-0.038
-720.821	-200.000	-0.009	-0.283
-719.806	-200.000	-0.070	-0.315
-718.791	116.409	-0.129	-0.160
-717.777	-50.639	-0.109	-0.052
-716.762	800.000	0.070	-0.234
-715.748	93.290	0.142	0.162
-714.733	-124.246	0.235	-0.037
-713.718	800.000	-0.055	0.220
-712.704	271.347	-0.029	0.051
-711.689	108.058	-0.170	-0.206
-710.675	-98.123	-0.421	-0.110
-709.660	-54.781	-0.320	0.146
-708.645	-200.000	0.020	0.183
-707.631	192.279	0.243	0.372
-706.616	800.000	-0.136	0.412
-705.602	287.059	-0.170	0.312
-704.587	-109.065	0.099	0.021
-703.572	800.000	0.039	0.131
-702.558	-111.652	-0.127	0.026
-701.543	-32.226	-0.200	0.113
-700.529	-200.000	-0.025	0.218
-699.514	-171.165	0.094	0.003
-698.499	-96.556	-0.318	0.085
-697.485	-136.367	-0.200	0.024
-696.470	-52.830	-0.151	-0.070
-695.456	800.000	0.030	-0.101
-694.441	436.641	0.229	-0.504
-693.426	158.461	0.233	0.327
-692.412	-200.000	-0.015	-0.291
-691.397	-200.000	0.008	-0.311
-690.383	-68.254	0.083	-0.033
-689.368	118.216	0.120	0.150
-688.354	-200.000	-0.040	-0.249
-687.339	299.633	0.041	0.076
-686.324	800.000	-0.058	-0.230
-685.310	-200.000	0.022	-0.139
-684.295	-55.448	-0.342	-0.155
-683.281	-200.000	-0.008	-0.096
-682.266	-200.000	0.015	-0.228
-681.251	-128.519	0.366	-0.053
-680.237	263.630	-0.075	-0.131
-679.222	-75.364	-0.134	0.048
-678.208	266.886	0.085	-0.150
-677.193	-1.589	-0.011	-0.008
-676.178	83.917	0.141	-0.156
-675.164	-200.000	-0.034	-0.197
-674.149	53.912	0.095	-0.092
-673.135	-200.000	-0.026	0.294
-672.120	428.826	0.110	-0.240
-671.105	-16.831	0.314	-0.201
-670.091	-200.000	-0.017	-0.263
-669.076	800.000	-0.042	-0.171
-668.062	800.000	0.032	-0.106
-667.047	397.427	-0.114	0.241
-666.032	585.304	-0.132	-0.329
-665.018	10.823	0.175	-0.135
-664.003	800.000	0.012	0.046
-662.989	-200.000	0.005	0.040
-661.974	-53.991	-0.196	-0.090
-660.959	-36.622	-0.270	-0.147
-659.945	-200.000	-0.033	-0.277
-658.930	243.321	-0.131	0.222
-657.916	142.000	-0.094	-0.126
-656.901	7.037	-0.227	-0.171
-655.886	530.604	-0.115	-0.275
-654.872	312.530	-0.027	-0.052
-653.857	5.192	0.046	0.034
-652.843	-78.716	0.080	0.028
-651.828	-200.000	-0.019	-0.110
-650.814	57.019	-0.077	-0.075
-649.799	147.484	0.167	-0.228
-648.784	-19.301	0.070	0.044
-647.770	-200.000	0.059	-0.286
-646.755	-192.756	-0.476	0.004
-645.741	-120.719	-0.392	-0.067
-644.726	89.658	-0.086	0.097
-643.711	-57.081	0.086	-0.038
-642.697	-110.534	0.412	-0.086
-641.682	800.000	-0.020	-0.073
-640.668	303.397	0.017	0.031
-639.653	388.586	-0.020	0.043
-638.638	-30.849	-0.185	0.106
-637.624	35.217	-0.199	0.177
-636.609	359.223	0.097	0.197
-635.595	-46.632	-0.188	0.093
-634.580	-134.726	-0.244	-0.030
-633.565	-200.000	0.033	0.158
-632.551	800.000	-0.081	-0.325
-631.536	-33.774	-0.409	-0.228
-630.522	130.585	0.224	0.290
-629.507	242.349	0.064	0.109
-628.492	-133.958	0.052	-0.007
-627.478	63.047	0.050	0.050
-626.463	800.000	0.141	0.450
-625.449	-200.000	0.009	0.196
-624.434	800.000	-0.082	-0.309
-623.419	-191.769	0.129	-0.001
-622.405	341.517	-0.042	-0.083
-621.390	-200.000	-0.019	0.192
-620.376	757.877	-0.041	-0.112
-619.361	-105.595	-0.282	0.065
-618.346	17.216	0.137	0.110
-617.332	800.000	-0.061	-0.251
-616.317	800.000	-0.085	-0.253
-615.303	800.000	-0.032	-0.108
-614.288	17.534	0.263	-0.211
-613.273	78.739	-0.124	-0.134
-612.259	-120.343	-0.256	0.044
-611.244	-185.514	0.177	0.003
-610.230	-200.000	0.026	-0.182
-609.215	198.417	0.088	-0.136
-608.201	68.289	-0.178	-0.184
-607.186	-200.000	-0.002	-0.322
-606.171	-77.797	0.259	-0.090
-605.157	215.897	-0.038	-0.062
-604.142	-193.399	-0.248	0.002
-603.128	-200.000	-0.055	-0.305
-602.113	565.037	-0.075	0.183
-601.098	337.717	-0.044	0.087
-600.084	-56.498	-0.183	0.082
-599.069	-165.428	-0.236	0.010
-598.055	-47.871	0.167	-0.082
-597.040	-27.661	0.114	-0.067
-596.025	687.889	-0.066	-0.173
-595.011	800.000	0.066	0.248
-593.996	138.106	0.241	-0.318
-592.982	-52.688	0.102	0.048
-591.967	-200.000	0.006	-0.115
-590.952	27.899	-0.082	0.070
-589.938	339.401	-0.117	-0.230
-588.923	114.759	-0.146	-0.180
-587.909	-47.903	0.249	-0.121
-586.894	-200.000	0.004	0.253
-585.879	-13.834	-0.030	0.019
-584.865	800.000	0.117	-0.345
-583.850	-114.723	-0.167	-0.032
-582.836	39.579	-0.174	0.157
-581.821	37.099	0.162	-0.144
-580.806	-200.000	0.011	-0.126
-579.792	-36.407	-0.218	0.119
-578.777	-71.027	0.062	0.023
-577.763	-134.923	-0.447	-0.054
-576.748	-124.051	-0.301	0.048
-575.733	-175.945	-0.035	-0.001
-574.719	280.706	0.263	0.474
-573.704	14.059	0.298	-0.234
-572.690	-200.000	0.055	0.299
-571.675	250.936	-0.162	-0.278
-570.661	-97.699	0.315	-0.082
-569.646	-153.038	-0.429	-0.030
-568.631	-72.094	0.087	-0.032
-567.617	60.231	-0.186	-0.185
-566.602	50.888	-0.236	-0.226
-565.588	-77.474	0.183	-0.064
-564.573	-99.062	-0.088	-0.022
-563.558	-200.000	0.090	0.497
-562.544	-200.000	-0.027	0.181
-561.529	-164.638	0.110	0.005
-560.515	161.832	-0.043	-0.060
-559.500	-107.924	0.405	-0.089
-558.485	193.090	-0.109	0.166
-557.471	-170.862	-0.244	0.008
-556.456	-153.233	-0.111	-0.008
-555.442	159.220	0.107	-0.150
-554.427	-162.713	-0.190	0.009
-553.412	133.562	0.149	0.195
-552.398	800.000	0.061	0.250
-551.383	31.463	-0.161	-0.139
-550.369	-173.320	-0.152	0.005
-549.354	-200.000	0.021	0.159
-548.339	-200.000	-0.007	-0.136
-547.325	155.938	-0.038	-0.053
-546.310	-200.000	-0.035	0.180
-545.296	-200.000	-0.013	-0.187
-544.281	-120.490	-0.418	0.071
-543.266	401.546	-0.118	-0.250
-542.252	-200.000	0.009	-0.133
-541.237	-81.538	-0.201	-0.066
-540.223	-59.095	0.112	-0.048
-539.208	-164.225	-0.146	0.007
-538.193	-100.409	-0.381	0.095
-537.179	800.000	-0.117	0.390
-536.164	800.000	0.053	0.159
-535.150	-200.000	-0.059	0.324
-534.135	172.642	0.063	0.091
-533.121	36.399	-0.284	-0.252
-532.106	-11.510	0.241	0.159
-531.091	133.830	-0.070	0.091
-530.077	-200.000	-0.028	0.152
-529.062	-48.081	-0.097	-0.047
-528.048	244.534	0.096	0.162
-527.033	-10.095	-0.103	0.069
-526.018	-102.672	0.426	0.102
-525.004	15.077	-0.260	-0.205
-523.989	363.591	0.108	-0.219
-522.975	87.494	-0.336	-0.374
-521.960	7.005	-0.074	0.056
-520.945	-115.739	0.317	0.060
-519.931	28.039	0.192	0.163
-518.916	41.621	0.207	-0.188
-517.902	262.010	0.015	0.026
-516.887	-41.953	0.214	0.110
-515.872	672.992	0.079	0.207
-514.858	-9.033	0.182	0.122
-513.843	-200.000	-0.029	-0.261
-512.829	-200.000	-0.004	-0.161
-511.814	678.793	-0.018	0.048
-510.799	51.514	0.184	-0.176
-509.785	-179.945	-0.060	-0.001
-508.770	800.000	-0.138	0.541
-507.756	-85.849	-0.156	0.049
-506.741	-95.492	0.327	0.088
-505.726	-176.470	-0.101	-0.003
-504.712	495.787	0.068	0.157
-503.697	11.375	0.132	-0.102
-502.683	-47.478	0.221	0.108
-501.668	-143.888	0.388	-0.037
-500.653	34.048	-0.173	0.151
-499.639	-200.000	-0.040	0.255
-498.624	-200.000	0.034	-0.166
-497.610	-118.864	-0.179	0.032
-496.595	189.684	0.029	-0.044
-495.581	47.122	0.132	-0.123
-494.566	-10.045	-0.061	0.041
-493.551	-123.169	0.067	-0.011
-492.537	800.000	0.136	0.428
-491.522	436.916	-0.080	-0.176
-490.508	-137.369	-0.031	0.004
-489.493	-200.000	-0.003	-0.081
-488.478	-74.395	-0.134	-0.049
-487.464	-124.681	-0.172	-0.027
-486.449	4.744	0.181	-0.134
-485.435	-22.550	0.237	0.144
-484.420	800.000	-0.061	-0.191
-483.405	144.955	0.025	0.033
-482.391	11.832	-0.067	-0.052
-481.376	83.492	0.135	0.148
-480.362	-84.808	-0.206	-0.065
-479.347	617.407	-0.089	-0.224
-478.332	-92.623	0.232	-0.065
-477.318	-15.962	0.418	0.267
-476.303	146.969	-0.150	0.202
-475.289	-160.961	0.209	0.011
-474.274	-200.000	-0.017	-0.077
-473.259	-81.796	0.062	0.020
-472.245	-135.988	-0.531	0.063
-471.230	-40.685	-0.287	-0.149
-470.216	800.000	-0.016	-0.051
-469.201	-31.451	0.251	-0.142
-468.186	14.240	-0.036	0.028
-467.172	-200.000	-0.007	-0.127
-466.157	-70.998	-0.126	-0.048
-465.143	-200.000	-0.018	0.109
-464.128	499.834	-0.094	-0.217
-463.113	-200.000	0.056	0.495
-462.099	94.987	0.105	-0.120
-461.084	-135.966	0.264	0.031
-460.070	86.379	-0.173	-0.192
-459.055	-58.417	0.091	0.040
-458.040	-29.516	0.215	-0.123
-457.026	14.557	0.114	0.090
-456.011	-97.840	0.207	-0.054
-454.997	281.131	-0.104	-0.187
-453.982	-44.442	0.132	0.066
-452.968	-19.138	-0.256	0.160
-451.953	-125.864	0.380	-0.057
-450.938	-116.155	0.165	-0.031
-449.924	800.000	-0.062	0.203
-448.909	344.222	0.047	-0.092
-447.895	-90.768	-0.173	-0.050
-446.880	-30.757	-0.157	-0.089
-445.865	-13.574	0.444	-0.288
-444.851	522.226	0.038	0.090
-443.836	260.202	0.024	0.042
-442.822	-99.709	-0.257	0.065
-441.807	-200.000	-0.032	0.335
-440.792	58.021	0.144	-0.141
-439.778	-151.823	-0.200	-0.015
-438.763	800.000	0.022	-0.081
-437.749	-200.000	0.034	-0.255
-436.734	39.589	-0.141	-0.127
-435.719	-95.551	0.136	-0.037
-434.705	-200.000	-0.008	0.286
-433.690	261.586	0.069	0.120
-432.676	135.474	0.194	-0.254
-431.661	168.209	0.084	-0.120
-430.646	254.085	-0.032	-0.055
-429.632	-200.000	0.019	0.234
-428.617	800.000	0.052	-0.217
-427.603	167.744	0.043	0.061
-426.588	-159.233	0.115	-0.006
-425.573	-104.768	0.107	0.025
-424.559	339.875	-0.099	-0.194
-423.544	-74.929	0.163	-0.059
-422.530	-200.000	-0.007	0.334
-421.515	-200.000	0.018	-0.170
-420.500	493.161	-0.052	0.120
-419.486	-200.000	0.043	0.243
-418.471	-151.297	0.517	-0.039
-417.457	-116.755	-0.492	-0.091
-416.442	104.187	-0.099	0.117
-415.428	-24.804	-0.120	0.071
-414.413	-76.779	0.297	0.104
-413.398	-200.000	-0.038	0.247
-412.384	114.923	0.221	0.270
-411.369	-28.305	0.205	-0.118
-410.355	175.951	-0.132	0.192
-409.340	460.044	0.003	-0.008
-408.325	219.034	-0.077	-0.123
-407.311	-55.072	0.110	-0.050
-406.296	14.761	-0.133	0.104
-405.282	800.000	-0.062	-0.261
-404.267	800.000	0.049	-0.207
-403.252	-99.868	-0.280	0.070
-402.238	-200.000	0.294	0.000
-401.223	-200.000	0.030	-0.149
-400.209	-50.825	0.137	-0.064
-399.194	-48.367	-0.280	-0.135
-398.179	-73.311	-0.157	0.057
-397.165	-200.000	-0.016	-0.070
-396.150	553.161	0.032	-0.078
-395.136	-186.078	-0.114	-0.002
-394.121	-26.031	-0.123	0.073
-393.106	4.738	0.106	-0.078
-392.092	-108.317	-0.340	0.073
-391.077	-200.000	-0.022	-0.224
-390.063	-2.735	-0.074	-0.052
-389.048	195.780	-0.061	0.092
-388.033	-122.494	0.233	0.038
-387.019	-200.000	0.001	-0.089
-386.004	0.046	-0.069	-0.049
-384.990	3.136	-0.339	-0.246
-383.975	-200.000	0.004	-0.114
-382.960	-200.000	-0.064	-0.384
-381.946	-146.312	-0.135	-0.012
-380.931	13.644	0.225	0.175
-379.917	-3.604	0.015	0.011
-378.902	177.776	0.056	0.081
-377.888	-200.000	0.076	-0.337
-376.873	-35.131	0.276	0.150
-375.858	-57.217	0.197	-0.087
-374.844	147.308	0.063	0.085
-373.829	-155.347	0.102	-0.007
-372.815	800.000	-0.032	0.102
-371.800	-130.423	-0.193	0.026
-370.785	0.239	0.194	0.138
-369.771	303.932	0.167	0.309
-368.756	-18.254	-0.278	-0.174
-367.742	-3.873	-0.364	0.252
-366.727	-26.380	0.113	-0.066
-365.712	-37.650	-0.149	0.079
-364.698	-113.580	0.074	0.014
-363.683	-55.443	-0.187	-0.084
-362.669	32.206	-0.082	-0.071
-361.654	282.064	-0.054	0.097
-360.639	718.849	0.068	-0.180
-359.625	615.685	-0.020	-0.049
-358.610	14.646	-0.187	0.146
-357.596	-110.772	0.062	-0.013
-356.581	-51.209	-0.170	0.080
-355.566	-200.000	-0.025	-0.139
-354.552	-5.590	0.199	-0.136
-353.537	-103.094	-0.062	-0.015
-352.523	-0.497	0.142	0.101
-351.508	-200.000	0.047	-0.250
-350.493	654.424	-0.204	-0.523
-349.479	-122.624	0.214	0.035
-348.464	21.611	-0.088	-0.071
-347.450	84.069	0.245	-0.267
-346.435	-48.958	0.160	0.077
-345.420	108.485	0.041	0.049
-344.406	-109.529	-0.160	0.034
-343.391	69.884	0.143	0.147
-342.377	-187.914	0.244	-0.003
-341.362	323.721	-0.198	-0.378
-340.348	-200.000	-0.015	-0.131
-339.333	-121.445	0.241	-0.040
-338.318	88.170	-0.203	0.225
-337.304	59.136	0.460	0.452
-336.289	-200.000	0.051	0.268
-335.275	13.282	-0.170	0.132
-334.260	-74.436	0.185	0.067
-333.245	200.503	0.074	0.113
-332.231	21.373	-0.134	0.109
-331.216	123.133	0.072	0.089
-330.202	-29.675	0.084	-0.048
-329.187	-8.904	-0.155	-0.103
-328.172	-50.147	-0.290	0.137
-327.158	-200.000	0.002	0.093
-326.143	-49.857	-0.366	-0.173
-325.129	-168.141	0.171	-0.007
-324.114	-200.000	0.003	0.135
-323.099	195.257	-0.096	-0.146
-322.085	593.484	-0.047	0.115
-321.070	-169.949	0.089	0.003
-320.056	52.661	0.302	0.287
-319.041	97.317	-0.235	-0.269
-318.026	66.826	0.099	-0.100
-317.012	-200.000	0.017	-0.123
-315.997	232.578	-0.117	0.191
-314.983	-182.241	-0.218	0.004
-313.968	-22.907	-0.198	-0.119
-312.953	668.894	-0.064	-0.165
-311.939	-200.000	0.019	-0.149
-310.924	800.000	0.027	-0.089
-309.910	351.428	-0.107	-0.211
-308.895	-104.392	0.203	-0.047
-307.880	11.992	0.184	0.141
-306.866	3.306	0.228	0.165
-305.851	-200.000	-0.016	-0.350
-304.837	-50.198	-0.244	-0.115
-303.822	-143.281	-0.173	0.017
-302.807	-200.000	-0.037	0.385
-301.793	298.143	0.203	-0.371
-300.778	50.704	-0.056	0.052
-299.764	800.000	0.132	0.465
-298.749	-148.845	-0.539	0.043
-297.735	680.050	0.093	0.242
-296.720	173.939	0.110	0.159
-295.705	173.446	0.087	-0.125
-294.691	168.487	0.184	-0.261
-293.676	324.138	0.095	0.181
-292.662	1.405	-0.297	-0.213
-291.647	-116.605	0.321	-0.059
-290.632	-69.234	-0.116	0.044
-289.618	-107.393	0.589	-0.129
-288.603	-88.043	0.268	-0.080
-287.589	304.490	0.202	0.373
-286.574	-200.000	-0.004	0.094
-285.559	-127.556	-0.296	0.043
-284.545	-200.000	-0.044	-0.325
-283.530	-14.430	-0.060	-0.039
-282.516	17.856	-0.321	-0.255
-281.501	-200.000	-0.009	0.226
-280.486	81.914	0.186	0.200
-279.472	-74.216	0.090	0.032
-278.457	800.000	-0.039	0.166
-277.443	-153.628	0.348	-0.024
-276.428	800.000	-0.028	-0.091
-275.413	-114.220	0.132	0.025
-274.399	444.631	0.163	0.356
-273.384	-200.000	0.022	-0.159
-272.370	-91.240	0.076	0.022
-271.355	100.805	0.163	0.188
-270.340	58.993	0.250	-0.245
-269.326	20.369	-0.069	0.056
-268.311	141.014	-0.162	0.213
-267.297	-35.313	0.244	0.132
-266.282	354.350	0.051	-0.100
-265.267	-116.957	-0.178	-0.032
-264.253	238.772	0.142	0.236
-263.238	-200.000	-0.055	0.280
-262.224	58.387	-0.105	-0.102
-261.209	529.997	-0.134	0.316
-260.195	-47.274	-0.101	0.049
-259.180	136.976	-0.111	-0.145
-258.165	-51.345	0.185	0.086
-257.151	19.755	0.291	0.233
-256.136	-142.849	0.256	0.025
-255.122	-200.000	0.007	-0.048
-254.107	-94.957	0.165	0.045
-253.092	28.608	0.117	-0.099
-252.078	322.665	-0.087	-0.165
-251.063	187.621	0.097	0.144
-250.049	103.360	0.220	-0.256
-249.034	800.000	-0.031	0.133
-248.019	-67.822	0.169	0.066
-247.005	263.764	0.050	0.087
-245.990	147.424	0.118	-0.159
-244.976	-80.362	0.230	0.076
-243.961	800.000	0.080	-0.293
-242.946	800.000	0.060	0.193
-241.932	-134.154	0.386	0.047
-240.917	-200.000	-0.003	-0.021
-239.903	-95.917	0.230	-0.061
-238.888	37.922	-0.216	0.191
-237.873	-200.000	0.024	0.190
-236.859	60.397	-0.175	-0.172
-235.844	28.608	-0.279	-0.235
-234.830	-91.423	0.137	0.039
-233.815	-168.980	-0.237	0.009
-232.800	93.356	-0.066	0.074
-231.786	-155.000	0.116	0.008
-230.771	-200.000	0.039	0.188
-229.757	800.000	0.068	-0.196
-228.742	17.413	-0.038	0.030
-227.727	-10.054	-0.136	-0.090
-226.713	-48.196	-0.063	-0.030
-225.698	-200.000	0.031	-0.286
-224.684	800.000	0.040	0.134
-223.669	-96.336	0.276	0.073
-222.655	271.938	-0.099	0.174
-221.640	-72.675	0.196	0.072
-220.625	231.996	-0.144	0.235
-219.611	-200.000	0.086	0.500
-218.596	-67.886	-0.131	-0.051
-217.582	800.000	-0.041	0.124
-216.567	-13.575	-0.240	0.154
-215.552	125.588	-0.145	0.182
-214.538	-98.236	0.114	0.029
-213.523	800.000	-0.089	0.302
-212.509	269.236	0.123	0.215
-211.494	88.086	0.077	-0.085
-210.479	275.646	0.099	0.175
-209.465	275.663	-0.131	-0.231
-208.450	-127.994	0.059	-0.008
-207.436	-200.000	0.005	-0.266
-206.421	-114.124	-0.190	0.036
-205.406	185.763	0.206	0.304
-204.392	-147.797	0.274	0.023
-203.377	-80.545	-0.091	0.030
-202.363	-96.030	0.171	-0.045
-201.348	800.000	-0.061	-0.215
-200.333	800.000	-0.055	-0.169
-199.319	45.084	-0.167	0.153
-198.304	-170.962	-0.051	0.002
-197.290	117.283	-0.158	-0.192
-196.275	393.140	0.064	-0.132
-195.260	-49.759	-0.186	0.088
-194.246	-2.889	-0.085	0.059
-193.231	191.715	0.181	-0.270
-192.217	-118.215	-0.254	0.045
-191.202	-110.441	-0.095	0.019
-190.187	800.000	0.031	-0.113
-189.173	-52.557	0.205	-0.094
-188.158	-96.977	-0.303	-0.079
-187.144	-23.179	-0.185	0.110
-186.129	299.055	0.122	0.223
-185.114	300.737	0.057	-0.104
-184.100	800.000	-0.041	-0.159
-183.085	-83.472	-0.271	-0.086
-182.071	257.660	-0.074	0.126
-181.056	800.000	-0.054	0.230
-180.042	58.966	0.169	-0.165
-179.027	-184.591	-0.123	0.002
-178.012	-164.596	0.421	0.019
-176.998	-122.479	0.101	0.016
-175.983	-200.000	-0.013	-0.131
-174.969	-101.147	-0.091	-0.022
-173.954	-200.000	0.032	0.206
-172.939	685.457	-0.061	-0.159
-171.925	-200.000	0.003	-0.107
-170.910	800.000	-0.074	0.253
-169.896	652.978	0.088	0.225
-168.881	-15.887	0.134	-0.084
-167.866	125.816	-0.115	-0.144
-166.852	-63.576	-0.271	0.110
-165.837	-92.590	0.187	-0.052
-164.823	210.923	-0.059	0.091
-163.808	-200.000	-0.005	-0.105
-162.793	-29.238	-0.256	-0.145
-161.779	-178.404	0.086	-0.002
-160.764	-82.264	-0.138	0.045
-159.750	112.762	-0.105	0.127
-158.735	-107.550	-0.148	0.032
-157.720	-200.000	-0.057	-0.257
-156.706	597.341	-0.150	-0.368
-155.691	-129.290	-0.391	0.054
-154.677	-176.311	-0.076	0.002
-153.662	-6.031	-0.126	-0.086
-152.647	-200.000	0.009	-0.121
-151.633	58.776	0.126	0.123
-150.618	-28.996	0.229	0.130
-149.604	-200.000	-0.031	0.226
-148.589	490.725	0.056	-0.126
-147.574	-48.329	-0.012	0.006
-146.560	-200.000	-0.028	0.226
-145.545	15.094	0.213	-0.165
-144.531	-9.509	-0.198	-0.131
-143.516	-43.053	0.231	0.116
-142.502	-200.000	-0.064	0.331
-141.487	-34.671	-0.231	0.125
-140.472	-200.000	0.238	-0.001
-139.458	-200.000	0.032	-0.150
-138.443	195.709	0.034	0.052
-137.429	21.315	-0.255	0.205
-136.414	45.513	-0.096	0.087
-135.399	-48.615	0.172	0.082
-134.385	-200.000	0.005	-0.045
-133.370	-132.212	0.159	-0.020
-132.356	16.785	0.230	0.180
-131.341	-200.000	-0.003	-0.091
-130.326	-164.232	0.242	0.011
-129.312	-200.000	0.025	0.114
-128.297	122.937	0.172	0.213
-127.283	-200.000	-0.013	0.226
-126.268	128.617	-0.081	0.102
-125.253	57.971	0.139	-0.134
-124.239	101.308	-0.144	-0.166
-123.224	-172.354	0.186	0.006
-122.210	37.720	0.163	0.144
