DTS Sentinel unit serial number:	SN413079Multiplexer serial number:	ORYXHardware model number:	OX4-SRSoftware version number:	ORYX F/W v4.00 Oryx Data Collector v3.7.2.0data status	okinstallation	princeton_trtdifferential loss correction	single-endedforward channel	channel 4reverse channel	N/Adate	2019/09/18time	00:09:35forward acquisition time	60.00reverse acquisition time	0.00gamma	496.2192k internal	0.2333k external	0.2333temperature offset calibration	0.9998default loss term (dB/km)	0.3790temperature slope calibration	1.0000multiplexer offset coefficient	1.0000multiplexer slope coefficient	1.0000fibre end	0.00T internal ref (°C)	23.75T ext. ref 1 (°C)	0.17T ext. ref 2 (°C)	17.25length (m)	temperature (°C)	Stokes	anti-Stokes-747.200	-200.000	0.022	-0.236
-746.185	122.242	-0.300	0.377
-745.171	-34.031	-0.155	0.086
-744.156	-23.500	0.060	-0.036
-743.142	-86.654	-0.098	-0.030
-742.127	-181.541	-0.196	-0.004
-741.112	-200.000	0.038	-0.202
-740.098	-64.638	-0.150	-0.061
-739.083	-158.652	-0.192	0.011
-738.069	800.000	0.067	0.209
-737.054	-200.000	0.019	-0.093
-736.039	167.984	-0.150	0.215
-735.025	87.588	0.140	-0.155
-734.010	-200.000	0.000	0.134
-732.996	-200.000	0.042	-0.286
-731.981	161.023	0.174	0.244
-730.966	800.000	-0.046	0.134
-729.952	13.888	-0.149	-0.117
-728.937	800.000	0.067	-0.265
-727.923	146.460	-0.185	0.250
-726.908	115.866	-0.136	-0.167
-725.894	-200.000	0.026	0.139
-724.879	-5.329	-0.194	0.134
-723.864	-200.000	-0.002	-0.072
-722.850	-49.547	-0.261	0.125
-721.835	-82.260	-0.235	-0.077
-720.821	133.505	0.095	-0.123
-719.806	-200.000	0.024	-0.281
-718.791	185.657	-0.154	-0.230
-717.777	-175.723	0.290	-0.008
-716.762	93.917	-0.125	0.143
-715.748	60.870	-0.107	0.107
-714.733	-30.435	-0.136	-0.077
-713.718	14.685	0.099	0.077
-712.704	49.288	-0.186	0.175
-711.689	-164.353	0.273	-0.013
-710.675	800.000	0.066	-0.210
-709.660	-136.923	-0.563	-0.065
-708.645	-200.000	-0.028	-0.133
-707.631	-159.815	0.261	0.014
-706.616	-10.616	0.195	-0.129
-705.602	-62.711	0.180	-0.075
-704.587	800.000	0.056	-0.239
-703.572	315.955	0.201	-0.381
-702.558	101.109	-0.099	0.116
-701.543	-104.902	-0.050	-0.012
-700.529	-191.110	-0.428	-0.004
-699.514	-5.077	0.016	-0.011
-698.499	-200.000	-0.005	0.280
-697.485	800.000	0.014	0.043
-696.470	42.825	-0.150	-0.137
-695.456	-107.245	0.141	-0.031
-694.441	364.742	-0.133	-0.268
-693.426	279.190	0.139	0.249
-692.412	-53.344	0.120	-0.055
-691.397	646.983	-0.094	0.240
-690.383	209.263	0.046	-0.072
-689.368	-2.785	0.132	-0.092
-688.354	84.490	-0.151	0.165
-687.339	-200.000	0.019	0.247
-686.324	-200.000	-0.007	-0.160
-685.310	-154.116	0.272	-0.019
-684.295	-125.196	-0.123	0.019
-683.281	-42.907	-0.052	0.026
-682.266	88.016	0.163	-0.181
-681.251	-88.560	0.302	-0.090
-680.237	-200.000	0.013	-0.201
-679.222	138.240	-0.175	-0.230
-678.208	102.249	-0.210	0.246
-677.193	-200.000	0.008	0.054
-676.178	130.335	-0.185	0.238
-675.164	174.570	0.103	0.149
-674.149	203.688	-0.105	-0.162
-673.135	633.811	-0.085	-0.216
-672.120	-168.059	0.303	-0.012
-671.105	-113.609	-0.181	0.035
-670.091	-200.000	-0.006	0.033
-669.076	-138.900	0.401	0.044
-668.062	-25.239	0.198	-0.117
-667.047	800.000	-0.072	0.221
-666.032	3.798	0.305	-0.223
-665.018	-200.000	0.003	-0.229
-664.003	-200.000	-0.030	0.162
-662.989	-200.000	-0.047	0.281
-661.974	128.989	0.067	0.086
-660.959	800.000	0.063	0.243
-659.945	-200.000	-0.055	0.324
-658.930	497.811	-0.137	-0.316
-657.916	800.000	-0.073	-0.272
-656.901	800.000	0.058	0.169
-655.886	-130.073	-0.258	0.035
-654.872	-200.000	-0.008	-0.158
-653.857	71.838	-0.104	-0.109
-652.843	-17.014	0.325	0.206
-651.828	800.000	0.079	-0.244
-650.814	-200.000	-0.066	-0.455
-649.799	33.180	0.111	-0.097
-648.784	-42.674	0.365	-0.186
-647.770	-144.783	-0.029	0.003
-646.755	-200.000	-0.027	-0.128
-645.741	800.000	-0.117	-0.388
-644.726	-169.524	0.218	-0.008
-643.711	-48.785	-0.221	0.106
-642.697	-200.000	0.044	0.000
-641.682	800.000	0.127	-0.461
-640.668	800.000	-0.130	-0.365
-639.653	9.166	0.216	-0.164
-638.638	-200.000	0.013	-0.070
-637.624	800.000	-0.023	-0.071
-636.609	-200.000	0.013	-0.224
-635.595	-28.496	0.212	0.123
-634.580	587.055	-0.132	-0.324
-633.565	-149.260	0.568	-0.045
-632.551	201.687	0.023	-0.035
-631.536	-152.999	-0.107	0.008
-630.522	17.768	-0.268	0.213
-629.507	-187.465	-0.144	0.002
-628.492	157.669	0.016	0.023
-627.478	314.132	-0.058	0.109
-626.463	-200.000	-0.006	-0.250
-625.449	-140.344	-0.204	-0.021
-624.434	44.017	0.028	-0.025
-623.419	-83.062	0.258	-0.083
-622.405	800.000	0.010	0.038
-621.390	800.000	0.027	0.112
-620.376	-65.722	-0.443	-0.178
-619.361	-111.818	-0.095	-0.019
-618.346	-130.881	-0.371	-0.050
-617.332	-34.468	-0.223	-0.122
-616.317	157.391	-0.119	-0.165
-615.303	56.019	0.248	0.241
-614.288	-31.226	-0.164	-0.092
-613.273	49.929	-0.372	-0.351
-612.259	-200.000	0.026	0.248
-611.244	32.636	0.207	-0.179
-610.230	176.826	0.176	-0.257
-609.215	-40.709	-0.160	-0.083
-608.201	-126.352	-0.291	-0.043
-607.186	311.523	-0.085	-0.159
-606.171	20.627	-0.220	-0.178
-605.157	-66.532	-0.046	-0.018
-604.142	-62.771	0.063	0.026
-603.128	-21.282	-0.152	0.093
-602.113	45.910	0.383	-0.355
-601.098	-80.956	-0.219	0.073
-600.084	-200.000	-0.059	0.284
-599.069	179.581	-0.051	0.074
-598.055	64.978	-0.367	0.370
-597.040	-67.037	-0.145	0.057
-596.025	-200.000	-0.041	-0.296
-595.011	199.496	0.059	0.090
-593.996	-31.983	0.365	0.204
-592.982	-48.871	-0.321	-0.154
-591.967	800.000	0.052	0.175
-590.952	-200.000	0.033	-0.177
-589.938	693.035	-0.044	-0.115
-588.923	-75.708	-0.070	0.025
-587.909	256.070	-0.166	-0.284
-586.894	-159.311	0.265	-0.015
-585.879	-93.350	0.206	-0.057
-584.865	-70.169	-0.245	-0.093
-583.850	128.165	0.160	0.204
-582.836	-95.446	-0.366	-0.098
-581.821	-59.860	-0.024	0.010
-580.806	-200.000	0.009	0.202
-579.792	-80.901	-0.260	0.086
-578.777	27.560	0.250	0.210
-577.763	-67.344	-0.396	0.156
-576.748	-200.000	-0.057	-0.322
-575.733	-127.642	-0.340	-0.049
-574.719	-82.890	-0.211	-0.068
-573.704	71.066	0.159	0.165
-572.690	800.000	-0.161	0.480
-571.675	-200.000	0.040	-0.297
-570.661	800.000	-0.042	0.178
-569.646	-183.348	0.103	0.002
-568.631	35.979	0.292	-0.257
-567.617	60.872	-0.268	-0.265
-566.602	-200.000	0.040	-0.268
-565.588	-39.067	-0.219	-0.115
-564.573	-200.000	0.004	-0.189
-563.558	789.335	0.045	-0.124
-562.544	-63.324	0.208	0.086
-561.529	-200.000	0.068	0.366
-560.515	-176.327	-0.239	-0.006
-559.500	97.913	-0.127	-0.146
-558.485	-67.831	0.152	0.059
-557.471	-82.590	-0.062	0.020
-556.456	-200.000	0.030	-0.287
-555.442	-200.000	0.054	-0.269
-554.427	660.956	0.106	-0.274
-553.412	34.760	-0.061	-0.053
-552.398	800.000	-0.111	-0.325
-551.383	677.734	0.122	0.318
-550.369	110.268	0.146	-0.175
-549.354	-113.825	-0.238	0.046
-548.339	-1.606	-0.131	-0.092
-547.325	-39.126	-0.140	0.073
-546.310	214.053	-0.139	-0.220
-545.296	90.207	0.092	-0.102
-544.281	-26.053	0.236	-0.138
-543.266	-57.211	-0.160	-0.070
-542.252	198.414	0.178	0.272
-541.237	65.273	-0.173	0.174
-540.223	-147.523	-0.356	0.030
-539.208	-200.000	-0.060	-0.271
-538.193	-200.000	0.021	0.145
-537.179	708.240	0.073	0.193
-536.164	-111.860	0.252	0.051
-535.150	-200.000	-0.017	0.176
-534.135	-84.415	0.280	-0.088
-533.121	-69.821	0.259	-0.099
-532.106	-137.101	0.263	0.030
-531.091	-129.638	-0.194	0.027
-530.077	-122.224	0.150	-0.024
-529.062	-200.000	-0.004	0.342
-528.048	535.405	0.079	0.187
-527.033	190.240	0.254	-0.380
-526.018	127.248	0.179	-0.227
-525.004	800.000	-0.045	0.189
-523.989	-71.907	-0.039	-0.014
-522.975	-66.958	0.227	-0.089
-521.960	28.925	-0.219	-0.185
-520.945	800.000	-0.025	-0.109
-519.931	682.258	-0.035	-0.091
-518.916	-0.782	-0.149	0.105
-517.902	-200.000	-0.022	-0.323
-516.887	217.554	0.062	0.099
-515.872	800.000	0.173	-0.492
-514.858	121.245	0.069	-0.085
-513.843	-98.323	-0.303	0.077
-512.829	426.867	-0.129	0.276
-511.814	142.444	-0.279	-0.369
-510.799	12.549	0.205	0.158
-509.785	-200.000	-0.025	0.190
-508.770	6.155	0.149	-0.110
-507.756	603.899	-0.138	0.343
-506.741	-200.000	0.033	-0.272
-505.726	282.623	-0.106	0.190
-504.712	-189.924	-0.064	-0.001
-503.697	35.299	0.238	-0.208
-502.683	-43.563	-0.261	0.131
-501.668	-51.142	-0.225	-0.105
-500.653	107.881	0.170	-0.202
-499.639	-200.000	0.000	-0.171
-498.624	0.410	0.194	-0.138
-497.610	-35.955	0.395	0.213
-496.595	800.000	-0.081	0.340
-495.581	-157.250	-0.106	0.006
-494.566	518.060	-0.056	0.131
-493.551	55.810	0.131	-0.126
-492.537	-200.000	0.026	-0.197
-491.522	-48.543	0.167	-0.080
-490.508	-29.168	-0.048	-0.027
-489.493	-82.304	0.130	0.042
-488.478	423.836	0.056	0.119
-487.464	800.000	0.045	0.157
-486.449	-120.148	-0.226	-0.039
-485.435	62.780	-0.192	-0.191
-484.420	94.594	-0.238	-0.269
-483.405	131.316	-0.159	-0.203
-482.391	-200.000	0.012	0.211
-481.376	459.741	-0.052	0.114
-480.362	43.055	0.037	0.034
-479.347	355.519	0.123	-0.243
-478.332	15.104	-0.108	-0.084
-477.318	34.792	-0.162	-0.141
-476.303	67.239	0.079	0.081
-475.289	626.865	0.080	0.201
-474.274	-200.000	-0.041	-0.236
-473.259	-3.887	-0.171	-0.118
-472.245	139.496	-0.153	0.200
-471.230	-128.938	0.177	0.025
-470.216	367.028	0.032	0.065
-469.201	-111.540	0.125	-0.025
-468.186	-136.152	-0.112	0.013
-467.172	-6.556	-0.090	0.061
-466.157	-200.000	-0.070	0.322
-465.143	-200.000	-0.005	0.082
-464.128	-200.000	-0.014	-0.116
-463.113	-83.812	0.096	0.030
-462.099	-200.000	-0.018	0.086
-461.084	800.000	-0.059	-0.234
-460.070	733.556	0.042	-0.113
-459.055	424.702	0.167	-0.358
-458.040	-73.579	0.109	-0.039
-457.026	-21.755	0.260	-0.157
-456.011	208.210	0.085	-0.132
-454.997	54.724	0.172	-0.165
-453.982	-139.227	0.190	0.020
-452.968	5.979	-0.167	0.123
-451.953	800.000	0.097	0.408
-450.938	-82.666	-0.244	-0.079
-449.924	-109.545	-0.456	0.096
-448.909	40.075	-0.066	0.059
-447.895	-99.183	0.140	-0.035
-446.880	387.052	-0.063	-0.130
-445.865	31.211	0.164	0.140
-444.851	279.002	-0.103	-0.183
-443.836	236.562	0.047	0.077
-442.822	-80.869	-0.021	0.007
-441.807	-171.817	0.241	-0.008
-440.792	800.000	-0.097	0.396
-439.778	8.357	0.050	0.037
-438.763	800.000	-0.108	0.452
-437.749	-200.000	-0.028	-0.397
-436.734	325.555	0.108	-0.204
-435.719	-200.000	0.007	0.105
-434.705	324.287	0.203	0.386
-433.690	-108.767	-0.290	-0.062
-432.676	-34.594	0.036	0.020
-431.661	-200.000	-0.014	0.098
-430.646	800.000	-0.060	0.231
-429.632	243.907	-0.065	0.108
-428.617	-174.225	0.257	-0.007
-427.603	800.000	0.073	0.288
-426.588	-200.000	0.023	-0.114
-425.573	-181.975	0.211	-0.004
-424.559	59.206	-0.190	0.186
-423.544	73.812	0.108	0.112
-422.530	220.658	-0.142	0.227
-421.515	46.663	0.158	0.146
-420.500	-200.000	0.011	0.212
-419.486	-200.000	0.038	0.254
-418.471	-115.066	-0.094	0.018
-417.457	-115.928	0.095	0.018
-416.442	86.070	0.128	0.140
-415.428	-200.000	0.015	-0.170
-414.413	53.941	0.215	-0.205
-413.398	-122.758	-0.168	-0.027
-412.384	-122.363	-0.090	-0.015
-411.369	511.127	-0.090	-0.208
-410.355	77.530	0.104	-0.109
-409.340	438.960	-0.077	0.167
-408.325	-200.000	0.034	0.219
-407.311	-48.730	-0.222	0.106
-406.296	-82.182	0.108	-0.035
-405.282	-128.051	-0.179	-0.025
-404.267	774.581	-0.056	0.150
-403.252	354.280	-0.065	0.128
-402.238	800.000	-0.087	-0.251
-401.223	125.414	0.114	0.142
-400.209	-72.920	-0.349	0.127
-399.194	-79.008	0.100	0.034
-398.179	329.850	0.031	-0.059
-397.165	156.526	0.086	-0.118
-396.150	-61.715	0.081	-0.034
-395.136	305.815	-0.183	0.337
-394.121	800.000	0.087	-0.254
-393.106	77.046	0.040	-0.043
-392.092	-98.783	0.160	-0.040
-391.077	37.408	-0.286	-0.252
-390.063	800.000	-0.051	-0.180
-389.048	-71.713	0.112	0.042
-388.033	30.340	-0.204	-0.173
-387.019	800.000	-0.087	-0.269
-386.004	99.904	-0.231	0.266
-384.990	-63.877	-0.325	-0.132
-383.975	219.209	-0.102	0.162
-382.960	-133.197	-0.259	-0.032
-381.946	140.384	-0.050	0.065
-380.931	219.021	-0.084	0.134
-379.917	-117.770	-0.341	0.061
-378.902	-125.506	0.694	-0.105
-377.888	800.000	-0.086	0.256
-376.873	-138.936	-0.198	0.021
-375.858	136.503	-0.116	0.151
-374.844	800.000	-0.047	-0.137
-373.829	227.776	0.146	-0.235
-372.815	-51.861	0.145	0.067
-371.800	-151.342	-0.237	-0.017
-370.785	14.144	-0.186	0.143
-369.771	219.615	0.158	-0.251
-368.756	10.477	-0.093	0.070
-367.742	2.482	-0.052	-0.037
-366.727	-200.000	0.041	0.277
-365.712	-79.128	-0.310	-0.104
-364.698	-66.842	0.507	-0.198
-363.683	-200.000	0.043	0.242
-362.669	220.194	-0.151	0.240
-361.654	800.000	0.098	0.360
-360.639	69.134	-0.203	0.207
-359.625	-138.781	0.148	-0.016
-358.610	199.726	0.153	-0.233
-357.596	800.000	0.058	-0.221
-356.581	-200.000	0.024	-0.299
-355.566	-44.816	-0.115	-0.057
-354.552	-56.699	-0.200	-0.088
-353.537	-8.833	0.198	-0.132
-352.523	800.000	0.012	0.035
-351.508	-68.017	-0.256	0.099
-350.493	188.086	0.019	0.028
-349.479	213.327	-0.087	0.136
-348.464	222.595	-0.063	0.101
-347.450	94.112	0.217	0.243
-346.435	-167.725	0.340	-0.013
-345.420	-200.000	-0.004	-0.482
-344.406	8.262	0.147	-0.109
-343.391	-53.056	0.331	0.151
-342.377	74.197	0.082	0.086
-341.362	-139.450	0.117	-0.012
-340.348	436.367	0.094	-0.203
-339.333	535.321	-0.144	-0.337
-338.318	-105.872	-0.549	-0.123
-337.304	-26.466	-0.160	-0.093
-336.289	-56.275	-0.159	0.070
-335.275	104.182	0.353	0.410
-334.260	-15.323	-0.096	-0.061
-333.245	-200.000	-0.004	-0.043
-332.231	-136.739	0.261	-0.030
-331.216	-188.603	0.048	0.001
-330.202	-200.000	0.020	-0.161
-329.187	-99.456	-0.261	0.065
-328.172	800.000	-0.096	0.361
-327.158	347.495	0.073	0.142
-326.143	725.517	-0.032	0.084
-325.129	212.602	-0.136	0.213
-324.114	197.786	-0.252	-0.381
-323.099	-44.923	-0.170	0.084
-322.085	-200.000	0.099	0.460
-321.070	-189.862	-0.304	0.003
-320.056	-200.000	0.004	-0.117
-319.041	379.429	0.068	-0.138
-318.026	167.351	0.108	0.151
-317.012	403.635	0.114	0.238
-315.997	-133.512	-0.405	0.050
-314.983	-166.457	0.093	0.004
-313.968	43.074	-0.121	0.109
-312.953	-43.669	0.073	-0.037
-311.939	-200.000	-0.003	0.026
-310.924	-41.717	-0.161	-0.082
-309.910	-126.411	0.106	0.016
-308.895	-119.732	0.286	-0.049
-307.880	-200.000	-0.022	0.152
-306.866	257.249	-0.113	0.193
-305.851	800.000	0.063	-0.202
-304.837	-109.178	0.078	-0.016
-303.822	44.273	0.152	-0.138
-302.807	-107.615	0.247	0.053
-301.793	52.549	-0.145	-0.137
-300.778	118.532	-0.097	0.118
-299.764	-200.000	-0.039	0.184
-298.749	97.138	0.096	-0.109
-297.735	-87.826	-0.450	0.134
-296.720	158.486	0.036	-0.050
-295.705	-200.000	0.040	-0.181
-294.691	114.574	-0.069	-0.084
-293.676	-105.153	0.345	-0.078
-292.662	-28.883	0.098	-0.056
-291.647	139.849	0.067	-0.087
-290.632	556.353	0.198	0.472
-289.618	379.883	0.173	0.350
-288.603	461.498	-0.130	0.287
-287.589	-101.399	0.134	0.032
-286.574	136.518	-0.056	0.072
-285.559	101.025	0.103	-0.118
-284.545	55.743	-0.099	0.095
-283.530	-200.000	-0.028	0.200
-282.516	99.404	-0.072	0.083
-281.501	306.565	0.070	0.129
-280.486	-200.000	-0.024	-0.152
-279.472	-107.490	0.326	0.071
-278.457	-200.000	-0.026	-0.437
-277.443	-101.469	0.160	0.038
-276.428	800.000	0.019	0.068
-275.413	-98.350	-0.095	0.024
-274.399	-10.925	-0.206	0.134
-273.384	-200.000	-0.074	-0.337
-272.370	-104.428	0.389	-0.089
-271.355	-45.943	0.153	0.075
-270.340	-98.546	-0.024	0.006
-269.326	-14.169	0.174	0.111
-268.311	145.684	-0.073	-0.097
-267.297	112.328	0.211	0.252
-266.282	151.357	0.113	0.152
-265.267	800.000	-0.165	-0.460
-264.253	800.000	0.137	-0.485
-263.238	-200.000	0.006	0.104
-262.224	264.291	0.099	0.170
-261.209	87.065	0.136	0.148
-260.195	800.000	-0.018	0.056
-259.180	-111.552	0.454	0.091
-258.165	-200.000	-0.010	0.225
-257.151	800.000	0.067	-0.195
-256.136	-160.619	0.121	0.006
-255.122	-144.048	-0.043	-0.004
-254.107	800.000	-0.085	0.296
-253.092	152.178	0.081	0.108
-252.078	477.993	0.079	0.176
-251.063	-115.638	0.508	0.094
-250.049	-171.766	0.192	-0.006
-249.034	229.413	-0.061	-0.098
-248.019	-200.000	-0.017	-0.143
-247.005	-61.264	-0.167	0.069
-245.990	-36.932	0.315	-0.167
-244.976	-64.296	-0.327	0.131
-243.961	33.649	-0.151	-0.130
-242.946	800.000	-0.023	0.083
-241.932	800.000	-0.056	0.175
-240.917	800.000	-0.056	-0.215
-239.903	-200.000	-0.061	-0.447
-238.888	304.642	-0.128	-0.235
-237.873	800.000	-0.040	0.148
-236.859	-45.995	0.201	-0.098
-235.844	800.000	0.038	0.104
-234.830	-200.000	0.022	0.333
-233.815	-110.679	-0.188	0.038
-232.800	-8.433	0.196	0.130
-231.786	8.013	0.156	-0.115
-230.771	244.920	0.113	0.187
-229.757	-15.825	-0.101	0.063
-228.742	-200.000	-0.001	-0.116
-227.727	-105.989	-0.147	0.033
-226.713	-68.779	0.166	-0.063
-225.698	800.000	-0.061	-0.253
-224.684	-169.449	-0.403	0.015
-223.669	48.673	-0.396	-0.366
-222.655	-200.000	-0.010	0.178
-221.640	56.927	0.028	0.027
-220.625	53.995	0.321	-0.304
-219.611	224.271	-0.121	0.192
-218.596	-116.437	0.132	0.024
-217.582	2.891	0.185	0.132
-216.567	-12.489	-0.160	-0.103
-215.552	35.135	-0.076	-0.066
-214.538	16.133	0.149	-0.116
-213.523	397.246	-0.081	0.166
-212.509	-200.000	-0.005	0.125
-211.494	92.962	0.148	-0.165
-210.479	-195.969	0.238	0.002
-209.465	-200.000	0.009	0.093
-208.450	89.840	-0.116	0.128
-207.436	-187.485	0.394	0.005
-206.421	254.701	0.110	-0.185
-205.406	508.322	-0.081	-0.186
-204.392	-200.000	0.002	-0.008
-203.377	128.214	0.210	0.263
-202.363	-139.202	-0.104	-0.011
-201.348	280.913	0.218	0.383
-200.333	55.887	0.244	-0.233
-199.319	151.324	-0.148	-0.199
-198.304	-43.763	0.246	0.122
-197.290	491.396	0.097	0.220
-196.275	800.000	-0.021	-0.070
-195.260	800.000	-0.061	0.192
-194.246	-130.085	-0.138	-0.019
-193.231	-200.000	0.066	0.393
-192.217	-64.450	-0.225	0.090
-191.202	-110.387	-0.307	0.063
-190.187	450.524	-0.071	0.154
-189.173	-104.043	-0.124	0.028
-188.158	-200.000	-0.006	0.279
-187.144	-200.000	0.003	0.175
-186.129	-115.503	-0.342	0.063
-185.114	-62.573	0.373	0.152
-184.100	574.219	-0.039	0.094
-183.085	-100.380	0.131	0.032
-182.071	800.000	-0.007	-0.020
-181.056	73.069	0.118	0.121
-180.042	-53.102	0.158	-0.072
-179.027	-177.211	-0.164	-0.004
-178.012	-200.000	-0.009	0.081
-176.998	-200.000	-0.015	-0.295
-175.983	-85.045	0.198	-0.061
-174.969	-29.290	0.047	0.027
-173.954	82.434	-0.115	0.123
-172.939	-150.939	0.152	0.011
-171.925	-56.385	-0.152	-0.067
-170.910	-200.000	-0.016	0.225
-169.896	188.761	0.255	-0.375
-168.881	24.674	-0.149	0.121
-167.866	-63.499	0.360	0.146
-166.852	-33.601	-0.219	0.119
-165.837	144.923	0.235	0.309
-164.823	261.739	0.206	0.350
-163.808	47.347	-0.130	-0.119
-162.793	-88.435	-0.165	-0.048
-161.779	-200.000	0.032	0.203
-160.764	144.104	0.052	-0.068
-159.750	114.954	-0.094	-0.112
-158.735	349.691	0.079	0.153
-157.720	54.026	-0.224	-0.211
-156.706	-18.515	0.232	0.142
-155.691	91.304	0.060	-0.066
-154.677	44.872	-0.162	0.147
-153.662	-129.870	0.198	-0.027
-152.647	800.000	-0.040	0.170
-151.633	46.860	0.335	-0.306
-150.618	-110.177	-0.171	-0.035
-149.604	36.908	-0.271	0.235
-148.589	42.147	0.104	-0.093
-147.574	800.000	0.098	-0.415
-146.560	-70.567	-0.444	-0.165
-145.545	205.974	-0.116	0.178
-144.531	-7.186	-0.109	0.073
-143.516	-62.116	-0.115	-0.047
-142.502	800.000	-0.090	0.289
-141.487	-190.338	0.232	-0.002
-140.472	-178.038	-0.279	0.007
-139.458	-74.120	0.260	-0.092
-138.443	-70.706	-0.442	0.164
-137.429	-41.199	-0.043	-0.022
-136.414	199.037	-0.162	0.243
-135.399	-116.681	-0.217	-0.039
-134.385	-132.865	0.484	-0.061
-133.370	260.766	-0.080	0.136
-132.356	-8.154	-0.103	0.068
-131.341	2.301	0.109	0.078
-130.326	316.544	0.163	0.302
-129.312	-137.552	0.215	-0.024
-128.297	93.607	-0.078	0.086
-127.283	-121.618	0.345	-0.056
-126.268	420.077	-0.078	-0.165
-125.253	131.303	-0.227	0.286
-124.239	-200.000	0.014	-0.106
-123.224	-4.061	0.244	0.166
-122.210	-16.790	-0.015	0.009
