DTS Sentinel unit serial number:	SN413079Multiplexer serial number:	ORYXHardware model number:	OX4-SRSoftware version number:	ORYX F/W v4.00 Oryx Data Collector v3.7.2.0data status	okinstallation	princeton_trtdifferential loss correction	single-endedforward channel	channel 4reverse channel	N/Adate	2019/09/14time	17:17:35forward acquisition time	60.00reverse acquisition time	0.00gamma	496.2192k internal	0.2294k external	0.2294temperature offset calibration	1.0118default loss term (dB/km)	0.3790temperature slope calibration	1.0000multiplexer offset coefficient	1.0000multiplexer slope coefficient	1.0000fibre end	0.00T internal ref (°C)	37.87T ext. ref 1 (°C)	5.04T ext. ref 2 (°C)	32.84length (m)	temperature (°C)	Stokes	anti-Stokes-747.200	-99.918	0.173	0.044
-746.185	-25.645	-0.160	0.097
-745.171	-200.000	-0.065	0.410
-744.156	-200.000	-0.002	-0.083
-743.142	-23.752	0.391	-0.240
-742.127	-118.369	-0.316	0.057
-741.112	800.000	-0.079	0.236
-740.098	-88.056	-0.226	-0.069
-739.083	-85.890	-0.072	-0.023
-738.069	359.430	0.078	0.160
-737.054	148.613	-0.096	0.132
-736.039	491.401	-0.005	0.013
-735.025	287.907	-0.187	-0.346
-734.010	-200.000	0.028	-0.144
-732.996	-116.317	0.178	-0.034
-731.981	800.000	0.046	0.202
-730.966	203.358	-0.093	-0.147
-729.952	-200.000	-0.029	-0.156
-728.937	-200.000	-0.010	0.321
-727.923	-200.000	-0.009	-0.123
-726.908	569.263	-0.095	-0.235
-725.894	800.000	0.088	-0.357
-724.879	800.000	-0.047	0.175
-723.864	-200.000	0.005	-0.097
-722.850	96.374	-0.065	-0.076
-721.835	728.466	0.093	0.254
-720.821	75.164	0.163	-0.175
-719.806	245.387	-0.112	-0.193
-718.791	-60.716	-0.084	-0.036
-717.777	693.397	-0.066	-0.176
-716.762	-92.291	0.264	0.076
-715.748	-53.344	-0.109	0.051
-714.733	800.000	0.033	-0.101
-713.718	-73.683	-0.437	-0.163
-712.704	-195.736	-0.367	0.003
-711.689	169.754	-0.167	-0.244
-710.675	25.169	-0.267	0.226
-709.660	453.248	0.104	-0.235
-708.645	183.806	-0.137	-0.208
-707.631	-49.746	-0.323	-0.157
-706.616	173.521	0.037	0.055
-705.602	69.715	-0.168	0.177
-704.587	160.343	-0.091	0.130
-703.572	-77.517	-0.208	0.074
-702.558	-78.171	0.246	-0.086
-701.543	-200.000	-0.033	-0.196
-700.529	800.000	-0.123	-0.386
-699.514	-138.520	0.122	0.014
-698.499	1.063	-0.255	-0.187
-697.485	10.379	-0.146	0.114
-696.470	-116.184	0.185	-0.035
-695.456	9.684	-0.073	0.057
-694.441	-195.498	0.083	0.001
-693.426	-4.429	0.320	0.226
-692.412	-71.922	-0.172	-0.065
-691.397	-91.526	0.258	0.075
-690.383	42.058	-0.050	-0.046
-689.368	-80.962	-0.353	-0.119
-688.354	-92.963	0.274	0.078
-687.339	-138.449	0.442	-0.050
-686.324	259.904	0.053	0.094
-685.310	-56.941	0.141	-0.063
-684.295	718.863	-0.104	0.283
-683.281	-23.004	-0.133	0.082
-682.266	-23.082	0.160	0.098
-681.251	75.448	-0.136	-0.146
-680.237	-42.758	0.208	-0.108
-679.222	-65.873	0.137	-0.056
-678.208	119.352	-0.032	-0.041
-677.193	466.308	0.017	0.039
-676.178	36.261	-0.117	0.105
-675.164	-111.525	0.312	0.065
-674.149	-83.803	-0.194	-0.063
-673.135	800.000	0.050	-0.195
-672.120	103.971	-0.127	0.153
-671.105	-200.000	0.104	-0.511
-670.091	-200.000	-0.022	-0.332
-669.076	97.303	-0.145	0.169
-668.062	-160.449	0.588	-0.032
-667.047	-108.072	-0.297	-0.066
-666.032	800.000	-0.040	-0.117
-665.018	-158.626	-0.083	0.005
-664.003	-78.685	-0.259	-0.090
-662.989	64.290	-0.333	-0.342
-661.974	-200.000	0.001	0.020
-660.959	-41.890	0.098	0.051
-659.945	-136.338	0.083	-0.010
-658.930	-121.269	0.416	-0.071
-657.916	-200.000	-0.010	-0.599
-656.901	-200.000	-0.112	-0.538
-655.886	-39.754	0.236	-0.126
-654.872	-71.393	-0.150	0.057
-653.857	172.945	-0.039	0.057
-652.843	-84.245	-0.371	-0.120
-651.828	-34.905	0.250	-0.139
-650.814	-163.679	0.340	0.016
-649.799	93.291	0.167	0.193
-648.784	23.506	-0.179	-0.150
-647.770	8.660	0.216	-0.166
-646.755	60.749	-0.079	0.080
-645.741	-60.507	-0.247	0.107
-644.726	179.369	-0.090	0.135
-643.711	550.497	0.195	-0.477
-642.697	-75.284	0.170	-0.062
-641.682	-196.884	-0.272	0.002
-640.668	406.647	-0.125	-0.268
-639.653	419.317	-0.093	0.203
-638.638	-200.000	0.021	-0.216
-637.624	-48.246	-0.103	-0.051
-636.609	800.000	0.061	0.207
-635.595	-76.353	-0.247	-0.089
-634.580	-121.356	0.086	-0.015
-633.565	262.977	0.029	-0.051
-632.551	95.657	0.120	-0.139
-631.536	603.672	0.067	0.170
-630.522	92.429	-0.246	-0.282
-629.507	-200.000	0.014	0.174
-628.492	61.712	-0.168	0.170
-627.478	93.621	0.112	-0.129
-626.463	800.000	-0.057	-0.243
-625.449	164.428	-0.112	-0.161
-624.434	179.844	-0.173	-0.258
-623.419	800.000	0.101	-0.338
-622.405	251.069	0.055	0.095
-621.390	-15.751	-0.158	0.103
-620.376	178.809	0.110	-0.164
-619.361	-49.842	-0.301	-0.146
-618.346	800.000	0.148	-0.453
-617.332	25.347	-0.148	0.125
-616.317	83.949	-0.125	-0.139
-615.303	-168.154	0.318	-0.013
-614.288	-128.378	-0.173	0.025
-613.273	-143.964	0.253	0.024
-612.259	-200.000	0.003	-0.216
-611.244	10.921	-0.199	-0.154
-610.230	-111.622	0.209	-0.043
-609.215	-200.000	0.009	0.355
-608.201	313.978	-0.155	-0.296
-607.186	53.453	0.100	-0.097
-606.171	-200.000	0.003	-0.110
-605.157	-200.000	0.030	0.237
-604.142	800.000	-0.046	0.165
-603.128	126.104	-0.067	0.086
-602.113	54.302	0.193	0.189
-601.098	-200.000	-0.005	-0.220
-600.084	-52.361	-0.129	-0.061
-599.069	-84.859	0.128	-0.041
-598.055	-200.000	-0.029	0.322
-597.040	-35.407	0.256	-0.141
-596.025	5.993	0.311	-0.234
-595.011	-107.510	0.372	0.083
-593.996	117.354	-0.213	-0.266
-592.982	-200.000	-0.021	-0.205
-591.967	98.684	0.214	0.252
-590.952	-109.356	0.285	0.061
-589.938	750.853	0.065	-0.179
-588.923	64.093	0.052	0.053
-587.909	107.490	0.043	-0.052
-586.894	-200.000	-0.097	0.791
-585.879	90.174	0.250	0.284
-584.865	101.549	0.043	0.051
-583.850	800.000	-0.111	-0.439
-582.836	-200.000	0.009	-0.289
-581.821	-200.000	0.068	-0.362
-580.806	800.000	0.066	0.195
-579.792	23.229	-0.092	0.077
-578.777	137.737	0.119	0.159
-577.763	-200.000	-0.008	-0.291
-576.748	5.663	0.181	-0.136
-575.733	181.844	0.030	0.045
-574.719	60.037	-0.329	0.331
-573.704	298.334	0.065	0.121
-572.690	-200.000	0.069	-0.369
-571.675	58.352	-0.067	-0.067
-570.661	97.994	-0.149	-0.175
-569.646	586.563	-0.205	-0.512
-568.631	59.706	-0.148	-0.148
-567.617	52.043	-0.172	-0.167
-566.602	21.914	-0.324	-0.268
-565.588	298.551	0.120	0.223
-564.573	800.000	-0.098	0.411
-563.558	-51.583	0.080	-0.038
-562.544	-200.000	-0.016	-0.216
-561.529	-111.936	-0.215	0.044
-560.515	-200.000	-0.029	-0.197
-559.500	44.488	-0.226	-0.211
-558.485	13.641	0.313	-0.247
-557.471	-200.000	0.016	0.209
-556.456	84.493	0.111	-0.123
-555.442	-66.034	0.083	-0.034
-554.427	-162.176	-0.364	-0.019
-553.412	119.709	0.145	0.182
-552.398	-200.000	-0.041	0.294
-551.383	-136.971	-0.106	0.012
-550.369	800.000	-0.040	-0.116
-549.354	-48.048	0.033	0.016
-548.339	-200.000	0.005	-0.061
-547.325	-94.026	0.223	-0.062
-546.310	800.000	0.034	-0.099
-545.296	301.032	0.152	-0.284
-544.281	439.287	0.049	0.109
-543.266	-56.193	0.272	-0.123
-542.252	-200.000	-0.014	-0.380
-541.237	-200.000	0.035	0.207
-540.223	-67.826	-0.149	0.059
-539.208	-78.082	0.335	0.117
-538.193	-127.486	0.076	-0.011
-537.179	131.520	-0.064	-0.083
-536.164	-143.058	0.150	0.015
-535.150	800.000	0.051	-0.184
-534.135	-200.000	0.000	-0.189
-533.121	106.490	-0.275	-0.330
-532.106	-200.000	0.031	-0.210
-531.091	800.000	0.080	0.266
-530.077	-42.527	0.116	-0.060
-529.062	-200.000	-0.008	0.106
-528.048	-78.384	0.107	-0.037
-527.033	-2.114	-0.229	-0.163
-526.018	139.710	0.093	-0.124
-525.004	-66.343	-0.041	-0.017
-523.989	-200.000	0.076	0.540
-522.975	800.000	0.025	0.086
-521.960	-200.000	0.002	-0.045
-520.945	800.000	0.016	-0.056
-519.931	-30.897	0.266	0.152
-518.916	-38.560	-0.082	-0.044
-517.902	-110.376	-0.224	0.047
-516.887	112.484	-0.155	-0.191
-515.872	153.253	-0.131	-0.182
-514.858	25.691	-0.052	0.044
-513.843	-200.000	-0.003	-0.300
-512.829	-200.000	-0.010	0.170
-511.814	-200.000	-0.006	0.147
-510.799	-33.231	-0.114	-0.064
-509.785	66.339	0.217	0.223
-508.770	-35.396	-0.250	0.138
-507.756	10.902	0.259	-0.200
-506.741	149.133	-0.098	0.134
-505.726	42.692	0.180	0.166
-504.712	103.863	0.191	-0.228
-503.697	108.946	-0.320	-0.388
-502.683	-85.896	0.236	0.074
-501.668	258.423	0.128	-0.223
-500.653	800.000	-0.078	-0.343
-499.639	502.361	-0.080	-0.188
-498.624	591.854	-0.041	0.102
-497.610	800.000	0.041	-0.159
-496.595	-56.551	-0.103	-0.046
-495.581	-145.215	0.112	0.010
-494.566	-149.620	-0.258	0.021
-493.551	102.337	0.010	0.012
-492.537	191.917	0.102	0.155
-491.522	-112.483	-0.223	0.045
-490.508	-200.000	0.006	-0.307
-489.493	109.761	-0.252	-0.306
-488.478	-62.243	0.094	0.040
-487.464	-45.204	0.201	0.101
-486.449	66.764	-0.138	0.143
-485.435	-200.000	-0.004	0.092
-484.420	-127.846	-0.317	0.046
-483.405	-99.322	-0.065	-0.017
-482.391	-46.341	0.296	-0.147
-481.376	582.935	0.083	-0.206
-480.362	3.013	0.210	-0.154
-479.347	-200.000	0.029	0.414
-478.332	-33.879	-0.310	0.173
-477.318	-126.177	0.298	-0.045
-476.303	-200.000	-0.064	-0.332
-475.289	-200.000	-0.024	-0.269
-474.274	-122.613	0.109	0.018
-473.259	-71.725	-0.219	0.082
-472.245	5.482	-0.305	-0.228
-471.230	800.000	0.013	-0.042
-470.216	183.028	-0.050	0.075
-469.201	239.141	0.117	-0.196
-468.186	111.001	-0.190	-0.231
-467.172	-63.958	-0.538	0.223
-466.157	800.000	0.065	-0.221
-465.143	-200.000	0.009	-0.174
-464.128	15.223	0.326	-0.259
-463.113	184.512	0.185	0.277
-462.099	-138.222	0.298	-0.033
-461.084	155.417	0.118	-0.164
-460.070	255.117	0.225	-0.390
-459.055	-87.540	-0.018	0.006
-458.040	-200.000	0.072	-0.346
-457.026	-155.686	0.044	0.003
-456.011	-101.140	-0.234	0.058
-454.997	-77.488	0.230	-0.081
-453.982	800.000	-0.047	0.195
-452.968	-92.167	0.125	-0.036
-451.953	12.274	0.079	-0.062
-450.938	-48.152	0.099	0.049
-449.924	-200.000	-0.036	0.294
-448.909	17.835	0.097	0.078
-447.895	800.000	0.039	0.147
-446.880	-200.000	-0.026	0.126
-445.865	-45.118	-0.151	0.076
-444.851	-53.929	-0.143	0.066
-443.836	72.426	-0.250	0.264
-442.822	338.372	-0.091	0.178
-441.807	22.522	0.220	0.182
-440.792	24.772	-0.143	-0.120
-439.778	-81.504	-0.199	0.066
-438.763	65.109	-0.102	0.104
-437.749	624.631	-0.191	0.488
-436.734	188.321	0.053	0.080
-435.719	-50.220	0.179	-0.086
-434.705	66.320	-0.114	-0.117
-433.690	800.000	-0.125	0.493
-432.676	565.490	0.091	0.224
-431.661	-200.000	0.025	-0.119
-430.646	800.000	0.073	0.227
-429.632	-90.609	0.304	0.089
-428.617	227.282	-0.117	0.193
-427.603	-0.862	-0.251	0.180
-426.588	800.000	-0.042	0.178
-425.573	-200.000	-0.054	0.302
-424.559	-200.000	-0.039	0.218
-423.544	-24.985	-0.237	0.142
-422.530	495.061	-0.130	0.303
-421.515	426.743	0.176	0.383
-420.500	-30.026	-0.102	-0.059
-419.486	167.985	-0.082	0.118
-418.471	-142.060	0.132	0.013
-417.457	-179.295	-0.212	0.005
-416.442	663.207	0.076	-0.197
-415.428	-200.000	-0.054	0.243
-414.413	800.000	-0.056	0.247
-413.398	-200.000	0.005	-0.350
-412.384	-93.035	-0.241	-0.068
-411.369	-28.981	0.256	0.148
-410.355	153.226	0.060	-0.083
-409.340	-7.102	-0.175	0.120
-408.325	19.724	-0.079	-0.064
-407.311	-1.808	0.195	-0.138
-406.296	119.354	0.085	-0.107
-405.282	-200.000	-0.004	0.071
-404.267	-21.538	0.128	-0.079
-403.252	-200.000	0.023	0.141
-402.238	147.040	-0.105	0.143
-401.223	800.000	-0.079	-0.263
-400.209	478.729	-0.094	-0.216
-399.194	-33.721	0.128	-0.071
-398.179	-126.318	0.204	-0.031
-397.165	291.058	-0.189	0.347
-396.150	-200.000	-0.025	0.166
-395.136	625.109	-0.066	0.169
-394.121	-200.000	-0.042	-0.267
-393.106	63.987	0.268	0.271
-392.092	-16.742	-0.262	0.167
-391.077	93.452	0.310	-0.354
-390.063	-79.940	-0.389	0.132
-389.048	-200.000	-0.048	-0.311
-388.033	-200.000	0.019	-0.191
-387.019	-83.406	0.128	-0.042
-386.004	182.481	-0.032	0.047
-384.990	800.000	-0.118	0.421
-383.975	-20.137	-0.090	0.056
-382.960	-21.173	-0.181	-0.112
-381.946	140.449	0.133	0.177
-380.931	51.614	0.037	-0.035
-379.917	-22.772	0.224	0.137
-378.902	187.081	0.170	0.255
-377.888	-129.085	0.478	0.067
-376.873	-131.364	-0.210	-0.028
-375.858	280.028	-0.180	0.325
-374.844	-113.994	-0.135	-0.026
-373.829	-98.698	-0.369	-0.095
-372.815	708.765	-0.096	0.257
-371.800	-65.630	-0.341	0.138
-370.785	800.000	-0.057	-0.161
-369.771	-170.278	0.170	-0.006
-368.756	800.000	0.033	0.131
-367.742	-59.457	0.080	0.034
-366.727	-54.231	-0.197	-0.090
-365.712	800.000	0.094	-0.325
-364.698	56.774	-0.155	-0.152
-363.683	-36.457	-0.188	-0.102
-362.669	424.860	-0.021	0.045
-361.654	800.000	-0.073	0.305
-360.639	-47.482	-0.112	0.055
-359.625	39.701	-0.253	0.229
-358.610	-163.878	0.315	0.015
-357.596	143.393	-0.193	-0.258
-356.581	-39.225	-0.378	0.200
-355.566	-200.000	-0.021	-0.297
-354.552	-29.511	-0.149	0.086
-353.537	-146.297	0.095	-0.008
-352.523	-74.747	0.097	-0.035
-351.508	-59.922	0.071	0.031
-350.493	-102.063	-0.145	0.035
-349.479	-50.332	-0.185	0.088
-348.464	-30.396	-0.164	-0.093
-347.450	-200.000	0.004	0.271
-346.435	226.439	-0.143	-0.233
-345.420	-200.000	-0.005	0.082
-344.406	436.849	-0.084	0.185
-343.391	41.694	-0.087	0.079
-342.377	-97.278	0.138	-0.036
-341.362	100.163	0.290	-0.339
-340.348	17.402	-0.148	0.119
-339.333	-73.362	-0.130	0.048
-338.318	7.628	0.130	0.098
-337.304	-200.000	0.003	0.046
-336.289	6.816	0.200	-0.150
-335.275	55.739	-0.204	-0.199
-334.260	-147.420	0.158	-0.013
-333.245	-95.841	-0.289	0.078
-332.231	-107.796	0.043	-0.009
-331.216	148.994	0.201	-0.274
-330.202	-200.000	-0.035	0.181
-329.187	56.989	-0.027	0.026
-328.172	-122.873	0.327	-0.053
-327.158	-200.000	-0.037	0.241
-326.143	108.763	0.130	-0.157
-325.129	-200.000	-0.018	0.284
-324.114	-146.991	0.182	-0.016
-323.099	754.030	-0.170	0.462
-322.085	144.385	0.104	0.139
-321.070	800.000	-0.037	-0.124
-320.056	106.558	-0.142	0.170
-319.041	40.113	-0.158	0.143
-318.026	-44.213	-0.257	-0.130
-317.012	-77.394	0.116	0.040
-315.997	-200.000	-0.009	0.158
-314.983	800.000	-0.101	-0.334
-313.968	-11.149	0.154	-0.102
-312.953	81.614	-0.311	-0.338
-311.939	-63.813	0.434	0.179
-310.924	-112.363	-0.180	0.036
-309.910	-188.063	0.138	0.002
-308.895	175.110	-0.249	0.363
-307.880	32.814	0.090	-0.079
-306.866	-65.418	-0.163	-0.066
-305.851	-101.082	-0.137	0.034
-304.837	-28.772	-0.081	0.047
-303.822	-200.000	0.027	0.328
-302.807	50.614	-0.332	0.316
-301.793	43.176	-0.276	0.253
-300.778	61.451	0.273	0.273
-299.764	-135.026	-0.239	0.029
-298.749	-200.000	0.017	0.073
-297.735	-153.142	-0.118	0.008
-296.720	-47.534	0.493	0.241
-295.705	287.834	0.051	-0.093
-294.691	-57.313	0.215	0.095
-293.676	-51.303	0.132	-0.062
-292.662	-200.000	-0.010	0.325
-291.647	3.866	0.136	0.100
-290.632	-75.640	-0.138	-0.049
-289.618	-44.194	0.165	-0.083
-288.603	-65.478	0.313	-0.126
-287.589	-111.742	0.153	-0.031
-286.574	32.026	-0.077	-0.067
-285.559	-133.389	0.188	-0.024
-284.545	499.393	0.056	0.129
-283.530	12.633	-0.047	-0.036
-282.516	-46.508	0.304	-0.150
-281.501	-0.922	0.084	0.060
-280.486	28.094	0.129	-0.109
-279.472	42.995	0.147	-0.134
-278.457	-56.811	-0.146	0.065
-277.443	59.228	-0.127	0.126
-276.428	-200.000	0.012	-0.110
-275.413	-26.423	0.392	-0.231
-274.399	-104.636	0.159	0.037
-273.384	-146.918	0.309	0.027
-272.370	-22.562	0.404	-0.245
-271.355	10.078	0.108	-0.082
-270.340	-4.744	0.303	-0.210
-269.326	9.714	-0.224	0.171
-268.311	-13.628	-0.289	-0.188
-267.297	-19.642	0.337	0.209
-266.282	440.074	0.144	-0.317
-265.267	-167.303	0.095	-0.004
-264.253	180.403	-0.176	-0.259
-263.238	-89.119	-0.196	0.058
-262.224	-31.538	0.050	0.028
-261.209	-200.000	0.001	0.011
-260.195	12.213	0.202	0.156
-259.180	531.168	0.094	-0.223
-258.165	-3.728	0.240	-0.167
-257.151	112.521	-0.062	0.075
-256.136	-200.000	0.015	0.169
-255.122	-200.000	0.050	-0.306
-254.107	8.742	0.113	-0.085
-253.092	121.647	-0.075	0.094
-252.078	-108.089	0.057	-0.012
-251.063	58.571	-0.104	0.102
-250.049	-88.504	0.310	0.093
-249.034	474.823	-0.115	0.260
-248.019	130.866	0.174	0.224
-247.005	-140.883	0.185	-0.019
-245.990	39.978	-0.247	-0.222
-244.976	194.061	-0.049	0.075
-243.961	-110.403	-0.208	-0.043
-242.946	61.635	0.091	-0.091
-241.932	299.943	0.195	0.360
-240.917	-200.000	0.057	-0.277
-239.903	337.716	0.014	-0.028
-238.888	73.055	-0.193	0.202
-237.873	-10.110	-0.122	0.081
-236.859	800.000	0.043	0.158
-235.844	-23.572	-0.140	0.084
-234.830	-70.163	-0.283	0.108
-233.815	109.962	0.057	0.069
-232.800	-200.000	0.011	0.209
-231.786	308.603	0.127	0.238
-230.771	-24.190	-0.097	0.058
-229.757	225.302	0.118	0.192
-228.742	-142.072	0.263	0.026
-227.727	800.000	0.027	0.116
-226.713	-200.000	-0.021	-0.179
-225.698	-100.748	0.233	0.057
-224.684	-151.480	0.289	0.022
-223.669	-200.000	0.026	0.208
-222.655	84.810	-0.044	-0.049
-221.640	-200.000	-0.044	-0.252
-220.625	723.775	-0.027	-0.073
-219.611	-200.000	0.003	-0.150
-218.596	-160.534	-0.061	-0.003
-217.582	800.000	0.072	0.314
-216.567	64.807	-0.112	-0.114
-215.552	187.802	-0.248	-0.371
-214.538	-161.852	-0.193	0.010
-213.523	311.780	0.176	-0.331
-212.509	-200.000	-0.376	0.001
-211.494	800.000	0.023	-0.096
-210.479	-163.235	-0.204	-0.010
-209.465	47.138	-0.215	0.200
-208.450	-70.993	0.031	-0.012
-207.436	-52.648	-0.185	0.086
-206.421	-200.000	0.035	-0.156
-205.406	-63.483	-0.159	-0.066
-204.392	106.694	-0.223	0.265
-203.377	64.146	-0.201	-0.202
-202.363	-14.184	-0.067	-0.043
-201.348	-200.000	-0.006	0.128
-200.333	791.475	0.089	0.245
-199.319	-200.000	-0.088	0.426
-198.304	27.604	0.108	0.091
-197.290	-151.531	0.244	0.018
-196.275	-200.000	-0.003	0.026
-195.260	-12.305	0.247	-0.161
-194.246	-56.057	0.151	0.067
-193.231	-59.872	0.063	-0.027
-192.217	80.169	-0.200	0.215
-191.202	-32.497	0.190	0.106
-190.187	-200.000	0.006	0.031
-189.173	-76.671	0.284	0.100
-188.158	330.351	-0.197	0.380
-187.144	-167.834	-0.342	-0.013
-186.129	-18.875	-0.114	-0.071
-185.114	416.828	0.032	0.069
-184.100	660.419	-0.127	0.327
-183.085	161.346	-0.140	0.196
-182.071	-157.374	0.403	-0.024
-181.056	-19.622	0.319	0.197
-180.042	-140.619	-0.223	0.023
-179.027	57.562	0.247	-0.241
-178.012	800.000	0.060	-0.257
-176.998	800.000	0.077	-0.336
-175.983	800.000	-0.010	-0.045
-174.969	-200.000	-0.371	0.000
-173.954	-200.000	0.048	-0.251
-172.939	-200.000	0.024	-0.179
-171.925	-200.000	0.006	0.049
-170.910	304.735	0.075	-0.140
-169.896	-200.000	0.029	-0.351
-168.881	-155.429	-0.159	0.010
-167.866	-16.393	0.288	0.183
-166.852	800.000	0.026	-0.091
-165.837	174.157	-0.067	0.097
-164.823	317.367	0.072	0.137
-163.808	-132.668	0.222	0.028
-162.793	118.640	-0.218	0.269
-161.779	51.796	0.113	0.108
-160.764	-200.000	-0.046	-0.483
-159.750	219.453	0.210	-0.336
-158.735	-200.000	0.016	-0.388
-157.720	-112.777	-0.071	-0.014
-156.706	-127.820	-0.175	0.025
-155.691	-51.633	0.206	-0.096
-154.677	-200.000	-0.058	-0.270
-153.662	214.208	0.191	0.302
-152.647	17.422	-0.134	0.106
-151.633	24.242	-0.218	0.180
-150.618	-0.557	0.041	0.029
-149.604	101.884	-0.142	-0.165
-148.589	-14.573	0.063	0.041
-147.574	188.587	0.103	-0.155
-146.560	-68.570	0.173	0.067
-145.545	-171.755	0.140	-0.005
-144.531	-200.000	0.038	0.170
-143.516	800.000	0.041	0.176
-142.502	652.838	-0.044	0.112
-141.487	-67.433	-0.109	-0.043
-140.472	156.321	-0.114	0.156
-139.458	16.643	-0.174	0.137
-138.443	-200.000	0.037	-0.186
-137.429	16.699	0.143	-0.113
-136.414	-164.962	0.382	-0.017
-135.399	-173.818	0.275	-0.008
-134.385	-14.871	-0.161	0.103
-133.370	-47.111	-0.062	-0.030
-132.356	-128.710	0.324	0.046
-131.341	-7.538	-0.054	0.036
-130.326	-200.000	0.052	-0.358
-129.312	45.867	0.124	-0.115
-128.297	-200.000	0.064	0.315
-127.283	47.852	0.221	-0.206
-126.268	5.657	0.078	-0.057
-125.253	-90.976	0.225	0.065
-124.239	-200.000	-0.037	-0.268
-123.224	-112.450	0.366	-0.073
-122.210	-73.768	-0.086	-0.031
-121.195	249.917	0.155	-0.262
