DTS Sentinel unit serial number:	SN413079Multiplexer serial number:	ORYXHardware model number:	OX4-SRSoftware version number:	ORYX F/W v4.00 Oryx Data Collector v3.7.2.0data status	okinstallation	princeton_trtdifferential loss correction	single-endedforward channel	channel 4reverse channel	N/Adate	2019/09/10time	16:47:11forward acquisition time	60.00reverse acquisition time	0.00gamma	496.2192k internal	0.2297k external	0.2297temperature offset calibration	0.9939default loss term (dB/km)	0.3790temperature slope calibration	1.0000multiplexer offset coefficient	1.0000multiplexer slope coefficient	1.0000fibre end	0.00T internal ref (°C)	37.64T ext. ref 1 (°C)	-0.33T ext. ref 2 (°C)	31.06length (m)	temperature (°C)	Stokes	anti-Stokes-747.200	-39.152	-0.283	-0.152
-746.185	800.000	0.091	0.286
-745.171	70.671	-0.076	0.081
-744.156	-23.086	-0.181	0.111
-743.142	57.458	0.153	-0.152
-742.127	26.967	0.197	0.168
-741.112	-135.263	0.510	-0.062
-740.098	589.113	-0.043	-0.107
-739.083	-200.000	0.018	0.224
-738.069	-200.000	-0.028	0.367
-737.054	183.255	0.075	0.113
-736.039	-149.032	-0.522	-0.043
-735.025	289.300	0.301	0.558
-734.010	38.106	-0.420	0.382
-732.996	69.190	-0.427	-0.448
-731.981	-108.080	-0.147	-0.033
-730.966	141.805	0.176	0.238
-729.952	800.000	0.036	0.153
-728.937	800.000	0.085	-0.243
-727.923	800.000	-0.029	-0.124
-726.908	164.454	-0.185	-0.266
-725.894	-97.196	0.203	0.054
-724.879	-129.543	-0.091	0.013
-723.864	-119.973	-0.334	0.058
-722.850	-39.396	0.286	-0.153
-721.835	-2.312	-0.132	0.094
-720.821	50.698	-0.228	-0.220
-719.806	87.718	0.245	-0.277
-718.791	-200.000	-0.028	-0.328
-717.777	209.003	0.178	-0.285
-716.762	-70.593	0.214	-0.083
-715.748	-106.748	-0.069	-0.016
-714.733	-128.970	-0.162	0.023
-713.718	85.058	0.212	0.237
-712.704	-130.485	0.075	0.010
-711.689	-81.014	0.310	-0.105
-710.675	-147.387	0.343	-0.030
-709.660	-200.000	-0.029	-0.338
-708.645	-30.455	-0.129	0.074
-707.631	-5.392	0.171	0.120
-706.616	-175.494	0.450	-0.012
-705.602	800.000	-0.164	-0.587
-704.587	800.000	0.041	0.130
-703.572	-45.037	-0.165	-0.084
-702.558	-68.802	-0.045	0.018
-701.543	-0.887	-0.282	0.204
-700.529	-90.995	0.259	-0.076
-699.514	-200.000	0.012	-0.221
-698.499	-2.977	-0.099	-0.071
-697.485	130.196	0.241	-0.314
-696.470	188.672	0.051	-0.078
-695.456	261.346	-0.027	0.048
-694.441	-41.424	-0.188	-0.099
-693.426	-55.512	-0.342	-0.156
-692.412	-137.480	0.077	0.009
-691.397	16.030	0.100	0.080
-690.383	24.240	-0.183	0.154
-689.368	265.502	0.040	-0.071
-688.354	-155.900	0.246	0.016
-687.339	-197.097	0.190	-0.001
-686.324	-112.177	-0.258	-0.053
-685.310	800.000	0.105	-0.305
-684.295	-64.869	-0.229	-0.094
-683.281	-14.896	-0.106	-0.069
-682.266	91.490	-0.097	-0.111
-681.251	-17.311	0.133	-0.085
-680.237	369.247	0.119	-0.246
-679.222	62.677	0.106	-0.108
-678.208	118.079	-0.221	-0.277
-677.193	-200.000	-0.006	-0.243
-676.178	183.709	-0.140	0.210
-675.164	322.302	-0.045	0.088
-674.149	800.000	-0.104	-0.306
-673.135	201.878	0.078	-0.122
-672.120	-96.864	0.092	0.025
-671.105	-32.790	-0.310	-0.175
-670.091	14.253	0.108	-0.086
-669.076	47.510	-0.271	0.258
-668.062	481.324	0.034	0.080
-667.047	-65.558	-0.088	-0.036
-666.032	800.000	0.015	0.065
-665.018	38.311	0.163	-0.148
-664.003	-46.945	0.241	0.120
-662.989	-200.000	-0.041	0.184
-661.974	112.278	-0.102	0.126
-660.959	-171.260	-0.240	-0.008
-659.945	-200.000	0.001	-0.406
-658.930	113.988	-0.104	0.129
-657.916	60.666	0.204	0.206
-656.901	-200.000	-0.002	0.271
-655.886	13.584	0.069	0.055
-654.872	284.662	0.158	-0.289
-653.857	-145.388	0.190	0.017
-652.843	32.181	0.075	0.065
-651.828	-19.006	0.061	-0.038
-650.814	-95.672	0.172	-0.047
-649.799	46.955	0.169	-0.160
-648.784	800.000	0.057	0.191
-647.770	53.755	-0.294	-0.287
-646.755	-200.000	-0.027	-0.129
-645.741	-176.814	0.156	-0.004
-644.726	95.196	-0.120	-0.139
-643.711	800.000	-0.019	-0.059
-642.697	-200.000	-0.021	-0.111
-641.682	800.000	-0.106	-0.315
-640.668	52.072	-0.113	0.109
-639.653	-121.811	-0.200	-0.034
-638.638	98.227	0.170	0.199
-637.624	179.983	0.011	-0.017
-636.609	-65.024	-0.133	0.054
-635.595	-26.841	-0.243	-0.144
-634.580	800.000	0.115	-0.325
-633.565	145.193	0.195	0.265
-632.551	500.014	-0.056	0.131
-631.536	62.056	-0.057	0.058
-630.522	230.350	0.042	0.070
-629.507	-3.328	0.125	-0.089
-628.492	800.000	0.062	-0.202
-627.478	115.237	-0.177	-0.220
-626.463	181.685	-0.119	0.179
-625.449	-149.398	0.155	-0.012
-624.434	16.384	-0.100	-0.081
-623.419	84.002	-0.236	0.262
-622.405	800.000	-0.048	-0.163
-621.390	17.716	-0.002	-0.002
-620.376	97.310	-0.017	-0.020
-619.361	0.334	0.123	0.089
-618.346	-30.568	0.027	-0.016
-617.332	86.683	-0.081	0.091
-616.317	-47.040	-0.043	-0.021
-615.303	-88.777	0.244	0.074
-614.288	-52.623	-0.150	-0.070
-613.273	800.000	0.018	-0.061
-612.259	387.650	0.105	-0.220
-611.244	-200.000	0.036	0.245
-610.230	-200.000	0.022	0.313
-609.215	-63.975	-0.432	0.179
-608.201	800.000	-0.080	0.353
-607.186	-89.438	-0.230	-0.069
-606.171	233.485	-0.119	-0.200
-605.157	206.070	-0.061	0.097
-604.142	394.508	-0.046	0.098
-603.128	114.756	-0.161	-0.199
-602.113	-200.000	0.020	0.186
-601.098	706.170	0.083	-0.222
-600.084	16.993	-0.050	0.041
-599.069	-88.190	-0.224	-0.068
-598.055	800.000	0.057	-0.177
-597.040	-200.000	-0.018	0.252
-596.025	-60.427	-0.233	0.101
-595.011	146.902	0.010	-0.013
-593.996	-101.582	-0.198	-0.049
-592.982	374.358	0.195	-0.404
-591.967	2.228	0.163	-0.120
-590.952	-113.632	-0.079	0.016
-589.938	59.493	0.237	-0.237
-588.923	-200.000	0.025	-0.172
-587.909	19.578	-0.307	0.251
-586.894	119.800	-0.059	0.075
-585.879	-62.937	-0.323	-0.135
-584.865	-200.000	-0.017	0.244
-583.850	402.370	0.033	0.070
-582.836	45.661	0.084	-0.079
-581.821	571.817	0.019	-0.047
-580.806	62.872	0.252	-0.256
-579.792	800.000	-0.054	0.151
-578.777	-200.000	-0.092	0.653
-577.763	107.310	0.107	0.129
-576.748	105.335	0.211	0.253
-575.733	303.344	0.019	-0.036
-574.719	64.431	0.203	-0.208
-573.704	-200.000	-0.001	-0.165
-572.690	-36.845	-0.309	0.168
-571.675	-73.305	-0.213	0.079
-570.661	-136.832	-0.460	0.054
-569.646	800.000	0.037	0.111
-568.631	269.354	-0.199	-0.354
-567.617	-100.358	0.532	-0.134
-566.602	391.594	-0.051	-0.107
-565.588	214.751	-0.208	-0.334
-564.573	186.183	-0.146	0.221
-563.558	-125.333	-0.312	0.048
-562.544	-93.524	0.144	0.040
-561.529	64.471	-0.280	0.287
-560.515	-147.205	-0.110	-0.010
-559.500	122.080	-0.026	-0.033
-558.485	-164.507	0.128	0.006
-557.471	-9.128	0.275	0.186
-556.456	-200.000	0.034	-0.346
-555.442	13.504	-0.110	-0.087
-554.427	-50.740	-0.276	-0.132
-553.412	-76.013	-0.295	0.106
-552.398	35.044	-0.189	-0.168
-551.383	329.731	-0.073	0.142
-550.369	-56.223	0.470	0.212
-549.354	34.138	-0.169	-0.149
-548.339	-149.716	0.139	0.011
-547.325	-200.000	0.009	0.209
-546.310	-200.000	-0.031	-0.222
-545.296	242.374	0.158	-0.269
-544.281	-97.807	-0.232	0.061
-543.266	352.798	-0.035	-0.071
-542.252	-95.353	-0.372	0.101
-541.237	217.141	-0.068	0.111
-540.223	800.000	0.060	-0.211
-539.208	-200.000	-0.022	-0.157
-538.193	13.143	-0.113	0.088
-537.179	-200.000	0.051	0.322
-536.164	-30.763	-0.321	-0.184
-535.150	800.000	-0.085	-0.303
-534.135	-200.000	0.094	0.444
-533.121	124.975	0.239	0.304
-532.106	130.258	-0.139	0.180
-531.091	-73.350	-0.392	0.145
-530.077	-200.000	-0.003	0.089
-529.062	63.773	0.029	-0.029
-528.048	108.854	-0.076	0.092
-527.033	-17.157	-0.225	0.144
-526.018	-119.076	0.234	-0.042
-525.004	6.210	-0.247	0.185
-523.989	-30.672	0.234	-0.134
-522.975	-43.898	0.392	-0.200
-521.960	140.158	0.027	-0.036
-520.945	-32.001	-0.106	-0.060
-519.931	-111.357	0.123	0.025
-518.916	56.788	0.014	0.014
-517.902	240.749	-0.115	0.195
-516.887	199.269	-0.073	-0.113
-515.872	6.281	0.284	-0.214
-514.858	-47.472	-0.522	0.257
-513.843	118.357	-0.057	0.071
-512.829	101.144	-0.090	0.107
-511.814	18.461	0.196	-0.158
-510.799	800.000	0.081	-0.330
-509.785	94.227	0.054	0.062
-508.770	1.504	0.192	-0.140
-507.756	390.251	-0.177	0.371
-506.741	800.000	-0.070	-0.271
-505.726	-106.560	-0.135	0.030
-504.712	800.000	-0.079	0.223
-503.697	-132.080	0.388	-0.051
-502.683	288.987	0.183	-0.335
-501.668	-158.588	0.189	-0.011
-500.653	-93.991	-0.150	-0.042
-499.639	-200.000	-0.036	0.178
-498.624	800.000	0.031	-0.089
-497.610	-200.000	0.005	-0.125
-496.595	800.000	-0.044	0.127
-495.581	42.018	-0.208	-0.191
-494.566	-180.541	0.146	0.003
-493.551	-117.821	-0.101	0.018
-492.537	13.811	0.088	0.069
-491.522	-200.000	0.005	0.230
-490.508	2.809	0.394	-0.289
-489.493	-39.273	-0.125	0.066
-488.478	-27.306	-0.092	-0.054
-487.464	-125.068	-0.191	-0.030
-486.449	-44.423	-0.196	0.099
-485.435	-121.970	-0.506	-0.084
-484.420	-152.453	-0.295	0.021
-483.405	96.356	-0.153	-0.177
-482.391	-200.000	-0.022	0.112
-481.376	-200.000	0.039	0.304
-480.362	800.000	-0.034	0.150
-479.347	-35.109	-0.168	0.092
-478.332	71.111	0.048	-0.050
-477.318	800.000	0.086	-0.293
-476.303	-63.328	-0.035	-0.014
-475.289	-142.067	-0.348	0.035
-474.274	-75.036	0.087	-0.031
-473.259	146.270	0.222	-0.301
-472.245	533.298	-0.144	-0.345
-471.230	48.511	0.099	-0.093
-470.216	-79.333	0.066	0.023
-469.201	-145.811	0.053	-0.005
-468.186	800.000	0.056	-0.167
-467.172	462.542	0.010	0.022
-466.157	149.340	0.140	0.192
-465.143	255.396	-0.015	-0.026
-464.128	398.762	0.055	-0.115
-463.113	-124.420	0.311	-0.049
-462.099	800.000	-0.091	0.335
-461.084	-118.981	0.244	-0.043
-460.070	-193.802	-0.216	-0.002
-459.055	-61.794	-0.376	-0.159
-458.040	-148.787	0.325	0.027
-457.026	800.000	0.025	-0.077
-456.011	728.950	-0.027	0.073
-454.997	454.567	-0.224	-0.502
-453.982	800.000	-0.041	0.168
-452.968	-37.417	0.236	0.127
-451.953	11.072	-0.100	0.077
-450.938	-64.409	-0.426	0.175
-449.924	800.000	0.046	0.191
-448.909	73.004	0.259	0.273
-447.895	77.551	-0.049	0.052
-446.880	800.000	-0.020	-0.068
-445.865	800.000	-0.095	-0.378
-444.851	232.025	-0.203	-0.337
-443.836	-154.266	0.345	0.024
-442.822	-28.659	0.200	0.116
-441.807	226.307	-0.148	-0.243
-440.792	-97.068	0.206	-0.054
-439.778	-16.870	-0.051	-0.033
-438.763	-200.000	-0.015	0.137
-437.749	26.225	-0.192	0.162
-436.734	-200.000	0.276	-0.000
-435.719	150.782	-0.255	-0.350
-434.705	15.807	0.119	-0.094
-433.690	800.000	-0.042	-0.171
-432.676	-58.958	-0.181	0.079
-431.661	800.000	-0.101	0.309
-430.646	-29.803	-0.193	0.111
-429.632	-78.892	-0.168	-0.058
-428.617	156.727	0.298	-0.415
-427.603	-64.868	-0.153	-0.062
-426.588	0.907	-0.304	0.220
-425.573	800.000	0.070	0.267
-424.559	-200.000	-0.014	-0.163
-423.544	-165.723	-0.222	-0.010
-422.530	602.932	-0.094	0.235
-421.515	-39.911	0.121	0.064
-420.500	-54.691	-0.087	-0.040
-419.486	93.275	0.126	-0.143
-418.471	199.268	0.029	0.044
-417.457	-51.560	0.047	0.022
-416.442	-46.867	-0.063	0.031
-415.428	-200.000	0.006	0.056
-414.413	-69.920	0.318	0.122
-413.398	42.146	0.089	-0.081
-412.384	-163.959	0.331	0.016
-411.369	295.589	-0.133	0.246
-410.355	-39.666	0.097	0.051
-409.340	-48.895	0.196	-0.095
-408.325	233.516	0.085	-0.141
-407.311	-16.575	0.252	0.161
-406.296	17.503	0.387	-0.310
-405.282	-200.000	0.028	0.268
-404.267	2.618	-0.053	-0.039
-403.252	12.437	-0.058	0.045
-402.238	-78.808	0.254	-0.087
-401.223	-146.037	0.144	-0.013
-400.209	-200.000	0.002	0.074
-399.194	655.136	-0.161	0.416
-398.179	276.885	0.191	0.342
-397.165	-0.416	0.174	0.124
-396.150	-148.002	0.408	0.034
-395.136	399.591	-0.106	0.223
-394.121	-34.325	0.166	-0.091
-393.106	14.555	0.117	-0.092
-392.092	254.337	-0.009	0.016
-391.077	156.626	0.084	0.117
-390.063	-200.000	-0.039	-0.198
-389.048	-40.233	-0.332	-0.174
-388.033	340.995	-0.143	-0.282
-387.019	-84.332	-0.193	-0.061
-386.004	445.262	0.038	-0.083
-384.990	800.000	0.034	0.097
-383.975	-99.165	0.065	-0.017
-382.960	30.413	0.134	-0.115
-381.946	-61.875	0.062	-0.026
-380.931	-200.000	0.015	0.072
-379.917	-20.838	0.306	-0.189
-378.902	-200.000	0.010	0.098
-377.888	-200.000	0.042	-0.263
-376.873	800.000	0.064	0.195
-375.858	-60.507	0.246	-0.105
-374.844	212.894	-0.094	-0.150
-373.829	-68.847	0.389	-0.151
-372.815	-121.641	-0.486	-0.081
-371.800	259.825	-0.092	0.161
-370.785	54.610	0.072	0.070
-369.771	84.778	0.294	0.324
-368.756	47.326	-0.236	0.221
-367.742	-200.000	0.063	0.324
-366.727	-57.804	-0.222	0.098
-365.712	-56.437	-0.322	-0.144
-364.698	-25.529	-0.432	-0.257
-363.683	158.670	-0.193	0.270
-362.669	22.979	0.038	0.031
-361.654	800.000	0.031	-0.095
-360.639	14.023	-0.176	-0.137
-359.625	-33.537	-0.248	0.138
-358.610	-75.663	0.331	0.118
-357.596	-59.769	0.036	-0.015
-356.581	-69.876	0.221	-0.085
-355.566	800.000	-0.033	-0.114
-354.552	123.999	0.122	-0.154
-353.537	800.000	0.055	0.163
-352.523	61.529	0.145	0.145
-351.508	-131.762	0.134	-0.018
-350.493	28.368	-0.056	0.047
-349.479	692.886	-0.128	0.338
-348.464	-53.753	-0.254	-0.117
-347.450	-8.291	-0.161	-0.109
-346.435	-200.000	-0.013	-0.231
-345.420	106.182	-0.306	0.364
-344.406	-78.963	-0.060	0.021
-343.391	-116.075	0.226	-0.042
-342.377	-200.000	0.024	0.287
-341.362	41.410	-0.276	-0.251
-340.348	-110.902	-0.361	-0.075
-339.333	334.447	0.039	-0.076
-338.318	-151.657	-0.079	-0.006
-337.304	334.115	0.157	0.305
-336.289	-56.235	0.114	-0.051
-335.275	666.907	-0.215	-0.559
-334.260	-200.000	0.022	0.259
-333.245	-200.000	-0.029	-0.131
-332.231	800.000	-0.037	-0.136
-331.216	800.000	0.092	-0.310
-330.202	32.615	0.360	0.313
-329.187	53.851	0.187	-0.180
-328.172	173.435	-0.212	-0.307
-327.158	6.304	-0.158	0.118
-326.143	-128.547	0.289	0.041
-325.129	29.526	-0.094	-0.080
-324.114	-128.364	-0.452	-0.065
-323.099	-69.878	0.419	-0.160
-322.085	63.201	0.230	0.232
-321.070	-80.579	-0.148	0.049
-320.056	-151.422	-0.215	-0.016
-319.041	90.760	-0.320	0.360
-318.026	-200.000	-0.046	-0.204
-317.012	567.463	-0.083	-0.203
-315.997	-67.319	0.231	-0.091
-314.983	800.000	0.023	0.065
-313.968	15.930	0.116	-0.092
-312.953	455.477	-0.057	0.128
-311.939	-200.000	0.050	0.379
-310.924	62.432	-0.166	0.167
-309.910	-124.030	0.312	0.049
-308.895	-4.593	-0.039	-0.027
-307.880	153.133	0.070	0.096
-306.866	33.559	0.139	-0.121
-305.851	517.624	-0.126	-0.297
-304.837	-24.189	-0.220	-0.132
-303.822	-68.849	-0.311	0.121
-302.807	-39.764	0.215	-0.113
-301.793	-184.477	-0.314	0.005
-300.778	291.728	0.170	0.310
-299.764	800.000	0.152	-0.494
-298.749	-200.000	-0.022	0.428
-297.735	-116.335	-0.227	0.042
-296.720	-69.604	0.442	0.170
-295.705	-96.722	0.285	0.075
-294.691	800.000	0.030	-0.099
-293.676	240.414	-0.135	-0.225
-292.662	-126.861	0.149	0.022
-291.647	105.160	0.156	-0.185
-290.632	87.732	0.129	0.143
-289.618	-1.338	0.285	-0.202
-288.603	-143.722	0.304	-0.029
-287.589	-55.974	0.247	0.110
-286.574	33.442	-0.174	-0.152
-285.559	-138.116	-0.205	-0.023
-284.545	-10.444	-0.081	-0.054
-283.530	-30.920	0.351	-0.199
-282.516	56.759	0.111	-0.108
-281.501	-61.237	-0.207	-0.088
-280.486	119.234	0.091	0.112
-279.472	-200.000	-0.020	-0.108
-278.457	44.158	-0.127	0.117
-277.443	-200.000	0.014	-0.079
-276.428	56.676	-0.088	-0.086
-275.413	800.000	0.088	-0.258
-274.399	114.328	-0.283	-0.346
-273.384	-200.000	0.057	0.333
-272.370	-77.201	-0.156	0.054
-271.355	800.000	0.074	0.220
-270.340	-96.485	0.101	-0.027
-269.326	800.000	0.014	-0.044
-268.311	413.218	0.115	-0.244
-267.297	-200.000	-0.063	0.319
-266.282	131.984	-0.075	-0.097
-265.267	-49.485	0.390	-0.187
-264.253	470.466	0.115	0.259
-263.238	-200.000	0.020	0.197
-262.224	6.976	-0.303	0.226
-261.209	-200.000	-0.016	0.256
-260.195	45.798	-0.082	0.076
-259.180	232.124	0.216	-0.355
-258.165	-200.000	-0.030	-0.223
-257.151	-44.832	0.286	-0.143
-256.136	325.208	0.101	0.194
-255.122	-108.782	0.086	0.018
-254.107	48.248	-0.185	-0.174
-253.092	-42.036	0.492	-0.252
-252.078	27.741	0.273	0.231
-251.063	-41.619	0.206	0.106
-250.049	222.615	0.158	0.255
-249.034	-113.913	0.343	0.067
-248.019	800.000	-0.095	0.276
-247.005	-200.000	-0.000	-0.158
-245.990	800.000	-0.051	-0.162
-244.976	-98.607	0.304	0.078
-243.961	-22.257	-0.198	0.120
-242.946	335.591	-0.130	-0.253
-241.932	-200.000	0.020	-0.219
-240.917	-147.776	-0.063	-0.005
-239.903	-96.190	-0.077	0.020
-238.888	800.000	-0.016	0.049
-237.873	-200.000	-0.013	-0.279
-236.859	639.899	-0.155	-0.396
-235.844	30.213	0.132	-0.113
-234.830	-50.525	-0.404	-0.191
-233.815	-200.000	-0.027	-0.247
-232.800	-200.000	-0.004	-0.037
-231.786	-117.001	-0.210	0.038
-230.771	-160.679	-0.243	-0.013
-229.757	335.340	0.164	0.317
-228.742	-127.789	0.119	-0.017
-227.727	-200.000	-0.057	-0.256
-226.713	-122.508	0.294	-0.048
-225.698	-33.172	-0.304	-0.169
-224.684	-200.000	-0.004	-0.559
-223.669	34.574	0.128	-0.112
-222.655	800.000	-0.084	0.306
-221.640	142.894	0.123	0.163
-220.625	-200.000	-0.023	-0.140
-219.611	594.203	0.127	-0.313
-218.596	-72.730	0.158	-0.058
-217.582	-68.401	0.142	-0.055
-216.567	800.000	-0.028	-0.107
-215.552	725.160	-0.070	0.187
-214.538	414.392	-0.056	0.120
-213.523	800.000	0.063	-0.260
-212.509	35.012	0.059	-0.052
-211.494	316.553	0.209	0.394
-210.479	-200.000	-0.068	0.320
-209.465	800.000	-0.067	0.285
-208.450	-42.200	0.312	0.159
-207.436	800.000	0.067	-0.293
-206.421	173.360	0.159	0.229
-205.406	-200.000	-0.041	0.217
-204.392	-200.000	0.018	0.418
-203.377	140.372	-0.224	0.296
-202.363	197.001	-0.085	-0.130
-201.348	-137.682	0.230	0.026
-200.333	-117.025	-0.317	-0.058
-199.319	521.637	-0.080	0.189
-198.304	57.656	0.116	-0.113
-197.290	-57.549	0.024	0.011
-196.275	87.196	-0.175	0.194
-195.260	71.059	0.136	0.141
-194.246	135.714	0.144	-0.187
-193.231	783.287	-0.064	0.176
-192.217	31.845	-0.147	0.127
-191.202	-23.551	-0.074	0.044
-190.187	-65.361	0.314	-0.126
-189.173	245.394	0.083	-0.139
-188.158	88.288	0.134	-0.149
-187.144	148.812	0.029	-0.039
-186.129	-200.000	0.013	-0.104
-185.114	-21.236	0.136	-0.083
-184.100	-109.180	0.334	0.071
-183.085	800.000	0.045	0.141
-182.071	71.953	0.137	0.143
-181.056	38.346	0.213	0.190
-180.042	-200.000	0.002	-0.059
-179.027	-55.457	-0.323	0.145
-178.012	14.162	-0.258	0.201
-176.998	-142.898	0.084	-0.008
-175.983	-68.602	0.129	0.050
-174.969	19.377	-0.252	-0.202
-173.954	-70.808	0.392	0.148
-172.939	800.000	0.054	0.196
-171.925	-92.073	0.293	0.083
-170.910	366.518	0.096	0.193
-169.896	58.995	0.181	-0.178
-168.881	404.544	-0.073	-0.154
-167.866	800.000	-0.012	-0.045
-166.852	-175.996	0.186	-0.005
-165.837	-185.366	0.228	0.004
-164.823	-200.000	0.058	0.282
-163.808	-52.220	0.185	-0.085
-162.793	90.029	-0.156	-0.174
-161.779	-19.719	0.270	-0.167
-160.764	-123.255	-0.279	-0.045
-159.750	23.536	0.143	0.117
-158.735	576.955	0.071	0.174
-157.720	-171.984	0.308	-0.010
-156.706	-96.867	-0.260	-0.068
-155.691	51.708	-0.280	0.266
-154.677	-128.298	0.294	0.042
-153.662	-97.914	-0.531	0.137
-152.647	312.275	-0.021	0.040
-151.633	-189.807	-0.096	-0.001
-150.618	562.463	-0.044	-0.106
-149.604	316.992	-0.071	-0.134
-148.589	27.605	0.260	-0.219
-147.574	16.302	-0.045	-0.035
-146.560	-200.000	0.011	-0.219
-145.545	608.265	-0.076	-0.189
-144.531	800.000	0.089	-0.325
-143.516	-30.336	-0.460	-0.260
-142.502	48.757	-0.169	-0.158
-141.487	-200.000	0.003	0.244
-140.472	800.000	0.073	-0.235
-139.458	-200.000	0.043	0.519
-138.443	335.806	0.052	-0.101
-137.429	102.595	0.065	-0.076
-136.414	800.000	-0.065	0.227
-135.399	-200.000	-0.004	-0.193
-134.385	307.327	-0.049	-0.091
-133.370	314.655	0.184	-0.346
-132.356	-19.272	0.206	-0.128
-131.341	-200.000	-0.017	0.128
-130.326	29.371	0.182	0.155
-129.312	59.257	0.192	0.188
-128.297	-123.681	0.279	-0.044
-127.283	37.545	-0.222	-0.196
-126.268	800.000	0.080	0.323
-125.253	305.742	0.142	0.264
-124.239	6.601	-0.085	-0.063
-123.224	267.957	0.013	-0.022
-122.210	-200.000	0.006	0.033
-121.195	-200.000	0.014	0.192
-120.180	-22.037	0.430	-0.260
