DTS Sentinel unit serial number:	SN413079Multiplexer serial number:	ORYXHardware model number:	OX4-SRSoftware version number:	ORYX F/W v4.00 Oryx Data Collector v3.7.2.0data status	okinstallation	princeton_trtdifferential loss correction	single-endedforward channel	channel 4reverse channel	N/Adate	2019/09/16time	09:25:35forward acquisition time	60.00reverse acquisition time	0.00gamma	496.2192k internal	0.2306k external	0.2306temperature offset calibration	0.9969default loss term (dB/km)	0.3790temperature slope calibration	1.0000multiplexer offset coefficient	1.0000multiplexer slope coefficient	1.0000fibre end	0.00T internal ref (°C)	31.61T ext. ref 1 (°C)	12.18T ext. ref 2 (°C)	29.25length (m)	temperature (°C)	Stokes	anti-Stokes-747.200	-137.303	0.183	-0.021
-746.185	266.047	-0.059	0.104
-745.171	736.002	-0.091	0.248
-744.156	-124.482	0.169	-0.027
-743.142	220.718	0.031	0.051
-742.127	-90.701	0.061	0.018
-741.112	-125.098	-0.393	0.061
-740.098	111.264	0.289	0.354
-739.083	-200.000	0.015	-0.329
-738.069	-200.000	-0.006	0.300
-737.054	252.323	-0.200	0.346
-736.039	-200.000	-0.007	-0.034
-735.025	304.033	0.174	-0.329
-734.010	696.489	0.032	-0.086
-732.996	245.233	0.052	-0.089
-731.981	-130.324	-0.339	-0.047
-730.966	-46.042	0.308	0.154
-729.952	744.571	-0.090	-0.246
-728.937	578.971	-0.094	-0.233
-727.923	-200.000	0.011	0.090
-726.908	67.777	0.188	-0.195
-725.894	-10.859	-0.308	-0.207
-724.879	-200.000	0.030	0.204
-723.864	-200.000	0.027	0.131
-722.850	-30.300	-0.101	-0.059
-721.835	724.422	0.061	-0.164
-720.821	-200.000	0.019	0.089
-719.806	-196.708	0.161	-0.001
-718.791	800.000	-0.106	-0.329
-717.777	800.000	0.122	-0.396
-716.762	152.678	-0.114	-0.158
-715.748	-47.619	-0.102	0.050
-714.733	-176.360	0.207	-0.005
-713.718	409.118	0.049	0.106
-712.704	169.457	-0.143	0.208
-711.689	390.767	-0.022	-0.046
-710.675	-132.847	-0.408	-0.053
-709.660	-101.430	-0.030	0.007
-708.645	31.038	0.187	-0.163
-707.631	800.000	0.061	-0.234
-706.616	98.961	-0.044	-0.052
-705.602	135.446	0.268	-0.354
-704.587	74.994	0.096	0.103
-703.572	98.830	-0.256	-0.300
-702.558	451.630	0.188	-0.423
-701.543	800.000	0.054	0.239
-700.529	463.345	-0.089	0.201
-699.514	203.692	-0.132	-0.208
-698.499	128.058	0.060	-0.077
-697.485	-200.000	-0.022	-0.302
-696.470	569.510	0.154	-0.381
-695.456	-20.192	0.126	0.079
-694.441	-134.144	-0.528	0.066
-693.426	800.000	0.038	0.110
-692.412	-200.000	-0.017	-0.305
-691.397	115.312	-0.116	0.144
-690.383	-107.657	0.421	-0.093
-689.368	286.623	0.112	0.205
-688.354	-87.978	0.266	0.081
-687.339	107.568	-0.133	0.160
-686.324	-200.000	-0.003	-0.089
-685.310	-35.338	-0.323	-0.178
-684.295	-123.184	0.142	-0.023
-683.281	-142.893	0.308	0.030
-682.266	367.478	-0.046	0.094
-681.251	-75.254	-0.153	-0.055
-680.237	41.044	0.207	-0.189
-679.222	458.578	0.108	-0.244
-678.208	-48.028	0.176	0.086
-677.193	447.869	0.059	0.132
-676.178	-78.757	-0.122	-0.042
-675.164	800.000	-0.047	0.169
-674.149	397.504	0.313	-0.663
-673.135	132.702	0.143	-0.187
-672.120	203.479	0.060	0.095
-671.105	-124.013	0.250	0.040
-670.091	800.000	-0.069	-0.276
-669.076	800.000	-0.057	-0.166
-668.062	138.206	-0.052	0.070
-667.047	-65.059	0.099	-0.040
-666.032	226.238	-0.109	0.180
-665.018	-174.021	0.447	0.013
-664.003	-70.691	0.095	-0.036
-662.989	-111.770	0.215	0.044
-661.974	800.000	-0.050	-0.141
-660.959	111.653	-0.144	-0.176
-659.945	561.947	-0.070	0.171
-658.930	121.678	-0.167	0.211
-657.916	311.268	0.079	-0.150
-656.901	64.057	-0.271	0.276
-655.886	-27.951	-0.089	0.052
-654.872	74.645	0.268	-0.286
-653.857	-150.013	0.526	0.042
-652.843	-70.372	-0.124	-0.048
-651.828	800.000	0.049	0.166
-650.814	-107.509	-0.290	0.064
-649.799	478.197	-0.032	0.074
-648.784	-97.933	-0.170	-0.044
-647.770	106.055	-0.164	-0.197
-646.755	649.671	-0.023	-0.060
-645.741	-101.293	-0.090	0.022
-644.726	136.095	0.159	0.210
-643.711	-97.795	-0.439	-0.115
-642.697	-77.766	-0.144	-0.051
-641.682	0.604	0.198	-0.143
-640.668	800.000	-0.054	0.226
-639.653	800.000	0.091	0.257
-638.638	-25.961	0.120	-0.071
-637.624	360.897	0.222	-0.450
-636.609	-149.402	-0.220	0.018
-635.595	120.702	0.240	0.302
-634.580	-152.404	-0.330	-0.024
-633.565	-172.661	-0.042	-0.001
-632.551	-170.100	0.130	0.005
-631.536	-146.126	0.264	-0.024
-630.522	800.000	0.038	-0.159
-629.507	461.272	0.037	0.084
-628.492	800.000	0.086	0.248
-627.478	-200.000	-0.042	0.283
-626.463	-200.000	-0.085	-0.386
-625.449	68.067	0.194	-0.201
-624.434	-62.330	0.037	-0.016
-623.419	55.950	-0.210	0.206
-622.405	-115.671	-0.281	-0.053
-621.390	-165.373	-0.350	-0.016
-620.376	-13.746	-0.190	-0.124
-619.361	79.077	0.117	0.127
-618.346	-161.207	0.278	0.015
-617.332	-46.076	-0.470	0.234
-616.317	-200.000	-0.001	0.040
-615.303	178.924	0.079	-0.117
-614.288	-167.221	0.168	-0.007
-613.273	800.000	-0.063	-0.277
-612.259	60.863	0.176	0.176
-611.244	-83.271	0.345	0.112
-610.230	40.176	-0.283	0.257
-609.215	-33.046	-0.156	0.087
-608.201	-200.000	0.020	0.177
-607.186	-57.106	-0.228	0.102
-606.171	111.871	-0.052	0.064
-605.157	436.057	-0.104	0.228
-604.142	638.483	-0.041	-0.107
-603.128	-56.391	-0.353	0.159
-602.113	-135.322	0.142	0.017
-601.098	9.465	0.140	-0.107
-600.084	-4.782	-0.151	0.106
-599.069	-117.652	-0.201	0.037
-598.055	-39.161	0.273	-0.145
-597.040	4.019	0.213	0.158
-596.025	126.787	0.122	0.156
-595.011	-78.723	0.193	0.067
-593.996	-63.829	0.187	-0.078
-592.982	106.005	0.124	-0.148
-591.967	263.684	-0.032	0.056
-590.952	22.595	-0.038	-0.032
-589.938	800.000	0.043	-0.139
-588.923	-139.684	-0.504	0.054
-587.909	-122.546	0.124	-0.020
-586.894	95.808	-0.029	-0.034
-585.879	-200.000	0.016	-0.196
-584.865	250.294	0.127	-0.218
-583.850	-108.917	-0.176	-0.038
-582.836	178.950	-0.057	0.085
-581.821	800.000	0.079	0.225
-580.806	-64.764	0.184	0.075
-579.792	800.000	0.025	0.092
-578.777	208.257	0.058	0.091
-577.763	-26.668	0.159	-0.094
-576.748	85.611	-0.190	0.211
-575.733	-200.000	0.034	0.221
-574.719	-200.000	0.003	-0.388
-573.704	-8.312	0.069	0.047
-572.690	-91.819	-0.230	0.066
-571.675	187.645	0.099	-0.149
-570.661	-114.848	0.131	0.025
-569.646	748.413	-0.071	0.193
-568.631	132.171	0.036	-0.047
-567.617	319.533	-0.111	0.212
-566.602	-8.552	-0.222	-0.151
-565.588	43.264	-0.161	-0.149
-564.573	-183.653	0.060	0.001
-563.558	142.503	-0.064	0.086
-562.544	-146.706	-0.302	0.026
-561.529	69.434	0.159	0.165
-560.515	800.000	-0.054	-0.204
-559.500	-200.000	0.009	0.350
-558.485	40.518	0.211	0.192
-557.471	-168.919	0.408	-0.015
-556.456	-45.320	-0.104	-0.052
-555.442	-98.784	-0.057	-0.015
-554.427	-87.307	0.111	0.034
-553.412	116.318	0.043	0.054
-552.398	-25.146	0.111	-0.066
-551.383	-72.079	0.065	-0.024
-550.369	800.000	0.031	-0.135
-549.354	-22.679	-0.106	-0.065
-548.339	-200.000	-0.007	0.453
-547.325	115.771	0.073	-0.090
-546.310	103.031	-0.096	-0.113
-545.296	-72.860	-0.232	0.086
-544.281	380.840	-0.074	0.153
-543.266	-200.000	-0.007	-0.311
-542.252	-200.000	-0.044	0.216
-541.237	-155.001	-0.077	0.005
-540.223	800.000	0.112	-0.331
-539.208	132.908	0.216	-0.281
-538.193	730.109	0.158	-0.427
-537.179	-8.951	0.186	-0.126
-536.164	-79.890	0.165	0.056
-535.150	40.653	-0.183	0.167
-534.135	-200.000	0.004	-0.090
-533.121	17.746	0.170	0.136
-532.106	-91.364	0.141	-0.041
-531.091	-200.000	-0.060	-0.280
-530.077	5.219	-0.282	-0.210
-529.062	-200.000	-0.049	-0.301
-528.048	-18.240	0.050	-0.032
-527.033	207.793	-0.103	-0.161
-526.018	-200.000	0.033	0.184
-525.004	41.857	0.211	-0.193
-523.989	80.460	0.283	-0.308
-522.975	-14.451	-0.118	-0.077
-521.960	-200.000	0.009	-0.118
-520.945	-200.000	-0.005	0.087
-519.931	-200.000	0.036	0.343
-518.916	4.304	-0.245	0.181
-517.902	-71.911	-0.323	0.121
-516.887	186.424	-0.085	-0.128
-515.872	524.338	0.038	0.090
-514.858	139.154	-0.277	-0.367
-513.843	-7.066	-0.228	-0.156
-512.829	-44.444	0.250	0.126
-511.814	-11.720	-0.069	0.046
-510.799	254.049	0.140	-0.241
-509.785	83.714	-0.107	0.117
-508.770	120.944	-0.139	-0.175
-507.756	85.646	0.118	-0.130
-506.741	691.164	0.086	-0.227
-505.726	-83.297	0.445	-0.144
-504.712	173.430	-0.112	-0.163
-503.697	-200.000	-0.013	-0.109
-502.683	-55.261	0.089	-0.040
-501.668	-200.000	0.033	0.216
-500.653	9.676	0.240	0.183
-499.639	96.596	-0.063	0.073
-498.624	-29.786	0.470	0.270
-497.610	569.245	-0.060	-0.146
-496.595	-115.259	0.306	0.058
-495.581	220.282	0.104	0.168
-494.566	155.722	-0.126	-0.174
-493.551	-200.000	-0.088	0.422
-492.537	61.035	-0.198	-0.198
-491.522	-95.903	0.043	0.012
-490.508	-56.403	-0.172	0.077
-489.493	-42.152	-0.350	0.180
-488.478	-200.000	-0.031	0.459
-487.464	-77.633	-0.144	0.050
-486.449	391.261	-0.080	-0.167
-485.435	398.613	0.106	0.223
-484.420	24.276	0.142	-0.118
-483.405	-15.465	-0.027	0.017
-482.391	92.174	-0.119	0.135
-481.376	122.342	-0.079	-0.099
-480.362	800.000	-0.094	0.280
-479.347	-73.008	-0.145	0.054
-478.332	800.000	0.076	-0.223
-477.318	53.201	-0.134	0.129
-476.303	329.208	0.121	0.234
-475.289	-200.000	-0.010	0.096
-474.274	665.195	0.059	-0.152
-473.259	69.699	0.217	0.225
-472.245	-40.567	0.058	-0.030
-471.230	25.009	-0.034	0.029
-470.216	69.575	0.208	0.216
-469.201	-89.964	0.124	0.036
-468.186	-200.000	-0.036	-0.185
-467.172	-186.214	0.304	-0.004
-466.157	123.015	0.149	-0.188
-465.143	213.771	-0.080	0.128
-464.128	-98.578	-0.379	-0.097
-463.113	396.031	-0.070	0.147
-462.099	52.262	0.055	-0.052
-461.084	-106.418	0.089	-0.020
-460.070	221.643	-0.065	0.105
-459.055	-12.825	-0.038	-0.025
-458.040	0.042	-0.123	-0.088
-457.026	120.459	-0.050	-0.063
-456.011	800.000	0.097	-0.318
-454.997	162.801	-0.156	-0.220
-453.982	800.000	0.096	-0.351
-452.968	800.000	-0.158	-0.529
-451.953	-107.908	0.158	0.035
-450.938	99.221	-0.161	0.188
-449.924	-81.941	0.343	0.113
-448.909	-200.000	-0.125	0.001
-447.895	154.225	-0.065	-0.090
-446.880	-200.000	0.033	-0.261
-445.865	-26.850	-0.093	-0.055
-444.851	382.453	0.149	-0.308
-443.836	247.146	-0.054	-0.092
-442.822	43.418	-0.294	-0.270
-441.807	84.472	0.162	-0.178
-440.792	-101.634	0.152	-0.037
-439.778	-77.894	0.171	-0.059
-438.763	-200.000	-0.013	-0.307
-437.749	106.067	0.108	0.128
-436.734	-134.309	-0.142	-0.017
-435.719	220.547	0.166	-0.267
-434.705	486.362	0.122	0.279
-433.690	-149.025	-0.023	-0.002
-432.676	298.785	-0.055	0.101
-431.661	-110.478	0.121	-0.025
-430.646	-77.077	0.247	0.087
-429.632	270.216	0.121	-0.213
-428.617	-159.006	0.094	-0.005
-427.603	-82.501	-0.323	-0.105
-426.588	-134.636	0.291	-0.036
-425.573	-48.380	0.160	-0.078
-424.559	-200.000	-0.042	0.261
-423.544	-200.000	0.006	-0.301
-422.530	347.411	-0.135	-0.268
-421.515	149.513	-0.157	-0.214
-420.500	-132.739	-0.171	0.022
-419.486	-146.881	0.263	0.023
-418.471	-51.323	0.038	-0.018
-417.457	-92.172	-0.389	-0.110
-416.442	124.829	-0.139	-0.176
-415.428	-128.554	0.129	0.018
-414.413	72.964	0.128	-0.134
-413.398	-200.000	0.015	0.247
-412.384	-89.834	-0.147	-0.043
-411.369	-102.452	-0.408	0.098
-410.355	-100.787	-0.218	-0.054
-409.340	-91.688	0.164	0.047
-408.325	383.934	0.159	-0.328
-407.311	-19.741	-0.305	-0.189
-406.296	15.004	0.066	0.052
-405.282	-200.000	0.012	-0.088
-404.267	-53.658	0.194	0.089
-403.252	-200.000	-0.010	-0.115
-402.238	-122.419	-0.245	-0.040
-401.223	-200.000	0.019	-0.138
-400.209	90.410	0.084	-0.094
-399.194	-135.566	0.295	0.035
-398.179	567.100	0.074	0.180
-397.165	195.139	0.130	-0.198
-396.150	800.000	-0.088	0.318
-395.136	-200.000	0.014	0.302
-394.121	-93.285	0.065	0.018
-393.106	-200.000	0.008	0.149
-392.092	1.943	-0.166	0.120
-391.077	-16.920	0.180	0.114
-390.063	-25.736	-0.155	-0.092
-389.048	-62.448	0.043	0.018
-388.033	-125.722	-0.163	0.025
-387.019	337.858	-0.163	-0.319
-386.004	462.506	-0.022	-0.049
-384.990	205.454	-0.189	0.294
-383.975	-118.048	-0.268	-0.048
-382.960	35.904	0.180	0.158
-381.946	-90.917	-0.067	-0.019
-380.931	240.984	-0.108	0.181
-379.917	-79.848	0.194	0.065
-378.902	-200.000	0.002	-0.073
-377.888	-6.967	-0.093	-0.063
-376.873	-200.000	0.029	0.164
-375.858	-200.000	-0.025	-0.260
-374.844	-51.669	0.198	0.093
-373.829	-200.000	-0.062	-0.710
-372.815	23.310	-0.256	-0.211
-371.800	100.603	0.209	0.243
-370.785	8.173	-0.224	0.169
-369.771	543.927	-0.181	0.434
-368.756	-184.186	-0.211	0.004
-367.742	52.411	0.210	0.201
-366.727	-200.000	0.026	0.221
-365.712	800.000	-0.158	0.445
-364.698	800.000	-0.049	-0.142
-363.683	13.832	0.190	0.148
-362.669	-153.903	0.144	-0.010
-361.654	800.000	-0.050	-0.149
-360.639	0.310	0.334	-0.239
-359.625	174.838	-0.152	-0.221
-358.610	419.108	-0.098	-0.210
-357.596	111.539	0.064	0.078
-356.581	519.339	-0.109	-0.257
-355.566	137.252	0.135	0.177
-354.552	494.613	-0.111	-0.255
-353.537	-47.358	-0.209	0.102
-352.523	-162.788	0.528	-0.026
-351.508	-44.365	-0.118	0.059
-350.493	-109.466	0.180	0.038
-349.479	-169.702	-0.307	0.011
-348.464	174.257	0.047	0.069
-347.450	-100.711	-0.173	-0.043
-346.435	154.006	0.088	0.120
-345.420	64.198	0.064	0.064
-344.406	-94.193	-0.359	0.098
-343.391	505.341	0.051	-0.118
-342.377	-53.092	0.377	0.174
-341.362	-36.278	0.027	-0.014
-340.348	-20.449	0.113	-0.070
-339.333	149.650	-0.188	0.255
-338.318	-200.000	-0.054	-0.273
-337.304	73.088	-0.123	0.129
-336.289	-200.000	-0.059	0.412
-335.275	800.000	-0.098	0.344
-334.260	-37.095	0.111	0.060
-333.245	78.633	-0.189	-0.203
-332.231	-13.128	-0.184	-0.120
-331.216	587.262	0.089	0.220
-330.202	104.598	-0.377	-0.444
-329.187	-26.723	0.426	-0.250
-328.172	89.741	-0.173	-0.193
-327.158	800.000	-0.008	0.029
-326.143	90.604	0.238	0.266
-325.129	27.924	-0.133	0.112
-324.114	115.517	0.274	0.335
-323.099	-147.541	-0.207	-0.017
-322.085	450.957	0.099	0.219
-321.070	800.000	-0.108	0.398
-320.056	135.051	-0.293	-0.381
-319.041	327.122	-0.194	0.373
-318.026	39.020	0.100	0.090
-317.012	-178.175	0.276	-0.007
-315.997	170.506	-0.057	0.081
-314.983	500.233	-0.062	0.143
-313.968	229.525	0.079	0.129
-312.953	168.345	-0.190	-0.271
-311.939	-146.563	-0.350	-0.030
-310.924	347.918	0.159	-0.314
-309.910	123.954	0.074	-0.093
-308.895	84.598	0.129	0.141
-307.880	97.496	0.103	0.118
-306.866	220.952	0.195	-0.313
-305.851	-74.749	-0.121	0.043
-304.837	758.688	-0.091	0.247
-303.822	711.535	0.014	0.036
-302.807	-125.875	-0.230	0.035
-301.793	23.788	-0.032	0.026
-300.778	438.967	-0.034	0.073
-299.764	-143.283	-0.038	-0.004
-298.749	-1.766	0.221	-0.156
-297.735	-200.000	-0.049	0.240
-296.720	-200.000	-0.024	-0.110
-295.705	-200.000	-0.061	0.316
-294.691	43.907	-0.129	-0.118
-293.676	-200.000	-0.032	0.392
-292.662	220.516	0.188	0.301
-291.647	534.846	-0.047	-0.111
-290.632	-200.000	0.053	-0.272
-289.618	514.245	-0.071	-0.165
-288.603	-200.000	0.037	-0.324
-287.589	-10.188	-0.124	-0.082
-286.574	-52.538	-0.156	0.072
-285.559	-140.719	-0.276	-0.029
-284.545	129.111	0.048	0.061
-283.530	-200.000	-0.001	0.226
-282.516	-15.754	0.226	-0.144
-281.501	-93.003	-0.115	-0.032
-280.486	-92.375	-0.370	0.104
-279.472	-66.171	-0.177	-0.071
-278.457	-200.000	0.143	0.000
-277.443	-76.670	-0.277	-0.097
-276.428	-200.000	-0.028	-0.480
-275.413	94.220	0.080	-0.091
-274.399	131.844	0.141	0.181
-273.384	260.149	-0.117	0.202
-272.370	-81.893	0.245	-0.080
-271.355	45.328	-0.139	0.128
-270.340	0.850	0.177	0.126
-269.326	-24.680	0.275	0.163
-268.311	-57.213	-0.264	0.116
-267.297	-130.494	-0.046	-0.006
-266.282	154.354	-0.126	0.173
-265.267	-43.988	0.255	0.128
-264.253	-56.099	-0.114	-0.051
-263.238	367.892	-0.061	-0.123
-262.224	23.916	0.155	-0.128
-261.209	14.661	-0.070	0.055
-260.195	84.282	0.097	-0.105
-259.180	-77.294	-0.299	0.104
-258.165	-200.000	0.004	-0.090
-257.151	-200.000	-0.003	0.111
-256.136	-157.246	0.221	-0.013
-255.122	-75.688	-0.163	0.058
-254.107	-200.000	-0.022	-0.096
-253.092	423.540	0.094	0.202
-252.078	777.300	-0.136	0.370
-251.063	-200.000	0.042	0.388
-250.049	-50.620	0.101	0.047
-249.034	292.112	0.070	0.128
-248.019	-158.809	-0.270	-0.015
-247.005	-22.343	0.197	0.119
-245.990	-105.194	0.217	0.050
-244.976	-119.840	0.194	-0.033
-243.961	800.000	-0.051	-0.156
-242.946	112.786	-0.334	-0.403
-241.932	-67.020	0.194	0.076
-240.917	69.117	-0.182	0.186
-239.903	-98.893	0.455	-0.115
-238.888	72.129	0.159	-0.165
-237.873	-103.369	-0.286	-0.067
-236.859	84.567	0.173	0.188
-235.844	540.303	-0.131	-0.310
-234.830	800.000	0.038	0.136
-233.815	521.984	0.039	-0.091
-232.800	800.000	0.044	0.133
-231.786	17.697	0.210	0.166
-230.771	-200.000	-0.014	-0.104
-229.757	82.975	-0.142	0.154
-228.742	-113.520	0.054	0.011
-227.727	800.000	0.127	-0.488
-226.713	373.742	0.037	0.075
-225.698	-66.332	-0.040	0.016
-224.684	213.732	0.347	0.547
-223.669	173.662	-0.017	-0.025
-222.655	-97.864	0.134	-0.035
-221.640	84.748	0.236	-0.257
-220.625	-23.285	0.069	0.042
-219.611	79.671	0.120	-0.128
-218.596	-23.631	-0.166	-0.099
-217.582	620.806	-0.120	-0.300
-216.567	-200.000	0.060	-0.316
-215.552	-200.000	-0.013	0.154
-214.538	-83.772	-0.126	-0.040
-213.523	473.197	0.057	0.129
-212.509	-200.000	0.001	-0.153
-211.494	91.965	-0.134	0.150
-210.479	-200.000	-0.051	0.226
-209.465	-47.883	-0.173	0.083
-208.450	251.807	-0.070	-0.119
-207.436	509.099	0.231	0.535
-206.421	-63.597	0.027	-0.011
-205.406	-11.549	0.121	-0.079
-204.392	-200.000	-0.002	0.141
-203.377	95.467	-0.276	-0.314
-202.363	54.607	-0.076	-0.073
-201.348	-66.853	-0.050	0.020
-200.333	-200.000	-0.025	0.250
-199.319	-200.000	0.035	0.267
-198.304	-132.417	0.162	-0.021
-197.290	109.718	0.017	-0.020
-196.275	155.554	-0.213	0.292
-195.260	-183.813	0.360	-0.006
-194.246	800.000	-0.119	-0.336
-193.231	165.600	-0.063	-0.088
-192.217	142.691	0.010	-0.013
-191.202	-6.171	0.235	0.160
-190.187	-63.969	-0.211	-0.086
-189.173	-115.060	-0.104	-0.020
-188.158	-51.856	-0.296	-0.137
-187.144	-42.852	0.258	0.130
-186.129	196.821	0.110	0.168
-185.114	171.271	0.065	0.093
-184.100	44.576	0.351	-0.321
-183.085	800.000	0.072	-0.276
-182.071	33.175	-0.078	-0.067
-181.056	-135.553	0.326	0.039
-180.042	-66.458	-0.284	0.112
-179.027	-200.000	-0.044	0.216
-178.012	-200.000	-0.068	0.312
-176.998	800.000	-0.058	-0.243
-175.983	-141.347	-0.278	-0.028
-174.969	-172.040	0.396	0.013
-173.954	-67.397	0.087	-0.034
-172.939	-36.435	0.198	0.106
-171.925	-200.000	0.001	-0.166
-170.910	-105.882	0.067	-0.015
-169.896	800.000	0.059	0.165
-168.881	800.000	0.025	-0.098
-167.866	66.850	0.261	-0.264
-166.852	-57.325	0.263	0.115
-165.837	-87.086	-0.157	-0.048
-164.823	-200.000	0.003	-0.053
-163.808	-200.000	0.005	0.121
-162.793	101.274	-0.153	0.177
-161.779	6.980	-0.230	-0.170
-160.764	223.803	0.288	-0.463
-159.750	-200.000	-0.028	0.166
-158.735	-68.964	-0.198	-0.076
-157.720	800.000	0.089	0.329
-156.706	353.811	0.103	0.204
-155.691	-4.216	0.153	-0.105
-154.677	-86.489	0.243	-0.074
-153.662	174.544	0.055	-0.079
-152.647	-200.000	0.034	-0.306
-151.633	180.640	-0.088	0.129
-150.618	-71.584	0.243	-0.090
-149.604	470.917	-0.123	0.275
-148.589	-200.000	0.031	0.146
-147.574	-200.000	0.022	0.142
-146.560	800.000	0.042	0.168
-145.545	75.866	-0.208	0.219
-144.531	800.000	-0.033	0.095
-143.516	-19.054	0.129	-0.080
-142.502	3.899	0.103	0.075
-141.487	711.878	-0.080	0.209
-140.472	-200.000	-0.024	0.221
-139.458	213.709	-0.156	0.246
-138.443	101.887	0.160	0.185
-137.429	-200.000	-0.018	-0.088
-136.414	-200.000	-0.041	-0.254
-135.399	-113.467	0.077	0.015
-134.385	409.454	0.081	0.171
-133.370	167.206	0.071	0.100
-132.356	204.980	0.264	0.407
-131.341	-125.444	-0.212	-0.032
-130.326	14.131	0.059	-0.045
-129.312	433.285	0.120	0.259
-128.297	135.593	-0.135	-0.175
-127.283	617.899	-0.022	0.055
-126.268	-98.667	-0.265	0.067
-125.253	-133.156	0.157	-0.020
-124.239	561.296	-0.036	-0.087
-123.224	0.599	0.226	-0.161
-122.210	-200.000	0.009	-0.098
-121.195	177.760	-0.099	-0.143
