DTS Sentinel unit serial number:	SN413079Multiplexer serial number:	ORYXHardware model number:	OX4-SRSoftware version number:	ORYX F/W v4.00 Oryx Data Collector v3.7.2.0data status	okinstallation	princeton_trtdifferential loss correction	single-endedforward channel	channel 4reverse channel	N/Adate	2019/09/17time	07:33:34forward acquisition time	60.00reverse acquisition time	0.00gamma	496.2192k internal	0.2320k external	0.2320temperature offset calibration	0.9982default loss term (dB/km)	0.3790temperature slope calibration	1.0000multiplexer offset coefficient	1.0000multiplexer slope coefficient	1.0000fibre end	0.00T internal ref (°C)	27.19T ext. ref 1 (°C)	0.12T ext. ref 2 (°C)	21.79length (m)	temperature (°C)	Stokes	anti-Stokes-747.200	86.359	-0.106	-0.118
-746.185	368.918	-0.076	0.155
-745.171	800.000	0.089	0.314
-744.156	-200.000	-0.002	0.171
-743.142	143.343	0.110	0.148
-742.127	40.575	-0.442	0.403
-741.112	-57.370	0.346	0.154
-740.098	447.261	0.102	-0.226
-739.083	22.879	0.095	-0.079
-738.069	-20.217	-0.150	0.093
-737.054	262.819	-0.101	0.177
-736.039	484.657	-0.047	-0.108
-735.025	-200.000	-0.037	-0.310
-734.010	278.617	-0.058	-0.104
-732.996	31.868	-0.270	-0.235
-731.981	-93.697	-0.346	-0.096
-730.966	-52.426	0.083	0.039
-729.952	-200.000	-0.011	0.344
-728.937	-200.000	0.024	0.253
-727.923	71.429	-0.149	-0.156
-726.908	-118.701	0.234	-0.042
-725.894	-87.444	0.273	-0.084
-724.879	-27.424	0.107	0.063
-723.864	-151.578	-0.022	0.002
-722.850	722.060	0.130	-0.350
-721.835	-20.947	-0.067	-0.042
-720.821	-50.066	-0.334	-0.160
-719.806	800.000	-0.061	-0.206
-718.791	-170.297	0.472	0.017
-717.777	512.751	-0.078	0.183
-716.762	-112.887	0.258	-0.052
-715.748	800.000	0.116	-0.403
-714.733	-200.000	0.001	-0.385
-713.718	-103.404	0.322	0.077
-712.704	4.244	-0.299	0.221
-711.689	-200.000	0.026	-0.186
-710.675	-200.000	0.018	0.257
-709.660	82.297	0.069	0.075
-708.645	34.527	-0.268	0.236
-707.631	-200.000	-0.011	-0.267
-706.616	800.000	0.086	-0.344
-705.602	111.020	0.042	0.051
-704.587	800.000	-0.043	0.182
-703.572	-200.000	-0.004	0.110
-702.558	-95.470	-0.115	0.031
-701.543	-13.455	-0.073	-0.048
-700.529	-10.070	-0.206	0.138
-699.514	37.486	0.351	0.314
-698.499	-99.134	-0.131	-0.033
-697.485	-15.197	-0.215	-0.139
-696.470	200.023	0.144	-0.222
-695.456	-200.000	0.035	-0.263
-694.441	800.000	0.184	-0.673
-693.426	-200.000	0.063	-0.311
-692.412	28.450	-0.159	0.136
-691.397	-116.429	0.328	0.061
-690.383	164.476	0.067	0.096
-689.368	560.822	-0.135	0.329
-688.354	69.578	0.062	0.064
-687.339	-45.815	-0.202	0.101
-686.324	-200.000	-0.010	-0.372
-685.310	800.000	0.038	-0.123
-684.295	49.285	0.313	0.297
-683.281	0.355	-0.214	-0.154
-682.266	207.128	0.140	-0.221
-681.251	118.271	0.151	-0.187
-680.237	800.000	0.082	-0.270
-679.222	44.902	0.286	-0.266
-678.208	6.944	-0.209	-0.157
-677.193	-75.481	-0.133	-0.048
-676.178	41.417	-0.096	0.088
-675.164	-10.339	0.126	0.084
-674.149	119.133	-0.061	-0.076
-673.135	-67.835	0.159	-0.063
-672.120	-55.260	-0.291	-0.132
-671.105	-41.597	-0.262	0.136
-670.091	-95.898	-0.354	0.095
-669.076	-200.000	0.003	0.040
-668.062	657.839	-0.165	-0.427
-667.047	-8.922	0.242	0.163
-666.032	-140.050	0.180	-0.019
-665.018	-200.000	0.026	-0.153
-664.003	457.768	0.174	-0.389
-662.989	-181.019	-0.345	0.007
-661.974	-133.625	0.178	0.022
-660.959	129.868	-0.201	0.259
-659.945	-200.000	-0.043	0.241
-658.930	438.334	0.027	-0.059
-657.916	270.761	-0.191	-0.339
-656.901	378.432	-0.114	0.235
-655.886	-116.826	0.332	0.061
-654.872	5.779	-0.443	-0.330
-653.857	-200.000	-0.040	-0.344
-652.843	-200.000	0.110	0.551
-651.828	118.323	-0.146	-0.181
-650.814	634.767	-0.105	0.269
-649.799	-200.000	0.025	-0.294
-648.784	-66.546	0.233	0.093
-647.770	-131.716	-0.272	0.036
-646.755	800.000	0.129	-0.566
-645.741	-37.651	0.133	-0.071
-644.726	-200.000	0.017	-0.157
-643.711	-200.000	0.041	-0.197
-642.697	-200.000	0.016	0.234
-641.682	-22.566	-0.337	0.206
-640.668	65.553	0.061	0.062
-639.653	61.907	-0.187	0.188
-638.638	800.000	0.055	0.195
-637.624	-30.263	-0.368	0.211
-636.609	-107.035	-0.501	0.111
-635.595	-83.875	-0.329	-0.106
-634.580	531.293	0.066	0.157
-633.565	-200.000	0.048	-0.311
-632.551	-200.000	0.064	0.313
-631.536	-200.000	0.009	-0.082
-630.522	-55.659	0.085	0.038
-629.507	-2.448	-0.284	0.200
-628.492	-200.000	0.005	0.085
-627.478	-138.818	0.324	-0.036
-626.463	99.123	0.203	-0.236
-625.449	-95.355	-0.110	-0.030
-624.434	155.708	-0.132	-0.184
-623.419	-151.168	-0.015	-0.001
-622.405	333.925	0.109	0.212
-621.390	-48.952	0.134	-0.065
-620.376	-3.894	-0.100	-0.070
-619.361	169.007	0.154	0.221
-618.346	410.624	-0.034	0.072
-617.332	535.540	-0.104	-0.249
-616.317	137.036	-0.141	-0.186
-615.303	35.299	-0.093	-0.082
-614.288	-200.000	-0.119	0.562
-613.273	-163.175	0.189	-0.009
-612.259	-114.954	0.319	-0.061
-611.244	586.048	0.122	0.302
-610.230	40.490	-0.283	-0.257
-609.215	292.902	-0.199	-0.366
-608.201	676.508	-0.233	-0.608
-607.186	626.369	-0.044	0.111
-606.171	-99.968	-0.096	0.024
-605.157	30.553	-0.109	-0.094
-604.142	179.156	-0.136	0.200
-603.128	-92.174	-0.210	-0.060
-602.113	132.261	-0.161	-0.208
-601.098	-181.333	0.223	-0.004
-600.084	-185.635	-0.089	0.001
-599.069	-54.542	-0.401	-0.182
-598.055	-79.318	-0.189	0.065
-597.040	240.968	0.048	0.080
-596.025	67.425	0.103	0.106
-595.011	-12.911	-0.266	-0.174
-593.996	-69.574	-0.225	0.087
-592.982	-7.231	0.279	-0.190
-591.967	-200.000	-0.018	0.161
-590.952	-200.000	0.038	0.249
-589.938	27.209	-0.151	-0.127
-588.923	-200.000	-0.006	0.185
-587.909	-182.899	-0.174	0.003
-586.894	-128.334	-0.126	-0.018
-585.879	774.798	0.012	0.032
-584.865	178.671	0.210	-0.308
-583.850	114.657	0.195	-0.239
-582.836	-78.154	-0.074	-0.026
-581.821	9.396	-0.145	0.110
-580.806	-200.000	0.064	0.478
-579.792	800.000	0.067	0.290
-578.777	-77.315	-0.228	0.080
-577.763	448.153	-0.108	-0.240
-576.748	93.933	0.104	0.118
-575.733	-159.331	-0.216	0.012
-574.719	209.638	0.126	-0.198
-573.704	796.689	0.088	-0.244
-572.690	169.498	-0.200	-0.287
-571.675	-61.619	-0.206	0.087
-570.661	205.537	0.157	0.246
-569.646	800.000	-0.113	-0.338
-568.631	-131.062	0.187	0.025
-567.617	-59.510	-0.454	-0.196
-566.602	253.872	0.007	-0.013
-565.588	54.676	0.165	-0.159
-564.573	11.969	-0.233	-0.180
-563.558	-200.000	-0.024	0.106
-562.544	-193.819	0.189	-0.002
-561.529	49.387	-0.424	-0.400
-560.515	-90.240	-0.200	0.058
-559.500	97.736	0.061	-0.071
-558.485	800.000	0.034	-0.109
-557.471	-103.038	-0.069	0.016
-556.456	-83.545	-0.304	0.098
-555.442	-104.059	0.202	0.047
-554.427	-23.556	-0.117	-0.071
-553.412	-200.000	0.052	-0.264
-552.398	-186.481	0.411	-0.006
-551.383	271.888	-0.037	-0.066
-550.369	-129.080	0.133	-0.019
-549.354	-200.000	0.005	0.112
-548.339	5.289	-0.054	-0.040
-547.325	42.656	0.207	0.189
-546.310	199.450	-0.105	-0.162
-545.296	74.144	-0.101	0.106
-544.281	-2.111	-0.249	0.175
-543.266	800.000	0.061	-0.258
-542.252	-200.000	-0.030	0.136
-541.237	-8.077	-0.103	0.070
-540.223	-9.922	0.259	0.173
-539.208	103.801	-0.125	0.147
-538.193	-117.204	-0.083	-0.015
-537.179	-200.000	-0.047	-0.287
-536.164	-200.000	0.043	0.342
-535.150	16.302	-0.197	0.156
-534.135	-200.000	0.032	-0.198
-533.121	-8.619	-0.051	-0.035
-532.106	302.498	-0.092	0.171
-531.091	7.253	-0.136	-0.102
-530.077	96.240	0.196	-0.225
-529.062	-5.113	0.131	-0.090
-528.048	-155.289	0.341	-0.022
-527.033	155.963	0.087	0.121
-526.018	254.192	0.161	0.276
-525.004	800.000	0.080	0.260
-523.989	-106.389	-0.491	-0.110
-522.975	-178.873	0.097	-0.002
-521.960	283.605	-0.174	0.313
-520.945	-200.000	0.084	-0.705
-519.931	40.185	-0.069	-0.063
-518.916	-200.000	-0.019	-0.088
-517.902	138.049	-0.155	-0.204
-516.887	-149.821	-0.314	0.025
-515.872	-29.910	-0.176	0.101
-514.858	-200.000	0.047	-0.262
-513.843	63.811	-0.070	0.071
-512.829	800.000	0.003	-0.013
-511.814	183.791	-0.244	-0.362
-510.799	206.425	0.095	-0.148
-509.785	-135.994	0.435	-0.051
-508.770	-200.000	-0.039	-0.223
-507.756	699.879	0.127	0.334
-506.741	454.939	0.070	0.155
-505.726	9.684	0.331	-0.252
-504.712	-200.000	-0.031	-0.197
-503.697	645.602	0.063	-0.161
-502.683	404.068	-0.105	0.222
-501.668	-127.067	0.186	0.027
-500.653	-200.000	0.004	0.113
-499.639	-168.034	-0.109	-0.004
-498.624	73.361	0.211	0.221
-497.610	-107.805	-0.213	-0.047
-496.595	167.985	0.142	0.203
-495.581	-94.845	-0.272	-0.074
-494.566	-200.000	0.031	0.172
-493.551	-200.000	-0.009	0.110
-492.537	800.000	-0.125	0.386
-491.522	-31.057	-0.409	-0.231
-490.508	-200.000	-0.014	0.082
-489.493	25.855	-0.155	0.129
-488.478	-200.000	0.004	0.053
-487.464	-200.000	0.000	0.083
-486.449	-152.420	0.412	-0.030
-485.435	-89.061	0.434	0.128
-484.420	-19.452	0.172	0.107
-483.405	110.137	-0.055	-0.066
-482.391	9.451	0.149	-0.113
-481.376	-85.979	-0.137	0.042
-480.362	-200.000	-0.003	0.211
-479.347	383.362	-0.145	-0.299
-478.332	215.095	-0.109	-0.174
-477.318	411.487	0.054	-0.114
-476.303	640.200	0.030	0.077
-475.289	176.422	-0.145	-0.211
-474.274	-164.787	-0.060	0.003
-473.259	-154.868	-0.185	0.012
-472.245	-67.239	0.221	-0.087
-471.230	800.000	0.063	0.176
-470.216	-75.558	0.197	0.070
-469.201	-94.094	-0.214	-0.059
-468.186	-9.695	-0.035	-0.023
-467.172	133.752	0.176	-0.228
-466.157	-86.022	-0.123	-0.038
-465.143	25.777	-0.070	-0.058
-464.128	165.353	-0.050	-0.070
-463.113	-41.006	-0.144	-0.074
-462.099	83.201	-0.107	0.117
-461.084	-95.160	-0.157	-0.042
-460.070	-69.148	0.015	0.006
-459.055	-104.022	-0.209	0.049
-458.040	-159.009	-0.392	-0.022
-457.026	-200.000	0.035	-0.308
-456.011	-112.269	0.104	0.021
-454.997	22.842	0.096	0.078
-453.982	-107.907	-0.113	-0.025
-452.968	-42.295	0.274	-0.140
-451.953	-112.791	-0.289	-0.057
-450.938	800.000	0.013	0.050
-449.924	115.557	0.221	0.270
-448.909	-97.304	-0.130	0.034
-447.895	-200.000	0.004	-0.324
-446.880	-101.240	-0.230	-0.056
-445.865	52.599	-0.121	-0.115
-444.851	321.717	0.097	0.185
-443.836	-88.674	0.116	-0.034
-442.822	-41.485	-0.161	-0.083
-441.807	140.426	-0.130	-0.171
-440.792	-98.897	-0.271	0.069
-439.778	102.213	-0.103	-0.120
-438.763	430.106	0.094	-0.204
-437.749	-115.819	-0.176	0.033
-436.734	800.000	-0.050	-0.198
-435.719	-73.422	-0.157	0.057
-434.705	-55.546	0.167	0.075
-433.690	-144.793	-0.263	-0.024
-432.676	-177.507	0.345	-0.008
-431.661	72.651	0.152	0.158
-430.646	255.743	-0.168	0.288
-429.632	-78.806	-0.190	-0.065
-428.617	-76.457	0.300	0.105
-427.603	-97.372	0.057	-0.015
-426.588	376.288	0.023	-0.046
-425.573	-91.499	0.328	0.093
-424.559	-61.442	-0.298	0.125
-423.544	204.374	-0.130	0.201
-422.530	759.071	-0.093	-0.252
-421.515	-39.809	0.189	0.099
-420.500	64.724	-0.037	-0.037
-419.486	-200.000	-0.007	-0.240
-418.471	800.000	-0.048	0.149
-417.457	-75.884	-0.227	0.080
-416.442	-200.000	0.018	-0.121
-415.428	57.495	-0.052	0.051
-414.413	17.148	0.156	0.124
-413.398	144.117	0.156	0.208
-412.384	-165.198	-0.080	-0.004
-411.369	38.696	0.078	-0.069
-410.355	216.590	-0.156	-0.248
-409.340	-64.383	0.031	-0.013
-408.325	800.000	0.128	0.415
-407.311	-106.858	-0.251	-0.056
-406.296	261.319	0.169	-0.292
-405.282	-39.939	-0.433	-0.225
-404.267	-33.279	-0.345	-0.190
-403.252	-43.332	-0.071	0.036
-402.238	-89.254	0.128	0.038
-401.223	-48.335	0.057	0.028
-400.209	-80.801	0.183	-0.061
-399.194	197.582	0.216	-0.329
-398.179	112.565	0.048	-0.059
-397.165	-163.923	0.455	-0.021
-396.150	-135.327	-0.220	-0.026
-395.136	531.078	0.058	0.137
-394.121	-29.960	-0.350	-0.199
-393.106	137.285	-0.067	0.087
-392.092	-200.000	-0.035	0.247
-391.077	800.000	-0.056	-0.169
-390.063	-200.000	0.039	-0.279
-389.048	-145.208	-0.326	-0.029
-388.033	-31.019	-0.304	0.171
-387.019	-116.208	0.094	0.017
-386.004	-200.000	-0.021	0.123
-384.990	-91.727	0.077	0.022
-383.975	237.767	0.139	0.231
-382.960	-200.000	0.013	-0.104
-381.946	250.863	0.183	-0.310
-380.931	-19.626	0.015	0.009
-379.917	800.000	0.112	0.383
-378.902	800.000	-0.062	0.223
-377.888	-46.105	-0.037	0.018
-376.873	-77.300	0.191	0.066
-375.858	800.000	-0.085	-0.272
-374.844	-50.998	0.152	0.071
-373.829	-106.228	-0.083	-0.019
-372.815	-200.000	0.006	-0.178
-371.800	-51.113	0.103	0.048
-370.785	60.672	-0.118	-0.117
-369.771	11.313	-0.126	0.096
-368.756	-56.979	-0.278	-0.122
-367.742	-80.336	0.195	-0.065
-366.727	-108.220	0.268	0.058
-365.712	-161.223	-0.152	0.008
-364.698	394.514	0.141	0.292
-363.683	33.599	0.134	-0.116
-362.669	636.508	0.081	-0.206
-361.654	-137.089	0.229	-0.026
-360.639	-200.000	-0.002	-0.153
-359.625	34.885	0.122	0.106
-358.610	-131.039	-0.057	-0.008
-357.596	79.818	-0.364	0.389
-356.581	-121.277	0.341	0.057
-355.566	-111.464	-0.326	0.066
-354.552	-92.830	0.305	0.085
-353.537	15.518	0.117	0.091
-352.523	-56.355	0.314	0.139
-351.508	-200.000	-0.082	0.360
-350.493	705.094	-0.020	0.052
-349.479	-121.665	-0.199	0.033
-348.464	-173.169	-0.287	0.009
-347.450	-158.048	0.241	0.014
-346.435	-56.284	0.300	0.133
-345.420	228.366	-0.157	0.255
-344.406	-8.310	-0.122	0.082
-343.391	12.378	-0.186	0.143
-342.377	-200.000	0.006	0.177
-341.362	190.718	0.107	0.160
-340.348	28.273	0.377	-0.317
-339.333	-168.613	0.259	0.010
-338.318	-150.435	-0.295	0.023
-337.304	-200.000	0.028	0.126
-336.289	238.091	0.100	0.165
-335.275	590.189	-0.015	0.038
-334.260	92.572	0.124	-0.140
-333.245	800.000	-0.041	0.156
-332.231	168.674	0.040	0.056
-331.216	-89.987	0.198	0.057
-330.202	-96.459	0.220	-0.058
-329.187	-107.178	0.259	0.057
-328.172	75.237	-0.155	0.163
-327.158	-77.672	-0.210	-0.072
-326.143	-200.000	-0.047	-0.304
-325.129	-118.253	-0.114	-0.020
-324.114	79.863	-0.158	0.169
-323.099	235.873	0.083	0.137
-322.085	160.365	0.005	0.006
-321.070	-157.670	-0.112	-0.007
-320.056	-200.000	-0.003	0.383
-319.041	-186.435	-0.075	0.001
-318.026	-114.295	0.019	0.004
-317.012	17.576	0.171	-0.135
-315.997	505.303	-0.011	0.026
-314.983	-80.752	-0.273	0.090
-313.968	205.112	0.067	-0.104
-312.953	800.000	0.065	-0.182
-311.939	800.000	0.083	-0.338
-310.924	154.698	0.103	-0.141
-309.910	1.663	0.377	0.270
-308.895	-200.000	-0.041	0.351
-307.880	-200.000	-0.004	0.036
-306.866	-7.482	-0.316	-0.212
-305.851	-127.300	-0.158	0.023
-304.837	-185.348	0.080	0.001
-303.822	338.556	0.232	0.449
-302.807	161.646	0.144	0.201
-301.793	154.187	-0.219	0.298
-300.778	54.372	-0.083	-0.080
-299.764	-107.446	-0.126	-0.028
-298.749	47.145	0.217	-0.201
-297.735	-188.354	-0.283	-0.004
-296.720	800.000	0.088	-0.383
-295.705	47.439	-0.094	-0.087
-294.691	-65.120	0.420	0.168
-293.676	159.231	0.098	0.135
-292.662	800.000	-0.068	-0.221
-291.647	171.810	-0.092	0.131
-290.632	-58.552	-0.300	-0.129
-289.618	289.828	-0.063	0.113
-288.603	-46.636	0.120	0.058
-287.589	-134.898	-0.138	0.017
-286.574	-162.771	-0.059	0.003
-285.559	320.525	0.216	-0.407
-284.545	773.533	0.065	0.176
-283.530	-200.000	-0.023	0.200
-282.516	800.000	-0.075	0.246
-281.501	-125.149	0.242	-0.037
-280.486	38.981	-0.260	-0.230
-279.472	220.269	0.045	0.071
-278.457	-200.000	-0.042	0.317
-277.443	-39.642	0.177	-0.092
-276.428	51.585	-0.034	0.032
-275.413	-166.306	-0.315	-0.013
-274.399	-173.479	0.402	0.012
-273.384	58.787	-0.161	0.157
-272.370	-200.000	-0.002	0.012
-271.355	-85.950	-0.279	-0.086
-270.340	-179.628	0.352	0.008
-269.326	-146.553	-0.248	0.021
-268.311	377.344	-0.095	-0.192
-267.297	335.461	0.184	0.353
-266.282	112.742	-0.233	0.280
-265.267	-127.960	0.153	0.022
-264.253	288.546	0.164	0.295
-263.238	-154.188	-0.143	-0.010
-262.224	800.000	-0.052	-0.165
-261.209	-87.571	0.361	0.108
-260.195	800.000	0.030	-0.109
-259.180	-76.860	-0.238	-0.083
-258.165	6.215	0.226	-0.166
-257.151	-200.000	0.003	-0.099
-256.136	-4.059	-0.146	0.101
-255.122	20.007	-0.149	0.120
-254.107	-52.172	0.181	-0.083
-253.092	193.494	0.067	-0.100
-252.078	-13.947	0.165	-0.106
-251.063	284.786	0.071	-0.126
-250.049	800.000	-0.054	-0.225
-249.034	-200.000	-0.029	0.283
-248.019	54.943	-0.116	-0.111
-247.005	-200.000	-0.022	0.151
-245.990	459.674	0.155	0.341
-244.976	800.000	0.093	-0.294
-243.961	658.546	-0.093	-0.238
-242.946	182.736	-0.114	0.167
-241.932	43.270	0.119	-0.108
-240.917	160.255	0.106	0.146
-239.903	-11.075	-0.240	-0.157
-238.888	-69.108	-0.045	0.017
-237.873	149.939	0.259	0.349
-236.859	800.000	-0.040	0.136
-235.844	-58.509	0.080	-0.035
-234.830	-200.000	0.067	-0.296
-233.815	-200.000	-0.042	0.211
-232.800	219.068	0.239	0.379
-231.786	-200.000	0.008	0.257
-230.771	-156.075	0.295	-0.019
-229.757	175.652	0.262	0.377
-228.742	800.000	0.038	-0.149
-227.727	488.977	0.062	-0.140
-226.713	135.278	-0.129	-0.166
-225.698	800.000	-0.070	0.223
-224.684	220.014	0.145	0.230
-223.669	41.324	-0.164	0.147
-222.655	-104.013	0.203	-0.047
-221.640	418.732	-0.221	-0.468
-220.625	149.203	-0.122	0.164
-219.611	52.047	0.182	-0.172
-218.596	800.000	0.111	0.310
-217.582	-36.314	0.163	-0.087
-216.567	-117.352	-0.300	-0.054
-215.552	-200.000	-0.019	-0.091
-214.538	-200.000	0.091	-0.554
-213.523	800.000	0.028	0.102
-212.509	226.365	0.086	-0.139
-211.494	-14.797	0.119	-0.076
-210.479	-39.568	-0.019	-0.010
-209.465	-200.000	0.015	0.146
-208.450	-101.294	-0.208	-0.050
-207.436	-99.047	0.337	-0.085
-206.421	80.906	0.209	0.223
-205.406	-139.195	0.167	0.018
-204.392	-29.913	0.186	0.105
-203.377	800.000	0.053	0.186
-202.363	-44.460	0.147	-0.073
-201.348	-46.777	0.150	0.073
-200.333	800.000	-0.067	0.267
-199.319	402.454	0.074	0.154
-198.304	-133.516	-0.142	0.018
-197.290	245.771	-0.176	0.293
-196.275	-36.208	-0.023	0.012
-195.260	71.492	0.112	-0.115
-194.246	456.070	-0.156	-0.343
-193.231	-200.000	0.010	0.178
-192.217	395.625	-0.044	-0.091
-191.202	-126.981	-0.309	0.045
-190.187	389.331	-0.022	0.045
-189.173	-200.000	-0.030	0.353
-188.158	131.200	0.072	-0.092
-187.144	23.599	0.129	-0.105
-186.129	-200.000	0.042	-0.295
-185.114	-200.000	0.031	-0.162
-184.100	-65.833	-0.010	-0.004
-183.085	-18.980	0.157	0.096
-182.071	4.946	0.102	-0.075
-181.056	280.058	-0.080	-0.141
-180.042	-100.736	-0.197	0.048
-179.027	-112.488	0.416	0.082
-178.012	-200.000	0.000	0.274
-176.998	-134.085	0.251	-0.031
-175.983	-50.003	-0.095	-0.045
-174.969	62.998	-0.122	-0.121
-173.954	-200.000	-0.004	-0.064
-172.939	103.683	0.183	-0.213
-171.925	-39.650	-0.156	0.081
-170.910	-20.509	0.236	-0.143
-169.896	800.000	0.046	0.146
-168.881	12.129	0.208	-0.158
-167.866	-200.000	0.018	-0.318
-166.852	113.446	0.027	-0.032
-165.837	-179.716	0.202	0.004
-164.823	-34.503	0.309	-0.167
-163.808	-9.582	0.154	0.101
-162.793	41.446	-0.078	0.070
-161.779	-44.124	0.318	0.158
-160.764	17.298	-0.117	0.092
-159.750	-105.087	0.231	-0.052
-158.735	40.882	0.243	-0.216
-157.720	571.956	0.119	-0.287
-156.706	-200.000	0.022	-0.420
-155.691	129.873	0.169	-0.214
-154.677	339.794	0.027	-0.051
-153.662	-93.186	0.130	0.036
-152.647	800.000	0.109	0.384
-151.633	88.080	0.053	0.058
-150.618	800.000	0.024	-0.102
-149.604	-200.000	0.035	0.208
-148.589	-200.000	0.023	0.190
-147.574	-200.000	0.036	-0.207
-146.560	-68.749	0.121	0.046
-145.545	800.000	0.061	0.194
-144.531	10.199	-0.104	0.078
-143.516	147.506	-0.093	-0.124
-142.502	-200.000	0.031	-0.296
-141.487	246.184	-0.238	-0.396
-140.472	800.000	0.044	-0.131
-139.458	800.000	-0.102	0.316
-138.443	263.359	0.103	0.176
-137.429	-200.000	-0.003	-0.181
-136.414	107.906	-0.075	-0.089
-135.399	800.000	-0.092	0.306
-134.385	800.000	0.074	0.256
-133.370	-125.831	0.435	-0.065
-132.356	-24.397	0.123	-0.072
-131.341	534.642	0.111	-0.261
-130.326	800.000	-0.093	0.264
-129.312	-95.816	-0.106	-0.028
-128.297	187.504	0.115	0.170
-127.283	-58.286	-0.190	0.082
-126.268	-93.436	0.368	-0.101
-125.253	55.933	-0.063	-0.060
-124.239	-200.000	-0.005	-0.110
-123.224	-8.898	0.131	-0.087
-122.210	-200.000	0.014	0.101
-121.195	-185.268	0.154	-0.002
