DTS Sentinel unit serial number:	SN413079Multiplexer serial number:	ORYXHardware model number:	OX4-SRSoftware version number:	ORYX F/W v4.00 Oryx Data Collector v3.7.2.0data status	okinstallation	princeton_trtdifferential loss correction	single-endedforward channel	channel 4reverse channel	N/Adate	2019/09/11time	19:03:11forward acquisition time	60.00reverse acquisition time	0.00gamma	496.2192k internal	0.2286k external	0.2286temperature offset calibration	1.0036default loss term (dB/km)	0.3790temperature slope calibration	1.0000multiplexer offset coefficient	1.0000multiplexer slope coefficient	1.0000fibre end	0.00T internal ref (°C)	42.11T ext. ref 1 (°C)	1.29T ext. ref 2 (°C)	34.38length (m)	temperature (°C)	Stokes	anti-Stokes-747.200	-77.882	0.273	0.097
-746.185	-98.475	-0.128	0.034
-745.171	800.000	0.035	0.153
-744.156	-154.510	0.218	0.015
-743.142	-108.474	0.347	0.077
-742.127	800.000	-0.097	0.354
-741.112	70.302	-0.062	0.066
-740.098	54.695	-0.224	0.221
-739.083	238.506	-0.077	0.131
-738.069	-74.693	0.164	-0.061
-737.054	51.157	-0.178	-0.174
-736.039	-200.000	-0.001	-0.101
-735.025	470.087	0.057	0.130
-734.010	141.828	-0.087	0.119
-732.996	77.262	0.112	-0.122
-731.981	800.000	-0.028	0.087
-730.966	-200.000	0.034	-0.186
-729.952	-45.367	-0.290	-0.148
-728.937	783.992	-0.028	0.078
-727.923	154.031	0.076	-0.106
-726.908	488.549	0.079	-0.186
-725.894	-123.595	-0.320	-0.052
-724.879	-200.000	-0.015	0.182
-723.864	800.000	-0.087	0.259
-722.850	800.000	0.020	-0.070
-721.835	-200.000	-0.056	-0.278
-720.821	800.000	0.081	-0.241
-719.806	-56.079	-0.430	-0.196
-718.791	208.949	0.171	-0.275
-717.777	-119.338	-0.118	-0.021
-716.762	-107.218	-0.219	-0.049
-715.748	800.000	-0.072	-0.254
-714.733	223.357	0.016	-0.027
-713.718	800.000	-0.082	-0.235
-712.704	800.000	-0.066	0.212
-711.689	86.653	-0.041	-0.046
-710.675	-45.065	0.178	0.091
-709.660	-200.000	0.001	-0.036
-708.645	-200.000	-0.008	0.064
-707.631	-53.265	0.103	-0.049
-706.616	45.478	0.133	-0.126
-705.602	-200.000	-0.001	-0.130
-704.587	101.391	0.128	0.152
-703.572	-200.000	-0.004	-0.078
-702.558	-24.900	-0.127	0.078
-701.543	-60.910	0.411	-0.178
-700.529	-165.056	-0.182	0.008
-699.514	-13.866	0.211	0.140
-698.499	-39.094	0.205	-0.111
-697.485	-200.000	0.001	0.036
-696.470	-124.555	0.181	0.029
-695.456	30.811	-0.261	0.229
-694.441	577.534	0.208	-0.521
-693.426	488.086	-0.101	-0.236
-692.412	-200.000	-0.042	0.427
-691.397	15.990	0.230	-0.185
-690.383	-75.812	-0.286	-0.104
-689.368	-51.180	0.169	0.081
-688.354	-93.677	-0.395	0.112
-687.339	-200.000	-0.000	-0.118
-686.324	297.294	0.076	-0.143
-685.310	-61.041	0.479	-0.207
-684.295	-51.165	-0.239	-0.115
-683.281	-200.000	-0.021	-0.622
-682.266	-17.197	0.195	0.126
-681.251	800.000	-0.080	0.289
-680.237	123.986	-0.185	-0.238
-679.222	583.172	0.099	-0.249
-678.208	-41.418	-0.367	-0.193
-677.193	407.803	-0.044	0.094
-676.178	94.490	0.195	-0.227
-675.164	-200.000	0.010	0.117
-674.149	-122.684	-0.089	-0.015
-673.135	-200.000	0.034	-0.201
-672.120	-102.775	-0.359	-0.088
-671.105	-200.000	-0.001	0.010
-670.091	-123.959	-0.225	0.036
-669.076	149.600	0.129	-0.179
-668.062	-200.000	-0.062	0.423
-667.047	800.000	0.047	-0.165
-666.032	452.185	-0.044	-0.100
-665.018	-200.000	0.023	0.117
-664.003	-20.107	0.225	-0.142
-662.989	-147.180	-0.168	-0.015
-661.974	-157.011	-0.061	-0.004
-660.959	-114.963	-0.276	-0.054
-659.945	85.325	0.205	-0.230
-658.930	-87.929	-0.151	0.046
-657.916	-200.000	-0.004	-0.143
-656.901	-200.000	-0.019	-0.136
-655.886	-200.000	-0.047	-0.310
-654.872	266.696	0.044	-0.078
-653.857	-7.957	-0.116	0.080
-652.843	-137.464	-0.309	0.036
-651.828	-97.033	-0.079	-0.021
-650.814	800.000	-0.042	0.166
-649.799	-200.000	0.024	-0.133
-648.784	800.000	-0.057	-0.230
-647.770	205.457	0.043	0.068
-646.755	136.616	0.221	-0.295
-645.741	24.965	-0.105	0.089
-644.726	245.554	0.135	0.233
-643.711	-69.446	0.041	0.016
-642.697	518.613	-0.049	0.118
-641.682	95.121	0.072	0.084
-640.668	-200.000	-0.025	-0.137
-639.653	64.342	0.144	-0.148
-638.638	-64.917	-0.104	-0.043
-637.624	138.982	0.125	-0.169
-636.609	354.155	0.036	0.074
-635.595	800.000	0.050	0.155
-634.580	-21.002	0.090	-0.056
-633.565	62.745	0.160	0.163
-632.551	-58.089	0.222	0.099
-631.536	158.055	-0.092	0.130
-630.522	448.052	-0.145	-0.326
-629.507	296.759	-0.158	0.296
-628.492	800.000	0.095	-0.286
-627.478	800.000	0.028	-0.104
-626.463	114.486	0.068	0.085
-625.449	167.233	-0.160	0.232
-624.434	31.734	0.200	-0.176
-623.419	-49.330	0.186	0.091
-622.405	800.000	-0.012	-0.047
-621.390	5.654	-0.391	-0.295
-620.376	356.453	-0.065	0.133
-619.361	-63.334	0.045	0.019
-618.346	800.000	-0.047	0.132
-617.332	800.000	-0.071	0.235
-616.317	790.643	-0.050	-0.142
-615.303	-69.095	0.334	0.131
-614.288	800.000	-0.032	0.125
-613.273	307.309	-0.064	0.121
-612.259	-200.000	0.012	-0.220
-611.244	229.397	-0.084	0.141
-610.230	-36.689	-0.172	-0.094
-609.215	800.000	0.040	0.140
-608.201	-170.204	-0.259	0.009
-607.186	-56.341	0.235	-0.107
-606.171	-200.000	0.029	0.155
-605.157	34.999	-0.230	-0.206
-604.142	-96.152	0.084	-0.023
-603.128	41.107	0.081	-0.074
-602.113	40.929	-0.155	0.143
-601.098	198.563	0.024	-0.038
-600.084	-150.185	-0.308	-0.024
-599.069	-200.000	-0.016	-0.454
-598.055	800.000	0.014	0.048
-597.040	50.349	0.159	0.154
-596.025	37.678	-0.329	0.298
-595.011	-33.115	-0.279	0.158
-593.996	-114.368	0.183	0.036
-592.982	800.000	-0.061	-0.200
-591.967	800.000	0.012	-0.052
-590.952	-129.148	0.340	-0.048
-589.938	-44.258	-0.122	-0.062
-588.923	-200.000	0.039	-0.386
-587.909	-72.669	0.164	-0.062
-586.894	40.593	-0.172	-0.158
-585.879	-77.957	-0.177	-0.062
-584.865	800.000	-0.081	0.300
-583.850	-200.000	0.037	0.180
-582.836	-106.460	-0.288	0.066
-581.821	800.000	-0.069	-0.208
-580.806	576.177	0.097	-0.242
-579.792	-200.000	0.025	-0.228
-578.777	-200.000	-0.014	0.146
-577.763	-39.533	0.157	-0.084
-576.748	-200.000	0.005	-0.117
-575.733	4.027	0.144	0.108
-574.719	-19.272	0.378	-0.239
-573.704	-46.030	0.090	0.045
-572.690	-94.471	-0.090	-0.025
-571.675	800.000	0.043	-0.174
-570.661	155.605	0.116	0.162
-569.646	-200.000	0.004	0.120
-568.631	155.020	-0.098	0.138
-567.617	-53.547	-0.192	0.090
-566.602	-98.251	0.198	-0.052
-565.588	24.576	-0.126	-0.106
-564.573	-200.000	-0.013	-0.203
-563.558	54.243	-0.126	-0.124
-562.544	-200.000	0.000	0.154
-561.529	11.896	0.229	-0.180
-560.515	339.191	0.088	-0.175
-559.500	-117.585	-0.086	-0.016
-558.485	-78.948	0.143	0.050
-557.471	-200.000	-0.035	0.288
-556.456	99.183	-0.064	-0.075
-555.442	265.180	0.057	-0.102
-554.427	287.690	0.166	0.307
-553.412	385.022	-0.157	-0.330
-552.398	-15.249	-0.089	-0.058
-551.383	-94.649	0.067	0.019
-550.369	-200.000	0.008	-0.184
-549.354	274.979	-0.107	0.193
-548.339	-85.545	0.352	0.111
-547.325	-154.286	-0.294	-0.020
-546.310	-200.000	0.009	-0.195
-545.296	-200.000	0.008	0.318
-544.281	-91.586	-0.323	0.094
-543.266	126.856	-0.117	-0.151
-542.252	-200.000	0.027	-0.146
-541.237	1.664	0.143	-0.105
-540.223	-149.055	-0.226	-0.019
-539.208	94.721	0.202	-0.234
-538.193	-95.624	0.378	-0.103
-537.179	460.917	-0.124	0.282
-536.164	-63.904	0.350	0.146
-535.150	800.000	-0.023	0.099
-534.135	-200.000	-0.079	0.385
-533.121	-11.027	0.065	-0.044
-532.106	337.125	0.111	-0.220
-531.091	-200.000	-0.013	0.201
-530.077	75.578	0.227	-0.244
-529.062	-96.742	-0.112	0.030
-528.048	800.000	0.055	-0.167
-527.033	-200.000	-0.015	-0.217
-526.018	-71.761	0.091	0.035
-525.004	160.794	0.056	-0.080
-523.989	43.133	-0.178	0.165
-522.975	631.861	-0.069	-0.178
-521.960	70.614	-0.138	-0.146
-520.945	27.907	0.256	-0.220
-519.931	-61.929	-0.006	-0.003
-518.916	507.756	-0.038	-0.089
-517.902	334.503	0.057	-0.112
-516.887	587.324	0.133	-0.334
-515.872	-200.000	0.073	-0.330
-514.858	-132.386	-0.297	0.039
-513.843	110.700	0.087	-0.107
-512.829	-5.470	0.087	0.061
-511.814	-35.944	0.054	-0.030
-510.799	108.387	-0.086	0.104
-509.785	761.630	-0.038	-0.104
-508.770	280.109	0.094	0.170
-507.756	-70.018	0.408	0.158
-506.741	-100.994	0.118	-0.030
-505.726	-14.124	0.094	0.062
-504.712	800.000	-0.076	0.260
-503.697	193.810	-0.266	0.410
-502.683	318.763	-0.086	-0.165
-501.668	125.377	-0.154	-0.198
-500.653	-200.000	0.049	-0.249
-499.639	227.798	-0.109	-0.180
-498.624	-200.000	0.058	0.316
-497.610	-41.617	-0.147	0.077
-496.595	-21.905	0.155	-0.096
-495.581	110.160	0.205	-0.250
-494.566	297.915	0.051	-0.095
-493.551	-51.183	-0.224	0.106
-492.537	-200.000	-0.059	0.316
-491.522	293.869	0.046	-0.085
-490.508	-200.000	0.023	0.106
-489.493	159.279	0.099	0.140
-488.478	-200.000	-0.012	-0.528
-487.464	586.505	-0.066	-0.164
-486.449	24.775	-0.406	-0.342
-485.435	-24.847	-0.113	-0.068
-484.420	-200.000	-0.010	0.076
-483.405	-92.407	0.242	-0.069
-482.391	697.747	-0.037	0.098
-481.376	185.605	0.083	-0.125
-480.362	-87.140	0.180	0.056
-479.347	-200.000	-0.012	0.100
-478.332	70.515	-0.152	0.159
-477.318	-100.761	0.421	-0.105
-476.303	-128.687	0.287	0.041
-475.289	46.132	-0.262	0.246
-474.274	800.000	-0.132	0.384
-473.259	-68.305	-0.130	-0.051
-472.245	-200.000	-0.052	-0.270
-471.230	708.667	-0.190	0.510
-470.216	-122.308	0.237	0.039
-469.201	387.954	0.060	-0.126
-468.186	800.000	-0.007	-0.026
-467.172	-200.000	-0.035	-0.229
-466.157	16.388	-0.220	0.176
-465.143	-200.000	0.000	0.077
-464.128	-35.006	0.278	0.154
-463.113	-7.085	0.103	0.071
-462.099	-123.948	0.260	-0.042
-461.084	-200.000	-0.002	0.060
-460.070	226.205	0.129	-0.212
-459.055	-72.738	-0.227	0.085
-458.040	-145.446	0.162	-0.015
-457.026	172.182	-0.074	-0.108
-456.011	-144.751	0.132	-0.012
-454.997	-103.054	0.037	-0.009
-453.982	-101.012	-0.018	0.005
-452.968	28.519	0.095	-0.082
-451.953	-32.923	-0.213	0.120
-450.938	48.110	0.076	-0.072
-449.924	126.930	0.039	0.050
-448.909	-133.301	-0.105	-0.013
-447.895	402.699	0.091	0.193
-446.880	-52.039	0.109	0.051
-445.865	206.297	0.078	0.124
-444.851	-0.268	-0.151	0.109
-443.836	116.404	-0.146	0.182
-442.822	116.541	0.095	-0.118
-441.807	-109.130	-0.124	-0.027
-440.792	-29.077	0.197	0.115
-439.778	-200.000	0.014	0.235
-438.763	800.000	0.083	-0.289
-437.749	-0.035	0.111	-0.080
-436.734	-39.014	0.335	-0.179
-435.719	800.000	-0.035	-0.114
-434.705	-200.000	-0.016	0.079
-433.690	-62.372	0.466	0.197
-432.676	-50.026	-0.186	0.090
-431.661	14.640	0.240	0.190
-430.646	354.639	-0.043	0.087
-429.632	-200.000	-0.008	-0.184
-428.617	192.714	-0.087	-0.133
-427.603	574.778	-0.072	-0.179
-426.588	125.158	-0.128	0.163
-425.573	-24.623	0.108	0.065
-424.559	800.000	0.059	-0.202
-423.544	-145.112	0.266	-0.024
-422.530	-110.921	0.360	0.075
-421.515	-29.256	-0.105	-0.061
-420.500	3.649	0.349	0.258
-419.486	-44.868	0.131	0.066
-418.471	-99.283	0.181	-0.046
-417.457	189.065	-0.093	0.141
-416.442	800.000	0.111	0.325
-415.428	237.035	-0.248	0.416
-414.413	-171.488	0.643	0.022
-413.398	-59.382	0.326	-0.142
-412.384	-200.000	0.180	0.001
-411.369	-200.000	-0.035	0.182
-410.355	339.200	0.059	0.117
-409.340	288.399	-0.059	0.108
-408.325	65.733	0.173	0.178
-407.311	-200.000	-0.021	0.253
-406.296	-122.888	0.279	0.046
-405.282	-200.000	0.018	-0.240
-404.267	-143.341	-0.093	-0.009
-403.252	-90.658	0.240	0.070
-402.238	-200.000	0.043	0.262
-401.223	800.000	0.069	0.270
-400.209	-200.000	-0.010	-0.169
-399.194	-147.580	-0.104	-0.009
-398.179	318.217	0.158	0.303
-397.165	713.032	-0.081	-0.218
-396.150	21.267	0.230	0.189
-395.136	-95.073	-0.388	0.106
-394.121	273.772	-0.175	0.314
-393.106	-126.646	-0.149	-0.022
-392.092	-32.037	0.152	0.086
-391.077	-42.444	-0.510	-0.263
-390.063	-196.715	0.200	0.001
-389.048	-127.202	0.101	-0.015
-388.033	51.997	0.137	0.132
-387.019	51.738	0.151	0.145
-386.004	-147.092	0.065	-0.006
-384.990	743.825	-0.110	0.301
-383.975	800.000	-0.038	0.136
-382.960	163.483	0.213	0.303
-381.946	-200.000	0.011	-0.133
-380.931	800.000	0.082	-0.257
-379.917	109.392	-0.130	0.157
-378.902	-188.395	-0.071	-0.001
-377.888	-50.642	-0.081	0.039
-376.873	313.699	0.134	-0.255
-375.858	-200.000	-0.016	-0.216
-374.844	-125.793	-0.098	-0.015
-373.829	109.772	0.057	0.069
-372.815	-112.267	-0.377	-0.076
-371.800	-0.132	-0.163	0.117
-370.785	-106.739	-0.199	0.045
-369.771	206.715	-0.138	-0.218
-368.756	-200.000	0.019	0.130
-367.742	45.071	-0.102	0.095
-366.727	-137.100	-0.381	-0.044
-365.712	9.262	-0.277	-0.212
-364.698	-200.000	-0.021	-0.294
-363.683	239.681	0.083	-0.140
-362.669	185.171	-0.152	-0.228
-361.654	-100.055	0.046	-0.012
-360.639	462.001	0.201	-0.453
-359.625	10.074	-0.198	0.152
-358.610	-163.573	0.362	0.017
-357.596	-200.000	-0.016	-0.072
-356.581	146.220	-0.139	0.188
-355.566	660.146	0.081	-0.212
-354.552	519.263	0.158	-0.374
-353.537	27.268	-0.120	-0.102
-352.523	15.753	-0.426	-0.339
-351.508	258.793	-0.134	0.234
-350.493	41.281	0.227	0.207
-349.479	-109.171	-0.300	-0.064
-348.464	800.000	0.039	-0.138
-347.450	-62.081	0.092	-0.039
-346.435	-126.189	-0.417	-0.063
-345.420	-200.000	-0.001	-0.108
-344.406	459.684	-0.103	-0.232
-343.391	-10.912	-0.225	-0.150
-342.377	-50.577	-0.330	0.157
-341.362	-200.000	-0.035	-0.166
-340.348	-200.000	-0.023	-0.107
-339.333	-200.000	0.017	-0.181
-338.318	-56.950	0.182	-0.081
-337.304	-9.652	-0.181	-0.122
-336.289	310.515	-0.076	-0.143
-335.275	507.361	-0.162	-0.380
-334.260	11.177	-0.380	-0.294
-333.245	-68.170	-0.338	0.133
-332.231	-23.540	0.156	0.094
-331.216	-130.978	-0.236	0.032
-330.202	76.410	-0.200	0.214
-329.187	-26.808	0.435	-0.257
-328.172	-8.068	-0.292	-0.199
-327.158	800.000	-0.079	0.222
-326.143	109.601	0.297	0.360
-325.129	-28.260	-0.166	-0.097
-324.114	227.845	-0.103	-0.170
-323.099	-200.000	-0.043	0.190
-322.085	-200.000	-0.044	0.214
-321.070	-63.934	-0.114	-0.047
-320.056	-119.539	0.158	-0.028
-319.041	63.903	-0.304	0.308
-318.026	800.000	0.108	0.419
-317.012	76.796	0.170	-0.182
-315.997	-35.268	0.357	-0.196
-314.983	-164.442	-0.065	0.003
-313.968	16.080	0.053	0.042
-312.953	9.420	-0.174	0.133
-311.939	-118.730	0.284	-0.051
-310.924	-112.007	-0.114	-0.023
-309.910	800.000	0.040	0.129
-308.895	-12.140	-0.165	0.109
-307.880	313.425	0.112	0.213
-306.866	-64.950	-0.071	0.029
-305.851	50.455	0.174	0.166
-304.837	-133.315	-0.228	-0.029
-303.822	-200.000	0.006	0.448
-302.807	-61.119	0.338	0.144
-301.793	800.000	-0.070	0.203
-300.778	20.575	0.223	-0.182
-299.764	-91.245	0.282	-0.081
-298.749	800.000	-0.043	-0.127
-297.735	-161.022	-0.264	-0.014
-296.720	-150.823	-0.502	-0.038
-295.705	305.156	-0.020	-0.038
-294.691	277.511	-0.197	0.354
-293.676	-200.000	0.003	-0.242
-292.662	-27.766	-0.292	0.171
-291.647	564.545	-0.153	0.374
-290.632	-176.924	-0.181	0.005
-289.618	800.000	0.026	0.107
-288.603	241.607	-0.254	-0.429
-287.589	715.517	-0.087	0.232
-286.574	-22.226	-0.156	-0.096
-285.559	656.965	-0.109	0.282
-284.545	-152.605	0.288	-0.021
-283.530	-71.065	-0.067	-0.025
-282.516	-99.312	0.107	-0.027
-281.501	-113.055	-0.146	0.029
-280.486	-145.070	0.165	-0.015
-279.472	-126.364	0.159	-0.024
-278.457	251.002	-0.091	0.156
-277.443	210.568	-0.079	-0.125
-276.428	800.000	-0.048	-0.168
-275.413	-157.115	0.382	-0.023
-274.399	565.189	-0.024	-0.058
-273.384	95.081	0.197	-0.227
-272.370	8.537	-0.010	-0.008
-271.355	-200.000	0.009	-0.185
-270.340	-169.755	0.179	-0.007
-269.326	-148.976	-0.172	0.014
-268.311	64.290	-0.268	-0.272
-267.297	-6.628	-0.219	0.150
-266.282	-48.879	-0.225	0.109
-265.267	-153.346	-0.127	-0.009
-264.253	81.523	0.043	0.047
-263.238	-127.546	0.232	0.034
-262.224	-80.734	-0.149	0.050
-261.209	-46.314	0.116	-0.057
-260.195	800.000	-0.067	-0.245
-259.180	84.081	-0.295	0.325
-258.165	-51.370	0.391	0.184
-257.151	-200.000	0.031	-0.243
-256.136	124.480	0.267	-0.338
-255.122	-200.000	-0.029	-0.238
-254.107	265.590	-0.227	-0.398
-253.092	-128.745	0.102	0.015
-252.078	-200.000	0.042	-0.205
-251.063	-200.000	-0.006	-0.111
-250.049	-200.000	0.007	-0.133
-249.034	-75.257	-0.268	0.096
-248.019	-137.086	-0.312	-0.036
-247.005	129.777	0.148	0.191
-245.990	319.337	-0.222	0.424
-244.976	160.534	0.052	-0.073
-243.961	-200.000	0.051	0.434
-242.946	134.558	0.136	-0.177
-241.932	-200.000	-0.015	-0.131
-240.917	-88.759	-0.121	-0.036
-239.903	-200.000	0.064	-0.284
-238.888	-12.477	-0.206	0.135
-237.873	-111.938	0.284	0.058
-236.859	45.579	-0.385	-0.358
-235.844	-200.000	-0.059	-0.275
-234.830	20.314	0.087	-0.071
-233.815	11.726	0.069	0.053
-232.800	-44.948	0.213	0.107
-231.786	-31.850	0.222	0.125
-230.771	171.646	0.355	0.513
-229.757	95.715	0.112	0.129
-228.742	38.639	0.299	-0.268
-227.727	36.171	0.108	-0.096
-226.713	457.463	0.107	-0.239
-225.698	-200.000	0.027	0.345
-224.684	583.726	-0.076	-0.188
-223.669	-200.000	-0.040	-0.249
-222.655	-114.069	0.283	-0.055
-221.640	-48.671	-0.095	0.046
-220.625	112.569	0.071	-0.086
-219.611	-46.697	-0.364	-0.179
-218.596	-40.140	-0.142	0.074
-217.582	-1.566	-0.255	0.181
-216.567	800.000	-0.038	0.144
-215.552	-200.000	0.038	0.288
-214.538	12.062	0.329	-0.254
-213.523	-43.621	0.217	-0.110
-212.509	-200.000	0.006	0.061
-211.494	86.242	-0.093	0.103
-210.479	-200.000	-0.051	0.340
-209.465	800.000	0.023	0.089
-208.450	530.211	0.032	0.076
-207.436	-200.000	-0.022	-0.251
-206.421	-47.253	-0.095	0.047
-205.406	16.857	-0.159	-0.127
-204.392	-200.000	0.072	-0.380
-203.377	800.000	0.031	0.120
-202.363	-120.740	0.079	0.013
-201.348	800.000	0.074	0.299
-200.333	-200.000	0.025	-0.320
-199.319	-200.000	-0.045	-0.345
-198.304	-89.646	0.169	0.050
-197.290	268.757	-0.028	-0.050
-196.275	-200.000	-0.026	0.298
-195.260	15.145	-0.199	-0.157
-194.246	-51.376	0.343	0.161
-193.231	-93.713	0.220	0.061
-192.217	663.032	-0.088	-0.229
-191.202	224.639	-0.066	0.107
-190.187	-100.748	-0.375	0.093
-189.173	370.121	0.092	0.188
-188.158	-144.862	0.253	-0.023
-187.144	441.434	0.139	0.306
-186.129	-164.207	0.237	0.011
-185.114	29.306	0.096	0.082
-184.100	-200.000	-0.032	0.186
-183.085	164.326	-0.181	-0.257
-182.071	-76.740	0.153	0.054
-181.056	123.511	0.123	-0.155
-180.042	-200.000	0.014	0.188
-179.027	-198.299	-0.257	0.001
-178.012	-200.000	-0.015	0.277
-176.998	366.877	0.153	0.309
-175.983	-5.213	-0.156	0.107
-174.969	-200.000	-0.026	0.133
-173.954	-200.000	0.008	-0.100
-172.939	-43.659	0.244	0.123
-171.925	-200.000	-0.002	0.195
-170.910	-200.000	-0.014	-0.133
-169.896	-3.206	-0.104	0.073
-168.881	94.337	-0.156	-0.178
-167.866	71.502	-0.094	-0.098
-166.852	-22.193	-0.272	0.165
-165.837	355.369	-0.019	-0.039
-164.823	-200.000	0.043	0.264
-163.808	800.000	-0.056	-0.225
-162.793	57.934	0.144	-0.141
-161.779	-75.391	-0.254	0.091
-160.764	-15.903	-0.198	-0.126
-159.750	-200.000	0.010	0.111
-158.735	-115.082	0.197	0.038
-157.720	-63.934	-0.205	0.084
-156.706	-44.159	-0.399	-0.201
-155.691	-170.452	-0.063	0.002
-154.677	-200.000	-0.063	0.670
-153.662	800.000	-0.045	-0.133
-152.647	-156.762	0.086	0.005
-151.633	341.241	0.137	-0.268
-150.618	-200.000	0.002	-0.375
-149.604	-65.051	0.339	0.137
-148.589	-138.969	-0.343	-0.037
-147.574	455.026	0.096	0.214
-146.560	60.447	-0.159	-0.158
-145.545	800.000	-0.074	-0.223
-144.531	-31.141	0.119	0.067
-143.516	-82.827	-0.097	0.031
-142.502	-23.360	0.368	0.222
-141.487	-68.623	-0.008	-0.003
-140.472	-200.000	0.002	-0.207
-139.458	-40.821	0.221	-0.115
-138.443	510.899	0.093	-0.217
-137.429	66.690	0.218	0.223
-136.414	-137.643	-0.263	0.030
-135.399	623.311	0.111	0.281
-134.385	800.000	-0.076	-0.333
-133.370	50.488	0.115	-0.109
-132.356	-14.205	0.262	-0.169
-131.341	-200.000	-0.012	0.107
-130.326	-47.184	0.066	-0.032
-129.312	800.000	-0.085	0.285
-128.297	-68.464	-0.222	0.086
-127.283	800.000	0.064	0.205
-126.268	-53.634	-0.362	-0.166
-125.253	350.109	0.115	-0.227
-124.239	24.361	-0.340	-0.282
-123.224	-121.147	-0.077	0.013
