DTS Sentinel unit serial number:	SN413079Multiplexer serial number:	ORYXHardware model number:	OX4-SRSoftware version number:	ORYX F/W v4.00 Oryx Data Collector v3.7.2.0data status	okinstallation	princeton_trtdifferential loss correction	single-endedforward channel	channel 4reverse channel	N/Adate	2019/09/15time	22:37:35forward acquisition time	60.00reverse acquisition time	0.00gamma	496.2192k internal	0.2320k external	0.2320temperature offset calibration	0.9951default loss term (dB/km)	0.3790temperature slope calibration	1.0000multiplexer offset coefficient	1.0000multiplexer slope coefficient	1.0000fibre end	0.00T internal ref (°C)	29.00T ext. ref 1 (°C)	8.78T ext. ref 2 (°C)	22.44length (m)	temperature (°C)	Stokes	anti-Stokes-747.200	-200.000	0.054	0.427
-746.185	193.225	-0.150	-0.229
-745.171	-163.638	-0.114	-0.005
-744.156	62.129	0.044	-0.045
-743.142	-165.644	-0.316	-0.014
-742.127	17.475	-0.313	-0.252
-741.112	-63.372	-0.282	-0.117
-740.098	-200.000	-0.011	0.377
-739.083	-200.000	0.002	-0.058
-738.069	800.000	-0.093	0.339
-737.054	522.460	-0.014	0.033
-736.039	260.885	-0.162	-0.284
-735.025	-7.004	0.126	0.086
-734.010	-200.000	-0.034	0.162
-732.996	-88.311	-0.105	-0.032
-731.981	-43.849	-0.337	0.172
-730.966	-80.118	0.040	0.013
-729.952	-200.000	0.013	-0.225
-728.937	-137.200	-0.267	0.031
-727.923	-90.908	0.169	0.049
-726.908	-144.369	0.337	0.032
-725.894	386.107	0.158	0.329
-724.879	-5.004	-0.180	-0.125
-723.864	-7.458	0.118	0.081
-722.850	711.567	-0.036	-0.097
-721.835	-127.903	0.196	-0.029
-720.821	-107.053	0.181	0.040
-719.806	445.526	-0.070	-0.155
-718.791	161.995	0.139	-0.196
-717.777	-200.000	-0.058	-0.283
-716.762	-0.716	0.082	0.059
-715.748	305.392	0.120	-0.224
-714.733	58.070	-0.348	0.344
-713.718	-149.608	0.615	0.049
-712.704	14.934	0.099	0.078
-711.689	39.028	-0.364	-0.328
-710.675	-8.036	-0.171	0.116
-709.660	800.000	0.044	0.149
-708.645	-200.000	-0.026	0.209
-707.631	-103.221	0.118	0.028
-706.616	14.406	-0.043	-0.034
-705.602	284.659	-0.127	0.231
-704.587	-151.150	0.242	-0.018
-703.572	-177.223	0.126	-0.003
-702.558	733.201	0.114	0.307
-701.543	-71.666	0.202	-0.076
-700.529	85.285	0.175	0.194
-699.514	-200.000	0.033	0.293
-698.499	407.582	-0.076	-0.163
-697.485	9.509	0.313	-0.239
-696.470	800.000	-0.049	-0.150
-695.456	342.380	-0.149	0.295
-694.441	-31.139	0.084	-0.048
-693.426	-68.966	-0.197	-0.077
-692.412	-200.000	-0.011	-0.450
-691.397	455.491	0.075	0.167
-690.383	336.861	-0.156	-0.305
-689.368	171.004	-0.154	0.222
-688.354	582.908	-0.148	-0.367
-687.339	-200.000	0.016	0.150
-686.324	46.700	0.086	-0.080
-685.310	34.198	-0.111	0.098
-684.295	-129.815	0.426	0.059
-683.281	-107.823	0.292	-0.064
-682.266	-200.000	-0.009	-0.373
-681.251	189.625	0.222	-0.336
-680.237	-129.390	-0.189	-0.026
-679.222	275.485	0.111	0.198
-678.208	287.527	-0.278	0.508
-677.193	100.399	0.173	0.202
-676.178	-105.257	0.161	0.037
-675.164	-22.709	-0.163	-0.100
-674.149	166.003	0.063	0.089
-673.135	-200.000	0.012	-0.244
-672.120	274.889	0.149	0.266
-671.105	252.213	0.072	0.124
-670.091	84.608	-0.203	0.224
-669.076	433.506	-0.069	0.150
-668.062	130.908	0.153	0.198
-667.047	-118.018	0.101	-0.018
-666.032	-104.375	0.240	0.056
-665.018	800.000	-0.074	0.229
-664.003	254.977	0.059	-0.102
-662.989	-94.411	0.179	0.049
-661.974	-12.128	-0.089	0.058
-660.959	-83.739	-0.075	-0.024
-659.945	-98.111	0.565	0.147
-658.930	800.000	-0.069	-0.272
-657.916	-1.560	-0.062	-0.044
-656.901	786.270	-0.046	-0.127
-655.886	726.713	-0.044	-0.117
-654.872	-47.028	0.024	0.012
-653.857	178.532	0.056	0.082
-652.843	-71.376	-0.213	-0.080
-651.828	172.231	0.067	-0.097
-650.814	-200.000	0.025	-0.220
-649.799	613.229	-0.030	-0.075
-648.784	-200.000	-0.028	0.342
-647.770	203.009	0.064	-0.099
-646.755	-44.225	0.100	-0.051
-645.741	-200.000	-0.018	-0.255
-644.726	88.224	0.098	0.109
-643.711	-118.408	0.022	0.004
-642.697	-18.587	0.204	0.128
-641.682	-122.732	-0.445	-0.073
-640.668	-68.318	0.229	-0.089
-639.653	-129.640	-0.102	0.014
-638.638	237.559	0.110	-0.183
-637.624	-200.000	-0.001	0.087
-636.609	-200.000	0.012	-0.400
-635.595	-200.000	-0.006	-0.091
-634.580	-200.000	0.043	-0.310
-633.565	-136.111	-0.243	-0.029
-632.551	133.888	-0.264	-0.345
-631.536	110.249	0.178	0.215
-630.522	-65.286	0.155	0.063
-629.507	-49.094	0.193	-0.093
-628.492	-123.013	-0.120	0.019
-627.478	-184.164	-0.235	0.004
-626.463	800.000	-0.067	0.243
-625.449	1.907	-0.193	-0.140
-624.434	-200.000	0.003	-0.054
-623.419	-189.793	0.304	0.003
-622.405	800.000	0.089	-0.279
-621.390	-26.254	-0.383	0.226
-620.376	-47.359	-0.299	0.147
-619.361	-47.500	0.162	0.079
-618.346	274.797	-0.122	0.218
-617.332	-46.038	-0.283	-0.140
-616.317	367.722	0.113	-0.230
-615.303	10.737	-0.187	-0.144
-614.288	181.511	0.095	-0.141
-613.273	140.010	-0.095	-0.126
-612.259	-47.045	-0.122	0.060
-611.244	-78.321	-0.254	-0.088
-610.230	-103.172	0.400	-0.095
-609.215	-133.456	-0.069	0.009
-608.201	350.321	0.177	0.351
-607.186	-200.000	0.040	0.211
-606.171	-158.307	0.108	0.006
-605.157	99.365	0.111	0.129
-604.142	290.560	-0.125	-0.228
-603.128	-1.716	0.156	-0.110
-602.113	800.000	0.084	-0.289
-601.098	-72.349	-0.157	0.058
-600.084	114.197	0.141	-0.172
-599.069	-35.003	-0.183	-0.100
-598.055	83.651	-0.065	0.072
-597.040	-9.433	-0.044	-0.029
-596.025	-54.581	0.186	-0.085
-595.011	109.513	-0.122	-0.147
-593.996	536.045	-0.068	-0.162
-592.982	-74.591	-0.100	0.036
-591.967	447.239	-0.084	-0.186
-590.952	346.200	0.105	-0.207
-589.938	-41.491	0.100	-0.051
-588.923	112.094	-0.111	0.135
-587.909	800.000	-0.095	0.278
-586.894	-25.614	-0.174	0.103
-585.879	-104.416	-0.233	-0.054
-584.865	-125.128	-0.327	0.050
-583.850	25.077	-0.034	-0.028
-582.836	-200.000	-0.001	0.166
-581.821	-200.000	0.035	-0.190
-580.806	54.427	0.035	-0.034
-579.792	-200.000	-0.016	-0.074
-578.777	416.574	0.066	0.142
-577.763	-200.000	-0.008	0.300
-576.748	-21.265	-0.189	0.116
-575.733	-144.979	-0.073	-0.007
-574.719	-82.191	-0.216	-0.071
-573.704	-200.000	-0.070	-0.334
-572.690	152.949	-0.169	-0.232
-571.675	96.291	0.091	0.104
-570.661	-140.382	0.131	-0.014
-569.646	-34.473	0.132	0.073
-568.631	-21.756	0.202	-0.123
-567.617	172.191	0.093	0.134
-566.602	800.000	-0.048	-0.212
-565.588	-43.462	-0.344	0.174
-564.573	401.450	-0.111	-0.233
-563.558	-158.598	0.237	-0.014
-562.544	-81.972	0.405	-0.133
-561.529	-200.000	-0.021	-0.108
-560.515	-30.319	0.159	0.090
-559.500	800.000	0.030	0.088
-558.485	17.903	0.131	0.104
-557.471	13.429	-0.275	0.214
-556.456	-200.000	0.020	-0.141
-555.442	-72.369	-0.204	-0.076
-554.427	-154.292	-0.251	-0.017
-553.412	-104.135	-0.258	0.060
-552.398	-199.907	-0.222	-0.001
-551.383	-200.000	-0.012	0.168
-550.369	-27.186	0.316	0.185
-549.354	248.088	-0.087	-0.148
-548.339	-160.818	-0.063	-0.003
-547.325	127.450	0.234	-0.298
-546.310	-132.878	-0.304	0.039
-545.296	-158.747	-0.277	-0.016
-544.281	543.308	-0.034	0.081
-543.266	-25.886	-0.253	-0.149
-542.252	91.299	-0.264	0.297
-541.237	-42.605	-0.187	0.096
-540.223	800.000	-0.067	-0.218
-539.208	22.905	-0.214	0.176
-538.193	193.921	-0.076	0.115
-537.179	-200.000	0.073	0.337
-536.164	-71.939	0.089	-0.033
-535.150	-88.622	-0.203	0.061
-534.135	310.578	0.117	0.220
-533.121	520.820	0.123	0.288
-532.106	800.000	-0.074	0.218
-531.091	-200.000	0.050	0.466
-530.077	-103.402	-0.335	0.079
-529.062	197.540	-0.020	-0.031
-528.048	-114.894	-0.143	0.027
-527.033	394.593	-0.065	0.137
-526.018	-26.344	0.352	0.207
-525.004	-0.049	0.223	0.159
-523.989	-200.000	-0.004	0.078
-522.975	800.000	0.007	0.028
-521.960	333.355	-0.065	0.126
-520.945	800.000	0.072	0.243
-519.931	-60.885	0.394	-0.167
-518.916	19.812	-0.019	0.015
-517.902	-56.604	-0.193	0.086
-516.887	-147.150	0.394	0.034
-515.872	-150.986	0.189	-0.014
-514.858	800.000	0.068	-0.243
-513.843	-91.155	-0.243	0.070
-512.829	-74.890	-0.139	-0.050
-511.814	800.000	-0.031	-0.110
-510.799	-114.345	0.646	-0.125
-509.785	-127.767	-0.201	0.029
-508.770	156.586	-0.075	-0.103
-507.756	147.788	-0.064	0.086
-506.741	-200.000	0.003	0.023
-505.726	57.492	-0.092	-0.090
-504.712	-98.823	-0.205	0.052
-503.697	-200.000	0.034	0.655
-502.683	93.695	-0.065	-0.074
-501.668	-40.611	0.224	0.116
-500.653	-200.000	-0.008	0.184
-499.639	-104.907	0.378	0.087
-498.624	-145.427	-0.211	-0.019
-497.610	-48.294	-0.246	0.119
-496.595	-81.510	0.100	0.033
-495.581	-62.273	-0.206	0.086
-494.566	773.569	-0.069	0.189
-493.551	-44.481	0.069	0.035
-492.537	-131.886	-0.051	0.007
-491.522	-27.447	0.271	0.157
-490.508	-96.165	0.098	0.026
-489.493	-4.926	-0.240	0.165
-488.478	100.206	-0.278	0.323
-487.464	140.236	-0.142	-0.187
-486.449	-32.794	0.150	-0.083
-485.435	63.817	-0.041	0.041
-484.420	-26.442	0.109	0.064
-483.405	-113.866	0.320	0.062
-482.391	-109.680	-0.152	0.032
-481.376	-163.332	0.454	0.022
-480.362	-200.000	-0.354	-0.001
-479.347	-28.376	-0.080	0.046
-478.332	531.053	0.055	-0.131
-477.318	77.231	0.113	-0.120
-476.303	-93.483	-0.222	0.061
-475.289	178.293	0.173	0.253
-474.274	4.408	0.112	0.083
-473.259	-200.000	-0.088	0.392
-472.245	-7.416	-0.100	0.068
-471.230	-1.218	0.233	-0.165
-470.216	61.478	0.128	-0.128
-469.201	156.179	-0.265	0.366
-468.186	-200.000	0.004	-0.174
-467.172	-106.164	-0.348	0.078
-466.157	-22.861	0.294	0.177
-465.143	16.237	0.390	0.308
-464.128	-175.156	-0.125	-0.003
-463.113	-99.508	0.075	-0.019
-462.099	-131.189	-0.046	0.006
-461.084	-78.732	-0.321	-0.109
-460.070	6.330	-0.207	0.154
-459.055	-88.562	-0.254	0.076
-458.040	534.505	0.066	-0.157
-457.026	84.111	-0.197	-0.215
-456.011	518.192	0.051	0.120
-454.997	-200.000	0.025	-0.204
-453.982	-200.000	-0.049	0.263
-452.968	800.000	0.057	-0.179
-451.953	33.567	-0.148	-0.128
-450.938	37.804	0.066	0.058
-449.924	115.928	0.061	-0.074
-448.909	230.556	-0.238	0.389
-447.895	-28.709	0.179	-0.103
-446.880	-124.038	0.363	-0.057
-445.865	-150.748	0.059	-0.005
-444.851	83.595	-0.230	-0.250
-443.836	664.693	0.105	0.272
-442.822	226.499	-0.100	0.162
-441.807	64.620	0.168	-0.169
-440.792	136.154	0.073	-0.095
-439.778	-200.000	0.005	0.145
-438.763	275.534	-0.070	0.125
-437.749	-200.000	0.022	0.141
-436.734	-200.000	0.030	-0.368
-435.719	500.120	0.055	-0.128
-434.705	-200.000	-0.136	-0.604
-433.690	-46.246	-0.144	0.071
-432.676	145.320	0.271	-0.362
-431.661	-200.000	0.034	0.361
-430.646	800.000	0.137	-0.513
-429.632	-166.337	0.052	0.002
-428.617	58.356	0.142	0.139
-427.603	348.514	-0.110	0.217
-426.588	-200.000	0.005	-0.159
-425.573	-19.939	0.435	-0.268
-424.559	-3.884	0.061	-0.042
-423.544	239.729	-0.162	-0.269
-422.530	173.902	0.041	-0.059
-421.515	549.437	-0.037	-0.088
-420.500	-200.000	-0.070	0.339
-419.486	29.258	0.161	-0.137
-418.471	-59.451	0.342	-0.147
-417.457	-103.386	-0.169	-0.040
-416.442	-126.171	-0.107	0.016
-415.428	-149.697	-0.328	0.026
-414.413	16.157	0.138	0.109
-413.398	-74.680	-0.429	-0.154
-412.384	-91.264	0.301	0.086
-411.369	-6.527	0.028	-0.019
-410.355	-46.805	-0.307	-0.150
-409.340	-200.000	-0.004	0.039
-408.325	-56.715	-0.101	-0.045
-407.311	-200.000	-0.013	-0.164
-406.296	-156.218	0.089	-0.006
-405.282	163.419	0.060	-0.084
-404.267	130.098	0.119	0.153
-403.252	-200.000	-0.015	0.225
-402.238	86.028	-0.240	-0.263
-401.223	70.913	-0.099	-0.102
-400.209	-87.882	0.208	0.062
-399.194	-168.579	-0.197	-0.007
-398.179	575.027	-0.060	0.145
-397.165	-87.055	-0.079	0.024
-396.150	-200.000	-0.038	0.193
-395.136	-171.434	0.137	0.005
-394.121	249.231	-0.048	0.082
-393.106	34.622	0.089	0.078
-392.092	-5.923	-0.148	-0.101
-391.077	-108.508	-0.130	-0.028
-390.063	-95.065	0.274	0.074
-389.048	247.852	-0.130	-0.218
-388.033	542.786	-0.092	-0.219
-387.019	83.274	-0.156	-0.169
-386.004	-21.851	-0.042	-0.025
-384.990	-119.988	-0.084	-0.014
-383.975	-9.154	0.195	-0.130
-382.960	800.000	0.049	0.197
-381.946	800.000	0.081	-0.259
-380.931	-107.731	-0.156	0.034
-379.917	-62.392	0.248	-0.103
-378.902	800.000	0.100	-0.287
-377.888	800.000	-0.089	0.305
-376.873	-85.023	0.258	-0.081
-375.858	-152.480	-0.273	0.019
-374.844	-197.826	-0.286	0.002
-373.829	-200.000	-0.011	-0.439
-372.815	195.051	0.139	-0.210
-371.800	2.745	0.101	-0.073
-370.785	176.909	-0.113	-0.163
-369.771	-200.000	0.012	-0.248
-368.756	-74.236	0.173	-0.062
-367.742	-34.257	-0.275	-0.151
-366.727	-200.000	0.091	-0.415
-365.712	-72.606	-0.240	0.088
-364.698	-129.129	-0.253	0.035
-363.683	96.852	0.160	0.182
-362.669	-92.679	0.126	-0.035
-361.654	33.024	-0.070	-0.060
-360.639	242.909	0.130	0.217
-359.625	-78.502	-0.606	-0.207
-358.610	5.476	-0.185	0.136
-357.596	-104.371	0.156	0.036
-356.581	-20.619	-0.373	-0.228
-355.566	-60.832	-0.021	-0.009
-354.552	153.259	0.172	0.235
-353.537	800.000	0.027	0.087
-352.523	-200.000	-0.003	-0.144
-351.508	68.617	-0.171	-0.175
-350.493	-103.496	0.157	-0.037
-349.479	-68.285	-0.017	0.007
-348.464	800.000	-0.058	-0.205
-347.450	19.433	-0.171	-0.137
-346.435	302.713	0.126	0.233
-345.420	-200.000	-0.080	0.364
-344.406	-200.000	0.004	-0.085
-343.391	96.011	-0.167	0.190
-342.377	800.000	-0.081	0.293
-341.362	59.360	0.172	0.169
-340.348	-200.000	0.023	-0.168
-339.333	176.893	0.120	0.173
-338.318	11.371	0.224	-0.171
-337.304	9.102	-0.200	-0.150
-336.289	-87.760	0.193	-0.058
-335.275	-200.000	0.012	-0.220
-334.260	-71.123	0.256	-0.096
-333.245	387.077	0.043	-0.089
-332.231	24.893	-0.157	-0.130
-331.216	24.543	0.109	0.089
-330.202	-38.206	-0.007	-0.004
-329.187	264.821	-0.128	0.222
-328.172	-83.233	-0.111	-0.036
-327.158	-45.954	-0.142	0.070
-326.143	800.000	0.104	0.306
-325.129	124.046	0.101	-0.126
-324.114	91.285	-0.172	0.192
-323.099	-27.648	0.217	0.125
-322.085	78.211	0.173	0.184
-321.070	432.338	0.136	0.293
-320.056	-106.571	0.303	0.067
-319.041	7.432	-0.358	-0.266
-318.026	-144.595	-0.255	0.023
-317.012	-107.512	-0.170	0.037
-315.997	7.883	-0.264	-0.197
-314.983	22.451	-0.118	0.096
-313.968	-200.000	-0.001	-0.144
-312.953	-200.000	0.021	-0.190
-311.939	-64.905	-0.430	-0.173
-310.924	236.481	0.263	-0.433
-309.910	-126.987	-0.272	-0.040
-308.895	-200.000	-0.005	0.163
-307.880	-104.525	-0.121	0.028
-306.866	-200.000	0.084	-0.371
-305.851	-200.000	-0.010	-0.060
-304.837	800.000	0.081	-0.236
-303.822	-200.000	-0.003	-0.142
-302.807	-101.699	0.041	-0.010
-301.793	109.092	0.323	0.383
-300.778	19.143	0.141	0.112
-299.764	800.000	-0.032	-0.094
-298.749	-154.810	0.213	0.014
-297.735	-38.295	0.084	-0.044
-296.720	-74.424	0.184	0.066
-295.705	110.478	-0.229	0.273
-294.691	344.653	0.046	0.090
-293.676	35.559	-0.027	0.024
-292.662	-137.107	-0.100	-0.011
-291.647	253.454	0.122	-0.206
-290.632	57.646	-0.135	-0.131
-289.618	57.516	0.187	0.181
-288.603	-111.316	-0.243	-0.049
-287.589	-200.000	-0.017	0.279
-286.574	603.631	0.037	-0.091
-285.559	56.762	-0.200	0.193
-284.545	-100.719	0.272	0.067
-283.530	222.163	-0.205	0.327
-282.516	-56.485	0.370	0.163
-281.501	-2.963	0.126	0.088
-280.486	-95.120	0.277	-0.074
-279.472	800.000	-0.020	0.055
-278.457	-44.306	-0.353	0.176
-277.443	89.494	-0.108	-0.120
-276.428	-43.733	0.393	0.196
-275.413	106.203	0.113	-0.133
-274.399	800.000	-0.059	-0.245
-273.384	471.927	0.068	0.151
-272.370	358.966	-0.084	-0.166
-271.355	-200.000	-0.027	0.295
-270.340	-24.312	0.167	0.099
-269.326	-29.620	0.241	-0.136
-268.311	-5.151	0.198	0.135
-267.297	-93.073	0.112	-0.031
-266.282	-68.954	0.125	0.048
-265.267	-134.847	0.268	-0.032
-264.253	52.669	0.053	0.050
-263.238	-30.904	-0.187	-0.105
-262.224	100.948	0.189	0.218
-261.209	51.507	0.069	-0.065
-260.195	194.783	0.119	0.179
-259.180	-44.518	0.059	-0.029
-258.165	591.143	0.071	-0.173
-257.151	-36.036	-0.204	-0.110
-256.136	-200.000	0.018	-0.181
-255.122	-16.305	0.237	0.149
-254.107	-177.422	0.198	-0.005
-253.092	252.195	-0.120	0.202
-252.078	81.244	0.121	0.130
-251.063	125.054	0.145	-0.181
-250.049	-200.000	0.021	0.160
-249.034	-58.882	0.625	0.268
-248.019	-64.124	-0.559	-0.226
-247.005	72.209	0.040	0.041
-245.990	-48.126	-0.238	-0.114
-244.976	55.836	-0.082	0.079
-243.961	-200.000	0.001	0.041
-242.946	255.130	0.115	-0.195
-241.932	-51.294	-0.129	-0.060
-240.917	72.232	0.081	0.084
-239.903	294.545	0.040	-0.073
-238.888	21.331	0.179	0.144
-237.873	274.145	-0.171	0.301
-236.859	24.223	-0.179	-0.146
-235.844	483.288	0.039	0.087
-234.830	-60.837	-0.161	0.068
-233.815	236.699	-0.050	0.081
-232.800	72.701	0.215	-0.222
-231.786	-40.344	-0.112	0.058
-230.771	-16.997	0.282	-0.176
-229.757	46.861	-0.051	-0.047
-228.742	-200.000	-0.002	0.122
-227.727	-18.914	-0.107	0.066
-226.713	-33.343	-0.341	0.187
-225.698	-93.281	0.215	0.059
-224.684	8.430	-0.464	0.346
-223.669	522.809	-0.076	-0.176
-222.655	800.000	0.092	-0.289
-221.640	-2.926	0.132	0.091
-220.625	12.610	0.069	-0.053
-219.611	682.914	0.071	0.183
-218.596	-46.767	0.331	-0.161
-217.582	55.620	0.137	0.132
-216.567	-82.827	0.196	0.063
-215.552	-53.410	-0.227	-0.103
-214.538	-200.000	-0.002	-0.236
-213.523	658.464	0.005	0.013
-212.509	-200.000	0.048	-0.222
-211.494	-127.410	0.301	-0.043
-210.479	-89.472	-0.012	0.004
-209.465	620.389	0.083	-0.206
-208.450	-32.086	-0.177	-0.098
-207.436	38.273	-0.073	-0.064
-206.421	-23.685	-0.029	0.017
-205.406	-200.000	-0.075	0.509
-204.392	800.000	0.024	0.093
-203.377	-200.000	0.043	0.465
-202.363	-160.426	-0.141	-0.007
-201.348	-67.526	0.204	0.079
-200.333	-117.883	-0.212	-0.038
-199.319	20.087	-0.172	0.138
-198.304	-70.018	0.404	0.152
-197.290	52.966	0.110	-0.105
-196.275	-154.021	0.228	-0.015
-195.260	-200.000	-0.005	0.143
-194.246	-99.784	0.252	-0.062
-193.231	-144.060	0.261	0.024
-192.217	-153.737	0.086	0.006
-191.202	-110.184	0.458	0.094
-190.187	-83.473	0.367	-0.116
-189.173	125.343	0.043	-0.054
-188.158	-64.430	-0.199	0.080
-187.144	-147.117	0.106	-0.009
-186.129	-143.192	0.365	-0.035
-185.114	-57.996	-0.264	-0.114
-184.100	-115.517	0.217	0.040
-183.085	-3.667	0.405	-0.278
-182.071	-0.778	-0.259	0.182
-181.056	164.447	-0.114	0.159
-180.042	-7.398	-0.176	-0.118
-179.027	800.000	0.065	-0.202
-178.012	-124.005	0.076	0.012
-176.998	-200.000	0.569	0.000
-175.983	212.705	-0.248	-0.386
-174.969	-200.000	-0.045	-0.207
-173.954	60.213	-0.077	0.075
-172.939	-46.316	0.270	-0.131
-171.925	-72.317	-0.126	0.046
-170.910	-200.000	0.013	0.114
-169.896	800.000	0.043	-0.131
-168.881	-200.000	0.013	-0.327
-167.866	800.000	-0.009	0.031
-166.852	-106.087	-0.334	0.074
-165.837	19.565	0.074	-0.059
-164.823	230.581	-0.030	0.048
-163.808	-121.499	-0.182	-0.030
-162.793	-200.000	-0.052	-0.254
-161.779	-176.889	-0.134	0.003
-160.764	-127.571	0.057	0.008
-159.750	135.692	0.177	0.228
-158.735	270.594	-0.130	-0.226
-157.720	800.000	0.058	-0.205
-156.706	-200.000	0.000	0.089
-155.691	-200.000	-0.040	0.287
-154.677	54.547	0.126	-0.120
-153.662	-137.917	-0.146	-0.016
-152.647	-193.841	0.205	0.002
-151.633	-25.052	-0.157	-0.092
-150.618	-200.000	0.009	0.077
-149.604	6.829	0.169	-0.124
-148.589	-24.455	-0.137	0.081
-147.574	800.000	-0.142	-0.545
-146.560	184.299	-0.212	0.310
-145.545	-200.000	-0.050	-0.385
-144.531	-3.629	0.180	-0.124
-143.516	800.000	-0.049	0.141
-142.502	-200.000	0.016	0.254
-141.487	-78.983	-0.303	-0.102
-140.472	-78.450	-0.526	-0.178
-139.458	-35.406	0.131	-0.070
-138.443	-200.000	0.025	0.158
-137.429	-42.411	0.242	-0.122
-136.414	268.947	-0.173	0.300
-135.399	-200.000	0.023	-0.263
-134.385	27.988	0.121	0.101
-133.370	-44.961	0.107	-0.053
-132.356	-200.000	-0.003	-0.273
-131.341	-131.240	0.135	0.018
-130.326	-166.487	-0.027	0.001
-129.312	-20.310	0.166	0.101
-128.297	-172.192	-0.180	-0.006
-127.283	173.546	0.197	0.281
-126.268	-65.498	0.102	-0.041
-125.253	-64.009	0.152	-0.061
-124.239	-200.000	-0.064	-0.360
-123.224	481.990	0.060	0.135
-122.210	-105.490	0.449	-0.101
-121.195	69.565	-0.139	-0.141
