DTS Sentinel unit serial number:	SN413079Multiplexer serial number:	ORYXHardware model number:	OX4-SRSoftware version number:	ORYX F/W v4.00 Oryx Data Collector v3.7.2.0data status	okinstallation	princeton_trtdifferential loss correction	single-endedforward channel	channel 4reverse channel	N/Adate	2019/09/19time	07:29:34forward acquisition time	60.00reverse acquisition time	0.00gamma	496.2192k internal	0.2340k external	0.2340temperature offset calibration	1.0024default loss term (dB/km)	0.3790temperature slope calibration	1.0000multiplexer offset coefficient	1.0000multiplexer slope coefficient	1.0000fibre end	0.00T internal ref (°C)	19.25T ext. ref 1 (°C)	0.56T ext. ref 2 (°C)	13.96length (m)	temperature (°C)	Stokes	anti-Stokes-747.200	22.442	-0.164	0.134
-746.185	-200.000	-0.001	0.111
-745.171	-145.842	0.088	0.008
-744.156	800.000	0.018	0.067
-743.142	616.243	0.136	0.342
-742.127	-193.021	-0.206	-0.002
-741.112	30.943	-0.190	0.163
-740.098	7.433	-0.223	0.167
-739.083	163.321	-0.191	0.269
-738.069	146.665	-0.177	0.239
-737.054	-200.000	0.093	0.510
-736.039	-113.202	-0.342	-0.068
-735.025	60.664	-0.202	0.201
-734.010	103.196	-0.180	-0.211
-732.996	29.844	0.165	0.141
-731.981	800.000	0.076	-0.317
-730.966	800.000	-0.099	-0.410
-729.952	800.000	-0.081	-0.307
-728.937	557.954	0.081	-0.196
-727.923	179.118	-0.119	0.174
-726.908	142.101	0.164	0.218
-725.894	444.848	-0.209	0.460
-724.879	79.428	-0.321	-0.345
-723.864	413.397	0.095	-0.203
-722.850	-93.146	-0.181	0.050
-721.835	47.399	-0.042	-0.039
-720.821	27.998	0.036	0.030
-719.806	58.625	0.074	-0.073
-718.791	179.424	-0.089	0.131
-717.777	317.968	-0.097	0.184
-716.762	-200.000	0.000	0.260
-715.748	0.250	-0.257	-0.184
-714.733	800.000	0.076	-0.244
-713.718	800.000	0.033	0.122
-712.704	-155.192	0.257	0.017
-711.689	103.192	-0.357	0.419
-710.675	-200.000	0.039	0.217
-709.660	53.464	-0.037	-0.035
-708.645	800.000	-0.019	-0.058
-707.631	-138.503	0.313	0.034
-706.616	-200.000	-0.061	0.427
-705.602	517.772	-0.198	-0.463
-704.587	227.338	0.069	0.113
-703.572	-60.994	0.080	0.034
-702.558	-200.000	0.010	-0.090
-701.543	-20.819	0.263	-0.161
-700.529	-118.486	0.096	0.017
-699.514	800.000	-0.036	0.141
-698.499	263.324	-0.123	-0.214
-697.485	387.702	0.079	-0.163
-696.470	-200.000	0.063	0.310
-695.456	-47.745	0.073	0.035
-694.441	-13.823	0.252	-0.163
-693.426	233.108	0.015	0.025
-692.412	157.637	-0.115	0.160
-691.397	800.000	-0.064	0.203
-690.383	-60.561	-0.372	-0.158
-689.368	439.641	-0.120	-0.262
-688.354	-140.002	0.189	-0.020
-687.339	-200.000	-0.016	0.143
-686.324	382.275	0.136	-0.280
-685.310	530.142	-0.135	-0.318
-684.295	-145.399	-0.319	-0.029
-683.281	404.481	-0.156	-0.328
-682.266	28.111	-0.145	0.122
-681.251	-141.600	-0.055	0.006
-680.237	44.765	-0.143	0.132
-679.222	-125.896	0.170	0.026
-678.208	-200.000	0.044	0.308
-677.193	-200.000	-0.031	-0.382
-676.178	154.488	0.129	0.177
-675.164	60.182	-0.104	0.103
-674.149	-173.797	-0.126	0.004
-673.135	-80.941	-0.124	0.041
-672.120	-74.129	0.184	-0.067
-671.105	115.752	0.122	-0.149
-670.091	-200.000	-0.017	0.249
-669.076	-200.000	0.021	-0.187
-668.062	800.000	-0.101	-0.332
-667.047	-161.779	-0.686	-0.035
-666.032	800.000	0.025	-0.089
-665.018	9.796	-0.124	-0.094
-664.003	-78.414	0.095	0.033
-662.989	-200.000	-0.017	-0.169
-661.974	-48.993	0.337	-0.161
-660.959	-74.247	0.169	-0.061
-659.945	-5.107	0.184	-0.126
-658.930	-89.305	-0.230	0.068
-657.916	-78.613	-0.161	-0.055
-656.901	-161.333	0.274	0.014
-655.886	800.000	-0.126	-0.459
-654.872	270.850	-0.297	-0.522
-653.857	15.854	-0.187	-0.147
-652.843	-200.000	-0.022	-0.184
-651.828	-143.074	0.129	-0.012
-650.814	800.000	0.072	0.244
-649.799	222.678	-0.122	-0.196
-648.784	193.832	0.106	-0.160
-647.770	-43.671	-0.104	0.052
-646.755	800.000	-0.120	-0.342
-645.741	128.748	0.089	-0.113
-644.726	18.129	-0.175	0.139
-643.711	-34.611	0.223	-0.122
-642.697	652.808	-0.025	0.064
-641.682	-200.000	-0.003	-0.163
-640.668	96.382	-0.043	-0.049
-639.653	191.262	-0.132	-0.199
-638.638	-46.190	0.309	0.152
-637.624	-93.921	0.097	0.027
-636.609	-127.733	0.127	0.018
-635.595	800.000	0.101	0.298
-634.580	28.518	0.028	-0.023
-633.565	-200.000	-0.026	0.133
-632.551	265.113	-0.151	-0.262
-631.536	217.131	-0.055	0.087
-630.522	-106.402	0.257	0.057
-629.507	-29.666	-0.186	-0.106
-628.492	105.171	0.217	-0.256
-627.478	622.061	-0.083	-0.208
-626.463	-49.292	0.201	0.096
-625.449	-200.000	0.049	0.308
-624.434	-133.197	-0.069	-0.009
-623.419	301.210	-0.119	-0.219
-622.405	466.224	0.146	-0.326
-621.390	45.764	0.309	0.285
-620.376	-200.000	-0.028	-0.132
-619.361	-94.798	0.309	0.084
-618.346	-200.000	-0.035	0.300
-617.332	342.807	-0.062	0.121
-616.317	-79.130	0.336	0.114
-615.303	763.547	0.046	0.125
-614.288	-123.116	-0.289	-0.046
-613.273	-200.000	-0.016	-0.331
-612.259	-96.879	-0.064	-0.017
-611.244	-91.294	0.084	0.024
-610.230	-110.932	-0.077	0.016
-609.215	93.565	0.144	-0.163
-608.201	157.435	-0.197	-0.272
-607.186	412.005	-0.065	-0.139
-606.171	-200.000	-0.032	-0.225
-605.157	800.000	0.072	-0.248
-604.142	-200.000	-0.041	0.180
-603.128	-98.349	0.298	0.076
-602.113	67.327	0.281	-0.286
-601.098	800.000	-0.106	-0.309
-600.084	-28.317	0.182	0.105
-599.069	29.070	0.401	-0.339
-598.055	213.106	0.060	0.094
-597.040	800.000	-0.063	0.256
-596.025	-116.982	-0.197	-0.036
-595.011	-157.622	0.329	0.020
-593.996	-200.000	-0.054	0.236
-592.982	-159.423	-0.549	0.031
-591.967	-98.076	0.275	-0.071
-590.952	453.060	-0.160	-0.352
-589.938	-200.000	0.017	-0.098
-588.923	-69.029	-0.105	-0.040
-587.909	18.992	-0.180	0.144
-586.894	800.000	-0.042	0.151
-585.879	-29.518	0.056	0.032
-584.865	317.340	0.133	-0.250
-583.850	-200.000	-0.045	0.225
-582.836	-101.733	-0.207	0.050
-581.821	800.000	0.103	-0.307
-580.806	-151.871	0.096	0.007
-579.792	-36.670	-0.305	0.163
-578.777	-200.000	-0.007	-0.465
-577.763	-200.000	-0.001	-0.212
-576.748	-200.000	-0.057	-0.280
-575.733	145.924	0.120	-0.160
-574.719	-158.760	-0.372	0.021
-573.704	37.438	-0.061	0.054
-572.690	42.115	-0.044	0.039
-571.675	1.593	-0.316	0.227
-570.661	102.465	0.189	-0.220
-569.646	191.813	-0.304	-0.457
-568.631	-69.870	-0.205	0.078
-567.617	-200.000	0.044	0.261
-566.602	-200.000	0.046	0.355
-565.588	-200.000	0.016	0.270
-564.573	-12.632	0.126	-0.082
-563.558	183.450	-0.211	-0.311
-562.544	110.479	0.267	-0.319
-561.529	-200.000	0.020	-0.114
-560.515	-72.538	0.085	0.031
-559.500	-110.792	-0.292	-0.060
-558.485	800.000	0.027	0.106
-557.471	-88.601	0.652	0.193
-556.456	-124.713	0.139	0.021
-555.442	-200.000	0.020	0.196
-554.427	-67.808	0.137	-0.053
-553.412	-200.000	-0.059	-0.312
-552.398	-71.151	-0.219	0.082
-551.383	-51.190	0.136	-0.063
-550.369	-23.640	0.192	-0.115
-549.354	-200.000	0.015	0.164
-548.339	140.500	-0.113	-0.149
-547.325	322.952	-0.161	-0.305
-546.310	800.000	0.050	0.180
-545.296	61.358	0.257	0.254
-544.281	520.498	0.018	-0.043
-543.266	-200.000	-0.034	0.236
-542.252	-200.000	-0.043	0.233
-541.237	122.063	0.146	0.182
-540.223	-200.000	-0.033	0.299
-539.208	-63.018	0.185	-0.076
-538.193	184.431	-0.214	-0.315
-537.179	34.043	-0.269	0.233
-536.164	42.315	-0.303	0.274
-535.150	-108.403	-0.547	0.117
-534.135	226.584	0.026	-0.043
-533.121	-143.088	0.371	-0.036
-532.106	667.079	-0.104	0.267
-531.091	-102.215	-0.065	0.015
-530.077	667.425	0.068	-0.176
-529.062	800.000	0.105	-0.289
-528.048	800.000	-0.022	0.071
-527.033	-37.026	-0.201	0.107
-526.018	-174.224	-0.220	-0.006
-525.004	800.000	0.094	-0.300
-523.989	78.781	0.313	-0.333
-522.975	-147.224	0.064	-0.005
-521.960	-59.024	0.287	-0.123
-520.945	-129.411	-0.182	-0.025
-519.931	286.004	0.133	0.238
-518.916	-71.721	0.054	-0.020
-517.902	800.000	0.028	-0.097
-516.887	800.000	0.183	-0.588
-515.872	745.751	-0.043	-0.114
-514.858	800.000	0.107	-0.381
-513.843	-200.000	-0.014	-0.158
-512.829	-58.580	0.187	0.080
-511.814	-98.344	0.229	0.058
-510.799	173.741	0.115	-0.165
-509.785	-200.000	-0.054	-0.260
-508.770	412.358	-0.132	-0.279
-507.756	-51.269	0.049	0.023
-506.741	-95.697	-0.065	-0.017
-505.726	-72.894	0.028	0.010
-504.712	64.428	0.159	0.159
-503.697	-138.791	-0.137	-0.015
-502.683	143.042	0.093	-0.123
-501.668	-134.789	-0.519	-0.063
-500.653	800.000	-0.049	-0.161
-499.639	-130.937	0.168	0.022
-498.624	-139.976	-0.182	0.019
-497.610	177.241	-0.104	0.150
-496.595	-131.399	-0.327	-0.043
-495.581	800.000	-0.062	-0.182
-494.566	-68.631	0.169	0.065
-493.551	115.880	-0.144	-0.175
-492.537	800.000	0.048	0.131
-491.522	140.986	0.060	0.079
-490.508	800.000	-0.083	-0.258
-489.493	-147.544	0.170	-0.014
-488.478	193.561	0.210	0.315
-487.464	-192.617	-0.159	-0.001
-486.449	-49.611	-0.106	-0.050
-485.435	569.470	0.133	0.321
-484.420	52.721	-0.095	0.090
-483.405	355.512	0.098	-0.194
-482.391	174.310	0.152	-0.218
-481.376	-168.595	-0.154	0.006
-480.362	800.000	-0.100	-0.324
-479.347	36.419	-0.406	-0.355
-478.332	26.715	-0.189	0.157
-477.318	8.449	0.288	-0.215
-476.303	-116.083	-0.380	0.070
-475.289	-51.000	-0.250	-0.117
-474.274	-200.000	-0.028	-0.130
-473.259	558.325	-0.104	-0.250
-472.245	442.286	-0.097	-0.210
-471.230	-170.531	-0.246	0.008
-470.216	-134.242	-0.480	0.059
-469.201	71.795	0.086	-0.089
-468.186	-18.132	0.159	-0.099
-467.172	263.558	-0.080	0.138
-466.157	800.000	0.049	0.185
-465.143	-200.000	-0.033	-0.189
-464.128	-200.000	0.053	0.348
-463.113	107.837	0.360	0.425
-462.099	40.821	0.083	-0.074
-461.084	86.622	0.411	0.450
-460.070	-63.132	-0.158	-0.065
-459.055	-200.000	0.004	0.075
-458.040	-92.544	-0.094	-0.026
-457.026	-52.580	0.014	-0.006
-456.011	-119.876	0.039	-0.007
-454.997	-114.590	0.307	-0.058
-453.982	-34.583	-0.220	-0.119
-452.968	14.410	0.034	0.027
-451.953	-200.000	-0.013	-0.159
-450.938	-63.092	-0.173	-0.071
-449.924	-13.738	0.312	-0.200
-448.909	-109.539	0.187	0.039
-447.895	800.000	0.012	-0.046
-446.880	-62.661	-0.263	-0.108
-445.865	-200.000	0.006	0.107
-444.851	800.000	-0.046	0.132
-443.836	-200.000	0.014	0.091
-442.822	-200.000	-0.010	0.082
-441.807	-200.000	0.019	0.110
-440.792	-65.185	-0.373	-0.149
-439.778	-200.000	0.010	-0.493
-438.763	35.202	0.040	0.035
-437.749	155.914	0.168	0.230
-436.734	94.866	0.046	0.052
-435.719	183.602	-0.065	-0.096
-434.705	-32.914	0.140	0.077
-433.690	66.985	0.209	0.211
-432.676	358.515	-0.110	-0.217
-431.661	-0.452	0.219	-0.154
-430.646	95.422	-0.089	0.101
-429.632	52.122	-0.105	-0.100
-428.617	800.000	0.028	0.086
-427.603	-200.000	0.028	-0.133
-426.588	534.964	-0.030	0.071
-425.573	142.466	-0.149	0.196
-424.559	-200.000	0.023	-0.221
-423.544	132.860	-0.047	-0.061
-422.530	-152.697	0.219	0.015
-421.515	95.096	0.130	0.147
-420.500	800.000	0.061	0.174
-419.486	341.261	0.049	0.095
-418.471	270.982	0.066	0.115
-417.457	190.700	0.120	-0.178
-416.442	-168.945	-0.448	0.017
-415.428	36.647	0.019	-0.017
-414.413	800.000	0.075	-0.238
-413.398	-46.522	-0.356	0.173
-412.384	-200.000	0.003	0.141
-411.369	-3.891	0.141	0.097
-410.355	-45.414	0.186	0.091
-409.340	-122.745	-0.191	0.031
-408.325	-129.901	0.205	-0.028
-407.311	281.345	-0.187	-0.331
-406.296	-150.607	-0.008	0.001
-405.282	-150.119	0.163	0.013
-404.267	-200.000	0.023	0.623
-403.252	472.898	-0.131	0.291
-402.238	-56.672	0.219	-0.096
-401.223	103.194	-0.245	-0.284
-400.209	-47.586	0.224	0.108
-399.194	104.938	0.102	-0.119
-398.179	-96.369	-0.255	-0.067
-397.165	-30.676	-0.151	0.084
-396.150	-200.000	-0.000	0.218
-395.136	312.910	-0.080	0.148
-394.121	-9.313	-0.262	-0.173
-393.106	-76.726	-0.435	-0.151
-392.092	-93.537	0.202	0.055
-391.077	42.850	0.273	-0.246
-390.063	-120.069	-0.148	-0.025
-389.048	-59.503	0.070	-0.030
-388.033	-131.876	-0.181	-0.023
-387.019	61.661	-0.280	0.275
-386.004	-200.000	0.007	0.288
-384.990	-160.063	0.169	-0.009
-383.975	-200.000	0.021	0.321
-382.960	199.452	0.140	0.213
-381.946	-193.772	-0.323	0.003
-380.931	-16.690	0.125	-0.078
-379.917	122.175	-0.046	-0.057
-378.902	-200.000	-0.059	0.307
-377.888	-200.000	0.040	0.519
-376.873	5.381	0.284	-0.207
-375.858	430.340	0.190	-0.407
-374.844	-200.000	-0.054	-0.251
-373.829	-129.545	-0.131	0.018
-372.815	10.105	-0.300	-0.225
-371.800	800.000	-0.072	-0.246
-370.785	800.000	-0.071	-0.253
-369.771	221.108	-0.160	0.253
-368.756	-170.212	0.044	-0.002
-367.742	-200.000	-0.019	-0.094
-366.727	-24.988	0.115	-0.067
-365.712	-81.392	0.177	0.058
-364.698	2.964	0.190	0.136
-363.683	264.444	0.093	0.160
-362.669	-113.520	0.304	-0.059
-361.654	-27.841	-0.159	-0.091
-360.639	-108.701	-0.421	-0.089
-359.625	-200.000	-0.018	0.124
-358.610	-24.248	0.190	-0.112
-357.596	210.558	0.038	0.059
-356.581	-83.779	-0.333	-0.105
-355.566	-200.000	0.014	0.120
-354.552	1.581	0.199	0.142
-353.537	543.997	-0.074	0.175
-352.523	133.684	0.249	-0.318
-351.508	-73.997	-0.363	-0.130
-350.493	-188.871	0.167	0.002
-349.479	800.000	-0.034	-0.106
-348.464	-84.705	0.371	0.115
-347.450	-58.884	-0.165	-0.070
-346.435	-0.189	-0.234	0.164
-345.420	-36.161	0.054	-0.029
-344.406	-2.031	-0.192	-0.133
-343.391	-108.122	0.089	-0.019
-342.377	-35.048	0.123	0.066
-341.362	100.873	0.076	0.087
-340.348	-11.634	-0.057	0.037
-339.333	-134.636	0.130	0.016
-338.318	28.449	0.196	-0.164
-337.304	-36.238	0.361	-0.192
-336.289	411.810	-0.096	0.201
-335.275	-15.774	0.165	-0.103
-334.260	95.047	-0.225	0.253
-333.245	167.342	-0.112	-0.158
-332.231	-200.000	0.032	0.000
-331.216	-200.000	-0.058	-0.265
-330.202	65.078	0.099	0.098
-329.187	-113.086	-0.400	-0.078
-328.172	800.000	-0.013	0.041
-327.158	-166.673	-0.184	-0.008
-326.143	-76.971	-0.115	-0.040
-325.129	-63.791	0.117	0.047
-324.114	800.000	0.038	-0.152
-323.099	70.515	-0.073	0.075
-322.085	-109.222	0.136	0.028
-321.070	-65.716	0.189	-0.075
-320.056	-113.962	0.371	-0.071
-319.041	-183.516	0.225	-0.004
-318.026	-65.024	-0.190	-0.076
-317.012	800.000	0.080	0.228
-315.997	-54.414	0.176	0.079
-314.983	-56.940	-0.136	0.059
-313.968	-41.986	-0.251	0.127
-312.953	381.374	-0.071	0.143
-311.939	-137.069	-0.385	0.043
-310.924	-11.456	-0.285	-0.185
-309.910	-167.284	0.318	-0.013
-308.895	-200.000	0.040	0.291
-307.880	-114.094	-0.121	0.023
-306.866	-200.000	-0.054	-0.322
-305.851	113.385	-0.039	-0.046
-304.837	-92.666	0.214	-0.059
-303.822	-74.822	0.401	0.142
-302.807	234.515	0.133	-0.217
-301.793	66.593	0.053	-0.053
-300.778	-157.984	0.217	0.013
-299.764	-184.953	0.034	0.001
-298.749	-131.443	0.111	0.014
-297.735	189.745	-0.084	0.124
-296.720	-70.787	0.398	0.148
-295.705	-107.746	-0.239	0.051
-294.691	-85.446	0.665	0.204
-293.676	-161.911	-0.123	-0.006
-292.662	468.154	-0.041	0.091
-291.647	251.366	-0.088	-0.148
-290.632	-200.000	-0.022	-0.267
-289.618	10.982	-0.194	0.146
-288.603	-200.000	0.008	-0.079
-287.589	-181.679	-0.332	0.006
-286.574	167.947	0.092	-0.129
-285.559	-27.825	0.182	-0.104
-284.545	-77.739	-0.104	-0.035
-283.530	-200.000	0.068	0.353
-282.516	-37.823	-0.306	-0.160
-281.501	8.042	-0.260	-0.192
-280.486	-61.880	0.202	-0.083
-279.472	116.457	-0.128	-0.155
-278.457	67.510	-0.248	0.249
-277.443	-72.552	-0.061	-0.022
-276.428	-200.000	0.003	-0.096
-275.413	552.826	0.022	0.051
-274.399	189.964	0.238	0.352
-273.384	385.021	0.167	0.339
-272.370	-200.000	-0.080	0.438
-271.355	-84.867	0.057	0.018
-270.340	157.859	-0.132	0.179
-269.326	-99.205	-0.229	-0.057
-268.311	800.000	0.039	0.147
-267.297	385.178	-0.170	-0.346
-266.282	324.871	-0.140	0.263
-265.267	97.296	0.074	0.084
-264.253	-6.040	-0.250	-0.168
-263.238	-13.741	-0.377	0.240
-262.224	-200.000	0.077	-0.394
-261.209	123.948	-0.284	0.351
-260.195	-200.000	-0.021	-0.276
-259.180	95.275	0.319	0.358
-258.165	-150.154	-0.356	0.027
-257.151	-173.294	0.201	0.006
-256.136	395.554	-0.072	0.148
-255.122	54.210	0.120	-0.114
-254.107	-200.000	-0.000	-0.042
-253.092	-200.000	0.000	0.055
-252.078	-200.000	-0.019	0.125
-251.063	506.839	-0.126	-0.287
-250.049	88.755	-0.023	-0.025
-249.034	-103.401	0.141	-0.033
-248.019	647.168	-0.133	0.335
-247.005	159.363	-0.161	-0.220
-245.990	105.285	-0.211	0.246
-244.976	100.105	0.094	-0.107
-243.961	-200.000	-0.028	0.284
-242.946	17.519	0.187	0.146
-241.932	-128.318	0.275	0.039
-240.917	-200.000	0.081	-0.363
-239.903	143.152	0.119	-0.156
-238.888	-200.000	-0.039	0.275
-237.873	582.907	0.147	-0.355
-236.859	-110.205	-0.278	0.057
-235.844	-19.656	0.217	0.132
-234.830	-200.000	0.072	0.334
-233.815	-200.000	0.017	0.190
-232.800	129.405	0.164	0.206
-231.786	482.519	0.128	0.287
-230.771	-150.878	-0.128	-0.010
-229.757	236.963	0.110	0.180
-228.742	-143.991	0.160	0.015
-227.727	60.617	-0.113	0.110
-226.713	208.025	-0.038	0.058
-225.698	800.000	-0.035	0.109
-224.684	-200.000	0.029	0.143
-223.669	656.699	0.054	0.137
-222.655	-200.000	0.048	0.249
-221.640	-159.930	0.301	0.016
-220.625	-58.213	-0.410	0.175
-219.611	800.000	-0.128	-0.449
-218.596	115.166	-0.096	0.115
-217.582	244.182	-0.151	0.249
-216.567	-200.000	0.030	-0.207
-215.552	800.000	0.071	0.244
-214.538	-98.557	-0.367	0.092
-213.523	-200.000	0.018	-0.131
-212.509	154.841	0.259	0.349
-211.494	63.744	0.082	0.081
-210.479	-150.203	0.475	-0.036
-209.465	35.656	0.113	-0.098
-208.450	4.619	-0.234	0.169
-207.436	-79.994	-0.316	-0.104
-206.421	534.482	-0.047	0.111
-205.406	16.287	-0.171	0.133
-204.392	-200.000	0.027	0.154
-203.377	479.265	0.031	-0.070
-202.363	-200.000	0.010	-0.056
-201.348	745.962	-0.099	0.262
-200.333	-108.770	0.317	-0.067
-199.319	-71.049	-0.084	-0.031
-198.304	-171.013	0.197	-0.007
-197.290	-8.401	-0.097	0.064
-196.275	140.303	0.133	-0.172
-195.260	41.472	0.246	-0.219
-194.246	-200.000	-0.036	-0.204
-193.231	-109.534	-0.487	0.101
-192.217	-101.181	0.113	0.027
-191.202	176.127	-0.076	-0.109
-190.187	-200.000	0.014	0.245
-189.173	-200.000	-0.008	0.208
-188.158	-22.237	-0.314	0.187
-187.144	800.000	-0.075	-0.248
-186.129	91.797	0.219	-0.241
-185.114	-186.481	-0.044	0.001
-184.100	-0.730	-0.218	0.152
-183.085	305.332	-0.227	0.414
-182.071	-118.488	0.111	0.019
-181.056	-76.452	0.141	0.049
-180.042	224.192	0.032	0.050
-179.027	88.565	-0.133	0.145
-178.012	800.000	0.078	0.301
-176.998	689.734	-0.096	0.247
-175.983	255.442	0.193	0.324
-174.969	-8.593	-0.056	-0.037
-173.954	115.242	0.247	0.296
-172.939	-142.131	0.433	0.042
-171.925	-4.073	-0.135	0.091
-170.910	-200.000	0.054	-0.343
-169.896	-81.249	0.103	-0.033
-168.881	351.833	0.261	-0.508
-167.866	-23.081	0.239	0.141
-166.852	88.249	0.049	-0.053
-165.837	-200.000	0.086	0.562
-164.823	-200.000	0.011	-0.087
-163.808	-128.429	0.265	0.037
-162.793	-142.172	0.344	-0.033
-161.779	-200.000	-0.011	-0.138
-160.764	-200.000	-0.075	-0.330
-159.750	-200.000	0.000	0.166
-158.735	-89.622	0.266	-0.077
-157.720	28.689	-0.219	-0.182
-156.706	50.806	-0.092	-0.085
-155.691	800.000	0.095	-0.337
-154.677	-145.922	0.320	-0.028
-153.662	46.013	-0.138	-0.125
-152.647	-100.876	-0.857	0.206
-151.633	-80.404	-0.053	0.017
-150.618	174.858	-0.009	-0.013
-149.604	800.000	-0.048	0.153
-148.589	-200.000	-0.068	0.526
-147.574	-200.000	0.042	0.198
-146.560	144.792	-0.137	-0.180
-145.545	-128.782	-0.439	0.061
-144.531	748.578	0.136	0.359
-143.516	-90.694	-0.159	0.045
-142.502	-103.158	0.376	0.087
-141.487	31.546	-0.021	0.018
-140.472	38.445	0.164	-0.143
-139.458	-200.000	-0.037	-0.178
-138.443	-65.755	-0.393	-0.154
-137.429	5.943	-0.202	0.146
-136.414	775.945	-0.079	0.212
-135.399	-23.030	-0.224	0.132
-134.385	-53.864	-0.097	0.043
-133.370	796.808	-0.092	0.247
-132.356	21.105	0.268	-0.213
-131.341	-37.510	-0.072	-0.038
-130.326	419.221	-0.110	0.231
-129.312	-42.218	-0.238	0.119
-128.297	-200.000	-0.000	-0.002
-127.283	-131.710	0.214	0.028
-126.268	-174.562	-0.073	-0.002
-125.253	-140.696	-0.134	0.014
-124.239	69.591	-0.034	0.034
-123.224	34.801	0.211	-0.181
-122.210	138.168	0.079	-0.102
