DTS Sentinel unit serial number:	SN413079Multiplexer serial number:	ORYXHardware model number:	OX4-SRSoftware version number:	ORYX F/W v4.00 Oryx Data Collector v3.7.2.0data status	okinstallation	princeton_trtdifferential loss correction	single-endedforward channel	channel 4reverse channel	N/Adate	2019/09/13time	12:37:34forward acquisition time	60.00reverse acquisition time	0.00gamma	496.2192k internal	0.2296k external	0.2296temperature offset calibration	1.0216default loss term (dB/km)	0.3790temperature slope calibration	1.0000multiplexer offset coefficient	1.0000multiplexer slope coefficient	1.0000fibre end	0.00T internal ref (°C)	34.56T ext. ref 1 (°C)	4.61T ext. ref 2 (°C)	31.55length (m)	temperature (°C)	Stokes	anti-Stokes-747.200	-3.402	0.085	0.061
-746.185	800.000	-0.038	0.112
-745.171	800.000	-0.047	-0.171
-744.156	121.624	-0.094	0.119
-743.142	100.829	0.183	-0.217
-742.127	314.129	0.154	0.296
-741.112	-200.000	-0.036	0.636
-740.098	-93.280	-0.145	0.041
-739.083	-200.000	-0.006	0.090
-738.069	-35.249	0.162	0.090
-737.054	-117.561	-0.194	-0.036
-736.039	-152.229	-0.893	0.066
-735.025	33.003	0.150	-0.133
-734.010	-53.893	-0.379	-0.177
-732.996	123.931	-0.264	0.338
-731.981	500.900	0.008	0.019
-730.966	-98.303	-0.248	-0.065
-729.952	22.023	-0.073	0.061
-728.937	-96.236	-0.328	-0.089
-727.923	-94.783	-0.191	-0.053
-726.908	-200.000	0.085	-0.393
-725.894	158.371	-0.205	-0.290
-724.879	-57.465	-0.470	0.211
-723.864	-158.177	0.121	-0.007
-722.850	284.499	0.123	0.226
-721.835	60.296	0.127	-0.128
-720.821	-31.155	0.116	-0.067
-719.806	-200.000	0.026	-0.125
-718.791	-86.095	0.305	-0.096
-717.777	-200.000	-0.006	-0.033
-716.762	155.383	-0.211	0.296
-715.748	-200.000	-0.011	0.059
-714.733	70.509	-0.147	0.155
-713.718	-41.983	-0.025	0.013
-712.704	-40.992	-0.101	0.053
-711.689	-33.864	0.239	0.135
-710.675	213.228	0.009	0.015
-709.660	-200.000	-0.036	-0.173
-708.645	95.793	0.129	-0.150
-707.631	-35.015	0.039	-0.021
-706.616	217.281	0.085	-0.138
-705.602	-118.097	-0.275	0.050
-704.587	275.323	0.075	-0.136
-703.572	662.029	-0.139	-0.365
-702.558	0.501	-0.125	-0.091
-701.543	12.204	0.230	-0.180
-700.529	-72.835	-0.124	-0.047
-699.514	204.100	0.089	-0.141
-698.499	-134.623	-0.151	0.019
-697.485	-76.706	0.086	0.031
-696.470	100.718	0.112	0.133
-695.456	101.483	-0.175	-0.208
-694.441	800.000	0.008	-0.025
-693.426	-41.396	0.275	-0.144
-692.412	-24.780	0.345	-0.209
-691.397	-106.468	-0.286	-0.065
-690.383	-200.000	-0.065	-0.298
-689.368	-140.816	-0.271	0.029
-688.354	186.476	-0.187	0.283
-687.339	327.449	-0.057	0.110
-686.324	-200.000	-0.036	0.193
-685.310	77.756	0.042	0.046
-684.295	119.903	-0.108	-0.136
-683.281	436.312	-0.034	0.075
-682.266	-200.000	-0.030	0.288
-681.251	54.733	0.065	-0.064
-680.237	-21.523	-0.213	-0.133
-679.222	-68.785	0.274	-0.108
-678.208	-89.686	-0.440	-0.132
-677.193	143.474	-0.145	-0.197
-676.178	-11.773	-0.101	0.067
-675.164	0.100	-0.124	-0.090
-674.149	-116.516	-0.103	-0.019
-673.135	-10.143	-0.217	-0.147
-672.120	30.099	0.111	-0.097
-671.105	-200.000	0.011	-0.096
-670.091	128.388	0.144	0.187
-669.076	-110.622	-0.102	-0.021
-668.062	238.142	-0.092	-0.155
-667.047	34.609	-0.074	0.066
-666.032	531.605	-0.046	0.111
-665.018	7.314	-0.281	0.214
-664.003	-200.000	-0.010	0.171
-662.989	-21.921	-0.099	-0.062
-661.974	44.751	-0.251	-0.235
-660.959	492.727	-0.089	-0.207
-659.945	-110.137	0.152	0.032
-658.930	-131.377	0.061	0.008
-657.916	155.145	-0.022	0.031
-656.901	86.761	0.240	-0.269
-655.886	85.306	0.070	0.078
-654.872	-58.622	-0.103	-0.045
-653.857	-23.179	-0.139	-0.085
-652.843	185.838	-0.103	-0.156
-651.828	-200.000	-0.038	-0.213
-650.814	-200.000	0.016	0.122
-649.799	-14.676	0.035	-0.023
-648.784	800.000	0.062	-0.195
-647.770	48.088	0.038	-0.036
-646.755	202.024	-0.042	0.065
-645.741	250.650	0.232	-0.401
-644.726	-139.953	-0.374	0.040
-643.711	152.077	-0.109	-0.151
-642.697	3.654	-0.141	-0.105
-641.682	175.328	0.090	-0.133
-640.668	-66.991	0.472	-0.190
-639.653	-200.000	0.036	-0.308
-638.638	-89.471	0.233	0.070
-637.624	-97.449	0.128	-0.034
-636.609	766.167	0.097	0.269
-635.595	800.000	-0.142	-0.562
-634.580	16.438	-0.077	0.062
-633.565	40.320	-0.112	0.103
-632.551	40.471	-0.099	0.090
-631.536	800.000	-0.088	-0.273
-630.522	92.463	0.127	-0.146
-629.507	356.443	-0.074	-0.149
-628.492	287.470	0.211	-0.388
-627.478	1.302	-0.146	0.107
-626.463	-200.000	-0.038	-0.287
-625.449	22.308	0.354	-0.294
-624.434	-98.631	0.197	0.051
-623.419	-200.000	-0.006	0.174
-622.405	800.000	0.078	-0.269
-621.390	125.125	0.227	0.291
-620.376	800.000	-0.026	0.108
-619.361	403.331	0.060	-0.129
-618.346	-200.000	0.021	-0.174
-617.332	84.521	0.124	0.138
-616.317	-61.698	-0.319	0.136
-615.303	800.000	-0.025	0.070
-614.288	249.644	-0.079	0.136
-613.273	648.377	-0.150	0.391
-612.259	192.704	-0.169	-0.260
-611.244	390.694	-0.102	0.214
-610.230	289.435	-0.138	-0.255
-609.215	-200.000	-0.023	0.355
-608.201	-200.000	0.016	-0.198
-607.186	-158.997	0.330	0.019
-606.171	-189.545	-0.184	-0.002
-605.157	-37.828	-0.312	-0.169
-604.142	434.842	-0.131	0.289
-603.128	-64.148	-0.069	-0.029
-602.113	-200.000	-0.025	0.155
-601.098	800.000	0.071	0.295
-600.084	-110.933	0.110	-0.023
-599.069	800.000	0.023	0.071
-598.055	-101.770	0.051	0.013
-597.040	-200.000	0.035	0.220
-596.025	-200.000	0.007	-0.072
-595.011	72.524	-0.288	-0.305
-593.996	71.762	-0.201	0.213
-592.982	800.000	0.118	-0.376
-591.967	-76.221	0.288	0.103
-590.952	-28.763	-0.195	-0.114
-589.938	73.750	-0.251	-0.267
-588.923	72.889	0.150	0.159
-587.909	-136.912	0.393	0.046
-586.894	-5.002	-0.238	0.167
-585.879	22.298	0.043	0.036
-584.865	78.389	-0.046	0.050
-583.850	-93.100	0.109	0.031
-582.836	-200.000	-0.003	-0.183
-581.821	-57.922	0.142	-0.063
-580.806	-200.000	0.037	-0.316
-579.792	645.081	-0.139	-0.359
-578.777	-141.002	-0.153	0.016
-577.763	800.000	0.058	0.192
-576.748	366.857	0.255	-0.521
-575.733	-24.830	0.294	-0.178
-574.719	-22.472	-0.047	-0.029
-573.704	-200.000	-0.042	-0.188
-572.690	800.000	0.084	0.317
-571.675	440.569	-0.173	0.384
-570.661	-200.000	-0.103	0.459
-569.646	72.372	0.061	-0.064
-568.631	31.224	-0.101	0.088
-567.617	-43.319	-0.342	0.176
-566.602	-200.000	-0.046	-0.267
-565.588	-95.340	0.153	-0.042
-564.573	-79.306	-0.037	-0.013
-563.558	-20.272	-0.288	0.180
-562.544	-123.273	-0.396	-0.064
-561.529	161.744	0.111	-0.158
-560.515	-200.000	0.015	-0.221
-559.500	-200.000	0.067	-0.426
-558.485	112.900	-0.157	0.193
-557.471	800.000	0.070	-0.213
-556.456	-26.547	-0.172	-0.102
-555.442	171.780	0.026	0.038
-554.427	-112.774	-0.096	0.019
-553.412	693.409	0.149	-0.397
-552.398	800.000	-0.097	-0.277
-551.383	-200.000	-0.036	0.395
-550.369	312.474	0.149	-0.284
-549.354	38.431	0.260	-0.235
-548.339	604.972	0.071	0.179
-547.325	-200.000	-0.052	0.314
-546.310	800.000	0.043	0.142
-545.296	-87.952	0.098	0.030
-544.281	776.193	-0.065	-0.179
-543.266	-127.932	0.280	-0.041
-542.252	-38.544	0.184	0.098
-541.237	589.324	0.083	-0.208
-540.223	-200.000	0.010	-0.180
-539.208	-200.000	0.013	0.153
-538.193	3.958	0.192	-0.142
-537.179	125.164	0.133	-0.170
-536.164	-114.219	-0.337	-0.066
-535.150	-112.571	0.105	-0.021
-534.135	-131.676	-0.047	0.006
-533.121	-54.478	0.377	-0.173
-532.106	17.811	0.343	-0.277
-531.091	-79.554	-0.384	0.131
-530.077	-200.000	-0.032	-0.235
-529.062	-9.729	0.020	0.013
-528.048	-86.227	-0.197	-0.062
-527.033	-63.348	0.488	0.204
-526.018	-55.337	-0.177	-0.081
-525.004	100.147	-0.085	-0.100
-523.989	10.164	-0.279	0.215
-522.975	-27.194	-0.146	0.086
-521.960	-97.144	-0.154	0.041
-520.945	74.157	-0.138	0.147
-519.931	783.506	0.079	0.218
-518.916	383.893	0.100	0.208
-517.902	-35.641	-0.251	-0.138
-516.887	-200.000	0.006	0.190
-515.872	569.140	0.070	0.173
-514.858	-4.360	-0.291	-0.204
-513.843	800.000	-0.062	0.201
-512.829	-76.408	0.136	0.049
-511.814	204.618	-0.184	0.289
-510.799	-118.131	0.390	0.070
-509.785	-13.816	0.153	0.100
-508.770	144.735	-0.217	-0.293
-507.756	-41.188	-0.070	-0.037
-506.741	-200.000	0.051	0.245
-505.726	72.734	0.146	-0.154
-504.712	-86.430	-0.029	-0.009
-503.697	230.988	-0.065	-0.108
-502.683	83.867	-0.265	-0.293
-501.668	-138.914	0.180	0.020
-500.653	238.499	0.028	-0.047
-499.639	-38.051	0.100	-0.054
-498.624	163.596	-0.048	0.069
-497.610	33.510	0.241	-0.212
-496.595	800.000	0.107	-0.432
-495.581	-72.008	-0.172	0.065
-494.566	-20.702	0.418	0.260
-493.551	135.471	0.160	0.211
-492.537	-126.541	0.213	0.032
-491.522	320.360	-0.066	0.127
-490.508	-35.921	0.288	-0.158
-489.493	-200.000	0.005	-0.151
-488.478	536.167	-0.100	-0.241
-487.464	158.969	-0.236	-0.332
-486.449	87.205	0.248	0.278
-485.435	-56.724	0.296	0.133
-484.420	-121.697	0.233	-0.039
-483.405	-200.000	-0.015	0.267
-482.391	800.000	0.083	0.264
-481.376	800.000	-0.014	0.042
-480.362	800.000	-0.069	-0.228
-479.347	-63.681	0.150	-0.062
-478.332	-92.546	-0.181	0.051
-477.318	-200.000	0.005	0.053
-476.303	413.382	0.062	0.132
-475.289	411.169	0.018	0.038
-474.274	-100.335	0.068	0.017
-473.259	64.566	-0.271	-0.276
-472.245	-200.000	0.168	-0.000
-471.230	189.771	-0.258	0.391
-470.216	800.000	0.065	0.223
-469.201	51.831	-0.129	0.124
-468.186	309.944	0.066	0.125
-467.172	159.381	-0.196	0.275
-466.157	-85.116	-0.313	-0.099
-465.143	-102.046	0.285	0.069
-464.128	-142.549	-0.247	0.025
-463.113	-110.298	0.107	-0.022
-462.099	-53.012	-0.151	0.070
-461.084	579.359	-0.106	-0.262
-460.070	-99.650	-0.179	0.045
-459.055	203.713	0.083	0.130
-458.040	-95.625	-0.240	-0.065
-457.026	-200.000	0.056	0.262
-456.011	602.100	0.186	0.468
-454.997	800.000	0.044	0.192
-453.982	-132.566	-0.217	-0.028
-452.968	-106.585	0.234	0.053
-451.953	800.000	-0.070	-0.208
-450.938	800.000	0.099	-0.326
-449.924	-122.831	-0.175	-0.029
-448.909	52.336	0.050	-0.048
-447.895	-8.013	-0.132	-0.090
-446.880	-73.908	0.302	0.111
-445.865	204.195	-0.144	-0.226
-444.851	-72.407	-0.126	-0.047
-443.836	-179.121	-0.206	0.005
-442.822	800.000	-0.070	0.207
-441.807	-200.000	0.024	0.141
-440.792	106.293	0.071	-0.085
-439.778	-28.153	-0.290	-0.169
-438.763	-33.028	-0.108	-0.061
-437.749	459.374	-0.152	-0.341
-436.734	-65.941	0.235	-0.095
-435.719	-200.000	-0.007	0.153
-434.705	-20.397	0.082	-0.051
-433.690	103.288	0.017	0.021
-432.676	66.620	0.141	0.144
-431.661	17.163	-0.250	-0.200
-430.646	408.155	0.043	-0.091
-429.632	-106.137	-0.165	-0.037
-428.617	275.554	-0.168	-0.301
-427.603	-173.720	-0.047	-0.001
-426.588	800.000	-0.028	0.093
-425.573	-200.000	0.026	-0.118
-424.559	-200.000	0.015	-0.278
-423.544	8.023	0.103	0.078
-422.530	-200.000	0.012	-0.128
-421.515	679.143	0.084	-0.221
-420.500	317.659	0.154	0.294
-419.486	-78.230	-0.026	0.009
-418.471	8.324	-0.141	-0.107
-417.457	-200.000	-0.101	0.535
-416.442	-64.181	0.179	-0.073
-415.428	-70.208	0.167	0.064
-414.413	-158.059	-0.222	-0.013
-413.398	30.685	-0.164	0.141
-412.384	-3.503	0.182	-0.127
-411.369	-29.455	0.155	0.089
-410.355	-94.889	0.186	-0.051
-409.340	-49.361	-0.225	-0.108
-408.325	224.846	-0.093	-0.151
-407.311	-199.062	-0.364	0.002
-406.296	63.499	0.416	-0.421
-405.282	-12.276	0.117	-0.077
-404.267	593.137	0.111	-0.276
-403.252	800.000	0.008	-0.034
-402.238	40.442	-0.241	0.219
-401.223	542.401	-0.076	0.183
-400.209	-83.881	0.185	0.059
-399.194	34.485	0.282	0.248
-398.179	43.037	-0.324	0.298
-397.165	-104.782	0.516	0.120
-396.150	282.134	-0.062	0.111
-395.136	-79.128	-0.043	-0.015
-394.121	316.136	-0.145	-0.275
-393.106	-200.000	-0.022	-0.222
-392.092	800.000	-0.038	-0.144
-391.077	-87.343	-0.159	-0.049
-390.063	-41.514	0.048	0.025
-389.048	47.566	0.171	-0.161
-388.033	43.638	0.064	0.059
-387.019	197.539	-0.069	-0.106
-386.004	251.561	0.029	0.050
-384.990	800.000	-0.061	0.204
-383.975	251.797	-0.088	0.151
-382.960	396.031	-0.088	-0.185
-381.946	6.978	0.116	-0.087
-380.931	270.760	-0.179	-0.317
-379.917	-20.846	-0.163	-0.100
-378.902	-166.315	0.323	0.014
-377.888	129.603	0.222	0.286
-376.873	5.479	0.113	0.084
-375.858	286.599	0.156	-0.283
-374.844	-200.000	0.015	-0.264
-373.829	28.927	0.120	0.103
-372.815	303.052	0.075	0.140
-371.800	114.724	-0.121	-0.148
-370.785	249.200	0.160	0.273
-369.771	124.427	-0.035	-0.045
-368.756	-69.726	-0.142	0.055
-367.742	-127.802	-0.337	-0.049
-366.727	-3.754	0.177	0.124
-365.712	58.876	-0.041	0.041
-364.698	-200.000	0.049	-0.482
-363.683	147.080	-0.010	-0.014
-362.669	-200.000	-0.032	-0.327
-361.654	87.128	-0.046	0.051
-360.639	-200.000	-0.088	0.403
-359.625	-106.949	-0.054	0.012
-358.610	-54.466	-0.185	0.084
-357.596	-8.585	-0.273	-0.185
-356.581	-97.142	0.041	-0.011
-355.566	-65.744	-0.062	0.025
-354.552	182.307	0.141	-0.210
-353.537	-200.000	0.041	0.186
-352.523	-135.149	-0.288	0.035
-351.508	645.168	0.139	-0.357
-350.493	800.000	0.029	0.123
-349.479	-97.416	0.155	-0.041
-348.464	22.515	-0.464	0.382
-347.450	-146.506	-0.301	-0.026
-346.435	-33.649	0.226	-0.125
-345.420	-101.808	-0.394	0.096
-344.406	-200.000	0.000	0.226
-343.391	-36.994	0.105	-0.057
-342.377	404.290	0.130	0.276
-341.362	-95.061	-0.306	0.083
-340.348	-89.179	-0.156	-0.046
-339.333	800.000	0.060	0.223
-338.318	324.034	-0.096	0.185
-337.304	26.219	0.205	0.172
-336.289	-200.000	-0.094	0.427
-335.275	-200.000	-0.047	0.308
-334.260	-66.501	-0.206	-0.082
-333.245	-21.627	0.155	-0.095
-332.231	29.800	0.253	0.216
-331.216	6.507	0.053	-0.040
-330.202	-200.000	-0.021	-0.195
-329.187	-71.462	0.175	0.066
-328.172	-90.347	0.107	0.031
-327.158	-200.000	-0.023	-0.152
-326.143	-200.000	0.064	-0.461
-325.129	20.104	-0.163	0.132
-324.114	446.592	0.067	0.149
-323.099	-200.000	-0.036	0.244
-322.085	800.000	0.086	0.246
-321.070	-132.411	-0.169	-0.022
-320.056	325.240	-0.147	-0.283
-319.041	549.985	-0.114	0.274
-318.026	18.953	0.154	-0.124
-317.012	-96.565	-0.192	0.051
-315.997	304.663	0.142	0.264
-314.983	-59.546	0.156	0.067
-313.968	-200.000	-0.016	0.143
-312.953	800.000	0.122	-0.382
-311.939	800.000	-0.031	0.089
-310.924	778.201	0.070	0.193
-309.910	194.946	-0.025	0.038
-308.895	800.000	-0.019	0.059
-307.880	-33.744	-0.245	0.136
-306.866	-111.062	-0.175	-0.036
-305.851	-55.286	0.193	-0.087
-304.837	-138.390	-0.049	0.005
-303.822	-200.000	0.053	-0.337
-302.807	-200.000	0.010	0.112
-301.793	-200.000	-0.000	-0.095
-300.778	-200.000	0.022	0.181
-299.764	-77.612	0.350	-0.122
-298.749	-163.965	-0.128	0.006
-297.735	-7.837	-0.056	0.038
-296.720	-200.000	-0.001	0.106
-295.705	-39.166	-0.171	-0.090
-294.691	259.820	-0.151	-0.262
-293.676	-200.000	-0.031	-0.344
-292.662	157.584	-0.197	-0.273
-291.647	-130.404	0.079	-0.011
-290.632	30.101	0.086	-0.074
-289.618	157.610	0.082	0.114
-288.603	148.298	0.261	0.354
-287.589	11.678	0.129	0.099
-286.574	463.093	0.046	-0.103
-285.559	336.792	0.189	-0.368
-284.545	396.289	0.066	0.138
-283.530	-65.906	0.219	0.088
-282.516	800.000	0.101	0.306
-281.501	-155.136	0.119	-0.008
-280.486	-46.151	-0.207	0.102
-279.472	-200.000	0.022	-0.220
-278.457	-200.000	0.001	-0.313
-277.443	-200.000	0.049	0.409
-276.428	-106.489	0.070	-0.016
-275.413	-66.885	-0.251	-0.100
-274.399	-149.890	0.579	0.045
-273.384	138.315	0.143	-0.189
-272.370	-140.808	0.296	-0.031
-271.355	-120.362	0.150	0.026
-270.340	275.928	0.056	0.100
-269.326	-57.734	0.130	-0.057
-268.311	350.390	-0.130	-0.257
-267.297	-23.912	0.315	-0.189
-266.282	81.704	0.142	-0.154
-265.267	-58.117	0.129	0.056
-264.253	64.734	-0.128	0.129
-263.238	53.354	-0.048	-0.046
-262.224	38.209	0.309	0.276
-261.209	135.846	-0.202	-0.264
-260.195	-86.895	-0.267	0.082
-259.180	705.800	-0.070	-0.184
-258.165	800.000	-0.088	0.299
-257.151	14.548	-0.373	0.292
-256.136	294.867	-0.054	-0.099
-255.122	65.234	-0.200	-0.203
-254.107	-200.000	0.053	-0.316
-253.092	5.952	-0.091	-0.068
-252.078	-100.198	0.279	0.070
-251.063	-148.049	-0.302	-0.025
-250.049	688.867	-0.075	0.196
-249.034	-91.563	0.226	-0.065
-248.019	-169.721	-0.310	-0.011
-247.005	-105.404	0.176	0.040
-245.990	800.000	-0.059	0.179
-244.976	800.000	0.067	-0.255
-243.961	-40.180	0.035	-0.018
-242.946	-62.533	-0.062	-0.026
-241.932	-91.105	-0.298	0.086
-240.917	-15.799	-0.323	0.206
-239.903	-74.748	-0.027	-0.010
-238.888	402.275	-0.103	-0.216
-237.873	-72.302	-0.239	-0.089
-236.859	81.162	0.138	0.150
-235.844	-64.190	-0.304	0.124
-234.830	-200.000	-0.011	0.240
-233.815	-28.254	0.375	0.217
-232.800	1.835	-0.411	0.297
-231.786	800.000	0.044	-0.191
-230.771	318.581	0.080	0.152
-229.757	-191.998	0.143	0.001
-228.742	187.646	0.154	-0.230
-227.727	-107.396	-0.332	-0.073
-226.713	-200.000	0.003	0.509
-225.698	118.245	0.121	0.149
-224.684	-59.322	-0.251	-0.108
-223.669	-128.955	-0.249	-0.035
-222.655	74.507	0.125	0.132
-221.640	270.589	-0.051	-0.089
-220.625	476.538	-0.071	-0.161
-219.611	-17.779	-0.145	0.091
-218.596	-200.000	0.015	-0.275
-217.582	28.247	0.332	-0.281
-216.567	349.539	-0.174	0.344
-215.552	98.008	0.200	-0.230
-214.538	-48.727	-0.109	0.052
-213.523	114.909	0.156	0.190
-212.509	-124.453	-0.248	-0.039
-211.494	800.000	-0.022	-0.083
-210.479	-200.000	0.006	0.199
-209.465	-67.852	0.326	0.128
-208.450	269.846	0.082	0.144
-207.436	-136.480	0.331	-0.038
-206.421	-8.603	-0.177	0.119
-205.406	425.184	0.047	-0.101
-204.392	-200.000	0.036	0.440
-203.377	192.187	0.073	0.110
-202.363	-117.591	0.142	0.026
-201.348	520.013	0.076	0.178
-200.333	236.506	0.033	0.054
-199.319	539.779	-0.195	0.463
-198.304	800.000	0.038	-0.141
-197.290	100.298	0.121	-0.140
-196.275	599.073	0.036	-0.090
-195.260	-87.881	-0.121	0.036
-194.246	89.482	0.140	-0.156
-193.231	490.117	0.133	0.304
-192.217	-200.000	0.025	0.348
-191.202	133.537	-0.106	-0.138
-190.187	-184.948	0.295	0.005
-189.173	381.638	0.066	-0.136
-188.158	-200.000	-0.045	0.356
-187.144	800.000	0.150	0.491
-186.129	225.744	0.058	-0.094
-185.114	231.525	-0.174	0.285
-184.100	-192.006	-0.056	-0.001
-183.085	100.433	-0.119	-0.138
-182.071	277.619	-0.144	0.256
-181.056	-200.000	0.041	0.216
-180.042	-200.000	0.032	0.215
-179.027	-20.896	0.274	0.168
-178.012	35.730	-0.063	0.055
-176.998	-200.000	0.027	-0.227
-175.983	-200.000	0.027	0.354
-174.969	-40.214	-0.313	0.163
-173.954	-200.000	0.018	-0.235
-172.939	82.242	0.145	-0.157
-171.925	207.131	0.117	-0.182
-170.910	71.023	-0.077	-0.080
-169.896	106.057	-0.121	0.143
-168.881	331.911	0.056	0.109
-167.866	-100.806	-0.363	0.089
-166.852	630.849	-0.064	-0.161
-165.837	163.420	-0.057	-0.080
-164.823	59.846	0.133	-0.132
-163.808	-78.866	-0.224	0.076
-162.793	-200.000	0.056	-0.310
-161.779	-3.021	0.122	0.085
-160.764	31.850	-0.102	0.087
-159.750	78.038	0.043	-0.045
-158.735	-134.740	0.225	0.027
-157.720	800.000	-0.086	-0.293
-156.706	800.000	-0.060	-0.170
-155.691	800.000	-0.060	0.193
-154.677	-121.265	0.232	0.039
-153.662	97.204	-0.230	-0.264
-152.647	115.516	-0.102	0.125
-151.633	21.737	0.280	-0.227
-150.618	280.631	-0.052	-0.093
-149.604	-97.742	-0.067	-0.017
-148.589	800.000	0.060	0.167
-147.574	292.383	0.099	-0.181
-146.560	-52.829	-0.222	-0.102
-145.545	-100.977	0.204	-0.050
-144.531	-200.000	-0.052	0.233
-143.516	-21.289	0.342	-0.208
-142.502	800.000	-0.080	-0.301
-141.487	528.611	0.105	-0.248
-140.472	62.117	-0.180	-0.180
-139.458	-157.952	0.051	0.003
-138.443	92.328	-0.017	-0.019
-137.429	0.215	0.161	-0.114
-136.414	-120.830	0.252	-0.042
-135.399	-64.078	0.240	-0.098
-134.385	152.121	-0.114	0.155
-133.370	-134.152	0.078	0.010
-132.356	-88.266	0.095	0.028
-131.341	94.191	-0.180	-0.203
-130.326	-132.314	0.042	0.005
-129.312	86.225	0.260	0.286
-128.297	-145.816	-0.369	-0.033
-127.283	-200.000	0.005	0.022
-126.268	-25.505	-0.377	0.222
-125.253	-170.618	-0.319	0.011
-124.239	246.695	0.179	0.301
-123.224	284.644	0.059	0.106
-122.210	-61.614	-0.232	0.097
-121.195	-200.000	-0.001	0.463
