DTS Sentinel unit serial number:	SN413079Multiplexer serial number:	ORYXHardware model number:	OX4-SRSoftware version number:	ORYX F/W v4.00 Oryx Data Collector v3.7.2.0data status	okinstallation	princeton_trtdifferential loss correction	single-endedforward channel	channel 4reverse channel	N/Adate	2019/09/18time	14:09:35forward acquisition time	60.00reverse acquisition time	0.00gamma	496.2192k internal	0.2302k external	0.2302temperature offset calibration	1.0001default loss term (dB/km)	0.3790temperature slope calibration	1.0000multiplexer offset coefficient	1.0000multiplexer slope coefficient	1.0000fibre end	0.00T internal ref (°C)	34.37T ext. ref 1 (°C)	0.67T ext. ref 2 (°C)	28.97length (m)	temperature (°C)	Stokes	anti-Stokes-747.200	-200.000	0.016	0.165
-746.185	418.098	-0.127	0.276
-745.171	-200.000	0.073	0.398
-744.156	333.487	0.124	0.244
-743.142	119.321	-0.219	-0.276
-742.127	61.914	0.113	-0.115
-741.112	-186.125	-0.150	-0.002
-740.098	-200.000	0.057	0.254
-739.083	-113.423	0.239	0.048
-738.069	113.943	0.084	0.104
-737.054	225.425	0.157	0.260
-736.039	93.591	0.065	0.075
-735.025	-200.000	-0.013	0.147
-734.010	202.573	-0.089	0.141
-732.996	63.112	0.093	0.095
-731.981	34.773	-0.193	0.172
-730.966	52.405	-0.112	0.109
-729.952	150.380	-0.090	-0.124
-728.937	167.118	-0.099	0.143
-727.923	631.146	-0.099	0.254
-726.908	-59.666	-0.156	0.068
-725.894	19.094	-0.283	-0.231
-724.879	800.000	0.116	0.390
-723.864	-71.552	-0.234	0.089
-722.850	-47.106	-0.199	-0.099
-721.835	-98.017	-0.215	-0.056
-720.821	104.939	-0.132	-0.159
-719.806	90.426	0.145	0.165
-718.791	164.882	0.126	-0.181
-717.777	-29.768	-0.418	-0.243
-716.762	-185.822	-0.099	-0.002
-715.748	-138.495	0.113	-0.013
-714.733	123.713	0.217	0.278
-713.718	195.264	-0.109	-0.169
-712.704	265.084	0.118	0.209
-711.689	537.038	0.068	0.165
-710.675	382.996	0.065	0.135
-709.660	-200.000	-0.038	0.193
-708.645	73.167	-0.023	0.024
-707.631	800.000	-0.028	-0.111
-706.616	-105.168	-0.045	-0.011
-705.602	-86.337	-0.021	-0.006
-704.587	-130.846	-0.314	0.043
-703.572	-142.304	0.178	-0.018
-702.558	-100.758	0.364	0.091
-701.543	21.968	-0.126	0.105
-700.529	-124.057	0.201	-0.032
-699.514	-102.708	0.129	-0.031
-698.499	197.724	-0.155	-0.240
-697.485	372.530	0.085	-0.176
-696.470	120.934	-0.101	-0.127
-695.456	800.000	0.095	0.303
-694.441	800.000	0.016	-0.058
-693.426	61.676	-0.097	0.098
-692.412	-200.000	-0.011	-0.125
-691.397	-82.835	-0.338	0.111
-690.383	-200.000	0.030	-0.344
-689.368	-66.662	-0.182	0.073
-688.354	428.414	-0.061	0.134
-687.339	-200.000	0.011	0.086
-686.324	-200.000	-0.011	0.133
-685.310	-93.453	-0.069	-0.019
-684.295	-192.329	-0.079	-0.001
-683.281	800.000	-0.105	-0.412
-682.266	800.000	-0.008	0.027
-681.251	237.960	0.121	0.204
-680.237	800.000	-0.030	0.087
-679.222	800.000	0.032	0.093
-678.208	-124.592	-0.307	-0.049
-677.193	-112.508	0.049	0.010
-676.178	-200.000	0.054	-0.296
-675.164	-81.351	0.156	0.052
-674.149	800.000	0.040	-0.155
-673.135	-3.842	0.275	0.194
-672.120	175.725	-0.414	0.611
-671.105	101.259	-0.167	0.198
-670.091	-58.189	-0.240	-0.106
-669.076	23.721	0.285	0.238
-668.062	-200.000	-0.031	0.291
-667.047	-200.000	-0.087	0.430
-666.032	241.739	-0.187	-0.318
-665.018	28.371	0.204	0.176
-664.003	800.000	-0.022	0.069
-662.989	-19.660	0.038	-0.024
-661.974	147.152	-0.169	-0.231
-660.959	-200.000	0.030	0.192
-659.945	-200.000	0.028	-0.175
-658.930	1.080	-0.167	0.122
-657.916	170.357	0.156	-0.226
-656.901	-200.000	0.046	-0.207
-655.886	-10.854	-0.162	-0.109
-654.872	-61.946	-0.418	-0.177
-653.857	221.142	0.067	0.109
-652.843	-105.226	-0.154	0.036
-651.828	-52.124	0.180	-0.085
-650.814	184.585	0.125	-0.188
-649.799	115.963	-0.226	0.281
-648.784	-28.372	-0.178	0.104
-647.770	14.969	-0.127	-0.101
-646.755	-156.163	0.217	0.014
-645.741	-119.591	-0.125	-0.022
-644.726	75.454	-0.097	-0.104
-643.711	5.147	-0.108	0.081
-642.697	-74.833	-0.058	-0.021
-641.682	-200.000	-0.021	-0.102
-640.668	-9.299	-0.352	-0.239
-639.653	1.091	-0.190	-0.138
-638.638	-153.697	-0.175	-0.012
-637.624	-188.233	0.378	0.005
-636.609	-200.000	0.078	-0.381
-635.595	93.695	-0.150	-0.172
-634.580	155.349	0.110	0.154
-633.565	648.617	0.080	0.207
-632.551	263.612	0.079	-0.139
-631.536	-200.000	-0.003	-0.290
-630.522	93.996	0.122	-0.140
-629.507	-57.465	0.065	-0.029
-628.492	-200.000	-0.066	-0.335
-627.478	-102.387	0.084	0.020
-626.463	251.750	0.153	-0.263
-625.449	-200.000	0.029	-0.163
-624.434	800.000	0.061	-0.237
-623.419	-36.540	-0.187	-0.102
-622.405	-198.880	-0.310	0.002
-621.390	800.000	-0.033	-0.120
-620.376	-78.140	-0.202	0.070
-619.361	-64.708	0.076	0.031
-618.346	-90.063	-0.326	0.096
-617.332	-200.000	-0.067	-0.312
-616.317	-0.809	0.228	0.164
-615.303	159.719	0.023	-0.032
-614.288	21.411	-0.161	-0.133
-613.273	-200.000	-0.012	0.201
-612.259	66.297	-0.105	0.108
-611.244	120.698	0.161	0.202
-610.230	-160.366	-0.289	-0.016
-609.215	-112.145	-0.083	0.017
-608.201	-115.020	-0.339	0.065
-607.186	47.361	0.099	0.094
-606.171	61.315	-0.118	-0.118
-605.157	-133.138	0.251	0.032
-604.142	6.637	0.352	0.265
-603.128	-89.864	-0.191	0.057
-602.113	-167.463	0.206	-0.008
-601.098	259.453	-0.134	-0.235
-600.084	800.000	0.076	-0.301
-599.069	800.000	-0.023	0.099
-598.055	197.965	-0.229	-0.355
-597.040	-52.499	-0.318	0.149
-596.025	76.921	-0.109	-0.118
-595.011	-72.118	-0.148	-0.056
-593.996	-200.000	0.005	0.037
-592.982	-76.107	-0.210	0.075
-591.967	42.566	-0.082	-0.076
-590.952	-101.785	-0.074	0.018
-589.938	-53.388	0.178	0.083
-588.923	-30.784	-0.030	-0.017
-587.909	-81.683	-0.083	0.028
-586.894	3.261	0.140	-0.104
-585.879	187.118	0.154	0.232
-584.865	-93.532	0.195	-0.055
-583.850	800.000	0.056	0.197
-582.836	800.000	-0.103	0.349
-581.821	-74.383	0.057	0.021
-580.806	28.702	0.083	0.071
-579.792	199.360	-0.242	-0.376
-578.777	101.895	0.185	-0.218
-577.763	95.931	-0.142	-0.164
-576.748	-91.370	0.063	0.018
-575.733	587.855	-0.128	0.320
-574.719	85.787	-0.209	0.233
-573.704	-119.271	0.189	-0.033
-572.690	112.682	-0.146	-0.179
-571.675	-11.315	-0.038	0.025
-570.661	-114.221	-0.041	-0.008
-569.646	383.341	0.087	-0.180
-568.631	72.102	-0.083	0.087
-567.617	-56.412	0.196	-0.088
-566.602	406.414	-0.132	-0.281
-565.588	92.516	0.206	0.235
-564.573	-123.210	0.161	-0.026
-563.558	2.210	-0.040	0.029
-562.544	800.000	0.026	-0.112
-561.529	-200.000	-0.014	-0.081
-560.515	-200.000	-0.006	0.137
-559.500	51.540	0.167	-0.161
-558.485	-200.000	0.005	0.053
-557.471	-23.208	-0.075	-0.046
-556.456	-15.670	-0.278	-0.179
-555.442	580.843	-0.151	0.373
-554.427	-200.000	0.051	0.332
-553.412	800.000	0.037	0.127
-552.398	-200.000	-0.004	0.343
-551.383	65.427	-0.083	0.085
-550.369	-90.249	0.084	-0.025
-549.354	139.924	-0.196	0.262
-548.339	800.000	0.082	0.278
-547.325	648.284	-0.076	-0.197
-546.310	33.220	-0.021	0.018
-545.296	-200.000	-0.044	0.396
-544.281	160.064	0.020	-0.028
-543.266	67.238	0.072	0.074
-542.252	-46.541	0.373	0.185
-541.237	-200.000	-0.018	-0.277
-540.223	78.922	0.179	-0.193
-539.208	114.083	0.131	0.161
-538.193	-105.090	-0.161	-0.037
-537.179	800.000	0.088	0.271
-536.164	-6.221	-0.137	-0.095
-535.150	-168.279	0.248	-0.010
-534.135	-97.499	-0.347	-0.091
-533.121	-68.262	-0.284	-0.111
-532.106	-200.000	-0.024	-0.208
-531.091	56.168	-0.073	-0.072
-530.077	-107.562	-0.320	-0.071
-529.062	-31.255	0.212	0.121
-528.048	-200.000	0.023	-0.132
-527.033	-138.178	-0.216	-0.024
-526.018	800.000	0.062	0.222
-525.004	-89.789	0.393	-0.116
-523.989	-138.753	0.148	0.016
-522.975	-87.281	0.151	-0.046
-521.960	800.000	0.073	-0.238
-520.945	800.000	0.005	0.016
-519.931	-62.698	-0.056	0.023
-518.916	580.525	0.110	-0.273
-517.902	-155.329	-0.156	0.010
-516.887	-200.000	-0.035	0.162
-515.872	-96.121	-0.060	-0.016
-514.858	61.136	0.252	0.252
-513.843	564.204	-0.001	0.003
-512.829	800.000	0.137	-0.498
-511.814	-65.808	-0.160	0.065
-510.799	471.432	-0.085	-0.192
-509.785	20.795	-0.267	0.218
-508.770	800.000	-0.089	0.257
-507.756	64.483	-0.261	0.265
-506.741	-200.000	0.046	0.315
-505.726	-93.896	-0.227	0.063
-504.712	-200.000	-0.031	-0.232
-503.697	237.712	-0.183	0.307
-502.683	-35.364	0.216	-0.118
-501.668	671.409	-0.094	-0.247
-500.653	-200.000	0.029	-0.328
-499.639	-171.248	-0.052	0.002
-498.624	568.952	-0.011	0.028
-497.610	-59.055	0.075	0.033
-496.595	-84.636	-0.212	0.067
-495.581	122.822	0.152	0.191
-494.566	-82.163	0.099	0.033
-493.551	-200.000	-0.036	-0.258
-492.537	-59.067	-0.218	-0.095
-491.522	324.271	-0.166	0.321
-490.508	-200.000	0.025	-0.149
-489.493	108.955	0.091	-0.110
-488.478	121.192	-0.229	-0.288
-487.464	341.817	-0.147	0.291
-486.449	-3.747	0.293	0.205
-485.435	276.727	0.084	-0.150
-484.420	1.102	-0.214	0.155
-483.405	296.722	-0.182	0.336
-482.391	-200.000	-0.024	-0.115
-481.376	508.421	0.140	-0.328
-480.362	417.770	0.049	0.106
-479.347	800.000	-0.030	-0.111
-478.332	-200.000	-0.024	0.353
-477.318	800.000	-0.066	-0.227
-476.303	-5.572	0.144	0.099
-475.289	-168.955	0.252	-0.010
-474.274	623.212	0.048	-0.122
-473.259	32.115	0.135	-0.118
-472.245	-129.172	-0.111	-0.016
-471.230	34.282	-0.190	0.167
-470.216	-160.700	0.312	0.017
-469.201	372.665	0.018	0.036
-468.186	-49.918	0.102	-0.049
-467.172	800.000	0.107	-0.436
-466.157	-30.555	0.179	0.102
-465.143	-143.608	0.310	-0.030
-464.128	49.661	-0.089	-0.084
-463.113	230.311	0.115	0.190
-462.099	800.000	-0.057	0.186
-461.084	-200.000	0.060	0.309
-460.070	-140.471	0.212	0.022
-459.055	-110.187	-0.188	0.039
-458.040	800.000	-0.111	-0.356
-457.026	-65.674	-0.119	-0.048
-456.011	-200.000	0.036	-0.220
-454.997	-64.544	0.393	-0.161
-453.982	-200.000	-0.085	-0.379
-452.968	-74.608	0.164	-0.059
-451.953	19.332	-0.161	0.130
-450.938	12.738	0.260	0.202
-449.924	-173.371	-0.434	-0.013
-448.909	-200.000	-0.008	-0.139
-447.895	-22.696	0.059	-0.036
-446.880	-132.876	-0.274	-0.035
-445.865	40.800	-0.054	-0.049
-444.851	800.000	0.005	-0.017
-443.836	12.898	0.165	-0.129
-442.822	552.312	-0.071	-0.172
-441.807	-104.547	0.215	-0.050
-440.792	479.229	0.126	0.287
-439.778	-13.281	-0.100	0.065
-438.763	-68.317	-0.077	0.030
-437.749	-77.187	0.098	-0.034
-436.734	-75.931	0.156	0.055
-435.719	800.000	0.054	0.204
-434.705	32.178	-0.166	0.144
-433.690	34.363	0.067	-0.059
-432.676	-23.411	-0.162	0.098
-431.661	-130.395	0.056	0.008
-430.646	54.320	0.034	-0.033
-429.632	-63.637	-0.133	0.055
-428.617	-115.381	-0.293	0.056
-427.603	-171.648	0.048	0.002
-426.588	800.000	0.068	0.269
-425.573	263.981	-0.097	0.169
-424.559	-77.934	-0.198	-0.069
-423.544	-49.233	-0.067	0.032
-422.530	-98.668	0.321	-0.082
-421.515	53.942	0.086	0.083
-420.500	-16.949	-0.265	0.168
-419.486	47.370	-0.161	0.151
-418.471	244.636	-0.097	-0.164
-417.457	463.461	0.105	0.235
-416.442	-128.946	-0.259	-0.037
-415.428	-200.000	0.050	-0.263
-414.413	270.491	-0.097	0.171
-413.398	-160.209	-0.135	0.007
-412.384	800.000	0.084	0.285
-411.369	301.722	0.106	0.197
-410.355	-70.446	-0.173	-0.066
-409.340	292.052	-0.162	0.296
-408.325	-61.126	0.076	0.032
-407.311	-144.543	0.159	0.015
-406.296	196.053	-0.273	-0.418
-405.282	-200.000	0.025	0.368
-404.267	-200.000	0.016	-0.141
-403.252	800.000	-0.189	-0.585
-402.238	-200.000	-0.080	-0.354
-401.223	-200.000	0.006	-0.137
-400.209	-137.489	0.156	0.018
-399.194	-91.379	-0.277	0.080
-398.179	-200.000	0.006	0.147
-397.165	730.130	0.115	-0.308
-396.150	-137.118	0.422	-0.048
-395.136	-172.966	-0.156	0.005
-394.121	800.000	-0.042	0.153
-393.106	14.061	-0.248	0.194
-392.092	-108.667	-0.259	-0.056
-391.077	-17.690	-0.188	-0.118
-390.063	16.150	-0.414	-0.328
-389.048	217.219	0.164	0.262
-388.033	-128.060	-0.236	0.034
-387.019	-139.676	0.597	-0.064
-386.004	249.431	-0.088	-0.149
-384.990	-97.739	0.318	-0.083
-383.975	-125.233	0.072	-0.011
-382.960	552.263	-0.086	-0.206
-381.946	428.570	0.072	-0.157
-380.931	19.400	-0.457	0.369
-379.917	-120.124	0.151	0.026
-378.902	-200.000	0.023	0.341
-377.888	91.990	-0.092	0.104
-376.873	26.507	0.248	-0.209
-375.858	-140.374	0.397	0.042
-374.844	-100.835	-0.352	-0.087
-373.829	283.732	-0.103	-0.186
-372.815	800.000	0.140	0.459
-371.800	-44.980	0.135	-0.067
-370.785	-30.144	-0.213	0.121
-369.771	-200.000	-0.016	0.110
-368.756	-97.903	0.376	0.097
-367.742	255.582	-0.174	0.300
-366.727	-139.012	0.042	0.005
-365.712	89.272	0.137	0.153
-364.698	3.218	0.155	-0.113
-363.683	795.997	0.113	-0.314
-362.669	-20.751	-0.299	-0.184
-361.654	800.000	-0.089	-0.303
-360.639	-66.314	0.067	-0.027
-359.625	161.313	0.139	0.195
-358.610	-98.362	-0.046	0.012
-357.596	800.000	0.023	0.082
-356.581	-200.000	0.008	0.046
-355.566	212.649	-0.018	-0.029
-354.552	-183.848	-0.189	0.003
-353.537	-5.403	-0.144	0.099
-352.523	437.651	0.085	0.186
-351.508	541.405	0.052	0.125
-350.493	-163.386	0.215	-0.010
-349.479	80.753	0.219	-0.237
-348.464	-77.841	-0.148	-0.051
-347.450	-70.666	-0.170	0.065
-346.435	-154.084	0.546	0.037
-345.420	-200.000	-0.010	-0.048
-344.406	670.227	-0.113	-0.293
-343.391	-11.338	0.153	-0.101
-342.377	-88.351	0.097	-0.029
-341.362	459.804	-0.073	-0.162
-340.348	800.000	0.053	-0.223
-339.333	653.214	-0.060	0.155
-338.318	168.745	-0.109	-0.155
-337.304	9.044	0.047	-0.036
-336.289	-18.662	0.168	-0.105
-335.275	318.599	0.141	0.268
-334.260	140.108	0.093	0.123
-333.245	215.404	0.176	-0.280
-332.231	-101.148	-0.269	-0.066
-331.216	-200.000	-0.005	0.071
-330.202	800.000	0.046	0.178
-329.187	-162.122	-0.286	0.014
-328.172	800.000	-0.055	0.154
-327.158	392.348	-0.146	-0.305
-326.143	800.000	-0.077	-0.216
-325.129	-200.000	-0.016	-0.430
-324.114	-95.696	0.262	-0.070
-323.099	-70.034	0.132	0.051
-322.085	-73.065	0.161	0.059
-321.070	800.000	0.066	-0.205
-320.056	628.160	0.048	-0.122
-319.041	101.959	0.072	-0.084
-318.026	-200.000	-0.022	-0.117
-317.012	228.732	0.128	0.209
-315.997	105.415	0.045	-0.053
-314.983	-37.943	-0.289	0.154
-313.968	629.933	-0.066	0.167
-312.953	-17.388	-0.158	-0.100
-311.939	344.649	-0.041	0.081
-310.924	-200.000	0.027	-0.146
-309.910	135.799	0.133	0.174
-308.895	780.226	0.029	-0.080
-307.880	-42.092	0.158	0.081
-306.866	304.379	0.103	0.192
-305.851	-200.000	0.022	0.236
-304.837	-25.342	0.320	0.190
-303.822	173.719	0.136	0.197
-302.807	748.777	-0.120	-0.324
-301.793	1.054	-0.121	0.087
-300.778	-31.945	0.113	0.063
-299.764	-200.000	0.031	0.261
-298.749	310.396	0.153	0.288
-297.735	-66.096	0.100	0.040
-296.720	-103.927	0.173	0.040
-295.705	33.641	-0.345	0.300
-294.691	778.520	-0.096	0.263
-293.676	800.000	0.065	0.203
-292.662	652.682	0.038	0.098
-291.647	800.000	-0.045	-0.140
-290.632	418.409	0.039	-0.084
-289.618	693.173	-0.032	0.084
-288.603	233.185	0.019	-0.032
-287.589	52.195	-0.104	-0.100
-286.574	-129.078	-0.202	0.028
-285.559	-16.407	0.106	0.067
-284.545	-200.000	0.021	-0.159
-283.530	77.473	-0.046	0.049
-282.516	300.051	-0.147	-0.272
-281.501	-155.436	-0.102	0.007
-280.486	-156.480	0.519	-0.032
-279.472	-101.168	-0.237	0.058
-278.457	-102.782	0.245	0.058
-277.443	-200.000	0.020	-0.158
-276.428	-200.000	0.038	0.395
-275.413	45.025	0.249	-0.229
-274.399	-185.113	-0.210	-0.003
-273.384	800.000	0.085	0.337
-272.370	-130.098	-0.024	-0.003
-271.355	-122.104	0.052	-0.009
-270.340	-200.000	-0.035	-0.383
-269.326	800.000	0.055	-0.194
-268.311	-100.255	0.114	-0.028
-267.297	260.288	-0.111	-0.192
-266.282	168.232	0.138	-0.196
-265.267	-103.761	0.115	-0.027
-264.253	-200.000	-0.019	-0.119
-263.238	-114.575	-0.379	-0.073
-262.224	359.460	-0.072	0.144
-261.209	-159.071	-0.219	-0.012
-260.195	489.122	0.085	0.195
-259.180	-89.868	-0.266	0.078
-258.165	35.950	0.098	0.086
-257.151	800.000	-0.156	0.456
-256.136	-87.801	-0.223	-0.067
-255.122	-94.260	0.103	0.028
-254.107	257.230	-0.218	-0.374
-253.092	407.156	0.101	-0.213
-252.078	-70.955	0.178	-0.067
-251.063	-52.072	-0.149	-0.069
-250.049	-83.762	-0.049	0.016
-249.034	-81.822	-0.113	0.037
-248.019	30.687	-0.127	0.109
-247.005	151.314	0.096	-0.131
-245.990	-159.539	0.403	0.022
-244.976	800.000	-0.018	0.074
-243.961	-145.876	0.127	0.011
-242.946	-49.951	-0.209	0.099
-241.932	124.179	0.171	0.215
-240.917	12.943	-0.314	-0.243
-239.903	-3.513	0.101	-0.070
-238.888	22.044	0.204	0.166
-237.873	50.415	-0.222	0.210
-236.859	-83.888	0.102	-0.033
-235.844	-138.800	0.190	0.021
-234.830	-57.164	-0.152	0.067
-233.815	291.628	0.217	0.395
-232.800	-38.286	0.186	-0.098
-231.786	2.632	0.205	0.148
-230.771	-40.247	-0.210	-0.109
-229.757	-48.802	0.396	-0.190
-228.742	273.721	0.139	-0.245
-227.727	137.065	-0.139	-0.181
-226.713	-57.385	-0.393	0.172
-225.698	-102.008	-0.206	0.050
-224.684	221.064	-0.160	0.257
-223.669	-120.931	-0.138	0.023
-222.655	800.000	0.132	-0.441
-221.640	-200.000	-0.048	0.223
-220.625	-113.068	-0.380	-0.075
-219.611	-200.000	-0.016	-0.168
-218.596	30.062	0.256	0.218
-217.582	62.404	0.145	-0.145
-216.567	-200.000	-0.002	-0.293
-215.552	-36.148	0.086	-0.046
-214.538	-53.335	0.170	0.078
-213.523	-121.348	0.137	-0.023
-212.509	-114.411	0.228	-0.044
-211.494	-4.682	0.157	-0.108
-210.479	50.343	-0.157	-0.148
-209.465	-130.465	0.266	-0.036
-208.450	-200.000	-0.002	-0.037
-207.436	800.000	-0.023	0.087
-206.421	72.019	0.150	-0.156
-205.406	-85.179	-0.245	0.076
-204.392	-80.384	-0.200	-0.067
-203.377	177.940	-0.152	-0.221
-202.363	129.023	0.211	0.269
-201.348	-200.000	-0.072	-0.314
-200.333	-117.236	-0.082	-0.015
-199.319	-113.022	-0.045	-0.009
-198.304	234.981	-0.119	-0.196
-197.290	-200.000	0.008	0.089
-196.275	-86.244	0.106	0.032
-195.260	-200.000	0.042	-0.275
-194.246	-200.000	0.017	-0.111
-193.231	186.421	0.136	0.202
-192.217	34.018	0.112	0.097
-191.202	130.505	0.095	-0.121
-190.187	115.650	0.133	0.162
-189.173	-200.000	0.032	0.274
-188.158	171.220	-0.100	-0.143
-187.144	-162.606	-0.263	-0.013
-186.129	-12.784	0.402	0.261
-185.114	-38.933	-0.140	-0.073
-184.100	-200.000	0.040	0.199
-183.085	346.065	0.143	0.280
-182.071	-184.649	0.345	-0.006
-181.056	26.281	-0.115	-0.096
-180.042	800.000	-0.035	0.148
-179.027	45.085	0.140	0.129
-178.012	485.305	-0.102	0.231
-176.998	2.311	0.146	0.105
-175.983	-145.408	0.292	0.026
-174.969	-200.000	0.045	-0.363
-173.954	-62.763	-0.187	0.077
-172.939	32.464	0.376	0.324
-171.925	-200.000	0.031	-0.285
-170.910	44.097	0.022	-0.020
-169.896	-82.664	-0.058	0.019
-168.881	0.550	0.069	0.049
-167.866	121.160	-0.319	0.395
-166.852	-31.369	0.117	-0.066
-165.837	731.350	-0.016	0.042
-164.823	361.404	0.065	0.129
-163.808	4.440	0.300	-0.219
-162.793	-200.000	-0.015	0.431
-161.779	-200.000	0.002	-0.474
-160.764	12.742	-0.183	0.141
-159.750	-46.008	0.235	0.116
-158.735	174.870	-0.052	0.075
-157.720	-200.000	0.004	0.034
-156.706	10.174	-0.090	-0.068
-155.691	-92.325	0.222	0.062
-154.677	800.000	0.062	-0.192
-153.662	48.621	-0.199	-0.185
-152.647	-144.960	0.204	-0.019
-151.633	-200.000	0.050	0.355
-150.618	739.110	-0.076	-0.204
-149.604	800.000	-0.015	0.047
-148.589	24.261	-0.019	0.016
-147.574	-69.986	0.110	0.042
-146.560	800.000	0.066	0.249
-145.545	-119.507	0.184	0.032
-144.531	800.000	0.055	0.162
-143.516	-200.000	-0.013	0.349
-142.502	-68.081	-0.333	-0.129
-141.487	122.370	0.235	0.293
-140.472	-200.000	-0.030	-0.165
-139.458	31.257	-0.195	-0.166
-138.443	-48.920	-0.063	-0.030
-137.429	43.517	0.260	0.237
-136.414	-29.811	0.322	-0.183
-135.399	-108.540	-0.344	0.074
-134.385	800.000	0.139	-0.423
-133.370	-63.681	0.016	0.006
-132.356	-200.000	-0.028	-0.185
-131.341	657.088	-0.106	0.271
-130.326	106.577	0.252	0.297
-129.312	-108.409	0.110	0.024
-128.297	-107.264	0.115	-0.025
-127.283	-145.133	-0.157	0.014
-126.268	60.023	0.148	-0.145
-125.253	121.683	-0.165	-0.205
-124.239	-43.485	0.276	0.139
-123.224	-44.248	0.360	0.179
-122.210	800.000	0.094	-0.294
-121.195	99.738	-0.009	-0.010
