DTS Sentinel unit serial number:	SN413079Multiplexer serial number:	ORYXHardware model number:	OX4-SRSoftware version number:	ORYX F/W v4.00 Oryx Data Collector v3.7.2.0data status	okinstallation	princeton_trtdifferential loss correction	single-endedforward channel	channel 4reverse channel	N/Adate	2019/09/16time	00:21:35forward acquisition time	60.00reverse acquisition time	0.00gamma	496.2192k internal	0.2322k external	0.2322temperature offset calibration	0.9966default loss term (dB/km)	0.3790temperature slope calibration	1.0000multiplexer offset coefficient	1.0000multiplexer slope coefficient	1.0000fibre end	0.00T internal ref (°C)	27.62T ext. ref 1 (°C)	9.51T ext. ref 2 (°C)	21.59length (m)	temperature (°C)	Stokes	anti-Stokes-747.200	800.000	-0.086	-0.352
-746.185	-101.912	-0.151	-0.037
-745.171	756.799	-0.028	0.077
-744.156	230.861	0.155	0.256
-743.142	3.800	-0.182	0.134
-742.127	-200.000	-0.047	0.312
-741.112	-41.672	-0.115	-0.060
-740.098	24.218	-0.219	-0.183
-739.083	123.801	0.167	-0.212
-738.069	561.454	-0.078	0.191
-737.054	170.079	0.200	0.289
-736.039	149.180	-0.269	-0.368
-735.025	-200.000	0.017	0.079
-734.010	126.178	-0.270	0.345
-732.996	-11.707	-0.105	-0.070
-731.981	-200.000	0.048	0.253
-730.966	1.346	0.145	0.106
-729.952	-200.000	-0.014	0.095
-728.937	39.133	0.198	-0.179
-727.923	-200.000	0.053	-0.323
-726.908	94.737	-0.197	0.226
-725.894	440.359	0.070	-0.154
-724.879	-181.247	-0.451	-0.009
-723.864	8.843	0.097	0.074
-722.850	-200.000	0.006	0.032
-721.835	10.015	0.211	-0.162
-720.821	-128.345	0.118	-0.017
-719.806	-65.739	-0.248	0.100
-718.791	-200.000	0.050	0.253
-717.777	331.804	-0.116	-0.227
-716.762	7.035	0.303	-0.228
-715.748	800.000	0.078	-0.327
-714.733	583.973	-0.160	-0.396
-713.718	159.287	-0.204	-0.286
-712.704	399.703	0.132	0.280
-711.689	-62.469	-0.515	-0.216
-710.675	-200.000	-0.004	0.080
-709.660	86.940	0.137	-0.153
-708.645	333.052	-0.132	0.258
-707.631	583.656	-0.212	0.525
-706.616	-200.000	-0.057	0.258
-705.602	303.748	-0.027	0.050
-704.587	0.742	-0.214	-0.154
-703.572	270.043	-0.172	-0.305
-702.558	-153.517	0.436	0.030
-701.543	41.337	-0.181	-0.165
-700.529	72.574	-0.209	-0.220
-699.514	-28.445	0.258	0.150
-698.499	-200.000	-0.019	-0.165
-697.485	-17.370	0.104	0.066
-696.470	-200.000	0.028	-0.212
-695.456	-188.036	0.293	0.004
-694.441	-200.000	-0.015	0.121
-693.426	-200.000	-0.023	0.103
-692.412	-25.713	-0.167	-0.099
-691.397	94.891	0.103	0.118
-690.383	-29.302	0.104	0.060
-689.368	-141.080	-0.071	-0.007
-688.354	505.671	0.082	0.192
-687.339	108.283	0.133	0.160
-686.324	-76.798	0.168	0.059
-685.310	-200.000	-0.013	0.457
-684.295	544.611	-0.163	-0.392
-683.281	-104.709	-0.089	0.021
-682.266	800.000	0.045	-0.193
-681.251	-15.546	0.270	0.174
-680.237	-125.849	0.138	0.021
-679.222	-101.513	0.160	-0.039
-678.208	800.000	-0.029	-0.101
-677.193	-146.597	0.212	-0.019
-676.178	800.000	0.069	0.273
-675.164	117.866	0.101	0.125
-674.149	152.315	-0.085	0.117
-673.135	106.820	0.201	-0.241
-672.120	-50.339	0.107	-0.051
-671.105	-137.452	-0.219	-0.025
-670.091	-200.000	0.013	-0.096
-669.076	-66.690	-0.271	-0.108
-668.062	42.031	-0.058	0.053
-667.047	-200.000	0.001	0.148
-666.032	-142.574	-0.194	-0.019
-665.018	117.809	-0.033	0.041
-664.003	800.000	0.041	-0.161
-662.989	-200.000	-0.007	-0.179
-661.974	754.012	-0.050	-0.136
-660.959	-200.000	0.004	-0.240
-659.945	4.295	-0.181	0.134
-658.930	-172.984	0.240	-0.007
-657.916	10.095	0.113	-0.087
-656.901	380.573	-0.077	0.159
-655.886	166.477	-0.173	-0.247
-654.872	-124.131	0.204	0.032
-653.857	-200.000	0.001	0.314
-652.843	-49.766	0.158	0.076
-651.828	600.263	0.078	-0.195
-650.814	-115.883	-0.356	0.067
-649.799	-200.000	-0.052	-0.357
-648.784	-200.000	-0.013	-0.219
-647.770	35.480	-0.201	0.178
-646.755	-44.523	-0.164	-0.083
-645.741	-129.355	0.482	-0.067
-644.726	644.045	-0.035	-0.089
-643.711	30.848	-0.236	-0.203
-642.697	-200.000	0.002	-0.016
-641.682	46.681	0.247	-0.231
-640.668	321.178	0.160	0.307
-639.653	-197.900	-0.249	0.002
-638.638	75.720	-0.038	0.040
-637.624	800.000	-0.055	0.216
-636.609	800.000	0.030	-0.122
-635.595	102.243	-0.136	-0.159
-634.580	-133.481	0.153	-0.019
-633.565	141.906	-0.021	0.028
-632.551	432.413	0.077	-0.168
-631.536	243.695	-0.110	-0.185
-630.522	703.184	-0.093	-0.248
-629.507	-25.570	0.088	0.052
-628.492	800.000	0.055	0.226
-627.478	190.772	-0.111	-0.168
-626.463	800.000	-0.030	-0.090
-625.449	510.546	0.050	-0.118
-624.434	-49.165	0.168	-0.081
-623.419	-148.952	-0.119	0.010
-622.405	-89.244	-0.425	-0.126
-621.390	256.542	-0.146	-0.253
-620.376	383.184	-0.099	0.205
-619.361	54.808	-0.256	-0.249
-618.346	800.000	0.120	0.436
-617.332	26.039	0.088	0.073
-616.317	239.143	0.109	0.182
-615.303	529.487	-0.114	0.270
-614.288	-200.000	-0.005	-0.274
-613.273	-100.853	-0.159	0.039
-612.259	-200.000	-0.050	0.282
-611.244	390.414	-0.107	0.223
-610.230	176.401	0.072	-0.105
-609.215	34.384	0.059	0.052
-608.201	-40.855	0.190	-0.099
-607.186	-200.000	0.007	0.287
-606.171	472.448	0.110	0.248
-605.157	128.182	-0.142	0.182
-604.142	-37.117	0.283	-0.152
-603.128	-159.256	-0.197	-0.011
-602.113	214.125	0.045	-0.071
-601.098	38.208	-0.124	0.111
-600.084	-62.414	-0.149	-0.062
-599.069	-200.000	-0.041	-0.307
-598.055	-156.388	0.098	-0.006
-597.040	-200.000	0.053	0.245
-596.025	-146.324	0.140	-0.012
-595.011	380.408	-0.131	-0.270
-593.996	508.708	-0.112	-0.262
-592.982	-64.669	0.177	0.072
-591.967	-18.520	-0.181	-0.113
-590.952	22.722	-0.045	0.037
-589.938	123.996	0.277	-0.350
-588.923	-43.794	-0.227	-0.115
-587.909	195.189	-0.218	-0.332
-586.894	33.939	0.065	-0.057
-585.879	57.337	-0.277	-0.271
-584.865	800.000	-0.070	0.214
-583.850	-47.340	0.233	-0.114
-582.836	-200.000	0.013	0.149
-581.821	27.142	-0.235	0.198
-580.806	800.000	-0.047	-0.163
-579.792	-92.588	0.096	0.027
-578.777	-156.946	0.241	-0.015
-577.763	-200.000	-0.008	-0.076
-576.748	31.165	-0.283	-0.244
-575.733	-164.241	-0.214	0.010
-574.719	223.395	-0.063	0.103
-573.704	-200.000	0.016	-0.169
-572.690	800.000	-0.097	-0.268
-571.675	40.505	0.120	0.108
-570.661	-122.370	0.085	0.014
-569.646	-159.609	0.364	-0.020
-568.631	-170.011	-0.207	-0.007
-567.617	54.312	0.225	0.218
-566.602	-200.000	-0.025	0.280
-565.588	-89.010	-0.267	-0.079
-564.573	-139.824	-0.262	0.028
-563.558	150.148	-0.086	-0.117
-562.544	-43.981	0.148	-0.075
-561.529	673.375	-0.091	-0.237
-560.515	-200.000	-0.009	-0.223
-559.500	-200.000	-0.001	-0.097
-558.485	-150.629	-0.300	0.023
-557.471	-200.000	-0.019	0.105
-556.456	251.503	-0.090	0.153
-555.442	-200.000	0.024	0.156
-554.427	800.000	-0.059	0.185
-553.412	71.845	0.288	-0.300
-552.398	92.585	0.195	-0.220
-551.383	-200.000	0.037	-0.235
-550.369	-113.488	-0.318	-0.062
-549.354	-200.000	-0.037	0.270
-548.339	103.234	-0.219	0.258
-547.325	-131.398	0.205	0.027
-546.310	258.275	0.199	-0.343
-545.296	10.400	-0.379	-0.289
-544.281	800.000	0.097	0.322
-543.266	-200.000	0.064	0.329
-542.252	-122.259	0.289	-0.047
-541.237	-34.932	-0.129	0.071
-540.223	13.336	0.257	0.200
-539.208	800.000	0.034	0.128
-538.193	263.644	0.152	-0.264
-537.179	487.888	0.105	0.240
-536.164	800.000	0.101	-0.348
-535.150	315.248	0.092	-0.173
-534.135	128.029	0.182	0.232
-533.121	800.000	0.027	0.103
-532.106	-200.000	0.005	-0.139
-531.091	-15.329	-0.127	-0.081
-530.077	800.000	-0.091	-0.289
-529.062	-145.629	0.338	0.030
-528.048	118.911	0.179	0.222
-527.033	-200.000	0.001	-0.132
-526.018	358.927	0.187	-0.375
-525.004	469.033	0.150	0.337
-523.989	-23.771	-0.110	0.066
-522.975	161.349	0.121	-0.170
-521.960	-74.166	0.192	0.070
-520.945	-200.000	-0.024	-0.349
-519.931	-130.723	-0.267	0.036
-518.916	575.588	0.168	0.410
-517.902	-200.000	0.046	0.274
-516.887	224.856	-0.220	-0.357
-515.872	-200.000	0.026	0.378
-514.858	553.081	0.173	-0.417
-513.843	26.304	0.118	-0.099
-512.829	-200.000	-0.033	0.217
-511.814	180.047	-0.268	0.393
-510.799	470.150	0.022	-0.050
-509.785	-94.479	-0.219	0.060
-508.770	-200.000	0.017	-0.146
-507.756	-200.000	-0.003	-0.349
-506.741	-114.738	0.218	0.042
-505.726	-200.000	0.022	0.111
-504.712	199.208	0.157	-0.240
-503.697	-34.291	-0.198	-0.108
-502.683	-56.454	0.246	-0.109
-501.668	331.999	0.086	-0.166
-500.653	-76.314	0.048	0.017
-499.639	-54.186	0.058	-0.027
-498.624	800.000	-0.041	0.161
-497.610	47.210	0.347	-0.323
-496.595	800.000	-0.061	0.245
-495.581	-69.013	-0.301	0.116
-494.566	800.000	-0.145	-0.550
-493.551	-134.837	0.324	-0.039
-492.537	-108.491	0.101	-0.022
-491.522	-21.614	0.310	0.189
-490.508	-154.326	0.297	0.020
-489.493	56.646	-0.088	-0.085
-488.478	124.611	0.082	0.103
-487.464	468.327	0.200	-0.450
-486.449	-47.030	-0.133	0.065
-485.435	-200.000	0.043	-0.195
-484.420	-143.815	-0.204	-0.019
-483.405	-13.542	-0.180	-0.117
-482.391	-158.754	-0.086	-0.005
-481.376	-183.513	-0.293	0.005
-480.362	-107.740	0.225	0.049
-479.347	100.297	-0.195	0.226
-478.332	-173.287	-0.060	-0.002
-477.318	-200.000	-0.049	0.232
-476.303	-52.785	-0.040	0.018
-475.289	347.234	-0.062	-0.123
-474.274	800.000	-0.010	0.046
-473.259	33.870	0.176	0.153
-472.245	-27.389	-0.117	0.068
-471.230	128.059	0.244	-0.310
-470.216	-200.000	0.039	0.219
-469.201	216.547	-0.109	0.173
-468.186	268.113	0.108	-0.189
-467.172	42.291	0.203	-0.184
-466.157	-30.223	-0.148	0.084
-465.143	44.326	0.125	-0.114
-464.128	-80.593	-0.045	0.015
-463.113	-87.551	-0.097	0.029
-462.099	308.626	-0.058	0.108
-461.084	-33.178	-0.207	0.115
-460.070	-102.721	0.128	-0.030
-459.055	800.000	0.038	0.121
-458.040	-93.104	-0.186	-0.052
-457.026	7.559	0.249	-0.186
-456.011	-90.408	-0.197	0.057
-454.997	-134.159	0.126	0.016
-453.982	800.000	0.025	-0.078
-452.968	125.951	-0.275	-0.348
-451.953	-75.183	0.192	0.069
-450.938	-200.000	0.008	0.076
-449.924	-63.475	-0.011	-0.004
-448.909	0.739	0.366	-0.262
-447.895	110.152	-0.165	-0.197
-446.880	260.805	-0.008	0.013
-445.865	-42.455	-0.115	-0.059
-444.851	-88.463	-0.066	-0.020
-443.836	-200.000	-0.003	-0.171
-442.822	101.247	-0.200	0.232
-441.807	800.000	-0.061	-0.263
-440.792	477.337	0.032	0.073
-439.778	705.468	-0.093	-0.245
-438.763	481.028	0.088	0.199
-437.749	-133.526	-0.180	-0.023
-436.734	-179.091	0.405	0.009
-435.719	-173.583	-0.379	0.011
-434.705	800.000	-0.028	0.094
-433.690	-200.000	0.030	-0.182
-432.676	-200.000	-0.011	0.156
-431.661	-200.000	-0.060	-0.328
-430.646	6.658	0.240	0.178
-429.632	800.000	0.046	-0.167
-428.617	120.545	0.180	-0.223
-427.603	-200.000	0.044	-0.224
-426.588	0.585	0.406	-0.290
-425.573	800.000	0.094	0.295
-424.559	-159.991	0.332	0.018
-423.544	145.460	-0.153	-0.205
-422.530	0.961	-0.229	-0.164
-421.515	-163.173	0.134	-0.006
-420.500	800.000	0.136	0.456
-419.486	-138.462	-0.091	-0.010
-418.471	-91.564	-0.236	0.067
-417.457	-21.151	0.289	-0.176
-416.442	-74.899	-0.235	0.084
-415.428	-26.833	0.337	0.196
-414.413	-200.000	0.041	-0.190
-413.398	-200.000	-0.012	-0.091
-412.384	-3.574	0.277	0.192
-411.369	-59.498	-0.269	0.115
-410.355	-200.000	-0.032	-0.294
-409.340	800.000	-0.089	-0.334
-408.325	800.000	-0.022	0.077
-407.311	-47.448	-0.203	-0.098
-406.296	-82.928	-0.300	-0.097
-405.282	90.957	-0.184	0.205
-404.267	-200.000	0.003	0.133
-403.252	800.000	-0.006	0.021
-402.238	-84.965	-0.234	-0.073
-401.223	-132.139	-0.382	0.049
-400.209	-200.000	0.011	-0.324
-399.194	-54.378	0.171	-0.077
-398.179	64.894	0.066	0.067
-397.165	-200.000	0.008	-0.204
-396.150	-52.878	-0.209	-0.096
-395.136	332.937	0.104	0.200
-394.121	-116.361	0.380	0.070
-393.106	161.518	0.089	-0.124
-392.092	-187.316	-0.141	-0.002
-391.077	24.933	0.347	0.287
-390.063	186.813	0.061	0.090
-389.048	-21.523	0.017	-0.010
-388.033	2.807	-0.465	-0.336
-387.019	187.797	0.117	-0.174
-386.004	65.445	-0.189	-0.190
-384.990	-67.954	-0.263	0.102
-383.975	573.602	0.018	0.045
-382.960	-73.420	-0.433	-0.158
-381.946	-163.266	0.187	0.009
-380.931	-20.921	0.190	-0.116
-379.917	167.170	0.163	-0.231
-378.902	-66.118	-0.454	-0.180
-377.888	800.000	-0.037	0.107
-376.873	146.418	-0.078	0.105
-375.858	-178.977	0.140	0.003
-374.844	341.133	0.093	0.180
-373.829	-200.000	0.050	-0.313
-372.815	114.307	0.030	0.037
-371.800	-200.000	-0.047	0.295
-370.785	-105.553	-0.019	-0.004
-369.771	-8.105	0.151	0.102
-368.756	54.018	0.165	0.158
-367.742	-31.766	0.083	-0.046
-366.727	465.310	0.128	-0.285
-365.712	-43.218	0.093	0.047
-364.698	-119.675	-0.095	0.016
-363.683	-184.427	0.081	-0.001
-362.669	-7.644	-0.154	-0.103
-361.654	38.848	0.101	-0.090
-360.639	296.382	0.126	-0.231
-359.625	-186.060	0.174	0.003
-358.610	559.903	-0.126	-0.303
-357.596	117.888	-0.121	-0.148
-356.581	3.332	0.198	0.144
-355.566	-85.059	0.102	-0.032
-354.552	800.000	0.032	0.111
-353.537	715.536	-0.025	-0.067
-352.523	-66.587	-0.053	0.021
-351.508	43.557	-0.050	-0.046
-350.493	59.098	-0.050	-0.049
-349.479	121.633	-0.211	0.261
-348.464	-100.971	-0.317	0.077
-347.450	137.721	-0.085	0.111
-346.435	19.947	0.249	0.199
-345.420	-200.000	0.051	0.321
-344.406	-139.154	-0.127	0.014
-343.391	-14.039	-0.030	0.019
-342.377	257.586	0.050	-0.086
-341.362	149.986	0.268	0.361
-340.348	800.000	-0.113	0.363
-339.333	-200.000	0.030	0.267
-338.318	307.702	0.068	0.127
-337.304	-143.899	-0.163	-0.015
-336.289	8.512	-0.343	-0.256
-335.275	-24.802	0.214	0.126
-334.260	-79.769	-0.342	-0.115
-333.245	38.980	0.159	-0.141
-332.231	333.637	0.089	-0.172
-331.216	-200.000	0.035	0.285
-330.202	438.972	0.079	0.172
-329.187	-200.000	0.018	-0.184
-328.172	469.562	-0.100	0.223
-327.158	655.622	-0.051	-0.129
-326.143	-26.539	-0.199	-0.116
-325.129	-12.085	0.178	0.116
-324.114	-107.022	0.120	-0.026
-323.099	800.000	-0.049	-0.140
-322.085	345.167	0.069	-0.135
-321.070	-14.131	-0.453	0.291
-320.056	280.903	0.066	0.117
-319.041	154.111	-0.119	0.162
-318.026	800.000	-0.024	0.098
-317.012	-200.000	-0.015	0.216
-315.997	-9.836	0.325	0.215
-314.983	386.040	-0.023	0.048
-313.968	192.858	0.092	0.139
-312.953	-200.000	-0.015	0.285
-311.939	-200.000	0.015	0.268
-310.924	-88.848	-0.158	0.046
-309.910	-180.682	0.311	0.006
-308.895	237.095	-0.188	0.309
-307.880	-200.000	0.019	0.304
-306.866	-200.000	0.035	0.254
-305.851	155.406	0.224	0.306
-304.837	145.001	0.176	-0.234
-303.822	214.138	-0.065	0.102
-302.807	-158.800	0.126	0.007
-301.793	-200.000	-0.005	0.158
-300.778	-26.051	-0.340	0.198
-299.764	-187.219	-0.333	-0.004
-298.749	22.530	0.345	0.280
-297.735	376.399	0.200	-0.406
-296.720	163.493	0.045	0.063
-295.705	-200.000	-0.041	-0.184
-294.691	2.160	-0.300	-0.215
-293.676	800.000	0.086	0.268
-292.662	-77.001	-0.176	0.061
-291.647	-200.000	0.017	-0.171
-290.632	-105.769	0.266	0.060
-289.618	562.432	0.063	0.151
-288.603	-115.353	0.200	0.038
-287.589	252.178	0.174	0.294
-286.574	213.105	-0.041	0.065
-285.559	209.430	-0.157	0.243
-284.545	19.306	0.202	0.161
-283.530	329.274	-0.180	0.344
-282.516	74.069	-0.128	0.133
-281.501	-44.555	-0.088	-0.044
-280.486	-40.503	-0.277	-0.142
-279.472	-106.915	0.226	0.050
-278.457	632.796	-0.032	-0.080
-277.443	-8.705	-0.177	0.118
-276.428	600.288	-0.050	-0.123
-275.413	187.534	0.183	0.271
-274.399	5.706	-0.233	0.170
-273.384	800.000	0.020	0.079
-272.370	230.544	0.184	-0.298
-271.355	377.334	0.126	-0.255
-270.340	-76.317	0.094	-0.033
-269.326	-65.124	0.201	-0.081
-268.311	-99.400	-0.427	0.107
-267.297	-5.424	-0.070	0.048
-266.282	9.948	-0.129	0.097
-265.267	277.198	-0.184	-0.324
-264.253	-160.064	0.208	-0.011
-263.238	-183.571	-0.240	0.004
-262.224	-129.119	-0.411	0.057
-261.209	-200.000	0.020	-0.299
-260.195	-150.614	0.217	-0.016
-259.180	-200.000	0.019	0.220
-258.165	-200.000	0.126	0.559
-257.151	-144.607	-0.276	-0.025
-256.136	709.314	-0.045	-0.119
-255.122	281.043	0.036	0.064
-254.107	-43.723	0.124	0.062
-253.092	-200.000	0.022	0.148
-252.078	-156.791	0.020	0.001
-251.063	-65.844	-0.022	0.009
-250.049	800.000	0.125	-0.414
-249.034	-132.637	0.221	-0.028
-248.019	-118.658	0.349	-0.061
-247.005	800.000	-0.041	0.163
-245.990	-74.012	0.344	-0.123
-244.976	-200.000	0.002	0.161
-243.961	-35.761	0.250	0.134
-242.946	-54.138	-0.098	-0.044
-241.932	-78.952	-0.287	-0.097
-240.917	-1.104	-0.161	-0.113
-239.903	-97.074	-0.287	-0.074
-238.888	-200.000	0.022	0.250
-237.873	72.369	-0.178	0.184
-236.859	128.897	0.154	-0.194
-235.844	-3.981	0.170	-0.116
-234.830	-3.331	0.066	0.046
-233.815	104.354	-0.104	-0.121
-232.800	0.641	-0.157	-0.111
-231.786	-128.537	0.020	-0.003
-230.771	531.970	0.135	0.315
-229.757	800.000	0.135	0.423
-228.742	-98.884	-0.289	0.073
-227.727	-145.902	0.131	-0.012
-226.713	21.100	0.188	-0.151
-225.698	-132.364	0.224	0.029
-224.684	234.769	-0.033	0.054
-223.669	-46.988	0.036	0.018
-222.655	-103.644	0.081	-0.019
-221.640	489.584	-0.103	-0.232
-220.625	800.000	-0.043	0.169
-219.611	82.439	0.155	-0.166
-218.596	-65.222	0.238	-0.095
-217.582	-64.899	-0.244	0.098
-216.567	-100.656	0.192	-0.047
-215.552	-59.061	-0.133	0.057
-214.538	-38.214	-0.367	-0.192
-213.523	289.488	-0.119	-0.213
-212.509	12.588	-0.209	0.160
-211.494	23.558	-0.128	-0.104
-210.479	-200.000	0.055	0.302
-209.465	-116.909	0.116	0.021
-208.450	91.359	0.016	0.018
-207.436	579.472	0.165	0.399
-206.421	-200.000	0.021	0.097
-205.406	143.240	-0.222	-0.292
-204.392	-140.711	-0.151	-0.015
-203.377	155.530	0.093	0.127
-202.363	800.000	-0.025	0.092
-201.348	25.952	-0.109	0.090
-200.333	45.824	0.145	0.133
-199.319	800.000	0.075	0.271
-198.304	-200.000	0.011	0.132
-197.290	800.000	0.015	-0.064
-196.275	289.709	-0.196	-0.351
-195.260	-120.430	-0.026	-0.004
-194.246	721.850	0.134	0.353
-193.231	800.000	0.047	-0.159
-192.217	166.166	0.133	0.186
-191.202	-141.182	-0.194	-0.020
-190.187	76.856	-0.199	0.209
-189.173	27.064	0.383	-0.317
-188.158	70.000	0.113	0.115
-187.144	-61.269	-0.149	-0.062
-186.129	-74.914	-0.241	0.085
-185.114	77.782	-0.003	-0.004
-184.100	85.568	-0.121	0.132
-183.085	32.484	-0.011	0.009
-182.071	176.028	0.165	0.237
-181.056	800.000	0.062	-0.236
-180.042	-11.284	-0.357	0.232
-179.027	-113.463	-0.103	-0.020
-178.012	47.105	0.252	-0.232
-176.998	317.293	-0.095	0.177
-175.983	-187.062	0.138	0.002
-174.969	-200.000	-0.045	-0.200
-173.954	217.434	-0.016	0.025
-172.939	800.000	-0.088	-0.379
-171.925	-200.000	0.010	-0.200
-170.910	197.935	0.048	0.072
-169.896	-12.688	0.192	0.124
-168.881	40.785	0.081	-0.072
-167.866	356.101	0.088	-0.173
-166.852	-86.809	-0.105	-0.032
-165.837	2.934	-0.242	0.173
-164.823	-200.000	-0.015	0.185
-163.808	-70.317	-0.147	0.055
-162.793	800.000	-0.125	0.360
-161.779	-200.000	0.040	-0.325
-160.764	800.000	0.088	-0.244
-159.750	182.964	0.157	0.230
-158.735	123.727	0.117	-0.145
-157.720	-131.382	-0.138	0.018
-156.706	19.682	0.113	0.090
-155.691	800.000	0.082	-0.247
-154.677	-200.000	-0.008	-0.151
-153.662	75.249	0.116	0.121
-152.647	-56.237	0.334	0.147
-151.633	67.719	0.105	0.106
-150.618	299.441	-0.100	-0.183
-149.604	52.144	0.230	-0.217
-148.589	562.131	-0.130	0.311
-147.574	38.516	-0.169	0.149
-146.560	-30.908	-0.157	-0.088
-145.545	-47.872	-0.370	-0.177
-144.531	437.447	-0.111	-0.238
-143.516	-41.717	-0.002	-0.001
-142.502	-29.626	-0.381	0.215
-141.487	-89.733	-0.172	-0.050
-140.472	237.218	0.450	-0.736
-139.458	-106.653	-0.242	0.053
-138.443	37.816	0.107	0.094
-137.429	314.541	-0.025	-0.046
-136.414	92.563	0.060	0.067
-135.399	-97.233	-0.050	0.013
-134.385	-17.571	0.145	-0.090
-133.370	48.376	-0.082	-0.075
-132.356	6.714	0.261	-0.191
-131.341	-73.683	-0.105	-0.038
-130.326	-25.319	-0.108	0.063
-129.312	-70.472	0.258	-0.096
-128.297	-27.938	-0.095	0.054
-127.283	414.579	0.135	0.282
-126.268	-78.046	-0.189	-0.064
-125.253	-51.599	0.295	0.136
-124.239	391.606	-0.089	-0.181
-123.224	-18.241	0.206	0.127
-122.210	-124.125	-0.318	0.049
-121.195	-115.742	0.205	0.038
