DTS Sentinel unit serial number:	SN413079Multiplexer serial number:	ORYXHardware model number:	OX4-SRSoftware version number:	ORYX F/W v4.00 Oryx Data Collector v3.7.2.0data status	okinstallation	princeton_trtdifferential loss correction	single-endedforward channel	channel 4reverse channel	N/Adate	2019/09/19time	14:45:35forward acquisition time	60.00reverse acquisition time	0.00gamma	496.2192k internal	0.2305k external	0.2305temperature offset calibration	1.0022default loss term (dB/km)	0.3790temperature slope calibration	1.0000multiplexer offset coefficient	1.0000multiplexer slope coefficient	1.0000fibre end	0.00T internal ref (°C)	32.69T ext. ref 1 (°C)	1.10T ext. ref 2 (°C)	29.62length (m)	temperature (°C)	Stokes	anti-Stokes-747.200	311.283	-0.060	0.115
-746.185	7.820	-0.224	0.171
-745.171	800.000	-0.068	-0.227
-744.156	-200.000	-0.029	0.314
-743.142	-200.000	-0.021	0.162
-742.127	800.000	-0.082	0.307
-741.112	683.246	0.093	0.247
-740.098	679.326	-0.200	0.531
-739.083	-200.000	-0.009	0.162
-738.069	-200.000	0.030	0.299
-737.054	-53.098	-0.147	-0.069
-736.039	53.443	-0.221	-0.216
-735.025	102.437	0.163	0.194
-734.010	800.000	-0.076	-0.221
-732.996	800.000	-0.072	-0.279
-731.981	-60.960	-0.272	0.117
-730.966	-157.090	0.052	-0.003
-729.952	-101.569	-0.471	-0.116
-728.937	-80.991	0.153	-0.052
-727.923	800.000	0.065	-0.287
-726.908	800.000	-0.124	-0.425
-725.894	-4.711	-0.121	-0.085
-724.879	-130.470	0.315	-0.043
-723.864	91.377	0.131	-0.149
-722.850	-34.833	-0.408	-0.227
-721.835	445.545	-0.095	-0.213
-720.821	33.183	-0.111	0.098
-719.806	-155.419	0.258	0.017
-718.791	92.119	-0.230	0.263
-717.777	-200.000	0.011	0.132
-716.762	-124.918	-0.097	-0.015
-715.748	109.713	-0.038	-0.046
-714.733	-14.710	-0.302	0.197
-713.718	21.965	-0.113	-0.094
-712.704	-170.188	0.290	0.010
-711.689	-90.897	-0.222	0.065
-710.675	287.931	0.148	-0.272
-709.660	-56.597	-0.346	-0.156
-708.645	-100.420	-0.212	-0.053
-707.631	-98.719	0.132	0.034
-706.616	451.782	0.077	-0.174
-705.602	-36.121	0.306	0.168
-704.587	-200.000	0.025	-0.216
-703.572	336.064	-0.139	0.274
-702.558	40.232	-0.132	-0.121
-701.543	-46.658	0.459	-0.228
-700.529	800.000	-0.107	-0.434
-699.514	63.206	0.100	-0.102
-698.499	-81.724	-0.186	-0.062
-697.485	-21.391	0.266	0.165
-696.470	-76.454	-0.182	0.065
-695.456	16.621	-0.026	0.021
-694.441	113.223	-0.088	-0.108
-693.426	86.085	-0.098	-0.109
-692.412	-33.839	-0.397	-0.222
-691.397	591.814	0.148	-0.371
-690.383	-99.474	0.334	0.085
-689.368	3.226	-0.259	-0.191
-688.354	109.984	-0.232	0.283
-687.339	16.144	-0.116	-0.092
-686.324	402.874	-0.044	-0.094
-685.310	67.224	0.137	0.142
-684.295	198.332	-0.056	-0.088
-683.281	113.385	-0.143	0.176
-682.266	-200.000	0.015	0.252
-681.251	-75.193	0.218	0.079
-680.237	800.000	0.103	-0.338
-679.222	65.358	0.062	-0.064
-678.208	50.937	-0.047	0.045
-677.193	83.664	0.169	0.187
-676.178	-200.000	-0.030	-0.197
-675.164	-200.000	-0.004	0.054
-674.149	134.643	-0.155	-0.204
-673.135	-198.174	-0.158	0.001
-672.120	153.091	-0.071	-0.098
-671.105	0.133	0.225	0.163
-670.091	-129.467	0.283	-0.040
-669.076	34.724	0.342	-0.304
-668.062	-40.850	0.069	-0.036
-667.047	39.655	-0.226	-0.206
-666.032	800.000	-0.053	-0.190
-665.018	-200.000	-0.012	-0.087
-664.003	-99.446	0.085	0.022
-662.989	61.986	-0.229	0.231
-661.974	157.475	0.168	0.237
-660.959	-200.000	-0.001	0.065
-659.945	-19.283	0.244	0.153
-658.930	-124.350	-0.339	0.054
-657.916	-200.000	-0.057	0.408
-656.901	70.598	-0.146	0.153
-655.886	-14.126	-0.087	-0.057
-654.872	-110.313	0.084	0.018
-653.857	334.761	0.101	-0.197
-652.843	113.769	0.098	-0.121
-651.828	415.807	-0.121	-0.261
-650.814	-150.018	-0.345	0.027
-649.799	-79.696	-0.279	-0.095
-648.784	378.736	0.022	-0.045
-647.770	-31.403	-0.149	-0.085
-646.755	-200.000	0.024	-0.113
-645.741	218.757	-0.125	0.203
-644.726	-200.000	-0.027	0.305
-643.711	488.803	0.065	-0.150
-642.697	587.951	-0.116	-0.288
-641.682	-175.427	0.014	-0.000
-640.668	752.273	-0.122	0.335
-639.653	-76.942	-0.147	-0.052
-638.638	-167.388	-0.061	-0.002
-637.624	66.764	-0.150	0.155
-636.609	-28.795	0.390	0.227
-635.595	-93.459	-0.298	-0.084
-634.580	-200.000	0.037	-0.179
-633.565	800.000	-0.083	-0.357
-632.551	-200.000	-0.042	-0.313
-631.536	-183.516	0.368	0.006
-630.522	224.139	-0.245	-0.401
-629.507	-200.000	0.011	-0.118
-628.492	800.000	0.050	0.185
-627.478	-200.000	0.025	0.274
-626.463	800.000	0.014	-0.054
-625.449	-29.728	0.387	0.224
-624.434	257.206	-0.081	-0.142
-623.419	-200.000	-0.018	0.241
-622.405	-200.000	-0.009	-0.148
-621.390	-200.000	-0.028	-0.244
-620.376	-52.322	0.178	0.083
-619.361	-138.494	-0.230	-0.026
-618.346	-31.798	-0.061	-0.035
-617.332	296.362	-0.083	-0.154
-616.317	-109.400	0.112	-0.024
-615.303	800.000	0.043	-0.132
-614.288	144.721	-0.062	0.084
-613.273	429.585	-0.062	-0.135
-612.259	166.924	-0.281	-0.403
-611.244	-98.483	0.124	-0.032
-610.230	-200.000	-0.021	-0.287
-609.215	400.920	-0.084	0.179
-608.201	262.088	0.147	0.258
-607.186	-148.196	0.047	0.004
-606.171	30.782	0.194	-0.168
-605.157	-200.000	-0.001	0.251
-604.142	-154.798	0.205	-0.014
-603.128	36.627	0.090	-0.080
-602.113	800.000	0.022	-0.095
-601.098	121.540	-0.097	-0.123
-600.084	800.000	-0.026	-0.107
-599.069	-30.658	0.346	0.198
-598.055	14.380	0.269	0.212
-597.040	277.329	-0.154	0.278
-596.025	172.042	0.222	0.323
-595.011	144.898	-0.085	0.115
-593.996	-200.000	-0.037	-0.324
-592.982	27.623	0.379	0.323
-591.967	-85.338	0.130	0.041
-590.952	41.833	0.049	-0.045
-589.938	-183.636	-0.131	0.002
-588.923	27.087	-0.303	0.257
-587.909	800.000	-0.031	0.095
-586.894	-156.134	0.546	-0.035
-585.879	177.415	0.117	-0.172
-584.865	189.122	-0.038	0.058
-583.850	140.642	0.177	-0.236
-582.836	157.491	-0.078	-0.110
-581.821	-130.947	0.285	0.039
-580.806	64.901	0.147	-0.150
-579.792	-42.059	-0.302	-0.156
-578.777	-12.488	-0.201	-0.132
-577.763	54.363	-0.036	0.035
-576.748	401.722	0.159	-0.338
-575.733	-26.198	-0.258	0.153
-574.719	214.165	-0.090	0.144
-573.704	-122.239	-0.395	0.065
-572.690	-60.122	-0.310	0.134
-571.675	-106.521	-0.119	0.027
-570.661	-200.000	0.062	-0.356
-569.646	22.655	0.217	0.180
-568.631	114.205	-0.166	0.205
-567.617	532.363	0.094	0.224
-566.602	-91.836	-0.486	0.139
-565.588	321.039	0.055	0.107
-564.573	-101.753	0.025	0.006
-563.558	-122.004	0.198	-0.033
-562.544	232.872	-0.154	0.256
-561.529	-200.000	0.035	-0.251
-560.515	-200.000	-0.060	0.271
-559.500	-22.124	0.145	-0.089
-558.485	425.800	0.058	0.126
-557.471	800.000	0.065	0.191
-556.456	-200.000	0.075	0.347
-555.442	-69.221	0.081	-0.031
-554.427	-102.610	-0.229	0.055
-553.412	158.987	0.094	-0.132
-552.398	800.000	-0.119	-0.396
-551.383	-168.298	0.353	-0.014
-550.369	212.656	-0.022	0.035
-549.354	-54.209	0.074	-0.034
-548.339	152.890	-0.156	-0.215
-547.325	596.307	-0.070	0.175
-546.310	-18.620	0.179	0.113
-545.296	-6.438	0.163	-0.113
-544.281	262.243	0.125	-0.219
-543.266	800.000	-0.063	-0.200
-542.252	61.101	0.105	-0.105
-541.237	148.817	0.163	-0.222
-540.223	-200.000	-0.012	-0.117
-539.208	-164.637	0.183	0.008
-538.193	292.223	0.161	0.296
-537.179	49.825	-0.152	0.145
-536.164	800.000	0.047	0.183
-535.150	-121.250	0.120	-0.020
-534.135	163.587	-0.167	-0.237
-533.121	796.928	0.068	0.189
-532.106	800.000	-0.060	0.187
-531.091	-42.286	0.341	0.176
-530.077	69.622	-0.106	-0.110
-529.062	-32.923	-0.216	0.121
-528.048	-28.246	-0.085	-0.050
-527.033	26.522	-0.055	0.046
-526.018	800.000	0.047	-0.188
-525.004	-5.498	-0.162	0.112
-523.989	-200.000	0.029	0.187
-522.975	484.128	-0.120	-0.275
-521.960	-129.775	0.235	0.033
-520.945	259.637	0.141	0.246
-519.931	-42.926	0.230	0.118
-518.916	380.720	0.176	-0.365
-517.902	-200.000	-0.035	0.252
-516.887	496.470	-0.111	0.257
-515.872	32.242	0.100	-0.087
-514.858	-200.000	0.009	-0.239
-513.843	-50.618	0.091	0.043
-512.829	-67.663	-0.205	-0.081
-511.814	-63.715	-0.190	-0.078
-510.799	-200.000	0.009	-0.298
-509.785	-78.218	-0.469	-0.163
-508.770	-200.000	-0.062	0.397
-507.756	441.608	0.114	0.251
-506.741	68.987	-0.253	0.262
-505.726	-200.000	0.033	0.179
-504.712	-109.448	0.196	0.042
-503.697	40.747	-0.262	0.238
-502.683	-15.033	0.125	-0.080
-501.668	61.706	-0.287	-0.288
-500.653	14.955	-0.258	-0.204
-499.639	254.304	-0.156	0.269
-498.624	-40.596	-0.184	0.096
-497.610	-95.044	0.149	-0.041
-496.595	-102.744	-0.137	0.033
-495.581	62.597	0.247	0.249
-494.566	51.348	0.205	0.196
-493.551	-200.000	0.066	-0.348
-492.537	-18.927	0.265	-0.166
-491.522	87.728	-0.239	-0.267
-490.508	-19.865	-0.363	0.226
-489.493	-115.686	-0.256	-0.048
-488.478	63.469	-0.128	0.130
-487.464	-32.054	0.079	-0.044
-486.449	-17.034	0.152	-0.096
-485.435	136.434	-0.106	0.140
-484.420	-146.287	-0.196	-0.017
-483.405	8.357	-0.222	-0.168
-482.391	-20.282	0.149	0.093
-481.376	386.361	-0.022	-0.047
-480.362	-134.236	0.111	-0.014
-479.347	-200.000	-0.022	0.159
-478.332	-143.216	-0.095	-0.009
-477.318	40.506	0.226	-0.205
-476.303	-64.197	-0.244	0.100
-475.289	150.650	-0.226	-0.309
-474.274	58.012	0.043	0.043
-473.259	492.230	0.111	-0.255
-472.245	-70.121	-0.302	-0.116
-471.230	-31.771	0.369	0.208
-470.216	224.651	0.129	0.211
-469.201	-85.302	-0.082	-0.026
-468.186	226.636	0.037	0.060
-467.172	-50.227	0.145	0.069
-466.157	41.059	0.171	0.155
-465.143	80.255	0.102	0.111
-464.128	-200.000	-0.009	0.098
-463.113	126.690	-0.205	-0.261
-462.099	-200.000	-0.172	0.000
-461.084	232.263	0.157	0.259
-460.070	432.925	-0.144	0.315
-459.055	-200.000	0.003	0.087
-458.040	-19.425	-0.207	0.129
-457.026	373.038	0.195	0.399
-456.011	332.689	0.061	-0.119
-454.997	582.658	-0.088	-0.217
-453.982	53.000	0.052	0.050
-452.968	83.848	-0.176	-0.193
-451.953	169.744	0.150	-0.215
-450.938	-44.455	0.159	-0.080
-449.924	-123.915	0.167	0.026
-448.909	-73.781	0.309	0.113
-447.895	-121.402	0.099	0.017
-446.880	-21.684	-0.092	0.057
-445.865	4.696	0.209	0.154
-444.851	293.526	-0.064	0.117
-443.836	-18.603	0.146	-0.092
-442.822	114.038	-0.178	-0.218
-441.807	-141.068	0.174	-0.018
-440.792	-200.000	-0.002	-0.037
-439.778	-135.671	-0.313	-0.037
-438.763	-32.977	-0.087	0.049
-437.749	-4.814	0.235	0.163
-436.734	-31.962	-0.212	0.119
-435.719	263.592	-0.111	-0.194
-434.705	-88.639	-0.056	0.017
-433.690	577.223	-0.141	-0.348
-432.676	-123.215	-0.141	0.023
-431.661	-116.784	-0.146	-0.027
-430.646	35.090	0.202	0.178
-429.632	778.106	-0.072	-0.198
-428.617	522.920	0.048	-0.114
-427.603	-116.625	0.093	0.017
-426.588	55.132	0.142	-0.138
-425.573	-31.526	0.328	-0.185
-424.559	434.192	0.126	-0.275
-423.544	171.641	0.171	0.247
-422.530	800.000	0.088	-0.257
-421.515	84.685	-0.087	0.095
-420.500	20.566	0.083	-0.067
-419.486	17.511	0.207	0.165
-418.471	-69.864	0.528	0.202
-417.457	148.411	-0.226	-0.307
-416.442	-200.000	0.004	0.344
-415.428	95.909	0.297	-0.341
-414.413	312.585	0.199	-0.375
-413.398	-80.392	-0.346	-0.116
-412.384	799.070	-0.068	-0.189
-411.369	243.086	0.039	-0.066
-410.355	-126.097	-0.120	-0.018
-409.340	-185.601	0.091	0.001
-408.325	-200.000	-0.030	0.197
-407.311	79.546	0.199	-0.214
-406.296	-70.095	0.269	0.103
-405.282	-200.000	0.012	0.213
-404.267	-155.728	0.315	0.020
-403.252	-95.355	0.068	0.018
-402.238	-76.049	-0.169	-0.060
-401.223	471.462	-0.117	-0.264
-400.209	-200.000	0.067	0.323
-399.194	-79.998	0.206	-0.070
-398.179	40.223	0.174	0.157
-397.165	-200.000	0.015	0.410
-396.150	-4.083	0.286	0.199
-395.136	-49.743	0.382	0.182
-394.121	27.286	-0.348	0.294
-393.106	93.272	0.019	0.021
-392.092	699.735	0.091	0.240
-391.077	-53.505	-0.114	0.052
-390.063	5.112	-0.121	0.089
-389.048	-42.254	-0.260	0.133
-388.033	10.079	0.112	-0.085
-387.019	611.599	-0.030	0.076
-386.004	15.724	-0.154	0.122
-384.990	299.091	-0.064	-0.118
-383.975	110.813	-0.226	-0.272
-382.960	-16.317	0.201	-0.128
-381.946	-32.380	0.208	0.116
-380.931	388.130	-0.014	-0.030
-379.917	-94.711	0.132	-0.036
-378.902	126.441	0.071	0.091
-377.888	306.754	0.022	0.040
-376.873	-200.000	0.000	-0.128
-375.858	-76.767	-0.181	-0.064
-374.844	253.563	-0.112	0.192
-373.829	164.289	-0.025	0.036
-372.815	800.000	0.152	0.456
-371.800	38.545	-0.037	-0.034
-370.785	-1.867	-0.180	-0.127
-369.771	-23.722	-0.091	-0.055
-368.756	141.382	0.064	0.085
-367.742	-200.000	-0.073	-0.389
-366.727	538.568	-0.037	0.087
-365.712	112.112	0.144	-0.175
-364.698	-82.383	0.313	-0.102
-363.683	-200.000	-0.013	-0.142
-362.669	-135.895	0.098	0.012
-361.654	534.422	0.125	0.297
-360.639	-200.000	-0.031	0.237
-359.625	-200.000	-0.056	0.449
-358.610	-55.276	-0.176	-0.079
-357.596	-109.128	-0.200	-0.043
-356.581	-200.000	0.015	-0.148
-355.566	141.488	0.075	-0.099
-354.552	168.775	0.210	0.300
-353.537	-70.780	-0.163	0.062
-352.523	-13.622	-0.224	-0.145
-351.508	40.709	-0.066	0.060
-350.493	321.497	0.065	-0.124
-349.479	-200.000	0.034	-0.316
-348.464	-200.000	0.035	-0.423
-347.450	-79.981	0.207	0.070
-346.435	-37.211	0.134	-0.072
-345.420	-200.000	0.019	-0.091
-344.406	-108.331	-0.213	0.046
-343.391	-171.305	0.227	0.008
-342.377	99.413	-0.109	-0.127
-341.362	800.000	0.049	-0.152
-340.348	-58.726	-0.302	-0.131
-339.333	-149.390	0.260	-0.021
-338.318	800.000	0.101	-0.359
-337.304	-137.785	-0.105	0.012
-336.289	-200.000	-0.007	0.036
-335.275	-35.744	0.339	-0.184
-334.260	177.255	-0.062	0.090
-333.245	-200.000	0.008	0.092
-332.231	135.359	-0.135	-0.176
-331.216	-200.000	0.001	0.115
-330.202	-70.572	0.165	-0.062
-329.187	-76.376	-0.242	0.085
-328.172	-100.999	0.261	0.064
-327.158	28.324	-0.034	-0.029
-326.143	-86.785	0.068	-0.021
-325.129	91.648	0.212	0.239
-324.114	-74.813	0.297	-0.107
-323.099	-49.952	-0.270	-0.128
-322.085	-150.952	-0.189	0.014
-321.070	395.245	-0.051	-0.106
-320.056	13.138	-0.196	0.152
-319.041	55.435	-0.203	-0.197
-318.026	-2.956	0.134	-0.093
-317.012	105.380	0.193	0.228
-315.997	-200.000	0.014	-0.274
-314.983	-105.691	-0.338	-0.077
-313.968	198.535	-0.067	0.103
-312.953	388.092	-0.063	-0.131
-311.939	-2.030	0.201	-0.141
-310.924	-55.136	0.243	-0.109
-309.910	800.000	-0.021	-0.075
-308.895	-62.219	-0.260	-0.108
-307.880	152.655	-0.057	-0.079
-306.866	749.743	0.055	0.148
-305.851	800.000	0.025	0.089
-304.837	-200.000	-0.027	-0.136
-303.822	-175.070	0.204	0.006
-302.807	-144.018	0.255	0.024
-301.793	-103.358	0.178	0.042
-300.778	12.025	-0.304	0.234
-299.764	-78.900	-0.244	-0.083
-298.749	109.037	-0.223	-0.267
-297.735	29.251	-0.221	-0.188
-296.720	687.772	0.088	-0.231
-295.705	97.139	0.168	0.193
-294.691	-200.000	0.061	0.382
-293.676	-45.926	-0.175	-0.086
-292.662	-200.000	-0.013	0.108
-291.647	34.273	-0.373	-0.326
-290.632	800.000	-0.018	0.056
-289.618	-200.000	-0.006	0.061
-288.603	159.495	0.165	-0.230
-287.589	359.032	-0.070	-0.141
-286.574	10.478	-0.213	-0.162
-285.559	-200.000	0.037	0.165
-284.545	116.175	0.100	0.123
-283.530	77.553	-0.274	0.292
-282.516	-151.634	0.115	0.009
-281.501	562.882	0.017	0.040
-280.486	149.673	-0.072	0.098
-279.472	-200.000	0.026	0.240
-278.457	800.000	-0.055	0.231
-277.443	-45.314	-0.172	0.085
-276.428	131.861	-0.120	0.154
-275.413	-200.000	0.014	0.069
-274.399	20.288	0.085	-0.068
-273.384	-184.460	0.171	-0.003
-272.370	-2.161	0.080	-0.056
-271.355	800.000	-0.091	0.376
-270.340	800.000	-0.051	-0.209
-269.326	272.276	-0.070	-0.123
-268.311	-200.000	0.023	-0.000
-267.297	-48.742	0.233	-0.112
-266.282	-200.000	0.008	-0.242
-265.267	-29.119	-0.042	-0.024
-264.253	-200.000	-0.004	0.194
-263.238	14.936	-0.226	0.177
-262.224	0.553	-0.200	0.142
-261.209	-116.248	0.279	-0.052
-260.195	126.502	0.152	-0.192
-259.180	-200.000	0.021	-0.164
-258.165	513.356	0.023	0.054
-257.151	-3.370	-0.232	-0.161
-256.136	800.000	0.073	0.292
-255.122	-153.136	-0.463	0.032
-254.107	-200.000	-0.009	0.137
-253.092	-181.139	0.226	0.005
-252.078	153.181	0.039	-0.054
-251.063	-200.000	0.015	0.248
-250.049	-9.146	-0.188	0.125
-249.034	-200.000	-0.034	0.230
-248.019	800.000	0.022	0.065
-247.005	-17.548	0.189	0.119
-245.990	85.462	0.173	-0.189
-244.976	-90.029	-0.219	-0.064
-243.961	-200.000	-0.079	-0.438
-242.946	-200.000	0.013	0.319
-241.932	38.412	-0.253	-0.225
-240.917	-109.206	0.224	0.047
-239.903	213.011	-0.091	-0.143
-238.888	38.041	-0.092	0.081
-237.873	510.215	-0.071	0.165
-236.859	-200.000	-0.075	0.400
-235.844	29.492	0.074	0.063
-234.830	23.469	0.205	0.168
-233.815	29.500	0.398	0.338
-232.800	29.554	-0.175	0.149
-231.786	254.387	0.151	0.258
-230.771	27.447	-0.166	0.140
-229.757	800.000	0.017	0.052
-228.742	39.184	-0.330	-0.295
-227.727	-66.296	-0.208	-0.082
-226.713	48.196	-0.289	-0.269
-225.698	-124.214	0.327	-0.051
-224.684	31.904	0.239	-0.205
-223.669	737.999	-0.056	-0.151
-222.655	-128.361	-0.458	-0.065
-221.640	800.000	-0.028	0.081
-220.625	-200.000	0.031	0.306
-219.611	73.915	-0.191	0.200
-218.596	-200.000	-0.018	-0.300
-217.582	276.126	-0.139	0.246
-216.567	-159.908	-0.100	-0.005
-215.552	644.328	0.042	0.108
-214.538	99.661	0.008	-0.009
-213.523	325.095	0.099	-0.189
-212.509	-0.748	-0.432	-0.305
-211.494	-168.751	0.306	-0.012
-210.479	232.830	0.050	0.082
-209.465	-200.000	0.025	-0.300
-208.450	-200.000	0.034	-0.265
-207.436	-68.719	-0.105	-0.040
-206.421	-125.193	0.186	0.028
-205.406	259.237	-0.268	-0.462
-204.392	145.340	0.095	0.126
-203.377	-200.000	-0.010	0.090
-202.363	65.233	-0.293	-0.296
-201.348	-49.828	-0.275	-0.130
-200.333	394.707	0.102	0.211
-199.319	147.794	0.150	0.202
-198.304	-188.505	-0.291	0.004
-197.290	32.522	-0.259	-0.223
-196.275	397.389	-0.168	0.351
-195.260	707.074	0.172	-0.453
-194.246	0.171	-0.182	-0.129
-193.231	-101.253	0.118	-0.029
-192.217	-110.001	-0.210	0.044
-191.202	131.803	-0.109	-0.140
-190.187	-129.120	-0.028	-0.004
-189.173	251.970	0.057	-0.097
-188.158	-78.671	-0.246	-0.084
-187.144	439.837	-0.080	-0.173
-186.129	-23.749	0.332	-0.198
-185.114	-74.251	0.262	-0.094
-184.100	102.139	0.126	0.146
-183.085	216.151	-0.185	-0.292
-182.071	800.000	0.074	-0.218
-181.056	-60.755	-0.408	0.172
-180.042	8.842	0.058	0.044
-179.027	-200.000	0.015	0.360
-178.012	96.199	-0.030	0.034
-176.998	60.830	-0.089	-0.088
-175.983	-200.000	0.014	-0.121
-174.969	800.000	0.078	0.314
-173.954	248.952	0.052	-0.088
-172.939	122.609	0.158	-0.197
-171.925	40.851	-0.057	-0.051
-170.910	-127.141	0.121	0.018
-169.896	186.479	-0.079	0.116
-168.881	-200.000	0.016	0.310
-167.866	-49.431	0.119	0.056
-166.852	96.588	0.221	0.252
-165.837	-41.107	0.319	0.164
-164.823	-119.669	0.301	0.052
-163.808	-200.000	-0.001	0.681
-162.793	3.019	0.112	-0.081
-161.779	-200.000	-0.011	0.162
-160.764	800.000	0.058	-0.212
-159.750	638.166	0.044	0.111
-158.735	303.850	-0.081	-0.150
-157.720	-200.000	-0.001	-0.095
-156.706	-10.483	0.055	-0.036
-155.691	-14.050	-0.184	0.118
-154.677	477.981	-0.038	-0.085
-153.662	-200.000	0.002	-0.373
-152.647	-65.682	0.110	-0.044
-151.633	-166.253	0.243	-0.010
-150.618	253.668	-0.097	0.165
-149.604	-200.000	-0.003	-0.073
-148.589	800.000	0.121	0.379
-147.574	-149.330	-0.487	-0.039
-146.560	800.000	0.018	0.075
-145.545	-200.000	0.010	0.267
-144.531	-200.000	-0.006	-0.191
-143.516	-74.272	-0.124	-0.045
-142.502	-200.000	0.253	0.001
-141.487	13.008	0.199	-0.153
-140.472	51.082	-0.106	0.100
-139.458	-200.000	0.003	-0.027
-138.443	-56.597	-0.248	-0.109
-137.429	-200.000	0.013	0.074
-136.414	72.497	-0.226	-0.234
-135.399	-45.841	0.186	-0.091
-134.385	-200.000	-0.041	0.333
-133.370	420.142	0.123	0.262
-132.356	800.000	0.150	0.582
-131.341	-110.051	-0.045	0.009
-130.326	-200.000	-0.060	0.334
-129.312	775.803	-0.041	-0.111
-128.297	-200.000	-0.029	0.171
-127.283	73.929	-0.155	-0.161
-126.268	-8.338	0.182	0.122
-125.253	-94.632	0.341	-0.092
-124.239	800.000	0.025	-0.092
-123.224	-92.776	0.265	0.074
-122.210	-15.536	-0.097	0.062
-121.195	108.040	0.360	0.426
