DTS Sentinel unit serial number:	SN413079Multiplexer serial number:	ORYXHardware model number:	OX4-SRSoftware version number:	ORYX F/W v4.00 Oryx Data Collector v3.7.2.0data status	okinstallation	princeton_trtdifferential loss correction	single-endedforward channel	channel 4reverse channel	N/Adate	2019/09/12time	18:20:18forward acquisition time	15.00reverse acquisition time	0.00gamma	496.2192k internal	0.2307k external	0.2307temperature offset calibration	1.0127default loss term (dB/km)	0.3790temperature slope calibration	1.0000multiplexer offset coefficient	1.0000multiplexer slope coefficient	1.0000fibre end	0.00T internal ref (°C)	33.44T ext. ref 1 (°C)	2.98T ext. ref 2 (°C)	28.04length (m)	temperature (°C)	Stokes	anti-Stokes-747.200	-94.406	0.512	0.142
-746.185	-200.000	0.112	0.643
-745.171	-122.683	-0.539	0.089
-744.156	3.528	-0.178	0.132
-743.142	-10.894	0.597	-0.401
-742.127	-22.051	-0.350	-0.216
-741.112	-94.438	0.075	-0.021
-740.098	85.975	0.154	0.172
-739.083	157.062	-0.311	-0.437
-738.069	800.000	-0.146	-0.502
-737.054	470.938	0.177	0.404
-736.039	-84.002	-0.156	-0.050
-735.025	-67.267	-0.274	0.109
-734.010	260.513	0.353	-0.620
-732.996	16.534	-0.563	0.452
-731.981	48.459	0.581	0.553
-730.966	-151.542	-0.480	0.036
-729.952	424.885	-0.213	-0.467
-728.937	-99.914	0.674	-0.171
-727.923	-3.742	-0.618	-0.436
-726.908	-200.000	-0.023	-0.159
-725.894	-119.617	0.076	0.013
-724.879	-127.580	0.084	-0.012
-723.864	-200.000	0.007	-0.736
-722.850	-200.000	0.048	-0.857
-721.835	-80.952	0.470	-0.158
-720.821	-25.692	-0.234	-0.140
-719.806	34.419	-0.412	0.366
-718.791	558.957	-0.192	0.470
-717.777	138.785	-0.074	-0.099
-716.762	567.647	0.137	-0.338
-715.748	800.000	0.115	-0.403
-714.733	83.872	-0.059	-0.066
-713.718	-140.263	0.476	-0.051
-712.704	-18.437	-0.524	0.333
-711.689	67.350	0.108	0.112
-710.675	274.406	-0.207	-0.372
-709.660	-63.009	0.674	0.283
-708.645	-26.604	-0.179	0.107
-707.631	179.966	0.771	-1.147
-706.616	-96.516	-0.399	0.107
-705.602	48.152	-0.610	0.579
-704.587	-38.650	0.733	-0.393
-703.572	-75.055	-0.785	0.285
-702.558	237.860	0.355	0.599
-701.543	-125.225	-1.023	-0.159
-700.529	-126.706	1.190	-0.179
-699.514	477.036	-0.092	0.211
-698.499	-200.000	0.129	0.918
-697.485	-97.217	-0.814	0.216
-696.470	349.972	0.563	1.129
-695.456	-200.000	0.038	-0.888
-694.441	-9.151	-0.344	-0.234
-693.426	-45.500	0.776	0.390
-692.412	-41.572	0.756	-0.395
-691.397	139.324	-0.086	-0.114
-690.383	251.557	-0.292	-0.505
-689.368	207.243	-0.317	-0.501
-688.354	-141.449	-0.383	0.039
-687.339	-200.000	0.071	0.336
-686.324	54.489	0.377	0.368
-685.310	-74.110	-0.827	-0.304
-684.295	-45.493	0.171	0.086
-683.281	362.440	-0.109	-0.223
-682.266	-93.721	0.057	-0.016
-681.251	91.693	-0.487	-0.556
-680.237	-64.779	0.473	-0.194
-679.222	800.000	0.129	0.432
-678.208	83.226	-0.443	0.489
-677.193	-2.854	-0.346	-0.246
-676.178	51.775	0.402	-0.388
-675.164	-145.331	0.764	0.070
-674.149	-200.000	0.044	0.462
-673.135	163.181	-0.107	0.152
-672.120	-200.000	-0.158	0.877
-671.105	84.095	0.750	-0.831
-670.091	-142.123	0.669	-0.067
-669.076	-51.909	-0.519	-0.245
-668.062	203.659	0.300	0.471
-667.047	-141.126	-0.738	-0.076
-666.032	55.244	0.151	-0.148
-665.018	421.895	-0.056	-0.122
-664.003	7.811	0.627	-0.476
-662.989	-58.326	-0.895	-0.395
-661.974	138.624	0.247	-0.329
-660.959	-200.000	-0.044	0.237
-659.945	48.311	-0.600	0.569
-658.930	73.452	-0.523	0.555
-657.916	-200.000	0.009	0.577
-656.901	800.000	0.193	-0.570
-655.886	66.982	0.255	0.264
-654.872	-122.712	-0.121	0.020
-653.857	124.701	-0.297	0.379
-652.843	-111.250	0.076	0.016
-651.828	73.837	0.448	0.476
-650.814	-45.078	-0.368	0.185
-649.799	800.000	-0.142	0.604
-648.784	-89.833	-0.323	-0.096
-647.770	133.224	-0.356	0.465
-646.755	-27.496	0.453	0.267
-645.741	-42.614	0.277	-0.143
-644.726	-107.551	-0.571	0.127
-643.711	56.822	-0.480	0.473
-642.697	-134.862	-1.418	0.174
-641.682	22.755	-0.419	0.347
-640.668	45.133	0.279	0.260
-639.653	7.947	0.374	0.284
-638.638	-78.779	-0.457	0.158
-637.624	431.947	0.340	0.747
-636.609	-39.596	0.371	-0.197
-635.595	92.113	0.235	-0.268
-634.580	-200.000	0.096	-0.478
-633.565	-153.189	-0.507	0.036
-632.551	-12.396	-0.922	-0.610
-631.536	-115.389	0.174	-0.033
-630.522	-45.159	0.121	0.061
-629.507	118.907	0.208	0.261
-628.492	-105.404	0.363	0.084
-627.478	-5.278	-0.168	-0.117
-626.463	36.853	-0.146	-0.131
-625.449	-175.986	-0.472	0.013
-624.434	679.255	-0.302	0.796
-623.419	-15.652	0.222	0.144
-622.405	-97.006	-0.621	0.165
-621.390	6.547	0.465	0.350
-620.376	-200.000	-0.009	0.410
-619.361	204.461	-0.215	0.337
-618.346	-7.877	0.181	-0.123
-617.332	-105.195	0.556	-0.128
-616.317	800.000	0.040	-0.136
-615.303	-200.000	-0.072	-0.348
-614.288	82.156	0.505	0.554
-613.273	-111.211	0.256	0.053
-612.259	5.739	-0.218	-0.163
-611.244	-68.343	-0.482	-0.189
-610.230	-0.304	0.526	0.378
-609.215	19.773	0.186	0.152
-608.201	233.760	-0.326	0.543
-607.186	63.296	-0.443	-0.449
-606.171	81.225	0.455	-0.497
-605.157	-152.205	1.159	0.085
-604.142	91.788	-0.553	0.629
-603.128	800.000	-0.138	0.589
-602.113	-200.000	0.003	0.153
-601.098	800.000	0.074	-0.291
-600.084	-82.907	0.356	-0.116
-599.069	-86.069	0.545	-0.170
-598.055	49.294	0.333	-0.317
-597.040	800.000	0.088	-0.313
-596.025	41.621	0.336	0.308
-595.011	8.198	0.431	-0.327
-593.996	134.787	-0.558	0.733
-592.982	-18.810	-0.827	0.520
-591.967	478.091	0.076	0.175
-590.952	-60.661	-0.665	-0.285
-589.938	58.674	0.472	0.468
-588.923	-69.085	0.960	0.374
-587.909	225.640	-0.318	-0.521
-586.894	-200.000	-0.073	0.364
-585.879	-84.361	0.549	-0.175
-584.865	-95.097	-0.412	0.112
-583.850	564.608	0.501	1.227
-582.836	-141.030	0.065	-0.007
-581.821	454.541	-0.019	0.042
-580.806	-77.165	-0.604	-0.213
-579.792	15.945	-0.132	-0.105
-578.777	-188.015	-0.546	0.007
-577.763	-16.744	-0.214	0.137
-576.748	174.695	0.153	0.224
-575.733	81.142	0.496	0.541
-574.719	-27.437	0.613	-0.360
-573.704	-200.000	0.995	0.002
-572.690	800.000	0.051	0.172
-571.675	175.106	0.206	-0.302
-570.661	288.021	-0.624	-1.140
-569.646	112.252	0.381	0.465
-568.631	446.832	0.247	0.549
-567.617	-119.177	-0.605	-0.107
-566.602	-9.520	-0.417	0.281
-565.588	40.404	-0.169	-0.154
-564.573	-104.790	0.178	0.041
-563.558	-96.707	-0.156	-0.042
-562.544	800.000	-0.156	0.570
-561.529	-200.000	-0.015	0.291
-560.515	52.212	-0.203	-0.195
-559.500	800.000	0.103	0.354
-558.485	345.312	0.043	0.085
-557.471	100.296	-0.304	0.356
-556.456	-23.932	1.061	0.641
-555.442	-52.511	0.181	-0.084
-554.427	-189.422	-0.481	0.006
-553.412	-40.175	0.511	0.268
-552.398	20.639	0.502	0.410
-551.383	178.387	0.089	0.131
-550.369	151.612	0.705	-0.969
-549.354	241.154	-0.521	-0.878
-548.339	-181.523	1.001	0.020
-547.325	425.970	0.314	-0.683
-546.310	497.192	0.131	-0.305
-545.296	-185.154	0.303	0.005
-544.281	25.606	0.412	-0.346
-543.266	-178.424	0.565	-0.013
-542.252	-87.514	-0.276	-0.084
-541.237	-200.000	0.439	0.000
-540.223	-200.000	-0.236	1.175
-539.208	379.614	-0.138	-0.284
-538.193	800.000	0.171	0.516
-537.179	-64.198	-0.811	0.334
-536.164	-63.588	0.361	-0.150
-535.150	-200.000	0.074	0.350
-534.135	-46.025	-0.747	-0.371
-533.121	-200.000	-0.002	0.609
-532.106	220.966	-0.120	-0.194
-531.091	-109.074	0.277	-0.060
-530.077	740.488	-0.232	-0.629
-529.062	-60.508	-0.760	0.326
-528.048	-150.083	0.544	-0.043
-527.033	164.436	0.168	-0.239
-526.018	88.972	0.423	0.474
-525.004	-133.364	-1.246	-0.158
-523.989	-64.752	-0.573	0.234
-522.975	458.579	0.421	-0.943
-521.960	-127.414	0.749	-0.110
-520.945	370.250	0.234	0.478
-519.931	255.574	-0.531	0.918
-518.916	651.638	-0.009	-0.024
-517.902	307.312	-0.275	0.516
-516.887	-34.937	-0.065	-0.036
-515.872	140.661	-0.326	-0.434
-514.858	-99.757	-0.348	-0.088
-513.843	-90.930	-0.516	0.150
-512.829	151.527	0.263	-0.361
-511.814	246.901	-0.505	0.859
-510.799	31.065	0.560	0.484
-509.785	-99.251	0.634	-0.161
-508.770	800.000	-0.091	0.384
-507.756	-200.000	-0.032	0.227
-506.741	125.949	-0.369	-0.469
-505.726	-86.390	0.585	-0.181
-504.712	462.179	0.401	-0.901
-503.697	701.936	0.113	0.300
-502.683	-12.373	0.353	0.232
-501.668	265.429	0.362	-0.636
-500.653	-200.000	1.092	-0.005
-499.639	132.796	0.397	-0.516
-498.624	69.616	-0.244	0.254
-497.610	-164.352	-0.357	0.016
-496.595	201.592	0.406	-0.630
-495.581	-40.739	0.621	0.324
-494.566	-68.860	-0.569	-0.221
-493.551	-200.000	-0.006	0.411
-492.537	-2.252	0.375	-0.265
-491.522	79.722	-0.225	-0.243
-490.508	-16.778	-0.680	-0.433
-489.493	-200.000	-0.010	-0.119
-488.478	222.572	-0.220	0.357
-487.464	800.000	-0.053	-0.187
-486.449	-200.000	-0.066	-0.394
-485.435	53.506	-0.417	0.403
-484.420	98.972	0.703	0.817
-483.405	15.294	0.439	0.346
-482.391	-86.434	0.677	0.209
-481.376	-134.047	0.506	0.063
-480.362	3.604	0.432	-0.317
-479.347	-92.144	1.001	0.285
-478.332	-168.976	-0.638	0.024
-477.318	29.636	-0.405	0.347
-476.303	-200.000	0.082	0.417
-475.289	157.080	-0.224	-0.312
-474.274	342.803	-0.360	-0.710
-473.259	-47.333	-0.327	0.160
-472.245	-200.000	0.060	-0.472
-471.230	-134.355	-1.597	-0.197
-470.216	800.000	0.138	0.579
-469.201	37.116	-0.876	-0.780
-468.186	86.518	0.664	-0.737
-467.172	76.387	0.412	-0.439
-466.157	579.696	-0.213	-0.525
-465.143	800.000	0.069	0.286
-464.128	800.000	0.192	0.592
-463.113	255.173	0.406	0.699
-462.099	219.580	-0.406	0.653
-461.084	107.766	-0.309	0.371
-460.070	-200.000	-0.210	0.930
-459.055	-154.459	-0.522	0.035
-458.040	129.892	0.405	-0.522
-457.026	180.963	0.439	0.649
-456.011	-200.000	-0.093	-0.709
-454.997	-200.000	-0.006	-0.487
-453.982	800.000	0.235	0.669
-452.968	-124.287	-0.682	0.107
-451.953	179.001	0.485	-0.713
-450.938	516.988	-0.270	-0.634
-449.924	-9.999	0.279	-0.187
-448.909	-200.000	-0.078	0.377
-447.895	-200.000	0.098	0.772
-446.880	-200.000	0.084	-0.446
-445.865	800.000	-0.200	-0.722
-444.851	-132.784	0.756	0.097
-443.836	-200.000	0.033	0.588
-442.822	-200.000	-0.098	0.616
-441.807	497.046	0.132	-0.304
-440.792	-43.621	0.263	-0.134
-439.778	800.000	-0.106	-0.316
-438.763	770.291	-0.113	-0.309
-437.749	184.205	-0.345	-0.513
-436.734	-200.000	0.085	0.921
-435.719	141.604	0.155	-0.206
-434.705	-172.828	0.206	-0.006
-433.690	-17.044	0.414	0.263
-432.676	-200.000	-0.001	-0.451
-431.661	-111.165	-0.402	-0.083
-430.646	-83.850	0.672	-0.215
-429.632	512.711	-0.077	0.181
-428.617	410.334	0.493	-1.051
-427.603	190.862	-0.613	-0.926
-426.588	-72.219	-0.665	0.248
-425.573	51.372	0.509	0.486
-424.559	716.455	0.166	-0.442
-423.544	-21.777	0.369	-0.226
-422.530	-200.000	0.004	0.244
-421.515	-85.095	-0.653	-0.205
-420.500	-100.359	0.882	-0.220
-419.486	-16.231	0.318	0.203
-418.471	-49.020	0.449	0.216
-417.457	93.274	0.306	-0.348
-416.442	234.200	0.360	-0.596
-415.428	357.336	-0.329	-0.660
-414.413	-60.646	0.149	-0.063
-413.398	-118.523	-0.249	-0.044
-412.384	-146.899	-0.599	0.052
-411.369	84.166	0.378	-0.414
-410.355	-200.000	-0.006	-0.289
-409.340	0.755	-0.632	-0.454
-408.325	-168.637	-0.225	-0.009
-407.311	800.000	0.066	-0.260
-406.296	800.000	0.041	0.145
-405.282	-200.000	-0.040	-0.420
-404.267	800.000	0.155	-0.659
-403.252	-10.568	-0.737	-0.489
-402.238	-200.000	-0.086	-0.854
-401.223	-139.089	0.226	-0.024
-400.209	192.895	-0.413	0.626
-399.194	-30.472	0.310	0.176
-398.179	136.103	0.432	0.565
-397.165	368.354	0.039	-0.079
-396.150	247.108	-0.243	0.411
-395.136	-177.993	-1.201	0.029
-394.121	3.462	-0.457	-0.334
-393.106	-111.403	-1.144	-0.234
-392.092	117.741	0.306	-0.377
-391.077	151.478	0.461	-0.630
-390.063	-69.066	0.644	0.249
-389.048	-159.094	-0.245	0.014
-388.033	-97.448	0.770	-0.201
-387.019	-90.714	-1.052	0.304
-386.004	-87.634	-0.351	-0.106
-384.990	-200.000	0.002	0.202
-383.975	-15.735	-0.184	0.117
-382.960	284.393	-0.411	-0.741
-381.946	-112.952	0.604	0.120
-380.931	-167.379	0.972	-0.039
-379.917	-120.601	-0.490	0.083
-378.902	-200.000	-0.050	-0.447
-377.888	-194.357	-0.441	-0.004
-376.873	437.560	-0.177	-0.386
-375.858	-130.034	-0.524	-0.072
-374.844	250.533	-0.143	-0.244
-373.829	618.027	0.226	0.570
-372.815	-200.000	-0.072	0.342
-371.800	37.616	0.362	-0.322
-370.785	239.301	-0.443	0.739
-369.771	10.306	0.181	-0.138
-368.756	-88.382	-0.637	0.191
-367.742	-3.226	-0.559	0.390
-366.727	-40.885	0.887	0.460
-365.712	-48.999	0.368	-0.177
-364.698	-55.379	-0.172	-0.077
-363.683	78.628	-0.086	-0.092
-362.669	36.173	-0.539	0.476
-361.654	-200.000	-0.018	-0.745
-360.639	-22.519	-0.760	-0.461
-359.625	-200.000	0.123	-0.696
-358.610	-200.000	-0.006	-0.056
-357.596	-91.155	-0.792	-0.228
-356.581	37.219	0.376	-0.333
-355.566	137.462	-0.216	-0.283
-354.552	-131.648	-0.053	0.007
-353.537	33.488	0.412	-0.358
-352.523	-200.000	0.132	-0.744
-351.508	367.770	-0.323	-0.653
-350.493	-200.000	-0.125	-0.569
-349.479	-129.747	-0.057	-0.008
-348.464	73.672	0.813	-0.853
-347.450	-94.731	-1.085	0.295
-346.435	470.583	0.460	1.036
-345.420	23.511	0.603	-0.496
-344.406	-150.440	-0.605	-0.047
-343.391	154.073	-0.612	0.840
-342.377	147.585	-0.481	0.648
-341.362	-46.719	-0.802	0.393
-340.348	-200.000	-0.019	-0.899
-339.333	126.941	0.043	-0.055
-338.318	19.795	-0.282	-0.228
-337.304	53.090	-0.216	-0.207
-336.289	800.000	-0.096	-0.324
-335.275	-78.831	0.700	0.239
-334.260	-125.244	-1.019	-0.156
-333.245	126.471	-0.346	0.439
-332.231	66.110	-0.401	-0.407
-331.216	87.071	-0.441	-0.488
-330.202	479.575	-0.215	0.488
-329.187	-55.339	-0.486	0.218
-328.172	800.000	-0.227	0.787
-327.158	-200.000	0.019	-0.312
-326.143	193.642	0.408	0.617
-325.129	-200.000	-0.082	0.903
-324.114	204.254	-0.178	-0.276
-323.099	-110.881	0.599	0.123
-322.085	43.668	0.549	-0.502
-321.070	-114.268	0.149	-0.029
-320.056	-108.860	-0.038	0.008
-319.041	33.008	-0.549	0.475
-318.026	266.577	0.266	0.464
-317.012	150.483	0.152	0.207
-315.997	127.785	0.334	-0.425
-314.983	-72.924	-0.629	-0.231
-313.968	46.168	0.185	-0.171
-312.953	800.000	0.142	0.523
-311.939	-96.297	-0.802	-0.213
-310.924	-113.884	-0.919	0.179
-309.910	685.942	-0.158	-0.411
-308.895	-17.980	0.335	-0.210
-307.880	25.707	-0.418	-0.348
-306.866	-100.851	-0.366	0.090
-305.851	-4.497	0.253	-0.175
-304.837	-200.000	-0.028	-0.421
-303.822	-200.000	0.011	0.089
-302.807	-23.204	0.781	-0.470
-301.793	-9.850	-0.246	0.164
-300.778	-5.315	0.655	0.450
-299.764	67.415	-0.552	-0.563
-298.749	800.000	0.270	0.797
-297.735	295.619	-0.339	-0.620
-296.720	-143.738	-1.064	0.101
-295.705	199.321	0.092	-0.141
-294.691	800.000	-0.084	0.232
-293.676	800.000	-0.232	0.949
-292.662	-169.924	-0.507	0.018
-291.647	-15.283	0.545	-0.348
-290.632	-162.621	-0.659	-0.032
-289.618	-200.000	-0.021	0.283
-288.603	4.993	-0.848	-0.623
-287.589	-125.920	0.164	-0.025
-286.574	800.000	-0.123	-0.497
-285.559	800.000	0.111	0.336
-284.545	800.000	-0.316	-0.993
-283.530	800.000	0.152	-0.507
-282.516	322.746	0.323	-0.614
-281.501	182.697	0.532	0.783
-280.486	187.185	0.228	-0.339
-279.472	-139.763	-0.201	-0.021
-278.457	-46.081	0.537	0.264
-277.443	800.000	-0.103	-0.376
-276.428	800.000	-0.203	-0.765
-275.413	155.159	0.212	-0.291
-274.399	-1.003	0.443	-0.313
-273.384	725.364	-0.129	-0.343
-272.370	-78.558	-0.610	0.208
-271.355	86.082	0.217	0.239
-270.340	31.167	0.418	0.358
-269.326	800.000	-0.212	0.923
-268.311	533.098	-0.228	-0.540
-267.297	6.239	0.427	0.316
-266.282	198.654	0.287	0.439
-265.267	327.519	0.154	0.294
-264.253	-105.130	0.520	-0.119
-263.238	308.171	-0.227	0.424
-262.224	338.412	-0.194	0.376
-261.209	800.000	0.237	0.949
-260.195	800.000	-0.066	0.278
-259.180	26.393	-0.617	0.515
-258.165	702.145	0.094	-0.247
-257.151	-14.131	0.226	-0.146
-256.136	107.368	0.245	-0.290
-255.122	1.709	0.066	0.048
-254.107	112.201	0.237	-0.285
-253.092	-170.905	-1.230	-0.042
-252.078	27.112	-0.767	0.642
-251.063	-85.616	-0.364	0.113
-250.049	-31.775	0.462	0.259
-249.034	-182.037	-0.560	0.011
-248.019	-171.810	0.290	-0.009
-247.005	-145.291	0.487	0.044
-245.990	-134.853	0.895	-0.108
-244.976	-200.000	0.035	-0.482
-243.961	169.023	-0.232	-0.330
-242.946	800.000	0.290	-0.865
-241.932	-200.000	-0.025	-0.762
-240.917	800.000	0.296	0.825
-239.903	16.913	0.696	-0.549
-238.888	359.601	0.215	0.429
-237.873	-200.000	0.100	0.461
-236.859	10.337	0.355	0.269
-235.844	800.000	-0.168	-0.611
-234.830	-32.919	0.735	0.407
-233.815	-85.315	-0.298	0.093
-232.800	-8.800	0.518	0.346
-231.786	800.000	0.031	-0.123
-230.771	-91.002	1.015	-0.291
-229.757	-112.131	0.279	-0.056
-228.742	77.735	-0.193	-0.205
-227.727	-200.000	-0.075	0.529
-226.713	-200.000	0.049	0.512
-225.698	-87.913	-1.065	-0.319
-224.684	301.792	0.087	-0.160
-223.669	-6.356	0.651	0.443
-222.655	-73.685	0.529	0.192
-221.640	-133.005	-0.865	-0.109
-220.625	85.780	0.247	-0.270
-219.611	-15.448	0.590	0.376
-218.596	144.140	-0.573	-0.762
-217.582	71.493	-0.414	0.428
-216.567	-57.613	-0.096	-0.042
-215.552	661.179	-0.082	-0.210
-214.538	86.321	0.228	-0.250
-213.523	420.689	-0.236	-0.504
-212.509	237.561	0.398	0.657
-211.494	-116.094	0.684	0.127
-210.479	-121.803	-0.708	0.116
-209.465	-122.893	0.665	0.107
-208.450	75.882	-0.260	0.274
-207.436	800.000	-0.072	-0.308
-206.421	800.000	-0.190	0.591
-205.406	79.334	0.236	-0.252
-204.392	150.862	-0.400	-0.542
-203.377	-13.404	-0.710	-0.458
-202.363	-200.000	0.137	0.804
-201.348	-200.000	-0.112	-0.750
-200.333	-104.215	0.388	0.090
-199.319	109.476	0.504	-0.601
-198.304	-109.770	0.446	0.093
-197.290	-200.000	-0.025	0.230
-196.275	-156.509	1.270	-0.079
-195.260	-21.411	-0.539	-0.328
-194.246	800.000	-0.149	-0.410
-193.231	395.632	-0.337	0.700
-192.217	232.174	-0.318	0.519
-191.202	-200.000	0.070	-0.430
-190.187	351.321	-0.304	0.598
-189.173	131.340	-0.270	0.345
-188.158	49.538	0.392	0.367
-187.144	-81.077	0.632	-0.208
-186.129	6.343	0.468	-0.346
-185.114	-132.361	0.303	0.039
-184.100	800.000	0.139	-0.527
-183.085	-56.161	-0.689	-0.305
-182.071	-200.000	0.078	0.581
-181.056	-68.455	0.518	-0.200
-180.042	-200.000	0.068	0.968
-179.027	-98.537	0.503	-0.128
-178.012	362.356	0.118	-0.235
-176.998	635.878	0.070	-0.177
-175.983	-87.988	0.589	0.176
-174.969	66.444	0.262	-0.265
-173.954	-200.000	-0.036	0.864
-172.939	339.339	-0.203	0.394
-171.925	-79.103	-0.421	0.142
-170.910	-200.000	0.033	0.294
-169.896	-99.255	-0.839	-0.211
-168.881	800.000	0.152	0.594
-167.866	-13.079	0.458	0.296
-166.852	219.787	-0.160	-0.255
-165.837	-104.545	1.170	-0.269
-164.823	508.969	0.147	0.340
-163.808	-40.370	-0.766	-0.396
-162.793	800.000	0.184	-0.762
-161.779	-127.653	-0.516	0.074
-160.764	354.466	-0.096	0.190
-159.750	32.123	0.570	-0.489
-158.735	314.795	-0.512	0.958
-157.720	-75.338	-0.212	0.075
-156.706	-101.389	0.891	-0.216
-155.691	136.104	0.083	-0.107
-154.677	-92.397	-0.295	0.083
-153.662	-200.000	-0.220	-1.196
-152.647	149.451	-0.480	0.646
-151.633	110.894	0.174	-0.208
-150.618	-31.963	-0.258	-0.143
-149.604	-54.705	0.817	0.367
-148.589	-200.000	0.026	0.574
-147.574	358.893	-0.093	-0.186
-146.560	-50.756	-0.385	-0.180
-145.545	373.902	-0.482	0.975
-144.531	-192.806	-0.738	-0.007
-143.516	-133.855	-0.171	0.021
-142.502	-28.971	-0.649	0.370
-141.487	342.602	-0.107	0.207
-140.472	-70.660	0.609	-0.229
-139.458	-167.379	0.600	-0.024
-138.443	385.291	-0.222	-0.455
-137.429	99.963	-0.240	0.276
-136.414	377.903	0.056	0.115
-135.399	-25.552	0.238	0.140
-134.385	392.143	0.183	0.377
-133.370	800.000	-0.217	-0.734
-132.356	-26.102	-0.489	-0.285
-131.341	410.914	-0.138	-0.291
-130.326	-200.000	0.092	0.509
-129.312	-46.738	0.687	0.334
-128.297	-115.461	-0.622	0.116
-127.283	-93.985	0.703	-0.192
-126.268	800.000	0.095	-0.397
-125.253	-130.116	-0.390	-0.053
-124.239	-91.365	0.450	0.128
-123.224	-27.674	-0.173	-0.099
-122.210	-169.661	0.615	0.022
-121.195	-143.542	0.587	-0.056
