DTS Sentinel unit serial number:	SN413079Multiplexer serial number:	ORYXHardware model number:	OX4-SRSoftware version number:	ORYX F/W v4.00 Oryx Data Collector v3.7.2.0data status	okinstallation	princeton_trtdifferential loss correction	single-endedforward channel	channel 4reverse channel	N/Adate	2019/09/16time	10:57:35forward acquisition time	60.00reverse acquisition time	0.00gamma	496.2192k internal	0.2297k external	0.2297temperature offset calibration	0.9956default loss term (dB/km)	0.3790temperature slope calibration	1.0000multiplexer offset coefficient	1.0000multiplexer slope coefficient	1.0000fibre end	0.00T internal ref (°C)	36.69T ext. ref 1 (°C)	12.74T ext. ref 2 (°C)	34.33length (m)	temperature (°C)	Stokes	anti-Stokes-747.200	91.241	0.178	0.205
-746.185	99.776	0.027	-0.032
-745.171	-63.634	-0.192	0.081
-744.156	-19.110	0.143	0.091
-743.142	-200.000	0.001	-0.342
-742.127	-149.520	-0.128	0.010
-741.112	109.645	0.040	-0.049
-740.098	-200.000	0.033	-0.181
-739.083	-200.000	-0.079	0.437
-738.069	-155.230	-0.129	0.009
-737.054	479.760	-0.164	-0.380
-736.039	-200.000	-0.043	0.263
-735.025	-102.423	-0.109	-0.027
-734.010	-108.006	0.143	-0.032
-732.996	-200.000	-0.032	-0.259
-731.981	242.042	-0.171	-0.292
-730.966	178.809	0.085	0.126
-729.952	87.134	-0.099	0.112
-728.937	-71.771	0.229	-0.087
-727.923	57.446	-0.186	-0.185
-726.908	800.000	0.034	-0.121
-725.894	-6.881	0.105	0.073
-724.879	-200.000	-0.047	0.256
-723.864	595.793	-0.063	-0.159
-722.850	-94.183	-0.372	0.104
-721.835	-118.486	0.203	0.037
-720.821	42.253	-0.151	-0.140
-719.806	-200.000	-0.004	-0.027
-718.791	-16.907	0.245	0.158
-717.777	-200.000	0.036	0.211
-716.762	-200.000	-0.022	-0.255
-715.748	40.502	0.021	-0.019
-714.733	-174.017	-0.193	-0.006
-713.718	-124.139	-0.176	-0.028
-712.704	800.000	-0.108	-0.306
-711.689	-200.000	0.017	-0.116
-710.675	-99.667	-0.203	-0.052
-709.660	53.298	-0.049	0.048
-708.645	173.621	0.178	0.262
-707.631	800.000	-0.099	-0.279
-706.616	-110.380	-0.130	0.027
-705.602	800.000	0.050	-0.170
-704.587	35.977	-0.072	-0.065
-703.572	-200.000	-0.004	0.154
-702.558	-200.000	-0.019	-0.328
-701.543	-15.887	-0.253	-0.164
-700.529	294.920	0.201	-0.376
-699.514	-10.761	-0.298	-0.201
-698.499	-200.000	0.046	-0.504
-697.485	33.386	0.092	-0.081
-696.470	113.352	0.199	-0.246
-695.456	165.475	-0.107	0.154
-694.441	-200.000	-0.051	0.330
-693.426	89.605	-0.147	0.167
-692.412	-79.048	0.265	-0.092
-691.397	220.366	0.233	-0.380
-690.383	198.138	0.065	-0.101
-689.368	-47.716	0.027	0.013
-688.354	84.942	0.127	-0.142
-687.339	-39.636	0.107	0.057
-686.324	-200.000	0.000	0.228
-685.310	-200.000	0.000	-0.007
-684.295	-70.234	0.161	0.062
-683.281	222.997	-0.100	0.164
-682.266	253.922	-0.144	-0.252
-681.251	223.689	0.222	0.365
-680.237	-200.000	-0.038	0.525
-679.222	-69.117	-0.048	0.019
-678.208	800.000	0.075	-0.300
-677.193	-96.308	0.228	0.062
-676.178	-83.707	0.221	-0.072
-675.164	-200.000	-0.055	0.382
-674.149	-200.000	-0.047	0.231
-673.135	60.355	0.204	-0.205
-672.120	800.000	0.088	-0.247
-671.105	-33.969	-0.162	0.091
-670.091	800.000	-0.080	-0.310
-669.076	592.558	0.081	-0.203
-668.062	-200.000	0.029	-0.340
-667.047	-100.907	-0.120	-0.030
-666.032	389.861	0.082	0.174
-665.018	-22.896	0.309	0.190
-664.003	-84.975	0.350	-0.112
-662.989	800.000	0.064	0.225
-661.974	-136.336	0.136	-0.016
-660.959	800.000	-0.037	0.145
-659.945	51.329	0.070	-0.067
-658.930	-148.128	-0.149	0.013
-657.916	-143.920	-0.180	0.017
-656.901	413.862	-0.041	-0.088
-655.886	800.000	0.046	0.164
-654.872	33.503	0.145	-0.128
-653.857	80.837	0.043	-0.047
-652.843	-41.583	-0.303	0.159
-651.828	-4.419	0.369	-0.260
-650.814	800.000	-0.056	-0.244
-649.799	-106.484	-0.071	0.016
-648.784	37.622	0.024	0.022
-647.770	210.065	0.156	-0.249
-646.755	387.496	-0.143	0.300
-645.741	369.513	-0.064	-0.132
-644.726	-56.297	-0.051	-0.023
-643.711	175.048	0.270	-0.398
-642.697	-200.000	0.078	0.350
-641.682	191.024	-0.209	-0.319
-640.668	-131.624	-0.067	-0.009
-639.653	-200.000	-0.041	0.195
-638.638	129.094	0.217	0.281
-637.624	-143.049	-0.311	0.031
-636.609	132.585	0.134	0.176
-635.595	301.988	-0.138	-0.259
-634.580	400.793	0.209	-0.445
-633.565	-8.963	0.098	-0.067
-632.551	-93.712	0.404	-0.113
-631.536	-134.821	-0.250	-0.031
-630.522	119.901	0.184	-0.232
-629.507	44.751	0.155	-0.145
-628.492	146.705	0.226	0.309
-627.478	-7.535	-0.216	0.148
-626.463	800.000	0.015	0.054
-625.449	145.984	-0.298	-0.406
-624.434	-4.710	-0.277	0.194
-623.419	-146.062	0.043	0.004
-622.405	-136.447	0.386	-0.046
-621.390	-200.000	0.055	0.291
-620.376	313.181	0.045	0.087
-619.361	-200.000	0.059	-0.306
-618.346	-132.728	0.027	-0.003
-617.332	442.494	0.021	-0.046
-616.317	93.552	0.107	0.123
-615.303	50.118	-0.073	0.070
-614.288	-97.549	-0.491	0.130
-613.273	54.121	-0.262	0.256
-612.259	-161.747	0.071	0.004
-611.244	665.764	-0.051	0.134
-610.230	518.561	-0.029	0.068
-609.215	10.789	0.039	-0.030
-608.201	-67.886	0.241	0.096
-607.186	-11.803	0.190	0.127
-606.171	36.722	-0.216	0.194
-605.157	71.321	-0.358	0.378
-604.142	4.882	-0.271	-0.203
-603.128	-200.000	0.035	0.226
-602.113	-150.434	-0.165	0.013
-601.098	125.962	0.240	0.309
-600.084	-200.000	-0.035	-0.256
-599.069	3.353	0.127	-0.094
-598.055	-200.000	-0.034	0.274
-597.040	-92.943	-0.065	0.019
-596.025	116.392	0.176	-0.219
-595.011	-99.097	0.284	-0.073
-593.996	-55.469	-0.307	0.140
-592.982	-42.664	-0.138	-0.071
-591.967	-52.332	-0.392	-0.184
-590.952	-57.667	-0.201	0.089
-589.938	665.445	-0.057	0.149
-588.923	-105.353	-0.275	-0.063
-587.909	-200.000	0.004	0.111
-586.894	56.373	-0.165	0.163
-585.879	-190.226	-0.103	0.001
-584.865	-184.718	-0.137	0.002
-583.850	-121.246	-0.020	0.003
-582.836	-95.592	0.182	0.050
-581.821	-110.933	-0.290	-0.061
-580.806	-200.000	-0.079	-0.371
-579.792	22.576	-0.122	-0.101
-578.777	-82.362	0.241	-0.080
-577.763	800.000	0.027	0.087
-576.748	-62.749	0.184	0.077
-575.733	232.018	0.109	0.181
-574.719	800.000	0.077	0.261
-573.704	149.817	-0.070	-0.097
-572.690	-160.021	0.196	0.011
-571.675	-93.091	0.284	0.080
-570.661	165.322	0.096	-0.138
-569.646	-144.761	-0.259	0.024
-568.631	49.593	-0.126	-0.120
-567.617	800.000	0.051	-0.146
-566.602	686.126	-0.125	-0.332
-565.588	-200.000	-0.035	0.195
-564.573	-160.927	-0.364	-0.019
-563.558	800.000	-0.071	-0.225
-562.544	-138.419	-0.162	0.018
-561.529	-28.502	0.248	-0.145
-560.515	112.472	-0.111	0.136
-559.500	7.059	-0.249	-0.188
-558.485	-79.185	-0.176	-0.061
-557.471	-88.598	0.335	-0.101
-556.456	193.888	0.169	0.259
-555.442	-31.438	-0.200	-0.114
-554.427	-200.000	-0.030	-0.198
-553.412	142.275	-0.017	0.023
-552.398	-92.249	0.185	0.053
-551.383	71.337	0.089	0.094
-550.369	-200.000	0.085	0.425
-549.354	-87.253	0.216	-0.066
-548.339	-118.778	0.042	-0.008
-547.325	-22.598	0.112	-0.069
-546.310	-142.114	0.167	-0.017
-545.296	-23.761	-0.215	0.130
-544.281	-75.013	-0.250	0.091
-543.266	-159.003	0.210	-0.012
-542.252	800.000	-0.040	0.124
-541.237	40.546	0.134	0.122
-540.223	800.000	-0.016	-0.052
-539.208	-159.585	-0.233	-0.013
-538.193	302.391	0.049	0.092
-537.179	274.518	0.074	0.132
-536.164	31.134	0.340	0.296
-535.150	-42.882	-0.161	0.083
-534.135	-200.000	0.003	-0.150
-533.121	660.511	-0.080	0.207
-532.106	25.382	0.156	0.132
-531.091	-61.351	0.165	0.070
-530.077	800.000	-0.017	-0.064
-529.062	-144.051	0.246	0.023
-528.048	579.434	0.163	-0.405
-527.033	50.191	0.154	-0.147
-526.018	-200.000	-0.023	-0.158
-525.004	582.160	0.106	-0.264
-523.989	68.071	0.194	-0.201
-522.975	76.665	0.124	-0.133
-521.960	-200.000	0.028	-0.389
-520.945	97.844	-0.233	-0.271
-519.931	-42.232	0.199	-0.103
-518.916	53.271	0.262	-0.255
-517.902	-147.424	0.182	0.016
-516.887	-138.960	-0.084	-0.009
-515.872	119.939	-0.085	-0.107
-514.858	641.136	0.014	-0.035
-513.843	-104.725	0.185	-0.043
-512.829	800.000	0.043	0.153
-511.814	-14.259	-0.073	0.047
-510.799	-200.000	-0.040	0.221
-509.785	-62.596	0.235	0.099
-508.770	359.947	0.217	-0.440
-507.756	120.261	-0.290	-0.364
-506.741	646.823	0.050	-0.129
-505.726	-44.600	-0.240	0.121
-504.712	59.708	0.073	0.073
-503.697	-7.399	-0.185	0.127
-502.683	-41.053	0.167	-0.087
-501.668	98.600	-0.176	0.206
-500.653	-200.000	0.283	0.000
-499.639	800.000	0.106	-0.333
-498.624	800.000	-0.092	-0.302
-497.610	-57.777	0.325	0.144
-496.595	800.000	0.088	0.345
-495.581	-22.986	0.202	-0.123
-494.566	-57.498	-0.081	0.036
-493.551	7.705	-0.123	0.093
-492.537	-200.000	-0.051	-0.385
-491.522	-200.000	0.025	0.304
-490.508	598.856	-0.067	0.167
-489.493	133.226	-0.238	-0.311
-488.478	40.679	0.041	-0.037
-487.464	348.979	-0.250	-0.498
-486.449	233.524	-0.061	-0.101
-485.435	-200.000	0.021	0.173
-484.420	191.827	0.071	-0.108
-483.405	800.000	-0.057	-0.208
-482.391	-118.859	0.077	0.014
-481.376	-200.000	-0.012	-0.091
-480.362	-200.000	-0.038	0.279
-479.347	472.189	-0.165	0.376
-478.332	269.670	0.138	-0.246
-477.318	-200.000	-0.088	0.452
-476.303	707.141	0.067	0.180
-475.289	-200.000	0.004	0.462
-474.274	229.617	-0.132	0.217
-473.259	-103.772	-0.209	-0.049
-472.245	15.183	0.068	-0.054
-471.230	184.200	-0.150	-0.225
-470.216	217.577	0.105	0.170
-469.201	-53.855	-0.074	-0.034
-468.186	-84.355	-0.175	-0.056
-467.172	-200.000	0.087	0.000
-466.157	-58.478	0.113	-0.049
-465.143	110.209	-0.221	-0.268
-464.128	103.705	-0.153	-0.181
-463.113	73.991	0.068	0.072
-462.099	-200.000	0.014	-0.108
-461.084	-85.024	0.240	-0.076
-460.070	87.125	-0.061	-0.068
-459.055	170.210	-0.044	-0.063
-458.040	800.000	-0.004	0.018
-457.026	24.576	-0.045	-0.038
-456.011	-200.000	0.008	0.243
-454.997	119.562	0.173	-0.216
-453.982	-200.000	-0.015	0.222
-452.968	-144.489	0.095	0.009
-451.953	305.619	-0.002	0.004
-450.938	-99.212	0.254	-0.065
-449.924	80.226	0.268	-0.291
-448.909	-200.000	0.039	-0.426
-447.895	44.137	-0.104	-0.096
-446.880	-47.189	0.386	0.190
-445.865	20.252	-0.128	0.104
-444.851	213.478	-0.116	-0.185
-443.836	39.167	-0.038	-0.035
-442.822	800.000	-0.045	-0.170
-441.807	-65.027	-0.175	0.071
-440.792	-200.000	-0.036	0.170
-439.778	-200.000	0.018	0.159
-438.763	800.000	-0.003	-0.013
-437.749	800.000	-0.073	0.235
-436.734	-113.510	0.305	0.060
-435.719	-6.999	-0.133	0.091
-434.705	774.911	-0.038	-0.103
-433.690	93.397	-0.153	0.175
-432.676	107.497	0.244	0.293
-431.661	-39.317	-0.230	-0.122
-430.646	505.561	-0.109	-0.254
-429.632	-121.665	0.262	-0.044
-428.617	106.836	0.156	0.186
-427.603	50.338	0.292	-0.279
-426.588	87.300	-0.082	0.092
-425.573	-77.297	0.060	-0.021
-424.559	344.968	-0.098	-0.194
-423.544	-59.755	-0.124	0.054
-422.530	-200.000	0.030	0.196
-421.515	-74.998	0.098	-0.035
-420.500	5.134	-0.124	0.092
-419.486	-200.000	-0.013	-0.391
-418.471	187.671	0.246	0.371
-417.457	120.551	0.218	0.273
-416.442	800.000	0.040	0.163
-415.428	247.669	-0.162	-0.277
-414.413	800.000	0.125	0.379
-413.398	77.604	0.190	-0.203
-412.384	31.273	-0.117	-0.101
-411.369	51.166	0.135	0.129
-410.355	800.000	-0.054	0.186
-409.340	82.121	0.104	0.114
-408.325	-34.197	-0.080	-0.044
-407.311	-200.000	0.027	0.143
-406.296	53.729	-0.275	0.266
-405.282	115.298	-0.207	0.255
-404.267	33.136	-0.221	-0.193
-403.252	97.628	0.202	0.234
-402.238	98.990	-0.074	-0.086
-401.223	62.929	0.090	0.090
-400.209	-200.000	-0.008	-0.081
-399.194	-64.555	0.147	0.060
-398.179	494.442	-0.045	-0.105
-397.165	597.700	-0.025	0.061
-396.150	-200.000	-0.005	0.051
-395.136	-150.893	0.268	0.020
-394.121	-69.488	0.207	-0.080
-393.106	-125.461	0.111	0.017
-392.092	196.845	0.028	0.043
-391.077	800.000	0.074	0.315
-390.063	19.980	0.128	-0.104
-389.048	-106.202	-0.160	-0.036
-388.033	-200.000	-0.017	-0.150
-387.019	296.385	-0.028	-0.052
-386.004	-10.495	0.322	0.215
-384.990	139.480	0.095	0.126
-383.975	-200.000	-0.003	-0.172
-382.960	654.918	0.154	-0.397
-381.946	283.581	0.177	0.320
-380.931	426.830	-0.047	0.102
-379.917	119.670	0.172	-0.214
-378.902	59.441	-0.152	-0.151
-377.888	428.452	-0.115	-0.251
-376.873	-157.115	-0.066	-0.004
-375.858	11.021	0.124	0.095
-374.844	-200.000	0.029	0.243
-373.829	800.000	-0.122	-0.365
-372.815	271.011	0.136	-0.241
-371.800	-200.000	-0.037	-0.345
-370.785	800.000	-0.030	0.099
-369.771	512.062	0.130	0.304
-368.756	-200.000	0.013	0.060
-367.742	-55.801	-0.271	-0.122
-366.727	298.386	0.022	0.041
-365.712	-200.000	-0.021	-0.264
-364.698	-187.255	-0.367	0.005
-363.683	218.841	-0.056	-0.090
-362.669	49.924	-0.341	0.323
-361.654	-75.208	0.213	0.077
-360.639	223.039	-0.184	0.298
-359.625	-77.733	0.151	0.052
-358.610	-114.971	-0.193	0.037
-357.596	-38.520	0.089	-0.047
-356.581	-34.742	0.204	-0.112
-355.566	-38.620	-0.226	-0.120
-354.552	218.781	0.135	-0.217
-353.537	-168.182	-0.118	0.005
-352.523	-82.219	0.259	-0.085
-351.508	-200.000	-0.045	0.306
-350.493	34.597	-0.036	0.032
-349.479	402.693	-0.054	0.115
-348.464	-97.248	-0.239	-0.063
-347.450	213.376	0.072	0.115
-346.435	262.354	0.156	0.271
-345.420	226.940	0.087	-0.142
-344.406	-200.000	-0.005	-0.416
-343.391	800.000	0.135	-0.382
-342.377	-50.544	0.126	-0.060
-341.362	-26.109	-0.112	0.066
-340.348	-200.000	0.001	-0.252
-339.333	800.000	0.040	-0.136
-338.318	38.717	-0.086	0.077
-337.304	-200.000	0.031	0.332
-336.289	-0.426	-0.283	0.202
-335.275	-200.000	-0.005	-0.111
-334.260	-123.291	-0.227	-0.037
-333.245	-200.000	0.010	-0.069
-332.231	31.763	-0.098	-0.085
-331.216	23.556	0.158	0.131
-330.202	-200.000	-0.010	-0.108
-329.187	439.059	0.188	0.413
-328.172	-88.920	-0.441	0.131
-327.158	-170.350	0.345	0.012
-326.143	800.000	0.017	-0.068
-325.129	584.134	-0.038	0.094
-324.114	8.036	-0.152	-0.114
-323.099	800.000	0.106	0.454
-322.085	-27.054	-0.114	0.067
-321.070	-94.849	0.136	0.037
-320.056	95.255	0.090	0.102
-319.041	389.457	-0.091	0.190
-318.026	-200.000	0.003	0.084
-317.012	30.125	-0.057	-0.049
-315.997	-200.000	0.051	-0.358
-314.983	37.898	0.255	-0.228
-313.968	-91.936	0.438	0.125
-312.953	119.491	0.169	0.210
-311.939	-200.000	-0.004	-0.026
-310.924	-200.000	-0.008	0.214
-309.910	-149.994	-0.075	0.006
-308.895	-17.654	0.158	-0.100
-307.880	800.000	0.057	0.183
-306.866	-37.421	-0.161	-0.086
-305.851	800.000	-0.026	-0.080
-304.837	-72.229	0.061	-0.023
-303.822	800.000	0.011	-0.034
-302.807	-126.529	-0.173	-0.026
-301.793	29.906	-0.073	0.063
-300.778	120.752	-0.213	0.266
-299.764	289.267	-0.035	-0.064
-298.749	204.799	0.016	0.025
-297.735	800.000	0.089	-0.313
-296.720	-73.810	-0.100	0.037
-295.705	-200.000	0.032	-0.186
-294.691	-182.295	-0.191	-0.004
-293.676	800.000	-0.041	-0.137
-292.662	398.215	-0.079	-0.165
-291.647	351.521	-0.048	-0.095
-290.632	-200.000	-0.069	-0.324
-289.618	149.357	-0.099	-0.134
-288.603	800.000	0.017	0.068
-287.589	146.705	-0.139	0.187
-286.574	-41.814	-0.117	0.060
-285.559	-17.704	-0.144	-0.091
-284.545	-27.085	0.056	0.033
-283.530	357.974	0.154	-0.308
-282.516	58.324	-0.207	-0.204
-281.501	-200.000	-0.006	0.088
-280.486	-11.459	0.259	-0.171
-279.472	-200.000	0.064	0.352
-278.457	-132.241	-0.252	0.033
-277.443	-91.509	0.248	-0.071
-276.428	73.622	-0.171	-0.179
-275.413	800.000	0.117	0.434
-274.399	41.007	-0.064	0.058
-273.384	96.686	0.048	0.055
-272.370	-56.244	-0.270	0.120
-271.355	-200.000	0.018	-0.085
-270.340	-34.010	0.129	0.071
-269.326	-120.836	0.256	-0.043
-268.311	-55.837	-0.243	-0.109
-267.297	-46.135	0.230	0.114
-266.282	-58.060	-0.265	0.116
-265.267	-200.000	-0.004	-0.023
-264.253	-68.657	-0.101	-0.039
-263.238	800.000	0.056	-0.237
-262.224	800.000	0.075	0.230
-261.209	297.444	-0.076	-0.141
-260.195	-200.000	-0.028	0.236
-259.180	-200.000	0.028	0.267
-258.165	29.335	0.134	0.114
-257.151	-200.000	-0.021	-0.193
-256.136	441.310	0.102	-0.223
-255.122	69.807	-0.135	-0.139
-254.107	-46.192	-0.309	0.152
-253.092	121.325	-0.221	0.276
-252.078	-66.963	0.189	0.075
-251.063	342.434	0.128	0.251
-250.049	-114.102	0.263	-0.051
-249.034	456.594	-0.136	-0.302
-248.019	331.062	0.142	0.274
-247.005	-108.873	0.157	0.034
-245.990	800.000	0.075	-0.307
-244.976	-135.950	-0.181	-0.021
-243.961	-43.847	0.266	0.134
-242.946	-71.680	-0.083	0.031
-241.932	800.000	-0.052	-0.197
-240.917	-43.646	-0.277	-0.140
-239.903	800.000	-0.037	0.140
-238.888	84.034	0.143	0.156
-237.873	-58.852	0.261	-0.113
-236.859	192.113	-0.118	-0.177
-235.844	397.839	-0.057	0.118
-234.830	800.000	-0.100	0.313
-233.815	-56.039	0.086	0.039
-232.800	-65.232	-0.290	-0.117
-231.786	790.449	0.073	-0.202
-230.771	-55.955	0.258	-0.115
-229.757	800.000	0.035	-0.127
-228.742	-172.656	-0.183	0.006
-227.727	461.197	-0.034	-0.075
-226.713	-200.000	-0.018	0.210
-225.698	30.094	-0.130	0.111
-224.684	800.000	0.048	0.182
-223.669	800.000	0.106	0.303
-222.655	86.570	0.239	-0.263
-221.640	-102.712	0.057	0.014
-220.625	-200.000	0.012	0.172
-219.611	-93.867	-0.475	0.131
-218.596	800.000	0.093	-0.271
-217.582	103.522	0.143	-0.168
-216.567	4.241	0.375	-0.274
-215.552	-48.911	0.147	-0.070
-214.538	167.806	-0.223	0.317
-213.523	81.670	0.197	-0.213
-212.509	800.000	-0.111	-0.361
-211.494	460.804	-0.020	-0.044
-210.479	462.323	0.033	-0.073
-209.465	-200.000	-0.039	-0.266
-208.450	-15.674	0.109	-0.069
-207.436	11.082	-0.045	0.034
-206.421	50.490	0.165	-0.156
-205.406	206.239	-0.163	-0.254
-204.392	-200.000	0.001	0.376
-203.377	800.000	0.084	0.351
-202.363	-106.662	-0.037	-0.008
-201.348	-35.500	0.201	0.109
-200.333	-89.920	0.041	0.012
-199.319	-200.000	-0.052	0.298
-198.304	-45.123	0.225	0.112
-197.290	-123.508	0.115	0.018
-196.275	-61.440	-0.159	0.067
-195.260	-97.368	-0.086	-0.022
-194.246	-131.144	0.159	0.021
-193.231	542.050	-0.074	-0.175
-192.217	276.159	-0.221	-0.392
-191.202	198.207	0.134	-0.204
-190.187	-200.000	-0.001	0.197
-189.173	-60.890	-0.227	0.096
-188.158	310.299	-0.070	0.130
-187.144	-62.036	-0.236	-0.098
-186.129	-200.000	0.028	0.180
-185.114	236.108	0.123	-0.203
-184.100	-200.000	0.009	-0.416
-183.085	313.617	-0.055	0.104
-182.071	-9.914	0.114	0.075
-181.056	-139.443	-0.265	0.028
-180.042	45.967	-0.018	-0.016
-179.027	-11.787	-0.068	0.044
-178.012	282.852	0.081	0.146
-176.998	271.075	-0.076	0.133
-175.983	169.488	0.057	0.081
-174.969	-190.513	0.151	0.002
-173.954	-200.000	-0.057	0.330
-172.939	157.896	0.208	-0.287
-171.925	-100.048	-0.278	0.069
-170.910	-149.491	-0.124	-0.010
-169.896	-146.524	-0.323	-0.028
-168.881	-200.000	0.006	0.131
-167.866	-54.850	-0.105	-0.047
-166.852	-200.000	0.016	0.118
-165.837	547.042	-0.033	-0.080
-164.823	250.892	0.080	0.136
-163.808	-22.652	-0.305	-0.184
-162.793	272.374	-0.010	-0.017
-161.779	-200.000	-0.054	-0.246
-160.764	518.667	0.141	0.331
-159.750	112.851	-0.045	0.054
-158.735	-33.214	0.080	-0.044
-157.720	111.480	-0.009	-0.011
-156.706	-138.370	-0.148	0.016
-155.691	-200.000	0.018	-0.244
-154.677	800.000	0.090	0.305
-153.662	151.119	0.014	-0.019
-152.647	-149.186	-0.277	-0.022
-151.633	53.394	-0.179	0.171
-150.618	800.000	0.082	0.230
-149.604	-200.000	-0.002	-0.012
-148.589	-176.060	-0.276	0.007
-147.574	54.991	0.221	-0.213
-146.560	-200.000	-0.009	-0.411
-145.545	227.112	-0.138	-0.224
-144.531	-74.023	0.280	-0.101
-143.516	355.981	-0.142	-0.281
-142.502	-57.344	0.277	0.121
-141.487	-9.627	0.387	-0.258
-140.472	800.000	-0.141	-0.434
-139.458	74.930	0.286	0.301
-138.443	-200.000	0.047	-0.211
-137.429	-56.965	-0.115	-0.051
-136.414	-77.645	0.330	0.114
-135.399	-6.035	-0.246	0.168
-134.385	376.826	-0.106	0.215
-133.370	-37.760	-0.170	0.090
-132.356	-113.304	0.240	-0.047
-131.341	-151.192	-0.191	-0.014
-130.326	48.913	0.060	0.056
-129.312	-24.817	0.444	-0.263
-128.297	253.942	-0.046	0.078
-127.283	-56.675	-0.241	-0.106
-126.268	248.550	0.210	-0.355
-125.253	737.080	-0.151	-0.404
-124.239	-200.000	0.037	0.250
-123.224	800.000	0.029	0.112
-122.210	14.882	0.027	0.021
-121.195	-12.668	0.178	-0.116
