DTS Sentinel unit serial number:	SN413079Multiplexer serial number:	ORYXHardware model number:	OX4-SRSoftware version number:	ORYX F/W v4.00 Oryx Data Collector v3.7.2.0data status	okinstallation	princeton_trtdifferential loss correction	single-endedforward channel	channel 4reverse channel	N/Adate	2019/09/11time	01:43:10forward acquisition time	60.00reverse acquisition time	0.00gamma	496.2192k internal	0.2318k external	0.2318temperature offset calibration	0.9949default loss term (dB/km)	0.3790temperature slope calibration	1.0000multiplexer offset coefficient	1.0000multiplexer slope coefficient	1.0000fibre end	0.00T internal ref (°C)	29.19T ext. ref 1 (°C)	-0.31T ext. ref 2 (°C)	23.32length (m)	temperature (°C)	Stokes	anti-Stokes-747.200	-200.000	0.004	0.081
-746.185	-39.286	0.584	0.310
-745.171	-11.810	0.324	0.215
-744.156	23.494	0.211	0.176
-743.142	151.800	-0.036	-0.049
-742.127	-200.000	0.044	0.516
-741.112	441.731	0.034	0.076
-740.098	29.147	-0.134	-0.115
-739.083	-200.000	0.004	-0.146
-738.069	-35.506	-0.282	0.155
-737.054	55.039	-0.068	0.066
-736.039	-113.946	0.118	0.023
-735.025	-35.098	0.217	-0.120
-734.010	9.021	0.274	-0.209
-732.996	-200.000	0.056	-0.456
-731.981	97.272	0.187	-0.217
-730.966	35.623	-0.137	-0.121
-729.952	-141.816	-0.226	0.023
-728.937	-35.623	-0.304	-0.167
-727.923	800.000	-0.040	0.133
-726.908	521.520	0.035	-0.083
-725.894	-79.191	-0.212	0.073
-724.879	310.212	-0.023	-0.043
-723.864	-179.587	-0.183	-0.004
-722.850	395.774	0.096	-0.202
-721.835	-145.883	-0.251	-0.023
-720.821	-101.036	0.173	0.043
-719.806	-51.290	-0.170	-0.081
-718.791	21.023	0.141	-0.115
-717.777	282.032	-0.082	-0.149
-716.762	34.612	-0.354	0.313
-715.748	-200.000	-0.005	-0.098
-714.733	198.209	-0.297	-0.459
-713.718	80.396	0.173	-0.188
-712.704	-46.960	0.130	0.064
-711.689	740.055	0.034	0.093
-710.675	-119.989	-0.228	0.040
-709.660	-200.000	-0.028	-0.297
-708.645	584.071	0.151	-0.375
-707.631	61.803	-0.051	-0.051
-706.616	352.399	0.054	-0.108
-705.602	-119.742	0.101	-0.018
-704.587	-129.757	-0.307	0.043
-703.572	22.048	-0.093	-0.076
-702.558	-48.411	0.149	0.073
-701.543	-200.000	0.206	-0.001
-700.529	-43.286	0.097	-0.049
-699.514	-7.333	-0.099	-0.068
-698.499	-162.048	-0.243	-0.012
-697.485	-125.307	0.275	0.043
-696.470	90.363	-0.068	0.077
-695.456	-200.000	-0.005	-0.124
-694.441	26.920	-0.146	0.123
-693.426	-99.496	0.072	-0.018
-692.412	-200.000	-0.051	-0.253
-691.397	74.512	0.166	-0.176
-690.383	-174.774	0.262	-0.007
-689.368	-200.000	0.039	-0.478
-688.354	-154.993	0.191	0.013
-687.339	-88.796	0.085	0.026
-686.324	-200.000	0.002	-0.056
-685.310	25.838	-0.181	0.152
-684.295	66.001	0.123	-0.126
-683.281	-142.925	0.330	0.032
-682.266	-200.000	0.012	-0.178
-681.251	44.915	-0.093	0.087
-680.237	323.800	-0.069	0.133
-679.222	214.702	0.083	-0.133
-678.208	119.615	-0.065	-0.081
-677.193	41.572	0.334	-0.306
-676.178	-8.057	0.305	-0.207
-675.164	346.596	-0.109	0.215
-674.149	52.681	-0.194	-0.187
-673.135	-7.618	-0.156	-0.106
-672.120	-26.569	0.142	-0.084
-671.105	-20.081	0.338	0.210
-670.091	37.423	-0.122	-0.109
-669.076	-104.091	-0.295	0.069
-668.062	-5.655	0.165	-0.114
-667.047	-200.000	0.000	-0.056
-666.032	63.535	-0.145	-0.147
-665.018	118.303	0.144	0.179
-664.003	20.428	0.076	0.062
-662.989	760.544	-0.101	-0.277
-661.974	122.748	-0.251	-0.316
-660.959	84.847	-0.121	0.133
-659.945	34.161	0.090	0.079
-658.930	586.641	0.084	-0.209
-657.916	-164.998	-0.391	0.018
-656.901	-111.888	0.093	0.019
-655.886	-200.000	0.022	0.112
-654.872	365.070	0.111	-0.226
-653.857	-28.397	0.071	-0.041
-652.843	-136.354	-0.180	-0.021
-651.828	-18.739	-0.333	-0.209
-650.814	75.674	-0.081	0.086
-649.799	800.000	0.068	-0.255
-648.784	800.000	-0.091	-0.333
-647.770	-200.000	0.006	-0.204
-646.755	94.863	-0.253	-0.290
-645.741	75.257	0.142	0.151
-644.726	800.000	-0.033	-0.137
-643.711	-140.170	-0.304	-0.032
-642.697	-34.085	0.339	-0.188
-641.682	-67.419	0.168	0.067
-640.668	580.382	0.041	0.100
-639.653	762.401	0.097	0.264
-638.638	-200.000	0.036	0.305
-637.624	-49.176	-0.221	-0.106
-636.609	-103.553	0.345	0.082
-635.595	-37.154	-0.050	0.027
-634.580	-140.701	-0.104	-0.011
-633.565	-19.713	0.196	0.122
-632.551	-60.918	-0.314	0.134
-631.536	800.000	0.061	-0.239
-630.522	129.201	0.135	-0.173
-629.507	-63.495	0.224	0.093
-628.492	-3.912	0.160	-0.112
-627.478	-18.073	0.233	0.147
-626.463	-200.000	-0.005	-0.068
-625.449	800.000	0.037	-0.105
-624.434	-200.000	-0.066	0.449
-623.419	660.597	0.054	-0.141
-622.405	-200.000	-0.031	0.338
-621.390	-200.000	-0.005	0.387
-620.376	-200.000	0.252	0.001
-619.361	46.527	0.172	-0.160
-618.346	266.746	0.089	0.157
-617.332	-189.910	-0.226	-0.003
-616.317	45.842	-0.172	-0.160
-615.303	-118.288	-0.212	0.038
-614.288	-190.057	-0.300	0.003
-613.273	-200.000	0.037	-0.266
-612.259	-123.786	-0.124	0.020
-611.244	-200.000	-0.003	0.132
-610.230	13.930	-0.103	0.081
-609.215	-7.802	-0.233	-0.158
-608.201	-151.228	-0.040	-0.003
-607.186	-46.809	0.113	-0.055
-606.171	12.108	-0.089	0.069
-605.157	-1.654	0.236	-0.167
-604.142	-99.305	0.157	-0.040
-603.128	-126.633	-0.224	-0.033
-602.113	800.000	-0.110	-0.336
-601.098	-200.000	-0.029	0.163
-600.084	297.623	0.089	-0.164
-599.069	-101.066	0.194	0.048
-598.055	-83.799	0.387	0.124
-597.040	-163.760	0.200	0.009
-596.025	104.650	0.094	-0.112
-595.011	-200.000	-0.047	0.381
-593.996	309.892	0.152	-0.287
-592.982	-42.637	-0.312	0.160
-591.967	-2.299	0.102	-0.072
-590.952	-85.744	-0.174	-0.054
-589.938	47.444	0.387	-0.363
-588.923	-200.000	-0.101	-0.483
-587.909	238.498	0.127	-0.212
-586.894	-162.028	-0.139	0.007
-585.879	800.000	-0.040	0.173
-584.865	-58.760	0.135	0.059
-583.850	-136.043	-0.300	0.035
-582.836	374.219	-0.045	-0.093
-581.821	800.000	0.083	-0.317
-580.806	800.000	-0.062	0.273
-579.792	-34.045	-0.224	-0.124
-578.777	-168.019	-0.289	0.011
-577.763	122.929	0.071	0.089
-576.748	457.619	0.043	-0.096
-575.733	409.563	-0.129	-0.275
-574.719	-93.139	0.127	-0.036
-573.704	210.569	0.153	0.241
-572.690	31.127	-0.269	0.232
-571.675	158.702	-0.027	-0.038
-570.661	-200.000	0.065	-0.299
-569.646	265.319	0.027	-0.047
-568.631	-90.599	0.100	0.029
-567.617	-148.399	-0.398	0.033
-566.602	-200.000	-0.012	0.458
-565.588	55.300	0.225	0.219
-564.573	-66.708	-0.222	0.088
-563.558	19.138	0.165	-0.133
-562.544	224.846	0.148	0.241
-561.529	233.999	-0.104	-0.172
-560.515	-24.044	-0.275	0.165
-559.500	-32.561	-0.061	0.034
-558.485	108.300	-0.096	-0.116
-557.471	-46.300	0.180	0.089
-556.456	-156.256	0.093	0.006
-555.442	-158.364	-0.458	-0.027
-554.427	130.946	-0.184	-0.237
-553.412	16.258	-0.234	0.186
-552.398	-69.394	0.402	-0.155
-551.383	-91.028	-0.265	0.076
-550.369	-14.633	0.235	0.152
-549.354	800.000	-0.089	-0.274
-548.339	-146.630	-0.121	-0.011
-547.325	-132.905	-0.184	0.024
-546.310	-52.402	-0.201	0.094
-545.296	-12.985	0.336	-0.219
-544.281	59.012	0.168	-0.165
-543.266	-12.960	-0.300	-0.196
-542.252	800.000	0.079	0.278
-541.237	243.568	-0.127	-0.214
-540.223	-110.343	0.228	-0.048
-539.208	676.954	-0.014	-0.036
-538.193	-57.868	-0.250	-0.110
-537.179	800.000	0.057	0.164
-536.164	267.208	0.171	-0.301
-535.150	23.155	-0.142	0.117
-534.135	-89.087	0.163	0.048
-533.121	-153.313	-0.441	-0.031
-532.106	-161.041	-0.280	-0.015
-531.091	88.787	0.072	0.081
-530.077	93.302	0.269	0.305
-529.062	-130.833	0.214	0.029
-528.048	-162.998	-0.437	-0.021
-527.033	-152.036	-0.289	0.021
-526.018	-200.000	-0.033	0.157
-525.004	174.754	-0.016	-0.023
-523.989	800.000	0.019	-0.072
-522.975	-83.740	0.136	-0.043
-521.960	-38.308	-0.125	-0.066
-520.945	-188.694	-0.225	0.003
-519.931	-55.750	0.330	-0.148
-518.916	-70.259	-0.270	0.103
-517.902	-47.414	-0.124	-0.061
-516.887	-54.206	-0.234	-0.106
-515.872	178.698	0.102	0.149
-514.858	800.000	-0.045	0.135
-513.843	-132.234	-0.513	-0.067
-512.829	-92.048	0.262	0.074
-511.814	-28.969	-0.239	-0.138
-510.799	-200.000	0.012	0.110
-509.785	470.922	-0.106	-0.239
-508.770	800.000	-0.046	0.178
-507.756	-88.174	0.157	0.047
-506.741	216.513	-0.114	-0.183
-505.726	41.271	-0.286	0.259
-504.712	-91.778	0.152	-0.043
-503.697	154.505	0.275	-0.378
-502.683	666.635	-0.132	0.343
-501.668	800.000	-0.096	-0.275
-500.653	206.478	0.193	-0.302
-499.639	-7.459	-0.100	-0.068
-498.624	-159.717	0.096	0.005
-497.610	136.476	-0.046	-0.060
-496.595	800.000	0.070	-0.237
-495.581	172.800	0.247	0.356
-494.566	-33.570	0.271	0.150
-493.551	-47.210	0.092	-0.045
-492.537	292.005	-0.088	-0.160
-491.522	800.000	0.046	-0.131
-490.508	800.000	0.101	-0.378
-489.493	13.829	0.117	-0.091
-488.478	-52.172	-0.102	0.048
-487.464	678.475	-0.140	-0.365
-486.449	-23.201	-0.166	0.100
-485.435	272.080	-0.079	-0.139
-484.420	258.472	-0.164	0.282
-483.405	10.196	-0.024	-0.018
-482.391	40.105	-0.171	-0.154
-481.376	-49.238	0.340	-0.163
-480.362	181.009	-0.110	0.161
-479.347	-40.605	-0.160	0.083
-478.332	-200.000	0.007	0.291
-477.318	-200.000	-0.028	0.136
-476.303	-200.000	-0.074	-0.364
-475.289	-200.000	0.044	-0.212
-474.274	-168.338	0.382	-0.015
-473.259	435.602	-0.068	-0.147
-472.245	-173.602	-0.179	-0.005
-471.230	800.000	-0.033	0.123
-470.216	-200.000	0.047	-0.250
-469.201	-115.123	-0.311	-0.059
-468.186	-122.707	-0.127	0.021
-467.172	-200.000	0.028	-0.315
-466.157	-111.169	0.156	-0.032
-465.143	800.000	-0.013	-0.042
-464.128	-200.000	-0.051	-0.298
-463.113	-77.637	-0.260	0.090
-462.099	-72.838	-0.264	0.097
-461.084	160.962	0.257	0.359
-460.070	-156.922	0.063	-0.004
-459.055	-25.490	-0.224	-0.132
-458.040	-145.891	0.319	-0.028
-457.026	-168.126	-0.060	0.002
-456.011	-200.000	0.016	0.218
-454.997	281.572	-0.032	0.058
-453.982	291.316	-0.190	0.346
-452.968	-146.196	0.088	-0.008
-451.953	800.000	0.138	0.572
-450.938	8.174	0.062	0.046
-449.924	-200.000	0.024	0.223
-448.909	-49.751	-0.053	0.025
-447.895	188.111	-0.095	-0.142
-446.880	159.852	0.085	0.118
-445.865	-96.931	0.174	-0.046
-444.851	-156.066	0.255	0.016
-443.836	-16.801	-0.252	-0.160
-442.822	-104.176	-0.217	0.050
-441.807	-45.391	0.294	0.146
-440.792	-87.991	-0.078	0.024
-439.778	-112.891	0.075	-0.015
-438.763	432.466	0.078	0.170
-437.749	-125.637	0.070	-0.011
-436.734	89.214	-0.066	-0.073
-435.719	800.000	0.048	0.179
-434.705	12.127	0.065	0.050
-433.690	-66.260	-0.226	-0.090
-432.676	178.092	0.077	0.113
-431.661	274.495	0.071	-0.125
-430.646	800.000	-0.038	-0.115
-429.632	-200.000	-0.003	0.140
-428.617	45.425	-0.308	-0.284
-427.603	800.000	-0.062	0.199
-426.588	-36.715	-0.232	-0.124
-425.573	-200.000	0.036	-0.305
-424.559	-200.000	0.026	-0.297
-423.544	56.215	-0.189	0.184
-422.530	-200.000	-0.023	-0.107
-421.515	-118.800	0.197	0.035
-420.500	-200.000	-0.007	-0.281
-419.486	-158.162	-0.123	0.007
-418.471	51.667	0.139	-0.133
-417.457	738.365	-0.024	-0.064
-416.442	-200.000	0.000	-0.172
-415.428	477.532	-0.137	-0.310
-414.413	800.000	-0.102	0.325
-413.398	206.263	-0.104	0.162
-412.384	-97.619	0.014	0.004
-411.369	434.580	0.102	-0.222
-410.355	160.603	-0.093	-0.129
-409.340	402.353	-0.077	0.162
-408.325	134.329	-0.147	0.190
-407.311	39.782	0.400	-0.359
-406.296	201.555	-0.116	0.178
-405.282	27.426	-0.079	0.066
-404.267	-69.953	0.195	-0.074
-403.252	310.056	-0.047	-0.088
-402.238	-135.544	0.262	-0.031
-401.223	-52.983	-0.133	0.061
-400.209	800.000	-0.106	-0.343
-399.194	140.730	-0.158	-0.209
-398.179	308.052	-0.114	0.212
-397.165	380.891	0.042	0.085
-396.150	97.909	-0.117	0.135
-395.136	16.457	0.144	-0.114
-394.121	-200.000	-0.064	-0.300
-393.106	800.000	-0.041	0.132
-392.092	800.000	0.047	0.179
-391.077	181.919	0.194	0.285
-390.063	-200.000	-0.053	-0.319
-389.048	103.929	-0.263	0.308
-388.033	-77.845	-0.187	0.065
-387.019	-143.094	-0.184	-0.018
-386.004	140.552	0.171	0.225
-384.990	-114.418	0.262	0.050
-383.975	26.063	-0.063	-0.052
-382.960	-57.996	0.318	0.139
-381.946	-65.939	0.151	-0.060
-380.931	514.372	0.064	-0.148
-379.917	-164.470	0.318	0.014
-378.902	30.666	0.197	-0.169
-377.888	8.000	0.349	-0.261
-376.873	306.327	0.157	0.291
-375.858	-59.991	0.347	-0.148
-374.844	189.370	0.175	-0.261
-373.829	81.307	0.257	-0.277
-372.815	-143.391	-0.318	0.030
-371.800	800.000	-0.072	-0.218
-370.785	-200.000	-0.048	0.249
-369.771	515.638	-0.021	0.049
-368.756	-147.044	-0.253	0.022
-367.742	-52.559	0.061	-0.028
-366.727	-200.000	-0.002	0.021
-365.712	504.944	0.082	0.189
-364.698	-168.643	0.408	-0.015
-363.683	20.179	0.124	-0.100
-362.669	-200.000	0.095	-0.445
-361.654	-36.271	0.066	-0.035
-360.639	147.235	0.179	0.240
-359.625	-200.000	0.060	0.516
-358.610	-142.765	0.244	0.024
-357.596	-200.000	0.001	-0.129
-356.581	44.081	-0.163	-0.149
-355.566	-113.862	0.298	-0.058
-354.552	-9.522	0.112	0.074
-353.537	-183.269	0.436	-0.008
-352.523	-174.448	-0.195	0.006
-351.508	-63.100	0.175	0.072
-350.493	800.000	-0.059	0.254
-349.479	-113.390	0.372	0.073
-348.464	164.094	-0.177	-0.249
-347.450	-200.000	-0.014	-0.116
-346.435	580.845	0.085	0.209
-345.420	-71.521	0.127	0.047
-344.406	-52.483	0.203	-0.094
-343.391	-138.139	-0.228	-0.025
-342.377	-78.305	0.195	0.067
-341.362	800.000	-0.020	0.068
-340.348	-184.360	0.393	-0.006
-339.333	-20.209	-0.375	0.230
-338.318	11.872	-0.284	-0.217
-337.304	-137.112	-0.359	0.041
-336.289	-5.326	0.079	0.054
-335.275	470.522	0.054	-0.121
-334.260	-116.195	0.321	-0.059
-333.245	147.489	0.083	0.111
-332.231	-80.817	-0.153	-0.050
-331.216	82.458	-0.068	-0.074
-330.202	67.651	0.172	-0.175
-329.187	-200.000	-0.037	-0.424
-328.172	653.399	-0.196	0.499
-327.158	-189.374	0.300	0.004
-326.143	195.436	-0.077	-0.116
-325.129	694.434	0.055	0.144
-324.114	157.949	0.142	0.196
-323.099	-147.886	0.333	-0.028
-322.085	-69.708	0.437	0.166
-321.070	-200.000	-0.050	-0.331
-320.056	-62.637	-0.095	0.039
-319.041	87.595	-0.075	0.083
-318.026	212.581	0.073	0.115
-317.012	-102.928	0.271	0.064
-315.997	-11.997	0.196	-0.128
-314.983	346.346	-0.147	0.289
-313.968	751.137	0.053	0.141
-312.953	-170.657	-0.230	-0.008
-311.939	-43.728	-0.028	-0.014
-310.924	-143.331	-0.124	0.012
-309.910	306.528	0.100	-0.186
-308.895	-190.530	-0.198	-0.002
-307.880	17.076	-0.249	-0.196
-306.866	-134.296	0.077	-0.009
-305.851	227.460	0.105	-0.169
-304.837	227.792	0.104	-0.168
-303.822	160.508	0.026	0.036
-302.807	-200.000	-0.033	0.154
-301.793	-72.323	-0.268	0.099
-300.778	-192.062	-0.381	0.004
-299.764	-200.000	-0.013	0.077
-298.749	303.766	-0.133	0.246
-297.735	-32.934	-0.123	0.068
-296.720	-59.423	0.157	0.067
-295.705	215.652	0.089	-0.140
-294.691	-86.940	0.180	-0.054
-293.676	81.924	-0.151	0.163
-292.662	476.650	0.077	0.174
-291.647	-200.000	-0.020	-0.176
-290.632	-120.930	0.234	0.039
-289.618	59.458	0.184	-0.180
-288.603	800.000	0.009	-0.033
-287.589	-200.000	-0.046	-0.291
-286.574	-25.084	-0.202	0.119
-285.559	200.552	0.133	-0.203
-284.545	-91.058	0.337	0.096
-283.530	-154.689	-0.207	-0.014
-282.516	28.483	-0.222	0.187
-281.501	171.309	-0.195	0.278
-280.486	1.137	0.183	0.130
-279.472	85.263	-0.050	0.055
-278.457	29.867	-0.155	-0.132
-277.443	589.576	-0.087	0.212
-276.428	-4.910	-0.263	0.180
-275.413	800.000	0.073	-0.275
-274.399	-13.310	0.123	-0.079
-273.384	800.000	0.038	-0.150
-272.370	-194.310	-0.228	-0.002
-271.355	800.000	-0.087	-0.251
-270.340	696.239	0.138	0.359
-269.326	-122.653	-0.225	0.036
-268.311	168.285	0.172	-0.243
-267.297	285.738	-0.138	0.247
-266.282	800.000	0.041	0.151
-265.267	222.808	0.169	-0.271
-264.253	-22.743	-0.307	0.184
-263.238	118.672	-0.119	-0.145
-262.224	77.066	-0.150	0.158
-261.209	142.322	0.226	-0.298
-260.195	-200.000	-0.003	-0.241
-259.180	13.112	0.043	0.033
-258.165	90.466	-0.345	0.383
-257.151	-146.757	0.260	-0.022
-256.136	427.606	0.016	0.034
-255.122	538.511	0.127	-0.300
-254.107	764.100	-0.084	-0.227
-253.092	-200.000	-0.008	-0.138
-252.078	-150.232	-0.051	0.004
-251.063	-2.322	0.424	0.295
-250.049	-200.000	0.055	0.248
-249.034	-8.596	-0.159	-0.106
-248.019	545.734	0.120	0.285
-247.005	-200.000	-0.000	-0.246
-245.990	33.567	0.265	0.228
-244.976	-200.000	-0.005	0.335
-243.961	-200.000	-0.052	0.429
-242.946	-200.000	-0.031	0.314
-241.932	800.000	0.043	0.147
-240.917	5.981	-0.133	0.098
-239.903	-51.549	-0.217	0.101
-238.888	-70.165	-0.181	0.068
-237.873	-119.771	0.475	-0.081
-236.859	35.162	0.062	0.054
-235.844	748.222	-0.048	-0.130
-234.830	-55.374	-0.372	-0.166
-233.815	629.848	0.078	0.197
-232.800	330.445	0.173	0.330
-231.786	-127.170	0.195	-0.028
-230.771	-140.491	0.230	-0.024
-229.757	-170.747	-0.155	0.005
-228.742	25.596	0.171	0.141
-227.727	-81.419	0.223	-0.073
-226.713	800.000	-0.055	-0.157
-225.698	-24.599	-0.343	-0.203
-224.684	-114.438	0.185	0.035
-223.669	106.879	0.044	0.052
-222.655	64.705	-0.113	-0.113
-221.640	-97.035	-0.087	0.023
-220.625	-133.739	0.424	0.052
-219.611	57.271	-0.264	-0.256
-218.596	75.599	-0.065	0.068
-217.582	-200.000	-0.070	0.322
-216.567	-71.480	0.101	0.038
-215.552	-93.358	0.222	-0.061
-214.538	-102.741	-0.064	0.015
-213.523	107.477	-0.154	-0.182
-212.509	-92.801	-0.317	-0.088
-211.494	329.181	0.188	0.358
-210.479	625.626	0.058	-0.145
-209.465	-66.781	-0.191	-0.075
-208.450	-42.995	0.038	0.019
-207.436	-78.020	0.042	0.014
-206.421	800.000	0.059	-0.161
-205.406	800.000	0.072	0.278
-204.392	-200.000	-0.004	0.101
-203.377	-200.000	0.034	-0.336
-202.363	-115.909	0.447	0.083
-201.348	-10.377	0.180	0.118
-200.333	119.886	-0.092	-0.113
-199.319	-78.068	0.329	-0.112
-198.304	800.000	-0.105	0.335
-197.290	-89.797	0.326	-0.095
-196.275	-52.779	-0.328	-0.150
-195.260	-200.000	-0.026	-0.177
-194.246	-200.000	0.025	-0.134
-193.231	643.149	0.129	-0.326
-192.217	-68.045	-0.316	0.122
-191.202	-96.848	-0.167	-0.043
-190.187	-3.207	0.373	-0.258
-189.173	348.567	-0.132	-0.259
-188.158	-22.718	0.282	0.168
-187.144	-200.000	0.118	0.000
-186.129	-76.288	-0.324	0.113
-185.114	7.154	0.365	0.269
-184.100	342.160	-0.161	0.311
-183.085	-200.000	-0.025	0.175
-182.071	-13.932	0.280	0.179
-181.056	800.000	-0.051	-0.172
-180.042	-151.776	-0.148	0.011
-179.027	-200.000	0.004	0.273
-178.012	250.567	0.111	0.187
-176.998	300.260	0.205	-0.374
-175.983	-96.777	-0.018	-0.005
-174.969	200.626	0.189	-0.288
-173.954	800.000	-0.050	-0.191
-172.939	-74.187	-0.457	-0.164
-171.925	800.000	0.041	-0.172
-170.910	199.739	-0.068	-0.103
-169.896	-200.000	0.036	0.244
-168.881	288.198	-0.087	0.156
-167.866	428.247	-0.099	0.212
-166.852	800.000	0.007	0.021
-165.837	-122.139	-0.151	0.025
-164.823	-91.997	-0.348	-0.098
-163.808	-200.000	0.094	0.502
-162.793	-166.684	-0.295	0.012
-161.779	307.221	0.159	0.294
-160.764	356.667	-0.199	0.392
-159.750	-133.167	-0.347	0.043
-158.735	47.076	-0.129	0.119
-157.720	-191.089	-0.351	-0.004
-156.706	14.441	-0.054	-0.041
-155.691	-74.738	-0.203	-0.072
-154.677	112.394	0.137	0.164
-153.662	-80.521	0.092	0.030
-152.647	-200.000	0.010	0.112
-151.633	-96.427	0.091	-0.024
-150.618	-147.836	0.047	-0.004
-149.604	-75.622	-0.236	0.083
-148.589	51.384	0.204	-0.191
-147.574	-92.424	0.067	0.019
-146.560	-175.433	-0.073	-0.002
-145.545	-82.413	0.175	0.056
-144.531	-72.219	0.425	-0.156
-143.516	-163.047	0.143	-0.007
-142.502	-14.609	0.213	-0.135
-141.487	46.674	0.202	-0.185
-140.472	35.403	-0.334	0.290
-139.458	358.336	-0.124	-0.244
-138.443	-200.000	0.028	-0.222
-137.429	-111.800	0.229	0.046
-136.414	-102.633	0.340	0.080
-135.399	-169.575	-0.475	-0.017
-134.385	476.699	0.139	0.310
-133.370	-160.229	-0.076	-0.004
-132.356	146.629	-0.093	-0.124
-131.341	266.692	0.045	0.078
-130.326	-200.000	-0.020	0.154
-129.312	-89.567	0.260	-0.075
-128.297	-200.000	-0.024	-0.274
-127.283	-36.520	0.293	0.156
-126.268	800.000	0.037	0.102
-125.253	164.855	0.111	0.155
-124.239	-200.000	-0.052	-0.348
-123.224	-146.460	0.613	-0.053
-122.210	-117.255	0.143	-0.026
