DTS Sentinel unit serial number:	SN413079Multiplexer serial number:	ORYXHardware model number:	OX4-SRSoftware version number:	ORYX F/W v4.00 Oryx Data Collector v3.7.2.0data status	okinstallation	princeton_trtdifferential loss correction	single-endedforward channel	channel 4reverse channel	N/Adate	2019/09/11time	10:51:11forward acquisition time	60.00reverse acquisition time	0.00gamma	496.2192k internal	0.2293k external	0.2293temperature offset calibration	0.9974default loss term (dB/km)	0.3790temperature slope calibration	1.0000multiplexer offset coefficient	1.0000multiplexer slope coefficient	1.0000fibre end	0.00T internal ref (°C)	36.94T ext. ref 1 (°C)	0.17T ext. ref 2 (°C)	33.67length (m)	temperature (°C)	Stokes	anti-Stokes-747.200	140.219	0.056	0.075
-746.185	322.375	-0.037	0.073
-745.171	800.000	-0.047	0.159
-744.156	800.000	-0.183	0.591
-743.142	549.004	-0.083	0.204
-742.127	-200.000	0.001	0.105
-741.112	-200.000	0.014	-0.126
-740.098	-35.458	-0.317	0.176
-739.083	-37.720	-0.197	0.107
-738.069	-200.000	-0.320	0.000
-737.054	-163.835	-0.087	0.004
-736.039	-127.166	-0.246	0.037
-735.025	71.877	0.246	0.261
-734.010	-82.330	-0.237	-0.079
-732.996	-113.711	0.116	-0.023
-731.981	113.310	0.119	-0.147
-730.966	800.000	-0.078	-0.311
-729.952	143.006	-0.214	-0.291
-728.937	133.030	-0.275	-0.363
-727.923	538.547	0.111	-0.269
-726.908	-164.186	-0.223	-0.011
-725.894	-65.456	0.150	0.062
-724.879	190.785	-0.138	-0.212
-723.864	800.000	-0.065	-0.290
-722.850	-17.718	-0.316	-0.203
-721.835	339.822	-0.207	-0.412
-720.821	-153.829	-0.380	0.027
-719.806	391.041	-0.070	-0.149
-718.791	460.698	0.076	-0.173
-717.777	800.000	0.047	-0.206
-716.762	-200.000	-0.012	-0.112
-715.748	43.638	-0.092	0.086
-714.733	-13.987	0.202	0.133
-713.718	-200.000	-0.005	0.315
-712.704	-200.000	-0.084	-0.477
-711.689	-200.000	-0.013	-0.391
-710.675	350.073	-0.032	0.064
-709.660	-187.696	-0.372	-0.005
-708.645	-40.637	0.129	-0.069
-707.631	-58.292	-0.245	0.109
-706.616	800.000	-0.097	0.282
-705.602	-200.000	-0.020	-0.157
-704.587	336.474	-0.141	-0.279
-703.572	-158.139	0.323	0.019
-702.558	243.771	-0.050	-0.086
-701.543	-44.930	0.180	-0.091
-700.529	-59.225	-0.059	0.026
-699.514	647.473	0.097	-0.253
-698.499	-137.916	0.245	0.028
-697.485	-100.280	-0.067	-0.017
-696.470	601.176	0.053	-0.134
-695.456	54.459	0.074	0.073
-694.441	492.412	-0.134	0.314
-693.426	-160.616	-0.179	-0.010
-692.412	-76.290	-0.317	-0.114
-691.397	-161.512	-0.119	0.006
-690.383	-167.936	-0.308	0.012
-689.368	-84.985	0.120	-0.038
-688.354	800.000	-0.048	0.167
-687.339	-200.000	-0.019	0.215
-686.324	62.388	0.061	-0.062
-685.310	-80.719	-0.419	-0.142
-684.295	-162.530	-0.633	-0.032
-683.281	-6.031	-0.111	0.077
-682.266	112.087	0.114	0.141
-681.251	800.000	0.078	-0.246
-680.237	7.922	0.066	-0.050
-679.222	-66.273	0.191	0.077
-678.208	-83.218	-0.225	0.074
-677.193	8.176	-0.191	0.146
-676.178	800.000	-0.032	0.119
-675.164	38.985	0.268	0.244
-674.149	77.008	0.259	-0.281
-673.135	-129.895	-0.454	-0.064
-672.120	-167.027	-0.071	-0.003
-671.105	800.000	0.156	-0.479
-670.091	149.939	-0.088	0.121
-669.076	162.102	-0.082	0.117
-668.062	263.932	0.061	0.108
-667.047	-96.645	-0.225	-0.061
-666.032	167.375	-0.203	-0.294
-665.018	163.825	-0.158	-0.227
-664.003	444.119	0.131	0.293
-662.989	-115.841	-0.405	-0.077
-661.974	800.000	-0.032	-0.140
-660.959	-115.360	-0.507	-0.097
-659.945	125.646	0.140	-0.180
-658.930	55.019	-0.043	0.042
-657.916	-86.360	-0.198	-0.062
-656.901	178.180	-0.135	-0.202
-655.886	-25.095	-0.150	-0.091
-654.872	142.913	0.362	0.490
-653.857	800.000	0.118	-0.341
-652.843	-19.049	-0.240	0.152
-651.828	80.085	0.121	0.132
-650.814	85.824	0.152	0.170
-649.799	273.915	-0.097	-0.175
-648.784	800.000	-0.050	-0.143
-647.770	249.170	-0.082	0.141
-646.755	-70.124	0.306	-0.119
-645.741	5.993	-0.302	-0.228
-644.726	-146.932	-0.415	-0.036
-643.711	-143.878	0.042	-0.004
-642.697	41.637	-0.135	-0.124
-641.682	-90.748	-0.025	0.007
-640.668	-200.000	0.009	-0.391
-639.653	-200.000	-0.008	0.211
-638.638	12.267	-0.273	0.214
-637.624	-157.355	-0.236	-0.015
-636.609	-64.569	0.144	0.060
-635.595	56.583	0.048	0.047
-634.580	800.000	-0.079	0.269
-633.565	-37.361	0.106	-0.058
-632.551	-1.826	-0.248	-0.178
-631.536	-95.436	-0.213	-0.058
-630.522	-200.000	0.005	0.051
-629.507	-151.762	-0.272	-0.020
-628.492	800.000	-0.012	-0.039
-627.478	113.459	-0.223	0.275
-626.463	800.000	0.035	-0.141
-625.449	177.844	-0.130	0.193
-624.434	126.365	-0.207	0.266
-623.419	-200.000	-0.057	-0.380
-622.405	-36.738	0.228	0.125
-621.390	609.771	0.067	-0.171
-620.376	-200.000	-0.029	-0.182
-619.361	-8.820	-0.264	0.180
-618.346	551.652	0.088	0.215
-617.332	-124.517	0.046	-0.007
-616.317	101.049	-0.192	0.228
-615.303	-78.562	0.111	0.039
-614.288	4.053	-0.222	-0.165
-613.273	211.656	-0.094	-0.151
-612.259	800.000	0.095	-0.301
-611.244	67.700	0.290	-0.302
-610.230	-200.000	0.002	0.072
-609.215	-41.996	-0.179	-0.093
-608.201	147.408	0.164	0.225
-607.186	29.042	-0.105	-0.091
-606.171	-142.695	0.275	0.027
-605.157	-200.000	0.051	0.313
-604.142	82.418	-0.070	-0.077
-603.128	-200.000	-0.003	-0.080
-602.113	-200.000	-0.026	0.120
-601.098	130.410	0.050	-0.065
-600.084	800.000	-0.072	0.215
-599.069	42.393	-0.354	-0.327
-598.055	800.000	-0.011	-0.045
-597.040	-72.371	-0.135	-0.051
-596.025	391.476	0.041	-0.087
-595.011	-52.756	-0.186	0.087
-593.996	230.218	0.165	0.274
-592.982	-200.000	0.036	0.226
-591.967	20.206	-0.055	0.045
-590.952	50.990	0.308	0.297
-589.938	-200.000	0.032	0.164
-588.923	-19.825	-0.321	0.201
-587.909	140.884	0.060	-0.081
-586.894	-136.264	-0.283	-0.034
-585.879	-133.799	-0.515	-0.065
-584.865	800.000	-0.064	-0.205
-583.850	-200.000	0.006	-0.082
-582.836	-39.806	-0.332	0.176
-581.821	-200.000	0.012	-0.171
-580.806	206.583	-0.217	-0.343
-579.792	31.564	0.216	0.188
-578.777	235.886	-0.064	0.107
-577.763	-22.549	-0.136	-0.084
-576.748	-14.337	0.317	-0.208
-575.733	800.000	0.060	-0.248
-574.719	207.503	-0.068	0.109
-573.704	391.939	-0.095	-0.201
-572.690	459.972	0.110	-0.249
-571.675	1.595	-0.290	0.212
-570.661	249.872	-0.233	0.401
-569.646	117.693	-0.156	-0.195
-568.631	32.064	0.158	-0.138
-567.617	189.566	-0.120	-0.183
-566.602	278.210	-0.108	-0.195
-565.588	-200.000	0.014	-0.124
-564.573	800.000	-0.024	-0.093
-563.558	219.289	0.176	-0.285
-562.544	-68.635	-0.073	0.029
-561.529	-200.000	0.012	-0.104
-560.515	301.424	-0.071	-0.133
-559.500	-74.890	0.381	-0.139
-558.485	-81.011	0.255	0.086
-557.471	-108.320	0.220	-0.048
-556.456	12.251	0.136	0.106
-555.442	51.674	-0.181	-0.175
-554.427	800.000	0.110	0.324
-553.412	-200.000	0.017	0.202
-552.398	-200.000	-0.031	0.208
-551.383	-200.000	0.003	-0.036
-550.369	800.000	-0.025	0.106
-549.354	-168.702	-0.105	0.004
-548.339	312.024	-0.133	-0.253
-547.325	-18.681	-0.268	0.170
-546.310	-200.000	0.034	-0.277
-545.296	800.000	0.045	-0.166
-544.281	800.000	-0.055	0.241
-543.266	160.179	0.235	0.332
-542.252	-164.871	-0.284	-0.013
-541.237	109.717	0.089	0.108
-540.223	-35.715	-0.182	-0.100
-539.208	-91.662	0.162	-0.047
-538.193	-72.106	0.229	0.086
-537.179	158.183	0.196	0.276
-536.164	186.188	-0.112	0.169
-535.150	-151.844	0.054	0.004
-534.135	800.000	-0.076	0.327
-533.121	-45.538	0.275	0.138
-532.106	10.171	-0.149	-0.115
-531.091	-83.589	0.215	-0.070
-530.077	710.338	0.066	-0.178
-529.062	-112.517	0.244	0.049
-528.048	141.496	-0.190	0.255
-527.033	72.436	0.117	-0.124
-526.018	287.383	0.039	-0.072
-525.004	201.082	0.257	-0.401
-523.989	-5.683	-0.157	0.109
-522.975	-200.000	-0.008	0.205
-521.960	20.035	0.161	-0.131
-520.945	-200.000	-0.003	0.037
-519.931	37.023	0.282	-0.253
-518.916	-10.203	0.188	-0.126
-517.902	-61.007	0.255	-0.109
-516.887	409.615	-0.202	0.434
-515.872	278.813	0.159	0.288
-514.858	-200.000	0.023	0.508
-513.843	-44.807	0.467	0.236
-512.829	666.036	0.078	0.204
-511.814	140.017	0.179	0.239
-510.799	-44.828	0.220	0.111
-509.785	211.932	-0.154	0.246
-508.770	-200.000	0.010	-0.295
-507.756	-200.000	0.030	-0.202
-506.741	-200.000	-0.007	0.134
-505.726	-86.531	-0.380	-0.118
-504.712	285.253	-0.133	-0.242
-503.697	42.843	-0.198	-0.183
-502.683	800.000	0.055	-0.204
-501.668	-186.282	0.090	-0.001
-500.653	800.000	0.037	0.113
-499.639	-158.275	0.236	0.014
-498.624	-200.000	0.020	0.142
-497.610	-28.644	-0.299	0.174
-496.595	515.901	-0.052	0.124
-495.581	366.196	-0.055	-0.113
-494.566	-46.999	0.124	-0.061
-493.551	-131.955	-0.208	0.027
-492.537	-105.366	0.165	0.038
-491.522	24.576	0.059	0.049
-490.508	800.000	0.127	-0.376
-489.493	-89.227	0.464	-0.139
-488.478	-151.238	-0.338	0.026
-487.464	51.096	-0.098	-0.094
-486.449	-200.000	-0.040	0.379
-485.435	-121.686	0.015	0.003
-484.420	800.000	0.033	0.135
-483.405	190.239	0.086	-0.131
-482.391	772.441	0.058	-0.160
-481.376	-115.070	-0.147	0.028
-480.362	238.183	-0.139	-0.233
-479.347	-200.000	-0.198	-0.000
-478.332	-119.102	0.184	-0.033
-477.318	-200.000	0.042	-0.330
-476.303	139.785	0.101	-0.134
-475.289	-75.551	-0.245	0.088
-474.274	-131.368	-0.169	0.023
-473.259	55.424	0.079	0.077
-472.245	40.248	0.174	0.159
-471.230	-67.679	0.237	0.094
-470.216	-2.127	-0.236	-0.168
-469.201	-113.172	0.276	0.055
-468.186	334.920	0.023	-0.044
-467.172	-87.801	-0.355	-0.108
-466.157	-200.000	0.011	-0.338
-465.143	-45.753	0.154	0.077
-464.128	-83.624	-0.292	0.094
-463.113	264.676	0.100	-0.177
-462.099	-52.514	0.388	0.181
-461.084	-81.208	0.107	-0.036
-460.070	198.702	-0.209	0.323
-459.055	-200.000	0.050	0.244
-458.040	-200.000	-0.041	-0.190
-457.026	-75.397	0.280	0.101
-456.011	-200.000	-0.020	-0.138
-454.997	647.488	-0.094	-0.243
-453.982	-59.214	-0.255	-0.111
-452.968	800.000	0.039	-0.159
-451.953	60.825	-0.134	0.135
-450.938	-183.279	0.394	0.007
-449.924	95.731	-0.043	-0.050
-448.909	173.557	-0.127	-0.185
-447.895	-91.273	0.102	0.030
-446.880	-84.799	0.046	-0.015
-445.865	800.000	0.017	-0.050
-444.851	-93.678	0.274	-0.077
-443.836	-99.900	-0.090	-0.023
-442.822	124.441	0.045	0.058
-441.807	518.975	-0.022	0.053
-440.792	-200.000	0.002	0.096
-439.778	50.222	0.082	0.079
-438.763	800.000	0.093	0.271
-437.749	-116.590	0.276	0.051
-436.734	263.616	0.071	0.124
-435.719	362.673	-0.137	0.279
-434.705	-200.000	-0.014	-0.182
-433.690	-162.878	-0.162	-0.008
-432.676	-105.634	0.198	0.045
-431.661	437.783	-0.040	0.089
-430.646	-45.405	-0.217	0.109
-429.632	207.453	0.047	0.074
-428.617	-106.409	-0.189	0.043
-427.603	-48.255	0.211	-0.103
-426.588	-71.968	-0.337	0.127
-425.573	40.767	0.083	-0.076
-424.559	10.167	0.208	0.160
-423.544	40.824	0.040	-0.036
-422.530	-82.932	0.151	0.049
-421.515	-119.421	-0.112	-0.020
-420.500	-200.000	-0.051	-0.268
-419.486	97.969	-0.122	-0.142
-418.471	-152.888	0.160	0.011
-417.457	-79.859	-0.099	-0.034
-416.442	10.548	0.195	0.150
-415.428	-142.244	-0.206	-0.021
-414.413	-67.778	0.327	-0.129
-413.398	-144.421	0.328	-0.031
-412.384	-200.000	-0.006	0.033
-411.369	-12.199	-0.108	-0.071
-410.355	161.846	-0.172	0.243
-409.340	-85.344	-0.310	0.098
-408.325	-10.707	0.101	0.068
-407.311	-200.000	-0.001	-0.079
-406.296	78.695	0.171	-0.185
-405.282	79.095	-0.324	0.351
-404.267	12.836	-0.201	0.157
-403.252	-45.190	-0.041	0.021
-402.238	584.559	0.078	-0.193
-401.223	800.000	0.029	0.128
-400.209	-68.072	0.222	0.087
-399.194	-200.000	0.013	-0.184
-398.179	248.703	-0.070	0.119
-397.165	800.000	-0.074	0.231
-396.150	50.488	-0.263	0.251
-395.136	186.213	0.024	-0.037
-394.121	-79.185	0.201	-0.069
-393.106	312.865	-0.089	-0.169
-392.092	107.737	0.253	-0.304
-391.077	-121.909	-0.314	0.052
-390.063	-115.932	0.130	0.025
-389.048	-156.973	0.076	-0.005
-388.033	165.130	0.031	-0.044
-387.019	-92.022	0.268	-0.077
-386.004	-200.000	0.011	0.172
-384.990	-200.000	-0.024	-0.261
-383.975	-200.000	-0.014	0.158
-382.960	-51.694	0.251	0.118
-381.946	-151.526	-0.224	-0.017
-380.931	-1.836	-0.344	-0.244
-379.917	418.927	0.174	-0.374
-378.902	111.578	-0.110	0.134
-377.888	-77.155	0.101	-0.035
-376.873	-120.708	0.047	-0.008
-375.858	-200.000	0.034	-0.250
-374.844	-29.832	-0.333	0.192
-373.829	-166.259	-0.283	0.012
-372.815	800.000	0.065	0.211
-371.800	-99.820	0.355	-0.090
-370.785	-12.856	0.104	-0.069
-369.771	-64.338	0.290	0.119
-368.756	-143.077	0.228	-0.022
-367.742	-11.531	-0.238	0.158
-366.727	-116.201	0.195	0.037
-365.712	406.102	0.082	-0.174
-364.698	800.000	-0.021	-0.085
-363.683	102.697	-0.149	0.176
-362.669	-200.000	-0.030	-0.188
-361.654	-200.000	-0.026	-0.481
-360.639	212.410	0.148	-0.235
-359.625	-200.000	-0.014	-0.067
-358.610	-142.842	0.058	0.006
-357.596	-82.851	0.146	-0.047
-356.581	-126.562	-0.176	-0.026
-355.566	-200.000	-0.071	0.450
-354.552	-103.123	0.146	0.035
-353.537	-133.316	-0.190	-0.024
-352.523	-200.000	0.007	0.064
-351.508	26.517	-0.099	0.083
-350.493	34.460	-0.007	0.006
-349.479	40.918	0.113	0.102
-348.464	-4.682	-0.145	0.101
-347.450	27.756	-0.103	-0.087
-346.435	41.941	-0.186	-0.169
-345.420	-25.421	-0.042	-0.025
-344.406	-200.000	0.002	0.245
-343.391	649.714	0.032	0.082
-342.377	800.000	0.093	0.328
-341.362	151.918	-0.068	0.093
-340.348	-58.992	-0.310	0.135
-339.333	800.000	-0.017	-0.070
-338.318	-200.000	0.002	0.028
-337.304	800.000	0.068	-0.283
-336.289	-23.766	-0.136	0.082
-335.275	-13.091	0.294	0.193
-334.260	-200.000	-0.023	0.519
-333.245	-14.234	-0.148	-0.096
-332.231	800.000	-0.045	0.126
-331.216	-131.931	-0.183	0.024
-330.202	-200.000	-0.019	-0.348
-329.187	-32.534	-0.287	-0.161
-328.172	-138.228	0.176	0.020
-327.158	800.000	0.099	0.334
-326.143	-28.838	0.130	0.075
-325.129	-200.000	-0.008	-0.123
-324.114	-174.688	0.238	-0.007
-323.099	28.881	0.219	0.186
-322.085	61.464	0.198	0.199
-321.070	651.535	-0.108	0.278
-320.056	40.032	-0.092	0.083
-319.041	-78.995	0.191	0.065
-318.026	210.152	-0.011	0.017
-317.012	-106.102	0.179	-0.040
-315.997	-24.661	-0.138	0.083
-314.983	-200.000	-0.006	0.337
-313.968	-84.405	0.247	0.079
-312.953	-57.400	0.052	0.023
-311.939	-20.461	0.178	-0.110
-310.924	-38.422	-0.046	-0.024
-309.910	-200.000	0.035	-0.162
-308.895	-89.752	0.118	0.035
-307.880	-90.709	-0.238	0.069
-306.866	-84.994	0.175	0.055
-305.851	-192.863	0.151	0.001
-304.837	-147.824	0.385	-0.032
-303.822	800.000	-0.010	0.033
-302.807	-29.021	0.156	0.090
-301.793	329.010	0.110	-0.212
-300.778	48.496	-0.102	-0.096
-299.764	-75.210	0.079	0.029
-298.749	-146.484	0.295	-0.026
-297.735	-138.978	-0.072	-0.008
-296.720	-10.814	-0.179	-0.119
-295.705	330.805	0.282	0.547
-294.691	374.669	-0.016	0.033
-293.676	323.861	-0.075	-0.144
-292.662	119.333	0.045	0.056
-291.647	-200.000	0.016	0.249
-290.632	93.719	-0.128	-0.146
-289.618	-200.000	0.010	-0.193
-288.603	108.334	0.203	-0.243
-287.589	172.823	0.018	-0.026
-286.574	-200.000	0.001	0.039
-285.559	211.956	0.125	0.197
-284.545	-127.470	0.063	-0.009
-283.530	46.488	-0.264	-0.246
-282.516	566.506	0.136	0.331
-281.501	289.279	-0.164	0.299
-280.486	-165.974	-0.373	-0.016
-279.472	-0.240	-0.295	0.211
-278.457	-91.969	0.257	0.073
-277.443	-200.000	0.031	0.154
-276.428	-200.000	-0.068	-0.348
-275.413	-9.519	-0.311	-0.208
-274.399	800.000	0.069	0.257
-273.384	800.000	-0.157	-0.468
-272.370	800.000	-0.117	0.342
-271.355	28.625	-0.167	-0.142
-270.340	-36.973	0.209	-0.113
-269.326	800.000	0.045	0.170
-268.311	209.629	0.110	0.174
-267.297	-113.712	0.057	0.011
-266.282	67.537	-0.159	0.163
-265.267	-33.818	-0.202	-0.112
-264.253	-200.000	0.024	-0.203
-263.238	189.816	-0.278	-0.419
-262.224	350.606	-0.080	0.158
-261.209	-200.000	0.017	0.112
-260.195	-86.617	0.170	0.052
-259.180	800.000	0.099	0.291
-258.165	-105.078	0.052	-0.012
-257.151	-200.000	-0.038	-0.187
-256.136	800.000	0.033	-0.142
-255.122	-89.478	-0.154	0.045
-254.107	-114.019	-0.192	0.037
-253.092	-59.302	-0.205	-0.089
-252.078	-112.776	-0.371	0.074
-251.063	71.549	0.336	-0.350
-250.049	149.805	0.183	0.250
-249.034	609.386	0.049	-0.123
-248.019	-40.100	-0.108	0.056
-247.005	-200.000	0.011	-0.286
-245.990	373.580	0.120	0.246
-244.976	-7.524	0.217	0.147
-243.961	152.737	0.121	0.165
-242.946	-93.945	0.238	-0.066
-241.932	-74.908	-0.132	0.048
-240.917	-32.660	0.136	0.076
-239.903	105.656	-0.181	-0.215
-238.888	-166.357	0.295	-0.012
-237.873	296.026	-0.053	-0.098
-236.859	800.000	-0.055	0.190
-235.844	-124.961	0.218	0.034
-234.830	-111.671	0.295	-0.060
-233.815	275.690	0.070	0.124
-232.800	-200.000	-0.040	-0.211
-231.786	-5.297	-0.433	-0.299
-230.771	-6.543	-0.073	-0.050
-229.757	-200.000	-0.015	0.124
-228.742	-200.000	-0.019	0.238
-227.727	-184.979	0.095	0.001
-226.713	539.214	0.113	-0.271
-225.698	-83.857	-0.322	-0.103
-224.684	10.603	0.091	0.070
-223.669	-126.613	0.180	0.027
-222.655	306.555	0.187	0.348
-221.640	334.442	-0.058	-0.112
-220.625	-13.220	-0.215	0.140
-219.611	-200.000	0.001	0.120
-218.596	244.841	0.083	-0.140
-217.582	124.017	0.176	0.221
-216.567	-9.896	-0.249	-0.166
-215.552	798.490	-0.018	0.048
-214.538	-122.013	0.147	-0.024
-213.523	-96.688	0.279	0.073
-212.509	69.647	0.202	0.208
-211.494	377.677	0.053	0.109
-210.479	-122.691	0.127	0.021
-209.465	510.100	-0.161	-0.375
-208.450	-104.015	-0.111	0.026
-207.436	197.473	0.244	-0.373
-206.421	128.815	-0.123	0.157
-205.406	175.567	-0.075	-0.109
-204.392	521.891	0.045	0.106
-203.377	800.000	0.138	0.403
-202.363	-140.905	0.046	-0.005
-201.348	-81.026	-0.077	0.025
-200.333	174.238	0.057	-0.083
-199.319	90.071	-0.272	0.304
-198.304	-200.000	0.011	0.173
-197.290	-45.710	-0.094	-0.046
-196.275	-43.441	0.319	0.161
-195.260	-127.849	-0.261	0.038
-194.246	36.253	0.168	0.148
-193.231	114.454	-0.106	0.130
-192.217	800.000	0.071	-0.214
-191.202	403.732	-0.161	0.338
-190.187	-200.000	-0.102	-0.630
-189.173	36.670	0.156	-0.138
-188.158	800.000	0.123	-0.494
-187.144	-21.224	0.054	-0.033
-186.129	-200.000	0.040	-0.271
-185.114	-200.000	0.092	-0.571
-184.100	202.549	0.058	0.090
-183.085	-129.475	-0.536	-0.074
-182.071	216.902	-0.064	-0.101
-181.056	318.006	-0.223	-0.422
-180.042	-116.914	0.248	-0.045
-179.027	-110.200	0.081	-0.017
-178.012	460.744	-0.187	0.417
-176.998	17.419	0.164	-0.130
-175.983	306.992	-0.133	-0.249
-174.969	-200.000	-0.054	-0.474
-173.954	-162.959	-0.333	-0.016
-172.939	-192.963	-0.378	-0.003
-171.925	-200.000	-0.019	-0.181
-170.910	-200.000	0.031	-0.180
-169.896	-187.110	0.290	-0.004
-168.881	-29.047	-0.145	-0.083
-167.866	131.610	0.104	-0.134
-166.852	-154.872	-0.146	0.010
-165.837	-200.000	0.006	0.060
-164.823	-74.816	0.270	-0.097
-163.808	-31.598	-0.126	-0.071
-162.793	-56.262	0.294	-0.131
-161.779	-190.597	-0.238	0.003
-160.764	-72.947	0.082	-0.030
-159.750	424.624	0.117	0.252
-158.735	-20.527	0.398	-0.245
-157.720	-92.449	-0.244	0.068
-156.706	-90.942	0.121	0.035
-155.691	44.308	-0.242	0.222
-154.677	-51.775	0.121	-0.056
-153.662	-49.052	-0.227	-0.109
-152.647	392.719	-0.081	0.169
-151.633	800.000	0.020	-0.075
-150.618	-200.000	-0.034	-0.188
-149.604	-200.000	0.015	0.244
-148.589	130.718	0.085	0.109
-147.574	-1.726	0.108	0.076
-146.560	-200.000	0.036	0.267
-145.545	7.697	-0.097	0.073
-144.531	148.639	0.069	0.093
-143.516	800.000	0.094	-0.267
-142.502	-172.799	-0.119	-0.004
-141.487	-102.704	0.120	0.029
-140.472	124.634	-0.168	-0.212
-139.458	28.419	-0.213	0.180
-138.443	30.930	-0.084	0.072
-137.429	-70.973	0.207	-0.078
-136.414	-140.196	0.503	0.053
-135.399	175.834	-0.102	0.147
-134.385	318.875	0.014	-0.026
-133.370	215.655	0.168	0.267
-132.356	201.056	-0.175	0.269
-131.341	136.472	-0.069	-0.090
-130.326	153.146	-0.107	0.146
-129.312	7.900	-0.131	-0.098
-128.297	362.204	0.116	-0.233
-127.283	308.882	0.049	0.091
-126.268	-144.200	-0.371	0.035
-125.253	-80.038	-0.214	0.072
-124.239	-42.157	0.164	0.084
-123.224	-175.789	0.143	-0.004
-122.210	-92.149	-0.154	-0.043
