DTS Sentinel unit serial number:	SN413079Multiplexer serial number:	ORYXHardware model number:	OX4-SRSoftware version number:	ORYX F/W v4.00 Oryx Data Collector v3.7.2.0data status	okinstallation	princeton_trtdifferential loss correction	single-endedforward channel	channel 4reverse channel	N/Adate	2019/09/17time	18:01:35forward acquisition time	60.00reverse acquisition time	0.00gamma	496.2192k internal	0.2278k external	0.2278temperature offset calibration	0.9978default loss term (dB/km)	0.3790temperature slope calibration	1.0000multiplexer offset coefficient	1.0000multiplexer slope coefficient	1.0000fibre end	0.00T internal ref (°C)	43.50T ext. ref 1 (°C)	0.33T ext. ref 2 (°C)	38.01length (m)	temperature (°C)	Stokes	anti-Stokes-747.200	-95.847	-0.123	-0.034
-746.185	440.647	0.113	0.255
-745.171	-121.489	0.311	0.053
-744.156	-79.292	0.194	0.068
-743.142	800.000	0.056	0.167
-742.127	355.818	-0.100	0.204
-741.112	-200.000	0.005	-0.197
-740.098	-200.000	-0.027	0.398
-739.083	148.520	0.108	0.150
-738.069	-79.524	-0.159	-0.055
-737.054	-26.854	-0.145	-0.087
-736.039	34.128	-0.155	-0.139
-735.025	-200.000	0.010	0.424
-734.010	-106.352	-0.251	-0.058
-732.996	781.950	0.081	-0.229
-731.981	-200.000	-0.006	0.156
-730.966	-56.152	-0.180	-0.083
-729.952	115.655	-0.192	0.242
-728.937	81.537	-0.066	-0.073
-727.923	-80.212	-0.166	-0.057
-726.908	-200.000	0.020	-0.092
-725.894	-178.475	0.328	-0.008
-724.879	-86.953	-0.132	-0.042
-723.864	24.578	-0.161	-0.137
-722.850	-186.252	0.126	0.002
-721.835	272.070	-0.143	0.259
-720.821	-131.600	0.167	-0.023
-719.806	-150.485	-0.347	-0.027
-718.791	-71.572	-0.247	-0.095
-717.777	800.000	-0.033	-0.129
-716.762	800.000	-0.068	0.217
-715.748	-4.713	-0.149	-0.106
-714.733	800.000	0.115	-0.472
-713.718	-9.747	0.190	-0.130
-712.704	-104.828	-0.338	0.080
-711.689	-22.678	-0.088	0.055
-710.675	-200.000	0.015	-0.199
-709.660	-49.522	-0.351	-0.172
-708.645	-200.000	0.025	-0.345
-707.631	8.673	0.106	0.082
-706.616	115.761	0.070	0.088
-705.602	-200.000	0.013	-0.070
-704.587	-148.861	0.181	0.015
-703.572	-67.457	-0.216	0.087
-702.558	573.315	-0.072	0.181
-701.543	-58.870	-0.166	0.074
-700.529	42.766	0.134	0.125
-699.514	-182.065	0.123	0.002
-698.499	71.425	-0.117	-0.125
-697.485	752.826	0.092	-0.256
-696.470	9.203	-0.060	-0.047
-695.456	-1.721	0.183	-0.132
-694.441	-200.000	-0.026	-0.171
-693.426	800.000	0.069	-0.204
-692.412	-141.425	-0.103	0.011
-691.397	415.663	-0.150	-0.329
-690.383	-123.311	-0.221	-0.036
-689.368	4.230	-0.225	-0.170
-688.354	-20.641	-0.183	-0.116
-687.339	254.263	0.200	-0.352
-686.324	184.181	-0.056	-0.086
-685.310	800.000	0.067	0.237
-684.295	-200.000	0.005	0.066
-683.281	-60.101	0.392	-0.172
-682.266	-200.000	-0.041	-0.214
-681.251	112.186	-0.116	-0.144
-680.237	800.000	0.035	0.127
-679.222	157.580	0.105	0.149
-678.208	-183.563	-0.061	-0.001
-677.193	-200.000	-0.020	0.186
-676.178	-37.118	0.152	0.084
-675.164	-18.953	0.107	-0.068
-674.149	548.354	0.046	-0.114
-673.135	800.000	-0.040	-0.178
-672.120	-45.949	-0.317	-0.161
-671.105	7.128	-0.237	-0.181
-670.091	-200.000	0.023	-0.173
-669.076	-79.825	-0.250	-0.086
-668.062	277.432	0.126	0.230
-667.047	23.414	0.235	-0.198
-666.032	144.871	0.088	-0.121
-665.018	376.262	0.098	-0.206
-664.003	-151.303	0.356	-0.027
-662.989	-200.000	-0.035	-0.228
-661.974	230.571	0.205	-0.345
-660.959	13.038	-0.185	-0.147
-659.945	-153.427	0.091	0.006
-658.930	-79.415	-0.355	0.123
-657.916	800.000	-0.061	-0.261
-656.901	-200.000	0.011	0.175
-655.886	-148.612	0.479	-0.040
-654.872	218.399	-0.234	-0.383
-653.857	54.820	-0.324	-0.321
-652.843	211.634	0.021	0.035
-651.828	-200.000	0.019	-0.400
-650.814	-200.000	-0.050	0.339
-649.799	800.000	0.042	0.136
-648.784	215.127	-0.083	-0.135
-647.770	231.772	0.112	0.189
-646.755	243.941	-0.090	0.154
-645.741	-134.708	0.370	0.046
-644.726	138.243	0.017	-0.023
-643.711	-159.689	0.114	0.006
-642.697	-200.000	-0.019	-0.113
-641.682	-200.000	0.001	-0.171
-640.668	800.000	-0.030	0.102
-639.653	800.000	-0.063	-0.251
-638.638	800.000	0.023	0.079
-637.624	-105.056	0.207	0.049
-636.609	-40.029	0.094	0.050
-635.595	495.597	-0.011	0.027
-634.580	132.050	-0.092	-0.121
-633.565	-52.333	-0.310	0.147
-632.551	37.241	0.087	-0.079
-631.536	197.398	0.184	0.288
-630.522	-191.977	-0.133	-0.001
-629.507	455.481	-0.101	0.229
-628.492	-92.304	-0.112	-0.032
-627.478	-67.782	-0.221	-0.089
-626.463	14.671	-0.409	-0.327
-625.449	33.007	0.066	-0.058
-624.434	534.131	-0.064	-0.155
-623.419	364.970	-0.101	0.208
-622.405	-145.526	0.212	-0.020
-621.390	-107.110	0.276	0.062
-620.376	800.000	-0.048	-0.143
-619.361	-55.929	-0.249	-0.114
-618.346	-34.502	-0.091	-0.051
-617.332	62.528	0.126	-0.129
-616.317	-83.560	0.206	-0.068
-615.303	46.013	-0.172	-0.163
-614.288	800.000	-0.086	-0.305
-613.273	-111.043	0.260	0.055
-612.259	24.679	-0.233	0.198
-611.244	-200.000	0.039	-0.219
-610.230	284.897	-0.151	-0.279
-609.215	-200.000	0.103	0.000
-608.201	800.000	-0.094	0.317
-607.186	-200.000	0.003	0.269
-606.171	572.046	0.166	0.414
-605.157	-112.935	-0.079	0.016
-604.142	-95.767	-0.336	-0.092
-603.128	-200.000	0.015	0.225
-602.113	800.000	0.021	-0.071
-601.098	406.003	0.077	0.167
-600.084	-200.000	-0.056	0.389
-599.069	13.732	-0.098	-0.078
-598.055	-132.331	0.278	0.037
-597.040	24.761	-0.242	-0.205
-596.025	422.700	-0.105	0.230
-595.011	191.836	0.128	0.197
-593.996	332.713	-0.137	-0.271
-592.982	796.143	0.066	-0.185
-591.967	800.000	0.039	0.151
-590.952	-65.180	-0.075	0.031
-589.938	287.167	-0.176	-0.327
-588.923	-57.930	-0.130	0.058
-587.909	30.889	0.060	0.053
-586.894	-200.000	-0.003	0.115
-585.879	-119.067	0.178	-0.032
-584.865	29.080	0.126	-0.109
-583.850	-30.704	0.127	-0.074
-582.836	-124.821	0.322	-0.051
-581.821	-32.827	-0.179	-0.102
-580.806	15.114	-0.289	-0.232
-579.792	24.159	0.183	-0.155
-578.777	-120.539	0.543	0.094
-577.763	103.534	-0.233	0.280
-576.748	-171.878	0.117	-0.004
-575.733	143.757	-0.099	0.135
-574.719	30.545	-0.070	-0.061
-573.704	-58.025	0.192	-0.086
-572.690	777.043	-0.033	-0.093
-571.675	-122.671	0.511	-0.085
-570.661	43.949	0.303	0.284
-569.646	-124.010	0.305	-0.049
-568.631	131.772	-0.250	-0.329
-567.617	-109.292	-0.139	-0.030
-566.602	-114.667	-0.081	0.016
-565.588	101.813	-0.174	-0.208
-564.573	-55.201	0.071	0.033
-563.558	-187.575	0.219	0.003
-562.544	-137.009	0.330	0.039
-561.529	30.319	0.171	0.149
-560.515	-44.218	0.083	0.043
-559.500	-107.836	0.227	-0.051
-558.485	-68.156	-0.107	0.043
-557.471	389.167	0.140	0.296
-556.456	-200.000	0.021	0.321
-555.442	259.756	0.150	-0.264
-554.427	800.000	-0.026	0.076
-553.412	25.244	-0.099	0.084
-552.398	294.873	-0.112	0.210
-551.383	438.833	-0.009	-0.020
-550.369	-4.346	-0.093	0.066
-549.354	800.000	-0.015	0.045
-548.339	19.521	0.031	0.025
-547.325	-159.457	0.203	-0.012
-546.310	-200.000	0.017	0.092
-545.296	-200.000	-0.018	0.327
-544.281	28.404	-0.121	0.105
-543.266	-48.055	0.208	-0.103
-542.252	-32.829	-0.179	0.102
-541.237	-103.396	-0.175	0.042
-540.223	-173.472	0.122	-0.004
-539.208	-39.254	0.162	-0.087
-538.193	-53.512	-0.129	-0.060
-537.179	148.823	0.184	0.254
-536.164	49.549	0.059	0.057
-535.150	800.000	0.056	-0.225
-534.135	-200.000	-0.007	-0.171
-533.121	-181.520	-0.126	-0.003
-532.106	-18.856	0.180	-0.114
-531.091	-26.129	0.152	-0.091
-530.077	37.714	0.149	-0.135
-529.062	-110.009	0.215	0.046
-528.048	800.000	-0.060	-0.197
-527.033	-63.329	-0.143	-0.060
-526.018	-14.126	-0.159	-0.105
-525.004	429.994	-0.071	-0.156
-523.989	351.343	0.034	0.069
-522.975	493.394	-0.100	0.233
-521.960	301.551	0.073	-0.137
-520.945	-145.817	-0.333	-0.030
-519.931	-200.000	0.004	0.134
-518.916	290.016	-0.110	-0.203
-517.902	-148.910	-0.249	-0.020
-516.887	48.124	-0.177	-0.169
-515.872	-99.929	0.226	-0.058
-514.858	-171.456	-0.287	-0.010
-513.843	406.996	-0.062	0.134
-512.829	-200.000	-0.008	0.398
-511.814	-200.000	0.000	-0.082
-510.799	-80.335	0.268	-0.091
-509.785	76.190	0.144	-0.156
-508.770	106.334	-0.273	-0.330
-507.756	123.334	0.042	-0.053
-506.741	-37.671	-0.350	0.190
-505.726	-16.527	0.140	0.090
-504.712	639.349	-0.089	0.230
-503.697	-25.349	-0.236	-0.142
-502.683	-200.000	0.017	-0.552
-501.668	800.000	-0.061	-0.225
-500.653	264.623	0.080	-0.142
-499.639	4.978	0.264	0.198
-498.624	-200.000	-0.013	0.180
-497.610	-47.496	-0.256	0.127
-496.595	800.000	-0.016	-0.072
-495.581	103.293	-0.236	-0.282
-494.566	-67.147	-0.305	-0.122
-493.551	221.407	0.182	0.298
-492.537	-127.378	-0.251	0.037
-491.522	78.274	-0.252	-0.275
-490.508	-135.404	0.383	0.047
-489.493	-100.966	0.249	-0.062
-488.478	177.293	0.077	-0.115
-487.464	16.534	-0.083	0.067
-486.449	-2.651	-0.327	0.233
-485.435	54.655	0.041	-0.040
-484.420	119.984	-0.059	-0.075
-483.405	-200.000	0.003	0.302
-482.391	40.486	0.250	-0.229
-481.376	800.000	0.114	-0.348
-480.362	454.594	0.170	-0.383
-479.347	-85.073	0.182	0.058
-478.332	-200.000	-0.016	0.176
-477.318	-200.000	-0.038	0.220
-476.303	-47.901	-0.070	-0.035
-475.289	321.379	-0.116	0.226
-474.274	399.094	0.124	0.264
-473.259	-166.929	0.499	0.021
-472.245	-200.000	0.000	-0.141
-471.230	8.127	0.030	0.023
-470.216	-11.652	0.027	0.018
-469.201	-120.707	0.099	0.017
-468.186	-181.221	0.213	0.004
-467.172	466.858	-0.140	0.321
-466.157	-131.261	0.216	0.029
-465.143	-32.356	0.254	0.144
-464.128	-111.688	-0.151	0.031
-463.113	-39.140	0.109	0.059
-462.099	-88.703	0.236	0.072
-461.084	434.473	-0.040	0.088
-460.070	135.755	-0.148	0.196
-459.055	-75.479	0.130	-0.047
-458.040	72.245	-0.160	0.170
-457.026	-200.000	-0.014	0.132
-456.011	-135.961	0.445	0.053
-454.997	337.443	0.011	-0.022
-453.982	-200.000	-0.028	0.312
-452.968	329.034	-0.059	-0.115
-451.953	30.576	-0.255	-0.222
-450.938	62.335	0.151	0.153
-449.924	-200.000	0.006	-0.286
-448.909	636.124	0.050	0.128
-447.895	-150.422	0.259	-0.020
-446.880	-200.000	-0.020	0.254
-445.865	-33.850	-0.072	0.040
-444.851	488.756	0.167	0.389
-443.836	800.000	0.058	-0.190
-442.822	-78.295	-0.328	0.115
-441.807	209.625	-0.058	-0.092
-440.792	151.757	0.217	-0.301
-439.778	-146.714	-0.589	-0.052
-438.763	667.307	0.124	-0.326
-437.749	-99.587	0.091	-0.023
-436.734	-155.571	0.117	0.008
-435.719	59.763	0.109	0.109
-434.705	198.538	0.126	-0.196
-433.690	45.278	0.055	-0.052
-432.676	161.028	0.139	-0.198
-431.661	35.879	-0.198	0.177
-430.646	82.199	-0.005	-0.005
-429.632	66.153	0.119	0.123
-428.617	100.846	-0.242	0.286
-427.603	232.328	-0.023	0.038
-426.588	-50.017	-0.178	0.086
-425.573	-140.821	-0.049	-0.005
-424.559	136.290	0.178	-0.236
-423.544	249.000	-0.147	-0.254
-422.530	-200.000	0.056	0.312
-421.515	-74.691	-0.115	0.042
-420.500	-74.318	-0.133	-0.049
-419.486	145.508	-0.216	0.294
-418.471	-200.000	0.052	0.256
-417.457	-200.000	-0.037	-0.190
-416.442	720.498	0.097	-0.263
-415.428	-200.000	0.005	0.248
-414.413	-158.442	-0.180	0.011
-413.398	51.679	0.076	-0.073
-412.384	-200.000	0.004	0.230
-411.369	115.158	-0.152	0.189
-410.355	114.711	-0.094	-0.117
-409.340	51.062	0.193	-0.186
-408.325	-48.720	-0.279	0.136
-407.311	800.000	0.099	0.278
-406.296	-101.106	-0.188	0.047
-405.282	-95.136	-0.394	-0.108
-404.267	800.000	-0.046	0.156
-403.252	-200.000	0.357	-0.001
-402.238	-168.802	-0.405	0.016
-401.223	111.570	0.185	0.227
-400.209	32.630	0.240	0.211
-399.194	-3.018	0.199	0.141
-398.179	-200.000	-0.017	-0.367
-397.165	800.000	0.057	-0.216
-396.150	-62.989	-0.364	0.153
-395.136	800.000	-0.050	0.143
-394.121	-31.227	0.075	-0.043
-393.106	331.944	0.115	-0.226
-392.092	-148.080	-0.120	-0.010
-391.077	2.933	-0.105	-0.077
-390.063	54.401	-0.174	0.171
-389.048	38.365	0.101	0.091
-388.033	-47.363	-0.213	-0.105
-387.019	800.000	0.028	-0.090
-386.004	-200.000	0.014	-0.250
-384.990	356.538	0.096	0.195
-383.975	800.000	-0.037	-0.129
-382.960	473.042	-0.043	-0.098
-381.946	-200.000	0.025	-0.312
-380.931	0.467	0.205	-0.148
-379.917	-175.210	0.187	-0.005
-378.902	800.000	0.047	0.165
-377.888	668.161	0.115	-0.301
-376.873	-46.328	-0.249	-0.124
-375.858	154.703	0.102	0.143
-374.844	800.000	-0.116	0.478
-373.829	-200.000	0.062	-0.360
-372.815	800.000	0.095	-0.310
-371.800	63.447	0.286	-0.291
-370.785	51.618	0.092	0.089
-369.771	-57.148	0.060	0.027
-368.756	273.555	0.117	0.210
-367.742	-200.000	0.022	-0.169
-366.727	192.612	0.141	0.216
-365.712	674.463	0.118	0.311
-364.698	-34.590	0.317	0.176
-363.683	-177.716	0.403	0.010
-362.669	-103.916	0.142	-0.034
-361.654	95.624	-0.177	0.205
-360.639	606.519	-0.037	0.093
-359.625	745.905	-0.063	-0.172
-358.610	78.802	0.116	-0.126
-357.596	-125.775	-0.200	-0.031
-356.581	-200.000	-0.000	0.024
-355.566	-200.000	0.093	-0.511
-354.552	-200.000	0.005	-0.227
-353.537	245.966	0.008	0.013
-352.523	-99.583	-0.283	-0.072
-351.508	-103.207	0.344	-0.083
-350.493	-93.994	0.024	-0.007
-349.479	-200.000	0.043	0.348
-348.464	-41.796	0.157	-0.082
-347.450	-60.315	-0.121	-0.052
-346.435	297.113	0.130	0.242
-345.420	-200.000	0.039	0.231
-344.406	800.000	0.049	0.142
-343.391	147.384	-0.171	0.234
-342.377	-56.741	-0.101	0.045
-341.362	49.202	-0.384	-0.366
-340.348	196.975	0.084	-0.130
-339.333	-155.240	-0.007	-0.000
-338.318	-200.000	0.020	-0.436
-337.304	101.578	-0.036	0.042
-336.289	24.766	-0.256	0.215
-335.275	187.059	0.081	-0.122
-334.260	-18.435	-0.137	-0.087
-333.245	-200.000	0.017	-0.097
-332.231	-147.500	0.315	-0.027
-331.216	-135.951	0.269	-0.032
-330.202	31.768	-0.167	0.146
-329.187	-48.396	0.177	-0.086
-328.172	220.986	0.107	-0.174
-327.158	800.000	0.035	0.102
-326.143	-84.321	-0.340	0.109
-325.129	-139.657	-0.219	0.024
-324.114	800.000	0.070	-0.265
-323.099	-200.000	0.019	-0.121
-322.085	-12.251	-0.148	0.098
-321.070	-1.450	0.200	-0.143
-320.056	253.399	0.034	0.059
-319.041	6.959	-0.390	0.295
-318.026	35.401	0.034	0.031
-317.012	800.000	0.061	0.264
-315.997	297.108	-0.201	0.374
-314.983	-32.950	-0.043	0.024
-313.968	-99.196	-0.317	-0.081
-312.953	-200.000	-0.013	0.093
-311.939	-194.677	0.427	-0.003
-310.924	-87.613	0.144	-0.044
-309.910	64.211	-0.361	0.368
-308.895	297.502	0.106	-0.197
-307.880	-2.292	0.136	-0.097
-306.866	-144.523	0.213	0.020
-305.851	439.138	-0.103	-0.228
-304.837	-33.453	0.167	0.093
-303.822	-161.129	-0.143	0.008
-302.807	800.000	0.060	-0.197
-301.793	-200.000	0.060	-0.393
-300.778	473.960	-0.043	0.097
-299.764	-28.354	-0.238	0.139
-298.749	10.543	-0.423	-0.326
-297.735	-34.743	0.106	0.059
-296.720	-58.520	0.302	-0.133
-295.705	-116.553	0.087	0.016
-294.691	-172.571	-0.314	0.010
-293.676	-69.603	0.264	-0.102
-292.662	-200.000	0.016	-0.291
-291.647	30.123	-0.183	-0.158
-290.632	6.734	0.119	-0.089
-289.618	-160.393	0.349	0.019
-288.603	624.471	-0.015	-0.038
-287.589	-200.000	0.041	-0.227
-286.574	66.301	0.262	0.269
-285.559	230.938	0.084	-0.140
-284.545	53.428	-0.196	-0.191
-283.530	-7.676	-0.370	-0.253
-282.516	196.912	-0.081	0.125
-281.501	787.271	-0.170	-0.472
-280.486	161.410	-0.114	-0.162
-279.472	511.988	-0.075	-0.177
-278.457	-49.541	-0.184	-0.089
-277.443	-200.000	0.048	-0.341
-276.428	-119.419	0.156	-0.027
-275.413	-140.656	0.242	0.025
-274.399	292.186	-0.173	-0.319
-273.384	225.150	-0.193	-0.316
-272.370	71.908	0.042	0.045
-271.355	-200.000	-0.010	0.211
-270.340	-200.000	0.000	-0.251
-269.326	-108.262	-0.060	0.013
-268.311	-37.022	0.052	0.028
-267.297	-200.000	0.024	0.188
-266.282	-45.953	-0.261	0.130
-265.267	433.719	0.092	0.202
-264.253	384.891	0.119	0.247
-263.238	-200.000	0.023	0.263
-262.224	-53.934	-0.275	0.127
-261.209	800.000	0.057	0.240
-260.195	142.355	0.124	0.166
-259.180	191.237	-0.196	0.298
-258.165	-200.000	0.001	-0.047
-257.151	-200.000	-0.005	0.121
-256.136	-29.347	0.089	-0.052
-255.122	42.903	0.088	0.081
-254.107	800.000	-0.067	0.230
-253.092	287.950	-0.196	0.358
-252.078	130.978	0.062	-0.080
-251.063	-129.944	0.274	0.038
-250.049	691.576	0.035	0.092
-249.034	199.442	-0.113	0.175
-248.019	125.822	-0.137	0.174
-247.005	-47.609	-0.348	-0.171
-245.990	-19.859	-0.055	0.034
-244.976	-114.082	0.149	0.029
-243.961	274.534	0.187	-0.334
-242.946	-200.000	0.002	-0.045
-241.932	-159.160	0.379	0.022
-240.917	664.674	0.186	-0.485
-239.903	81.872	0.175	-0.191
-238.888	-170.427	-0.176	-0.006
-237.873	-80.223	0.194	-0.065
-236.859	-200.000	0.012	0.135
-235.844	800.000	-0.044	-0.182
-234.830	336.119	0.032	0.062
-233.815	-124.253	-0.156	-0.025
-232.800	-64.614	-0.122	-0.050
-231.786	-88.620	-0.348	0.105
-230.771	80.107	0.025	0.027
-229.757	-79.131	0.042	-0.014
-228.742	314.922	0.036	0.068
-227.727	-101.716	-0.372	0.091
-226.713	-49.227	0.084	-0.040
-225.698	-82.600	-0.143	0.047
-224.684	-90.852	-0.145	0.042
-223.669	-72.495	-0.185	0.069
-222.655	178.039	0.068	0.100
-221.640	-200.000	0.016	0.122
-220.625	-7.871	0.159	0.108
-219.611	-122.899	-0.147	0.024
-218.596	-21.781	-0.112	-0.069
-217.582	10.680	-0.036	-0.028
-216.567	4.484	0.138	-0.102
-215.552	-200.000	-0.014	0.090
-214.538	-21.112	0.291	0.180
-213.523	-57.725	-0.139	-0.061
-212.509	-128.806	-0.198	0.028
-211.494	800.000	0.030	0.083
-210.479	116.905	0.068	0.084
-209.465	-167.069	-0.401	-0.016
-208.450	14.954	0.144	-0.113
-207.436	-123.434	-0.306	-0.049
-206.421	800.000	-0.071	0.208
-205.406	-66.213	0.100	-0.040
-204.392	-87.260	0.185	0.057
-203.377	-148.624	0.207	0.017
-202.363	-74.085	0.205	-0.075
-201.348	392.927	-0.054	0.113
-200.333	606.824	-0.056	0.142
-199.319	159.035	-0.183	0.257
-198.304	16.837	-0.351	-0.280
-197.290	88.657	-0.157	-0.176
-196.275	-91.227	0.234	0.067
-195.260	-200.000	-0.008	0.181
-194.246	271.644	-0.145	-0.258
-193.231	-87.932	-0.276	-0.084
-192.217	-200.000	0.001	0.113
-191.202	-200.000	0.007	0.093
-190.187	-166.426	0.249	-0.011
-189.173	-38.213	0.410	0.219
-188.158	-200.000	0.019	0.161
-187.144	429.137	-0.111	-0.241
-186.129	203.342	0.148	0.230
-185.114	-104.523	-0.218	0.051
-184.100	-120.961	-0.247	-0.042
-183.085	-43.646	0.144	-0.073
-182.071	-129.765	0.133	0.018
-181.056	-200.000	-0.006	-0.232
-180.042	800.000	0.088	0.253
-179.027	800.000	-0.066	0.187
-178.012	800.000	0.062	0.216
-176.998	-126.198	-0.320	0.048
-175.983	47.143	0.230	0.215
-174.969	-56.001	-0.119	0.053
-173.954	84.856	-0.048	-0.053
-172.939	-118.087	0.135	-0.024
-171.925	800.000	0.073	0.239
-170.910	52.846	-0.206	0.199
-169.896	306.890	0.182	-0.342
-168.881	800.000	-0.031	-0.128
-167.866	111.139	-0.220	-0.266
-166.852	561.490	-0.101	-0.246
-165.837	-73.710	0.137	0.050
-164.823	-162.840	0.123	0.006
-163.808	-53.694	-0.167	-0.077
-162.793	-3.460	0.063	-0.044
-161.779	-79.523	-0.261	-0.089
-160.764	547.170	-0.057	-0.137
-159.750	-113.942	0.132	0.026
-158.735	-53.543	0.291	-0.134
-157.720	-82.211	-0.271	-0.089
-156.706	-10.909	0.207	0.137
-155.691	218.803	0.181	-0.291
-154.677	-53.487	0.264	-0.122
-153.662	-91.481	-0.275	0.079
-152.647	-159.715	-0.292	-0.016
-151.633	318.112	-0.074	0.140
-150.618	-200.000	0.011	0.107
-149.604	3.505	-0.106	0.078
-148.589	182.951	0.175	0.259
-147.574	800.000	0.017	0.047
-146.560	-200.000	0.044	-0.222
-145.545	-152.161	-0.254	-0.019
-144.531	-126.159	0.207	0.031
-143.516	-200.000	0.005	0.061
-142.502	-200.000	0.047	-0.270
-141.487	-116.336	0.161	-0.030
-140.472	-75.576	0.102	-0.036
-139.458	-200.000	0.052	-0.368
-138.443	-16.314	-0.046	0.029
-137.429	-133.759	0.241	-0.030
-136.414	-96.782	0.117	-0.031
-135.399	135.202	0.143	0.187
-134.385	800.000	-0.060	0.208
-133.370	190.932	0.101	-0.154
-132.356	-56.614	-0.235	0.105
-131.341	-44.267	0.199	-0.100
-130.326	465.756	-0.068	0.152
-129.312	83.162	0.309	0.339
-128.297	-102.342	-0.067	-0.016
-127.283	-200.000	-0.013	-0.078
-126.268	-92.806	0.318	0.089
-125.253	20.715	-0.064	-0.052
-124.239	-200.000	-0.008	-0.333
-123.224	445.780	-0.095	-0.210
-122.210	-200.000	0.012	-0.216
-121.195	41.005	0.062	0.056
