DTS Sentinel unit serial number:	SN413079Multiplexer serial number:	ORYXHardware model number:	OX4-SRSoftware version number:	ORYX F/W v4.00 Oryx Data Collector v3.7.2.0data status	okinstallation	princeton_trtdifferential loss correction	single-endedforward channel	channel 4reverse channel	N/Adate	2019/09/16time	17:33:35forward acquisition time	60.00reverse acquisition time	0.00gamma	496.2192k internal	0.2297k external	0.2297temperature offset calibration	0.9945default loss term (dB/km)	0.3790temperature slope calibration	1.0000multiplexer offset coefficient	1.0000multiplexer slope coefficient	1.0000fibre end	0.00T internal ref (°C)	38.37T ext. ref 1 (°C)	15.49T ext. ref 2 (°C)	32.41length (m)	temperature (°C)	Stokes	anti-Stokes-747.200	800.000	0.081	0.327
-746.185	674.954	0.132	0.350
-745.171	-12.274	0.197	-0.132
-744.156	48.073	-0.181	-0.173
-743.142	-57.327	-0.134	-0.060
-742.127	-99.232	-0.145	-0.037
-741.112	-101.160	0.090	-0.023
-740.098	-67.317	0.185	0.074
-739.083	-200.000	0.071	-0.000
-738.069	66.004	0.234	0.243
-737.054	84.893	0.011	0.012
-736.039	-107.132	-0.338	0.076
-735.025	-10.126	-0.343	0.232
-734.010	-137.848	-0.256	-0.029
-732.996	800.000	-0.062	-0.235
-731.981	-3.395	-0.046	0.033
-730.966	-45.898	-0.352	0.177
-729.952	14.166	0.110	0.087
-728.937	313.276	0.079	-0.151
-727.923	14.779	-0.122	-0.097
-726.908	247.364	0.280	-0.484
-725.894	-33.008	0.187	-0.106
-724.879	720.283	0.037	-0.101
-723.864	26.227	-0.100	-0.085
-722.850	119.051	-0.132	-0.167
-721.835	718.004	-0.108	0.294
-720.821	-200.000	-0.004	0.033
-719.806	-134.146	-0.340	-0.043
-718.791	-135.685	-0.369	0.045
-717.777	-30.535	0.055	0.032
-716.762	-26.721	0.077	0.046
-715.748	-200.000	-0.032	-0.279
-714.733	-31.133	-0.315	-0.181
-713.718	-166.956	-0.146	-0.006
-712.704	466.235	0.105	-0.240
-711.689	71.696	0.165	-0.175
-710.675	218.818	0.078	0.128
-709.660	-89.689	-0.198	-0.059
-708.645	800.000	-0.057	-0.208
-707.631	279.019	-0.079	0.144
-706.616	12.392	0.327	-0.257
-705.602	-88.494	-0.339	0.103
-704.587	-57.993	0.127	0.056
-703.572	112.364	-0.205	0.253
-702.558	93.806	0.197	-0.227
-701.543	90.769	0.154	-0.176
-700.529	483.393	-0.054	-0.124
-699.514	-200.000	-0.002	0.261
-698.499	45.292	0.138	0.130
-697.485	162.824	-0.138	0.197
-696.470	-72.963	-0.205	-0.077
-695.456	25.231	-0.087	0.074
-694.441	-200.000	-0.020	0.105
-693.426	800.000	-0.026	0.097
-692.412	-200.000	0.024	-0.463
-691.397	-134.391	-0.081	-0.010
-690.383	800.000	0.082	0.236
-689.368	-167.237	-0.173	-0.007
-688.354	-200.000	-0.001	-0.079
-687.339	419.099	0.027	-0.059
-686.324	-36.680	-0.125	-0.069
-685.310	102.615	-0.154	0.184
-684.295	-58.355	-0.159	-0.070
-683.281	262.792	0.066	0.116
-682.266	-171.443	-0.049	-0.002
-681.251	-24.151	-0.258	0.157
-680.237	161.991	-0.106	0.151
-679.222	-200.000	-0.001	-0.172
-678.208	-200.000	-0.025	-0.377
-677.193	12.799	0.314	0.247
-676.178	-199.182	0.349	0.002
-675.164	-200.000	-0.002	-0.021
-674.149	800.000	0.102	-0.322
-673.135	-200.000	-0.014	-0.105
-672.120	25.328	-0.236	-0.200
-671.105	800.000	-0.051	-0.185
-670.091	800.000	-0.046	-0.174
-669.076	75.869	-0.250	-0.269
-668.062	-200.000	-0.004	0.061
-667.047	-171.047	-0.330	0.011
-666.032	101.918	0.054	-0.064
-665.018	215.287	0.075	0.122
-664.003	334.681	0.028	0.055
-662.989	800.000	0.023	0.066
-661.974	-127.729	-0.153	0.023
-660.959	466.039	-0.033	-0.074
-659.945	800.000	0.063	0.259
-658.930	26.756	-0.154	0.132
-657.916	-172.466	-0.096	0.003
-656.901	-42.534	-0.138	0.072
-655.886	162.140	0.090	0.129
-654.872	-108.022	-0.323	-0.071
-653.857	-167.868	-0.205	-0.008
-652.843	-121.932	-0.075	-0.013
-651.828	733.431	-0.101	-0.276
-650.814	-200.000	-0.001	-0.075
-649.799	369.715	0.042	-0.087
-648.784	152.649	0.109	-0.152
-647.770	-117.923	0.404	-0.074
-646.755	-200.000	-0.023	-0.260
-645.741	44.445	-0.251	0.234
-644.726	-35.623	-0.118	-0.065
-643.711	-59.314	-0.081	0.035
-642.697	-74.064	-0.150	-0.055
-641.682	5.593	-0.106	-0.080
-640.668	-22.458	-0.372	-0.229
-639.653	-200.000	-0.022	-0.128
-638.638	215.176	-0.022	0.036
-637.624	-200.000	-0.062	0.477
-636.609	-200.000	0.012	-0.188
-635.595	234.086	-0.078	0.131
-634.580	-46.523	0.215	-0.107
-633.565	23.910	0.049	-0.041
-632.551	-200.000	-0.002	-0.036
-631.536	72.089	0.183	-0.194
-630.522	27.413	-0.170	0.145
-629.507	-91.655	-0.270	-0.078
-628.492	800.000	0.058	0.170
-627.478	-19.648	0.165	0.104
-626.463	-200.000	-0.017	0.158
-625.449	64.851	-0.159	-0.163
-624.434	800.000	-0.086	-0.297
-623.419	-200.000	0.013	0.223
-622.405	-200.000	0.035	-0.297
-621.390	-53.828	0.344	0.160
-620.376	800.000	-0.135	0.477
-619.361	309.874	0.074	-0.140
-618.346	202.053	-0.078	0.122
-617.332	-43.145	0.162	0.083
-616.317	-110.481	-0.227	-0.048
-615.303	-200.000	0.004	-0.048
-614.288	800.000	-0.031	-0.120
-613.273	800.000	0.029	0.093
-612.259	-121.638	-0.286	-0.048
-611.244	135.298	0.143	0.189
-610.230	-84.894	0.206	0.066
-609.215	776.305	-0.107	0.297
-608.201	-18.676	-0.122	-0.077
-607.186	-61.897	-0.178	0.076
-606.171	-123.394	-0.054	-0.009
-605.157	-108.943	-0.249	-0.054
-604.142	-95.877	0.285	-0.077
-603.128	-4.865	0.280	0.196
-602.113	99.096	-0.229	0.269
-601.098	-200.000	-0.035	-0.237
-600.084	86.750	-0.130	0.146
-599.069	-97.996	0.101	0.026
-598.055	263.540	0.134	0.236
-597.040	54.624	-0.257	-0.252
-596.025	-159.544	0.066	0.004
-595.011	108.554	0.096	-0.116
-593.996	33.195	0.193	-0.170
-592.982	-3.947	0.140	0.098
-591.967	-188.654	-0.084	-0.001
-590.952	93.693	-0.320	-0.368
-589.938	53.805	0.126	-0.123
-588.923	800.000	0.062	0.173
-587.909	-26.418	0.056	-0.033
-586.894	-133.953	0.152	0.019
-585.879	723.143	-0.092	-0.249
-584.865	-39.537	-0.144	-0.076
-583.850	-72.966	-0.079	-0.030
-582.836	230.029	-0.186	-0.309
-581.821	-140.805	0.069	0.007
-580.806	-75.552	-0.168	-0.060
-579.792	80.478	-0.139	-0.152
-578.777	472.173	-0.096	-0.220
-577.763	92.718	-0.249	-0.285
-576.748	-200.000	0.040	-0.466
-575.733	245.740	-0.034	0.058
-574.719	800.000	-0.035	0.141
-573.704	-200.000	-0.014	0.272
-572.690	32.786	-0.162	-0.142
-571.675	318.346	0.167	-0.320
-570.661	-112.674	-0.225	-0.045
-569.646	-97.083	-0.420	-0.112
-568.631	-152.938	0.246	0.018
-567.617	592.900	0.066	-0.166
-566.602	-200.000	-0.031	-0.279
-565.588	-62.285	-0.031	-0.013
-564.573	717.832	-0.062	0.168
-563.558	-146.168	-0.141	0.013
-562.544	5.717	-0.125	-0.094
-561.529	-17.116	0.236	0.151
-560.515	-137.650	-0.505	-0.058
-559.500	-200.000	-0.010	0.232
-558.485	-51.982	-0.313	-0.147
-557.471	-22.561	-0.204	-0.125
-556.456	7.244	0.270	0.204
-555.442	109.139	0.163	0.198
-554.427	-200.000	-0.008	-0.108
-553.412	-159.131	0.203	-0.012
-552.398	-104.246	0.350	-0.082
-551.383	-200.000	-0.011	-0.335
-550.369	536.222	0.187	-0.449
-549.354	-120.296	-0.217	0.038
-548.339	-16.949	0.451	0.289
-547.325	-108.516	0.139	-0.030
-546.310	800.000	-0.053	0.165
-545.296	-94.333	-0.187	0.052
-544.281	800.000	0.083	-0.256
-543.266	546.377	0.061	0.148
-542.252	100.325	0.207	0.244
-541.237	13.125	-0.139	-0.109
-540.223	-123.051	-0.153	-0.025
-539.208	-200.000	-0.010	-0.254
-538.193	246.982	0.107	0.183
-537.179	-200.000	-0.004	0.169
-536.164	46.284	-0.075	-0.071
-535.150	685.957	0.106	-0.280
-534.135	-200.000	0.002	-0.185
-533.121	-83.042	0.195	0.064
-532.106	594.246	-0.104	-0.262
-531.091	800.000	-0.046	0.205
-530.077	-200.000	-0.024	0.228
-529.062	-129.954	-0.047	-0.007
-528.048	21.937	0.103	0.085
-527.033	40.782	0.146	-0.133
-526.018	20.819	-0.032	0.026
-525.004	-192.565	-0.429	-0.004
-523.989	-75.845	-0.067	-0.024
-522.975	800.000	-0.081	0.244
-521.960	-200.000	-0.015	0.152
-520.945	-200.000	0.117	-0.605
-519.931	-77.249	-0.025	-0.009
-518.916	-184.997	0.101	0.002
-517.902	-12.455	-0.163	0.108
-516.887	146.120	-0.161	-0.219
-515.872	-28.099	0.284	-0.166
-514.858	-200.000	0.082	0.415
-513.843	115.901	0.238	0.295
-512.829	11.125	0.120	0.093
-511.814	53.925	-0.204	0.198
-510.799	-23.971	0.214	0.130
-509.785	800.000	-0.052	-0.160
-508.770	37.614	-0.176	-0.159
-507.756	-76.528	-0.059	-0.021
-506.741	-200.000	0.007	0.176
-505.726	-87.472	0.335	0.103
-504.712	198.368	0.111	0.171
-503.697	173.121	-0.192	0.281
-502.683	-165.295	-0.414	-0.018
-501.668	26.807	-0.178	-0.151
-500.653	800.000	-0.064	-0.229
-499.639	71.909	-0.053	0.056
-498.624	-200.000	-0.005	-0.335
-497.610	144.289	0.238	-0.321
-496.595	-76.698	-0.062	0.022
-495.581	-160.278	0.228	0.012
-494.566	636.357	-0.032	0.081
-493.551	-200.000	0.010	0.102
-492.537	-142.062	-0.127	-0.013
-491.522	61.235	0.219	-0.220
-490.508	-115.227	0.220	-0.042
-489.493	800.000	-0.022	-0.093
-488.478	731.771	0.063	0.169
-487.464	-185.447	0.334	0.005
-486.449	-4.705	-0.311	-0.217
-485.435	800.000	-0.032	0.096
-484.420	-132.140	0.255	0.033
-483.405	-37.112	0.103	-0.056
-482.391	437.281	0.124	0.273
-481.376	-137.409	-0.132	0.015
-480.362	-56.718	-0.259	-0.116
-479.347	-49.670	-0.267	0.128
-478.332	-70.595	-0.160	0.061
-477.318	69.153	-0.169	0.175
-476.303	66.055	0.184	0.189
-475.289	-200.000	0.023	0.199
-474.274	4.197	0.202	-0.149
-473.259	50.018	0.035	-0.033
-472.245	800.000	-0.041	0.167
-471.230	800.000	-0.040	0.126
-470.216	-49.290	0.099	0.048
-469.201	-200.000	0.026	0.186
-468.186	468.515	-0.030	-0.067
-467.172	-200.000	-0.022	0.246
-466.157	-200.000	0.052	-0.245
-465.143	-138.520	-0.426	-0.047
-464.128	30.877	0.153	0.132
-463.113	-161.375	-0.063	-0.003
-462.099	425.241	-0.144	0.313
-461.084	81.912	-0.269	0.294
-460.070	800.000	-0.124	0.362
-459.055	-118.058	-0.122	-0.022
-458.040	-10.870	-0.059	0.039
-457.026	-44.266	-0.205	0.104
-456.011	-118.261	-0.124	0.022
-454.997	-88.363	-0.310	-0.094
-453.982	64.269	-0.178	-0.181
-452.968	266.668	0.152	0.269
-451.953	-105.358	0.212	-0.049
-450.938	800.000	0.033	0.133
-449.924	-200.000	-0.019	0.322
-448.909	-200.000	-0.053	-0.378
-447.895	0.851	-0.191	0.138
-446.880	-36.341	-0.322	0.175
-445.865	-6.005	0.211	-0.145
-444.851	199.773	0.075	0.116
-443.836	-110.004	-0.234	-0.049
-442.822	94.847	0.158	-0.182
-441.807	-200.000	0.002	0.075
-440.792	293.962	-0.141	-0.259
-439.778	-200.000	0.043	-0.227
-438.763	-116.130	0.124	-0.023
-437.749	43.606	0.128	0.118
-436.734	-103.854	-0.166	-0.039
-435.719	463.860	0.152	-0.342
-434.705	145.354	-0.182	-0.247
-433.690	800.000	-0.012	0.046
-432.676	47.271	0.172	-0.162
-431.661	-69.172	-0.054	0.021
-430.646	-200.000	0.004	0.078
-429.632	800.000	0.104	-0.375
-428.617	-200.000	-0.025	-0.122
-427.603	758.746	-0.037	-0.100
-426.588	37.741	-0.176	0.158
-425.573	126.029	-0.053	0.067
-424.559	7.245	-0.272	0.205
-423.544	349.351	0.129	-0.257
-422.530	-52.289	0.250	-0.117
-421.515	800.000	-0.027	-0.097
-420.500	-52.216	0.146	-0.068
-419.486	-200.000	0.012	0.059
-418.471	119.148	-0.048	-0.059
-417.457	-123.647	0.333	0.053
-416.442	347.399	-0.150	-0.298
-415.428	-27.294	-0.058	-0.034
-414.413	248.626	-0.083	-0.141
-413.398	800.000	0.148	-0.504
-412.384	284.178	0.119	0.216
-411.369	62.039	-0.139	0.140
-410.355	-38.020	0.219	0.117
-409.340	27.738	-0.198	-0.168
-408.325	800.000	-0.051	-0.171
-407.311	800.000	-0.064	0.224
-406.296	186.357	-0.107	-0.160
-405.282	160.308	-0.157	-0.220
-404.267	-113.176	0.234	-0.046
-403.252	-4.593	-0.284	0.198
-402.238	-200.000	-0.019	0.133
-401.223	-200.000	0.000	0.004
-400.209	-78.624	0.192	0.066
-399.194	103.714	-0.338	0.400
-398.179	800.000	0.025	-0.082
-397.165	-75.351	0.375	0.135
-396.150	-200.000	-0.029	0.241
-395.136	-84.700	0.420	0.133
-394.121	232.072	-0.048	0.079
-393.106	800.000	-0.044	0.175
-392.092	-60.360	-0.247	0.106
-391.077	-200.000	0.029	0.206
-390.063	-96.248	-0.066	0.018
-389.048	-125.376	-0.130	0.020
-388.033	-20.371	0.160	-0.099
-387.019	121.533	-0.109	0.137
-386.004	358.385	0.142	-0.287
-384.990	-77.204	0.220	-0.077
-383.975	-109.792	-0.263	-0.056
-382.960	-200.000	0.029	0.246
-381.946	-26.908	-0.142	-0.083
-380.931	127.735	0.072	-0.092
-379.917	-71.890	-0.288	-0.108
-378.902	800.000	0.087	0.259
-377.888	325.154	0.058	0.112
-376.873	47.564	-0.131	-0.123
-375.858	-200.000	0.014	-0.155
-374.844	-82.660	-0.188	-0.061
-373.829	455.429	0.061	0.137
-372.815	130.794	0.112	0.145
-371.800	-95.800	-0.102	-0.028
-370.785	800.000	0.082	0.231
-369.771	-200.000	-0.040	-0.381
-368.756	-110.524	-0.167	0.035
-367.742	-200.000	0.018	0.270
-366.727	800.000	0.119	0.414
-365.712	-33.680	0.122	0.068
-364.698	-48.093	0.235	0.114
-363.683	-10.471	0.124	0.082
-362.669	-135.349	-0.289	-0.035
-361.654	40.320	0.206	0.187
-360.639	20.675	0.188	0.153
-359.625	184.027	0.080	-0.119
-358.610	800.000	-0.084	-0.279
-357.596	119.647	-0.020	0.025
-356.581	-200.000	0.417	0.001
-355.566	25.463	-0.124	-0.103
-354.552	-200.000	0.002	-0.030
-353.537	345.879	0.047	0.094
-352.523	74.170	-0.119	-0.126
-351.508	156.632	-0.147	-0.205
-350.493	-16.842	-0.215	-0.137
-349.479	-200.000	0.000	0.056
-348.464	-16.713	0.347	0.221
-347.450	-53.884	0.056	-0.026
-346.435	421.834	0.104	-0.225
-345.420	-200.000	-0.003	-0.259
-344.406	62.148	0.188	-0.189
-343.391	800.000	-0.064	0.194
-342.377	-30.496	-0.284	-0.162
-341.362	-6.756	-0.372	-0.255
-340.348	800.000	0.049	0.174
-339.333	-200.000	-0.067	0.399
-338.318	326.912	0.090	0.174
-337.304	800.000	0.066	-0.241
-336.289	34.184	-0.106	-0.093
-335.275	492.433	-0.149	-0.343
-334.260	657.345	-0.089	-0.230
-333.245	-138.014	0.228	0.026
-332.231	-91.656	0.227	0.065
-331.216	-81.331	0.407	0.135
-330.202	-60.015	-0.344	0.148
-329.187	-151.663	0.075	-0.006
-328.172	208.309	-0.167	-0.262
-327.158	28.515	0.165	0.140
-326.143	587.713	-0.089	0.220
-325.129	-66.665	0.295	0.117
-324.114	87.096	0.148	0.164
-323.099	-105.574	-0.277	0.063
-322.085	74.758	0.105	0.111
-321.070	-200.000	0.033	-0.337
-320.056	-130.904	-0.206	-0.028
-319.041	-200.000	0.037	-0.210
-318.026	308.938	-0.084	-0.158
-317.012	-200.000	-0.037	0.238
-315.997	160.983	0.025	-0.035
-314.983	81.519	0.284	-0.309
-313.968	-200.000	-0.012	-0.170
-312.953	149.439	-0.102	-0.139
-311.939	-200.000	-0.018	0.167
-310.924	-191.437	-0.193	-0.002
-309.910	-94.999	-0.422	0.115
-308.895	-1.453	-0.082	0.058
-307.880	12.531	0.041	0.032
-306.866	37.256	-0.232	0.206
-305.851	97.853	-0.231	0.267
-304.837	800.000	-0.019	0.082
-303.822	-85.943	0.392	-0.122
-302.807	289.784	0.127	-0.231
-301.793	-95.915	-0.399	0.107
-300.778	800.000	-0.073	0.210
-299.764	88.245	0.071	0.079
-298.749	800.000	-0.056	-0.230
-297.735	72.147	0.092	-0.096
-296.720	-11.331	-0.152	-0.100
-295.705	800.000	0.063	0.188
-294.691	-80.012	0.090	0.030
-293.676	800.000	0.077	-0.245
-292.662	-200.000	-0.005	-0.537
-291.647	-52.441	0.062	-0.029
-290.632	-27.109	0.124	0.073
-289.618	634.259	-0.119	0.304
-288.603	63.246	-0.096	0.097
-287.589	348.885	0.083	-0.164
-286.574	-179.478	0.190	-0.004
-285.559	-73.987	-0.111	-0.040
-284.545	-175.615	-0.158	0.004
-283.530	286.358	-0.153	0.277
-282.516	-42.484	0.471	-0.241
-281.501	10.103	-0.014	0.011
-280.486	-117.788	0.223	-0.040
-279.472	675.564	0.076	-0.198
-278.457	-36.251	-0.037	-0.020
-277.443	-18.950	0.159	-0.099
-276.428	384.218	-0.115	-0.238
-275.413	366.992	0.097	-0.197
-274.399	76.728	-0.044	0.046
-273.384	699.656	0.022	-0.058
-272.370	-200.000	0.015	-0.101
-271.355	35.810	-0.153	-0.135
-270.340	140.317	0.262	0.347
-269.326	800.000	0.061	-0.180
-268.311	270.046	0.251	-0.442
-267.297	-66.862	-0.167	0.066
-266.282	279.893	0.089	-0.159
-265.267	-82.397	0.326	0.106
-264.253	-143.900	0.242	-0.023
-263.238	62.346	0.175	-0.176
-262.224	-200.000	-0.011	-0.310
-261.209	124.707	-0.097	-0.122
-260.195	-200.000	-0.008	-0.108
-259.180	216.393	0.126	0.201
-258.165	159.395	-0.044	0.061
-257.151	194.524	0.045	-0.068
-256.136	-79.751	0.088	0.030
-255.122	-200.000	-0.016	0.110
-254.107	319.377	-0.174	0.330
-253.092	125.275	-0.154	-0.194
-252.078	624.399	0.114	0.287
-251.063	-200.000	0.084	-0.409
-250.049	-185.611	0.218	-0.003
-249.034	-93.383	0.330	-0.092
-248.019	-93.390	0.261	0.073
-247.005	800.000	0.017	-0.062
-245.990	259.136	0.187	0.324
-244.976	-88.712	0.126	0.038
-243.961	-200.000	-0.053	0.467
-242.946	653.494	-0.051	0.130
-241.932	447.300	0.031	-0.068
-240.917	418.410	-0.060	-0.129
-239.903	174.522	-0.095	-0.137
-238.888	800.000	-0.095	0.319
-237.873	158.698	0.064	0.089
-236.859	346.405	-0.064	0.126
-235.844	95.552	-0.230	0.262
-234.830	90.350	0.320	-0.358
-233.815	-200.000	-0.014	0.160
-232.800	-46.035	0.038	0.019
-231.786	139.006	-0.112	0.147
-230.771	172.029	0.124	0.178
-229.757	-200.000	0.040	0.176
-228.742	-145.149	-0.116	0.011
-227.727	-200.000	-0.019	-0.314
-226.713	-73.952	0.192	-0.070
-225.698	-129.988	0.317	0.043
-224.684	30.805	-0.340	-0.291
-223.669	225.557	0.135	0.220
-222.655	112.793	-0.096	0.116
-221.640	595.437	0.068	0.170
-220.625	15.137	0.105	-0.083
-219.611	54.037	0.206	0.198
-218.596	-134.484	0.166	-0.020
-217.582	-160.902	-0.074	-0.004
-216.567	143.520	-0.095	-0.127
-215.552	-142.914	-0.384	0.037
-214.538	174.761	-0.057	0.083
-213.523	-145.113	-0.133	-0.012
-212.509	800.000	0.018	-0.074
-211.494	640.114	-0.201	0.511
-210.479	-132.600	0.125	-0.016
-209.465	-12.210	0.148	-0.097
-208.450	346.733	0.105	0.207
-207.436	-168.513	0.129	-0.005
-206.421	520.986	-0.062	0.146
-205.406	800.000	-0.040	0.152
-204.392	22.479	-0.102	0.083
-203.377	800.000	0.034	0.147
-202.363	241.029	-0.033	-0.055
-201.348	-200.000	-0.038	0.202
-200.333	-96.860	0.277	0.073
-199.319	20.703	-0.167	0.135
-198.304	-24.614	0.266	-0.158
-197.290	-200.000	-0.079	-0.379
-196.275	139.445	0.174	0.229
-195.260	118.673	0.104	0.128
-194.246	-200.000	0.003	0.070
-193.231	-200.000	0.069	-0.365
-192.217	285.118	0.118	0.213
-191.202	800.000	-0.053	0.195
-190.187	185.247	0.189	0.281
-189.173	800.000	-0.046	0.190
-188.158	145.958	0.197	0.264
-187.144	190.469	-0.107	0.161
-186.129	-200.000	-0.027	0.390
-185.114	-148.481	0.158	0.013
-184.100	421.029	-0.056	-0.119
-183.085	112.159	0.176	-0.212
-182.071	-36.089	0.172	-0.093
-181.056	90.254	-0.264	-0.295
-180.042	-147.670	0.223	0.019
-179.027	68.659	-0.187	0.192
-178.012	-200.000	0.006	-0.183
-176.998	-86.696	0.110	-0.034
-175.983	-15.669	0.233	0.148
-174.969	-200.000	-0.023	-0.351
-173.954	800.000	-0.055	0.216
-172.939	-200.000	0.088	0.514
-171.925	-200.000	-0.005	-0.271
-170.910	97.157	-0.049	-0.056
-169.896	-200.000	-0.053	-0.243
-168.881	16.172	0.314	-0.247
-167.866	180.354	0.105	-0.153
-166.852	572.008	-0.123	0.300
-165.837	201.121	0.152	0.233
-164.823	800.000	-0.038	0.128
-163.808	-134.471	-0.012	0.001
-162.793	800.000	0.040	-0.111
-161.779	550.600	-0.112	-0.269
-160.764	-145.535	-0.229	0.020
-159.750	101.670	-0.252	-0.293
-158.735	-200.000	0.017	-0.309
-157.720	-73.210	0.096	0.035
-156.706	82.469	0.224	-0.243
-155.691	272.426	-0.149	0.262
-154.677	-79.130	-0.420	-0.142
-153.662	-20.103	0.198	0.122
-152.647	187.101	0.250	0.372
-151.633	-27.348	-0.356	0.207
-150.618	9.647	0.277	-0.210
-149.604	800.000	0.079	0.243
-148.589	105.112	-0.063	-0.074
-147.574	-8.671	0.242	-0.162
-146.560	800.000	-0.043	-0.148
-145.545	79.149	0.062	-0.067
-144.531	723.150	-0.050	0.134
-143.516	157.503	-0.244	0.337
-142.502	-200.000	0.009	0.172
-141.487	91.477	0.126	-0.142
-140.472	800.000	0.050	-0.161
-139.458	-200.000	-0.029	-0.420
-138.443	800.000	0.028	0.112
-137.429	261.726	0.118	0.204
-136.414	247.573	0.081	-0.137
-135.399	77.287	0.250	-0.265
-134.385	-76.057	-0.266	-0.094
-133.370	143.328	0.032	0.043
-132.356	205.515	-0.104	0.161
-131.341	119.981	-0.127	0.157
-130.326	-124.420	0.097	0.015
-129.312	800.000	0.055	0.160
-128.297	-200.000	-0.004	0.053
-127.283	415.588	-0.062	-0.131
-126.268	-200.000	0.017	0.191
-125.253	-1.162	-0.076	0.054
-124.239	131.715	0.149	-0.192
-123.224	345.024	0.014	-0.028
-122.210	-200.000	-0.012	0.289
