DTS Sentinel unit serial number:	SN413079Multiplexer serial number:	ORYXHardware model number:	OX4-SRSoftware version number:	ORYX F/W v4.00 Oryx Data Collector v3.7.2.0data status	okinstallation	princeton_trtdifferential loss correction	single-endedforward channel	channel 4reverse channel	N/Adate	2019/09/17time	04:01:35forward acquisition time	60.00reverse acquisition time	0.00gamma	496.2192k internal	0.2311k external	0.2311temperature offset calibration	0.9978default loss term (dB/km)	0.3790temperature slope calibration	1.0000multiplexer offset coefficient	1.0000multiplexer slope coefficient	1.0000fibre end	0.00T internal ref (°C)	29.87T ext. ref 1 (°C)	0.14T ext. ref 2 (°C)	24.39length (m)	temperature (°C)	Stokes	anti-Stokes-747.200	-23.474	-0.069	0.042
-746.185	-171.806	-0.222	0.007
-745.171	-61.714	0.272	0.116
-744.156	-200.000	0.033	0.147
-743.142	-28.609	0.039	-0.023
-742.127	-116.438	0.157	-0.029
-741.112	115.594	0.136	-0.169
-740.098	800.000	-0.027	0.086
-739.083	-102.260	-0.332	0.081
-738.069	-200.000	0.023	0.177
-737.054	800.000	0.084	0.348
-736.039	-19.675	0.181	-0.114
-735.025	-101.756	0.087	0.021
-734.010	-96.848	-0.204	-0.054
-732.996	-91.782	0.087	0.025
-731.981	4.787	-0.178	0.133
-730.966	494.888	-0.121	0.283
-729.952	578.259	-0.048	-0.118
-728.937	-122.814	-0.175	-0.029
-727.923	128.471	0.053	-0.069
-726.908	-200.000	-0.032	0.143
-725.894	800.000	-0.028	0.079
-724.879	-74.453	-0.221	0.081
-723.864	198.027	-0.103	0.159
-722.850	-200.000	0.002	-0.225
-721.835	-70.304	0.230	-0.089
-720.821	800.000	-0.134	0.569
-719.806	-35.016	-0.148	0.082
-718.791	-80.750	0.286	0.096
-717.777	-113.214	0.099	-0.020
-716.762	302.979	0.078	-0.146
-715.748	-73.806	0.062	0.023
-714.733	132.042	-0.126	0.165
-713.718	474.264	0.095	0.217
-712.704	-6.429	-0.305	0.211
-711.689	-146.458	0.531	0.047
-710.675	-165.625	0.165	-0.007
-709.660	-68.824	-0.333	-0.130
-708.645	-52.973	-0.160	-0.074
-707.631	-61.298	-0.469	-0.200
-706.616	-58.422	0.214	0.094
-705.602	203.624	0.102	-0.160
-704.587	52.776	0.060	0.058
-703.572	325.358	0.112	-0.218
-702.558	11.827	0.291	-0.227
-701.543	-200.000	0.054	-0.376
-700.529	-200.000	-0.018	0.127
-699.514	-44.115	-0.287	0.146
-698.499	800.000	0.029	0.085
-697.485	-200.000	0.059	-0.341
-696.470	-27.778	-0.143	0.084
-695.456	4.594	0.223	0.166
-694.441	-200.000	0.025	-0.265
-693.426	-53.537	0.238	0.110
-692.412	163.918	-0.269	-0.383
-691.397	25.945	0.084	0.071
-690.383	-200.000	0.023	-0.129
-689.368	-176.373	0.474	-0.012
-688.354	-4.359	0.181	-0.127
-687.339	-81.621	-0.036	0.012
-686.324	442.928	-0.027	0.060
-685.310	-83.790	0.088	-0.028
-684.295	-74.279	-0.187	-0.068
-683.281	800.000	-0.048	-0.136
-682.266	-200.000	-0.019	0.331
-681.251	800.000	-0.048	-0.134
-680.237	447.073	-0.019	0.042
-679.222	-195.338	0.233	0.002
-678.208	66.866	0.088	0.091
-677.193	78.014	0.187	0.202
-676.178	-200.000	0.040	-0.260
-675.164	63.471	0.209	-0.212
-674.149	144.438	0.144	0.194
-673.135	-142.513	0.272	-0.027
-672.120	289.146	0.237	-0.436
-671.105	-166.732	-0.315	0.013
-670.091	-63.219	-0.084	-0.035
-669.076	-139.758	0.134	0.014
-668.062	-73.912	0.067	0.025
-667.047	-132.774	-0.139	-0.018
-666.032	376.610	0.052	-0.106
-665.018	-200.000	0.029	0.136
-664.003	800.000	-0.069	-0.210
-662.989	-193.668	-0.169	0.001
-661.974	300.882	-0.130	0.243
-660.959	-74.716	0.388	0.141
-659.945	724.418	-0.016	-0.044
-658.930	-92.065	-0.271	0.077
-657.916	136.964	-0.187	0.247
-656.901	-1.471	0.293	-0.209
-655.886	213.280	-0.161	0.258
-654.872	11.932	-0.196	0.152
-653.857	-200.000	-0.001	0.019
-652.843	479.129	0.043	-0.099
-651.828	-26.676	-0.364	0.216
-650.814	-41.101	0.106	0.055
-649.799	84.658	0.231	-0.256
-648.784	-200.000	0.004	-0.197
-647.770	-200.000	-0.004	-0.391
-646.755	-200.000	0.161	0.000
-645.741	59.820	0.128	-0.128
-644.726	-200.000	0.012	-0.095
-643.711	545.108	0.015	-0.035
-642.697	247.584	-0.092	-0.157
-641.682	-89.091	-0.078	-0.023
-640.668	-200.000	0.064	0.394
-639.653	45.479	-0.141	-0.131
-638.638	-114.273	0.128	0.025
-637.624	40.157	-0.084	0.076
-636.609	800.000	-0.032	-0.107
-635.595	79.677	-0.158	-0.171
-634.580	-54.314	0.263	-0.121
-633.565	-83.294	-0.344	0.112
-632.551	-200.000	-0.009	0.091
-631.536	-93.501	-0.078	-0.022
-630.522	180.363	-0.129	0.192
-629.507	279.657	-0.127	0.230
-628.492	352.687	-0.245	-0.492
-627.478	-79.230	0.253	-0.087
-626.463	800.000	-0.034	0.134
-625.449	754.172	0.049	-0.133
-624.434	-200.000	0.017	-0.158
-623.419	107.021	-0.119	-0.143
-622.405	-35.442	0.066	-0.036
-621.390	-19.620	0.218	-0.136
-620.376	-200.000	0.045	0.285
-619.361	-67.001	-0.332	-0.133
-618.346	-141.383	0.222	-0.023
-617.332	-139.044	0.233	0.025
-616.317	-13.230	0.145	-0.095
-615.303	84.060	-0.130	0.143
-614.288	279.358	0.111	-0.200
-613.273	-117.765	0.224	-0.041
-612.259	-200.000	0.017	0.353
-611.244	605.870	0.071	-0.178
-610.230	251.515	-0.314	-0.539
-609.215	800.000	0.003	0.011
-608.201	508.188	0.042	0.099
-607.186	-82.779	-0.281	-0.092
-606.171	57.191	-0.127	-0.125
-605.157	-153.464	0.252	0.018
-604.142	447.430	0.105	0.233
-603.128	-46.031	-0.361	0.179
-602.113	800.000	0.031	-0.115
-601.098	161.624	-0.031	-0.043
-600.084	87.598	0.181	0.202
-599.069	-130.182	-0.273	-0.038
-598.055	-45.709	0.263	0.131
-597.040	-126.267	0.441	0.067
-596.025	-153.696	0.152	-0.011
-595.011	-147.817	0.139	0.012
-593.996	-200.000	-0.024	-0.299
-592.982	-20.621	0.236	-0.146
-591.967	800.000	-0.091	-0.343
-590.952	-200.000	-0.011	0.086
-589.938	-120.226	-0.101	-0.017
-588.923	140.406	-0.093	0.124
-587.909	-84.589	-0.073	0.023
-586.894	21.601	0.115	-0.094
-585.879	-200.000	-0.013	0.072
-584.865	-134.429	0.132	0.016
-583.850	20.807	-0.116	0.095
-582.836	25.803	0.054	0.046
-581.821	-12.925	-0.294	0.193
-580.806	64.630	0.073	0.074
-579.792	102.309	-0.054	0.063
-578.777	-57.265	-0.116	-0.052
-577.763	-42.513	0.177	-0.091
-576.748	361.651	0.146	0.295
-575.733	-132.427	-0.110	0.014
-574.719	-200.000	0.007	-0.245
-573.704	800.000	0.087	-0.243
-572.690	-48.715	-0.242	0.117
-571.675	-159.582	-0.177	0.010
-570.661	-200.000	-0.021	-0.193
-569.646	-0.659	-0.142	0.101
-568.631	123.058	-0.215	-0.272
-567.617	83.735	-0.143	-0.157
-566.602	-47.374	0.294	0.144
-565.588	-45.982	0.095	-0.047
-564.573	41.477	0.099	0.090
-563.558	655.086	0.058	0.150
-562.544	-196.195	0.295	0.002
-561.529	-200.000	0.006	0.151
-560.515	27.739	0.177	0.150
-559.500	275.678	-0.017	-0.031
-558.485	112.288	-0.105	0.128
-557.471	478.512	0.083	0.189
-556.456	800.000	0.060	0.174
-555.442	-200.000	0.016	0.184
-554.427	370.398	-0.061	-0.124
-553.412	19.549	-0.244	-0.198
-552.398	-76.627	0.151	0.053
-551.383	-200.000	0.014	-0.092
-550.369	-200.000	-0.003	-0.076
-549.354	-80.517	-0.209	-0.070
-548.339	-91.241	-0.454	0.131
-547.325	352.970	-0.063	-0.126
-546.310	-136.991	-0.267	0.031
-545.296	-200.000	0.047	-0.235
-544.281	-89.776	0.241	0.071
-543.266	561.366	0.071	0.173
-542.252	-134.837	0.330	0.040
-541.237	61.798	0.106	-0.106
-540.223	262.449	-0.161	0.282
-539.208	800.000	0.077	-0.279
-538.193	445.939	0.068	0.151
-537.179	-51.704	0.405	-0.190
-536.164	800.000	0.051	-0.213
-535.150	273.682	-0.126	0.225
-534.135	58.913	-0.226	-0.224
-533.121	800.000	-0.102	0.324
-532.106	-0.344	-0.147	0.105
-531.091	-76.171	-0.134	-0.048
-530.077	-76.496	-0.084	-0.030
-529.062	187.929	-0.156	-0.234
-528.048	800.000	-0.107	-0.328
-527.033	-21.840	0.350	-0.214
-526.018	-54.455	-0.114	0.052
-525.004	-122.820	-0.232	-0.038
-523.989	800.000	-0.057	-0.176
-522.975	34.182	-0.238	-0.209
-521.960	5.352	0.149	0.110
-520.945	175.290	0.392	0.571
-519.931	800.000	0.030	0.102
-518.916	-108.283	-0.022	-0.005
-517.902	-118.388	0.490	0.087
-516.887	513.957	0.169	-0.396
-515.872	-107.939	0.044	-0.010
-514.858	-200.000	0.020	-0.268
-513.843	-35.359	-0.072	-0.039
-512.829	-200.000	0.023	-0.287
-511.814	163.882	0.178	0.252
-510.799	135.855	-0.092	0.121
-509.785	87.792	-0.072	-0.080
-508.770	-200.000	-0.037	-0.202
-507.756	95.827	0.139	0.160
-506.741	264.686	0.154	-0.271
-505.726	-3.189	-0.269	0.189
-504.712	-62.886	0.103	-0.043
-503.697	-65.745	-0.124	-0.050
-502.683	800.000	0.043	-0.159
-501.668	-62.952	0.178	-0.074
-500.653	-200.000	-0.046	0.351
-499.639	284.550	-0.128	-0.231
-498.624	-108.194	0.220	0.048
-497.610	-200.000	0.029	-0.326
-496.595	165.050	-0.091	-0.129
-495.581	9.961	-0.259	0.198
-494.566	800.000	0.080	0.323
-493.551	-138.673	-0.516	0.057
-492.537	711.972	-0.051	-0.136
-491.522	-90.716	0.184	-0.054
-490.508	800.000	-0.073	0.291
-489.493	-182.822	0.343	0.006
-488.478	36.896	-0.100	-0.089
-487.464	166.071	0.120	-0.171
-486.449	-146.729	0.362	-0.031
-485.435	-29.789	-0.289	0.166
-484.420	-107.327	0.346	-0.077
-483.405	16.402	0.171	0.136
-482.391	800.000	-0.069	0.244
-481.376	-70.896	-0.284	0.108
-480.362	-131.560	0.337	-0.045
-479.347	-200.000	0.021	0.258
-478.332	-44.927	-0.276	0.138
-477.318	-110.617	0.219	-0.046
-476.303	139.437	0.099	-0.132
-475.289	-46.421	0.217	0.107
-474.274	16.822	-0.159	0.127
-473.259	-73.686	-0.139	0.051
-472.245	-200.000	-0.048	0.239
-471.230	-35.169	0.133	0.073
-470.216	800.000	-0.029	0.084
-469.201	-90.988	0.344	0.099
-468.186	498.875	-0.057	0.131
-467.172	-103.543	-0.237	0.056
-466.157	-138.057	-0.251	-0.028
-465.143	-200.000	0.001	-0.230
-464.128	-75.301	-0.259	-0.093
-463.113	-22.646	0.193	-0.117
-462.099	-130.473	0.294	-0.040
-461.084	-200.000	-0.054	0.315
-460.070	-170.759	-0.595	0.021
-459.055	-11.874	-0.034	-0.022
-458.040	800.000	0.066	0.286
-457.026	84.015	-0.101	0.111
-456.011	-31.739	-0.201	0.113
-454.997	36.185	0.232	-0.205
-453.982	-200.000	0.024	-0.180
-452.968	55.145	-0.062	0.060
-451.953	-84.801	-0.243	-0.077
-450.938	104.539	0.119	-0.141
-449.924	-120.980	-0.252	-0.042
-448.909	-200.000	0.032	0.355
-447.895	-120.829	-0.168	-0.028
-446.880	-87.789	0.255	-0.077
-445.865	-93.221	-0.163	-0.045
-444.851	-79.400	0.345	-0.117
-443.836	-137.282	0.288	-0.033
-442.822	-96.686	0.054	-0.014
-441.807	-128.850	0.107	-0.015
-440.792	-200.000	-0.031	-0.170
-439.778	-93.382	-0.028	0.008
-438.763	-88.974	-0.322	-0.096
-437.749	35.725	-0.303	0.267
-436.734	713.857	-0.049	-0.131
-435.719	-1.982	0.078	0.055
-434.705	103.041	-0.114	0.134
-433.690	-70.008	0.227	-0.087
-432.676	-124.608	-0.271	-0.042
-431.661	472.755	0.109	-0.246
-430.646	-200.000	-0.049	-0.354
-429.632	76.455	-0.202	-0.214
-428.617	-114.703	-0.111	-0.021
-427.603	-18.729	0.149	-0.093
-426.588	32.546	-0.225	-0.195
-425.573	-74.775	0.175	-0.063
-424.559	23.913	0.124	0.103
-423.544	-78.789	0.153	0.052
-422.530	-111.321	-0.122	0.025
-421.515	-200.000	0.017	-0.078
-420.500	-92.004	0.192	0.055
-419.486	-63.890	0.134	0.055
-418.471	-22.664	-0.178	0.108
-417.457	-200.000	0.001	0.417
-416.442	35.994	0.210	-0.186
-415.428	517.382	0.044	-0.102
-414.413	-14.141	-0.119	-0.077
-413.398	28.857	0.045	0.039
-412.384	79.430	0.225	-0.242
-411.369	592.115	-0.056	-0.139
-410.355	-122.311	-0.144	0.024
-409.340	-120.964	0.127	0.021
-408.325	-184.256	-0.019	-0.000
-407.311	800.000	0.038	0.111
-406.296	132.569	-0.059	-0.076
-405.282	800.000	-0.079	0.312
-404.267	14.518	0.150	-0.117
-403.252	787.299	-0.067	-0.183
-402.238	-182.664	0.146	0.003
-401.223	766.719	0.127	0.346
-400.209	-200.000	0.025	0.209
-399.194	800.000	-0.053	-0.178
-398.179	-67.005	0.252	0.100
-397.165	-69.803	0.233	0.089
-396.150	106.833	0.231	0.275
-395.136	-24.416	-0.053	0.032
-394.121	-65.296	-0.081	-0.033
-393.106	28.057	0.082	0.069
-392.092	-58.574	-0.063	0.027
-391.077	-150.490	0.320	0.025
-390.063	-44.793	0.162	-0.081
-389.048	533.943	0.009	0.023
-388.033	-200.000	0.024	0.185
-387.019	-11.654	-0.302	0.199
-386.004	407.877	-0.060	0.127
-384.990	-40.921	0.135	-0.070
-383.975	-99.546	-0.090	-0.023
-382.960	66.614	-0.032	0.032
-381.946	-107.942	0.040	-0.009
-380.931	-17.837	-0.196	0.123
-379.917	90.946	-0.143	-0.160
-378.902	708.969	0.107	0.282
-377.888	800.000	-0.044	-0.125
-376.873	135.958	-0.127	-0.166
-375.858	226.088	-0.153	-0.248
-374.844	-36.445	-0.268	-0.144
-373.829	244.877	0.213	-0.358
-372.815	-200.000	0.034	-0.162
-371.800	181.186	0.095	0.140
-370.785	-108.628	0.107	0.023
-369.771	665.031	-0.043	0.112
-368.756	114.769	0.202	-0.246
-367.742	5.451	-0.297	0.219
-366.727	66.570	0.128	0.130
-365.712	-76.077	-0.352	0.124
-364.698	-5.105	-0.116	-0.080
-363.683	-108.919	0.436	0.093
-362.669	66.339	-0.194	0.197
-361.654	-65.838	-0.210	-0.084
-360.639	-115.881	0.190	0.036
-359.625	172.616	0.257	-0.370
-358.610	159.719	0.209	0.291
-357.596	73.658	0.263	-0.276
-356.581	132.605	-0.131	0.170
-355.566	800.000	0.085	-0.338
-354.552	-200.000	-0.005	0.047
-353.537	-99.093	-0.179	0.045
-352.523	40.276	0.165	-0.148
-351.508	-200.000	-0.057	0.297
-350.493	-200.000	-0.032	0.217
-349.479	2.033	-0.229	-0.165
-348.464	-51.140	-0.344	0.161
-347.450	-200.000	-0.006	0.150
-346.435	-54.474	-0.167	0.076
-345.420	156.988	-0.256	0.354
-344.406	594.305	0.041	-0.100
-343.391	-111.073	0.160	-0.033
-342.377	-57.812	-0.269	0.118
-341.362	-200.000	0.042	-0.212
-340.348	-38.146	-0.320	-0.169
-339.333	-192.957	0.147	0.001
-338.318	125.223	-0.117	-0.147
-337.304	-147.548	0.325	0.027
-336.289	800.000	-0.074	0.260
-335.275	-51.677	0.276	-0.128
-334.260	800.000	0.005	-0.021
-333.245	-102.009	0.362	-0.087
-332.231	-200.000	0.009	-0.097
-331.216	-200.000	0.016	0.146
-330.202	288.829	-0.172	0.312
-329.187	-159.482	-0.264	-0.015
-328.172	-115.706	0.355	-0.066
-327.158	96.046	0.049	0.056
-326.143	800.000	0.084	0.283
-325.129	-200.000	-0.024	0.188
-324.114	800.000	-0.094	-0.343
-323.099	-200.000	-0.008	0.106
-322.085	396.231	0.035	0.072
-321.070	-170.028	0.175	0.006
-320.056	-93.916	0.331	0.091
-319.041	800.000	-0.098	-0.271
-318.026	800.000	0.043	0.128
-317.012	-39.120	-0.130	-0.068
-315.997	714.055	-0.018	0.047
-314.983	32.892	-0.167	0.144
-313.968	44.772	0.173	0.159
-312.953	-166.287	-0.296	-0.012
-311.939	-108.637	-0.246	-0.053
-310.924	-7.853	0.306	0.206
-309.910	-125.884	-0.154	-0.023
-308.895	179.484	0.026	0.038
-307.880	158.704	-0.121	0.168
-306.866	-200.000	-0.046	-0.243
-305.851	-67.805	-0.073	-0.028
-304.837	-145.395	0.335	-0.030
-303.822	17.290	-0.264	-0.209
-302.807	-121.253	-0.140	0.023
-301.793	-200.000	0.010	-0.145
-300.778	-34.992	-0.173	0.094
-299.764	800.000	0.059	-0.168
-298.749	-200.000	-0.033	-0.188
-297.735	800.000	0.101	-0.310
-296.720	-200.000	0.003	-0.252
-295.705	-200.000	-0.027	-0.549
-294.691	-36.487	-0.202	-0.109
-293.676	-102.422	-0.031	-0.007
-292.662	800.000	0.096	0.344
-291.647	5.604	0.123	0.091
-290.632	309.479	-0.131	0.245
-289.618	164.995	-0.157	-0.222
-288.603	-76.143	-0.496	0.175
-287.589	41.224	0.224	0.202
-286.574	46.786	-0.289	0.268
-285.559	800.000	-0.084	-0.235
-284.545	144.910	0.074	0.099
-283.530	-200.000	0.002	0.334
-282.516	189.972	-0.023	-0.035
-281.501	521.992	0.167	0.391
-280.486	-151.732	-0.263	-0.019
-279.472	39.711	-0.024	-0.021
-278.457	554.828	-0.045	-0.107
-277.443	161.540	-0.127	-0.177
-276.428	-153.309	-0.271	0.019
-275.413	-127.006	0.160	0.023
-274.399	-4.943	-0.069	0.048
-273.384	7.659	-0.161	0.120
-272.370	313.090	-0.058	0.109
-271.355	-111.418	-0.163	-0.033
-270.340	91.052	0.195	0.218
-269.326	800.000	0.053	-0.202
-268.311	35.885	0.215	0.189
-267.297	736.558	-0.119	0.319
-266.282	232.801	-0.112	-0.184
-265.267	86.795	0.275	-0.303
-264.253	-81.992	0.259	0.084
-263.238	-0.281	-0.091	-0.064
-262.224	-98.487	-0.033	0.008
-261.209	-134.130	-0.060	-0.007
-260.195	36.334	0.085	0.074
-259.180	22.054	0.340	-0.276
-258.165	-200.000	0.016	0.100
-257.151	800.000	0.039	-0.124
-256.136	5.259	0.281	0.206
-255.122	-200.000	-0.008	0.106
-254.107	-200.000	0.015	0.087
-253.092	-32.537	0.328	0.182
-252.078	88.493	0.155	0.172
-251.063	-200.000	0.017	0.525
-250.049	-96.583	-0.362	-0.095
-249.034	-114.779	-0.120	-0.023
-248.019	-147.257	-0.184	-0.016
-247.005	187.670	-0.130	0.193
-245.990	-67.298	-0.159	0.062
-244.976	-62.199	0.061	-0.025
-243.961	-91.206	0.070	0.020
-242.946	-99.896	-0.138	0.034
-241.932	177.364	0.198	-0.287
-240.917	-139.446	0.254	0.027
-239.903	-58.185	0.418	0.181
-238.888	-135.837	-0.150	-0.018
-237.873	103.866	-0.298	-0.349
-236.859	25.124	0.157	0.130
-235.844	337.259	0.072	0.140
-234.830	176.986	0.144	0.209
-233.815	-28.030	-0.056	0.032
-232.800	-31.714	-0.100	-0.056
-231.786	151.665	0.225	0.305
-230.771	800.000	-0.011	-0.042
-229.757	139.446	-0.265	0.347
-228.742	227.622	-0.108	0.174
-227.727	126.682	0.087	-0.110
-226.713	23.307	-0.068	-0.056
-225.698	68.741	-0.054	-0.055
-224.684	367.189	-0.089	0.179
-223.669	-91.486	0.107	0.030
-222.655	57.385	0.148	-0.144
-221.640	569.162	-0.107	0.258
-220.625	-200.000	-0.010	0.054
-219.611	-134.133	-0.256	0.031
-218.596	-68.795	-0.376	-0.144
-217.582	401.055	0.034	0.070
-216.567	-200.000	0.034	0.277
-215.552	468.046	-0.066	0.146
-214.538	-186.269	-0.091	0.001
-213.523	42.987	0.107	0.097
-212.509	418.797	-0.096	0.204
-211.494	227.829	-0.133	0.215
-210.479	-136.064	0.418	0.049
-209.465	64.435	-0.230	0.230
-208.450	276.361	0.059	-0.104
-207.436	-200.000	0.014	0.221
-206.421	-65.298	-0.047	0.019
-205.406	20.626	0.077	-0.062
-204.392	58.884	-0.148	-0.144
-203.377	-58.026	-0.219	-0.095
-202.363	-200.000	0.024	-0.414
-201.348	-200.000	-0.000	-0.136
-200.333	486.297	0.093	-0.210
-199.319	-174.196	0.287	-0.008
-198.304	-7.497	-0.159	-0.107
-197.290	238.039	0.062	0.103
-196.275	-122.525	-0.181	0.029
-195.260	163.433	0.132	0.184
-194.246	-31.228	-0.041	-0.023
-193.231	295.927	-0.201	-0.366
-192.217	-20.396	0.218	-0.133
-191.202	120.648	-0.050	-0.062
-190.187	-104.479	-0.134	0.031
-189.173	-148.374	0.278	0.023
-188.158	-200.000	0.011	0.150
-187.144	708.529	-0.106	-0.280
-186.129	185.239	0.051	-0.075
-185.114	111.015	0.236	-0.282
-184.100	-116.993	0.240	0.044
-183.085	-0.380	-0.158	-0.111
-182.071	800.000	-0.075	0.256
-181.056	-124.984	0.196	-0.030
-180.042	-23.179	-0.401	0.239
-179.027	-25.446	-0.167	-0.098
-178.012	-200.000	0.046	-0.473
-176.998	-65.852	0.252	0.100
-175.983	227.431	-0.073	0.118
-174.969	-200.000	0.013	-0.068
-173.954	-200.000	0.089	-0.437
-172.939	-41.072	0.165	0.085
-171.925	52.511	0.374	-0.354
-170.910	-195.688	-0.435	-0.003
-169.896	327.987	0.173	-0.330
-168.881	-104.810	-0.149	0.034
-167.866	-200.000	-0.012	0.181
-166.852	800.000	0.094	-0.283
-165.837	634.088	0.101	-0.253
-164.823	-97.327	0.081	-0.021
-163.808	23.453	0.270	0.220
-162.793	-44.510	-0.225	-0.112
-161.779	-200.000	-0.011	0.082
-160.764	76.845	0.238	-0.251
-159.750	800.000	-0.064	0.177
-158.735	154.625	-0.155	-0.211
-157.720	185.765	-0.102	0.150
-156.706	-138.103	-0.175	0.019
-155.691	-129.566	-0.081	-0.011
-154.677	132.536	-0.047	-0.060
-153.662	-105.001	-0.130	0.029
-152.647	55.208	0.172	0.165
-151.633	-200.000	-0.035	0.380
-150.618	133.878	-0.194	0.249
-149.604	-125.721	-0.256	-0.038
-148.589	601.313	-0.076	0.188
-147.574	-69.170	-0.070	0.027
-146.560	-12.430	0.022	0.014
-145.545	-128.004	0.265	-0.038
-144.531	-13.019	0.210	0.135
-143.516	-125.249	0.178	0.027
-142.502	-84.304	0.203	0.064
-141.487	-176.558	0.076	-0.002
-140.472	-146.365	-0.224	-0.019
-139.458	84.630	0.165	-0.180
-138.443	-99.396	0.145	0.036
-137.429	800.000	-0.029	-0.089
-136.414	-200.000	-0.034	0.291
-135.399	232.350	-0.051	-0.083
-134.385	115.819	-0.091	0.110
-133.370	-3.839	0.268	0.184
-132.356	-200.000	-0.054	0.309
-131.341	69.239	0.101	-0.103
-130.326	-200.000	0.024	0.258
-129.312	-9.251	0.223	0.148
-128.297	145.738	-0.202	-0.269
-127.283	-118.926	0.208	-0.036
-126.268	-47.311	0.053	0.026
-125.253	94.461	0.092	-0.104
-124.239	96.349	0.107	0.121
-123.224	59.680	-0.185	0.181
-122.210	-92.304	0.057	0.016
-121.195	-164.395	-0.177	-0.008
