DTS Sentinel unit serial number:	SN413079Multiplexer serial number:	ORYXHardware model number:	OX4-SRSoftware version number:	ORYX F/W v4.00 Oryx Data Collector v3.7.2.0data status	okinstallation	princeton_trtdifferential loss correction	single-endedforward channel	channel 4reverse channel	N/Adate	2019/09/12time	19:25:18forward acquisition time	15.00reverse acquisition time	0.00gamma	496.2192k internal	0.2309k external	0.2309temperature offset calibration	1.0145default loss term (dB/km)	0.3790temperature slope calibration	1.0000multiplexer offset coefficient	1.0000multiplexer slope coefficient	1.0000fibre end	0.00T internal ref (°C)	32.37T ext. ref 1 (°C)	3.25T ext. ref 2 (°C)	26.93length (m)	temperature (°C)	Stokes	anti-Stokes-747.200	-200.000	-0.004	-0.486
-746.185	-67.248	-0.643	0.257
-745.171	800.000	0.159	-0.614
-744.156	-140.486	-0.277	-0.029
-743.142	355.512	-0.251	-0.507
-742.127	800.000	-0.127	0.457
-741.112	101.684	0.192	0.227
-740.098	-1.452	-0.251	-0.180
-739.083	-92.212	0.181	-0.052
-738.069	149.310	0.271	-0.372
-737.054	-82.144	-0.242	-0.080
-736.039	-71.988	0.843	0.318
-735.025	-200.000	0.076	0.618
-734.010	687.777	0.197	0.524
-732.996	-117.595	-0.878	-0.161
-731.981	-144.972	0.785	-0.073
-730.966	-118.138	-0.805	0.146
-729.952	17.396	-0.225	-0.181
-728.937	-122.707	-0.408	-0.067
-727.923	227.446	0.395	-0.651
-726.908	-200.000	0.062	-0.694
-725.894	-13.520	-0.608	-0.400
-724.879	-1.178	-0.396	-0.284
-723.864	800.000	0.116	-0.470
-722.850	4.952	0.419	0.313
-721.835	-117.063	-0.121	-0.022
-720.821	-68.880	0.232	-0.091
-719.806	-50.913	-0.227	-0.108
-718.791	-200.000	0.037	-0.214
-717.777	-49.385	-0.437	-0.211
-716.762	-123.526	0.670	0.108
-715.748	-71.669	0.300	0.113
-714.733	686.814	0.110	0.292
-713.718	-59.729	0.481	0.209
-712.704	50.209	-0.651	-0.624
-711.689	800.000	-0.043	0.186
-710.675	-154.029	-0.751	-0.052
-709.660	-200.000	-0.013	0.665
-708.645	73.424	0.224	0.238
-707.631	127.425	0.402	-0.518
-706.616	139.833	-0.393	-0.526
-705.602	800.000	0.132	0.380
-704.587	367.473	0.413	0.845
-703.572	-200.000	0.124	-0.760
-702.558	196.867	-0.153	-0.236
-701.543	-74.352	0.567	-0.208
-700.529	256.988	0.263	-0.458
-699.514	-200.000	-0.088	-0.614
-698.499	89.813	-0.411	-0.466
-697.485	299.735	0.253	-0.473
-696.470	95.974	0.065	0.075
-695.456	-200.000	-0.129	-1.110
-694.441	-160.740	-0.776	0.042
-693.426	-54.688	0.674	-0.309
-692.412	85.188	-0.402	0.448
-691.397	45.686	0.389	0.365
-690.383	-200.000	-0.096	0.435
-689.368	-125.686	0.401	-0.062
-688.354	784.785	0.330	0.916
-687.339	-1.652	0.244	-0.175
-686.324	-126.147	-0.578	0.088
-685.310	800.000	0.099	-0.292
-684.295	-42.668	0.495	0.255
-683.281	-31.986	-0.356	-0.202
-682.266	800.000	0.141	0.524
-681.251	-200.000	0.076	-0.487
-680.237	-173.241	0.180	0.006
-679.222	80.176	-0.399	0.434
-678.208	1.837	-0.545	-0.398
-677.193	705.313	0.266	0.712
-676.178	-113.718	-0.641	-0.127
-675.164	-33.879	-0.540	-0.301
-674.149	99.516	-0.593	-0.696
-673.135	281.049	-0.140	0.253
-672.120	119.121	0.334	0.419
-671.105	-200.000	0.064	-0.391
-670.091	41.941	0.546	0.502
-669.076	1.684	-0.674	0.492
-668.062	238.673	0.282	-0.474
-667.047	800.000	-0.107	-0.465
-666.032	-172.143	0.890	-0.029
-665.018	183.475	0.312	-0.467
-664.003	-40.957	-0.279	-0.146
-662.989	-75.371	-0.419	-0.151
-661.974	-87.860	-0.397	0.121
-660.959	127.657	0.630	-0.811
-659.945	-80.562	-0.594	0.200
-658.930	800.000	-0.274	-0.885
-657.916	-77.189	0.278	-0.098
-656.901	-2.275	0.262	0.186
-655.886	-200.000	0.057	-0.561
-654.872	371.062	0.365	-0.749
-653.857	-116.833	0.521	-0.097
-652.843	-118.235	0.638	0.115
-651.828	-167.682	-0.926	0.037
-650.814	-171.387	0.802	-0.027
-649.799	-3.004	0.386	-0.273
-648.784	-200.000	-0.070	0.689
-647.770	800.000	0.108	-0.415
-646.755	-53.590	0.259	0.120
-645.741	20.740	-0.235	-0.193
-644.726	-200.000	0.137	-0.706
-643.711	364.966	-0.225	0.459
-642.697	800.000	0.039	-0.135
-641.682	-179.571	0.726	-0.016
-640.668	67.769	-0.288	-0.298
-639.653	-75.783	-0.671	0.241
-638.638	-83.668	-0.534	0.173
-637.624	89.436	0.236	-0.266
-636.609	209.287	0.206	0.327
-635.595	-106.090	-0.221	-0.050
-634.580	-77.622	-0.649	-0.227
-633.565	414.673	0.163	-0.351
-632.551	399.491	-0.393	-0.834
-631.536	-109.670	0.208	-0.044
-630.522	-97.597	-0.095	-0.025
-629.507	-200.000	0.162	0.780
-628.492	-86.951	-0.387	0.119
-627.478	130.042	0.480	-0.621
-626.463	-115.587	-0.284	-0.054
-625.449	-0.768	0.118	-0.085
-624.434	155.922	0.096	0.134
-623.419	-97.980	0.841	0.219
-622.405	-74.634	-0.730	0.266
-621.390	-105.407	0.413	0.095
-620.376	-200.000	-0.062	1.156
-619.361	-124.071	-0.436	0.069
-618.346	65.295	-0.550	0.563
-617.332	-148.078	0.467	-0.039
-616.317	-105.178	0.495	0.114
-615.303	14.604	-0.474	0.374
-614.288	-80.826	-0.622	-0.209
-613.273	-200.000	-0.058	0.872
-612.259	-37.746	0.738	0.397
-611.244	13.847	0.379	-0.297
-610.230	-200.000	0.130	-0.579
-609.215	249.814	-0.179	-0.307
-608.201	-168.995	0.439	0.017
-607.186	800.000	-0.137	-0.384
-606.171	103.119	0.152	0.180
-605.157	126.585	-0.587	-0.751
-604.142	800.000	0.360	-1.192
-603.128	-200.000	-0.016	0.369
-602.113	-200.000	-0.188	0.945
-601.098	-95.151	-0.387	0.106
-600.084	-165.609	-0.277	0.012
-599.069	-109.586	-0.500	0.107
-598.055	-72.376	-0.422	0.158
-597.040	-200.000	-0.001	-0.386
-596.025	-22.353	-0.467	-0.286
-595.011	-98.221	-0.367	0.095
-593.996	-200.000	-0.030	0.206
-592.982	-131.125	0.673	-0.090
-591.967	-189.041	-0.836	0.010
-590.952	502.512	0.187	-0.437
-589.938	-200.000	0.083	-0.403
-588.923	-29.031	0.593	-0.343
-587.909	154.314	-0.333	0.461
-586.894	-106.517	-0.547	-0.123
-585.879	-200.000	-0.107	0.691
-584.865	-200.000	-0.028	-0.299
-583.850	-31.453	-0.556	-0.316
-582.836	-187.322	1.133	-0.015
-581.821	-200.000	-0.007	0.276
-580.806	302.810	-0.199	0.371
-579.792	-64.539	-0.373	0.153
-578.777	-23.416	-0.413	-0.250
-577.763	-2.702	0.643	0.454
-576.748	-113.491	-0.780	0.154
-575.733	-154.591	0.352	-0.024
-574.719	245.733	0.105	0.179
-573.704	-57.569	-0.570	0.252
-572.690	561.663	0.194	-0.474
-571.675	161.365	0.182	0.257
-570.661	-200.000	-0.044	-0.380
-569.646	-71.064	-0.777	-0.295
-568.631	-22.363	-0.214	-0.131
-567.617	-92.196	-0.432	-0.123
-566.602	-200.000	0.003	-0.726
-565.588	-200.000	-0.091	-1.168
-564.573	-200.000	-0.076	0.865
-563.558	-200.000	-0.094	0.476
-562.544	-200.000	0.002	-0.398
-561.529	59.959	0.568	-0.566
-560.515	28.981	-0.325	-0.278
-559.500	15.556	0.303	0.240
-558.485	800.000	0.049	0.190
-557.471	800.000	-0.076	-0.263
-556.456	242.748	-0.217	-0.366
-555.442	156.152	-0.244	-0.339
-554.427	-78.685	0.661	0.228
-553.412	362.299	0.344	-0.696
-552.398	800.000	0.326	-1.014
-551.383	-200.000	0.041	-0.803
-550.369	-54.010	0.318	0.146
-549.354	-55.709	0.597	0.269
-548.339	-37.431	-0.654	-0.352
-547.325	53.286	-0.175	-0.169
-546.310	-135.088	0.376	0.046
-545.296	664.609	-0.127	-0.332
-544.281	327.772	-0.218	0.422
-543.266	-197.189	0.517	-0.003
-542.252	-200.000	0.018	-0.500
-541.237	-28.572	-0.391	-0.227
-540.223	29.291	0.451	-0.386
-539.208	-13.890	-0.573	-0.373
-538.193	-200.000	0.052	-0.500
-537.179	-200.000	0.090	0.522
-536.164	-116.712	-0.676	-0.125
-535.150	-122.365	0.546	-0.090
-534.135	323.803	-0.231	0.444
-533.121	-99.806	0.199	0.050
-532.106	-200.000	0.082	0.444
-531.091	488.668	-0.190	0.437
-530.077	-200.000	0.123	-0.582
-529.062	-160.300	0.753	-0.041
-528.048	130.900	0.320	-0.414
-527.033	19.413	0.555	-0.449
-526.018	-200.000	0.214	-1.213
-525.004	-177.145	0.766	-0.019
-523.989	-84.999	-0.255	-0.081
-522.975	796.029	0.219	0.609
-521.960	-129.059	0.208	-0.029
-520.945	328.279	-0.407	-0.788
-519.931	-35.255	-0.717	0.393
-518.916	635.677	0.164	-0.420
-517.902	222.708	0.155	-0.251
-516.887	-24.568	0.869	-0.521
-515.872	-0.197	-0.664	0.475
-514.858	-101.767	0.365	0.089
-513.843	41.049	-0.290	-0.264
-512.829	-200.000	-0.971	0.005
-511.814	-54.364	0.335	0.153
-510.799	-77.444	0.730	0.255
-509.785	800.000	0.054	0.153
-508.770	134.938	0.288	0.377
-507.756	-58.942	-0.749	-0.326
-506.741	206.028	0.225	-0.352
-505.726	356.491	0.085	-0.170
-504.712	-121.402	0.252	0.042
-503.697	800.000	-0.179	-0.524
-502.683	201.610	0.313	-0.485
-501.668	338.342	0.585	-1.145
-500.653	-200.000	-0.005	0.234
-499.639	424.047	0.287	-0.621
-498.624	-25.849	0.297	0.176
-497.610	157.321	0.325	0.453
-496.595	65.372	0.590	-0.601
-495.581	537.093	-0.340	-0.813
-494.566	-200.000	-0.129	-0.752
-493.551	-200.000	-0.028	0.710
-492.537	-75.525	-0.809	0.290
-491.522	-33.158	0.538	-0.300
-490.508	-34.826	-0.878	0.482
-489.493	-44.191	0.501	-0.253
-488.478	800.000	0.171	-0.718
-487.464	-200.000	0.009	-0.214
-486.449	-200.000	0.041	0.820
-485.435	-120.348	-0.716	-0.123
-484.420	-94.200	-0.376	-0.104
-483.405	800.000	-0.283	-1.008
-482.391	-53.971	0.136	0.062
-481.376	-43.745	0.740	-0.375
-480.362	12.858	-0.272	0.211
-479.347	642.065	-0.164	-0.419
-478.332	21.649	0.674	0.551
-477.318	-64.683	-0.442	-0.180
-476.303	-134.801	-0.388	0.047
-475.289	171.749	-0.345	-0.499
-474.274	-200.000	0.155	0.723
-473.259	164.753	0.519	-0.737
-472.245	-46.801	0.966	-0.475
-471.230	670.407	0.207	0.539
-470.216	800.000	-0.057	-0.191
-469.201	-47.294	-0.423	0.207
-468.186	-78.770	1.022	0.351
-467.172	315.363	-0.173	-0.328
-466.157	-91.171	-0.466	0.134
-465.143	-148.986	-0.437	0.035
-464.128	-148.487	0.449	-0.037
-463.113	-7.191	-0.530	-0.361
-462.099	-115.131	-1.154	-0.220
-461.084	-150.908	0.552	0.042
-460.070	51.487	-0.290	0.277
-459.055	-166.246	-0.569	0.024
-458.040	-66.648	0.572	0.228
-457.026	-123.544	-0.842	-0.134
-456.011	800.000	-0.205	-0.657
-454.997	262.868	0.060	0.104
-453.982	800.000	-0.146	-0.569
-452.968	171.081	-0.320	0.461
-451.953	-200.000	0.066	0.309
-450.938	800.000	0.163	0.529
-449.924	-71.298	-0.307	0.116
-448.909	172.813	0.260	0.377
-447.895	-200.000	0.004	0.245
-446.880	800.000	-0.431	-1.321
-445.865	-132.710	-0.557	0.072
-444.851	-94.681	1.123	0.306
-443.836	800.000	0.201	0.729
-442.822	-78.810	-0.449	0.154
-441.807	-200.000	0.045	-1.121
-440.792	-200.000	0.104	0.470
-439.778	-200.000	0.052	0.881
-438.763	800.000	0.181	0.605
-437.749	316.384	-0.296	0.560
-436.734	-130.391	0.614	-0.084
-435.719	-200.000	0.035	-0.352
-434.705	800.000	0.281	-0.917
-433.690	714.275	0.081	-0.216
-432.676	-160.048	-0.578	0.032
-431.661	-200.000	0.014	0.101
-430.646	-200.000	0.093	-0.698
-429.632	24.388	0.560	-0.464
-428.617	-200.000	0.056	0.759
-427.603	537.947	-0.512	1.221
-426.588	-3.111	-0.517	0.362
-425.573	-148.834	-0.842	-0.068
-424.559	-136.393	0.740	0.086
-423.544	-200.000	0.192	-0.867
-422.530	-10.438	0.269	-0.179
-421.515	62.187	0.158	0.158
-420.500	181.774	-0.653	-0.964
-419.486	78.218	-0.287	-0.308
-418.471	117.765	0.185	-0.229
-417.457	-123.712	-0.582	-0.092
-416.442	558.141	0.082	-0.199
-415.428	-125.186	-0.547	0.084
-414.413	-130.395	0.665	0.090
-413.398	-32.518	-0.558	-0.312
-412.384	-22.052	0.204	0.124
-411.369	291.957	0.483	0.882
-410.355	563.256	-0.338	0.820
-409.340	50.393	-0.207	0.196
-408.325	24.444	-0.910	-0.754
-407.311	-111.328	0.379	0.078
-406.296	73.926	-0.076	0.080
-405.282	89.183	0.189	0.211
-404.267	-9.711	-0.114	-0.076
-403.252	344.411	-0.440	0.866
-402.238	800.000	0.196	0.745
-401.223	-72.774	-0.569	0.210
-400.209	785.578	0.074	0.203
-399.194	-161.270	-0.568	-0.030
-398.179	5.964	0.513	-0.381
-397.165	9.353	-0.231	0.175
-396.150	38.912	-0.318	0.284
-395.136	-50.376	-0.345	0.163
-394.121	350.474	-0.122	-0.241
-393.106	-39.223	-0.268	0.141
-392.092	-200.000	0.016	0.378
-391.077	133.812	0.242	-0.314
-390.063	-200.000	0.089	-0.948
-389.048	-123.991	0.483	0.076
-388.033	62.307	0.612	0.612
-387.019	-148.345	-1.483	0.122
-386.004	-93.012	-0.343	0.096
-384.990	214.554	0.446	0.708
-383.975	-91.255	-0.194	-0.056
-382.960	-197.418	-0.442	-0.003
-381.946	-61.910	1.007	0.422
-380.931	337.758	-0.189	0.368
-379.917	-200.000	0.085	0.635
-378.902	272.650	0.267	-0.473
-377.888	123.803	0.549	-0.690
-376.873	-69.638	-0.295	-0.113
-375.858	57.184	0.495	-0.483
-374.844	87.153	0.630	0.697
-373.829	249.831	0.249	-0.422
-372.815	-200.000	0.008	-0.370
-371.800	-52.674	0.407	0.188
-370.785	-200.000	0.073	-0.482
-369.771	-25.931	-0.177	-0.104
-368.756	79.450	-0.280	-0.300
-367.742	58.504	0.607	0.596
-366.727	-200.000	0.021	-0.212
-365.712	800.000	-0.056	0.166
-364.698	-200.000	-0.098	0.649
-363.683	-91.177	-1.000	0.287
-362.669	627.135	-0.167	-0.422
-361.654	-28.128	-0.428	0.248
-360.639	-13.778	-0.307	0.199
-359.625	800.000	-0.009	-0.024
-358.610	-200.000	0.037	-0.454
-357.596	240.811	-0.217	-0.362
-356.581	-128.759	0.289	-0.041
-355.566	38.804	-0.343	-0.307
-354.552	-80.988	0.062	-0.021
-353.537	220.369	-0.317	0.509
-352.523	-200.000	-0.142	-1.321
-351.508	391.376	-0.232	-0.482
-350.493	418.180	-0.188	0.402
-349.479	-138.512	0.458	0.050
-348.464	-200.000	-0.015	-1.013
-347.450	-99.079	-0.771	-0.195
-346.435	42.149	0.208	-0.189
-345.420	800.000	-0.137	0.517
-344.406	-200.000	-0.045	-0.522
-343.391	-200.000	-0.072	0.495
-342.377	800.000	0.096	0.312
-341.362	-101.069	-0.286	0.070
-340.348	-89.249	-0.341	-0.101
-339.333	-200.000	0.053	0.310
-338.318	-101.638	0.208	-0.050
-337.304	20.950	-0.416	-0.337
-336.289	382.516	-0.252	-0.518
-335.275	-200.000	0.108	0.575
-334.260	345.350	-0.578	-1.135
-333.245	-200.000	0.156	0.831
-332.231	41.360	0.146	0.132
-331.216	-156.665	0.622	-0.038
-330.202	800.000	-0.185	-0.555
-329.187	-200.000	0.050	-0.526
-328.172	-102.015	-0.667	-0.161
-327.158	800.000	-0.120	0.358
-326.143	-44.009	0.181	0.091
-325.129	800.000	0.282	0.967
-324.114	336.591	0.333	0.646
-323.099	69.018	-0.340	-0.349
-322.085	58.402	0.733	0.718
-321.070	-31.337	-0.366	-0.206
-320.056	-104.152	-0.214	-0.050
-319.041	51.646	0.175	-0.166
-318.026	-39.614	0.480	0.251
-317.012	203.284	-0.352	-0.544
-315.997	94.988	-0.381	0.433
-314.983	77.371	0.178	0.190
-313.968	-80.752	-0.734	0.244
-312.953	694.191	0.220	0.577
-311.939	-135.675	0.162	0.019
-310.924	385.172	-0.248	0.510
-309.910	-200.000	0.083	0.754
-308.895	223.606	0.260	-0.419
-307.880	-164.654	0.125	-0.006
-306.866	-49.389	0.951	0.453
-305.851	-200.000	-0.062	0.625
-304.837	291.926	0.587	1.067
-303.822	-28.910	0.743	0.426
-302.807	262.867	-0.254	-0.441
-301.793	-47.481	-0.631	-0.306
-300.778	358.198	0.136	0.272
-299.764	4.807	0.758	0.556
-298.749	-146.399	-0.925	0.081
-297.735	-45.468	0.982	-0.486
-296.720	122.843	-0.597	0.746
-295.705	37.733	-0.148	-0.131
-294.691	110.154	0.082	0.098
-293.676	-128.277	-1.158	-0.165
-292.662	800.000	-0.206	0.768
-291.647	-55.687	0.392	0.175
-290.632	800.000	0.186	-0.572
-289.618	-76.400	-0.319	0.112
-288.603	78.246	0.643	0.685
-287.589	247.118	0.206	-0.347
-286.574	402.287	-0.146	0.306
-285.559	-194.953	-0.016	0.000
-284.545	33.469	0.251	0.217
-283.530	202.979	0.177	0.273
-282.516	-200.000	0.049	0.424
-281.501	800.000	-0.166	0.463
-280.486	-16.927	0.977	-0.616
-279.472	-103.141	1.612	0.381
-278.457	539.489	0.105	-0.249
-277.443	-81.062	0.341	0.113
-276.428	-69.381	0.466	-0.178
-275.413	-200.000	-0.000	-0.323
-274.399	545.387	-0.199	-0.473
-273.384	-108.721	-0.938	-0.200
-272.370	238.468	0.075	0.125
-271.355	111.974	0.048	-0.058
-270.340	-200.000	-0.210	-1.017
-269.326	256.566	0.356	-0.609
-268.311	-32.878	-0.882	0.489
-267.297	22.276	-0.399	0.325
-266.282	-57.871	0.363	-0.158
-265.267	-200.000	0.195	0.873
-264.253	62.224	0.424	0.422
-263.238	33.261	0.381	0.329
-262.224	389.232	0.138	0.286
-261.209	779.635	-0.126	-0.343
-260.195	-33.805	0.839	0.461
-259.180	-196.014	0.303	0.002
-258.165	-43.099	-0.770	0.389
-257.151	183.741	-0.217	-0.320
-256.136	450.169	0.179	0.393
-255.122	214.046	-0.528	0.832
-254.107	179.747	-0.037	0.054
-253.092	-115.293	0.715	0.135
-252.078	-25.209	0.383	0.226
-251.063	-111.362	-0.489	-0.099
-250.049	-17.678	-0.439	0.275
-249.034	-111.030	0.492	0.101
-248.019	58.196	-0.339	0.332
-247.005	800.000	0.154	-0.588
-245.990	-145.028	-0.326	-0.030
-244.976	-58.661	0.461	0.199
-243.961	-100.881	0.726	0.178
-242.946	356.224	-0.234	0.465
-241.932	-200.000	-0.062	1.107
-240.917	-81.095	-1.149	-0.379
-239.903	32.395	0.526	0.452
-238.888	-200.000	0.072	-0.533
-237.873	800.000	0.220	0.807
-236.859	-60.829	0.874	-0.369
-235.844	-68.929	-0.840	0.323
-234.830	59.467	0.386	0.379
-233.815	14.771	-0.181	0.141
-232.800	27.327	0.859	0.719
-231.786	392.918	-0.177	0.367
-230.771	174.742	0.379	-0.546
-229.757	278.448	0.608	-1.080
-228.742	78.172	0.407	-0.433
-227.727	-200.000	0.066	0.436
-226.713	-200.000	0.068	-0.576
-225.698	30.645	-0.513	-0.437
-224.684	158.750	-0.107	-0.149
-223.669	-200.000	0.687	0.002
-222.655	-120.604	0.251	-0.042
-221.640	-42.085	0.601	0.306
-220.625	155.772	-0.101	-0.139
-219.611	245.312	-0.130	0.217
-218.596	110.424	0.659	-0.789
-217.582	-200.000	-0.063	0.848
-216.567	800.000	0.217	-0.680
-215.552	87.868	0.465	-0.513
-214.538	343.313	-0.144	-0.281
-213.523	391.222	-0.448	0.926
-212.509	35.369	0.345	-0.301
-211.494	291.814	0.198	0.358
-210.479	5.998	-0.460	-0.339
-209.465	-24.741	-0.942	0.557
-208.450	53.386	-0.457	0.436
-207.436	-200.000	0.062	0.729
-206.421	-14.553	-0.041	-0.026
-205.406	1.052	0.586	0.418
-204.392	-149.834	0.525	0.041
-203.377	-37.091	-0.879	-0.468
-202.363	-200.000	0.065	-0.431
-201.348	-120.474	0.589	0.100
-200.333	368.702	-0.375	0.753
-199.319	21.779	-0.660	0.535
-198.304	-75.250	-1.119	0.397
-197.290	-200.000	-0.044	0.539
-196.275	-1.245	-0.819	-0.576
-195.260	209.505	-0.235	0.367
-194.246	-200.000	-0.005	0.413
-193.231	-200.000	0.023	0.114
-192.217	800.000	0.018	0.068
-191.202	-193.316	-0.677	-0.006
-190.187	-57.981	0.470	0.204
-189.173	-200.000	0.046	-0.237
-188.158	-141.737	0.457	-0.046
-187.144	-200.000	0.253	-1.109
-186.129	-163.862	0.639	-0.030
-185.114	-122.380	-0.942	0.153
-184.100	150.712	0.529	-0.715
-183.085	-200.000	0.032	-0.976
-182.071	-125.342	-0.650	-0.099
-181.056	526.773	0.066	-0.154
-180.042	287.497	0.090	-0.161
-179.027	205.597	-0.096	0.148
-178.012	800.000	-0.131	0.419
-176.998	-107.767	-0.215	-0.047
-175.983	-200.000	-0.054	0.339
-174.969	-200.000	0.049	-0.540
-173.954	-131.890	-0.247	-0.032
-172.939	800.000	0.093	0.308
-171.925	17.539	0.785	0.620
-170.910	-200.000	0.013	-0.638
-169.896	-200.000	0.054	0.608
-168.881	-5.753	0.463	0.315
-167.866	-168.714	0.867	0.033
-166.852	-62.570	0.456	0.188
-165.837	-69.939	0.313	0.119
-164.823	800.000	-0.029	0.125
-163.808	254.066	0.244	-0.415
-162.793	800.000	-0.180	-0.630
-161.779	-116.610	0.454	0.083
-160.764	90.637	-0.052	-0.058
-159.750	-114.037	-0.446	0.086
-158.735	-107.449	-0.544	0.118
-157.720	-78.528	0.563	0.191
-156.706	-39.368	-0.409	-0.213
-155.691	94.081	0.340	-0.383
-154.677	-120.720	0.114	0.019
-153.662	-200.000	0.110	0.924
-152.647	49.193	0.175	0.163
-151.633	-74.297	-0.814	-0.292
-150.618	-19.638	-0.582	-0.357
-149.604	-81.358	1.006	-0.329
-148.589	-200.000	0.041	-0.619
-147.574	-70.128	0.248	0.094
-146.560	-67.540	-0.539	-0.210
-145.545	-24.787	0.416	0.245
-144.531	800.000	-0.066	-0.274
-143.516	-200.000	0.034	0.266
-142.502	800.000	0.240	0.688
-141.487	33.556	0.357	0.308
-140.472	128.661	1.116	-1.411
-139.458	645.697	0.057	0.143
-138.443	35.770	-0.323	0.281
-137.429	429.653	0.117	0.251
-136.414	800.000	-0.055	0.159
-135.399	-91.994	-0.443	-0.124
-134.385	-128.606	0.814	0.114
-133.370	158.709	-0.580	-0.799
-132.356	2.192	0.410	-0.294
-131.341	255.174	0.201	-0.342
-130.326	800.000	0.071	-0.289
-129.312	-101.174	0.296	0.072
-128.297	-114.658	-0.417	-0.079
-127.283	-132.970	0.588	-0.074
-126.268	800.000	0.164	0.683
-125.253	535.863	0.158	-0.372
-124.239	-82.838	-0.578	-0.185
-123.224	-3.150	-0.451	-0.312
-122.210	-200.000	0.047	-0.846
