DTS Sentinel unit serial number:	SN413079Multiplexer serial number:	ORYXHardware model number:	OX4-SRSoftware version number:	ORYX F/W v4.00 Oryx Data Collector v3.7.2.0data status	okinstallation	princeton_trtdifferential loss correction	single-endedforward channel	channel 4reverse channel	N/Adate	2019/09/15time	07:01:34forward acquisition time	60.00reverse acquisition time	0.00gamma	496.2192k internal	0.2311k external	0.2311temperature offset calibration	1.0034default loss term (dB/km)	0.3790temperature slope calibration	1.0000multiplexer offset coefficient	1.0000multiplexer slope coefficient	1.0000fibre end	0.00T internal ref (°C)	30.50T ext. ref 1 (°C)	4.88T ext. ref 2 (°C)	25.59length (m)	temperature (°C)	Stokes	anti-Stokes-747.200	222.988	0.223	0.364
-746.185	-167.081	-0.156	0.006
-745.171	-200.000	0.078	0.380
-744.156	-200.000	-0.016	0.111
-743.142	142.579	0.084	-0.113
-742.127	126.246	0.084	0.108
-741.112	84.239	0.093	0.103
-740.098	30.617	-0.390	0.339
-739.083	-36.192	0.103	-0.057
-738.069	768.335	-0.159	0.438
-737.054	194.687	0.082	0.127
-736.039	-40.828	-0.358	-0.188
-735.025	-152.732	0.297	-0.021
-734.010	36.736	0.109	-0.098
-732.996	-200.000	0.033	-0.468
-731.981	308.657	0.076	-0.143
-730.966	-200.000	0.006	0.030
-729.952	2.148	0.148	0.108
-728.937	-32.224	-0.256	0.145
-727.923	-48.825	0.158	-0.077
-726.908	-65.899	0.106	-0.043
-725.894	-114.312	-0.319	0.062
-724.879	-118.119	-0.317	-0.057
-723.864	-142.643	-0.073	-0.007
-722.850	-80.304	0.087	-0.030
-721.835	-200.000	-0.021	-0.161
-720.821	228.997	0.206	-0.340
-719.806	137.470	-0.139	0.184
-718.791	800.000	-0.131	-0.435
-717.777	-57.086	0.216	0.097
-716.762	99.755	-0.097	-0.114
-715.748	-200.000	0.022	-0.355
-714.733	144.407	-0.125	0.169
-713.718	-22.710	0.172	0.105
-712.704	408.006	0.082	-0.175
-711.689	-200.000	-0.028	-0.191
-710.675	-3.034	-0.184	-0.130
-709.660	-138.701	-0.200	-0.022
-708.645	138.877	0.086	0.114
-707.631	-99.225	-0.418	-0.107
-706.616	-200.000	0.028	-0.226
-705.602	275.901	0.121	0.217
-704.587	-73.597	-0.273	0.101
-703.572	-96.927	-0.387	0.103
-702.558	-141.395	-0.107	0.011
-701.543	714.836	0.089	-0.238
-700.529	425.292	-0.096	0.210
-699.514	-112.785	-0.348	-0.070
-698.499	683.434	-0.138	0.364
-697.485	-91.057	0.058	-0.017
-696.470	-15.335	-0.190	-0.123
-695.456	-81.183	-0.292	0.098
-694.441	-191.567	0.155	-0.002
-693.426	448.624	-0.092	0.205
-692.412	-152.562	0.077	-0.006
-691.397	-25.461	-0.134	-0.080
-690.383	87.292	0.222	-0.249
-689.368	-19.387	0.081	-0.051
-688.354	-1.619	0.185	0.132
-687.339	800.000	-0.089	0.285
-686.324	770.753	0.048	0.132
-685.310	800.000	0.069	-0.235
-684.295	-34.111	-0.277	0.154
-683.281	-200.000	-0.026	0.178
-682.266	133.112	-0.064	0.084
-681.251	-41.763	0.266	-0.138
-680.237	-23.859	0.209	-0.126
-679.222	132.387	-0.452	-0.590
-678.208	159.033	0.075	-0.105
-677.193	391.201	-0.153	0.321
-676.178	-200.000	-0.004	0.071
-675.164	-128.186	-0.041	-0.006
-674.149	-156.670	-0.316	0.020
-673.135	-112.273	-0.244	0.049
-672.120	630.178	0.089	-0.228
-671.105	-72.008	0.223	0.084
-670.091	-200.000	0.036	-0.270
-669.076	17.358	-0.109	0.088
-668.062	-127.785	-0.168	-0.025
-667.047	-121.811	-0.440	0.073
-666.032	-10.548	0.311	-0.208
-665.018	-42.801	-0.185	0.095
-664.003	-93.203	-0.012	-0.003
-662.989	28.489	0.277	-0.237
-661.974	355.660	0.078	-0.157
-660.959	-200.000	0.055	0.336
-659.945	800.000	-0.035	0.123
-658.930	47.776	-0.287	-0.271
-657.916	262.599	0.099	-0.173
-656.901	-35.222	0.135	-0.074
-655.886	112.664	-0.221	-0.271
-654.872	10.235	0.276	-0.213
-653.857	462.671	0.111	0.251
-652.843	-25.828	0.082	-0.049
-651.828	-24.200	-0.222	0.134
-650.814	800.000	0.031	-0.133
-649.799	132.288	0.145	-0.189
-648.784	-46.773	-0.339	0.168
-647.770	-200.000	0.010	-0.167
-646.755	-28.795	0.178	-0.103
-645.741	-200.000	-0.009	-0.188
-644.726	8.198	-0.124	-0.094
-643.711	-27.327	-0.152	-0.089
-642.697	800.000	-0.028	0.097
-641.682	154.414	0.075	-0.104
-640.668	-3.134	0.188	0.133
-639.653	-99.652	-0.177	0.045
-638.638	-25.178	-0.358	-0.214
-637.624	-60.432	-0.148	0.064
-636.609	-170.229	0.089	-0.003
-635.595	251.880	-0.115	-0.198
-634.580	-200.000	0.048	0.422
-633.565	76.157	0.070	-0.075
-632.551	-200.000	-0.032	0.155
-631.536	321.774	-0.085	-0.163
-630.522	-200.000	-0.051	-0.278
-629.507	-96.041	-0.123	0.033
-628.492	-25.008	-0.245	0.147
-627.478	-26.560	-0.169	0.100
-626.463	-144.325	0.166	0.016
-625.449	-132.901	0.116	-0.015
-624.434	100.568	-0.059	-0.069
-623.419	35.980	-0.047	0.041
-622.405	-2.594	0.202	0.143
-621.390	370.083	-0.182	-0.373
-620.376	42.151	0.146	0.133
-619.361	139.475	0.124	0.165
-618.346	2.880	0.258	-0.189
-617.332	36.810	0.051	-0.046
-616.317	-31.099	0.099	0.057
-615.303	-42.364	0.329	0.169
-614.288	-104.784	0.274	-0.064
-613.273	404.137	-0.109	0.231
-612.259	-79.293	-0.013	-0.004
-611.244	166.137	-0.129	-0.185
-610.230	800.000	0.024	-0.085
-609.215	442.685	-0.077	-0.170
-608.201	-189.454	-0.410	-0.005
-607.186	-200.000	0.004	-0.053
-606.171	-200.000	0.065	-0.321
-605.157	-148.419	0.402	0.033
-604.142	-145.990	-0.163	0.015
-603.128	-200.000	-0.007	-0.101
-602.113	152.298	0.153	-0.210
-601.098	800.000	-0.067	-0.271
-600.084	-155.745	-0.295	0.019
-599.069	227.835	0.063	-0.103
-598.055	-142.243	0.133	-0.013
-597.040	600.422	0.036	-0.089
-596.025	-200.000	-0.033	-0.255
-595.011	-55.725	-0.134	-0.060
-593.996	162.088	-0.084	0.118
-592.982	-200.000	0.046	-0.343
-591.967	64.144	0.173	-0.176
-590.952	-41.978	0.206	-0.106
-589.938	798.492	-0.049	0.135
-588.923	229.285	0.063	-0.103
-587.909	-200.000	0.038	0.253
-586.894	-200.000	-0.001	-0.123
-585.879	81.372	0.023	-0.025
-584.865	-137.240	0.071	-0.008
-583.850	800.000	0.082	-0.309
-582.836	62.782	0.248	-0.251
-581.821	-200.000	0.009	0.091
-580.806	646.064	0.027	0.069
-579.792	237.559	-0.067	0.112
-578.777	-200.000	0.012	0.141
-577.763	153.843	0.187	0.258
-576.748	-129.110	0.297	-0.042
-575.733	293.761	-0.149	0.274
-574.719	8.559	-0.242	-0.183
-573.704	406.866	-0.043	-0.092
-572.690	27.894	0.165	-0.140
-571.675	165.193	0.171	0.243
-570.661	800.000	-0.018	-0.078
-569.646	33.827	-0.246	0.216
-568.631	459.917	0.082	-0.184
-567.617	-112.513	0.283	-0.057
-566.602	25.685	-0.338	0.284
-565.588	-200.000	-0.085	-0.400
-564.573	-10.923	-0.039	-0.026
-563.558	26.526	-0.067	-0.056
-562.544	-68.899	0.520	-0.202
-561.529	-92.380	0.346	0.098
-560.515	-178.181	0.084	0.002
-559.500	-17.285	-0.148	0.094
-558.485	-8.794	0.081	0.055
-557.471	-140.553	-0.183	0.019
-556.456	-96.904	-0.150	-0.040
-555.442	-135.568	-0.211	-0.025
-554.427	-200.000	0.007	0.166
-553.412	-31.217	0.163	-0.092
-552.398	446.706	-0.072	-0.160
-551.383	-109.025	-0.265	0.057
-550.369	559.553	-0.128	0.310
-549.354	97.503	-0.053	0.061
-548.339	268.268	0.147	-0.260
-547.325	55.874	0.198	-0.194
-546.310	168.098	0.089	0.128
-545.296	800.000	0.044	0.142
-544.281	55.073	-0.076	0.074
-543.266	-100.759	-0.452	0.112
-542.252	-118.954	-0.229	-0.040
-541.237	-85.267	-0.522	-0.164
-540.223	-200.000	0.030	-0.274
-539.208	280.993	0.108	-0.195
-538.193	-47.067	0.187	0.092
-537.179	-200.000	0.011	-0.126
-536.164	-86.047	0.075	-0.023
-535.150	-200.000	0.007	-0.168
-534.135	-116.280	-0.289	0.054
-533.121	-4.242	0.171	0.119
-532.106	-200.000	-0.011	-0.170
-531.091	-25.154	0.167	0.100
-530.077	800.000	-0.060	-0.201
-529.062	-25.555	-0.075	-0.045
-528.048	-200.000	-0.003	-0.034
-527.033	16.525	-0.090	-0.071
-526.018	-3.707	0.048	0.034
-525.004	-79.791	0.392	0.133
-523.989	-127.888	0.274	0.040
-522.975	84.365	-0.101	-0.111
-521.960	-200.000	-0.026	-0.333
-520.945	33.283	0.154	-0.135
-519.931	287.156	0.061	0.111
-518.916	-38.880	-0.226	-0.120
-517.902	-54.888	0.205	-0.093
-516.887	-78.470	-0.225	0.077
-515.872	-200.000	0.004	-0.174
-514.858	-68.151	-0.171	-0.067
-513.843	-200.000	-0.009	0.161
-512.829	44.308	-0.137	0.126
-511.814	-76.349	-0.184	-0.065
-510.799	-9.890	-0.133	0.089
-509.785	-78.177	-0.337	0.117
-508.770	-77.859	0.374	-0.130
-507.756	-200.000	0.001	0.184
-506.741	-55.945	0.174	-0.078
-505.726	63.182	-0.200	-0.202
-504.712	-13.229	-0.192	-0.125
-503.697	124.738	0.154	-0.195
-502.683	-69.527	0.204	0.078
-501.668	-200.000	0.014	0.223
-500.653	-1.184	0.380	0.270
-499.639	426.826	0.116	0.251
-498.624	-81.075	-0.407	0.135
-497.610	-104.167	0.245	0.057
-496.595	-75.851	-0.221	0.079
-495.581	-52.483	-0.310	0.144
-494.566	296.041	0.107	0.196
-493.551	-86.795	0.142	-0.044
-492.537	-164.928	0.253	-0.011
-491.522	94.828	-0.235	-0.269
-490.508	-73.171	0.270	0.099
-489.493	-73.617	0.140	-0.051
-488.478	24.729	-0.094	0.078
-487.464	-21.838	0.240	-0.146
-486.449	-200.000	0.017	0.173
-485.435	85.723	0.044	0.048
-484.420	54.605	0.034	0.033
-483.405	-200.000	-0.036	-0.161
-482.391	800.000	0.104	-0.317
-481.376	800.000	-0.039	-0.138
-480.362	-84.541	-0.510	0.162
-479.347	614.993	-0.014	0.036
-478.332	75.511	0.156	0.166
-477.318	-97.592	-0.190	0.049
-476.303	26.642	-0.085	-0.071
-475.289	50.806	-0.160	-0.152
-474.274	-178.902	-0.172	0.004
-473.259	115.047	-0.100	0.123
-472.245	-95.248	-0.166	0.045
-471.230	-0.941	-0.151	0.107
-470.216	-114.830	0.326	-0.062
-469.201	-57.721	0.353	-0.155
-468.186	-137.451	0.375	-0.043
-467.172	800.000	-0.045	0.148
-466.157	98.128	0.110	0.127
-465.143	-86.484	0.078	0.024
-464.128	116.243	0.167	0.206
-463.113	-175.317	-0.212	0.006
-462.099	128.107	0.033	-0.042
-461.084	-200.000	0.008	0.092
-460.070	-31.942	0.154	-0.087
-459.055	-74.602	-0.101	0.036
-458.040	-200.000	-0.008	0.099
-457.026	278.131	0.102	0.182
-456.011	-71.850	-0.164	-0.061
-454.997	-49.581	0.242	-0.116
-453.982	32.999	-0.309	0.268
-452.968	-200.000	-0.033	0.219
-451.953	-148.026	0.227	0.019
-450.938	-200.000	-0.014	-0.187
-449.924	-108.441	0.188	-0.041
-448.909	87.889	0.134	0.149
-447.895	-98.846	-0.144	-0.037
-446.880	21.977	-0.081	-0.067
-445.865	-200.000	-0.055	0.301
-444.851	-200.000	0.025	0.151
-443.836	-200.000	0.062	-0.321
-442.822	-179.573	0.214	-0.005
-441.807	-170.248	-0.363	-0.013
-440.792	-130.780	-0.530	-0.071
-439.778	800.000	-0.059	-0.201
-438.763	800.000	-0.123	0.421
-437.749	-200.000	-0.007	-0.049
-436.734	800.000	0.115	0.323
-435.719	277.895	-0.048	-0.085
-434.705	-200.000	0.008	0.550
-433.690	800.000	-0.083	0.291
-432.676	-145.713	-0.592	0.053
-431.661	800.000	-0.062	-0.184
-430.646	-65.988	-0.099	-0.040
-429.632	20.079	-0.103	-0.083
-428.617	-96.558	0.115	0.030
-427.603	-15.119	-0.260	-0.167
-426.588	59.314	-0.149	-0.148
-425.573	-54.509	0.033	-0.015
-424.559	68.659	-0.167	0.172
-423.544	23.803	0.110	-0.091
-422.530	490.207	-0.118	0.272
-421.515	800.000	-0.118	-0.373
-420.500	186.599	-0.125	0.187
-419.486	-149.124	0.021	0.002
-418.471	-200.000	0.033	-0.172
-417.457	-171.704	0.146	-0.005
-416.442	-30.364	0.161	-0.092
-415.428	-76.994	0.421	0.147
-414.413	12.047	0.051	0.039
-413.398	-145.858	-0.372	0.033
-412.384	58.279	-0.332	-0.326
-411.369	412.814	0.070	-0.149
-410.355	800.000	0.029	0.104
-409.340	17.765	0.190	0.152
-408.325	-38.802	-0.283	0.149
-407.311	-88.807	-0.310	-0.092
-406.296	800.000	0.072	0.276
-405.282	322.687	-0.141	-0.269
-404.267	56.277	0.122	-0.118
-403.252	-145.552	-0.225	0.020
-402.238	86.494	-0.254	-0.280
-401.223	190.991	0.150	-0.226
-400.209	-86.173	-0.108	-0.033
-399.194	-200.000	0.023	-0.149
-398.179	-86.676	-0.239	-0.073
-397.165	-101.421	-0.258	-0.063
-396.150	-200.000	-0.003	-0.166
-395.136	-92.027	-0.417	0.118
-394.121	800.000	0.075	-0.269
-393.106	-7.226	0.009	-0.006
-392.092	-200.000	0.098	0.474
-391.077	18.821	-0.167	-0.134
-390.063	124.052	-0.158	0.199
-389.048	111.039	0.162	0.195
-388.033	199.703	0.119	-0.182
-387.019	3.237	-0.205	0.149
-386.004	-200.000	0.001	-0.173
-384.990	-57.783	0.192	0.084
-383.975	136.367	-0.144	-0.188
-382.960	-113.091	-0.260	0.051
-381.946	263.465	0.124	0.215
-380.931	800.000	0.063	0.272
-379.917	-200.000	-0.006	0.070
-378.902	-61.189	-0.228	-0.096
-377.888	234.203	-0.160	-0.264
-376.873	-41.339	0.107	-0.055
-375.858	-105.664	-0.203	0.046
-374.844	-200.000	-0.009	-0.188
-373.829	-83.073	0.368	0.119
-372.815	-22.367	-0.230	0.139
-371.800	-32.311	-0.264	-0.147
-370.785	399.424	-0.009	-0.019
-369.771	-178.571	0.010	-0.000
-368.756	-200.000	0.021	-0.164
-367.742	32.127	0.063	-0.054
-366.727	-191.021	0.221	-0.002
-365.712	-44.598	-0.135	0.067
-364.698	109.800	0.124	-0.149
-363.683	403.567	0.155	-0.326
-362.669	183.503	-0.118	-0.174
-361.654	-200.000	0.093	0.498
-360.639	435.188	-0.189	-0.410
-359.625	-200.000	0.040	0.233
-358.610	-100.058	-0.278	-0.069
-357.596	-146.684	0.316	-0.027
-356.581	712.632	0.087	0.229
-355.566	-161.580	-0.461	-0.024
-354.552	800.000	-0.082	0.237
-353.537	-99.294	0.318	-0.080
-352.523	-125.211	0.346	-0.053
-351.508	-200.000	0.005	0.034
-350.493	-88.706	0.222	0.066
-349.479	-106.672	0.272	-0.060
-348.464	-7.271	0.158	-0.107
-347.450	77.427	-0.078	-0.083
-346.435	-200.000	0.001	0.037
-345.420	-46.195	-0.049	0.024
-344.406	-23.035	0.136	-0.082
-343.391	800.000	0.102	-0.309
-342.377	-38.432	0.076	0.040
-341.362	-200.000	0.002	0.012
-340.348	645.320	0.051	0.130
-339.333	-200.000	-0.068	0.497
-338.318	-122.161	-0.156	-0.026
-337.304	18.488	-0.171	0.137
-336.289	-200.000	0.013	0.134
-335.275	800.000	0.089	0.365
-334.260	13.386	-0.192	0.149
-333.245	64.275	0.050	-0.050
-332.231	-102.343	0.474	-0.113
-331.216	-172.839	0.164	0.005
-330.202	673.790	-0.165	-0.427
-329.187	-153.784	-0.146	0.010
-328.172	800.000	0.117	-0.475
-327.158	-59.142	-0.250	-0.108
-326.143	775.163	-0.049	-0.133
-325.129	387.314	0.037	0.077
-324.114	-175.938	0.260	-0.007
-323.099	-200.000	-0.038	-0.179
-322.085	-6.989	-0.099	0.067
-321.070	-89.420	-0.376	0.110
-320.056	-140.917	-0.063	-0.006
-319.041	226.389	0.092	0.149
-318.026	71.684	0.107	0.111
-317.012	206.651	0.124	-0.194
-315.997	490.292	0.115	-0.263
-314.983	-200.000	-0.028	-0.144
-313.968	-105.393	0.083	-0.019
-312.953	-58.559	0.275	0.119
-311.939	0.834	-0.309	0.221
-310.924	-200.000	0.006	0.040
-309.910	-200.000	0.059	0.262
-308.895	7.306	0.239	-0.178
-307.880	-200.000	0.054	-0.249
-306.866	-200.000	-0.024	0.284
-305.851	589.609	-0.056	-0.138
-304.837	-134.191	-0.224	-0.028
-303.822	5.589	-0.206	0.152
-302.807	36.657	0.263	0.232
-301.793	116.661	0.140	0.171
-300.778	208.658	0.132	0.206
-299.764	146.316	-0.140	0.187
-298.749	82.511	-0.056	0.060
-297.735	-200.000	0.045	0.210
-296.720	172.856	0.187	0.269
-295.705	174.164	-0.131	-0.189
-294.691	68.146	-0.276	0.282
-293.676	-0.044	0.190	0.135
-292.662	37.316	0.050	0.044
-291.647	18.162	0.164	-0.130
-290.632	94.660	-0.139	0.157
-289.618	-45.834	0.035	-0.017
-288.603	-200.000	0.035	0.240
-287.589	-40.811	-0.292	0.151
-286.574	-200.000	0.037	0.257
-285.559	403.497	-0.050	-0.104
-284.545	-34.215	0.097	0.053
-283.530	-133.098	0.092	-0.012
-282.516	96.159	0.130	0.149
-281.501	-120.444	0.327	-0.055
-280.486	61.299	0.236	-0.234
-279.472	271.447	0.079	-0.139
-278.457	800.000	0.037	-0.142
-277.443	-154.278	-0.261	0.018
-276.428	-72.763	0.312	-0.115
-275.413	-92.774	0.445	0.124
-274.399	49.543	-0.323	-0.303
-273.384	128.727	0.287	-0.364
-272.370	-200.000	0.015	0.079
-271.355	-112.016	-0.522	0.105
-270.340	-25.746	0.201	0.118
-269.326	-200.000	-0.002	-0.360
-268.311	-73.491	-0.396	0.144
-267.297	44.006	0.178	-0.162
-266.282	-65.365	0.452	0.181
-265.267	800.000	0.122	-0.414
-264.253	433.401	0.084	0.182
-263.238	87.323	-0.144	0.159
-262.224	-74.089	-0.257	0.093
-261.209	-174.275	0.110	0.003
-260.195	305.068	0.059	-0.109
-259.180	101.696	-0.172	0.200
-258.165	315.048	-0.078	-0.147
-257.151	-200.000	-0.013	0.174
-256.136	252.254	-0.135	-0.229
-255.122	-140.655	-0.111	0.011
-254.107	-200.000	-0.063	0.299
-253.092	381.512	0.081	0.165
-252.078	22.799	-0.194	-0.158
-251.063	800.000	-0.048	0.148
-250.049	157.852	-0.275	0.379
-249.034	192.624	-0.167	-0.252
-248.019	555.358	0.158	-0.379
-247.005	178.817	0.136	0.199
-245.990	48.831	0.180	-0.168
-244.976	-3.920	-0.189	-0.130
-243.961	156.525	0.068	-0.093
-242.946	-200.000	-0.001	0.098
-241.932	61.475	0.048	0.047
-240.917	35.963	0.154	0.135
-239.903	-200.000	-0.040	-0.205
-238.888	-81.625	0.190	-0.062
-237.873	55.909	-0.054	-0.052
-236.859	68.673	0.268	-0.273
-235.844	134.017	0.123	-0.159
-234.830	45.690	0.173	0.159
-233.815	-93.213	0.033	-0.009
-232.800	-200.000	-0.008	-0.044
-231.786	-200.000	0.002	0.045
-230.771	217.030	-0.092	-0.146
-229.757	-200.000	0.049	0.399
-228.742	121.344	0.012	0.014
-227.727	126.495	-0.247	-0.311
-226.713	46.926	0.195	-0.180
-225.698	-18.419	-0.266	-0.166
-224.684	-106.941	-0.153	0.034
-223.669	800.000	0.094	-0.381
-222.655	-200.000	-0.019	0.124
-221.640	168.014	0.090	-0.127
-220.625	-186.734	-0.197	-0.003
-219.611	-1.320	0.173	0.121
-218.596	742.533	-0.037	0.100
-217.582	-200.000	-0.039	-0.185
-216.567	7.700	0.100	0.074
-215.552	-200.000	0.013	-0.060
-214.538	81.351	0.139	-0.150
-213.523	170.831	-0.122	0.174
-212.509	-200.000	0.053	-0.246
-211.494	-121.568	-0.141	0.023
-210.479	4.875	0.160	0.117
-209.465	-118.916	0.145	0.025
-208.450	292.238	-0.104	0.189
-207.436	130.856	-0.131	-0.167
-206.421	236.996	-0.125	0.205
-205.406	-200.000	0.025	-0.127
-204.392	-23.856	-0.031	-0.018
-203.377	-200.000	-0.028	0.175
-202.363	-200.000	-0.051	-0.296
-201.348	-19.025	0.066	-0.041
-200.333	268.943	0.127	0.221
-199.319	397.918	0.159	0.331
-198.304	-39.118	0.170	0.089
-197.290	-34.561	-0.101	-0.055
-196.275	-133.580	-0.355	-0.044
-195.260	-179.797	0.184	-0.004
-194.246	80.290	0.120	0.128
-193.231	203.732	0.082	0.127
-192.217	211.029	0.106	0.165
-191.202	249.193	0.107	0.180
-190.187	-200.000	-0.047	0.261
-189.173	245.171	0.053	-0.088
-188.158	-200.000	0.021	-0.187
-187.144	65.367	0.150	0.151
-186.129	-25.733	-0.116	-0.068
-185.114	-133.662	-0.588	0.073
-184.100	365.575	-0.192	-0.384
-183.085	-120.274	0.207	0.035
-182.071	339.190	0.199	0.386
-181.056	800.000	0.045	-0.141
-180.042	147.278	0.110	0.147
-179.027	-20.189	0.116	0.071
-178.012	-100.781	-0.191	0.047
-176.998	-76.125	0.043	-0.015
-175.983	2.244	0.259	0.186
-174.969	-200.000	-0.007	0.103
-173.954	172.061	0.052	0.074
-172.939	-200.000	0.054	0.274
-171.925	318.238	0.091	-0.170
-170.910	97.795	0.087	-0.099
-169.896	-27.208	-0.079	-0.046
-168.881	-15.880	-0.108	-0.068
-167.866	-200.000	-0.018	0.259
-166.852	11.895	-0.305	0.232
-165.837	-40.926	0.260	0.134
-164.823	-100.347	0.165	-0.041
-163.808	146.680	0.038	-0.050
-162.793	87.078	0.209	-0.229
-161.779	-97.559	-0.306	0.079
-160.764	-103.375	-0.157	0.037
-159.750	363.695	0.022	0.044
-158.735	21.372	0.288	-0.233
-157.720	153.590	0.060	-0.082
-156.706	-200.000	-0.022	0.384
-155.691	-4.827	0.173	0.118
-154.677	192.897	0.165	0.247
-153.662	234.295	0.077	0.125
-152.647	89.538	0.162	-0.179
-151.633	719.986	0.074	0.194
-150.618	-200.000	0.018	0.116
-149.604	-200.000	0.028	-0.212
-148.589	741.627	0.130	-0.346
-147.574	-4.581	0.094	-0.064
-146.560	550.117	0.134	0.318
-145.545	0.313	0.452	0.320
-144.531	-32.141	0.272	-0.151
-143.516	-108.188	0.065	-0.014
-142.502	-200.000	0.076	0.331
-141.487	135.959	-0.106	-0.137
-140.472	-140.112	0.356	0.037
-139.458	219.498	-0.115	0.183
-138.443	95.269	0.144	-0.163
-137.429	20.273	0.406	-0.325
-136.414	382.993	0.158	0.321
-135.399	18.032	0.116	-0.092
-134.385	-200.000	0.013	-0.215
-133.370	434.026	0.091	0.197
-132.356	29.319	-0.099	0.084
-131.341	64.935	0.224	-0.224
-130.326	92.924	-0.165	0.185
-129.312	-59.880	0.163	0.069
-128.297	-88.914	0.262	-0.077
-127.283	-200.000	-0.057	0.417
-126.268	8.470	0.285	-0.212
-125.253	748.967	0.066	-0.176
-124.239	-140.247	-0.329	-0.034
-123.224	-87.853	-0.319	-0.095
-122.210	-51.418	0.246	0.114
-121.195	710.001	0.126	-0.330
-120.180	-71.232	0.250	-0.093
