DTS Sentinel unit serial number:	SN413079Multiplexer serial number:	ORYXHardware model number:	OX4-SRSoftware version number:	ORYX F/W v4.00 Oryx Data Collector v3.7.2.0data status	okinstallation	princeton_trtdifferential loss correction	single-endedforward channel	channel 4reverse channel	N/Adate	2019/09/16time	07:25:35forward acquisition time	60.00reverse acquisition time	0.00gamma	496.2192k internal	0.2319k external	0.2319temperature offset calibration	0.9981default loss term (dB/km)	0.3790temperature slope calibration	1.0000multiplexer offset coefficient	1.0000multiplexer slope coefficient	1.0000fibre end	0.00T internal ref (°C)	27.50T ext. ref 1 (°C)	11.61T ext. ref 2 (°C)	23.27length (m)	temperature (°C)	Stokes	anti-Stokes-747.200	-111.847	0.125	0.026
-746.185	355.903	0.085	0.171
-745.171	-65.526	0.149	-0.060
-744.156	-97.967	0.393	0.102
-743.142	250.488	-0.092	0.159
-742.127	175.288	-0.230	0.337
-741.112	326.901	0.055	0.107
-740.098	429.521	-0.117	0.256
-739.083	349.792	0.029	-0.058
-738.069	-155.582	-0.478	-0.031
-737.054	63.341	-0.105	-0.106
-736.039	-113.902	-0.439	0.086
-735.025	-189.764	0.272	0.003
-734.010	-143.528	0.142	-0.014
-732.996	-200.000	-0.010	-0.147
-731.981	54.570	-0.278	0.271
-730.966	-111.168	-0.060	0.012
-729.952	50.889	-0.389	-0.373
-728.937	38.509	-0.146	-0.131
-727.923	-200.000	-0.011	0.269
-726.908	-200.000	-0.004	0.211
-725.894	-130.611	-0.158	-0.022
-724.879	-200.000	0.041	-0.389
-723.864	783.321	0.042	-0.116
-722.850	256.732	-0.176	0.306
-721.835	-61.821	-0.238	0.101
-720.821	90.893	0.022	-0.025
-719.806	443.790	-0.155	0.343
-718.791	5.185	-0.089	0.066
-717.777	484.044	-0.068	0.156
-716.762	-200.000	-0.068	0.356
-715.748	527.045	-0.100	-0.239
-714.733	470.506	-0.157	-0.356
-713.718	-200.000	0.042	-0.302
-712.704	106.430	0.071	-0.085
-711.689	800.000	-0.033	0.098
-710.675	-200.000	-0.034	0.366
-709.660	-200.000	0.013	0.258
-708.645	672.201	0.125	-0.326
-707.631	-200.000	-0.028	0.174
-706.616	800.000	-0.031	-0.088
-705.602	-145.257	0.229	-0.021
-704.587	-101.282	0.257	0.063
-703.572	404.884	0.035	-0.074
-702.558	123.915	-0.075	-0.095
-701.543	-66.414	0.123	-0.049
-700.529	286.809	0.119	0.217
-699.514	-35.924	0.170	0.093
-698.499	210.325	0.088	-0.140
-697.485	-192.435	0.079	-0.001
-696.470	613.087	0.174	0.440
-695.456	287.160	-0.049	0.090
-694.441	-153.639	-0.153	-0.011
-693.426	167.757	-0.189	-0.271
-692.412	-56.727	-0.298	0.133
-691.397	800.000	0.080	-0.327
-690.383	83.886	-0.213	0.235
-689.368	-64.409	0.236	-0.097
-688.354	800.000	-0.030	0.094
-687.339	165.240	0.085	0.122
-686.324	-3.340	0.134	-0.094
-685.310	-134.864	0.302	0.037
-684.295	-160.465	-0.317	-0.017
-683.281	800.000	-0.057	0.170
-682.266	-198.503	0.212	0.001
-681.251	-115.821	0.136	0.026
-680.237	411.699	-0.179	-0.384
-679.222	-200.000	-0.021	0.175
-678.208	18.316	0.247	0.199
-677.193	-102.079	-0.269	-0.065
-676.178	-200.000	0.018	-0.264
-675.164	800.000	-0.057	-0.197
-674.149	800.000	-0.033	-0.117
-673.135	-200.000	-0.030	0.142
-672.120	-19.892	-0.181	0.113
-671.105	106.161	-0.234	0.280
-670.091	-200.000	-0.016	-0.285
-669.076	312.973	-0.099	0.188
-668.062	23.538	0.162	0.134
-667.047	-200.000	0.000	-0.032
-666.032	114.299	-0.083	-0.102
-665.018	-70.656	-0.058	-0.022
-664.003	-141.977	-0.224	-0.023
-662.989	490.491	-0.166	-0.382
-661.974	386.996	-0.080	-0.167
-660.959	800.000	-0.096	-0.323
-659.945	664.040	0.069	-0.179
-658.930	-89.303	0.258	-0.077
-657.916	49.485	0.134	-0.127
-656.901	-89.838	-0.148	-0.044
-655.886	192.123	-0.232	0.353
-654.872	800.000	-0.078	0.295
-653.857	-107.202	-0.200	0.044
-652.843	-115.592	-0.062	-0.012
-651.828	404.323	0.049	-0.104
-650.814	-63.177	0.106	0.044
-649.799	58.457	0.124	-0.122
-648.784	-131.493	-0.207	-0.028
-647.770	-70.298	-0.245	0.094
-646.755	-200.000	0.065	-0.371
-645.741	-170.447	0.109	-0.004
-644.726	-200.000	0.055	0.439
-643.711	208.869	0.093	0.146
-642.697	-106.888	-0.075	-0.017
-641.682	-63.752	-0.337	0.139
-640.668	-147.774	-0.306	0.026
-639.653	-200.000	-0.020	-0.190
-638.638	-6.984	0.192	0.131
-637.624	355.165	0.065	-0.131
-636.609	-200.000	-0.033	0.293
-635.595	-162.898	0.102	-0.005
-634.580	-111.520	-0.335	-0.069
-633.565	321.040	0.049	-0.094
-632.551	-55.206	-0.259	0.117
-631.536	-141.037	0.258	-0.027
-630.522	-74.053	-0.111	0.041
-629.507	-39.973	0.118	0.062
-628.492	58.627	-0.246	0.243
-627.478	606.424	-0.022	0.056
-626.463	103.145	-0.080	-0.095
-625.449	22.602	0.042	-0.034
-624.434	221.796	0.128	0.208
-623.419	-46.339	-0.203	-0.100
-622.405	-74.880	0.154	-0.056
-621.390	-23.081	-0.020	0.012
-620.376	370.138	-0.113	-0.230
-619.361	-122.633	-0.171	-0.028
-618.346	79.792	-0.134	0.145
-617.332	402.877	-0.128	-0.271
-616.317	-113.093	0.281	-0.056
-615.303	-48.558	0.064	0.031
-614.288	-200.000	0.338	0.001
-613.273	-55.388	-0.177	-0.080
-612.259	313.167	0.091	-0.173
-611.244	800.000	-0.029	0.121
-610.230	285.796	0.104	-0.188
-609.215	800.000	0.115	-0.357
-608.201	57.773	-0.089	-0.087
-607.186	25.648	0.025	-0.021
-606.171	800.000	-0.025	0.109
-605.157	-200.000	0.036	0.172
-604.142	-44.184	-0.499	-0.252
-603.128	576.589	-0.108	-0.265
-602.113	147.553	-0.219	-0.296
-601.098	632.521	0.088	-0.224
-600.084	-33.282	-0.139	-0.077
-599.069	-200.000	0.007	0.292
-598.055	800.000	0.045	-0.150
-597.040	219.567	-0.242	0.389
-596.025	800.000	-0.028	-0.088
-595.011	386.392	-0.127	0.263
-593.996	21.482	0.092	0.075
-592.982	96.294	0.040	0.046
-591.967	800.000	0.052	0.225
-590.952	77.286	-0.211	0.225
-589.938	64.115	0.095	0.096
-588.923	696.178	-0.072	0.191
-587.909	-70.453	-0.164	-0.062
-586.894	-12.642	0.305	-0.200
-585.879	800.000	-0.085	0.301
-584.865	-2.148	0.278	0.196
-583.850	115.977	-0.258	0.318
-582.836	224.500	-0.032	-0.052
-581.821	123.489	-0.193	-0.244
-580.806	-55.829	-0.204	-0.091
-579.792	119.928	-0.284	-0.354
-578.777	770.587	0.058	-0.160
-577.763	-200.000	-0.042	-0.437
-576.748	-127.038	-0.267	-0.039
-575.733	59.422	0.206	0.204
-574.719	27.163	-0.242	0.204
-573.704	-126.125	-0.267	0.040
-572.690	-200.000	0.014	0.186
-571.675	-43.072	-0.369	-0.188
-570.661	54.797	0.152	-0.147
-569.646	690.801	0.067	-0.176
-568.631	240.686	-0.145	-0.244
-567.617	-196.455	-0.368	0.003
-566.602	46.526	0.075	-0.070
-565.588	-93.155	0.285	-0.080
-564.573	129.955	-0.100	0.129
-563.558	-62.477	-0.267	-0.111
-562.544	-135.010	0.397	-0.048
-561.529	-175.068	-0.266	-0.007
-560.515	-191.684	0.250	-0.002
-559.500	42.824	0.109	-0.100
-558.485	-200.000	0.023	-0.445
-557.471	-122.302	-0.202	0.033
-556.456	-130.595	0.090	-0.012
-555.442	9.150	0.103	-0.078
-554.427	-55.502	0.070	-0.032
-553.412	176.992	-0.045	-0.065
-552.398	89.180	0.266	-0.298
-551.383	-200.000	0.060	0.403
-550.369	523.487	-0.010	0.024
-549.354	70.464	-0.244	0.254
-548.339	11.806	0.265	-0.205
-547.325	-57.175	0.376	-0.166
-546.310	800.000	-0.017	-0.056
-545.296	78.597	-0.107	0.114
-544.281	215.176	0.043	-0.068
-543.266	505.107	0.044	-0.102
-542.252	158.860	-0.264	-0.368
-541.237	-163.865	-0.256	0.012
-540.223	800.000	-0.077	-0.305
-539.208	258.810	-0.095	-0.164
-538.193	-42.634	-0.079	0.040
-537.179	-31.051	0.356	0.201
-536.164	55.548	0.005	0.005
-535.150	10.731	0.171	0.131
-534.135	-123.687	0.183	-0.029
-533.121	-46.290	-0.148	-0.073
-532.106	800.000	-0.058	0.247
-531.091	93.360	0.101	-0.114
-530.077	-144.553	-0.285	0.026
-529.062	-126.906	-0.403	-0.059
-528.048	-4.779	-0.147	0.102
-527.033	-200.000	-0.091	-0.408
-526.018	417.749	-0.089	0.190
-525.004	-89.035	0.343	0.102
-523.989	-142.786	-0.566	-0.055
-522.975	19.806	-0.194	-0.157
-521.960	104.823	0.104	0.123
-520.945	-54.934	0.169	-0.076
-519.931	101.471	-0.163	-0.190
-518.916	-200.000	-0.011	0.226
-517.902	-200.000	-0.027	-0.287
-516.887	-200.000	-0.020	0.322
-515.872	17.501	-0.067	-0.053
-514.858	-149.828	0.130	0.010
-513.843	-25.852	-0.181	0.107
-512.829	-200.000	-0.014	-0.427
-511.814	-32.225	0.103	-0.058
-510.799	101.916	0.443	-0.518
-509.785	72.291	0.171	0.179
-508.770	-200.000	0.011	0.084
-507.756	800.000	0.080	-0.319
-506.741	33.551	-0.112	-0.097
-505.726	-39.158	-0.107	-0.057
-504.712	800.000	-0.125	0.400
-503.697	-99.941	-0.302	0.076
-502.683	800.000	-0.054	-0.221
-501.668	800.000	-0.008	-0.032
-500.653	77.071	-0.242	0.258
-499.639	99.296	-0.119	0.138
-498.624	800.000	-0.069	-0.220
-497.610	-28.410	-0.088	-0.051
-496.595	186.532	-0.159	-0.238
-495.581	-200.000	0.105	-0.490
-494.566	388.232	0.133	0.275
-493.551	800.000	0.019	0.052
-492.537	13.245	0.082	0.063
-491.522	503.436	0.118	-0.273
-490.508	1.190	0.338	-0.243
-489.493	-200.000	0.035	-0.260
-488.478	-27.078	-0.273	-0.159
-487.464	-23.149	-0.476	-0.287
-486.449	212.757	-0.150	-0.237
-485.435	800.000	0.068	0.204
-484.420	-38.968	0.165	0.087
-483.405	-103.381	0.148	0.035
-482.391	-27.761	-0.220	-0.128
-481.376	-200.000	0.031	-0.205
-480.362	62.337	-0.132	-0.132
-479.347	7.558	0.164	-0.123
-478.332	800.000	-0.044	-0.142
-477.318	-81.518	-0.090	-0.030
-476.303	-200.000	0.000	0.392
-475.289	25.676	-0.160	0.133
-474.274	44.753	0.031	0.028
-473.259	-91.275	0.177	-0.051
-472.245	800.000	0.043	0.166
-471.230	15.772	-0.370	0.291
-470.216	-60.198	-0.128	-0.054
-469.201	-200.000	-0.007	0.498
-468.186	-68.721	0.321	0.124
-467.172	-140.129	0.132	-0.014
-466.157	354.885	0.125	-0.249
-465.143	800.000	-0.109	-0.346
-464.128	-127.374	0.119	0.017
-463.113	-35.504	-0.236	-0.128
-462.099	-179.927	-0.278	-0.006
-461.084	-200.000	-0.001	0.208
-460.070	-59.256	0.077	-0.033
-459.055	73.259	0.217	-0.227
-458.040	-29.667	0.282	0.161
-457.026	800.000	-0.066	0.270
-456.011	-31.373	-0.280	0.158
-454.997	-16.371	-0.016	0.010
-453.982	-47.817	-0.165	-0.080
-452.968	800.000	-0.146	0.494
-451.953	759.697	0.032	-0.088
-450.938	-31.976	-0.234	-0.131
-449.924	-59.113	-0.250	0.108
-448.909	33.638	0.155	0.135
-447.895	-200.000	0.051	-0.268
-446.880	42.517	0.200	0.182
-445.865	-36.776	-0.290	0.156
-444.851	-200.000	-0.008	-0.159
-443.836	-10.953	-0.249	0.165
-442.822	46.723	0.123	-0.114
-441.807	-149.517	-0.328	0.026
-440.792	104.715	0.099	0.117
-439.778	251.282	0.210	0.356
-438.763	140.451	0.017	0.023
-437.749	-145.895	-0.401	-0.036
-436.734	160.236	-0.098	0.137
-435.719	-20.039	0.135	0.083
-434.705	82.215	0.181	0.196
-433.690	800.000	-0.091	-0.350
-432.676	252.349	0.109	-0.185
-431.661	-200.000	-0.089	-0.466
-430.646	-200.000	0.001	0.388
-429.632	434.942	0.046	0.101
-428.617	515.508	-0.072	-0.168
-427.603	156.953	0.036	-0.049
-426.588	76.826	0.111	0.117
-425.573	120.227	-0.159	-0.197
-424.559	115.322	-0.013	-0.016
-423.544	-200.000	-0.011	-0.181
-422.530	171.077	-0.134	0.192
-421.515	535.567	-0.040	0.094
-420.500	-142.339	-0.141	-0.014
-419.486	-169.452	0.251	0.009
-418.471	38.790	-0.032	0.029
-417.457	-24.275	-0.157	0.094
-416.442	-90.994	0.291	-0.084
-415.428	48.883	0.058	0.054
-414.413	800.000	-0.081	-0.291
-413.398	-31.323	-0.172	-0.097
-412.384	142.274	0.029	0.038
-411.369	142.694	0.124	0.165
-410.355	-47.547	-0.288	0.140
-409.340	529.772	-0.071	-0.168
-408.325	88.695	0.066	0.073
-407.311	800.000	0.102	0.325
-406.296	800.000	-0.034	0.117
-405.282	-200.000	0.030	0.157
-404.267	-113.871	-0.356	-0.069
-403.252	-34.528	0.182	-0.100
-402.238	-200.000	-0.033	-0.314
-401.223	-115.062	0.412	-0.078
-400.209	80.182	0.286	0.307
-399.194	-200.000	0.008	0.067
-398.179	53.075	0.073	0.069
-397.165	-170.455	-0.064	0.002
-396.150	45.090	0.326	0.299
-395.136	-69.651	-0.367	-0.140
-394.121	119.603	0.112	0.138
-393.106	356.890	-0.067	-0.133
-392.092	-200.000	0.017	0.076
-391.077	-200.000	-0.005	-0.068
-390.063	800.000	0.048	0.139
-389.048	-41.757	-0.282	-0.145
-388.033	-117.912	0.192	0.034
-387.019	-3.804	0.351	0.243
-386.004	-114.200	-0.241	-0.046
-384.990	800.000	-0.069	0.219
-383.975	-200.000	0.006	0.114
-382.960	-149.030	-0.102	-0.008
-381.946	-34.512	0.273	-0.149
-380.931	-108.027	0.160	-0.035
-379.917	-154.098	-0.191	0.013
-378.902	246.752	0.139	-0.234
-377.888	-55.460	-0.152	-0.068
-376.873	-200.000	-0.047	-0.284
-375.858	144.522	0.146	-0.195
-374.844	30.108	0.104	0.088
-373.829	-200.000	-0.057	-0.285
-372.815	-45.759	0.138	0.068
-371.800	-83.817	0.141	0.045
-370.785	424.274	0.135	0.289
-369.771	-83.623	0.109	-0.035
-368.756	44.194	0.224	0.205
-367.742	106.595	-0.302	-0.357
-366.727	171.983	0.237	0.340
-365.712	-200.000	-0.027	0.274
-364.698	212.631	-0.084	-0.131
-363.683	247.081	-0.102	0.171
-362.669	-200.000	-0.009	0.063
-361.654	-78.793	-0.035	0.012
-360.639	611.826	0.118	0.294
-359.625	-200.000	-0.013	-0.135
-358.610	-200.000	-0.026	-0.159
-357.596	-200.000	0.020	-0.094
-356.581	-87.318	0.048	-0.015
-355.566	-83.487	-0.153	0.049
-354.552	-42.501	0.198	-0.100
-353.537	120.530	0.075	-0.093
-352.523	800.000	0.073	-0.217
-351.508	-200.000	0.018	0.228
-350.493	257.804	0.258	0.442
-349.479	-55.051	0.158	0.071
-348.464	529.844	-0.111	0.262
-347.450	-200.000	-0.025	-0.127
-346.435	-2.884	0.199	-0.138
-345.420	800.000	0.043	-0.158
-344.406	-37.621	0.212	-0.112
-343.391	-53.817	-0.214	0.097
-342.377	-104.324	-0.225	-0.052
-341.362	252.543	-0.165	-0.280
-340.348	195.843	0.153	-0.232
-339.333	-123.556	-0.194	0.031
-338.318	8.270	-0.064	-0.048
-337.304	-79.820	0.347	0.116
-336.289	21.373	0.185	-0.150
-335.275	39.310	0.237	0.211
-334.260	-34.803	0.304	-0.165
-333.245	800.000	-0.024	-0.090
-332.231	34.215	0.261	-0.226
-331.216	200.441	-0.130	-0.199
-330.202	-82.582	-0.122	-0.039
-329.187	-200.000	0.046	0.248
-328.172	260.898	-0.127	-0.219
-327.158	-69.560	0.071	0.027
-326.143	-187.040	-0.076	-0.001
-325.129	167.896	0.072	0.102
-324.114	-6.671	-0.078	0.053
-323.099	295.650	0.088	0.161
-322.085	-29.567	0.175	-0.099
-321.070	-85.874	-0.165	0.051
-320.056	-156.428	0.453	0.028
-319.041	36.027	0.229	0.200
-318.026	800.000	-0.033	-0.094
-317.012	800.000	0.090	0.389
-315.997	409.333	0.048	-0.100
-314.983	-0.877	0.112	0.079
-313.968	165.783	0.173	0.243
-312.953	-59.051	0.155	0.066
-311.939	44.144	-0.131	0.119
-310.924	338.484	-0.029	0.057
-309.910	107.600	0.147	0.174
-308.895	178.912	0.189	0.275
-307.880	594.184	0.028	0.068
-306.866	-200.000	-0.006	-0.035
-305.851	256.612	-0.144	-0.247
-304.837	387.356	0.044	-0.091
-303.822	57.584	0.117	-0.114
-302.807	-34.380	0.140	-0.076
-301.793	-0.993	0.366	0.258
-300.778	69.654	0.248	-0.254
-299.764	800.000	0.003	0.015
-298.749	100.255	0.056	0.065
-297.735	800.000	-0.053	-0.195
-296.720	218.005	-0.054	-0.086
-295.705	800.000	0.083	0.242
-294.691	-107.112	0.361	-0.079
-293.676	-135.838	-0.238	-0.028
-292.662	84.215	-0.124	0.135
-291.647	108.557	-0.154	-0.182
-290.632	-62.885	-0.104	-0.043
-289.618	-200.000	0.022	0.191
-288.603	81.283	0.203	-0.218
-287.589	-200.000	-0.007	-0.146
-286.574	397.020	-0.074	-0.154
-285.559	-60.106	0.245	-0.104
-284.545	-36.074	0.238	0.128
-283.530	-124.696	-0.071	0.011
-282.516	568.117	-0.086	0.206
-281.501	-157.868	0.577	0.034
-280.486	-84.713	-0.300	0.094
-279.472	-200.000	0.055	0.265
-278.457	360.322	-0.153	-0.304
-277.443	304.569	-0.118	0.217
-276.428	228.233	0.039	-0.064
-275.413	-200.000	0.035	0.392
-274.399	550.094	-0.138	-0.328
-273.384	-15.519	0.146	0.092
-272.370	-178.385	-0.149	0.003
-271.355	-120.794	-0.374	0.063
-270.340	-200.000	-0.021	0.189
-269.326	125.588	-0.193	-0.242
-268.311	-200.000	0.015	-0.201
-267.297	-108.006	0.164	0.035
-266.282	-94.605	-0.039	0.010
-265.267	621.224	-0.026	0.064
-264.253	800.000	0.081	-0.254
-263.238	-55.958	0.104	0.046
-262.224	705.518	0.151	0.396
-261.209	234.751	-0.257	-0.421
-260.195	642.527	-0.096	-0.242
-259.180	-35.264	0.367	0.198
-258.165	-101.542	0.281	-0.068
-257.151	-39.102	-0.192	-0.100
-256.136	-14.910	0.303	0.193
-255.122	700.662	-0.098	-0.256
-254.107	260.223	-0.164	-0.281
-253.092	300.569	0.082	0.151
-252.078	39.300	-0.086	0.076
-251.063	-30.716	-0.265	0.149
-250.049	-90.154	0.084	0.024
-249.034	-200.000	-0.004	-0.208
-248.019	65.500	0.131	-0.131
-247.005	258.789	0.077	0.131
-245.990	-200.000	-0.005	-0.123
-244.976	345.154	-0.157	0.306
-243.961	-133.812	0.102	0.013
-242.946	800.000	-0.113	-0.374
-241.932	47.358	0.168	0.155
-240.917	800.000	0.067	0.215
-239.903	800.000	-0.094	0.280
-238.888	-110.266	0.163	-0.034
-237.873	231.408	0.135	-0.219
-236.859	26.689	0.387	-0.322
-235.844	32.046	-0.108	0.092
-234.830	-200.000	-0.015	-0.080
-233.815	310.624	0.083	0.154
-232.800	-200.000	-0.006	-0.050
-231.786	-200.000	0.001	0.114
-230.771	61.869	-0.319	-0.315
-229.757	274.502	0.062	0.110
-228.742	10.254	-0.289	0.218
-227.727	86.153	-0.028	0.031
-226.713	800.000	-0.092	-0.337
-225.698	10.486	-0.204	0.154
-224.684	187.483	-0.101	0.149
-223.669	-81.399	0.432	-0.141
-222.655	-200.000	-0.015	0.165
-221.640	800.000	0.032	0.090
-220.625	-200.000	-0.057	0.284
-219.611	-148.692	0.142	0.011
-218.596	-90.164	-0.209	-0.060
-217.582	-89.836	0.242	-0.070
-216.567	-58.426	0.325	0.140
-215.552	-117.700	-0.303	0.054
-214.538	18.903	0.017	-0.013
-213.523	334.769	0.115	0.222
-212.509	198.642	0.116	0.175
-211.494	335.163	-0.036	0.070
-210.479	-200.000	0.017	-0.164
-209.465	752.860	0.094	0.251
-208.450	-124.893	-0.356	0.054
-207.436	116.197	-0.021	-0.026
-206.421	-200.000	0.050	0.226
-205.406	89.211	-0.132	-0.145
-204.392	-27.703	0.310	0.178
-203.377	-76.830	0.268	-0.093
-202.363	-200.000	0.034	-0.294
-201.348	-59.951	-0.309	-0.131
-200.333	-57.083	0.222	0.097
-199.319	249.718	0.130	0.219
-198.304	62.052	0.122	0.121
-197.290	-200.000	0.008	-0.199
-196.275	73.621	0.094	-0.098
-195.260	159.476	-0.197	0.272
-194.246	-200.000	0.050	0.577
-193.231	800.000	-0.022	-0.085
-192.217	-58.353	0.136	0.059
-191.202	-200.000	-0.003	0.287
-190.187	-136.959	0.324	-0.037
-189.173	-135.989	-0.268	-0.031
-188.158	233.448	0.057	-0.093
-187.144	128.762	0.212	-0.267
-186.129	-83.858	-0.072	-0.023
-185.114	800.000	-0.159	-0.516
-184.100	296.870	0.084	0.153
-183.085	-200.000	-0.016	0.286
-182.071	800.000	-0.020	-0.070
-181.056	-200.000	0.085	0.532
-180.042	-200.000	-0.042	0.312
-179.027	192.744	0.075	-0.111
-178.012	-200.000	0.007	0.271
-176.998	269.373	-0.188	-0.327
-175.983	-38.764	0.175	0.091
-174.969	48.041	-0.041	-0.038
-173.954	-136.117	-0.041	-0.005
-172.939	-200.000	-0.017	0.173
-171.925	25.057	-0.109	-0.089
-170.910	-155.915	-0.374	-0.024
-169.896	-191.155	0.030	-0.000
-168.881	38.326	0.170	0.150
-167.866	169.389	0.067	-0.094
-166.852	-76.264	-0.158	0.055
-165.837	-39.808	0.523	-0.270
-164.823	-200.000	-0.037	-0.251
-163.808	-19.142	-0.193	-0.119
-162.793	-47.720	-0.084	-0.040
-161.779	7.760	0.094	-0.070
-160.764	800.000	0.049	-0.157
-159.750	800.000	0.152	0.580
-158.735	-200.000	0.039	-0.173
-157.720	800.000	-0.013	-0.044
-156.706	164.180	-0.212	0.296
-155.691	170.620	0.131	0.185
-154.677	92.884	0.166	0.185
-153.662	-94.602	-0.123	-0.033
-152.647	137.158	0.060	0.077
-151.633	-3.079	-0.124	0.086
-150.618	45.237	-0.153	0.140
-149.604	-139.733	0.175	-0.018
-148.589	-69.049	-0.226	0.086
-147.574	-56.797	-0.282	0.123
-146.560	-200.000	0.091	0.399
-145.545	128.687	-0.203	0.255
-144.531	-93.254	-0.250	-0.069
-143.516	409.471	-0.070	-0.147
-142.502	-200.000	0.019	0.185
-141.487	-200.000	0.015	-0.208
-140.472	800.000	-0.059	-0.219
-139.458	-200.000	-0.014	0.072
-138.443	-148.660	0.241	-0.019
-137.429	-200.000	0.027	-0.225
-136.414	-161.097	-0.153	0.008
-135.399	-34.343	-0.068	-0.037
-134.385	-30.784	0.181	0.101
-133.370	-147.207	-0.064	-0.005
-132.356	-200.000	0.008	-0.095
-131.341	500.415	-0.124	-0.282
-130.326	42.443	-0.087	0.078
-129.312	27.387	0.014	-0.012
-128.297	-127.566	-0.118	-0.017
-127.283	-150.884	0.081	-0.006
-126.268	-57.351	-0.262	-0.114
-125.253	519.152	-0.105	0.242
-124.239	-66.407	-0.209	-0.082
-123.224	-9.163	-0.102	0.068
-122.210	54.784	-0.093	0.088
