DTS Sentinel unit serial number:	SN413079Multiplexer serial number:	ORYXHardware model number:	OX4-SRSoftware version number:	ORYX F/W v4.00 Oryx Data Collector v3.7.2.0data status	okinstallation	princeton_trtdifferential loss correction	single-endedforward channel	channel 4reverse channel	N/Adate	2019/09/14time	20:01:34forward acquisition time	60.00reverse acquisition time	0.00gamma	496.2192k internal	0.2304k external	0.2304temperature offset calibration	1.0097default loss term (dB/km)	0.3790temperature slope calibration	1.0000multiplexer offset coefficient	1.0000multiplexer slope coefficient	1.0000fibre end	0.00T internal ref (°C)	34.03T ext. ref 1 (°C)	4.89T ext. ref 2 (°C)	28.33length (m)	temperature (°C)	Stokes	anti-Stokes-747.200	-50.849	-0.227	-0.109
-746.185	-107.031	0.108	0.024
-745.171	175.760	0.176	-0.261
-744.156	-172.660	0.165	-0.005
-743.142	-200.000	-0.018	-0.113
-742.127	-105.221	-0.154	0.036
-741.112	73.563	-0.036	-0.039
-740.098	129.680	0.137	0.178
-739.083	-89.401	0.205	-0.061
-738.069	-97.733	-0.463	-0.122
-737.054	-200.000	-0.035	0.451
-736.039	-200.000	-0.085	-0.521
-735.025	-200.000	-0.025	-0.135
-734.010	-136.745	-0.242	0.028
-732.996	-200.000	-0.033	-0.196
-731.981	-200.000	0.021	0.268
-730.966	-78.083	-0.211	0.074
-729.952	-110.550	0.204	0.043
-728.937	-1.553	0.142	-0.102
-727.923	-57.543	-0.350	-0.156
-726.908	30.650	0.260	0.227
-725.894	67.571	-0.253	0.262
-724.879	-133.292	0.322	-0.041
-723.864	-20.054	-0.232	-0.145
-722.850	-63.364	-0.183	-0.077
-721.835	-101.597	-0.218	-0.054
-720.821	164.637	0.084	-0.120
-719.806	228.896	0.054	-0.089
-718.791	-175.210	0.235	-0.007
-717.777	299.618	0.074	0.140
-716.762	-55.102	0.113	-0.052
-715.748	-200.000	-0.028	-0.162
-714.733	-163.935	-0.227	-0.011
-713.718	271.226	-0.232	-0.415
-712.704	246.661	-0.181	-0.311
-711.689	231.024	-0.015	-0.026
-710.675	65.845	-0.145	-0.150
-709.660	22.063	-0.050	-0.041
-708.645	174.424	-0.126	0.185
-707.631	800.000	-0.031	0.112
-706.616	9.638	-0.319	-0.246
-705.602	16.478	-0.320	0.257
-704.587	-200.000	0.005	0.280
-703.572	184.530	0.181	-0.272
-702.558	-200.000	-0.014	0.103
-701.543	75.661	0.251	0.270
-700.529	-200.000	0.029	-0.161
-699.514	139.524	-0.167	0.224
-698.499	-155.649	-0.203	0.013
-697.485	0.460	-0.196	0.142
-696.470	-92.536	0.404	-0.115
-695.456	-82.086	0.069	0.023
-694.441	-200.000	0.020	0.124
-693.426	-200.000	0.046	-0.315
-692.412	180.739	0.144	-0.215
-691.397	259.845	0.085	0.149
-690.383	237.102	0.083	-0.139
-689.368	-169.368	-0.368	-0.014
-688.354	-200.000	0.014	-0.278
-687.339	800.000	-0.043	-0.156
-686.324	36.773	-0.106	0.095
-685.310	800.000	0.034	0.145
-684.295	-162.475	0.190	0.010
-683.281	-200.000	0.002	-0.370
-682.266	-156.505	0.187	-0.012
-681.251	-101.932	-0.167	-0.041
-680.237	800.000	-0.050	0.157
-679.222	-94.303	-0.187	-0.052
-678.208	800.000	-0.069	0.291
-677.193	-5.670	0.090	0.062
-676.178	-24.793	0.066	-0.040
-675.164	180.046	0.054	0.080
-674.149	10.994	-0.217	0.168
-673.135	65.516	0.156	-0.161
-672.120	-200.000	-0.165	0.001
-671.105	-16.025	0.269	-0.174
-670.091	445.070	-0.079	-0.177
-669.076	129.042	-0.166	0.215
-668.062	4.263	0.059	0.044
-667.047	7.846	-0.091	0.069
-666.032	45.078	-0.057	0.054
-665.018	800.000	-0.072	-0.205
-664.003	-200.000	0.071	-0.359
-662.989	-37.145	0.390	-0.212
-661.974	-200.000	-0.057	-0.300
-660.959	-30.112	0.209	0.120
-659.945	15.235	-0.018	-0.014
-658.930	-115.574	-0.237	0.045
-657.916	2.832	-0.259	0.191
-656.901	-90.062	0.299	0.088
-655.886	251.710	-0.132	-0.227
-654.872	363.065	0.183	-0.373
-653.857	134.504	-0.200	-0.264
-652.843	-26.648	0.261	0.155
-651.828	196.641	0.207	0.320
-650.814	-62.947	0.239	-0.100
-649.799	158.069	-0.102	-0.144
-648.784	-57.687	0.215	-0.096
-647.770	-193.178	-0.155	0.001
-646.755	187.669	-0.154	-0.233
-645.741	-19.504	-0.196	-0.123
-644.726	63.712	-0.219	0.223
-643.711	-72.033	0.120	0.045
-642.697	800.000	0.046	-0.197
-641.682	-6.251	0.183	0.127
-640.668	-200.000	0.002	0.502
-639.653	7.878	-0.041	-0.031
-638.638	55.923	0.090	0.088
-637.624	38.234	0.095	0.086
-636.609	-200.000	0.011	-0.346
-635.595	-153.321	-0.336	0.024
-634.580	-92.159	-0.142	-0.041
-633.565	800.000	-0.045	-0.193
-632.551	54.649	-0.115	0.112
-631.536	-128.667	0.110	-0.016
-630.522	-200.000	0.022	-0.440
-629.507	-200.000	-0.234	0.001
-628.492	800.000	-0.064	-0.197
-627.478	-110.501	-0.179	0.038
-626.463	-171.639	-0.335	-0.011
-625.449	130.394	0.066	-0.085
-624.434	-147.722	-0.243	0.021
-623.419	800.000	0.035	0.100
-622.405	-114.829	-0.111	0.021
-621.390	800.000	0.101	0.342
-620.376	200.323	0.053	-0.082
-619.361	800.000	-0.058	-0.169
-618.346	44.394	0.160	0.149
-617.332	66.752	0.058	-0.059
-616.317	303.831	0.065	0.122
-615.303	77.675	-0.231	-0.250
-614.288	800.000	0.054	-0.237
-613.273	800.000	-0.090	-0.369
-612.259	-52.208	-0.269	0.126
-611.244	-19.340	-0.209	0.132
-610.230	-7.000	-0.354	0.243
-609.215	-4.484	0.102	-0.072
-608.201	-59.612	-0.229	-0.099
-607.186	52.564	-0.139	-0.135
-606.171	224.912	-0.192	-0.314
-605.157	800.000	-0.064	0.183
-604.142	-15.024	0.024	0.016
-603.128	-185.190	0.116	0.002
-602.113	268.585	0.038	0.068
-601.098	-200.000	0.034	-0.167
-600.084	30.518	-0.217	0.188
-599.069	674.044	0.019	0.050
-598.055	-38.582	-0.029	-0.016
-597.040	99.734	0.120	0.141
-596.025	-159.814	0.234	-0.013
-595.011	-200.000	0.019	-0.267
-593.996	-89.327	0.191	0.057
-592.982	449.812	0.099	-0.221
-591.967	-200.000	-0.003	-0.045
-590.952	506.483	-0.063	0.148
-589.938	800.000	0.061	0.179
-588.923	-76.686	-0.257	-0.091
-587.909	-12.503	0.220	-0.146
-586.894	135.635	-0.023	0.031
-585.879	-200.000	0.009	-0.111
-584.865	-200.000	-0.003	-0.056
-583.850	-31.392	-0.203	0.116
-582.836	65.832	-0.243	0.249
-581.821	192.360	-0.139	-0.213
-580.806	-200.000	-0.019	-0.130
-579.792	-130.129	-0.213	-0.029
-578.777	-121.119	0.058	0.010
-577.763	-200.000	-0.056	-0.332
-576.748	-200.000	-0.006	0.104
-575.733	11.220	-0.278	-0.215
-574.719	-98.533	-0.411	0.106
-573.704	463.986	-0.074	0.167
-572.690	-31.588	0.119	0.067
-571.675	178.001	-0.113	-0.167
-570.661	-66.366	-0.125	0.050
-569.646	-200.000	-0.031	-0.186
-568.631	-163.526	-0.366	0.018
-567.617	-93.856	-0.471	0.131
-566.602	-200.000	-0.017	-0.157
-565.588	-1.117	0.112	-0.080
-564.573	-76.721	-0.228	-0.081
-563.558	-70.727	-0.094	-0.036
-562.544	697.131	0.030	0.081
-561.529	-200.000	0.012	-0.053
-560.515	-13.864	0.164	0.107
-559.500	242.781	0.095	-0.161
-558.485	699.443	0.127	0.337
-557.471	-76.417	-0.032	0.011
-556.456	-200.000	-0.058	-0.368
-555.442	-133.714	-0.268	0.034
-554.427	-38.727	-0.158	-0.084
-553.412	17.384	0.144	0.116
-552.398	-36.025	-0.041	0.022
-551.383	-167.407	0.177	0.007
-550.369	800.000	-0.021	-0.065
-549.354	156.694	-0.003	-0.005
-548.339	33.609	-0.159	-0.140
-547.325	-200.000	0.009	0.219
-546.310	-93.224	-0.379	-0.107
-545.296	-75.448	0.192	-0.069
-544.281	800.000	-0.038	0.147
-543.266	15.813	0.240	-0.190
-542.252	-200.000	0.045	-0.223
-541.237	-200.000	0.072	0.410
-540.223	324.894	-0.120	0.232
-539.208	455.844	-0.184	-0.412
-538.193	44.880	-0.094	-0.088
-537.179	360.660	-0.067	-0.136
-536.164	171.243	-0.151	0.219
-535.150	-62.655	-0.108	-0.045
-534.135	-47.229	0.315	0.155
-533.121	-55.114	0.325	-0.148
-532.106	-79.471	-0.140	0.048
-531.091	800.000	-0.030	-0.098
-530.077	-200.000	-0.035	0.534
-529.062	86.870	0.237	-0.264
-528.048	-186.505	-0.055	0.001
-527.033	800.000	-0.030	-0.116
-526.018	-101.939	0.258	-0.063
-525.004	62.291	-0.194	-0.196
-523.989	-157.998	-0.086	-0.005
-522.975	-129.896	-0.101	-0.014
-521.960	-136.035	-0.267	0.032
-520.945	-55.114	-0.135	-0.061
-519.931	-104.380	-0.071	0.017
-518.916	-200.000	0.002	-0.014
-517.902	259.873	0.173	-0.302
-516.887	354.960	0.153	-0.308
-515.872	-200.000	0.011	0.210
-514.858	208.805	0.165	-0.261
-513.843	764.945	-0.070	-0.191
-512.829	800.000	-0.027	-0.093
-511.814	156.381	0.201	-0.280
-510.799	-142.638	0.193	0.019
-509.785	56.884	0.045	0.044
-508.770	445.228	0.193	0.428
-507.756	195.607	-0.225	-0.345
-506.741	-11.737	-0.106	-0.070
-505.726	-45.675	-0.288	-0.144
-504.712	-200.000	-0.012	-0.082
-503.697	66.877	-0.083	-0.085
-502.683	-122.390	-0.193	-0.032
-501.668	-114.923	-0.214	0.041
-500.653	-2.927	0.220	-0.155
-499.639	-70.606	0.255	0.097
-498.624	398.065	-0.098	-0.206
-497.610	-125.874	0.101	-0.015
-496.595	640.895	-0.148	0.379
-495.581	-115.275	-0.067	-0.013
-494.566	328.504	-0.084	0.163
-493.551	800.000	-0.063	-0.241
-492.537	800.000	0.075	0.234
-491.522	11.572	0.187	-0.144
-490.508	-59.360	-0.155	0.067
-489.493	-26.745	-0.232	0.137
-488.478	800.000	-0.030	-0.098
-487.464	257.547	0.169	0.293
-486.449	121.991	-0.226	-0.285
-485.435	-200.000	0.036	0.169
-484.420	-85.708	0.150	0.047
-483.405	-102.629	0.385	0.093
-482.391	-41.209	0.158	0.082
-481.376	-200.000	-0.292	0.001
-480.362	-200.000	-0.007	0.347
-479.347	-143.071	-0.199	0.019
-478.332	-200.000	-0.016	-0.136
-477.318	27.856	-0.159	0.135
-476.303	-76.607	-0.182	0.064
-475.289	800.000	-0.047	-0.191
-474.274	-170.879	0.173	0.006
-473.259	-143.971	0.114	-0.011
-472.245	-120.039	-0.234	-0.040
-471.230	-52.869	-0.072	-0.034
-470.216	-136.223	-0.090	-0.011
-469.201	-57.686	-0.194	0.085
-468.186	42.846	-0.064	0.059
-467.172	-98.649	-0.033	-0.008
-466.157	-103.481	0.362	0.086
-465.143	-200.000	-0.009	-0.053
-464.128	-156.205	-0.122	0.008
-463.113	-166.128	-0.126	0.005
-462.099	134.279	0.158	0.206
-461.084	-17.143	0.306	-0.194
-460.070	61.446	0.116	0.116
-459.055	87.420	-0.196	-0.219
-458.040	60.493	-0.067	0.067
-457.026	24.776	-0.110	-0.092
-456.011	86.645	0.216	-0.240
-454.997	-76.846	-0.340	0.120
-453.982	-97.384	0.242	0.063
-452.968	-133.234	0.100	-0.013
-451.953	87.188	-0.067	0.074
-450.938	-84.574	0.082	0.026
-449.924	243.314	0.111	0.187
-448.909	693.565	-0.030	-0.080
-447.895	351.525	0.169	0.337
-446.880	-12.899	0.177	-0.116
-445.865	333.473	-0.115	-0.223
-444.851	-16.799	0.080	0.051
-443.836	85.134	0.177	0.196
-442.822	-85.253	-0.058	0.018
-441.807	-200.000	-0.073	0.388
-440.792	-65.788	-0.250	-0.101
-439.778	215.389	-0.027	-0.043
-438.763	-94.668	0.063	-0.017
-437.749	-124.332	0.137	-0.022
-436.734	-80.950	-0.271	-0.090
-435.719	63.844	0.163	0.164
-434.705	-174.550	0.333	-0.010
-433.690	576.655	0.083	-0.205
-432.676	-200.000	0.009	0.245
-431.661	9.847	-0.097	-0.074
-430.646	-200.000	-0.031	-0.231
-429.632	800.000	0.060	-0.171
-428.617	-70.526	-0.166	0.063
-427.603	137.714	0.070	0.092
-426.588	390.045	0.046	0.095
-425.573	-59.005	-0.095	0.041
-424.559	-200.000	0.051	0.262
-423.544	800.000	0.147	0.454
-422.530	40.434	0.202	0.183
-421.515	800.000	-0.056	0.236
-420.500	194.263	-0.145	0.221
-419.486	-76.579	-0.079	0.028
-418.471	2.434	0.218	0.159
-417.457	800.000	-0.055	0.197
-416.442	-76.588	0.338	-0.119
-415.428	15.698	-0.092	0.073
-414.413	-110.505	0.175	-0.037
-413.398	92.761	-0.052	-0.059
-412.384	-187.972	0.315	-0.004
-411.369	92.374	0.259	0.293
-410.355	-5.501	-0.101	-0.070
-409.340	256.598	0.081	0.139
-408.325	281.076	0.181	-0.325
-407.311	-107.469	0.237	-0.052
-406.296	-20.779	-0.308	0.190
-405.282	103.053	0.182	-0.214
-404.267	-200.000	0.040	0.195
-403.252	-89.557	-0.230	-0.068
-402.238	-35.969	0.128	-0.069
-401.223	269.658	0.167	-0.295
-400.209	-82.536	-0.201	0.065
-399.194	239.694	-0.279	0.467
-398.179	800.000	-0.099	0.407
-397.165	-16.577	0.238	-0.152
-396.150	579.696	0.077	0.190
-395.136	-89.513	0.096	0.028
-394.121	800.000	0.069	-0.196
-393.106	-133.434	0.326	-0.041
-392.092	-5.649	-0.089	0.061
-391.077	525.079	-0.037	0.087
-390.063	-91.716	0.308	0.088
-389.048	800.000	0.060	0.177
-388.033	305.483	-0.076	-0.141
-387.019	-144.884	-0.161	-0.015
-386.004	-188.154	-0.273	-0.004
-384.990	-85.084	-0.205	0.065
-383.975	-23.741	-0.356	-0.214
-382.960	-136.502	0.383	-0.045
-381.946	-75.733	0.234	-0.083
-380.931	-69.582	0.029	-0.011
-379.917	737.230	-0.084	-0.227
-378.902	-200.000	0.033	0.174
-377.888	471.039	-0.090	-0.202
-376.873	-49.496	-0.072	0.034
-375.858	-76.145	-0.282	-0.100
-374.844	105.403	0.187	-0.222
-373.829	11.154	0.310	0.238
-372.815	-32.572	0.259	-0.145
-371.800	-124.574	-0.157	-0.024
-370.785	-200.000	0.100	0.449
-369.771	-163.532	0.124	-0.006
-368.756	-54.184	0.155	-0.071
-367.742	-108.358	0.272	-0.059
-366.727	-66.524	0.233	-0.093
-365.712	-109.043	0.420	0.090
-364.698	-90.868	0.206	-0.060
-363.683	-127.584	0.024	-0.004
-362.669	62.756	0.062	-0.062
-361.654	282.480	-0.036	-0.065
-360.639	8.238	-0.197	-0.148
-359.625	-114.121	0.195	-0.038
-358.610	100.603	0.281	0.328
-357.596	58.062	0.083	-0.082
-356.581	26.711	-0.180	-0.152
-355.566	-11.894	-0.164	-0.108
-354.552	-200.000	-0.007	-0.294
-353.537	-200.000	0.061	0.276
-352.523	40.862	0.169	-0.153
-351.508	800.000	-0.078	-0.257
-350.493	45.323	0.440	0.407
-349.479	-81.687	0.153	0.050
-348.464	-127.294	0.179	0.026
-347.450	800.000	-0.076	0.241
-346.435	-29.540	0.295	-0.169
-345.420	57.807	0.176	-0.173
-344.406	-42.128	-0.325	-0.167
-343.391	-43.513	0.241	-0.122
-342.377	800.000	-0.073	-0.257
-341.362	-115.517	-0.305	0.058
-340.348	-200.000	-0.034	-0.318
-339.333	96.611	0.253	-0.291
-338.318	-85.063	0.176	0.055
-337.304	321.119	0.087	-0.165
-336.289	400.091	-0.059	-0.124
-335.275	686.694	0.089	0.233
-334.260	140.234	-0.201	-0.266
-333.245	85.737	-0.055	0.061
-332.231	-84.413	0.158	0.050
-331.216	-200.000	0.002	-0.096
-330.202	101.352	-0.030	0.035
-329.187	232.081	0.242	0.398
-328.172	-25.234	-0.298	0.177
-327.158	570.970	0.041	-0.101
-326.143	-123.637	0.150	0.024
-325.129	800.000	0.033	0.125
-324.114	-177.158	0.115	0.003
-323.099	38.043	-0.065	0.058
-322.085	-93.597	0.234	0.065
-321.070	265.753	-0.064	-0.112
-320.056	24.889	0.186	0.154
-319.041	420.915	0.075	0.161
-318.026	66.235	-0.141	-0.143
-317.012	451.816	0.097	-0.215
-315.997	67.120	-0.266	-0.272
-314.983	109.098	0.048	0.057
-313.968	-66.743	-0.177	0.070
-312.953	800.000	-0.031	0.094
-311.939	40.419	0.220	-0.198
-310.924	-175.336	0.180	0.005
-309.910	-200.000	-0.029	0.168
-308.895	-152.920	0.102	-0.007
-307.880	526.918	-0.192	-0.453
-306.866	12.968	-0.166	-0.128
-305.851	-200.000	-0.067	-0.309
-304.837	-200.000	-0.005	0.236
-303.822	-57.088	0.070	-0.031
-302.807	-200.000	0.023	0.333
-301.793	5.931	0.169	0.125
-300.778	357.097	-0.016	0.032
-299.764	-125.104	0.189	-0.029
-298.749	-50.373	-0.189	0.089
-297.735	20.454	0.135	0.109
-296.720	800.000	0.081	-0.290
-295.705	-200.000	-0.044	-0.280
-294.691	-163.968	-0.027	-0.001
-293.676	-176.429	-0.261	-0.007
-292.662	-200.000	-0.039	0.179
-291.647	-32.171	0.174	-0.097
-290.632	-144.463	0.348	-0.032
-289.618	800.000	-0.097	-0.383
-288.603	-27.165	0.278	0.162
-287.589	-200.000	-0.001	0.132
-286.574	65.508	0.058	0.058
-285.559	74.413	0.181	-0.190
-284.545	800.000	-0.076	0.245
-283.530	134.823	0.058	-0.076
-282.516	1.171	-0.198	-0.142
-281.501	800.000	-0.016	-0.052
-280.486	-42.749	0.081	0.041
-279.472	-103.820	-0.266	0.062
-278.457	-118.760	0.352	-0.062
-277.443	9.472	0.123	-0.093
-276.428	-104.423	0.245	-0.057
-275.413	-200.000	-0.021	0.290
-274.399	34.358	0.137	-0.119
-273.384	210.692	-0.262	0.412
-272.370	-22.654	0.166	0.100
-271.355	800.000	0.063	-0.179
-270.340	82.158	-0.034	-0.037
-269.326	-200.000	-0.046	-0.297
-268.311	-128.370	-0.319	-0.045
-267.297	-122.008	-0.243	0.040
-266.282	-89.113	-0.216	0.064
-265.267	-120.312	-0.177	0.030
-264.253	94.695	-0.210	-0.239
-263.238	289.836	-0.152	-0.276
-262.224	68.294	-0.056	0.057
-261.209	-147.938	-0.259	0.022
-260.195	-200.000	0.276	0.000
-259.180	800.000	0.099	0.371
-258.165	-169.419	-0.099	0.004
-257.151	15.468	-0.041	-0.032
-256.136	25.296	0.312	-0.259
-255.122	-99.593	-0.380	-0.095
-254.107	436.670	0.087	-0.188
-253.092	800.000	-0.105	0.301
-252.078	-41.154	0.037	-0.019
-251.063	-200.000	-0.065	0.318
-250.049	-200.000	0.002	0.479
-249.034	-158.419	0.189	-0.011
-248.019	-70.021	-0.020	0.007
-247.005	89.133	-0.081	-0.090
-245.990	368.442	-0.037	-0.075
-244.976	180.331	-0.150	0.220
-243.961	-96.008	0.285	0.076
-242.946	-171.452	0.524	-0.017
-241.932	85.688	0.050	-0.055
-240.917	193.530	0.209	0.316
-239.903	-200.000	0.020	-0.096
-238.888	-69.710	0.301	0.115
-237.873	800.000	0.056	-0.159
-236.859	15.678	-0.074	0.058
-235.844	448.603	0.108	0.238
-234.830	551.826	-0.109	0.261
-233.815	62.450	-0.290	0.289
-232.800	34.901	0.109	0.095
-231.786	-200.000	0.019	-0.159
-230.771	-158.286	-0.030	-0.002
-229.757	-138.721	0.138	0.015
-228.742	-0.643	0.152	-0.108
-227.727	-71.894	-0.137	-0.051
-226.713	-103.468	0.255	0.060
-225.698	-200.000	-0.012	-0.156
-224.684	-200.000	0.039	-0.327
-223.669	343.297	-0.108	-0.212
-222.655	-71.210	0.189	0.071
-221.640	800.000	0.037	-0.155
-220.625	80.037	-0.140	0.151
-219.611	141.609	0.233	-0.308
-218.596	92.705	-0.177	0.200
-217.582	47.616	0.079	-0.073
-216.567	-200.000	-0.050	-0.240
-215.552	-61.853	0.344	-0.144
-214.538	-0.448	-0.106	0.075
-213.523	82.656	0.101	0.109
-212.509	363.147	0.032	0.064
-211.494	-115.481	-0.091	0.017
-210.479	8.637	-0.139	-0.104
-209.465	-200.000	0.022	0.127
-208.450	126.454	0.249	0.314
-207.436	-200.000	0.009	0.244
-206.421	-19.846	-0.233	0.144
-205.406	249.630	-0.096	0.163
-204.392	96.305	0.119	-0.135
-203.377	48.986	-0.217	-0.203
-202.363	-200.000	0.018	0.124
-201.348	-109.728	0.249	0.052
-200.333	-200.000	0.026	-0.207
-199.319	295.385	-0.047	0.086
-198.304	63.754	-0.078	0.078
-197.290	158.593	-0.131	0.181
-196.275	-200.000	-0.000	0.099
-195.260	-26.802	0.408	0.238
-194.246	3.799	-0.052	-0.038
-193.231	-79.472	-0.219	-0.074
-192.217	-200.000	0.001	-0.120
-191.202	-16.591	-0.258	0.163
-190.187	33.847	-0.198	0.172
-189.173	-7.425	-0.144	-0.097
-188.158	-144.149	-0.158	0.015
-187.144	75.918	-0.267	-0.281
-186.129	800.000	-0.082	0.283
-185.114	-24.705	-0.352	-0.208
-184.100	45.880	0.153	0.141
-183.085	-94.825	0.179	0.048
-182.071	-125.289	0.069	-0.010
-181.056	-33.061	0.188	0.104
-180.042	-140.438	-0.138	-0.014
-179.027	-23.824	0.118	-0.071
-178.012	-97.248	-0.266	0.069
-176.998	-200.000	0.021	0.164
-175.983	360.688	-0.160	0.319
-174.969	81.202	0.265	0.285
-173.954	14.860	0.149	0.116
-172.939	-5.845	-0.060	-0.041
-171.925	-200.000	0.001	-0.114
-170.910	-10.205	0.225	-0.149
-169.896	-200.000	0.019	0.206
-168.881	-109.065	-0.070	0.015
-167.866	800.000	-0.047	-0.177
-166.852	-41.221	0.131	-0.067
-165.837	-200.000	0.021	-0.218
-164.823	430.371	-0.119	0.256
-163.808	-200.000	-0.025	-0.193
-162.793	222.859	0.230	0.369
-161.779	102.101	-0.093	0.108
-160.764	-30.876	0.166	-0.093
-159.750	272.203	-0.226	-0.398
-158.735	289.313	0.096	0.173
-157.720	38.614	0.157	0.139
-156.706	-63.719	0.220	-0.090
-155.691	-88.031	-0.124	-0.037
-154.677	-147.019	-0.178	-0.015
-153.662	-161.848	-0.116	-0.006
-152.647	-95.733	-0.212	-0.056
-151.633	-200.000	-0.022	0.399
-150.618	-107.145	-0.082	-0.018
-149.604	800.000	0.027	-0.098
-148.589	-200.000	0.013	-0.397
-147.574	-45.909	-0.293	0.144
-146.560	-140.693	0.246	-0.025
-145.545	-94.390	0.133	0.036
-144.531	117.451	-0.211	0.258
-143.516	-111.039	-0.237	0.048
-142.502	800.000	-0.005	-0.019
-141.487	330.992	0.013	0.025
-140.472	-130.684	-0.356	-0.048
-139.458	-38.527	-0.356	0.187
-138.443	289.649	0.042	0.076
-137.429	-119.132	0.232	0.040
-136.414	-59.525	-0.101	-0.043
-135.399	14.312	0.099	0.077
-134.385	62.061	-0.070	0.069
-133.370	-68.106	0.054	0.021
-132.356	131.649	-0.294	-0.376
-131.341	-36.300	-0.257	-0.138
-130.326	-13.712	0.106	-0.068
-129.312	-108.056	0.413	0.089
-128.297	134.543	-0.134	0.172
-127.283	-45.133	-0.308	-0.152
-126.268	-86.443	-0.017	-0.005
-125.253	-50.531	0.246	-0.115
-124.239	-3.476	-0.111	-0.077
-123.224	776.991	-0.043	-0.116
-122.210	27.240	-0.272	0.227
