DTS Sentinel unit serial number:	SN413079Multiplexer serial number:	ORYXHardware model number:	OX4-SRSoftware version number:	ORYX F/W v4.00 Oryx Data Collector v3.7.2.0data status	okinstallation	princeton_trtdifferential loss correction	single-endedforward channel	channel 4reverse channel	N/Adate	2019/09/17time	16:29:35forward acquisition time	60.00reverse acquisition time	0.00gamma	496.2192k internal	0.2283k external	0.2283temperature offset calibration	0.9982default loss term (dB/km)	0.3790temperature slope calibration	1.0000multiplexer offset coefficient	1.0000multiplexer slope coefficient	1.0000fibre end	0.00T internal ref (°C)	41.53T ext. ref 1 (°C)	0.36T ext. ref 2 (°C)	38.39length (m)	temperature (°C)	Stokes	anti-Stokes-747.200	-200.000	0.012	-0.070
-746.185	4.592	-0.104	-0.078
-745.171	-200.000	-0.006	-0.244
-744.156	-15.975	-0.121	0.079
-743.142	312.452	-0.099	-0.191
-742.127	-25.515	-0.104	0.063
-741.112	358.325	0.083	0.170
-740.098	44.197	0.129	-0.122
-739.083	-176.829	-0.290	0.008
-738.069	800.000	-0.080	0.335
-737.054	434.822	-0.076	0.170
-736.039	91.531	-0.032	0.037
-735.025	-132.184	0.367	0.049
-734.010	-101.386	-0.382	0.096
-732.996	-121.125	0.222	0.038
-731.981	164.678	0.156	0.226
-730.966	138.393	-0.162	0.219
-729.952	800.000	0.036	0.127
-728.937	-72.717	-0.271	-0.103
-727.923	-200.000	0.036	-0.332
-726.908	-30.346	-0.238	0.139
-725.894	-200.000	0.033	-0.200
-724.879	-65.536	-0.102	-0.042
-723.864	-200.000	-0.021	0.120
-722.850	230.052	0.105	-0.177
-721.835	179.383	-0.184	-0.277
-720.821	7.841	0.149	0.114
-719.806	98.526	-0.137	-0.162
-718.791	800.000	0.011	0.049
-717.777	-27.358	0.261	-0.156
-716.762	-123.602	-0.180	0.029
-715.748	-85.845	0.146	0.046
-714.733	50.052	-0.220	0.213
-713.718	-135.249	-0.272	0.033
-712.704	-86.902	-0.232	0.073
-711.689	-104.423	-0.164	-0.039
-710.675	11.495	-0.109	0.086
-709.660	-38.857	0.226	-0.122
-708.645	-200.000	-0.007	-0.356
-707.631	345.866	0.085	-0.171
-706.616	200.754	-0.130	0.205
-705.602	-14.510	-0.317	-0.209
-704.587	485.448	-0.044	-0.102
-703.572	800.000	0.067	0.212
-702.558	155.823	0.116	0.163
-701.543	-29.737	0.297	-0.174
-700.529	529.646	0.220	-0.532
-699.514	332.760	0.193	0.383
-698.499	-200.000	-0.029	0.167
-697.485	15.787	-0.059	0.048
-696.470	204.734	0.043	0.068
-695.456	48.248	-0.147	0.141
-694.441	-112.660	-0.097	-0.020
-693.426	350.143	0.017	0.034
-692.412	800.000	-0.076	-0.259
-691.397	-151.792	-0.117	0.009
-690.383	-77.966	-0.018	0.007
-689.368	-1.064	-0.204	0.148
-688.354	119.609	-0.165	-0.210
-687.339	171.322	0.116	-0.171
-686.324	121.980	0.150	0.192
-685.310	-76.838	-0.237	-0.085
-684.295	207.876	-0.027	0.044
-683.281	800.000	-0.025	0.077
-682.266	432.581	0.131	0.291
-681.251	28.588	-0.237	0.205
-680.237	-35.335	0.325	0.181
-679.222	-200.000	0.012	0.118
-678.208	190.577	-0.060	-0.092
-677.193	-7.122	-0.243	-0.169
-676.178	-200.000	0.066	-0.466
-675.164	-156.092	0.262	-0.017
-674.149	37.846	-0.180	-0.164
-673.135	-200.000	-0.017	0.107
-672.120	104.153	-0.103	0.124
-671.105	-173.669	-0.231	0.007
-670.091	-123.766	-0.124	0.020
-669.076	-200.000	0.074	-0.410
-668.062	290.147	-0.129	-0.241
-667.047	35.407	-0.072	0.065
-666.032	0.430	-0.168	-0.123
-665.018	59.345	0.210	-0.212
-664.003	-10.049	0.256	0.174
-662.989	800.000	0.068	-0.201
-661.974	-7.133	0.119	-0.083
-660.959	-200.000	0.022	-0.170
-659.945	158.855	0.063	0.090
-658.930	164.012	0.060	0.086
-657.916	64.294	-0.159	-0.164
-656.901	262.529	-0.208	0.369
-655.886	-48.284	-0.246	0.122
-654.872	62.285	-0.222	0.227
-653.857	112.933	0.067	-0.084
-652.843	493.249	0.106	-0.250
-651.828	-16.327	0.161	-0.105
-650.814	-14.010	0.049	0.033
-649.799	-25.160	-0.170	-0.103
-648.784	-63.622	-0.254	0.107
-647.770	-100.569	-0.129	-0.033
-646.755	800.000	0.020	0.079
-645.741	-45.768	-0.336	0.170
-644.726	-200.000	-0.018	0.140
-643.711	-10.033	0.261	-0.177
-642.697	18.282	-0.215	-0.176
-641.682	-200.000	-0.023	-0.268
-640.668	131.637	0.090	0.118
-639.653	-166.640	-0.373	-0.016
-638.638	-189.469	-0.108	0.001
-637.624	-92.950	0.169	-0.048
-636.609	4.206	-0.189	-0.141
-635.595	146.567	0.133	0.183
-634.580	-200.000	0.001	0.069
-633.565	-174.074	-0.282	-0.008
-632.551	-200.000	-0.063	0.309
-631.536	-160.171	-0.077	-0.004
-630.522	132.290	0.102	-0.135
-629.507	-61.914	-0.166	-0.071
-628.492	-200.000	-0.006	0.042
-627.478	-110.334	0.555	-0.118
-626.463	-122.927	0.188	-0.031
-625.449	-46.482	-0.357	0.179
-624.434	-200.000	-0.027	-0.152
-623.419	800.000	0.078	-0.286
-622.405	546.995	0.059	-0.143
-621.390	800.000	0.012	-0.041
-620.376	159.728	0.131	0.187
-619.361	103.627	-0.003	0.004
-618.346	-184.006	0.058	0.001
-617.332	-149.427	0.318	0.026
-616.317	70.366	-0.140	-0.148
-615.303	407.180	-0.191	-0.412
-614.288	-200.000	-0.008	-0.176
-613.273	615.645	0.135	-0.345
-612.259	459.177	-0.095	0.216
-611.244	735.700	0.095	0.260
-610.230	-200.000	0.003	-0.134
-609.215	215.391	0.089	-0.144
-608.201	-161.126	0.245	-0.013
-607.186	286.017	0.013	0.024
-606.171	187.608	-0.077	0.117
-605.157	70.626	-0.309	-0.327
-604.142	137.043	-0.173	-0.232
-603.128	539.485	0.025	-0.062
-602.113	81.303	-0.076	-0.084
-601.098	-64.723	0.106	0.044
-600.084	11.274	-0.195	0.153
-599.069	-47.855	-0.278	0.138
-598.055	-200.000	0.002	0.112
-597.040	-88.712	-0.335	0.102
-596.025	-184.209	0.094	0.002
-595.011	-200.000	-0.015	-0.252
-593.996	-131.913	0.171	0.023
-592.982	-168.300	-0.169	0.007
-591.967	246.885	-0.108	-0.186
-590.952	800.000	0.158	-0.458
-589.938	588.783	-0.059	-0.149
-588.923	-95.794	0.449	0.123
-587.909	44.194	-0.102	-0.096
-586.894	400.053	-0.188	0.402
-585.879	351.962	-0.115	-0.233
-584.865	-107.306	-0.121	0.027
-583.850	-200.000	-0.003	-0.076
-582.836	-200.000	-0.068	-0.339
-581.821	800.000	-0.069	-0.214
-580.806	-80.772	0.249	0.084
-579.792	238.262	-0.133	-0.226
-578.777	81.230	-0.094	-0.104
-577.763	-24.799	-0.281	0.171
-576.748	64.836	-0.286	0.294
-575.733	15.924	0.202	0.162
-574.719	-32.431	-0.078	0.044
-573.704	-81.852	-0.241	-0.080
-572.690	-52.205	0.374	0.177
-571.675	-200.000	-0.007	-0.079
-570.661	315.283	0.139	0.267
-569.646	-1.631	0.036	0.026
-568.631	39.206	-0.136	-0.124
-567.617	-200.000	0.020	0.213
-566.602	-6.776	-0.321	0.223
-565.588	800.000	-0.058	-0.211
-564.573	-200.000	-0.053	0.283
-563.558	800.000	-0.032	0.104
-562.544	-200.000	-0.014	-0.277
-561.529	-69.351	0.278	-0.109
-560.515	-86.149	0.161	-0.051
-559.500	149.709	-0.199	-0.275
-558.485	12.419	-0.102	0.080
-557.471	-33.557	0.156	-0.088
-556.456	50.566	0.384	0.370
-555.442	800.000	-0.115	-0.381
-554.427	-40.017	-0.264	0.140
-553.412	800.000	0.027	-0.104
-552.398	-28.979	0.291	-0.171
-551.383	185.882	-0.071	0.108
-550.369	269.398	0.112	0.201
-549.354	30.861	0.109	-0.095
-548.339	-200.000	-0.030	0.279
-547.325	346.653	-0.077	0.155
-546.310	-63.813	0.297	-0.124
-545.296	105.439	-0.222	-0.268
-544.281	-200.000	-0.017	-0.282
-543.266	-200.000	0.015	0.120
-542.252	-60.304	-0.084	0.036
-541.237	-55.936	-0.089	-0.040
-540.223	233.077	-0.119	0.199
-539.208	-200.000	-0.019	0.138
-538.193	157.073	0.171	-0.242
-537.179	-41.946	0.355	-0.185
-536.164	-121.919	-0.327	0.055
-535.150	118.316	0.153	-0.193
-534.135	196.643	-0.057	0.088
-533.121	800.000	0.034	-0.136
-532.106	-200.000	0.026	0.150
-531.091	542.870	0.062	0.151
-530.077	100.676	-0.118	0.140
-529.062	167.879	0.094	-0.136
-528.048	82.730	-0.359	-0.397
-527.033	86.098	0.087	0.097
-526.018	-17.800	0.116	-0.074
-525.004	-200.000	-0.060	-0.361
-523.989	800.000	-0.133	0.379
-522.975	-200.000	-0.015	0.249
-521.960	291.488	-0.081	-0.150
-520.945	-75.870	-0.315	0.114
-519.931	-200.000	0.004	0.279
-518.916	800.000	0.038	0.137
-517.902	-100.494	0.341	0.086
-516.887	50.631	0.285	0.275
-515.872	-104.934	0.213	0.050
-514.858	480.238	0.048	0.111
-513.843	-64.631	-0.191	0.079
-512.829	800.000	-0.032	-0.101
-511.814	-73.416	0.274	0.102
-510.799	800.000	-0.048	-0.140
-509.785	800.000	0.068	-0.213
-508.770	-79.902	0.321	-0.110
-507.756	800.000	0.066	-0.275
-506.741	263.007	-0.089	0.157
-505.726	-25.669	0.122	0.073
-504.712	216.033	0.024	-0.038
-503.697	-93.188	-0.285	0.081
-502.683	-60.562	-0.301	0.130
-501.668	28.261	-0.233	0.200
-500.653	800.000	0.040	0.115
-499.639	0.299	-0.213	-0.155
-498.624	500.242	-0.132	-0.309
-497.610	794.501	-0.036	0.102
-496.595	-82.163	0.173	-0.057
-495.581	-76.105	0.215	-0.077
-494.566	16.672	0.026	0.021
-493.551	-200.000	0.047	0.229
-492.537	124.680	-0.070	0.090
-491.522	340.010	-0.194	0.384
-490.508	46.890	0.268	-0.253
-489.493	378.316	-0.058	-0.121
-488.478	270.360	0.058	0.103
-487.464	-34.948	-0.208	-0.115
-486.449	98.875	-0.158	-0.185
-485.435	-24.118	-0.086	-0.052
-484.420	-34.431	-0.204	0.114
-483.405	40.105	-0.243	0.222
-482.391	-63.913	0.119	-0.049
-481.376	16.529	-0.329	0.265
-480.362	108.197	-0.106	0.128
-479.347	-57.581	0.032	-0.014
-478.332	135.715	0.095	0.126
-477.318	-162.140	-0.186	-0.009
-476.303	317.710	0.135	-0.260
-475.289	-200.000	-0.065	-0.000
-474.274	-48.448	-0.194	0.095
-473.259	-173.802	-0.388	-0.012
-472.245	-66.478	-0.215	0.087
-471.230	-200.000	-0.011	0.139
-470.216	-26.829	0.409	0.243
-469.201	-181.995	0.246	0.005
-468.186	737.850	-0.119	0.326
-467.172	66.615	-0.098	0.102
-466.157	447.140	0.130	0.292
-465.143	-200.000	0.030	0.191
-464.128	-60.481	-0.225	-0.097
-463.113	339.456	0.125	-0.248
-462.099	-19.620	0.041	0.026
-461.084	-127.479	0.140	0.021
-460.070	800.000	-0.026	0.095
-459.055	-145.310	0.326	0.030
-458.040	-125.875	-0.117	0.018
-457.026	-156.862	0.280	0.017
-456.011	-120.256	-0.107	-0.019
-454.997	-125.268	0.121	-0.019
-453.982	230.144	-0.072	-0.120
-452.968	82.534	0.198	-0.218
-451.953	-200.000	0.016	-0.362
-450.938	-200.000	0.069	-0.324
-449.924	136.622	0.157	-0.208
-448.909	36.648	0.232	-0.209
-447.895	24.809	0.333	0.280
-446.880	416.112	0.053	-0.116
-445.865	384.738	-0.128	0.267
-444.851	-200.000	0.028	0.214
-443.836	692.133	0.015	-0.039
-442.822	19.538	0.190	-0.155
-441.807	-113.168	0.070	-0.014
-440.792	800.000	-0.046	-0.152
-439.778	-30.944	-0.042	0.024
-438.763	111.777	-0.063	0.078
-437.749	-56.774	0.115	0.052
-436.734	-144.000	-0.263	0.025
-435.719	-200.000	0.023	-0.357
-434.705	-108.150	0.277	-0.061
-433.690	-149.137	0.007	0.001
-432.676	-152.141	0.235	0.017
-431.661	-87.447	-0.169	0.052
-430.646	-114.104	0.293	-0.058
-429.632	728.826	-0.112	-0.305
-428.617	285.024	0.148	0.271
-427.603	21.015	0.309	0.254
-426.588	51.786	-0.261	-0.252
-425.573	800.000	0.087	-0.328
-424.559	-200.000	0.013	0.326
-423.544	34.417	-0.113	0.100
-422.530	-81.674	-0.244	0.081
-421.515	13.184	-0.072	-0.056
-420.500	-146.161	0.242	-0.022
-419.486	0.865	-0.139	-0.101
-418.471	800.000	-0.048	-0.144
-417.457	-200.000	0.022	-0.141
-416.442	48.168	0.184	-0.175
-415.428	-76.345	-0.297	0.106
-414.413	-14.450	0.379	-0.248
-413.398	-108.037	0.159	0.035
-412.384	58.584	-0.195	0.194
-411.369	-106.828	0.170	-0.038
-410.355	113.160	-0.085	-0.104
-409.340	7.073	-0.235	-0.178
-408.325	-40.008	-0.247	-0.131
-407.311	132.107	0.093	0.121
-406.296	98.751	-0.081	-0.094
-405.282	-144.478	-0.217	0.020
-404.267	-81.256	0.167	0.056
-403.252	39.745	0.153	-0.139
-402.238	-7.424	-0.229	-0.157
-401.223	415.999	0.131	-0.284
-400.209	-200.000	-0.035	0.167
-399.194	165.973	0.339	0.486
-398.179	61.615	-0.176	0.178
-397.165	-200.000	0.003	-0.023
-396.150	-92.341	-0.322	0.092
-395.136	-127.957	0.202	0.029
-394.121	111.012	0.201	0.246
-393.106	123.033	0.107	-0.136
-392.092	-200.000	0.028	-0.289
-391.077	7.453	0.238	0.180
-390.063	182.419	0.057	-0.085
-389.048	-30.928	-0.265	-0.152
-388.033	47.432	-0.209	0.198
-387.019	2.167	-0.246	0.180
-386.004	-80.282	0.104	0.035
-384.990	-179.667	-0.065	0.001
-383.975	661.847	-0.070	-0.182
-382.960	35.401	0.087	-0.077
-381.946	-64.667	0.025	-0.010
-380.931	104.361	-0.182	-0.216
-379.917	-39.510	-0.211	-0.112
-378.902	14.173	0.247	-0.195
-377.888	-20.579	0.147	-0.091
-376.873	-55.225	0.225	0.103
-375.858	-22.823	-0.038	-0.023
-374.844	-103.493	0.207	-0.049
-373.829	800.000	0.026	0.094
-372.815	344.366	-0.109	0.216
-371.800	-39.876	0.089	0.047
-370.785	36.222	-0.253	0.226
-369.771	-45.384	0.147	-0.074
-368.756	800.000	0.078	-0.233
-367.742	-200.000	0.002	-0.414
-366.727	74.371	-0.099	-0.105
-365.712	-200.000	-0.003	0.135
-364.698	-51.283	0.416	-0.197
-363.683	-200.000	-0.078	-0.399
-362.669	-126.844	0.079	-0.012
-361.654	-198.412	0.281	-0.002
-360.639	501.587	0.102	0.239
-359.625	-115.359	0.081	-0.016
-358.610	-70.689	0.256	-0.098
-357.596	-163.731	-0.171	0.008
-356.581	-200.000	0.030	0.439
-355.566	121.441	-0.124	0.156
-354.552	800.000	-0.049	0.173
-353.537	800.000	0.095	0.306
-352.523	-200.000	-0.059	0.331
-351.508	800.000	-0.111	-0.344
-350.493	-200.000	0.092	0.466
-349.479	89.440	-0.084	0.095
-348.464	800.000	-0.070	-0.270
-347.450	-117.326	0.246	0.045
-346.435	167.824	0.122	0.175
-345.420	30.156	0.248	-0.214
-344.406	-107.496	0.297	-0.066
-343.391	47.456	-0.240	0.226
-342.377	83.646	0.239	0.264
-341.362	483.638	0.034	-0.078
-340.348	161.053	0.160	0.226
-339.333	183.720	0.132	0.197
-338.318	-200.000	-0.015	-0.128
-337.304	-85.823	0.185	-0.058
-336.289	-200.000	-0.012	-0.189
-335.275	-57.929	0.301	-0.133
-334.260	-89.802	0.143	-0.042
-333.245	-48.349	0.202	-0.098
-332.231	-200.000	-0.011	-0.312
-331.216	44.794	0.084	0.078
-330.202	-200.000	0.028	-0.203
-329.187	-115.512	0.163	-0.031
-328.172	101.576	-0.115	0.135
-327.158	637.662	0.024	0.062
-326.143	-132.613	-0.288	0.037
-325.129	-71.695	-0.256	0.097
-324.114	-54.607	-0.467	-0.214
-323.099	375.160	-0.121	0.249
-322.085	-71.663	0.124	-0.047
-321.070	122.242	-0.153	-0.193
-320.056	372.071	-0.116	-0.238
-319.041	-186.382	-0.214	0.003
-318.026	-81.565	-0.238	0.079
-317.012	-86.890	0.194	-0.060
-315.997	6.498	0.102	-0.076
-314.983	800.000	-0.016	0.054
-313.968	-161.289	-0.185	-0.010
-312.953	800.000	-0.066	-0.263
-311.939	48.526	0.219	-0.208
-310.924	-200.000	-0.005	-0.360
-309.910	-88.588	-0.348	-0.105
-308.895	95.256	-0.119	0.137
-307.880	26.234	-0.300	-0.253
-306.866	360.604	0.084	0.170
-305.851	-97.565	0.350	0.092
-304.837	150.117	0.061	0.084
-303.822	791.681	0.063	0.176
-302.807	79.627	0.108	0.118
-301.793	-54.939	0.254	0.116
-300.778	-56.451	-0.297	-0.133
-299.764	198.217	0.021	-0.033
-298.749	12.830	0.103	-0.080
-297.735	-200.000	0.025	0.286
-296.720	303.841	-0.024	-0.046
-295.705	-138.315	0.139	0.016
-294.691	-103.594	0.059	-0.014
-293.676	381.632	0.078	-0.162
-292.662	3.951	0.208	0.154
-291.647	-32.785	-0.177	0.100
-290.632	-200.000	0.035	-0.321
-289.618	-118.871	-0.197	-0.035
-288.603	17.533	-0.027	0.021
-287.589	420.696	-0.041	0.089
-286.574	-117.089	-0.036	-0.007
-285.559	-94.210	-0.150	-0.042
-284.545	-200.000	0.002	0.044
-283.530	-108.473	0.277	0.060
-282.516	-68.223	-0.145	0.057
-281.501	-57.783	-0.268	0.118
-280.486	-123.800	0.296	0.047
-279.472	-84.511	-0.063	-0.020
-278.457	-200.000	0.015	0.160
-277.443	-24.821	-0.124	0.075
-276.428	-200.000	-0.020	0.141
-275.413	14.510	-0.187	-0.148
-274.399	-113.979	0.203	-0.040
-273.384	-111.516	0.309	0.063
-272.370	84.096	-0.150	0.166
-271.355	-25.765	0.119	-0.071
-270.340	-200.000	0.009	0.493
-269.326	133.440	0.070	-0.092
-268.311	-98.975	0.512	0.131
-267.297	-16.570	0.113	0.072
-266.282	-104.431	-0.168	-0.039
-265.267	-109.934	0.155	0.033
-264.253	-200.000	0.014	0.373
-263.238	-30.615	0.100	0.057
-262.224	-26.538	0.293	0.173
-261.209	-200.000	-0.073	0.579
-260.195	3.512	-0.302	0.222
-259.180	800.000	0.035	-0.110
-258.165	43.815	0.026	0.024
-257.151	-143.783	-0.199	-0.019
-256.136	800.000	0.084	0.250
-255.122	-93.198	-0.208	0.058
-254.107	320.852	0.083	-0.158
-253.092	-15.666	-0.325	-0.209
-252.078	-200.000	-0.017	-0.205
-251.063	-45.743	-0.302	0.151
-250.049	-102.920	-0.138	-0.033
-249.034	-130.798	0.273	-0.037
-248.019	290.635	-0.146	-0.267
-247.005	-200.000	-0.014	-0.289
-245.990	-4.298	-0.140	-0.098
-244.976	800.000	-0.082	0.251
-243.961	-70.859	0.166	0.063
-242.946	-200.000	-0.001	-0.081
-241.932	-58.792	0.067	0.029
-240.917	192.356	0.111	0.168
-239.903	-200.000	0.026	-0.386
-238.888	-200.000	0.048	0.285
-237.873	150.974	0.080	0.109
-236.859	47.977	-0.079	-0.075
-235.844	-102.538	0.199	0.048
-234.830	165.109	-0.123	0.175
-233.815	133.126	0.092	-0.120
-232.800	-200.000	0.011	0.060
-231.786	182.079	0.120	0.178
-230.771	452.045	-0.188	-0.419
-229.757	-155.458	0.093	-0.006
-228.742	-49.295	-0.054	-0.026
-227.727	-200.000	-0.029	0.252
-226.713	-122.232	0.295	-0.049
-225.698	22.880	-0.303	-0.250
-224.684	-200.000	0.033	0.160
-223.669	-200.000	0.026	0.218
-222.655	197.356	-0.151	-0.232
-221.640	-200.000	-0.002	0.047
-220.625	197.594	-0.075	-0.115
-219.611	188.959	-0.159	0.239
-218.596	-200.000	0.017	0.263
-217.582	-200.000	-0.025	-0.308
-216.567	-154.827	0.393	-0.026
-215.552	211.846	0.198	-0.315
-214.538	-140.115	0.132	-0.014
-213.523	-200.000	-0.024	0.271
-212.509	-200.000	-0.033	-0.261
-211.494	-200.000	-0.048	-0.373
-210.479	-200.000	-0.022	0.116
-209.465	-135.551	-0.152	0.018
-208.450	800.000	0.016	0.068
-207.436	-200.000	0.018	-0.164
-206.421	225.567	-0.102	-0.166
-205.406	360.018	0.066	0.134
-204.392	587.273	0.076	0.188
-203.377	-200.000	0.011	0.159
-202.363	160.495	-0.077	0.108
-201.348	195.400	-0.061	0.093
-200.333	88.332	0.252	-0.282
-199.319	-200.000	0.008	0.425
-198.304	112.088	0.110	-0.134
-197.290	800.000	-0.033	0.121
-196.275	645.782	0.049	-0.126
-195.260	242.541	0.086	-0.145
-194.246	150.108	0.131	-0.179
-193.231	-6.613	0.289	-0.198
-192.217	61.778	-0.203	0.203
-191.202	-49.551	-0.118	0.056
-190.187	208.959	-0.077	-0.121
-189.173	-64.652	0.274	-0.112
-188.158	-145.254	0.185	-0.017
-187.144	-16.399	0.162	-0.103
-186.129	232.381	-0.237	0.391
-185.114	-47.780	-0.287	-0.140
-184.100	-200.000	0.015	0.291
-183.085	130.413	-0.192	0.247
-182.071	-125.380	0.096	0.015
-181.056	495.600	-0.078	-0.181
-180.042	-74.355	-0.099	-0.036
-179.027	190.883	-0.169	-0.256
-178.012	-200.000	0.018	0.251
-176.998	209.803	-0.102	0.160
-175.983	800.000	-0.080	0.244
-174.969	144.877	0.063	-0.084
-173.954	57.891	0.189	-0.185
-172.939	-59.078	0.155	-0.067
-171.925	133.576	-0.215	0.279
-170.910	92.545	0.174	-0.197
-169.896	800.000	0.114	-0.496
-168.881	800.000	-0.002	-0.007
-167.866	273.985	0.051	-0.092
-166.852	-117.975	-0.177	-0.032
-165.837	302.219	-0.085	0.159
-164.823	668.566	-0.082	0.214
-163.808	-200.000	0.031	0.242
-162.793	-67.722	-0.245	0.096
-161.779	-109.298	-0.061	-0.013
-160.764	-85.917	-0.361	-0.112
-159.750	226.269	-0.084	-0.137
-158.735	91.536	0.133	-0.150
-157.720	355.023	0.050	0.100
-156.706	34.292	0.068	0.059
-155.691	800.000	0.077	0.253
-154.677	800.000	0.020	0.080
-153.662	347.456	-0.138	0.272
-152.647	-126.952	-0.230	-0.034
-151.633	72.847	-0.021	0.022
-150.618	-33.509	0.106	0.059
-149.604	587.501	0.034	0.085
-148.589	-164.779	-0.322	0.015
-147.574	-146.816	-0.309	0.027
-146.560	57.502	0.065	0.064
-145.545	157.959	-0.075	0.105
-144.531	-68.215	0.147	0.058
-143.516	-53.681	-0.186	0.085
-142.502	323.914	0.056	0.107
-141.487	-200.000	0.022	-0.136
-140.472	107.045	-0.202	0.241
-139.458	800.000	0.041	-0.136
-138.443	-92.940	0.184	0.052
-137.429	-73.609	-0.264	-0.097
-136.414	-200.000	-0.021	-0.411
-135.399	-43.025	-0.158	-0.080
-134.385	-81.052	-0.294	0.098
-133.370	-96.549	0.268	0.071
-132.356	-200.000	0.052	-0.243
-131.341	225.870	-0.130	-0.212
-130.326	-200.000	0.044	0.239
-129.312	-200.000	0.004	-0.080
-128.297	13.057	0.325	-0.252
-127.283	15.991	0.104	0.082
-126.268	30.783	-0.163	-0.140
-125.253	-200.000	-0.012	-0.175
-124.239	-200.000	0.013	-0.252
-123.224	126.923	-0.267	0.340
-122.210	-83.441	-0.322	0.103
-121.195	-200.000	0.063	0.297
