DTS Sentinel unit serial number:	SN413079Multiplexer serial number:	ORYXHardware model number:	OX4-SRSoftware version number:	ORYX F/W v4.00 Oryx Data Collector v3.7.2.0data status	okinstallation	princeton_trtdifferential loss correction	single-endedforward channel	channel 4reverse channel	N/Adate	2019/09/17time	19:29:35forward acquisition time	60.00reverse acquisition time	0.00gamma	496.2192k internal	0.2305k external	0.2305temperature offset calibration	0.9986default loss term (dB/km)	0.3790temperature slope calibration	1.0000multiplexer offset coefficient	1.0000multiplexer slope coefficient	1.0000fibre end	0.00T internal ref (°C)	36.78T ext. ref 1 (°C)	0.26T ext. ref 2 (°C)	25.17length (m)	temperature (°C)	Stokes	anti-Stokes-747.200	-200.000	0.012	-0.167
-746.185	-115.649	0.106	0.020
-745.171	-200.000	0.004	0.137
-744.156	302.652	0.129	0.244
-743.142	42.440	-0.243	0.225
-742.127	656.590	0.155	0.404
-741.112	96.048	-0.117	-0.135
-740.098	-17.190	-0.164	0.105
-739.083	800.000	0.043	0.168
-738.069	-200.000	0.011	-0.086
-737.054	146.766	0.110	-0.151
-736.039	157.946	-0.142	-0.200
-735.025	42.187	0.228	0.211
-734.010	75.800	-0.133	-0.143
-732.996	-48.156	-0.260	0.127
-731.981	800.000	0.044	-0.137
-730.966	-200.000	0.001	0.075
-729.952	-200.000	-0.042	-0.439
-728.937	6.247	-0.166	0.125
-727.923	-79.916	-0.034	-0.012
-726.908	-51.675	0.235	0.111
-725.894	-157.742	0.160	-0.010
-724.879	-167.356	-0.174	0.007
-723.864	-150.819	0.135	-0.010
-722.850	46.438	-0.201	0.189
-721.835	-200.000	-0.014	-0.091
-720.821	-200.000	0.024	0.155
-719.806	-200.000	0.028	-0.312
-718.791	-73.897	-0.126	-0.047
-717.777	-22.643	-0.225	0.138
-716.762	-185.349	-0.265	-0.004
-715.748	-4.852	0.077	-0.054
-714.733	-80.510	0.281	-0.095
-713.718	-200.000	-0.021	-0.192
-712.704	95.710	-0.140	-0.162
-711.689	247.246	0.055	-0.095
-710.675	-103.153	0.238	-0.057
-709.660	800.000	-0.092	-0.279
-708.645	222.062	0.037	-0.060
-707.631	10.791	0.198	-0.154
-706.616	-138.443	-0.154	-0.017
-705.602	91.653	-0.084	0.096
-704.587	79.269	0.327	-0.356
-703.572	-38.033	-0.086	-0.046
-702.558	-159.209	-0.192	-0.011
-701.543	303.769	0.092	-0.173
-700.529	-200.000	0.015	0.066
-699.514	-29.605	-0.303	0.176
-698.499	266.035	0.094	-0.166
-697.485	800.000	-0.057	-0.177
-696.470	25.606	0.231	-0.196
-695.456	-58.411	0.026	-0.012
-694.441	-165.999	0.232	-0.010
-693.426	10.089	0.270	-0.208
-692.412	-157.637	-0.335	-0.020
-691.397	-24.105	0.081	-0.049
-690.383	106.020	-0.220	-0.264
-689.368	361.469	0.074	-0.150
-688.354	177.404	0.211	-0.312
-687.339	800.000	0.041	-0.133
-686.324	-37.516	-0.198	0.107
-685.310	-72.443	0.199	0.075
-684.295	-115.894	0.110	0.021
-683.281	123.943	-0.169	-0.216
-682.266	-200.000	-0.021	-0.336
-681.251	-32.845	0.161	0.091
-680.237	-68.012	-0.018	0.007
-679.222	-97.629	-0.475	-0.125
-678.208	-70.143	-0.298	0.115
-677.193	48.801	-0.269	-0.256
-676.178	91.663	0.189	0.216
-675.164	-200.000	-0.014	-0.184
-674.149	163.428	0.090	0.128
-673.135	449.116	-0.082	0.183
-672.120	-79.625	-0.243	0.083
-671.105	800.000	-0.074	-0.217
-670.091	-48.042	-0.228	-0.112
-669.076	51.761	-0.097	-0.094
-668.062	-57.222	0.121	-0.054
-667.047	199.107	-0.108	-0.168
-666.032	-76.025	-0.133	0.048
-665.018	290.706	-0.138	-0.255
-664.003	-160.332	-0.347	0.019
-662.989	669.907	-0.082	0.214
-661.974	-200.000	-0.016	-0.075
-660.959	800.000	0.119	0.369
-659.945	517.056	0.081	-0.192
-658.930	134.322	0.144	-0.189
-657.916	800.000	-0.108	0.365
-656.901	-200.000	0.006	-0.175
-655.886	800.000	0.055	-0.228
-654.872	377.753	0.055	0.115
-653.857	-200.000	-0.070	0.000
-652.843	58.555	-0.133	0.133
-651.828	-200.000	0.010	-0.353
-650.814	234.044	0.133	-0.222
-649.799	-200.000	-0.023	-0.282
-648.784	269.973	-0.197	0.351
-647.770	422.490	0.165	0.359
-646.755	262.335	0.077	0.136
-645.741	-17.941	-0.084	0.053
-644.726	-200.000	0.066	-0.321
-643.711	800.000	-0.060	0.211
-642.697	36.231	-0.151	-0.135
-641.682	-93.774	0.341	-0.095
-640.668	-102.107	-0.249	0.061
-639.653	210.227	0.046	0.074
-638.638	-71.102	0.053	-0.020
-637.624	127.395	0.143	-0.184
-636.609	-200.000	0.016	-0.098
-635.595	800.000	0.055	-0.242
-634.580	-117.985	-0.235	0.043
-633.565	800.000	0.055	0.200
-632.551	476.445	0.050	0.115
-631.536	332.846	-0.168	-0.329
-630.522	119.155	-0.170	-0.213
-629.507	-70.160	0.093	-0.036
-628.492	-136.843	0.284	-0.033
-627.478	56.394	0.078	0.077
-626.463	-102.936	-0.269	0.065
-625.449	-5.263	0.175	0.122
-624.434	-89.149	0.169	0.051
-623.419	214.858	0.059	-0.095
-622.405	194.690	0.129	-0.199
-621.390	-127.942	0.339	0.049
-620.376	-4.702	0.119	-0.083
-619.361	-16.035	0.198	-0.128
-618.346	105.501	0.074	0.088
-617.332	-194.637	0.113	0.001
-616.317	-43.100	-0.088	0.045
-615.303	800.000	-0.054	0.182
-614.288	179.155	0.303	0.449
-613.273	163.378	-0.071	0.102
-612.259	-147.728	-0.253	0.021
-611.244	234.461	-0.154	0.258
-610.230	-200.000	-0.007	0.194
-609.215	179.972	-0.128	-0.190
-608.201	-58.123	0.229	0.101
-607.186	-93.852	-0.097	-0.027
-606.171	-200.000	0.042	-0.406
-605.157	-78.557	-0.138	0.048
-604.142	477.417	-0.043	-0.099
-603.128	-52.697	0.164	0.076
-602.113	114.706	-0.028	-0.035
-601.098	-200.000	-0.013	-0.112
-600.084	-70.782	-0.114	-0.043
-599.069	800.000	0.115	-0.384
-598.055	-100.899	0.144	0.036
-597.040	-200.000	-0.008	-0.286
-596.025	-200.000	0.010	-0.246
-595.011	-176.497	0.368	-0.010
-593.996	9.252	0.309	-0.236
-592.982	146.776	0.076	0.104
-591.967	-200.000	-0.016	-0.124
-590.952	178.042	0.212	0.313
-589.938	-80.800	-0.255	0.086
-588.923	800.000	0.041	-0.159
-587.909	551.537	-0.062	-0.150
-586.894	-200.000	-0.047	-0.286
-585.879	120.039	-0.089	0.112
-584.865	-200.000	0.015	0.076
-583.850	-200.000	-0.021	0.098
-582.836	31.672	0.176	0.153
-581.821	-200.000	-0.001	0.166
-580.806	-62.100	0.107	-0.045
-579.792	140.570	-0.419	0.560
-578.777	159.164	-0.050	-0.070
-577.763	-114.286	-0.286	-0.056
-576.748	-79.162	-0.192	0.066
-575.733	27.034	0.113	0.096
-574.719	-200.000	0.030	-0.161
-573.704	-57.458	-0.069	-0.031
-572.690	-200.000	-0.056	-0.545
-571.675	-69.053	0.293	0.114
-570.661	-161.525	-0.228	0.012
-569.646	232.740	-0.041	0.067
-568.631	79.129	0.043	0.047
-567.617	265.733	0.082	0.145
-566.602	16.011	0.413	0.329
-565.588	414.343	0.175	-0.376
-564.573	800.000	0.103	-0.312
-563.558	281.656	-0.061	-0.111
-562.544	66.225	-0.160	0.164
-561.529	113.687	0.167	0.205
-560.515	800.000	0.111	-0.310
-559.500	800.000	-0.161	-0.462
-558.485	-12.262	0.345	0.228
-557.471	800.000	0.052	-0.173
-556.456	-200.000	0.085	-0.401
-555.442	-200.000	-0.003	-0.131
-554.427	309.475	0.070	-0.131
-553.412	552.432	0.037	-0.089
-552.398	798.993	0.038	0.105
-551.383	-90.573	-0.111	-0.032
-550.369	-42.964	0.018	0.009
-549.354	50.108	-0.194	0.185
-548.339	70.092	-0.052	-0.054
-547.325	-137.823	-0.614	-0.069
-546.310	796.564	0.021	0.059
-545.296	78.321	0.081	0.087
-544.281	-200.000	0.029	-0.180
-543.266	-97.345	-0.088	-0.023
-542.252	-77.204	0.281	-0.099
-541.237	8.161	-0.226	0.171
-540.223	800.000	0.064	0.225
-539.208	693.454	0.015	0.041
-538.193	-36.851	0.044	-0.024
-537.179	800.000	-0.094	0.351
-536.164	-70.235	-0.269	-0.103
-535.150	267.049	0.061	0.108
-534.135	511.099	-0.203	-0.477
-533.121	184.437	0.017	-0.026
-532.106	81.253	0.221	0.241
-531.091	800.000	-0.046	0.133
-530.077	-70.187	-0.150	-0.058
-529.062	-99.898	-0.202	-0.051
-528.048	-59.184	-0.196	0.085
-527.033	90.600	0.211	0.239
-526.018	71.825	0.163	0.171
-525.004	-200.000	0.090	-0.564
-523.989	-144.203	-0.296	-0.028
-522.975	102.771	-0.102	0.120
-521.960	69.327	0.334	0.347
-520.945	641.413	-0.049	0.127
-519.931	32.698	-0.137	-0.120
-518.916	77.616	-0.099	-0.106
-517.902	297.746	0.139	0.259
-516.887	-36.289	0.240	0.131
-515.872	159.246	-0.137	-0.192
-514.858	-89.583	-0.122	-0.036
-513.843	-200.000	0.063	-0.293
-512.829	74.463	-0.116	0.123
-511.814	-35.225	-0.043	0.023
-510.799	47.593	-0.189	-0.178
-509.785	-171.493	-0.190	0.006
-508.770	-143.576	-0.106	0.010
-507.756	-107.334	-0.412	0.091
-506.741	25.414	0.347	0.291
-505.726	202.791	0.294	0.458
-504.712	270.394	-0.166	0.294
-503.697	-91.870	-0.253	0.072
-502.683	-73.089	0.117	-0.043
-501.668	-73.453	-0.216	0.080
-500.653	135.505	-0.118	0.155
-499.639	334.506	0.035	-0.067
-498.624	162.619	0.078	0.110
-497.610	-45.852	0.007	-0.003
-496.595	-171.384	0.021	0.001
-495.581	800.000	0.019	0.085
-494.566	-192.290	-0.205	-0.002
-493.551	-200.000	-0.003	-0.021
-492.537	-67.499	-0.272	0.107
-491.522	-73.600	0.189	0.070
-490.508	151.641	0.091	-0.125
-489.493	-14.704	-0.268	-0.174
-488.478	800.000	0.073	0.287
-487.464	-11.250	-0.082	0.054
-486.449	104.828	0.095	-0.113
-485.435	137.873	-0.030	-0.039
-484.420	86.749	0.009	0.010
-483.405	-75.830	-0.066	-0.024
-482.391	18.229	-0.065	-0.053
-481.376	10.781	0.197	0.152
-480.362	25.393	0.221	-0.185
-479.347	-83.096	0.213	-0.069
-478.332	-147.271	0.225	-0.019
-477.318	545.481	-0.080	-0.194
-476.303	800.000	-0.035	-0.153
-475.289	-53.811	-0.196	-0.090
-474.274	281.866	0.123	-0.222
-473.259	-34.765	0.158	0.087
-472.245	-113.930	0.180	0.035
-471.230	-44.159	-0.087	0.044
-470.216	62.060	0.097	0.098
-469.201	70.459	-0.217	-0.226
-468.186	800.000	0.020	-0.087
-467.172	132.036	0.088	0.114
-466.157	-78.161	0.200	0.069
-465.143	-16.992	-0.392	0.249
-464.128	-200.000	-0.004	0.152
-463.113	107.735	-0.203	-0.243
-462.099	-71.789	0.182	0.068
-461.084	31.757	-0.126	-0.110
-460.070	79.991	0.217	-0.235
-459.055	-200.000	0.038	-0.294
-458.040	-200.000	0.074	-0.363
-457.026	184.618	0.125	-0.187
-456.011	-108.247	0.230	-0.050
-454.997	-200.000	0.008	0.118
-453.982	64.422	-0.176	-0.178
-452.968	594.636	0.133	0.332
-451.953	-96.246	-0.321	-0.086
-450.938	-56.206	-0.113	0.051
-449.924	-63.297	-0.363	-0.150
-448.909	344.569	0.127	0.250
-447.895	81.969	-0.063	-0.069
-446.880	800.000	0.038	0.135
-445.865	-200.000	0.099	-0.619
-444.851	-122.873	-0.364	-0.059
-443.836	-64.619	0.396	0.161
-442.822	671.290	0.033	0.085
-441.807	201.403	0.053	-0.082
-440.792	59.476	-0.375	0.372
-439.778	-200.000	0.149	-0.000
-438.763	-133.794	-0.230	0.029
-437.749	584.781	0.068	-0.167
-436.734	280.286	0.119	0.213
-435.719	196.906	-0.101	0.155
-434.705	-44.927	-0.100	0.050
-433.690	684.681	0.057	0.150
-432.676	-6.492	0.156	-0.107
-431.661	76.264	0.071	-0.076
-430.646	43.715	-0.139	-0.128
-429.632	-155.628	0.138	-0.009
-428.617	-52.302	0.109	-0.051
-427.603	33.046	-0.145	-0.126
-426.588	-200.000	-0.010	-0.151
-425.573	112.605	-0.140	-0.170
-424.559	98.902	0.189	-0.220
-423.544	167.541	0.236	-0.337
-422.530	-93.897	-0.361	0.100
-421.515	-135.083	0.121	0.015
-420.500	-103.017	-0.213	-0.051
-419.486	800.000	0.036	-0.102
-418.471	-94.051	0.404	0.111
-417.457	-65.720	-0.003	0.001
-416.442	-126.467	-0.496	0.074
-415.428	92.454	-0.447	0.506
-414.413	-200.000	0.007	0.142
-413.398	228.833	-0.043	0.070
-412.384	-200.000	0.056	0.389
-411.369	-200.000	-0.040	0.289
-410.355	-16.570	0.186	-0.119
-409.340	-200.000	0.038	0.310
-408.325	333.089	-0.038	-0.073
-407.311	-105.793	-0.258	0.059
-406.296	-200.000	-0.011	-0.108
-405.282	184.481	0.217	-0.323
-404.267	-122.247	0.317	-0.052
-403.252	-99.864	0.191	-0.048
-402.238	-8.169	-0.134	0.091
-401.223	-200.000	0.013	0.182
-400.209	-104.027	0.212	0.050
-399.194	482.032	0.071	0.162
-398.179	-178.971	0.308	0.007
-397.165	123.082	-0.152	-0.191
-396.150	-125.073	-0.317	-0.049
-395.136	-200.000	0.014	-0.103
-394.121	800.000	-0.055	-0.178
-393.106	-163.544	-0.127	0.006
-392.092	800.000	0.032	0.127
-391.077	-154.071	-0.161	-0.011
-390.063	352.895	-0.274	-0.545
-389.048	800.000	-0.070	-0.233
-388.033	-200.000	0.015	0.305
-387.019	-73.863	0.263	0.096
-386.004	-185.744	-0.316	0.005
-384.990	-200.000	0.062	0.409
-383.975	628.534	0.094	-0.238
-382.960	23.667	-0.221	-0.183
-381.946	-200.000	0.058	0.363
-380.931	-114.502	-0.309	-0.059
-379.917	-63.005	-0.103	-0.043
-378.902	-200.000	0.025	0.174
-377.888	-66.307	-0.128	0.051
-376.873	-200.000	-0.036	0.157
-375.858	-200.000	-0.002	0.057
-374.844	163.774	-0.126	0.178
-373.829	-20.009	0.091	0.056
-372.815	32.480	-0.137	0.119
-371.800	-2.018	-0.131	0.092
-370.785	74.351	-0.188	-0.198
-369.771	18.060	0.223	0.179
-368.756	-45.541	0.262	-0.130
-367.742	120.216	0.183	-0.228
-366.727	800.000	-0.086	0.281
-365.712	134.532	-0.278	0.362
-364.698	800.000	0.087	0.370
-363.683	-50.817	0.084	-0.040
-362.669	744.878	0.041	-0.110
-361.654	-19.486	0.119	0.074
-360.639	-200.000	-0.069	0.314
-359.625	206.298	-0.112	0.175
-358.610	-52.028	-0.144	-0.067
-357.596	16.205	-0.190	0.150
-356.581	-144.953	0.306	0.028
-355.566	-81.959	0.307	0.101
-354.552	800.000	0.100	-0.312
-353.537	-200.000	0.009	-0.168
-352.523	-7.510	-0.227	-0.154
-351.508	-67.591	-0.237	-0.093
-350.493	460.300	0.035	-0.078
-349.479	-123.334	0.169	-0.027
-348.464	218.858	-0.062	0.099
-347.450	714.734	0.016	0.044
-346.435	-200.000	0.022	-0.128
-345.420	28.544	0.336	0.285
-344.406	800.000	-0.007	0.024
-343.391	-97.835	0.150	0.039
-342.377	-45.869	0.159	0.079
-341.362	-178.862	0.300	0.007
-340.348	320.342	0.160	-0.304
-339.333	62.821	0.135	0.136
-338.318	-88.008	0.160	0.048
-337.304	292.960	0.095	0.174
-336.289	-51.247	0.425	0.199
-335.275	-106.250	-0.277	-0.062
-334.260	-96.273	-0.162	0.043
-333.245	40.409	0.146	-0.132
-332.231	91.377	0.131	0.148
-331.216	-29.753	0.256	0.146
-330.202	800.000	-0.081	0.251
-329.187	-25.598	-0.195	0.115
-328.172	-190.308	0.159	0.002
-327.158	800.000	-0.058	-0.162
-326.143	116.601	-0.234	0.287
-325.129	37.720	-0.219	0.195
-324.114	-71.499	0.029	-0.011
-323.099	-200.000	0.027	-0.180
-322.085	20.407	0.305	-0.247
-321.070	-200.000	-0.046	-0.255
-320.056	-68.064	-0.388	-0.152
-319.041	-106.635	0.249	-0.056
-318.026	416.075	-0.063	-0.135
-317.012	-76.185	-0.170	-0.060
-315.997	800.000	0.108	0.455
-314.983	-200.000	-0.025	-0.281
-313.968	540.468	-0.055	0.132
-312.953	-200.000	-0.003	0.187
-311.939	-94.374	0.023	-0.006
-310.924	-45.363	-0.126	-0.062
-309.910	-70.728	0.204	0.077
-308.895	-200.000	-0.037	0.240
-307.880	-67.164	0.128	-0.050
-306.866	-121.534	0.070	-0.012
-305.851	-200.000	0.008	-0.158
-304.837	-156.276	-0.168	0.011
-303.822	16.990	0.082	-0.065
-302.807	-138.837	0.389	-0.042
-301.793	-200.000	0.002	0.079
-300.778	23.256	-0.258	0.212
-299.764	81.473	-0.063	-0.068
-298.749	61.736	0.076	-0.076
-297.735	-46.611	0.339	-0.166
-296.720	-200.000	0.001	-0.220
-295.705	-102.993	0.461	0.109
-294.691	243.950	-0.161	-0.270
-293.676	-120.577	-0.284	-0.048
-292.662	-200.000	0.276	0.000
-291.647	67.579	0.291	0.297
-290.632	448.113	-0.198	-0.437
-289.618	-200.000	-0.023	-0.454
-288.603	-200.000	0.016	-0.203
-287.589	800.000	-0.038	0.157
-286.574	-200.000	0.025	0.147
-285.559	197.778	0.121	0.184
-284.545	-102.527	0.086	-0.020
-283.530	-13.113	-0.120	0.078
-282.516	-135.090	-0.234	-0.028
-281.501	-57.020	0.122	0.054
-280.486	43.391	0.147	0.134
-279.472	-141.625	0.262	0.026
-278.457	-143.383	0.113	0.011
-277.443	81.220	0.149	-0.161
-276.428	15.673	0.118	-0.093
-275.413	106.027	0.150	0.177
-274.399	722.596	-0.057	-0.152
-273.384	98.987	0.184	-0.212
-272.370	128.170	0.086	-0.109
-271.355	-44.415	0.234	0.117
-270.340	-37.668	-0.092	-0.049
-269.326	754.308	0.038	-0.103
-268.311	462.195	-0.097	-0.216
-267.297	800.000	-0.086	0.282
-266.282	15.328	-0.292	0.229
-265.267	71.146	0.146	-0.151
-264.253	55.625	-0.054	0.052
-263.238	-200.000	0.015	0.139
-262.224	-39.138	0.199	0.104
-261.209	-200.000	0.046	-0.315
-260.195	-200.000	0.028	0.280
-259.180	-200.000	0.009	0.160
-258.165	-94.889	0.231	-0.063
-257.151	-26.765	-0.038	-0.022
-256.136	-200.000	0.010	0.101
-255.122	601.191	0.140	0.346
-254.107	-99.011	0.179	0.045
-253.092	-120.596	-0.133	-0.023
-252.078	-148.602	0.186	0.015
-251.063	277.425	0.079	-0.140
-250.049	-64.150	-0.114	0.046
-249.034	64.727	-0.126	0.126
-248.019	319.099	0.135	-0.256
-247.005	-100.176	-0.281	-0.070
-245.990	800.000	0.056	-0.193
-244.976	501.209	-0.046	0.107
-243.961	-82.094	-0.406	0.132
-242.946	-181.021	-0.201	-0.004
-241.932	-161.361	0.106	-0.005
-240.917	50.011	-0.193	0.182
-239.903	379.399	-0.038	0.077
-238.888	-32.805	0.393	-0.218
-237.873	265.849	0.108	-0.189
-236.859	-200.000	-0.006	0.032
-235.844	-116.007	0.209	-0.039
-234.830	-162.580	0.355	0.017
-233.815	-104.579	0.133	0.031
-232.800	-12.607	-0.129	0.084
-231.786	-191.932	-0.215	0.002
-230.771	321.533	-0.069	0.131
-229.757	48.568	-0.104	-0.098
-228.742	309.628	0.127	-0.236
-227.727	-200.000	-0.038	0.171
-226.713	384.806	-0.087	-0.178
-225.698	132.366	0.132	-0.170
-224.684	-35.444	-0.317	-0.172
-223.669	-21.067	-0.281	0.172
-222.655	7.864	-0.089	0.067
-221.640	-92.762	-0.190	-0.053
-220.625	-27.658	0.100	-0.058
-219.611	-77.212	-0.275	-0.095
-218.596	-135.921	-0.104	-0.012
-217.582	-23.717	-0.328	0.196
-216.567	-77.174	0.174	0.061
-215.552	338.520	0.111	-0.215
-214.538	103.781	-0.261	-0.306
-213.523	120.909	-0.060	0.074
-212.509	-200.000	-0.023	-0.227
-211.494	-10.741	0.065	0.043
-210.479	-200.000	-0.052	-0.265
-209.465	81.675	0.128	0.138
-208.450	-45.551	-0.392	0.194
-207.436	-22.047	-0.208	-0.126
-206.421	-60.254	0.182	0.077
-205.406	283.006	-0.195	-0.350
-204.392	192.857	-0.111	0.166
-203.377	144.901	0.138	0.184
-202.363	-163.885	-0.203	0.009
-201.348	-6.376	0.207	0.141
-200.333	21.342	-0.238	-0.193
-199.319	-16.090	-0.198	0.126
-198.304	34.143	-0.163	0.142
-197.290	-83.167	0.251	0.080
-196.275	800.000	0.025	0.105
-195.260	-200.000	-0.014	0.257
-194.246	-200.000	-0.005	-0.140
-193.231	57.290	0.090	0.088
-192.217	-52.196	-0.299	-0.138
-191.202	110.186	0.042	-0.050
-190.187	-66.434	-0.101	0.040
-189.173	185.442	0.082	-0.121
-188.158	-106.345	-0.398	0.089
-187.144	-37.752	-0.366	0.194
-186.129	-162.969	0.340	0.016
-185.114	800.000	-0.128	-0.372
-184.100	-80.001	-0.030	0.010
-183.085	82.300	-0.180	0.194
-182.071	489.547	0.035	0.080
-181.056	800.000	-0.103	0.425
-180.042	-105.601	-0.149	-0.034
-179.027	195.672	0.233	-0.353
-178.012	1.264	0.046	-0.033
-176.998	-47.243	-0.127	0.062
-175.983	-142.886	0.164	-0.016
-174.969	395.486	0.110	-0.229
-173.954	-200.000	-0.033	-0.356
-172.939	-94.030	0.361	-0.099
-171.925	159.928	0.214	-0.297
-170.910	800.000	-0.062	0.235
-169.896	84.328	-0.123	-0.134
-168.881	-130.876	-0.147	0.020
-167.866	149.305	-0.030	-0.040
-166.852	800.000	0.047	0.138
-165.837	800.000	0.065	0.205
-164.823	-114.426	0.260	-0.050
-163.808	5.990	0.370	0.273
-162.793	-37.158	-0.504	0.268
-161.779	-112.682	0.241	0.048
-160.764	722.041	0.186	-0.493
-159.750	131.060	0.061	0.078
-158.735	-41.598	-0.357	0.183
-157.720	-90.214	-0.250	-0.072
-156.706	102.423	0.145	-0.168
-155.691	-89.943	-0.072	-0.021
-154.677	238.555	0.095	-0.157
-153.662	99.167	-0.264	-0.303
-152.647	800.000	-0.105	0.364
-151.633	143.596	0.104	0.138
-150.618	14.394	0.282	0.219
-149.604	-98.041	0.034	-0.009
-148.589	800.000	-0.035	0.140
-147.574	-139.507	0.361	-0.038
-146.560	800.000	-0.119	0.328
-145.545	-200.000	0.008	0.055
-144.531	-200.000	0.014	-0.120
-143.516	-15.309	-0.128	0.081
-142.502	-123.771	0.202	-0.032
-141.487	56.811	0.132	0.128
-140.472	-200.000	-0.008	0.046
-139.458	552.999	-0.094	-0.224
-138.443	294.115	-0.151	0.275
-137.429	-27.233	-0.195	0.113
-136.414	-186.699	0.287	0.004
-135.399	-26.117	-0.082	-0.048
-134.385	-29.347	0.291	0.165
-133.370	-108.978	-0.147	0.031
-132.356	405.803	0.080	0.168
-131.341	-119.263	0.314	0.054
-130.326	295.985	0.079	0.144
-129.312	13.558	-0.181	-0.139
-128.297	-20.993	-0.324	0.197
-127.283	-12.418	0.319	0.207
-126.268	-200.000	-0.057	-0.440
-125.253	152.203	-0.203	-0.275
-124.239	-33.066	0.138	0.076
-123.224	-8.512	0.137	0.091
-122.210	273.644	-0.048	-0.084
-121.195	800.000	0.108	0.308
