DTS Sentinel unit serial number:	SN413079Multiplexer serial number:	ORYXHardware model number:	OX4-SRSoftware version number:	ORYX F/W v4.00 Oryx Data Collector v3.7.2.0data status	okinstallation	princeton_trtdifferential loss correction	single-endedforward channel	channel 4reverse channel	N/Adate	2019/09/12time	10:35:11forward acquisition time	60.00reverse acquisition time	0.00gamma	496.2192k internal	0.2294k external	0.2294temperature offset calibration	1.0069default loss term (dB/km)	0.3790temperature slope calibration	1.0000multiplexer offset coefficient	1.0000multiplexer slope coefficient	1.0000fibre end	0.00T internal ref (°C)	37.25T ext. ref 1 (°C)	1.87T ext. ref 2 (°C)	35.29length (m)	temperature (°C)	Stokes	anti-Stokes-747.200	734.499	-0.130	-0.355
-746.185	800.000	0.039	-0.119
-745.171	800.000	-0.039	0.121
-744.156	-103.214	-0.286	-0.069
-743.142	-107.294	-0.216	-0.048
-742.127	525.787	0.187	0.449
-741.112	-200.000	-0.008	0.160
-740.098	684.264	-0.036	-0.097
-739.083	-200.000	-0.002	-0.270
-738.069	-200.000	0.040	-0.185
-737.054	-200.000	0.039	0.228
-736.039	76.634	-0.237	-0.256
-735.025	195.168	0.173	0.268
-734.010	-1.394	-0.247	-0.178
-732.996	-30.992	-0.269	-0.155
-731.981	-200.000	0.014	0.088
-730.966	-113.645	0.395	-0.079
-729.952	-90.672	-0.057	0.017
-728.937	-54.622	-0.230	-0.106
-727.923	282.016	-0.143	-0.263
-726.908	800.000	0.094	0.298
-725.894	-200.000	0.011	-0.154
-724.879	800.000	-0.148	-0.431
-723.864	30.884	0.160	-0.140
-722.850	20.362	0.286	-0.236
-721.835	-200.000	0.014	0.168
-720.821	185.679	-0.074	0.112
-719.806	-97.076	0.215	-0.058
-718.791	12.483	-0.143	-0.113
-717.777	-46.876	0.109	-0.054
-716.762	154.349	-0.147	-0.207
-715.748	-59.801	0.038	-0.016
-714.733	96.480	-0.158	0.184
-713.718	-19.419	-0.299	-0.189
-712.704	-200.000	-0.010	-0.360
-711.689	-200.000	-0.009	-0.111
-710.675	-24.253	-0.185	0.113
-709.660	-101.069	-0.212	-0.053
-708.645	-200.000	0.021	0.174
-707.631	-50.815	0.216	-0.104
-706.616	139.585	-0.113	0.153
-705.602	-117.256	0.066	0.012
-704.587	42.201	0.152	-0.141
-703.572	-110.323	0.171	-0.036
-702.558	-1.063	-0.286	-0.206
-701.543	-67.169	-0.123	0.049
-700.529	800.000	0.065	0.247
-699.514	-200.000	0.003	0.097
-698.499	165.403	-0.114	0.164
-697.485	82.698	-0.079	-0.088
-696.470	421.822	-0.142	-0.310
-695.456	190.604	0.077	-0.118
-694.441	-24.994	-0.158	0.096
-693.426	-168.806	0.116	-0.004
-692.412	140.359	-0.136	-0.183
-691.397	-143.490	-0.105	0.010
-690.383	764.447	-0.086	0.239
-689.368	-200.000	-0.003	-0.102
-688.354	-96.694	-0.119	0.032
-687.339	38.199	0.155	0.141
-686.324	-200.000	0.062	0.485
-685.310	229.360	0.066	-0.109
-684.295	412.262	-0.059	0.127
-683.281	-103.493	-0.214	0.051
-682.266	-84.692	-0.102	-0.033
-681.251	-175.268	0.317	-0.009
-680.237	64.658	-0.262	0.269
-679.222	450.902	-0.094	-0.211
-678.208	-123.727	0.213	-0.034
-677.193	-200.000	0.030	0.443
-676.178	-200.000	-0.019	0.238
-675.164	-112.042	0.174	-0.036
-674.149	-34.953	-0.293	0.163
-673.135	800.000	-0.111	0.373
-672.120	359.460	-0.130	0.265
-671.105	800.000	0.061	0.199
-670.091	800.000	0.106	0.424
-669.076	-200.000	0.003	-0.102
-668.062	378.386	0.074	-0.154
-667.047	-87.240	-0.061	0.019
-666.032	-120.106	-0.037	-0.007
-665.018	-107.838	0.443	-0.098
-664.003	339.763	0.146	-0.290
-662.989	-27.516	-0.060	-0.035
-661.974	162.173	0.132	-0.189
-660.959	61.940	0.085	-0.087
-659.945	259.662	-0.125	0.220
-658.930	114.073	0.054	-0.067
-657.916	122.358	-0.112	-0.142
-656.901	92.048	-0.126	0.144
-655.886	5.920	-0.321	0.242
-654.872	-8.014	0.163	-0.112
-653.857	230.466	0.149	-0.248
-652.843	-44.214	-0.184	-0.094
-651.828	-200.000	0.029	0.208
-650.814	-84.532	0.368	0.118
-649.799	81.865	-0.053	0.058
-648.784	-200.000	-0.018	0.100
-647.770	346.662	-0.110	0.221
-646.755	-185.449	0.113	0.002
-645.741	-200.000	0.016	-0.231
-644.726	-99.241	-0.187	0.048
-643.711	-142.117	0.413	-0.042
-642.697	106.490	-0.043	0.052
-641.682	-113.328	0.318	-0.064
-640.668	800.000	-0.047	-0.138
-639.653	199.961	-0.117	0.183
-638.638	168.728	-0.192	-0.278
-637.624	-200.000	0.004	-0.315
-636.609	800.000	-0.094	-0.281
-635.595	0.211	0.263	-0.191
-634.580	385.177	-0.079	0.166
-633.565	3.284	0.131	-0.097
-632.551	-7.567	0.354	-0.244
-631.536	56.271	0.184	0.182
-630.522	-54.247	-0.165	-0.076
-629.507	-200.000	-0.004	-0.285
-628.492	-155.610	-0.329	-0.022
-627.478	-32.818	-0.063	0.035
-626.463	-200.000	0.027	-0.235
-625.449	-59.687	-0.192	0.084
-624.434	-58.269	-0.287	-0.127
-623.419	183.240	-0.089	-0.133
-622.405	-200.000	0.024	0.114
-621.390	-83.005	-0.260	-0.085
-620.376	94.796	-0.102	-0.118
-619.361	-200.000	0.021	-0.243
-618.346	-97.766	-0.122	0.032
-617.332	-196.982	-0.293	-0.002
-616.317	-116.767	-0.428	-0.080
-615.303	-118.347	0.094	-0.017
-614.288	219.704	0.100	-0.163
-613.273	148.546	0.091	0.125
-612.259	800.000	-0.028	0.101
-611.244	271.343	0.175	-0.314
-610.230	-200.000	-0.006	-0.200
-609.215	776.710	0.118	-0.328
-608.201	446.606	-0.028	-0.062
-607.186	800.000	0.052	0.225
-606.171	375.742	-0.022	0.046
-605.157	157.678	0.130	-0.183
-604.142	0.299	0.215	0.156
-603.128	-19.125	0.207	-0.131
-602.113	25.472	0.092	-0.078
-601.098	271.213	-0.104	-0.186
-600.084	441.350	-0.044	-0.097
-599.069	-150.285	-0.385	0.030
-598.055	-72.266	-0.202	-0.076
-597.040	75.332	0.324	0.347
-596.025	87.798	0.125	-0.141
-595.011	71.629	0.072	-0.076
-593.996	496.309	-0.088	-0.207
-592.982	250.267	-0.072	0.124
-591.967	-143.736	-0.174	0.017
-590.952	-200.000	0.059	-0.473
-589.938	197.870	0.113	-0.176
-588.923	8.816	-0.093	0.071
-587.909	-126.255	-0.270	0.041
-586.894	800.000	0.020	-0.070
-585.879	-200.000	0.010	0.063
-584.865	506.419	-0.099	0.234
-583.850	-159.222	-0.216	-0.012
-582.836	165.444	0.104	0.150
-581.821	125.997	0.154	0.198
-580.806	-110.502	-0.231	-0.049
-579.792	-53.805	-0.388	0.180
-578.777	0.263	0.180	-0.130
-577.763	-152.415	0.071	0.005
-576.748	144.751	0.223	0.302
-575.733	-151.022	-0.060	0.005
-574.719	-61.757	-0.231	-0.098
-573.704	571.088	-0.070	0.172
-572.690	-58.625	0.387	0.171
-571.675	260.279	-0.118	0.207
-570.661	-140.196	-0.161	-0.017
-569.646	13.507	0.208	-0.164
-568.631	24.276	-0.392	-0.328
-567.617	-200.000	0.005	-0.099
-566.602	229.419	0.088	0.147
-565.588	-87.339	-0.066	-0.020
-564.573	362.425	-0.064	-0.130
-563.558	-170.658	0.507	-0.018
-562.544	55.216	-0.027	0.027
-561.529	53.561	-0.096	-0.094
-560.515	-19.266	-0.216	-0.136
-559.500	-6.847	-0.146	-0.101
-558.485	64.110	0.114	-0.117
-557.471	-200.000	0.037	0.181
-556.456	-123.458	-0.542	-0.088
-555.442	-158.443	-0.121	0.007
-554.427	-109.212	-0.222	0.048
-553.412	105.243	-0.069	-0.083
-552.398	-173.814	-0.020	-0.001
-551.383	-81.992	-0.107	-0.035
-550.369	-66.810	-0.178	-0.072
-549.354	800.000	-0.103	-0.442
-548.339	119.521	-0.151	-0.189
-547.325	375.077	-0.232	0.480
-546.310	-114.207	-0.200	0.039
-545.296	655.587	0.020	-0.051
-544.281	5.574	-0.184	-0.138
-543.266	124.932	-0.041	-0.052
-542.252	-200.000	-0.028	-0.260
-541.237	800.000	0.174	0.515
-540.223	-38.312	0.248	-0.133
-539.208	-137.106	-0.182	-0.021
-538.193	-184.599	0.218	-0.004
-537.179	220.359	0.136	-0.221
-536.164	597.812	0.058	0.146
-535.150	-112.635	0.147	0.030
-534.135	-42.311	0.197	0.102
-533.121	-200.000	0.012	0.281
-532.106	-20.379	-0.328	0.205
-531.091	-124.786	0.225	0.035
-530.077	333.173	-0.129	0.252
-529.062	-136.598	-0.381	0.045
-528.048	236.056	-0.110	0.185
-527.033	78.550	-0.096	0.104
-526.018	800.000	-0.097	0.364
-525.004	-65.832	-0.205	-0.083
-523.989	-66.088	-0.186	-0.075
-522.975	-22.736	-0.343	0.210
-521.960	-130.741	0.182	0.025
-520.945	10.239	0.269	-0.207
-519.931	53.100	-0.192	0.186
-518.916	232.433	0.114	0.190
-517.902	-122.330	0.243	-0.040
-516.887	243.542	-0.116	-0.198
-515.872	-200.000	0.003	0.140
-514.858	-174.106	0.340	0.010
-513.843	287.630	0.139	-0.255
-512.829	12.106	0.078	0.061
-511.814	46.151	0.170	0.160
-510.799	174.135	-0.077	-0.113
-509.785	82.011	-0.243	-0.267
-508.770	195.902	-0.056	-0.087
-507.756	528.786	0.088	-0.211
-506.741	86.062	-0.153	-0.171
-505.726	137.639	-0.192	-0.254
-504.712	-200.000	0.005	0.169
-503.697	-38.739	0.059	0.031
-502.683	270.348	0.124	-0.221
-501.668	-80.033	0.415	-0.141
-500.653	23.100	0.080	0.067
-499.639	-151.105	0.152	-0.012
-498.624	75.806	-0.030	-0.032
-497.610	-159.841	-0.061	-0.003
-496.595	193.506	-0.030	0.046
-495.581	82.581	-0.214	-0.235
-494.566	700.952	-0.012	-0.033
-493.551	516.031	0.104	0.247
-492.537	8.691	0.315	0.240
-491.522	800.000	-0.070	0.302
-490.508	-200.000	0.016	-0.370
-489.493	230.819	-0.057	0.094
-488.478	31.210	-0.053	-0.046
-487.464	800.000	0.043	0.174
-486.449	-200.000	-0.016	0.158
-485.435	-49.171	0.146	0.071
-484.420	111.627	0.110	0.135
-483.405	289.617	0.037	-0.068
-482.391	-146.462	0.113	-0.010
-481.376	-133.087	0.484	0.062
-480.362	-82.268	-0.201	-0.066
-479.347	-102.158	0.061	0.015
-478.332	-200.000	-0.035	0.346
-477.318	-200.000	0.070	0.314
-476.303	180.387	-0.156	-0.232
-475.289	21.321	-0.242	-0.199
-474.274	518.776	-0.152	0.361
-473.259	800.000	0.032	0.090
-472.245	-200.000	-0.009	0.182
-471.230	-14.330	0.017	-0.011
-470.216	34.557	-0.291	0.257
-469.201	-49.464	-0.039	0.019
-468.186	-62.542	-0.163	-0.068
-467.172	-200.000	0.019	0.262
-466.157	-139.070	0.203	-0.022
-465.143	61.752	-0.181	-0.182
-464.128	303.395	0.126	-0.236
-463.113	400.580	0.102	0.217
-462.099	-200.000	-0.031	0.232
-461.084	-101.238	0.113	0.028
-460.070	-11.147	-0.379	-0.253
-459.055	-86.213	-0.217	0.068
-458.040	201.286	-0.279	0.434
-457.026	-200.000	0.024	0.109
-456.011	125.008	-0.056	0.071
-454.997	-92.772	-0.056	-0.016
-453.982	800.000	0.087	-0.262
-452.968	-88.862	0.314	-0.094
-451.953	-136.248	-0.216	0.025
-450.938	72.184	0.125	0.131
-449.924	-200.000	0.004	-0.235
-448.909	-5.012	-0.179	0.125
-447.895	-95.067	0.094	-0.026
-446.880	401.288	-0.159	-0.336
-445.865	-74.652	0.163	0.059
-444.851	98.075	-0.065	0.076
-443.836	69.910	0.241	0.251
-442.822	84.085	0.148	-0.163
-441.807	12.609	0.133	0.104
-440.792	164.465	0.157	0.224
-439.778	-200.000	0.026	0.390
-438.763	-200.000	0.010	-0.154
-437.749	-106.664	-0.147	0.033
-436.734	795.320	-0.095	0.265
-435.719	-126.842	0.244	0.036
-434.705	539.396	0.086	-0.206
-433.690	101.459	-0.135	-0.159
-432.676	-51.263	-0.124	-0.059
-431.661	-200.000	-0.008	-0.169
-430.646	800.000	-0.071	0.246
-429.632	95.510	0.062	-0.071
-428.617	800.000	-0.067	-0.199
-427.603	130.997	0.054	0.070
-426.588	-67.764	-0.155	0.061
-425.573	21.217	-0.118	-0.097
-424.559	258.924	0.044	0.077
-423.544	-23.270	0.139	0.085
-422.530	324.495	-0.116	0.223
-421.515	-99.091	0.184	-0.047
-420.500	-121.661	-0.231	-0.039
-419.486	202.351	0.090	0.141
-418.471	114.412	0.186	0.229
-417.457	-200.000	-0.002	-0.250
-416.442	239.509	0.046	0.078
-415.428	118.974	-0.104	-0.130
-414.413	800.000	0.119	0.342
-413.398	-117.101	-0.097	0.018
-412.384	204.825	0.188	0.294
-411.369	-200.000	-0.031	0.178
-410.355	411.868	-0.135	0.289
-409.340	100.422	0.139	0.163
-408.325	-106.698	-0.114	-0.026
-407.311	-142.114	-0.285	0.029
-406.296	-150.810	0.192	-0.015
-405.282	-138.501	-0.194	-0.022
-404.267	800.000	0.034	-0.095
-403.252	-200.000	0.019	0.090
-402.238	-200.000	-0.001	0.036
-401.223	93.684	0.125	-0.142
-400.209	212.846	-0.097	0.154
-399.194	64.381	-0.073	0.074
-398.179	-128.435	-0.111	0.016
-397.165	195.148	0.028	-0.043
-396.150	-135.023	-0.195	-0.024
-395.136	-46.946	0.167	0.082
-394.121	-120.303	-0.383	-0.066
-393.106	82.317	0.060	0.065
-392.092	148.357	0.124	-0.168
-391.077	121.039	0.140	0.176
-390.063	-67.034	0.194	-0.077
-389.048	-158.061	0.128	-0.008
-388.033	-80.922	0.227	-0.076
-387.019	800.000	-0.038	-0.167
-386.004	-145.278	0.143	-0.013
-384.990	-175.732	0.093	0.003
-383.975	100.253	-0.102	0.119
-382.960	800.000	-0.030	0.090
-381.946	399.223	0.107	0.226
-380.931	800.000	-0.063	0.215
-379.917	625.445	0.024	0.061
-378.902	-118.309	-0.041	-0.007
-377.888	-143.612	0.365	0.035
-376.873	23.382	0.169	0.140
-375.858	-107.729	-0.395	0.087
-374.844	800.000	0.044	-0.124
-373.829	-72.395	0.097	0.036
-372.815	22.210	0.061	0.050
-371.800	-123.030	0.222	-0.036
-370.785	-118.052	-0.031	-0.005
-369.771	-189.317	0.175	-0.002
-368.756	294.691	0.135	-0.248
-367.742	-139.281	-0.055	-0.006
-366.727	-186.501	0.267	0.004
-365.712	204.704	-0.099	-0.155
-364.698	-200.000	0.020	-0.207
-363.683	800.000	0.147	-0.439
-362.669	-115.939	-0.331	-0.062
-361.654	-112.467	-0.483	0.097
-360.639	328.497	0.161	-0.311
-359.625	19.270	-0.106	0.086
-358.610	-200.000	-0.002	0.010
-357.596	55.981	0.050	0.049
-356.581	-130.198	0.232	0.032
-355.566	-128.942	0.229	-0.032
-354.552	56.149	-0.167	0.163
-353.537	271.727	0.048	-0.084
-352.523	-200.000	0.043	-0.254
-351.508	-22.066	0.170	-0.104
-350.493	519.305	-0.087	-0.206
-349.479	-56.641	-0.307	-0.137
-348.464	537.643	-0.062	0.149
-347.450	-200.000	0.035	-0.383
-346.435	-178.488	0.057	0.001
-345.420	4.537	-0.102	0.076
-344.406	326.989	0.074	-0.142
-343.391	-200.000	-0.015	0.101
-342.377	-200.000	0.013	0.083
-341.362	-9.109	-0.397	0.268
-340.348	-200.000	0.046	-0.295
-339.333	265.349	0.146	-0.256
-338.318	697.626	0.030	-0.080
-337.304	-157.845	0.067	-0.004
-336.289	622.302	-0.043	0.108
-335.275	721.176	-0.034	0.090
-334.260	-0.168	-0.190	-0.136
-333.245	370.173	-0.166	-0.339
-332.231	-200.000	0.010	-0.141
-331.216	515.076	-0.067	0.158
-330.202	-2.322	0.060	0.043
-329.187	244.384	-0.113	0.191
-328.172	-11.267	-0.207	-0.137
-327.158	246.223	-0.071	-0.120
-326.143	-122.102	0.259	-0.043
-325.129	-86.206	-0.240	-0.074
-324.114	-95.818	-0.189	-0.051
-323.099	-77.495	-0.225	-0.078
-322.085	-200.000	-0.044	0.304
-321.070	-200.000	-0.063	-0.422
-320.056	169.508	0.084	0.121
-319.041	-23.542	0.087	-0.052
-318.026	-200.000	0.013	0.132
-317.012	390.275	-0.047	0.098
-315.997	237.539	0.099	0.166
-314.983	-147.757	0.336	-0.028
-313.968	-60.576	-0.181	0.077
-312.953	-200.000	-0.007	0.129
-311.939	224.221	0.030	-0.049
-310.924	98.949	-0.084	0.098
-309.910	152.090	-0.063	-0.087
-308.895	-58.698	-0.208	-0.091
-307.880	364.680	-0.148	0.300
-306.866	-200.000	-0.062	0.393
-305.851	537.212	-0.051	-0.122
-304.837	171.272	-0.040	0.057
-303.822	-200.000	0.072	-0.451
-302.807	-40.561	-0.065	-0.034
-301.793	-74.889	0.176	0.064
-300.778	316.145	0.046	-0.088
-299.764	1.945	-0.147	0.107
-298.749	53.768	-0.184	0.177
-297.735	434.337	-0.042	-0.092
-296.720	800.000	0.157	0.451
-295.705	-67.241	0.147	-0.058
-294.691	589.902	0.010	-0.024
-293.676	-200.000	-0.060	0.295
-292.662	800.000	-0.064	-0.274
-291.647	116.155	0.119	-0.146
-290.632	-9.941	0.231	0.154
-289.618	-22.752	0.336	-0.204
-288.603	328.691	0.095	-0.184
-287.589	800.000	-0.033	-0.133
-286.574	423.834	0.045	0.098
-285.559	-106.131	-0.084	-0.019
-284.545	61.673	0.245	-0.245
-283.530	-124.681	0.097	0.015
-282.516	-200.000	-0.003	0.159
-281.501	14.002	-0.201	0.157
-280.486	-49.484	0.174	-0.083
-279.472	-200.000	-0.004	-0.179
-278.457	54.609	0.030	-0.030
-277.443	244.563	0.158	-0.267
-276.428	-200.000	0.000	-0.333
-275.413	413.155	-0.120	0.256
-274.399	-94.400	0.170	0.047
-273.384	800.000	-0.041	-0.116
-272.370	-96.851	-0.157	0.041
-271.355	-107.603	-0.330	-0.072
-270.340	508.223	-0.043	-0.100
-269.326	800.000	-0.087	-0.282
-268.311	232.390	-0.137	0.225
-267.297	658.372	0.106	-0.272
-266.282	741.325	0.040	0.108
-265.267	523.041	0.070	0.164
-264.253	-20.586	-0.128	-0.079
-263.238	-36.864	0.291	0.157
-262.224	752.094	-0.065	0.177
-261.209	245.146	-0.066	0.111
-260.195	-28.207	0.304	-0.176
-259.180	133.487	-0.145	0.187
-258.165	-50.685	0.144	0.068
-257.151	-156.175	0.230	-0.015
-256.136	-160.974	-0.183	0.010
-255.122	19.487	0.195	0.158
-254.107	-200.000	-0.045	-0.209
-253.092	197.871	-0.102	0.157
-252.078	39.806	0.264	0.237
-251.063	-200.000	-0.070	0.322
-250.049	800.000	-0.079	0.342
-249.034	800.000	0.044	0.150
-248.019	21.043	0.320	0.260
-247.005	-80.699	0.070	-0.023
-245.990	562.411	0.034	0.083
-244.976	-200.000	-0.072	0.442
-243.961	-200.000	-0.021	0.231
-242.946	-130.506	0.146	-0.020
-241.932	-200.000	-0.005	0.214
-240.917	60.683	-0.047	0.046
-239.903	18.646	0.232	-0.186
-238.888	164.077	-0.094	-0.133
-237.873	35.101	-0.151	-0.133
-236.859	27.669	-0.192	-0.162
-235.844	31.652	-0.337	-0.291
-234.830	135.723	-0.169	-0.221
-233.815	-114.824	0.232	0.044
-232.800	-95.758	0.220	0.059
-231.786	-110.206	-0.268	-0.056
-230.771	-86.735	0.458	0.141
-229.757	-27.599	-0.103	0.060
-228.742	-33.137	0.249	-0.138
-227.727	-108.535	-0.471	0.101
-226.713	100.168	-0.135	-0.156
-225.698	800.000	0.061	0.222
-224.684	-55.955	0.231	0.103
-223.669	-84.044	-0.488	0.155
-222.655	-53.213	0.313	-0.144
-221.640	648.650	0.044	-0.113
-220.625	800.000	-0.033	-0.145
-219.611	190.908	0.070	-0.106
-218.596	397.276	-0.203	-0.425
-217.582	429.022	0.109	-0.237
-216.567	-157.368	0.224	-0.014
-215.552	39.847	-0.504	0.453
-214.538	99.225	0.248	-0.287
-213.523	27.812	0.112	-0.094
-212.509	-40.769	0.261	0.135
-211.494	-17.930	0.387	0.243
-210.479	-104.240	0.252	0.059
-209.465	151.119	-0.120	0.164
-208.450	186.489	-0.067	-0.101
-207.436	634.101	-0.031	0.078
-206.421	10.742	0.171	-0.130
-205.406	-200.000	0.005	-0.236
-204.392	-16.627	-0.353	0.224
-203.377	451.384	0.095	-0.209
-202.363	-105.660	-0.203	-0.046
-201.348	-200.000	0.005	-0.172
-200.333	116.393	-0.050	-0.062
-199.319	11.012	0.149	-0.114
-198.304	-26.788	0.357	0.209
-197.290	-50.676	0.348	-0.164
-196.275	-29.974	0.215	0.123
-195.260	93.498	0.236	-0.267
-194.246	7.574	0.215	-0.161
-193.231	-200.000	-0.014	-0.063
-192.217	800.000	-0.073	0.209
-191.202	-200.000	-0.007	-0.129
-190.187	-131.552	0.197	0.026
-189.173	1.219	0.082	-0.059
-188.158	-43.907	-0.097	-0.049
-187.144	-55.256	0.132	-0.059
-186.129	-13.656	0.449	-0.291
-185.114	-34.381	-0.114	0.062
-184.100	210.413	-0.095	0.150
-183.085	108.657	0.276	-0.329
-182.071	800.000	-0.052	0.158
-181.056	-200.000	-0.040	-0.292
-180.042	-110.302	0.234	-0.049
-179.027	-104.100	-0.042	0.010
-178.012	164.666	-0.127	0.179
-176.998	800.000	0.038	-0.126
-175.983	-45.258	0.302	-0.150
-174.969	-164.313	0.119	0.005
-173.954	72.812	-0.253	0.264
-172.939	-83.975	0.115	0.037
-171.925	270.860	0.212	0.372
-170.910	-36.025	0.204	0.110
-169.896	-200.000	-0.012	0.153
-168.881	676.224	-0.045	0.117
-167.866	-41.654	-0.187	-0.096
-166.852	-131.531	-0.121	0.016
-165.837	-200.000	0.011	0.185
-164.823	800.000	-0.089	0.249
-163.808	-200.000	0.013	0.287
-162.793	-15.928	-0.010	0.006
-161.779	244.414	-0.102	0.170
-160.764	-124.710	-0.191	-0.030
-159.750	-185.793	-0.100	-0.001
-158.735	22.751	0.287	-0.235
-157.720	800.000	-0.029	-0.083
-156.706	290.254	0.047	0.085
-155.691	-49.503	-0.281	-0.134
-154.677	169.853	-0.078	0.111
-153.662	-173.751	0.190	-0.006
-152.647	800.000	0.033	0.133
-151.633	-35.191	-0.144	-0.078
-150.618	-200.000	-0.018	-0.140
-149.604	-193.611	0.123	-0.001
-148.589	23.190	0.226	0.185
-147.574	269.309	-0.204	-0.358
-146.560	800.000	-0.007	-0.020
-145.545	-123.300	-0.364	-0.058
-144.531	-44.456	0.176	-0.088
-143.516	-92.609	0.117	0.033
-142.502	187.607	0.141	0.210
-141.487	-27.505	0.040	0.023
-140.472	-162.126	0.414	0.021
-139.458	800.000	0.157	0.521
-138.443	56.308	-0.126	-0.122
-137.429	-49.061	-0.240	-0.115
-136.414	-122.298	-0.444	0.072
-135.399	44.806	0.368	-0.338
-134.385	-38.701	-0.503	-0.265
-133.370	-88.684	-0.254	0.075
-132.356	-15.331	-0.083	-0.053
-131.341	-200.000	-0.015	0.374
-130.326	-101.443	0.169	-0.041
-129.312	-23.077	0.148	0.089
-128.297	800.000	-0.030	0.082
-127.283	800.000	0.003	-0.010
-126.268	800.000	-0.006	0.015
-125.253	119.855	-0.084	0.104
-124.239	40.553	0.301	0.270
-123.224	18.710	-0.227	-0.182
-122.210	-68.165	0.317	-0.123
