DTS Sentinel unit serial number:	SN413079Multiplexer serial number:	ORYXHardware model number:	OX4-SRSoftware version number:	ORYX F/W v4.00 Oryx Data Collector v3.7.2.0data status	okinstallation	princeton_trtdifferential loss correction	single-endedforward channel	channel 4reverse channel	N/Adate	2019/09/16time	10:37:35forward acquisition time	60.00reverse acquisition time	0.00gamma	496.2192k internal	0.2299k external	0.2299temperature offset calibration	0.9960default loss term (dB/km)	0.3790temperature slope calibration	1.0000multiplexer offset coefficient	1.0000multiplexer slope coefficient	1.0000fibre end	0.00T internal ref (°C)	35.69T ext. ref 1 (°C)	12.61T ext. ref 2 (°C)	33.61length (m)	temperature (°C)	Stokes	anti-Stokes-747.200	164.371	0.274	0.394
-746.185	316.606	-0.135	0.261
-745.171	-6.226	-0.132	0.092
-744.156	-200.000	-0.010	0.359
-743.142	-200.000	-0.031	-0.339
-742.127	201.642	-0.068	-0.106
-741.112	-52.325	-0.248	0.117
-740.098	346.792	-0.058	0.117
-739.083	66.783	0.100	-0.104
-738.069	28.616	0.158	0.136
-737.054	70.697	-0.216	-0.228
-736.039	390.167	-0.086	-0.182
-735.025	-40.054	-0.196	0.104
-734.010	495.535	-0.160	-0.374
-732.996	-75.093	-0.323	-0.118
-731.981	-132.479	0.244	0.032
-730.966	80.630	-0.144	-0.158
-729.952	-28.256	0.237	0.140
-728.937	592.080	0.026	-0.065
-727.923	14.909	-0.303	0.242
-726.908	68.647	-0.321	0.336
-725.894	492.151	-0.009	0.022
-724.879	339.271	0.037	0.074
-723.864	800.000	0.073	0.214
-722.850	36.929	0.103	-0.093
-721.835	106.454	-0.156	-0.189
-720.821	-200.000	0.058	-0.298
-719.806	22.990	-0.350	-0.293
-718.791	-200.000	-0.029	0.132
-717.777	227.938	-0.114	-0.189
-716.762	99.863	-0.253	-0.299
-715.748	800.000	0.112	-0.413
-714.733	68.106	-0.261	0.272
-713.718	-27.500	0.204	0.121
-712.704	-200.000	-0.028	-0.138
-711.689	-134.526	0.196	0.024
-710.675	166.783	0.123	0.177
-709.660	29.671	-0.301	0.261
-708.645	155.632	0.034	0.048
-707.631	800.000	0.029	0.104
-706.616	-200.000	0.003	-0.163
-705.602	-200.000	0.033	-0.152
-704.587	88.910	0.168	-0.191
-703.572	-92.604	0.039	0.011
-702.558	422.244	-0.028	0.061
-701.543	-32.546	0.289	-0.164
-700.529	-17.400	-0.324	0.208
-699.514	34.278	-0.224	0.199
-698.499	-7.655	0.234	-0.161
-697.485	-124.568	-0.153	0.024
-696.470	-79.368	0.289	0.100
-695.456	89.597	0.170	0.193
-694.441	-41.955	-0.103	0.054
-693.426	188.033	0.142	0.216
-692.412	-75.532	-0.427	-0.155
-691.397	-200.000	-0.052	-0.266
-690.383	-81.189	-0.260	0.088
-689.368	148.943	-0.148	-0.203
-688.354	-200.000	-0.009	-0.399
-687.339	-200.000	0.047	-0.409
-686.324	83.102	-0.221	-0.245
-685.310	-127.155	0.144	-0.021
-684.295	31.759	0.316	-0.277
-683.281	339.777	0.120	-0.239
-682.266	-200.000	0.019	-0.155
-681.251	183.818	-0.164	-0.247
-680.237	-68.479	-0.228	-0.090
-679.222	-200.000	-0.097	-0.440
-678.208	68.089	-0.118	0.123
-677.193	-118.702	0.351	-0.063
-676.178	-84.746	-0.534	-0.171
-675.164	-18.378	0.133	-0.085
-674.149	438.070	0.153	0.339
-673.135	-21.290	0.134	0.083
-672.120	250.784	0.088	-0.152
-671.105	-200.000	-0.011	-0.125
-670.091	37.245	0.283	-0.255
-669.076	800.000	-0.077	0.322
-668.062	-62.470	-0.047	-0.020
-667.047	-134.628	-0.182	-0.023
-666.032	800.000	-0.057	0.204
-665.018	800.000	0.071	-0.268
-664.003	32.409	0.249	-0.219
-662.989	28.166	-0.255	0.219
-661.974	800.000	0.075	0.263
-660.959	153.225	-0.193	0.268
-659.945	-119.960	-0.408	0.071
-658.930	-55.748	-0.250	0.113
-657.916	514.752	-0.066	-0.157
-656.901	229.202	0.108	-0.180
-655.886	-200.000	-0.002	-0.031
-654.872	17.071	0.218	-0.175
-653.857	776.088	-0.108	-0.301
-652.843	-200.000	0.023	0.250
-651.828	-45.359	-0.254	0.128
-650.814	76.923	0.176	0.190
-649.799	30.728	-0.132	-0.115
-648.784	-200.000	0.026	0.210
-647.770	-159.928	-0.213	0.012
-646.755	-98.192	0.091	-0.024
-645.741	160.293	0.049	0.069
-644.726	-175.229	-0.251	0.007
-643.711	13.555	-0.060	-0.048
-642.697	451.015	0.011	-0.024
-641.682	-125.701	-0.312	0.048
-640.668	-108.597	0.267	0.058
-639.653	-118.905	-0.126	0.023
-638.638	168.124	0.067	-0.098
-637.624	-29.954	0.056	-0.033
-636.609	-200.000	-0.025	-0.219
-635.595	800.000	0.056	-0.159
-634.580	-200.000	-0.004	-0.126
-633.565	207.647	0.079	-0.125
-632.551	627.922	0.014	0.036
-631.536	-123.105	-0.223	-0.036
-630.522	800.000	-0.018	-0.079
-629.507	104.637	-0.161	-0.192
-628.492	208.426	-0.080	-0.128
-627.478	-13.556	0.030	-0.020
-626.463	71.897	-0.154	0.163
-625.449	347.497	-0.062	0.124
-624.434	-200.000	0.023	0.149
-623.419	-20.669	0.118	-0.074
-622.405	-140.904	0.400	0.042
-621.390	-119.091	0.081	0.014
-620.376	-126.182	0.168	-0.026
-619.361	-200.000	-0.027	0.135
-618.346	316.667	-0.045	0.087
-617.332	352.985	0.060	0.121
-616.317	-200.000	-0.021	0.229
-615.303	297.478	-0.120	0.224
-614.288	3.143	0.108	-0.079
-613.273	-200.000	0.057	-0.349
-612.259	-200.000	0.002	-0.249
-611.244	259.135	-0.250	-0.439
-610.230	230.493	-0.244	-0.405
-609.215	9.537	-0.153	0.118
-608.201	-35.459	0.235	0.129
-607.186	-116.989	-0.217	0.040
-606.171	96.048	-0.060	0.070
-605.157	22.064	0.223	-0.185
-604.142	800.000	0.069	0.247
-603.128	-110.934	-0.474	0.099
-602.113	800.000	-0.032	-0.113
-601.098	160.332	-0.200	0.283
-600.084	-175.332	-0.109	-0.003
-599.069	96.987	-0.068	-0.079
-598.055	-33.160	0.084	0.047
-597.040	270.165	-0.093	0.166
-596.025	-74.815	-0.170	0.062
-595.011	36.775	-0.159	0.142
-593.996	-200.000	-0.012	0.094
-592.982	700.497	-0.075	-0.201
-591.967	117.202	0.058	0.073
-590.952	-200.000	-0.028	-0.391
-589.938	-23.457	-0.325	-0.198
-588.923	-200.000	0.046	-0.312
-587.909	58.042	0.149	0.148
-586.894	230.362	0.090	0.149
-585.879	-62.020	-0.120	-0.051
-584.865	-68.051	0.135	0.054
-583.850	-73.351	-0.246	-0.091
-582.836	-122.806	-0.178	0.029
-581.821	-158.656	0.289	-0.017
-580.806	535.016	0.086	0.206
-579.792	57.695	-0.229	-0.227
-578.777	-88.906	-0.167	-0.050
-577.763	129.199	0.162	0.210
-576.748	43.818	0.288	-0.267
-575.733	-200.000	0.018	-0.232
-574.719	800.000	0.015	-0.056
-573.704	346.506	-0.050	-0.099
-572.690	166.507	-0.051	-0.073
-571.675	221.433	-0.103	0.168
-570.661	107.763	0.089	-0.108
-569.646	-163.069	0.159	0.008
-568.631	-200.000	-0.037	0.196
-567.617	14.320	-0.034	0.027
-566.602	-98.913	-0.101	0.026
-565.588	115.873	0.175	0.217
-564.573	-176.714	0.120	0.003
-563.558	716.358	-0.030	-0.082
-562.544	-117.346	0.133	0.024
-561.529	128.244	0.091	0.117
-560.515	347.673	-0.177	-0.354
-559.500	30.295	0.166	-0.143
-558.485	-43.927	0.116	-0.059
-557.471	128.310	-0.122	0.158
-556.456	186.539	-0.114	-0.172
-555.442	-200.000	-0.050	-0.307
-554.427	-95.114	0.160	-0.044
-553.412	56.570	0.240	0.236
-552.398	23.674	-0.154	-0.129
-551.383	305.835	-0.137	-0.258
-550.369	-29.207	0.250	-0.145
-549.354	-14.503	-0.134	-0.087
-548.339	-76.282	0.172	0.062
-547.325	14.552	-0.135	0.107
-546.310	-200.000	-0.031	0.191
-545.296	4.018	-0.191	0.141
-544.281	-200.000	-0.210	-0.001
-543.266	800.000	0.054	0.161
-542.252	29.136	0.276	0.237
-541.237	28.614	0.295	-0.252
-540.223	-200.000	-0.032	-0.180
-539.208	121.311	-0.095	0.120
-538.193	-32.849	0.141	-0.079
-537.179	-35.218	-0.266	-0.147
-536.164	800.000	-0.098	-0.427
-535.150	-15.890	-0.242	-0.156
-534.135	-160.082	0.118	0.007
-533.121	16.991	0.085	-0.068
-532.106	800.000	-0.043	-0.127
-531.091	231.232	-0.085	-0.141
-530.077	301.568	0.022	-0.041
-529.062	-173.873	-0.171	-0.005
-528.048	-200.000	0.002	0.159
-527.033	236.635	0.042	-0.070
-526.018	22.510	0.300	-0.248
-525.004	-23.630	0.147	-0.089
-523.989	-200.000	-0.017	-0.121
-522.975	-2.031	-0.058	-0.041
-521.960	-108.950	-0.243	-0.052
-520.945	800.000	0.039	-0.138
-519.931	-44.190	-0.201	0.102
-518.916	-132.727	0.057	-0.007
-517.902	-71.413	0.232	0.088
-516.887	26.607	-0.200	0.169
-515.872	-96.090	0.231	0.062
-514.858	-200.000	0.008	0.217
-513.843	55.811	0.424	0.416
-512.829	-129.746	0.358	0.050
-511.814	-119.143	0.207	0.037
-510.799	401.979	0.102	-0.217
-509.785	-115.105	-0.257	-0.049
-508.770	-116.222	0.088	-0.017
-507.756	-200.000	0.059	-0.299
-506.741	87.214	0.149	-0.166
-505.726	154.731	-0.151	0.210
-504.712	5.794	0.367	-0.275
-503.697	432.240	-0.115	-0.253
-502.683	-54.417	-0.097	-0.045
-501.668	57.400	-0.113	-0.111
-500.653	-200.000	0.062	0.291
-499.639	-28.917	0.227	0.132
-498.624	-101.114	0.269	0.066
-497.610	-200.000	-0.022	-0.165
-496.595	800.000	0.051	0.174
-495.581	-132.259	0.255	-0.033
-494.566	-29.899	0.182	-0.105
-493.551	-200.000	-0.021	-0.266
-492.537	40.355	-0.082	0.075
-491.522	122.141	-0.177	-0.223
-490.508	-200.000	0.012	0.070
-489.493	-200.000	0.014	-0.117
-488.478	493.849	0.036	0.084
-487.464	-200.000	0.031	-0.145
-486.449	104.858	0.016	0.020
-485.435	-107.567	0.347	-0.077
-484.420	-60.483	0.403	0.173
-483.405	-58.948	0.188	0.082
-482.391	225.020	-0.150	0.246
-481.376	11.008	0.020	-0.015
-480.362	800.000	0.019	-0.059
-479.347	-48.104	0.288	-0.141
-478.332	-133.608	-0.263	-0.033
-477.318	-32.262	0.365	0.206
-476.303	-105.982	0.347	0.079
-475.289	-47.061	-0.389	-0.192
-474.274	800.000	-0.094	-0.415
-473.259	-11.950	0.105	0.070
-472.245	-200.000	0.001	0.060
-471.230	-200.000	-0.004	-0.195
-470.216	-144.786	-0.134	-0.012
-469.201	264.438	0.050	0.088
-468.186	6.332	-0.256	0.192
-467.172	-200.000	-0.010	-0.353
-466.157	-55.762	0.430	-0.194
-465.143	-118.765	0.156	0.028
-464.128	-200.000	0.005	0.192
-463.113	101.611	0.065	0.077
-462.099	180.097	0.079	0.117
-461.084	-152.988	0.379	0.027
-460.070	70.509	-0.142	0.149
-459.055	-89.961	-0.132	-0.039
-458.040	24.127	-0.256	-0.213
-457.026	-109.476	-0.318	0.068
-456.011	-71.224	-0.443	0.168
-454.997	-143.035	-0.108	0.011
-453.982	79.474	0.153	-0.166
-452.968	-28.976	-0.255	0.148
-451.953	-95.973	0.045	-0.012
-450.938	-83.394	-0.114	0.037
-449.924	109.149	-0.103	0.124
-448.909	-169.672	-0.365	-0.013
-447.895	105.602	-0.143	-0.171
-446.880	-15.544	-0.012	-0.008
-445.865	176.662	-0.031	0.046
-444.851	333.581	-0.020	-0.039
-443.836	45.374	-0.171	-0.159
-442.822	-161.630	0.250	-0.013
-441.807	120.131	-0.113	0.141
-440.792	90.407	0.201	-0.226
-439.778	-17.196	0.152	0.096
-438.763	-4.792	-0.168	-0.117
-437.749	-185.663	-0.376	0.006
-436.734	94.928	0.252	-0.289
-435.719	-63.196	-0.270	-0.112
-434.705	51.273	-0.168	0.161
-433.690	448.140	-0.086	-0.191
-432.676	412.147	-0.190	-0.407
-431.661	800.000	-0.072	0.254
-430.646	-161.440	-0.302	0.016
-429.632	21.409	-0.137	-0.112
-428.617	-23.565	0.257	-0.156
-427.603	-82.207	0.049	-0.016
-426.588	-18.434	-0.170	0.107
-425.573	-88.842	-0.101	-0.030
-424.559	-200.000	-0.007	0.214
-423.544	-13.977	-0.053	-0.035
-422.530	-159.109	-0.346	0.020
-421.515	-122.346	0.251	0.041
-420.500	-121.818	0.207	-0.034
-419.486	-106.006	-0.202	-0.046
-418.471	-29.926	-0.167	0.096
-417.457	47.320	-0.017	0.016
-416.442	436.476	0.184	0.403
-415.428	279.915	0.060	0.108
-414.413	-200.000	0.023	0.316
-413.398	800.000	-0.037	0.111
-412.384	-200.000	0.028	-0.171
-411.369	800.000	-0.079	-0.250
-410.355	434.389	0.079	0.173
-409.340	40.861	-0.114	-0.104
-408.325	-51.799	0.435	0.204
-407.311	800.000	-0.044	-0.191
-406.296	438.241	-0.107	0.236
-405.282	137.661	0.151	0.200
-404.267	-200.000	-0.027	0.165
-403.252	283.885	0.049	-0.088
-402.238	8.810	-0.213	-0.162
-401.223	-50.061	0.204	0.097
-400.209	-200.000	0.014	-0.180
-399.194	-51.917	-0.191	-0.089
-398.179	456.530	0.126	0.281
-397.165	126.440	-0.193	0.246
-396.150	-178.765	-0.045	0.001
-395.136	-200.000	0.051	-0.278
-394.121	235.162	0.055	-0.091
-393.106	31.455	0.142	0.123
-392.092	800.000	0.103	0.314
-391.077	653.230	0.212	0.547
-390.063	81.558	0.288	0.313
-389.048	183.469	-0.124	0.184
-388.033	800.000	-0.062	0.193
-387.019	-139.054	-0.297	0.032
-386.004	20.538	0.132	-0.107
-384.990	800.000	0.027	0.109
-383.975	-200.000	-0.016	0.121
-382.960	576.529	0.072	0.176
-381.946	-200.000	0.001	0.066
-380.931	16.847	0.039	-0.031
-379.917	-200.000	-0.016	0.095
-378.902	-119.029	0.049	0.009
-377.888	78.569	0.110	-0.118
-376.873	-41.834	-0.445	-0.230
-375.858	800.000	0.037	0.109
-374.844	200.131	-0.121	-0.187
-373.829	-36.051	-0.167	-0.091
-372.815	800.000	-0.071	-0.217
-371.800	-200.000	-0.001	0.236
-370.785	-14.539	-0.219	-0.141
-369.771	499.985	0.052	-0.120
-368.756	69.998	0.143	0.148
-367.742	12.907	-0.234	-0.182
-366.727	-33.663	-0.186	-0.103
-365.712	521.270	0.139	-0.328
-364.698	800.000	0.024	-0.083
-363.683	274.399	-0.132	-0.235
-362.669	4.040	-0.185	-0.136
-361.654	190.131	-0.237	0.358
-360.639	800.000	0.088	-0.381
-359.625	-200.000	-0.020	-0.183
-358.610	216.094	-0.088	0.141
-357.596	141.807	-0.092	-0.122
-356.581	800.000	-0.041	0.132
-355.566	-200.000	-0.019	0.289
-354.552	207.033	0.065	0.101
-353.537	697.037	0.079	0.208
-352.523	-71.860	0.244	-0.091
-351.508	-117.340	-0.205	-0.037
-350.493	-76.291	-0.078	-0.028
-349.479	-200.000	-0.025	-0.389
-348.464	-200.000	-0.011	-0.094
-347.450	-41.820	-0.238	0.122
-346.435	681.742	0.110	0.289
-345.420	-200.000	0.016	0.137
-344.406	240.074	-0.137	0.230
-343.391	279.611	-0.237	0.425
-342.377	-200.000	-0.005	0.306
-341.362	492.621	-0.048	0.110
-340.348	75.758	0.107	0.113
-339.333	43.705	0.160	0.147
-338.318	-104.287	0.177	0.041
-337.304	800.000	0.029	0.100
-336.289	112.380	0.162	-0.196
-335.275	-109.386	0.120	0.025
-334.260	-152.474	0.038	0.003
-333.245	-97.846	-0.075	0.019
-332.231	151.660	0.150	0.205
-331.216	-200.000	-0.002	0.285
-330.202	-78.027	-0.176	-0.061
-329.187	183.207	0.202	-0.300
-328.172	370.366	0.034	0.070
-327.158	-86.379	-0.160	0.049
-326.143	-39.463	-0.052	0.027
-325.129	800.000	0.044	0.127
-324.114	-136.762	0.147	0.017
-323.099	43.276	-0.281	0.257
-322.085	65.110	0.128	0.129
-321.070	-200.000	-0.007	-0.043
-320.056	-178.347	-0.389	-0.009
-319.041	5.086	0.288	0.213
-318.026	-28.359	-0.299	-0.173
-317.012	-200.000	0.016	-0.083
-315.997	-125.301	0.136	-0.021
-314.983	-67.582	-0.110	-0.043
-313.968	800.000	0.032	-0.133
-312.953	-173.950	0.090	0.003
-311.939	369.691	-0.164	-0.334
-310.924	-200.000	-0.069	-0.426
-309.910	-167.794	-0.305	0.012
-308.895	-200.000	0.003	-0.128
-307.880	-141.731	0.144	0.014
-306.866	49.883	-0.057	-0.054
-305.851	307.461	0.045	-0.083
-304.837	-200.000	-0.009	-0.153
-303.822	-30.437	0.036	0.021
-302.807	-59.366	-0.176	-0.076
-301.793	800.000	0.032	-0.135
-300.778	-100.857	0.079	0.019
-299.764	-98.833	-0.266	-0.068
-298.749	-200.000	-0.013	0.156
-297.735	-163.083	0.130	-0.006
-296.720	800.000	0.073	-0.206
-295.705	-89.646	-0.083	-0.025
-294.691	97.294	-0.153	0.177
-293.676	620.430	0.059	0.148
-292.662	-200.000	0.001	-0.121
-291.647	-42.760	-0.436	-0.222
-290.632	20.283	0.177	-0.143
-289.618	-200.000	-0.004	0.219
-288.603	800.000	-0.098	0.389
-287.589	-200.000	0.008	0.231
-286.574	325.441	0.070	0.134
-285.559	41.728	-0.252	0.229
-284.545	137.630	-0.106	0.139
-283.530	136.191	0.274	0.358
-282.516	-17.958	0.223	-0.140
-281.501	-200.000	-0.009	-0.129
-280.486	100.069	0.050	-0.058
-279.472	19.472	-0.143	-0.115
-278.457	800.000	0.035	0.099
-277.443	-200.000	-0.003	0.026
-276.428	-200.000	0.003	0.319
-275.413	-200.000	0.028	-0.202
-274.399	243.849	-0.122	0.205
-273.384	116.509	-0.288	0.354
-272.370	-200.000	0.083	0.405
-271.355	22.609	0.118	-0.097
-270.340	168.239	0.070	-0.099
-269.326	800.000	-0.038	-0.161
-268.311	155.253	-0.347	-0.478
-267.297	800.000	0.039	0.115
-266.282	-200.000	-0.043	0.533
-265.267	-132.345	0.311	0.040
-264.253	-42.386	0.107	0.055
-263.238	-81.213	0.187	-0.062
-262.224	74.520	0.179	0.189
-261.209	-165.972	-0.147	0.006
-260.195	-72.058	0.272	0.101
-259.180	364.111	0.086	0.174
-258.165	-67.685	-0.077	0.030
-257.151	100.186	0.057	0.066
-256.136	-77.776	0.167	-0.058
-255.122	80.488	0.071	0.076
-254.107	-200.000	-0.056	-0.262
-253.092	-41.334	0.309	-0.159
-252.078	-187.637	-0.325	-0.004
-251.063	-200.000	-0.008	-0.090
-250.049	-8.620	-0.152	0.102
-249.034	-200.000	-0.027	0.121
-248.019	480.575	-0.105	-0.238
-247.005	-97.213	0.161	0.042
-245.990	47.781	0.122	-0.114
-244.976	-71.341	-0.077	0.029
-243.961	52.519	-0.219	-0.209
-242.946	-49.293	-0.326	-0.156
-241.932	-200.000	-0.010	-0.216
-240.917	-200.000	-0.000	-0.123
-239.903	-45.834	0.190	-0.094
-238.888	202.169	-0.132	0.203
-237.873	51.347	0.178	0.169
-236.859	84.053	0.244	0.266
-235.844	800.000	0.221	0.712
-234.830	24.960	0.030	-0.025
-233.815	38.495	0.196	-0.175
-232.800	-149.493	-0.429	-0.034
-231.786	214.707	0.131	0.207
-230.771	14.989	0.262	-0.205
-229.757	-64.338	0.092	0.037
-228.742	61.590	0.145	-0.144
-227.727	800.000	-0.059	-0.182
-226.713	-103.573	0.180	-0.042
-225.698	31.489	-0.214	-0.184
-224.684	-80.645	0.075	-0.025
-223.669	273.305	-0.086	0.151
-222.655	-21.378	0.076	-0.046
-221.640	-46.707	0.115	-0.056
-220.625	586.189	0.129	-0.317
-219.611	-200.000	-0.025	0.128
-218.596	67.435	0.221	0.225
-217.582	-123.888	0.255	0.040
-216.567	-10.506	0.089	-0.059
-215.552	-200.000	-0.019	0.115
-214.538	778.055	0.046	0.126
-213.523	-93.445	-0.097	-0.027
-212.509	-136.284	0.115	0.013
-211.494	-200.000	-0.080	-0.453
-210.479	-46.084	-0.209	0.103
-209.465	-116.111	0.067	0.012
-208.450	52.208	0.316	0.301
-207.436	-97.660	-0.285	-0.074
-206.421	634.704	0.085	-0.215
-205.406	-78.591	0.130	0.044
-204.392	-50.665	0.109	-0.051
-203.377	388.755	0.199	0.411
-202.363	-200.000	-0.011	-0.155
-201.348	92.939	-0.163	0.184
-200.333	297.043	0.092	-0.168
-199.319	-64.369	0.096	-0.039
-198.304	-200.000	0.010	-0.068
-197.290	144.776	0.225	-0.301
-196.275	-113.563	0.334	-0.065
-195.260	-200.000	-0.017	-0.083
-194.246	800.000	0.096	-0.400
-193.231	87.255	-0.111	-0.123
-192.217	361.926	-0.097	-0.194
-191.202	-78.588	0.333	0.114
-190.187	-39.615	-0.135	-0.070
-189.173	-72.070	0.079	-0.029
-188.158	-125.214	0.164	0.025
-187.144	153.339	0.203	0.277
-186.129	-200.000	0.003	-0.037
-185.114	-148.932	0.182	-0.015
-184.100	243.651	-0.067	-0.113
-183.085	168.985	-0.209	0.297
-182.071	-32.916	-0.359	0.199
-181.056	398.821	-0.042	-0.087
-180.042	-200.000	0.216	-0.000
-179.027	-200.000	0.082	0.412
-178.012	-200.000	0.045	0.288
-176.998	20.478	0.036	0.029
-175.983	238.422	0.033	-0.055
-174.969	-200.000	-0.028	0.273
-173.954	-55.798	0.293	0.131
-172.939	-122.771	0.093	-0.015
-171.925	102.733	0.041	-0.048
-170.910	-4.819	-0.312	-0.215
-169.896	800.000	0.013	0.043
-168.881	39.459	-0.296	0.264
-167.866	-123.771	0.209	-0.033
-166.852	-5.901	0.230	-0.157
-165.837	12.723	0.218	0.168
-164.823	51.987	-0.145	-0.138
-163.808	-169.257	-0.493	-0.018
-162.793	-88.082	0.171	0.051
-161.779	-131.907	0.279	0.036
-160.764	-200.000	-0.001	-0.237
-159.750	76.874	-0.128	0.136
-158.735	-54.973	0.178	-0.080
-157.720	-200.000	-0.024	-0.121
-156.706	800.000	0.041	-0.137
-155.691	-35.038	-0.211	0.115
-154.677	47.506	-0.309	0.288
-153.662	-55.034	-0.227	-0.102
-152.647	-200.000	0.058	-0.293
-151.633	44.578	0.202	0.185
-150.618	-11.158	-0.115	0.075
-149.604	800.000	-0.112	-0.358
-148.589	-200.000	0.055	0.382
-147.574	-29.633	-0.182	-0.104
-146.560	83.446	0.120	-0.130
-145.545	-46.227	-0.167	0.082
-144.531	254.294	0.217	0.371
-143.516	133.090	0.189	0.243
-142.502	77.286	0.049	0.052
-141.487	-200.000	0.005	-0.125
-140.472	77.450	0.095	0.101
-139.458	18.673	0.133	-0.106
-138.443	400.096	0.174	-0.363
-137.429	-104.475	0.116	-0.027
-136.414	-200.000	-0.003	0.069
-135.399	475.452	-0.192	-0.432
-134.385	-12.403	0.146	-0.095
-133.370	800.000	-0.027	-0.079
-132.356	-190.886	-0.283	0.003
-131.341	-93.955	-0.064	-0.018
-130.326	26.768	-0.076	-0.063
-129.312	146.295	0.159	-0.212
-128.297	60.159	-0.195	-0.192
-127.283	136.660	-0.197	0.256
-126.268	636.092	-0.025	0.063
-125.253	800.000	-0.059	-0.246
-124.239	-73.296	-0.118	0.043
-123.224	146.955	0.085	-0.114
-122.210	54.817	0.031	-0.030
-121.195	-150.708	0.148	0.011
