DTS Sentinel unit serial number:	SN413079Multiplexer serial number:	ORYXHardware model number:	OX4-SRSoftware version number:	ORYX F/W v4.00 Oryx Data Collector v3.7.2.0data status	okinstallation	princeton_trtdifferential loss correction	single-endedforward channel	channel 4reverse channel	N/Adate	2019/09/17time	00:33:35forward acquisition time	60.00reverse acquisition time	0.00gamma	496.2192k internal	0.2313k external	0.2313temperature offset calibration	0.9975default loss term (dB/km)	0.3790temperature slope calibration	1.0000multiplexer offset coefficient	1.0000multiplexer slope coefficient	1.0000fibre end	0.00T internal ref (°C)	29.44T ext. ref 1 (°C)	0.10T ext. ref 2 (°C)	23.92length (m)	temperature (°C)	Stokes	anti-Stokes-747.200	-54.287	-0.067	0.031
-746.185	-200.000	-0.066	0.304
-745.171	-14.335	-0.107	-0.070
-744.156	-200.000	-0.001	-0.152
-743.142	-200.000	0.006	0.057
-742.127	-168.263	-0.249	0.010
-741.112	-31.094	-0.227	-0.130
-740.098	-200.000	0.009	0.174
-739.083	485.469	-0.090	-0.208
-738.069	-200.000	0.014	0.260
-737.054	-200.000	0.035	0.300
-736.039	-88.008	-0.225	-0.068
-735.025	-8.879	-0.214	-0.145
-734.010	62.458	-0.088	-0.089
-732.996	-127.606	-0.161	0.024
-731.981	-68.543	-0.155	-0.061
-730.966	201.556	0.131	-0.204
-729.952	-88.664	-0.261	-0.079
-728.937	240.061	0.153	0.258
-727.923	488.428	0.166	0.383
-726.908	67.197	-0.051	0.053
-725.894	-200.000	-0.004	0.032
-724.879	277.102	-0.044	0.078
-723.864	7.280	-0.112	0.085
-722.850	-200.000	0.041	-0.334
-721.835	-121.524	-0.278	0.047
-720.821	-80.160	0.119	-0.041
-719.806	-200.000	-0.064	0.402
-718.791	-72.795	-0.119	0.044
-717.777	-11.551	0.198	-0.132
-716.762	36.978	-0.265	0.238
-715.748	800.000	-0.075	-0.236
-714.733	-200.000	-0.007	0.065
-713.718	429.091	-0.064	0.141
-712.704	-89.831	-0.345	-0.102
-711.689	-32.464	0.043	-0.024
-710.675	800.000	0.086	-0.309
-709.660	800.000	0.150	-0.527
-708.645	-88.468	0.245	-0.074
-707.631	800.000	-0.021	0.076
-706.616	-87.970	-0.274	0.083
-705.602	514.572	-0.091	-0.215
-704.587	142.394	-0.145	-0.195
-703.572	55.828	0.223	0.219
-702.558	-87.735	0.112	0.034
-701.543	-62.692	0.258	0.108
-700.529	-200.000	0.027	0.389
-699.514	-200.000	0.008	0.223
-698.499	-200.000	0.006	0.065
-697.485	800.000	0.020	-0.071
-696.470	-200.000	-0.018	-0.086
-695.456	-200.000	0.025	-0.163
-694.441	-83.677	-0.400	0.129
-693.426	-6.843	-0.153	0.105
-692.412	-54.293	-0.147	0.068
-691.397	-160.403	0.083	-0.004
-690.383	626.976	-0.068	0.173
-689.368	108.908	-0.136	-0.165
-688.354	-121.895	-0.107	0.018
-687.339	56.595	-0.366	0.361
-686.324	165.264	-0.112	0.161
-685.310	684.908	-0.087	0.229
-684.295	559.114	-0.150	-0.366
-683.281	-2.374	-0.074	0.052
-682.266	-68.884	-0.380	-0.148
-681.251	3.119	0.125	0.092
-680.237	-126.449	0.234	-0.035
-679.222	-40.954	-0.105	0.055
-678.208	-151.369	0.136	0.010
-677.193	150.913	0.070	-0.096
-676.178	-200.000	-0.027	-0.242
-675.164	800.000	-0.131	-0.372
-674.149	-200.000	-0.004	0.175
-673.135	-87.334	0.250	-0.077
-672.120	-94.900	-0.425	-0.116
-671.105	-200.000	0.086	-0.517
-670.091	-57.892	0.315	0.139
-669.076	-200.000	0.014	0.101
-668.062	-200.000	0.018	0.083
-667.047	800.000	-0.015	-0.061
-666.032	37.428	-0.047	0.042
-665.018	-38.563	0.150	0.080
-664.003	296.443	-0.054	-0.100
-662.989	100.281	0.073	-0.086
-661.974	-200.000	-0.018	0.126
-660.959	800.000	-0.062	-0.217
-659.945	-33.107	0.085	0.048
-658.930	233.406	0.276	0.459
-657.916	-87.145	-0.285	0.088
-656.901	800.000	0.085	-0.327
-655.886	209.312	-0.152	-0.240
-654.872	-142.470	0.184	-0.018
-653.857	295.119	-0.106	-0.197
-652.843	-73.566	-0.203	-0.075
-651.828	4.109	0.276	0.204
-650.814	465.365	-0.029	-0.065
-649.799	245.741	-0.082	-0.139
-648.784	800.000	0.089	0.327
-647.770	-200.000	-0.006	0.448
-646.755	-74.823	-0.437	-0.159
-645.741	-144.876	0.191	0.018
-644.726	246.237	-0.136	0.231
-643.711	208.923	0.141	0.223
-642.697	-36.189	-0.157	-0.086
-641.682	800.000	-0.013	0.049
-640.668	680.620	0.133	0.351
-639.653	-30.099	0.173	-0.099
-638.638	-87.003	0.026	-0.008
-637.624	-57.325	0.357	-0.159
-636.609	-109.368	-0.413	0.088
-635.595	86.417	0.148	-0.164
-634.580	-57.074	0.170	0.076
-633.565	-200.000	0.013	-0.187
-632.551	27.670	0.310	0.264
-631.536	39.421	0.102	0.092
-630.522	210.975	-0.012	-0.019
-629.507	790.197	0.084	0.232
-628.492	-200.000	-0.025	0.285
-627.478	43.255	0.179	0.165
-626.463	370.268	-0.123	-0.251
-625.449	389.626	-0.080	-0.168
-624.434	103.747	-0.061	0.072
-623.419	291.270	0.109	-0.199
-622.405	800.000	-0.129	-0.415
-621.390	-200.000	-0.046	0.373
-620.376	-86.565	0.229	-0.071
-619.361	13.394	0.088	-0.069
-618.346	38.388	-0.163	-0.146
-617.332	-28.737	0.475	-0.276
-616.317	645.508	-0.023	-0.059
-615.303	-10.647	0.238	-0.159
-614.288	-62.595	0.060	0.025
-613.273	166.755	-0.130	-0.185
-612.259	-107.486	-0.196	-0.043
-611.244	800.000	0.023	-0.077
-610.230	-42.510	-0.186	0.096
-609.215	-200.000	0.071	0.373
-608.201	-100.723	-0.445	0.111
-607.186	17.522	0.258	0.207
-606.171	7.983	0.196	-0.148
-605.157	800.000	-0.057	-0.167
-604.142	-183.231	-0.098	0.002
-603.128	77.021	-0.182	0.195
-602.113	278.324	-0.161	0.289
-601.098	532.508	-0.134	-0.320
-600.084	40.207	0.078	-0.071
-599.069	-22.707	-0.387	-0.236
-598.055	267.161	0.214	-0.378
-597.040	48.038	0.174	0.164
-596.025	114.857	-0.081	0.100
-595.011	226.734	0.074	-0.122
-593.996	83.846	0.238	-0.262
-592.982	-200.000	0.085	-0.409
-591.967	-39.632	0.307	0.162
-590.952	-65.473	-0.100	0.040
-589.938	-44.420	-0.093	-0.047
-588.923	105.570	0.125	0.149
-587.909	367.861	-0.207	0.421
-586.894	678.741	0.081	-0.213
-585.879	38.975	0.216	0.195
-584.865	-92.354	-0.156	-0.044
-583.850	-200.000	-0.009	0.083
-582.836	93.209	-0.286	-0.326
-581.821	-78.323	-0.215	0.074
-580.806	-137.567	0.234	-0.027
-579.792	558.025	-0.125	-0.305
-578.777	-116.048	-0.326	-0.061
-577.763	236.750	-0.170	-0.283
-576.748	-132.352	-0.302	0.039
-575.733	800.000	-0.087	0.281
-574.719	31.073	-0.174	-0.150
-573.704	-200.000	-0.031	-0.323
-572.690	-148.703	-0.154	-0.013
-571.675	152.002	0.021	0.029
-570.661	-200.000	0.025	-0.134
-569.646	-49.213	-0.204	-0.098
-568.631	-200.000	0.021	-0.176
-567.617	123.186	0.078	0.098
-566.602	62.651	0.205	0.207
-565.588	333.656	0.086	-0.167
-564.573	-122.573	-0.162	0.026
-563.558	800.000	-0.032	-0.139
-562.544	-200.000	-0.036	0.202
-561.529	3.170	0.213	-0.156
-560.515	800.000	0.111	-0.360
-559.500	-20.647	0.039	0.024
-558.485	-9.789	-0.092	0.061
-557.471	427.444	0.181	-0.394
-556.456	191.412	0.078	-0.118
-555.442	132.504	-0.243	0.315
-554.427	-74.747	0.350	-0.127
-553.412	708.835	-0.103	-0.275
-552.398	-54.315	0.174	-0.080
-551.383	-121.313	0.175	0.029
-550.369	-200.000	0.013	-0.278
-549.354	-200.000	-0.010	0.162
-548.339	-57.339	-0.212	-0.094
-547.325	65.494	-0.226	-0.230
-546.310	121.386	0.059	-0.074
-545.296	-200.000	0.001	0.035
-544.281	-32.627	0.200	-0.112
-543.266	-123.771	-0.183	-0.029
-542.252	800.000	0.041	-0.139
-541.237	-26.027	-0.304	-0.180
-540.223	-117.242	0.238	0.043
-539.208	177.445	0.030	-0.044
-538.193	-63.359	-0.065	0.027
-537.179	-30.485	0.173	-0.099
-536.164	199.756	0.202	-0.312
-535.150	-159.431	0.149	-0.008
-534.135	-185.048	-0.413	0.007
-533.121	-200.000	-0.038	-0.303
-532.106	-200.000	0.008	-0.107
-531.091	-56.471	-0.288	0.128
-530.077	294.831	-0.217	0.400
-529.062	-78.021	-0.415	0.144
-528.048	330.706	0.061	-0.119
-527.033	311.371	0.122	0.231
-526.018	800.000	0.081	0.273
-525.004	173.442	-0.084	-0.121
-523.989	76.098	0.177	0.189
-522.975	142.693	-0.110	-0.147
-521.960	-59.134	0.395	0.171
-520.945	38.401	0.085	0.076
-519.931	-200.000	-0.042	0.369
-518.916	44.130	-0.078	0.072
-517.902	-0.211	-0.153	-0.110
-516.887	144.920	-0.225	0.302
-515.872	-200.000	-0.017	-0.097
-514.858	272.449	0.126	0.224
-513.843	-70.752	-0.229	0.087
-512.829	24.597	-0.154	-0.128
-511.814	30.953	0.079	-0.068
-510.799	800.000	0.162	0.561
-509.785	28.047	0.258	0.219
-508.770	82.239	0.276	-0.301
-507.756	381.350	0.047	-0.098
-506.741	-64.913	0.436	0.177
-505.726	220.308	-0.120	0.193
-504.712	-200.000	-0.312	-0.000
-503.697	419.794	0.091	0.196
-502.683	154.234	-0.123	-0.170
-501.668	-63.172	-0.110	0.045
-500.653	800.000	0.036	-0.159
-499.639	800.000	0.032	0.100
-498.624	-134.251	0.261	0.032
-497.610	52.143	0.095	-0.091
-496.595	-200.000	-0.020	-0.272
-495.581	-159.367	0.227	-0.013
-494.566	406.303	0.077	-0.162
-493.551	-87.748	0.287	-0.087
-492.537	-200.000	-0.021	-0.121
-491.522	800.000	0.027	0.114
-490.508	-60.746	0.350	0.149
-489.493	800.000	-0.111	0.394
-488.478	477.750	-0.097	0.219
-487.464	39.507	-0.303	0.272
-486.449	-200.000	-0.036	0.385
-485.435	-57.388	-0.405	-0.179
-484.420	268.805	0.109	0.192
-483.405	-200.000	-0.007	-0.160
-482.391	257.767	0.189	-0.326
-481.376	-84.897	0.140	0.044
-480.362	-38.010	0.140	-0.075
-479.347	-200.000	0.001	-0.142
-478.332	-146.022	-0.362	-0.032
-477.318	7.013	-0.397	-0.297
-476.303	393.874	0.030	0.063
-475.289	-200.000	-0.006	0.181
-474.274	-33.381	0.220	-0.122
-473.259	5.072	-0.169	0.125
-472.245	53.048	0.238	0.229
-471.230	113.435	-0.179	-0.218
-470.216	267.915	-0.049	-0.086
-469.201	800.000	-0.139	0.396
-468.186	-200.000	0.072	-0.329
-467.172	79.086	-0.256	-0.275
-466.157	7.433	-0.161	0.121
-465.143	-200.000	0.074	0.365
-464.128	134.133	-0.048	-0.062
-463.113	-79.409	-0.061	0.021
-462.099	-200.000	0.058	-0.257
-461.084	-21.831	-0.299	-0.183
-460.070	-36.555	0.180	0.097
-459.055	128.599	0.196	0.251
-458.040	139.623	-0.268	-0.353
-457.026	426.731	0.071	-0.154
-456.011	-123.426	0.111	0.018
-454.997	354.481	-0.042	-0.084
-453.982	-174.986	0.290	0.008
-452.968	29.962	-0.109	0.093
-451.953	-54.240	-0.255	-0.116
-450.938	-62.732	-0.281	0.117
-449.924	800.000	-0.023	-0.064
-448.909	-109.912	-0.288	-0.061
-447.895	-200.000	-0.054	0.273
-446.880	-200.000	-0.007	0.344
-445.865	47.802	0.243	-0.227
-444.851	-55.150	0.152	0.069
-443.836	-200.000	-0.192	-0.000
-442.822	-49.464	0.225	-0.107
-441.807	-100.288	0.173	0.043
-440.792	-200.000	-0.041	-0.235
-439.778	490.017	-0.057	0.131
-438.763	406.375	-0.203	0.429
-437.749	233.146	0.039	-0.065
-436.734	-200.000	0.084	-0.611
-435.719	232.354	0.062	-0.102
-434.705	185.195	-0.272	0.405
-433.690	-24.895	0.196	0.116
-432.676	800.000	0.107	-0.310
-431.661	-33.327	0.119	-0.066
-430.646	-32.713	-0.389	0.217
-429.632	-200.000	-0.012	0.185
-428.617	154.365	0.089	-0.123
-427.603	-97.603	0.187	0.048
-426.588	-200.000	-0.019	0.150
-425.573	645.379	-0.063	0.161
-424.559	-84.033	-0.301	0.096
-423.544	69.581	-0.068	-0.070
-422.530	303.871	0.048	0.089
-421.515	26.582	-0.202	-0.169
-420.500	-166.795	-0.122	0.005
-419.486	800.000	0.093	-0.336
-418.471	298.395	0.146	-0.269
-417.457	-14.161	0.452	-0.292
-416.442	143.397	0.280	0.373
-415.428	-176.505	-0.151	-0.004
-414.413	-14.382	-0.063	0.041
-413.398	-94.883	0.241	0.065
-412.384	43.821	0.158	0.145
-411.369	36.402	-0.248	-0.219
-410.355	739.263	0.067	0.180
-409.340	-20.154	0.201	0.124
-408.325	-2.738	0.141	-0.099
-407.311	233.388	0.147	0.242
-406.296	800.000	0.058	0.214
-405.282	776.891	-0.106	0.289
-404.267	209.610	-0.172	0.269
-403.252	-29.197	-0.208	-0.119
-402.238	35.572	0.127	-0.111
-401.223	-128.208	0.321	-0.046
-400.209	800.000	-0.070	-0.260
-399.194	-12.571	-0.218	0.142
-398.179	115.996	0.238	-0.291
-397.165	-33.265	-0.140	-0.077
-396.150	-200.000	-0.035	0.197
-395.136	138.129	-0.060	0.079
-394.121	169.877	-0.117	0.168
-393.106	-200.000	-0.032	-0.299
-392.092	-109.206	-0.220	0.047
-391.077	-200.000	-0.015	0.206
-390.063	-193.127	-0.300	0.003
-389.048	-200.000	-0.011	0.058
-388.033	11.014	-0.097	-0.074
-387.019	-200.000	-0.038	-0.183
-386.004	800.000	0.101	-0.339
-384.990	203.964	0.236	0.365
-383.975	-200.000	-0.016	0.093
-382.960	29.903	0.098	0.083
-381.946	109.221	-0.218	-0.261
-380.931	161.689	0.175	-0.245
-379.917	-15.829	-0.269	-0.171
-378.902	71.571	-0.258	0.268
-377.888	93.277	0.178	-0.201
-376.873	-72.671	0.258	0.095
-375.858	-141.526	-0.094	0.009
-374.844	-116.226	0.075	-0.014
-373.829	-200.000	-0.001	-0.006
-372.815	92.317	-0.186	0.210
-371.800	-104.001	0.169	0.039
-370.785	-200.000	0.035	0.296
-369.771	800.000	-0.050	0.154
-368.756	653.176	0.062	-0.159
-367.742	-1.149	0.177	0.125
-366.727	800.000	-0.034	0.114
-365.712	-106.544	0.259	-0.058
-364.698	2.421	-0.235	-0.170
-363.683	-4.871	0.203	-0.140
-362.669	72.325	-0.117	-0.122
-361.654	-106.971	-0.381	-0.084
-360.639	-37.165	0.308	-0.164
-359.625	-53.144	0.206	-0.095
-358.610	33.253	-0.302	0.262
-357.596	-3.604	-0.263	-0.183
-356.581	416.645	-0.045	0.096
-355.566	9.291	-0.254	-0.192
-354.552	-143.837	-0.506	0.048
-353.537	-82.056	0.285	0.093
-352.523	186.011	-0.085	0.126
-351.508	-134.615	0.150	-0.018
-350.493	-78.382	-0.170	0.058
-349.479	263.491	0.107	-0.185
-348.464	-118.651	-0.109	0.019
-347.450	42.425	0.027	0.024
-346.435	72.231	0.345	-0.359
-345.420	434.831	0.063	-0.136
-344.406	-22.455	-0.222	-0.134
-343.391	-200.000	-0.004	0.157
-342.377	400.681	-0.023	-0.048
-341.362	-21.577	-0.218	-0.133
-340.348	800.000	0.049	0.210
-339.333	-172.040	-0.275	0.009
-338.318	-51.527	-0.123	0.058
-337.304	-48.481	-0.275	0.132
-336.289	-63.747	-0.145	-0.059
-335.275	-200.000	-0.032	-0.190
-334.260	-200.000	-0.027	-0.265
-333.245	307.154	0.138	0.257
-332.231	-60.431	-0.244	-0.104
-331.216	-175.503	0.279	0.008
-330.202	-22.512	-0.180	0.109
-329.187	-151.910	0.049	0.004
-328.172	171.090	-0.094	-0.135
-327.158	-65.386	0.141	0.057
-326.143	25.040	-0.202	0.167
-325.129	-108.299	-0.398	0.086
-324.114	426.358	0.085	-0.182
-323.099	143.309	-0.125	-0.166
-322.085	-73.188	0.144	-0.053
-321.070	-100.152	-0.176	-0.044
-320.056	101.289	0.192	-0.223
-319.041	-126.956	0.222	0.033
-318.026	800.000	0.105	-0.361
-317.012	-79.186	0.182	-0.061
-315.997	-110.733	-0.387	0.080
-314.983	-53.988	0.200	0.091
-313.968	-171.004	-0.305	0.010
-312.953	-116.339	0.280	0.052
-311.939	7.554	0.093	-0.070
-310.924	61.663	0.129	0.128
-309.910	-200.000	0.013	-0.070
-308.895	-138.158	0.255	-0.028
-307.880	394.528	0.034	-0.071
-306.866	-65.589	0.227	0.091
-305.851	-4.708	-0.243	-0.167
-304.837	55.374	0.048	-0.046
-303.822	-189.013	0.103	-0.001
-302.807	142.965	-0.120	0.159
-301.793	-200.000	0.075	0.449
-300.778	38.514	0.350	0.311
-299.764	233.008	-0.102	0.167
-298.749	-200.000	0.008	0.145
-297.735	88.732	0.225	0.250
-296.720	-41.467	0.148	-0.076
-295.705	256.797	0.100	0.171
-294.691	-90.551	-0.151	0.044
-293.676	-82.407	0.078	0.025
-292.662	-200.000	-0.089	-0.522
-291.647	800.000	-0.049	-0.141
-290.632	-29.168	-0.188	0.107
-289.618	800.000	0.042	0.151
-288.603	222.102	-0.007	0.011
-287.589	43.217	0.210	-0.191
-286.574	114.368	-0.127	0.154
-285.559	-169.455	-0.056	0.002
-284.545	487.881	0.076	-0.173
-283.530	643.455	-0.103	0.261
-282.516	-82.879	-0.179	-0.057
-281.501	131.938	0.073	0.093
-280.486	-135.673	0.235	-0.028
-279.472	-132.839	-0.098	0.012
-278.457	172.044	0.364	0.521
-277.443	31.086	0.131	0.112
-276.428	246.604	0.029	0.049
-275.413	-129.563	0.248	0.034
-274.399	255.037	-0.082	-0.139
-273.384	103.712	-0.251	0.294
-272.370	-138.279	-0.121	-0.013
-271.355	63.932	0.184	-0.184
-270.340	186.777	-0.046	-0.068
-269.326	199.808	0.032	-0.049
-268.311	-200.000	-0.050	-0.239
-267.297	-127.732	-0.169	-0.024
-266.282	19.670	-0.112	-0.090
-265.267	800.000	0.084	0.319
-264.253	-200.000	0.051	0.375
-263.238	-83.365	0.354	-0.113
-262.224	-101.422	-0.091	-0.022
-261.209	737.865	-0.067	0.178
-260.195	-54.540	0.128	-0.058
-259.180	55.726	-0.275	0.265
-258.165	-112.155	0.177	-0.035
-257.151	-70.433	-0.164	0.062
-256.136	9.621	0.202	0.152
-255.122	-181.616	-0.275	0.005
-254.107	-76.906	-0.252	-0.088
-253.092	9.683	0.355	-0.268
-252.078	-200.000	-0.016	-0.153
-251.063	10.827	-0.182	0.138
-250.049	290.928	0.115	-0.209
-249.034	1.351	0.405	-0.290
-248.019	-200.000	0.017	-0.386
-247.005	-68.175	0.125	0.048
-245.990	-177.293	0.139	0.003
-244.976	-200.000	0.008	0.279
-243.961	112.463	-0.130	0.157
-242.946	453.240	-0.105	0.231
-241.932	48.252	0.135	-0.126
-240.917	658.450	0.167	0.428
-239.903	800.000	0.068	-0.190
-238.888	88.733	0.145	-0.160
-237.873	172.354	0.118	-0.169
-236.859	-137.789	-0.243	-0.027
-235.844	800.000	-0.037	0.117
-234.830	-61.708	0.351	0.146
-233.815	-65.166	-0.368	0.147
-232.800	-162.659	0.279	0.014
-231.786	-171.763	0.350	-0.011
-230.771	171.143	0.215	0.307
-229.757	-200.000	-0.034	-0.368
-228.742	-200.000	0.023	-0.223
-227.727	-157.291	-0.163	-0.010
-226.713	106.298	0.128	0.151
-225.698	-11.513	0.165	-0.108
-224.684	-52.903	0.305	-0.140
-223.669	29.665	-0.151	-0.127
-222.655	-156.470	-0.157	0.010
-221.640	-10.771	-0.310	-0.204
-220.625	422.589	0.079	-0.168
-219.611	-59.897	0.272	-0.116
-218.596	-64.188	0.054	0.022
-217.582	-37.330	-0.208	-0.111
-216.567	-63.687	-0.287	0.117
-215.552	55.919	-0.149	-0.143
-214.538	-8.177	0.414	0.277
-213.523	-70.456	0.076	0.029
-212.509	79.772	0.181	0.193
-211.494	130.076	-0.206	0.262
-210.479	-160.694	0.091	-0.005
-209.465	186.434	-0.238	0.351
-208.450	-7.155	0.236	-0.159
-207.436	-13.097	0.045	0.029
-206.421	397.663	-0.201	-0.417
-205.406	-139.438	0.337	0.036
-204.392	-32.159	0.019	0.011
-203.377	-200.000	0.007	-0.229
-202.363	-28.792	0.267	-0.152
-201.348	-79.146	0.247	-0.083
-200.333	-155.385	-0.300	-0.019
-199.319	17.161	-0.152	-0.120
-198.304	242.671	-0.045	0.074
-197.290	224.404	-0.203	0.326
-196.275	321.601	0.094	0.177
-195.260	0.821	-0.249	-0.177
-194.246	-180.568	0.295	0.006
-193.231	529.805	-0.137	0.321
-192.217	800.000	0.033	-0.109
-191.202	-23.093	0.286	0.171
-190.187	133.932	0.128	-0.165
-189.173	-71.963	-0.157	0.058
-188.158	-200.000	-0.026	0.156
-187.144	37.954	0.172	-0.152
-186.129	321.630	-0.025	0.047
-185.114	441.591	-0.151	0.329
-184.100	-141.521	-0.265	0.027
-183.085	29.115	-0.279	-0.235
-182.071	-35.024	-0.204	0.110
-181.056	-158.847	0.404	-0.023
-180.042	-161.579	0.257	-0.013
-179.027	598.166	-0.069	0.169
-178.012	-200.000	0.012	-0.274
-176.998	800.000	-0.059	0.248
-175.983	-200.000	-0.004	0.050
-174.969	580.221	-0.120	-0.291
-173.954	-200.000	-0.005	0.120
-172.939	800.000	-0.083	0.260
-171.925	34.679	-0.142	0.123
-170.910	-48.742	0.154	0.073
-169.896	301.059	-0.083	0.153
-168.881	-200.000	-0.048	0.287
-167.866	-200.000	-0.026	-0.233
-166.852	527.279	0.060	-0.141
-165.837	-85.750	-0.038	-0.012
-164.823	168.687	0.190	0.268
-163.808	-42.249	-0.087	0.044
-162.793	459.931	0.050	0.111
-161.779	583.043	0.052	-0.127
-160.764	-110.560	-0.147	0.030
-159.750	-200.000	-0.066	-0.291
-158.735	251.879	-0.101	-0.171
-157.720	-200.000	0.117	-0.687
-156.706	67.462	0.373	0.377
-155.691	-200.000	-0.032	0.425
-154.677	-130.279	-0.389	0.052
-153.662	388.755	0.180	-0.370
-152.647	708.646	-0.047	0.124
-151.633	10.039	-0.220	-0.166
-150.618	-34.621	0.261	0.141
-149.604	-40.984	0.294	0.151
-148.589	452.623	0.085	-0.187
-147.574	769.485	-0.115	-0.311
-146.560	-43.247	-0.130	-0.065
-145.545	-200.000	-0.009	0.153
-144.531	2.616	-0.178	-0.127
-143.516	-73.398	-0.252	-0.091
-142.502	-60.721	0.359	0.151
-141.487	189.086	0.180	-0.266
-140.472	462.317	-0.060	0.132
-139.458	125.654	0.063	0.079
-138.443	465.615	0.092	0.205
-137.429	563.200	-0.078	-0.187
-136.414	132.734	0.098	0.125
-135.399	260.222	-0.038	0.064
-134.385	301.928	-0.040	0.072
-133.370	17.947	0.210	-0.166
-132.356	-200.000	-0.385	0.001
-131.341	800.000	0.037	0.137
-130.326	-200.000	0.001	-0.207
-129.312	-51.811	0.161	-0.074
-128.297	9.142	0.296	-0.221
-127.283	-92.231	0.234	0.065
-126.268	-81.665	0.215	-0.070
-125.253	409.332	0.093	0.195
-124.239	326.694	0.092	-0.174
-123.224	90.225	-0.279	0.308
-122.210	-114.712	-0.213	-0.040
-121.195	-93.986	0.034	-0.009
