DTS Sentinel unit serial number:	SN413079Multiplexer serial number:	ORYXHardware model number:	OX4-SRSoftware version number:	ORYX F/W v4.00 Oryx Data Collector v3.7.2.0data status	okinstallation	princeton_trtdifferential loss correction	single-endedforward channel	channel 4reverse channel	N/Adate	2019/09/18time	12:01:34forward acquisition time	60.00reverse acquisition time	0.00gamma	496.2192k internal	0.2308k external	0.2308temperature offset calibration	0.9990default loss term (dB/km)	0.3790temperature slope calibration	1.0000multiplexer offset coefficient	1.0000multiplexer slope coefficient	1.0000fibre end	0.00T internal ref (°C)	31.56T ext. ref 1 (°C)	0.49T ext. ref 2 (°C)	27.60length (m)	temperature (°C)	Stokes	anti-Stokes-747.200	-47.638	0.077	-0.038
-746.185	-17.139	0.048	-0.031
-745.171	-200.000	-0.042	0.287
-744.156	27.391	-0.093	-0.080
-743.142	-200.000	0.023	0.313
-742.127	59.083	-0.326	0.326
-741.112	300.352	-0.115	0.216
-740.098	-200.000	0.032	0.183
-739.083	221.838	0.105	0.171
-738.069	-51.549	0.292	0.139
-737.054	-73.254	-0.360	0.134
-736.039	-200.000	-0.013	0.221
-735.025	-115.768	0.139	0.026
-734.010	477.242	0.226	-0.521
-732.996	-144.585	-0.365	-0.034
-731.981	-17.071	0.185	0.119
-730.966	-200.000	-0.104	-0.465
-729.952	19.613	0.095	-0.077
-728.937	-200.000	-0.063	-0.416
-727.923	205.469	0.090	-0.142
-726.908	-35.827	0.148	-0.082
-725.894	379.949	-0.071	-0.148
-724.879	267.404	0.210	-0.373
-723.864	221.965	-0.147	-0.241
-722.850	-200.000	-0.023	0.132
-721.835	-123.178	0.090	-0.015
-720.821	-163.575	-0.278	0.013
-719.806	-200.000	-0.009	0.129
-718.791	11.523	-0.300	-0.234
-717.777	41.655	0.277	0.255
-716.762	116.978	-0.146	0.182
-715.748	-136.176	-0.200	0.024
-714.733	800.000	0.094	-0.348
-713.718	290.520	-0.122	0.225
-712.704	125.219	-0.072	-0.092
-711.689	-101.294	-0.462	-0.115
-710.675	800.000	-0.031	0.096
-709.660	-40.394	0.145	-0.076
-708.645	85.416	-0.213	0.238
-707.631	76.330	-0.060	-0.064
-706.616	800.000	0.076	0.233
-705.602	-75.103	-0.096	0.035
-704.587	-158.166	0.297	0.018
-703.572	55.904	-0.244	-0.240
-702.558	-78.278	-0.211	0.074
-701.543	-79.901	0.225	-0.077
-700.529	115.224	-0.231	0.287
-699.514	104.171	0.082	0.098
-698.499	-113.873	0.306	-0.060
-697.485	619.379	-0.092	0.233
-696.470	63.522	0.072	0.073
-695.456	130.769	-0.130	0.169
-694.441	-101.673	-0.149	-0.037
-693.426	-48.018	0.265	0.130
-692.412	-112.945	0.171	-0.034
-691.397	-118.697	-0.284	-0.051
-690.383	162.396	-0.171	0.243
-689.368	26.987	-0.276	-0.235
-688.354	-122.369	-0.500	-0.083
-687.339	212.934	0.112	-0.180
-686.324	61.757	-0.207	0.209
-685.310	-55.331	0.244	0.111
-684.295	800.000	0.041	0.117
-683.281	432.166	-0.104	-0.228
-682.266	-19.589	-0.267	-0.167
-681.251	-55.259	-0.216	-0.099
-680.237	-89.328	-0.132	0.039
-679.222	63.213	0.133	-0.135
-678.208	-52.289	-0.315	0.148
-677.193	278.879	0.193	0.349
-676.178	800.000	0.062	0.243
-675.164	-143.369	-0.115	-0.011
-674.149	124.020	-0.107	-0.136
-673.135	384.372	0.221	-0.461
-672.120	-200.000	0.052	0.283
-671.105	-50.419	-0.181	-0.087
-670.091	98.907	-0.134	0.157
-669.076	-200.000	-0.035	0.320
-668.062	-149.618	0.095	-0.008
-667.047	122.664	0.157	0.199
-666.032	347.241	-0.171	0.341
-665.018	-26.433	0.215	0.128
-664.003	60.794	-0.128	-0.129
-662.989	-60.205	-0.228	0.098
-661.974	-116.732	0.163	-0.030
-660.959	800.000	-0.045	0.147
-659.945	-4.950	-0.200	-0.139
-658.930	113.712	0.073	0.090
-657.916	145.072	0.043	-0.058
-656.901	285.568	0.129	-0.236
-655.886	562.426	-0.086	0.212
-654.872	800.000	0.029	-0.111
-653.857	-24.118	0.260	-0.158
-652.843	-200.000	0.000	0.242
-651.828	59.050	0.169	-0.169
-650.814	-200.000	0.008	-0.127
-649.799	-40.731	0.128	0.067
-648.784	-200.000	0.031	0.151
-647.770	387.231	-0.083	0.173
-646.755	-150.165	-0.264	0.021
-645.741	-23.346	-0.105	-0.064
-644.726	-200.000	0.005	-0.106
-643.711	800.000	0.086	-0.258
-642.697	-200.000	-0.026	-0.440
-641.682	-8.209	0.035	0.024
-640.668	65.468	-0.146	-0.150
-639.653	302.138	-0.209	0.392
-638.638	-200.000	0.006	0.167
-637.624	800.000	0.038	-0.126
-636.609	193.485	-0.070	-0.107
-635.595	-8.341	-0.109	-0.074
-634.580	16.289	0.143	-0.114
-633.565	-52.741	-0.192	-0.089
-632.551	-132.859	0.195	-0.025
-631.536	426.851	-0.165	-0.360
-630.522	42.524	0.138	-0.127
-629.507	-200.000	0.022	-0.450
-628.492	154.854	0.004	-0.006
-627.478	354.975	-0.084	0.169
-626.463	67.572	-0.140	0.144
-625.449	-200.000	-0.051	0.256
-624.434	-51.367	0.287	0.136
-623.419	16.532	-0.236	0.189
-622.405	-88.428	-0.167	-0.050
-621.390	-0.844	-0.123	0.088
-620.376	800.000	0.036	-0.137
-619.361	91.823	0.122	0.139
-618.346	-200.000	-0.057	0.337
-617.332	-200.000	0.001	0.042
-616.317	234.685	-0.072	0.121
-615.303	-75.715	-0.051	-0.018
-614.288	122.297	-0.140	-0.177
-613.273	111.864	0.102	0.124
-612.259	-134.227	0.098	-0.012
-611.244	86.485	-0.212	-0.236
-610.230	-65.286	0.220	0.090
-609.215	64.574	0.159	0.162
-608.201	-112.383	-0.220	-0.045
-607.186	-114.678	0.138	-0.027
-606.171	-19.603	-0.110	0.069
-605.157	-200.000	-0.009	0.160
-604.142	-21.347	0.224	-0.138
-603.128	181.158	-0.184	-0.273
-602.113	313.944	-0.050	0.094
-601.098	-200.000	0.008	0.043
-600.084	24.947	-0.289	0.242
-599.069	-125.641	-0.062	0.009
-598.055	-69.078	-0.208	-0.081
-597.040	475.343	0.093	-0.212
-596.025	-74.350	-0.280	-0.102
-595.011	-42.121	0.150	-0.077
-593.996	-151.586	-0.189	-0.014
-592.982	68.434	0.128	-0.133
-591.967	114.472	-0.146	0.180
-590.952	-39.826	-0.171	-0.090
-589.938	800.000	-0.029	0.125
-588.923	-87.862	0.028	0.008
-587.909	-30.373	-0.093	-0.053
-586.894	579.291	-0.145	0.359
-585.879	-23.529	0.220	-0.133
-584.865	-62.635	0.027	0.011
-583.850	-52.548	-0.166	-0.077
-582.836	40.168	-0.292	-0.266
-581.821	-126.883	-0.444	-0.066
-580.806	421.334	-0.102	0.220
-579.792	75.778	0.094	0.100
-578.777	497.060	0.072	-0.167
-577.763	248.180	0.189	-0.324
-576.748	-200.000	-0.005	0.173
-575.733	192.478	0.168	0.257
-574.719	626.393	0.037	0.095
-573.704	19.057	-0.190	-0.154
-572.690	21.877	0.201	0.166
-571.675	-74.973	0.311	0.113
-570.661	422.385	-0.107	-0.232
-569.646	82.894	0.030	0.033
-568.631	272.098	-0.159	-0.283
-567.617	90.018	-0.202	-0.228
-566.602	-200.000	-0.002	-0.329
-565.588	20.933	0.190	-0.155
-564.573	33.768	0.114	-0.100
-563.558	-53.035	-0.047	0.022
-562.544	-100.288	0.151	0.038
-561.529	-167.500	-0.079	-0.003
-560.515	161.229	-0.139	0.197
-559.500	-119.782	0.147	0.026
-558.485	-70.759	0.172	0.066
-557.471	28.159	-0.264	-0.225
-556.456	198.957	0.253	-0.392
-555.442	-65.422	-0.256	0.104
-554.427	-200.000	0.002	-0.015
-553.412	800.000	-0.029	-0.088
-552.398	141.527	0.134	0.179
-551.383	188.934	-0.175	0.264
-550.369	90.421	0.020	-0.022
-549.354	415.896	0.013	-0.029
-548.339	-27.143	-0.459	-0.270
-547.325	-167.764	-0.348	-0.014
-546.310	-200.000	0.032	-0.284
-545.296	-49.190	0.195	-0.094
-544.281	202.058	0.174	-0.270
-543.266	-45.968	0.169	0.084
-542.252	-141.603	0.106	0.011
-541.237	292.592	-0.227	0.417
-540.223	482.898	-0.175	-0.402
-539.208	-88.226	0.213	0.064
-538.193	-59.441	-0.088	-0.038
-537.179	-200.000	-0.014	0.193
-536.164	-116.264	-0.094	-0.018
-535.150	-13.475	0.085	-0.056
-534.135	200.961	-0.114	0.177
-533.121	-200.000	-0.011	-0.058
-532.106	-5.487	-0.280	0.194
-531.091	-200.000	0.014	0.192
-530.077	335.915	0.094	-0.184
-529.062	-200.000	-0.020	-0.167
-528.048	-12.682	0.283	-0.186
-527.033	-200.000	0.013	0.201
-526.018	-144.586	0.238	-0.022
-525.004	81.890	-0.164	-0.179
-523.989	291.483	-0.059	-0.108
-522.975	800.000	0.081	0.257
-521.960	-45.497	0.352	0.176
-520.945	-17.682	-0.060	-0.038
-519.931	800.000	-0.043	0.160
-518.916	-80.597	-0.161	-0.054
-517.902	68.559	0.137	0.141
-516.887	31.640	-0.232	0.201
-515.872	800.000	0.034	0.125
-514.858	800.000	-0.105	0.314
-513.843	-50.668	0.440	0.209
-512.829	-88.599	-0.138	-0.041
-511.814	-38.482	0.125	-0.067
-510.799	-110.884	0.299	-0.062
-509.785	8.095	-0.329	-0.249
-508.770	-28.039	-0.355	-0.207
-507.756	800.000	-0.076	0.232
-506.741	-84.287	0.375	0.119
-505.726	-100.212	0.149	0.037
-504.712	38.435	-0.135	0.122
-503.697	-200.000	-0.071	0.387
-502.683	-109.647	-0.456	0.097
-501.668	-61.411	-0.340	-0.144
-500.653	18.369	0.108	-0.087
-499.639	17.498	-0.148	0.118
-498.624	-14.083	-0.310	-0.201
-497.610	-56.696	0.177	-0.079
-496.595	-200.000	-0.013	-0.130
-495.581	-100.876	0.247	0.061
-494.566	-131.561	-0.314	-0.042
-493.551	-149.455	-0.271	0.022
-492.537	-167.584	0.083	0.003
-491.522	800.000	0.089	0.254
-490.508	148.775	-0.280	-0.381
-489.493	-91.939	0.172	0.049
-488.478	-151.125	-0.266	-0.020
-487.464	-200.000	0.003	-0.307
-486.449	-100.487	0.063	0.016
-485.435	-98.063	-0.120	0.031
-484.420	747.612	0.144	0.391
-483.405	-65.375	0.173	-0.070
-482.391	-118.553	0.156	0.028
-481.376	-134.595	-0.172	-0.021
-480.362	-9.973	-0.212	-0.142
-479.347	800.000	-0.045	-0.164
-478.332	-129.055	-0.168	-0.024
-477.318	-200.000	-0.000	0.047
-476.303	-17.587	0.218	-0.138
-475.289	-101.914	-0.093	0.023
-474.274	533.389	0.183	0.436
-473.259	371.275	-0.099	-0.203
-472.245	132.218	-0.059	-0.077
-471.230	-12.623	-0.118	0.077
-470.216	-27.992	-0.241	0.140
-469.201	37.088	0.085	0.076
-468.186	-38.789	0.369	-0.196
-467.172	-64.631	-0.287	0.117
-466.157	-125.333	-0.266	0.041
-465.143	-94.588	-0.120	0.033
-464.128	-200.000	0.007	-0.067
-463.113	-184.124	0.327	0.005
-462.099	-64.945	-0.284	-0.115
-461.084	484.663	-0.047	-0.107
-460.070	-200.000	0.023	0.137
-459.055	-164.726	0.281	0.013
-458.040	-132.953	-0.352	0.045
-457.026	800.000	-0.079	0.257
-456.011	-118.305	0.254	0.045
-454.997	-200.000	-0.012	0.239
-453.982	-27.978	0.193	-0.112
-452.968	15.209	-0.197	-0.155
-451.953	-45.206	0.196	0.098
-450.938	800.000	-0.071	-0.221
-449.924	-103.160	-0.257	-0.061
-448.909	145.147	0.024	0.032
-447.895	-120.018	0.098	-0.017
-446.880	55.857	-0.041	0.040
-445.865	314.065	-0.069	-0.131
-444.851	-174.347	-0.435	-0.013
-443.836	-185.047	-0.211	-0.003
-442.822	-123.336	-0.235	0.038
-441.807	-200.000	-0.008	0.280
-440.792	-200.000	0.031	0.256
-439.778	800.000	0.135	-0.379
-438.763	-200.000	-0.095	-0.424
-437.749	126.416	-0.213	-0.271
-436.734	-103.057	0.190	0.045
-435.719	-157.950	-0.207	0.012
-434.705	-85.692	-0.389	0.121
-433.690	-200.000	-0.053	0.272
-432.676	800.000	0.028	0.080
-431.661	-101.248	0.130	-0.032
-430.646	8.633	0.138	-0.104
-429.632	-36.535	-0.202	-0.109
-428.617	-172.992	-0.219	0.007
-427.603	481.167	-0.084	0.192
-426.588	190.820	0.172	0.260
-425.573	-129.468	0.343	-0.048
-424.559	800.000	0.036	-0.113
-423.544	148.842	-0.190	-0.258
-422.530	-32.462	-0.217	-0.121
-421.515	652.809	0.079	0.203
-420.500	575.226	-0.103	0.253
-419.486	-95.767	0.107	0.029
-418.471	-136.467	-0.200	0.023
-417.457	462.523	0.102	0.229
-416.442	-200.000	0.050	0.223
-415.428	136.145	0.095	-0.124
-414.413	247.382	0.136	-0.231
-413.398	-80.998	-0.196	-0.065
-412.384	-48.191	0.125	0.060
-411.369	-83.317	0.283	-0.091
-410.355	-23.207	-0.395	0.238
-409.340	-59.920	-0.145	0.062
-408.325	-124.683	0.464	0.072
-407.311	-96.738	0.245	-0.065
-406.296	426.981	-0.094	-0.204
-405.282	800.000	0.027	-0.079
-404.267	-200.000	-0.024	0.164
-403.252	-200.000	0.013	-0.219
-402.238	279.428	0.062	-0.112
-401.223	153.258	0.098	0.135
-400.209	25.645	-0.058	-0.049
-399.194	-79.469	-0.196	0.067
-398.179	-12.792	-0.192	-0.126
-397.165	-127.663	0.058	0.008
-396.150	-49.803	-0.041	0.020
-395.136	-29.441	0.203	-0.116
-394.121	-131.866	-0.281	-0.037
-393.106	29.370	0.333	0.284
-392.092	-67.840	0.513	-0.201
-391.077	-200.000	-0.064	-0.599
-390.063	800.000	0.023	-0.078
-389.048	575.556	0.058	-0.142
-388.033	-57.633	0.316	-0.139
-387.019	489.170	0.050	-0.115
-386.004	-92.241	-0.048	0.014
-384.990	-67.496	0.107	0.042
-383.975	-7.064	-0.182	-0.124
-382.960	-81.839	-0.168	0.055
-381.946	603.969	0.090	-0.225
-380.931	-150.314	-0.135	-0.010
-379.917	220.911	0.063	0.102
-378.902	-42.906	0.102	0.052
-377.888	240.366	0.062	-0.104
-376.873	-134.146	0.102	-0.013
-375.858	-81.732	0.098	0.032
-374.844	-146.023	0.356	0.032
-373.829	-200.000	-0.035	-0.268
-372.815	-200.000	-0.014	-0.317
-371.800	-157.644	0.473	0.028
-370.785	-38.463	-0.066	-0.035
-369.771	222.853	0.015	0.024
-368.756	-83.623	0.152	-0.049
-367.742	-30.392	0.150	-0.085
-366.727	97.941	0.186	0.215
-365.712	-153.582	0.191	-0.013
-364.698	500.298	0.017	0.038
-363.683	-140.485	0.081	-0.008
-362.669	51.712	0.080	-0.076
-361.654	-143.008	-0.057	-0.006
-360.639	183.222	0.132	-0.195
-359.625	279.007	0.093	0.166
-358.610	31.295	-0.085	0.073
-357.596	204.149	0.023	0.035
-356.581	-13.691	0.353	0.229
-355.566	-144.770	-0.342	-0.031
-354.552	165.263	-0.164	0.232
-353.537	-200.000	0.015	0.082
-352.523	32.697	0.092	-0.080
-351.508	-200.000	0.021	-0.443
-350.493	-200.000	-0.089	0.545
-349.479	-200.000	-0.010	-0.118
-348.464	224.589	0.145	-0.234
-347.450	435.379	0.064	-0.139
-346.435	795.602	0.076	-0.211
-345.420	10.125	0.194	-0.148
-344.406	390.233	0.066	-0.137
-343.391	725.201	-0.007	0.019
-342.377	-142.285	-0.199	-0.020
-341.362	-200.000	-0.059	0.360
-340.348	209.090	-0.107	-0.168
-339.333	232.131	0.039	0.065
-338.318	-65.235	0.193	0.078
-337.304	154.470	0.155	0.213
-336.289	-68.252	-0.129	0.050
-335.275	15.015	0.037	-0.029
-334.260	254.028	-0.204	0.349
-333.245	-200.000	-0.033	-0.246
-332.231	-98.390	-0.129	-0.033
-331.216	138.326	0.279	-0.367
-330.202	-113.233	-0.226	-0.044
-329.187	-131.666	0.192	0.025
-328.172	196.062	0.091	-0.139
-327.158	-45.682	0.067	-0.033
-326.143	214.981	0.036	0.057
-325.129	-153.341	-0.151	-0.011
-324.114	0.311	0.289	0.207
-323.099	188.535	-0.329	0.493
-322.085	-200.000	0.010	0.218
-321.070	-200.000	-0.008	-0.045
-320.056	-20.783	-0.136	0.083
-319.041	550.559	0.137	-0.328
-318.026	799.755	0.157	0.434
-317.012	-200.000	0.009	0.223
-315.997	8.229	0.060	0.045
-314.983	800.000	0.053	0.204
-313.968	-200.000	0.009	-0.230
-312.953	-200.000	0.010	0.136
-311.939	388.473	0.062	-0.128
-310.924	30.748	0.148	-0.127
-309.910	-64.341	0.141	0.057
-308.895	206.204	-0.139	-0.216
-307.880	98.371	-0.173	-0.199
-306.866	152.635	0.053	-0.072
-305.851	194.615	0.137	-0.208
-304.837	-200.000	-0.033	0.147
-303.822	153.750	0.160	0.219
-302.807	45.500	-0.138	0.127
-301.793	-109.462	-0.304	0.064
-300.778	-75.546	0.259	-0.092
-299.764	-52.042	0.109	-0.051
-298.749	-33.783	0.329	0.181
-297.735	46.103	-0.169	0.157
-296.720	-38.364	0.223	0.118
-295.705	-26.634	-0.125	0.073
-294.691	-87.315	0.303	-0.092
-293.676	-200.000	0.051	-0.362
-292.662	-41.661	0.226	0.116
-291.647	-200.000	0.017	-0.269
-290.632	-34.487	-0.370	-0.202
-289.618	-200.000	-0.022	0.215
-288.603	101.570	-0.093	0.108
-287.589	-186.362	0.191	0.003
-286.574	323.974	-0.229	0.436
-285.559	103.911	-0.161	-0.189
-284.545	-44.408	0.415	-0.208
-283.530	593.468	-0.134	-0.331
-282.516	368.956	0.111	0.223
-281.501	47.550	-0.154	-0.143
-280.486	-200.000	-0.036	-0.230
-279.472	800.000	0.041	0.132
-278.457	-149.732	-0.240	0.019
-277.443	12.638	0.210	-0.162
-276.428	-200.000	0.015	0.139
-275.413	388.563	-0.210	0.433
-274.399	-150.386	0.044	0.003
-273.384	371.240	0.095	0.192
-272.370	-200.000	0.024	0.228
-271.355	-59.303	-0.082	0.035
-270.340	-1.020	-0.107	-0.076
-269.326	-196.169	-0.330	-0.002
-268.311	-150.492	0.101	-0.008
-267.297	11.549	0.171	0.131
-266.282	-200.000	0.006	0.098
-265.267	146.592	0.127	0.170
-264.253	40.084	0.162	0.146
-263.238	83.490	-0.266	-0.289
-262.224	272.896	-0.038	0.067
-261.209	134.241	0.192	0.249
-260.195	102.348	-0.277	0.323
-259.180	-200.000	-0.025	-0.119
-258.165	800.000	0.078	-0.302
-257.151	271.440	-0.030	0.052
-256.136	221.034	-0.054	0.086
-255.122	332.839	0.102	0.196
-254.107	30.658	-0.235	0.200
-253.092	-162.769	-0.093	-0.005
-252.078	-200.000	-0.009	-0.053
-251.063	134.526	-0.087	-0.113
-250.049	-200.000	0.010	-0.509
-249.034	-81.823	0.302	0.099
-248.019	58.417	0.238	0.233
-247.005	-5.247	0.047	0.032
-245.990	-200.000	-0.003	0.331
-244.976	51.013	0.069	0.065
-243.961	-200.000	0.045	0.225
-242.946	-145.223	-0.052	-0.005
-241.932	-48.846	0.344	-0.165
-240.917	-82.746	-0.121	-0.039
-239.903	0.302	0.155	0.110
-238.888	-22.054	0.136	0.082
-237.873	-66.273	-0.192	-0.076
-236.859	-200.000	-0.037	-0.295
-235.844	-200.000	0.012	-0.099
-234.830	166.835	0.461	0.652
-233.815	-117.892	-0.262	0.047
-232.800	-157.965	-0.279	-0.016
-231.786	25.265	0.262	0.217
-230.771	287.412	-0.175	-0.316
-229.757	239.871	0.265	0.440
-228.742	267.557	-0.093	-0.162
-227.727	153.463	-0.157	0.214
-226.713	-31.926	0.146	-0.081
-225.698	113.698	0.116	0.140
-224.684	-3.478	-0.257	0.178
-223.669	-29.300	-0.348	-0.198
-222.655	165.479	0.110	-0.155
-221.640	36.162	0.161	-0.141
-220.625	-115.787	-0.070	-0.013
-219.611	22.606	-0.102	-0.083
-218.596	686.973	-0.129	-0.336
-217.582	76.494	0.107	-0.113
-216.567	54.772	-0.134	0.129
-215.552	-200.000	-0.029	0.254
-214.538	576.911	0.064	0.156
-213.523	118.375	-0.084	0.104
-212.509	-95.950	0.285	-0.076
-211.494	-88.337	-0.247	-0.074
-210.479	-98.611	-0.300	0.076
-209.465	-200.000	-0.048	0.255
-208.450	31.365	-0.186	0.159
-207.436	-9.324	-0.330	0.220
-206.421	-88.794	0.159	-0.047
-205.406	88.918	0.051	-0.057
-204.392	-200.000	0.030	-0.158
-203.377	3.106	0.175	0.127
-202.363	800.000	0.061	0.172
-201.348	292.280	-0.052	-0.095
-200.333	800.000	-0.094	-0.368
-199.319	86.533	0.221	-0.242
-198.304	-200.000	0.034	-0.364
-197.290	189.446	-0.171	-0.256
-196.275	-184.669	-0.135	0.002
-195.260	-121.715	-0.240	-0.039
-194.246	-67.970	0.222	0.086
-193.231	726.959	-0.091	0.241
-192.217	-22.940	-0.203	0.122
-191.202	-200.000	-0.033	0.435
-190.187	-15.062	0.278	0.177
-189.173	800.000	-0.185	-0.544
-188.158	-46.022	0.346	-0.170
-187.144	-200.000	0.005	-0.128
-186.129	71.812	0.220	-0.227
-185.114	-95.536	-0.081	-0.022
-184.100	-103.450	0.320	0.075
-183.085	13.324	0.237	0.183
-182.071	-200.000	0.075	0.415
-181.056	-200.000	-0.036	-0.190
-180.042	-188.582	0.414	-0.005
-179.027	196.035	0.119	-0.181
-178.012	-43.155	0.246	0.124
-176.998	90.475	-0.199	0.222
-175.983	-64.976	0.110	-0.044
-174.969	-16.208	-0.248	-0.157
-173.954	-42.245	-0.263	0.134
-172.939	-100.995	-0.144	-0.035
-171.925	727.317	-0.113	-0.300
-170.910	800.000	-0.011	0.032
-169.896	-113.009	0.169	0.033
-168.881	-36.488	-0.245	0.131
-167.866	-200.000	-0.010	0.066
-166.852	152.358	0.187	0.253
-165.837	-114.890	0.419	-0.079
-164.823	156.971	-0.062	0.086
-163.808	-200.000	-0.003	0.242
-162.793	-65.004	0.269	-0.108
-161.779	-47.570	0.209	-0.101
-160.764	800.000	-0.085	-0.324
-159.750	-141.570	0.152	-0.015
-158.735	-27.487	0.111	0.064
-157.720	-14.409	0.112	0.071
-156.706	-145.661	0.117	0.010
-155.691	-200.000	0.001	0.211
-154.677	608.211	0.112	-0.279
-153.662	107.957	0.136	-0.161
-152.647	-17.513	0.091	0.057
-151.633	56.659	0.100	-0.097
-150.618	172.454	0.275	-0.393
-149.604	-149.198	0.283	0.022
-148.589	-200.000	0.022	0.124
-147.574	-56.894	-0.229	-0.100
-146.560	800.000	0.057	-0.170
-145.545	20.748	0.044	0.036
-144.531	139.910	-0.100	-0.130
-143.516	-56.449	0.181	-0.080
-142.502	152.887	-0.162	0.220
-141.487	-95.550	-0.203	0.054
-140.472	265.026	-0.090	-0.156
-139.458	800.000	-0.029	0.113
-138.443	-195.099	0.494	-0.004
-137.429	73.203	0.080	-0.083
-136.414	-200.000	-0.001	-0.144
-135.399	-81.291	-0.091	-0.030
-134.385	-147.085	-0.136	-0.012
-133.370	51.155	-0.189	0.178
-132.356	-172.029	-0.254	-0.008
-131.341	-71.753	0.095	0.035
-130.326	800.000	0.077	0.275
-129.312	295.237	0.053	-0.096
-128.297	379.135	-0.060	0.122
-127.283	205.677	-0.146	-0.225
-126.268	267.102	0.192	0.333
-125.253	-42.499	0.167	-0.085
-124.239	5.830	0.100	-0.073
-123.224	269.668	0.087	0.151
-122.210	-200.000	0.023	0.134
-121.195	594.677	0.054	0.132
