DTS Sentinel unit serial number:	SN413079Multiplexer serial number:	ORYXHardware model number:	OX4-SRSoftware version number:	ORYX F/W v4.00 Oryx Data Collector v3.7.2.0data status	okinstallation	princeton_trtdifferential loss correction	single-endedforward channel	channel 4reverse channel	N/Adate	2019/09/13time	02:21:35forward acquisition time	60.00reverse acquisition time	0.00gamma	496.2192k internal	0.2319k external	0.2319temperature offset calibration	1.0190default loss term (dB/km)	0.3790temperature slope calibration	1.0000multiplexer offset coefficient	1.0000multiplexer slope coefficient	1.0000fibre end	0.00T internal ref (°C)	27.52T ext. ref 1 (°C)	3.95T ext. ref 2 (°C)	22.28length (m)	temperature (°C)	Stokes	anti-Stokes-747.200	-156.266	-0.372	-0.024
-746.185	338.706	0.068	-0.134
-745.171	-50.459	0.133	-0.063
-744.156	800.000	0.069	0.232
-743.142	800.000	-0.107	0.371
-742.127	67.337	-0.217	-0.224
-741.112	-138.214	-0.165	0.018
-740.098	-200.000	0.017	-0.101
-739.083	-44.730	-0.239	0.121
-738.069	-91.495	0.429	-0.124
-737.054	33.127	-0.146	0.128
-736.039	-200.000	0.024	-0.342
-735.025	11.243	0.259	0.200
-734.010	-102.219	-0.129	-0.031
-732.996	-200.000	-0.016	0.249
-731.981	181.442	0.306	0.456
-730.966	354.482	0.056	0.112
-729.952	-200.000	-0.017	-0.087
-728.937	-200.000	0.011	-0.101
-727.923	89.529	-0.189	0.213
-726.908	279.135	-0.115	-0.208
-725.894	19.256	-0.346	-0.281
-724.879	-21.199	-0.263	0.163
-723.864	800.000	0.147	-0.559
-722.850	-124.568	0.087	-0.014
-721.835	190.306	-0.033	-0.049
-720.821	182.861	0.030	-0.044
-719.806	144.932	-0.307	-0.414
-718.791	-98.452	0.081	-0.021
-717.777	-43.246	0.149	-0.076
-716.762	-200.000	0.009	-0.424
-715.748	21.179	0.148	0.121
-714.733	-200.000	0.021	-0.268
-713.718	-63.236	-0.307	-0.128
-712.704	-160.664	-0.341	0.018
-711.689	-200.000	-0.052	-0.306
-710.675	383.322	-0.063	-0.131
-709.660	406.271	-0.043	0.093
-708.645	234.892	-0.080	-0.134
-707.631	-78.456	-0.168	-0.058
-706.616	69.083	-0.132	-0.137
-705.602	341.415	0.084	-0.165
-704.587	-200.000	-0.001	0.337
-703.572	-40.313	-0.380	-0.199
-702.558	-163.762	-0.402	-0.019
-701.543	428.967	0.020	-0.045
-700.529	-38.863	-0.397	-0.211
-699.514	800.000	0.012	0.042
-698.499	109.904	-0.145	-0.176
-697.485	-3.547	-0.248	-0.174
-696.470	153.814	-0.051	-0.071
-695.456	-93.061	-0.259	0.073
-694.441	78.089	0.285	0.307
-693.426	159.386	0.174	-0.245
-692.412	-14.368	-0.186	-0.121
-691.397	-200.000	0.050	-0.295
-690.383	56.074	0.220	-0.215
-689.368	-38.555	0.197	-0.105
-688.354	147.796	-0.178	0.242
-687.339	258.769	0.187	-0.325
-686.324	367.614	0.117	-0.239
-685.310	-64.909	-0.272	0.111
-684.295	562.877	-0.077	-0.188
-683.281	201.995	-0.160	-0.248
-682.266	-200.000	0.012	0.314
-681.251	-174.190	-0.478	-0.014
-680.237	271.046	-0.247	0.439
-679.222	44.995	0.077	0.072
-678.208	15.669	-0.149	-0.118
-677.193	-110.669	-0.081	-0.017
-676.178	321.726	0.178	-0.341
-675.164	-16.739	-0.394	-0.252
-674.149	642.156	-0.152	0.390
-673.135	-200.000	-0.006	-0.206
-672.120	309.110	-0.145	0.273
-671.105	-153.242	-0.213	0.015
-670.091	-169.593	0.046	0.002
-669.076	-200.000	-0.051	0.231
-668.062	-60.504	-0.140	-0.060
-667.047	430.417	0.065	0.141
-666.032	-48.630	0.079	-0.038
-665.018	-97.007	0.213	0.056
-664.003	18.575	0.639	-0.515
-662.989	25.323	-0.208	0.174
-661.974	-137.982	0.096	0.011
-660.959	-200.000	-0.035	-0.192
-659.945	-50.110	-0.176	-0.084
-658.930	-77.219	-0.244	0.086
-657.916	-96.507	0.299	-0.080
-656.901	13.972	-0.136	-0.106
-655.886	-147.832	0.207	-0.017
-654.872	-71.325	-0.057	-0.021
-653.857	-49.533	0.181	0.087
-652.843	800.000	-0.138	-0.404
-651.828	206.457	-0.062	-0.098
-650.814	800.000	-0.077	0.225
-649.799	205.300	0.021	0.033
-648.784	97.479	0.074	0.086
-647.770	-200.000	-0.034	-0.202
-646.755	-93.007	0.165	0.046
-645.741	-80.579	0.362	0.121
-644.726	569.872	0.140	-0.343
-643.711	-200.000	-0.017	-0.192
-642.697	118.195	0.142	-0.177
-641.682	67.574	-0.148	0.152
-640.668	-200.000	0.008	-0.427
-639.653	158.762	0.068	-0.095
-638.638	93.454	-0.203	-0.231
-637.624	275.780	0.155	-0.277
-636.609	458.063	-0.013	0.029
-635.595	800.000	-0.026	0.075
-634.580	-116.589	0.065	-0.012
-633.565	800.000	0.033	-0.111
-632.551	800.000	-0.089	-0.254
-631.536	800.000	-0.085	-0.317
-630.522	266.445	-0.116	-0.205
-629.507	294.324	-0.118	0.216
-628.492	-11.647	-0.161	-0.107
-627.478	-105.210	-0.302	-0.069
-626.463	404.522	0.080	-0.169
-625.449	800.000	0.047	0.189
-624.434	54.457	0.212	0.206
-623.419	-101.262	0.225	0.055
-622.405	-87.334	0.294	-0.090
-621.390	47.532	0.063	0.059
-620.376	-128.925	-0.272	0.038
-619.361	-104.327	-0.192	-0.045
-618.346	-53.101	0.163	0.076
-617.332	-18.176	0.049	-0.031
-616.317	-17.198	-0.096	0.061
-615.303	-94.301	-0.060	0.016
-614.288	-55.486	-0.112	-0.050
-613.273	-125.697	-0.124	0.019
-612.259	-200.000	0.007	0.367
-611.244	-200.000	0.005	0.479
-610.230	632.092	-0.119	-0.304
-609.215	800.000	0.018	-0.078
-608.201	800.000	0.070	0.261
-607.186	-155.292	0.307	-0.020
-606.171	-200.000	0.003	0.228
-605.157	-92.643	-0.235	-0.066
-604.142	-119.979	0.217	0.037
-603.128	-126.883	0.046	0.007
-602.113	314.634	-0.147	0.279
-601.098	-35.185	0.170	-0.093
-600.084	-92.649	0.097	-0.027
-599.069	119.465	-0.077	0.096
-598.055	-81.060	0.222	0.074
-597.040	155.396	0.032	0.045
-596.025	110.735	-0.097	-0.118
-595.011	117.320	-0.093	0.115
-593.996	-200.000	-0.048	0.228
-592.982	46.374	0.204	0.190
-591.967	-200.000	-0.004	0.031
-590.952	-40.105	-0.270	0.142
-589.938	-30.966	-0.195	-0.111
-588.923	-200.000	0.000	-0.213
-587.909	70.713	0.349	-0.363
-586.894	-106.142	-0.281	-0.064
-585.879	71.103	-0.056	-0.058
-584.865	13.783	0.080	-0.062
-583.850	800.000	-0.038	-0.159
-582.836	-116.416	-0.243	-0.045
-581.821	192.569	0.062	-0.094
-580.806	-93.680	-0.184	-0.051
-579.792	471.869	0.046	0.105
-578.777	25.619	-0.201	-0.168
-577.763	-200.000	-0.036	0.256
-576.748	18.332	0.146	0.117
-575.733	8.248	0.058	0.044
-574.719	22.460	-0.212	-0.174
-573.704	-85.203	-0.115	-0.036
-572.690	410.768	-0.049	-0.105
-571.675	-56.341	-0.093	0.041
-570.661	-10.959	0.199	-0.132
-569.646	800.000	-0.071	-0.252
-568.631	53.099	0.058	0.056
-567.617	64.923	-0.091	-0.093
-566.602	-3.947	-0.156	0.109
-565.588	-200.000	0.080	0.359
-564.573	-132.530	-0.328	0.042
-563.558	175.951	0.159	-0.231
-562.544	54.233	-0.227	-0.219
-561.529	800.000	0.079	-0.259
-560.515	-141.453	-0.303	-0.031
-559.500	-56.541	0.070	0.031
-558.485	105.503	0.087	-0.104
-557.471	696.503	-0.094	-0.249
-556.456	273.629	-0.009	0.016
-555.442	800.000	-0.062	0.237
-554.427	800.000	-0.098	-0.320
-553.412	-200.000	0.015	0.195
-552.398	-121.488	-0.191	-0.032
-551.383	-83.548	0.204	-0.066
-550.369	-114.686	-0.349	-0.067
-549.354	134.260	-0.259	-0.337
-548.339	-129.954	0.149	-0.021
-547.325	40.364	-0.138	-0.125
-546.310	319.113	0.256	0.486
-545.296	-57.426	0.153	0.068
-544.281	35.786	-0.049	-0.043
-543.266	146.562	0.103	-0.139
-542.252	-39.943	0.183	-0.096
-541.237	75.322	-0.136	-0.144
-540.223	-200.000	-0.057	0.271
-539.208	-20.093	-0.050	-0.031
-538.193	77.405	-0.189	-0.202
-537.179	161.701	0.087	0.122
-536.164	-128.424	-0.206	-0.029
-535.150	-37.544	0.138	-0.074
-534.135	-200.000	0.006	-0.038
-533.121	-20.203	-0.471	-0.291
-532.106	-114.130	0.303	0.059
-531.091	-30.682	-0.139	-0.079
-530.077	64.746	0.099	-0.100
-529.062	293.621	0.064	-0.117
-528.048	-52.473	-0.190	-0.088
-527.033	-200.000	0.018	0.098
-526.018	-70.866	0.138	-0.052
-525.004	117.293	0.089	0.109
-523.989	289.467	0.169	0.308
-522.975	43.686	0.161	-0.148
-521.960	-124.354	0.463	-0.072
-520.945	-81.476	-0.337	0.111
-519.931	2.637	0.049	0.035
-518.916	20.694	0.052	-0.042
-517.902	158.042	0.312	-0.434
-516.887	760.596	0.071	-0.193
-515.872	-186.444	-0.171	-0.002
-514.858	229.986	0.089	-0.146
-513.843	800.000	-0.032	0.116
-512.829	-200.000	0.007	0.272
-511.814	-93.276	0.241	0.067
-510.799	67.240	0.148	0.151
-509.785	-124.450	-0.390	0.061
-508.770	-138.265	0.268	-0.030
-507.756	90.925	-0.368	-0.413
-506.741	596.076	0.145	-0.361
-505.726	152.175	0.142	-0.194
-504.712	18.707	0.228	-0.183
-503.697	-200.000	-0.018	-0.135
-502.683	-87.788	0.137	0.041
-501.668	-126.338	0.120	0.018
-500.653	65.734	-0.268	0.272
-499.639	-200.000	-0.022	-0.236
-498.624	41.426	-0.321	0.291
-497.610	-200.000	-0.000	0.144
-496.595	800.000	-0.055	0.233
-495.581	128.539	0.227	0.290
-494.566	-200.000	0.037	-0.227
-493.551	730.494	-0.050	-0.133
-492.537	-109.871	0.132	-0.028
-491.522	99.059	-0.110	0.128
-490.508	-98.187	0.091	0.023
-489.493	264.210	0.193	-0.337
-488.478	800.000	0.059	-0.214
-487.464	-200.000	0.015	-0.167
-486.449	-200.000	-0.016	0.113
-485.435	93.789	0.097	0.110
-484.420	-200.000	-0.016	-0.156
-483.405	800.000	0.125	0.377
-482.391	470.007	-0.080	0.180
-481.376	-110.791	-0.285	-0.059
-480.362	126.174	-0.091	0.115
-479.347	-153.475	0.168	0.012
-478.332	439.193	-0.132	-0.288
-477.318	-60.212	-0.161	-0.069
-476.303	-94.116	0.245	0.067
-475.289	-151.085	0.155	0.012
-474.274	-153.360	0.116	0.008
-473.259	-67.177	0.060	0.024
-472.245	-200.000	0.041	0.298
-471.230	-144.950	0.231	0.021
-470.216	205.196	0.029	0.045
-469.201	61.384	-0.176	0.175
-468.186	-200.000	0.010	-0.086
-467.172	48.385	-0.162	0.152
-466.157	-109.722	0.388	0.082
-465.143	257.510	0.086	0.149
-464.128	-200.000	0.047	0.252
-463.113	800.000	-0.048	0.196
-462.099	-90.129	-0.314	-0.091
-461.084	-135.824	0.465	-0.055
-460.070	-173.766	-0.317	-0.009
-459.055	152.296	-0.217	-0.296
-458.040	23.930	0.041	-0.034
-457.026	421.893	-0.042	-0.090
-456.011	389.272	-0.137	0.284
-454.997	443.780	-0.079	0.174
-453.982	236.241	-0.178	-0.294
-452.968	-83.930	-0.203	-0.065
-451.953	-51.991	0.082	-0.038
-450.938	67.545	0.133	-0.136
-449.924	-200.000	0.040	0.181
-448.909	-66.856	-0.049	0.019
-447.895	37.966	0.173	0.154
-446.880	-36.419	-0.030	0.016
-445.865	-200.000	-0.078	-0.518
-444.851	-200.000	-0.010	0.123
-443.836	-200.000	0.007	-0.090
-442.822	-200.000	0.003	-0.109
-441.807	329.613	-0.135	0.260
-440.792	-200.000	0.056	0.260
-439.778	-75.007	-0.141	0.050
-438.763	-128.000	-0.079	-0.011
-437.749	-200.000	-0.039	0.370
-436.734	-93.462	-0.430	-0.119
-435.719	800.000	0.082	-0.234
-434.705	-49.104	-0.043	0.020
-433.690	46.398	0.205	-0.190
-432.676	800.000	0.059	0.253
-431.661	28.352	-0.022	-0.019
-430.646	738.690	-0.022	-0.059
-429.632	-200.000	-0.031	-0.142
-428.617	800.000	0.057	0.199
-427.603	207.103	-0.091	-0.142
-426.588	-200.000	0.023	-0.167
-425.573	-24.859	-0.241	0.143
-424.559	105.794	0.028	-0.033
-423.544	-200.000	0.015	-0.190
-422.530	119.654	-0.150	0.186
-421.515	-19.653	-0.240	0.149
-420.500	138.835	0.159	0.209
-419.486	-200.000	0.039	0.362
-418.471	-80.798	-0.328	-0.109
-417.457	800.000	0.075	0.248
-416.442	-200.000	-0.010	0.117
-415.428	713.868	0.089	-0.234
-414.413	95.882	0.216	-0.247
-413.398	800.000	0.063	0.246
-412.384	-91.120	0.145	0.041
-411.369	800.000	-0.057	-0.182
-410.355	-200.000	-0.013	0.075
-409.340	0.972	0.105	0.075
-408.325	-200.000	0.071	-0.324
-407.311	69.463	0.214	0.220
-406.296	-200.000	0.024	-0.131
-405.282	800.000	-0.090	-0.256
-404.267	-63.424	0.230	0.094
-403.252	374.021	0.109	-0.221
-402.238	-8.906	0.104	0.070
-401.223	-200.000	0.036	-0.184
-400.209	-57.092	0.159	0.070
-399.194	59.049	0.144	-0.141
-398.179	-132.071	0.089	-0.011
-397.165	-15.681	-0.220	-0.140
-396.150	10.792	-0.310	0.236
-395.136	565.193	-0.109	0.264
-394.121	143.816	-0.111	-0.147
-393.106	-130.841	0.076	-0.010
-392.092	149.367	-0.041	-0.055
-391.077	300.395	-0.117	-0.215
-390.063	34.011	0.169	0.147
-389.048	224.813	0.115	0.185
-388.033	250.536	0.186	0.315
-387.019	79.891	0.235	0.252
-386.004	-200.000	0.052	-0.292
-384.990	171.958	-0.085	0.122
-383.975	-200.000	-0.065	-0.327
-382.960	-200.000	-0.078	0.389
-381.946	-119.240	0.107	0.019
-380.931	-109.129	0.174	-0.037
-379.917	15.841	-0.235	0.184
-378.902	-31.883	0.141	0.079
-377.888	86.999	-0.362	0.398
-376.873	466.645	0.019	-0.043
-375.858	-105.523	-0.207	-0.047
-374.844	-150.531	0.358	-0.027
-373.829	-146.001	0.191	0.017
-372.815	-200.000	0.024	-0.112
-371.800	-177.261	0.279	-0.007
-370.785	-22.314	0.365	0.221
-369.771	514.033	0.050	0.116
-368.756	-152.188	-0.137	-0.010
-367.742	44.547	-0.101	0.092
-366.727	-120.409	0.126	-0.021
-365.712	394.422	0.136	0.283
-364.698	-200.000	-0.011	0.091
-363.683	110.622	-0.055	0.066
-362.669	-200.000	-0.014	0.099
-361.654	120.430	0.262	0.324
-360.639	169.198	-0.159	-0.226
-359.625	81.604	-0.080	0.086
-358.610	-200.000	-0.010	-0.140
-357.596	87.991	-0.134	-0.148
-356.581	800.000	0.028	0.098
-355.566	26.116	0.290	-0.241
-354.552	22.073	-0.277	0.225
-353.537	-27.546	0.233	0.135
-352.523	-59.720	0.233	-0.099
-351.508	-100.600	0.181	-0.045
-350.493	149.175	0.187	0.252
-349.479	-45.169	-0.127	-0.063
-348.464	-109.631	0.173	0.036
-347.450	-18.695	0.355	-0.220
-346.435	252.003	0.121	-0.206
-345.420	107.693	-0.188	-0.223
-344.406	200.274	-0.266	-0.407
-343.391	41.004	0.159	-0.143
-342.377	-45.138	-0.128	-0.063
-341.362	-200.000	-0.017	-0.096
-340.348	-34.068	-0.139	0.076
-339.333	-200.000	-0.012	0.093
-338.318	-98.209	0.110	0.028
-337.304	-136.411	0.385	-0.045
-336.289	110.747	-0.148	-0.178
-335.275	45.859	-0.153	-0.141
-334.260	-130.980	-0.202	-0.027
-333.245	265.796	-0.218	0.379
-332.231	354.645	-0.050	0.099
-331.216	-136.944	0.509	-0.058
-330.202	-147.423	-0.060	0.005
-329.187	800.000	0.039	-0.142
-328.172	-200.000	-0.030	0.142
-327.158	109.580	-0.065	-0.078
-326.143	800.000	-0.036	-0.143
-325.129	-64.186	-0.081	-0.033
-324.114	800.000	0.065	-0.183
-323.099	610.540	0.085	-0.211
-322.085	-129.925	0.242	0.033
-321.070	800.000	-0.023	-0.064
-320.056	25.383	-0.095	-0.079
-319.041	-200.000	-0.025	-0.268
-318.026	111.011	-0.212	0.254
-317.012	-14.691	0.298	-0.191
-315.997	291.142	-0.221	0.399
-314.983	-124.734	-0.140	-0.022
-313.968	-78.837	0.215	0.073
-312.953	1.897	0.146	0.105
-311.939	646.423	-0.166	0.421
-310.924	-200.000	-0.027	0.215
-309.910	800.000	-0.094	-0.353
-308.895	-41.306	0.162	0.083
-307.880	-59.433	-0.256	0.110
-306.866	133.466	0.056	-0.071
-305.851	-17.005	-0.064	0.040
-304.837	-54.562	-0.053	0.024
-303.822	4.167	0.213	0.155
-302.807	362.627	-0.060	0.119
-301.793	220.911	0.114	0.182
-300.778	594.026	0.086	0.210
-299.764	-38.229	0.135	-0.071
-298.749	800.000	-0.085	0.302
-297.735	-7.785	0.217	-0.146
-296.720	241.865	0.233	-0.387
-295.705	-148.382	-0.410	-0.033
-294.691	-172.261	0.230	0.007
-293.676	-200.000	-0.057	-0.258
-292.662	-200.000	-0.039	0.288
-291.647	800.000	0.088	-0.301
-290.632	36.541	-0.014	-0.013
-289.618	42.013	-0.230	-0.207
-288.603	-67.230	-0.180	0.070
-287.589	-26.754	-0.250	0.145
-286.574	264.488	0.143	0.247
-285.559	226.817	0.182	-0.293
-284.545	-200.000	0.002	0.140
-283.530	-200.000	0.018	-0.243
-282.516	413.466	-0.227	-0.480
-281.501	436.969	-0.075	-0.162
-280.486	-200.000	-0.003	0.078
-279.472	-200.000	-0.027	-0.167
-278.457	578.571	0.094	-0.229
-277.443	800.000	0.003	-0.008
-276.428	736.983	0.083	0.221
-275.413	348.782	-0.129	0.253
-274.399	-143.127	-0.182	0.017
-273.384	14.802	0.334	-0.259
-272.370	-200.000	0.000	-0.106
-271.355	800.000	-0.051	-0.153
-270.340	-91.294	-0.378	0.107
-269.326	-21.741	0.253	0.153
-268.311	-87.472	0.217	-0.065
-267.297	-200.000	0.056	0.335
-266.282	48.638	0.096	0.090
-265.267	-124.403	-0.394	0.061
-264.253	171.804	-0.167	-0.238
-263.238	-132.042	-0.086	-0.011
-262.224	-17.257	0.063	-0.039
-261.209	800.000	-0.024	0.098
-260.195	-121.953	-0.466	0.076
-259.180	654.022	-0.102	-0.260
-258.165	-66.977	-0.188	0.074
-257.151	285.740	0.129	0.231
-256.136	87.437	-0.171	-0.187
-255.122	-92.410	-0.193	0.054
-254.107	30.439	0.098	0.083
-253.092	-105.077	0.049	-0.011
-252.078	-44.203	0.143	-0.071
-251.063	-81.297	0.207	0.068
-250.049	-200.000	-0.020	-0.124
-249.034	315.663	0.079	0.147
-248.019	-200.000	0.031	0.265
-247.005	111.936	0.103	-0.124
-245.990	98.162	0.061	0.070
-244.976	58.086	0.124	-0.120
-243.961	800.000	-0.018	-0.050
-242.946	657.155	0.044	-0.112
-241.932	241.701	0.110	-0.182
-240.917	-200.000	-0.012	0.077
-239.903	-96.404	0.131	0.034
-238.888	800.000	-0.045	-0.144
-237.873	-23.389	0.059	0.035
-236.859	-43.329	0.264	0.133
-235.844	-171.563	-0.210	-0.007
-234.830	800.000	-0.076	0.294
-233.815	-138.425	0.181	-0.020
-232.800	45.354	-0.023	0.021
-231.786	92.116	-0.212	0.237
-230.771	91.404	0.088	-0.098
-229.757	108.045	-0.156	-0.184
-228.742	-137.266	0.110	-0.012
-227.727	-82.304	0.272	0.088
-226.713	-200.000	0.034	0.166
-225.698	300.071	-0.094	0.172
-224.684	30.518	-0.091	-0.077
-223.669	-69.920	0.161	0.061
-222.655	26.379	0.158	0.131
-221.640	-200.000	-0.017	0.116
-220.625	-2.511	-0.145	0.100
-219.611	-148.901	-0.082	0.007
-218.596	800.000	-0.032	0.101
-217.582	102.115	0.077	0.089
-216.567	-200.000	0.041	0.340
-215.552	-200.000	0.011	-0.285
-214.538	62.265	0.118	0.116
-213.523	146.197	0.109	-0.145
-212.509	-72.717	0.278	0.102
-211.494	527.980	-0.045	-0.104
-210.479	-32.821	-0.524	0.289
-209.465	488.309	-0.044	-0.099
-208.450	1.824	-0.288	0.205
-207.436	102.115	-0.149	0.173
-206.421	-42.888	0.272	-0.137
-205.406	-5.807	0.046	-0.031
-204.392	-6.021	-0.147	-0.100
-203.377	-62.749	-0.205	-0.084
-202.363	-158.906	0.428	-0.024
-201.348	-167.956	-0.231	-0.009
-200.333	35.121	-0.297	0.258
-199.319	-18.978	-0.399	0.246
-198.304	-101.488	0.163	0.039
-197.290	49.463	-0.089	0.083
-196.275	-110.858	0.171	0.035
-195.260	-200.000	0.038	-0.213
-194.246	186.079	-0.142	-0.210
-193.231	630.103	0.081	-0.203
-192.217	-73.602	-0.403	0.145
-191.202	-33.306	0.044	-0.024
-190.187	731.552	0.121	-0.321
-189.173	-125.771	0.269	0.040
-188.158	-200.000	0.021	-0.265
-187.144	411.071	0.143	-0.301
-186.129	-140.272	-0.048	-0.005
-185.114	633.180	-0.040	-0.101
-184.100	-10.567	-0.241	-0.158
-183.085	116.209	0.143	0.173
-182.071	272.395	0.094	0.164
-181.056	582.862	-0.070	0.170
-180.042	429.895	-0.167	0.358
-179.027	16.795	0.187	-0.147
-178.012	-58.809	0.202	0.086
-176.998	435.113	0.030	0.064
-175.983	333.192	0.053	0.100
-174.969	80.449	-0.050	0.053
-173.954	-72.836	0.120	-0.044
-172.939	75.327	-0.099	0.103
-171.925	-17.399	-0.331	0.206
-170.910	-200.000	-0.002	-0.009
-169.896	466.301	0.138	0.306
-168.881	-6.814	-0.180	0.121
-167.866	-41.738	-0.304	-0.155
-166.852	-200.000	-0.014	0.265
-165.837	-200.000	-0.037	-0.255
-164.823	-102.999	-0.375	-0.088
-163.808	-46.389	-0.099	0.048
-162.793	58.774	0.324	-0.314
-161.779	-22.852	0.151	0.090
-160.764	17.027	0.323	0.253
-159.750	-200.000	-0.059	-0.344
-158.735	-159.658	-0.083	-0.005
-157.720	-200.000	-0.008	-0.101
-156.706	800.000	0.141	0.518
-155.691	-109.842	-0.217	0.045
-154.677	-163.614	-0.113	0.005
-153.662	-200.000	0.019	0.210
-152.647	65.751	-0.188	-0.188
-151.633	800.000	-0.049	0.186
-150.618	58.627	-0.231	-0.224
-149.604	-88.152	0.322	0.096
-148.589	-162.132	0.226	-0.011
-147.574	-29.910	0.081	-0.046
-146.560	-7.540	-0.221	0.148
-145.545	-164.447	-0.117	-0.005
-144.531	-84.621	0.052	0.016
-143.516	-73.152	-0.239	0.086
-142.502	-132.513	0.207	0.026
-141.487	83.792	0.249	0.269
-140.472	93.658	0.278	0.311
-139.458	62.766	0.107	-0.106
-138.443	800.000	-0.036	0.129
-137.429	-55.699	0.343	-0.151
-136.414	88.765	0.191	0.210
-135.399	-129.237	-0.095	0.013
-134.385	96.519	0.209	-0.236
-133.370	422.356	0.188	-0.398
-132.356	-106.669	0.083	0.018
-131.341	-96.162	0.102	-0.027
-130.326	-30.255	-0.189	0.106
-129.312	-64.696	0.194	-0.078
-128.297	-130.240	0.167	0.022
-127.283	-72.982	-0.185	-0.067
-126.268	25.750	0.304	-0.250
-125.253	7.618	-0.153	0.113
-124.239	-45.979	-0.247	0.120
-123.224	410.849	0.145	-0.304
-122.210	146.644	-0.164	0.218
-121.195	-72.740	0.079	-0.029
