DTS Sentinel unit serial number:	SN413079Multiplexer serial number:	ORYXHardware model number:	OX4-SRSoftware version number:	ORYX F/W v4.00 Oryx Data Collector v3.7.2.0data status	okinstallation	princeton_trtdifferential loss correction	single-endedforward channel	channel 4reverse channel	N/Adate	2019/09/15time	18:25:35forward acquisition time	60.00reverse acquisition time	0.00gamma	496.2192k internal	0.2276k external	0.2276temperature offset calibration	0.9918default loss term (dB/km)	0.3790temperature slope calibration	1.0000multiplexer offset coefficient	1.0000multiplexer slope coefficient	1.0000fibre end	0.00T internal ref (°C)	44.25T ext. ref 1 (°C)	6.69T ext. ref 2 (°C)	38.01length (m)	temperature (°C)	Stokes	anti-Stokes-747.200	-200.000	-0.064	-0.317
-746.185	-8.051	0.223	0.155
-745.171	-145.638	-0.118	-0.011
-744.156	128.413	0.090	-0.118
-743.142	-102.123	-0.089	0.022
-742.127	-80.489	-0.211	-0.072
-741.112	215.185	0.102	0.167
-740.098	272.959	0.128	0.233
-739.083	34.724	-0.263	-0.237
-738.069	190.794	-0.265	0.410
-737.054	-200.000	-0.007	-0.108
-736.039	800.000	-0.077	0.303
-735.025	800.000	0.107	0.349
-734.010	101.325	0.216	0.259
-732.996	800.000	-0.028	0.107
-731.981	-148.730	0.047	-0.004
-730.966	800.000	0.059	0.176
-729.952	-145.014	-0.537	-0.050
-728.937	-13.083	0.132	-0.088
-727.923	-200.000	-0.022	-0.102
-726.908	-0.695	0.155	0.113
-725.894	24.011	-0.166	-0.141
-724.879	800.000	0.072	0.258
-723.864	269.082	-0.070	-0.126
-722.850	533.937	-0.083	-0.202
-721.835	-14.409	-0.018	0.012
-720.821	197.746	-0.144	-0.226
-719.806	-182.486	0.364	0.007
-718.791	-139.011	-0.124	0.014
-717.777	147.390	-0.104	0.144
-716.762	589.088	-0.083	-0.212
-715.748	-37.193	0.223	0.123
-714.733	-140.162	-0.069	-0.007
-713.718	-105.222	-0.219	0.051
-712.704	-31.501	0.083	0.048
-711.689	242.702	0.097	-0.167
-710.675	-116.367	0.202	0.038
-709.660	141.849	0.166	-0.226
-708.645	103.976	-0.096	0.116
-707.631	324.797	-0.119	0.233
-706.616	-125.790	-0.324	-0.050
-705.602	-22.871	0.152	0.094
-704.587	-58.892	0.156	-0.069
-703.572	800.000	0.016	0.060
-702.558	278.538	0.088	-0.162
-701.543	-200.000	0.030	0.163
-700.529	-128.802	0.141	0.020
-699.514	-17.447	-0.276	-0.178
-698.499	736.635	-0.109	0.300
-697.485	532.910	0.039	0.096
-696.470	-98.977	-0.223	0.058
-695.456	478.567	0.061	0.142
-694.441	-54.746	0.178	-0.083
-693.426	800.000	-0.050	0.187
-692.412	-129.926	-0.276	0.039
-691.397	-28.934	-0.434	-0.257
-690.383	196.028	-0.124	-0.194
-689.368	513.121	0.160	-0.383
-688.354	-32.742	-0.193	0.110
-687.339	-23.975	0.344	0.211
-686.324	800.000	-0.025	-0.078
-685.310	83.259	0.158	-0.176
-684.295	-138.600	-0.114	-0.013
-683.281	-58.924	0.148	0.066
-682.266	800.000	-0.023	0.090
-681.251	-200.000	0.052	0.285
-680.237	-121.548	-0.207	-0.035
-679.222	-172.286	0.597	-0.020
-678.208	-131.680	-0.248	-0.033
-677.193	-43.905	0.242	0.125
-676.178	-103.767	-0.295	0.071
-675.164	-66.860	0.308	0.125
-674.149	-87.977	-0.168	0.052
-673.135	110.040	0.060	-0.074
-672.120	106.190	-0.227	-0.276
-671.105	-200.000	-0.031	-0.167
-670.091	234.210	-0.013	-0.021
-669.076	483.067	0.164	0.382
-668.062	92.338	-0.161	-0.186
-667.047	-200.000	0.011	-0.065
-666.032	-200.000	-0.017	-0.137
-665.018	-105.136	0.173	0.041
-664.003	-200.000	0.225	-0.001
-662.989	-200.000	0.069	0.467
-661.974	122.116	-0.321	0.411
-660.959	800.000	0.020	-0.073
-659.945	-139.253	-0.035	0.004
-658.930	44.780	-0.188	-0.178
-657.916	-122.506	0.031	-0.005
-656.901	-111.162	-0.248	0.052
-655.886	81.686	-0.121	-0.134
-654.872	-12.072	0.237	-0.160
-653.857	232.643	-0.157	-0.265
-652.843	-16.496	-0.124	0.081
-651.828	-200.000	0.020	0.145
-650.814	31.100	-0.074	0.065
-649.799	44.802	-0.099	-0.094
-648.784	219.474	0.111	0.183
-647.770	126.687	-0.016	-0.021
-646.755	-102.289	-0.259	-0.064
-645.741	800.000	-0.036	-0.103
-644.726	-2.119	-0.043	0.031
-643.711	-67.967	0.054	-0.022
-642.697	-1.457	0.216	0.156
-641.682	-200.000	0.090	0.000
-640.668	-153.622	-0.152	-0.011
-639.653	-15.166	-0.147	-0.097
-638.638	207.736	-0.076	-0.121
-637.624	-200.000	-0.033	0.152
-636.609	-200.000	-0.003	-0.148
-635.595	-200.000	-0.063	-0.315
-634.580	169.756	0.058	0.085
-633.565	-8.700	-0.260	-0.179
-632.551	-146.847	0.329	-0.029
-631.536	-200.000	-0.014	0.158
-630.522	765.469	-0.061	0.169
-629.507	-52.858	-0.139	-0.066
-628.492	-88.846	-0.372	0.113
-627.478	21.789	-0.202	0.169
-626.463	-200.000	0.017	0.087
-625.449	109.345	0.125	0.154
-624.434	-152.815	-0.310	-0.023
-623.419	11.501	-0.276	0.217
-622.405	-200.000	0.012	-0.126
-621.390	-44.992	0.334	-0.170
-620.376	-73.842	0.080	0.030
-619.361	-200.000	-0.012	0.094
-618.346	-110.125	0.184	-0.039
-617.332	204.876	-0.224	-0.356
-616.317	800.000	-0.165	-0.514
-615.303	-54.500	0.100	0.046
-614.288	-200.000	0.014	-0.066
-613.273	-67.727	0.138	-0.055
-612.259	268.844	0.139	-0.250
-611.244	-57.542	0.060	0.027
-610.230	-13.094	0.230	0.153
-609.215	-200.000	-0.059	-0.353
-608.201	-75.494	0.126	0.046
-607.186	-125.189	-0.517	0.081
-606.171	-200.000	-0.080	0.391
-605.157	-65.641	0.096	0.040
-604.142	415.682	0.120	-0.262
-603.128	536.993	0.100	-0.243
-602.113	9.140	-0.341	0.264
-601.098	-130.986	-0.302	-0.041
-600.084	84.224	0.217	0.244
-599.069	-200.000	0.005	-0.065
-598.055	191.820	0.162	-0.250
-597.040	-200.000	0.036	-0.187
-596.025	48.757	0.102	-0.098
-595.011	-146.389	0.186	0.017
-593.996	-87.822	0.189	-0.058
-592.982	-59.728	0.155	-0.068
-591.967	-200.000	-0.010	-0.321
-590.952	334.340	0.117	0.232
-589.938	-122.346	0.323	-0.054
-588.923	-69.780	-0.141	0.055
-587.909	-89.550	-0.279	0.084
-586.894	-137.312	0.252	0.029
-585.879	-131.384	-0.193	-0.026
-584.865	-200.000	0.023	-0.125
-583.850	-9.277	0.216	-0.148
-582.836	-122.459	0.114	0.019
-581.821	-200.000	0.003	0.014
-580.806	-200.000	-0.011	0.088
-579.792	25.156	-0.246	-0.209
-578.777	-37.757	0.242	0.132
-577.763	800.000	0.007	0.027
-576.748	-200.000	-0.021	0.308
-575.733	-136.247	-0.236	0.028
-574.719	-200.000	-0.002	-0.226
-573.704	84.145	0.089	-0.100
-572.690	-25.864	0.193	-0.117
-571.675	-125.641	0.152	0.024
-570.661	-63.754	-0.073	-0.031
-569.646	-104.762	0.090	-0.021
-568.631	240.930	0.124	-0.212
-567.617	-200.000	0.006	-0.204
-566.602	100.765	-0.074	-0.088
-565.588	345.989	0.029	-0.058
-564.573	-164.730	0.146	0.007
-563.558	169.612	0.033	0.049
-562.544	23.452	0.167	0.140
-561.529	-95.004	0.214	0.059
-560.515	140.901	0.116	0.157
-559.500	466.194	0.129	-0.295
-558.485	-89.596	0.169	0.051
-557.471	-200.000	-0.006	-0.144
-556.456	4.810	0.083	0.063
-555.442	-59.199	0.051	0.023
-554.427	-200.000	0.017	-0.120
-553.412	63.137	0.079	-0.081
-552.398	-159.677	0.216	0.012
-551.383	-148.741	0.247	-0.021
-550.369	73.691	-0.290	0.311
-549.354	800.000	-0.073	-0.272
-548.339	-148.632	-0.181	-0.015
-547.325	-200.000	0.008	-0.036
-546.310	181.248	0.115	0.173
-545.296	-200.000	-0.015	-0.229
-544.281	-36.447	-0.176	-0.097
-543.266	157.880	0.071	-0.100
-542.252	-56.856	-0.185	0.084
-541.237	800.000	0.087	0.374
-540.223	-194.565	0.101	-0.001
-539.208	137.518	-0.144	0.193
-538.193	142.201	-0.127	0.173
-537.179	-49.229	-0.214	-0.105
-536.164	-200.000	-0.001	-0.079
-535.150	698.530	0.124	0.334
-534.135	-56.657	-0.084	0.038
-533.121	162.669	-0.055	0.080
-532.106	-102.568	0.186	0.045
-531.091	102.571	-0.033	-0.039
-530.077	557.818	-0.021	0.051
-529.062	800.000	0.136	0.465
-528.048	-59.024	-0.071	-0.031
-527.033	316.461	-0.086	-0.166
-526.018	800.000	0.019	0.073
-525.004	-200.000	-0.023	-0.272
-523.989	-125.941	-0.300	0.046
-522.975	800.000	0.016	-0.050
-521.960	56.258	0.023	-0.023
-520.945	-19.231	-0.158	0.100
-519.931	235.163	-0.130	0.219
-518.916	-200.000	0.008	0.377
-517.902	-182.319	0.066	0.001
-516.887	-84.332	-0.245	-0.079
-515.872	22.963	-0.116	0.097
-514.858	-200.000	-0.053	-0.429
-513.843	20.967	-0.248	-0.206
-512.829	421.945	-0.108	-0.236
-511.814	0.090	-0.095	0.069
-510.799	-39.929	0.211	0.112
-509.785	-149.653	0.255	-0.021
-508.770	27.962	-0.243	-0.209
-507.756	-70.752	0.106	-0.041
-506.741	-123.002	-0.259	-0.043
-505.726	-10.705	0.263	0.178
-504.712	191.578	0.114	0.176
-503.697	-200.000	0.028	0.129
-502.683	88.665	0.246	0.279
-501.668	-200.000	0.009	-0.197
-500.653	28.522	-0.134	0.116
-499.639	59.083	-0.260	0.261
-498.624	-200.000	0.003	-0.176
-497.610	-93.354	-0.110	0.031
-496.595	134.261	0.135	0.178
-495.581	30.375	0.168	0.147
-494.566	-146.265	0.350	0.031
-493.551	-100.891	-0.105	0.026
-492.537	20.792	0.154	0.127
-491.522	-38.633	-0.142	0.076
-490.508	17.958	0.036	-0.029
-489.493	-96.882	-0.173	0.046
-488.478	-99.568	-0.298	-0.077
-487.464	-86.116	-0.335	-0.106
-486.449	671.606	-0.021	0.054
-485.435	-125.577	0.377	-0.058
-484.420	276.446	-0.149	-0.270
-483.405	-200.000	-0.039	0.179
-482.391	800.000	-0.206	0.601
-481.376	540.745	-0.028	0.069
-480.362	-200.000	0.007	-0.198
-479.347	495.166	-0.030	0.071
-478.332	217.318	-0.116	-0.189
-477.318	531.997	-0.017	-0.041
-476.303	-7.696	-0.126	0.087
-475.289	185.184	-0.038	-0.057
-474.274	-182.329	0.106	0.002
-473.259	381.670	-0.145	0.304
-472.245	-36.273	-0.259	-0.142
-471.230	-98.269	-0.314	0.082
-470.216	180.592	-0.021	0.031
-469.201	46.274	-0.070	-0.066
-468.186	-66.422	0.058	-0.023
-467.172	534.651	0.071	-0.172
-466.157	-200.000	0.031	0.159
-465.143	58.886	-0.071	0.071
-464.128	112.805	0.027	0.033
-463.113	-150.410	-0.061	0.005
-462.099	120.826	-0.354	-0.449
-461.084	562.362	0.160	0.395
-460.070	-76.927	0.234	0.084
-459.055	197.374	0.109	0.169
-458.040	447.789	0.043	0.096
-457.026	-89.228	-0.423	0.127
-456.011	-171.288	0.189	0.006
-454.997	-40.276	-0.205	0.109
-453.982	428.581	0.049	-0.109
-452.968	-200.000	0.022	0.494
-451.953	-200.000	0.012	0.106
-450.938	536.960	0.091	-0.220
-449.924	166.885	0.104	0.150
-448.909	294.553	0.076	0.141
-447.895	18.100	-0.011	0.009
-446.880	-82.617	-0.353	-0.117
-445.865	170.871	0.234	0.342
-444.851	27.769	0.114	-0.098
-443.836	-144.447	-0.432	0.041
-442.822	207.959	0.106	0.169
-441.807	55.579	0.137	0.135
-440.792	-200.000	-0.019	-0.161
-439.778	-12.064	-0.167	0.112
-438.763	110.207	-0.187	0.229
-437.749	136.324	0.206	-0.274
-436.734	171.977	-0.161	0.236
-435.719	458.738	-0.038	-0.087
-434.705	-34.536	-0.046	-0.026
-433.690	-200.000	-0.047	-0.243
-432.676	-104.671	-0.083	0.019
-431.661	-168.563	0.155	0.006
-430.646	280.376	-0.012	-0.023
-429.632	-36.216	0.105	0.058
-428.617	-200.000	0.042	-0.224
-427.603	-200.000	-0.007	-0.222
-426.588	-200.000	0.022	-0.120
-425.573	-99.138	0.057	-0.015
-424.559	-200.000	0.332	-0.001
-423.544	-140.674	0.300	-0.032
-422.530	54.306	-0.058	0.057
-421.515	-154.363	-0.122	-0.008
-420.500	-200.000	-0.041	-0.270
-419.486	282.257	0.186	0.339
-418.471	-25.964	-0.291	-0.174
-417.457	20.374	-0.155	0.127
-416.442	-200.000	0.012	-0.066
-415.428	-200.000	0.009	-0.043
-414.413	-98.638	0.020	0.005
-413.398	-200.000	-0.012	0.178
-412.384	-52.719	0.149	-0.070
-411.369	8.052	0.061	0.047
-410.355	69.673	0.208	0.218
-409.340	257.177	-0.076	-0.133
-408.325	800.000	0.047	0.172
-407.311	-114.311	0.298	-0.058
-406.296	3.255	0.080	-0.059
-405.282	-200.000	0.053	0.274
-404.267	-172.107	0.296	0.010
-403.252	17.103	-0.175	0.141
-402.238	-200.000	-0.042	-0.256
-401.223	23.427	-0.156	-0.131
-400.209	104.404	0.037	-0.044
-399.194	57.223	0.182	0.181
-398.179	-53.198	-0.110	0.051
-397.165	-200.000	0.022	-0.194
-396.150	64.009	0.156	-0.160
-395.136	13.277	0.307	-0.242
-394.121	800.000	-0.045	0.182
-393.106	284.217	-0.070	-0.128
-392.092	800.000	-0.043	-0.151
-391.077	4.510	-0.106	0.079
-390.063	160.839	-0.031	0.045
-389.048	800.000	-0.022	0.075
-388.033	-94.471	-0.365	0.101
-387.019	-79.943	-0.174	0.060
-386.004	-185.171	-0.276	0.004
-384.990	-200.000	-0.047	-0.250
-383.975	655.865	-0.104	0.272
-382.960	-200.000	-0.042	0.255
-381.946	32.814	0.121	-0.106
-380.931	-38.161	-0.241	-0.130
-379.917	-98.130	0.359	-0.094
-378.902	12.269	0.131	-0.103
-377.888	-65.699	0.195	0.079
-376.873	188.661	0.186	0.283
-375.858	21.722	0.147	-0.122
-374.844	800.000	0.129	-0.379
-373.829	-60.658	0.095	0.041
-372.815	112.725	0.134	0.164
-371.800	8.614	-0.118	0.091
-370.785	61.518	0.078	0.079
-369.771	57.399	0.077	-0.076
-368.756	-132.468	0.181	-0.024
-367.742	-17.676	-0.113	-0.072
-366.727	398.824	-0.105	0.223
-365.712	-20.582	0.281	-0.175
-364.698	115.399	0.296	0.368
-363.683	-27.207	0.264	0.156
-362.669	182.401	0.156	0.233
-361.654	800.000	-0.047	0.185
-360.639	43.609	-0.132	0.123
-359.625	-158.187	-0.361	-0.021
-358.610	-200.000	0.006	-0.404
-357.596	-200.000	-0.040	-0.281
-356.581	222.927	-0.121	-0.198
-355.566	-79.125	-0.243	0.084
-354.552	288.881	-0.094	0.173
-353.537	-89.877	-0.237	-0.070
-352.523	-200.000	0.029	-0.286
-351.508	-200.000	0.008	-0.041
-350.493	46.351	-0.140	-0.132
-349.479	-73.109	-0.155	0.058
-348.464	-200.000	0.035	-0.200
-347.450	-111.902	-0.151	0.031
-346.435	121.360	0.173	0.219
-345.420	-92.067	-0.079	-0.023
-344.406	320.200	0.108	0.208
-343.391	-122.136	-0.306	-0.051
-342.377	-68.596	0.345	-0.136
-341.362	316.319	-0.122	0.234
-340.348	122.979	0.189	0.241
-339.333	135.279	0.164	-0.217
-338.318	-200.000	-0.048	-0.236
-337.304	257.431	0.111	-0.193
-336.289	-161.807	0.157	0.008
-335.275	237.910	0.263	-0.443
-334.260	-144.745	-0.274	0.026
-333.245	46.136	0.069	0.065
-332.231	189.099	0.224	0.341
-331.216	372.719	0.090	-0.185
-330.202	-200.000	-0.044	-0.513
-329.187	-45.978	0.119	0.059
-328.172	-33.661	0.113	0.063
-327.158	336.960	0.004	0.008
-326.143	-67.185	-0.252	0.101
-325.129	504.147	0.074	-0.173
-324.114	369.626	-0.250	-0.512
-323.099	49.875	-0.124	-0.119
-322.085	748.260	-0.117	-0.320
-321.070	-200.000	-0.075	-0.428
-320.056	3.334	0.084	0.062
-319.041	800.000	0.113	0.323
-318.026	231.631	-0.133	0.220
-317.012	800.000	-0.065	-0.197
-315.997	-200.000	-0.024	0.198
-314.983	-32.532	0.090	-0.051
-313.968	-200.000	-0.051	-0.277
-312.953	-149.233	0.275	-0.022
-311.939	-200.000	-0.008	-0.063
-310.924	160.165	-0.260	-0.367
-309.910	-200.000	-0.033	0.168
-308.895	800.000	-0.053	0.202
-307.880	-125.582	0.191	-0.029
-306.866	0.758	0.324	-0.235
-305.851	591.498	-0.207	0.519
-304.837	-200.000	-0.055	0.307
-303.822	-71.230	-0.260	0.099
-302.807	800.000	-0.041	-0.150
-301.793	-87.250	0.086	-0.026
-300.778	-200.000	0.022	-0.146
-299.764	-200.000	-0.071	0.344
-298.749	-200.000	0.058	-0.295
-297.735	-115.951	0.167	0.031
-296.720	-42.187	-0.178	0.092
-295.705	440.243	-0.120	-0.265
-294.691	-70.732	0.225	-0.086
-293.676	-45.055	-0.300	-0.151
-292.662	-11.184	-0.317	-0.212
-291.647	-105.952	-0.106	-0.024
-290.632	35.173	-0.320	0.284
-289.618	-122.303	-0.542	-0.090
-288.603	800.000	-0.068	0.259
-287.589	-200.000	0.001	0.311
-286.574	-58.953	0.246	0.108
-285.559	-152.591	-0.147	0.011
-284.545	55.363	-0.021	0.020
-283.530	83.541	-0.167	0.184
-282.516	65.952	-0.239	0.245
-281.501	-130.498	-0.352	-0.048
-280.486	490.198	-0.079	-0.184
-279.472	561.238	-0.144	-0.353
-278.457	-200.000	-0.002	0.123
-277.443	800.000	0.065	0.198
-276.428	308.538	0.040	0.076
-275.413	410.298	0.053	0.115
-274.399	800.000	0.083	0.250
-273.384	-157.647	0.357	-0.022
-272.370	-69.389	-0.139	-0.054
-271.355	-200.000	0.016	0.088
-270.340	800.000	0.016	-0.064
-269.326	554.538	0.116	0.283
-268.311	-200.000	0.013	-0.197
-267.297	-8.535	-0.207	0.141
-266.282	-16.556	0.248	0.159
-265.267	370.691	0.135	-0.277
-264.253	48.088	0.036	-0.034
-263.238	-62.997	-0.334	-0.140
-262.224	178.960	-0.127	-0.188
-261.209	-79.948	-0.402	-0.137
-260.195	-98.848	0.442	-0.114
-259.180	800.000	0.056	-0.244
-258.165	256.387	-0.049	-0.085
-257.151	-177.956	-0.372	0.009
-256.136	800.000	-0.072	0.285
-255.122	-153.002	0.244	-0.017
-254.107	119.276	0.169	0.212
-253.092	-157.588	0.019	0.001
-252.078	445.255	0.075	0.166
-251.063	-200.000	0.002	-0.062
-250.049	800.000	0.101	-0.329
-249.034	181.552	-0.297	-0.442
-248.019	117.551	0.039	0.049
-247.005	-77.946	0.277	0.096
-245.990	523.747	-0.087	-0.208
-244.976	44.958	0.158	-0.147
-243.961	-200.000	-0.061	0.287
-242.946	241.701	0.136	0.230
-241.932	124.327	-0.208	0.264
-240.917	-19.040	0.141	-0.089
-239.903	-197.757	0.351	-0.002
-238.888	18.029	0.191	-0.154
-237.873	800.000	0.094	0.289
-236.859	-118.871	0.212	0.038
-235.844	-33.560	-0.227	-0.126
-234.830	-200.000	0.021	-0.342
-233.815	27.831	0.486	-0.414
-232.800	6.344	-0.295	0.222
-231.786	163.205	-0.090	0.127
-230.771	-23.381	0.219	0.133
-229.757	-2.898	0.062	0.044
-228.742	-33.917	0.220	-0.122
-227.727	-124.498	-0.198	0.031
-226.713	-70.219	0.166	-0.064
-225.698	-190.965	-0.259	0.003
-224.684	95.723	-0.098	0.112
-223.669	-59.052	0.234	0.102
-222.655	-200.000	0.036	-0.223
-221.640	-60.422	-0.207	0.089
-220.625	132.893	-0.274	0.357
-219.611	-78.558	0.263	0.091
-218.596	-65.977	-0.374	-0.151
-217.582	298.698	0.220	0.408
-216.567	800.000	-0.074	0.269
-215.552	-200.000	-0.003	0.137
-214.538	-200.000	-0.022	0.154
-213.523	77.298	0.382	-0.410
-212.509	222.480	-0.102	0.166
-211.494	-16.156	0.180	-0.116
-210.479	-200.000	0.002	0.125
-209.465	800.000	0.033	-0.113
-208.450	402.314	-0.063	0.133
-207.436	-200.000	-0.028	-0.216
-206.421	800.000	0.060	-0.192
-205.406	31.498	-0.103	0.089
-204.392	9.660	0.256	0.196
-203.377	800.000	-0.023	-0.070
-202.363	800.000	0.008	-0.030
-201.348	-125.333	0.185	-0.029
-200.333	61.684	0.116	0.117
-199.319	-200.000	0.077	0.452
-198.304	122.608	-0.231	-0.291
-197.290	159.488	-0.188	-0.264
-196.275	-185.036	-0.118	0.002
-195.260	-89.502	-0.037	-0.011
-194.246	-142.407	-0.105	-0.010
-193.231	-200.000	0.014	0.145
-192.217	800.000	0.068	-0.212
-191.202	485.971	0.038	0.087
-190.187	-200.000	-0.040	0.257
-189.173	800.000	-0.080	0.247
-188.158	-200.000	-0.071	0.371
-187.144	66.913	0.272	-0.279
-186.129	189.998	-0.028	0.042
-185.114	-78.910	-0.206	-0.071
-184.100	68.527	0.362	-0.375
-183.085	800.000	0.085	-0.267
-182.071	-200.000	0.005	0.144
-181.056	-200.000	-0.027	-0.168
-180.042	2.667	-0.157	0.115
-179.027	184.857	0.138	-0.206
-178.012	-9.808	-0.123	-0.083
-176.998	-144.597	0.138	-0.013
-175.983	95.371	0.111	-0.127
-174.969	-149.306	-0.156	0.013
-173.954	-92.614	0.404	0.114
-172.939	-157.818	-0.281	0.017
-171.925	-22.211	0.158	0.097
-170.910	629.172	-0.071	0.181
-169.896	289.571	0.055	0.100
-168.881	420.576	0.304	-0.658
-167.866	-200.000	-0.015	-0.225
-166.852	16.147	0.098	0.078
-165.837	-16.598	0.194	0.124
-164.823	-66.189	-0.073	0.029
-163.808	10.782	-0.107	0.083
-162.793	-200.000	-0.038	0.226
-161.779	-200.000	0.004	-0.087
-160.764	632.284	0.079	-0.202
-159.750	-31.613	0.128	0.073
-158.735	231.405	0.155	0.255
-157.720	-91.560	-0.106	-0.030
-156.706	-145.140	0.179	0.016
-155.691	800.000	0.048	-0.136
-154.677	61.598	-0.075	-0.075
-153.662	-151.033	-0.208	-0.016
-152.647	-55.618	0.117	-0.053
-151.633	800.000	-0.079	0.300
-150.618	-200.000	-0.019	0.242
-149.604	-200.000	-0.037	0.172
-148.589	800.000	0.041	-0.134
-147.574	176.358	0.237	-0.347
-146.560	-116.390	-0.396	-0.074
-145.545	17.389	-0.157	-0.126
-144.531	439.895	-0.075	0.166
-143.516	-200.000	-0.024	0.245
-142.502	76.111	-0.057	-0.061
-141.487	800.000	-0.045	0.149
-140.472	-200.000	-0.009	-0.197
-139.458	-200.000	-0.042	-0.368
-138.443	-44.913	-0.177	-0.089
-137.429	648.320	-0.040	-0.103
-136.414	69.351	-0.092	-0.095
-135.399	84.998	0.155	-0.171
-134.385	23.221	-0.172	-0.142
-133.370	-200.000	0.013	-0.088
-132.356	46.176	0.248	0.231
-131.341	-24.180	-0.199	-0.119
-130.326	-60.808	-0.142	0.060
-129.312	-62.621	0.104	0.043
-128.297	318.721	0.222	0.423
-127.283	-200.000	-0.079	0.403
-126.268	-102.494	0.115	0.028
-125.253	-123.795	0.327	-0.052
-124.239	-200.000	-0.029	-0.219
-123.224	-62.624	0.181	0.076
-122.210	-200.000	0.008	-0.185
