DTS Sentinel unit serial number:	SN413079Multiplexer serial number:	ORYXHardware model number:	OX4-SRSoftware version number:	ORYX F/W v4.00 Oryx Data Collector v3.7.2.0data status	okinstallation	princeton_trtdifferential loss correction	single-endedforward channel	channel 4reverse channel	N/Adate	2019/09/12time	13:11:10forward acquisition time	60.00reverse acquisition time	0.00gamma	496.2192k internal	0.2286k external	0.2286temperature offset calibration	1.0073default loss term (dB/km)	0.3790temperature slope calibration	1.0000multiplexer offset coefficient	1.0000multiplexer slope coefficient	1.0000fibre end	0.00T internal ref (°C)	41.03T ext. ref 1 (°C)	2.08T ext. ref 2 (°C)	35.61length (m)	temperature (°C)	Stokes	anti-Stokes-747.200	-64.415	-0.647	-0.270
-746.185	25.031	-0.172	0.146
-745.171	-74.562	-0.091	0.034
-744.156	800.000	-0.036	-0.146
-743.142	800.000	0.088	-0.253
-742.127	-18.191	0.228	0.146
-741.112	10.314	0.113	0.088
-740.098	323.179	-0.115	0.225
-739.083	-24.172	0.243	0.149
-738.069	-178.734	-0.226	0.005
-737.054	-36.678	-0.163	0.090
-736.039	140.761	-0.127	0.172
-735.025	-200.000	0.016	-0.198
-734.010	-69.943	-0.322	-0.126
-732.996	-150.286	-0.266	-0.021
-731.981	540.646	0.153	0.373
-730.966	-95.771	0.267	0.073
-729.952	-78.187	-0.099	-0.035
-728.937	-175.414	0.158	0.004
-727.923	-148.454	0.118	0.010
-726.908	-87.119	0.154	-0.048
-725.894	-61.902	-0.208	-0.089
-724.879	-21.660	0.155	-0.097
-723.864	-104.287	0.189	0.045
-722.850	273.110	0.176	-0.318
-721.835	611.212	0.159	-0.409
-720.821	-39.649	-0.242	-0.130
-719.806	-113.596	-0.174	0.035
-718.791	800.000	-0.077	0.314
-717.777	74.538	-0.301	-0.324
-716.762	-148.447	-0.182	-0.015
-715.748	287.113	-0.270	-0.499
-714.733	-70.186	0.478	-0.186
-713.718	-36.695	0.215	0.119
-712.704	53.444	-0.172	-0.169
-711.689	430.716	-0.040	-0.089
-710.675	-200.000	-0.009	-0.374
-709.660	171.811	-0.043	0.064
-708.645	-200.000	0.007	-0.109
-707.631	505.703	-0.067	-0.160
-706.616	-67.826	0.138	-0.055
-705.602	-107.364	0.225	-0.051
-704.587	-49.057	0.062	0.030
-703.572	247.441	0.077	-0.134
-702.558	-157.176	-0.100	-0.006
-701.543	-114.929	0.250	-0.049
-700.529	-65.396	-0.038	-0.016
-699.514	220.014	0.071	-0.116
-698.499	159.793	-0.079	-0.112
-697.485	-200.000	-0.032	0.154
-696.470	-128.666	-0.358	-0.052
-695.456	-140.202	-0.214	-0.023
-694.441	42.092	0.298	0.277
-693.426	137.319	-0.180	-0.241
-692.412	87.753	-0.190	-0.216
-691.397	800.000	-0.054	0.185
-690.383	800.000	-0.063	-0.193
-689.368	800.000	-0.034	-0.152
-688.354	-200.000	0.026	0.198
-687.339	-170.478	0.107	0.004
-686.324	-200.000	0.020	0.143
-685.310	443.239	0.170	0.382
-684.295	570.613	0.099	-0.246
-683.281	764.857	-0.173	0.480
-682.266	-91.646	-0.266	-0.077
-681.251	174.162	0.081	-0.119
-680.237	-6.332	0.329	0.229
-679.222	107.079	0.150	-0.183
-678.208	800.000	0.062	-0.236
-677.193	101.258	-0.098	-0.116
-676.178	-200.000	-0.049	-0.249
-675.164	800.000	0.064	-0.237
-674.149	-72.487	-0.403	-0.152
-673.135	394.208	0.035	0.074
-672.120	16.988	0.104	-0.084
-671.105	723.914	-0.062	-0.169
-670.091	-200.000	-0.047	0.344
-669.076	-200.000	-0.019	-0.220
-668.062	-83.158	-0.207	-0.068
-667.047	29.455	-0.212	0.184
-666.032	-200.000	0.015	-0.197
-665.018	125.027	0.138	-0.178
-664.003	432.218	0.132	0.292
-662.989	88.954	-0.287	0.326
-661.974	167.890	0.144	-0.209
-660.959	-71.877	-0.365	-0.139
-659.945	541.709	0.072	-0.175
-658.930	138.003	-0.102	-0.137
-657.916	-48.808	0.149	-0.073
-656.901	149.269	0.093	-0.128
-655.886	53.753	0.065	-0.064
-654.872	-27.737	-0.261	-0.155
-653.857	221.344	0.085	-0.139
-652.843	69.091	0.108	-0.113
-651.828	800.000	0.059	-0.174
-650.814	39.910	0.207	0.190
-649.799	-162.173	0.339	-0.017
-648.784	101.138	-0.051	0.061
-647.770	183.123	0.132	-0.199
-646.755	-10.705	0.194	0.131
-645.741	13.172	-0.092	-0.073
-644.726	-124.489	0.276	0.044
-643.711	100.284	-0.232	-0.275
-642.697	-146.435	-0.331	-0.030
-641.682	-109.090	0.078	-0.017
-640.668	-200.000	0.007	-0.235
-639.653	-200.000	0.020	0.236
-638.638	-117.468	-0.131	-0.024
-637.624	296.756	0.158	-0.296
-636.609	-72.983	-0.318	0.119
-635.595	-59.209	0.143	0.063
-634.580	-172.191	-0.292	0.010
-633.565	-11.747	0.205	0.137
-632.551	-143.778	0.137	-0.013
-631.536	-200.000	0.007	0.136
-630.522	-200.000	0.035	-0.211
-629.507	-155.242	-0.267	0.018
-628.492	-86.962	-0.267	-0.083
-627.478	-101.030	-0.310	-0.078
-626.463	34.492	-0.099	0.088
-625.449	800.000	0.029	0.128
-624.434	-102.246	0.090	-0.022
-623.419	-200.000	0.029	0.215
-622.405	-103.228	-0.090	-0.022
-621.390	231.770	-0.143	0.239
-620.376	-40.712	-0.227	-0.120
-619.361	-19.862	0.041	-0.026
-618.346	645.870	0.120	-0.313
-617.332	458.592	0.092	-0.209
-616.317	-35.328	-0.103	0.057
-615.303	288.446	-0.063	0.116
-614.288	-200.000	0.036	0.365
-613.273	407.831	-0.068	0.147
-612.259	-200.000	0.006	-0.145
-611.244	139.033	0.059	-0.080
-610.230	729.130	0.109	-0.296
-609.215	-128.599	-0.286	0.041
-608.201	7.680	0.181	0.138
-607.186	487.454	0.075	-0.174
-606.171	102.040	-0.087	-0.103
-605.157	576.055	-0.174	0.434
-604.142	96.925	0.152	-0.178
-603.128	51.982	-0.254	0.247
-602.113	202.638	0.150	-0.236
-601.098	251.657	-0.140	-0.243
-600.084	-200.000	0.007	-0.173
-599.069	364.205	0.065	0.134
-598.055	-65.466	-0.096	-0.039
-597.040	446.603	0.197	-0.442
-596.025	-91.078	0.255	-0.075
-595.011	382.616	0.058	-0.122
-593.996	-48.991	0.017	-0.008
-592.982	-200.000	-0.015	-0.152
-591.967	-200.000	0.028	0.320
-590.952	-200.000	0.015	-0.076
-589.938	800.000	0.049	-0.172
-588.923	-22.866	0.176	0.109
-587.909	-102.601	0.318	-0.077
-586.894	-200.000	0.013	0.128
-585.879	800.000	0.097	0.320
-584.865	-200.000	-0.040	0.225
-583.850	-200.000	0.018	0.147
-582.836	-200.000	-0.020	0.422
-581.821	-200.000	-0.035	0.439
-580.806	233.038	-0.100	0.168
-579.792	800.000	0.036	-0.153
-578.777	140.728	0.208	-0.281
-577.763	97.535	0.246	-0.288
-576.748	-200.000	0.032	0.225
-575.733	800.000	-0.095	-0.340
-574.719	181.883	0.100	-0.151
-573.704	800.000	0.030	-0.097
-572.690	-76.274	-0.298	-0.107
-571.675	248.840	-0.186	-0.321
-570.661	-200.000	-0.007	-0.108
-569.646	-60.507	0.350	-0.151
-568.631	70.047	-0.303	0.318
-567.617	-71.436	0.039	-0.015
-566.602	144.674	0.086	0.117
-565.588	294.582	-0.179	0.333
-564.573	53.800	0.187	-0.183
-563.558	-200.000	0.006	0.112
-562.544	-200.000	0.006	0.203
-561.529	230.194	0.086	-0.144
-560.515	-60.424	0.040	-0.017
-559.500	800.000	0.055	0.222
-558.485	20.686	-0.177	-0.146
-557.471	109.037	0.069	-0.084
-556.456	90.970	-0.182	0.208
-555.442	-200.000	-0.000	-0.143
-554.427	8.221	-0.049	-0.038
-553.412	800.000	-0.044	0.193
-552.398	-126.296	-0.182	0.028
-551.383	-200.000	-0.008	-0.071
-550.369	53.083	-0.301	-0.294
-549.354	-186.885	0.065	-0.001
-548.339	800.000	0.111	0.324
-547.325	143.328	-0.169	0.229
-546.310	-58.292	0.110	-0.049
-545.296	273.220	-0.112	-0.201
-544.281	-170.845	-0.212	-0.007
-543.266	496.705	-0.030	-0.069
-542.252	732.394	0.116	-0.315
-541.237	27.884	-0.268	0.230
-540.223	-98.199	-0.351	0.092
-539.208	-92.026	-0.289	0.083
-538.193	-200.000	0.049	0.280
-537.179	-114.542	0.213	-0.042
-536.164	800.000	-0.109	-0.375
-535.150	-200.000	-0.030	-0.412
-534.135	26.155	0.259	0.220
-533.121	67.698	0.147	0.153
-532.106	-11.133	-0.187	0.125
-531.091	-115.479	-0.191	0.037
-530.077	71.807	0.138	0.146
-529.062	587.039	-0.082	-0.206
-528.048	-200.000	-0.065	0.296
-527.033	-200.000	-0.244	-0.001
-526.018	-168.850	-0.116	0.004
-525.004	-37.311	-0.133	-0.072
-523.989	108.775	0.179	0.217
-522.975	-84.645	-0.149	0.048
-521.960	800.000	0.093	0.324
-520.945	800.000	-0.100	0.328
-519.931	436.376	-0.052	0.116
-518.916	-200.000	0.051	0.368
-517.902	-78.573	0.170	-0.059
-516.887	-59.315	-0.340	-0.149
-515.872	800.000	0.038	-0.139
-514.858	13.667	0.257	0.203
-513.843	43.209	0.135	0.125
-512.829	800.000	0.068	-0.243
-511.814	340.315	0.197	-0.391
-510.799	-84.940	0.033	-0.010
-509.785	-83.833	-0.213	0.069
-508.770	187.612	-0.019	-0.029
-507.756	168.602	0.185	-0.267
-506.741	-165.577	0.117	0.005
-505.726	-66.700	-0.139	0.056
-504.712	30.151	0.175	0.152
-503.697	-80.289	-0.309	-0.105
-502.683	-119.785	-0.294	0.052
-501.668	613.470	-0.127	-0.322
-500.653	-49.738	0.210	-0.101
-499.639	6.801	0.211	0.159
-498.624	800.000	0.094	-0.306
-497.610	-163.750	0.283	-0.013
-496.595	708.404	-0.074	-0.200
-495.581	186.790	-0.165	-0.251
-494.566	470.826	-0.042	-0.096
-493.551	769.776	0.174	0.481
-492.537	-89.268	-0.164	0.049
-491.522	-103.723	0.257	0.061
-490.508	-131.551	0.015	0.002
-489.493	662.841	0.008	-0.020
-488.478	-121.473	-0.112	-0.019
-487.464	90.715	0.091	0.104
-486.449	185.277	-0.099	-0.149
-485.435	-131.683	0.441	0.059
-484.420	-28.915	-0.227	0.132
-483.405	715.627	-0.041	0.111
-482.391	800.000	0.040	0.124
-481.376	-200.000	-0.008	0.236
-480.362	42.622	-0.208	0.193
-479.347	-48.639	-0.136	-0.066
-478.332	-98.367	0.126	-0.033
-477.318	-200.000	0.036	-0.439
-476.303	131.559	0.112	0.146
-475.289	-69.112	0.165	-0.064
-474.274	800.000	-0.044	0.163
-473.259	74.635	-0.168	-0.179
-472.245	-111.503	-0.316	0.065
-471.230	-78.579	0.186	-0.064
-470.216	267.935	-0.091	0.161
-469.201	-48.907	-0.408	-0.199
-468.186	-12.136	0.365	0.242
-467.172	-0.189	-0.175	0.126
-466.157	294.574	0.098	0.182
-465.143	331.655	0.168	-0.330
-464.128	-67.545	-0.212	0.085
-463.113	-42.603	-0.234	-0.121
-462.099	-200.000	-0.008	-0.211
-461.084	32.199	-0.136	0.119
-460.070	-138.473	0.238	-0.027
-459.055	100.458	-0.035	0.041
-458.040	-97.535	0.323	0.085
-457.026	517.652	-0.164	-0.389
-456.011	12.036	0.196	0.153
-454.997	283.151	0.242	-0.441
-453.982	-111.282	0.195	0.040
-452.968	-200.000	-0.064	0.345
-451.953	175.626	-0.063	0.092
-450.938	-200.000	-0.060	-0.299
-449.924	-147.834	0.256	-0.022
-448.909	23.247	0.013	0.011
-447.895	1.578	0.232	-0.169
-446.880	63.833	-0.061	-0.063
-445.865	-135.539	-0.184	0.022
-444.851	47.533	-0.205	-0.193
-443.836	434.128	-0.107	-0.235
-442.822	614.134	0.062	-0.157
-441.807	-67.079	-0.231	-0.092
-440.792	-200.000	-0.011	-0.138
-439.778	-140.517	0.164	0.017
-438.763	-200.000	0.059	0.345
-437.749	-50.255	-0.223	-0.107
-436.734	-200.000	0.062	0.472
-435.719	358.976	-0.203	0.410
-434.705	-200.000	-0.011	0.132
-433.690	-31.576	-0.332	0.189
-432.676	-200.000	0.006	0.193
-431.661	34.891	-0.257	-0.228
-430.646	-152.987	-0.300	0.021
-429.632	-85.774	-0.384	0.121
-428.617	37.961	0.222	-0.200
-427.603	261.542	0.038	0.067
-426.588	-39.667	-0.208	0.110
-425.573	196.084	0.069	0.106
-424.559	-200.000	0.038	-0.250
-423.544	699.427	0.057	0.153
-422.530	82.550	-0.156	0.172
-421.515	228.085	-0.118	0.195
-420.500	-45.553	-0.076	0.038
-419.486	-125.277	-0.175	-0.027
-418.471	10.043	-0.057	0.044
-417.457	644.416	-0.104	-0.270
-416.442	800.000	-0.116	-0.380
-415.428	-22.006	0.257	0.158
-414.413	-108.829	-0.330	0.072
-413.398	-200.000	-0.038	-0.176
-412.384	664.522	0.064	-0.167
-411.369	-200.000	0.001	-0.056
-410.355	-62.805	-0.154	-0.065
-409.340	-200.000	-0.031	-0.304
-408.325	452.460	0.032	-0.072
-407.311	6.633	0.189	0.142
-406.296	-200.000	-0.013	0.141
-405.282	-200.000	-0.028	0.255
-404.267	-120.827	0.077	0.013
-403.252	-84.845	0.122	-0.039
-402.238	-95.110	0.278	0.076
-401.223	-96.905	-0.130	-0.035
-400.209	140.076	-0.056	-0.075
-399.194	800.000	-0.086	0.319
-398.179	800.000	0.049	-0.170
-397.165	-77.546	0.276	0.097
-396.150	-139.594	0.202	-0.022
-395.136	106.696	0.075	-0.090
-394.121	-141.105	-0.117	-0.012
-393.106	72.889	-0.084	-0.088
-392.092	319.781	-0.145	-0.279
-391.077	35.462	-0.094	0.084
-390.063	-71.361	0.153	-0.058
-389.048	-22.259	0.170	0.104
-388.033	345.078	0.044	-0.087
-387.019	105.039	0.088	0.106
-386.004	-200.000	-0.043	-0.514
-384.990	-4.154	0.320	-0.224
-383.975	-116.574	-0.157	0.029
-382.960	-165.519	-0.236	-0.010
-381.946	-200.000	-0.071	0.331
-380.931	800.000	-0.047	-0.160
-379.917	-200.000	-0.021	-0.225
-378.902	47.262	-0.188	-0.178
-377.888	-123.924	-0.382	0.061
-376.873	54.255	0.187	0.182
-375.858	113.847	-0.065	-0.080
-374.844	130.679	0.280	-0.364
-373.829	-75.545	0.395	0.142
-372.815	-23.923	-0.122	-0.074
-371.800	800.000	0.056	0.209
-370.785	-200.000	0.017	0.432
-369.771	67.906	-0.160	0.165
-368.756	-140.383	0.186	-0.020
-367.742	-15.751	0.212	0.136
-366.727	-200.000	0.020	0.331
-365.712	-45.678	0.201	-0.100
-364.698	-200.000	-0.003	-0.175
-363.683	193.224	0.081	-0.124
-362.669	800.000	-0.018	-0.068
-361.654	773.047	0.039	-0.109
-360.639	-126.228	-0.336	-0.051
-359.625	753.233	0.170	-0.463
-358.610	-200.000	-0.020	0.349
-357.596	-200.000	-0.000	0.211
-356.581	158.708	-0.068	0.095
-355.566	-83.953	0.208	-0.067
-354.552	-185.185	-0.224	0.004
-353.537	800.000	-0.019	-0.073
-352.523	72.191	0.112	0.118
-351.508	-200.000	-0.012	-0.166
-350.493	-24.922	-0.110	-0.066
-349.479	520.963	-0.086	0.205
-348.464	428.894	-0.123	0.269
-347.450	383.048	-0.112	-0.232
-346.435	-49.854	-0.217	-0.104
-345.420	-59.082	-0.123	0.053
-344.406	-200.000	-0.008	0.288
-343.391	-200.000	0.049	-0.238
-342.377	49.848	-0.068	-0.064
-341.362	-103.902	0.301	-0.071
-340.348	-91.839	0.073	-0.021
-339.333	-10.520	-0.194	-0.130
-338.318	289.872	0.160	-0.293
-337.304	-83.413	0.316	-0.102
-336.289	-200.000	-0.028	-0.276
-335.275	541.128	-0.137	-0.329
-334.260	199.954	0.243	0.376
-333.245	173.877	0.115	0.167
-332.231	-200.000	0.014	0.126
-331.216	-69.021	0.375	-0.146
-330.202	-101.036	0.365	0.090
-329.187	63.871	0.171	0.173
-328.172	104.704	-0.051	-0.061
-327.158	800.000	0.070	0.209
-326.143	-148.864	-0.270	0.022
-325.129	188.255	0.199	0.301
-324.114	-200.000	0.069	0.413
-323.099	-200.000	0.004	-0.362
-322.085	-43.323	0.208	0.106
-321.070	203.538	-0.197	-0.308
-320.056	-36.951	-0.318	-0.172
-319.041	-200.000	-0.004	0.163
-318.026	800.000	0.070	0.197
-317.012	-25.750	0.246	-0.146
-315.997	23.873	0.245	-0.204
-314.983	-58.869	-0.109	-0.048
-313.968	-47.660	-0.210	-0.103
-312.953	-200.000	-0.019	0.433
-311.939	-11.169	-0.211	0.140
-310.924	-0.935	0.054	-0.039
-309.910	-27.057	0.233	0.137
-308.895	285.150	0.079	0.143
-307.880	-53.092	-0.261	-0.121
-306.866	157.510	0.184	-0.257
-305.851	513.140	-0.123	-0.289
-304.837	599.127	-0.051	0.128
-303.822	32.686	0.243	-0.212
-302.807	-127.983	-0.101	-0.015
-301.793	800.000	0.039	-0.157
-300.778	269.436	-0.013	0.023
-299.764	24.889	0.315	0.263
-298.749	40.971	-0.265	0.241
-297.735	-200.000	0.047	0.340
-296.720	52.098	-0.284	0.273
-295.705	-21.380	0.270	-0.166
-294.691	-64.207	0.205	0.084
-293.676	-200.000	-0.046	0.217
-292.662	-27.239	-0.353	-0.207
-291.647	-162.670	-0.469	0.023
-290.632	-200.000	0.178	0.001
-289.618	213.853	-0.084	-0.133
-288.603	-200.000	-0.019	-0.136
-287.589	39.185	-0.085	0.076
-286.574	-200.000	-0.005	0.129
-285.559	-200.000	0.127	-0.001
-284.545	291.228	-0.156	0.285
-283.530	768.521	-0.057	-0.157
-282.516	800.000	-0.135	0.381
-281.501	-3.928	-0.105	-0.073
-280.486	-200.000	-0.006	-0.066
-279.472	345.696	0.029	-0.058
-278.457	-200.000	-0.040	-0.285
-277.443	58.095	0.186	0.183
-276.428	-200.000	0.060	0.343
-275.413	-84.501	0.234	-0.075
-274.399	-77.737	-0.243	-0.085
-273.384	-200.000	0.073	-0.344
-272.370	-89.935	0.077	-0.023
-271.355	-54.905	-0.129	0.058
-270.340	800.000	0.030	-0.111
-269.326	-65.168	0.199	0.081
-268.311	565.005	0.099	-0.243
-267.297	-200.000	-0.010	-0.064
-266.282	-164.528	-0.071	0.003
-265.267	800.000	-0.047	0.144
-264.253	-200.000	-0.044	-0.243
-263.238	346.668	-0.126	-0.249
-262.224	170.245	0.040	-0.057
-261.209	-55.131	0.331	-0.150
-260.195	73.178	-0.081	0.085
-259.180	-102.329	-0.093	-0.022
-258.165	60.844	-0.114	0.113
-257.151	-147.441	0.219	0.019
-256.136	-200.000	0.050	0.274
-255.122	-29.401	0.131	-0.075
-254.107	-200.000	-0.028	-0.151
-253.092	524.423	-0.056	-0.133
-252.078	-200.000	0.045	0.383
-251.063	-200.000	0.042	-0.236
-250.049	-200.000	-0.007	0.051
-249.034	-91.986	0.325	0.093
-248.019	-200.000	0.197	-0.000
-247.005	-92.207	0.199	-0.056
-245.990	-200.000	0.038	0.260
-244.976	800.000	-0.097	0.315
-243.961	237.615	-0.166	0.276
-242.946	-18.967	-0.183	-0.115
-241.932	-69.850	0.188	-0.072
-240.917	123.758	-0.042	0.053
-239.903	114.597	-0.254	0.312
-238.888	-144.936	-0.420	0.039
-237.873	-200.000	-0.014	0.284
-236.859	800.000	-0.044	-0.181
-235.844	800.000	-0.072	0.231
-234.830	-80.565	-0.068	0.023
-233.815	293.979	-0.097	-0.177
-232.800	-88.133	0.368	0.111
-231.786	-97.088	-0.075	0.020
-230.771	-200.000	0.046	0.435
-229.757	800.000	-0.042	-0.153
-228.742	365.762	-0.118	-0.239
-227.727	615.644	-0.040	0.102
-226.713	-182.556	-0.224	0.004
-225.698	-24.546	-0.100	0.060
-224.684	800.000	0.093	0.408
-223.669	-75.796	0.185	0.066
-222.655	15.352	-0.269	-0.212
-221.640	487.487	0.156	-0.358
-220.625	-200.000	0.008	-0.207
-219.611	251.622	0.045	-0.077
-218.596	90.462	0.172	-0.193
-217.582	466.646	-0.096	-0.217
-216.567	-147.716	0.070	0.006
-215.552	-23.167	0.185	-0.112
-214.538	-200.000	0.043	-0.343
-213.523	7.841	0.175	0.132
-212.509	-200.000	-0.046	-0.390
-211.494	-63.320	-0.177	-0.073
-210.479	800.000	-0.069	0.195
-209.465	-63.173	0.211	0.088
-208.450	28.959	0.068	0.058
-207.436	-77.582	0.113	0.039
-206.421	800.000	-0.084	-0.256
-205.406	-200.000	-0.025	-0.204
-204.392	42.171	-0.074	-0.068
-203.377	87.766	0.041	0.045
-202.363	-51.925	-0.170	0.080
-201.348	-40.311	-0.274	-0.143
-200.333	-89.133	-0.060	0.018
-199.319	-126.141	0.216	0.033
-198.304	-200.000	0.012	-0.483
-197.290	-33.088	-0.105	-0.059
-196.275	106.459	0.136	0.162
-195.260	-150.107	-0.466	-0.036
-194.246	800.000	-0.086	0.332
-193.231	-155.964	-0.051	0.003
-192.217	-21.584	0.169	-0.103
-191.202	292.928	0.263	0.482
-190.187	42.356	-0.294	-0.268
-189.173	-96.246	0.513	-0.136
-188.158	-200.000	0.042	-0.213
-187.144	-19.966	-0.077	-0.048
-186.129	125.712	0.059	-0.075
-185.114	-16.745	0.146	0.093
-184.100	-140.741	0.285	-0.030
-183.085	149.477	-0.147	-0.199
-182.071	-25.698	0.200	0.118
-181.056	-99.054	0.131	-0.033
-180.042	32.631	-0.174	-0.151
-179.027	800.000	0.182	0.612
-178.012	135.869	0.062	0.081
-176.998	800.000	0.032	0.115
-175.983	-200.000	0.016	-0.139
-174.969	139.417	0.226	-0.299
-173.954	-54.531	-0.264	-0.120
-172.939	-55.874	0.183	0.082
-171.925	248.698	-0.124	0.210
-170.910	37.280	0.148	0.132
-169.896	800.000	-0.035	0.107
-168.881	97.918	-0.130	-0.150
-167.866	-200.000	-0.005	0.398
-166.852	739.402	-0.097	-0.263
-165.837	-16.738	0.061	0.039
-164.823	29.788	0.167	-0.142
-163.808	37.425	0.373	0.332
-162.793	800.000	-0.064	0.186
-161.779	-61.961	0.095	-0.040
-160.764	-20.897	-0.393	-0.241
-159.750	-140.416	0.221	-0.023
-158.735	-200.000	0.033	0.271
-157.720	-94.278	-0.076	-0.021
-156.706	29.208	0.085	0.072
-155.691	40.971	0.225	-0.204
-154.677	-95.395	-0.077	0.021
-153.662	188.741	0.196	0.295
-152.647	86.294	0.205	-0.227
-151.633	195.861	-0.011	-0.016
-150.618	67.876	0.111	0.114
-149.604	477.932	-0.132	0.300
-148.589	20.756	0.239	0.194
-147.574	-36.548	0.004	-0.002
-146.560	316.961	0.118	0.223
-145.545	-200.000	0.024	0.390
-144.531	-50.088	0.165	0.078
-143.516	-183.152	-0.166	0.003
-142.502	-175.895	-0.122	0.003
-141.487	800.000	-0.102	-0.283
-140.472	42.886	-0.122	0.111
-139.458	552.155	-0.015	0.037
-138.443	-54.088	0.322	0.147
-137.429	167.151	0.107	0.152
-136.414	-15.286	0.029	0.019
-135.399	-35.768	0.430	0.233
-134.385	-116.052	0.195	-0.036
-133.370	411.710	-0.112	0.238
-132.356	800.000	0.050	-0.139
-131.341	36.753	0.060	-0.054
-130.326	4.275	0.198	0.145
-129.312	-103.569	-0.267	-0.063
-128.297	-200.000	0.035	-0.223
-127.283	-149.924	0.276	0.022
-126.268	-39.235	-0.408	0.215
-125.253	-123.056	-0.279	0.045
-124.239	800.000	0.071	0.292
-123.224	-112.002	-0.195	-0.039
-122.210	-54.473	0.147	-0.067
