DTS Sentinel unit serial number:	SN413079Multiplexer serial number:	ORYXHardware model number:	OX4-SRSoftware version number:	ORYX F/W v4.00 Oryx Data Collector v3.7.2.0data status	okinstallation	princeton_trtdifferential loss correction	single-endedforward channel	channel 4reverse channel	N/Adate	2019/09/15time	22:05:34forward acquisition time	60.00reverse acquisition time	0.00gamma	496.2192k internal	0.2319k external	0.2319temperature offset calibration	0.9951default loss term (dB/km)	0.3790temperature slope calibration	1.0000multiplexer offset coefficient	1.0000multiplexer slope coefficient	1.0000fibre end	0.00T internal ref (°C)	29.70T ext. ref 1 (°C)	8.56T ext. ref 2 (°C)	22.95length (m)	temperature (°C)	Stokes	anti-Stokes-747.200	-14.344	-0.093	-0.061
-746.185	507.941	0.082	0.192
-745.171	484.603	-0.120	-0.276
-744.156	204.730	0.054	0.085
-743.142	800.000	0.100	-0.288
-742.127	800.000	0.043	0.145
-741.112	800.000	-0.078	-0.237
-740.098	15.852	0.060	0.047
-739.083	-200.000	-0.044	-0.202
-738.069	76.206	-0.396	-0.424
-737.054	681.378	-0.031	-0.081
-736.039	800.000	0.039	-0.110
-735.025	25.725	0.308	-0.259
-734.010	-11.386	-0.312	-0.207
-732.996	800.000	-0.046	0.133
-731.981	-92.191	-0.100	-0.029
-730.966	-33.101	-0.176	-0.099
-729.952	374.022	0.104	0.214
-728.937	19.273	-0.225	0.183
-727.923	-109.577	-0.359	-0.077
-726.908	-200.000	0.012	-0.305
-725.894	800.000	-0.096	-0.284
-724.879	370.080	0.092	-0.189
-723.864	124.706	0.143	0.182
-722.850	713.724	0.007	-0.017
-721.835	-103.150	-0.255	-0.061
-720.821	-19.318	-0.041	0.026
-719.806	6.502	0.114	-0.085
-718.791	-72.969	0.261	-0.097
-717.777	20.940	0.218	-0.179
-716.762	150.936	-0.146	-0.201
-715.748	-102.632	-0.391	0.094
-714.733	-125.527	0.317	-0.049
-713.718	-200.000	-0.046	-0.259
-712.704	-200.000	-0.023	-0.108
-711.689	-200.000	0.008	0.189
-710.675	-19.922	-0.208	-0.130
-709.660	-125.897	0.100	-0.015
-708.645	800.000	-0.040	0.121
-707.631	-154.037	0.323	0.022
-706.616	33.981	0.046	-0.040
-705.602	-146.189	0.442	0.039
-704.587	-163.893	0.370	-0.017
-703.572	-118.614	0.054	-0.010
-702.558	-5.890	-0.115	0.079
-701.543	-1.027	-0.391	0.280
-700.529	-103.391	-0.327	-0.078
-699.514	11.983	0.281	-0.218
-698.499	-109.333	-0.044	0.009
-697.485	7.756	0.105	0.080
-696.470	129.751	-0.183	0.236
-695.456	512.141	-0.130	-0.307
-694.441	57.716	0.214	-0.212
-693.426	-200.000	0.004	0.020
-692.412	800.000	-0.048	0.160
-691.397	-109.162	-0.105	0.022
-690.383	-107.259	-0.095	-0.021
-689.368	-133.793	-0.286	-0.036
-688.354	800.000	0.046	-0.187
-687.339	800.000	0.068	0.212
-686.324	-47.054	-0.330	-0.162
-685.310	144.513	-0.212	0.286
-684.295	-117.980	-0.378	-0.068
-683.281	-145.270	0.243	-0.022
-682.266	-167.474	-0.177	0.007
-681.251	800.000	-0.076	-0.211
-680.237	-72.615	0.228	0.085
-679.222	-34.492	0.025	0.014
-678.208	597.720	-0.027	0.068
-677.193	516.951	-0.039	0.092
-676.178	216.478	-0.120	-0.192
-675.164	596.613	-0.068	0.170
-674.149	199.391	-0.090	0.138
-673.135	-88.984	-0.076	-0.023
-672.120	-200.000	0.072	-0.455
-671.105	-76.157	0.186	0.066
-670.091	-136.652	-0.236	0.027
-669.076	-95.128	0.269	-0.073
-668.062	-22.236	0.099	0.061
-667.047	-49.911	-0.171	0.082
-666.032	-18.161	-0.297	-0.188
-665.018	-33.838	-0.027	-0.015
-664.003	-200.000	-0.057	-0.277
-662.989	-2.277	-0.149	0.105
-661.974	-99.483	-0.184	-0.047
-660.959	-67.982	-0.266	0.105
-659.945	-65.151	-0.221	-0.090
-658.930	154.028	0.152	0.210
-657.916	-52.762	-0.211	-0.098
-656.901	-195.862	-0.136	0.001
-655.886	800.000	0.122	-0.370
-654.872	189.164	-0.094	0.142
-653.857	-125.998	0.303	-0.046
-652.843	103.595	-0.202	-0.239
-651.828	-200.000	-0.002	-0.058
-650.814	-200.000	-0.010	-0.056
-649.799	663.283	0.119	0.309
-648.784	-1.872	0.263	-0.186
-647.770	-28.064	-0.131	-0.077
-646.755	183.718	-0.156	0.233
-645.741	-71.731	-0.375	-0.141
-644.726	109.067	0.065	0.078
-643.711	-46.647	-0.270	-0.134
-642.697	8.959	0.093	-0.071
-641.682	253.453	-0.042	0.072
-640.668	471.430	-0.018	0.040
-639.653	70.750	-0.119	-0.125
-638.638	-90.011	-0.158	-0.046
-637.624	-110.194	0.120	0.025
-636.609	78.975	0.021	-0.022
-635.595	-200.000	-0.020	0.109
-634.580	-94.373	0.258	-0.071
-633.565	453.732	-0.132	-0.294
-632.551	-62.133	-0.262	0.110
-631.536	172.418	0.060	-0.087
-630.522	-20.528	-0.259	0.160
-629.507	-96.388	0.123	0.033
-628.492	139.565	-0.088	0.116
-627.478	-108.003	-0.228	-0.050
-626.463	-50.542	0.111	-0.053
-625.449	-45.223	0.139	-0.069
-624.434	217.519	0.073	0.118
-623.419	309.365	0.144	-0.270
-622.405	-58.321	-0.197	-0.086
-621.390	-124.100	0.277	-0.044
-620.376	-173.686	0.028	0.001
-619.361	-156.488	-0.240	-0.015
-618.346	16.379	0.212	0.169
-617.332	-43.622	0.297	0.151
-616.317	-2.035	-0.273	0.193
-615.303	-200.000	-0.007	-0.210
-614.288	-200.000	0.050	0.442
-613.273	-200.000	0.037	0.474
-612.259	14.668	-0.076	-0.060
-611.244	-133.633	-0.130	0.016
-610.230	-98.931	-0.095	-0.024
-609.215	2.047	-0.333	-0.242
-608.201	59.704	-0.294	-0.292
-607.186	800.000	0.014	-0.040
-606.171	-56.129	-0.238	-0.106
-605.157	-55.273	-0.185	-0.084
-604.142	276.645	-0.049	0.088
-603.128	497.619	-0.060	-0.140
-602.113	-60.373	-0.024	-0.010
-601.098	-55.284	0.311	-0.140
-600.084	-164.971	-0.328	-0.015
-599.069	96.158	-0.057	0.065
-598.055	513.627	0.018	-0.043
-597.040	-103.666	-0.122	0.029
-596.025	3.087	-0.065	-0.047
-595.011	-18.627	0.210	0.132
-593.996	123.441	-0.148	0.187
-592.982	-16.570	0.072	-0.046
-591.967	319.228	0.138	-0.262
-590.952	493.741	0.052	-0.119
-589.938	-66.895	0.181	-0.072
-588.923	-200.000	0.018	-0.107
-587.909	-123.672	0.169	-0.027
-586.894	138.010	-0.134	0.177
-585.879	350.334	0.175	-0.348
-584.865	-145.547	-0.256	-0.023
-583.850	-56.014	0.112	0.050
-582.836	-190.348	0.197	-0.002
-581.821	-2.415	-0.136	-0.096
-580.806	58.119	0.324	-0.319
-579.792	112.372	-0.105	0.128
-578.777	800.000	-0.014	-0.044
-577.763	505.581	0.057	-0.133
-576.748	-76.566	-0.040	-0.014
-575.733	151.784	0.144	-0.197
-574.719	195.136	0.192	-0.293
-573.704	35.431	-0.066	0.058
-572.690	43.921	0.233	0.214
-571.675	-171.935	-0.198	0.006
-570.661	-21.073	0.045	-0.028
-569.646	-166.333	0.440	0.019
-568.631	336.555	-0.122	-0.238
-567.617	117.437	-0.311	-0.384
-566.602	-200.000	0.006	-0.333
-565.588	-111.699	-0.185	0.038
-564.573	-109.041	-0.239	0.051
-563.558	340.928	-0.157	-0.309
-562.544	-123.035	-0.160	0.026
-561.529	-37.328	-0.104	-0.056
-560.515	-75.092	-0.323	-0.116
-559.500	328.821	0.219	0.422
-558.485	-138.470	0.074	0.008
-557.471	-15.447	-0.112	0.072
-556.456	-102.356	0.111	0.027
-555.442	-110.887	-0.188	-0.039
-554.427	30.876	0.159	-0.137
-553.412	151.809	0.060	-0.082
-552.398	-3.057	-0.132	-0.092
-551.383	-200.000	0.027	0.179
-550.369	-110.244	-0.112	0.023
-549.354	-137.764	0.276	-0.031
-548.339	800.000	-0.104	-0.400
-547.325	-200.000	0.009	-0.131
-546.310	-32.071	0.150	0.084
-545.296	53.177	-0.134	0.129
-544.281	-5.041	-0.156	0.108
-543.266	-138.521	0.478	-0.053
-542.252	-21.281	0.166	0.102
-541.237	-200.000	0.005	-0.084
-540.223	-137.940	0.506	0.057
-539.208	-200.000	0.001	-0.086
-538.193	800.000	-0.037	0.140
-537.179	82.041	0.037	0.041
-536.164	-200.000	0.013	-0.149
-535.150	415.206	0.079	0.169
-534.135	-72.221	0.233	-0.087
-533.121	76.872	-0.180	-0.191
-532.106	234.573	0.134	0.221
-531.091	115.559	0.094	-0.116
-530.077	800.000	0.059	-0.220
-529.062	-136.904	-0.212	0.024
-528.048	173.937	0.153	0.222
-527.033	305.045	0.156	0.292
-526.018	148.439	0.066	0.090
-525.004	122.811	0.145	-0.182
-523.989	-41.367	0.240	0.124
-522.975	92.200	0.069	0.077
-521.960	720.922	0.165	-0.440
-520.945	800.000	0.099	0.278
-519.931	47.575	0.127	0.119
-518.916	-200.000	-0.030	-0.313
-517.902	-20.546	-0.237	-0.146
-516.887	-86.528	0.352	-0.108
-515.872	-133.438	-0.204	0.026
-514.858	800.000	-0.039	0.119
-513.843	-11.365	-0.253	-0.167
-512.829	9.940	-0.190	-0.145
-511.814	58.028	-0.225	0.221
-510.799	41.822	0.195	0.177
-509.785	-200.000	0.004	0.267
-508.770	-31.502	-0.211	0.119
-507.756	-73.644	-0.169	-0.062
-506.741	485.500	0.110	-0.251
-505.726	-18.457	0.295	-0.185
-504.712	-152.043	0.405	0.030
-503.697	526.586	-0.104	-0.246
-502.683	20.209	-0.172	-0.139
-501.668	-133.205	0.156	0.020
-500.653	-8.605	-0.058	-0.039
-499.639	45.136	-0.127	-0.117
-498.624	-20.142	-0.195	0.120
-497.610	-200.000	-0.041	-0.340
-496.595	-55.642	-0.311	-0.140
-495.581	753.192	0.125	0.339
-494.566	800.000	-0.074	0.214
-493.551	-200.000	-0.026	0.185
-492.537	332.217	0.198	-0.383
-491.522	-149.714	0.260	0.021
-490.508	-200.000	0.000	-0.060
-489.493	201.264	0.250	-0.385
-488.478	-10.429	0.073	0.048
-487.464	-62.269	0.359	-0.150
-486.449	188.881	-0.110	0.165
-485.435	721.745	-0.117	0.312
-484.420	85.021	-0.165	-0.181
-483.405	-78.219	-0.165	0.057
-482.391	800.000	0.033	0.116
-481.376	67.958	-0.303	-0.310
-480.362	800.000	0.128	-0.367
-479.347	-96.399	0.089	-0.024
-478.332	-107.216	0.235	0.052
-477.318	14.411	0.245	-0.192
-476.303	32.833	-0.122	0.106
-475.289	-200.000	-0.030	-0.185
-474.274	-172.081	-0.127	0.004
-473.259	-200.000	-0.052	-0.239
-472.245	-83.780	-0.381	-0.122
-471.230	-109.020	-0.143	-0.030
-470.216	-200.000	0.005	0.186
-469.201	800.000	0.012	0.042
-468.186	800.000	0.026	0.112
-467.172	99.708	0.116	-0.135
-466.157	123.792	-0.147	-0.185
-465.143	-200.000	-0.015	0.111
-464.128	-76.233	-0.087	0.031
-463.113	508.449	0.149	0.346
-462.099	800.000	-0.069	-0.245
-461.084	-92.948	-0.406	0.113
-460.070	263.195	-0.070	-0.121
-459.055	2.247	0.219	0.159
-458.040	96.417	0.108	0.123
-457.026	165.420	-0.164	-0.232
-456.011	-126.089	0.109	-0.016
-454.997	-82.987	-0.368	0.119
-453.982	800.000	-0.039	-0.131
-452.968	-200.000	-0.057	0.260
-451.953	800.000	-0.050	0.218
-450.938	550.651	-0.049	0.118
-449.924	-145.218	0.385	0.035
-448.909	-200.000	-0.039	-0.408
-447.895	-200.000	-0.017	-0.112
-446.880	-200.000	0.000	0.145
-445.865	-122.728	0.247	0.040
-444.851	115.736	-0.051	0.062
-443.836	800.000	-0.055	0.175
-442.822	-125.670	-0.055	0.008
-441.807	-81.437	-0.115	0.038
-440.792	254.332	0.045	-0.077
-439.778	-123.512	0.138	0.022
-438.763	95.950	0.163	0.187
-437.749	800.000	-0.038	-0.128
-436.734	361.136	-0.173	-0.347
-435.719	-200.000	0.115	0.001
-434.705	800.000	0.088	0.302
-433.690	55.307	0.107	-0.104
-432.676	-80.529	0.174	0.058
-431.661	73.569	0.105	0.110
-430.646	-74.057	0.271	0.098
-429.632	24.280	-0.140	-0.116
-428.617	-200.000	0.026	-0.397
-427.603	-200.000	0.000	0.098
-426.588	-200.000	0.021	-0.155
-425.573	26.274	-0.171	0.143
-424.559	-200.000	-0.005	-0.113
-423.544	9.146	-0.172	-0.130
-422.530	-182.922	-0.420	-0.008
-421.515	-200.000	-0.063	-0.283
-420.500	-200.000	-0.049	-0.221
-419.486	-200.000	-0.042	0.274
-418.471	-80.434	-0.178	0.059
-417.457	78.223	-0.161	-0.172
-416.442	-200.000	0.013	0.113
-415.428	-6.204	-0.248	0.169
-414.413	-108.193	-0.293	-0.063
-413.398	-18.919	-0.116	0.072
-412.384	-129.946	0.229	-0.031
-411.369	83.999	-0.156	-0.170
-410.355	-161.939	-0.274	0.014
-409.340	269.193	-0.276	-0.484
-408.325	404.091	0.066	0.138
-407.311	10.860	-0.201	0.154
-406.296	-200.000	0.045	-0.272
-405.282	544.313	0.101	-0.242
-404.267	-55.734	0.183	-0.082
-403.252	-81.112	-0.112	-0.037
-402.238	139.129	-0.149	-0.195
-401.223	110.945	0.221	0.265
-400.209	72.812	-0.263	-0.274
-399.194	686.145	0.056	0.146
-398.179	37.881	-0.298	-0.265
-397.165	33.541	0.173	-0.150
-396.150	190.330	0.031	-0.047
-395.136	165.952	0.092	-0.130
-394.121	800.000	-0.009	-0.040
-393.106	-27.056	0.148	-0.086
-392.092	291.013	-0.121	0.220
-391.077	321.787	0.050	0.096
-390.063	-85.209	-0.263	0.082
-389.048	-43.763	-0.127	-0.064
-388.033	-200.000	0.083	0.446
-387.019	-20.544	0.062	-0.038
-386.004	-79.458	-0.124	-0.042
-384.990	-127.739	-0.112	-0.016
-383.975	528.669	-0.069	0.162
-382.960	461.598	-0.089	-0.199
-381.946	34.814	-0.114	0.099
-380.931	800.000	-0.027	-0.084
-379.917	-200.000	0.036	-0.217
-378.902	800.000	0.039	-0.147
-377.888	800.000	0.031	0.131
-376.873	-54.882	-0.075	-0.034
-375.858	-75.231	0.304	0.108
-374.844	800.000	-0.009	0.026
-373.829	-107.042	0.272	-0.060
-372.815	91.260	-0.125	-0.140
-371.800	82.588	0.069	-0.075
-370.785	-200.000	-0.009	-0.213
-369.771	-133.264	-0.291	0.037
-368.756	-104.391	-0.149	-0.034
-367.742	248.132	0.152	0.257
-366.727	23.910	0.129	0.106
-365.712	4.299	0.241	-0.176
-364.698	-24.600	-0.089	-0.053
-363.683	132.705	-0.214	-0.275
-362.669	800.000	0.039	0.169
-361.654	800.000	0.096	-0.332
-360.639	-13.773	0.341	0.220
-359.625	-200.000	0.036	0.236
-358.610	-200.000	-0.020	0.116
-357.596	-17.265	0.080	-0.050
-356.581	800.000	0.054	0.152
-355.566	-78.862	-0.231	-0.078
-354.552	-35.879	0.122	0.066
-353.537	-23.273	-0.092	0.055
-352.523	-200.000	0.014	0.109
-351.508	415.526	0.188	0.399
-350.493	-200.000	0.055	0.470
-349.479	-128.108	0.291	0.042
-348.464	396.961	-0.094	-0.195
-347.450	216.495	0.051	-0.080
-346.435	-200.000	-0.027	0.476
-345.420	-88.177	-0.176	-0.052
-344.406	-200.000	-0.044	-0.344
-343.391	-200.000	0.047	0.353
-342.377	-26.299	0.093	-0.054
-341.362	-200.000	0.005	0.115
-340.348	48.335	-0.085	-0.080
-339.333	647.089	-0.169	0.430
-338.318	-27.171	0.236	-0.137
-337.304	407.831	0.101	-0.213
-336.289	-200.000	-0.009	-0.086
-335.275	-111.356	-0.283	0.057
-334.260	-200.000	-0.027	0.193
-333.245	16.387	-0.003	0.003
-332.231	-174.054	-0.038	-0.001
-331.216	800.000	-0.065	0.193
-330.202	318.457	-0.132	0.249
-329.187	800.000	0.017	0.048
-328.172	-177.788	-0.367	-0.009
-327.158	-127.151	0.316	-0.046
-326.143	-56.689	0.095	0.042
-325.129	800.000	-0.027	-0.097
-324.114	800.000	-0.100	0.314
-323.099	258.698	0.109	-0.188
-322.085	-200.000	0.027	0.255
-321.070	359.292	0.160	0.319
-320.056	-77.897	0.206	-0.071
-319.041	517.930	-0.092	-0.215
-318.026	-200.000	-0.004	0.183
-317.012	800.000	0.061	0.218
-315.997	-200.000	-0.026	0.181
-314.983	15.070	-0.145	0.113
-313.968	141.378	0.087	0.114
-312.953	-200.000	-0.050	0.000
-311.939	-200.000	-0.006	-0.342
-310.924	341.632	-0.060	-0.116
-309.910	-200.000	-0.012	0.206
-308.895	89.076	0.122	-0.136
-307.880	-31.071	0.298	0.167
-306.866	-200.000	0.016	0.088
-305.851	-197.606	0.039	0.000
-304.837	96.675	-0.266	0.303
-303.822	64.639	0.101	-0.102
-302.807	-200.000	0.001	0.507
-301.793	-57.094	0.285	0.125
-300.778	-12.223	0.292	0.190
-299.764	441.980	0.020	0.043
-298.749	-146.906	-0.250	0.021
-297.735	-9.644	-0.050	0.033
-296.720	-119.541	-0.186	-0.032
-295.705	28.373	-0.166	0.139
-294.691	38.721	0.121	-0.108
-293.676	18.289	-0.219	-0.174
-292.662	291.622	-0.137	0.248
-291.647	186.043	0.156	0.230
-290.632	-200.000	0.031	0.195
-289.618	-32.718	0.019	-0.010
-288.603	686.552	-0.137	-0.355
-287.589	-200.000	-0.060	0.472
-286.574	-200.000	-0.021	-0.165
-285.559	-200.000	-0.003	-0.332
-284.545	-98.717	0.111	0.028
-283.530	-200.000	0.010	0.243
-282.516	-28.634	-0.071	-0.041
-281.501	167.893	0.211	-0.299
-280.486	-200.000	-0.023	-0.123
-279.472	70.916	-0.224	-0.231
-278.457	-73.394	-0.346	0.126
-277.443	800.000	0.120	-0.345
-276.428	-200.000	0.092	0.463
-275.413	-103.535	0.199	0.046
-274.399	-17.057	-0.134	0.084
-273.384	614.575	-0.045	0.113
-272.370	557.959	-0.181	0.433
-271.355	103.048	-0.118	-0.137
-270.340	411.485	-0.227	0.479
-269.326	-50.544	-0.233	-0.109
-268.311	43.782	0.071	-0.064
-267.297	2.662	-0.099	0.072
-266.282	-57.601	0.132	-0.058
-265.267	-34.223	0.143	-0.078
-264.253	-166.124	-0.416	0.018
-263.238	252.350	0.077	-0.131
-262.224	-200.000	-0.002	0.250
-261.209	186.973	-0.076	0.113
-260.195	-8.261	-0.160	-0.107
-259.180	800.000	0.076	0.290
-258.165	663.435	-0.109	-0.279
-257.151	-200.000	-0.014	0.151
-256.136	-126.448	0.427	0.063
-255.122	-34.763	-0.125	0.068
-254.107	-41.012	0.074	0.038
-253.092	77.825	0.113	-0.120
-252.078	-200.000	-0.034	0.160
-251.063	-94.573	0.432	0.117
-250.049	-200.000	-0.051	0.313
-249.034	800.000	-0.019	0.076
-248.019	-137.775	0.221	-0.025
-247.005	-200.000	0.063	0.395
-245.990	-12.774	0.085	0.055
-244.976	-200.000	0.003	0.225
-243.961	800.000	-0.064	-0.233
-242.946	-116.956	0.142	0.026
-241.932	-91.833	0.272	0.077
-240.917	-200.000	-0.002	-0.132
-239.903	-13.945	0.242	0.155
-238.888	-118.583	0.037	-0.006
-237.873	-200.000	0.028	0.155
-236.859	196.120	-0.258	0.390
-235.844	-200.000	-0.030	0.169
-234.830	-109.483	0.346	0.073
-233.815	-34.879	0.436	0.236
-232.800	-26.984	-0.244	-0.141
-231.786	6.384	-0.174	-0.128
-230.771	800.000	0.071	-0.286
-229.757	48.458	0.032	-0.029
-228.742	-92.278	0.157	0.044
-227.727	629.846	0.057	-0.143
-226.713	-86.173	0.131	-0.040
-225.698	-200.000	0.024	0.141
-224.684	122.958	-0.094	-0.117
-223.669	58.858	0.188	0.183
-222.655	-200.000	0.082	0.360
-221.640	440.781	0.073	-0.159
-220.625	-10.191	-0.195	0.128
-219.611	396.059	-0.117	-0.243
-218.596	218.810	0.230	-0.364
-217.582	800.000	0.068	0.235
-216.567	-200.000	-0.012	0.232
-215.552	-71.120	0.253	0.094
-214.538	154.970	-0.233	0.318
-213.523	342.173	0.174	0.337
-212.509	584.005	0.042	0.101
-211.494	-200.000	-0.052	-0.238
-210.479	-106.354	-0.222	-0.049
-209.465	-98.337	0.267	-0.068
-208.450	-200.000	-0.029	-0.231
-207.436	-63.607	0.215	-0.088
-206.421	-200.000	-0.056	-0.310
-205.406	284.677	-0.117	0.209
-204.392	284.452	0.097	0.173
-203.377	-93.085	0.204	0.056
-202.363	800.000	-0.082	-0.340
-201.348	24.225	0.077	-0.063
-200.333	703.717	0.046	0.121
-199.319	-26.647	-0.215	0.124
-198.304	800.000	-0.030	0.087
-197.290	39.802	-0.066	-0.058
-196.275	-7.504	0.216	0.145
-195.260	-200.000	0.006	0.103
-194.246	-50.214	0.238	0.111
-193.231	800.000	0.040	0.166
-192.217	-200.000	0.038	0.345
-191.202	-96.568	-0.242	-0.063
-190.187	-82.380	0.217	0.070
-189.173	10.928	0.059	-0.045
-188.158	-54.551	0.414	-0.185
-187.144	100.471	0.084	-0.097
-186.129	-200.000	0.019	0.155
-185.114	800.000	-0.058	0.250
-184.100	-5.476	-0.145	0.098
-183.085	800.000	0.100	-0.327
-182.071	145.262	-0.161	-0.213
-181.056	-29.762	0.016	0.009
-180.042	0.454	0.094	0.066
-179.027	-200.000	-0.031	-0.329
-178.012	338.890	-0.089	-0.171
-176.998	251.323	-0.080	0.134
-175.983	188.244	-0.146	-0.216
-174.969	-118.021	-0.246	0.043
-173.954	55.992	-0.196	-0.188
-172.939	-73.138	-0.126	-0.046
-171.925	-31.670	0.172	-0.096
-170.910	-172.448	-0.228	0.007
-169.896	133.186	-0.064	0.081
-168.881	432.592	0.160	-0.343
-167.866	800.000	-0.139	-0.399
-166.852	-173.990	0.155	0.004
-165.837	800.000	-0.080	0.302
-164.823	-171.380	0.241	-0.008
-163.808	-200.000	-0.072	-0.387
-162.793	168.105	-0.188	0.264
-161.779	-68.847	0.178	0.068
-160.764	237.292	0.040	-0.066
-159.750	-200.000	-0.066	-0.386
-158.735	45.800	-0.058	0.053
-157.720	-146.646	-0.084	-0.007
-156.706	-52.525	0.098	-0.045
-155.691	637.498	0.020	-0.050
-154.677	32.330	-0.195	-0.166
-153.662	-106.081	0.225	0.050
-152.647	-2.298	0.287	-0.199
-151.633	-70.785	0.043	0.016
-150.618	-109.118	-0.275	-0.058
-149.604	52.309	0.213	-0.200
-148.589	59.692	0.079	-0.077
-147.574	-200.000	0.022	0.163
-146.560	478.105	0.044	-0.099
-145.545	800.000	0.099	-0.369
-144.531	136.174	-0.050	-0.064
-143.516	-179.549	-0.332	-0.007
-142.502	221.118	0.053	-0.084
-141.487	800.000	0.077	-0.234
-140.472	-200.000	-0.036	-0.318
-139.458	33.331	0.198	0.169
-138.443	-144.143	-0.229	-0.021
-137.429	-54.243	-0.309	0.139
-136.414	331.391	0.102	-0.193
-135.399	446.621	-0.046	0.100
-134.385	120.582	0.146	0.179
-133.370	800.000	-0.056	0.188
-132.356	434.568	0.178	0.383
-131.341	-96.513	-0.232	-0.060
-130.326	-200.000	0.052	-0.433
-129.312	-62.600	-0.393	0.161
-128.297	-126.457	0.388	-0.057
-127.283	-110.609	-0.216	-0.044
-126.268	800.000	0.065	0.243
-125.253	-115.377	-0.137	0.026
-124.239	109.967	-0.133	0.158
-123.224	-200.000	-0.001	0.094
-122.210	-139.023	0.139	0.015
