DTS Sentinel unit serial number:	SN413079Multiplexer serial number:	ORYXHardware model number:	OX4-SRSoftware version number:	ORYX F/W v4.00 Oryx Data Collector v3.7.2.0data status	okinstallation	princeton_trtdifferential loss correction	single-endedforward channel	channel 4reverse channel	N/Adate	2019/09/14time	10:29:34forward acquisition time	60.00reverse acquisition time	0.00gamma	496.2192k internal	0.2297k external	0.2297temperature offset calibration	1.0140default loss term (dB/km)	0.3790temperature slope calibration	1.0000multiplexer offset coefficient	1.0000multiplexer slope coefficient	1.0000fibre end	0.00T internal ref (°C)	34.73T ext. ref 1 (°C)	4.18T ext. ref 2 (°C)	32.74length (m)	temperature (°C)	Stokes	anti-Stokes-747.200	317.164	-0.010	-0.019
-746.185	42.601	0.035	0.032
-745.171	100.887	0.231	0.274
-744.156	-44.925	-0.180	0.092
-743.142	144.545	0.178	0.243
-742.127	-66.042	-0.156	-0.064
-741.112	665.244	0.098	0.259
-740.098	145.629	-0.120	0.164
-739.083	13.688	-0.130	0.103
-738.069	-169.940	-0.129	-0.005
-737.054	-89.048	0.234	-0.071
-736.039	-200.000	0.012	-0.201
-735.025	800.000	0.026	-0.115
-734.010	-115.094	-0.191	0.037
-732.996	-200.000	-0.005	-0.119
-731.981	-191.956	-0.582	-0.006
-730.966	-39.920	-0.310	-0.165
-729.952	-119.973	-0.501	-0.088
-728.937	-23.445	0.141	-0.087
-727.923	-200.000	-0.026	0.133
-726.908	216.328	-0.021	0.033
-725.894	-40.273	-0.194	-0.103
-724.879	800.000	0.106	-0.355
-723.864	-170.147	-0.340	-0.012
-722.850	-200.000	-0.033	-0.232
-721.835	-5.456	0.241	-0.169
-720.821	-200.000	-0.043	-0.236
-719.806	-200.000	-0.028	-0.171
-718.791	-14.988	0.095	0.062
-717.777	-187.684	-0.230	-0.003
-716.762	567.365	0.130	-0.322
-715.748	-200.000	0.029	-0.320
-714.733	-68.051	0.352	-0.140
-713.718	264.933	0.171	-0.305
-712.704	-200.000	0.005	-0.280
-711.689	800.000	-0.091	-0.377
-710.675	54.946	-0.153	0.151
-709.660	53.285	-0.050	-0.049
-708.645	-178.304	-0.345	0.008
-707.631	-141.117	0.172	0.018
-706.616	86.336	0.017	-0.019
-705.602	-55.177	-0.229	-0.105
-704.587	-110.741	-0.076	-0.016
-703.572	-32.306	0.025	-0.014
-702.558	347.800	-0.097	-0.194
-701.543	246.368	-0.092	-0.158
-700.529	391.811	0.084	0.179
-699.514	-43.160	0.114	-0.059
-698.499	-96.790	-0.266	0.071
-697.485	-117.508	0.317	0.058
-696.470	-200.000	-0.030	-0.243
-695.456	15.734	-0.137	-0.110
-694.441	-200.000	0.016	0.209
-693.426	-189.915	0.091	0.001
-692.412	-101.324	0.044	0.011
-691.397	172.039	0.052	-0.077
-690.383	181.080	-0.091	-0.136
-689.368	-17.375	-0.191	0.122
-688.354	-32.928	-0.199	0.113
-687.339	800.000	0.097	0.293
-686.324	-92.107	-0.233	0.067
-685.310	800.000	-0.038	-0.137
-684.295	-94.060	-0.141	0.039
-683.281	-88.693	-0.341	-0.103
-682.266	15.375	-0.121	-0.097
-681.251	-189.819	0.549	-0.006
-680.237	308.941	-0.196	-0.374
-679.222	-200.000	0.059	-0.293
-678.208	59.596	0.193	-0.194
-677.193	-200.000	-0.014	0.137
-676.178	-52.352	-0.102	0.048
-675.164	114.261	0.051	-0.063
-674.149	26.904	-0.086	-0.073
-673.135	-200.000	-0.067	-0.329
-672.120	-101.345	-0.160	0.040
-671.105	-97.062	-0.199	0.053
-670.091	-55.917	0.123	-0.056
-669.076	105.849	-0.195	-0.236
-668.062	4.712	0.236	0.177
-667.047	-29.684	-0.216	0.126
-666.032	-110.083	-0.280	-0.059
-665.018	-149.199	0.167	-0.014
-664.003	-198.043	-0.255	-0.002
-662.989	-164.324	0.298	-0.014
-661.974	-200.000	0.007	-0.185
-660.959	-200.000	0.011	-0.192
-659.945	95.746	0.048	-0.056
-658.930	-132.400	-0.220	0.029
-657.916	-61.077	0.256	-0.110
-656.901	440.507	0.062	0.138
-655.886	800.000	-0.048	0.154
-654.872	-135.331	0.104	0.013
-653.857	58.033	0.125	-0.125
-652.843	304.976	0.090	0.171
-651.828	800.000	-0.050	-0.198
-650.814	-200.000	0.069	0.447
-649.799	56.381	-0.175	-0.173
-648.784	90.301	0.279	-0.317
-647.770	95.296	-0.270	-0.314
-646.755	-112.113	0.115	0.023
-645.741	-173.226	-0.108	0.003
-644.726	-107.602	-0.081	0.018
-643.711	143.897	-0.100	-0.136
-642.697	800.000	0.081	-0.253
-641.682	-90.906	0.115	-0.034
-640.668	35.379	-0.122	0.109
-639.653	-200.000	0.003	0.640
-638.638	-179.363	0.198	-0.004
-637.624	-78.966	-0.189	-0.065
-636.609	-145.796	0.134	0.012
-635.595	-125.702	0.307	-0.047
-634.580	-22.361	-0.022	-0.013
-633.565	133.177	0.165	0.217
-632.551	-59.545	0.174	-0.076
-631.536	-30.466	0.218	-0.126
-630.522	-200.000	-0.008	-0.204
-629.507	-128.068	-0.130	-0.019
-628.492	-62.076	0.126	-0.054
-627.478	34.792	-0.116	0.103
-626.463	301.609	-0.050	-0.095
-625.449	-115.558	-0.276	-0.053
-624.434	151.085	-0.038	0.052
-623.419	-200.000	0.004	-0.235
-622.405	-200.000	0.006	-0.115
-621.390	69.010	0.098	-0.102
-620.376	800.000	0.057	-0.193
-619.361	149.122	-0.172	-0.236
-618.346	-200.000	-0.006	-0.150
-617.332	260.352	0.061	0.107
-616.317	-38.083	0.092	0.049
-615.303	-171.936	-0.079	0.003
-614.288	-200.000	-0.036	0.271
-613.273	587.219	-0.033	-0.083
-612.259	65.835	0.077	0.079
-611.244	-145.692	-0.176	0.016
-610.230	-45.200	0.096	-0.049
-609.215	221.682	-0.088	-0.143
-608.201	-114.429	0.409	0.080
-607.186	91.572	-0.237	0.271
-606.171	-80.029	-0.171	-0.058
-605.157	-10.460	-0.142	0.096
-604.142	-164.218	-0.164	-0.008
-603.128	-43.705	0.237	0.121
-602.113	-39.970	-0.211	0.112
-601.098	-29.824	-0.138	-0.080
-600.084	153.166	-0.157	-0.218
-599.069	-127.048	-0.196	0.029
-598.055	-103.513	-0.242	0.058
-597.040	65.890	-0.230	-0.237
-596.025	15.386	0.133	-0.106
-595.011	-200.000	0.046	-0.283
-593.996	-27.155	-0.155	-0.092
-592.982	102.707	-0.266	-0.316
-591.967	800.000	0.108	0.311
-590.952	-180.352	-0.157	-0.003
-589.938	-7.698	-0.200	0.138
-588.923	-200.000	0.002	-0.045
-587.909	800.000	0.083	-0.349
-586.894	-50.434	-0.033	-0.016
-585.879	3.833	0.069	-0.051
-584.865	-200.000	0.011	0.330
-583.850	297.957	-0.126	0.235
-582.836	462.075	-0.115	-0.262
-581.821	-50.493	-0.107	0.051
-580.806	221.465	0.083	-0.135
-579.792	744.876	0.011	-0.029
-578.777	-200.000	-0.010	-0.370
-577.763	-71.039	-0.215	-0.082
-576.748	-71.782	-0.112	0.042
-575.733	278.484	0.070	-0.126
-574.719	257.625	0.066	-0.115
-573.704	-160.532	-0.322	-0.017
-572.690	-139.521	-0.276	0.030
-571.675	-124.018	-0.240	0.038
-570.661	470.675	0.051	-0.117
-569.646	464.069	-0.095	-0.216
-568.631	108.665	0.250	-0.303
-567.617	372.121	0.069	0.143
-566.602	465.403	-0.070	0.159
-565.588	190.826	0.171	0.261
-564.573	235.479	-0.034	-0.056
-563.558	21.468	-0.346	-0.285
-562.544	-200.000	0.032	-0.286
-561.529	-200.000	0.017	-0.118
-560.515	-57.256	-0.084	-0.038
-559.500	-122.114	0.203	-0.034
-558.485	-108.914	0.290	-0.063
-557.471	-28.683	-0.073	-0.043
-556.456	352.468	0.107	-0.216
-555.442	36.556	-0.054	0.049
-554.427	82.654	0.195	-0.215
-553.412	800.000	0.114	-0.342
-552.398	38.794	-0.150	-0.136
-551.383	68.009	0.097	-0.101
-550.369	-73.566	-0.290	-0.107
-549.354	-76.222	-0.223	-0.080
-548.339	-104.808	0.191	-0.045
-547.325	-200.000	-0.009	0.067
-546.310	686.304	-0.085	-0.225
-545.296	-200.000	-0.018	-0.182
-544.281	-200.000	-0.028	0.359
-543.266	800.000	0.037	0.128
-542.252	-200.000	0.005	0.408
-541.237	-200.000	0.031	-0.303
-540.223	800.000	0.039	-0.116
-539.208	-38.926	-0.130	-0.070
-538.193	27.022	-0.286	-0.243
-537.179	-200.000	0.029	-0.170
-536.164	399.662	-0.004	-0.009
-535.150	-51.994	-0.165	-0.078
-534.135	-55.735	0.289	-0.131
-533.121	-140.939	-0.056	0.006
-532.106	-200.000	0.010	-0.480
-531.091	-33.602	0.156	0.087
-530.077	194.870	0.077	-0.118
-529.062	88.105	0.086	0.096
-528.048	196.858	-0.046	-0.072
-527.033	245.635	-0.142	-0.242
-526.018	72.584	0.138	0.146
-525.004	171.338	0.053	-0.077
-523.989	-99.894	0.245	0.062
-522.975	-35.257	-0.037	0.020
-521.960	-200.000	0.015	0.100
-520.945	361.928	0.137	-0.279
-519.931	102.654	0.101	-0.120
-518.916	200.166	0.098	0.152
-517.902	-52.919	-0.066	-0.031
-516.887	-1.915	0.167	0.119
-515.872	-16.822	-0.224	0.143
-514.858	34.919	-0.167	0.148
-513.843	-140.051	0.190	-0.020
-512.829	800.000	0.045	0.197
-511.814	207.717	-0.038	0.060
-510.799	-31.915	-0.118	0.067
-509.785	-142.369	0.232	-0.023
-508.770	-200.000	0.005	0.281
-507.756	-96.625	-0.249	0.067
-506.741	-78.829	0.082	-0.028
-505.726	-76.751	-0.234	0.083
-504.712	130.182	-0.170	-0.220
-503.697	125.877	0.237	0.302
-502.683	-134.109	-0.238	-0.030
-501.668	-200.000	-0.002	0.102
-500.653	800.000	-0.009	0.035
-499.639	301.374	-0.288	-0.539
-498.624	-56.580	-0.130	-0.058
-497.610	-200.000	0.000	0.166
-496.595	23.985	-0.147	-0.122
-495.581	-200.000	-0.025	-0.169
-494.566	-93.904	0.080	0.022
-493.551	-50.655	0.314	0.150
-492.537	24.937	-0.067	0.056
-491.522	620.726	0.050	-0.128
-490.508	800.000	-0.039	-0.117
-489.493	-130.284	-0.182	-0.025
-488.478	642.295	-0.106	0.273
-487.464	133.271	-0.053	0.069
-486.449	-84.662	-0.182	0.058
-485.435	138.991	0.146	0.194
-484.420	27.209	0.223	0.190
-483.405	-60.197	-0.247	0.106
-482.391	-140.532	-0.176	0.019
-481.376	800.000	0.116	-0.424
-480.362	-109.130	0.316	-0.068
-479.347	-93.042	0.157	-0.044
-478.332	45.204	0.106	-0.099
-477.318	-149.950	0.409	0.032
-476.303	407.044	0.115	-0.245
-475.289	-200.000	0.030	-0.162
-474.274	42.999	0.134	-0.123
-473.259	85.533	-0.086	-0.096
-472.245	22.108	0.099	-0.081
-471.230	96.122	0.186	0.215
-470.216	332.196	-0.051	0.100
-469.201	103.065	-0.191	-0.226
-468.186	509.894	-0.111	0.260
-467.172	-16.023	0.143	0.092
-466.157	204.857	-0.088	0.138
-465.143	78.939	-0.019	0.021
-464.128	-157.729	0.532	-0.032
-463.113	12.147	0.285	0.222
-462.099	-4.755	-0.127	-0.088
-461.084	-37.081	0.332	-0.180
-460.070	-27.756	0.168	-0.099
-459.055	-106.340	0.245	-0.055
-458.040	-200.000	-0.023	0.177
-457.026	9.890	0.252	-0.193
-456.011	98.888	-0.106	-0.123
-454.997	-200.000	0.002	-0.138
-453.982	-120.136	-0.177	0.031
-452.968	-200.000	0.031	-0.160
-451.953	222.767	0.159	0.259
-450.938	-200.000	0.022	0.222
-449.924	-96.836	-0.154	-0.041
-448.909	256.380	-0.113	-0.196
-447.895	-86.822	0.141	-0.043
-446.880	-98.693	-0.148	0.038
-445.865	-63.534	-0.187	-0.077
-444.851	-106.970	0.170	0.038
-443.836	5.947	0.380	0.284
-442.822	48.585	0.081	0.076
-441.807	-51.395	0.123	-0.058
-440.792	-186.473	0.055	-0.001
-439.778	29.583	0.144	0.124
-438.763	295.475	-0.165	-0.304
-437.749	-90.737	0.258	-0.075
-436.734	-200.000	0.035	-0.214
-435.719	-127.728	0.296	-0.043
-434.705	-200.000	-0.004	-0.075
-433.690	800.000	-0.103	0.330
-432.676	-66.958	-0.216	0.086
-431.661	279.652	0.141	0.253
-430.646	599.856	0.105	0.263
-429.632	-21.466	-0.296	-0.182
-428.617	-20.659	-0.318	0.197
-427.603	-77.762	-0.044	0.015
-426.588	132.336	-0.182	0.237
-425.573	24.542	-0.134	-0.112
-424.559	-91.399	0.198	-0.057
-423.544	33.294	0.335	-0.293
-422.530	427.111	-0.171	0.373
-421.515	18.382	-0.109	0.088
-420.500	-44.261	0.141	-0.071
-419.486	-200.000	0.032	-0.277
-418.471	587.693	-0.083	0.207
-417.457	-23.131	-0.264	0.160
-416.442	-38.881	0.345	0.183
-415.428	129.021	-0.081	-0.104
-414.413	93.334	-0.094	-0.107
-413.398	268.544	0.070	-0.123
-412.384	134.742	-0.173	0.226
-411.369	326.296	0.060	-0.116
-410.355	-97.168	0.062	0.016
-409.340	-111.124	-0.228	0.047
-408.325	498.573	-0.159	0.370
-407.311	351.226	0.096	-0.191
-406.296	71.248	0.196	-0.205
-405.282	153.165	-0.289	0.398
-404.267	274.092	0.114	0.203
-403.252	-17.029	-0.394	0.251
-402.238	-69.926	0.349	-0.134
-401.223	800.000	-0.053	-0.181
-400.209	195.405	0.055	0.084
-399.194	-58.512	-0.513	-0.225
-398.179	-52.016	-0.083	0.039
-397.165	-200.000	-0.001	-0.071
-396.150	-57.059	-0.098	-0.043
-395.136	-200.000	0.062	0.289
-394.121	-22.885	-0.055	-0.034
-393.106	-166.642	-0.273	-0.011
-392.092	590.711	-0.072	0.178
-391.077	614.762	0.153	0.387
-390.063	94.712	-0.154	0.177
-389.048	147.860	0.321	-0.436
-388.033	800.000	-0.047	-0.180
-387.019	-67.194	-0.220	-0.087
-386.004	-200.000	-0.016	-0.268
-384.990	-15.958	-0.312	0.200
-383.975	800.000	-0.017	0.060
-382.960	-125.473	-0.437	0.067
-381.946	-110.176	-0.218	0.046
-380.931	38.611	-0.230	-0.207
-379.917	-51.741	0.173	0.081
-378.902	-160.854	0.103	-0.005
-377.888	-45.953	0.256	-0.127
-376.873	-71.789	-0.266	-0.100
-375.858	152.669	-0.068	-0.093
-374.844	194.554	0.156	0.238
-373.829	755.527	0.130	0.354
-372.815	-46.914	-0.165	-0.081
-371.800	-175.751	-0.108	0.003
-370.785	800.000	0.068	0.271
-369.771	387.768	-0.104	0.217
-368.756	-200.000	0.061	0.271
-367.742	163.700	0.053	0.075
-366.727	-200.000	-0.040	0.179
-365.712	-200.000	0.010	-0.139
-364.698	-138.235	0.230	-0.026
-363.683	-164.999	0.110	-0.005
-362.669	-86.699	-0.235	0.072
-361.654	-200.000	0.018	0.194
-360.639	800.000	-0.065	0.190
-359.625	-104.391	0.117	-0.027
-358.610	800.000	-0.070	0.251
-357.596	-39.995	-0.281	0.148
-356.581	150.610	0.114	0.156
-355.566	-94.271	0.151	0.042
-354.552	308.690	0.161	-0.303
-353.537	416.367	-0.019	0.040
-352.523	-200.000	0.045	-0.259
-351.508	23.596	0.250	-0.207
-350.493	111.539	-0.147	-0.178
-349.479	-16.221	0.119	-0.076
-348.464	800.000	-0.075	-0.208
-347.450	-72.129	0.056	-0.021
-346.435	-134.172	0.210	-0.026
-345.420	-102.885	0.049	0.012
-344.406	-121.847	0.216	-0.036
-343.391	-200.000	-0.017	-0.089
-342.377	576.577	0.133	-0.326
-341.362	-41.675	0.179	-0.092
-340.348	138.801	0.131	0.172
-339.333	-27.036	-0.329	0.193
-338.318	-200.000	-0.003	0.174
-337.304	-200.000	0.001	0.425
-336.289	-51.549	-0.124	0.058
-335.275	800.000	0.102	-0.297
-334.260	-87.964	-0.105	0.032
-333.245	-34.896	-0.199	-0.109
-332.231	89.264	-0.040	-0.045
-331.216	-7.879	0.102	-0.069
-330.202	-75.602	0.168	-0.060
-329.187	9.419	-0.339	-0.258
-328.172	-20.289	-0.195	0.121
-327.158	38.044	-0.185	0.165
-326.143	-77.546	0.272	0.095
-325.129	-148.385	0.111	0.009
-324.114	167.823	0.168	0.241
-323.099	132.511	0.048	-0.063
-322.085	219.008	-0.126	0.202
-321.070	589.289	0.112	0.278
-320.056	-92.456	-0.395	-0.111
-319.041	-123.017	-0.110	-0.018
-318.026	115.240	0.343	-0.421
-317.012	800.000	0.050	-0.196
-315.997	-42.906	0.172	-0.088
-314.983	-86.137	-0.209	-0.065
-313.968	258.409	-0.070	-0.122
-312.953	800.000	0.029	-0.088
-311.939	-112.133	0.266	-0.054
-310.924	119.575	0.137	0.170
-309.910	18.115	-0.224	-0.179
-308.895	-57.036	-0.126	-0.056
-307.880	-102.086	-0.082	-0.020
-306.866	247.418	0.124	0.210
-305.851	-81.806	-0.174	0.057
-304.837	82.210	0.106	-0.115
-303.822	-200.000	0.008	-0.158
-302.807	-152.056	-0.214	-0.016
-301.793	468.112	-0.210	-0.472
-300.778	0.817	-0.278	-0.200
-299.764	-200.000	0.038	0.235
-298.749	-167.889	0.189	-0.007
-297.735	310.452	0.040	0.076
-296.720	800.000	0.093	0.351
-295.705	122.403	-0.033	-0.041
-294.691	-179.025	-0.142	0.003
-293.676	-80.003	-0.100	-0.034
-292.662	-200.000	0.007	0.131
-291.647	-126.230	0.295	-0.044
-290.632	-128.328	0.411	0.059
-289.618	800.000	0.079	0.233
-288.603	342.688	-0.155	0.305
-287.589	-131.103	-0.021	-0.003
-286.574	800.000	0.095	0.265
-285.559	387.742	-0.243	0.504
-284.545	-22.298	-0.201	0.122
-283.530	-57.035	0.340	-0.150
-282.516	265.783	-0.092	0.162
-281.501	-64.916	0.193	0.078
-280.486	-200.000	-0.014	-0.088
-279.472	-200.000	0.025	0.185
-278.457	-200.000	-0.061	0.464
-277.443	227.249	-0.117	-0.191
-276.428	800.000	-0.064	-0.249
-275.413	470.830	0.083	-0.187
-274.399	-90.586	-0.276	-0.080
-273.384	800.000	-0.071	-0.259
-272.370	83.375	-0.108	0.118
-271.355	-200.000	0.005	-0.295
-270.340	532.552	-0.107	0.254
-269.326	-72.730	-0.058	-0.021
-268.311	800.000	0.079	-0.305
-267.297	-27.397	0.278	0.162
-266.282	-200.000	0.075	0.354
-265.267	298.100	0.130	0.240
-264.253	-129.246	0.198	0.028
-263.238	800.000	-0.045	0.131
-262.224	-121.646	0.154	-0.026
-261.209	800.000	-0.076	0.286
-260.195	800.000	0.081	-0.254
-259.180	77.499	-0.163	0.174
-258.165	3.630	-0.145	-0.106
-257.151	286.642	-0.062	0.111
-256.136	20.926	0.224	-0.182
-255.122	271.585	-0.129	0.228
-254.107	-32.688	0.137	-0.077
-253.092	-200.000	0.062	-0.370
-252.078	504.783	0.055	-0.128
-251.063	186.314	-0.202	0.301
-250.049	-69.502	0.466	-0.179
-249.034	215.848	0.131	-0.208
-248.019	-22.232	0.283	0.172
-247.005	-200.000	-0.006	0.232
-245.990	377.301	0.017	-0.035
-244.976	-63.152	0.227	0.094
-243.961	-51.440	-0.116	0.054
-242.946	0.750	-0.165	0.118
-241.932	197.726	-0.122	0.186
-240.917	414.770	0.084	0.178
-239.903	800.000	-0.058	0.175
-238.888	657.803	0.040	-0.103
-237.873	800.000	-0.048	0.146
-236.859	-184.855	0.346	0.005
-235.844	-66.207	0.352	0.140
-234.830	227.602	0.050	-0.082
-233.815	-141.986	-0.269	-0.027
-232.800	41.913	0.232	0.210
-231.786	-119.615	0.314	-0.054
-230.771	264.045	-0.041	-0.072
-229.757	583.387	0.116	-0.286
-228.742	-147.989	0.189	0.016
-227.727	79.672	-0.122	0.131
-226.713	88.642	0.157	-0.175
-225.698	-86.251	0.058	0.018
-224.684	124.516	-0.177	0.223
-223.669	-6.024	0.100	0.069
-222.655	314.828	0.093	0.176
-221.640	94.592	-0.116	0.132
-220.625	-63.901	0.195	0.080
-219.611	10.394	-0.150	-0.114
-218.596	504.620	-0.091	0.211
-217.582	-132.592	0.193	-0.025
-216.567	-48.627	0.242	0.117
-215.552	3.281	0.146	-0.106
-214.538	-129.579	0.294	-0.041
-213.523	-117.159	0.088	0.016
-212.509	-200.000	0.010	-0.135
-211.494	-200.000	0.008	0.167
-210.479	-151.920	0.342	-0.025
-209.465	-24.434	-0.083	0.050
-208.450	-200.000	0.007	-0.053
-207.436	-200.000	0.055	0.417
-206.421	-200.000	-0.001	0.267
-205.406	-13.052	-0.130	-0.085
-204.392	-49.139	0.175	0.084
-203.377	-131.503	-0.338	0.045
-202.363	-113.503	-0.290	0.057
-201.348	36.266	0.153	-0.135
-200.333	-58.615	-0.358	-0.155
-199.319	-200.000	-0.001	-0.229
-198.304	-152.764	-0.365	0.026
-197.290	-5.686	-0.130	-0.089
-196.275	-98.070	-0.394	-0.101
-195.260	98.515	0.113	-0.130
-194.246	-101.994	-0.215	-0.052
-193.231	32.617	0.094	0.082
-192.217	-49.699	-0.065	-0.031
-191.202	-200.000	0.012	-0.157
-190.187	92.040	-0.194	0.219
-189.173	352.024	-0.081	-0.160
-188.158	-84.197	-0.184	0.058
-187.144	-58.833	0.052	0.023
-186.129	-111.208	0.139	0.028
-185.114	800.000	0.030	-0.086
-184.100	798.860	-0.059	0.164
-183.085	-61.150	-0.243	0.102
-182.071	-151.883	0.340	-0.025
-181.056	-200.000	0.022	0.208
-180.042	75.198	0.137	-0.144
-179.027	54.244	-0.125	0.121
-178.012	420.456	0.137	-0.293
-176.998	101.242	-0.101	0.118
-175.983	141.929	-0.148	-0.196
-174.969	102.719	-0.185	0.217
-173.954	-1.949	-0.077	-0.054
-172.939	-132.666	-0.099	-0.013
-171.925	397.407	-0.048	-0.101
-170.910	-200.000	0.039	-0.268
-169.896	158.556	0.074	-0.103
-168.881	355.033	-0.083	-0.165
-167.866	-77.439	0.431	0.150
-166.852	-200.000	-0.017	0.124
-165.837	54.139	-0.055	0.052
-164.823	364.208	-0.145	0.292
-163.808	-32.709	0.438	0.244
-162.793	270.620	0.142	0.249
-161.779	-200.000	0.021	-0.123
-160.764	50.048	-0.042	0.040
-159.750	-127.619	-0.084	-0.012
-158.735	-50.181	0.160	-0.076
-157.720	-134.806	0.201	-0.024
-156.706	-29.528	-0.168	0.096
-155.691	-93.780	0.148	-0.041
-154.677	-28.858	-0.087	-0.050
-153.662	125.011	-0.138	-0.173
-152.647	22.457	0.263	0.215
-151.633	-200.000	-0.070	0.461
-150.618	800.000	-0.006	-0.026
-149.604	-200.000	0.065	-0.338
-148.589	11.140	-0.243	0.185
-147.574	-200.000	-0.021	0.196
-146.560	280.146	-0.162	0.290
-145.545	-122.430	0.392	-0.064
-144.531	800.000	-0.026	0.088
-143.516	-94.270	0.177	-0.048
-142.502	800.000	-0.021	-0.062
-141.487	13.039	-0.210	0.162
-140.472	282.084	0.080	-0.144
-139.458	-124.886	0.160	-0.025
-138.443	-100.447	0.419	0.103
-137.429	99.430	-0.138	-0.159
-136.414	-59.407	0.175	0.075
-135.399	230.544	-0.103	0.168
-134.385	-156.643	-0.268	0.017
-133.370	-200.000	0.008	-0.100
-132.356	-48.519	0.275	0.132
-131.341	-1.349	-0.294	-0.207
-130.326	185.794	-0.099	0.147
-129.312	-58.207	-0.403	0.175
-128.297	-110.654	-0.159	0.033
-127.283	200.299	-0.012	-0.019
-126.268	-87.974	0.154	0.046
-125.253	-127.066	-0.211	0.031
-124.239	121.423	-0.202	-0.251
-123.224	800.000	0.052	-0.192
