DTS Sentinel unit serial number:	SN413079Multiplexer serial number:	ORYXHardware model number:	OX4-SRSoftware version number:	ORYX F/W v4.00 Oryx Data Collector v3.7.2.0data status	okinstallation	princeton_trtdifferential loss correction	single-endedforward channel	channel 4reverse channel	N/Adate	2019/09/12time	17:47:11forward acquisition time	60.00reverse acquisition time	0.00gamma	496.2192k internal	0.2309k external	0.2309temperature offset calibration	1.0133default loss term (dB/km)	0.3790temperature slope calibration	1.0000multiplexer offset coefficient	1.0000multiplexer slope coefficient	1.0000fibre end	0.00T internal ref (°C)	34.12T ext. ref 1 (°C)	2.94T ext. ref 2 (°C)	28.25length (m)	temperature (°C)	Stokes	anti-Stokes-747.200	-200.000	0.006	0.214
-746.185	-157.421	-0.168	-0.010
-745.171	13.769	0.312	0.246
-744.156	-16.928	-0.473	0.304
-743.142	800.000	-0.031	0.122
-742.127	-200.000	-0.019	0.162
-741.112	-200.000	0.007	-0.049
-740.098	18.232	-0.237	0.193
-739.083	270.264	-0.115	-0.206
-738.069	144.261	0.281	0.381
-737.054	-66.995	-0.203	0.082
-736.039	800.000	0.129	-0.407
-735.025	-132.663	0.245	-0.032
-734.010	187.041	0.166	-0.251
-732.996	800.000	-0.053	-0.215
-731.981	-42.776	0.113	-0.059
-730.966	395.233	0.032	-0.069
-729.952	-22.262	0.260	0.160
-728.937	-54.947	-0.280	-0.128
-727.923	-75.256	-0.211	-0.077
-726.908	-200.000	0.047	-0.221
-725.894	-76.952	-0.247	0.087
-724.879	800.000	-0.065	-0.206
-723.864	204.629	0.177	-0.279
-722.850	-200.000	0.015	-0.313
-721.835	-107.656	0.220	0.049
-720.821	141.190	0.116	-0.156
-719.806	-86.086	0.246	-0.077
-718.791	-200.000	0.007	0.207
-717.777	49.247	-0.100	0.096
-716.762	-60.305	-0.220	0.095
-715.748	-92.518	0.139	0.040
-714.733	800.000	0.046	-0.178
-713.718	800.000	0.064	-0.183
-712.704	-9.037	0.207	-0.141
-711.689	-80.273	0.051	0.017
-710.675	-146.703	0.179	-0.016
-709.660	-164.774	0.103	0.005
-708.645	-200.000	-0.026	0.127
-707.631	85.656	-0.292	0.326
-706.616	-127.007	0.200	0.030
-705.602	309.827	0.041	-0.078
-704.587	-15.685	-0.273	0.177
-703.572	-81.815	-0.164	0.055
-702.558	-49.847	-0.208	-0.100
-701.543	46.784	-0.248	0.233
-700.529	50.707	-0.061	-0.059
-699.514	-2.603	0.198	-0.141
-698.499	175.614	-0.125	-0.183
-697.485	-162.153	-0.166	0.008
-696.470	490.912	0.032	0.075
-695.456	121.772	0.213	-0.269
-694.441	-200.000	0.007	-0.109
-693.426	100.389	0.250	0.294
-692.412	800.000	0.108	-0.312
-691.397	-89.891	0.082	0.024
-690.383	-131.102	0.240	-0.032
-689.368	70.717	-0.109	-0.114
-688.354	-164.653	0.313	0.014
-687.339	-200.000	-0.014	0.227
-686.324	-111.675	0.478	-0.098
-685.310	31.974	-0.158	0.138
-684.295	-123.580	0.223	0.036
-683.281	-93.116	-0.137	0.039
-682.266	45.012	-0.253	0.236
-681.251	-134.312	0.189	0.024
-680.237	-87.674	0.136	-0.042
-679.222	438.757	0.068	-0.151
-678.208	-113.397	0.022	0.004
-677.193	9.763	0.059	0.045
-676.178	-120.213	-0.119	-0.021
-675.164	328.128	0.073	0.141
-674.149	-200.000	-0.062	0.383
-673.135	116.146	-0.114	-0.141
-672.120	800.000	0.116	-0.372
-671.105	-200.000	0.001	-0.356
-670.091	7.578	-0.083	-0.063
-669.076	-96.793	-0.465	0.124
-668.062	-13.945	0.084	-0.055
-667.047	-200.000	0.038	-0.170
-666.032	-67.131	0.205	0.082
-665.018	-132.796	-0.254	0.033
-664.003	800.000	0.066	-0.200
-662.989	-48.439	0.175	-0.086
-661.974	532.121	-0.086	0.205
-660.959	-200.000	-0.018	-0.125
-659.945	92.671	0.091	-0.104
-658.930	346.322	0.087	0.174
-657.916	365.213	-0.109	0.222
-656.901	-200.000	-0.063	0.278
-655.886	-200.000	0.003	-0.107
-654.872	113.764	0.170	-0.209
-653.857	-34.775	0.382	0.211
-652.843	800.000	0.025	0.109
-651.828	800.000	0.064	-0.194
-650.814	-98.134	0.078	0.020
-649.799	10.203	0.118	-0.091
-648.784	670.657	0.035	-0.092
-647.770	414.822	0.211	0.456
-646.755	104.926	0.072	-0.086
-645.741	280.995	-0.238	-0.431
-644.726	-75.411	-0.139	0.050
-643.711	13.288	0.077	0.061
-642.697	-79.603	-0.348	0.119
-641.682	204.517	0.211	-0.332
-640.668	198.004	0.098	0.151
-639.653	501.403	-0.126	0.294
-638.638	98.869	-0.105	0.123
-637.624	739.647	0.008	0.021
-636.609	539.556	-0.156	0.376
-635.595	143.035	-0.115	-0.155
-634.580	-69.802	0.078	-0.030
-633.565	-36.045	-0.207	-0.113
-632.551	800.000	0.041	-0.150
-631.536	-200.000	0.015	-0.155
-630.522	720.577	0.071	0.192
-629.507	392.005	-0.211	0.443
-628.492	800.000	0.061	0.249
-627.478	-107.743	-0.199	-0.044
-626.463	65.397	0.195	-0.200
-625.449	800.000	0.028	-0.090
-624.434	800.000	0.033	0.143
-623.419	-200.000	-0.024	-0.170
-622.405	-61.895	-0.310	-0.131
-621.390	-116.216	-0.127	-0.024
-620.376	-140.903	0.392	-0.041
-619.361	152.287	-0.068	-0.094
-618.346	-78.594	0.104	0.036
-617.332	316.525	0.220	0.421
-616.317	-81.341	0.397	-0.132
-615.303	320.518	0.181	0.347
-614.288	-144.373	-0.232	0.022
-613.273	-117.522	0.429	-0.078
-612.259	-87.274	0.244	0.075
-611.244	591.844	0.053	0.132
-610.230	22.020	0.049	-0.041
-609.215	-200.000	-0.074	-0.329
-608.201	427.077	-0.110	-0.239
-607.186	-88.481	-0.369	-0.111
-606.171	-101.653	-0.087	-0.021
-605.157	-61.187	-0.104	-0.045
-604.142	-37.387	0.271	0.146
-603.128	-39.906	0.213	0.112
-602.113	-134.313	0.101	0.013
-601.098	-141.507	0.136	0.014
-600.084	103.199	0.036	-0.043
-599.069	-60.127	0.146	0.063
-598.055	-69.935	-0.125	0.048
-597.040	-102.252	0.262	0.064
-596.025	-72.108	0.140	0.052
-595.011	-51.304	-0.148	0.070
-593.996	367.227	0.192	0.392
-592.982	56.649	-0.109	-0.107
-591.967	-100.833	0.195	-0.048
-590.952	-56.985	-0.296	0.132
-589.938	800.000	-0.108	0.379
-588.923	-96.145	-0.244	0.065
-587.909	28.487	-0.170	-0.145
-586.894	51.187	-0.108	-0.104
-585.879	97.989	-0.272	-0.316
-584.865	-25.211	0.172	0.103
-583.850	-187.961	0.078	0.001
-582.836	21.505	-0.090	-0.074
-581.821	-62.855	-0.309	0.129
-580.806	-200.000	0.030	0.306
-579.792	38.664	0.125	0.113
-578.777	-130.881	0.223	0.030
-577.763	-37.662	0.148	0.079
-576.748	107.894	-0.134	0.161
-575.733	-200.000	-0.010	0.228
-574.719	-88.508	-0.284	0.086
-573.704	141.714	0.114	0.153
-572.690	-200.000	-0.320	0.001
-571.675	320.789	-0.046	0.089
-570.661	-100.399	0.267	-0.067
-569.646	160.332	0.174	0.246
-568.631	-80.656	0.133	-0.045
-567.617	517.384	-0.077	-0.181
-566.602	-81.956	-0.114	-0.038
-565.588	800.000	-0.047	0.189
-564.573	28.622	0.159	0.136
-563.558	-25.140	0.332	0.199
-562.544	9.792	-0.354	-0.271
-561.529	42.283	-0.260	-0.238
-560.515	-200.000	-0.032	0.200
-559.500	-78.364	-0.135	0.047
-558.485	76.030	-0.133	-0.142
-557.471	-200.000	-0.003	-0.409
-556.456	800.000	0.050	-0.158
-555.442	358.421	-0.189	-0.381
-554.427	-120.375	0.116	-0.020
-553.412	33.366	-0.141	0.123
-552.398	-200.000	-0.007	-0.170
-551.383	9.638	-0.133	-0.102
-550.369	-50.006	-0.395	0.189
-549.354	43.254	-0.333	-0.307
-548.339	-105.777	0.129	-0.029
-547.325	-200.000	-0.026	-0.336
-546.310	-95.433	-0.249	-0.067
-545.296	128.129	-0.082	0.105
-544.281	-39.060	-0.438	-0.233
-543.266	-200.000	0.016	-0.235
-542.252	45.060	0.324	0.301
-541.237	-200.000	0.010	0.055
-540.223	-50.166	-0.169	-0.081
-539.208	188.874	0.094	-0.142
-538.193	186.101	-0.086	0.130
-537.179	188.284	0.085	0.128
-536.164	800.000	-0.025	-0.090
-535.150	181.789	0.071	-0.105
-534.135	-25.671	-0.208	-0.124
-533.121	-153.438	0.040	0.003
-532.106	206.413	0.199	0.313
-531.091	714.513	-0.025	-0.066
-530.077	-152.918	0.387	0.028
-529.062	-82.265	0.252	0.083
-528.048	-200.000	0.181	0.001
-527.033	-200.000	-0.084	0.448
-526.018	-200.000	-0.033	-0.194
-525.004	29.975	-0.183	0.157
-523.989	-24.584	0.113	0.068
-522.975	800.000	0.046	-0.158
-521.960	16.901	-0.283	0.226
-520.945	484.375	0.121	-0.277
-519.931	-13.015	0.188	-0.123
-518.916	-110.484	-0.218	0.045
-517.902	-5.188	-0.305	-0.211
-516.887	-51.773	-0.138	-0.065
-515.872	85.100	0.349	0.386
-514.858	50.889	-0.074	0.071
-513.843	-61.185	-0.048	-0.021
-512.829	46.275	0.163	-0.152
-511.814	800.000	-0.080	-0.223
-510.799	4.698	-0.181	-0.134
-509.785	582.756	-0.084	-0.208
-508.770	59.026	0.111	-0.110
-507.756	312.655	-0.023	-0.044
-506.741	-200.000	0.006	-0.032
-505.726	300.524	0.166	0.309
-504.712	83.421	-0.161	-0.177
-503.697	800.000	0.148	-0.459
-502.683	-65.761	0.334	0.135
-501.668	223.561	0.045	0.072
-500.653	-10.686	-0.191	-0.127
-499.639	800.000	-0.035	0.110
-498.624	-39.469	0.334	-0.176
-497.610	254.448	0.084	0.145
-496.595	297.205	0.152	0.281
-495.581	273.090	0.071	0.126
-494.566	95.737	0.216	-0.249
-493.551	-200.000	0.010	-0.194
-492.537	232.695	-0.085	0.140
-491.522	-200.000	-0.007	-0.139
-490.508	15.242	0.091	0.072
-489.493	10.555	-0.086	-0.066
-488.478	-93.993	-0.055	-0.015
-487.464	-55.283	0.182	-0.082
-486.449	427.205	-0.056	0.122
-485.435	24.700	-0.377	0.314
-484.420	-133.392	-0.067	-0.008
-483.405	-7.264	-0.321	0.219
-482.391	158.434	0.141	0.197
-481.376	-200.000	-0.080	0.439
-480.362	58.851	-0.129	0.128
-479.347	-79.213	-0.103	0.035
-478.332	54.275	-0.165	-0.160
-477.318	-105.665	-0.190	-0.043
-476.303	-108.542	0.055	0.012
-475.289	101.615	-0.048	0.056
-474.274	224.718	0.109	0.177
-473.259	-174.975	0.236	0.007
-472.245	-31.805	-0.201	0.113
-471.230	800.000	-0.086	-0.291
-470.216	-130.403	-0.239	0.033
-469.201	-112.729	0.094	-0.019
-468.186	-200.000	0.026	-0.158
-467.172	-200.000	0.016	0.214
-466.157	-71.496	-0.208	0.078
-465.143	-86.035	-0.091	0.028
-464.128	-105.483	0.219	0.050
-463.113	-200.000	-0.038	0.521
-462.099	-21.111	0.223	-0.137
-461.084	800.000	0.039	-0.110
-460.070	-200.000	0.024	-0.107
-459.055	-53.178	-0.204	-0.094
-458.040	-111.290	0.160	-0.033
-457.026	-84.362	0.180	-0.057
-456.011	-12.013	0.107	0.071
-454.997	-61.707	-0.292	0.123
-453.982	64.534	0.080	-0.081
-452.968	223.921	0.136	0.221
-451.953	0.674	0.185	-0.133
-450.938	-200.000	-0.006	0.101
-449.924	-175.834	0.420	-0.011
-448.909	800.000	0.026	0.072
-447.895	-73.826	0.416	0.152
-446.880	13.118	-0.214	0.166
-445.865	-8.445	0.145	0.098
-444.851	-72.492	0.184	-0.068
-443.836	248.848	-0.085	-0.144
-442.822	-114.939	-0.319	0.061
-441.807	-151.059	-0.267	-0.020
-440.792	-76.293	0.195	-0.069
-439.778	101.547	0.021	0.025
-438.763	-168.051	-0.069	-0.003
-437.749	8.947	0.143	0.108
-436.734	155.330	0.178	0.247
-435.719	721.447	-0.061	0.163
-434.705	-167.446	-0.157	0.006
-433.690	800.000	0.082	0.266
-432.676	159.611	0.098	-0.137
-431.661	-200.000	-0.001	-0.286
-430.646	-8.369	0.201	-0.136
-429.632	-116.486	0.197	0.036
-428.617	-200.000	-0.036	0.224
-427.603	358.416	0.215	-0.430
-426.588	-200.000	0.014	-0.377
-425.573	-200.000	0.016	-0.210
-424.559	-34.438	0.196	-0.108
-423.544	254.704	0.108	0.185
-422.530	300.603	-0.140	-0.259
-421.515	-23.687	-0.172	0.104
-420.500	-104.974	-0.254	0.058
-419.486	-17.265	0.043	-0.027
-418.471	123.962	0.144	0.182
-417.457	-200.000	0.005	0.184
-416.442	-200.000	0.012	0.054
-415.428	800.000	-0.021	0.074
-414.413	-73.466	-0.218	0.080
-413.398	800.000	-0.027	0.115
-412.384	800.000	-0.067	-0.240
-411.369	800.000	-0.059	0.217
-410.355	-62.609	-0.275	-0.115
-409.340	534.703	0.077	0.184
-408.325	-85.334	0.292	0.091
-407.311	-19.462	0.100	-0.062
-406.296	-200.000	0.006	-0.079
-405.282	-200.000	-0.045	-0.225
-404.267	3.599	-0.198	0.145
-403.252	-19.037	-0.115	0.072
-402.238	36.622	0.207	-0.183
-401.223	794.136	0.107	0.296
-400.209	-39.577	-0.183	0.096
-399.194	-95.383	-0.148	0.040
-398.179	-73.464	0.222	-0.081
-397.165	-141.305	0.252	-0.026
-396.150	-124.014	0.371	-0.058
-395.136	78.777	0.054	0.058
-394.121	-200.000	-0.027	-0.130
-393.106	-61.156	0.159	-0.067
-392.092	-132.849	0.369	-0.047
-391.077	74.691	-0.041	0.043
-390.063	684.480	-0.049	-0.129
-389.048	-200.000	-0.023	-0.137
-388.033	-41.571	-0.297	-0.153
-387.019	209.130	-0.113	0.177
-386.004	800.000	0.051	-0.215
-384.990	5.055	-0.111	0.082
-383.975	800.000	0.024	0.081
-382.960	800.000	0.048	-0.201
-381.946	63.329	0.163	-0.163
-380.931	181.252	-0.084	0.123
-379.917	147.191	-0.043	-0.058
-378.902	-200.000	0.012	0.093
-377.888	495.990	0.106	-0.244
-376.873	-130.363	-0.200	0.027
-375.858	44.927	0.297	-0.274
-374.844	-200.000	0.029	-0.293
-373.829	-200.000	0.010	-0.078
-372.815	-55.092	-0.089	0.040
-371.800	800.000	0.048	-0.156
-370.785	99.520	0.314	-0.363
-369.771	162.360	0.124	0.174
-368.756	-200.000	-0.037	0.265
-367.742	-18.037	-0.134	0.084
-366.727	800.000	0.096	-0.328
-365.712	800.000	0.036	0.143
-364.698	87.931	0.050	-0.055
-363.683	113.785	-0.128	-0.155
-362.669	32.591	-0.166	-0.144
-361.654	85.579	0.012	0.014
-360.639	-91.281	0.407	-0.117
-359.625	-103.551	0.204	0.048
-358.610	280.758	-0.053	-0.096
-357.596	-127.392	-0.221	0.032
-356.581	-200.000	-0.031	-0.199
-355.566	-112.635	0.269	-0.054
-354.552	-200.000	0.019	0.297
-353.537	-200.000	0.206	0.001
-352.523	-8.360	0.168	-0.113
-351.508	-159.887	0.136	-0.007
-350.493	800.000	0.095	-0.350
-349.479	-200.000	0.037	0.273
-348.464	59.231	0.172	-0.169
-347.450	-130.249	0.138	-0.019
-346.435	-200.000	0.044	0.420
-345.420	224.622	-0.093	0.150
-344.406	341.750	-0.080	0.156
-343.391	-110.056	-0.136	-0.028
-342.377	-30.182	0.160	0.091
-341.362	343.774	0.022	0.043
-340.348	-40.879	-0.264	-0.137
-339.333	-200.000	0.012	-0.238
-338.318	-200.000	0.062	-0.317
-337.304	190.687	0.076	0.115
-336.289	86.043	-0.199	0.219
-335.275	-50.800	0.162	-0.076
-334.260	160.424	-0.164	0.229
-333.245	351.703	-0.054	-0.107
-332.231	-34.520	0.201	-0.110
-331.216	-200.000	0.112	-0.520
-330.202	-200.000	-0.014	0.070
-329.187	60.178	-0.066	0.065
-328.172	-12.120	0.201	-0.131
-327.158	-45.660	-0.165	-0.082
-326.143	1.110	0.122	-0.087
-325.129	800.000	0.095	-0.315
-324.114	-46.184	0.191	0.094
-323.099	-58.000	0.071	0.031
-322.085	268.601	-0.052	-0.091
-321.070	-129.281	0.309	-0.043
-320.056	93.410	-0.205	-0.232
-319.041	-129.679	-0.078	-0.011
-318.026	116.973	-0.091	0.111
-317.012	800.000	0.034	0.140
-315.997	-45.214	-0.239	-0.119
-314.983	800.000	-0.042	0.180
-313.968	-28.799	-0.208	-0.120
-312.953	-51.866	0.084	0.039
-311.939	90.371	-0.074	0.083
-310.924	-200.000	0.012	0.105
-309.910	800.000	-0.101	-0.387
-308.895	9.029	-0.210	-0.159
-307.880	800.000	0.030	0.097
-306.866	692.125	0.059	-0.154
-305.851	197.303	-0.107	-0.163
-304.837	-18.662	0.217	0.135
-303.822	417.631	0.108	-0.231
-302.807	-40.991	0.034	-0.017
-301.793	800.000	-0.062	-0.183
-300.778	3.676	0.128	0.093
-299.764	54.774	0.181	0.174
-298.749	-200.000	0.066	0.522
-297.735	38.574	0.154	0.137
-296.720	33.915	-0.206	-0.179
-295.705	-200.000	0.047	0.253
-294.691	65.212	0.315	-0.318
-293.676	-126.861	-0.149	-0.022
-292.662	-123.202	-0.308	0.049
-291.647	-200.000	0.045	-0.227
-290.632	-133.582	-0.136	-0.017
-289.618	-200.000	-0.075	-0.377
-288.603	111.305	-0.196	-0.236
-287.589	-37.693	-0.395	-0.210
-286.574	1.557	-0.248	0.178
-285.559	237.935	0.129	0.214
-284.545	-33.842	-0.055	-0.030
-283.530	-186.804	-0.211	0.003
-282.516	-200.000	-0.039	0.270
-281.501	-55.836	-0.184	-0.082
-280.486	-129.352	0.234	-0.033
-279.472	292.644	-0.033	-0.060
-278.457	217.351	-0.051	0.082
-277.443	-47.941	-0.087	0.042
-276.428	-200.000	-0.013	-0.075
-275.413	196.046	-0.083	0.126
-274.399	-200.000	0.049	-0.264
-273.384	-72.192	-0.450	0.166
-272.370	-200.000	0.030	0.147
-271.355	-76.422	-0.104	-0.036
-270.340	-145.087	0.287	-0.026
-269.326	-53.785	0.042	0.019
-268.311	154.737	-0.094	0.129
-267.297	-68.754	-0.182	0.070
-266.282	349.257	-0.057	0.111
-265.267	451.888	-0.078	0.172
-264.253	-76.826	0.129	0.045
-263.238	-46.259	-0.307	-0.151
-262.224	560.610	0.106	-0.254
-261.209	316.298	-0.057	-0.108
-260.195	422.110	-0.204	0.438
-259.180	800.000	-0.035	0.144
-258.165	-200.000	-0.008	0.052
-257.151	-82.491	-0.459	-0.149
-256.136	-181.498	0.429	-0.008
-255.122	118.227	0.117	0.144
-254.107	800.000	-0.071	0.229
-253.092	105.012	-0.119	0.140
-252.078	171.789	0.036	-0.052
-251.063	-84.025	0.122	-0.039
-250.049	47.064	0.091	0.084
-249.034	-30.978	0.147	-0.082
-248.019	159.908	-0.080	0.111
-247.005	40.637	-0.195	0.175
-245.990	725.144	-0.129	-0.344
-244.976	574.234	0.165	-0.401
-243.961	-110.741	-0.243	0.050
-242.946	17.816	-0.085	-0.067
-241.932	-200.000	-0.007	0.141
-240.917	136.388	-0.127	0.165
-239.903	343.996	0.057	0.112
-238.888	-48.725	-0.107	0.051
-237.873	-127.864	-0.339	-0.049
-236.859	-100.860	0.274	0.067
-235.844	193.683	0.185	0.279
-234.830	10.841	-0.142	-0.108
-233.815	-200.000	0.003	-0.113
-232.800	-200.000	-0.007	-0.038
-231.786	-200.000	0.070	0.307
-230.771	800.000	0.046	0.197
-229.757	517.860	0.133	0.311
-228.742	234.727	0.086	-0.141
-227.727	-200.000	0.035	-0.342
-226.713	252.686	-0.184	-0.313
-225.698	800.000	0.097	-0.417
-224.684	-197.775	0.373	-0.002
-223.669	-200.000	0.024	-0.136
-222.655	-200.000	-0.005	-0.029
-221.640	73.467	-0.121	-0.126
-220.625	-200.000	-0.063	0.318
-219.611	-97.828	-0.086	0.022
-218.596	228.593	-0.194	-0.314
-217.582	800.000	0.074	0.253
-216.567	277.783	-0.115	-0.203
-215.552	19.823	0.072	0.058
-214.538	-94.758	-0.221	-0.060
-213.523	188.575	-0.084	-0.125
-212.509	3.776	0.163	-0.118
-211.494	-200.000	-0.002	0.241
-210.479	800.000	0.052	-0.166
-209.465	464.354	0.105	-0.234
-208.450	49.652	-0.047	0.044
-207.436	-42.866	0.182	-0.092
-206.421	-200.000	0.048	0.510
-205.406	-51.305	0.230	-0.107
-204.392	-36.628	0.265	-0.142
-203.377	800.000	0.070	0.282
-202.363	-67.724	-0.313	0.122
-201.348	800.000	-0.100	0.402
-200.333	-200.000	-0.052	0.337
-199.319	800.000	-0.089	0.356
-198.304	-8.640	-0.138	0.092
-197.290	-175.549	-0.375	-0.010
-196.275	231.569	-0.173	-0.282
-195.260	-200.000	0.008	-0.083
-194.246	57.340	0.021	-0.020
-193.231	-200.000	0.001	-0.215
-192.217	-200.000	0.015	-0.087
-191.202	-33.617	0.038	-0.021
-190.187	-7.647	0.186	0.125
-189.173	200.638	0.283	-0.433
-188.158	-125.299	-0.045	0.007
-187.144	-120.494	0.169	0.029
-186.129	124.885	0.276	-0.345
-185.114	800.000	-0.116	-0.326
-184.100	328.664	0.134	-0.256
-183.085	-90.177	0.160	-0.046
-182.071	-105.148	0.264	-0.060
-181.056	-200.000	-0.307	0.001
-180.042	248.829	0.143	0.240
-179.027	-122.923	-0.218	0.035
-178.012	92.296	-0.152	-0.171
-176.998	-80.614	0.146	0.048
-175.983	297.052	-0.064	0.116
-174.969	800.000	-0.029	0.123
-173.954	-30.159	-0.129	0.073
-172.939	-110.091	0.479	0.099
-171.925	-30.335	0.166	0.094
-170.910	-86.738	0.271	-0.082
-169.896	52.412	-0.203	0.193
-168.881	-200.000	-0.012	-0.484
-167.866	-200.000	-0.014	0.403
-166.852	244.454	0.077	-0.129
-165.837	-47.476	-0.158	-0.076
-164.823	800.000	-0.027	-0.088
-163.808	-47.210	-0.319	-0.155
-162.793	-115.030	-0.498	0.094
-161.779	17.084	0.266	0.209
-160.764	800.000	-0.084	-0.261
-159.750	-73.799	0.192	0.070
-158.735	744.924	-0.024	-0.063
-157.720	-123.544	0.213	0.034
-156.706	43.062	-0.226	0.204
-155.691	800.000	-0.144	0.417
-154.677	63.002	-0.054	0.053
-153.662	566.013	-0.145	0.348
-152.647	-200.000	-0.039	0.249
-151.633	-121.843	0.105	0.017
-150.618	-114.501	-0.216	0.041
-149.604	303.944	0.158	0.292
-148.589	661.717	0.045	-0.115
-147.574	800.000	0.035	-0.125
-146.560	800.000	-0.073	-0.289
-145.545	52.443	0.099	-0.094
-144.531	-30.749	-0.113	-0.064
-143.516	103.779	-0.176	0.205
-142.502	-200.000	0.064	0.419
-141.487	-89.054	0.036	0.011
-140.472	85.578	-0.012	-0.014
-139.458	96.575	-0.044	-0.050
-138.443	-17.570	-0.123	-0.077
-137.429	-200.000	-0.009	0.113
-136.414	-6.835	0.195	0.131
-135.399	206.292	-0.067	-0.103
-134.385	-18.309	0.083	0.051
-133.370	-130.631	0.347	-0.046
-132.356	-155.921	0.042	0.003
-131.341	361.222	0.081	-0.161
-130.326	540.749	0.061	-0.144
-129.312	474.028	0.162	-0.361
-128.297	187.083	-0.125	0.185
-127.283	-115.459	-0.124	-0.023
-126.268	109.204	-0.131	0.156
-125.253	-200.000	0.050	0.392
-124.239	800.000	0.031	0.099
-123.224	-200.000	-0.017	-0.178
-122.210	800.000	0.130	-0.547
-121.195	135.551	0.149	0.193
