DTS Sentinel unit serial number:	SN413079Multiplexer serial number:	ORYXHardware model number:	OX4-SRSoftware version number:	ORYX F/W v4.00 Oryx Data Collector v3.7.2.0data status	okinstallation	princeton_trtdifferential loss correction	single-endedforward channel	channel 4reverse channel	N/Adate	2019/09/14time	05:49:35forward acquisition time	60.00reverse acquisition time	0.00gamma	496.2192k internal	0.2320k external	0.2320temperature offset calibration	1.0137default loss term (dB/km)	0.3790temperature slope calibration	1.0000multiplexer offset coefficient	1.0000multiplexer slope coefficient	1.0000fibre end	0.00T internal ref (°C)	26.87T ext. ref 1 (°C)	3.42T ext. ref 2 (°C)	21.42length (m)	temperature (°C)	Stokes	anti-Stokes-747.200	117.376	-0.134	-0.167
-746.185	-199.633	-0.305	0.002
-745.171	434.667	0.146	-0.321
-744.156	-131.616	-0.083	0.011
-743.142	306.808	0.189	-0.355
-742.127	421.330	-0.077	-0.166
-741.112	176.992	-0.208	0.305
-740.098	-200.000	0.028	0.365
-739.083	-160.649	0.104	0.006
-738.069	-131.721	0.232	0.031
-737.054	651.128	-0.062	-0.159
-736.039	137.491	-0.217	0.287
-735.025	-26.671	-0.398	0.236
-734.010	-65.946	-0.219	0.088
-732.996	27.251	-0.274	-0.232
-731.981	38.241	-0.239	-0.215
-730.966	62.301	-0.169	-0.171
-729.952	-111.367	0.239	-0.049
-728.937	107.940	-0.315	-0.380
-727.923	697.692	0.074	-0.196
-726.908	800.000	-0.052	-0.157
-725.894	-113.436	0.103	-0.020
-724.879	610.717	-0.080	-0.201
-723.864	536.630	-0.089	0.214
-722.850	-4.245	-0.158	-0.110
-721.835	-76.189	-0.439	-0.156
-720.821	365.804	-0.114	-0.233
-719.806	800.000	-0.054	-0.169
-718.791	205.528	-0.074	0.117
-717.777	-200.000	-0.002	-0.124
-716.762	155.166	-0.061	-0.085
-715.748	-40.096	0.045	0.024
-714.733	12.465	-0.055	0.043
-713.718	-200.000	0.009	-0.226
-712.704	-200.000	-0.064	-0.528
-711.689	21.435	-0.254	-0.208
-710.675	292.769	0.100	-0.184
-709.660	-99.003	0.275	-0.070
-708.645	-200.000	0.040	0.219
-707.631	-79.055	-0.117	-0.040
-706.616	652.960	-0.052	0.134
-705.602	88.700	0.180	-0.202
-704.587	119.240	-0.222	-0.277
-703.572	-52.351	-0.309	-0.145
-702.558	-98.986	0.086	-0.022
-701.543	-103.164	0.087	0.021
-700.529	-104.816	-0.033	0.008
-699.514	282.255	-0.101	-0.183
-698.499	-62.545	-0.194	-0.081
-697.485	52.257	-0.151	-0.145
-696.470	-154.786	0.086	0.006
-695.456	19.067	0.224	0.182
-694.441	-24.081	-0.268	-0.161
-693.426	-200.000	-0.005	-0.282
-692.412	-26.853	0.205	0.121
-691.397	-200.000	-0.023	-0.358
-690.383	-200.000	-0.014	0.287
-689.368	11.849	0.090	0.070
-688.354	337.091	0.101	-0.199
-687.339	-168.545	0.426	0.016
-686.324	7.196	-0.128	-0.097
-685.310	-200.000	-0.005	-0.070
-684.295	15.353	-0.091	0.072
-683.281	-96.781	-0.409	0.108
-682.266	-200.000	0.046	0.355
-681.251	-65.024	0.200	-0.081
-680.237	-46.138	-0.211	0.105
-679.222	-200.000	-0.021	-0.109
-678.208	281.667	-0.042	-0.075
-677.193	-135.595	-0.295	-0.035
-676.178	360.640	-0.063	0.126
-675.164	-163.965	-0.247	-0.012
-674.149	-200.000	0.046	-0.248
-673.135	-200.000	0.011	0.200
-672.120	187.721	-0.125	0.189
-671.105	-78.024	-0.153	-0.053
-670.091	-17.732	0.079	-0.050
-669.076	52.990	-0.140	-0.135
-668.062	-122.124	0.237	-0.039
-667.047	-117.395	-0.300	0.055
-666.032	-138.237	-0.129	0.014
-665.018	-122.775	-0.083	0.013
-664.003	-140.181	-0.197	0.021
-662.989	-16.058	0.147	0.094
-661.974	800.000	-0.074	-0.321
-660.959	5.097	-0.079	-0.059
-659.945	-41.877	0.329	-0.170
-658.930	25.917	-0.111	0.093
-657.916	-137.465	0.082	-0.009
-656.901	-200.000	0.049	0.258
-655.886	800.000	0.038	0.155
-654.872	-38.978	-0.192	0.102
-653.857	755.232	-0.077	-0.209
-652.843	-113.870	0.205	0.040
-651.828	-130.990	-0.206	0.028
-650.814	85.173	-0.203	0.225
-649.799	-166.517	0.385	-0.016
-648.784	132.138	0.150	-0.195
-647.770	-89.344	-0.268	0.080
-646.755	-85.052	0.240	-0.076
-645.741	3.668	0.142	0.104
-644.726	484.867	0.097	0.223
-643.711	800.000	-0.208	-0.581
-642.697	-200.000	0.008	0.135
-641.682	59.224	-0.235	0.233
-640.668	-168.005	0.232	0.009
-639.653	355.291	-0.152	0.304
-638.638	-65.258	-0.109	-0.044
-637.624	-99.967	-0.325	-0.082
-636.609	297.596	-0.021	0.039
-635.595	412.259	0.126	-0.269
-634.580	-1.589	-0.063	-0.045
-633.565	-30.386	0.250	-0.143
-632.551	23.658	-0.300	-0.249
-631.536	256.649	0.282	-0.488
-630.522	591.627	-0.116	0.288
-629.507	-70.406	-0.335	-0.128
-628.492	-200.000	0.024	-0.163
-627.478	-116.784	-0.156	0.029
-626.463	43.848	0.088	0.081
-625.449	-112.543	0.390	0.078
-624.434	551.396	-0.030	-0.072
-623.419	-200.000	0.023	-0.109
-622.405	-89.695	-0.185	-0.054
-621.390	340.159	0.147	0.288
-620.376	-110.492	-0.144	-0.030
-619.361	-200.000	0.003	0.253
-618.346	101.133	0.184	0.216
-617.332	800.000	0.062	0.204
-616.317	1.858	0.104	-0.075
-615.303	-45.631	0.109	-0.054
-614.288	-56.380	0.413	0.185
-613.273	795.644	-0.081	0.226
-612.259	-200.000	0.022	0.120
-611.244	-26.784	-0.074	-0.044
-610.230	-114.437	-0.463	-0.089
-609.215	-165.213	-0.395	-0.018
-608.201	3.212	0.274	-0.200
-607.186	222.500	-0.210	0.340
-606.171	575.596	0.090	-0.221
-605.157	-35.806	-0.208	-0.113
-604.142	200.447	-0.106	-0.164
-603.128	-200.000	0.010	0.182
-602.113	129.962	-0.141	0.181
-601.098	7.201	0.072	-0.054
-600.084	-200.000	-0.026	0.164
-599.069	-200.000	-0.016	-0.108
-598.055	-72.247	-0.389	0.145
-597.040	-36.333	-0.162	0.088
-596.025	202.185	-0.062	-0.097
-595.011	3.957	-0.092	0.068
-593.996	306.739	-0.113	-0.212
-592.982	-200.000	0.001	-0.184
-591.967	484.849	-0.061	-0.140
-590.952	-126.004	0.136	-0.020
-589.938	-200.000	0.033	-0.206
-588.923	478.088	0.087	-0.197
-587.909	39.888	0.133	0.120
-586.894	-200.000	0.004	-0.118
-585.879	-200.000	0.016	-0.198
-584.865	-200.000	0.047	-0.265
-583.850	627.192	-0.080	0.203
-582.836	-6.729	-0.108	-0.074
-581.821	215.735	0.227	0.362
-580.806	-126.958	0.059	-0.009
-579.792	182.475	-0.033	-0.049
-578.777	-111.367	0.232	0.048
-577.763	-108.086	-0.083	-0.018
-576.748	-129.474	-0.063	-0.009
-575.733	768.323	0.021	0.058
-574.719	-107.287	0.154	0.034
-573.704	-26.912	-0.195	-0.114
-572.690	800.000	-0.052	0.180
-571.675	800.000	0.067	0.238
-570.661	-58.631	0.216	-0.094
-569.646	36.635	-0.237	-0.210
-568.631	-200.000	0.025	0.160
-567.617	197.437	0.094	0.144
-566.602	57.868	0.025	0.024
-565.588	-200.000	-0.056	0.285
-564.573	-200.000	0.014	-0.074
-563.558	34.929	0.108	-0.094
-562.544	649.168	-0.013	0.034
-561.529	-200.000	0.028	0.253
-560.515	-200.000	0.011	-0.128
-559.500	75.126	0.271	-0.287
-558.485	112.101	0.066	-0.080
-557.471	-100.060	0.379	0.095
-556.456	-190.129	0.202	-0.002
-555.442	-91.274	-0.142	0.041
-554.427	-200.000	-0.019	-0.158
-553.412	65.640	-0.235	0.239
-552.398	-200.000	-0.050	0.268
-551.383	-46.862	-0.278	-0.136
-550.369	506.483	-0.077	0.179
-549.354	59.333	0.166	-0.164
-548.339	800.000	-0.080	-0.340
-547.325	28.835	0.078	0.066
-546.310	800.000	0.028	0.085
-545.296	-107.407	-0.263	-0.058
-544.281	401.914	-0.094	0.198
-543.266	-14.379	-0.191	0.124
-542.252	26.891	-0.193	-0.162
-541.237	42.148	0.169	0.154
-540.223	-166.431	-0.195	-0.008
-539.208	-200.000	-0.025	-0.292
-538.193	-158.177	-0.598	0.035
-537.179	-66.427	-0.288	-0.115
-536.164	-2.728	0.229	0.161
-535.150	800.000	-0.045	-0.159
-534.135	-3.730	-0.194	-0.135
-533.121	3.593	-0.164	-0.120
-532.106	10.834	-0.196	-0.150
-531.091	800.000	0.010	0.043
-530.077	-18.586	-0.157	0.098
-529.062	56.733	0.173	-0.169
-528.048	724.925	0.106	-0.282
-527.033	94.449	-0.275	-0.313
-526.018	-113.825	-0.228	-0.045
-525.004	48.912	-0.044	-0.041
-523.989	-83.719	0.273	-0.087
-522.975	234.222	-0.083	0.137
-521.960	-139.649	0.225	0.024
-520.945	-163.063	-0.262	0.013
-519.931	454.867	0.198	-0.440
-518.916	-105.582	0.427	-0.097
-517.902	50.864	-0.095	0.090
-516.887	-172.379	-0.505	0.016
-515.872	204.846	0.084	-0.131
-514.858	-153.112	0.340	-0.024
-513.843	-200.000	0.028	-0.129
-512.829	147.440	0.014	-0.019
-511.814	-95.635	0.086	-0.023
-510.799	302.424	0.116	0.216
-509.785	-35.520	0.043	-0.024
-508.770	58.840	-0.052	-0.051
-507.756	92.704	0.196	0.222
-506.741	67.989	0.036	-0.037
-505.726	-140.042	0.197	-0.021
-504.712	-140.607	0.329	0.034
-503.697	-121.573	-0.225	0.037
-502.683	231.780	-0.213	0.350
-501.668	-146.363	0.297	0.026
-500.653	71.382	0.290	-0.301
-499.639	800.000	-0.078	-0.290
-498.624	132.102	0.073	-0.094
-497.610	-200.000	0.006	-0.141
-496.595	-59.448	0.250	-0.107
-495.581	-20.050	-0.078	-0.048
-494.566	-163.897	-0.050	0.002
-493.551	-86.585	-0.292	0.090
-492.537	-55.288	-0.206	-0.093
-491.522	-80.021	-0.173	0.058
-490.508	34.745	0.195	-0.171
-489.493	-200.000	-0.033	-0.210
-488.478	223.250	0.274	-0.442
-487.464	800.000	0.069	-0.270
-486.449	-200.000	0.012	-0.201
-485.435	33.658	-0.258	-0.225
-484.420	-200.000	0.009	-0.178
-483.405	-33.106	0.186	-0.103
-482.391	-58.353	0.077	0.033
-481.376	-200.000	0.079	0.406
-480.362	132.269	0.072	-0.093
-479.347	-200.000	0.052	-0.306
-478.332	138.450	-0.325	-0.426
-477.318	800.000	-0.106	-0.304
-476.303	19.180	-0.245	-0.197
-475.289	378.576	0.065	-0.134
-474.274	-78.163	-0.112	-0.039
-473.259	-83.114	0.118	-0.038
-472.245	-88.453	-0.200	-0.060
-471.230	-24.019	0.214	-0.128
-470.216	-161.030	0.254	0.013
-469.201	132.561	-0.091	0.117
-468.186	-15.377	0.149	-0.095
-467.172	91.260	-0.259	0.291
-466.157	800.000	0.083	-0.323
-465.143	-160.552	0.248	-0.013
-464.128	-200.000	0.007	0.224
-463.113	90.867	-0.210	0.236
-462.099	149.970	0.077	-0.105
-461.084	41.953	-0.077	0.070
-460.070	-134.320	-0.078	0.010
-459.055	-155.302	-0.132	0.009
-458.040	-200.000	-0.053	0.257
-457.026	-14.648	0.204	-0.131
-456.011	-200.000	0.006	0.122
-454.997	104.690	0.158	0.186
-453.982	213.833	0.117	0.186
-452.968	-147.858	0.286	-0.024
-451.953	22.089	-0.216	-0.176
-450.938	215.071	-0.121	-0.192
-449.924	800.000	0.091	0.398
-448.909	800.000	-0.064	0.179
-447.895	21.175	0.032	0.026
-446.880	265.319	0.020	-0.034
-445.865	-93.214	0.085	0.024
-444.851	106.646	-0.012	-0.014
-443.836	-0.990	0.172	-0.121
-442.822	-160.602	0.282	-0.015
-441.807	-58.072	0.115	-0.050
-440.792	-21.958	0.091	0.055
-439.778	-121.512	-0.172	-0.029
-438.763	207.354	-0.064	-0.100
-437.749	24.707	-0.080	-0.066
-436.734	-15.291	0.108	-0.069
-435.719	192.577	-0.207	-0.312
-434.705	-73.520	0.254	0.092
-433.690	-140.085	0.211	0.022
-432.676	-200.000	0.004	-0.113
-431.661	323.468	0.059	0.113
-430.646	-200.000	-0.007	0.406
-429.632	487.588	-0.064	0.147
-428.617	-87.876	-0.088	-0.027
-427.603	-176.575	0.412	-0.011
-426.588	-200.000	-0.011	-0.112
-425.573	347.117	-0.055	0.108
-424.559	89.678	0.232	0.259
-423.544	39.947	-0.180	-0.161
-422.530	528.445	-0.068	-0.160
-421.515	-61.122	0.289	0.122
-420.500	93.137	-0.229	-0.259
-419.486	-33.702	0.116	0.064
-418.471	115.514	-0.189	-0.231
-417.457	-33.527	-0.230	-0.127
-416.442	184.927	0.127	0.187
-415.428	-14.804	-0.333	0.214
-414.413	76.986	0.141	0.150
-413.398	-34.250	-0.211	0.116
-412.384	49.005	-0.294	0.275
-411.369	300.750	-0.178	0.327
-410.355	5.613	-0.198	0.146
-409.340	-131.110	0.231	0.031
-408.325	-23.461	-0.074	0.044
-407.311	70.548	0.135	-0.139
-406.296	442.049	0.034	-0.073
-405.282	-16.326	0.050	0.031
-404.267	-200.000	-0.018	0.172
-403.252	-79.502	0.234	0.079
-402.238	-5.313	-0.247	0.169
-401.223	-200.000	0.014	0.162
-400.209	49.792	0.091	-0.085
-399.194	119.489	-0.188	-0.233
-398.179	281.256	0.112	0.201
-397.165	-200.000	0.004	-0.086
-396.150	-4.729	-0.097	-0.067
-395.136	800.000	0.060	-0.167
-394.121	-109.576	0.413	0.087
-393.106	-125.860	-0.057	-0.009
-392.092	-114.637	-0.093	-0.018
-391.077	429.842	0.029	-0.062
-390.063	-17.897	-0.224	0.140
-389.048	-162.222	-0.352	-0.018
-388.033	-118.556	-0.163	-0.029
-387.019	-57.382	0.413	-0.181
-386.004	71.233	0.127	0.131
-384.990	-136.839	-0.136	-0.016
-383.975	20.674	0.168	0.136
-382.960	-76.373	0.171	-0.060
-381.946	-85.306	0.081	0.025
-380.931	-200.000	0.073	0.429
-379.917	-76.005	-0.176	0.062
-378.902	-53.237	-0.348	-0.159
-377.888	800.000	0.050	-0.198
-376.873	-58.005	-0.092	0.040
-375.858	377.592	-0.053	0.108
-374.844	149.280	-0.167	0.225
-373.829	-200.000	0.003	0.216
-372.815	197.843	-0.071	-0.109
-371.800	107.647	0.193	-0.229
-370.785	-200.000	0.012	0.142
-369.771	616.941	0.058	-0.146
-368.756	51.201	0.194	0.184
-367.742	174.398	-0.183	-0.264
-366.727	-48.933	-0.289	0.138
-365.712	-72.748	-0.328	0.120
-364.698	-139.204	0.212	-0.023
-363.683	228.231	0.117	-0.189
-362.669	270.144	-0.108	-0.189
-361.654	-71.369	-0.354	-0.132
-360.639	369.982	0.116	-0.235
-359.625	331.256	0.104	-0.200
-358.610	-19.902	0.082	0.050
-357.596	-85.728	0.151	0.047
-356.581	-42.561	0.480	0.244
-355.566	-138.568	-0.273	-0.030
-354.552	18.346	-0.069	0.055
-353.537	800.000	0.035	0.153
-352.523	-200.000	0.014	-0.192
-351.508	-200.000	0.094	0.000
-350.493	24.564	-0.079	-0.065
-349.479	800.000	-0.033	0.116
-348.464	-132.435	-0.281	-0.036
-347.450	176.113	0.058	0.083
-346.435	-200.000	-0.096	-0.452
-345.420	-200.000	-0.038	-0.178
-344.406	-55.933	0.318	-0.141
-343.391	800.000	0.032	-0.093
-342.377	-5.036	0.188	0.129
-341.362	-138.007	0.037	0.004
-340.348	-107.666	-0.460	-0.100
-339.333	161.940	-0.058	-0.081
-338.318	-1.274	0.135	0.095
-337.304	109.875	-0.160	0.192
-336.289	-123.344	-0.093	0.015
-335.275	217.328	-0.173	-0.274
-334.260	339.589	0.064	0.124
-333.245	54.007	0.235	0.225
-332.231	587.026	-0.038	-0.094
-331.216	800.000	0.059	-0.171
-330.202	121.811	-0.116	0.144
-329.187	-200.000	0.023	-0.320
-328.172	-200.000	-0.032	0.224
-327.158	-132.316	0.253	0.033
-326.143	-128.529	-0.202	0.028
-325.129	-200.000	0.012	0.075
-324.114	-25.932	-0.116	0.068
-323.099	366.447	0.146	-0.293
-322.085	-120.176	-0.196	0.033
-321.070	-129.194	0.197	-0.027
-320.056	-105.544	-0.680	0.153
-319.041	184.833	-0.175	0.258
-318.026	442.239	-0.029	0.063
-317.012	88.827	-0.128	-0.142
-315.997	-48.128	0.404	0.194
-314.983	266.056	-0.161	0.280
-313.968	6.666	-0.295	-0.218
-312.953	195.466	0.050	-0.076
-311.939	94.086	-0.076	-0.086
-310.924	308.031	0.117	0.217
-309.910	800.000	-0.116	0.480
-308.895	-158.574	-0.095	0.005
-307.880	-200.000	-0.046	0.382
-306.866	55.423	-0.177	0.170
-305.851	-150.746	0.095	-0.007
-304.837	5.709	-0.317	0.233
-303.822	159.321	0.182	-0.252
-302.807	-56.814	-0.110	-0.048
-301.793	666.468	0.050	0.129
-300.778	164.015	-0.129	0.181
-299.764	-80.980	-0.210	-0.069
-298.749	-98.119	-0.138	0.035
-297.735	-39.947	0.153	0.079
-296.720	186.109	-0.113	0.168
-295.705	713.804	0.011	0.029
-294.691	-119.998	0.268	0.046
-293.676	-28.203	-0.247	-0.142
-292.662	571.290	-0.078	0.189
-291.647	167.432	0.229	0.323
-290.632	719.873	-0.067	-0.178
-289.618	-200.000	-0.005	0.180
-288.603	-200.000	-0.006	0.034
-287.589	-150.226	-0.194	0.015
-286.574	800.000	-0.095	0.306
-285.559	-30.514	0.073	0.041
-284.545	800.000	0.126	0.376
-283.530	-200.000	-0.024	0.230
-282.516	112.846	0.230	-0.276
-281.501	-200.000	-0.038	0.312
-280.486	-23.812	-0.366	0.218
-279.472	86.484	0.150	-0.165
-278.457	-62.287	0.190	0.079
-277.443	632.623	-0.054	0.136
-276.428	14.059	0.127	0.098
-275.413	161.878	0.069	0.095
-274.399	800.000	-0.054	0.203
-273.384	155.272	-0.167	0.228
-272.370	-72.820	-0.155	-0.057
-271.355	281.318	0.141	-0.251
-270.340	-87.846	-0.073	-0.022
-269.326	-11.995	0.195	0.127
-268.311	290.025	0.070	-0.127
-267.297	-86.668	-0.038	0.012
-266.282	176.462	0.107	0.154
-265.267	-200.000	-0.021	-0.143
-264.253	-168.488	-0.261	0.010
-263.238	-147.700	0.081	-0.007
-262.224	-54.753	-0.117	-0.053
-261.209	48.719	-0.069	-0.064
-260.195	4.442	0.186	0.135
-259.180	-200.000	-0.018	0.174
-258.165	800.000	0.040	-0.160
-257.151	-70.024	0.099	-0.037
-256.136	-128.014	-0.106	0.015
-255.122	149.828	-0.233	-0.314
-254.107	48.437	0.107	-0.100
-253.092	333.421	0.072	0.138
-252.078	800.000	0.069	-0.224
-251.063	-89.432	0.188	-0.055
-250.049	9.044	-0.295	-0.221
-249.034	0.706	-0.166	-0.118
-248.019	-71.621	0.233	-0.086
-247.005	-84.923	0.104	-0.032
-245.990	135.799	0.063	-0.082
-244.976	-166.882	0.224	0.009
-243.961	167.522	0.161	0.227
-242.946	-11.182	0.363	-0.237
-241.932	161.494	-0.154	0.214
-240.917	-155.764	-0.370	-0.023
-239.903	800.000	0.080	-0.223
-238.888	81.989	0.049	0.052
-237.873	215.169	0.128	0.201
-236.859	80.456	-0.160	-0.171
-235.844	103.674	0.213	0.248
-234.830	-29.360	-0.348	0.197
-233.815	-200.000	0.013	-0.294
-232.800	-118.678	-0.067	-0.012
-231.786	-172.769	-0.124	0.004
-230.771	18.519	0.056	-0.044
-229.757	-200.000	-0.037	0.270
-228.742	-200.000	-0.018	0.118
-227.727	-200.000	0.033	0.174
-226.713	203.357	0.079	0.121
-225.698	-173.183	-0.050	-0.002
-224.684	-111.106	-0.317	-0.064
-223.669	-50.243	-0.141	0.066
-222.655	-84.238	0.090	0.028
-221.640	-8.643	0.108	-0.072
-220.625	-55.161	-0.230	0.103
-219.611	95.922	-0.185	-0.209
-218.596	-182.503	0.071	0.001
-217.582	-152.642	0.363	0.026
-216.567	-86.895	-0.308	-0.093
-215.552	98.681	0.155	0.177
-214.538	99.637	0.026	0.029
-213.523	-200.000	-0.079	-0.445
-212.509	8.000	0.070	-0.052
-211.494	-45.127	0.205	-0.101
-210.479	-6.371	0.253	0.171
-209.465	-77.441	0.090	-0.031
-208.450	-110.647	0.215	0.044
-207.436	800.000	-0.088	0.248
-206.421	-131.807	0.275	0.036
-205.406	-122.225	0.499	-0.081
-204.392	-142.879	-0.450	0.043
-203.377	-127.131	0.247	0.036
-202.363	-18.725	0.216	0.133
-201.348	-68.852	0.042	-0.016
-200.333	64.951	0.170	0.170
-199.319	-114.298	0.034	-0.007
-198.304	156.311	0.101	-0.137
-197.290	301.401	0.084	-0.153
-196.275	-120.351	0.192	-0.032
-195.260	-41.066	-0.328	-0.168
-194.246	800.000	0.067	-0.187
-193.231	-200.000	-0.052	0.232
-192.217	-76.083	-0.136	0.047
-191.202	158.298	0.364	0.500
-190.187	-200.000	-0.005	-0.084
-189.173	-115.306	-0.146	0.027
-188.158	129.130	0.135	-0.170
-187.144	-44.273	0.091	0.045
-186.129	2.505	0.176	0.126
-185.114	69.077	0.099	0.100
-184.100	800.000	0.063	-0.195
-183.085	-122.066	-0.507	0.082
-182.071	-117.258	-0.143	-0.026
-181.056	39.521	0.178	-0.158
-180.042	-189.570	0.095	-0.001
-179.027	40.685	0.084	-0.075
-178.012	800.000	0.037	-0.144
-176.998	800.000	-0.061	-0.187
-175.983	-14.740	-0.102	-0.065
-174.969	-85.226	0.347	-0.107
-173.954	-200.000	-0.010	0.125
-172.939	167.493	-0.091	0.128
-171.925	194.399	0.226	0.339
-170.910	211.291	-0.118	0.183
-169.896	170.091	0.204	-0.289
-168.881	6.181	0.311	-0.228
-167.866	800.000	0.027	0.091
-166.852	-26.837	-0.130	-0.075
-165.837	171.400	0.005	0.007
-164.823	211.848	0.105	0.164
-163.808	83.660	0.201	0.216
-162.793	57.819	-0.146	0.141
-161.779	-64.769	-0.265	0.106
-160.764	-29.817	-0.306	0.173
-159.750	-200.000	0.011	-0.215
-158.735	-135.470	0.117	0.014
-157.720	-4.783	0.232	-0.158
-156.706	7.724	-0.134	0.099
-155.691	-33.491	-0.038	0.021
-154.677	348.375	0.124	-0.241
-153.662	35.135	0.222	0.193
-152.647	120.103	0.173	-0.211
-151.633	-139.961	0.192	-0.020
-150.618	-127.279	0.443	0.064
-149.604	239.906	-0.064	-0.105
-148.589	-30.847	-0.169	-0.094
-147.574	-97.484	-0.491	0.126
-146.560	-137.162	-0.373	-0.042
-145.545	284.533	-0.131	0.233
-144.531	395.928	0.071	0.147
-143.516	-136.323	0.135	0.016
-142.502	-95.791	0.099	0.026
-141.487	-200.000	-0.030	-0.231
-140.472	154.748	0.195	0.265
-139.458	-103.014	0.132	0.031
-138.443	191.950	0.359	-0.535
-137.429	-6.396	-0.213	-0.143
-136.414	-200.000	0.004	-0.158
-135.399	-118.716	0.113	-0.020
-134.385	18.392	-0.138	-0.109
-133.370	197.260	0.183	0.275
-132.356	204.316	-0.225	-0.344
-131.341	-200.000	-0.012	-0.526
-130.326	-92.605	0.075	-0.021
-129.312	-200.000	0.033	0.199
-128.297	-200.000	-0.028	-0.227
-127.283	-200.000	0.027	0.155
-126.268	457.391	0.060	0.133
-125.253	151.008	0.038	0.051
-124.239	79.052	-0.086	-0.091
-123.224	97.847	-0.257	-0.291
-122.210	695.871	0.152	-0.393
-121.195	-200.000	0.085	0.407
