DTS Sentinel unit serial number:	SN413079Multiplexer serial number:	ORYXHardware model number:	OX4-SRSoftware version number:	ORYX F/W v4.00 Oryx Data Collector v3.7.2.0data status	okinstallation	princeton_trtdifferential loss correction	single-endedforward channel	channel 4reverse channel	N/Adate	2019/09/12time	21:53:35forward acquisition time	60.00reverse acquisition time	0.00gamma	496.2192k internal	0.2314k external	0.2314temperature offset calibration	1.0174default loss term (dB/km)	0.3790temperature slope calibration	1.0000multiplexer offset coefficient	1.0000multiplexer slope coefficient	1.0000fibre end	0.00T internal ref (°C)	30.16T ext. ref 1 (°C)	3.74T ext. ref 2 (°C)	24.79length (m)	temperature (°C)	Stokes	anti-Stokes-747.200	-200.000	0.003	0.472
-746.185	140.982	-0.203	0.271
-745.171	6.158	0.457	0.343
-744.156	800.000	0.109	0.382
-743.142	73.514	-0.140	-0.148
-742.127	-200.000	-0.009	0.070
-741.112	800.000	0.095	0.374
-740.098	401.143	-0.159	0.338
-739.083	-200.000	-0.018	0.089
-738.069	162.118	-0.162	0.230
-737.054	-14.130	-0.337	0.220
-736.039	6.245	-0.234	0.176
-735.025	-86.525	0.245	-0.076
-734.010	-46.105	0.168	-0.084
-732.996	-200.000	-0.000	0.007
-731.981	-94.637	-0.237	-0.065
-730.966	-200.000	0.030	0.163
-729.952	-134.052	0.075	0.009
-728.937	-200.000	0.066	-0.310
-727.923	800.000	-0.088	0.321
-726.908	270.890	-0.069	0.123
-725.894	-200.000	-0.054	0.268
-724.879	139.734	0.048	-0.064
-723.864	-132.026	-0.290	0.038
-722.850	12.976	-0.101	-0.079
-721.835	36.243	-0.207	0.185
-720.821	-91.587	0.086	0.025
-719.806	800.000	-0.101	-0.302
-718.791	17.044	-0.206	-0.165
-717.777	-38.898	-0.122	-0.065
-716.762	-200.000	-0.014	-0.308
-715.748	-88.443	-0.109	0.033
-714.733	-114.621	0.412	0.080
-713.718	800.000	0.096	-0.354
-712.704	-200.000	-0.029	-0.220
-711.689	-106.889	-0.251	0.056
-710.675	217.350	0.038	-0.062
-709.660	-78.794	-0.213	0.074
-708.645	46.415	0.430	0.404
-707.631	-4.843	-0.146	0.102
-706.616	800.000	-0.064	0.253
-705.602	614.944	0.130	-0.328
-704.587	66.497	0.198	-0.204
-703.572	-106.231	0.259	0.059
-702.558	276.618	0.205	-0.369
-701.543	-150.216	0.143	-0.011
-700.529	-142.109	0.323	-0.032
-699.514	61.435	0.221	-0.222
-698.499	-116.263	0.030	0.006
-697.485	-16.044	-0.180	-0.116
-696.470	-146.708	-0.215	0.019
-695.456	800.000	-0.035	0.115
-694.441	-67.891	0.241	-0.095
-693.426	86.394	0.101	-0.112
-692.412	201.706	0.162	-0.252
-691.397	-200.000	-0.005	-0.187
-690.383	-200.000	-0.023	-0.291
-689.368	115.582	-0.310	-0.384
-688.354	-101.367	0.296	-0.073
-687.339	-200.000	-0.005	-0.253
-686.324	-168.095	-0.140	-0.006
-685.310	-67.076	-0.138	0.055
-684.295	-136.129	-0.393	-0.047
-683.281	742.054	-0.051	-0.138
-682.266	-42.689	0.179	0.092
-681.251	-115.978	-0.187	-0.035
-680.237	6.966	0.261	-0.197
-679.222	-200.000	-0.013	-0.235
-678.208	266.027	0.083	-0.146
-677.193	-200.000	-0.047	-0.233
-676.178	106.468	0.128	-0.153
-675.164	115.088	-0.215	-0.265
-674.149	800.000	0.074	0.221
-673.135	10.654	0.069	0.054
-672.120	-120.390	-0.276	0.047
-671.105	800.000	0.060	0.240
-670.091	-67.322	0.037	0.015
-669.076	-39.355	-0.174	0.092
-668.062	202.294	0.204	-0.318
-667.047	-114.401	-0.192	0.037
-666.032	-167.458	-0.501	0.020
-665.018	-200.000	0.004	0.033
-664.003	104.952	-0.112	-0.133
-662.989	472.766	0.167	-0.380
-661.974	14.464	-0.278	-0.220
-660.959	383.223	-0.079	-0.165
-659.945	-200.000	0.067	0.414
-658.930	18.832	-0.231	0.187
-657.916	599.890	0.085	0.212
-656.901	-75.458	0.352	-0.127
-655.886	322.560	-0.259	-0.499
-654.872	107.027	0.257	-0.308
-653.857	-10.293	0.250	-0.167
-652.843	-200.000	0.046	0.344
-651.828	800.000	-0.091	-0.263
-650.814	-200.000	0.001	-0.105
-649.799	-74.457	-0.144	0.053
-648.784	-49.144	-0.017	0.008
-647.770	41.670	-0.220	-0.201
-646.755	-158.801	0.419	0.024
-645.741	-112.375	-0.314	-0.063
-644.726	-70.000	0.069	0.027
-643.711	-57.567	0.385	0.170
-642.697	-76.951	-0.185	0.065
-641.682	-200.000	-0.030	-0.177
-640.668	111.108	0.058	-0.070
-639.653	-174.627	-0.445	-0.013
-638.638	800.000	-0.069	0.236
-637.624	14.098	0.183	-0.144
-636.609	184.380	-0.040	0.060
-635.595	800.000	0.069	0.301
-634.580	-200.000	0.019	-0.125
-633.565	-84.322	0.079	0.025
-632.551	-200.000	0.004	-0.114
-631.536	-7.069	-0.083	0.057
-630.522	800.000	-0.093	-0.286
-629.507	575.079	0.078	0.192
-628.492	-96.207	0.079	-0.021
-627.478	-200.000	0.059	-0.281
-626.463	-200.000	-0.039	-0.218
-625.449	142.524	0.204	-0.274
-624.434	46.590	-0.239	-0.224
-623.419	-61.531	-0.025	-0.011
-622.405	99.895	-0.352	-0.412
-621.390	-122.833	-0.145	0.024
-620.376	634.665	0.086	-0.221
-619.361	-200.000	0.027	0.238
-618.346	-112.871	-0.158	-0.032
-617.332	243.183	0.019	-0.032
-616.317	-64.794	0.070	-0.028
-615.303	-21.332	-0.315	0.194
-614.288	-200.000	0.001	0.029
-613.273	-44.287	0.246	0.124
-612.259	-200.000	-0.033	0.307
-611.244	306.013	0.122	-0.228
-610.230	-19.200	0.173	-0.108
-609.215	-119.645	-0.170	0.030
-608.201	30.117	-0.100	0.086
-607.186	216.200	0.188	0.301
-606.171	-47.237	0.169	0.083
-605.157	86.567	-0.022	0.024
-604.142	-170.232	-0.462	-0.016
-603.128	-87.892	0.270	-0.082
-602.113	-200.000	0.041	0.433
-601.098	-21.640	0.248	-0.152
-600.084	-200.000	-0.046	0.229
-599.069	-75.317	-0.266	-0.096
-598.055	-44.004	0.422	0.213
-597.040	5.170	0.231	0.172
-596.025	479.914	0.095	-0.216
-595.011	38.767	-0.011	-0.010
-593.996	124.600	-0.133	0.169
-592.982	-69.014	-0.290	-0.113
-591.967	-200.000	0.024	-0.193
-590.952	321.701	-0.107	0.205
-589.938	-200.000	0.004	-0.093
-588.923	8.920	0.124	-0.094
-587.909	302.726	-0.178	-0.331
-586.894	-35.223	-0.152	0.083
-585.879	-68.234	0.147	-0.058
-584.865	-139.821	-0.143	-0.015
-583.850	-200.000	0.005	0.143
-582.836	65.469	0.034	-0.035
-581.821	-23.494	-0.067	-0.041
-580.806	-200.000	-0.022	-0.186
-579.792	119.100	-0.144	-0.179
-578.777	114.612	-0.041	0.051
-577.763	13.556	0.087	-0.068
-576.748	-40.141	0.302	0.158
-575.733	-193.443	-0.506	-0.004
-574.719	574.569	-0.047	-0.116
-573.704	-77.068	-0.639	-0.224
-572.690	-137.676	0.267	-0.030
-571.675	478.099	-0.020	0.045
-570.661	24.953	-0.113	0.094
-569.646	-121.743	0.298	-0.050
-568.631	-16.224	0.114	-0.073
-567.617	-197.957	-0.266	-0.002
-566.602	368.504	-0.076	0.155
-565.588	3.712	-0.039	0.029
-564.573	-145.875	-0.065	-0.006
-563.558	458.110	0.101	-0.227
-562.544	-200.000	0.016	-0.289
-561.529	-58.771	-0.159	-0.069
-560.515	100.956	-0.090	-0.106
-559.500	-69.640	0.437	-0.168
-558.485	38.092	-0.170	-0.152
-557.471	-75.273	0.126	-0.045
-556.456	-156.456	0.056	0.004
-555.442	-129.609	0.317	0.044
-554.427	-127.269	-0.076	0.011
-553.412	-179.436	-0.086	-0.002
-552.398	23.170	-0.296	0.245
-551.383	-200.000	-0.006	-0.198
-550.369	-200.000	0.035	0.220
-549.354	-9.349	0.166	0.112
-548.339	-129.533	-0.252	0.035
-547.325	-9.944	-0.055	-0.037
-546.310	-200.000	-0.033	0.189
-545.296	-74.946	0.440	-0.159
-544.281	71.289	-0.153	-0.160
-543.266	-200.000	0.053	0.354
-542.252	800.000	0.009	0.025
-541.237	194.743	-0.197	0.300
-540.223	7.881	-0.262	0.197
-539.208	-6.236	0.158	0.109
-538.193	-86.683	-0.408	0.126
-537.179	800.000	0.126	0.394
-536.164	23.540	0.151	0.125
-535.150	56.496	-0.187	0.183
-534.135	-200.000	0.053	0.457
-533.121	-100.810	0.313	0.078
-532.106	109.726	-0.155	0.187
-531.091	459.699	0.234	0.523
-530.077	-200.000	-0.041	0.254
-529.062	-78.883	0.173	-0.059
-528.048	-43.966	-0.215	0.109
-527.033	-144.523	-0.131	0.012
-526.018	-200.000	0.015	-0.127
-525.004	215.467	-0.163	0.259
-523.989	106.658	0.088	-0.105
-522.975	-125.070	-0.222	-0.034
-521.960	-200.000	-0.033	0.000
-520.945	16.968	-0.128	0.102
-519.931	-17.511	0.128	-0.081
-518.916	88.635	-0.120	0.134
-517.902	-200.000	-0.019	-0.266
-516.887	182.218	-0.113	0.167
-515.872	-200.000	-0.173	-0.001
-514.858	139.129	-0.067	0.089
-513.843	-200.000	-0.035	-0.287
-512.829	231.710	0.092	0.152
-511.814	-134.843	0.256	0.031
-510.799	271.456	-0.016	0.028
-509.785	-77.417	0.025	0.009
-508.770	353.542	-0.162	-0.323
-507.756	-1.099	-0.245	0.174
-506.741	581.114	0.045	-0.112
-505.726	-0.214	-0.079	0.056
-504.712	800.000	0.062	-0.191
-503.697	-72.208	0.129	0.048
-502.683	-64.889	0.285	-0.116
-501.668	-200.000	0.013	-0.117
-500.653	-156.628	-0.231	-0.014
-499.639	36.925	0.193	0.171
-498.624	0.162	0.521	0.373
-497.610	800.000	0.031	-0.110
-496.595	-200.000	0.020	-0.167
-495.581	47.052	0.083	0.077
-494.566	180.134	-0.062	0.091
-493.551	505.429	-0.048	-0.111
-492.537	-200.000	0.007	0.041
-491.522	-82.057	0.203	-0.066
-490.508	-200.000	-0.038	0.326
-489.493	-13.298	0.443	0.289
-488.478	190.011	0.056	-0.084
-487.464	19.801	-0.093	0.075
-486.449	85.605	-0.144	-0.158
-485.435	648.242	-0.031	0.081
-484.420	36.189	0.144	0.127
-483.405	132.147	-0.170	0.219
-482.391	-200.000	0.025	-0.112
-481.376	-31.449	-0.148	0.084
-480.362	25.485	0.100	-0.084
-479.347	560.325	-0.124	-0.302
-478.332	800.000	0.064	-0.276
-477.318	-92.316	0.443	-0.125
-476.303	-172.881	-0.053	0.002
-475.289	-22.922	-0.023	-0.014
-474.274	800.000	0.093	0.349
-473.259	-70.231	-0.325	0.124
-472.245	2.396	-0.227	0.164
-471.230	-103.622	-0.177	0.042
-470.216	-9.608	-0.103	0.069
-469.201	360.631	0.045	0.090
-468.186	444.953	0.176	-0.388
-467.172	-52.215	0.119	-0.055
-466.157	-91.437	-0.282	0.081
-465.143	800.000	0.086	-0.265
-464.128	-56.100	0.286	0.128
-463.113	-8.690	-0.178	-0.120
-462.099	21.997	0.127	-0.104
-461.084	-36.668	-0.107	-0.058
-460.070	800.000	-0.015	0.054
-459.055	-16.410	0.123	-0.078
-458.040	-50.856	-0.072	0.034
-457.026	72.733	0.184	0.192
-456.011	-200.000	0.015	0.084
-454.997	404.351	0.063	-0.132
-453.982	143.626	0.148	0.197
-452.968	448.164	-0.094	-0.208
-451.953	-142.551	-0.163	0.016
-450.938	-97.213	-0.196	-0.051
-449.924	-79.206	-0.082	-0.028
-448.909	-99.985	0.071	-0.018
-447.895	800.000	0.092	-0.343
-446.880	-74.383	0.064	0.023
-445.865	-200.000	0.002	-0.260
-444.851	-145.367	-0.227	-0.020
-443.836	800.000	-0.066	0.271
-442.822	332.986	-0.152	0.294
-441.807	-119.078	-0.243	-0.043
-440.792	111.387	0.260	-0.314
-439.778	-200.000	-0.019	-0.412
-438.763	-7.903	0.329	0.222
-437.749	-200.000	-0.021	0.253
-436.734	-56.490	-0.226	-0.100
-435.719	-200.000	0.062	0.275
-434.705	-12.569	-0.166	0.108
-433.690	2.565	0.338	0.245
-432.676	800.000	0.102	-0.379
-431.661	-178.251	0.285	0.007
-430.646	-110.217	-0.128	-0.027
-429.632	468.153	-0.113	0.255
-428.617	684.525	0.185	-0.482
-427.603	264.013	0.046	0.080
-426.588	-200.000	-0.016	-0.424
-425.573	-146.099	0.345	0.030
-424.559	-43.793	-0.097	0.049
-423.544	-200.000	0.013	0.420
-422.530	111.429	-0.059	-0.072
-421.515	-200.000	0.023	0.290
-420.500	-31.899	0.407	-0.228
-419.486	266.662	-0.055	-0.096
-418.471	196.879	0.082	-0.125
-417.457	-148.291	0.265	0.022
-416.442	-78.153	-0.105	0.036
-415.428	-47.225	0.180	0.088
-414.413	74.746	0.127	-0.134
-413.398	-32.570	-0.185	-0.103
-412.384	-39.785	-0.134	0.070
-411.369	404.918	-0.115	0.243
-410.355	454.064	0.102	-0.225
-409.340	337.592	-0.179	-0.347
-408.325	-200.000	0.071	-0.354
-407.311	55.011	-0.196	-0.189
-406.296	-33.647	-0.141	-0.078
-405.282	120.911	-0.018	-0.022
-404.267	12.863	-0.185	0.143
-403.252	288.768	0.130	0.236
-402.238	-116.323	0.107	-0.020
-401.223	181.726	-0.076	-0.112
-400.209	800.000	0.018	0.069
-399.194	71.881	0.295	0.306
-398.179	800.000	-0.087	-0.242
-397.165	-200.000	-0.024	-0.374
-396.150	-46.431	-0.236	0.116
-395.136	-66.194	0.242	-0.096
-394.121	291.739	-0.212	0.386
-393.106	-119.366	-0.254	0.044
-392.092	-178.938	0.353	0.008
-391.077	-200.000	0.042	0.212
-390.063	-171.983	0.165	-0.005
-389.048	140.444	0.153	0.202
-388.033	222.211	-0.071	-0.114
-387.019	-82.002	-0.137	0.045
-386.004	-200.000	-0.011	-0.103
-384.990	-200.000	-0.067	-0.395
-383.975	-81.089	0.093	-0.031
-382.960	-200.000	-0.030	0.214
-381.946	-57.945	0.234	-0.102
-380.931	-90.017	0.407	0.119
-379.917	-67.644	0.289	-0.113
-378.902	414.948	-0.072	0.153
-377.888	-200.000	-0.039	0.226
-376.873	-200.000	-0.012	0.221
-375.858	42.614	-0.346	-0.314
-374.844	48.475	0.203	-0.190
-373.829	-6.357	0.144	-0.098
-372.815	-200.000	0.028	0.262
-371.800	137.544	0.138	-0.181
-370.785	-163.444	-0.080	-0.004
-369.771	800.000	-0.090	0.363
-368.756	-200.000	-0.022	-0.119
-367.742	-91.381	-0.227	0.065
-366.727	-200.000	0.021	-0.183
-365.712	193.178	0.115	-0.174
-364.698	-200.000	-0.047	-0.287
-363.683	515.293	0.039	-0.091
-362.669	-100.748	-0.313	0.077
-361.654	82.595	-0.294	-0.319
-360.639	-11.327	0.079	0.052
-359.625	65.566	-0.133	-0.134
-358.610	-200.000	0.037	-0.315
-357.596	-200.000	-0.005	0.097
-356.581	288.824	-0.047	-0.086
-355.566	-200.000	0.152	-0.001
-354.552	17.961	0.245	-0.195
-353.537	207.313	-0.039	-0.061
-352.523	-200.000	-0.071	-0.430
-351.508	92.332	-0.066	-0.074
-350.493	800.000	0.022	0.086
-349.479	-200.000	-0.025	0.379
-348.464	99.748	-0.061	-0.071
-347.450	-32.555	-0.233	-0.130
-346.435	800.000	-0.025	0.097
-345.420	-31.575	0.190	0.106
-344.406	-153.630	-0.112	-0.008
-343.391	-200.000	-0.015	-0.162
-342.377	240.242	-0.050	-0.083
-341.362	-200.000	-0.004	0.310
-340.348	-105.361	0.284	-0.065
-339.333	9.921	-0.282	0.214
-338.318	-15.211	-0.315	0.201
-337.304	-2.831	-0.076	0.053
-336.289	-200.000	-0.008	0.097
-335.275	-200.000	0.012	-0.132
-334.260	800.000	-0.064	-0.258
-333.245	127.137	0.186	-0.236
-332.231	-200.000	0.019	-0.266
-331.216	413.545	-0.094	0.200
-330.202	-138.363	0.243	0.027
-329.187	307.860	0.029	0.054
-328.172	503.269	-0.104	-0.240
-327.158	-200.000	-0.010	0.045
-326.143	-123.735	-0.203	0.032
-325.129	-9.434	0.177	0.118
-324.114	800.000	0.096	0.276
-323.099	-118.976	-0.194	-0.034
-322.085	81.030	-0.170	-0.183
-321.070	-113.951	0.240	-0.046
-320.056	-109.338	-0.301	0.063
-319.041	-77.863	0.068	0.023
-318.026	-66.295	-0.196	-0.078
-317.012	60.314	0.139	0.137
-315.997	-44.731	-0.289	-0.144
-314.983	185.239	-0.157	-0.232
-313.968	-142.544	-0.091	-0.009
-312.953	374.260	-0.069	-0.139
-311.939	-8.036	-0.432	-0.290
-310.924	-1.799	-0.122	-0.086
-309.910	-79.519	0.061	0.020
-308.895	251.494	0.029	-0.050
-307.880	-102.381	-0.214	0.051
-306.866	800.000	-0.050	0.213
-305.851	23.060	0.309	-0.253
-304.837	-200.000	-0.035	0.260
-303.822	-145.215	0.191	0.017
-302.807	124.205	-0.035	-0.043
-301.793	-200.000	0.021	-0.115
-300.778	-14.134	0.164	-0.105
-299.764	-200.000	0.038	0.206
-298.749	-200.000	0.029	-0.369
-297.735	800.000	0.163	-0.474
-296.720	-167.743	0.157	0.006
-295.705	100.934	0.123	0.143
-294.691	800.000	0.035	0.133
-293.676	-160.702	-0.334	0.018
-292.662	-69.077	0.253	0.097
-291.647	-37.609	0.414	0.220
-290.632	800.000	-0.108	0.298
-289.618	4.986	0.200	0.146
-288.603	270.527	-0.051	0.089
-287.589	-172.867	0.128	-0.004
-286.574	631.465	-0.049	-0.124
-285.559	-200.000	-0.105	0.488
-284.545	146.123	0.080	0.107
-283.530	6.635	-0.342	-0.253
-282.516	-58.857	-0.040	0.017
-281.501	-56.126	-0.243	-0.108
-280.486	-144.143	0.436	-0.041
-279.472	8.169	0.329	0.246
-278.457	109.981	-0.120	-0.144
-277.443	54.387	-0.045	-0.043
-276.428	800.000	-0.079	0.237
-275.413	-162.165	-0.262	0.013
-274.399	13.741	0.089	0.069
-273.384	105.125	0.248	-0.291
-272.370	369.650	0.199	-0.400
-271.355	-113.038	-0.166	0.033
-270.340	132.977	-0.130	-0.167
-269.326	144.494	-0.192	0.255
-268.311	-110.812	-0.056	-0.011
-267.297	151.627	0.059	0.079
-266.282	-155.387	-0.138	-0.009
-265.267	-153.683	-0.154	0.011
-264.253	-200.000	0.022	-0.326
-263.238	224.449	0.091	0.146
-262.224	522.196	0.116	-0.270
-261.209	31.159	-0.127	0.108
-260.195	446.169	-0.012	0.026
-259.180	-114.506	-0.296	-0.056
-258.165	800.000	-0.070	0.262
-257.151	1.171	-0.241	0.172
-256.136	800.000	-0.022	0.068
-255.122	-28.347	-0.151	0.087
-254.107	44.335	0.328	0.299
-253.092	-200.000	0.000	0.033
-252.078	14.864	-0.191	0.148
-251.063	-140.104	0.197	0.021
-250.049	-200.000	-0.043	0.370
-249.034	-58.944	-0.222	0.095
-248.019	-71.836	-0.164	0.061
-247.005	-117.945	0.139	-0.025
-245.990	-200.000	-0.054	0.293
-244.976	-94.433	-0.157	0.043
-243.961	-24.712	0.440	0.260
-242.946	39.460	-0.011	0.010
-241.932	-141.566	0.189	0.019
-240.917	-200.000	0.047	-0.317
-239.903	137.899	-0.126	-0.165
-238.888	-54.470	-0.030	-0.013
-237.873	11.293	0.044	-0.033
-236.859	800.000	-0.042	0.140
-235.844	56.846	-0.012	0.011
-234.830	-200.000	0.005	0.331
-233.815	629.278	0.031	-0.078
-232.800	-200.000	-0.012	0.181
-231.786	-20.598	-0.215	0.131
-230.771	430.603	-0.048	-0.104
-229.757	-200.000	-0.022	-0.380
-228.742	49.977	0.298	0.279
-227.727	-55.690	-0.132	-0.059
-226.713	-83.609	-0.289	0.092
-225.698	-200.000	0.013	-0.181
-224.684	-200.000	0.056	-0.324
-223.669	327.058	0.175	0.333
-222.655	12.834	-0.300	0.230
-221.640	800.000	0.064	0.243
-220.625	-194.149	-0.113	0.001
-219.611	-48.409	0.168	-0.081
-218.596	352.053	0.129	-0.254
-217.582	-152.148	-0.177	0.013
-216.567	-133.235	0.351	-0.044
-215.552	159.056	0.088	-0.121
-214.538	-200.000	-0.022	0.415
-213.523	-96.831	-0.382	0.100
-212.509	-27.581	0.305	0.176
-211.494	141.619	0.067	0.089
-210.479	592.985	-0.033	-0.082
-209.465	-65.329	0.118	0.047
-208.450	-127.386	-0.355	-0.051
-207.436	-200.000	0.077	0.477
-206.421	-4.415	0.037	0.025
-205.406	-104.914	-0.234	-0.053
-204.392	-61.632	0.188	0.078
-203.377	26.755	0.089	0.074
-202.363	-57.417	0.278	0.121
-201.348	1.355	0.159	-0.114
-200.333	-31.077	0.377	-0.211
-199.319	594.800	-0.038	-0.093
-198.304	-200.000	-0.048	-0.283
-197.290	434.976	-0.027	-0.058
-196.275	-146.957	-0.174	0.015
-195.260	605.676	-0.045	-0.112
-194.246	466.344	0.040	-0.090
-193.231	-89.952	0.215	0.062
-192.217	-200.000	-0.031	0.144
-191.202	800.000	0.072	0.248
-190.187	800.000	-0.068	0.262
-189.173	-109.338	0.229	-0.048
-188.158	-200.000	-0.026	-0.122
-187.144	202.191	0.125	0.192
-186.129	252.963	0.162	-0.274
-185.114	-153.969	-0.123	-0.008
-184.100	1.874	0.293	-0.210
-183.085	154.931	-0.154	-0.210
-182.071	-97.199	0.185	-0.048
-181.056	315.126	-0.119	-0.223
-180.042	-49.873	-0.078	0.037
-179.027	270.969	0.157	0.275
-178.012	-200.000	-0.011	-0.528
-176.998	-12.903	0.312	-0.202
-175.983	324.514	-0.079	-0.150
-174.969	213.579	0.128	0.200
-173.954	-118.653	0.334	-0.058
-172.939	-160.308	0.441	-0.024
-171.925	-138.463	-0.351	0.038
-170.910	-138.352	-0.299	0.033
-169.896	-200.000	-0.048	-0.312
-168.881	-159.911	0.183	-0.010
-167.866	-158.355	0.147	0.008
-166.852	19.015	-0.153	-0.122
-165.837	-18.568	-0.134	-0.083
-164.823	547.643	0.056	-0.133
-163.808	74.526	0.101	0.106
-162.793	800.000	-0.044	-0.146
-161.779	25.070	-0.067	-0.055
-160.764	-92.613	-0.252	0.070
-159.750	79.659	0.175	-0.186
-158.735	127.567	-0.061	0.077
-157.720	246.862	-0.055	-0.091
-156.706	-200.000	-0.034	0.198
-155.691	-52.222	0.259	0.119
-154.677	-62.125	0.115	0.048
-153.662	184.560	-0.151	0.221
-152.647	554.975	-0.052	0.124
-151.633	-200.000	-0.041	-0.247
-150.618	413.933	0.190	0.399
-149.604	104.733	0.069	-0.081
-148.589	-200.000	-0.010	0.136
-147.574	800.000	-0.116	0.356
-146.560	-200.000	0.004	-0.259
-145.545	209.147	0.060	-0.092
-144.531	267.589	0.125	0.216
-143.516	343.940	0.066	0.127
-142.502	103.313	0.205	0.237
-141.487	248.253	0.022	0.037
-140.472	-200.000	0.019	0.089
-139.458	24.703	0.266	-0.218
-138.443	-83.014	-0.162	0.052
-137.429	-60.064	0.502	-0.212
-136.414	-25.455	0.286	0.167
-135.399	-57.987	-0.147	0.064
-134.385	-200.000	0.017	0.214
-133.370	-116.463	0.353	-0.064
-132.356	-123.412	-0.112	0.018
-131.341	-97.043	-0.166	0.043
-130.326	-184.311	0.126	0.002
-129.312	318.356	0.087	0.163
-128.297	-83.952	0.189	-0.060
-127.283	-200.000	0.030	-0.164
-126.268	97.087	0.105	0.119
-125.253	85.373	0.183	-0.198
-124.239	242.839	0.142	0.236
-123.224	203.116	-0.320	0.490
-122.210	-175.313	0.208	-0.006
