DTS Sentinel unit serial number:	SN413079Multiplexer serial number:	ORYXHardware model number:	OX4-SRSoftware version number:	ORYX F/W v4.00 Oryx Data Collector v3.7.2.0data status	okinstallation	princeton_trtdifferential loss correction	single-endedforward channel	channel 4reverse channel	N/Adate	2019/09/12time	11:23:11forward acquisition time	60.00reverse acquisition time	0.00gamma	496.2192k internal	0.2292k external	0.2292temperature offset calibration	1.0069default loss term (dB/km)	0.3790temperature slope calibration	1.0000multiplexer offset coefficient	1.0000multiplexer slope coefficient	1.0000fibre end	0.00T internal ref (°C)	39.14T ext. ref 1 (°C)	1.94T ext. ref 2 (°C)	36.71length (m)	temperature (°C)	Stokes	anti-Stokes-747.200	-57.662	-0.120	0.054
-746.185	800.000	0.090	0.294
-745.171	352.985	-0.060	0.122
-744.156	800.000	0.100	0.347
-743.142	-76.270	0.084	-0.030
-742.127	-156.692	-0.341	0.022
-741.112	-24.692	-0.244	-0.149
-740.098	-192.424	-0.162	0.002
-739.083	-70.189	-0.237	-0.092
-738.069	93.865	-0.274	0.318
-737.054	-28.598	0.187	-0.110
-736.039	12.091	-0.213	-0.168
-735.025	149.769	0.208	0.289
-734.010	-132.525	-0.386	0.051
-732.996	800.000	-0.073	-0.245
-731.981	-151.318	0.143	0.011
-730.966	-200.000	-0.001	-0.077
-729.952	502.835	0.033	0.078
-728.937	-200.000	-0.041	-0.263
-727.923	-44.149	-0.276	-0.141
-726.908	392.782	0.100	0.213
-725.894	395.735	-0.086	0.184
-724.879	-2.136	0.102	-0.074
-723.864	214.656	0.250	0.405
-722.850	60.653	0.015	-0.015
-721.835	-72.470	-0.294	0.111
-720.821	-17.941	-0.308	-0.197
-719.806	-6.986	0.165	0.114
-718.791	-200.000	-0.023	-0.216
-717.777	-108.989	0.182	-0.040
-716.762	-200.000	0.020	0.193
-715.748	-70.181	-0.211	-0.082
-714.733	17.279	-0.264	-0.214
-713.718	119.191	0.194	0.246
-712.704	489.758	-0.162	0.378
-711.689	-145.659	-0.343	0.031
-710.675	577.028	-0.168	-0.420
-709.660	800.000	0.064	-0.230
-708.645	154.269	0.037	0.052
-707.631	104.115	0.027	-0.032
-706.616	-153.331	-0.281	0.020
-705.602	580.501	-0.066	0.166
-704.587	800.000	0.047	-0.157
-703.572	-24.417	0.349	-0.213
-702.558	123.535	0.151	-0.194
-701.543	-21.690	-0.275	-0.171
-700.529	167.782	0.084	-0.122
-699.514	-200.000	-0.005	0.150
-698.499	-179.270	0.162	0.004
-697.485	-74.263	-0.294	-0.109
-696.470	-154.440	-0.218	0.015
-695.456	-134.352	0.329	0.041
-694.441	800.000	0.060	0.268
-693.426	293.154	-0.037	0.069
-692.412	-49.737	-0.211	-0.102
-691.397	-200.000	-0.055	-0.370
-690.383	-105.603	-0.246	-0.057
-689.368	-200.000	-0.006	-0.221
-688.354	-114.719	-0.113	0.022
-687.339	-114.687	-0.235	-0.046
-686.324	-36.829	-0.170	0.093
-685.310	-122.907	0.534	0.088
-684.295	115.713	0.068	0.085
-683.281	-200.000	-0.189	0.000
-682.266	-200.000	-0.003	0.671
-681.251	-36.294	0.055	-0.030
-680.237	-67.364	-0.444	-0.178
-679.222	-48.665	-0.363	-0.178
-678.208	323.936	0.017	0.033
-677.193	800.000	-0.101	0.395
-676.178	68.189	-0.185	0.193
-675.164	325.936	-0.119	0.232
-674.149	325.878	-0.165	0.322
-673.135	62.661	0.171	0.175
-672.120	-64.734	-0.104	0.043
-671.105	-200.000	-0.021	-0.131
-670.091	-170.895	0.111	-0.004
-669.076	342.474	0.114	-0.228
-668.062	-200.000	0.052	-0.358
-667.047	-200.000	0.031	0.191
-666.032	-40.378	0.158	0.084
-665.018	800.000	-0.029	0.099
-664.003	800.000	-0.039	-0.156
-662.989	-69.652	0.144	-0.056
-661.974	-0.922	0.246	0.177
-660.959	-76.122	-0.283	-0.102
-659.945	101.988	0.215	0.256
-658.930	188.145	0.056	0.086
-657.916	224.350	-0.238	-0.393
-656.901	-167.000	0.204	0.009
-655.886	-52.224	0.094	0.044
-654.872	-24.241	-0.158	-0.096
-653.857	124.853	-0.211	-0.272
-652.843	93.781	-0.194	0.224
-651.828	24.178	-0.023	-0.019
-650.814	-80.981	-0.166	0.056
-649.799	576.132	0.029	0.072
-648.784	-108.589	-0.073	0.016
-647.770	109.135	-0.133	-0.163
-646.755	-149.694	-0.307	0.025
-645.741	-200.000	0.045	-0.294
-644.726	-24.758	0.119	-0.072
-643.711	26.233	-0.409	0.348
-642.697	638.995	-0.142	-0.368
-641.682	291.553	-0.132	-0.246
-640.668	286.187	0.247	-0.454
-639.653	350.186	0.219	0.441
-638.638	-200.000	-0.033	0.193
-637.624	800.000	0.087	0.355
-636.609	-48.607	0.221	-0.108
-635.595	-20.959	0.016	-0.010
-634.580	516.264	0.208	0.496
-633.565	518.452	0.110	-0.262
-632.551	-7.256	0.188	0.130
-631.536	101.584	-0.069	-0.082
-630.522	-154.770	0.286	0.019
-629.507	-200.000	-0.047	-0.230
-628.492	375.515	0.078	-0.162
-627.478	429.317	0.119	0.262
-626.463	199.555	0.100	-0.156
-625.449	500.763	0.076	0.180
-624.434	104.050	0.058	-0.070
-623.419	-200.000	-0.021	0.177
-622.405	74.381	0.083	0.089
-621.390	-144.473	0.136	0.013
-620.376	-200.000	-0.038	-0.225
-619.361	-96.730	-0.377	0.101
-618.346	22.183	-0.240	0.200
-617.332	-200.000	0.039	0.227
-616.317	-63.758	0.106	-0.044
-615.303	-200.000	0.012	-0.196
-614.288	-50.764	-0.518	-0.248
-613.273	215.495	-0.142	-0.229
-612.259	84.102	0.065	0.073
-611.244	-8.932	-0.172	0.118
-610.230	36.216	0.156	0.140
-609.215	573.294	-0.052	0.130
-608.201	-69.277	-0.270	-0.106
-607.186	-20.522	0.208	0.130
-606.171	-15.558	-0.226	-0.147
-605.157	-47.881	0.263	0.130
-604.142	-75.375	0.329	-0.119
-603.128	189.051	-0.084	-0.128
-602.113	58.622	0.094	-0.094
-601.098	-200.000	-0.066	-0.297
-600.084	20.094	0.317	-0.260
-599.069	100.471	-0.263	0.311
-598.055	140.405	-0.091	0.123
-597.040	536.255	-0.219	-0.528
-596.025	-1.583	-0.128	0.092
-595.011	456.999	0.100	0.227
-593.996	-150.247	0.299	0.023
-592.982	-33.537	0.132	-0.074
-591.967	159.010	0.202	-0.285
-590.952	-92.407	-0.326	0.093
-589.938	-200.000	0.041	0.304
-588.923	-200.000	-0.003	0.067
-587.909	-10.371	-0.388	-0.261
-586.894	50.545	0.209	0.201
-585.879	-93.062	0.175	-0.050
-584.865	3.017	0.084	-0.062
-583.850	383.727	-0.044	-0.093
-582.836	-179.270	-0.198	-0.004
-581.821	147.812	0.284	-0.389
-580.806	331.275	0.161	-0.316
-579.792	113.572	0.140	-0.173
-578.777	-89.229	0.295	0.088
-577.763	-200.000	0.011	-0.068
-576.748	-68.473	0.159	0.063
-575.733	800.000	-0.062	-0.208
-574.719	-41.914	-0.327	-0.170
-573.704	-58.043	0.052	-0.023
-572.690	-200.000	-0.000	0.135
-571.675	800.000	0.065	0.254
-570.661	-130.889	-0.285	0.039
-569.646	139.611	0.212	-0.283
-568.631	800.000	-0.103	-0.331
-567.617	305.539	0.051	-0.097
-566.602	-30.868	0.152	-0.087
-565.588	5.192	0.130	0.097
-564.573	-25.872	-0.244	0.146
-563.558	-61.880	0.069	-0.029
-562.544	448.815	0.069	0.154
-561.529	-18.502	-0.311	0.198
-560.515	-58.977	0.171	0.075
-559.500	21.616	0.063	0.052
-558.485	-92.552	0.269	0.077
-557.471	672.297	-0.115	-0.304
-556.456	516.029	-0.224	0.531
-555.442	130.461	0.191	0.248
-554.427	800.000	-0.056	0.189
-553.412	446.128	-0.078	0.173
-552.398	-61.503	-0.060	0.026
-551.383	376.754	0.073	0.152
-550.369	446.309	-0.056	-0.125
-549.354	-200.000	-0.007	-0.135
-548.339	30.576	-0.134	-0.117
-547.325	-112.575	0.069	-0.014
-546.310	-175.816	0.323	-0.009
-545.296	44.902	0.126	-0.118
-544.281	-30.901	0.062	-0.035
-543.266	-152.305	0.104	-0.008
-542.252	117.942	0.177	-0.221
-541.237	179.518	-0.071	-0.106
-540.223	384.779	0.099	0.207
-539.208	-200.000	0.000	-0.093
-538.193	-35.460	0.193	-0.107
-537.179	-198.808	-0.277	0.002
-536.164	120.542	-0.239	-0.302
-535.150	33.987	0.105	-0.093
-534.135	-7.546	-0.449	0.308
-533.121	-31.086	0.108	-0.062
-532.106	1.261	0.213	-0.156
-531.091	-200.000	0.006	-0.192
-530.077	-36.590	0.059	0.032
-529.062	3.925	-0.076	-0.057
-528.048	-34.628	0.072	0.040
-527.033	-200.000	0.010	-0.346
-526.018	-99.795	-0.178	-0.045
-525.004	-82.657	-0.219	-0.072
-523.989	91.802	-0.204	-0.233
-522.975	2.110	0.184	-0.135
-521.960	515.171	0.128	0.304
-520.945	-142.474	0.094	-0.009
-519.931	-200.000	0.002	-0.025
-518.916	337.932	-0.062	0.122
-517.902	506.662	0.159	-0.375
-516.887	435.084	0.019	-0.043
-515.872	-57.075	-0.440	-0.197
-514.858	-59.596	0.168	0.073
-513.843	-127.743	0.046	0.007
-512.829	-75.126	-0.049	-0.018
-511.814	-64.886	-0.218	-0.089
-510.799	126.801	-0.071	-0.092
-509.785	27.777	-0.069	-0.059
-508.770	-115.178	-0.138	0.027
-507.756	21.607	0.161	-0.133
-506.741	746.378	-0.098	-0.269
-505.726	-124.411	-0.210	-0.033
-504.712	282.875	0.033	-0.060
-503.697	707.095	-0.047	-0.125
-502.683	60.220	0.193	-0.194
-501.668	78.076	0.157	-0.170
-500.653	260.122	-0.100	0.175
-499.639	-70.848	0.227	-0.087
-498.624	34.510	-0.244	0.216
-497.610	692.618	0.133	0.354
-496.595	-200.000	-0.016	0.104
-495.581	-200.000	0.021	0.100
-494.566	-3.620	0.062	-0.044
-493.551	-99.659	0.016	-0.004
-492.537	23.754	-0.239	0.199
-491.522	-165.211	0.321	0.014
-490.508	-80.443	0.312	-0.106
-489.493	-57.075	-0.337	-0.150
-488.478	-36.337	-0.085	-0.046
-487.464	398.806	0.012	0.026
-486.449	378.527	-0.032	-0.067
-485.435	293.349	0.064	-0.119
-484.420	532.527	0.047	0.113
-483.405	-21.176	-0.158	0.098
-482.391	159.160	0.169	-0.238
-481.376	212.354	0.185	-0.296
-480.362	-154.911	-0.283	-0.019
-479.347	-104.148	-0.227	-0.054
-478.332	596.971	0.109	0.274
-477.318	-121.784	-0.381	-0.064
-476.303	-181.708	0.459	0.009
-475.289	-15.185	-0.073	0.047
-474.274	-200.000	0.004	0.064
-473.259	181.887	0.086	-0.129
-472.245	316.168	-0.101	0.193
-471.230	-200.000	0.002	-0.017
-470.216	-200.000	-0.038	0.236
-469.201	800.000	0.043	-0.181
-468.186	-52.988	-0.124	0.058
-467.172	-200.000	-0.333	-0.001
-466.157	81.727	0.251	-0.275
-465.143	14.833	-0.162	-0.129
-464.128	800.000	0.047	0.207
-463.113	6.845	-0.044	0.033
-462.099	46.209	-0.191	-0.179
-461.084	78.664	-0.201	0.217
-460.070	102.245	0.227	0.268
-459.055	-31.579	-0.057	-0.033
-458.040	-162.845	0.041	-0.002
-457.026	12.784	-0.151	0.118
-456.011	101.596	-0.166	-0.196
-454.997	418.918	0.118	-0.256
-453.982	218.208	-0.057	-0.093
-452.968	800.000	-0.098	-0.281
-451.953	-200.000	-0.010	-0.115
-450.938	-189.176	0.138	-0.002
-449.924	27.361	0.074	0.063
-448.909	24.142	-0.147	-0.123
-447.895	-200.000	0.007	0.205
-446.880	-200.000	0.010	0.058
-445.865	-20.443	0.099	0.062
-444.851	-50.569	0.359	-0.171
-443.836	262.070	0.060	0.106
-442.822	78.785	0.211	0.228
-441.807	-200.000	0.041	0.406
-440.792	40.165	-0.095	-0.086
-439.778	-97.240	-0.318	-0.084
-438.763	-59.948	0.107	-0.046
-437.749	-130.947	-0.311	0.042
-436.734	800.000	-0.181	0.517
-435.719	25.673	-0.053	-0.045
-434.705	-186.758	-0.420	-0.006
-433.690	110.005	0.177	-0.215
-432.676	-133.063	0.581	-0.075
-431.661	558.586	0.031	-0.075
-430.646	-200.000	-0.031	0.195
-429.632	153.627	0.131	-0.182
-428.617	-72.493	0.187	-0.070
-427.603	800.000	0.065	0.206
-426.588	219.274	-0.111	-0.180
-425.573	-48.932	-0.058	0.028
-424.559	-200.000	0.001	0.022
-423.544	800.000	0.084	-0.240
-422.530	-200.000	-0.039	-0.254
-421.515	-200.000	-0.020	0.142
-420.500	-185.174	0.507	0.008
-419.486	24.957	0.107	0.089
-418.471	-137.384	-0.102	0.012
-417.457	-16.918	0.144	-0.092
-416.442	-83.446	-0.365	0.118
-415.428	-45.771	0.324	-0.162
-414.413	800.000	-0.055	-0.220
-413.398	211.803	-0.170	0.271
-412.384	-147.310	-0.236	0.020
-411.369	-78.010	-0.148	0.051
-410.355	232.378	-0.162	-0.268
-409.340	-200.000	-0.035	-0.366
-408.325	247.645	-0.055	0.095
-407.311	-102.745	0.289	-0.069
-406.296	-200.000	-0.028	-0.268
-405.282	-18.858	0.126	-0.079
-404.267	-200.000	-0.048	-0.230
-403.252	800.000	0.011	-0.031
-402.238	55.894	0.167	0.163
-401.223	-121.921	-0.090	0.015
-400.209	14.959	0.230	0.182
-399.194	277.019	0.139	0.250
-398.179	11.166	0.230	-0.178
-397.165	-119.236	0.090	0.016
-396.150	-153.868	-0.431	0.030
-395.136	-200.000	0.028	-0.275
-394.121	-200.000	-0.301	0.001
-393.106	-200.000	-0.007	-0.358
-392.092	-200.000	-0.030	0.157
-391.077	800.000	-0.073	0.211
-390.063	-59.527	0.114	0.049
-389.048	83.764	-0.025	0.028
-388.033	765.530	-0.037	0.103
-387.019	-14.686	0.155	-0.101
-386.004	-1.832	-0.387	-0.275
-384.990	-146.488	-0.053	-0.005
-383.975	-200.000	-0.002	-0.071
-382.960	-200.000	0.032	-0.294
-381.946	127.287	-0.140	0.180
-380.931	-77.132	0.281	0.099
-379.917	25.870	0.267	0.225
-378.902	-50.974	-0.159	-0.075
-377.888	776.956	0.017	-0.046
-376.873	-123.016	0.188	-0.030
-375.858	-32.621	0.297	0.167
-374.844	307.406	0.027	0.052
-373.829	-110.977	0.333	-0.069
-372.815	-200.000	-0.000	-0.058
-371.800	-5.512	-0.342	-0.237
-370.785	-200.000	-0.011	0.096
-369.771	-22.001	-0.403	0.247
-368.756	-102.006	-0.290	-0.071
-367.742	-181.132	-0.131	0.003
-366.727	37.722	0.236	0.212
-365.712	-200.000	0.004	0.035
-364.698	-139.252	0.160	0.017
-363.683	266.749	-0.067	0.118
-362.669	126.107	-0.127	0.162
-361.654	-160.739	-0.214	-0.011
-360.639	62.224	0.089	0.089
-359.625	92.820	0.205	0.234
-358.610	355.239	0.126	0.254
-357.596	651.261	0.144	0.371
-356.581	-132.484	-0.077	-0.010
-355.566	-124.710	-0.096	-0.015
-354.552	-158.880	0.363	0.021
-353.537	800.000	-0.150	-0.465
-352.523	445.779	-0.119	-0.263
-351.508	108.059	0.316	-0.379
-350.493	1.849	0.087	0.063
-349.479	-16.032	0.257	0.165
-348.464	-58.814	-0.353	-0.154
-347.450	-200.000	0.025	-0.321
-346.435	257.626	-0.144	0.249
-345.420	68.120	0.025	-0.026
-344.406	697.928	-0.090	-0.238
-343.391	800.000	-0.063	0.196
-342.377	-82.952	-0.497	0.162
-341.362	498.840	0.051	-0.118
-340.348	800.000	-0.176	0.538
-339.333	-24.039	-0.200	0.121
-338.318	-99.255	-0.240	-0.061
-337.304	-47.407	0.291	0.143
-336.289	29.845	-0.369	0.317
-335.275	-103.086	0.228	-0.054
-334.260	-68.363	-0.346	-0.136
-333.245	-135.645	0.263	0.031
-332.231	-87.656	-0.302	0.092
-331.216	-200.000	0.002	0.053
-330.202	800.000	-0.063	-0.203
-329.187	-42.630	-0.065	-0.033
-328.172	-48.572	-0.313	-0.151
-327.158	-78.981	-0.417	-0.143
-326.143	195.038	0.104	0.159
-325.129	68.609	0.105	-0.109
-324.114	-37.295	0.158	-0.085
-323.099	11.821	-0.120	0.093
-322.085	-77.344	0.362	-0.127
-321.070	-200.000	-0.031	0.172
-320.056	-200.000	-0.004	0.243
-319.041	19.351	0.170	0.137
-318.026	-59.856	-0.157	-0.068
-317.012	800.000	-0.066	-0.236
-315.997	-192.994	-0.418	-0.004
-314.983	759.990	0.023	0.063
-313.968	39.922	0.175	0.158
-312.953	798.548	0.052	-0.144
-311.939	-200.000	-0.009	-0.126
-310.924	90.827	-0.238	-0.269
-309.910	800.000	0.056	0.171
-308.895	-59.337	0.227	0.098
-307.880	-151.025	0.351	-0.027
-306.866	800.000	0.045	0.174
-305.851	-200.000	0.021	0.341
-304.837	45.058	-0.161	0.149
-303.822	-116.899	-0.194	0.036
-302.807	531.697	0.087	0.207
-301.793	-200.000	0.022	-0.190
-300.778	-200.000	0.080	0.377
-299.764	-72.005	-0.246	-0.092
-298.749	-200.000	0.015	0.118
-297.735	-51.693	-0.217	-0.102
-296.720	94.655	0.128	0.146
-295.705	114.383	-0.133	0.163
-294.691	420.703	0.012	-0.026
-293.676	164.179	0.159	0.226
-292.662	122.178	0.184	-0.231
-291.647	-188.790	-0.271	0.003
-290.632	-186.976	0.226	-0.003
-289.618	-200.000	0.005	0.109
-288.603	269.640	-0.032	0.057
-287.589	64.132	-0.155	-0.156
-286.574	-85.757	-0.269	0.084
-285.559	17.911	-0.181	0.145
-284.545	-200.000	0.018	0.354
-283.530	-108.233	-0.204	-0.044
-282.516	235.621	0.083	0.138
-281.501	-22.386	-0.160	-0.097
-280.486	-200.000	0.100	0.521
-279.472	800.000	0.037	0.151
-278.457	10.318	0.129	0.098
-277.443	-200.000	0.007	-0.186
-276.428	-200.000	0.040	0.258
-275.413	800.000	-0.065	0.276
-274.399	124.171	0.270	-0.341
-273.384	-149.345	0.366	-0.029
-272.370	-200.000	0.010	0.072
-271.355	-200.000	0.002	0.101
-270.340	-130.881	-0.047	0.006
-269.326	508.914	0.104	0.243
-268.311	-138.600	0.211	-0.023
-267.297	800.000	-0.088	-0.269
-266.282	-158.917	0.215	0.012
-265.267	-91.383	0.288	0.083
-264.253	-75.452	-0.207	0.074
-263.238	-200.000	-0.032	0.230
-262.224	-102.218	-0.316	0.076
-261.209	-200.000	-0.035	0.330
-260.195	-200.000	-0.035	-0.296
-259.180	-112.613	-0.173	-0.035
-258.165	28.054	0.238	-0.202
-257.151	69.053	-0.089	-0.092
-256.136	-93.089	0.147	0.041
-255.122	800.000	-0.038	-0.119
-254.107	55.198	0.091	0.089
-253.092	-19.315	-0.353	0.220
-252.078	268.147	0.088	0.155
-251.063	-5.594	0.185	0.127
-250.049	112.665	0.021	0.026
-249.034	149.276	0.168	0.229
-248.019	-58.917	-0.325	0.141
-247.005	296.229	0.129	0.237
-245.990	14.158	-0.089	0.069
-244.976	-75.395	-0.325	0.116
-243.961	-200.000	-0.011	0.062
-242.946	800.000	-0.076	-0.310
-241.932	-28.551	-0.209	-0.121
-240.917	203.204	0.045	0.070
-239.903	71.077	0.107	0.111
-238.888	269.516	0.140	0.247
-237.873	407.767	-0.045	-0.095
-236.859	48.508	-0.140	-0.132
-235.844	-200.000	0.032	-0.202
-234.830	-200.000	0.014	-0.183
-233.815	337.245	-0.072	-0.140
-232.800	800.000	-0.040	0.124
-231.786	800.000	0.044	-0.145
-230.771	-200.000	0.039	-0.273
-229.757	-200.000	0.027	0.166
-228.742	-200.000	0.002	0.114
-227.727	-173.873	0.019	0.001
-226.713	800.000	-0.047	-0.150
-225.698	-200.000	-0.051	-0.284
-224.684	299.622	-0.031	-0.058
-223.669	-24.822	-0.161	-0.096
-222.655	-152.704	-0.124	0.009
-221.640	406.233	-0.130	0.275
-220.625	800.000	0.059	0.188
-219.611	-200.000	-0.016	0.266
-218.596	-128.278	0.430	0.061
-217.582	800.000	-0.054	0.183
-216.567	36.650	0.057	0.051
-215.552	-49.227	0.217	0.104
-214.538	-138.604	0.060	0.007
-213.523	92.949	0.116	0.132
-212.509	40.637	0.083	-0.075
-211.494	-185.051	-0.055	0.001
-210.479	5.719	-0.062	-0.046
-209.465	-106.046	0.418	-0.094
-208.450	800.000	-0.030	-0.115
-207.436	-185.593	0.217	-0.003
-206.421	-163.412	-0.089	-0.004
-205.406	118.044	0.194	-0.239
-204.392	-105.103	-0.095	-0.022
-203.377	83.609	0.060	-0.065
-202.363	35.261	-0.271	-0.238
-201.348	184.270	-0.180	0.268
-200.333	57.801	-0.194	-0.190
-199.319	-67.814	-0.191	0.075
-198.304	-81.116	-0.217	-0.072
-197.290	-200.000	0.060	0.301
-196.275	73.065	-0.287	-0.300
-195.260	-81.715	-0.123	-0.040
-194.246	-157.003	0.202	-0.012
-193.231	38.276	0.214	-0.191
-192.217	74.148	0.117	0.123
-191.202	800.000	-0.082	0.285
-190.187	-200.000	-0.028	0.367
-189.173	6.571	0.200	0.149
-188.158	8.065	-0.054	-0.040
-187.144	231.862	-0.248	0.407
-186.129	78.284	0.282	-0.301
-185.114	40.698	0.183	-0.165
-184.100	-33.649	-0.454	0.251
-183.085	87.332	0.065	-0.072
-182.071	-45.004	0.231	-0.115
-181.056	800.000	-0.123	-0.516
-180.042	-200.000	0.049	-0.229
-179.027	-36.208	0.220	0.119
-178.012	17.589	0.124	0.099
-176.998	-57.283	0.246	0.108
-175.983	233.669	0.117	0.192
-174.969	-54.287	0.220	-0.100
-173.954	286.490	0.137	0.247
-172.939	-200.000	0.059	-0.293
-171.925	-40.531	0.103	0.054
-170.910	-9.329	-0.205	-0.137
-169.896	-23.390	0.170	0.102
-168.881	-200.000	-0.047	-0.232
-167.866	-150.660	0.139	0.011
-166.852	800.000	0.071	-0.222
-165.837	17.034	-0.126	0.100
-164.823	-200.000	0.014	-0.091
-163.808	645.944	0.093	-0.237
-162.793	-168.896	0.149	0.006
-161.779	-200.000	-0.059	0.301
-160.764	237.982	0.028	-0.047
-159.750	-17.520	-0.252	0.159
-158.735	800.000	-0.045	-0.183
-157.720	86.650	0.173	0.190
-156.706	516.701	-0.067	-0.156
-155.691	800.000	0.035	-0.150
-154.677	23.699	0.067	0.055
-153.662	-200.000	0.005	0.122
-152.647	242.624	0.016	-0.026
-151.633	-200.000	0.040	0.281
-150.618	-200.000	0.004	-0.264
-149.604	-200.000	0.061	-0.316
-148.589	305.032	-0.065	0.121
-147.574	6.337	0.141	0.105
-146.560	-25.959	0.220	-0.129
-145.545	-200.000	-0.015	-0.115
-144.531	-123.151	-0.434	0.070
-143.516	-11.665	-0.130	0.085
-142.502	-200.000	-0.032	-0.286
-141.487	-200.000	0.022	0.183
-140.472	-85.730	-0.110	-0.034
-139.458	-5.728	0.341	-0.233
-138.443	195.666	0.060	0.092
-137.429	14.055	0.069	0.054
-136.414	-53.066	-0.066	-0.030
-135.399	-200.000	-0.002	-0.125
-134.385	726.613	-0.082	-0.219
-133.370	6.200	0.065	0.048
-132.356	254.754	-0.196	0.335
-131.341	800.000	-0.036	-0.135
-130.326	-52.688	-0.131	0.060
-129.312	800.000	0.098	-0.325
-128.297	800.000	0.053	0.151
-127.283	-200.000	-0.007	0.113
-126.268	65.424	0.188	0.190
-125.253	-200.000	-0.067	-0.000
-124.239	245.317	-0.180	0.302
-123.224	-17.069	-0.262	0.165
-122.210	-188.916	-0.259	-0.003
-121.195	-87.269	0.189	-0.057
