DTS Sentinel unit serial number:	SN413079Multiplexer serial number:	ORYXHardware model number:	OX4-SRSoftware version number:	ORYX F/W v4.00 Oryx Data Collector v3.7.2.0data status	okinstallation	princeton_trtdifferential loss correction	single-endedforward channel	channel 4reverse channel	N/Adate	2019/09/15time	09:17:35forward acquisition time	60.00reverse acquisition time	0.00gamma	496.2192k internal	0.2300k external	0.2300temperature offset calibration	1.0016default loss term (dB/km)	0.3790temperature slope calibration	1.0000multiplexer offset coefficient	1.0000multiplexer slope coefficient	1.0000fibre end	0.00T internal ref (°C)	33.36T ext. ref 1 (°C)	4.97T ext. ref 2 (°C)	30.56length (m)	temperature (°C)	Stokes	anti-Stokes-747.200	-104.781	-0.263	-0.062
-746.185	-200.000	0.020	0.326
-745.171	309.590	0.086	-0.164
-744.156	-21.289	0.210	0.131
-743.142	300.788	0.089	0.167
-742.127	-8.031	-0.188	0.129
-741.112	490.011	-0.072	-0.168
-740.098	-46.603	0.324	0.162
-739.083	-124.074	-0.109	-0.017
-738.069	-72.270	0.298	0.113
-737.054	134.987	0.135	-0.178
-736.039	-34.930	-0.253	-0.141
-735.025	-97.870	-0.168	-0.044
-734.010	451.056	-0.179	0.404
-732.996	-104.023	-0.127	0.030
-731.981	-24.679	-0.279	0.169
-730.966	800.000	0.031	-0.122
-729.952	-103.008	-0.230	-0.056
-728.937	433.757	0.183	-0.404
-727.923	-104.021	-0.426	-0.101
-726.908	-16.381	-0.265	-0.171
-725.894	253.841	-0.048	-0.083
-724.879	100.604	-0.098	-0.116
-723.864	516.630	-0.081	-0.193
-722.850	-164.525	-0.115	-0.005
-721.835	-117.487	0.272	0.050
-720.821	9.877	-0.306	-0.237
-719.806	-200.000	0.036	0.177
-718.791	700.190	0.045	-0.120
-717.777	-52.823	0.239	-0.112
-716.762	-73.966	-0.302	-0.112
-715.748	180.034	0.142	-0.212
-714.733	-123.295	-0.098	0.016
-713.718	-79.242	-0.097	-0.034
-712.704	388.233	-0.116	-0.245
-711.689	-200.000	0.189	0.000
-710.675	-145.367	-0.321	0.030
-709.660	-200.000	0.019	-0.177
-708.645	-86.340	-0.410	-0.128
-707.631	-12.022	0.159	0.106
-706.616	86.464	0.083	-0.093
-705.602	249.861	0.082	0.141
-704.587	65.171	-0.221	0.227
-703.572	263.972	0.033	-0.059
-702.558	760.440	0.123	0.340
-701.543	-97.752	-0.317	-0.084
-700.529	335.780	0.062	0.123
-699.514	-200.000	0.032	0.184
-698.499	800.000	-0.061	-0.179
-697.485	60.982	-0.183	-0.185
-696.470	382.307	-0.112	-0.234
-695.456	747.339	-0.089	0.244
-694.441	39.403	-0.151	-0.137
-693.426	-163.339	0.326	0.016
-692.412	-51.873	-0.172	0.081
-691.397	-200.000	0.072	-0.329
-690.383	-120.761	0.155	-0.027
-689.368	793.673	-0.071	-0.198
-688.354	-52.504	-0.166	0.078
-687.339	-144.439	-0.259	-0.024
-686.324	397.014	0.139	-0.295
-685.310	199.365	-0.141	0.220
-684.295	-186.067	0.151	0.002
-683.281	-200.000	-0.031	-0.458
-682.266	-77.271	-0.103	0.036
-681.251	83.066	-0.056	0.062
-680.237	29.834	0.153	-0.133
-679.222	-95.204	-0.159	-0.044
-678.208	239.464	-0.034	-0.058
-677.193	153.320	-0.160	0.223
-676.178	-200.000	-0.065	-0.336
-675.164	-131.229	0.276	-0.037
-674.149	729.072	-0.056	-0.153
-673.135	33.033	0.099	0.088
-672.120	-64.313	-0.198	-0.082
-671.105	-152.529	0.140	-0.010
-670.091	-136.423	0.323	-0.038
-669.076	-52.995	-0.208	0.097
-668.062	121.255	-0.156	0.197
-667.047	426.693	-0.096	-0.211
-666.032	-200.000	-0.088	-0.426
-665.018	800.000	-0.009	-0.030
-664.003	229.492	0.032	0.053
-662.989	113.791	-0.056	-0.070
-661.974	-200.000	-0.596	-0.000
-660.959	165.782	-0.167	-0.240
-659.945	-200.000	0.070	-0.339
-658.930	-53.129	-0.223	0.104
-657.916	-2.831	-0.127	-0.090
-656.901	45.159	-0.172	0.161
-655.886	800.000	0.052	-0.219
-654.872	76.612	0.150	0.161
-653.857	-19.491	-0.224	-0.141
-652.843	-200.000	0.018	0.170
-651.828	255.414	-0.071	0.123
-650.814	68.071	-0.084	-0.087
-649.799	-50.306	-0.219	0.105
-648.784	-200.000	0.020	-0.204
-647.770	-69.769	-0.225	-0.087
-646.755	-105.868	0.195	-0.045
-645.741	119.309	-0.134	0.168
-644.726	171.817	-0.101	0.147
-643.711	-47.914	0.151	0.074
-642.697	-87.200	-0.167	-0.052
-641.682	679.612	-0.068	-0.181
-640.668	189.512	0.187	-0.284
-639.653	54.050	-0.120	-0.117
-638.638	800.000	-0.035	-0.138
-637.624	800.000	-0.066	0.193
-636.609	-148.044	0.111	-0.009
-635.595	-157.606	0.307	-0.019
-634.580	138.045	-0.217	0.289
-633.565	97.027	-0.061	-0.072
-632.551	-41.254	-0.118	-0.062
-631.536	-200.000	0.008	-0.245
-630.522	-74.685	-0.208	0.076
-629.507	134.146	0.173	-0.228
-628.492	-200.000	0.012	0.358
-627.478	800.000	-0.061	0.249
-626.463	-44.341	-0.205	0.104
-625.449	52.281	-0.516	-0.499
-624.434	-10.595	-0.235	0.158
-623.419	101.981	-0.239	-0.283
-622.405	39.479	0.165	-0.150
-621.390	-102.844	-0.330	0.080
-620.376	800.000	0.059	0.181
-619.361	163.412	0.046	0.066
-618.346	-131.943	-0.312	-0.041
-617.332	-27.895	0.182	0.107
-616.317	35.477	0.111	0.099
-615.303	-78.243	0.036	-0.012
-614.288	8.791	0.205	-0.157
-613.273	-200.000	-0.031	-0.348
-612.259	15.719	0.275	-0.220
-611.244	-200.000	0.061	-0.445
-610.230	-200.000	0.024	0.192
-609.215	-92.704	0.212	0.060
-608.201	-91.243	-0.022	0.007
-607.186	800.000	0.068	-0.208
-606.171	-10.176	-0.175	-0.118
-605.157	14.166	0.093	0.073
-604.142	-78.695	-0.328	-0.114
-603.128	-46.928	-0.190	0.094
-602.113	41.768	-0.063	0.058
-601.098	-200.000	-0.092	0.425
-600.084	-110.271	-0.214	-0.045
-599.069	16.217	0.334	-0.267
-598.055	624.737	0.052	-0.134
-597.040	6.274	0.261	0.196
-596.025	81.214	-0.139	0.153
-595.011	-37.037	-0.321	-0.174
-593.996	130.559	-0.057	0.074
-592.982	-200.000	-0.007	-0.191
-591.967	90.307	0.217	-0.246
-590.952	-112.400	-0.091	-0.018
-589.938	-66.114	0.348	-0.141
-588.923	-200.000	-0.041	-0.248
-587.909	-134.090	-0.122	-0.015
-586.894	-4.586	0.221	0.155
-585.879	-200.000	-0.010	-0.190
-584.865	57.404	0.052	-0.051
-583.850	-157.064	0.192	-0.012
-582.836	161.770	-0.036	-0.051
-581.821	-129.038	-0.321	-0.046
-580.806	26.910	-0.173	-0.147
-579.792	-116.897	-0.329	0.061
-578.777	-200.000	-0.010	0.205
-577.763	48.616	0.137	0.130
-576.748	-29.418	0.067	-0.039
-575.733	-172.495	-0.268	0.009
-574.719	-200.000	0.002	0.190
-573.704	273.913	-0.073	-0.131
-572.690	204.708	-0.103	0.163
-571.675	-200.000	0.033	-0.184
-570.661	-200.000	-0.037	-0.346
-569.646	51.651	-0.231	-0.223
-568.631	-113.236	-0.114	0.023
-567.617	163.431	-0.101	-0.144
-566.602	319.660	0.029	0.057
-565.588	-95.221	0.490	0.134
-564.573	-17.502	-0.073	-0.047
-563.558	-200.000	-0.077	-0.358
-562.544	-70.141	0.373	0.144
-561.529	-156.504	0.195	0.012
-560.515	230.030	-0.149	0.246
-559.500	-200.000	0.042	-0.211
-558.485	-200.000	0.002	0.027
-557.471	-166.293	0.083	-0.004
-556.456	800.000	-0.104	-0.313
-555.442	204.117	-0.112	-0.175
-554.427	28.042	-0.082	0.070
-553.412	334.429	0.030	-0.059
-552.398	-155.751	0.296	0.019
-551.383	673.226	-0.022	-0.057
-550.369	-200.000	0.063	-0.355
-549.354	-33.612	-0.056	0.031
-548.339	86.764	-0.075	-0.084
-547.325	-53.067	0.086	-0.040
-546.310	-103.687	-0.215	-0.051
-545.296	72.747	0.109	-0.115
-544.281	-200.000	0.012	-0.178
-543.266	-116.284	-0.172	0.032
-542.252	-149.867	-0.236	0.019
-541.237	118.378	-0.193	-0.240
-540.223	362.302	0.241	0.490
-539.208	-1.606	-0.082	0.059
-538.193	611.348	-0.077	-0.194
-537.179	119.031	0.054	0.068
-536.164	354.064	0.070	0.141
-535.150	-17.233	0.097	0.062
-534.135	169.781	-0.223	-0.322
-533.121	-46.877	0.224	-0.111
-532.106	14.475	-0.242	0.191
-531.091	167.493	0.189	-0.272
-530.077	800.000	-0.069	0.237
-529.062	-123.660	0.080	-0.013
-528.048	118.479	-0.173	0.216
-527.033	40.693	0.154	0.140
-526.018	800.000	0.015	0.053
-525.004	-15.785	-0.146	0.094
-523.989	-200.000	0.002	0.029
-522.975	-35.949	0.089	0.049
-521.960	53.740	-0.200	0.194
-520.945	-134.992	0.311	-0.038
-519.931	-200.000	0.023	0.270
-518.916	-31.760	0.327	0.185
-517.902	-34.840	0.209	-0.116
-516.887	-200.000	0.036	0.172
-515.872	636.982	0.068	-0.174
-514.858	800.000	0.048	-0.175
-513.843	374.997	-0.090	0.185
-512.829	-80.290	-0.081	0.027
-511.814	186.031	-0.095	0.142
-510.799	800.000	0.004	0.012
-509.785	435.298	0.019	-0.041
-508.770	-177.482	0.545	0.013
-507.756	-113.149	-0.459	0.091
-506.741	180.433	0.186	-0.276
-505.726	-102.809	0.450	-0.108
-504.712	355.541	-0.101	-0.202
-503.697	-32.658	-0.116	0.065
-502.683	501.068	0.112	0.262
-501.668	-200.000	-0.003	0.086
-500.653	133.231	0.269	-0.351
-499.639	163.279	-0.134	0.191
-498.624	-161.606	-0.149	0.008
-497.610	-102.869	0.264	0.063
-496.595	105.545	0.370	0.442
-495.581	-43.930	-0.178	-0.090
-494.566	11.267	0.281	0.217
-493.551	-200.000	-0.079	0.440
-492.537	129.586	-0.066	0.085
-491.522	-200.000	-0.025	0.117
-490.508	31.194	-0.092	0.079
-489.493	-191.321	-0.320	0.003
-488.478	-73.078	0.218	0.081
-487.464	-200.000	0.009	0.249
-486.449	200.406	0.084	0.130
-485.435	-200.000	0.009	0.424
-484.420	800.000	-0.086	0.240
-483.405	-200.000	0.037	0.288
-482.391	-103.765	-0.101	-0.024
-481.376	-7.869	0.191	-0.130
-480.362	-32.890	0.090	0.050
-479.347	-75.457	0.301	-0.108
-478.332	156.665	-0.089	0.124
-477.318	-108.098	-0.228	-0.050
-476.303	660.106	0.084	-0.219
-475.289	-200.000	-0.010	-0.283
-474.274	-45.001	0.075	0.038
-473.259	-77.101	-0.064	0.023
-472.245	-42.379	-0.093	-0.048
-471.230	-18.736	-0.221	0.139
-470.216	676.938	0.100	-0.262
-469.201	-40.155	-0.220	0.116
-468.186	-140.245	-0.083	-0.009
-467.172	-39.331	0.116	-0.062
-466.157	-49.744	0.212	-0.102
-465.143	-143.929	-0.348	0.033
-464.128	566.484	-0.159	-0.388
-463.113	-25.498	0.213	0.127
-462.099	-200.000	0.003	-0.028
-461.084	-200.000	0.007	0.357
-460.070	-22.497	0.284	0.174
-459.055	-76.055	0.226	0.080
-458.040	800.000	0.089	-0.302
-457.026	620.941	-0.015	0.038
-456.011	-200.000	0.010	0.135
-454.997	52.588	-0.070	0.067
-453.982	-24.091	0.214	0.129
-452.968	-35.293	0.122	0.067
-451.953	-100.874	0.117	0.029
-450.938	-1.253	0.096	0.069
-449.924	52.338	-0.211	-0.203
-448.909	-17.683	-0.248	0.157
-447.895	-44.295	-0.051	-0.026
-446.880	18.272	-0.162	-0.130
-445.865	-200.000	-0.037	0.200
-444.851	-200.000	0.012	-0.243
-443.836	260.268	-0.159	0.276
-442.822	110.497	-0.073	-0.088
-441.807	-123.279	-0.189	0.030
-440.792	-20.904	-0.225	0.139
-439.778	344.344	0.040	-0.078
-438.763	49.664	0.237	0.225
-437.749	115.897	-0.029	0.036
-436.734	-2.330	-0.071	0.050
-435.719	-200.000	-0.043	-0.333
-434.705	364.476	0.089	0.180
-433.690	-200.000	-0.002	0.071
-432.676	82.832	0.106	-0.117
-431.661	364.234	0.127	0.258
-430.646	-77.810	-0.235	-0.082
-429.632	-200.000	0.077	0.495
-428.617	419.897	-0.074	0.159
-427.603	800.000	-0.025	0.074
-426.588	-200.000	-0.035	0.196
-425.573	-200.000	-0.019	0.120
-424.559	130.745	-0.106	-0.137
-423.544	-156.319	0.063	0.004
-422.530	116.293	-0.030	-0.037
-421.515	800.000	0.087	-0.246
-420.500	139.440	-0.069	-0.091
-419.486	-105.990	0.084	0.019
-418.471	-27.010	0.207	-0.121
-417.457	-200.000	-0.019	0.358
-416.442	-200.000	0.019	0.113
-415.428	-134.675	0.276	-0.034
-414.413	-55.569	-0.100	0.045
-413.398	-200.000	-0.016	0.082
-412.384	-194.504	0.163	-0.001
-411.369	574.364	-0.088	-0.216
-410.355	53.954	0.216	0.209
-409.340	-200.000	0.006	-0.416
-408.325	-200.000	0.044	0.369
-407.311	800.000	-0.091	-0.349
-406.296	157.999	-0.062	-0.086
-405.282	-48.902	-0.158	0.076
-404.267	-60.531	0.461	0.197
-403.252	-105.368	0.311	-0.071
-402.238	349.446	0.069	-0.137
-401.223	-152.890	-0.025	0.002
-400.209	-12.191	-0.274	0.180
-399.194	376.188	-0.078	0.161
-398.179	800.000	0.048	0.156
-397.165	4.510	-0.201	0.148
-396.150	-200.000	0.018	0.216
-395.136	-200.000	-0.028	0.130
-394.121	-83.706	0.105	-0.034
-393.106	677.586	-0.055	-0.144
-392.092	-11.751	0.284	-0.188
-391.077	-200.000	0.014	0.090
-390.063	-25.997	-0.199	0.118
-389.048	2.080	-0.267	0.194
-388.033	12.374	0.151	-0.117
-387.019	-200.000	-0.008	-0.082
-386.004	85.394	-0.240	0.265
-384.990	158.861	0.155	0.217
-383.975	800.000	0.043	0.147
-382.960	800.000	-0.143	-0.422
-381.946	39.849	0.286	-0.258
-380.931	-200.000	-0.033	0.263
-379.917	-143.592	0.117	0.011
-378.902	-35.243	0.247	-0.135
-377.888	385.445	0.143	-0.296
-376.873	-200.000	-0.021	-0.140
-375.858	279.375	-0.080	-0.143
-374.844	-139.555	-0.320	-0.034
-373.829	-200.000	0.006	0.105
-372.815	61.814	-0.334	0.335
-371.800	550.792	-0.205	0.494
-370.785	-74.663	0.153	0.055
-369.771	2.003	0.090	-0.066
-368.756	800.000	-0.050	-0.172
-367.742	105.572	-0.264	0.314
-366.727	-11.716	0.074	0.049
-365.712	-152.606	0.349	0.025
-364.698	16.172	0.101	0.080
-363.683	107.192	-0.169	-0.202
-362.669	-100.926	-0.262	0.065
-361.654	70.155	0.152	-0.158
-360.639	-87.997	-0.284	0.086
-359.625	-124.754	-0.142	-0.022
-358.610	21.026	0.228	-0.186
-357.596	800.000	-0.097	-0.291
-356.581	-81.436	-0.141	-0.047
-355.566	-44.103	-0.189	-0.095
-354.552	-108.345	-0.510	0.110
-353.537	359.879	-0.124	0.249
-352.523	-151.651	-0.118	-0.009
-351.508	495.475	-0.114	-0.263
-350.493	16.492	0.192	-0.152
-349.479	-75.744	-0.306	0.109
-348.464	-200.000	-0.012	0.137
-347.450	716.457	-0.118	-0.315
-346.435	619.908	-0.083	-0.209
-345.420	215.949	-0.089	0.142
-344.406	36.993	-0.205	-0.182
-343.391	-124.595	0.245	0.038
-342.377	-170.986	-0.420	0.014
-341.362	84.632	-0.054	-0.060
-340.348	71.539	0.134	0.139
-339.333	-200.000	-0.077	-0.347
-338.318	-200.000	-0.001	0.343
-337.304	-200.000	-0.049	-0.385
-336.289	-107.978	-0.400	0.087
-335.275	-90.497	-0.220	0.064
-334.260	317.249	0.177	0.335
-333.245	69.280	0.290	-0.299
-332.231	369.509	0.145	-0.294
-331.216	494.663	0.174	0.400
-330.202	81.026	0.079	-0.086
-329.187	181.427	0.168	0.248
-328.172	800.000	-0.027	-0.102
-327.158	-93.827	-0.042	-0.012
-326.143	-98.330	0.263	0.068
-325.129	800.000	-0.066	0.188
-324.114	55.471	-0.217	0.211
-323.099	389.575	-0.108	-0.225
-322.085	-200.000	-0.071	-0.339
-321.070	209.536	-0.024	-0.038
-320.056	-126.943	-0.088	-0.013
-319.041	226.699	-0.216	0.352
-318.026	-103.797	0.383	0.090
-317.012	-129.687	0.244	-0.034
-315.997	-200.000	-0.037	-0.204
-314.983	465.835	-0.013	0.028
-313.968	-42.433	-0.237	0.121
-312.953	13.032	0.158	0.123
-311.939	88.677	0.019	-0.021
-310.924	-118.842	0.131	0.023
-309.910	37.788	0.254	-0.227
-308.895	-166.714	0.267	-0.011
-307.880	32.004	0.154	0.133
-306.866	-85.509	0.037	0.011
-305.851	655.165	-0.111	-0.287
-304.837	-200.000	-0.017	-0.108
-303.822	-145.891	-0.197	-0.017
-302.807	41.664	0.063	0.057
-301.793	244.475	-0.068	0.115
-300.778	10.511	0.151	0.115
-299.764	800.000	-0.076	-0.273
-298.749	-56.980	0.232	0.103
-297.735	-200.000	-0.034	-0.218
-296.720	7.026	0.155	-0.115
-295.705	112.765	-0.180	0.219
-294.691	800.000	-0.028	0.104
-293.676	5.685	-0.128	-0.095
-292.662	467.879	0.120	-0.269
-291.647	71.147	0.166	-0.172
-290.632	-40.062	0.083	0.043
-289.618	211.810	0.166	0.262
-288.603	316.763	0.134	0.253
-287.589	-200.000	0.043	-0.203
-286.574	787.402	0.050	-0.137
-285.559	-143.185	0.306	0.029
-284.545	-41.407	-0.216	0.111
-283.530	55.415	0.273	-0.265
-282.516	-48.340	0.149	-0.072
-281.501	372.816	-0.067	-0.137
-280.486	243.547	-0.120	-0.201
-279.472	325.950	-0.055	0.105
-278.457	-167.662	0.292	0.012
-277.443	-135.903	0.111	-0.013
-276.428	-85.899	-0.229	-0.071
-275.413	287.101	0.062	0.111
-274.399	800.000	-0.008	-0.027
-273.384	182.200	0.252	0.372
-272.370	38.284	0.289	-0.258
-271.355	41.432	0.105	-0.095
-270.340	96.381	-0.057	-0.066
-269.326	-68.134	-0.205	0.080
-268.311	-200.000	-0.017	0.246
-267.297	-200.000	-0.056	-0.311
-266.282	-40.474	0.165	0.086
-265.267	800.000	0.121	0.355
-264.253	-93.351	-0.033	-0.009
-263.238	800.000	-0.056	-0.158
-262.224	-152.906	0.067	-0.005
-261.209	-200.000	0.002	0.041
-260.195	-200.000	-0.047	0.281
-259.180	154.583	0.068	-0.094
-258.165	58.206	0.189	-0.185
-257.151	-200.000	-0.008	0.127
-256.136	88.481	0.072	-0.080
-255.122	-200.000	0.057	-0.283
-254.107	-200.000	0.077	0.337
-253.092	733.442	0.042	0.113
-252.078	-200.000	0.019	0.169
-251.063	-31.982	0.288	-0.161
-250.049	800.000	-0.043	-0.146
-249.034	-31.300	-0.152	0.086
-248.019	-200.000	0.042	-0.228
-247.005	355.100	-0.067	-0.133
-245.990	800.000	0.143	0.437
-244.976	-44.766	-0.104	0.052
-243.961	-30.895	-0.209	0.118
-242.946	37.854	-0.284	0.252
-241.932	-92.743	0.215	0.060
-240.917	7.207	0.343	0.256
-239.903	3.690	0.061	0.045
-238.888	178.667	-0.190	0.278
-237.873	-148.416	-0.141	0.012
-236.859	585.326	0.035	0.086
-235.844	-200.000	-0.038	-0.387
-234.830	268.486	-0.200	-0.351
-233.815	-81.638	0.409	-0.134
-232.800	-200.000	0.024	-0.138
-231.786	99.518	-0.240	-0.277
-230.771	-142.766	0.140	-0.014
-229.757	-7.110	0.255	0.173
-228.742	800.000	0.118	0.344
-227.727	101.237	0.134	-0.155
-226.713	81.492	-0.220	0.237
-225.698	20.936	-0.022	0.018
-224.684	-200.000	-0.028	-0.371
-223.669	800.000	-0.023	0.098
-222.655	-97.419	0.150	-0.039
-221.640	-127.758	-0.259	0.037
-220.625	800.000	0.028	0.105
-219.611	53.839	0.135	-0.130
-218.596	-200.000	-0.026	-0.138
-217.582	800.000	0.100	-0.312
-216.567	-42.252	0.311	0.158
-215.552	-23.048	0.013	-0.008
-214.538	800.000	0.024	-0.076
-213.523	800.000	0.070	-0.230
-212.509	-200.000	0.010	-0.124
-211.494	-140.810	0.248	0.026
-210.479	-8.800	0.274	0.184
-209.465	36.392	0.222	-0.196
-208.450	-111.660	0.200	0.040
-207.436	-97.356	-0.246	0.064
-206.421	800.000	-0.041	0.127
-205.406	-200.000	0.005	-0.320
-204.392	260.694	0.075	-0.129
-203.377	-120.624	-0.355	0.060
-202.363	-200.000	0.028	0.122
-201.348	-154.588	0.453	0.030
-200.333	-77.952	0.214	-0.074
-199.319	-200.000	0.022	-0.253
-198.304	280.752	-0.064	0.115
-197.290	-70.787	-0.076	0.029
-196.275	134.578	0.112	0.145
-195.260	800.000	0.102	-0.358
-194.246	-41.420	-0.238	0.122
-193.231	-33.748	-0.268	-0.147
-192.217	800.000	-0.027	0.085
-191.202	5.967	-0.368	-0.272
-190.187	-18.787	-0.153	-0.095
-189.173	58.201	-0.226	0.221
-188.158	-50.142	0.112	0.053
-187.144	-172.718	0.080	-0.002
-186.129	-200.000	0.045	0.323
-185.114	56.340	0.135	-0.131
-184.100	2.318	-0.192	-0.139
-183.085	215.310	-0.266	-0.422
-182.071	800.000	-0.043	0.163
-181.056	428.969	-0.103	-0.222
-180.042	-167.581	0.157	0.006
-179.027	-136.262	-0.133	0.015
-178.012	125.022	0.112	0.141
-176.998	-59.471	-0.263	0.113
-175.983	-102.373	-0.233	0.056
-174.969	800.000	-0.039	-0.162
-173.954	-94.447	-0.183	-0.050
-172.939	129.317	0.148	0.188
-171.925	800.000	0.060	-0.222
-170.910	800.000	-0.030	0.119
-169.896	-64.902	-0.066	-0.027
-168.881	10.784	-0.229	0.174
-167.866	-100.201	-0.454	0.113
-166.852	-140.453	0.281	-0.029
-165.837	-57.735	-0.150	0.065
-164.823	26.860	0.046	0.039
-163.808	122.511	0.091	0.114
-162.793	351.587	-0.025	-0.050
-161.779	-200.000	0.049	0.345
-160.764	280.320	0.014	0.025
-159.750	-122.058	-0.102	0.017
-158.735	127.249	0.172	-0.217
-157.720	800.000	0.056	0.202
-156.706	-54.860	0.314	-0.141
-155.691	55.551	-0.108	0.104
-154.677	91.816	0.205	-0.230
-153.662	-67.243	-0.156	0.061
-152.647	-200.000	0.028	0.319
-151.633	33.910	-0.459	-0.398
-150.618	357.019	0.161	0.320
-149.604	122.896	-0.146	0.182
-148.589	111.704	0.173	-0.208
-147.574	-159.486	-0.208	-0.012
-146.560	800.000	0.032	0.095
-145.545	800.000	-0.048	0.161
-144.531	56.589	0.301	-0.292
-143.516	800.000	0.099	-0.349
-142.502	-200.000	-0.021	-0.163
-141.487	74.135	0.108	0.113
-140.472	-9.077	-0.349	-0.233
-139.458	-110.762	0.353	0.072
-138.443	66.199	-0.069	-0.070
-137.429	-72.959	-0.473	-0.173
-136.414	48.893	0.172	-0.160
-135.399	-12.437	-0.100	0.065
-134.385	-70.754	0.110	-0.041
-133.370	-78.090	-0.097	0.033
-132.356	75.266	0.251	0.263
-131.341	77.897	-0.141	0.150
-130.326	-55.771	-0.170	-0.076
-129.312	-200.000	-0.028	0.200
-128.297	-33.688	0.146	0.080
-127.283	-129.660	0.244	-0.034
-126.268	177.705	0.202	-0.293
-125.253	609.120	-0.097	0.241
-124.239	532.775	-0.147	0.346
-123.224	274.260	-0.086	-0.151
-122.210	-200.000	0.004	-0.250
-121.195	-3.282	-0.050	0.035
