DTS Sentinel unit serial number:	SN413079Multiplexer serial number:	ORYXHardware model number:	OX4-SRSoftware version number:	ORYX F/W v4.00 Oryx Data Collector v3.7.2.0data status	okinstallation	princeton_trtdifferential loss correction	single-endedforward channel	channel 4reverse channel	N/Adate	2019/09/15time	02:41:35forward acquisition time	60.00reverse acquisition time	0.00gamma	496.2192k internal	0.2309k external	0.2309temperature offset calibration	1.0036default loss term (dB/km)	0.3790temperature slope calibration	1.0000multiplexer offset coefficient	1.0000multiplexer slope coefficient	1.0000fibre end	0.00T internal ref (°C)	31.41T ext. ref 1 (°C)	4.58T ext. ref 2 (°C)	25.83length (m)	temperature (°C)	Stokes	anti-Stokes-747.200	60.550	0.169	0.170
-746.185	-31.030	-0.139	-0.079
-745.171	256.076	0.121	0.211
-744.156	-75.514	-0.136	0.049
-743.142	92.511	-0.117	-0.134
-742.127	177.485	-0.254	0.377
-741.112	-112.598	0.056	-0.011
-740.098	-200.000	-0.019	0.154
-739.083	21.743	0.291	-0.241
-738.069	-102.932	-0.217	-0.052
-737.054	82.776	-0.184	-0.203
-736.039	-200.000	0.032	-0.381
-735.025	-144.208	0.253	0.024
-734.010	14.438	-0.274	0.217
-732.996	161.703	-0.148	-0.210
-731.981	-163.109	-0.456	-0.022
-730.966	-92.356	0.152	-0.043
-729.952	-76.714	-0.379	-0.135
-728.937	137.976	0.078	-0.104
-727.923	233.944	-0.170	-0.285
-726.908	-200.000	-0.001	-0.133
-725.894	-47.194	-0.344	0.170
-724.879	220.413	0.142	0.232
-723.864	256.688	0.012	0.021
-722.850	-87.547	-0.121	-0.037
-721.835	-200.000	-0.018	-0.133
-720.821	-81.533	0.144	0.048
-719.806	-146.533	-0.317	-0.028
-718.791	66.633	0.053	0.054
-717.777	-63.071	0.198	0.083
-716.762	234.666	0.099	0.165
-715.748	-113.604	-0.436	-0.087
-714.733	121.817	-0.147	-0.186
-713.718	-108.318	0.254	-0.056
-712.704	105.369	0.141	0.169
-711.689	-111.942	-0.171	-0.035
-710.675	542.969	0.113	0.273
-709.660	800.000	-0.084	0.301
-708.645	-200.000	-0.015	0.135
-707.631	-62.489	0.303	0.128
-706.616	-4.533	0.104	0.073
-705.602	-17.858	0.289	-0.184
-704.587	-200.000	-0.034	0.259
-703.572	-200.000	-0.025	0.118
-702.558	-105.176	-0.170	0.039
-701.543	309.001	0.264	0.499
-700.529	81.803	-0.085	-0.093
-699.514	-139.858	-0.234	0.025
-698.499	296.854	-0.209	-0.390
-697.485	35.637	-0.190	-0.169
-696.470	-27.399	-0.181	0.107
-695.456	365.147	0.036	0.073
-694.441	800.000	-0.083	0.240
-693.426	242.319	0.047	0.080
-692.412	-200.000	-0.049	0.268
-691.397	-200.000	0.027	-0.390
-690.383	-132.929	-0.394	-0.051
-689.368	35.449	0.117	0.104
-688.354	-97.513	-0.459	0.121
-687.339	-100.423	-0.193	0.048
-686.324	605.070	0.089	0.224
-685.310	-28.090	0.108	-0.064
-684.295	-152.058	0.133	0.010
-683.281	-33.203	0.117	-0.066
-682.266	83.485	-0.105	0.116
-681.251	660.373	-0.059	0.154
-680.237	-56.721	0.097	0.044
-679.222	282.048	-0.226	-0.410
-678.208	14.225	-0.122	-0.096
-677.193	13.196	-0.108	-0.085
-676.178	800.000	0.075	-0.231
-675.164	800.000	-0.099	-0.277
-674.149	800.000	0.055	-0.175
-673.135	-37.965	0.159	-0.086
-672.120	-200.000	-0.008	0.180
-671.105	56.806	-0.053	0.052
-670.091	-165.213	-0.219	0.010
-669.076	182.614	-0.032	0.048
-668.062	-132.199	-0.452	-0.059
-667.047	17.607	0.118	-0.095
-666.032	-83.071	-0.248	-0.081
-665.018	57.676	-0.136	0.135
-664.003	-88.699	0.092	0.028
-662.989	-70.227	0.222	0.085
-661.974	-127.078	-0.080	-0.012
-660.959	-32.396	0.193	-0.109
-659.945	-125.122	-0.133	0.021
-658.930	-58.325	0.182	-0.080
-657.916	-92.026	-0.335	0.096
-656.901	-75.781	-0.234	-0.084
-655.886	37.900	-0.111	-0.100
-654.872	65.430	-0.202	-0.207
-653.857	-15.671	-0.238	0.153
-652.843	-37.515	-0.088	0.047
-651.828	-54.329	0.072	-0.033
-650.814	-131.203	-0.145	-0.020
-649.799	2.627	-0.331	-0.243
-648.784	-98.551	-0.318	0.082
-647.770	-98.637	-0.436	0.113
-646.755	-15.958	-0.146	0.094
-645.741	-200.000	-0.002	0.260
-644.726	-200.000	-0.018	0.222
-643.711	-52.202	-0.341	0.160
-642.697	-48.882	0.047	0.023
-641.682	-200.000	-0.035	0.260
-640.668	-119.571	-0.292	-0.051
-639.653	800.000	-0.014	-0.062
-638.638	361.233	0.182	-0.369
-637.624	-200.000	0.013	0.385
-636.609	187.544	-0.106	-0.160
-635.595	-7.120	-0.364	-0.250
-634.580	-117.892	0.114	-0.021
-633.565	5.315	-0.279	-0.208
-632.551	8.117	-0.062	-0.047
-631.536	800.000	0.065	0.272
-630.522	-200.000	0.033	-0.296
-629.507	191.438	0.215	-0.327
-628.492	340.825	0.071	0.140
-627.478	287.960	-0.110	0.202
-626.463	231.325	-0.070	0.116
-625.449	255.653	-0.164	-0.284
-624.434	-16.905	0.125	-0.080
-623.419	-200.000	0.016	-0.244
-622.405	71.065	-0.047	0.049
-621.390	196.191	-0.244	0.376
-620.376	-23.648	-0.168	0.102
-619.361	-94.104	-0.239	0.066
-618.346	388.801	0.042	0.087
-617.332	-88.821	-0.303	0.091
-616.317	-21.430	-0.064	-0.039
-615.303	800.000	0.036	0.141
-614.288	-110.599	-0.368	-0.077
-613.273	800.000	0.042	-0.121
-612.259	800.000	-0.032	0.139
-611.244	-200.000	-0.017	0.156
-610.230	37.449	0.167	-0.149
-609.215	227.112	0.198	-0.325
-608.201	-157.783	-0.306	-0.018
-607.186	91.568	0.070	0.080
-606.171	-174.519	-0.217	0.006
-605.157	-108.506	-0.091	0.020
-604.142	236.671	-0.115	-0.193
-603.128	-103.083	0.054	0.013
-602.113	-71.422	0.233	0.088
-601.098	-187.976	-0.239	-0.003
-600.084	-182.096	-0.376	0.007
-599.069	-200.000	-0.003	-0.353
-598.055	-200.000	0.014	-0.254
-597.040	-100.207	0.202	0.051
-596.025	-19.139	-0.301	-0.189
-595.011	101.072	-0.120	-0.141
-593.996	800.000	-0.033	-0.122
-592.982	-58.253	0.313	0.138
-591.967	-200.000	0.031	-0.249
-590.952	-53.652	0.375	0.173
-589.938	-200.000	0.020	0.118
-588.923	257.060	0.039	-0.068
-587.909	74.270	-0.124	-0.131
-586.894	202.968	0.102	0.160
-585.879	800.000	0.033	-0.117
-584.865	6.637	-0.150	-0.113
-583.850	-146.293	-0.149	-0.013
-582.836	-200.000	-0.023	-0.453
-581.821	31.141	-0.200	-0.173
-580.806	-200.000	0.004	0.323
-579.792	-88.446	0.130	0.039
-578.777	90.877	0.111	-0.125
-577.763	196.520	0.163	0.251
-576.748	-200.000	0.031	0.292
-575.733	500.478	-0.140	-0.326
-574.719	800.000	0.102	-0.331
-573.704	72.909	0.239	-0.252
-572.690	-200.000	0.005	-0.375
-571.675	-29.058	0.115	0.066
-570.661	-63.499	-0.145	-0.060
-569.646	-95.282	0.243	0.066
-568.631	-200.000	-0.031	0.160
-567.617	-200.000	0.004	0.119
-566.602	256.605	-0.070	-0.121
-565.588	-169.037	-0.436	-0.016
-564.573	-151.399	0.336	-0.025
-563.558	-13.602	0.082	-0.054
-562.544	-30.716	0.129	0.074
-561.529	-138.219	-0.132	-0.015
-560.515	7.508	-0.159	0.120
-559.500	164.111	-0.082	0.117
-558.485	403.540	-0.161	0.342
-557.471	-200.000	-0.003	-0.444
-556.456	-137.209	0.103	0.012
-555.442	183.716	0.151	-0.225
-554.427	-33.050	0.028	0.016
-553.412	33.671	0.051	-0.045
-552.398	492.904	-0.050	0.115
-551.383	800.000	0.072	-0.219
-550.369	-200.000	-0.003	-0.184
-549.354	-30.448	-0.272	-0.156
-548.339	118.188	-0.039	0.049
-547.325	-200.000	-0.018	0.126
-546.310	-200.000	-0.021	-0.242
-545.296	-102.435	-0.130	0.031
-544.281	800.000	-0.016	0.066
-543.266	-106.747	0.080	-0.018
-542.252	488.476	0.063	-0.145
-541.237	115.995	-0.303	-0.374
-540.223	-141.949	0.332	0.033
-539.208	17.728	0.306	0.245
-538.193	-21.969	-0.246	-0.151
-537.179	-200.000	-0.012	0.248
-536.164	-200.000	0.030	0.391
-535.150	-200.000	0.106	0.479
-534.135	800.000	0.090	-0.257
-533.121	-179.317	-0.158	-0.004
-532.106	-200.000	0.302	-0.001
-531.091	-200.000	0.019	0.244
-530.077	-45.888	0.040	-0.020
-529.062	-77.718	-0.111	-0.039
-528.048	131.281	-0.176	-0.228
-527.033	-118.894	-0.073	-0.013
-526.018	-200.000	-0.012	0.116
-525.004	-17.022	0.157	-0.100
-523.989	37.943	-0.110	-0.099
-522.975	-23.787	0.115	0.069
-521.960	-31.765	-0.044	-0.025
-520.945	-200.000	-0.024	0.138
-519.931	-200.000	0.178	0.001
-518.916	-1.512	-0.132	0.094
-517.902	117.256	0.276	0.342
-516.887	376.914	0.033	-0.068
-515.872	-134.913	-0.374	0.046
-514.858	-170.327	-0.110	0.004
-513.843	-66.298	-0.035	-0.014
-512.829	-11.145	0.170	0.113
-511.814	800.000	-0.079	0.252
-510.799	111.588	-0.003	-0.004
-509.785	18.915	0.371	-0.299
-508.770	-0.078	-0.296	-0.212
-507.756	-161.265	-0.042	0.002
-506.741	95.921	0.253	0.291
-505.726	-200.000	-0.030	0.262
-504.712	173.839	-0.068	-0.099
-503.697	-79.566	-0.246	-0.083
-502.683	-68.100	0.193	0.076
-501.668	254.361	-0.025	0.043
-500.653	-74.396	-0.288	-0.105
-499.639	-69.169	-0.114	-0.044
-498.624	-186.837	0.256	0.004
-497.610	556.232	-0.116	-0.280
-496.595	-200.000	0.046	-0.372
-495.581	627.931	-0.086	0.218
-494.566	60.148	-0.067	-0.067
-493.551	49.886	-0.283	-0.269
-492.537	-57.795	-0.259	-0.114
-491.522	278.584	0.130	0.233
-490.508	-164.605	-0.212	0.010
-489.493	7.435	-0.186	-0.140
-488.478	-186.768	0.270	-0.004
-487.464	237.707	0.158	-0.264
-486.449	-21.634	-0.354	-0.217
-485.435	70.233	0.207	0.215
-484.420	-200.000	0.033	0.186
-483.405	-127.175	-0.115	-0.017
-482.391	135.008	0.041	0.054
-481.376	277.052	-0.093	0.167
-480.362	800.000	-0.070	-0.288
-479.347	-137.940	0.209	-0.023
-478.332	342.258	-0.056	-0.110
-477.318	-18.034	-0.115	-0.072
-476.303	129.662	0.114	0.146
-475.289	-200.000	-0.026	-0.445
-474.274	-200.000	-0.025	0.158
-473.259	-53.519	-0.172	-0.079
-472.245	98.175	0.195	-0.226
-471.230	97.281	0.054	-0.063
-470.216	204.053	0.023	0.035
-469.201	-75.197	-0.254	-0.091
-468.186	-54.426	-0.313	0.143
-467.172	48.911	0.169	-0.160
-466.157	1.689	-0.313	-0.227
-465.143	7.470	0.069	-0.052
-464.128	-32.609	-0.086	0.048
-463.113	71.529	0.087	-0.090
-462.099	323.276	0.136	-0.260
-461.084	-137.593	-0.335	-0.038
-460.070	800.000	0.025	0.086
-459.055	-81.550	0.475	-0.157
-458.040	-200.000	-0.003	0.074
-457.026	-30.663	-0.077	-0.044
-456.011	800.000	0.033	-0.135
-454.997	-70.384	0.188	0.072
-453.982	153.487	0.141	-0.194
-452.968	-119.384	0.036	0.006
-451.953	160.662	0.233	0.327
-450.938	-83.157	0.268	-0.087
-449.924	-103.189	-0.214	-0.051
-448.909	608.802	-0.079	-0.198
-447.895	-200.000	0.189	-0.001
-446.880	289.983	-0.029	0.052
-445.865	32.609	-0.171	0.148
-444.851	109.669	0.117	0.141
-443.836	6.690	0.252	-0.189
-442.822	-152.838	-0.140	-0.010
-441.807	-120.834	0.030	-0.005
-440.792	-66.206	0.167	-0.067
-439.778	112.807	-0.198	-0.241
-438.763	-200.000	0.001	0.227
-437.749	499.179	0.072	-0.167
-436.734	-36.252	-0.061	-0.033
-435.719	-117.556	-0.242	0.044
-434.705	451.657	0.083	-0.184
-433.690	-35.653	0.071	-0.039
-432.676	-200.000	0.026	-0.282
-431.661	-81.250	0.098	-0.032
-430.646	-148.282	-0.219	-0.018
-429.632	-200.000	0.055	-0.244
-428.617	-200.000	0.001	-0.058
-427.603	9.222	0.223	0.169
-426.588	239.376	-0.044	-0.074
-425.573	183.748	0.154	0.229
-424.559	-153.873	0.242	-0.017
-423.544	104.143	-0.245	0.289
-422.530	54.811	0.218	0.211
-421.515	456.320	-0.114	0.254
-420.500	137.834	0.028	0.037
-419.486	34.736	0.098	0.086
-418.471	391.534	0.034	0.071
-417.457	182.947	0.116	-0.172
-416.442	-200.000	-0.040	-0.244
-415.428	99.948	-0.126	-0.146
-414.413	-95.213	-0.172	-0.047
-413.398	-169.681	0.209	0.008
-412.384	10.387	0.445	0.340
-411.369	-138.022	0.205	0.023
-410.355	-50.397	0.122	0.058
-409.340	53.691	0.215	0.207
-408.325	17.545	0.189	0.151
-407.311	800.000	0.020	0.089
-406.296	-70.995	-0.268	-0.101
-405.282	-200.000	0.035	-0.271
-404.267	-105.033	-0.143	-0.033
-403.252	-200.000	-0.006	0.264
-402.238	-50.901	0.214	-0.101
-401.223	-77.948	0.116	-0.040
-400.209	139.918	-0.223	-0.294
-399.194	13.897	0.141	0.110
-398.179	800.000	0.055	-0.186
-397.165	-49.716	-0.093	0.045
-396.150	138.435	-0.068	0.089
-395.136	-165.062	0.289	-0.013
-394.121	800.000	0.047	0.206
-393.106	-111.714	0.148	-0.030
-392.092	-88.550	-0.212	-0.063
-391.077	-33.047	0.242	0.134
-390.063	-80.894	-0.033	0.011
-389.048	-200.000	-0.013	-0.188
-388.033	-126.312	0.102	0.015
-387.019	550.955	-0.131	0.315
-386.004	-200.000	0.002	-0.088
-384.990	-112.115	-0.089	0.018
-383.975	462.169	0.044	-0.097
-382.960	-53.389	0.189	0.087
-381.946	374.920	-0.200	0.408
-380.931	48.089	0.191	0.179
-379.917	-33.650	0.190	-0.105
-378.902	-98.908	-0.077	0.019
-377.888	54.809	0.082	0.079
-376.873	92.504	-0.198	-0.224
-375.858	155.476	-0.038	0.053
-374.844	-49.270	-0.118	0.056
-373.829	800.000	0.056	0.162
-372.815	-47.148	-0.221	-0.108
-371.800	-68.446	0.161	0.063
-370.785	159.356	0.103	0.144
-369.771	406.867	-0.096	-0.204
-368.756	-7.715	-0.248	0.167
-367.742	-73.456	0.399	0.146
-366.727	-17.461	0.365	0.230
-365.712	-200.000	0.006	0.047
-364.698	-34.908	0.184	-0.100
-363.683	-200.000	0.029	0.405
-362.669	-6.345	-0.284	0.194
-361.654	800.000	-0.058	0.218
-360.639	-107.644	-0.257	-0.056
-359.625	-27.397	-0.161	-0.094
-358.610	85.746	0.129	0.142
-357.596	130.052	0.223	0.286
-356.581	-200.000	-0.027	0.208
-355.566	-72.934	0.244	0.090
-354.552	-159.243	-0.003	0.000
-353.537	800.000	0.052	-0.173
-352.523	18.994	0.217	0.174
-351.508	-79.847	-0.387	-0.130
-350.493	-38.461	-0.115	-0.061
-349.479	73.620	-0.189	-0.198
-348.464	26.014	0.180	-0.150
-347.450	-92.334	0.286	0.081
-346.435	180.749	0.097	0.143
-345.420	-200.000	-0.053	0.258
-344.406	196.497	-0.036	0.055
-343.391	81.341	0.105	0.114
-342.377	800.000	-0.073	0.244
-341.362	15.845	0.254	0.200
-340.348	212.133	0.075	0.119
-339.333	-91.604	0.201	-0.057
-338.318	800.000	-0.070	0.290
-337.304	-73.396	0.228	0.083
-336.289	-100.014	-0.256	0.064
-335.275	-200.000	-0.014	0.406
-334.260	759.989	-0.022	-0.059
-333.245	-88.610	-0.294	-0.087
-332.231	-200.000	0.096	-0.435
-331.216	-45.566	0.051	-0.025
-330.202	19.438	0.061	-0.049
-329.187	-179.397	-0.370	0.008
-328.172	-124.918	-0.062	-0.010
-327.158	800.000	0.033	-0.132
-326.143	800.000	0.132	-0.419
-325.129	-139.971	-0.394	-0.042
-324.114	-200.000	-0.003	0.260
-323.099	41.883	-0.282	-0.256
-322.085	795.305	0.041	0.113
-321.070	-19.564	-0.079	0.049
-320.056	-135.129	-0.297	-0.036
-319.041	9.703	-0.122	-0.092
-318.026	-200.000	-0.004	-0.228
-317.012	112.560	-0.134	0.162
-315.997	-118.895	0.171	-0.030
-314.983	-200.000	0.019	0.104
-313.968	5.933	-0.112	0.083
-312.953	-64.061	-0.063	0.026
-311.939	202.121	0.176	0.271
-310.924	800.000	0.065	-0.187
-309.910	43.978	0.053	-0.049
-308.895	-200.000	-0.010	0.224
-307.880	25.805	-0.087	0.073
-306.866	800.000	-0.014	0.046
-305.851	-200.000	-0.033	0.265
-304.837	800.000	-0.023	0.068
-303.822	-124.878	-0.306	0.047
-302.807	12.241	-0.126	0.097
-301.793	800.000	0.152	-0.493
-300.778	225.088	-0.096	-0.156
-299.764	-46.311	0.405	0.199
-298.749	-200.000	-0.011	-0.136
-297.735	255.210	0.160	-0.273
-296.720	-200.000	-0.010	-0.210
-295.705	14.219	0.214	-0.167
-294.691	-115.497	-0.176	-0.033
-293.676	55.717	0.218	0.211
-292.662	800.000	-0.024	-0.081
-291.647	-105.688	0.204	-0.046
-290.632	-51.473	0.065	-0.030
-289.618	-98.979	0.134	-0.034
-288.603	11.731	-0.187	-0.143
-287.589	-83.127	-0.203	-0.065
-286.574	800.000	0.066	-0.246
-285.559	-118.901	-0.080	0.014
-284.545	362.189	0.118	0.236
-283.530	-200.000	-0.011	-0.296
-282.516	-200.000	0.013	-0.130
-281.501	21.460	0.053	-0.043
-280.486	-43.624	0.126	-0.063
-279.472	-67.916	-0.079	0.031
-278.457	324.061	0.132	-0.252
-277.443	-200.000	0.061	-0.270
-276.428	-200.000	0.015	-0.092
-275.413	172.999	-0.097	-0.139
-274.399	-200.000	0.068	0.000
-273.384	21.464	-0.118	0.095
-272.370	531.109	0.069	-0.162
-271.355	-200.000	0.053	-0.337
-270.340	-200.000	-0.008	0.223
-269.326	462.620	-0.114	0.254
-268.311	67.139	-0.154	-0.156
-267.297	-200.000	0.003	0.147
-266.282	-60.071	0.365	-0.155
-265.267	-20.959	-0.127	0.077
-264.253	240.018	-0.135	-0.224
-263.238	114.841	0.026	0.032
-262.224	-151.174	0.256	0.019
-261.209	674.069	0.071	0.185
-260.195	-173.555	0.262	0.008
-259.180	-84.411	-0.188	-0.059
-258.165	-64.411	-0.173	-0.070
-257.151	-200.000	0.050	0.282
-256.136	-75.354	0.274	0.097
-255.122	-200.000	-0.066	0.417
-254.107	239.581	-0.034	0.057
-253.092	-200.000	0.003	-0.267
-252.078	99.060	0.189	0.218
-251.063	262.033	0.127	0.219
-250.049	-108.433	-0.240	0.052
-249.034	800.000	-0.073	0.252
-248.019	-31.043	-0.065	0.036
-247.005	-39.201	0.410	0.215
-245.990	236.997	-0.138	-0.227
-244.976	-65.285	-0.327	0.131
-243.961	45.292	0.303	-0.279
-242.946	15.292	0.170	-0.133
-241.932	228.991	0.053	-0.085
-240.917	592.234	0.022	0.053
-239.903	-60.386	0.161	-0.068
-238.888	66.344	-0.179	-0.181
-237.873	-134.398	-0.069	0.008
-236.859	426.792	-0.039	0.084
-235.844	-24.254	-0.289	-0.172
-234.830	800.000	-0.031	0.127
-233.815	-113.869	0.379	0.073
-232.800	-72.081	0.299	-0.110
-231.786	-166.614	0.208	0.009
-230.771	-47.390	-0.304	0.147
-229.757	423.476	0.114	0.244
-228.742	72.428	-0.077	-0.080
-227.727	-200.000	0.014	0.075
-226.713	-200.000	0.063	-0.347
-225.698	50.477	-0.225	0.212
-224.684	-200.000	-0.020	0.274
-223.669	223.022	-0.045	-0.072
-222.655	-178.855	-0.405	-0.009
-221.640	-146.463	0.461	0.040
-220.625	152.214	0.056	0.077
-219.611	-200.000	-0.041	0.182
-218.596	698.846	0.056	0.147
-217.582	-83.191	0.065	0.021
-216.567	-53.971	-0.131	0.059
-215.552	-142.197	0.081	0.008
-214.538	318.201	0.172	0.324
-213.523	156.819	-0.212	0.291
-212.509	800.000	0.040	0.140
-211.494	-105.496	0.148	0.033
-210.479	-15.176	-0.172	-0.109
-209.465	-90.687	-0.037	-0.011
-208.450	800.000	0.045	-0.124
-207.436	-200.000	-0.020	0.153
-206.421	-108.561	0.300	0.064
-205.406	800.000	0.049	-0.137
-204.392	800.000	-0.032	0.089
-203.377	306.090	-0.081	0.149
-202.363	-125.200	-0.069	0.011
-201.348	638.855	0.176	0.445
-200.333	-200.000	-0.015	-0.075
-199.319	131.329	0.113	-0.145
-198.304	101.064	0.126	0.145
-197.290	163.280	-0.223	0.311
-196.275	800.000	0.010	-0.035
-195.260	45.834	0.167	-0.154
-194.246	800.000	-0.064	-0.196
-193.231	-42.794	0.250	0.126
-192.217	-6.232	-0.077	-0.052
-191.202	-200.000	-0.009	-0.157
-190.187	774.285	0.024	-0.066
-189.173	-117.431	0.140	0.025
-188.158	-85.857	0.439	0.135
-187.144	-69.557	0.222	-0.084
-186.129	-196.310	0.102	-0.001
-185.114	-93.542	0.173	0.048
-184.100	299.621	0.022	0.040
-183.085	-97.035	-0.218	-0.057
-182.071	60.977	-0.332	-0.328
-181.056	-98.946	-0.371	0.094
-180.042	9.859	0.326	0.246
-179.027	216.351	-0.081	0.129
-178.012	671.822	0.113	-0.292
-176.998	-200.000	-0.015	-0.273
-175.983	-84.197	0.257	-0.081
-174.969	800.000	-0.069	-0.288
-173.954	367.816	-0.063	0.127
-172.939	-200.000	-0.010	0.222
-171.925	-104.932	0.334	0.076
-170.910	-70.901	-0.182	0.068
-169.896	242.190	-0.164	-0.273
-168.881	-119.727	-0.177	-0.030
-167.866	-200.000	0.004	-0.103
-166.852	-200.000	-0.025	-0.175
-165.837	-51.340	0.102	0.047
-164.823	365.479	0.019	-0.039
-163.808	7.137	-0.275	0.204
-162.793	509.458	0.068	0.158
-161.779	-20.982	-0.174	-0.106
-160.764	-50.870	-0.288	0.134
-159.750	16.097	0.282	0.221
-158.735	636.728	0.076	0.191
-157.720	-200.000	0.017	0.117
-156.706	111.653	-0.122	0.146
-155.691	-134.296	0.495	-0.060
-154.677	-155.878	0.333	0.021
-153.662	105.798	-0.352	-0.414
-152.647	-135.576	-0.245	0.029
-151.633	316.496	0.064	0.120
-150.618	-43.853	-0.128	-0.064
-149.604	-165.340	-0.111	-0.005
-148.589	-48.988	0.131	0.062
-147.574	-9.989	-0.104	-0.068
-146.560	-154.753	-0.108	-0.007
-145.545	-116.045	0.163	0.030
-144.531	-71.222	0.176	-0.066
-143.516	-92.065	-0.385	0.108
-142.502	114.687	-0.190	0.230
-141.487	340.411	0.018	0.035
-140.472	-78.506	0.219	0.074
-139.458	-180.896	-0.276	0.006
-138.443	-56.853	-0.145	-0.064
-137.429	-7.156	-0.166	0.112
-136.414	-55.098	-0.102	-0.046
-135.399	-103.267	-0.412	0.097
-134.385	-108.328	0.194	-0.042
-133.370	299.102	0.035	0.064
-132.356	725.046	0.159	-0.419
-131.341	-200.000	-0.070	-0.330
-130.326	-105.923	-0.103	0.023
-129.312	-139.335	-0.020	-0.002
-128.297	33.228	-0.046	0.040
-127.283	800.000	-0.077	0.222
-126.268	-200.000	-0.037	-0.165
-125.253	305.659	0.195	-0.360
-124.239	-62.661	-0.234	-0.096
-123.224	375.169	0.098	0.199
-122.210	800.000	-0.061	0.173
