DTS Sentinel unit serial number:	SN413079Multiplexer serial number:	ORYXHardware model number:	OX4-SRSoftware version number:	ORYX F/W v4.00 Oryx Data Collector v3.7.2.0data status	okinstallation	princeton_trtdifferential loss correction	single-endedforward channel	channel 4reverse channel	N/Adate	2019/09/14time	08:53:34forward acquisition time	60.00reverse acquisition time	0.00gamma	496.2192k internal	0.2311k external	0.2311temperature offset calibration	1.0131default loss term (dB/km)	0.3790temperature slope calibration	1.0000multiplexer offset coefficient	1.0000multiplexer slope coefficient	1.0000fibre end	0.00T internal ref (°C)	29.55T ext. ref 1 (°C)	3.70T ext. ref 2 (°C)	27.51length (m)	temperature (°C)	Stokes	anti-Stokes-747.200	-177.194	-0.193	0.005
-746.185	-200.000	0.057	0.440
-745.171	86.693	-0.187	-0.210
-744.156	800.000	0.157	0.537
-743.142	54.372	0.218	0.213
-742.127	4.035	-0.094	-0.070
-741.112	-101.213	-0.053	0.013
-740.098	-200.000	-0.058	0.449
-739.083	380.654	-0.099	0.206
-738.069	-153.630	0.405	0.028
-737.054	-112.861	-0.133	0.027
-736.039	-194.888	-0.263	-0.002
-735.025	800.000	0.093	0.319
-734.010	-119.278	-0.166	-0.029
-732.996	800.000	-0.076	0.231
-731.981	-77.949	-0.360	0.126
-730.966	319.567	-0.032	0.062
-729.952	800.000	0.046	-0.176
-728.937	800.000	-0.053	-0.231
-727.923	97.436	0.051	0.059
-726.908	-119.477	0.103	-0.018
-725.894	-3.998	-0.294	0.207
-724.879	149.230	0.071	-0.098
-723.864	-172.420	-0.188	-0.006
-722.850	-133.896	0.179	0.023
-721.835	343.399	0.147	0.293
-720.821	-26.819	-0.201	-0.119
-719.806	-69.284	-0.082	-0.032
-718.791	-57.453	0.213	-0.095
-717.777	-200.000	0.032	-0.195
-716.762	-22.357	-0.432	-0.266
-715.748	-6.437	0.167	0.116
-714.733	141.943	0.168	0.226
-713.718	-33.318	-0.307	-0.172
-712.704	193.980	0.216	-0.331
-711.689	-73.999	0.162	-0.059
-710.675	463.421	0.075	-0.170
-709.660	-200.000	0.001	-0.303
-708.645	-28.019	0.326	0.191
-707.631	-10.768	0.365	-0.244
-706.616	-117.316	-0.090	-0.016
-705.602	-113.234	0.228	0.046
-704.587	-60.149	0.448	0.193
-703.572	-72.909	0.121	-0.045
-702.558	-124.167	0.130	-0.021
-701.543	225.722	0.148	-0.244
-700.529	-117.784	0.276	0.050
-699.514	-135.308	0.065	0.008
-698.499	-117.745	-0.172	0.031
-697.485	-61.722	0.058	0.025
-696.470	478.332	-0.111	-0.255
-695.456	800.000	0.062	-0.209
-694.441	-200.000	-0.030	0.222
-693.426	-105.840	0.427	-0.098
-692.412	-132.014	-0.392	-0.052
-691.397	-200.000	-0.105	-0.533
-690.383	-122.157	-0.226	-0.038
-689.368	-59.550	-0.178	-0.078
-688.354	154.087	-0.254	-0.353
-687.339	-32.673	-0.331	0.187
-686.324	106.626	-0.071	-0.085
-685.310	21.970	-0.165	-0.136
-684.295	800.000	0.067	-0.242
-683.281	-10.908	0.335	-0.224
-682.266	-200.000	-0.038	0.342
-681.251	-200.000	-0.080	0.353
-680.237	-140.092	0.139	-0.015
-679.222	-116.649	-0.254	-0.047
-678.208	-123.208	0.120	-0.019
-677.193	-111.558	-0.399	0.082
-676.178	221.126	0.097	-0.158
-675.164	354.786	-0.089	-0.180
-674.149	-138.747	-0.181	0.020
-673.135	800.000	0.061	-0.217
-672.120	115.790	-0.126	-0.156
-671.105	-200.000	0.017	-0.204
-670.091	15.900	-0.094	0.075
-669.076	177.421	0.122	-0.180
-668.062	390.085	-0.135	-0.283
-667.047	-30.804	0.100	-0.057
-666.032	0.053	-0.301	0.217
-665.018	-28.629	0.123	0.072
-664.003	-61.453	-0.291	0.124
-662.989	-112.332	-0.165	0.034
-661.974	-101.553	0.454	0.112
-660.959	-119.305	-0.319	0.056
-659.945	73.158	-0.335	-0.355
-658.930	-199.389	0.110	-0.001
-657.916	-174.920	0.224	0.006
-656.901	-67.030	0.368	0.147
-655.886	268.009	-0.158	-0.280
-654.872	292.795	-0.189	-0.349
-653.857	-40.503	-0.102	0.053
-652.843	-6.333	0.194	-0.134
-651.828	-48.920	0.331	0.160
-650.814	-41.067	0.250	-0.130
-649.799	-200.000	-0.044	-0.219
-648.784	56.959	-0.090	-0.088
-647.770	109.481	0.092	-0.111
-646.755	-200.000	0.033	0.177
-645.741	-108.449	0.314	0.068
-644.726	-136.088	0.261	-0.031
-643.711	4.479	-0.044	0.033
-642.697	44.675	-0.202	0.188
-641.682	-200.000	-0.296	0.000
-640.668	-91.680	-0.267	-0.077
-639.653	-200.000	-0.017	-0.108
-638.638	-200.000	0.047	-0.227
-637.624	-200.000	0.015	-0.388
-636.609	12.379	-0.335	0.261
-635.595	-4.495	-0.091	0.063
-634.580	-117.641	0.300	0.055
-633.565	120.747	-0.293	0.369
-632.551	-69.954	-0.019	-0.007
-631.536	-200.000	0.017	0.269
-630.522	800.000	0.114	0.332
-629.507	800.000	-0.038	0.148
-628.492	800.000	0.118	-0.349
-627.478	-200.000	0.036	0.170
-626.463	141.977	-0.094	-0.126
-625.449	75.093	-0.100	-0.107
-624.434	-11.484	-0.260	0.173
-623.419	57.876	0.237	0.234
-622.405	40.679	-0.114	-0.104
-621.390	-135.571	-0.149	-0.018
-620.376	-200.000	0.027	-0.132
-619.361	-14.967	0.084	-0.054
-618.346	-10.869	0.171	0.114
-617.332	-5.869	-0.334	-0.231
-616.317	-74.894	0.271	-0.098
-615.303	107.030	0.111	0.133
-614.288	-137.114	0.194	0.022
-613.273	21.517	-0.217	-0.178
-612.259	-74.013	0.216	0.079
-611.244	-17.433	0.153	0.097
-610.230	318.914	0.008	0.015
-609.215	156.243	0.217	-0.302
-608.201	53.789	0.365	0.354
-607.186	616.252	-0.158	0.400
-606.171	-12.264	0.332	0.219
-605.157	-101.852	0.276	0.067
-604.142	279.037	-0.093	-0.167
-603.128	337.833	0.032	0.062
-602.113	-93.784	-0.240	-0.067
-601.098	98.215	-0.205	0.238
-600.084	-118.802	-0.018	0.003
-599.069	30.291	-0.144	-0.124
-598.055	180.941	0.109	-0.162
-597.040	-200.000	-0.353	0.002
-596.025	-200.000	0.033	0.159
-595.011	158.366	0.166	0.233
-593.996	21.101	0.016	-0.013
-592.982	-43.672	0.263	0.134
-591.967	-200.000	-0.000	0.111
-590.952	428.628	0.159	0.347
-589.938	-149.523	0.065	-0.005
-588.923	-118.627	-0.256	-0.046
-587.909	694.938	-0.023	0.061
-586.894	-200.000	-0.001	-0.194
-585.879	162.202	-0.032	0.045
-584.865	170.183	-0.145	0.209
-583.850	194.181	0.033	-0.050
-582.836	125.640	-0.223	-0.284
-581.821	-189.153	0.149	0.002
-580.806	-112.772	0.267	0.053
-579.792	-44.124	-0.253	0.128
-578.777	-200.000	-0.007	-0.107
-577.763	-76.811	-0.268	0.095
-576.748	-137.857	-0.113	0.013
-575.733	162.011	-0.177	0.249
-574.719	-123.772	0.185	-0.030
-573.704	-173.701	0.163	0.005
-572.690	65.347	-0.222	-0.227
-571.675	-57.320	0.163	0.072
-570.661	-200.000	0.048	-0.258
-569.646	-153.652	-0.446	-0.031
-568.631	-200.000	0.012	-0.078
-567.617	-200.000	-0.032	-0.299
-566.602	119.496	0.161	-0.201
-565.588	800.000	-0.068	0.288
-564.573	-200.000	-0.018	-0.223
-563.558	161.296	-0.251	0.354
-562.544	80.596	-0.108	-0.118
-561.529	-124.038	-0.192	-0.030
-560.515	249.508	-0.050	0.086
-559.500	-200.000	-0.007	0.137
-558.485	222.875	-0.224	0.364
-557.471	745.085	-0.113	0.306
-556.456	-156.102	0.145	-0.009
-555.442	383.008	0.106	-0.221
-554.427	15.162	-0.156	-0.123
-553.412	-57.050	-0.125	-0.055
-552.398	-53.052	0.147	0.068
-551.383	473.772	0.024	0.054
-550.369	-88.079	-0.121	-0.036
-549.354	91.395	-0.163	-0.184
-548.339	800.000	0.069	0.225
-547.325	148.013	0.039	-0.054
-546.310	121.374	-0.114	-0.143
-545.296	99.037	0.140	-0.163
-544.281	766.811	0.075	-0.204
-543.266	-61.733	-0.152	0.064
-542.252	-98.584	0.081	-0.021
-541.237	202.692	0.067	-0.104
-540.223	657.061	-0.065	0.169
-539.208	-200.000	-0.041	-0.220
-538.193	155.440	0.199	-0.276
-537.179	-67.920	0.170	-0.067
-536.164	-111.911	-0.220	0.045
-535.150	180.738	-0.195	0.289
-534.135	-102.443	-0.401	0.097
-533.121	-147.277	0.144	0.012
-532.106	-200.000	0.003	-0.136
-531.091	-200.000	0.011	0.198
-530.077	202.315	0.118	0.184
-529.062	-61.342	-0.114	-0.048
-528.048	-200.000	0.030	-0.258
-527.033	-200.000	0.001	-0.120
-526.018	800.000	0.078	-0.316
-525.004	-44.826	0.469	0.235
-523.989	-54.492	-0.122	0.055
-522.975	49.245	-0.225	-0.213
-521.960	-120.246	-0.036	-0.006
-520.945	-101.838	0.021	-0.005
-519.931	137.697	-0.140	-0.184
-518.916	27.859	0.085	0.072
-517.902	2.535	-0.079	-0.057
-516.887	-55.448	0.104	-0.047
-515.872	-31.537	0.099	0.056
-514.858	309.671	0.194	0.364
-513.843	-8.908	-0.163	0.110
-512.829	-71.332	0.362	-0.137
-511.814	-200.000	-0.007	0.078
-510.799	316.260	0.089	-0.170
-509.785	-200.000	-0.055	-0.546
-508.770	-108.322	0.249	0.054
-507.756	800.000	0.111	-0.317
-506.741	172.756	0.064	0.093
-505.726	279.644	-0.056	-0.101
-504.712	132.147	0.150	-0.195
-503.697	-200.000	-0.033	0.278
-502.683	-200.000	-0.008	0.140
-501.668	643.554	-0.103	-0.265
-500.653	-118.261	-0.312	-0.056
-499.639	800.000	0.017	-0.061
-498.624	1.288	0.197	0.142
-497.610	272.346	-0.161	-0.285
-496.595	61.441	0.154	0.154
-495.581	-200.000	0.028	0.484
-494.566	112.950	-0.048	-0.059
-493.551	524.248	-0.099	0.235
-492.537	-132.714	-0.234	-0.030
-491.522	-19.787	0.195	0.121
-490.508	100.382	0.287	-0.335
-489.493	-114.466	-0.462	-0.089
-488.478	416.209	0.141	-0.303
-487.464	800.000	0.062	-0.221
-486.449	-24.837	0.132	0.079
-485.435	104.978	0.191	0.227
-484.420	113.031	0.299	0.364
-483.405	-200.000	-0.014	0.155
-482.391	409.343	0.191	-0.407
-481.376	-11.244	0.290	-0.192
-480.362	46.913	0.268	0.250
-479.347	-156.286	0.127	0.008
-478.332	119.600	-0.297	-0.369
-477.318	-81.665	-0.214	0.071
-476.303	375.901	0.037	0.076
-475.289	-200.000	0.007	0.099
-474.274	-200.000	-0.058	-0.277
-473.259	-29.021	-0.117	-0.068
-472.245	30.330	-0.107	0.092
-471.230	286.802	-0.053	-0.096
-470.216	-99.282	-0.175	0.044
-469.201	-200.000	0.009	-0.170
-468.186	-200.000	-0.037	0.423
-467.172	-35.987	0.272	0.148
-466.157	-195.692	-0.471	0.003
-465.143	-143.052	0.364	-0.035
-464.128	-108.546	0.207	0.045
-463.113	-37.425	-0.230	0.123
-462.099	511.885	0.043	-0.102
-461.084	-197.232	0.462	0.003
-460.070	-200.000	-0.019	0.259
-459.055	276.992	0.053	0.094
-458.040	229.441	-0.034	-0.056
-457.026	481.255	-0.076	0.173
-456.011	-90.230	-0.617	0.180
-454.997	800.000	-0.040	-0.138
-453.982	-200.000	-0.032	-0.237
-452.968	10.161	-0.068	0.052
-451.953	138.353	-0.160	-0.210
-450.938	111.091	-0.158	0.191
-449.924	266.872	-0.069	0.121
-448.909	126.877	-0.095	0.121
-447.895	800.000	-0.093	0.297
-446.880	69.727	0.200	0.207
-445.865	-125.673	-0.148	-0.023
-444.851	-200.000	0.068	-0.369
-443.836	307.847	0.031	-0.058
-442.822	-200.000	-0.024	-0.314
-441.807	82.686	-0.085	-0.092
-440.792	-20.187	0.165	0.102
-439.778	-21.376	-0.319	0.195
-438.763	-52.422	0.302	0.140
-437.749	282.156	-0.130	0.233
-436.734	-12.554	-0.094	-0.062
-435.719	800.000	0.040	-0.163
-434.705	17.394	0.318	-0.253
-433.690	800.000	0.089	0.251
-432.676	-143.282	-0.140	0.013
-431.661	800.000	0.034	0.134
-430.646	34.403	-0.294	-0.257
-429.632	73.403	-0.115	-0.121
-428.617	-200.000	-0.030	0.300
-427.603	-200.000	0.005	0.197
-426.588	259.210	0.059	-0.102
-425.573	128.152	0.099	0.126
-424.559	312.246	0.074	-0.138
-423.544	-99.952	0.242	0.060
-422.530	-113.812	0.218	-0.043
-421.515	-147.738	0.321	0.027
-420.500	800.000	0.124	0.443
-419.486	-5.985	-0.170	0.117
-418.471	-200.000	-0.004	0.056
-417.457	-136.541	0.270	-0.031
-416.442	-60.063	0.241	-0.103
-415.428	66.784	-0.248	0.252
-414.413	-200.000	-0.053	0.238
-413.398	347.534	-0.029	0.058
-412.384	-200.000	0.028	-0.172
-411.369	800.000	0.059	0.198
-410.355	-90.419	-0.425	0.123
-409.340	-200.000	0.017	-0.296
-408.325	-96.938	0.075	0.020
-407.311	-45.691	0.394	0.195
-406.296	-10.569	-0.361	0.239
-405.282	733.852	-0.107	0.286
-404.267	-74.470	0.333	-0.120
-403.252	-200.000	-0.004	-0.163
-402.238	237.603	-0.139	-0.231
-401.223	-131.889	0.039	0.005
-400.209	42.870	-0.107	-0.098
-399.194	-200.000	-0.001	0.148
-398.179	-200.000	-0.003	-0.108
-397.165	546.596	0.159	-0.382
-396.150	-71.839	-0.098	0.036
-395.136	-82.089	0.126	-0.041
-394.121	365.138	0.058	-0.117
-393.106	123.867	-0.193	0.242
-392.092	354.311	0.025	0.050
-391.077	-148.684	0.111	-0.009
-390.063	557.312	-0.184	-0.444
-389.048	800.000	-0.108	-0.323
-388.033	-94.566	0.403	0.110
-387.019	-159.141	-0.270	-0.015
-386.004	-14.243	-0.247	-0.159
-384.990	-121.993	0.316	-0.052
-383.975	-46.923	-0.368	-0.180
-382.960	-185.905	0.129	-0.002
-381.946	-56.327	-0.141	0.063
-380.931	301.883	0.096	-0.177
-379.917	105.642	-0.112	-0.132
-378.902	-193.379	-0.137	0.001
-377.888	40.387	-0.068	0.061
-376.873	21.426	-0.084	-0.068
-375.858	-200.000	0.030	-0.154
-374.844	-178.953	0.217	0.005
-373.829	800.000	-0.036	-0.107
-372.815	143.262	-0.190	0.253
-371.800	-200.000	-0.018	0.183
-370.785	-54.367	-0.139	0.063
-369.771	150.485	-0.169	-0.230
-368.756	-14.555	-0.129	0.083
-367.742	-138.722	0.172	0.019
-366.727	800.000	0.055	-0.182
-365.712	-200.000	-0.013	0.064
-364.698	-172.358	0.144	0.005
-363.683	-1.296	0.154	-0.109
-362.669	-200.000	0.015	0.583
-361.654	-109.969	-0.020	0.004
-360.639	-131.577	-0.248	0.033
-359.625	800.000	0.069	-0.251
-358.610	800.000	-0.085	-0.325
-357.596	-100.901	0.229	0.056
-356.581	-163.996	-0.236	0.011
-355.566	-94.487	-0.070	-0.019
-354.552	800.000	-0.029	0.104
-353.537	-200.000	-0.010	0.229
-352.523	48.816	-0.145	-0.136
-351.508	-32.839	0.193	0.107
-350.493	-146.246	-0.115	0.010
-349.479	54.234	-0.126	0.121
-348.464	18.733	-0.127	-0.102
-347.450	-200.000	-0.035	-0.258
-346.435	-117.704	-0.405	0.073
-345.420	-200.000	-0.006	-0.185
-344.406	629.035	0.067	-0.170
-343.391	-109.594	-0.462	0.097
-342.377	713.027	0.090	-0.238
-341.362	11.860	0.161	0.124
-340.348	-79.444	0.298	-0.101
-339.333	-164.135	-0.292	0.013
-338.318	638.941	-0.217	-0.551
-337.304	-200.000	-0.027	-0.175
-336.289	-153.036	0.175	0.012
-335.275	128.514	-0.090	-0.114
-334.260	-95.328	0.322	-0.086
-333.245	21.658	-0.238	0.194
-332.231	774.952	0.054	0.148
-331.216	-140.172	0.367	0.039
-330.202	165.096	-0.076	0.107
-329.187	-166.503	-0.344	0.014
-328.172	800.000	-0.016	-0.047
-327.158	469.675	-0.105	0.236
-326.143	-141.008	0.124	-0.013
-325.129	800.000	-0.077	0.338
-324.114	-200.000	-0.117	-0.514
-323.099	13.663	0.156	-0.121
-322.085	800.000	0.049	0.153
-321.070	232.022	-0.053	-0.087
-320.056	-200.000	0.019	-0.130
-319.041	-150.142	-0.117	-0.009
-318.026	-59.229	0.120	-0.052
-317.012	800.000	0.088	-0.311
-315.997	116.791	-0.041	-0.050
-314.983	87.823	-0.280	-0.310
-313.968	-143.092	0.271	0.026
-312.953	-200.000	-0.004	0.108
-311.939	800.000	0.023	-0.071
-310.924	152.650	-0.172	0.234
-309.910	-62.252	-0.185	0.077
-308.895	301.792	-0.060	0.110
-307.880	-200.000	0.000	-0.074
-306.866	14.472	0.123	-0.096
-305.851	-200.000	0.086	-0.390
-304.837	315.048	-0.090	-0.169
-303.822	97.940	-0.278	0.319
-302.807	16.690	0.070	-0.055
-301.793	800.000	-0.066	0.210
-300.778	91.235	0.226	0.253
-299.764	-166.265	0.018	0.001
-298.749	-106.321	0.179	-0.040
-297.735	-200.000	0.013	-0.083
-296.720	-200.000	-0.013	-0.108
-295.705	-58.303	0.189	-0.082
-294.691	346.597	0.086	0.169
-293.676	162.935	0.281	-0.394
-292.662	-113.021	-0.191	0.038
-291.647	-38.121	0.215	-0.114
-290.632	-200.000	0.008	-0.087
-289.618	34.749	-0.117	-0.102
-288.603	-71.729	0.065	-0.024
-287.589	310.933	0.089	-0.166
-286.574	-73.797	0.242	0.088
-285.559	134.767	0.083	-0.108
-284.545	-80.783	0.303	0.100
-283.530	11.338	0.217	0.166
-282.516	370.451	0.066	0.134
-281.501	-200.000	0.006	-0.296
-280.486	165.529	0.113	0.159
-279.472	-200.000	-0.045	0.226
-278.457	-3.714	0.262	0.182
-277.443	-10.401	-0.151	0.099
-276.428	800.000	-0.054	-0.212
-275.413	-200.000	-0.013	-0.157
-274.399	529.840	-0.090	0.212
-273.384	-157.086	0.259	-0.016
-272.370	49.887	-0.134	0.126
-271.355	-200.000	0.033	0.198
-270.340	-13.074	-0.144	0.093
-269.326	120.172	0.300	0.371
-268.311	86.904	-0.162	0.178
-267.297	115.005	-0.259	0.314
-266.282	260.112	0.023	-0.039
-265.267	-142.105	-0.437	-0.043
-264.253	-69.659	-0.112	0.043
-263.238	603.280	-0.114	0.283
-262.224	-53.915	0.064	-0.029
-261.209	371.327	-0.061	-0.124
-260.195	-200.000	0.008	0.262
-259.180	800.000	0.027	0.081
-258.165	-200.000	0.049	-0.322
-257.151	67.092	-0.092	-0.093
-256.136	168.612	-0.127	0.181
-255.122	-26.611	0.187	0.109
-254.107	770.285	-0.022	-0.059
-253.092	800.000	0.059	0.241
-252.078	-128.719	0.096	0.013
-251.063	-77.605	0.134	-0.046
-250.049	16.883	0.193	-0.152
-249.034	-40.880	-0.115	0.059
-248.019	-12.937	-0.276	0.179
-247.005	-117.971	-0.333	-0.059
-245.990	152.049	-0.091	0.123
-244.976	-107.519	0.388	0.085
-243.961	-95.312	-0.188	-0.050
-242.946	-13.932	-0.147	0.094
-241.932	-175.507	-0.054	0.001
-240.917	-200.000	0.038	-0.243
-239.903	2.147	0.170	-0.122
-238.888	-75.932	0.303	0.107
-237.873	176.194	0.137	-0.198
-236.859	75.535	-0.159	-0.167
-235.844	-117.556	-0.091	0.016
-234.830	800.000	-0.095	-0.348
-233.815	-57.716	-0.123	-0.054
-232.800	-6.975	-0.132	-0.090
-231.786	-200.000	-0.001	-0.179
-230.771	217.270	-0.018	-0.029
-229.757	-168.647	0.024	-0.001
-228.742	-17.148	0.223	0.140
-227.727	-200.000	0.007	0.065
-226.713	-200.000	0.021	0.148
-225.698	-200.000	-0.060	0.501
-224.684	-200.000	-0.003	-0.053
-223.669	286.977	0.112	-0.202
-222.655	-133.217	0.143	0.018
-221.640	420.016	0.143	-0.305
-220.625	800.000	0.058	0.209
-219.611	96.483	0.166	0.189
-218.596	715.700	0.109	-0.289
-217.582	-200.000	-0.029	-0.485
-216.567	-200.000	-0.000	-0.160
-215.552	-79.340	0.232	0.078
-214.538	-200.000	-0.137	0.667
-213.523	-103.053	0.266	-0.063
-212.509	14.530	0.308	-0.239
-211.494	-200.000	-0.000	0.060
-210.479	327.273	-0.116	-0.221
-209.465	81.112	-0.125	0.134
-208.450	-12.231	0.093	-0.061
-207.436	151.667	-0.138	0.187
-206.421	-200.000	-0.007	0.314
-205.406	108.209	0.134	0.159
-204.392	47.254	0.204	-0.189
-203.377	-26.792	-0.067	0.039
-202.363	-48.363	-0.147	-0.070
-201.348	-35.249	-0.293	0.159
-200.333	-200.000	0.022	-0.286
-199.319	328.213	-0.098	-0.188
-198.304	250.529	-0.162	-0.273
-197.290	632.624	-0.113	-0.284
-196.275	52.796	0.046	-0.043
-195.260	-133.149	0.321	-0.040
-194.246	-62.865	-0.259	-0.107
-193.231	138.835	0.165	0.216
-192.217	-130.771	-0.370	-0.049
-191.202	800.000	-0.023	0.075
-190.187	136.853	-0.084	-0.109
-189.173	401.761	-0.107	0.224
-188.158	-200.000	-0.060	-0.260
-187.144	800.000	-0.123	0.353
-186.129	334.936	0.068	0.131
-185.114	-200.000	0.003	0.066
-184.100	291.646	0.080	-0.145
-183.085	-116.053	0.520	0.096
-182.071	156.426	-0.203	0.279
-181.056	-85.493	0.381	0.118
-180.042	-200.000	0.003	0.053
-179.027	800.000	0.030	-0.101
-178.012	-58.635	0.286	0.123
-176.998	73.420	0.034	0.036
-175.983	16.717	-0.156	0.122
-174.969	790.031	0.162	0.442
-173.954	-157.037	-0.496	-0.030
-172.939	201.255	0.198	0.302
-171.925	-200.000	0.007	-0.121
-170.910	227.914	0.057	-0.092
-169.896	-42.485	-0.251	-0.127
-168.881	-200.000	-0.016	-0.260
-167.866	582.482	0.125	0.305
-166.852	193.581	0.214	0.322
-165.837	35.031	-0.049	0.043
-164.823	83.446	0.079	-0.085
-163.808	61.284	0.175	-0.173
-162.793	-200.000	0.005	0.062
-161.779	800.000	0.009	0.026
-160.764	-189.858	-0.212	-0.002
-159.750	405.163	-0.014	-0.029
-158.735	-0.733	-0.067	0.047
-157.720	176.007	0.115	0.166
-156.706	33.576	0.169	-0.145
-155.691	70.122	0.145	-0.148
-154.677	164.997	0.157	-0.219
-153.662	800.000	-0.189	-0.595
-152.647	12.049	0.209	-0.160
-151.633	-158.517	-0.060	0.003
-150.618	321.554	-0.140	-0.265
-149.604	800.000	0.093	0.259
-148.589	-115.155	-0.179	0.034
-147.574	-59.604	-0.138	-0.059
-146.560	-200.000	-0.013	0.188
-145.545	-200.000	0.027	-0.256
-144.531	-94.988	0.445	-0.119
-143.516	77.826	-0.226	0.239
-142.502	179.399	-0.070	-0.102
-141.487	800.000	0.043	0.179
-140.472	-58.788	0.562	-0.241
-139.458	-200.000	-0.001	0.063
-138.443	-35.648	0.170	-0.091
-137.429	188.205	-0.169	-0.251
-136.414	-127.100	0.142	0.021
-135.399	800.000	-0.014	-0.057
-134.385	-200.000	0.010	0.231
-133.370	54.063	0.017	0.016
-132.356	-200.000	-0.011	0.340
-131.341	-7.429	0.324	0.217
-130.326	-122.922	-0.222	0.035
-129.312	-200.000	0.024	0.162
-128.297	358.265	0.074	-0.146
-127.283	-35.715	0.113	0.061
-126.268	297.374	0.116	-0.211
-125.253	-89.895	0.261	-0.076
-124.239	43.310	-0.147	0.133
-123.224	-200.000	0.022	-0.150
