DTS Sentinel unit serial number:	SN413079Multiplexer serial number:	ORYXHardware model number:	OX4-SRSoftware version number:	ORYX F/W v4.00 Oryx Data Collector v3.7.2.0data status	okinstallation	princeton_trtdifferential loss correction	single-endedforward channel	channel 4reverse channel	N/Adate	2019/09/14time	20:25:35forward acquisition time	60.00reverse acquisition time	0.00gamma	496.2192k internal	0.2306k external	0.2306temperature offset calibration	1.0090default loss term (dB/km)	0.3790temperature slope calibration	1.0000multiplexer offset coefficient	1.0000multiplexer slope coefficient	1.0000fibre end	0.00T internal ref (°C)	33.62T ext. ref 1 (°C)	4.85T ext. ref 2 (°C)	28.20length (m)	temperature (°C)	Stokes	anti-Stokes-747.200	25.097	-0.226	-0.191
-746.185	-48.897	-0.429	0.209
-745.171	20.157	0.089	0.073
-744.156	-73.165	-0.340	0.127
-743.142	-40.550	0.364	0.192
-742.127	171.538	0.317	0.462
-741.112	-99.512	-0.147	0.038
-740.098	-190.887	-0.307	0.003
-739.083	19.143	-0.257	-0.210
-738.069	-200.000	-0.003	0.305
-737.054	479.693	-0.147	0.340
-736.039	-200.000	-0.034	0.163
-735.025	70.046	0.200	-0.210
-734.010	-20.065	0.025	-0.016
-732.996	7.556	0.135	-0.103
-731.981	-200.000	0.028	-0.125
-730.966	579.371	-0.106	-0.264
-729.952	-200.000	-0.040	-0.270
-728.937	-200.000	-0.024	0.126
-727.923	-179.001	-0.025	-0.001
-726.908	-200.000	-0.047	0.293
-725.894	-62.077	-0.016	0.007
-724.879	400.299	0.162	-0.345
-723.864	36.585	-0.152	0.136
-722.850	326.453	0.180	0.351
-721.835	800.000	-0.103	-0.309
-720.821	-106.997	-0.311	-0.070
-719.806	-127.346	0.497	0.074
-718.791	-198.987	-0.184	-0.001
-717.777	-139.333	0.083	0.009
-716.762	38.267	-0.196	-0.177
-715.748	53.958	-0.334	0.326
-714.733	84.474	0.154	-0.171
-713.718	-77.567	0.143	-0.050
-712.704	-9.475	-0.185	-0.126
-711.689	219.492	-0.090	-0.147
-710.675	134.364	0.145	-0.191
-709.660	-8.331	-0.100	-0.069
-708.645	-200.000	0.020	-0.318
-707.631	-41.987	0.181	-0.094
-706.616	-200.000	0.047	-0.250
-705.602	800.000	0.046	0.167
-704.587	-200.000	-0.026	-0.196
-703.572	-200.000	0.022	-0.109
-702.558	-200.000	0.015	-0.202
-701.543	185.982	-0.168	-0.254
-700.529	95.369	-0.058	-0.067
-699.514	-105.285	-0.132	-0.031
-698.499	800.000	-0.018	-0.057
-697.485	652.737	0.113	0.293
-696.470	-33.703	-0.136	-0.076
-695.456	-98.134	-0.170	-0.044
-694.441	97.369	-0.099	-0.115
-693.426	369.953	-0.206	0.424
-692.412	459.903	0.080	0.182
-691.397	-200.000	0.043	-0.229
-690.383	164.354	-0.268	-0.384
-689.368	113.387	0.183	-0.225
-688.354	132.130	-0.189	-0.247
-687.339	800.000	0.062	-0.244
-686.324	781.871	0.051	-0.142
-685.310	-200.000	-0.013	-0.301
-684.295	239.142	0.054	0.091
-683.281	-58.552	0.072	0.032
-682.266	-181.284	-0.095	-0.002
-681.251	23.931	-0.093	0.078
-680.237	556.680	-0.140	-0.342
-679.222	169.666	0.247	-0.358
-678.208	394.251	0.071	0.150
-677.193	318.057	-0.107	0.205
-676.178	98.294	-0.248	0.290
-675.164	455.942	-0.173	-0.390
-674.149	-120.244	-0.221	0.038
-673.135	16.997	-0.060	-0.048
-672.120	-148.506	0.388	0.032
-671.105	197.327	0.116	0.179
-670.091	291.787	0.086	-0.158
-669.076	315.114	0.215	-0.411
-668.062	800.000	0.057	0.192
-667.047	-104.865	-0.323	0.075
-666.032	-200.000	-0.039	0.318
-665.018	-46.133	0.092	0.046
-664.003	65.162	0.085	0.087
-662.989	800.000	0.021	0.083
-661.974	-70.038	0.053	0.020
-660.959	276.174	0.080	-0.143
-659.945	800.000	-0.044	-0.157
-658.930	-92.940	0.190	-0.054
-657.916	66.926	0.186	-0.192
-656.901	323.245	-0.097	-0.187
-655.886	-200.000	0.063	-0.329
-654.872	381.231	0.053	-0.110
-653.857	205.181	0.253	0.399
-652.843	55.467	-0.089	-0.088
-651.828	800.000	0.125	0.362
-650.814	-37.614	0.303	-0.164
-649.799	800.000	0.028	0.123
-648.784	124.872	0.150	0.191
-647.770	-200.000	0.081	-0.370
-646.755	315.307	-0.227	-0.435
-645.741	327.616	-0.110	0.215
-644.726	123.876	-0.209	0.266
-643.711	77.599	0.250	-0.269
-642.697	-26.691	0.201	-0.119
-641.682	800.000	-0.006	0.018
-640.668	-63.985	-0.164	-0.068
-639.653	530.453	-0.070	-0.168
-638.638	-56.456	0.254	-0.114
-637.624	-130.105	-0.294	-0.041
-636.609	382.237	-0.182	-0.378
-635.595	46.158	-0.080	0.075
-634.580	103.761	0.156	0.186
-633.565	41.142	0.152	-0.139
-632.551	800.000	0.116	-0.360
-631.536	-17.746	-0.135	-0.086
-630.522	50.843	-0.210	-0.202
-629.507	78.329	-0.145	0.157
-628.492	53.245	0.231	-0.224
-627.478	-119.125	-0.245	0.043
-626.463	-200.000	0.029	-0.266
-625.449	463.057	-0.232	-0.525
-624.434	236.238	0.162	-0.271
-623.419	-14.124	-0.167	0.109
-622.405	-96.884	0.305	-0.081
-621.390	-18.939	-0.158	-0.099
-620.376	6.049	0.257	-0.193
-619.361	-128.641	-0.202	0.029
-618.346	45.691	-0.167	-0.156
-617.332	-146.375	0.211	0.019
-616.317	-66.770	-0.116	0.046
-615.303	32.847	0.066	0.057
-614.288	559.905	-0.063	-0.154
-613.273	192.462	0.102	-0.156
-612.259	-200.000	-0.001	0.071
-611.244	800.000	0.031	-0.128
-610.230	-200.000	0.005	-0.336
-609.215	-200.000	0.004	-0.220
-608.201	60.870	-0.233	0.234
-607.186	284.158	0.074	-0.135
-606.171	-122.875	-0.073	0.012
-605.157	-62.702	-0.246	0.103
-604.142	800.000	0.040	-0.112
-603.128	28.879	-0.244	-0.209
-602.113	-88.051	-0.104	-0.032
-601.098	-139.445	-0.280	-0.030
-600.084	800.000	-0.084	0.251
-599.069	720.283	-0.096	-0.257
-598.055	-100.559	-0.200	-0.050
-597.040	-200.000	-0.028	0.168
-596.025	-167.344	-0.325	0.013
-595.011	-141.432	0.253	-0.026
-593.996	-18.054	0.293	-0.186
-592.982	300.438	-0.057	0.106
-591.967	-200.000	-0.002	-0.227
-590.952	-137.560	-0.222	0.025
-589.938	-200.000	0.008	0.043
-588.923	188.208	-0.102	-0.154
-587.909	-200.000	-0.007	-0.432
-586.894	30.992	0.220	-0.191
-585.879	-200.000	0.023	-0.109
-584.865	35.705	-0.080	-0.071
-583.850	-140.614	0.245	0.026
-582.836	407.905	0.104	0.222
-581.821	388.930	0.059	-0.123
-580.806	-0.306	0.035	0.025
-579.792	-99.370	0.340	-0.087
-578.777	56.465	0.156	-0.153
-577.763	-200.000	0.058	-0.278
-576.748	44.714	0.107	0.099
-575.733	-200.000	0.006	0.046
-574.719	-200.000	-0.080	-0.559
-573.704	-80.110	-0.331	0.112
-572.690	192.920	-0.065	-0.100
-571.675	478.961	0.048	-0.110
-570.661	-7.536	-0.174	-0.119
-569.646	-89.263	-0.179	-0.053
-568.631	243.910	-0.210	0.356
-567.617	180.785	-0.210	-0.312
-566.602	-47.426	-0.138	0.068
-565.588	800.000	0.152	0.435
-564.573	-153.096	-0.236	0.017
-563.558	-200.000	-0.048	-0.307
-562.544	217.054	-0.145	-0.233
-561.529	-200.000	0.029	0.219
-560.515	-115.869	0.098	0.018
-559.500	490.700	0.075	0.173
-558.485	-200.000	-0.032	-0.229
-557.471	124.262	0.216	0.274
-556.456	-97.090	-0.136	0.036
-555.442	236.233	0.097	0.162
-554.427	-189.186	-0.109	-0.001
-553.412	480.111	-0.143	-0.326
-552.398	208.060	-0.099	-0.156
-551.383	203.595	0.087	0.136
-550.369	278.123	0.065	0.117
-549.354	29.073	0.102	0.088
-548.339	800.000	0.076	0.335
-547.325	187.781	-0.259	-0.390
-546.310	-84.209	-0.420	0.134
-545.296	-95.881	-0.179	0.048
-544.281	-81.184	-0.273	0.091
-543.266	-19.196	0.147	0.092
-542.252	298.533	-0.103	0.191
-541.237	-27.861	-0.132	-0.077
-540.223	190.398	-0.045	-0.068
-539.208	-189.027	0.120	-0.001
-538.193	444.038	0.108	-0.240
-537.179	-7.736	0.080	0.055
-536.164	64.703	0.133	-0.135
-535.150	-188.939	0.293	0.004
-534.135	-189.727	-0.268	-0.003
-533.121	-110.456	0.179	0.038
-532.106	-200.000	0.065	0.485
-531.091	312.445	-0.153	0.291
-530.077	52.432	-0.129	0.124
-529.062	800.000	-0.014	-0.047
-528.048	-200.000	0.057	0.370
-527.033	-79.912	0.031	-0.011
-526.018	-50.326	-0.185	0.088
-525.004	156.896	0.272	-0.379
-523.989	-41.478	0.257	-0.133
-522.975	-200.000	0.011	-0.257
-521.960	-19.727	0.098	0.061
-520.945	800.000	-0.040	0.136
-519.931	184.960	0.121	-0.180
-518.916	657.476	0.082	-0.211
-517.902	-156.876	0.340	-0.021
-516.887	-200.000	-0.004	-0.072
-515.872	-200.000	0.044	0.206
-514.858	-127.806	-0.150	0.022
-513.843	75.875	0.084	0.089
-512.829	-200.000	0.039	0.210
-511.814	-16.544	-0.178	-0.113
-510.799	-200.000	0.034	-0.196
-509.785	665.043	0.182	-0.474
-508.770	-136.028	0.017	-0.002
-507.756	-108.665	-0.173	-0.037
-506.741	800.000	0.032	0.127
-505.726	-123.491	0.434	-0.070
-504.712	266.101	0.171	0.301
-503.697	-81.331	-0.094	0.031
-502.683	26.864	0.135	-0.114
-501.668	3.470	0.059	-0.043
-500.653	395.731	-0.073	-0.153
-499.639	16.259	0.051	-0.041
-498.624	173.512	-0.030	0.044
-497.610	-114.139	0.285	-0.055
-496.595	196.923	-0.160	-0.245
-495.581	-200.000	-0.015	-0.375
-494.566	-99.872	-0.166	0.042
-493.551	-136.023	-0.219	0.026
-492.537	435.675	-0.066	-0.145
-491.522	268.925	-0.115	-0.202
-490.508	-200.000	0.037	0.183
-489.493	13.282	-0.182	-0.142
-488.478	-200.000	0.040	-0.347
-487.464	97.094	0.049	0.057
-486.449	-183.143	0.065	-0.001
-485.435	-93.266	-0.097	-0.027
-484.420	177.202	-0.156	0.229
-483.405	-108.896	0.121	0.026
-482.391	-200.000	0.004	0.441
-481.376	-111.997	0.070	0.014
-480.362	-3.321	0.342	0.240
-479.347	-200.000	0.010	0.158
-478.332	-187.544	-0.367	0.005
-477.318	-200.000	0.027	0.234
-476.303	-197.385	-0.191	0.001
-475.289	299.272	0.072	-0.133
-474.274	-200.000	-0.004	-0.106
-473.259	-200.000	0.025	-0.237
-472.245	557.501	0.105	-0.254
-471.230	68.622	-0.144	0.149
-470.216	82.861	0.360	0.394
-469.201	-84.903	0.081	0.026
-468.186	217.504	0.063	-0.100
-467.172	669.945	-0.062	0.160
-466.157	-87.772	0.185	0.056
-465.143	-23.958	0.051	0.031
-464.128	800.000	0.015	-0.047
-463.113	800.000	-0.042	0.126
-462.099	-33.696	0.227	-0.126
-461.084	-95.429	-0.229	0.062
-460.070	580.517	0.112	0.277
-459.055	800.000	-0.078	0.254
-458.040	-200.000	-0.025	-0.189
-457.026	800.000	0.073	-0.316
-456.011	-24.564	0.202	-0.121
-454.997	372.647	0.089	0.182
-453.982	-200.000	0.019	-0.229
-452.968	-82.910	0.190	0.062
-451.953	36.945	-0.138	0.123
-450.938	9.113	0.183	-0.139
-449.924	49.719	0.204	0.193
-448.909	-72.356	0.125	-0.047
-447.895	-20.144	-0.103	0.064
-446.880	-200.000	-0.014	-0.086
-445.865	-200.000	0.062	0.323
-444.851	-143.623	-0.186	-0.018
-443.836	-130.019	-0.060	-0.008
-442.822	101.044	0.094	-0.109
-441.807	180.005	-0.189	-0.278
-440.792	-55.647	0.169	-0.076
-439.778	-175.476	-0.465	-0.013
-438.763	-24.980	-0.364	0.217
-437.749	75.550	0.119	0.126
-436.734	-134.093	-0.359	0.045
-435.719	7.279	0.047	0.035
-434.705	30.367	0.072	0.062
-433.690	-99.013	0.300	-0.076
-432.676	471.077	0.124	0.281
-431.661	-151.231	0.239	0.018
-430.646	-94.779	-0.081	0.022
-429.632	22.040	-0.091	-0.074
-428.617	-54.487	0.245	-0.112
-427.603	81.989	0.358	0.389
-426.588	323.874	0.167	-0.320
-425.573	-200.000	0.050	0.429
-424.559	-200.000	0.010	0.126
-423.544	-55.340	-0.113	0.051
-422.530	800.000	0.075	0.291
-421.515	-100.717	-0.455	0.113
-420.500	623.484	-0.069	0.174
-419.486	514.263	-0.152	-0.357
-418.471	-176.951	-0.305	0.008
-417.457	112.257	-0.164	0.200
-416.442	13.050	0.033	0.026
-415.428	28.710	-0.233	-0.198
-414.413	32.197	0.123	0.106
-413.398	-57.941	-0.085	-0.037
-412.384	-200.000	0.017	-0.157
-411.369	-152.462	-0.081	0.006
-410.355	-200.000	-0.044	0.380
-409.340	-147.841	-0.182	-0.015
-408.325	-10.966	0.255	0.169
-407.311	18.686	0.207	-0.166
-406.296	-113.731	-0.124	-0.024
-405.282	800.000	-0.069	0.204
-404.267	800.000	0.072	0.215
-403.252	-2.374	-0.214	0.151
-402.238	800.000	0.074	0.324
-401.223	43.808	0.288	0.265
-400.209	-62.880	0.170	0.071
-399.194	488.109	0.048	-0.109
-398.179	98.751	0.083	-0.096
-397.165	-113.916	0.414	-0.081
-396.150	-17.763	0.049	0.031
-395.136	-158.943	0.120	0.007
-394.121	-147.848	-0.053	-0.004
-393.106	-108.001	0.257	-0.056
-392.092	113.285	0.123	-0.149
-391.077	-20.959	-0.438	0.269
-390.063	-99.631	-0.025	0.006
-389.048	270.513	0.060	0.105
-388.033	123.220	-0.139	-0.174
-387.019	6.395	-0.207	0.154
-386.004	121.715	0.316	0.396
-384.990	-200.000	-0.007	0.055
-383.975	-155.765	-0.197	0.013
-382.960	496.575	0.098	-0.225
-381.946	-200.000	-0.011	-0.246
-380.931	-17.400	-0.207	-0.131
-379.917	-59.549	-0.044	-0.019
-378.902	146.192	-0.106	-0.143
-377.888	244.987	0.145	0.245
-376.873	134.386	-0.256	0.333
-375.858	492.318	0.018	-0.040
-374.844	27.267	0.142	0.120
-373.829	241.764	0.168	0.282
-372.815	-101.646	-0.133	-0.032
-371.800	131.815	-0.332	-0.429
-370.785	46.489	0.144	0.134
-369.771	-44.638	0.339	-0.170
-368.756	348.465	0.184	-0.364
-367.742	-126.710	0.320	0.047
-366.727	-200.000	0.006	0.178
-365.712	800.000	0.043	-0.123
-364.698	-200.000	-0.013	0.441
-363.683	28.734	-0.288	-0.244
-362.669	-42.322	0.289	-0.148
-361.654	-40.479	0.323	0.168
-360.639	91.046	0.097	0.109
-359.625	-113.171	0.071	0.014
-358.610	-103.950	0.105	-0.024
-357.596	-48.364	-0.156	0.075
-356.581	70.132	-0.196	-0.203
-355.566	-159.058	0.105	0.006
-354.552	-183.645	-0.284	-0.005
-353.537	-109.350	-0.151	0.032
-352.523	-31.563	0.227	0.128
-351.508	40.826	0.189	0.171
-350.493	611.731	-0.120	-0.301
-349.479	-142.874	0.273	-0.027
-348.464	-106.543	0.305	0.068
-347.450	-22.823	-0.199	-0.121
-346.435	-146.353	0.180	0.016
-345.420	-21.655	0.146	0.089
-344.406	-96.432	-0.247	0.065
-343.391	-200.000	-0.065	-0.364
-342.377	-200.000	-0.022	-0.198
-341.362	5.580	-0.064	-0.047
-340.348	-200.000	-0.038	0.256
-339.333	800.000	0.054	0.171
-338.318	-37.174	-0.231	-0.124
-337.304	80.894	0.120	-0.130
-336.289	-200.000	0.028	0.316
-335.275	-200.000	0.026	0.330
-334.260	383.560	0.122	-0.251
-333.245	42.341	-0.062	-0.056
-332.231	-136.044	0.200	-0.024
-331.216	-1.647	-0.243	0.171
-330.202	800.000	0.063	0.223
-329.187	-64.974	0.100	0.041
-328.172	-8.685	-0.197	-0.132
-327.158	-125.908	-0.311	-0.047
-326.143	191.698	-0.176	-0.265
-325.129	-113.525	0.363	-0.071
-324.114	4.230	-0.120	-0.088
-323.099	-91.277	0.210	-0.060
-322.085	-66.628	0.246	0.098
-321.070	117.973	-0.221	0.272
-320.056	27.992	-0.405	0.342
-319.041	-110.707	0.313	-0.065
-318.026	-127.792	-0.202	0.029
-317.012	163.808	0.072	-0.101
-315.997	-113.445	-0.086	0.017
-314.983	-181.614	0.343	-0.007
-313.968	104.688	0.222	0.262
-312.953	-30.236	-0.155	-0.088
-311.939	-1.559	-0.207	-0.146
-310.924	122.999	-0.089	0.112
-309.910	116.232	0.111	-0.136
-308.895	-160.114	0.270	-0.015
-307.880	-158.325	0.147	-0.009
-306.866	-166.381	-0.219	0.009
-305.851	23.777	-0.171	0.141
-304.837	503.606	-0.091	0.210
-303.822	151.404	-0.124	-0.169
-302.807	-166.630	0.157	-0.007
-301.793	-165.564	0.123	0.005
-300.778	-101.164	-0.096	-0.024
-299.764	-200.000	0.024	-0.248
-298.749	91.568	0.176	-0.198
-297.735	26.479	-0.234	-0.196
-296.720	800.000	0.039	0.117
-295.705	-139.282	-0.404	0.043
-294.691	273.346	0.217	0.383
-293.676	19.425	-0.061	-0.049
-292.662	-134.495	0.085	0.010
-291.647	-12.546	0.217	0.141
-290.632	-158.431	-0.029	0.002
-289.618	-118.585	0.163	0.029
-288.603	-191.029	0.287	0.003
-287.589	-200.000	0.011	-0.077
-286.574	-54.490	0.302	0.137
-285.559	32.265	0.156	0.135
-284.545	222.794	0.079	-0.126
-283.530	-71.805	0.311	0.116
-282.516	-140.476	-0.190	0.020
-281.501	-29.206	0.389	0.223
-280.486	114.611	-0.067	0.082
-279.472	-84.457	0.356	-0.112
-278.457	-200.000	0.018	0.079
-277.443	15.242	0.091	0.071
-276.428	-61.179	-0.202	-0.085
-275.413	-118.375	-0.141	-0.025
-274.399	-200.000	-0.055	-0.267
-273.384	107.865	-0.124	0.148
-272.370	-109.670	-0.222	0.047
-271.355	-47.757	0.118	-0.057
-270.340	-52.715	0.024	0.011
-269.326	-167.058	-0.141	-0.006
-268.311	-58.263	0.106	0.046
-267.297	-60.249	-0.117	-0.050
-266.282	-128.433	-0.157	0.022
-265.267	-81.189	0.079	0.026
-264.253	-20.743	-0.147	0.090
-263.238	-105.358	0.251	0.057
-262.224	55.161	0.178	-0.172
-261.209	79.107	-0.138	-0.148
-260.195	-54.072	0.244	0.111
-259.180	284.633	-0.075	-0.136
-258.165	290.900	-0.084	0.153
-257.151	47.124	-0.276	0.256
-256.136	-72.968	-0.094	-0.034
-255.122	800.000	-0.092	0.372
-254.107	-92.945	-0.269	0.075
-253.092	49.055	-0.245	-0.230
-252.078	-84.662	0.322	0.101
-251.063	800.000	-0.125	0.406
-250.049	4.933	-0.141	0.104
-249.034	288.945	-0.113	0.205
-248.019	-81.081	-0.262	0.086
-247.005	264.964	-0.178	-0.310
-245.990	-95.011	-0.087	0.023
-244.976	773.315	-0.026	-0.071
-243.961	-125.277	-0.447	-0.068
-242.946	800.000	0.068	0.196
-241.932	-147.125	0.383	0.033
-240.917	-2.402	-0.146	0.102
-239.903	-47.775	-0.175	0.085
-238.888	-131.739	-0.371	0.049
-237.873	-21.432	0.095	-0.058
-236.859	623.179	0.048	-0.120
-235.844	800.000	0.074	-0.210
-234.830	-99.928	0.149	-0.037
-233.815	-3.066	-0.078	-0.054
-232.800	-98.400	0.270	-0.069
-231.786	388.072	-0.098	0.201
-230.771	348.141	-0.135	0.266
-229.757	-90.409	-0.120	0.035
-228.742	340.004	0.069	0.135
-227.727	162.774	0.131	0.183
-226.713	-40.873	-0.332	0.171
-225.698	-23.168	-0.329	0.198
-224.684	-97.831	-0.079	0.020
-223.669	-119.988	-0.288	-0.049
-222.655	620.409	0.044	-0.111
-221.640	-200.000	-0.027	0.127
-220.625	220.124	-0.102	-0.164
-219.611	172.188	0.124	-0.178
-218.596	-137.688	-0.166	0.019
-217.582	-23.419	0.305	0.183
-216.567	-200.000	0.007	0.116
-215.552	783.150	-0.042	0.113
-214.538	326.089	-0.087	-0.167
-213.523	-159.655	0.500	-0.028
-212.509	0.970	0.193	-0.138
-211.494	-70.110	-0.151	-0.057
-210.479	109.167	0.023	0.027
-209.465	-200.000	-0.004	-0.090
-208.450	800.000	0.055	-0.177
-207.436	60.990	0.298	0.295
-206.421	117.477	0.070	0.086
-205.406	73.773	-0.082	-0.086
-204.392	-88.352	0.231	-0.069
-203.377	-200.000	0.026	0.218
-202.363	-200.000	-0.002	-0.055
-201.348	-200.000	0.029	-0.184
-200.333	27.475	0.093	0.078
-199.319	-88.459	0.233	0.069
-198.304	-94.222	0.174	0.047
-197.290	19.665	-0.283	-0.227
-196.275	800.000	-0.077	-0.240
-195.260	119.433	0.229	0.282
-194.246	-117.998	0.379	-0.067
-193.231	54.553	0.210	-0.201
-192.217	-200.000	-0.040	0.386
-191.202	148.257	-0.100	0.134
-190.187	-200.000	-0.034	0.174
-189.173	-119.090	-0.420	-0.073
-188.158	800.000	0.030	0.126
-187.144	-128.021	0.373	-0.053
-186.129	153.702	-0.131	0.178
-185.114	-1.116	-0.157	0.110
-184.100	-200.000	-0.015	0.078
-183.085	765.434	-0.014	-0.037
-182.071	-9.944	-0.217	-0.144
-181.056	196.537	0.053	-0.080
-180.042	38.455	0.149	0.133
-179.027	-200.000	-0.041	-0.335
-178.012	-52.289	-0.223	0.103
-176.998	-101.561	0.174	0.042
-175.983	-56.823	0.224	0.098
-174.969	-200.000	0.021	0.189
-173.954	-83.643	0.315	0.100
-172.939	32.511	0.289	-0.248
-171.925	-81.117	0.131	0.043
-170.910	-17.967	0.117	-0.073
-169.896	800.000	-0.115	-0.456
-168.881	109.974	-0.176	-0.210
-167.866	-200.000	-0.018	0.146
-166.852	51.248	-0.054	-0.051
-165.837	13.134	-0.290	0.223
-164.823	138.410	0.085	-0.111
-163.808	219.535	0.091	-0.145
-162.793	68.881	-0.108	-0.110
-161.779	204.295	-0.236	-0.363
-160.764	177.575	-0.145	0.210
-159.750	-200.000	0.058	0.255
-158.735	17.311	-0.253	-0.200
-157.720	179.840	0.213	0.310
-156.706	520.953	-0.121	-0.282
-155.691	-142.141	-0.353	0.035
-154.677	287.624	0.185	0.332
-153.662	2.690	0.146	-0.105
-152.647	-143.939	0.109	-0.010
-151.633	-32.579	-0.269	0.149
-150.618	-39.491	0.142	-0.074
-149.604	-83.089	-0.121	-0.039
-148.589	15.557	0.185	0.145
-147.574	-26.049	0.182	0.106
-146.560	193.325	-0.021	-0.032
-145.545	78.363	0.140	0.149
-144.531	118.056	-0.189	-0.231
-143.516	-200.000	0.003	0.158
-142.502	800.000	-0.018	0.052
-141.487	800.000	0.079	-0.228
-140.472	448.025	0.076	0.167
-139.458	-40.774	-0.310	0.160
-138.443	-200.000	0.006	0.056
-137.429	-7.241	-0.080	0.054
-136.414	26.099	-0.342	0.284
-135.399	56.339	-0.159	0.153
-134.385	-147.432	-0.035	-0.003
-133.370	-200.000	0.034	0.252
-132.356	-93.380	-0.104	0.029
-131.341	800.000	0.075	-0.254
-130.326	-200.000	-0.003	-0.148
-129.312	-200.000	-0.017	-0.214
-128.297	28.216	-0.137	-0.115
-127.283	-41.659	-0.244	-0.125
-126.268	41.604	-0.086	0.077
-125.253	-164.782	-0.127	0.006
-124.239	-0.415	-0.113	-0.080
-123.224	250.912	-0.021	0.035
-122.210	-38.275	-0.118	-0.062
-121.195	83.602	0.138	0.150
