DTS Sentinel unit serial number:	SN413079Multiplexer serial number:	ORYXHardware model number:	OX4-SRSoftware version number:	ORYX F/W v4.00 Oryx Data Collector v3.7.2.0data status	okinstallation	princeton_trtdifferential loss correction	single-endedforward channel	channel 4reverse channel	N/Adate	2019/09/11time	14:35:11forward acquisition time	60.00reverse acquisition time	0.00gamma	496.2192k internal	0.2280k external	0.2280temperature offset calibration	1.0006default loss term (dB/km)	0.3790temperature slope calibration	1.0000multiplexer offset coefficient	1.0000multiplexer slope coefficient	1.0000fibre end	0.00T internal ref (°C)	42.30T ext. ref 1 (°C)	0.91T ext. ref 2 (°C)	37.54length (m)	temperature (°C)	Stokes	anti-Stokes-747.200	156.311	0.101	0.144
-746.185	-168.393	0.163	-0.006
-745.171	203.327	0.153	-0.243
-744.156	-95.991	-0.255	0.070
-743.142	-49.370	0.241	0.118
-742.127	800.000	0.122	0.390
-741.112	-126.669	-0.148	-0.023
-740.098	-129.129	0.347	0.050
-739.083	-200.000	0.033	0.267
-738.069	-200.000	0.002	0.011
-737.054	374.727	0.054	-0.114
-736.039	217.292	-0.142	-0.233
-735.025	23.832	0.143	-0.121
-734.010	800.000	-0.030	-0.108
-732.996	-12.026	-0.537	-0.362
-731.981	-200.000	0.000	-0.145
-730.966	800.000	-0.061	-0.203
-729.952	-200.000	0.060	-0.474
-728.937	-76.360	-0.155	-0.056
-727.923	543.719	-0.127	-0.311
-726.908	102.076	0.131	0.157
-725.894	-76.057	0.126	0.046
-724.879	-31.942	-0.230	-0.132
-723.864	-135.972	-0.172	0.021
-722.850	-66.579	0.133	0.054
-721.835	-109.774	-0.320	0.069
-720.821	-95.794	0.257	0.071
-719.806	27.793	0.249	-0.215
-718.791	-96.297	0.074	-0.020
-717.777	-200.000	-0.037	-0.246
-716.762	-158.778	0.288	0.017
-715.748	800.000	0.018	0.072
-714.733	-80.240	0.233	0.080
-713.718	60.332	-0.118	-0.120
-712.704	-86.828	-0.263	-0.083
-711.689	208.540	-0.157	-0.252
-710.675	-3.245	0.057	-0.041
-709.660	800.000	0.050	-0.208
-708.645	-120.057	0.317	-0.056
-707.631	-200.000	-0.018	-0.083
-706.616	-88.415	0.081	0.025
-705.602	800.000	-0.040	0.157
-704.587	27.813	-0.141	0.122
-703.572	-106.247	0.106	-0.024
-702.558	-52.023	-0.358	-0.171
-701.543	-90.258	-0.266	-0.079
-700.529	40.919	0.109	-0.101
-699.514	-59.815	0.164	-0.072
-698.499	-133.447	-0.332	0.043
-697.485	-0.103	-0.020	-0.015
-696.470	311.045	0.136	0.262
-695.456	-27.320	0.042	0.025
-694.441	-159.843	-0.305	0.017
-693.426	69.776	-0.163	0.172
-692.412	-14.669	-0.342	-0.225
-691.397	18.844	-0.041	0.033
-690.383	4.251	-0.076	-0.057
-689.368	234.818	-0.056	0.095
-688.354	-30.448	-0.240	-0.140
-687.339	-200.000	0.014	-0.072
-686.324	146.670	-0.064	0.088
-685.310	25.424	-0.204	-0.174
-684.295	-103.980	-0.224	0.054
-683.281	228.528	-0.082	-0.137
-682.266	231.904	0.117	-0.197
-681.251	-154.961	-0.091	-0.006
-680.237	-200.000	0.029	-0.145
-679.222	64.821	0.136	-0.141
-678.208	-81.270	-0.208	0.070
-677.193	43.473	-0.143	0.134
-676.178	37.222	0.088	0.080
-675.164	-88.013	-0.202	0.062
-674.149	800.000	-0.040	-0.170
-673.135	-52.507	-0.064	0.030
-672.120	73.799	0.197	-0.212
-671.105	2.172	-0.167	-0.124
-670.091	800.000	0.161	-0.537
-669.076	800.000	0.033	-0.127
-668.062	-96.836	-0.166	-0.045
-667.047	-200.000	0.023	-0.354
-666.032	-200.000	-0.021	0.105
-665.018	-102.909	-0.165	0.040
-664.003	298.438	-0.148	0.279
-662.989	-200.000	-0.022	-0.176
-661.974	386.589	-0.118	0.250
-660.959	800.000	-0.033	0.117
-659.945	-200.000	-0.040	0.276
-658.930	116.203	0.254	-0.319
-657.916	800.000	-0.124	-0.385
-656.901	-104.503	0.340	0.081
-655.886	-160.814	-0.453	-0.025
-654.872	-200.000	0.045	-0.236
-653.857	90.878	0.124	0.142
-652.843	-36.858	-0.179	-0.098
-651.828	451.681	-0.041	0.094
-650.814	55.084	-0.104	0.103
-649.799	123.585	-0.136	-0.175
-648.784	12.696	0.181	0.143
-647.770	800.000	0.053	0.193
-646.755	220.936	0.115	-0.189
-645.741	-26.996	-0.470	-0.281
-644.726	47.231	0.043	0.041
-643.711	96.321	0.199	-0.233
-642.697	-56.902	-0.197	-0.089
-641.682	-6.006	-0.145	-0.102
-640.668	-133.133	0.232	-0.030
-639.653	295.472	-0.075	0.141
-638.638	133.567	0.172	0.228
-637.624	-200.000	-0.040	-0.344
-636.609	-54.638	0.020	-0.009
-635.595	-149.125	-0.126	-0.010
-634.580	-150.862	0.171	0.013
-633.565	106.226	0.024	0.029
-632.551	800.000	-0.073	-0.235
-631.536	-141.936	-0.226	0.023
-630.522	-200.000	0.052	-0.312
-629.507	608.414	0.042	0.107
-628.492	128.389	-0.073	0.095
-627.478	746.147	-0.077	-0.213
-626.463	283.059	-0.239	-0.439
-625.449	412.374	-0.054	-0.116
-624.434	595.137	0.015	0.038
-623.419	-200.000	0.006	0.098
-622.405	-104.666	-0.054	0.013
-621.390	-12.705	-0.297	-0.199
-620.376	-101.866	-0.158	0.039
-619.361	-17.369	-0.056	-0.036
-618.346	-20.596	-0.279	0.176
-617.332	-12.845	0.148	0.098
-616.317	-154.111	-0.125	0.009
-615.303	14.574	0.113	-0.091
-614.288	-200.000	0.043	-0.205
-613.273	503.632	0.089	0.211
-612.259	-200.000	0.039	0.470
-611.244	-162.861	0.123	0.006
-610.230	244.972	0.239	0.412
-609.215	-200.000	-0.038	0.313
-608.201	800.000	-0.082	0.250
-607.186	-200.000	0.011	-0.078
-606.171	123.842	0.032	-0.041
-605.157	-146.698	0.143	-0.013
-604.142	41.069	0.044	-0.040
-603.128	81.989	0.074	0.081
-602.113	5.560	-0.337	-0.254
-601.098	22.309	0.136	-0.114
-600.084	-38.142	0.249	-0.135
-599.069	270.042	-0.140	0.251
-598.055	800.000	0.112	-0.375
-597.040	-182.470	0.120	0.002
-596.025	416.904	0.128	-0.280
-595.011	-126.508	-0.260	0.040
-593.996	800.000	-0.094	-0.414
-592.982	302.304	0.071	-0.135
-591.967	645.349	-0.152	0.396
-590.952	-48.450	0.192	0.095
-589.938	800.000	-0.025	-0.090
-588.923	575.442	-0.100	0.250
-587.909	800.000	-0.045	0.188
-586.894	-35.025	0.166	-0.092
-585.879	-101.023	-0.320	0.080
-584.865	57.250	0.138	0.137
-583.850	-70.947	0.287	0.111
-582.836	-63.700	-0.216	0.091
-581.821	-52.168	-0.178	-0.085
-580.806	-38.429	-0.096	-0.052
-579.792	225.749	-0.193	-0.319
-578.777	800.000	0.057	-0.216
-577.763	692.594	0.035	0.093
-576.748	-81.575	-0.106	-0.035
-575.733	79.583	0.188	-0.206
-574.719	-99.583	0.346	0.089
-573.704	610.524	-0.059	0.151
-572.690	-10.560	0.109	0.074
-571.675	800.000	0.028	0.109
-570.661	-200.000	-0.012	-0.307
-569.646	-98.811	-0.081	0.021
-568.631	800.000	0.043	0.158
-567.617	-200.000	0.017	-0.185
-566.602	-83.800	0.249	0.081
-565.588	188.389	0.076	0.116
-564.573	-122.963	-0.215	-0.035
-563.558	77.371	0.196	0.213
-562.544	13.871	-0.377	-0.299
-561.529	-200.000	-0.024	-0.303
-560.515	-142.407	0.292	0.029
-559.500	-200.000	-0.015	0.081
-558.485	-200.000	0.031	0.150
-557.471	-123.331	0.244	-0.040
-556.456	-20.228	0.335	0.211
-555.442	-93.009	-0.156	0.044
-554.427	262.847	-0.023	0.040
-553.412	800.000	-0.045	0.160
-552.398	191.234	0.075	-0.115
-551.383	-50.784	-0.193	0.093
-550.369	-56.715	-0.132	0.060
-549.354	-200.000	0.038	0.184
-548.339	-37.257	-0.140	-0.077
-547.325	-200.000	0.011	0.078
-546.310	197.399	-0.167	-0.261
-545.296	-200.000	0.050	-0.366
-544.281	47.768	0.247	-0.236
-543.266	-154.456	-0.144	-0.010
-542.252	-200.000	-0.020	0.153
-541.237	-200.000	-0.031	0.155
-540.223	-200.000	-0.041	0.226
-539.208	-200.000	-0.010	-0.220
-538.193	211.400	0.116	0.187
-537.179	168.981	-0.107	-0.156
-536.164	132.314	-0.098	-0.129
-535.150	182.808	0.094	0.142
-534.135	107.301	0.165	0.200
-533.121	-140.347	0.141	-0.015
-532.106	776.679	0.018	-0.051
-531.091	-200.000	-0.014	0.258
-530.077	-22.295	-0.336	-0.208
-529.062	25.265	0.207	-0.176
-528.048	347.737	0.125	0.251
-527.033	508.921	0.098	0.232
-526.018	128.838	0.124	0.161
-525.004	17.165	-0.175	-0.141
-523.989	68.019	-0.057	0.059
-522.975	-42.662	0.343	-0.178
-521.960	-107.963	0.310	-0.069
-520.945	-200.000	-0.010	-0.270
-519.931	-200.000	0.021	0.096
-518.916	101.124	-0.049	0.058
-517.902	-105.018	-0.305	0.071
-516.887	193.218	-0.091	-0.141
-515.872	-2.225	-0.229	-0.164
-514.858	-33.817	-0.175	-0.098
-513.843	231.978	-0.123	-0.206
-512.829	246.660	0.133	0.229
-511.814	-86.411	-0.048	-0.015
-510.799	46.869	0.069	-0.065
-509.785	419.985	0.056	0.123
-508.770	83.778	0.071	0.079
-507.756	-126.362	0.311	-0.047
-506.741	-42.176	-0.245	0.128
-505.726	800.000	-0.038	0.140
-504.712	-80.668	0.177	0.060
-503.697	-146.955	-0.367	-0.032
-502.683	-79.442	0.300	0.103
-501.668	800.000	0.033	0.123
-500.653	-106.450	-0.203	-0.046
-499.639	26.817	0.197	-0.168
-498.624	800.000	-0.103	0.314
-497.610	800.000	-0.032	0.120
-496.595	396.858	0.087	0.186
-495.581	55.562	-0.187	-0.184
-494.566	384.288	0.096	0.201
-493.551	800.000	0.038	-0.165
-492.537	289.402	-0.045	-0.084
-491.522	-61.423	-0.216	-0.093
-490.508	-100.754	-0.217	0.055
-489.493	-71.526	-0.229	-0.087
-488.478	396.672	-0.080	-0.171
-487.464	-126.983	0.357	0.053
-486.449	-142.308	-0.288	0.029
-485.435	-25.943	-0.081	0.049
-484.420	-48.849	-0.211	-0.103
-483.405	9.149	-0.348	0.268
-482.391	487.762	-0.080	-0.187
-481.376	91.326	-0.270	-0.309
-480.362	77.755	0.258	0.280
-479.347	-116.626	0.126	-0.024
-478.332	698.884	0.120	0.322
-477.318	-162.334	-0.238	0.012
-476.303	-7.011	-0.122	0.084
-475.289	-120.362	-0.130	0.023
-474.274	632.469	0.129	0.334
-473.259	0.877	-0.084	-0.061
-472.245	800.000	0.106	0.314
-471.230	624.984	0.101	0.260
-470.216	-59.134	-0.014	0.006
-469.201	319.596	0.133	-0.257
-468.186	-13.639	-0.280	-0.184
-467.172	-200.000	-0.014	0.101
-466.157	152.837	-0.032	-0.044
-465.143	54.795	-0.048	-0.047
-464.128	800.000	0.075	-0.252
-463.113	800.000	0.030	0.085
-462.099	800.000	0.028	0.121
-461.084	-105.597	-0.072	-0.017
-460.070	-200.000	-0.030	-0.229
-459.055	-64.813	-0.379	0.156
-458.040	-133.225	-0.380	-0.049
-457.026	-143.612	-0.241	0.023
-456.011	55.205	0.164	-0.161
-454.997	155.539	-0.056	0.079
-453.982	13.437	-0.405	0.319
-452.968	394.994	0.162	0.345
-451.953	493.917	-0.044	-0.103
-450.938	-200.000	0.006	0.223
-449.924	-126.082	-0.069	0.011
-448.909	243.221	-0.140	-0.238
-447.895	800.000	0.025	-0.108
-446.880	150.847	-0.062	0.085
-445.865	125.345	0.184	-0.236
-444.851	-143.223	0.255	-0.025
-443.836	-104.052	-0.080	0.019
-442.822	-51.576	0.119	-0.057
-441.807	-84.294	-0.162	-0.052
-440.792	800.000	-0.068	0.192
-439.778	-69.345	0.254	0.099
-438.763	800.000	-0.012	-0.045
-437.749	1.185	-0.300	-0.219
-436.734	-106.024	0.260	-0.059
-435.719	231.347	0.080	0.133
-434.705	-36.219	0.483	0.265
-433.690	-200.000	0.012	0.363
-432.676	-200.000	-0.020	-0.092
-431.661	100.266	0.087	0.103
-430.646	-200.000	-0.023	0.305
-429.632	43.554	0.097	-0.090
-428.617	800.000	0.036	-0.122
-427.603	438.959	0.096	-0.214
-426.588	58.357	0.031	-0.030
-425.573	-200.000	-0.049	-0.300
-424.559	68.296	0.276	-0.288
-423.544	264.814	0.059	-0.104
-422.530	173.152	-0.027	0.040
-421.515	259.262	0.095	0.166
-420.500	27.183	-0.199	0.169
-419.486	-108.225	0.275	-0.060
-418.471	-5.638	-0.127	0.089
-417.457	-26.863	0.310	0.184
-416.442	-117.348	0.108	-0.020
-415.428	-109.739	0.213	-0.046
-414.413	800.000	0.025	-0.110
-413.398	152.687	-0.247	0.343
-412.384	0.660	0.171	0.124
-411.369	800.000	-0.032	0.091
-410.355	-200.000	-0.010	0.136
-409.340	-27.429	-0.134	-0.079
-408.325	-101.687	0.284	-0.070
-407.311	738.096	0.047	0.127
-406.296	-200.000	0.028	0.138
-405.282	93.921	0.039	-0.045
-404.267	800.000	0.068	-0.267
-403.252	724.905	-0.074	-0.200
-402.238	-153.073	-0.057	0.004
-401.223	-200.000	0.019	-0.125
-400.209	800.000	0.033	0.134
-399.194	-130.742	-0.092	0.013
-398.179	787.319	0.091	-0.255
-397.165	40.341	-0.181	0.165
-396.150	-23.434	-0.055	-0.033
-395.136	800.000	-0.069	0.206
-394.121	-70.380	-0.393	0.151
-393.106	-150.597	-0.127	-0.010
-392.092	104.886	0.137	-0.163
-391.077	57.046	0.225	-0.222
-390.063	236.478	0.047	0.079
-389.048	4.635	0.157	-0.117
-388.033	88.749	0.226	0.255
-387.019	-200.000	0.021	0.346
-386.004	-65.557	-0.266	-0.108
-384.990	-127.134	-0.113	-0.017
-383.975	48.645	-0.022	0.021
-382.960	-62.079	-0.142	0.060
-381.946	72.561	0.358	0.378
-380.931	-200.000	-0.056	-0.368
-379.917	-90.956	-0.155	0.045
-378.902	-59.304	0.138	0.060
-377.888	26.954	0.232	0.197
-376.873	-200.000	-0.037	0.391
-375.858	27.474	-0.168	0.144
-374.844	800.000	-0.006	0.019
-373.829	-200.000	-0.038	-0.172
-372.815	58.497	0.159	-0.158
-371.800	0.267	0.215	0.156
-370.785	-200.000	-0.046	-0.257
-369.771	472.465	-0.151	-0.345
-368.756	-45.944	0.139	-0.069
-367.742	-15.929	0.166	-0.107
-366.727	-3.353	-0.105	-0.074
-365.712	41.273	-0.184	-0.169
-364.698	-200.000	-0.011	0.062
-363.683	-95.246	0.327	-0.089
-362.669	800.000	-0.053	-0.166
-361.654	157.249	-0.135	0.190
-360.639	-8.525	0.169	0.115
-359.625	-148.087	-0.368	-0.031
-358.610	-52.358	-0.080	0.038
-357.596	-61.361	0.239	0.102
-356.581	72.764	0.099	0.105
-355.566	-110.012	-0.396	-0.084
-354.552	250.568	-0.084	0.145
-353.537	800.000	-0.059	-0.208
-352.523	-107.087	0.198	-0.044
-351.508	-156.420	0.188	0.012
-350.493	-200.000	-0.013	-0.159
-349.479	12.375	-0.143	0.111
-348.464	407.341	-0.097	-0.208
-347.450	251.171	-0.118	0.203
-346.435	43.412	-0.093	-0.086
-345.420	94.251	0.060	0.069
-344.406	-173.400	0.234	0.007
-343.391	82.477	-0.122	0.134
-342.377	504.471	-0.199	0.466
-341.362	-164.041	0.203	0.010
-340.348	-166.141	0.260	0.011
-339.333	114.955	0.348	0.430
-338.318	156.068	0.097	-0.136
-337.304	328.931	-0.116	-0.226
-336.289	51.858	0.050	-0.048
-335.275	23.111	0.094	-0.078
-334.260	69.175	0.208	-0.217
-333.245	219.602	-0.102	-0.166
-332.231	-200.000	0.001	-0.047
-331.216	191.614	0.232	0.354
-330.202	-36.783	0.048	0.026
-329.187	564.230	-0.115	0.283
-328.172	-81.231	0.217	-0.072
-327.158	149.202	0.243	0.333
-326.143	205.446	0.063	0.099
-325.129	373.859	-0.086	-0.177
-324.114	-126.807	-0.120	0.018
-323.099	800.000	-0.060	0.219
-322.085	283.381	0.174	-0.316
-321.070	-52.465	0.078	0.037
-320.056	800.000	0.132	0.488
-319.041	-105.184	-0.243	0.056
-318.026	-27.206	-0.170	0.100
-317.012	-200.000	-0.029	0.292
-315.997	44.702	0.150	0.139
-314.983	-64.395	-0.308	-0.127
-313.968	-40.397	-0.207	-0.109
-312.953	-108.292	0.240	-0.053
-311.939	135.920	0.040	-0.053
-310.924	11.864	-0.122	-0.094
-309.910	210.866	0.136	-0.217
-308.895	767.630	-0.150	0.413
-307.880	-40.550	0.194	-0.102
-306.866	-1.784	-0.253	-0.180
-305.851	141.435	-0.243	-0.326
-304.837	-58.242	0.148	-0.065
-303.822	-141.942	-0.165	0.017
-302.807	282.936	-0.080	0.145
-301.793	52.782	-0.176	0.170
-300.778	128.700	-0.032	-0.042
-299.764	800.000	0.049	0.165
-298.749	-162.384	0.194	-0.010
-297.735	-200.000	0.004	0.201
-296.720	-146.929	0.416	0.036
-295.705	-200.000	-0.025	0.321
-294.691	-61.628	-0.180	0.076
-293.676	-120.725	-0.314	0.054
-292.662	-172.053	-0.107	-0.004
-291.647	-180.955	0.032	0.001
-290.632	91.194	-0.049	0.056
-289.618	-169.039	-0.226	0.009
-288.603	336.071	-0.047	-0.093
-287.589	-82.327	0.250	-0.082
-286.574	-88.909	0.148	-0.044
-285.559	-110.508	0.364	0.076
-284.545	-200.000	-0.001	0.236
-283.530	-200.000	0.045	-0.274
-282.516	167.210	0.208	-0.299
-281.501	-103.252	-0.079	0.019
-280.486	301.984	-0.057	-0.106
-279.472	-114.305	-0.181	-0.035
-278.457	-200.000	0.072	-0.324
-277.443	-200.000	0.052	-0.275
-276.428	-94.439	-0.343	-0.094
-275.413	226.005	-0.054	0.088
-274.399	-14.650	-0.088	0.057
-273.384	611.172	0.091	-0.231
-272.370	-166.379	-0.095	0.004
-271.355	-142.526	-0.346	-0.034
-270.340	161.709	0.389	-0.550
-269.326	383.301	0.154	0.319
-268.311	-14.506	0.174	0.113
-267.297	-92.751	-0.334	0.094
-266.282	283.794	-0.067	-0.121
-265.267	109.895	0.171	-0.207
-264.253	-138.175	0.203	-0.023
-263.238	-28.882	-0.100	0.058
-262.224	-200.000	-0.008	-0.109
-261.209	341.491	0.089	0.176
-260.195	-31.218	0.169	-0.096
-259.180	-200.000	0.026	0.282
-258.165	800.000	0.066	-0.235
-257.151	-200.000	-0.024	0.254
-256.136	800.000	0.021	0.064
-255.122	-80.224	0.128	0.043
-254.107	5.622	0.204	-0.152
-253.092	232.325	0.120	0.198
-252.078	-200.000	-0.034	0.238
-251.063	-103.622	0.271	-0.064
-250.049	-200.000	0.003	-0.433
-249.034	129.582	-0.105	-0.135
-248.019	41.925	-0.053	0.048
-247.005	-200.000	-0.004	0.129
-245.990	-200.000	-0.002	0.024
-244.976	-156.076	0.064	-0.004
-243.961	-100.547	-0.087	0.022
-242.946	-54.182	0.055	0.025
-241.932	38.444	0.214	-0.192
-240.917	-106.141	-0.264	-0.060
-239.903	-200.000	0.011	0.147
-238.888	-200.000	-0.062	-0.331
-237.873	-97.420	0.047	0.012
-236.859	-84.812	0.209	-0.066
-235.844	-122.815	-0.314	-0.051
-234.830	-200.000	0.042	0.258
-233.815	72.201	0.142	-0.150
-232.800	389.893	0.147	-0.307
-231.786	311.762	-0.044	-0.084
-230.771	-200.000	0.040	-0.285
-229.757	-8.810	-0.156	0.106
-228.742	-200.000	-0.014	-0.221
-227.727	-8.300	0.093	0.063
-226.713	52.234	0.254	-0.244
-225.698	70.688	0.126	0.132
-224.684	1.506	0.275	0.200
-223.669	-88.924	-0.034	-0.010
-222.655	304.947	0.026	-0.048
-221.640	-200.000	-0.024	-0.186
-220.625	243.604	-0.253	0.427
-219.611	-200.000	0.227	-0.001
-218.596	-200.000	-0.006	0.209
-217.582	3.215	0.188	0.138
-216.567	-137.613	0.201	0.023
-215.552	-200.000	0.006	0.095
-214.538	-149.342	-0.027	0.002
-213.523	-126.355	0.236	0.035
-212.509	39.484	-0.310	-0.280
-211.494	-136.775	-0.363	0.042
-210.479	120.658	-0.168	0.210
-209.465	223.741	0.185	-0.302
-208.450	-19.939	-0.255	-0.159
-207.436	-41.030	-0.415	0.216
-206.421	275.930	0.113	0.202
-205.406	-89.911	0.424	-0.125
-204.392	130.954	-0.095	0.123
-203.377	51.247	-0.060	-0.058
-202.363	-120.971	0.055	0.009
-201.348	800.000	-0.059	-0.215
-200.333	102.346	-0.123	-0.145
-199.319	106.506	-0.164	-0.196
-198.304	81.393	0.155	-0.169
-197.290	-200.000	0.037	-0.361
-196.275	50.963	0.174	0.166
-195.260	-200.000	0.039	-0.183
-194.246	-68.678	0.178	0.070
-193.231	800.000	-0.053	0.222
-192.217	-84.782	0.240	-0.076
-191.202	-57.184	-0.248	-0.110
-190.187	141.368	0.114	0.152
-189.173	61.506	0.098	0.099
-188.158	598.606	0.087	0.217
-187.144	441.048	-0.120	0.265
-186.129	-183.075	-0.494	-0.009
-185.114	-38.576	0.168	0.089
-184.100	800.000	-0.043	-0.151
-183.085	-125.552	-0.273	-0.042
-182.071	-1.495	0.051	0.036
-181.056	136.947	0.243	0.320
-180.042	-24.788	-0.202	-0.121
-179.027	93.316	-0.152	-0.173
-178.012	-82.669	-0.432	0.141
-176.998	376.251	-0.118	-0.242
-175.983	152.955	-0.236	-0.324
-174.969	-200.000	0.004	-0.036
-173.954	-67.311	-0.127	-0.050
-172.939	-64.336	-0.411	-0.168
-171.925	-200.000	-0.058	-0.273
-170.910	-124.784	-0.185	0.029
-169.896	435.190	0.167	0.366
-168.881	586.311	-0.007	-0.018
-167.866	-91.725	-0.307	0.088
-166.852	135.940	-0.078	0.102
-165.837	-91.669	0.314	-0.090
-164.823	-84.609	0.174	-0.055
-163.808	-123.822	0.323	-0.051
-162.793	401.554	0.067	-0.142
-161.779	-20.167	-0.093	0.057
-160.764	-18.374	-0.119	0.075
-159.750	-200.000	-0.006	-0.383
-158.735	6.535	0.157	-0.117
-157.720	116.523	-0.154	-0.190
-156.706	-108.740	0.366	0.079
-155.691	7.311	-0.152	-0.114
-154.677	150.652	0.177	0.242
-153.662	102.187	0.210	0.247
-152.647	800.000	0.035	-0.119
-151.633	-200.000	-0.002	0.013
-150.618	800.000	0.080	0.302
-149.604	124.676	0.026	0.033
-148.589	-78.084	-0.196	0.068
-147.574	-69.553	0.525	-0.202
-146.560	-200.000	-0.024	0.110
-145.545	-69.562	0.105	-0.041
-144.531	4.658	0.235	-0.174
-143.516	-112.498	0.468	0.094
-142.502	-4.888	-0.103	0.071
-141.487	-163.882	0.096	-0.005
-140.472	135.136	0.330	0.430
-139.458	-96.753	-0.445	-0.117
-138.443	-99.677	0.231	-0.058
-137.429	5.061	-0.098	-0.073
-136.414	187.355	-0.121	-0.181
-135.399	115.435	-0.056	0.069
-134.385	478.767	-0.141	-0.320
-133.370	-200.000	-0.019	-0.376
-132.356	164.799	0.072	-0.103
-131.341	-92.005	0.186	-0.053
-130.326	19.282	0.278	-0.224
-129.312	45.079	0.272	-0.252
-128.297	66.361	-0.252	0.258
-127.283	-84.023	0.241	-0.077
-126.268	237.669	-0.142	-0.237
-125.253	-68.265	-0.153	0.060
-124.239	-47.341	0.342	-0.167
-123.224	60.289	0.163	-0.161
-122.210	-154.408	0.336	-0.023
-121.195	524.470	0.029	0.068
