DTS Sentinel unit serial number:	SN413079Multiplexer serial number:	ORYXHardware model number:	OX4-SRSoftware version number:	ORYX F/W v4.00 Oryx Data Collector v3.7.2.0data status	okinstallation	princeton_trtdifferential loss correction	single-endedforward channel	channel 4reverse channel	N/Adate	2019/09/16time	14:33:35forward acquisition time	60.00reverse acquisition time	0.00gamma	496.2192k internal	0.2287k external	0.2287temperature offset calibration	0.9935default loss term (dB/km)	0.3790temperature slope calibration	1.0000multiplexer offset coefficient	1.0000multiplexer slope coefficient	1.0000fibre end	0.00T internal ref (°C)	41.84T ext. ref 1 (°C)	14.26T ext. ref 2 (°C)	36.25length (m)	temperature (°C)	Stokes	anti-Stokes-747.200	-138.883	0.239	0.027
-746.185	-200.000	-0.011	0.421
-745.171	-29.634	-0.183	0.107
-744.156	-33.771	-0.164	0.093
-743.142	800.000	0.033	0.135
-742.127	17.759	0.286	0.233
-741.112	-200.000	-0.022	0.158
-740.098	-200.000	-0.043	0.524
-739.083	157.878	-0.078	-0.110
-738.069	-166.242	0.139	-0.006
-737.054	-140.135	-0.140	0.015
-736.039	800.000	-0.064	0.238
-735.025	-200.000	0.009	-0.101
-734.010	-135.386	-0.164	0.020
-732.996	382.851	0.181	0.382
-731.981	-200.000	-0.013	-0.133
-730.966	-46.305	0.123	-0.062
-729.952	-200.000	0.044	-0.283
-728.937	760.431	-0.087	-0.242
-727.923	-164.372	-0.805	-0.038
-726.908	430.096	-0.055	0.122
-725.894	416.804	-0.113	-0.248
-724.879	315.109	-0.125	-0.242
-723.864	-26.049	-0.305	0.184
-722.850	460.091	0.136	-0.310
-721.835	-200.000	0.036	-0.577
-720.821	-121.014	-0.258	-0.044
-719.806	-162.393	0.245	0.012
-718.791	520.354	0.082	0.198
-717.777	-86.629	-0.105	-0.033
-716.762	800.000	0.049	-0.146
-715.748	4.133	0.221	-0.165
-714.733	-200.000	-0.037	-0.170
-713.718	-200.000	-0.031	-0.165
-712.704	-119.757	0.459	-0.081
-711.689	400.373	-0.090	-0.194
-710.675	-136.478	0.185	-0.022
-709.660	180.186	0.051	0.077
-708.645	257.987	-0.053	-0.093
-707.631	800.000	-0.040	0.155
-706.616	168.514	-0.108	0.157
-705.602	-200.000	0.002	-0.231
-704.587	-56.742	0.098	0.044
-703.572	54.958	0.109	0.107
-702.558	49.482	0.313	-0.302
-701.543	800.000	0.063	-0.252
-700.529	-6.801	0.205	0.143
-699.514	174.026	-0.023	0.035
-698.499	-28.552	-0.345	0.204
-697.485	-200.000	-0.014	-0.092
-696.470	-80.425	-0.208	0.071
-695.456	365.127	-0.081	0.168
-694.441	-200.000	0.036	0.358
-693.426	193.224	-0.052	-0.080
-692.412	23.693	-0.106	0.089
-691.397	42.079	0.222	0.206
-690.383	-56.192	-0.304	0.138
-689.368	-200.000	0.006	0.329
-688.354	-19.127	0.206	0.131
-687.339	-96.484	0.081	0.022
-686.324	18.706	0.080	-0.065
-685.310	800.000	-0.134	-0.391
-684.295	306.485	0.087	-0.166
-683.281	-81.302	-0.152	0.051
-682.266	-13.280	-0.147	0.097
-681.251	511.911	0.176	-0.419
-680.237	-200.000	0.008	-0.036
-679.222	89.443	-0.291	0.332
-678.208	-96.626	-0.295	-0.080
-677.193	-96.513	0.210	-0.057
-676.178	800.000	-0.012	-0.040
-675.164	5.569	-0.080	-0.060
-674.149	-200.000	0.045	-0.203
-673.135	60.891	-0.122	-0.124
-672.120	-16.610	-0.121	-0.078
-671.105	23.005	-0.236	0.198
-670.091	9.212	-0.110	0.085
-669.076	-97.555	0.581	0.154
-668.062	214.353	0.159	0.257
-667.047	-9.559	-0.059	0.040
-666.032	74.238	-0.158	-0.170
-665.018	229.211	0.204	-0.341
-664.003	122.233	0.163	-0.208
-662.989	-200.000	-0.013	0.093
-661.974	1.798	0.240	-0.177
-660.959	378.787	-0.141	-0.296
-659.945	128.706	-0.096	0.125
-658.930	161.831	0.287	0.411
-657.916	-137.588	0.245	0.028
-656.901	318.112	-0.037	0.071
-655.886	171.860	0.217	0.319
-654.872	-200.000	0.021	-0.263
-653.857	57.587	-0.172	-0.172
-652.843	-13.900	-0.117	0.077
-651.828	-99.192	0.172	-0.044
-650.814	-109.260	0.348	0.075
-649.799	-129.316	-0.193	0.027
-648.784	203.533	-0.134	-0.212
-647.770	800.000	0.061	-0.201
-646.755	205.957	-0.098	-0.156
-645.741	2.356	-0.295	0.218
-644.726	-28.909	-0.185	-0.108
-643.711	357.361	0.121	-0.247
-642.697	449.034	-0.061	-0.138
-641.682	81.499	0.163	-0.181
-640.668	-18.722	-0.143	-0.091
-639.653	57.170	-0.264	-0.263
-638.638	-200.000	-0.040	-0.287
-637.624	38.316	-0.145	0.132
-636.609	-200.000	-0.006	-0.080
-635.595	-58.591	0.192	0.085
-634.580	-70.932	0.036	0.014
-633.565	-59.153	0.154	0.068
-632.551	-78.224	-0.281	0.099
-631.536	-74.358	-0.168	-0.062
-630.522	22.588	-0.221	0.185
-629.507	-17.208	-0.332	-0.214
-628.492	229.619	0.182	0.303
-627.478	-200.000	0.024	0.189
-626.463	-59.280	-0.201	-0.088
-625.449	-88.622	-0.144	-0.044
-624.434	52.993	0.042	-0.041
-623.419	-195.957	0.366	0.003
-622.405	800.000	-0.076	-0.284
-621.390	91.103	-0.304	0.348
-620.376	92.188	-0.060	0.069
-619.361	229.850	0.071	0.119
-618.346	-200.000	-0.020	-0.106
-617.332	-200.000	0.038	-0.425
-616.317	-15.433	-0.124	0.081
-615.303	561.232	-0.173	-0.426
-614.288	-108.754	-0.357	0.078
-613.273	338.370	0.209	0.415
-612.259	462.070	-0.168	-0.382
-611.244	789.902	0.060	-0.169
-610.230	285.344	0.049	0.090
-609.215	-1.988	0.050	0.036
-608.201	-73.080	0.345	0.129
-607.186	-118.560	-0.349	-0.063
-606.171	-161.723	-0.203	0.011
-605.157	517.694	-0.063	0.150
-604.142	-189.363	-0.133	-0.002
-603.128	559.238	-0.025	-0.061
-602.113	-45.376	-0.134	0.068
-601.098	601.643	0.096	0.243
-600.084	-200.000	0.018	0.178
-599.069	312.445	-0.022	-0.042
-598.055	-100.196	-0.279	0.071
-597.040	-72.815	-0.197	0.074
-596.025	-200.000	0.002	-0.028
-595.011	-123.206	0.250	0.041
-593.996	-135.978	0.225	-0.027
-592.982	21.579	0.155	0.128
-591.967	48.468	-0.042	-0.041
-590.952	-111.674	0.062	-0.013
-589.938	343.316	-0.089	-0.179
-588.923	-126.839	0.190	-0.029
-587.909	800.000	-0.040	0.129
-586.894	419.083	-0.099	-0.217
-585.879	71.905	-0.138	-0.146
-584.865	787.610	-0.057	-0.160
-583.850	-58.472	-0.035	0.016
-582.836	-200.000	0.027	0.314
-581.821	-108.855	0.139	-0.030
-580.806	800.000	-0.064	0.185
-579.792	-200.000	-0.012	-0.156
-578.777	-21.636	0.182	0.113
-577.763	-200.000	-0.022	0.379
-576.748	-200.000	0.025	-0.122
-575.733	-74.604	-0.102	0.037
-574.719	-90.737	-0.024	0.007
-573.704	162.911	0.149	-0.213
-572.690	-200.000	0.028	0.173
-571.675	-127.895	-0.186	0.027
-570.661	-117.877	0.345	-0.063
-569.646	151.608	0.025	0.034
-568.631	275.647	-0.087	0.157
-567.617	-200.000	0.051	-0.290
-566.602	-25.984	-0.337	-0.202
-565.588	-8.829	-0.083	0.057
-564.573	800.000	0.113	0.394
-563.558	490.060	-0.116	-0.270
-562.544	-30.320	-0.151	0.087
-561.529	-99.130	-0.347	-0.089
-560.515	-37.443	-0.191	0.104
-559.500	-120.646	-0.052	-0.009
-558.485	16.511	0.351	-0.283
-557.471	371.243	-0.038	0.079
-556.456	-153.612	0.149	0.010
-555.442	116.943	0.032	0.040
-554.427	-17.501	0.116	0.074
-553.412	92.403	0.042	0.048
-552.398	221.097	-0.044	-0.071
-551.383	-12.158	0.137	0.091
-550.369	-160.345	-0.222	-0.012
-549.354	505.927	0.079	0.187
-548.339	-62.728	0.060	0.025
-547.325	-46.334	-0.223	0.111
-546.310	49.273	-0.198	0.190
-545.296	-118.691	0.134	-0.024
-544.281	-57.383	-0.143	-0.064
-543.266	-58.386	-0.157	-0.069
-542.252	510.696	0.082	0.195
-541.237	55.535	-0.261	-0.257
-540.223	438.758	-0.118	-0.263
-539.208	184.527	0.121	-0.183
-538.193	-200.000	0.034	0.289
-537.179	672.720	-0.130	-0.344
-536.164	-17.604	0.061	-0.039
-535.150	-120.426	-0.187	-0.032
-534.135	-160.993	-0.149	0.008
-533.121	-55.937	0.348	0.158
-532.106	172.391	0.237	0.347
-531.091	-200.000	0.015	0.114
-530.077	-200.000	-0.024	-0.118
-529.062	23.883	0.352	-0.295
-528.048	701.396	0.142	0.381
-527.033	144.724	0.246	0.334
-526.018	-39.667	0.316	-0.168
-525.004	0.476	0.285	0.207
-523.989	800.000	-0.053	-0.219
-522.975	-200.000	-0.005	0.029
-521.960	-80.501	-0.374	0.127
-520.945	-59.534	0.182	0.079
-519.931	7.253	-0.103	0.078
-518.916	57.528	-0.145	0.145
-517.902	-200.000	-0.017	0.237
-516.887	61.956	0.156	0.158
-515.872	-105.039	-0.139	0.032
-514.858	-76.004	-0.181	0.065
-513.843	408.265	-0.027	-0.058
-512.829	-62.123	0.122	-0.052
-511.814	-200.000	-0.042	-0.492
-510.799	370.590	-0.033	-0.068
-509.785	57.420	0.155	0.154
-508.770	800.000	0.031	-0.108
-507.756	182.944	0.154	-0.231
-506.741	311.361	-0.072	0.137
-505.726	-73.928	0.169	0.063
-504.712	-72.747	0.127	-0.047
-503.697	637.790	-0.127	-0.329
-502.683	800.000	0.096	0.276
-501.668	-200.000	-0.261	0.000
-500.653	246.995	-0.100	0.171
-499.639	-70.843	-0.228	-0.087
-498.624	-4.642	0.254	0.178
-497.610	-7.859	0.068	0.047
-496.595	14.312	-0.115	-0.091
-495.581	-132.661	0.224	-0.029
-494.566	429.410	-0.050	0.111
-493.551	-34.187	0.266	-0.148
-492.537	110.080	-0.029	0.036
-491.522	28.278	-0.109	0.093
-490.508	-129.366	-0.159	-0.022
-489.493	-200.000	0.041	0.208
-488.478	-15.885	-0.138	-0.089
-487.464	-20.868	-0.120	-0.075
-486.449	32.375	-0.150	0.131
-485.435	800.000	0.081	0.313
-484.420	453.572	0.076	0.170
-483.405	-87.258	0.125	-0.038
-482.391	196.908	0.103	0.159
-481.376	-200.000	-0.063	0.318
-480.362	800.000	-0.107	0.412
-479.347	-51.627	-0.184	0.087
-478.332	-19.952	0.058	0.036
-477.318	88.852	-0.227	-0.256
-476.303	800.000	-0.083	-0.237
-475.289	251.882	0.043	0.074
-474.274	-164.502	-0.238	0.011
-473.259	225.049	-0.092	0.152
-472.245	104.847	0.016	0.019
-471.230	193.185	0.162	0.248
-470.216	-146.617	-0.119	-0.010
-469.201	-171.697	-0.301	0.010
-468.186	-30.084	0.255	-0.147
-467.172	-43.759	0.125	-0.064
-466.157	-130.265	-0.259	0.036
-465.143	-200.000	-0.072	-0.401
-464.128	-200.000	0.004	0.230
-463.113	-23.492	0.350	0.213
-462.099	335.364	-0.076	0.150
-461.084	224.239	0.158	0.259
-460.070	-1.074	0.271	-0.195
-459.055	-108.980	-0.113	-0.024
-458.040	800.000	-0.080	0.289
-457.026	-131.170	-0.110	0.015
-456.011	254.004	-0.130	-0.226
-454.997	-98.985	-0.255	0.066
-453.982	-132.143	0.277	0.036
-452.968	-11.565	-0.150	0.100
-451.953	96.586	0.153	0.177
-450.938	14.723	-0.047	-0.038
-449.924	800.000	-0.066	-0.286
-448.909	800.000	0.060	-0.259
-447.895	-21.368	-0.104	0.065
-446.880	-200.000	-0.017	0.183
-445.865	193.358	0.192	-0.295
-444.851	706.177	-0.090	-0.241
-443.836	211.725	-0.107	-0.171
-442.822	256.836	-0.165	-0.288
-441.807	474.086	0.132	-0.302
-440.792	-124.974	0.068	0.011
-439.778	-200.000	0.022	0.178
-438.763	800.000	-0.089	-0.272
-437.749	378.119	-0.133	-0.276
-436.734	65.636	-0.195	-0.200
-435.719	105.523	0.199	-0.238
-434.705	-67.672	0.112	0.044
-433.690	800.000	-0.046	0.177
-432.676	-5.193	-0.065	0.045
-431.661	-58.128	0.120	-0.053
-430.646	-200.000	-0.042	0.195
-429.632	305.083	0.068	0.129
-428.617	800.000	0.115	-0.420
-427.603	149.166	-0.023	-0.032
-426.588	319.044	-0.135	-0.259
-425.573	87.218	0.197	-0.220
-424.559	0.580	0.200	-0.145
-423.544	800.000	-0.041	-0.119
-422.530	-200.000	0.006	-0.103
-421.515	-71.025	0.133	-0.050
-420.500	-134.380	0.273	-0.034
-419.486	710.496	0.066	0.176
-418.471	83.792	0.067	0.074
-417.457	800.000	0.059	-0.203
-416.442	-54.575	-0.247	-0.113
-415.428	133.064	-0.091	0.119
-414.413	800.000	-0.032	0.137
-413.398	-138.654	0.461	0.051
-412.384	-58.183	0.063	0.028
-411.369	28.837	0.244	0.209
-410.355	-135.427	-0.185	0.022
-409.340	465.854	-0.058	0.131
-408.325	-200.000	0.002	0.018
-407.311	-200.000	-0.052	0.242
-406.296	800.000	0.052	-0.145
-405.282	68.755	0.091	0.094
-404.267	-62.264	0.181	-0.076
-403.252	-200.000	0.062	-0.542
-402.238	-70.488	0.344	-0.132
-401.223	6.372	0.273	-0.205
-400.209	438.828	-0.086	0.190
-399.194	13.671	0.177	-0.139
-398.179	-103.496	0.176	-0.042
-397.165	-200.000	0.316	0.001
-396.150	144.276	0.084	0.113
-395.136	-12.394	0.178	0.117
-394.121	-173.611	0.333	-0.010
-393.106	172.207	0.114	0.166
-392.092	-27.089	-0.155	-0.092
-391.077	82.312	0.145	-0.159
-390.063	42.547	0.210	-0.193
-389.048	-65.217	0.208	-0.085
-388.033	-114.693	0.290	-0.056
-387.019	-68.118	0.266	-0.105
-386.004	125.740	-0.062	0.079
-384.990	266.354	-0.070	0.123
-383.975	-57.392	0.128	0.057
-382.960	-148.624	0.289	-0.024
-381.946	-34.736	-0.106	-0.059
-380.931	-32.067	0.092	-0.052
-379.917	-61.827	0.149	-0.063
-378.902	43.342	-0.144	-0.133
-377.888	197.479	-0.122	0.188
-376.873	339.090	0.102	-0.202
-375.858	-131.278	0.233	-0.031
-374.844	-200.000	0.009	0.150
-373.829	-77.850	0.172	-0.060
-372.815	61.699	-0.291	0.293
-371.800	632.117	0.078	0.200
-370.785	212.209	0.150	-0.239
-369.771	-159.253	-0.195	0.011
-368.756	335.499	-0.146	-0.286
-367.742	-68.760	-0.337	0.132
-366.727	-109.362	0.299	0.064
-365.712	-19.307	0.158	-0.099
-364.698	114.952	-0.153	0.189
-363.683	-200.000	0.009	-0.269
-362.669	-200.000	-0.050	-0.236
-361.654	3.059	-0.175	-0.128
-360.639	242.156	-0.093	0.157
-359.625	-103.024	0.267	0.064
-358.610	-200.000	-0.019	0.170
-357.596	172.218	0.099	0.144
-356.581	54.164	0.040	-0.039
-355.566	-200.000	0.045	0.359
-354.552	800.000	0.062	0.246
-353.537	-73.120	0.132	-0.049
-352.523	-67.138	-0.082	-0.033
-351.508	-200.000	0.044	-0.223
-350.493	328.719	0.103	0.200
-349.479	-138.543	-0.250	-0.028
-348.464	-17.876	0.083	0.053
-347.450	-116.720	-0.102	0.019
-346.435	-200.000	0.017	0.100
-345.420	-57.383	0.130	0.058
-344.406	241.090	-0.042	0.071
-343.391	-142.612	-0.497	0.049
-342.377	-44.639	0.239	0.121
-341.362	316.315	0.070	0.134
-340.348	56.692	-0.081	0.080
-339.333	800.000	0.108	-0.420
-338.318	100.094	-0.106	0.124
-337.304	-200.000	0.011	0.202
-336.289	28.111	0.163	0.139
-335.275	-119.190	0.289	-0.051
-334.260	-113.252	0.113	-0.022
-333.245	-72.028	0.040	-0.015
-332.231	130.758	-0.140	0.181
-331.216	321.473	0.049	0.093
-330.202	-200.000	0.034	-0.258
-329.187	11.687	-0.215	0.167
-328.172	-68.621	0.108	-0.042
-327.158	-101.282	-0.237	0.059
-326.143	-126.692	-0.330	-0.049
-325.129	-67.085	-0.374	-0.149
-324.114	76.556	-0.077	-0.082
-323.099	-2.258	0.186	0.132
-322.085	-119.327	-0.324	-0.057
-321.070	545.262	0.116	-0.280
-320.056	-47.919	-0.323	0.158
-319.041	-200.000	-0.002	0.109
-318.026	-58.489	0.131	-0.057
-317.012	688.173	-0.067	-0.178
-315.997	-200.000	-0.074	-0.414
-314.983	800.000	0.054	-0.174
-313.968	-200.000	-0.031	-0.252
-312.953	-66.259	-0.351	-0.141
-311.939	-200.000	0.012	0.090
-310.924	44.027	-0.091	-0.084
-309.910	-200.000	0.062	-0.282
-308.895	86.571	-0.116	-0.129
-307.880	-51.520	0.190	-0.089
-306.866	-81.972	0.228	-0.075
-305.851	173.674	-0.060	-0.088
-304.837	-200.000	-0.024	-0.198
-303.822	-79.875	-0.219	0.074
-302.807	-72.607	-0.118	-0.044
-301.793	69.242	0.351	-0.364
-300.778	-200.000	-0.160	-0.000
-299.764	-72.825	0.107	0.040
-298.749	800.000	0.032	-0.125
-297.735	38.028	-0.079	0.071
-296.720	-112.461	-0.308	0.062
-295.705	800.000	0.111	-0.319
-294.691	-183.847	-0.077	0.001
-293.676	-4.155	-0.148	-0.103
-292.662	251.494	0.054	-0.092
-291.647	800.000	0.017	0.050
-290.632	-107.059	0.219	0.049
-289.618	165.459	-0.091	0.129
-288.603	2.908	-0.204	-0.150
-287.589	-200.000	0.006	0.315
-286.574	-72.532	0.386	0.144
-285.559	376.784	-0.124	0.255
-284.545	-200.000	0.010	0.225
-283.530	441.726	0.149	-0.329
-282.516	-39.462	0.191	0.101
-281.501	800.000	-0.053	-0.217
-280.486	-200.000	0.003	0.053
-279.472	-118.800	-0.276	-0.049
-278.457	-200.000	0.010	-0.112
-277.443	92.468	0.193	-0.219
-276.428	28.990	0.133	0.113
-275.413	-149.816	-0.130	0.010
-274.399	-63.025	-0.274	-0.114
-273.384	-109.275	-0.047	0.010
-272.370	-30.298	-0.140	0.080
-271.355	132.813	-0.111	0.144
-270.340	81.141	0.060	0.065
-269.326	-200.000	0.005	0.267
-268.311	800.000	0.062	0.174
-267.297	-157.958	0.128	0.008
-266.282	-200.000	-0.082	0.395
-265.267	378.895	-0.036	0.075
-264.253	-128.006	0.190	-0.027
-263.238	412.675	-0.022	-0.046
-262.224	-101.514	-0.321	-0.079
-261.209	-174.166	0.365	0.011
-260.195	494.720	-0.106	0.245
-259.180	270.764	0.169	-0.300
-258.165	230.011	0.125	0.206
-257.151	-62.330	0.243	0.102
-256.136	128.169	-0.103	0.132
-255.122	10.662	0.178	0.137
-254.107	-200.000	-0.004	0.150
-253.092	-134.375	0.348	0.043
-252.078	-10.534	-0.194	-0.129
-251.063	-200.000	-0.121	0.000
-250.049	127.118	-0.147	0.188
-249.034	-200.000	-0.058	-0.366
-248.019	-43.856	-0.075	0.038
-247.005	-194.851	-0.376	-0.003
-245.990	98.588	-0.107	-0.124
-244.976	97.628	-0.152	0.175
-243.961	-129.426	-0.175	0.024
-242.946	109.224	-0.251	0.302
-241.932	65.988	0.075	0.077
-240.917	135.102	0.118	-0.154
-239.903	-117.851	0.239	0.043
-238.888	-160.662	0.225	0.012
-237.873	293.996	-0.082	-0.151
-236.859	346.569	0.146	0.290
-235.844	-112.330	0.253	0.051
-234.830	-200.000	0.004	0.314
-233.815	-49.701	-0.209	0.100
-232.800	-8.880	-0.288	0.194
-231.786	7.015	-0.184	0.138
-230.771	-31.501	-0.101	-0.057
-229.757	-8.675	0.361	0.243
-228.742	-200.000	0.063	0.330
-227.727	-103.234	-0.318	-0.076
-226.713	-47.417	-0.121	0.059
-225.698	800.000	-0.063	-0.204
-224.684	-66.984	-0.177	0.070
-223.669	-200.000	-0.104	0.499
-222.655	-95.326	0.302	0.082
-221.640	57.487	-0.286	-0.281
-220.625	515.600	0.062	0.146
-219.611	84.875	-0.073	-0.080
-218.596	-151.755	-0.317	0.023
-217.582	61.278	0.167	0.167
-216.567	-107.090	0.103	0.023
-215.552	-3.763	-0.138	0.096
-214.538	475.763	-0.170	-0.386
-213.523	-200.000	-0.057	-0.344
-212.509	-96.556	-0.307	-0.081
-211.494	109.743	0.221	-0.266
-210.479	60.396	-0.063	0.063
-209.465	-200.000	0.024	-0.226
-208.450	414.706	-0.151	-0.322
-207.436	-160.576	0.254	0.014
-206.421	-200.000	-0.077	-0.341
-205.406	-143.257	-0.138	-0.013
-204.392	800.000	0.055	-0.154
-203.377	-96.291	-0.344	0.092
-202.363	164.502	-0.171	-0.243
-201.348	-165.543	0.264	0.012
-200.333	800.000	0.135	0.376
-199.319	800.000	-0.032	-0.097
-198.304	42.861	-0.233	-0.214
-197.290	-200.000	-0.006	0.066
-196.275	-200.000	-0.007	0.200
-195.260	-200.000	-0.045	-0.261
-194.246	-107.730	0.180	0.039
-193.231	-45.979	-0.196	-0.097
-192.217	-197.963	0.352	0.002
-191.202	-200.000	-0.019	0.328
-190.187	800.000	-0.055	0.177
-189.173	-89.791	-0.133	0.039
-188.158	-13.279	0.109	-0.071
-187.144	-39.854	0.043	0.023
-186.129	263.038	0.078	-0.136
-185.114	-98.466	0.395	0.101
-184.100	334.136	0.061	-0.119
-183.085	-64.165	0.414	-0.169
-182.071	-99.524	-0.326	0.082
-181.056	428.167	-0.014	-0.030
-180.042	-200.000	-0.029	0.358
-179.027	147.670	0.223	-0.301
-178.012	291.965	-0.145	0.264
-176.998	-200.000	0.040	0.213
-175.983	5.741	-0.380	0.282
-174.969	-143.787	0.248	0.024
-173.954	-109.453	-0.244	0.052
-172.939	-135.832	0.163	-0.019
-171.925	-44.640	0.228	0.114
-170.910	596.112	0.134	0.332
-169.896	800.000	-0.045	0.193
-168.881	139.547	-0.206	-0.272
-167.866	-67.553	0.060	0.023
-166.852	322.710	0.020	-0.038
-165.837	-172.978	-0.396	-0.012
-164.823	-200.000	0.080	0.353
-163.808	-30.860	0.357	0.202
-162.793	-89.821	-0.158	0.046
-161.779	261.517	0.051	0.088
-160.764	-106.439	0.314	-0.070
-159.750	17.127	0.229	-0.182
-158.735	184.294	0.215	-0.318
-157.720	-200.000	-0.001	-0.066
-156.706	-7.471	0.156	0.106
-155.691	-191.100	-0.246	0.003
-154.677	96.110	0.139	0.159
-153.662	800.000	0.062	-0.185
-152.647	-200.000	0.030	-0.303
-151.633	-118.300	0.554	-0.099
-150.618	-200.000	-0.022	-0.257
-149.604	61.673	-0.028	0.028
-148.589	-96.657	-0.075	0.020
-147.574	-46.432	-0.085	-0.042
-146.560	800.000	0.075	0.245
-145.545	-84.584	0.330	-0.104
-144.531	-60.295	-0.066	-0.028
-143.516	66.011	0.316	0.321
-142.502	139.976	0.218	0.288
-141.487	800.000	-0.111	0.457
-140.472	-45.590	-0.048	0.024
-139.458	-81.973	0.201	-0.066
-138.443	-62.093	0.295	-0.123
-137.429	-47.836	-0.100	-0.049
-136.414	216.173	0.067	-0.107
-135.399	-172.768	-0.354	-0.011
-134.385	-200.000	0.029	-0.200
-133.370	5.968	0.097	-0.072
-132.356	-93.482	-0.281	0.078
-131.341	-148.643	0.192	-0.016
-130.326	145.871	-0.097	0.130
-129.312	-39.406	0.245	0.129
-128.297	-200.000	-0.056	-0.335
-127.283	691.668	-0.113	0.297
-126.268	1.560	-0.276	-0.199
-125.253	-61.831	0.332	0.139
-124.239	-200.000	0.015	0.254
-123.224	-73.816	-0.184	0.067
-122.210	-123.401	-0.213	0.034
-121.195	-200.000	-0.016	-0.433
