DTS Sentinel unit serial number:	SN413079Multiplexer serial number:	ORYXHardware model number:	OX4-SRSoftware version number:	ORYX F/W v4.00 Oryx Data Collector v3.7.2.0data status	okinstallation	princeton_trtdifferential loss correction	single-endedforward channel	channel 4reverse channel	N/Adate	2019/09/11time	23:55:11forward acquisition time	60.00reverse acquisition time	0.00gamma	496.2192k internal	0.2309k external	0.2309temperature offset calibration	1.0088default loss term (dB/km)	0.3790temperature slope calibration	1.0000multiplexer offset coefficient	1.0000multiplexer slope coefficient	1.0000fibre end	0.00T internal ref (°C)	33.81T ext. ref 1 (°C)	2.00T ext. ref 2 (°C)	28.08length (m)	temperature (°C)	Stokes	anti-Stokes-747.200	-121.593	-0.034	0.006
-746.185	-200.000	0.067	0.557
-745.171	-200.000	0.061	0.285
-744.156	800.000	-0.085	0.296
-743.142	1.559	-0.312	0.228
-742.127	-200.000	0.029	0.481
-741.112	85.223	-0.172	-0.192
-740.098	-141.695	-0.118	0.012
-739.083	-36.718	0.182	0.100
-738.069	800.000	-0.068	0.294
-737.054	-167.859	-0.274	-0.011
-736.039	800.000	-0.123	0.504
-735.025	60.534	0.185	0.186
-734.010	800.000	-0.088	-0.252
-732.996	59.554	-0.114	0.114
-731.981	-183.280	-0.061	0.001
-730.966	-3.588	-0.341	-0.241
-729.952	41.696	-0.044	-0.040
-728.937	-184.605	0.046	0.001
-727.923	120.451	0.156	-0.196
-726.908	800.000	0.041	0.182
-725.894	-9.572	-0.156	-0.106
-724.879	-200.000	-0.032	-0.336
-723.864	-0.021	-0.231	-0.167
-722.850	-200.000	0.060	0.309
-721.835	-200.000	-0.045	0.357
-720.821	-154.158	0.099	-0.007
-719.806	119.792	0.136	-0.171
-718.791	-33.462	-0.374	-0.210
-717.777	-200.000	-0.052	-0.250
-716.762	456.520	0.161	0.363
-715.748	-42.495	-0.057	0.030
-714.733	-51.303	-0.137	-0.065
-713.718	-200.000	-0.019	-0.134
-712.704	86.882	0.081	-0.091
-711.689	-200.000	0.025	0.298
-710.675	557.880	0.132	-0.323
-709.660	-200.000	-0.023	0.220
-708.645	-12.815	-0.135	0.089
-707.631	-200.000	0.043	-0.194
-706.616	-200.000	-0.020	-0.213
-705.602	226.009	-0.034	-0.056
-704.587	-164.437	-0.295	-0.014
-703.572	23.691	-0.059	0.050
-702.558	-48.710	-0.163	-0.079
-701.543	-200.000	-0.057	-0.315
-700.529	-112.675	0.144	-0.029
-699.514	-106.520	-0.254	-0.058
-698.499	297.158	0.126	-0.235
-697.485	80.477	-0.115	-0.126
-696.470	800.000	-0.049	-0.142
-695.456	-154.609	-0.258	0.017
-694.441	-107.404	-0.236	0.053
-693.426	-200.000	-0.019	-0.344
-692.412	-200.000	0.057	0.278
-691.397	-21.142	-0.124	0.077
-690.383	-57.192	-0.316	-0.141
-689.368	-106.684	0.146	0.033
-688.354	136.235	-0.320	0.422
-687.339	-200.000	-0.050	-0.281
-686.324	-130.152	-0.056	0.008
-685.310	800.000	0.080	-0.239
-684.295	-3.533	-0.159	0.112
-683.281	-103.112	0.154	-0.037
-682.266	218.734	-0.036	-0.059
-681.251	114.188	-0.262	-0.324
-680.237	63.081	-0.077	-0.078
-679.222	205.334	-0.101	-0.159
-678.208	216.961	-0.114	-0.185
-677.193	-108.795	0.116	0.025
-676.178	19.285	0.094	0.076
-675.164	-200.000	-0.103	-0.000
-674.149	-51.457	0.271	-0.128
-673.135	223.159	-0.065	-0.107
-672.120	-200.000	0.035	-0.326
-671.105	17.142	0.130	-0.104
-670.091	226.882	0.093	0.153
-669.076	-200.000	-0.011	-0.419
-668.062	18.845	-0.464	-0.376
-667.047	-172.323	-0.277	0.009
-666.032	-134.219	0.073	0.009
-665.018	211.814	0.070	-0.111
-664.003	-82.415	-0.271	-0.089
-662.989	-91.704	-0.393	0.113
-661.974	-200.000	0.037	-0.190
-660.959	26.133	-0.158	0.134
-659.945	-117.304	-0.187	0.034
-658.930	800.000	-0.088	0.264
-657.916	-100.233	-0.260	0.065
-656.901	-200.000	0.018	-0.191
-655.886	-2.321	-0.379	-0.269
-654.872	44.958	0.072	-0.067
-653.857	219.462	-0.084	-0.137
-652.843	-21.312	0.206	-0.127
-651.828	-126.868	0.072	-0.011
-650.814	-67.652	0.126	0.050
-649.799	446.573	-0.109	-0.242
-648.784	-200.000	-0.009	-0.175
-647.770	800.000	0.015	-0.065
-646.755	-200.000	0.017	0.098
-645.741	-100.623	-0.154	-0.038
-644.726	737.521	0.055	0.150
-643.711	800.000	0.053	0.171
-642.697	-200.000	-0.052	-0.296
-641.682	-200.000	0.012	-0.208
-640.668	-23.009	0.076	0.046
-639.653	21.837	0.262	-0.216
-638.638	70.601	-0.035	0.037
-637.624	188.584	-0.069	-0.104
-636.609	719.386	-0.094	0.253
-635.595	-121.312	-0.352	-0.059
-634.580	21.297	0.320	0.263
-633.565	-80.967	0.317	-0.106
-632.551	66.901	-0.060	0.061
-631.536	143.259	-0.145	-0.196
-630.522	-73.544	-0.171	-0.063
-629.507	-200.000	-0.008	0.342
-628.492	-21.689	-0.175	-0.108
-627.478	-56.384	-0.432	-0.194
-626.463	-179.447	0.082	0.002
-625.449	-105.014	-0.411	0.095
-624.434	333.630	-0.093	-0.182
-623.419	109.544	-0.062	-0.075
-622.405	800.000	0.125	0.416
-621.390	-200.000	-0.038	0.174
-620.376	251.409	0.087	0.150
-619.361	-165.820	0.174	0.008
-618.346	-6.231	0.266	0.183
-617.332	284.657	-0.135	0.246
-616.317	41.115	0.378	-0.345
-615.303	-169.804	-0.154	-0.006
-614.288	-42.021	0.186	0.096
-613.273	-112.254	0.512	0.104
-612.259	-126.482	0.174	-0.026
-611.244	661.547	0.083	-0.216
-610.230	15.245	-0.253	0.200
-609.215	269.302	-0.015	-0.027
-608.201	406.804	-0.083	0.176
-607.186	135.589	0.192	0.253
-606.171	27.039	-0.105	-0.089
-605.157	100.101	0.068	0.079
-604.142	371.143	0.067	-0.136
-603.128	275.481	0.078	0.140
-602.113	-93.170	0.276	0.077
-601.098	-14.762	-0.090	0.059
-600.084	-173.639	-0.438	0.013
-599.069	-200.000	-0.019	0.228
-598.055	164.033	-0.111	-0.159
-597.040	96.786	-0.165	-0.191
-596.025	-77.949	-0.148	0.051
-595.011	20.588	-0.080	-0.065
-593.996	77.029	0.127	0.137
-592.982	86.810	-0.013	0.014
-591.967	324.367	0.252	0.486
-590.952	800.000	0.054	-0.167
-589.938	225.849	0.167	0.274
-588.923	-82.766	-0.064	0.021
-587.909	-114.921	0.250	-0.048
-586.894	-60.432	-0.198	0.085
-585.879	-57.125	-0.134	-0.060
-584.865	-200.000	0.058	0.453
-583.850	319.546	0.127	-0.243
-582.836	69.235	0.098	0.101
-581.821	-200.000	-0.034	0.183
-580.806	69.649	0.196	-0.204
-579.792	129.100	-0.255	0.328
-578.777	-40.360	-0.162	0.085
-577.763	-80.495	0.082	-0.028
-576.748	-31.681	-0.150	-0.085
-575.733	800.000	-0.056	-0.219
-574.719	81.579	-0.121	0.133
-573.704	-74.680	-0.155	0.056
-572.690	-34.515	0.096	0.053
-571.675	-200.000	0.007	-0.209
-570.661	253.237	0.157	-0.271
-569.646	36.606	-0.115	0.103
-568.631	800.000	0.010	0.044
-567.617	716.034	-0.044	-0.118
-566.602	-200.000	-0.006	-0.229
-565.588	650.359	0.117	-0.302
-564.573	-73.524	-0.180	0.066
-563.558	-104.962	0.203	0.047
-562.544	-200.000	-0.024	-0.492
-561.529	406.813	0.116	-0.248
-560.515	-200.000	-0.007	0.267
-559.500	-76.652	-0.063	-0.022
-558.485	25.402	-0.077	0.065
-557.471	83.053	-0.107	-0.118
-556.456	-135.788	0.039	0.005
-555.442	-188.679	-0.434	0.005
-554.427	173.053	-0.051	0.074
-553.412	27.537	-0.136	-0.115
-552.398	9.496	-0.135	0.103
-551.383	-144.028	0.222	-0.021
-550.369	3.304	0.134	-0.099
-549.354	370.715	0.068	-0.139
-548.339	800.000	0.093	0.266
-547.325	222.221	0.055	-0.090
-546.310	800.000	-0.071	-0.291
-545.296	523.915	-0.067	-0.158
-544.281	6.049	0.097	0.073
-543.266	800.000	0.065	-0.210
-542.252	-200.000	0.001	-0.034
-541.237	-187.913	-0.196	0.003
-540.223	705.979	0.038	0.101
-539.208	800.000	0.091	-0.275
-538.193	140.866	0.136	-0.181
-537.179	-18.360	-0.228	-0.144
-536.164	50.488	-0.243	0.231
-535.150	-150.935	0.246	0.019
-534.135	-46.429	-0.231	-0.114
-533.121	-149.102	-0.317	-0.026
-532.106	116.358	-0.081	-0.100
-531.091	467.197	-0.125	0.281
-530.077	-152.672	-0.213	0.015
-529.062	-68.715	0.448	-0.175
-528.048	162.590	0.047	-0.066
-527.033	135.557	0.112	0.147
-526.018	34.579	-0.231	-0.204
-525.004	10.295	-0.250	0.191
-523.989	501.512	-0.133	0.309
-522.975	796.096	-0.080	-0.223
-521.960	103.163	-0.084	-0.099
-520.945	-39.529	-0.192	-0.101
-519.931	-73.404	-0.279	-0.103
-518.916	-3.650	-0.203	-0.142
-517.902	-34.356	-0.160	-0.088
-516.887	200.348	-0.214	0.332
-515.872	800.000	-0.017	-0.068
-514.858	27.168	-0.144	0.122
-513.843	87.860	0.329	0.367
-512.829	-107.485	0.166	0.037
-511.814	-49.281	-0.121	-0.058
-510.799	-105.193	-0.082	-0.019
-509.785	-123.636	-0.392	0.063
-508.770	800.000	0.091	-0.361
-507.756	-43.875	0.114	-0.058
-506.741	19.419	-0.092	0.075
-505.726	85.378	0.232	0.256
-504.712	-200.000	-0.043	0.345
-503.697	353.015	-0.136	-0.271
-502.683	-200.000	-0.013	-0.072
-501.668	-136.065	-0.049	0.006
-500.653	-200.000	-0.031	-0.331
-499.639	-45.707	-0.191	-0.095
-498.624	-30.969	-0.247	-0.140
-497.610	-140.213	-0.235	-0.025
-496.595	678.908	-0.017	0.045
-495.581	-107.454	-0.096	0.021
-494.566	102.271	0.125	0.147
-493.551	-129.009	-0.094	0.013
-492.537	103.643	0.190	0.224
-491.522	800.000	0.051	0.213
-490.508	339.134	-0.049	0.095
-489.493	800.000	-0.081	-0.277
-488.478	800.000	-0.116	-0.374
-487.464	686.188	0.059	0.154
-486.449	-159.263	0.158	0.009
-485.435	84.497	0.041	-0.046
-484.420	800.000	0.110	-0.346
-483.405	800.000	0.057	0.205
-482.391	-200.000	0.001	0.014
-481.376	800.000	-0.031	0.104
-480.362	800.000	0.082	-0.277
-479.347	-200.000	-0.016	0.134
-478.332	106.763	0.132	-0.158
-477.318	-17.184	-0.159	-0.101
-476.303	108.305	0.113	0.136
-475.289	117.415	-0.016	-0.020
-474.274	-200.000	-0.016	0.166
-473.259	-135.201	0.288	-0.035
-472.245	-57.688	-0.419	0.184
-471.230	-113.595	-0.213	-0.042
-470.216	-72.122	-0.189	0.070
-469.201	-147.476	0.353	0.030
-468.186	-200.000	0.016	0.109
-467.172	-200.000	0.038	-0.193
-466.157	-200.000	0.004	0.200
-465.143	-93.374	-0.230	-0.064
-464.128	-176.980	-0.401	0.010
-463.113	-142.347	-0.172	-0.017
-462.099	-78.500	-0.073	0.025
-461.084	47.023	-0.098	-0.092
-460.070	164.263	-0.037	-0.053
-459.055	700.456	-0.073	-0.193
-458.040	800.000	-0.114	0.365
-457.026	-137.919	0.197	0.022
-456.011	-167.049	0.102	0.004
-454.997	-200.000	0.036	-0.238
-453.982	-113.654	0.289	0.057
-452.968	-113.691	-0.135	-0.027
-451.953	-103.722	-0.041	-0.010
-450.938	-200.000	-0.007	-0.125
-449.924	-6.451	0.227	0.155
-448.909	13.247	-0.078	-0.061
-447.895	164.836	0.061	-0.086
-446.880	139.312	0.233	0.308
-445.865	-162.264	-0.180	-0.009
-444.851	800.000	-0.024	-0.069
-443.836	-107.886	-0.071	-0.016
-442.822	78.871	0.060	-0.064
-441.807	181.096	0.118	-0.174
-440.792	-85.530	0.167	0.052
-439.778	-81.176	0.481	0.160
-438.763	-200.000	0.003	0.088
-437.749	800.000	-0.127	-0.359
-436.734	599.282	0.097	-0.243
-435.719	-105.972	0.230	0.052
-434.705	-23.575	0.079	0.047
-433.690	-115.992	-0.300	-0.056
-432.676	69.173	-0.014	0.014
-431.661	471.806	0.081	0.182
-430.646	-77.181	0.494	-0.173
-429.632	-200.000	-0.032	-0.198
-428.617	-200.000	0.026	-0.327
-427.603	19.668	0.116	-0.094
-426.588	-200.000	0.058	0.323
-425.573	304.766	-0.129	-0.239
-424.559	-109.301	-0.262	-0.056
-423.544	55.833	0.383	0.373
-422.530	98.872	-0.211	0.245
-421.515	-200.000	-0.036	0.186
-420.500	-31.920	-0.335	-0.188
-419.486	205.815	0.078	-0.122
-418.471	-116.207	-0.322	0.060
-417.457	22.448	0.095	-0.078
-416.442	-38.602	0.089	-0.047
-415.428	-76.335	0.203	0.072
-414.413	-33.483	-0.170	-0.094
-413.398	456.527	0.128	0.285
-412.384	-200.000	-0.028	0.161
-411.369	7.671	0.148	-0.111
-410.355	92.686	0.085	0.096
-409.340	-120.850	-0.071	0.012
-408.325	800.000	0.074	-0.219
-407.311	158.640	-0.185	-0.258
-406.296	326.443	0.160	-0.307
-405.282	-98.704	-0.301	-0.077
-404.267	299.247	0.062	-0.114
-403.252	326.331	-0.146	0.281
-402.238	-123.102	0.343	-0.055
-401.223	366.150	0.128	-0.259
-400.209	-45.983	0.204	0.101
-399.194	-137.566	0.392	-0.044
-398.179	800.000	-0.030	-0.118
-397.165	-200.000	0.031	-0.350
-396.150	-200.000	0.013	-0.108
-395.136	-54.133	-0.329	0.150
-394.121	-200.000	0.050	0.219
-393.106	-200.000	-0.056	0.538
-392.092	162.377	-0.099	0.138
-391.077	343.203	0.083	-0.162
-390.063	57.101	-0.201	0.196
-389.048	-157.314	0.170	0.010
-388.033	-109.467	0.160	-0.034
-387.019	164.389	-0.156	0.220
-386.004	-200.000	-0.001	0.108
-384.990	661.866	-0.063	-0.162
-383.975	-99.241	0.141	0.036
-382.960	76.287	0.121	0.128
-381.946	456.343	0.024	0.054
-380.931	130.290	-0.080	0.103
-379.917	-50.978	-0.122	0.057
-378.902	44.167	0.273	0.250
-377.888	-31.244	0.296	-0.167
-376.873	-47.879	0.348	0.169
-375.858	12.607	-0.262	-0.203
-374.844	361.066	0.018	0.037
-373.829	163.984	0.099	-0.139
-372.815	-49.313	-0.292	0.140
-371.800	-60.297	-0.215	-0.092
-370.785	800.000	0.087	-0.285
-369.771	140.367	-0.138	-0.182
-368.756	-130.110	0.163	-0.022
-367.742	-5.036	0.176	-0.121
-366.727	-14.102	-0.254	0.164
-365.712	788.963	0.084	0.232
-364.698	192.340	0.223	-0.336
-363.683	87.443	0.170	0.188
-362.669	-200.000	-0.051	-0.245
-361.654	-200.000	0.003	-0.024
-360.639	64.119	-0.074	-0.074
-359.625	800.000	0.063	-0.266
-358.610	800.000	0.052	-0.165
-357.596	661.867	0.041	0.106
-356.581	-79.932	-0.168	0.057
-355.566	64.970	-0.082	-0.083
-354.552	68.216	0.280	0.287
-353.537	-64.428	-0.194	0.079
-352.523	204.866	-0.072	0.112
-351.508	-73.434	0.143	0.052
-350.493	-98.771	0.319	-0.081
-349.479	45.841	0.059	0.055
-348.464	-122.318	0.100	-0.016
-347.450	261.250	-0.147	-0.254
-346.435	104.263	-0.242	0.285
-345.420	-200.000	-0.022	0.288
-344.406	712.369	-0.022	0.059
-343.391	282.613	0.120	0.215
-342.377	612.631	-0.189	0.474
-341.362	800.000	0.063	-0.209
-340.348	228.717	0.219	-0.357
-339.333	358.417	-0.106	0.212
-338.318	26.293	0.134	-0.112
-337.304	-200.000	0.014	-0.236
-336.289	75.869	0.087	0.092
-335.275	53.496	0.050	0.048
-334.260	800.000	0.083	0.253
-333.245	8.424	0.174	-0.131
-332.231	239.970	-0.162	0.270
-331.216	343.272	0.241	0.471
-330.202	196.812	-0.106	0.161
-329.187	-81.425	0.125	0.041
-328.172	-134.449	0.051	-0.006
-327.158	800.000	0.047	-0.183
-326.143	-68.980	-0.150	-0.058
-325.129	671.173	-0.024	-0.063
-324.114	-9.625	0.353	0.235
-323.099	800.000	-0.043	0.190
-322.085	-137.095	-0.216	0.025
-321.070	800.000	-0.073	0.293
-320.056	-148.758	-0.140	0.011
-319.041	800.000	0.025	0.096
-318.026	-12.098	-0.130	0.085
-317.012	37.676	0.096	-0.085
-315.997	-200.000	-0.056	0.409
-314.983	-139.436	0.222	0.024
-313.968	-132.564	0.223	-0.029
-312.953	-55.139	-0.223	-0.100
-311.939	-61.048	-0.234	-0.099
-310.924	-82.014	0.222	0.073
-309.910	-200.000	0.013	-0.146
-308.895	30.176	-0.330	-0.281
-307.880	-98.326	0.086	-0.022
-306.866	-71.800	0.269	0.100
-305.851	665.581	-0.106	0.274
-304.837	-200.000	-0.014	-0.069
-303.822	-76.989	0.062	-0.022
-302.807	-38.798	0.267	0.140
-301.793	-69.270	0.238	-0.091
-300.778	-125.922	0.156	-0.023
-299.764	-200.000	0.000	-0.438
-298.749	-50.127	0.338	-0.160
-297.735	800.000	0.053	0.190
-296.720	95.691	-0.256	-0.291
-295.705	34.264	-0.201	-0.175
-294.691	-30.122	-0.134	0.076
-293.676	4.959	0.211	-0.155
-292.662	-125.389	-0.271	-0.041
-291.647	155.734	0.066	-0.091
-290.632	-103.474	0.184	-0.043
-289.618	100.414	0.125	0.145
-288.603	-168.691	0.204	0.008
-287.589	800.000	-0.017	0.061
-286.574	-30.768	0.124	0.070
-285.559	237.316	-0.075	-0.123
-284.545	-115.065	0.338	-0.064
-283.530	-138.896	-0.232	0.025
-282.516	444.174	-0.133	-0.290
-281.501	39.200	0.121	0.108
-280.486	-35.574	-0.206	-0.111
-279.472	-200.000	0.047	0.374
-278.457	193.926	0.197	0.298
-277.443	415.158	-0.117	-0.249
-276.428	-61.638	0.115	0.048
-275.413	800.000	-0.064	0.220
-274.399	195.335	-0.087	0.131
-273.384	44.085	-0.238	0.217
-272.370	-36.364	-0.174	-0.093
-271.355	-68.840	0.389	-0.150
-270.340	-15.465	0.227	-0.145
-269.326	-93.628	0.193	-0.053
-268.311	-63.095	-0.323	-0.133
-267.297	-102.245	-0.151	-0.036
-266.282	-71.448	-0.169	0.063
-265.267	-87.767	0.049	-0.015
-264.253	27.415	-0.274	-0.230
-263.238	-200.000	-0.063	0.369
-262.224	-32.659	0.184	-0.102
-261.209	800.000	0.088	-0.249
-260.195	-200.000	-0.007	0.116
-259.180	-148.764	-0.292	0.024
-258.165	215.125	0.199	0.314
-257.151	115.749	-0.243	-0.296
-256.136	-128.849	0.428	-0.060
-255.122	-53.885	0.237	0.108
-254.107	-200.000	-0.010	0.174
-253.092	-138.820	-0.267	0.029
-252.078	313.766	-0.120	-0.225
-251.063	-72.553	-0.311	-0.115
-250.049	-76.771	0.145	-0.051
-249.034	-200.000	0.031	-0.348
-248.019	317.653	-0.120	0.226
-247.005	421.173	-0.152	-0.324
-245.990	114.275	-0.156	0.189
-244.976	-161.014	-0.222	0.012
-243.961	333.482	-0.182	-0.351
-242.946	-116.243	-0.143	0.026
-241.932	-143.117	0.091	-0.009
-240.917	-76.651	0.198	0.069
-239.903	23.555	0.265	-0.217
-238.888	-83.701	-0.071	-0.023
-237.873	-150.952	0.136	-0.010
-236.859	160.255	0.042	0.058
-235.844	-200.000	0.002	0.248
-234.830	-71.079	-0.164	-0.061
-233.815	53.956	-0.108	-0.104
-232.800	-62.344	0.262	0.109
-231.786	-13.425	-0.080	0.052
-230.771	121.076	0.096	-0.118
-229.757	546.095	0.016	0.037
-228.742	191.697	0.069	-0.104
-227.727	-101.123	0.175	0.043
-226.713	52.823	-0.162	-0.154
-225.698	-8.448	-0.101	0.068
-224.684	7.863	0.199	0.148
-223.669	-40.822	-0.117	0.060
-222.655	-200.000	0.017	-0.401
-221.640	757.278	-0.147	-0.397
-220.625	4.443	-0.173	-0.127
-219.611	-200.000	0.034	0.371
-218.596	434.143	0.135	0.292
-217.582	185.792	0.126	0.186
-216.567	-200.000	-0.025	-0.187
-215.552	9.176	0.225	-0.169
-214.538	260.372	0.079	-0.136
-213.523	800.000	0.058	-0.166
-212.509	800.000	-0.067	-0.221
-211.494	22.548	0.082	-0.067
-210.479	-84.944	0.368	-0.115
-209.465	174.015	-0.094	0.136
-208.450	42.710	-0.186	0.169
-207.436	-113.625	0.225	0.044
-206.421	604.633	0.080	0.197
-205.406	-86.080	0.086	0.026
-204.392	110.016	0.165	-0.197
-203.377	679.934	0.182	0.470
-202.363	-200.000	0.024	0.210
-201.348	-76.982	0.371	-0.129
-200.333	-20.801	0.148	-0.090
-199.319	656.293	-0.156	-0.398
-198.304	-76.714	0.155	-0.054
-197.290	139.026	0.117	-0.153
-196.275	56.688	0.148	-0.143
-195.260	490.536	-0.130	0.296
-194.246	-200.000	0.002	0.230
-193.231	96.951	-0.197	0.225
-192.217	-103.329	0.202	0.047
-191.202	-200.000	0.055	0.286
-190.187	464.778	-0.074	0.165
-189.173	249.679	-0.222	-0.375
-188.158	-127.786	-0.074	0.011
-187.144	-67.027	0.104	0.041
-186.129	-121.387	-0.101	0.017
-185.114	-124.801	0.175	-0.027
-184.100	-156.141	-0.340	-0.021
-183.085	-105.731	-0.089	0.020
-182.071	-200.000	0.025	-0.211
-181.056	-61.778	0.160	0.067
-180.042	800.000	0.034	0.096
-179.027	800.000	0.107	-0.359
-178.012	-124.805	-0.491	-0.075
-176.998	6.547	-0.171	0.126
-175.983	76.499	-0.110	-0.116
-174.969	3.700	-0.253	0.184
-173.954	800.000	-0.022	-0.066
-172.939	800.000	0.155	0.546
-171.925	189.463	0.101	-0.151
-170.910	-200.000	-0.006	0.069
-169.896	358.103	0.186	0.369
-168.881	228.532	0.058	0.094
-167.866	188.686	0.037	-0.055
-166.852	-200.000	0.020	-0.093
-165.837	-65.783	-0.257	-0.102
-164.823	-114.204	-0.277	-0.053
-163.808	-152.260	0.092	-0.007
-162.793	130.431	-0.099	0.126
-161.779	-18.944	0.227	0.140
-160.764	180.479	-0.085	0.124
-159.750	-48.332	0.157	0.075
-158.735	-4.215	-0.094	-0.065
-157.720	-200.000	-0.024	-0.180
-156.706	94.090	0.158	0.177
-155.691	-59.951	-0.342	-0.145
-154.677	6.954	0.172	0.127
-153.662	-80.632	-0.104	-0.034
-152.647	10.512	0.039	0.030
-151.633	-12.084	-0.132	-0.086
-150.618	262.323	0.087	-0.150
-149.604	-200.000	0.051	-0.316
-148.589	-122.269	0.252	-0.041
-147.574	-76.231	-0.065	0.023
-146.560	666.035	-0.033	0.086
-145.545	-50.410	-0.071	-0.033
-144.531	154.230	-0.136	0.185
-143.516	-147.547	-0.203	0.017
-142.502	-172.478	0.317	0.010
-141.487	2.154	-0.209	0.150
-140.472	422.990	-0.131	0.279
-139.458	800.000	-0.046	-0.160
-138.443	127.026	-0.084	-0.105
-137.429	-29.986	0.190	0.107
-136.414	-124.326	0.167	-0.026
-135.399	259.876	0.179	0.307
-134.385	-127.185	0.257	-0.037
-133.370	100.844	-0.076	-0.088
-132.356	800.000	0.063	0.244
-131.341	-200.000	-0.038	0.193
-130.326	337.622	0.149	-0.288
-129.312	-91.083	-0.447	0.127
-128.297	-200.000	0.007	-0.221
-127.283	800.000	0.064	-0.188
-126.268	277.473	0.003	0.005
-125.253	147.158	-0.101	0.135
-124.239	143.217	0.259	-0.341
-123.224	87.921	0.162	0.178
-122.210	-93.882	-0.353	0.096
