DTS Sentinel unit serial number:	SN413079Multiplexer serial number:	ORYXHardware model number:	OX4-SRSoftware version number:	ORYX F/W v4.00 Oryx Data Collector v3.7.2.0data status	okinstallation	princeton_trtdifferential loss correction	single-endedforward channel	channel 4reverse channel	N/Adate	2019/09/18time	22:01:35forward acquisition time	60.00reverse acquisition time	0.00gamma	496.2192k internal	0.2332k external	0.2332temperature offset calibration	1.0030default loss term (dB/km)	0.3790temperature slope calibration	1.0000multiplexer offset coefficient	1.0000multiplexer slope coefficient	1.0000fibre end	0.00T internal ref (°C)	24.56T ext. ref 1 (°C)	0.81T ext. ref 2 (°C)	18.31length (m)	temperature (°C)	Stokes	anti-Stokes-747.200	77.939	0.150	0.161
-746.185	47.851	0.129	0.121
-745.171	-121.987	-0.129	-0.021
-744.156	-81.153	-0.369	0.123
-743.142	800.000	0.056	0.190
-742.127	532.830	0.114	-0.273
-741.112	-200.000	0.042	-0.292
-740.098	-80.792	0.325	0.109
-739.083	-131.878	-0.219	-0.029
-738.069	-165.663	0.107	-0.005
-737.054	296.196	-0.101	-0.187
-736.039	202.497	-0.065	0.102
-735.025	-122.071	0.213	0.035
-734.010	36.669	-0.166	-0.147
-732.996	-36.540	0.091	-0.049
-731.981	732.807	0.099	0.266
-730.966	-25.162	-0.231	0.137
-729.952	800.000	0.014	0.053
-728.937	-140.823	0.229	-0.024
-727.923	800.000	0.095	-0.299
-726.908	-162.559	-0.146	-0.007
-725.894	250.316	-0.054	0.092
-724.879	-200.000	-0.009	-0.314
-723.864	-200.000	-0.101	-0.476
-722.850	-72.288	0.172	-0.064
-721.835	-200.000	0.062	0.305
-720.821	165.608	-0.129	0.183
-719.806	34.026	0.139	0.122
-718.791	225.601	-0.042	-0.068
-717.777	-47.282	0.032	0.016
-716.762	-38.124	-0.246	-0.131
-715.748	800.000	0.057	0.217
-714.733	285.970	0.113	0.206
-713.718	299.118	-0.015	-0.027
-712.704	616.621	-0.121	-0.304
-711.689	-200.000	-0.035	-0.231
-710.675	-200.000	0.003	-0.404
-709.660	-82.972	0.318	-0.103
-708.645	132.124	0.211	0.273
-707.631	-134.923	-0.280	-0.034
-706.616	66.765	-0.161	-0.165
-705.602	113.163	-0.083	-0.101
-704.587	299.394	-0.076	-0.141
-703.572	164.754	0.006	0.008
-702.558	83.219	0.097	-0.106
-701.543	-85.290	0.201	0.063
-700.529	622.734	0.078	0.198
-699.514	-200.000	-0.014	0.072
-698.499	5.073	0.094	-0.070
-697.485	-57.362	-0.427	-0.189
-696.470	-200.000	-0.025	-0.207
-695.456	4.339	0.145	-0.107
-694.441	95.995	0.153	-0.176
-693.426	-10.795	-0.087	-0.058
-692.412	-182.322	0.162	0.003
-691.397	-108.998	0.254	0.054
-690.383	-200.000	0.027	-0.165
-689.368	143.941	-0.110	-0.147
-688.354	715.126	0.035	-0.092
-687.339	9.903	0.167	-0.127
-686.324	11.719	0.199	0.153
-685.310	-67.695	0.121	-0.048
-684.295	-19.611	0.032	-0.020
-683.281	117.139	-0.107	0.132
-682.266	-43.374	-0.205	0.104
-681.251	-56.993	0.150	0.066
-680.237	58.866	0.355	-0.350
-679.222	175.064	0.063	0.092
-678.208	693.711	0.031	-0.082
-677.193	42.595	-0.176	-0.161
-676.178	-200.000	-0.066	-0.293
-675.164	175.773	-0.081	0.118
-674.149	23.689	0.040	0.033
-673.135	-200.000	-0.029	0.181
-672.120	800.000	0.102	0.301
-671.105	-102.623	0.010	-0.002
-670.091	297.550	0.185	0.341
-669.076	142.577	0.064	-0.085
-668.062	-25.145	0.321	-0.191
-667.047	-171.618	-0.124	0.004
-666.032	45.497	0.203	-0.188
-665.018	125.915	0.232	-0.294
-664.003	59.368	0.130	0.129
-662.989	-13.296	-0.268	0.174
-661.974	800.000	0.056	-0.202
-660.959	-200.000	0.010	-0.085
-659.945	800.000	-0.015	-0.045
-658.930	800.000	0.091	0.286
-657.916	192.537	0.076	-0.115
-656.901	-94.696	-0.111	-0.030
-655.886	-90.017	0.082	0.024
-654.872	800.000	-0.068	-0.297
-653.857	-43.599	0.136	-0.069
-652.843	454.921	0.072	0.160
-651.828	159.912	-0.055	0.076
-650.814	-125.025	0.032	-0.005
-649.799	-30.140	0.199	-0.113
-648.784	71.605	-0.271	-0.282
-647.770	-41.618	-0.202	-0.104
-646.755	-200.000	0.016	0.138
-645.741	-101.413	-0.217	0.053
-644.726	-200.000	-0.040	-0.205
-643.711	-137.782	0.310	0.035
-642.697	-200.000	0.027	-0.169
-641.682	800.000	-0.066	-0.215
-640.668	-87.026	0.081	-0.025
-639.653	22.028	0.083	0.068
-638.638	-154.028	-0.287	0.020
-637.624	-114.320	-0.060	-0.012
-636.609	-93.648	-0.170	-0.047
-635.595	-1.088	-0.193	0.137
-634.580	-47.023	0.263	0.129
-633.565	800.000	-0.074	0.204
-632.551	-15.668	0.096	-0.062
-631.536	-134.701	0.132	-0.016
-630.522	-43.393	0.135	0.068
-629.507	-200.000	0.043	-0.202
-628.492	41.762	0.182	0.166
-627.478	87.204	0.159	-0.176
-626.463	-32.320	-0.348	-0.194
-625.449	-200.000	0.006	0.041
-624.434	800.000	0.036	-0.140
-623.419	105.858	-0.344	-0.408
-622.405	424.533	-0.112	-0.241
-621.390	-117.871	0.155	-0.028
-620.376	-80.223	-0.306	-0.103
-619.361	800.000	0.096	-0.328
-618.346	122.199	0.184	-0.230
-617.332	-88.294	0.159	0.048
-616.317	-200.000	-0.032	0.174
-615.303	800.000	-0.035	-0.146
-614.288	-36.544	0.378	-0.204
-613.273	800.000	0.065	0.232
-612.259	-200.000	0.018	0.217
-611.244	259.603	0.066	-0.115
-610.230	585.478	0.054	-0.132
-609.215	38.147	0.094	0.084
-608.201	800.000	0.037	0.134
-607.186	-118.114	0.174	-0.031
-606.171	-99.680	-0.120	-0.030
-605.157	-200.000	0.007	-0.064
-604.142	21.683	-0.244	-0.199
-603.128	-27.186	-0.188	0.110
-602.113	222.365	-0.049	-0.080
-601.098	-117.569	0.239	0.043
-600.084	-45.646	-0.141	0.070
-599.069	-63.125	-0.129	-0.053
-598.055	164.872	0.188	0.265
-597.040	-40.595	0.200	0.104
-596.025	-71.799	-0.256	0.095
-595.011	-200.000	0.006	0.164
-593.996	-112.553	0.243	0.048
-592.982	800.000	-0.059	-0.165
-591.967	-8.986	-0.276	0.185
-590.952	800.000	-0.039	0.168
-589.938	116.586	-0.058	-0.072
-588.923	384.712	0.151	-0.312
-587.909	-29.252	0.501	-0.287
-586.894	-200.000	-0.008	-0.213
-585.879	-6.086	-0.154	0.105
-584.865	-76.548	-0.322	0.113
-583.850	387.384	-0.134	-0.277
-582.836	172.965	-0.116	-0.168
-581.821	-113.271	0.215	-0.042
-580.806	8.035	0.224	-0.168
-579.792	800.000	0.087	0.304
-578.777	-120.395	0.030	-0.005
-577.763	597.937	-0.098	-0.243
-576.748	-200.000	0.025	-0.328
-575.733	-200.000	0.024	-0.443
-574.719	395.539	-0.113	0.236
-573.704	123.830	0.056	-0.070
-572.690	-200.000	-0.014	-0.267
-571.675	-200.000	0.019	-0.098
-570.661	-107.253	0.077	-0.017
-569.646	45.235	-0.015	-0.013
-568.631	64.732	-0.203	0.205
-567.617	-200.000	-0.002	0.160
-566.602	-30.925	0.155	0.088
-565.588	-200.000	0.047	-0.304
-564.573	309.796	0.073	0.136
-563.558	-32.635	-0.283	-0.158
-562.544	-129.070	0.119	-0.017
-561.529	-4.088	-0.139	-0.096
-560.515	-200.000	0.005	-0.040
-559.500	521.828	0.136	0.319
-558.485	-180.367	0.245	0.005
-557.471	-99.629	-0.271	-0.068
-556.456	-200.000	-0.034	0.266
-555.442	103.167	0.235	-0.275
-554.427	-200.000	0.024	-0.112
-553.412	269.115	-0.142	-0.249
-552.398	287.467	0.190	0.343
-551.383	-120.187	0.128	-0.022
-550.369	343.207	0.139	0.271
-549.354	-9.171	-0.282	0.188
-548.339	-115.894	-0.320	-0.060
-547.325	-120.821	0.195	0.033
-546.310	-200.000	0.030	-0.221
-545.296	412.875	-0.053	0.113
-544.281	-90.283	-0.266	-0.077
-543.266	-43.078	-0.226	0.114
-542.252	269.494	0.113	-0.199
-541.237	-43.272	0.298	0.150
-540.223	213.912	0.328	0.517
-539.208	51.517	0.181	-0.171
-538.193	551.537	0.099	-0.238
-537.179	148.246	0.087	0.117
-536.164	25.669	-0.199	0.166
-535.150	788.288	-0.083	0.229
-534.135	800.000	0.073	-0.234
-533.121	-200.000	-0.046	0.204
-532.106	-143.924	-0.429	0.040
-531.091	89.404	-0.148	-0.165
-530.077	-99.938	-0.216	0.054
-529.062	800.000	0.061	0.206
-528.048	-41.653	-0.327	-0.167
-527.033	113.043	0.134	0.162
-526.018	800.000	-0.090	-0.339
-525.004	331.767	0.141	-0.271
-523.989	-106.615	0.262	0.058
-522.975	-200.000	-0.011	-0.165
-521.960	-115.176	-0.018	0.003
-520.945	388.310	-0.172	-0.356
-519.931	485.701	-0.091	0.206
-518.916	30.348	0.167	0.142
-517.902	6.959	-0.245	-0.182
-516.887	196.268	-0.035	-0.053
-515.872	-68.876	-0.289	-0.111
-514.858	384.185	0.206	0.423
-513.843	-200.000	-0.072	0.322
-512.829	-22.855	0.364	0.219
-511.814	-60.691	-0.357	-0.151
-510.799	-200.000	0.040	0.229
-509.785	199.213	-0.090	0.138
-508.770	628.943	0.113	0.284
-507.756	800.000	-0.043	0.165
-506.741	30.628	0.195	-0.167
-505.726	111.055	0.381	0.457
-504.712	-36.403	0.159	0.086
-503.697	66.620	0.298	0.302
-502.683	-53.768	-0.280	-0.127
-501.668	47.311	-0.248	-0.230
-500.653	-149.403	-0.389	0.031
-499.639	-117.797	0.057	0.010
-498.624	-30.530	0.067	-0.038
-497.610	-200.000	0.001	-0.051
-496.595	18.580	-0.220	0.175
-495.581	-41.018	-0.030	-0.016
-494.566	35.101	-0.070	0.061
-493.551	380.922	0.041	-0.083
-492.537	-65.124	0.297	0.119
-491.522	-179.103	0.284	-0.006
-490.508	-200.000	0.011	-0.248
-489.493	-152.230	-0.345	-0.025
-488.478	175.856	-0.078	0.113
-487.464	170.403	0.146	-0.208
-486.449	251.758	0.092	-0.155
-485.435	-200.000	0.043	-0.197
-484.420	800.000	-0.096	-0.281
-483.405	565.022	0.082	0.198
-482.391	-200.000	-0.000	0.151
-481.376	287.751	-0.019	-0.033
-480.362	121.088	0.128	-0.159
-479.347	-92.181	0.135	0.038
-478.332	-129.264	-0.107	0.015
-477.318	-200.000	-0.059	-0.321
-476.303	-200.000	-0.090	-0.451
-475.289	612.593	0.046	-0.114
-474.274	-200.000	-0.040	0.289
-473.259	-5.001	-0.193	0.132
-472.245	-200.000	0.055	0.498
-471.230	407.651	-0.100	-0.210
-470.216	-73.618	-0.121	0.044
-469.201	-124.222	0.484	0.075
-468.186	332.240	-0.049	-0.093
-467.172	118.236	-0.042	0.052
-466.157	-200.000	-0.046	-0.234
-465.143	59.398	-0.168	0.165
-464.128	28.704	0.145	0.123
-463.113	648.298	0.139	-0.353
-462.099	-56.637	0.180	0.079
-461.084	-29.646	-0.113	-0.064
-460.070	-81.638	0.278	-0.091
-459.055	12.692	-0.278	-0.213
-458.040	-200.000	0.042	-0.206
-457.026	109.565	-0.067	0.080
-456.011	51.135	-0.341	0.322
-454.997	-77.471	-0.145	0.050
-453.982	-200.000	0.044	-0.231
-452.968	50.093	0.193	0.181
-451.953	317.412	-0.047	-0.088
-450.938	-14.272	0.099	-0.064
-449.924	800.000	0.086	-0.285
-448.909	285.222	0.156	-0.280
-447.895	67.424	-0.190	-0.193
-446.880	-200.000	-0.026	0.148
-445.865	-200.000	-0.023	-0.307
-444.851	-200.000	0.045	-0.409
-443.836	-167.067	-0.071	-0.003
-442.822	682.843	-0.139	-0.359
-441.807	355.444	0.081	-0.160
-440.792	-75.604	-0.155	-0.055
-439.778	229.105	0.194	0.314
-438.763	305.656	-0.048	0.089
-437.749	-200.000	-0.011	0.161
-436.734	323.878	-0.102	-0.194
-435.719	-200.000	0.010	-0.059
-434.705	-86.357	0.136	-0.042
-433.690	-54.192	0.377	0.170
-432.676	11.713	-0.042	0.032
-431.661	241.351	-0.135	-0.224
-430.646	48.931	-0.050	-0.047
-429.632	-76.819	0.154	-0.053
-428.617	-200.000	0.050	0.265
-427.603	87.670	0.113	0.124
-426.588	-12.272	0.243	-0.158
-425.573	-65.506	-0.452	-0.181
-424.559	-180.459	-0.343	-0.007
-423.544	-200.000	0.011	-0.221
-422.530	-200.000	0.019	-0.337
-421.515	-200.000	-0.016	0.154
-420.500	-200.000	0.011	-0.188
-419.486	131.837	0.268	0.343
-418.471	-200.000	0.038	0.240
-417.457	-7.134	-0.196	-0.132
-416.442	18.452	-0.180	-0.143
-415.428	-200.000	0.016	0.227
-414.413	-38.958	0.225	-0.117
-413.398	77.865	-0.178	-0.189
-412.384	277.669	0.131	-0.231
-411.369	-53.199	-0.164	-0.075
-410.355	-100.445	0.249	0.061
-409.340	800.000	-0.089	0.363
-408.325	-119.527	-0.167	-0.029
-407.311	2.783	0.215	-0.155
-406.296	81.015	-0.164	0.175
-405.282	-200.000	-0.032	-0.213
-404.267	84.542	0.049	0.053
-403.252	-200.000	0.029	0.314
-402.238	-83.349	-0.114	0.036
-401.223	37.029	-0.139	-0.122
-400.209	148.912	-0.110	-0.147
-399.194	-49.278	0.122	0.058
-398.179	-200.000	-0.037	0.262
-397.165	22.122	-0.304	-0.246
-396.150	352.905	0.094	-0.184
-395.136	800.000	0.092	-0.257
-394.121	-79.792	0.160	0.053
-393.106	126.709	-0.064	-0.080
-392.092	206.259	-0.089	-0.138
-391.077	18.388	0.233	0.185
-390.063	-46.240	0.125	0.061
-389.048	-55.635	0.225	-0.100
-388.033	508.589	-0.061	-0.142
-387.019	800.000	0.039	0.119
-386.004	385.116	0.224	0.458
-384.990	-99.604	0.290	-0.072
-383.975	-76.851	0.211	0.073
-382.960	-185.110	-0.380	0.006
-381.946	800.000	-0.117	-0.362
-380.931	6.304	0.348	0.256
-379.917	-21.072	0.146	0.089
-378.902	71.723	0.119	0.122
-377.888	800.000	0.081	0.296
-376.873	193.530	0.046	0.070
-375.858	800.000	-0.033	0.093
-374.844	455.544	0.184	0.404
-373.829	1.105	-0.224	-0.159
-372.815	40.119	0.102	0.090
-371.800	-69.580	-0.086	-0.033
-370.785	-121.465	-0.429	0.071
-369.771	-31.858	0.073	0.041
-368.756	-100.054	0.170	0.042
-367.742	-20.937	0.055	0.033
-366.727	-0.693	0.142	0.100
-365.712	800.000	-0.028	-0.087
-364.698	151.013	0.344	-0.464
-363.683	-26.187	0.117	0.068
-362.669	302.368	0.081	-0.149
-361.654	-43.429	-0.221	0.111
-360.639	79.739	0.137	-0.145
-359.625	515.671	0.136	0.314
-358.610	-100.007	-0.162	0.040
-357.596	-2.728	-0.186	0.129
-356.581	145.196	0.034	0.044
-355.566	800.000	0.042	0.120
-354.552	537.315	-0.075	-0.176
-353.537	-127.175	0.168	-0.024
-352.523	3.194	-0.278	0.200
-351.508	-164.566	-0.388	-0.017
-350.493	-200.000	0.027	-0.132
-349.479	179.101	-0.251	-0.364
-348.464	-200.000	0.016	0.208
-347.450	-28.395	0.403	0.231
-346.435	244.229	-0.150	0.249
-345.420	-200.000	-0.001	-0.104
-344.406	52.422	-0.176	-0.166
-343.391	-189.416	-0.226	-0.003
-342.377	-200.000	0.004	-0.047
-341.362	-145.027	-0.307	-0.028
-340.348	584.112	-0.083	0.202
-339.333	-120.155	-0.090	0.015
-338.318	-27.124	-0.303	0.175
-337.304	-200.000	0.017	0.378
-336.289	98.537	-0.111	0.126
-335.275	-86.348	0.283	-0.086
-334.260	-200.000	0.003	0.175
-333.245	-123.332	0.232	0.037
-332.231	-130.773	-0.346	-0.046
-331.216	77.743	-0.304	0.321
-330.202	800.000	-0.057	-0.196
-329.187	507.368	0.054	0.125
-328.172	121.143	0.256	0.316
-327.158	-200.000	-0.017	0.324
-326.143	-41.661	0.232	0.118
-325.129	-186.330	0.100	-0.001
-324.114	-200.000	-0.021	-0.143
-323.099	-200.000	-0.015	-0.110
-322.085	-192.854	-0.220	-0.002
-321.070	-200.000	-0.023	0.142
-320.056	-200.000	-0.026	-0.195
-319.041	124.705	0.052	-0.065
-318.026	86.232	-0.037	-0.040
-317.012	-56.636	0.185	0.081
-315.997	70.538	0.053	-0.054
-314.983	-51.947	0.304	0.140
-313.968	-95.687	0.291	0.077
-312.953	87.592	0.215	-0.235
-311.939	593.101	-0.095	0.233
-310.924	228.501	-0.115	-0.185
-309.910	-200.000	0.046	-0.324
-308.895	-200.000	0.027	-0.203
-307.880	120.476	-0.072	-0.089
-306.866	800.000	-0.048	0.169
-305.851	-18.499	0.199	0.123
-304.837	-200.000	0.075	0.401
-303.822	205.010	-0.056	-0.087
-302.807	295.049	0.078	-0.142
-301.793	-76.690	0.320	-0.111
-300.778	16.000	-0.142	0.111
-299.764	369.688	0.047	0.094
-298.749	3.312	0.057	-0.041
-297.735	800.000	-0.057	-0.167
-296.720	61.927	0.175	0.172
-295.705	59.253	0.183	-0.179
-294.691	-4.967	0.047	0.032
-293.676	193.532	-0.184	0.275
-292.662	118.080	-0.227	-0.277
-291.647	-169.322	0.172	-0.006
-290.632	327.049	-0.093	0.177
-289.618	50.362	0.373	0.348
-288.603	-158.225	0.063	0.004
-287.589	-98.982	0.110	-0.027
-286.574	55.053	0.184	-0.176
-285.559	-200.000	0.014	-0.141
-284.545	-200.000	-0.030	0.376
-283.530	147.759	0.270	0.360
-282.516	-126.740	-0.201	-0.029
-281.501	800.000	-0.077	-0.288
-280.486	-67.669	-0.213	0.082
-279.472	800.000	0.015	-0.062
-278.457	-34.070	-0.181	0.098
-277.443	-64.929	-0.209	0.084
-276.428	163.693	-0.128	0.178
-275.413	-200.000	0.010	0.138
-274.399	800.000	0.016	-0.045
-273.384	-182.615	-0.282	-0.005
-272.370	-83.763	-0.158	-0.050
-271.355	-63.747	-0.415	-0.168
-270.340	-200.000	-0.033	0.412
-269.326	73.859	-0.116	0.120
-268.311	-200.000	0.001	-0.054
-267.297	-126.701	0.170	-0.025
-266.282	-6.534	-0.214	-0.144
-265.267	362.513	-0.080	-0.159
-264.253	-153.193	0.214	-0.015
-263.238	4.831	0.331	-0.240
-262.224	800.000	0.068	0.227
-261.209	4.231	0.153	-0.110
-260.195	-200.000	-0.042	0.246
-259.180	-11.355	0.106	0.069
-258.165	-77.777	0.058	-0.020
-257.151	-107.354	-0.267	0.058
-256.136	124.963	-0.132	-0.164
-255.122	242.879	0.079	-0.130
-254.107	11.041	-0.222	-0.167
-253.092	-42.096	0.129	-0.065
-252.078	800.000	0.043	-0.143
-251.063	-62.120	-0.029	0.012
-250.049	230.690	0.175	-0.283
-249.034	316.331	0.115	0.215
-248.019	662.760	0.025	0.064
-247.005	83.470	0.360	0.387
-245.990	298.356	0.086	0.157
-244.976	120.057	-0.206	-0.252
-243.961	33.217	-0.174	-0.149
-242.946	234.111	-0.051	0.083
-241.932	32.218	0.096	-0.082
-240.917	-200.000	-0.020	-0.145
-239.903	-114.585	0.250	0.047
-238.888	325.288	-0.195	0.367
-237.873	-200.000	-0.092	0.508
-236.859	-23.504	-0.123	-0.073
-235.844	-200.000	-0.014	-0.110
-234.830	-31.883	-0.238	0.131
-233.815	58.832	0.176	0.171
-232.800	168.782	0.102	-0.144
-231.786	140.348	-0.138	0.179
-230.771	389.267	-0.070	-0.144
-229.757	-200.000	-0.033	-0.319
-228.742	-24.422	-0.359	0.211
-227.727	-131.252	-0.174	-0.023
-226.713	-200.000	-0.003	-0.108
-225.698	-200.000	-0.001	0.125
-224.684	800.000	-0.076	0.226
-223.669	-200.000	-0.018	0.221
-222.655	-99.503	-0.161	-0.040
-221.640	297.363	-0.126	0.228
-220.625	800.000	-0.085	0.309
-219.611	-29.673	0.147	0.083
-218.596	10.745	0.109	-0.082
-217.582	800.000	0.091	-0.257
-216.567	-121.055	0.326	-0.054
-215.552	130.422	0.040	0.050
-214.538	214.212	-0.157	0.244
-213.523	115.926	-0.164	-0.197
-212.509	-91.263	0.295	-0.083
-211.494	-200.000	0.028	0.179
-210.479	656.606	-0.192	0.487
-209.465	800.000	0.058	-0.163
-208.450	92.113	0.144	0.160
-207.436	360.035	0.100	0.197
-206.421	74.029	-0.102	-0.106
-205.406	200.540	-0.196	-0.296
-204.392	-64.646	0.216	0.086
-203.377	7.983	0.095	-0.070
-202.363	-67.805	-0.107	-0.041
-201.348	-17.030	0.286	-0.178
-200.333	-105.760	0.180	-0.040
-199.319	-200.000	0.019	-0.157
-198.304	-200.000	0.026	0.124
-197.290	168.834	0.040	0.056
-196.275	800.000	-0.063	0.233
-195.260	-83.726	-0.244	-0.077
-194.246	23.895	-0.059	0.048
-193.231	175.105	0.096	0.137
-192.217	327.447	-0.116	0.219
-191.202	-39.882	-0.502	0.258
-190.187	290.585	0.133	0.238
-189.173	-200.000	0.012	-0.203
-188.158	399.392	0.024	-0.050
-187.144	-56.780	0.217	-0.095
-186.129	195.308	-0.121	-0.181
-185.114	-140.885	0.291	0.029
-184.100	297.227	-0.293	-0.529
-183.085	-200.000	0.056	-0.295
-182.071	-200.000	-0.015	-0.090
-181.056	800.000	0.070	0.271
-180.042	-72.315	-0.289	0.105
-179.027	71.155	0.070	0.071
-178.012	57.984	0.210	-0.203
-176.998	-200.000	-0.014	0.108
-175.983	-190.001	-0.198	0.002
-174.969	-116.055	0.464	-0.085
-173.954	-200.000	0.049	-0.225
-172.939	122.492	-0.122	0.150
-171.925	142.120	0.077	0.100
-170.910	-200.000	-0.047	-0.308
-169.896	-123.175	-0.566	-0.089
-168.881	-200.000	-0.005	0.231
-167.866	31.069	-0.128	-0.108
-166.852	800.000	0.074	0.316
-165.837	142.239	0.144	0.188
-164.823	294.645	-0.032	0.057
-163.808	-200.000	0.059	-0.375
-162.793	-200.000	-0.050	-0.243
-161.779	-200.000	0.009	0.062
-160.764	280.154	-0.083	-0.146
-159.750	741.966	-0.132	0.349
-158.735	9.692	0.365	0.272
-157.720	-200.000	-0.068	-0.393
-156.706	190.984	-0.126	-0.186
-155.691	-107.911	0.428	-0.091
-154.677	651.710	-0.052	0.130
-153.662	800.000	0.080	0.293
-152.647	-155.887	-0.143	0.009
-151.633	-200.000	0.012	0.195
-150.618	40.286	0.316	-0.279
-149.604	-200.000	-0.018	-0.268
-148.589	-71.281	0.307	-0.113
-147.574	-200.000	-0.016	0.109
-146.560	-200.000	0.006	0.048
-145.545	180.769	-0.064	0.092
-144.531	-75.610	0.256	0.089
-143.516	-84.575	-0.230	0.071
-142.502	-89.262	-0.216	0.063
-141.487	125.595	0.144	-0.179
-140.472	-137.011	-0.213	-0.024
-139.458	-135.197	0.327	-0.039
-138.443	348.737	-0.077	-0.149
-137.429	223.756	0.063	-0.099
-136.414	-35.635	0.112	-0.060
-135.399	-200.000	0.031	-0.181
-134.385	800.000	-0.024	0.101
-133.370	-200.000	-0.002	0.359
-132.356	95.508	-0.231	0.259
-131.341	20.773	0.057	0.045
-130.326	1.584	-0.193	0.136
-129.312	800.000	0.175	0.577
-128.297	-200.000	-0.009	0.167
-127.283	-178.042	-0.075	0.002
-126.268	-20.570	0.257	-0.155
-125.253	137.921	0.112	-0.144
-124.239	-62.050	-0.067	-0.027
-123.224	-35.387	0.126	0.067
-122.210	800.000	-0.074	-0.218
-121.195	-124.063	-0.166	-0.026
