DTS Sentinel unit serial number:	SN413079Multiplexer serial number:	ORYXHardware model number:	OX4-SRSoftware version number:	ORYX F/W v4.00 Oryx Data Collector v3.7.2.0data status	okinstallation	princeton_trtdifferential loss correction	single-endedforward channel	channel 4reverse channel	N/Adate	2019/09/17time	13:41:35forward acquisition time	60.00reverse acquisition time	0.00gamma	496.2192k internal	0.2297k external	0.2297temperature offset calibration	0.9989default loss term (dB/km)	0.3790temperature slope calibration	1.0000multiplexer offset coefficient	1.0000multiplexer slope coefficient	1.0000fibre end	0.00T internal ref (°C)	34.94T ext. ref 1 (°C)	0.41T ext. ref 2 (°C)	32.12length (m)	temperature (°C)	Stokes	anti-Stokes-747.200	364.290	0.153	-0.314
-746.185	375.811	-0.018	0.037
-745.171	79.698	0.069	0.076
-744.156	211.874	0.111	-0.179
-743.142	80.261	-0.169	0.186
-742.127	-179.622	-0.323	-0.007
-741.112	-36.658	-0.074	-0.041
-740.098	-200.000	0.004	0.058
-739.083	-66.848	-0.253	0.102
-738.069	156.770	-0.078	0.110
-737.054	30.520	-0.068	0.059
-736.039	-80.875	-0.027	-0.009
-735.025	-9.768	0.133	0.090
-734.010	-83.445	0.057	-0.019
-732.996	-20.279	-0.281	-0.177
-731.981	224.102	0.108	0.178
-730.966	-148.395	-0.260	-0.022
-729.952	71.499	0.155	-0.164
-728.937	140.811	-0.055	-0.074
-727.923	189.981	0.116	-0.178
-726.908	-200.000	-0.006	-0.184
-725.894	-122.442	-0.211	0.035
-724.879	-93.525	-0.173	0.049
-723.864	-8.361	-0.154	-0.106
-722.850	-130.827	-0.164	-0.022
-721.835	-27.154	0.334	0.198
-720.821	-59.960	0.209	-0.091
-719.806	48.660	0.108	-0.104
-718.791	-102.174	-0.302	0.074
-717.777	-111.398	-0.316	-0.066
-716.762	-96.276	0.184	0.050
-715.748	-59.178	-0.291	-0.128
-714.733	7.006	-0.094	-0.072
-713.718	355.588	0.075	-0.153
-712.704	-200.000	-0.044	-0.417
-711.689	322.070	0.144	-0.280
-710.675	-118.008	-0.313	0.057
-709.660	-200.000	0.022	0.189
-708.645	724.303	0.087	0.235
-707.631	173.688	-0.082	0.120
-706.616	16.079	-0.043	0.034
-705.602	-200.000	0.013	-0.122
-704.587	-78.355	0.413	-0.144
-703.572	513.035	-0.039	0.093
-702.558	41.671	-0.076	0.071
-701.543	-200.000	0.022	-0.116
-700.529	-51.460	0.360	-0.172
-699.514	127.366	-0.187	0.243
-698.499	800.000	-0.056	-0.187
-697.485	800.000	-0.034	-0.131
-696.470	-200.000	-0.150	-0.000
-695.456	458.364	-0.085	0.192
-694.441	797.554	-0.144	0.404
-693.426	712.763	-0.073	0.196
-692.412	-147.685	-0.258	-0.022
-691.397	83.119	-0.259	-0.288
-690.383	65.173	-0.083	0.085
-689.368	800.000	-0.071	0.244
-688.354	-200.000	0.051	-0.278
-687.339	119.307	0.094	0.119
-686.324	123.799	-0.203	0.260
-685.310	-66.760	0.241	-0.097
-684.295	-200.000	-0.015	-0.195
-683.281	195.902	0.062	-0.096
-682.266	-129.586	-0.272	-0.038
-681.251	49.111	0.103	-0.099
-680.237	-67.250	0.125	0.050
-679.222	-79.739	-0.320	-0.110
-678.208	800.000	-0.106	-0.358
-677.193	163.548	-0.206	-0.295
-676.178	45.378	0.174	-0.164
-675.164	-44.161	0.199	-0.101
-674.149	-200.000	0.037	0.201
-673.135	-200.000	-0.008	0.087
-672.120	-63.020	0.076	0.032
-671.105	243.657	-0.033	-0.056
-670.091	-28.854	-0.063	-0.037
-669.076	-200.000	-0.008	-0.128
-668.062	-9.375	-0.131	-0.089
-667.047	-200.000	-0.007	-0.205
-666.032	-146.788	0.158	-0.014
-665.018	29.396	-0.439	-0.380
-664.003	-62.788	-0.316	0.133
-662.989	-0.685	0.186	-0.134
-661.974	38.645	0.112	0.101
-660.959	-70.241	-0.246	-0.095
-659.945	-76.984	-0.174	-0.062
-658.930	-146.451	0.191	-0.017
-657.916	-200.000	0.010	-0.101
-656.901	-167.023	0.026	-0.001
-655.886	457.747	-0.129	-0.292
-654.872	457.425	0.165	-0.374
-653.857	-22.281	0.082	-0.051
-652.843	800.000	0.112	-0.333
-651.828	-200.000	0.039	-0.291
-650.814	-122.501	0.236	0.039
-649.799	-200.000	0.000	-0.384
-648.784	-7.764	-0.006	0.004
-647.770	-120.798	-0.154	-0.026
-646.755	183.461	-0.040	-0.060
-645.741	-46.971	0.259	-0.129
-644.726	-95.424	-0.067	0.018
-643.711	-134.291	-0.095	-0.012
-642.697	-200.000	0.016	-0.407
-641.682	-127.797	-0.364	-0.053
-640.668	561.015	-0.105	-0.257
-639.653	-69.250	0.339	0.133
-638.638	800.000	0.025	0.076
-637.624	-89.662	-0.247	0.074
-636.609	-200.000	-0.030	-0.208
-635.595	-88.230	-0.217	-0.066
-634.580	-90.423	0.213	0.063
-633.565	6.693	0.126	-0.095
-632.551	-200.000	-0.039	0.234
-631.536	800.000	0.015	-0.064
-630.522	-30.170	0.407	-0.235
-629.507	-106.148	-0.122	-0.028
-628.492	-76.348	0.097	0.035
-627.478	-19.993	-0.124	0.078
-626.463	-200.000	0.025	-0.121
-625.449	57.572	-0.074	0.073
-624.434	8.561	0.130	-0.100
-623.419	-5.557	0.179	-0.125
-622.405	-200.000	-0.005	0.184
-621.390	800.000	-0.049	0.159
-620.376	-160.632	-0.292	-0.016
-619.361	110.033	0.110	0.134
-618.346	-72.463	-0.094	0.035
-617.332	-32.950	0.188	0.106
-616.317	-3.416	0.226	0.159
-615.303	-107.766	0.178	-0.039
-614.288	-75.776	-0.309	-0.111
-613.273	510.664	-0.039	0.092
-612.259	-200.000	0.004	-0.122
-611.244	779.565	-0.084	0.233
-610.230	198.817	0.172	0.267
-609.215	-86.539	0.178	-0.056
-608.201	-103.589	-0.173	-0.041
-607.186	391.451	0.037	-0.077
-606.171	800.000	-0.071	0.218
-605.157	-100.932	-0.049	-0.012
-604.142	-72.088	0.152	0.057
-603.128	339.697	0.130	0.258
-602.113	-52.907	0.164	-0.077
-601.098	-26.194	0.031	-0.018
-600.084	-9.555	0.238	-0.161
-599.069	100.603	0.046	-0.054
-598.055	104.464	0.021	-0.026
-597.040	-69.001	0.097	-0.038
-596.025	-136.701	0.083	-0.010
-595.011	-200.000	-0.016	0.317
-593.996	-200.000	-0.012	0.180
-592.982	-150.340	0.352	0.028
-591.967	133.142	-0.183	0.240
-590.952	34.075	-0.141	-0.125
-589.938	-200.000	-0.026	-0.167
-588.923	800.000	0.015	-0.045
-587.909	800.000	0.069	0.255
-586.894	86.730	-0.198	0.221
-585.879	-54.319	0.321	0.148
-584.865	-200.000	-0.030	0.156
-583.850	-108.056	-0.143	0.031
-582.836	-107.921	-0.112	0.025
-581.821	-30.285	0.209	-0.120
-580.806	486.026	0.070	-0.163
-579.792	-34.704	-0.130	0.072
-578.777	-120.433	0.269	0.046
-577.763	176.650	0.172	0.253
-576.748	-92.638	-0.173	0.049
-575.733	-200.000	0.008	0.266
-574.719	395.292	-0.023	-0.048
-573.704	290.118	0.072	-0.133
-572.690	-100.199	0.227	-0.057
-571.675	245.030	0.124	0.211
-570.661	-173.316	-0.278	-0.009
-569.646	-123.118	-0.113	-0.018
-568.631	800.000	0.064	-0.225
-567.617	-147.911	-0.154	0.013
-566.602	110.272	-0.137	0.167
-565.588	-185.016	-0.124	-0.002
-564.573	118.812	0.176	-0.220
-563.558	99.926	-0.112	-0.132
-562.544	-108.332	-0.125	-0.027
-561.529	174.758	0.217	-0.318
-560.515	-113.381	-0.515	0.102
-559.500	-69.391	-0.330	-0.128
-558.485	-165.735	-0.237	-0.010
-557.471	97.021	0.119	0.139
-556.456	800.000	-0.071	0.261
-555.442	-152.557	-0.175	-0.013
-554.427	-42.412	-0.118	0.061
-553.412	184.500	-0.078	0.117
-552.398	-5.206	-0.207	0.145
-551.383	800.000	-0.153	0.428
-550.369	-200.000	0.025	-0.257
-549.354	762.639	-0.040	0.109
-548.339	-150.949	0.205	-0.016
-547.325	-200.000	0.041	-0.205
-546.310	97.671	-0.167	0.194
-545.296	-175.041	-0.428	-0.012
-544.281	-93.435	-0.172	-0.048
-543.266	-200.000	-0.014	0.256
-542.252	48.365	0.327	-0.311
-541.237	270.255	0.128	-0.228
-540.223	140.625	-0.070	0.093
-539.208	384.214	0.068	0.142
-538.193	18.323	-0.200	-0.161
-537.179	-130.913	0.085	-0.011
-536.164	128.054	0.099	0.127
-535.150	242.584	0.032	0.054
-534.135	288.285	-0.205	0.376
-533.121	-200.000	0.022	-0.248
-532.106	364.200	0.056	-0.114
-531.091	-109.573	0.103	-0.022
-530.077	619.276	0.073	-0.185
-529.062	-60.828	-0.122	-0.052
-528.048	388.286	-0.048	-0.100
-527.033	19.795	-0.312	0.255
-526.018	-19.606	0.525	0.329
-525.004	-125.450	-0.303	-0.047
-523.989	-37.190	-0.312	-0.169
-522.975	139.178	0.193	-0.257
-521.960	-200.000	-0.002	0.225
-520.945	-141.596	0.194	-0.020
-519.931	-200.000	-0.013	0.137
-518.916	-46.420	0.291	-0.144
-517.902	164.379	-0.101	0.143
-516.887	-73.694	-0.110	0.041
-515.872	-37.392	-0.268	-0.145
-514.858	46.725	0.110	0.103
-513.843	-115.765	0.200	0.038
-512.829	325.271	-0.083	-0.161
-511.814	33.797	-0.269	0.237
-510.799	800.000	-0.016	0.065
-509.785	-77.524	0.174	0.061
-508.770	-26.987	-0.315	0.186
-507.756	800.000	0.004	0.013
-506.741	-109.892	0.155	0.033
-505.726	193.159	-0.057	-0.088
-504.712	-6.644	-0.298	0.205
-503.697	99.588	0.094	-0.110
-502.683	466.467	0.059	-0.133
-501.668	-101.794	-0.105	0.026
-500.653	111.533	0.154	0.188
-499.639	-136.760	-0.300	-0.035
-498.624	68.694	0.163	0.170
-497.610	-194.974	0.178	0.001
-496.595	-200.000	0.009	0.125
-495.581	-182.928	-0.051	0.001
-494.566	-41.741	-0.096	0.050
-493.551	272.472	-0.070	-0.125
-492.537	-121.071	0.129	0.022
-491.522	182.184	-0.133	0.198
-490.508	547.037	-0.045	0.109
-489.493	-200.000	-0.034	-0.172
-488.478	414.627	0.135	-0.291
-487.464	-54.442	-0.135	-0.062
-486.449	-152.303	-0.355	-0.026
-485.435	437.319	0.185	0.407
-484.420	-37.892	-0.258	0.138
-483.405	377.827	-0.085	0.176
-482.391	105.708	0.324	-0.387
-481.376	76.107	-0.096	-0.103
-480.362	-90.263	-0.096	-0.028
-479.347	-159.723	0.194	-0.011
-478.332	800.000	0.059	0.250
-477.318	-102.893	-0.232	-0.056
-476.303	-15.078	-0.127	0.082
-475.289	-85.753	-0.251	0.079
-474.274	81.312	0.070	-0.076
-473.259	-54.852	-0.106	-0.049
-472.245	800.000	0.057	0.222
-471.230	88.701	-0.238	0.267
-470.216	-200.000	-0.001	0.188
-469.201	194.880	-0.038	0.058
-468.186	-135.548	-0.290	0.035
-467.172	528.336	0.071	0.169
-466.157	-38.928	0.182	-0.097
-465.143	-28.144	-0.128	-0.075
-464.128	414.662	0.134	-0.288
-463.113	66.235	0.188	-0.193
-462.099	-89.241	-0.082	0.024
-461.084	-73.747	0.105	0.039
-460.070	128.555	-0.242	0.311
-459.055	-200.000	0.069	-0.340
-458.040	-42.588	0.253	-0.130
-457.026	-73.232	-0.046	-0.017
-456.011	-29.103	-0.087	0.050
-454.997	-200.000	-0.044	0.267
-453.982	-200.000	0.005	-0.110
-452.968	-17.994	-0.168	0.106
-451.953	-59.283	-0.476	-0.207
-450.938	23.305	-0.117	0.097
-449.924	91.487	0.288	-0.327
-448.909	16.261	0.233	0.186
-447.895	76.621	0.130	0.139
-446.880	-64.411	0.238	0.098
-445.865	277.015	-0.149	-0.267
-444.851	-200.000	0.033	0.372
-443.836	398.129	0.073	-0.155
-442.822	-66.763	-0.191	0.076
-441.807	-9.453	0.268	0.181
-440.792	-155.218	0.313	-0.021
-439.778	-36.558	0.086	-0.047
-438.763	-101.505	0.158	0.039
-437.749	-26.930	-0.108	-0.064
-436.734	-35.037	0.080	-0.044
-435.719	800.000	-0.021	-0.073
-434.705	89.034	-0.284	0.319
-433.690	-73.581	0.073	0.027
-432.676	-116.187	0.338	-0.063
-431.661	357.487	-0.115	-0.232
-430.646	-67.512	-0.291	0.115
-429.632	9.764	0.044	-0.034
-428.617	56.826	0.182	-0.179
-427.603	-46.910	0.090	-0.044
-426.588	-46.734	-0.179	0.088
-425.573	-69.616	0.168	-0.065
-424.559	-90.894	0.296	0.086
-423.544	111.571	0.232	0.283
-422.530	7.311	0.095	0.071
-421.515	800.000	0.050	0.216
-420.500	-153.840	0.221	-0.015
-419.486	-26.726	-0.126	-0.074
-418.471	-53.775	-0.047	0.021
-417.457	48.422	0.281	-0.265
-416.442	-140.327	-0.310	-0.033
-415.428	-40.156	-0.138	-0.073
-414.413	108.814	-0.092	0.111
-413.398	204.482	0.119	-0.185
-412.384	800.000	-0.047	0.192
-411.369	284.666	0.156	-0.283
-410.355	-200.000	0.021	-0.232
-409.340	792.790	0.031	-0.087
-408.325	101.975	0.072	0.084
-407.311	135.040	-0.009	0.012
-406.296	35.624	0.195	-0.173
-405.282	-63.489	-0.095	0.039
-404.267	800.000	-0.113	-0.327
-403.252	603.518	0.111	-0.279
-402.238	155.603	0.138	0.191
-401.223	-91.080	-0.218	-0.063
-400.209	-76.896	0.141	-0.050
-399.194	-58.762	-0.060	0.026
-398.179	48.699	0.207	0.195
-397.165	-43.181	0.112	0.057
-396.150	25.547	0.286	0.240
-395.136	620.249	-0.093	0.237
-394.121	-61.491	-0.378	-0.160
-393.106	268.696	-0.137	0.242
-392.092	-200.000	0.022	-0.417
-391.077	200.918	0.163	-0.253
-390.063	229.578	-0.140	-0.230
-389.048	48.282	-0.285	-0.269
-388.033	800.000	-0.072	-0.222
-387.019	-19.801	-0.109	0.068
-386.004	155.569	-0.233	0.323
-384.990	-200.000	0.024	0.156
-383.975	646.206	-0.092	-0.236
-382.960	-115.197	0.320	-0.061
-381.946	-71.308	-0.325	-0.123
-380.931	-98.461	0.157	-0.040
-379.917	-200.000	0.021	-0.173
-378.902	800.000	0.025	0.084
-377.888	-75.843	0.286	-0.102
-376.873	33.199	0.157	0.137
-375.858	233.511	0.233	0.385
-374.844	83.272	-0.187	0.205
-373.829	800.000	0.031	0.093
-372.815	78.943	0.057	0.061
-371.800	-26.284	0.164	0.097
-370.785	32.352	0.136	0.118
-369.771	-200.000	0.004	0.041
-368.756	-23.797	-0.319	-0.193
-367.742	443.743	-0.031	0.068
-366.727	552.595	0.011	0.026
-365.712	166.724	0.108	0.154
-364.698	800.000	-0.079	-0.223
-363.683	711.515	-0.125	0.332
-362.669	-200.000	-0.004	0.116
-361.654	-132.939	0.163	-0.021
-360.639	68.327	0.182	0.188
-359.625	-50.900	0.171	-0.081
-358.610	-86.819	0.154	0.047
-357.596	-200.000	0.000	-0.306
-356.581	48.587	0.135	0.128
-355.566	325.429	-0.019	0.037
-354.552	-200.000	-0.024	-0.344
-353.537	208.622	0.069	0.109
-352.523	800.000	-0.042	0.131
-351.508	-124.650	0.055	0.009
-350.493	28.041	0.430	-0.365
-349.479	453.205	-0.058	-0.130
-348.464	800.000	-0.100	-0.399
-347.450	-200.000	-0.075	-0.477
-346.435	37.262	0.213	-0.190
-345.420	800.000	-0.045	-0.152
-344.406	800.000	0.050	-0.198
-343.391	404.867	0.002	0.004
-342.377	542.835	-0.142	-0.341
-341.362	-59.523	-0.177	-0.076
-340.348	-82.692	-0.285	-0.093
-339.333	-53.644	-0.152	-0.070
-338.318	89.832	-0.240	-0.269
-337.304	-200.000	0.025	0.330
-336.289	255.002	-0.101	0.174
-335.275	-126.506	0.336	-0.050
-334.260	-73.637	-0.283	-0.103
-333.245	717.492	0.070	-0.188
-332.231	800.000	0.029	0.086
-331.216	27.371	-0.234	-0.198
-330.202	-200.000	-0.048	-0.595
-329.187	75.017	0.208	0.220
-328.172	-90.474	-0.440	-0.128
-327.158	-30.732	0.206	-0.117
-326.143	83.105	-0.091	0.099
-325.129	152.123	-0.068	-0.093
-324.114	-115.040	0.119	-0.023
-323.099	1.958	-0.058	0.042
-322.085	15.261	0.296	-0.233
-321.070	551.478	0.024	-0.057
-320.056	345.885	-0.041	0.080
-319.041	205.597	-0.073	-0.114
-318.026	137.054	-0.201	0.264
-317.012	217.742	-0.064	0.102
-315.997	760.871	0.099	-0.269
-314.983	-200.000	-0.024	-0.116
-313.968	213.990	0.149	0.237
-312.953	-152.465	-0.177	-0.013
-311.939	-115.237	0.159	-0.030
-310.924	126.813	0.134	-0.170
-309.910	-173.769	-0.449	-0.013
-308.895	-154.363	-0.151	-0.010
-307.880	-71.941	-0.211	-0.079
-306.866	-114.162	0.055	0.011
-305.851	800.000	-0.027	-0.116
-304.837	37.614	0.098	-0.087
-303.822	124.636	0.120	-0.151
-302.807	800.000	0.066	0.257
-301.793	167.598	-0.077	0.110
-300.778	199.115	0.066	-0.101
-299.764	-156.573	0.277	-0.017
-298.749	800.000	0.035	0.142
-297.735	800.000	-0.054	0.188
-296.720	163.756	0.130	-0.183
-295.705	244.000	-0.134	-0.226
-294.691	-154.125	-0.302	0.021
-293.676	-109.099	0.098	0.021
-292.662	-200.000	-0.048	-0.254
-291.647	-98.716	-0.212	0.054
-290.632	-65.681	0.215	-0.087
-289.618	-19.213	0.120	-0.075
-288.603	800.000	0.021	-0.066
-287.589	-66.877	0.234	-0.093
-286.574	-14.064	-0.232	0.150
-285.559	-200.000	-0.022	-0.181
-284.545	121.753	-0.098	0.123
-283.530	-20.110	0.091	0.056
-282.516	-200.000	0.020	-0.106
-281.501	-112.704	-0.169	-0.034
-280.486	-47.806	0.309	-0.150
-279.472	105.167	0.179	-0.212
-278.457	-200.000	0.007	0.163
-277.443	95.077	0.014	0.016
-276.428	-170.706	0.278	-0.010
-275.413	800.000	-0.064	-0.204
-274.399	-71.280	-0.323	0.121
-273.384	-47.348	0.285	-0.139
-272.370	-200.000	0.036	-0.157
-271.355	800.000	-0.089	0.327
-270.340	161.474	0.184	-0.258
-269.326	-51.495	-0.106	-0.050
-268.311	302.343	-0.041	-0.076
-267.297	311.563	0.062	0.117
-266.282	-56.105	0.317	0.141
-265.267	-148.035	0.316	0.026
-264.253	-94.639	0.278	-0.076
-263.238	800.000	0.033	0.119
-262.224	-200.000	0.072	-0.322
-261.209	66.867	-0.124	0.126
-260.195	-200.000	0.013	-0.106
-259.180	101.339	0.085	0.099
-258.165	-136.472	-0.246	-0.029
-257.151	49.091	0.116	-0.109
-256.136	33.594	0.145	0.126
-255.122	-32.538	-0.319	0.178
-254.107	35.298	-0.157	0.138
-253.092	-135.130	-0.173	0.021
-252.078	-29.058	-0.093	0.054
-251.063	-200.000	-0.013	-0.205
-250.049	-132.805	0.244	0.031
-249.034	50.670	-0.239	-0.226
-248.019	-178.645	0.469	-0.011
-247.005	-200.000	0.074	0.350
-245.990	-8.243	-0.316	0.213
-244.976	-200.000	-0.019	0.169
-243.961	81.581	-0.035	0.038
-242.946	800.000	-0.073	0.270
-241.932	-200.000	0.006	0.211
-240.917	163.804	-0.267	0.376
-239.903	-173.328	0.319	0.010
-238.888	-13.078	0.095	-0.062
-237.873	-190.970	-0.507	-0.005
-236.859	28.104	-0.175	0.148
-235.844	23.069	-0.204	0.168
-234.830	-79.456	0.328	-0.111
-233.815	295.710	-0.038	-0.069
-232.800	5.946	0.243	0.180
-231.786	320.778	-0.066	-0.125
-230.771	-167.630	-0.460	-0.018
-229.757	288.388	0.112	-0.204
-228.742	-173.745	-0.113	0.003
-227.727	732.477	0.090	0.240
-226.713	79.793	0.124	0.134
-225.698	425.604	-0.072	-0.156
-224.684	-75.358	0.087	0.031
-223.669	57.282	0.219	-0.214
-222.655	118.492	-0.197	0.243
-221.640	483.575	0.066	-0.151
-220.625	-76.143	0.250	-0.088
-219.611	-200.000	0.032	0.297
-218.596	-77.691	-0.131	-0.045
-217.582	55.534	-0.264	-0.255
-216.567	-200.000	-0.015	-0.325
-215.552	711.637	-0.147	0.390
-214.538	153.480	0.106	-0.145
-213.523	-7.670	-0.366	-0.248
-212.509	110.220	-0.060	-0.072
-211.494	800.000	-0.058	0.210
-210.479	-161.910	-0.462	-0.023
-209.465	800.000	-0.057	0.165
-208.450	-10.978	0.189	0.125
-207.436	100.031	0.178	-0.206
-206.421	59.196	0.241	0.237
-205.406	208.544	-0.018	0.029
-204.392	-49.753	0.346	0.165
-203.377	100.604	-0.150	-0.174
-202.363	800.000	0.042	0.141
-201.348	169.074	0.141	-0.200
-200.333	235.133	-0.075	0.124
-199.319	145.717	-0.126	-0.168
-198.304	182.634	0.133	-0.196
-197.290	277.245	-0.138	0.245
-196.275	99.281	-0.072	-0.083
-195.260	15.440	0.264	-0.207
-194.246	-63.022	0.012	0.005
-193.231	422.225	-0.057	0.123
-192.217	110.351	-0.115	0.139
-191.202	-16.474	0.227	0.144
-190.187	-200.000	0.022	0.381
-189.173	-39.184	0.172	-0.090
-188.158	-200.000	0.040	0.194
-187.144	-99.994	-0.025	0.006
-186.129	-74.009	0.135	0.049
-185.114	-90.457	0.182	-0.053
-184.100	-200.000	-0.003	-0.077
-183.085	-171.814	0.219	0.007
-182.071	228.048	-0.033	0.054
-181.056	111.216	0.083	0.100
-180.042	170.005	0.105	-0.151
-179.027	-200.000	0.115	0.000
-178.012	800.000	0.030	0.109
-176.998	-200.000	0.008	-0.375
-175.983	-40.673	0.296	-0.153
-174.969	100.006	-0.177	0.205
-173.954	89.942	-0.247	0.275
-172.939	195.961	-0.072	-0.110
-171.925	44.833	0.281	0.258
-170.910	142.376	-0.207	-0.274
-169.896	253.882	-0.118	0.202
-168.881	800.000	-0.023	0.099
-167.866	-93.254	-0.080	-0.022
-166.852	100.090	0.162	0.188
-165.837	8.373	-0.146	0.110
-164.823	-200.000	0.017	0.174
-163.808	2.927	-0.102	0.074
-162.793	-55.984	0.046	-0.020
-161.779	63.362	-0.131	0.131
-160.764	-51.283	-0.197	0.092
-159.750	-200.000	0.045	-0.208
-158.735	-200.000	0.033	-0.271
-157.720	289.663	-0.104	-0.188
-156.706	-71.433	0.058	-0.021
-155.691	-44.110	-0.273	0.137
-154.677	-13.866	0.218	-0.141
-153.662	5.805	0.274	0.202
-152.647	-200.000	-0.018	-0.239
-151.633	-3.868	0.060	0.041
-150.618	189.064	-0.079	0.118
-149.604	-82.122	0.445	0.145
-148.589	800.000	0.074	-0.305
-147.574	800.000	0.060	0.188
-146.560	-200.000	0.034	0.420
-145.545	-200.000	-0.012	-0.224
-144.531	61.516	-0.309	0.307
-143.516	517.936	0.086	-0.200
-142.502	-76.393	-0.125	0.044
-141.487	42.508	0.122	0.111
-140.472	295.881	0.061	0.112
-139.458	-135.418	0.229	0.027
-138.443	52.383	0.210	-0.200
-137.429	-200.000	-0.017	0.148
-136.414	114.045	-0.155	-0.188
-135.399	-200.000	0.032	0.382
-134.385	-50.163	-0.112	-0.053
-133.370	-200.000	0.038	0.314
-132.356	-28.340	-0.271	0.156
-131.341	715.424	-0.135	-0.358
-130.326	800.000	-0.082	0.237
-129.312	225.029	0.268	0.432
-128.297	-26.267	0.300	0.175
-127.283	-71.461	0.174	0.065
-126.268	-83.091	-0.153	-0.049
-125.253	-200.000	0.025	-0.134
-124.239	9.954	-0.154	-0.117
-123.224	-59.285	0.257	-0.110
-122.210	-200.000	0.038	-0.304
-121.195	-56.298	0.251	0.111
