DTS Sentinel unit serial number:	SN413079Multiplexer serial number:	ORYXHardware model number:	OX4-SRSoftware version number:	ORYX F/W v4.00 Oryx Data Collector v3.7.2.0data status	okinstallation	princeton_trtdifferential loss correction	single-endedforward channel	channel 4reverse channel	N/Adate	2019/09/15time	09:29:34forward acquisition time	60.00reverse acquisition time	0.00gamma	496.2192k internal	0.2299k external	0.2299temperature offset calibration	1.0018default loss term (dB/km)	0.3790temperature slope calibration	1.0000multiplexer offset coefficient	1.0000multiplexer slope coefficient	1.0000fibre end	0.00T internal ref (°C)	33.72T ext. ref 1 (°C)	4.96T ext. ref 2 (°C)	30.18length (m)	temperature (°C)	Stokes	anti-Stokes-747.200	-200.000	0.008	0.068
-746.185	-132.262	-0.201	0.027
-745.171	-7.225	0.172	-0.119
-744.156	-69.497	-0.213	-0.083
-743.142	-52.143	0.102	-0.048
-742.127	12.644	0.248	-0.196
-741.112	282.897	0.045	0.082
-740.098	-15.321	-0.272	0.177
-739.083	-200.000	0.023	0.181
-738.069	8.641	-0.221	0.170
-737.054	224.031	0.082	0.136
-736.039	-200.000	-0.003	-0.103
-735.025	20.052	0.211	0.173
-734.010	-83.186	0.104	0.034
-732.996	-4.443	-0.293	0.207
-731.981	176.811	0.131	-0.194
-730.966	-146.020	-0.445	-0.040
-729.952	-117.397	-0.297	0.055
-728.937	0.762	0.164	0.120
-727.923	337.500	0.082	-0.162
-726.908	-200.000	0.012	-0.071
-725.894	380.247	-0.045	0.095
-724.879	113.948	-0.183	0.227
-723.864	83.959	-0.050	-0.055
-722.850	-69.922	-0.123	0.048
-721.835	-72.023	0.259	-0.098
-720.821	800.000	0.115	-0.504
-719.806	-61.119	-0.076	0.033
-718.791	58.185	-0.143	0.143
-717.777	79.008	-0.193	-0.211
-716.762	-120.961	0.062	0.011
-715.748	-200.000	0.030	0.192
-714.733	73.795	-0.199	0.213
-713.718	800.000	0.092	-0.394
-712.704	-83.977	0.553	0.179
-711.689	305.730	0.056	-0.106
-710.675	-82.609	-0.115	0.038
-709.660	20.498	0.126	0.103
-708.645	187.840	-0.163	0.248
-707.631	-155.977	0.222	0.014
-706.616	305.969	-0.101	-0.191
-705.602	260.399	-0.101	-0.178
-704.587	-127.582	0.377	-0.056
-703.572	-0.872	0.031	-0.023
-702.558	43.248	0.238	-0.221
-701.543	-21.343	0.322	0.200
-700.529	-200.000	-0.001	0.098
-699.514	-200.000	-0.075	0.394
-698.499	264.149	-0.191	-0.338
-697.485	34.211	0.120	-0.107
-696.470	-81.413	-0.384	-0.129
-695.456	-20.260	-0.082	-0.052
-694.441	-19.210	-0.178	-0.113
-693.426	-59.697	0.041	-0.018
-692.412	-116.511	-0.169	-0.032
-691.397	-58.975	0.218	0.096
-690.383	274.861	-0.116	-0.209
-689.368	-200.000	-0.085	-0.403
-688.354	-91.770	-0.202	0.058
-687.339	800.000	0.053	0.178
-686.324	-55.048	0.279	-0.128
-685.310	449.583	0.048	-0.108
-684.295	-118.040	-0.303	0.055
-683.281	617.815	-0.085	-0.217
-682.266	800.000	0.090	-0.334
-681.251	-91.830	0.035	-0.010
-680.237	190.154	0.253	0.386
-679.222	88.800	0.123	-0.139
-678.208	800.000	0.088	-0.375
-677.193	36.625	-0.047	-0.042
-676.178	318.112	0.152	-0.294
-675.164	-200.000	-0.031	-0.185
-674.149	-200.000	0.004	0.122
-673.135	800.000	0.086	-0.353
-672.120	111.268	0.204	0.250
-671.105	-200.000	0.020	0.150
-670.091	-38.715	-0.020	-0.011
-669.076	113.491	0.022	-0.027
-668.062	-200.000	-0.066	0.337
-667.047	-178.551	0.119	0.003
-666.032	340.375	-0.032	-0.063
-665.018	47.000	0.227	-0.215
-664.003	-47.188	-0.134	0.067
-662.989	-200.000	-0.036	0.312
-661.974	10.142	0.114	-0.088
-660.959	800.000	-0.055	-0.180
-659.945	78.690	-0.347	-0.378
-658.930	800.000	0.091	-0.266
-657.916	28.278	0.092	0.079
-656.901	-159.500	0.162	0.009
-655.886	524.246	-0.053	-0.127
-654.872	-200.000	-0.005	0.237
-653.857	-200.000	-0.008	0.120
-652.843	-23.036	0.398	-0.244
-651.828	-135.362	0.495	-0.060
-650.814	-200.000	-0.007	-0.170
-649.799	-80.935	-0.087	-0.029
-648.784	-45.865	0.095	-0.048
-647.770	5.403	-0.225	0.169
-646.755	773.288	0.187	0.519
-645.741	-106.465	-0.133	0.030
-644.726	-66.699	0.080	-0.032
-643.711	-181.277	0.320	0.006
-642.697	182.684	0.117	0.175
-641.682	67.806	-0.134	-0.139
-640.668	-72.922	0.102	0.038
-639.653	90.751	-0.183	-0.208
-638.638	-71.436	0.445	-0.169
-637.624	7.971	-0.280	-0.214
-636.609	-200.000	-0.046	0.209
-635.595	-88.273	0.215	-0.065
-634.580	800.000	-0.033	-0.146
-633.565	-150.661	-0.240	-0.019
-632.551	-81.909	0.382	-0.127
-631.536	276.927	0.091	-0.165
-630.522	99.497	0.124	-0.146
-629.507	-68.747	0.173	0.068
-628.492	-67.141	-0.185	-0.074
-627.478	308.880	0.015	-0.029
-626.463	18.601	-0.110	0.089
-625.449	-16.482	-0.313	-0.202
-624.434	-200.000	-0.022	0.162
-623.419	-30.111	0.095	-0.055
-622.405	-123.652	0.182	0.029
-621.390	142.691	0.074	0.100
-620.376	-59.055	-0.260	0.114
-619.361	-125.035	0.359	-0.056
-618.346	23.366	0.287	0.239
-617.332	-200.000	-0.040	0.427
-616.317	800.000	-0.121	0.492
-615.303	-200.000	-0.002	0.267
-614.288	278.220	0.127	-0.229
-613.273	-200.000	0.393	-0.002
-612.259	800.000	0.045	-0.163
-611.244	-200.000	-0.025	-0.199
-610.230	-0.464	0.086	-0.062
-609.215	53.513	-0.073	0.071
-608.201	800.000	-0.035	-0.113
-607.186	331.237	0.074	-0.145
-606.171	-44.291	0.416	-0.211
-605.157	-122.872	-0.328	-0.054
-604.142	369.742	-0.129	-0.266
-603.128	16.097	0.164	-0.131
-602.113	154.274	0.194	0.270
-601.098	-29.036	-0.061	0.035
-600.084	800.000	0.020	-0.059
-599.069	800.000	0.104	-0.371
-598.055	-87.667	-0.309	0.095
-597.040	22.411	-0.296	-0.246
-596.025	-124.700	-0.150	-0.024
-595.011	150.519	-0.089	-0.123
-593.996	73.831	0.238	-0.254
-592.982	-200.000	-0.022	0.113
-591.967	657.276	0.059	0.153
-590.952	-61.331	0.121	0.051
-589.938	158.188	-0.140	-0.197
-588.923	800.000	0.040	-0.115
-587.909	800.000	0.076	-0.279
-586.894	-167.950	0.382	0.015
-585.879	800.000	-0.043	-0.132
-584.865	0.946	0.174	-0.126
-583.850	140.212	-0.129	0.172
-582.836	221.227	-0.073	0.119
-581.821	-37.605	0.239	-0.129
-580.806	93.763	0.127	-0.146
-579.792	-83.808	-0.294	0.095
-578.777	294.960	-0.077	0.143
-577.763	-152.485	-0.171	0.012
-576.748	126.627	-0.073	0.094
-575.733	239.811	-0.078	0.132
-574.719	800.000	0.063	0.181
-573.704	49.481	-0.332	-0.316
-572.690	-74.565	0.177	0.065
-571.675	800.000	-0.051	0.177
-570.661	-200.000	-0.025	-0.110
-569.646	-140.256	-0.180	0.019
-568.631	281.996	0.071	0.129
-567.617	-169.818	0.564	0.021
-566.602	-159.523	-0.133	-0.008
-565.588	800.000	-0.146	0.499
-564.573	274.836	-0.111	0.199
-563.558	-15.601	-0.230	-0.149
-562.544	47.296	0.216	-0.203
-561.529	-89.301	-0.170	0.051
-560.515	7.172	0.147	0.111
-559.500	-200.000	-0.025	0.304
-558.485	-41.171	-0.163	-0.085
-557.471	275.623	-0.126	-0.226
-556.456	800.000	-0.092	-0.279
-555.442	-77.722	0.130	0.045
-554.427	-92.708	0.268	0.076
-553.412	800.000	0.087	0.299
-552.398	800.000	0.047	0.178
-551.383	800.000	0.057	-0.192
-550.369	12.546	0.209	-0.164
-549.354	-60.462	-0.312	0.134
-548.339	-86.932	0.225	0.070
-547.325	526.219	-0.086	0.205
-546.310	800.000	0.002	-0.010
-545.296	7.023	0.077	-0.058
-544.281	-95.656	-0.231	0.062
-543.266	-74.953	0.181	0.065
-542.252	-200.000	-0.036	0.366
-541.237	287.564	0.101	0.184
-540.223	-200.000	0.001	-0.013
-539.208	193.952	0.107	-0.164
-538.193	-79.430	-0.250	-0.085
-537.179	-121.269	0.544	0.092
-536.164	-200.000	0.037	-0.197
-535.150	800.000	0.068	0.248
-534.135	-147.986	0.101	-0.009
-533.121	269.994	-0.122	0.217
-532.106	-28.991	-0.136	0.079
-531.091	800.000	0.062	0.229
-530.077	-200.000	0.050	-0.245
-529.062	-106.645	-0.228	0.051
-528.048	54.643	0.225	-0.220
-527.033	251.570	0.174	-0.299
-526.018	-80.409	0.398	0.135
-525.004	-200.000	-0.022	-0.123
-523.989	-200.000	-0.262	-0.000
-522.975	41.505	-0.139	0.128
-521.960	-200.000	-0.006	-0.263
-520.945	431.167	-0.102	-0.224
-519.931	-26.776	0.158	0.094
-518.916	800.000	0.032	0.108
-517.902	-64.267	-0.224	0.092
-516.887	800.000	0.094	-0.314
-515.872	-200.000	-0.044	-0.247
-514.858	127.951	0.097	-0.125
-513.843	-200.000	0.003	-0.312
-512.829	-179.765	0.203	0.004
-511.814	285.217	-0.055	0.101
-510.799	114.648	0.145	0.178
-509.785	11.805	0.127	-0.098
-508.770	-200.000	-0.001	0.092
-507.756	-156.906	0.520	0.032
-506.741	-200.000	-0.001	-0.090
-505.726	48.814	0.158	-0.150
-504.712	108.757	0.158	-0.191
-503.697	224.969	0.173	0.283
-502.683	-150.781	-0.226	-0.017
-501.668	597.825	-0.075	-0.189
-500.653	800.000	-0.083	-0.259
-499.639	-49.845	-0.390	0.187
-498.624	292.267	0.020	0.036
-497.610	16.162	-0.095	-0.076
-496.595	800.000	0.065	0.211
-495.581	-47.136	-0.047	0.023
-494.566	462.652	0.021	0.048
-493.551	-121.877	0.057	0.010
-492.537	242.337	-0.206	0.348
-491.522	-200.000	0.005	-0.306
-490.508	306.070	0.045	-0.085
-489.493	-63.483	0.177	0.074
-488.478	-192.074	0.033	-0.000
-487.464	-69.681	-0.243	0.094
-486.449	-152.335	0.106	0.008
-485.435	-200.000	-0.015	-0.149
-484.420	-200.000	0.027	0.230
-483.405	-200.000	-0.005	-0.191
-482.391	91.857	-0.128	0.145
-481.376	-200.000	0.045	-0.239
-480.362	-200.000	-0.019	0.188
-479.347	141.430	-0.234	0.312
-478.332	234.757	0.146	-0.243
-477.318	99.868	-0.202	-0.236
-476.303	260.207	0.029	0.051
-475.289	-36.628	-0.185	-0.100
-474.274	-200.000	0.025	0.249
-473.259	262.092	0.087	0.153
-472.245	536.856	-0.133	0.318
-471.230	800.000	-0.086	0.348
-470.216	800.000	0.049	0.183
-469.201	-44.012	-0.254	-0.129
-468.186	-200.000	0.003	0.125
-467.172	-15.927	-0.148	0.095
-466.157	-200.000	0.019	0.124
-465.143	139.098	-0.077	-0.102
-464.128	-15.867	-0.245	0.157
-463.113	180.641	0.204	-0.302
-462.099	703.962	-0.100	-0.266
-461.084	-200.000	0.059	0.282
-460.070	-181.208	-0.194	-0.004
-459.055	-200.000	-0.047	0.225
-458.040	236.838	-0.161	0.269
-457.026	126.833	-0.063	-0.080
-456.011	77.427	0.160	-0.172
-454.997	144.177	-0.053	0.071
-453.982	206.299	-0.019	-0.030
-452.968	-120.710	-0.206	0.035
-451.953	-86.664	0.183	-0.056
-450.938	-200.000	-0.060	0.386
-449.924	-200.000	-0.014	0.198
-448.909	403.588	0.096	-0.203
-447.895	239.368	0.161	-0.270
-446.880	-160.835	0.129	0.007
-445.865	-91.688	-0.282	0.081
-444.851	475.381	0.038	0.087
-443.836	85.902	-0.052	0.058
-442.822	-200.000	-0.002	-0.058
-441.807	800.000	0.116	0.350
-440.792	25.524	0.127	-0.107
-439.778	-45.522	-0.189	0.094
-438.763	800.000	-0.132	-0.438
-437.749	-200.000	0.028	-0.235
-436.734	800.000	0.004	0.015
-435.719	800.000	0.034	-0.113
-434.705	-97.874	-0.058	0.015
-433.690	-118.007	-0.239	-0.043
-432.676	252.594	0.071	-0.122
-431.661	-17.666	-0.093	0.059
-430.646	368.584	-0.099	0.203
-429.632	-126.713	0.167	0.025
-428.617	-48.369	-0.282	0.137
-427.603	-74.376	0.324	0.118
-426.588	-79.001	-0.523	0.179
-425.573	800.000	-0.020	0.077
-424.559	24.839	-0.060	0.050
-423.544	-200.000	0.005	0.181
-422.530	-132.370	-0.053	-0.007
-421.515	-90.093	-0.137	0.040
-420.500	-26.827	-0.110	0.065
-419.486	67.748	-0.178	0.184
-418.471	-91.276	-0.187	-0.054
-417.457	171.357	0.177	-0.256
-416.442	11.491	0.135	0.104
-415.428	74.990	0.048	0.051
-414.413	-126.805	0.372	0.055
-413.398	-84.992	0.165	0.052
-412.384	376.458	0.020	-0.040
-411.369	-66.180	0.120	0.048
-410.355	-157.152	-0.193	-0.012
-409.340	-200.000	-0.001	-0.212
-408.325	-200.000	-0.035	0.186
-407.311	-123.154	-0.456	0.074
-406.296	48.762	-0.216	0.204
-405.282	800.000	0.036	-0.144
-404.267	-152.158	0.218	-0.016
-403.252	-85.388	-0.302	-0.095
-402.238	33.202	-0.134	-0.117
-401.223	248.726	-0.016	-0.027
-400.209	168.191	-0.009	0.013
-399.194	-200.000	-0.004	0.187
-398.179	-166.761	-0.073	0.003
-397.165	800.000	-0.076	-0.295
-396.150	-15.760	0.199	-0.128
-395.136	-200.000	0.025	0.363
-394.121	-24.913	0.080	-0.048
-393.106	-200.000	-0.035	0.213
-392.092	800.000	-0.069	0.256
-391.077	-75.286	0.170	-0.061
-390.063	395.109	0.056	-0.118
-389.048	-68.952	-0.054	-0.021
-388.033	-35.630	0.101	0.055
-387.019	-148.636	0.134	-0.011
-386.004	124.107	-0.103	0.131
-384.990	-158.292	0.134	-0.008
-383.975	-8.861	0.127	-0.085
-382.960	-133.221	0.232	-0.030
-381.946	-48.829	0.207	0.100
-380.931	27.953	-0.281	-0.239
-379.917	-169.297	-0.022	0.001
-378.902	72.583	0.166	-0.175
-377.888	-129.830	-0.262	0.036
-376.873	-200.000	0.135	-0.603
-375.858	41.884	-0.116	0.106
-374.844	-200.000	-0.031	-0.180
-373.829	5.832	-0.104	0.078
-372.815	234.848	0.085	-0.140
-371.800	800.000	0.043	-0.181
-370.785	566.408	0.033	0.081
-369.771	-164.352	-0.282	-0.013
-368.756	132.418	0.063	0.081
-367.742	-200.000	-0.024	0.195
-366.727	-145.117	-0.418	0.038
-365.712	-200.000	0.014	-0.406
-364.698	-100.518	-0.158	0.039
-363.683	-12.862	-0.078	-0.051
-362.669	-138.612	-0.312	-0.034
-361.654	16.493	-0.098	0.078
-360.639	109.696	0.160	0.193
-359.625	154.252	0.100	-0.139
-358.610	-200.000	-0.031	-0.409
-357.596	271.163	-0.028	-0.049
-356.581	434.018	0.088	-0.192
-355.566	572.110	0.101	-0.248
-354.552	93.671	0.020	0.023
-353.537	104.209	0.187	-0.221
-352.523	-61.657	0.181	0.076
-351.508	45.392	0.155	-0.144
-350.493	-200.000	-0.022	-0.152
-349.479	151.487	0.044	-0.061
-348.464	800.000	0.071	-0.219
-347.450	-174.570	0.107	-0.003
-346.435	17.935	0.130	0.104
-345.420	177.032	0.136	0.199
-344.406	-200.000	0.032	0.148
-343.391	-13.695	0.125	0.082
-342.377	800.000	0.112	0.416
-341.362	-47.272	0.030	-0.015
-340.348	-200.000	0.055	-0.282
-339.333	206.416	0.097	-0.152
-338.318	-173.455	-0.454	0.014
-337.304	800.000	-0.028	0.120
-336.289	-200.000	0.028	0.251
-335.275	1.447	0.409	0.296
-334.260	-200.000	-0.030	0.252
-333.245	-128.977	0.263	-0.037
-332.231	-115.728	0.133	-0.025
-331.216	50.019	-0.208	-0.197
-330.202	90.691	-0.351	-0.394
-329.187	-39.591	-0.143	0.075
-328.172	-82.002	-0.090	-0.029
-327.158	800.000	0.103	-0.285
-326.143	795.759	0.059	-0.163
-325.129	-130.676	0.239	-0.032
-324.114	-200.000	0.019	-0.149
-323.099	-200.000	-0.013	0.130
-322.085	-99.107	-0.265	0.067
-321.070	105.747	0.236	0.280
-320.056	-29.479	-0.139	-0.080
-319.041	0.518	0.057	-0.041
-318.026	-200.000	0.015	-0.320
-317.012	800.000	0.040	0.147
-315.997	-195.222	-0.075	0.001
-314.983	-67.319	0.181	0.072
-313.968	-29.213	0.115	0.066
-312.953	782.007	-0.042	0.115
-311.939	-84.950	-0.050	-0.016
-310.924	-139.891	-0.178	-0.019
-309.910	269.404	-0.129	-0.226
-308.895	719.753	0.097	-0.259
-307.880	-45.726	0.112	0.056
-306.866	614.685	0.112	-0.283
-305.851	800.000	0.074	0.254
-304.837	-140.839	-0.093	-0.010
-303.822	48.494	-0.206	0.194
-302.807	-138.348	0.425	-0.047
-301.793	-53.173	0.059	0.027
-300.778	-102.438	-0.142	0.034
-299.764	96.894	-0.240	0.276
-298.749	85.534	-0.178	0.196
-297.735	19.603	-0.039	0.032
-296.720	70.121	-0.236	0.245
-295.705	800.000	0.019	0.062
-294.691	101.054	-0.236	0.275
-293.676	-200.000	-0.025	-0.302
-292.662	-105.974	0.113	0.026
-291.647	330.925	0.030	-0.057
-290.632	800.000	0.023	0.095
-289.618	-109.692	0.091	-0.019
-288.603	489.528	-0.029	0.066
-287.589	-200.000	-0.034	-0.383
-286.574	-193.818	-0.046	-0.000
-285.559	-105.960	-0.128	0.029
-284.545	-200.000	0.032	0.521
-283.530	383.202	-0.047	0.097
-282.516	140.856	0.175	-0.232
-281.501	-200.000	0.014	0.228
-280.486	-200.000	-0.005	0.082
-279.472	-31.365	-0.231	-0.130
-278.457	30.580	-0.059	0.051
-277.443	-114.347	0.368	0.071
-276.428	-99.682	-0.385	-0.097
-275.413	-200.000	0.025	0.574
-274.399	-111.653	0.370	0.075
-273.384	-83.690	0.042	0.013
-272.370	33.484	-0.113	-0.098
-271.355	71.125	0.379	-0.393
-270.340	-117.346	-0.139	-0.025
-269.326	161.730	-0.035	0.049
-268.311	97.672	-0.064	-0.074
-267.297	-105.502	0.224	0.051
-266.282	800.000	0.035	-0.126
-265.267	-75.868	-0.049	-0.018
-264.253	441.986	0.049	0.108
-263.238	-56.886	0.031	0.014
-262.224	800.000	0.037	-0.105
-261.209	402.708	0.074	-0.155
-260.195	-200.000	0.026	0.115
-259.180	-23.718	0.090	-0.054
-258.165	90.123	-0.132	0.148
-257.151	11.517	-0.290	0.223
-256.136	44.616	-0.152	0.140
-255.122	-200.000	-0.263	0.001
-254.107	-149.610	0.221	-0.017
-253.092	37.841	-0.091	0.081
-252.078	-22.025	-0.223	0.135
-251.063	279.226	-0.106	-0.189
-250.049	216.292	0.146	0.233
-249.034	6.014	-0.291	0.216
-248.019	-130.321	-0.216	-0.029
-247.005	-76.699	0.246	-0.086
-245.990	-99.092	0.043	0.011
-244.976	-200.000	-0.022	0.326
-243.961	-200.000	0.046	0.361
-242.946	123.150	0.143	-0.180
-241.932	225.244	-0.049	0.080
-240.917	15.924	-0.128	0.101
-239.903	425.760	-0.081	0.174
-238.888	461.798	0.101	-0.225
-237.873	-26.340	0.307	-0.180
-236.859	90.105	-0.166	0.186
-235.844	30.351	0.198	0.169
-234.830	-143.463	0.104	0.010
-233.815	-142.382	-0.189	-0.019
-232.800	10.507	0.017	0.013
-231.786	-80.082	0.203	-0.068
-230.771	439.714	0.148	-0.323
-229.757	-51.366	-0.155	0.073
-228.742	-200.000	0.083	-0.473
-227.727	-200.000	-0.013	0.346
-226.713	77.824	-0.156	-0.166
-225.698	465.875	0.088	-0.198
-224.684	-26.019	0.176	-0.103
-223.669	800.000	0.113	0.359
-222.655	350.217	0.172	-0.340
-221.640	788.318	-0.214	0.586
-220.625	-165.088	0.091	-0.004
-219.611	-119.804	0.318	0.055
-218.596	-200.000	-0.014	-0.372
-217.582	-200.000	-0.028	-0.144
-216.567	5.309	-0.254	-0.187
-215.552	712.381	-0.053	-0.141
-214.538	800.000	-0.036	-0.135
-213.523	-200.000	0.003	-0.112
-212.509	-51.136	-0.093	0.043
-211.494	-106.352	-0.123	0.027
-210.479	800.000	0.027	0.113
-209.465	-200.000	0.016	0.354
-208.450	89.466	-0.253	-0.282
-207.436	335.486	-0.142	-0.276
-206.421	176.876	-0.028	0.041
-205.406	-53.294	0.138	0.063
-204.392	44.636	-0.175	0.161
-203.377	17.766	-0.130	-0.103
-202.363	-0.338	0.110	-0.078
-201.348	453.885	0.060	0.133
-200.333	345.305	0.062	0.122
-199.319	-136.460	-0.383	-0.044
-198.304	-200.000	0.011	0.313
-197.290	604.654	-0.142	-0.352
-196.275	-21.618	0.277	-0.168
-195.260	-154.915	-0.085	-0.006
-194.246	-16.211	0.165	0.105
-193.231	-71.833	-0.119	-0.044
-192.217	43.325	0.052	-0.047
-191.202	380.013	0.055	-0.113
-190.187	274.249	-0.133	-0.235
-189.173	800.000	-0.060	-0.199
-188.158	800.000	0.064	0.214
-187.144	32.035	-0.074	-0.064
-186.129	800.000	0.029	-0.095
-185.114	16.800	0.418	-0.330
-184.100	800.000	0.046	-0.173
-183.085	-53.102	-0.456	-0.209
-182.071	-114.797	-0.234	0.045
-181.056	799.559	-0.053	0.145
-180.042	-82.764	-0.241	-0.078
-179.027	-49.480	0.099	-0.047
-178.012	-86.662	0.250	-0.077
-176.998	105.758	-0.169	0.200
-175.983	-117.217	-0.430	-0.078
-174.969	-200.000	-0.020	0.210
-173.954	-42.832	0.321	-0.163
-172.939	55.687	0.241	-0.233
-171.925	-91.941	-0.296	0.084
-170.910	-101.280	0.292	0.071
-169.896	-19.520	0.350	-0.216
-168.881	-200.000	-0.013	-0.104
-167.866	-118.148	-0.482	0.086
-166.852	381.001	-0.078	-0.160
-165.837	70.535	0.182	0.188
-164.823	-83.137	0.047	-0.015
-163.808	260.177	0.187	0.323
-162.793	150.648	-0.053	0.072
-161.779	-2.577	0.178	-0.124
-160.764	411.384	-0.019	0.039
-159.750	250.022	0.227	0.384
-158.735	241.756	0.136	-0.227
-157.720	800.000	0.017	0.068
-156.706	-200.000	-0.086	0.424
-155.691	800.000	0.056	-0.223
-154.677	9.599	0.229	-0.173
-153.662	-189.301	-0.279	-0.003
-152.647	404.794	-0.089	-0.187
-151.633	262.784	-0.094	-0.163
-150.618	680.239	0.050	-0.129
-149.604	-24.576	0.161	-0.095
-148.589	-88.371	0.151	0.045
-147.574	-25.753	0.140	-0.082
-146.560	53.801	-0.062	-0.059
-145.545	270.043	-0.060	-0.105
-144.531	-22.418	0.504	-0.304
-143.516	-200.000	0.000	0.368
-142.502	-58.357	0.216	0.093
-141.487	-200.000	-0.001	0.058
-140.472	117.873	0.065	0.080
-139.458	-127.154	0.182	0.027
-138.443	-112.636	-0.189	-0.038
-137.429	-26.094	0.262	-0.153
-136.414	435.449	-0.025	-0.053
-135.399	3.742	0.154	0.112
-134.385	373.866	-0.052	0.105
-133.370	-56.586	0.233	0.103
-132.356	109.126	-0.126	-0.150
-131.341	546.550	0.066	0.158
-130.326	-89.652	-0.267	-0.078
-129.312	-200.000	0.014	0.186
-128.297	402.946	-0.042	0.087
-127.283	-73.161	0.127	-0.046
-126.268	68.881	-0.071	0.073
-125.253	108.079	-0.191	0.227
-124.239	215.445	0.141	-0.223
-123.224	-200.000	0.009	-0.218
-122.210	-200.000	0.003	0.148
-121.195	-128.232	0.267	0.038
