DTS Sentinel unit serial number:	SN413079Multiplexer serial number:	ORYXHardware model number:	OX4-SRSoftware version number:	ORYX F/W v4.00 Oryx Data Collector v3.7.2.0data status	okinstallation	princeton_trtdifferential loss correction	single-endedforward channel	channel 4reverse channel	N/Adate	2019/09/15time	23:49:35forward acquisition time	60.00reverse acquisition time	0.00gamma	496.2192k internal	0.2322k external	0.2322temperature offset calibration	0.9962default loss term (dB/km)	0.3790temperature slope calibration	1.0000multiplexer offset coefficient	1.0000multiplexer slope coefficient	1.0000fibre end	0.00T internal ref (°C)	27.94T ext. ref 1 (°C)	9.30T ext. ref 2 (°C)	21.66length (m)	temperature (°C)	Stokes	anti-Stokes-747.200	8.101	-0.104	0.079
-746.185	-200.000	-0.040	0.377
-745.171	-77.880	0.286	-0.100
-744.156	-200.000	0.050	0.326
-743.142	-107.936	-0.215	-0.047
-742.127	476.467	-0.070	-0.160
-741.112	-200.000	-0.011	-0.242
-740.098	-69.968	-0.114	0.044
-739.083	-200.000	-0.046	-0.287
-738.069	-95.981	0.151	-0.041
-737.054	-138.357	0.247	0.028
-736.039	70.227	-0.176	-0.183
-735.025	-94.498	0.403	0.111
-734.010	168.299	-0.340	-0.490
-732.996	-200.000	0.120	-0.577
-731.981	309.658	-0.056	-0.106
-730.966	-200.000	-0.041	0.283
-729.952	14.360	-0.316	0.249
-728.937	800.000	-0.015	0.049
-727.923	133.610	0.088	0.115
-726.908	-200.000	0.014	-0.298
-725.894	473.933	0.158	-0.360
-724.879	40.425	-0.215	-0.196
-723.864	15.359	0.125	0.099
-722.850	211.117	0.121	-0.193
-721.835	-200.000	0.058	0.262
-720.821	-200.000	-0.014	-0.122
-719.806	263.356	0.032	-0.056
-718.791	97.712	-0.212	0.246
-717.777	4.533	-0.289	0.214
-716.762	-81.362	-0.415	-0.138
-715.748	-76.891	-0.308	-0.109
-714.733	-192.156	0.144	-0.001
-713.718	-91.527	-0.401	-0.115
-712.704	-45.174	0.214	0.108
-711.689	179.705	0.190	0.280
-710.675	30.302	-0.209	0.180
-709.660	86.498	0.330	-0.367
-708.645	-200.000	-0.001	-0.212
-707.631	-16.437	0.024	-0.015
-706.616	800.000	0.054	0.153
-705.602	257.452	-0.113	0.196
-704.587	671.723	0.033	-0.086
-703.572	-45.040	0.171	0.086
-702.558	187.500	-0.109	0.164
-701.543	-83.209	0.158	0.051
-700.529	-200.000	0.006	0.133
-699.514	-109.336	-0.293	0.063
-698.499	443.806	-0.054	-0.120
-697.485	-200.000	0.004	-0.054
-696.470	-7.326	0.068	-0.046
-695.456	-200.000	-0.034	-0.189
-694.441	-200.000	0.090	-0.484
-693.426	748.522	-0.100	-0.271
-692.412	-70.258	0.390	-0.149
-691.397	109.135	-0.130	0.157
-690.383	-200.000	0.009	0.093
-689.368	143.259	0.219	0.294
-688.354	11.677	-0.172	0.133
-687.339	800.000	0.043	-0.176
-686.324	612.439	0.063	0.159
-685.310	-21.966	-0.178	0.109
-684.295	-200.000	-0.034	-0.231
-683.281	-100.208	0.069	0.017
-682.266	-2.236	-0.176	-0.125
-681.251	11.559	0.195	-0.151
-680.237	800.000	-0.126	-0.439
-679.222	-200.000	-0.001	-0.145
-678.208	-54.877	0.205	0.093
-677.193	413.568	0.068	-0.147
-676.178	-200.000	-0.010	0.373
-675.164	29.812	0.364	-0.313
-674.149	83.931	-0.345	-0.379
-673.135	-63.660	-0.243	-0.101
-672.120	-120.121	-0.333	0.057
-671.105	84.763	-0.114	-0.125
-670.091	-200.000	-0.014	-0.169
-669.076	-72.645	0.062	0.023
-668.062	299.157	0.102	0.189
-667.047	311.462	0.178	-0.337
-666.032	800.000	0.029	-0.115
-665.018	145.090	-0.183	-0.246
-664.003	-5.062	-0.260	-0.180
-662.989	152.521	-0.019	0.026
-661.974	-30.825	-0.243	0.138
-660.959	254.012	-0.176	-0.304
-659.945	19.805	-0.310	-0.252
-658.930	-79.541	-0.284	-0.096
-657.916	800.000	-0.094	0.278
-656.901	-107.591	-0.110	0.024
-655.886	-140.112	-0.173	0.018
-654.872	-158.352	0.185	0.011
-653.857	-168.080	0.444	-0.017
-652.843	61.124	-0.166	0.166
-651.828	-200.000	-0.008	-0.264
-650.814	176.869	0.068	0.100
-649.799	-200.000	-0.010	0.220
-648.784	-26.387	0.106	-0.063
-647.770	800.000	-0.079	-0.241
-646.755	-200.000	0.055	0.267
-645.741	42.602	-0.152	0.139
-644.726	-147.344	-0.185	-0.016
-643.711	-103.405	-0.292	-0.069
-642.697	-145.032	0.103	-0.009
-641.682	-150.323	-0.112	-0.009
-640.668	-200.000	0.017	0.133
-639.653	109.728	0.164	-0.198
-638.638	-200.000	0.050	0.349
-637.624	60.797	-0.206	-0.206
-636.609	-163.288	-0.167	0.008
-635.595	194.251	0.147	0.223
-634.580	-117.954	-0.273	-0.049
-633.565	-176.550	-0.042	-0.001
-632.551	271.791	0.179	0.317
-631.536	-31.218	0.403	0.228
-630.522	-106.116	-0.163	0.037
-629.507	-200.000	0.014	-0.160
-628.492	477.278	-0.074	0.168
-627.478	-10.106	-0.062	0.041
-626.463	297.305	-0.151	0.280
-625.449	-114.971	0.330	0.063
-624.434	199.820	-0.219	-0.338
-623.419	177.224	-0.128	-0.187
-622.405	405.091	0.096	-0.203
-621.390	2.982	-0.206	0.150
-620.376	-200.000	0.034	0.184
-619.361	120.112	0.054	0.067
-618.346	19.377	0.088	-0.071
-617.332	9.135	-0.143	0.109
-616.317	17.945	-0.041	-0.033
-615.303	800.000	0.069	0.215
-614.288	37.956	-0.054	-0.048
-613.273	25.201	-0.319	0.267
-612.259	800.000	-0.107	0.390
-611.244	34.290	-0.172	0.151
-610.230	69.669	0.158	-0.163
-609.215	800.000	0.064	0.245
-608.201	-200.000	0.002	0.099
-607.186	189.607	-0.078	-0.117
-606.171	800.000	0.042	0.120
-605.157	310.763	-0.046	-0.087
-604.142	176.799	-0.144	0.211
-603.128	-200.000	-0.024	0.122
-602.113	101.105	0.121	-0.141
-601.098	7.824	0.059	0.044
-600.084	-200.000	-0.003	-0.399
-599.069	-61.728	-0.222	0.093
-598.055	-200.000	-0.016	-0.320
-597.040	5.409	0.319	-0.237
-596.025	-120.552	-0.229	-0.039
-595.011	96.269	-0.156	0.180
-593.996	-98.143	-0.171	0.044
-592.982	-59.230	0.456	0.198
-591.967	800.000	-0.107	0.401
-590.952	702.528	0.104	0.274
-589.938	-27.838	0.426	-0.248
-588.923	-17.878	-0.125	0.079
-587.909	164.965	0.065	0.093
-586.894	167.025	-0.192	0.273
-585.879	-44.838	-0.230	-0.115
-584.865	394.251	-0.189	-0.396
-583.850	267.063	0.114	-0.200
-582.836	118.127	0.090	-0.111
-581.821	-22.006	-0.417	-0.254
-580.806	-47.627	-0.080	-0.039
-579.792	800.000	0.028	0.091
-578.777	106.169	0.209	0.249
-577.763	-60.577	-0.259	-0.110
-576.748	800.000	0.046	-0.187
-575.733	455.743	0.015	-0.034
-574.719	-200.000	0.021	-0.102
-573.704	-200.000	0.012	0.191
-572.690	-200.000	0.403	-0.001
-571.675	-200.000	0.028	-0.128
-570.661	-69.867	-0.250	-0.096
-569.646	-173.215	0.453	-0.014
-568.631	50.631	0.127	0.120
-567.617	6.141	-0.098	-0.073
-566.602	-110.852	-0.153	0.032
-565.588	710.299	-0.077	-0.203
-564.573	-200.000	0.017	-0.127
-563.558	-200.000	0.032	0.173
-562.544	1.439	-0.130	-0.094
-561.529	548.807	0.064	-0.153
-560.515	-200.000	0.072	0.392
-559.500	-200.000	-0.029	-0.234
-558.485	-9.624	0.182	0.122
-557.471	-200.000	-0.002	-0.214
-556.456	-200.000	0.028	0.139
-555.442	4.099	-0.156	0.114
-554.427	-48.349	0.088	-0.043
-553.412	49.301	-0.187	-0.176
-552.398	641.774	-0.034	0.087
-551.383	335.611	-0.201	0.390
-550.369	107.335	-0.151	-0.180
-549.354	-9.184	-0.312	0.209
-548.339	-27.258	-0.199	0.116
-547.325	-200.000	-0.019	-0.100
-546.310	-117.216	-0.133	0.024
-545.296	-151.039	0.112	0.008
-544.281	-200.000	-0.039	-0.380
-543.266	-69.986	0.349	-0.133
-542.252	293.393	0.095	-0.173
-541.237	-128.286	-0.031	0.004
-540.223	-96.473	-0.368	0.097
-539.208	440.523	-0.083	0.182
-538.193	-3.492	0.279	-0.195
-537.179	369.007	-0.071	0.145
-536.164	-41.583	0.052	0.027
-535.150	655.541	0.121	-0.311
-534.135	-76.980	0.203	-0.071
-533.121	102.172	-0.114	-0.134
-532.106	-200.000	-0.059	-0.286
-531.091	61.777	0.033	0.032
-530.077	-41.227	-0.266	-0.137
-529.062	-200.000	-0.003	0.065
-528.048	-139.562	0.188	-0.020
-527.033	23.412	-0.049	-0.041
-526.018	-34.510	-0.141	0.077
-525.004	-200.000	0.008	-0.135
-523.989	-78.999	-0.317	-0.108
-522.975	800.000	-0.104	0.371
-521.960	305.399	-0.050	0.092
-520.945	-53.599	0.182	0.083
-519.931	-200.000	0.040	0.506
-518.916	-36.152	-0.236	-0.128
-517.902	60.886	0.091	0.091
-516.887	-65.332	-0.062	0.025
-515.872	-78.787	-0.146	0.050
-514.858	-200.000	0.066	-0.304
-513.843	286.129	0.169	0.306
-512.829	323.834	-0.144	0.275
-511.814	85.183	0.056	0.061
-510.799	72.840	0.134	-0.140
-509.785	-200.000	0.003	0.052
-508.770	-200.000	0.006	-0.076
-507.756	-21.449	-0.312	-0.190
-506.741	66.985	0.064	0.065
-505.726	-200.000	0.002	-0.136
-504.712	-17.984	0.247	-0.155
-503.697	800.000	-0.051	-0.190
-502.683	-20.282	0.456	0.281
-501.668	21.317	-0.285	-0.232
-500.653	222.806	-0.052	0.084
-499.639	4.377	-0.145	-0.106
-498.624	109.500	0.179	-0.214
-497.610	-122.219	-0.167	0.027
-496.595	-200.000	0.027	0.262
-495.581	-200.000	0.069	0.553
-494.566	-117.976	-0.077	0.014
-493.551	-71.746	-0.309	0.115
-492.537	165.559	0.075	-0.106
-491.522	-55.146	0.289	0.130
-490.508	-94.887	-0.181	-0.049
-489.493	417.879	-0.078	0.167
-488.478	-200.000	-0.003	0.101
-487.464	-200.000	0.007	-0.148
-486.449	800.000	-0.075	-0.220
-485.435	-9.239	-0.246	0.165
-484.420	-200.000	-0.006	-0.100
-483.405	101.481	0.142	-0.166
-482.391	-77.987	-0.108	-0.037
-481.376	321.831	0.128	0.244
-480.362	-21.325	-0.068	0.042
-479.347	-200.000	0.001	-0.061
-478.332	178.372	-0.124	-0.180
-477.318	335.810	-0.042	0.082
-476.303	-109.582	0.047	0.010
-475.289	-200.000	-0.021	-0.366
-474.274	800.000	0.012	-0.047
-473.259	175.678	-0.057	-0.083
-472.245	-200.000	-0.007	0.078
-471.230	257.153	-0.075	0.129
-470.216	326.710	-0.038	0.072
-469.201	54.802	-0.302	0.291
-468.186	82.257	-0.104	0.112
-467.172	-200.000	-0.028	0.127
-466.157	273.921	0.190	-0.336
-465.143	-149.058	0.132	0.011
-464.128	-35.611	0.082	0.044
-463.113	201.345	0.199	0.306
-462.099	246.588	-0.099	0.166
-461.084	99.610	-0.171	-0.198
-460.070	-180.570	-0.268	0.006
-459.055	14.016	0.126	-0.098
-458.040	155.734	-0.062	0.085
-457.026	-200.000	-0.016	-0.172
-456.011	-200.000	0.032	-0.206
-454.997	-17.068	0.057	-0.036
-453.982	47.170	0.056	0.052
-452.968	59.095	-0.051	0.050
-451.953	-200.000	-0.003	-0.293
-450.938	140.308	-0.204	-0.269
-449.924	371.931	0.087	-0.176
-448.909	-200.000	-0.025	0.164
-447.895	-200.000	-0.055	0.303
-446.880	-28.000	0.131	0.076
-445.865	-200.000	0.001	0.050
-444.851	0.898	0.111	0.079
-443.836	800.000	0.111	-0.410
-442.822	-200.000	0.038	-0.495
-441.807	-30.426	-0.188	0.107
-440.792	66.338	-0.010	-0.010
-439.778	19.505	0.191	-0.153
-438.763	-115.054	0.401	-0.076
-437.749	-200.000	-0.066	0.349
-436.734	-75.141	-0.140	-0.050
-435.719	-20.064	0.141	-0.087
-434.705	43.158	-0.122	-0.111
-433.690	-200.000	-0.025	0.295
-432.676	24.213	0.227	-0.187
-431.661	-164.263	-0.204	0.009
-430.646	60.788	-0.159	-0.157
-429.632	-84.511	-0.254	-0.080
-428.617	143.534	0.081	0.107
-427.603	-64.084	-0.086	0.035
-426.588	-149.054	-0.273	0.022
-425.573	-200.000	-0.012	0.080
-424.559	38.780	0.085	-0.075
-423.544	-98.040	-0.203	-0.052
-422.530	759.100	-0.027	0.074
-421.515	-145.268	-0.148	0.013
-420.500	800.000	0.138	0.527
-419.486	-86.537	0.234	0.072
-418.471	8.176	-0.033	-0.025
-417.457	-77.926	-0.270	-0.093
-416.442	-16.864	-0.451	-0.285
-415.428	-200.000	-0.006	0.074
-414.413	-200.000	-0.031	-0.435
-413.398	-99.701	-0.189	0.047
-412.384	11.142	-0.089	-0.068
-411.369	111.591	0.062	-0.075
-410.355	-200.000	-0.024	0.218
-409.340	-200.000	0.023	-0.225
-408.325	-129.543	-0.192	0.026
-407.311	-200.000	0.034	0.497
-406.296	-93.015	-0.292	-0.081
-405.282	800.000	0.048	-0.178
-404.267	-51.518	-0.127	-0.059
-403.252	-108.548	0.440	-0.094
-402.238	-200.000	-0.017	0.201
-401.223	392.560	0.085	0.176
-400.209	-110.304	-0.308	0.064
-399.194	-93.781	0.098	0.027
-398.179	279.247	-0.090	-0.160
-397.165	7.175	-0.184	0.137
-396.150	-31.886	-0.125	-0.070
-395.136	-200.000	0.012	-0.091
-394.121	116.579	-0.083	0.102
-393.106	-200.000	0.033	-0.245
-392.092	-200.000	0.013	-0.251
-391.077	79.582	-0.008	0.009
-390.063	-200.000	-0.005	0.135
-389.048	38.213	0.295	0.262
-388.033	-93.170	-0.125	0.035
-387.019	117.854	0.113	-0.139
-386.004	332.043	0.115	-0.222
-384.990	800.000	-0.051	-0.150
-383.975	776.811	0.092	-0.251
-382.960	233.392	-0.031	-0.051
-381.946	-96.836	-0.166	-0.043
-380.931	-82.603	-0.192	0.062
-379.917	-102.639	0.033	-0.008
-378.902	800.000	-0.075	0.216
-377.888	-62.476	0.268	-0.111
-376.873	-94.223	0.066	0.018
-375.858	246.646	0.220	0.370
-374.844	-111.334	0.040	0.008
-373.829	-43.509	-0.165	-0.083
-372.815	49.757	-0.116	0.109
-371.800	-200.000	0.006	0.143
-370.785	83.050	0.217	-0.235
-369.771	149.006	0.093	0.125
-368.756	-3.233	0.146	-0.102
-367.742	125.497	0.150	-0.188
-366.727	-200.000	0.054	-0.521
-365.712	-75.636	0.386	0.136
-364.698	-130.221	0.130	-0.018
-363.683	-118.659	0.103	-0.018
-362.669	-108.370	-0.142	0.031
-361.654	-98.851	0.144	-0.036
-360.639	800.000	0.091	-0.258
-359.625	94.880	-0.074	-0.084
-358.610	-155.845	0.180	0.011
-357.596	221.805	-0.139	0.222
-356.581	-65.852	-0.169	-0.067
-355.566	-200.000	-0.061	-0.314
-354.552	-33.004	0.076	-0.042
-353.537	638.337	-0.065	0.163
-352.523	-200.000	0.034	0.295
-351.508	-61.588	-0.179	0.075
-350.493	151.791	0.040	-0.055
-349.479	67.911	-0.075	-0.077
-348.464	4.373	0.196	0.143
-347.450	-200.000	-0.055	-0.373
-346.435	269.540	-0.081	-0.142
-345.420	31.233	0.158	0.135
-344.406	2.052	-0.330	-0.237
-343.391	-200.000	0.042	-0.219
-342.377	-128.478	0.215	-0.030
-341.362	-200.000	0.040	0.216
-340.348	245.057	0.121	-0.202
-339.333	53.060	0.056	-0.054
-338.318	-1.829	0.064	-0.045
-337.304	773.752	0.130	0.352
-336.289	-71.059	-0.101	0.038
-335.275	-44.439	-0.085	-0.042
-334.260	-200.000	-0.002	-0.201
-333.245	15.950	0.149	0.117
-332.231	-87.519	0.229	0.069
-331.216	-100.627	-0.172	0.042
-330.202	7.629	0.258	0.192
-329.187	-200.000	0.031	0.137
-328.172	-115.481	-0.258	-0.048
-327.158	-200.000	0.046	-0.212
-326.143	124.267	0.058	0.072
-325.129	-81.459	0.200	0.065
-324.114	-200.000	-0.051	0.432
-323.099	-106.399	0.422	0.094
-322.085	-200.000	0.010	0.143
-321.070	-30.708	-0.037	0.021
-320.056	34.794	0.210	0.183
-319.041	-200.000	0.029	-0.159
-318.026	-9.506	-0.181	-0.120
-317.012	-131.258	0.056	-0.007
-315.997	-25.943	0.186	0.109
-314.983	800.000	-0.068	-0.249
-313.968	-33.244	-0.180	-0.099
-312.953	119.195	-0.127	-0.156
-311.939	42.702	0.112	-0.101
-310.924	279.979	0.126	-0.224
-309.910	-132.166	0.143	0.018
-308.895	-151.877	-0.138	0.010
-307.880	318.183	0.073	-0.137
-306.866	-168.114	0.278	-0.011
-305.851	82.319	-0.358	-0.386
-304.837	-152.500	0.194	-0.014
-303.822	-66.619	0.264	-0.104
-302.807	-109.736	-0.215	0.045
-301.793	211.100	0.041	0.065
-300.778	-60.054	0.106	-0.045
-299.764	-10.545	0.361	-0.237
-298.749	-38.331	0.056	0.030
-297.735	280.398	0.151	-0.269
-296.720	672.888	-0.094	-0.243
-295.705	-92.277	-0.045	0.013
-294.691	35.574	-0.182	-0.159
-293.676	492.216	-0.018	-0.041
-292.662	-75.071	0.227	-0.081
-291.647	-200.000	-0.005	-0.149
-290.632	-200.000	-0.035	0.194
-289.618	-60.586	0.104	0.044
-288.603	-200.000	-0.031	0.232
-287.589	-91.477	-0.270	-0.077
-286.574	560.445	0.083	-0.199
-285.559	344.183	-0.124	0.241
-284.545	3.896	0.192	-0.139
-283.530	-56.840	-0.368	-0.161
-282.516	127.203	-0.084	-0.105
-281.501	-20.587	0.117	0.072
-280.486	89.456	-0.163	0.180
-279.472	-8.975	0.208	-0.138
-278.457	16.160	0.143	0.112
-277.443	-135.649	-0.237	0.028
-276.428	32.322	-0.082	0.071
-275.413	-113.423	-0.127	0.025
-274.399	164.341	0.054	0.076
-273.384	-84.645	-0.228	-0.071
-272.370	270.028	0.084	0.146
-271.355	-200.000	0.027	-0.139
-270.340	800.000	0.059	-0.193
-269.326	800.000	-0.160	0.501
-268.311	599.160	0.048	0.119
-267.297	34.054	0.153	0.132
-266.282	-6.932	-0.158	0.107
-265.267	-66.324	0.229	0.090
-264.253	120.969	-0.291	-0.359
-263.238	-96.651	-0.455	-0.119
-262.224	265.660	0.094	0.162
-261.209	-200.000	0.038	-0.265
-260.195	-200.000	-0.013	0.087
-259.180	-69.036	0.495	0.189
-258.165	-113.787	0.628	-0.121
-257.151	-96.859	0.121	-0.031
-256.136	-200.000	0.028	0.147
-255.122	-80.985	0.231	0.076
-254.107	-130.239	0.213	0.029
-253.092	-11.344	-0.071	0.046
-252.078	-180.594	-0.135	0.003
-251.063	800.000	0.075	0.324
-250.049	60.411	-0.118	-0.116
-249.034	-169.099	0.490	-0.018
-248.019	12.509	0.074	0.056
-247.005	-200.000	-0.020	0.279
-245.990	59.291	0.057	-0.055
-244.976	-200.000	0.022	0.167
-243.961	800.000	-0.062	0.224
-242.946	-132.040	-0.262	-0.034
-241.932	800.000	0.081	0.306
-240.917	265.431	0.083	-0.143
-239.903	-133.313	0.438	0.055
-238.888	-200.000	-0.013	0.283
-237.873	77.501	0.057	0.060
-236.859	800.000	0.034	-0.123
-235.844	-196.241	0.056	0.000
-234.830	-122.994	0.183	0.029
-233.815	800.000	0.056	0.193
-232.800	615.924	0.044	-0.109
-231.786	-87.319	0.070	-0.021
-230.771	6.308	0.260	0.191
-229.757	800.000	-0.018	-0.055
-228.742	-200.000	0.014	0.197
-227.727	-33.145	-0.207	-0.113
-226.713	-52.942	0.104	-0.047
-225.698	-200.000	0.039	0.234
-224.684	-200.000	0.041	-0.352
-223.669	-200.000	-0.018	-0.111
-222.655	303.066	-0.025	0.045
-221.640	298.211	0.142	-0.258
-220.625	98.825	-0.207	0.236
-219.611	617.320	0.034	-0.085
-218.596	11.679	-0.443	-0.337
-217.582	398.531	0.153	-0.317
-216.567	-78.288	0.129	0.044
-215.552	-15.852	-0.119	0.075
-214.538	-200.000	-0.032	0.184
-213.523	208.279	0.178	-0.275
-212.509	-57.795	-0.195	0.084
-211.494	-114.355	0.137	0.026
-210.479	-134.125	-0.123	0.015
-209.465	577.810	-0.100	-0.241
-208.450	31.898	0.125	-0.107
-207.436	154.402	0.132	-0.179
-206.421	244.588	0.082	0.136
-205.406	-200.000	-0.033	0.168
-204.392	-200.000	0.014	-0.094
-203.377	713.682	0.014	0.037
-202.363	-139.553	0.093	0.010
-201.348	203.185	0.091	-0.139
-200.333	-200.000	0.066	0.414
-199.319	379.773	-0.103	0.208
-198.304	580.642	0.043	0.103
-197.290	-33.111	-0.174	0.096
-196.275	90.843	0.092	-0.102
-195.260	182.175	-0.095	-0.138
-194.246	547.950	0.118	0.280
-193.231	-200.000	-0.020	0.298
-192.217	30.384	-0.142	0.120
-191.202	104.544	-0.220	-0.256
-190.187	-200.000	-0.028	0.226
-189.173	212.640	0.052	0.082
-188.158	-175.336	-0.236	0.006
-187.144	-96.252	0.107	-0.028
-186.129	800.000	-0.104	0.366
-185.114	-123.266	0.158	0.025
-184.100	-72.404	0.221	-0.081
-183.085	115.162	0.092	0.112
-182.071	-200.000	0.012	-0.432
-181.056	-200.000	0.001	-0.134
-180.042	314.576	0.033	-0.061
-179.027	-200.000	-0.003	-0.057
-178.012	94.045	0.080	-0.089
-176.998	622.757	0.098	0.244
-175.983	254.405	0.118	-0.200
-174.969	-121.477	0.170	-0.028
-173.954	542.358	-0.088	-0.207
-172.939	27.878	0.249	-0.208
-171.925	-66.879	-0.398	0.156
-170.910	289.797	-0.086	0.155
-169.896	-26.613	0.087	-0.050
-168.881	543.633	-0.094	-0.222
-167.866	-200.000	0.072	0.397
-166.852	800.000	0.123	0.384
-165.837	6.432	0.136	-0.100
-164.823	-200.000	-0.019	-0.237
-163.808	86.692	0.115	0.125
-162.793	-89.269	0.158	-0.046
-161.779	-200.000	-0.015	-0.418
-160.764	-7.584	-0.197	-0.132
-159.750	337.395	0.071	0.135
-158.735	-23.067	0.111	-0.066
-157.720	150.331	-0.114	-0.152
-156.706	800.000	-0.069	0.263
-155.691	-49.434	-0.445	0.209
-154.677	-122.953	-0.209	-0.033
-153.662	-200.000	0.037	0.215
-152.647	-20.887	0.100	-0.060
-151.633	333.499	0.122	-0.233
-150.618	-20.602	0.103	-0.062
-149.604	99.022	0.166	0.190
-148.589	43.915	0.203	0.184
-147.574	-148.422	-0.077	0.006
-146.560	64.277	-0.069	0.068
-145.545	-128.085	0.147	-0.021
-144.531	80.050	-0.234	-0.249
-143.516	614.211	-0.065	0.162
-142.502	-200.000	0.013	-0.361
-141.487	-116.380	0.125	-0.023
-140.472	106.506	0.206	-0.241
-139.458	176.899	-0.152	-0.218
-138.443	704.305	0.049	-0.128
-137.429	30.157	0.137	-0.115
-136.414	-119.522	0.272	0.046
-135.399	234.981	-0.175	0.285
-134.385	800.000	-0.073	0.274
-133.370	-92.070	-0.128	0.036
-132.356	112.028	-0.062	-0.074
-131.341	-14.296	-0.220	0.140
-130.326	800.000	0.032	0.135
-129.312	1.625	0.217	0.154
-128.297	-24.689	-0.236	-0.138
-127.283	-44.770	-0.035	-0.017
-126.268	800.000	-0.026	-0.073
-125.253	-200.000	-0.012	0.063
-124.239	800.000	0.041	0.152
-123.224	50.397	-0.165	0.153
-122.210	-111.059	-0.147	0.030
-121.195	530.133	0.058	-0.136
