DTS Sentinel unit serial number:	SN413079Multiplexer serial number:	ORYXHardware model number:	OX4-SRSoftware version number:	ORYX F/W v4.00 Oryx Data Collector v3.7.2.0data status	okinstallation	princeton_trtdifferential loss correction	single-endedforward channel	channel 4reverse channel	N/Adate	2019/09/13time	05:09:35forward acquisition time	60.00reverse acquisition time	0.00gamma	496.2192k internal	0.2322k external	0.2322temperature offset calibration	1.0192default loss term (dB/km)	0.3790temperature slope calibration	1.0000multiplexer offset coefficient	1.0000multiplexer slope coefficient	1.0000fibre end	0.00T internal ref (°C)	26.42T ext. ref 1 (°C)	4.05T ext. ref 2 (°C)	20.86length (m)	temperature (°C)	Stokes	anti-Stokes-747.200	-182.810	0.285	0.005
-746.185	-200.000	0.026	0.258
-745.171	-111.060	0.380	-0.079
-744.156	800.000	-0.031	-0.094
-743.142	-119.370	0.088	-0.015
-742.127	153.038	-0.150	-0.207
-741.112	800.000	0.036	0.144
-740.098	404.873	-0.077	0.164
-739.083	-200.000	-0.062	-0.472
-738.069	800.000	0.103	-0.384
-737.054	-200.000	0.045	0.205
-736.039	137.856	-0.186	0.247
-735.025	-116.301	0.261	-0.049
-734.010	622.239	-0.138	0.352
-732.996	800.000	0.110	-0.377
-731.981	-200.000	-0.048	-0.287
-730.966	391.192	0.137	-0.287
-729.952	-200.000	0.012	-0.123
-728.937	121.953	0.130	-0.163
-727.923	4.580	-0.215	0.159
-726.908	800.000	-0.050	-0.150
-725.894	-33.347	0.111	-0.062
-724.879	82.672	0.094	-0.103
-723.864	-200.000	0.017	-0.127
-722.850	-43.186	-0.322	-0.165
-721.835	4.327	-0.137	0.101
-720.821	-53.715	-0.330	0.152
-719.806	-200.000	0.005	-0.096
-718.791	-63.161	0.116	-0.048
-717.777	-192.506	-0.289	0.003
-716.762	585.647	-0.091	-0.225
-715.748	-185.653	0.150	0.002
-714.733	-23.758	-0.199	-0.120
-713.718	-113.295	-0.133	0.026
-712.704	81.941	0.190	-0.208
-711.689	110.726	-0.087	0.106
-710.675	-33.843	-0.179	0.099
-709.660	130.619	0.074	-0.096
-708.645	331.131	-0.138	0.268
-707.631	800.000	0.072	0.262
-706.616	-33.049	0.185	0.103
-705.602	-77.994	0.088	0.030
-704.587	-138.866	0.190	-0.021
-703.572	-200.000	-0.021	-0.183
-702.558	-200.000	0.054	-0.446
-701.543	-78.449	-0.239	0.082
-700.529	103.296	-0.214	0.253
-699.514	88.080	0.183	0.205
-698.499	-125.643	0.108	-0.016
-697.485	-194.135	-0.400	0.003
-696.470	-200.000	0.041	-0.487
-695.456	297.741	-0.065	-0.121
-694.441	800.000	-0.085	-0.236
-693.426	179.706	-0.173	-0.256
-692.412	220.787	-0.176	-0.285
-691.397	-200.000	-0.015	0.087
-690.383	-85.783	0.081	-0.025
-689.368	-99.651	-0.357	0.090
-688.354	-130.379	-0.407	-0.056
-687.339	400.808	0.125	-0.265
-686.324	800.000	-0.088	-0.337
-685.310	-24.884	-0.159	-0.095
-684.295	-200.000	0.006	-0.156
-683.281	237.739	0.235	0.393
-682.266	-42.162	0.093	-0.048
-681.251	-130.950	0.183	0.025
-680.237	-160.034	-0.367	-0.020
-679.222	-200.000	0.004	-0.130
-678.208	17.872	0.124	-0.100
-677.193	460.290	-0.089	0.200
-676.178	800.000	-0.057	-0.214
-675.164	-200.000	0.009	0.154
-674.149	1.798	0.132	-0.096
-673.135	257.554	0.114	-0.197
-672.120	461.223	0.076	-0.170
-671.105	-200.000	-0.006	-0.122
-670.091	245.728	0.115	0.194
-669.076	-31.096	0.260	-0.147
-668.062	13.322	-0.104	-0.082
-667.047	251.243	0.042	-0.072
-666.032	-200.000	-0.017	-0.142
-665.018	800.000	0.068	-0.222
-664.003	-129.617	0.184	0.026
-662.989	-22.522	0.096	-0.058
-661.974	800.000	-0.082	-0.251
-660.959	-200.000	0.006	-0.037
-659.945	-1.731	-0.124	0.088
-658.930	60.776	-0.156	0.156
-657.916	-23.192	-0.117	-0.071
-656.901	-1.207	0.132	-0.094
-655.886	-174.237	-0.177	-0.005
-654.872	-200.000	0.020	-0.364
-653.857	-47.897	-0.149	-0.073
-652.843	-200.000	-0.047	-0.218
-651.828	-200.000	0.024	-0.147
-650.814	-200.000	0.002	0.148
-649.799	105.667	-0.249	0.296
-648.784	777.963	-0.081	-0.224
-647.770	-1.423	-0.209	-0.149
-646.755	-29.163	-0.110	-0.063
-645.741	-200.000	-0.061	-0.557
-644.726	-200.000	-0.040	0.352
-643.711	-55.281	0.409	-0.185
-642.697	-45.923	-0.306	0.152
-641.682	-200.000	0.006	0.124
-640.668	-200.000	0.029	-0.131
-639.653	569.645	-0.072	-0.177
-638.638	-146.833	0.163	-0.014
-637.624	424.521	-0.084	-0.182
-636.609	-63.425	-0.066	0.027
-635.595	-200.000	-0.030	-0.174
-634.580	32.373	0.289	-0.251
-633.565	-2.118	0.006	0.004
-632.551	-106.555	-0.066	0.015
-631.536	-28.451	-0.240	0.139
-630.522	-55.537	-0.257	0.116
-629.507	76.778	0.193	0.206
-628.492	317.751	-0.076	0.145
-627.478	-38.707	0.194	-0.103
-626.463	-129.662	-0.388	-0.054
-625.449	-200.000	0.013	-0.131
-624.434	13.452	-0.253	0.197
-623.419	340.948	-0.052	0.102
-622.405	-200.000	-0.024	-0.215
-621.390	-54.864	-0.349	0.158
-620.376	73.901	-0.181	-0.191
-619.361	800.000	-0.008	0.024
-618.346	-79.504	-0.093	0.031
-617.332	-200.000	-0.003	-0.017
-616.317	-96.748	-0.140	0.037
-615.303	-51.128	-0.495	-0.233
-614.288	800.000	-0.041	-0.123
-613.273	-42.877	-0.188	-0.096
-612.259	16.262	0.149	0.118
-611.244	161.573	-0.094	-0.133
-610.230	-170.331	0.035	0.001
-609.215	800.000	-0.133	-0.563
-608.201	-120.845	0.213	-0.036
-607.186	134.405	-0.163	0.213
-606.171	181.393	0.111	0.164
-605.157	-76.636	0.113	0.040
-604.142	489.672	0.046	0.106
-603.128	-200.000	-0.014	-0.224
-602.113	-200.000	0.005	-0.068
-601.098	-47.151	0.159	-0.078
-600.084	800.000	-0.016	-0.051
-599.069	157.481	0.104	0.144
-598.055	-136.848	0.098	-0.011
-597.040	100.084	-0.118	-0.137
-596.025	-170.704	0.211	0.007
-595.011	-115.043	0.142	0.027
-593.996	163.944	-0.055	0.078
-592.982	-8.129	-0.187	0.127
-591.967	-86.500	0.407	0.125
-590.952	43.364	-0.259	-0.238
-589.938	-121.792	0.333	0.055
-588.923	-35.840	0.135	0.074
-587.909	-200.000	-0.006	-0.194
-586.894	40.348	0.133	-0.120
-585.879	-200.000	-0.000	0.048
-584.865	-129.611	-0.105	0.015
-583.850	-66.978	0.373	-0.148
-582.836	800.000	-0.025	0.086
-581.821	42.930	0.189	0.173
-580.806	800.000	-0.039	0.123
-579.792	50.301	0.199	0.189
-578.777	-48.289	0.284	0.138
-577.763	800.000	-0.027	0.082
-576.748	-35.424	-0.045	-0.024
-575.733	-0.308	-0.112	-0.080
-574.719	186.234	0.143	0.213
-573.704	68.860	0.116	-0.120
-572.690	-66.751	-0.131	0.052
-571.675	-62.565	0.115	0.048
-570.661	-10.450	-0.208	0.138
-569.646	-200.000	-0.058	-0.299
-568.631	-78.444	-0.237	0.081
-567.617	-18.627	0.125	-0.078
-566.602	-80.296	-0.032	-0.011
-565.588	-121.429	0.182	-0.030
-564.573	-200.000	-0.006	0.248
-563.558	500.454	-0.067	-0.154
-562.544	145.721	-0.144	0.194
-561.529	800.000	-0.067	0.198
-560.515	-200.000	-0.035	0.347
-559.500	365.243	-0.059	0.118
-558.485	59.857	-0.171	0.170
-557.471	-200.000	-0.001	0.084
-556.456	-153.019	0.319	0.023
-555.442	96.496	0.239	-0.274
-554.427	483.064	-0.030	0.068
-553.412	-200.000	-0.003	-0.287
-552.398	-200.000	-0.014	0.182
-551.383	-200.000	-0.005	0.216
-550.369	189.793	0.064	0.096
-549.354	65.968	0.140	-0.143
-548.339	-66.557	0.306	-0.122
-547.325	-136.951	0.056	-0.006
-546.310	-43.753	-0.172	-0.087
-545.296	800.000	-0.062	-0.259
-544.281	-60.670	-0.224	0.095
-543.266	-200.000	-0.007	0.052
-542.252	-196.136	0.384	0.003
-541.237	36.916	0.073	0.065
-540.223	-14.027	0.270	-0.175
-539.208	-11.715	-0.105	0.069
-538.193	-15.687	-0.251	0.160
-537.179	-144.307	-0.128	0.012
-536.164	-117.521	-0.152	0.027
-535.150	800.000	0.049	0.143
-534.135	-200.000	0.022	-0.161
-533.121	-134.742	-0.229	0.028
-532.106	800.000	-0.085	-0.307
-531.091	398.963	-0.165	-0.347
-530.077	-200.000	-0.005	-0.145
-529.062	336.065	-0.050	-0.097
-528.048	-2.770	-0.303	-0.213
-527.033	-200.000	0.006	0.293
-526.018	73.180	0.052	0.054
-525.004	800.000	0.028	0.101
-523.989	-200.000	-0.001	-0.044
-522.975	32.396	0.164	0.142
-521.960	588.721	-0.172	0.424
-520.945	121.462	0.199	-0.249
-519.931	-48.417	-0.436	0.210
-518.916	-200.000	-0.004	-0.150
-517.902	-137.187	0.243	-0.028
-516.887	-38.638	-0.264	0.140
-515.872	-132.979	-0.228	-0.029
-514.858	414.545	0.084	-0.180
-513.843	-66.401	0.236	0.094
-512.829	-200.000	-0.010	0.294
-511.814	89.496	-0.129	0.145
-510.799	76.243	-0.220	0.234
-509.785	239.605	-0.113	0.189
-508.770	-134.021	-0.406	-0.050
-507.756	472.647	0.027	-0.060
-506.741	-188.255	-0.284	0.004
-505.726	-119.722	0.342	0.059
-504.712	19.301	0.193	0.155
-503.697	245.264	-0.049	-0.082
-502.683	-200.000	-0.004	-0.369
-501.668	-200.000	0.035	0.215
-500.653	-59.745	0.173	-0.074
-499.639	170.226	0.158	0.226
-498.624	-81.238	-0.477	0.158
-497.610	-200.000	0.041	-0.228
-496.595	70.441	-0.136	-0.141
-495.581	-101.578	-0.252	0.061
-494.566	-111.538	0.578	0.118
-493.551	-41.676	0.079	0.040
-492.537	-83.304	-0.122	-0.039
-491.522	-82.041	0.069	0.023
-490.508	-131.712	-0.282	-0.037
-489.493	115.660	-0.089	0.109
-488.478	130.975	-0.078	-0.100
-487.464	574.056	-0.129	-0.314
-486.449	-79.780	0.109	0.037
-485.435	-24.442	0.231	-0.137
-484.420	-139.398	0.187	-0.020
-483.405	-3.244	0.249	0.173
-482.391	-200.000	-0.032	0.329
-481.376	28.528	-0.165	-0.139
-480.362	-200.000	-0.028	0.138
-479.347	-200.000	0.001	-0.342
-478.332	56.712	0.223	0.217
-477.318	151.213	0.167	-0.227
-476.303	-36.381	0.096	0.052
-475.289	58.317	0.050	-0.049
-474.274	59.684	0.251	0.248
-473.259	-35.783	0.450	-0.243
-472.245	-200.000	0.002	-0.132
-471.230	-109.587	0.305	-0.064
-470.216	173.621	0.079	-0.115
-469.201	265.798	0.083	0.144
-468.186	293.911	0.115	0.211
-467.172	-119.998	-0.165	0.028
-466.157	334.582	-0.128	0.248
-465.143	-45.084	-0.179	0.089
-464.128	227.209	0.046	-0.075
-463.113	-200.000	0.013	0.098
-462.099	-200.000	0.235	0.001
-461.084	-40.932	-0.253	0.131
-460.070	253.790	-0.147	0.251
-459.055	21.311	0.251	-0.204
-458.040	800.000	-0.064	0.273
-457.026	-85.232	0.040	0.013
-456.011	-200.000	0.022	0.112
-454.997	246.865	0.253	-0.426
-453.982	-72.521	0.120	-0.044
-452.968	800.000	0.090	-0.253
-451.953	73.863	0.053	-0.056
-450.938	-101.665	0.174	0.042
-449.924	-22.120	-0.068	0.041
-448.909	-200.000	0.021	-0.200
-447.895	36.446	-0.111	0.097
-446.880	-200.000	-0.018	0.116
-445.865	598.047	-0.172	0.425
-444.851	-200.000	-0.021	0.154
-443.836	128.661	-0.153	0.195
-442.822	360.956	-0.122	-0.244
-441.807	-196.849	0.082	-0.001
-440.792	-81.753	-0.189	0.062
-439.778	107.402	-0.178	-0.212
-438.763	166.446	0.099	0.139
-437.749	-143.745	0.087	0.008
-436.734	-144.657	-0.135	-0.012
-435.719	304.202	0.167	-0.308
-434.705	548.823	0.119	-0.283
-433.690	-200.000	-0.013	-0.057
-432.676	-69.486	-0.100	0.038
-431.661	-117.473	0.307	0.055
-430.646	-107.457	0.186	0.041
-429.632	148.923	-0.217	-0.292
-428.617	-200.000	-0.033	0.215
-427.603	-200.000	0.070	0.557
-426.588	-41.657	0.104	0.053
-425.573	-154.038	-0.406	-0.028
-424.559	56.118	0.206	-0.199
-423.544	141.208	-0.247	0.326
-422.530	-30.006	-0.148	0.084
-421.515	-42.506	-0.071	-0.036
-420.500	-200.000	0.005	-0.186
-419.486	17.871	0.114	-0.091
-418.471	-74.531	0.242	-0.087
-417.457	800.000	-0.060	0.235
-416.442	-96.235	-0.077	0.020
-415.428	137.534	-0.231	-0.301
-414.413	-200.000	-0.010	-0.108
-413.398	126.433	0.144	-0.181
-412.384	127.442	-0.233	-0.295
-411.369	119.328	-0.124	-0.153
-410.355	254.877	0.089	0.151
-409.340	-16.338	0.118	0.075
-408.325	-109.211	-0.043	-0.009
-407.311	3.393	-0.290	0.210
-406.296	800.000	-0.032	0.131
-405.282	-163.288	-0.160	-0.008
-404.267	231.861	-0.153	-0.251
-403.252	-21.085	-0.324	-0.197
-402.238	-10.398	-0.138	0.091
-401.223	-17.640	-0.267	0.167
-400.209	-30.336	0.214	-0.121
-399.194	-139.227	-0.335	-0.036
-398.179	-200.000	0.010	-0.104
-397.165	-127.271	0.046	0.007
-396.150	19.564	0.021	0.017
-395.136	561.871	-0.171	0.412
-394.121	-126.099	-0.169	-0.025
-393.106	-200.000	-0.026	0.295
-392.092	-37.291	-0.156	-0.083
-391.077	-129.748	-0.274	-0.038
-390.063	-200.000	-0.031	0.200
-389.048	-50.440	-0.109	0.051
-388.033	-113.435	-0.156	-0.031
-387.019	343.881	0.111	0.216
-386.004	-200.000	0.031	-0.193
-384.990	219.761	0.270	-0.430
-383.975	-200.000	0.009	-0.330
-382.960	-109.700	0.173	0.036
-381.946	-200.000	0.056	0.284
-380.931	131.829	0.228	-0.292
-379.917	800.000	-0.042	0.157
-378.902	-129.525	0.085	0.012
-377.888	147.543	-0.105	-0.141
-376.873	-200.000	0.051	-0.250
-375.858	658.441	-0.108	-0.275
-374.844	-32.263	0.048	0.026
-373.829	-37.508	-0.299	0.159
-372.815	-76.338	-0.060	0.021
-371.800	292.592	-0.034	0.062
-370.785	-8.389	0.098	0.066
-369.771	5.014	0.110	-0.080
-368.756	-200.000	-0.015	-0.109
-367.742	131.874	0.131	-0.168
-366.727	-101.344	-0.102	0.025
-365.712	48.029	-0.258	0.240
-364.698	-118.761	0.279	0.049
-363.683	287.342	-0.184	-0.332
-362.669	-90.448	0.094	-0.027
-361.654	11.920	-0.170	0.130
-360.639	-98.674	-0.111	0.028
-359.625	204.359	0.158	0.244
-358.610	141.895	-0.128	-0.169
-357.596	-200.000	-0.018	-0.291
-356.581	130.921	0.202	-0.258
-355.566	-156.556	0.218	0.014
-354.552	7.259	-0.239	0.177
-353.537	-35.038	-0.171	0.093
-352.523	-102.291	0.163	-0.039
-351.508	-23.465	0.174	0.104
-350.493	-113.388	-0.292	0.057
-349.479	61.237	0.336	-0.332
-348.464	-66.741	0.358	-0.141
-347.450	166.722	0.148	-0.209
-346.435	-136.383	-0.331	-0.038
-345.420	281.733	-0.226	0.403
-344.406	72.732	0.074	-0.077
-343.391	67.379	-0.166	-0.168
-342.377	361.187	-0.127	0.254
-341.362	-127.549	0.380	-0.055
-340.348	55.541	-0.231	0.222
-339.333	800.000	-0.043	0.173
-338.318	25.781	0.102	0.085
-337.304	-47.208	0.146	0.071
-336.289	-165.780	0.123	-0.005
-335.275	113.169	-0.088	0.107
-334.260	-61.448	0.214	-0.090
-333.245	75.925	-0.109	-0.114
-332.231	22.283	-0.101	-0.082
-331.216	-39.405	0.253	0.132
-330.202	201.179	-0.116	0.178
-329.187	-200.000	-0.059	-0.292
-328.172	317.052	-0.152	-0.286
-327.158	-200.000	-0.028	0.128
-326.143	513.946	0.111	0.257
-325.129	-52.007	0.176	-0.081
-324.114	-128.660	-0.189	-0.026
-323.099	410.923	-0.091	0.192
-322.085	-3.563	0.358	-0.248
-321.070	464.106	-0.062	-0.139
-320.056	-12.980	0.362	-0.234
-319.041	-171.669	0.177	0.006
-318.026	199.406	0.049	0.075
-317.012	-77.328	-0.170	-0.059
-315.997	-117.604	-0.059	0.011
-314.983	-147.419	-0.258	0.022
-313.968	-200.000	0.008	-0.210
-312.953	796.470	-0.094	-0.258
-311.939	-75.996	0.147	-0.052
-310.924	-200.000	-0.006	0.288
-309.910	-36.766	-0.180	-0.096
-308.895	-109.009	-0.345	-0.073
-307.880	-200.000	0.032	0.354
-306.866	1.946	-0.092	0.066
-305.851	229.515	-0.167	0.270
-304.837	560.382	0.164	0.394
-303.822	800.000	-0.168	0.485
-302.807	76.150	-0.095	-0.099
-301.793	800.000	0.025	0.080
-300.778	-196.616	-0.043	-0.000
-299.764	800.000	-0.037	0.154
-298.749	-35.271	0.388	-0.210
-297.735	306.224	0.091	-0.168
-296.720	184.522	-0.094	0.138
-295.705	646.270	0.104	-0.264
-294.691	-68.392	-0.324	0.125
-293.676	800.000	-0.040	-0.136
-292.662	-179.023	0.107	0.002
-291.647	319.959	0.075	-0.141
-290.632	-36.800	0.194	0.103
-289.618	800.000	0.107	-0.298
-288.603	-29.555	0.289	-0.164
-287.589	520.469	-0.168	-0.392
-286.574	800.000	0.123	0.413
-285.559	76.670	0.361	0.380
-284.545	4.589	0.245	0.178
-283.530	800.000	-0.034	-0.145
-282.516	-19.685	0.045	0.027
-281.501	800.000	-0.047	-0.149
-280.486	53.336	0.194	0.185
-279.472	598.656	0.178	0.438
-278.457	340.198	0.117	0.227
-277.443	-21.070	-0.089	0.054
-276.428	-91.485	0.304	-0.086
-275.413	-48.235	-0.242	-0.116
-274.399	82.070	-0.144	0.155
-273.384	-200.000	-0.022	-0.156
-272.370	115.560	-0.104	0.126
-271.355	83.684	0.149	-0.161
-270.340	-53.394	-0.204	-0.092
-269.326	18.908	0.069	-0.054
-268.311	-23.624	-0.233	0.139
-267.297	191.612	0.157	0.235
-266.282	100.829	0.143	-0.165
-265.267	106.498	-0.070	-0.082
-264.253	-112.021	-0.088	-0.018
-263.238	-200.000	0.027	0.305
-262.224	800.000	-0.027	-0.102
-261.209	800.000	-0.078	0.257
-260.195	-19.893	0.318	0.195
-259.180	-200.000	0.012	0.142
-258.165	210.020	-0.049	-0.077
-257.151	-95.434	0.064	-0.017
-256.136	800.000	0.063	-0.255
-255.122	800.000	-0.067	-0.244
-254.107	-200.000	-0.017	0.248
-253.092	88.290	-0.085	0.093
-252.078	332.635	-0.177	0.339
-251.063	-157.572	0.149	-0.009
-250.049	255.327	-0.081	-0.137
-249.034	335.873	0.104	-0.201
-248.019	375.373	-0.205	0.413
-247.005	25.128	0.166	0.137
-245.990	-29.360	0.411	0.233
-244.976	-200.000	-0.002	0.050
-243.961	50.699	0.018	0.017
-242.946	106.487	-0.196	-0.230
-241.932	-57.502	-0.234	0.102
-240.917	-200.000	0.006	-0.217
-239.903	-200.000	0.024	-0.156
-238.888	800.000	-0.047	-0.203
-237.873	-153.850	0.144	-0.010
-236.859	-200.000	0.001	-0.022
-235.844	103.924	0.152	-0.177
-234.830	677.091	0.104	-0.267
-233.815	600.120	0.081	-0.200
-232.800	800.000	0.083	-0.237
-231.786	-127.468	-0.045	0.007
-230.771	175.962	0.075	-0.108
-229.757	-147.051	0.107	0.009
-228.742	173.097	-0.244	0.348
-227.727	-89.780	-0.119	-0.034
-226.713	-145.284	-0.203	-0.018
-225.698	246.451	0.015	-0.026
-224.684	-139.264	-0.107	-0.011
-223.669	-74.909	0.142	-0.051
-222.655	800.000	-0.019	-0.054
-221.640	-200.000	-0.020	-0.143
-220.625	-179.817	0.288	0.006
-219.611	800.000	0.034	-0.100
-218.596	-131.667	-0.225	0.029
-217.582	154.555	-0.140	0.190
-216.567	-13.842	-0.129	0.083
-215.552	-7.290	-0.119	0.080
-214.538	-152.636	0.278	-0.020
-213.523	262.468	-0.072	0.123
-212.509	-100.056	-0.335	0.083
-211.494	-0.703	-0.429	-0.301
-210.479	24.542	0.118	0.097
-209.465	-73.208	0.170	0.062
-208.450	-170.815	0.238	-0.008
-207.436	-115.544	0.163	-0.030
-206.421	-111.786	-0.102	0.020
-205.406	-159.437	-0.193	-0.011
-204.392	-200.000	0.210	0.000
-203.377	800.000	0.051	-0.175
-202.363	-94.818	-0.102	0.027
-201.348	-200.000	0.010	0.053
-200.333	219.206	-0.162	-0.257
-199.319	-131.350	0.097	0.013
-198.304	-200.000	0.025	-0.238
-197.290	-135.251	-0.178	0.021
-196.275	-74.354	-0.171	0.061
-195.260	-129.276	0.058	-0.008
-194.246	140.067	0.088	-0.115
-193.231	800.000	0.078	0.306
-192.217	800.000	0.069	0.294
-191.202	527.874	0.157	-0.367
-190.187	252.711	0.122	0.206
-189.173	800.000	-0.066	-0.248
-188.158	391.049	-0.095	-0.195
-187.144	422.458	-0.051	0.109
-186.129	667.663	0.019	0.048
-185.114	-92.996	0.314	0.086
-184.100	-144.007	0.092	0.009
-183.085	-200.000	-0.067	-0.308
-182.071	49.478	-0.254	-0.236
-181.056	-200.000	-0.006	-0.119
-180.042	10.353	-0.101	-0.076
-179.027	-137.414	0.270	-0.030
-178.012	143.468	-0.282	-0.372
-176.998	267.850	0.185	0.320
-175.983	-0.157	-0.088	0.062
-174.969	-55.411	-0.051	0.023
-173.954	-200.000	0.037	0.350
-172.939	92.479	-0.115	0.128
-171.925	-200.000	0.014	-0.452
-170.910	658.339	0.077	0.196
-169.896	-11.235	-0.067	-0.044
-168.881	309.964	0.051	0.094
-167.866	-100.296	0.249	0.061
-166.852	-37.422	0.313	-0.165
-165.837	-132.578	-0.273	0.035
-164.823	42.996	0.215	0.194
-163.808	70.806	0.118	-0.121
-162.793	-115.629	0.075	-0.014
-161.779	-186.440	0.153	-0.002
-160.764	-51.514	0.161	0.074
-159.750	-138.524	0.356	-0.039
-158.735	-41.789	-0.190	0.096
-157.720	40.113	0.182	-0.161
-156.706	321.237	-0.140	0.262
-155.691	115.972	-0.125	0.151
-154.677	-116.898	-0.032	0.006
-153.662	-163.156	0.329	0.016
-152.647	-200.000	0.003	0.021
-151.633	-89.959	0.229	-0.066
-150.618	-200.000	-0.007	-0.113
-149.604	-22.329	0.424	-0.253
-148.589	-123.868	0.435	0.068
-147.574	523.568	0.191	0.442
-146.560	652.561	-0.108	0.272
-145.545	-200.000	-0.010	0.277
-144.531	205.978	0.137	0.210
-143.516	-200.000	-0.212	0.001
-142.502	-144.221	0.352	-0.032
-141.487	-72.047	-0.123	0.045
-140.472	21.887	-0.063	0.051
-139.458	16.507	-0.204	-0.159
-138.443	145.957	-0.104	-0.138
-137.429	19.900	-0.392	-0.311
-136.414	-101.740	0.152	-0.036
-135.399	-131.411	-0.236	0.031
-134.385	-140.923	-0.095	-0.010
-133.370	-200.000	-0.013	-0.357
-132.356	346.500	0.075	-0.146
-131.341	800.000	-0.076	-0.307
-130.326	-40.475	-0.228	-0.117
-129.312	-87.948	-0.353	-0.105
-128.297	-56.316	0.285	0.125
-127.283	-7.504	0.129	0.086
-126.268	458.399	-0.087	0.191
-125.253	-105.099	-0.361	0.081
-124.239	40.353	0.176	-0.156
-123.224	-77.653	-0.421	0.144
