DTS Sentinel unit serial number:	SN413079Multiplexer serial number:	ORYXHardware model number:	OX4-SRSoftware version number:	ORYX F/W v4.00 Oryx Data Collector v3.7.2.0data status	okinstallation	princeton_trtdifferential loss correction	single-endedforward channel	channel 4reverse channel	N/Adate	2019/09/17time	12:49:35forward acquisition time	60.00reverse acquisition time	0.00gamma	496.2192k internal	0.2302k external	0.2302temperature offset calibration	0.9990default loss term (dB/km)	0.3790temperature slope calibration	1.0000multiplexer offset coefficient	1.0000multiplexer slope coefficient	1.0000fibre end	0.00T internal ref (°C)	32.78T ext. ref 1 (°C)	0.42T ext. ref 2 (°C)	31.03length (m)	temperature (°C)	Stokes	anti-Stokes-747.200	334.233	-0.059	-0.117
-746.185	-178.220	0.223	-0.005
-745.171	-103.625	0.314	-0.075
-744.156	648.013	0.133	0.348
-743.142	75.403	-0.254	-0.274
-742.127	632.465	0.056	0.145
-741.112	800.000	0.113	0.443
-740.098	315.581	-0.139	0.266
-739.083	-200.000	-0.030	-0.190
-738.069	800.000	-0.134	0.507
-737.054	86.014	-0.118	0.132
-736.039	-12.978	-0.397	0.263
-735.025	510.606	0.028	-0.067
-734.010	-124.215	0.380	0.061
-732.996	800.000	-0.113	-0.338
-731.981	-166.173	0.447	-0.019
-730.966	-68.642	-0.152	-0.060
-729.952	616.374	0.083	-0.213
-728.937	-200.000	-0.005	-0.255
-727.923	-182.026	0.485	0.009
-726.908	-95.273	0.224	-0.061
-725.894	-200.000	0.002	0.228
-724.879	72.309	-0.140	-0.148
-723.864	800.000	0.054	0.225
-722.850	800.000	-0.020	-0.077
-721.835	15.146	-0.191	0.153
-720.821	797.359	-0.070	-0.196
-719.806	147.283	0.053	-0.073
-718.791	183.379	-0.171	-0.258
-717.777	223.833	-0.109	-0.179
-716.762	-98.296	0.103	0.027
-715.748	-155.514	-0.120	0.008
-714.733	-200.000	0.014	0.134
-713.718	-119.373	0.132	-0.023
-712.704	-101.550	-0.109	0.027
-711.689	-200.000	-0.016	-0.221
-710.675	-68.970	-0.410	0.161
-709.660	-102.366	0.085	-0.021
-708.645	-43.722	0.260	-0.134
-707.631	251.739	-0.080	0.138
-706.616	-139.055	0.120	-0.013
-705.602	-25.402	-0.217	0.130
-704.587	800.000	0.061	-0.196
-703.572	50.100	-0.155	-0.149
-702.558	85.126	0.211	-0.235
-701.543	-200.000	0.051	-0.251
-700.529	-8.252	-0.276	-0.189
-699.514	800.000	0.068	-0.208
-698.499	-200.000	0.007	-0.131
-697.485	84.943	-0.118	0.132
-696.470	106.471	0.056	0.067
-695.456	144.709	-0.079	0.107
-694.441	-81.828	0.252	-0.084
-693.426	-200.000	0.004	0.030
-692.412	-111.061	0.188	0.039
-691.397	-101.749	-0.347	-0.085
-690.383	-200.000	-0.009	0.127
-689.368	-192.096	0.197	0.002
-688.354	-41.777	-0.036	0.019
-687.339	800.000	0.072	-0.303
-686.324	-123.404	0.427	-0.069
-685.310	272.064	-0.065	0.117
-684.295	800.000	0.040	-0.155
-683.281	701.389	0.030	0.080
-682.266	255.862	0.054	0.094
-681.251	800.000	0.013	-0.040
-680.237	-125.526	0.111	-0.017
-679.222	451.087	0.040	0.090
-678.208	628.756	-0.048	0.124
-677.193	-44.394	-0.031	-0.016
-676.178	-200.000	-0.032	0.200
-675.164	99.943	-0.206	0.243
-674.149	800.000	-0.101	-0.315
-673.135	-200.000	-0.042	0.257
-672.120	800.000	0.023	0.068
-671.105	800.000	0.107	0.427
-670.091	-8.835	-0.035	-0.024
-669.076	62.215	0.182	-0.184
-668.062	158.416	-0.221	-0.312
-667.047	57.725	-0.128	0.127
-666.032	-24.061	0.185	0.112
-665.018	551.395	-0.104	-0.253
-664.003	28.905	0.097	0.083
-662.989	-200.000	0.043	-0.266
-661.974	800.000	-0.038	-0.149
-660.959	800.000	0.079	-0.236
-659.945	224.992	0.095	-0.156
-658.930	-152.526	0.283	-0.021
-657.916	-29.055	-0.318	0.185
-656.901	108.153	-0.220	-0.267
-655.886	-129.896	0.216	0.030
-654.872	13.371	-0.249	0.196
-653.857	307.715	-0.089	0.169
-652.843	-185.900	-0.245	0.004
-651.828	156.623	-0.177	-0.249
-650.814	-200.000	-0.047	0.313
-649.799	-134.515	-0.111	-0.014
-648.784	800.000	-0.123	0.401
-647.770	481.115	-0.085	0.196
-646.755	-101.273	-0.119	0.029
-645.741	800.000	-0.045	-0.184
-644.726	-200.000	-0.033	0.225
-643.711	-83.795	0.373	0.121
-642.697	-60.527	0.298	-0.129
-641.682	525.275	0.040	-0.095
-640.668	-68.973	-0.060	-0.024
-639.653	133.354	0.209	-0.274
-638.638	-200.000	0.007	-0.151
-637.624	56.038	-0.153	0.150
-636.609	-200.000	0.012	-0.181
-635.595	800.000	0.066	-0.232
-634.580	-63.299	-0.164	0.068
-633.565	41.370	0.141	0.129
-632.551	137.669	0.046	0.061
-631.536	-73.864	-0.411	-0.151
-630.522	-77.639	0.217	0.076
-629.507	800.000	0.059	0.214
-628.492	366.286	-0.056	-0.115
-627.478	336.608	0.007	-0.013
-626.463	580.965	0.066	-0.164
-625.449	-127.872	0.359	-0.052
-624.434	-50.472	0.010	0.005
-623.419	37.695	-0.096	0.087
-622.405	27.950	-0.147	-0.126
-621.390	-168.895	-0.086	0.003
-620.376	50.196	0.200	-0.192
-619.361	-30.941	-0.083	-0.048
-618.346	-55.396	-0.258	0.118
-617.332	-30.039	-0.108	0.062
-616.317	47.757	0.080	0.076
-615.303	-17.288	0.145	-0.093
-614.288	191.403	-0.157	-0.240
-613.273	-65.856	-0.087	-0.035
-612.259	31.769	-0.043	0.038
-611.244	-94.876	-0.382	0.105
-610.230	270.854	-0.070	0.125
-609.215	21.094	0.225	-0.185
-608.201	-167.607	-0.184	-0.007
-607.186	800.000	-0.031	0.113
-606.171	334.008	0.037	-0.072
-605.157	-40.283	0.106	0.056
-604.142	26.731	-0.042	-0.036
-603.128	122.639	-0.040	0.051
-602.113	-200.000	0.015	0.289
-601.098	158.590	0.115	0.162
-600.084	-200.000	0.045	0.231
-599.069	800.000	-0.106	-0.470
-598.055	73.909	-0.105	-0.112
-597.040	-133.963	-0.425	-0.053
-596.025	-2.105	-0.173	0.123
-595.011	800.000	0.047	-0.183
-593.996	-73.797	-0.161	0.059
-592.982	-77.623	0.116	-0.041
-591.967	-200.000	0.002	-0.086
-590.952	-200.000	0.033	-0.177
-589.938	-200.000	-0.014	0.105
-588.923	38.102	-0.288	0.259
-587.909	176.683	0.058	-0.086
-586.894	61.015	0.117	-0.118
-585.879	-93.490	0.164	-0.046
-584.865	800.000	-0.065	0.263
-583.850	-28.760	-0.096	0.056
-582.836	-200.000	-0.027	-0.202
-581.821	800.000	0.137	0.392
-580.806	-200.000	0.051	-0.269
-579.792	-42.789	-0.079	-0.041
-578.777	85.853	0.206	-0.230
-577.763	800.000	-0.092	-0.259
-576.748	308.506	0.209	0.396
-575.733	-160.228	-0.319	0.017
-574.719	-200.000	-0.000	0.170
-573.704	800.000	0.008	0.024
-572.690	290.848	0.033	-0.060
-571.675	7.598	-0.193	-0.146
-570.661	-200.000	-0.016	-0.166
-569.646	387.397	-0.208	0.436
-568.631	-153.116	0.015	-0.001
-567.617	-200.000	-0.059	-0.274
-566.602	-200.000	-0.096	-0.429
-565.588	-99.312	-0.246	-0.063
-564.573	-88.118	0.255	0.077
-563.558	104.540	0.132	-0.158
-562.544	-10.024	-0.076	0.051
-561.529	-113.519	0.363	-0.072
-560.515	-200.000	-0.013	-0.222
-559.500	-59.503	-0.236	-0.103
-558.485	561.352	0.039	-0.096
-557.471	800.000	-0.061	0.199
-556.456	118.628	0.211	0.263
-555.442	141.135	0.139	-0.186
-554.427	-0.978	-0.222	0.159
-553.412	294.850	-0.103	-0.190
-552.398	-200.000	-0.017	0.136
-551.383	34.630	0.015	0.013
-550.369	-83.244	-0.161	-0.052
-549.354	800.000	-0.112	-0.382
-548.339	-24.529	0.205	-0.123
-547.325	56.414	-0.029	-0.028
-546.310	86.790	-0.115	-0.129
-545.296	-16.894	0.315	-0.201
-544.281	-5.461	0.107	-0.074
-543.266	67.421	0.042	0.044
-542.252	-41.341	-0.239	-0.124
-541.237	183.048	-0.063	0.094
-540.223	244.904	-0.270	-0.460
-539.208	-161.424	0.196	-0.010
-538.193	800.000	0.091	-0.323
-537.179	16.317	0.130	0.104
-536.164	-74.227	-0.353	0.129
-535.150	32.937	-0.056	0.049
-534.135	-47.409	-0.101	-0.050
-533.121	-200.000	0.040	-0.191
-532.106	-200.000	-0.024	0.289
-531.091	43.764	0.041	-0.038
-530.077	339.741	0.053	-0.105
-529.062	128.586	0.098	0.126
-528.048	96.136	-0.125	-0.144
-527.033	-52.430	0.334	0.156
-526.018	144.552	0.034	-0.045
-525.004	-48.779	0.217	0.105
-523.989	203.596	0.091	0.142
-522.975	800.000	0.073	-0.297
-521.960	249.138	0.199	0.341
-520.945	-200.000	-0.020	-0.203
-519.931	-99.823	0.201	0.051
-518.916	-200.000	-0.005	-0.048
-517.902	-200.000	0.025	0.175
-516.887	-112.072	-0.370	0.075
-515.872	-97.233	0.131	0.035
-514.858	-200.000	-0.025	-0.161
-513.843	190.532	0.218	0.331
-512.829	30.978	-0.100	-0.086
-511.814	-36.341	-0.133	-0.072
-510.799	255.130	0.040	0.069
-509.785	195.641	-0.108	0.166
-508.770	-88.721	-0.106	-0.032
-507.756	-176.367	0.683	-0.018
-506.741	-52.381	-0.349	-0.163
-505.726	-200.000	-0.017	-0.242
-504.712	117.824	0.335	-0.416
-503.697	56.228	-0.273	0.268
-502.683	800.000	0.028	0.111
-501.668	-134.499	0.046	0.006
-500.653	54.174	-0.287	0.279
-499.639	-200.000	-0.019	0.209
-498.624	-200.000	-0.026	-0.185
-497.610	-1.260	0.240	0.171
-496.595	800.000	0.036	-0.105
-495.581	-24.360	0.077	0.046
-494.566	-200.000	0.020	-0.158
-493.551	307.618	0.018	-0.034
-492.537	96.343	0.091	0.105
-491.522	-176.689	0.241	0.006
-490.508	248.687	0.106	-0.181
-489.493	754.175	0.124	0.339
-488.478	-92.623	0.070	0.020
-487.464	-79.108	-0.176	0.060
-486.449	-94.169	-0.050	-0.014
-485.435	-35.407	-0.091	0.050
-484.420	-98.742	-0.207	-0.053
-483.405	-99.156	-0.217	0.055
-482.391	-200.000	0.038	0.172
-481.376	404.676	0.087	-0.184
-480.362	-64.418	-0.170	-0.070
-479.347	-200.000	-0.016	-0.086
-478.332	-107.224	-0.246	-0.055
-477.318	-52.244	-0.145	0.068
-476.303	17.481	0.374	0.300
-475.289	-58.068	0.039	-0.017
-474.274	51.400	-0.047	-0.045
-473.259	16.172	-0.299	-0.238
-472.245	-161.694	-0.055	0.003
-471.230	800.000	-0.168	-0.582
-470.216	494.156	0.118	-0.273
-469.201	-100.815	-0.067	-0.017
-468.186	-200.000	-0.012	-0.093
-467.172	-200.000	-0.008	-0.044
-466.157	-200.000	0.043	0.291
-465.143	-52.701	-0.293	0.136
-464.128	241.093	0.141	0.237
-463.113	-200.000	-0.005	0.114
-462.099	-200.000	-0.043	-0.290
-461.084	-133.634	-0.082	0.010
-460.070	148.710	0.010	-0.014
-459.055	81.642	0.198	0.216
-458.040	-3.055	-0.347	-0.244
-457.026	-78.327	0.344	-0.119
-456.011	-180.405	0.120	-0.003
-454.997	-144.549	0.204	0.019
-453.982	-200.000	0.038	0.387
-452.968	-87.298	-0.176	-0.054
-451.953	166.556	-0.184	0.263
-450.938	58.359	0.186	-0.184
-449.924	-14.192	0.236	0.153
-448.909	-200.000	0.000	0.167
-447.895	101.653	0.254	-0.298
-446.880	32.764	-0.196	0.171
-445.865	-63.639	-0.094	0.039
-444.851	790.403	0.083	-0.231
-443.836	-56.835	0.130	-0.058
-442.822	80.193	-0.146	-0.159
-441.807	-56.509	0.274	-0.122
-440.792	146.337	-0.132	-0.179
-439.778	-200.000	-0.015	-0.182
-438.763	-29.772	0.209	-0.120
-437.749	800.000	0.058	-0.214
-436.734	-13.535	-0.094	0.061
-435.719	74.839	0.200	0.212
-434.705	540.292	-0.094	-0.225
-433.690	-34.611	-0.267	-0.147
-432.676	191.027	0.049	0.075
-431.661	-80.601	-0.325	-0.109
-430.646	-49.819	0.262	0.125
-429.632	800.000	-0.072	0.221
-428.617	-200.000	0.001	0.008
-427.603	452.607	-0.064	0.142
-426.588	-119.180	0.181	-0.032
-425.573	173.844	-0.148	0.215
-424.559	-200.000	0.016	0.098
-423.544	422.904	-0.182	-0.394
-422.530	-22.012	-0.145	0.089
-421.515	247.326	0.165	0.281
-420.500	563.951	-0.058	0.141
-419.486	239.671	0.160	-0.268
-418.471	-62.609	-0.288	-0.120
-417.457	-50.854	-0.279	0.132
-416.442	172.929	-0.109	0.158
-415.428	715.311	-0.067	-0.180
-414.413	64.532	0.211	-0.214
-413.398	-115.030	0.329	0.063
-412.384	800.000	0.139	0.406
-411.369	-96.295	-0.116	0.031
-410.355	-161.160	-0.127	0.007
-409.340	236.949	-0.067	0.111
-408.325	-80.904	-0.121	-0.040
-407.311	800.000	-0.049	-0.215
-406.296	345.707	0.124	-0.246
-405.282	127.876	-0.095	-0.122
-404.267	-200.000	-0.007	0.116
-403.252	84.571	0.089	-0.098
-402.238	-137.607	-0.080	0.009
-401.223	-200.000	0.012	-0.077
-400.209	800.000	-0.053	-0.204
-399.194	27.005	-0.185	0.156
-398.179	36.713	-0.108	-0.096
-397.165	117.853	-0.078	-0.096
-396.150	-154.816	0.156	-0.010
-395.136	-200.000	-0.000	-0.463
-394.121	-200.000	-0.034	0.152
-393.106	-74.648	-0.080	-0.029
-392.092	-200.000	0.023	-0.102
-391.077	800.000	-0.028	0.092
-390.063	-141.980	0.222	-0.022
-389.048	-121.709	-0.232	0.039
-388.033	-200.000	-0.072	0.380
-387.019	-19.563	-0.216	0.134
-386.004	800.000	0.063	0.241
-384.990	341.506	-0.152	0.299
-383.975	2.081	-0.334	0.243
-382.960	64.621	0.191	-0.193
-381.946	91.460	0.220	-0.248
-380.931	144.502	-0.046	-0.062
-379.917	83.424	0.093	0.101
-378.902	-128.738	-0.384	0.054
-377.888	19.345	0.342	-0.276
-376.873	-200.000	0.015	-0.130
-375.858	34.123	-0.050	-0.044
-374.844	162.695	0.069	0.098
-373.829	-133.697	0.381	0.048
-372.815	168.273	-0.058	-0.083
-371.800	154.820	-0.206	0.284
-370.785	-45.335	-0.258	0.129
-369.771	-200.000	-0.007	-0.210
-368.756	-200.000	0.006	0.090
-367.742	-200.000	-0.055	-0.396
-366.727	-139.121	-0.057	-0.006
-365.712	800.000	0.061	-0.170
-364.698	-86.209	0.220	0.068
-363.683	-2.898	-0.246	-0.172
-362.669	-24.877	-0.052	-0.031
-361.654	-200.000	-0.028	-0.124
-360.639	2.585	0.209	0.152
-359.625	-200.000	0.004	0.068
-358.610	-40.973	0.355	-0.184
-357.596	266.071	0.082	0.144
-356.581	59.437	-0.101	-0.100
-355.566	112.843	0.096	0.117
-354.552	-200.000	0.027	0.144
-353.537	-200.000	-0.036	0.249
-352.523	-85.576	0.462	0.144
-351.508	-200.000	-0.032	-0.151
-350.493	84.828	0.162	0.179
-349.479	-200.000	0.045	0.204
-348.464	-54.376	-0.156	-0.071
-347.450	308.849	0.081	0.152
-346.435	-200.000	0.032	-0.433
-345.420	15.679	-0.132	0.104
-344.406	53.844	0.222	0.214
-343.391	-35.394	0.095	0.052
-342.377	-145.678	0.557	-0.050
-341.362	-200.000	-0.019	0.314
-340.348	-66.633	-0.173	-0.069
-339.333	-111.571	0.263	0.054
-338.318	-64.829	0.227	0.092
-337.304	461.321	0.048	-0.107
-336.289	-49.539	0.113	-0.054
-335.275	-200.000	-0.183	-0.000
-334.260	-200.000	0.014	0.297
-333.245	800.000	0.008	0.034
-332.231	-58.384	0.138	0.060
-331.216	546.368	-0.019	0.047
-330.202	13.814	-0.255	0.199
-329.187	-72.529	-0.130	0.048
-328.172	-200.000	0.056	0.514
-327.158	192.295	0.153	0.231
-326.143	33.271	-0.195	0.170
-325.129	218.008	0.077	0.123
-324.114	-200.000	-0.014	0.204
-323.099	61.401	0.222	0.222
-322.085	58.978	-0.440	0.434
-321.070	56.366	0.021	-0.021
-320.056	-104.726	0.177	0.041
-319.041	-57.521	-0.205	-0.090
-318.026	-1.661	0.211	-0.149
-317.012	-69.959	-0.143	-0.055
-315.997	-0.855	-0.076	0.054
-314.983	-200.000	-0.020	0.156
-313.968	293.917	0.182	0.333
-312.953	-48.776	0.405	-0.195
-311.939	-200.000	0.349	0.001
-310.924	800.000	-0.051	0.176
-309.910	-200.000	0.010	0.184
-308.895	-129.486	-0.155	0.021
-307.880	-4.052	0.304	-0.211
-306.866	-200.000	0.021	0.244
-305.851	-132.193	-0.121	-0.016
-304.837	800.000	-0.051	-0.151
-303.822	800.000	-0.105	-0.351
-302.807	49.327	0.266	-0.251
-301.793	-200.000	-0.031	0.318
-300.778	27.535	0.329	0.277
-299.764	-148.983	-0.031	0.003
-298.749	800.000	-0.021	-0.071
-297.735	22.900	-0.196	0.161
-296.720	4.696	0.151	-0.111
-295.705	2.491	-0.252	0.182
-294.691	701.275	0.093	-0.246
-293.676	139.503	-0.159	-0.209
-292.662	591.006	0.078	0.193
-291.647	-8.840	-0.175	0.118
-290.632	-124.680	-0.119	-0.018
-289.618	-10.620	-0.207	-0.137
-288.603	-200.000	0.006	-0.146
-287.589	-53.641	0.043	-0.020
-286.574	-113.312	-0.093	-0.018
-285.559	-48.390	-0.110	0.053
-284.545	-96.475	-0.235	0.062
-283.530	-69.581	-0.056	0.021
-282.516	-199.544	-0.257	0.001
-281.501	-67.119	0.401	0.158
-280.486	-44.013	0.230	0.115
-279.472	106.280	-0.069	0.082
-278.457	-200.000	-0.046	0.413
-277.443	-105.763	-0.307	-0.070
-276.428	-117.822	0.277	-0.050
-275.413	8.891	0.095	0.072
-274.399	-109.801	0.305	0.064
-273.384	-79.031	-0.162	0.055
-272.370	7.709	0.299	-0.224
-271.355	-87.582	0.409	0.124
-270.340	-124.330	-0.363	-0.057
-269.326	-200.000	-0.013	-0.261
-268.311	-200.000	-0.019	-0.342
-267.297	-19.164	0.320	-0.199
-266.282	-69.477	-0.278	0.106
-265.267	-43.913	0.494	0.249
-264.253	235.639	-0.031	-0.051
-263.238	178.031	-0.242	0.353
-262.224	-104.332	0.075	-0.017
-261.209	-68.295	0.359	-0.140
-260.195	9.753	0.087	-0.066
-259.180	-200.000	0.021	0.144
-258.165	171.796	-0.246	-0.353
-257.151	226.901	0.302	-0.490
-256.136	113.886	0.137	0.166
-255.122	53.815	0.240	0.231
-254.107	-55.409	-0.317	0.142
-253.092	67.639	0.153	0.156
-252.078	32.068	-0.295	0.254
-251.063	-10.811	0.201	0.133
-250.049	-120.072	-0.207	-0.035
-249.034	-123.775	-0.027	0.004
-248.019	-51.588	-0.313	-0.146
-247.005	-130.189	-0.220	0.030
-245.990	-131.587	-0.021	0.003
-244.976	68.475	0.324	-0.332
-243.961	800.000	-0.040	-0.129
-242.946	-65.123	-0.343	-0.138
-241.932	-32.936	0.073	0.041
-240.917	761.580	-0.054	-0.146
-239.903	-11.854	0.180	0.118
-238.888	-84.599	-0.209	0.066
-237.873	-102.287	-0.203	-0.049
-236.859	-39.778	-0.089	0.046
-235.844	-200.000	-0.018	-0.322
-234.830	-154.974	0.201	-0.013
-233.815	-25.714	-0.199	-0.117
-232.800	-163.230	-0.615	0.029
-231.786	-107.335	0.337	-0.074
-230.771	-200.000	0.013	0.188
-229.757	684.916	0.038	0.100
-228.742	63.122	-0.141	0.141
-227.727	-86.929	-0.325	0.099
-226.713	-99.295	-0.186	0.047
-225.698	-1.550	0.087	-0.061
-224.684	800.000	0.096	-0.265
-223.669	-200.000	0.031	0.501
-222.655	-73.310	0.271	-0.099
-221.640	338.518	0.174	0.338
-220.625	-86.599	-0.139	0.042
-219.611	-11.508	-0.147	-0.097
-218.596	19.389	-0.125	0.101
-217.582	137.240	-0.178	-0.233
-216.567	800.000	-0.078	-0.300
-215.552	282.976	0.025	0.044
-214.538	-115.427	-0.277	0.052
-213.523	19.248	-0.055	-0.044
-212.509	-114.781	0.117	0.022
-211.494	159.894	0.131	0.182
-210.479	-200.000	0.005	-0.071
-209.465	-1.213	0.240	0.169
-208.450	-163.327	0.168	-0.008
-207.436	-200.000	0.000	0.139
-206.421	800.000	-0.075	0.276
-205.406	174.767	-0.172	-0.248
-204.392	480.186	-0.041	0.094
-203.377	306.774	-0.124	0.231
-202.363	800.000	0.075	-0.235
-201.348	-200.000	-0.005	-0.207
-200.333	-64.248	0.110	0.045
-199.319	268.009	0.060	-0.105
-198.304	800.000	-0.077	0.290
-197.290	58.703	-0.174	0.170
-196.275	800.000	-0.028	-0.102
-195.260	52.140	0.087	-0.082
-194.246	273.490	0.089	0.158
-193.231	-130.887	-0.284	0.038
-192.217	-6.037	0.146	0.100
-191.202	-16.092	0.128	0.081
-190.187	294.505	0.029	0.053
-189.173	-123.286	0.333	0.053
-188.158	-64.115	-0.180	0.073
-187.144	-118.513	0.236	-0.042
-186.129	35.732	-0.179	0.157
-185.114	74.130	0.134	-0.140
-184.100	121.587	0.142	-0.177
-183.085	636.593	-0.031	-0.078
-182.071	-110.371	-0.182	0.038
-181.056	-21.245	-0.269	0.164
-180.042	800.000	0.049	0.201
-179.027	-10.324	0.077	0.051
-178.012	629.731	-0.086	-0.217
-176.998	800.000	-0.037	-0.137
-175.983	-101.798	0.047	0.011
-174.969	-110.955	0.302	0.062
-173.954	86.045	0.106	0.116
-172.939	298.545	0.174	0.319
-171.925	-66.128	0.360	-0.143
-170.910	85.925	0.076	-0.083
-169.896	800.000	0.195	-0.595
-168.881	131.879	-0.178	-0.228
-167.866	-156.540	0.294	0.018
-166.852	-200.000	-0.000	0.184
-165.837	800.000	0.024	-0.088
-164.823	747.892	-0.066	-0.179
-163.808	-14.208	0.218	0.140
-162.793	-86.882	-0.246	-0.075
-161.779	601.265	0.080	-0.197
-160.764	-167.675	-0.281	0.011
-159.750	24.502	0.221	0.182
-158.735	-200.000	0.020	-0.214
-157.720	23.855	-0.279	-0.229
-156.706	-0.194	-0.179	-0.127
-155.691	-136.655	-0.138	0.016
-154.677	-146.341	-0.233	-0.020
-153.662	3.299	-0.100	-0.073
-152.647	-95.422	0.274	-0.073
-151.633	384.144	-0.083	-0.169
-150.618	321.868	0.127	-0.240
-149.604	-6.417	0.333	-0.226
-148.589	-73.462	-0.150	0.054
-147.574	171.736	-0.042	0.060
-146.560	-6.431	0.176	-0.120
-145.545	-187.149	0.294	0.004
-144.531	-7.912	0.082	0.055
-143.516	446.743	-0.200	-0.439
-142.502	201.546	0.055	0.084
-141.487	106.904	0.060	-0.071
-140.472	-150.497	0.245	0.019
-139.458	24.902	-0.127	-0.105
-138.443	299.465	0.211	0.386
-137.429	-8.645	-0.249	-0.166
-136.414	-165.984	-0.153	0.007
-135.399	800.000	-0.020	-0.081
-134.385	65.096	-0.043	0.044
-133.370	-200.000	-0.027	0.360
-132.356	-101.612	-0.171	-0.041
-131.341	-24.403	-0.289	-0.171
-130.326	-187.624	0.157	0.002
-129.312	771.858	0.034	0.091
-128.297	-89.214	-0.113	0.033
-127.283	-155.044	0.216	-0.014
-126.268	-80.200	0.144	0.048
-125.253	800.000	0.101	-0.321
-124.239	40.760	0.187	-0.168
-123.224	250.454	0.099	-0.168
-122.210	667.443	-0.046	0.118
-121.195	-53.363	0.087	-0.040
