DTS Sentinel unit serial number:	SN413079Multiplexer serial number:	ORYXHardware model number:	OX4-SRSoftware version number:	ORYX F/W v4.00 Oryx Data Collector v3.7.2.0data status	okinstallation	princeton_trtdifferential loss correction	single-endedforward channel	channel 4reverse channel	N/Adate	2019/09/15time	01:33:34forward acquisition time	60.00reverse acquisition time	0.00gamma	496.2192k internal	0.2308k external	0.2308temperature offset calibration	1.0035default loss term (dB/km)	0.3790temperature slope calibration	1.0000multiplexer offset coefficient	1.0000multiplexer slope coefficient	1.0000fibre end	0.00T internal ref (°C)	31.87T ext. ref 1 (°C)	4.53T ext. ref 2 (°C)	26.71length (m)	temperature (°C)	Stokes	anti-Stokes-747.200	-200.000	0.009	0.078
-746.185	570.314	-0.031	-0.077
-745.171	-94.821	0.350	0.096
-744.156	-115.599	0.136	0.026
-743.142	130.537	-0.109	-0.141
-742.127	177.419	0.070	-0.103
-741.112	28.049	0.215	-0.185
-740.098	-200.000	0.007	-0.091
-739.083	-200.000	-0.017	-0.182
-738.069	-200.000	0.043	0.349
-737.054	309.673	0.136	0.259
-736.039	-9.842	0.027	-0.018
-735.025	-109.515	0.161	-0.035
-734.010	-126.483	-0.104	0.016
-732.996	800.000	-0.023	-0.076
-731.981	157.866	-0.154	-0.217
-730.966	166.742	0.090	-0.130
-729.952	22.231	-0.415	-0.344
-728.937	-13.081	-0.111	-0.073
-727.923	311.725	-0.115	-0.219
-726.908	629.683	-0.121	-0.312
-725.894	111.393	-0.139	-0.170
-724.879	-41.354	0.322	-0.169
-723.864	-200.000	0.008	-0.436
-722.850	223.036	0.171	-0.281
-721.835	800.000	0.066	0.193
-720.821	-168.340	-0.059	0.002
-719.806	212.336	0.031	-0.049
-718.791	-41.535	-0.407	-0.212
-717.777	35.066	-0.218	-0.194
-716.762	191.954	-0.083	0.127
-715.748	-200.000	-0.002	-0.163
-714.733	158.965	-0.121	-0.171
-713.718	136.932	0.280	-0.372
-712.704	800.000	-0.045	-0.140
-711.689	-200.000	-0.066	-0.376
-710.675	-95.599	-0.228	0.062
-709.660	167.472	-0.100	-0.144
-708.645	-121.587	-0.112	-0.019
-707.631	800.000	-0.053	-0.149
-706.616	-200.000	-0.104	-0.579
-705.602	-9.899	-0.151	-0.102
-704.587	-93.138	0.235	-0.066
-703.572	-181.776	-0.173	0.003
-702.558	-134.521	0.162	-0.020
-701.543	-55.519	0.196	-0.089
-700.529	533.195	-0.028	-0.067
-699.514	-114.878	-0.194	-0.038
-698.499	-108.245	0.094	0.021
-697.485	-124.889	0.169	0.026
-696.470	148.802	0.118	-0.161
-695.456	-200.000	-0.009	0.120
-694.441	333.467	0.069	-0.134
-693.426	-200.000	0.018	0.153
-692.412	685.758	-0.077	-0.204
-691.397	800.000	-0.076	-0.286
-690.383	-130.629	0.324	0.044
-689.368	-180.337	-0.128	-0.003
-688.354	46.231	-0.189	0.178
-687.339	10.738	-0.207	-0.161
-686.324	246.073	-0.062	0.107
-685.310	-200.000	0.012	0.665
-684.295	-200.000	-0.021	0.228
-683.281	-141.682	-0.269	-0.027
-682.266	-84.119	-0.221	-0.071
-681.251	39.123	-0.155	0.140
-680.237	-200.000	-0.065	-0.298
-679.222	-104.866	-0.364	-0.085
-678.208	-200.000	0.007	0.290
-677.193	734.590	0.078	-0.213
-676.178	68.336	-0.103	-0.107
-675.164	164.613	0.286	-0.409
-674.149	-200.000	0.029	-0.171
-673.135	671.287	-0.111	0.290
-672.120	39.245	0.094	0.085
-671.105	-64.313	0.201	-0.083
-670.091	14.459	-0.243	-0.192
-669.076	33.776	0.184	-0.162
-668.062	-200.000	-0.001	-0.368
-667.047	71.794	-0.269	-0.284
-666.032	-38.815	-0.334	0.179
-665.018	-111.875	0.201	-0.041
-664.003	185.745	-0.047	0.071
-662.989	175.663	0.106	-0.155
-661.974	-178.563	0.162	0.004
-660.959	-149.829	0.153	0.012
-659.945	-122.116	-0.198	-0.033
-658.930	53.669	0.154	0.150
-657.916	-38.419	0.226	0.121
-656.901	34.343	-0.227	-0.200
-655.886	104.829	-0.067	0.080
-654.872	-98.642	-0.411	-0.106
-653.857	800.000	0.006	-0.017
-652.843	-20.834	-0.157	-0.097
-651.828	-88.467	-0.387	0.117
-650.814	-88.130	-0.155	-0.047
-649.799	-200.000	0.011	0.130
-648.784	-200.000	0.030	-0.165
-647.770	195.565	0.164	-0.252
-646.755	-125.778	-0.464	-0.071
-645.741	-130.330	-0.141	-0.019
-644.726	-200.000	-0.066	0.338
-643.711	653.856	0.149	0.388
-642.697	134.185	-0.091	-0.120
-641.682	124.975	0.042	-0.053
-640.668	-111.577	-0.218	0.045
-639.653	800.000	-0.109	0.348
-638.638	-47.360	-0.304	-0.150
-637.624	-80.938	-0.213	-0.071
-636.609	800.000	0.015	0.060
-635.595	131.108	-0.274	-0.357
-634.580	-34.975	0.225	-0.124
-633.565	222.867	-0.266	0.434
-632.551	26.406	-0.148	-0.125
-631.536	249.869	-0.141	0.242
-630.522	493.431	-0.047	-0.108
-629.507	-200.000	-0.064	-0.287
-628.492	-138.309	0.253	-0.028
-627.478	188.368	-0.184	-0.278
-626.463	-200.000	-0.008	-0.551
-625.449	-200.000	0.011	0.055
-624.434	-126.499	0.182	-0.027
-623.419	800.000	0.050	-0.220
-622.405	-200.000	-0.001	-0.154
-621.390	800.000	-0.091	0.258
-620.376	-171.866	0.100	-0.003
-619.361	627.908	-0.032	-0.083
-618.346	-107.910	0.261	-0.057
-617.332	-122.144	-0.459	0.076
-616.317	497.253	0.025	-0.058
-615.303	23.177	-0.184	-0.153
-614.288	151.288	-0.074	0.102
-613.273	51.845	-0.405	-0.390
-612.259	91.389	-0.043	-0.049
-611.244	-115.962	0.090	-0.017
-610.230	-113.146	-0.189	0.038
-609.215	-44.337	0.059	-0.030
-608.201	169.586	0.213	0.307
-607.186	800.000	-0.157	0.492
-606.171	385.586	-0.077	-0.161
-605.157	-92.032	-0.294	-0.084
-604.142	432.126	0.078	0.171
-603.128	566.867	-0.060	0.146
-602.113	800.000	-0.072	0.266
-601.098	-151.962	0.126	0.009
-600.084	-111.274	-0.095	0.020
-599.069	-104.564	0.467	0.109
-598.055	72.362	-0.160	-0.168
-597.040	34.053	-0.098	-0.086
-596.025	598.542	-0.080	-0.202
-595.011	-36.536	0.180	-0.098
-593.996	323.923	-0.052	0.099
-592.982	-200.000	0.001	-0.140
-591.967	-10.806	0.326	-0.218
-590.952	180.708	-0.142	0.211
-589.938	115.251	-0.052	-0.065
-588.923	115.617	-0.099	0.122
-587.909	88.524	-0.225	0.252
-586.894	-85.308	0.137	0.043
-585.879	-200.000	0.024	0.145
-584.865	20.570	0.093	-0.076
-583.850	153.486	0.169	0.234
-582.836	-103.675	0.037	-0.009
-581.821	5.481	-0.183	-0.136
-580.806	18.408	-0.089	-0.072
-579.792	-46.916	-0.165	-0.082
-578.777	6.837	-0.160	0.120
-577.763	-200.000	-0.013	0.120
-576.748	370.427	-0.062	0.127
-575.733	-21.992	0.204	-0.125
-574.719	-29.852	-0.027	0.016
-573.704	45.633	-0.134	-0.125
-572.690	2.299	-0.116	0.085
-571.675	64.528	-0.113	-0.115
-570.661	130.945	0.146	-0.189
-569.646	-50.883	0.101	0.048
-568.631	346.023	0.134	-0.266
-567.617	-174.783	-0.079	-0.002
-566.602	141.220	-0.047	-0.062
-565.588	-167.430	-0.074	-0.003
-564.573	800.000	-0.063	-0.229
-563.558	-127.469	0.485	0.071
-562.544	-81.584	-0.131	-0.043
-561.529	-121.624	-0.106	0.018
-560.515	273.334	0.164	-0.293
-559.500	145.148	-0.142	-0.192
-558.485	-200.000	0.037	0.375
-557.471	127.552	-0.103	0.132
-556.456	743.415	0.102	-0.276
-555.442	800.000	-0.047	-0.142
-554.427	3.221	-0.145	0.106
-553.412	-180.816	-0.241	-0.005
-552.398	53.072	-0.439	-0.424
-551.383	56.182	0.187	0.183
-550.369	-102.978	0.119	0.028
-549.354	143.311	-0.057	-0.076
-548.339	-71.929	-0.074	0.028
-547.325	-83.662	0.290	-0.094
-546.310	-200.000	0.028	-0.364
-545.296	12.778	-0.202	0.158
-544.281	416.824	-0.065	-0.141
-543.266	-88.358	0.367	-0.111
-542.252	99.396	0.106	0.124
-541.237	97.901	0.012	-0.014
-540.223	-37.486	0.230	-0.124
-539.208	-71.320	0.216	-0.082
-538.193	97.245	0.176	0.204
-537.179	-200.000	-0.005	-0.101
-536.164	-88.964	-0.444	-0.133
-535.150	-1.646	-0.360	-0.256
-534.135	-200.000	0.012	-0.083
-533.121	800.000	0.037	0.124
-532.106	124.439	-0.098	0.125
-531.091	-115.934	0.320	0.060
-530.077	-5.059	0.236	0.164
-529.062	-41.879	-0.361	0.187
-528.048	-54.252	-0.086	0.040
-527.033	315.509	-0.131	0.250
-526.018	69.274	0.097	0.101
-525.004	-138.197	-0.289	0.032
-523.989	800.000	-0.054	-0.207
-522.975	-200.000	-0.034	0.000
-521.960	-77.409	-0.007	0.002
-520.945	124.131	0.102	0.129
-519.931	542.208	0.061	0.147
-518.916	-200.000	-0.015	-0.308
-517.902	287.636	0.145	-0.264
-516.887	-53.730	-0.213	-0.098
-515.872	-118.705	0.603	-0.107
-514.858	-70.015	0.158	0.061
-513.843	-94.310	-0.123	-0.034
-512.829	38.117	-0.168	-0.151
-511.814	237.074	-0.072	0.121
-510.799	800.000	-0.009	-0.031
-509.785	-111.091	0.129	-0.027
-508.770	144.800	0.099	0.134
-507.756	69.324	-0.106	-0.109
-506.741	-76.398	0.235	0.083
-505.726	-200.000	0.073	0.392
-504.712	-38.974	-0.230	0.122
-503.697	20.323	-0.024	-0.019
-502.683	-200.000	-0.023	-0.220
-501.668	-35.975	0.163	0.089
-500.653	-7.029	-0.179	0.123
-499.639	284.363	0.190	0.344
-498.624	-142.381	0.286	0.028
-497.610	29.706	-0.148	0.127
-496.595	800.000	0.068	0.229
-495.581	-13.764	-0.061	0.040
-494.566	-53.254	0.293	0.135
-493.551	288.527	-0.025	-0.045
-492.537	-38.428	-0.177	-0.094
-491.522	503.497	0.138	0.321
-490.508	-159.537	-0.119	0.007
-489.493	-200.000	-0.022	0.299
-488.478	-130.082	0.126	-0.017
-487.464	229.632	-0.200	0.329
-486.449	-135.643	0.145	0.017
-485.435	-80.697	0.285	-0.096
-484.420	-200.000	0.001	0.166
-483.405	-43.912	0.106	0.054
-482.391	88.749	-0.293	-0.328
-481.376	224.555	0.038	-0.061
-480.362	800.000	-0.058	0.195
-479.347	-192.944	-0.419	0.004
-478.332	-158.785	-0.339	0.020
-477.318	77.001	0.018	0.019
-476.303	-110.687	0.072	-0.015
-475.289	-114.074	-0.218	-0.042
-474.274	-200.000	0.013	-0.081
-473.259	-116.215	0.143	0.027
-472.245	-200.000	0.033	0.153
-471.230	184.177	0.154	-0.229
-470.216	-183.966	0.274	-0.005
-469.201	23.753	0.337	0.279
-468.186	404.211	0.080	-0.170
-467.172	800.000	0.050	-0.196
-466.157	681.994	-0.060	0.157
-465.143	72.075	-0.147	0.153
-464.128	201.181	-0.069	-0.107
-463.113	562.428	0.057	-0.139
-462.099	-21.680	-0.366	0.224
-461.084	-95.571	0.353	-0.095
-460.070	308.936	0.122	-0.229
-459.055	43.872	0.154	-0.141
-458.040	800.000	0.021	0.062
-457.026	-27.904	0.172	0.100
-456.011	61.407	0.231	-0.231
-454.997	142.524	-0.132	0.176
-453.982	-54.619	-0.148	0.067
-452.968	147.933	-0.056	0.076
-451.953	69.617	-0.157	-0.163
-450.938	-145.779	0.214	-0.019
-449.924	-200.000	0.020	0.177
-448.909	-15.250	-0.067	0.043
-447.895	127.089	-0.054	-0.069
-446.880	57.695	-0.069	-0.068
-445.865	800.000	0.036	0.161
-444.851	-69.910	-0.172	-0.066
-443.836	100.062	-0.140	0.163
-442.822	-200.000	0.015	0.141
-441.807	259.969	0.045	-0.078
-440.792	-150.551	0.373	0.029
-439.778	-124.970	-0.357	-0.055
-438.763	800.000	-0.025	-0.073
-437.749	-129.178	0.120	0.017
-436.734	-183.851	-0.047	-0.001
-435.719	-200.000	0.008	0.120
-434.705	-12.655	0.067	-0.044
-433.690	117.228	-0.165	-0.204
-432.676	-110.180	-0.183	-0.038
-431.661	800.000	-0.011	-0.041
-430.646	-15.986	0.003	-0.002
-429.632	342.359	0.089	-0.175
-428.617	-127.750	0.240	0.035
-427.603	-50.872	-0.154	0.073
-426.588	88.592	-0.030	0.033
-425.573	-25.128	-0.408	-0.243
-424.559	800.000	0.044	0.135
-423.544	88.640	0.155	0.173
-422.530	111.383	-0.118	-0.143
-421.515	800.000	0.123	0.502
-420.500	-62.203	0.021	-0.009
-419.486	-104.087	-0.223	-0.052
-418.471	-83.954	0.129	0.041
-417.457	-200.000	-0.020	0.206
-416.442	23.231	0.188	0.155
-415.428	133.849	0.098	0.128
-414.413	-111.312	-0.324	0.066
-413.398	-200.000	0.011	0.198
-412.384	-200.000	0.044	-0.349
-411.369	-191.536	0.188	0.002
-410.355	800.000	0.048	-0.137
-409.340	46.464	-0.255	0.237
-408.325	-200.000	0.042	-0.311
-407.311	235.987	0.106	0.176
-406.296	-163.112	0.382	0.018
-405.282	24.725	0.097	-0.081
-404.267	1.985	0.242	0.175
-403.252	800.000	0.050	0.140
-402.238	215.421	-0.093	0.148
-401.223	-9.336	0.318	-0.213
-400.209	171.283	0.176	-0.253
-399.194	-133.050	-0.225	-0.029
-398.179	-200.000	-0.068	-0.329
-397.165	-2.318	-0.125	0.088
-396.150	-82.749	-0.174	0.056
-395.136	-200.000	-0.013	0.139
-394.121	-178.107	-0.265	-0.006
-393.106	-72.931	-0.050	0.018
-392.092	116.172	0.109	0.133
-391.077	-200.000	0.075	-0.376
-390.063	285.117	0.071	0.129
-389.048	-119.802	0.261	0.045
-388.033	-86.064	-0.017	-0.005
-387.019	-200.000	-0.002	0.159
-386.004	-200.000	-0.039	0.190
-384.990	124.639	0.118	-0.149
-383.975	124.856	0.120	-0.151
-382.960	-78.822	0.224	0.076
-381.946	-62.516	-0.342	-0.142
-380.931	286.685	0.018	-0.033
-379.917	281.520	-0.133	-0.238
-378.902	-154.598	0.216	-0.014
-377.888	221.390	0.108	-0.174
-376.873	322.984	0.086	-0.164
-375.858	-200.000	0.007	0.254
-374.844	356.616	0.123	0.245
-373.829	-57.608	-0.299	0.131
-372.815	391.873	-0.156	-0.324
-371.800	545.078	0.056	0.134
-370.785	123.485	-0.142	0.179
-369.771	25.320	-0.123	-0.102
-368.756	155.758	0.199	0.275
-367.742	-162.189	-0.317	-0.016
-366.727	25.977	0.283	0.237
-365.712	502.745	0.141	0.326
-364.698	-123.854	-0.159	0.025
-363.683	21.189	-0.041	-0.033
-362.669	-33.373	-0.099	-0.055
-361.654	133.386	-0.099	0.128
-360.639	-200.000	-0.014	-0.128
-359.625	87.228	0.220	-0.243
-358.610	1.319	-0.292	0.210
-357.596	24.391	0.152	-0.126
-356.581	-76.456	0.139	-0.049
-355.566	69.783	-0.064	-0.066
-354.552	800.000	0.082	0.315
-353.537	-200.000	0.025	-0.246
-352.523	-38.050	-0.174	0.092
-351.508	-36.002	-0.235	0.127
-350.493	-115.614	-0.163	0.031
-349.479	662.460	-0.036	-0.093
-348.464	-136.474	0.185	0.021
-347.450	800.000	0.081	-0.300
-346.435	276.593	0.110	0.196
-345.420	106.120	-0.266	0.315
-344.406	-37.610	-0.186	0.099
-343.391	-11.192	-0.134	0.088
-342.377	-59.955	0.114	-0.049
-341.362	329.060	0.046	-0.088
-340.348	-200.000	0.009	0.134
-339.333	63.711	-0.183	0.184
-338.318	-16.422	-0.111	0.071
-337.304	-192.721	-0.119	-0.001
-336.289	-200.000	-0.085	0.438
-335.275	-200.000	0.003	0.594
-334.260	91.179	0.296	0.333
-333.245	-200.000	-0.011	-0.603
-332.231	162.298	-0.030	0.042
-331.216	291.342	-0.110	0.199
-330.202	-95.919	-0.092	0.025
-329.187	800.000	-0.046	-0.146
-328.172	-200.000	0.006	-0.137
-327.158	-33.877	-0.240	0.132
-326.143	128.404	-0.119	0.151
-325.129	292.176	0.179	-0.326
-324.114	-200.000	-0.007	-0.400
-323.099	188.223	0.093	-0.138
-322.085	-200.000	0.007	-0.179
-321.070	129.600	0.231	0.295
-320.056	-200.000	0.031	0.284
-319.041	240.565	0.154	0.257
-318.026	157.801	0.103	0.143
-317.012	34.887	0.227	-0.199
-315.997	57.577	-0.232	0.227
-314.983	485.745	0.169	0.386
-313.968	321.447	-0.153	0.290
-312.953	12.075	-0.225	-0.173
-311.939	800.000	0.065	-0.215
-310.924	119.116	0.058	-0.072
-309.910	-130.011	0.232	-0.032
-308.895	124.928	-0.195	-0.245
-307.880	-91.401	0.045	0.013
-306.866	22.724	0.250	0.204
-305.851	800.000	0.042	-0.174
-304.837	58.686	0.041	-0.040
-303.822	800.000	0.038	-0.105
-302.807	-0.361	-0.069	-0.049
-301.793	274.070	0.140	-0.247
-300.778	-130.443	-0.245	0.033
-299.764	58.148	0.077	-0.075
-298.749	78.065	-0.088	-0.094
-297.735	-175.766	0.112	-0.003
-296.720	331.941	-0.072	0.140
-295.705	-147.581	-0.415	-0.035
-294.691	-101.582	-0.370	-0.090
-293.676	-200.000	0.064	-0.439
-292.662	-141.460	0.354	0.036
-291.647	-72.588	-0.024	0.009
-290.632	-200.000	0.001	0.077
-289.618	147.494	0.219	-0.295
-288.603	20.531	0.202	0.163
-287.589	543.571	-0.081	0.194
-286.574	-24.235	-0.203	-0.121
-285.559	118.674	0.103	-0.127
-284.545	-200.000	-0.007	-0.152
-283.530	-133.211	0.205	-0.026
-282.516	353.159	0.142	0.281
-281.501	-129.800	-0.275	0.038
-280.486	-113.017	0.376	0.074
-279.472	800.000	0.095	0.293
-278.457	800.000	0.038	0.113
-277.443	-147.930	-0.031	-0.003
-276.428	-184.455	0.607	0.010
-275.413	-200.000	0.028	-0.129
-274.399	-151.369	0.187	0.014
-273.384	410.179	0.151	-0.320
-272.370	511.338	-0.059	-0.137
-271.355	230.808	0.045	0.073
-270.340	-10.153	0.212	0.141
-269.326	-200.000	0.060	-0.272
-268.311	1.055	0.147	-0.105
-267.297	800.000	-0.083	0.298
-266.282	-200.000	-0.003	-0.060
-265.267	-200.000	0.011	0.065
-264.253	-200.000	-0.003	0.131
-263.238	458.386	-0.064	-0.141
-262.224	-113.602	0.243	-0.047
-261.209	246.821	-0.060	-0.102
-260.195	800.000	0.034	0.109
-259.180	188.365	-0.092	0.138
-258.165	800.000	-0.031	-0.109
-257.151	-74.966	0.129	-0.046
-256.136	-9.494	-0.155	-0.103
-255.122	-200.000	0.000	0.042
-254.107	-200.000	-0.066	-0.302
-253.092	-200.000	0.008	-0.215
-252.078	30.340	-0.290	0.247
-251.063	-8.258	0.117	0.079
-250.049	-14.745	-0.180	-0.115
-249.034	289.960	-0.200	-0.362
-248.019	19.454	-0.149	-0.120
-247.005	-41.896	0.284	0.145
-245.990	481.244	-0.110	0.250
-244.976	3.416	0.232	-0.168
-243.961	-81.422	0.366	-0.120
-242.946	-200.000	0.026	-0.311
-241.932	-48.034	-0.160	0.077
-240.917	-54.862	0.169	0.076
-239.903	-92.732	0.071	-0.020
-238.888	-79.675	-0.188	-0.063
-237.873	35.781	0.055	0.048
-236.859	800.000	0.033	-0.143
-235.844	276.752	0.287	-0.508
-234.830	800.000	0.074	-0.265
-233.815	122.874	-0.039	-0.049
-232.800	-44.397	0.119	0.059
-231.786	82.185	-0.138	-0.149
-230.771	169.301	-0.189	-0.269
-229.757	16.088	0.072	0.056
-228.742	37.537	-0.161	-0.143
-227.727	-104.551	0.317	-0.073
-226.713	-32.675	0.124	-0.069
-225.698	800.000	0.092	-0.327
-224.684	800.000	0.113	0.404
-223.669	-200.000	-0.005	-0.043
-222.655	-200.000	0.008	0.400
-221.640	-123.864	-0.234	-0.037
-220.625	-117.185	-0.245	-0.044
-219.611	284.587	-0.034	-0.061
-218.596	800.000	0.024	-0.074
-217.582	-200.000	-0.005	0.024
-216.567	-112.385	0.098	0.020
-215.552	34.391	-0.189	0.164
-214.538	467.409	-0.092	-0.205
-213.523	482.870	-0.136	-0.308
-212.509	271.523	0.125	0.219
-211.494	182.737	-0.258	0.379
-210.479	-52.802	-0.191	0.088
-209.465	-15.034	-0.124	0.079
-208.450	-144.036	0.084	0.008
-207.436	-106.598	0.475	-0.105
-206.421	232.980	-0.038	0.063
-205.406	-200.000	-0.004	-0.146
-204.392	123.122	0.140	0.174
-203.377	-3.862	0.248	0.171
-202.363	493.150	0.165	0.376
-201.348	127.409	0.058	0.073
-200.333	-104.151	0.327	-0.076
-199.319	62.089	-0.075	0.075
-198.304	346.662	-0.105	0.205
-197.290	-177.804	0.398	-0.010
-196.275	-139.943	0.136	0.014
-195.260	-47.697	-0.084	-0.041
-194.246	633.410	0.049	-0.122
-193.231	-192.081	-0.133	0.001
-192.217	90.462	-0.242	-0.270
-191.202	-89.005	-0.165	0.049
-190.187	800.000	-0.063	-0.189
-189.173	-143.703	-0.272	-0.026
-188.158	-32.475	0.324	0.180
-187.144	-200.000	0.005	0.244
-186.129	-200.000	-0.012	0.175
-185.114	-170.356	0.351	0.012
-184.100	9.537	-0.207	-0.156
-183.085	-64.392	0.073	0.030
-182.071	-200.000	0.013	0.080
-181.056	-200.000	-0.006	0.049
-180.042	96.510	-0.275	-0.313
-179.027	1.638	-0.209	0.150
-178.012	-127.379	-0.231	-0.033
-176.998	135.699	0.175	0.226
-175.983	-200.000	0.004	-0.064
-174.969	-85.856	-0.186	0.057
-173.954	229.238	0.048	-0.078
-172.939	-200.000	0.024	0.131
-171.925	-92.820	0.124	0.034
-170.910	-159.866	-0.083	0.005
-169.896	-95.647	0.152	-0.041
-168.881	-41.687	0.158	-0.081
-167.866	570.930	-0.058	-0.140
-166.852	-150.710	-0.105	-0.008
-165.837	83.393	-0.168	-0.181
-164.823	34.306	-0.213	-0.185
-163.808	0.846	0.279	0.198
-162.793	14.096	-0.134	-0.104
-161.779	-112.925	0.205	0.040
-160.764	-140.949	0.013	0.001
-159.750	-150.394	-0.191	-0.015
-158.735	-149.633	0.211	0.017
-157.720	-36.173	0.049	0.026
-156.706	-81.649	-0.046	0.015
-155.691	367.689	-0.084	-0.168
-154.677	198.404	-0.058	-0.088
-153.662	-121.197	0.234	0.039
-152.647	253.905	0.045	0.077
-151.633	-200.000	0.028	-0.124
-150.618	-200.000	0.011	0.126
-149.604	-79.535	0.328	0.110
-148.589	-88.289	0.161	-0.048
-147.574	800.000	0.033	-0.135
-146.560	118.634	-0.266	-0.326
-145.545	97.187	-0.080	-0.091
-144.531	-2.827	0.316	-0.220
-143.516	-76.142	0.131	-0.046
-142.502	22.255	-0.064	-0.052
-141.487	182.682	0.145	-0.213
-140.472	-76.799	0.176	0.061
-139.458	-200.000	-0.041	-0.234
-138.443	-62.798	-0.056	-0.023
-137.429	-200.000	0.000	-0.180
-136.414	75.842	-0.120	-0.126
-135.399	-71.639	0.203	-0.075
-134.385	-3.392	0.180	0.124
-133.370	-200.000	0.022	0.209
-132.356	-128.844	-0.099	0.014
-131.341	576.281	0.111	-0.269
-130.326	1.987	0.204	-0.146
-129.312	-58.756	0.233	-0.100
-128.297	10.812	-0.114	-0.086
-127.283	-193.317	-0.149	0.001
-126.268	-10.826	-0.177	0.116
-125.253	-15.798	0.171	0.108
-124.239	77.859	-0.180	-0.191
-123.224	-109.090	-0.191	0.040
-122.210	167.665	-0.094	0.132
