DTS Sentinel unit serial number:	SN413079Multiplexer serial number:	ORYXHardware model number:	OX4-SRSoftware version number:	ORYX F/W v4.00 Oryx Data Collector v3.7.2.0data status	okinstallation	princeton_trtdifferential loss correction	single-endedforward channel	channel 4reverse channel	N/Adate	2019/09/18time	10:25:34forward acquisition time	60.00reverse acquisition time	0.00gamma	496.2192k internal	0.2317k external	0.2317temperature offset calibration	0.9987default loss term (dB/km)	0.3790temperature slope calibration	1.0000multiplexer offset coefficient	1.0000multiplexer slope coefficient	1.0000fibre end	0.00T internal ref (°C)	28.20T ext. ref 1 (°C)	0.34T ext. ref 2 (°C)	24.74length (m)	temperature (°C)	Stokes	anti-Stokes-747.200	-45.744	0.144	0.072
-746.185	-200.000	-0.059	0.341
-745.171	-17.096	0.359	0.229
-744.156	23.151	0.122	0.102
-743.142	363.491	-0.075	0.153
-742.127	-32.229	0.095	-0.054
-741.112	389.218	0.083	0.174
-740.098	-200.000	0.022	0.396
-739.083	-8.852	-0.149	0.101
-738.069	396.870	0.175	0.370
-737.054	27.586	-0.264	0.225
-736.039	-144.889	0.298	0.028
-735.025	-39.185	0.386	0.205
-734.010	-200.000	-0.025	-0.198
-732.996	39.904	0.154	-0.140
-731.981	800.000	-0.122	0.485
-730.966	-51.117	-0.064	-0.031
-729.952	-80.770	-0.170	-0.057
-728.937	-200.000	0.069	-0.389
-727.923	800.000	-0.074	0.228
-726.908	650.434	0.069	-0.178
-725.894	203.450	-0.033	0.051
-724.879	-8.131	0.042	0.028
-723.864	-200.000	-0.067	-0.384
-722.850	145.387	0.157	-0.213
-721.835	586.152	-0.142	-0.353
-720.821	-114.911	0.158	-0.030
-719.806	-131.091	-0.378	0.051
-718.791	-83.546	0.159	0.052
-717.777	81.696	0.067	0.074
-716.762	-148.427	-0.208	0.017
-715.748	-109.969	0.073	0.015
-714.733	610.724	-0.220	-0.556
-713.718	185.482	0.182	0.273
-712.704	-200.000	-0.039	-0.231
-711.689	147.060	-0.071	0.096
-710.675	-99.196	0.311	-0.080
-709.660	-200.000	0.052	0.261
-708.645	-200.000	0.007	-0.122
-707.631	-200.000	0.079	-0.368
-706.616	-200.000	-0.033	-0.194
-705.602	-112.333	0.144	-0.029
-704.587	578.146	-0.127	-0.315
-703.572	-30.521	-0.271	0.155
-702.558	-37.561	-0.044	0.024
-701.543	681.564	-0.037	0.097
-700.529	-200.000	-0.007	-0.088
-699.514	145.605	-0.080	0.108
-698.499	-46.308	-0.211	0.105
-697.485	190.071	-0.038	0.058
-696.470	280.117	-0.046	-0.082
-695.456	-200.000	-0.016	-0.134
-694.441	-57.380	0.038	0.017
-693.426	334.431	-0.093	-0.182
-692.412	-200.000	0.061	0.341
-691.397	-200.000	-0.035	0.299
-690.383	-200.000	0.042	-0.193
-689.368	-118.290	0.254	-0.046
-688.354	-200.000	-0.018	0.089
-687.339	-76.315	-0.101	0.036
-686.324	800.000	-0.065	0.182
-685.310	662.438	-0.061	-0.158
-684.295	113.064	-0.233	-0.285
-683.281	-45.042	0.111	-0.056
-682.266	-109.125	0.221	-0.047
-681.251	800.000	-0.049	0.179
-680.237	-112.978	-0.257	0.051
-679.222	527.901	0.082	-0.196
-678.208	247.403	0.054	-0.092
-677.193	-155.707	-0.263	0.017
-676.178	-200.000	0.028	-0.216
-675.164	800.000	0.045	-0.189
-674.149	42.826	-0.107	-0.098
-673.135	-35.527	0.146	0.080
-672.120	263.451	0.114	-0.199
-671.105	800.000	0.100	-0.327
-670.091	-200.000	0.060	-0.281
-669.076	34.397	-0.240	-0.211
-668.062	-59.959	0.231	-0.100
-667.047	-200.000	-0.106	-0.472
-666.032	17.690	-0.210	-0.168
-665.018	-129.967	0.036	-0.005
-664.003	-44.843	-0.268	-0.135
-662.989	-77.311	-0.269	-0.094
-661.974	-200.000	0.018	0.261
-660.959	-73.770	-0.104	0.038
-659.945	800.000	0.048	-0.156
-658.930	29.743	-0.076	-0.065
-657.916	148.362	-0.163	-0.222
-656.901	368.578	0.098	-0.201
-655.886	-184.447	-0.456	0.008
-654.872	-131.000	0.217	-0.029
-653.857	-200.000	-0.026	-0.183
-652.843	91.544	0.220	0.250
-651.828	261.678	0.183	0.321
-650.814	-171.093	-0.191	-0.007
-649.799	800.000	0.023	-0.101
-648.784	119.239	-0.063	0.079
-647.770	800.000	-0.085	-0.353
-646.755	-23.116	-0.039	-0.024
-645.741	-83.795	0.250	0.080
-644.726	205.372	0.177	-0.278
-643.711	243.506	0.061	-0.104
-642.697	-200.000	0.015	-0.188
-641.682	-200.000	-0.011	0.167
-640.668	-25.233	0.217	0.129
-639.653	264.008	0.102	-0.180
-638.638	-0.547	0.250	-0.179
-637.624	-85.274	-0.084	0.026
-636.609	-63.359	0.087	0.036
-635.595	38.041	0.202	0.181
-634.580	-124.301	0.182	0.029
-633.565	294.668	-0.049	0.090
-632.551	-75.497	0.260	-0.093
-631.536	46.593	-0.128	0.120
-630.522	-145.371	-0.161	-0.015
-629.507	-189.043	0.105	0.001
-628.492	-14.234	-0.138	-0.090
-627.478	66.958	-0.081	0.083
-626.463	405.146	-0.083	-0.176
-625.449	-200.000	-0.009	0.052
-624.434	159.104	-0.069	-0.097
-623.419	-83.015	-0.242	-0.078
-622.405	-86.228	-0.232	0.072
-621.390	-200.000	0.010	-0.230
-620.376	149.299	-0.042	-0.057
-619.361	-38.838	-0.080	-0.043
-618.346	-200.000	0.007	0.033
-617.332	-126.814	0.250	-0.037
-616.317	-55.571	0.157	0.071
-615.303	-200.000	-0.008	0.223
-614.288	256.727	-0.088	0.152
-613.273	-200.000	-0.024	-0.337
-612.259	-5.599	-0.417	0.288
-611.244	50.992	-0.106	0.102
-610.230	-200.000	0.030	0.177
-609.215	-200.000	-0.006	0.385
-608.201	-78.733	-0.269	0.092
-607.186	-72.800	-0.267	-0.099
-606.171	-7.727	0.154	-0.105
-605.157	-157.178	-0.341	0.021
-604.142	6.590	0.205	-0.154
-603.128	71.636	0.235	0.246
-602.113	658.386	0.050	-0.130
-601.098	92.812	-0.358	-0.408
-600.084	-42.854	0.148	-0.076
-599.069	147.591	0.302	-0.410
-598.055	362.607	0.014	-0.029
-597.040	-169.424	-0.215	0.008
-596.025	-52.824	0.220	-0.102
-595.011	186.968	-0.209	-0.314
-593.996	-51.189	0.327	0.154
-592.982	-73.791	0.259	0.095
-591.967	-97.605	0.173	-0.045
-590.952	-133.910	-0.040	0.005
-589.938	-200.000	0.041	0.219
-588.923	-37.000	-0.147	-0.079
-587.909	352.603	0.194	-0.388
-586.894	-156.373	0.178	0.011
-585.879	87.642	0.107	-0.120
-584.865	-200.000	-0.001	0.016
-583.850	800.000	0.083	0.292
-582.836	-63.926	-0.228	-0.094
-581.821	57.150	-0.040	0.040
-580.806	-60.668	-0.263	0.112
-579.792	-117.139	0.233	-0.043
-578.777	-74.399	0.299	0.108
-577.763	-103.791	-0.170	-0.040
-576.748	-47.468	-0.136	-0.067
-575.733	230.821	-0.047	-0.078
-574.719	-3.571	0.106	0.074
-573.704	-200.000	-0.003	0.035
-572.690	-29.365	-0.112	0.064
-571.675	-124.297	-0.240	-0.038
-570.661	-36.944	-0.037	-0.020
-569.646	800.000	0.138	0.409
-568.631	-170.000	0.312	0.011
-567.617	-150.515	0.258	0.020
-566.602	33.498	-0.179	0.156
-565.588	-128.756	0.291	-0.041
-564.573	-103.151	0.167	-0.040
-563.558	-183.896	0.219	-0.004
-562.544	-200.000	-0.045	0.203
-561.529	800.000	-0.082	-0.338
-560.515	800.000	-0.076	0.262
-559.500	-200.000	-0.090	0.501
-558.485	-88.031	-0.226	0.068
-557.471	-66.490	-0.276	-0.110
-556.456	323.483	-0.164	-0.315
-555.442	-200.000	0.044	0.194
-554.427	56.691	-0.155	-0.151
-553.412	340.221	0.179	0.351
-552.398	-44.489	0.260	-0.131
-551.383	-56.899	0.083	-0.037
-550.369	30.869	-0.342	0.295
-549.354	-145.501	-0.358	0.032
-548.339	-128.202	-0.163	0.023
-547.325	53.901	-0.091	-0.088
-546.310	-119.779	-0.176	0.030
-545.296	-72.171	-0.109	0.041
-544.281	-11.670	0.132	-0.087
-543.266	-65.831	0.091	-0.037
-542.252	-110.098	-0.183	-0.038
-541.237	-200.000	-0.012	0.079
-540.223	800.000	-0.041	-0.157
-539.208	-15.785	-0.229	-0.147
-538.193	800.000	-0.072	-0.287
-537.179	-200.000	0.000	0.461
-536.164	-200.000	0.011	-0.184
-535.150	-46.418	0.153	0.076
-534.135	19.275	-0.130	0.105
-533.121	-200.000	-0.127	-0.605
-532.106	374.794	0.065	-0.134
-531.091	800.000	0.026	-0.075
-530.077	27.016	-0.133	-0.112
-529.062	-2.759	0.043	-0.030
-528.048	10.621	-0.176	-0.134
-527.033	35.881	0.175	-0.155
-526.018	104.972	-0.177	-0.209
-525.004	62.950	0.267	-0.268
-523.989	-187.881	-0.484	0.006
-522.975	-4.208	0.228	0.158
-521.960	-92.784	0.133	-0.037
-520.945	-163.500	-0.423	0.020
-519.931	69.796	-0.288	0.298
-518.916	-35.534	-0.201	0.110
-517.902	-200.000	0.001	0.043
-516.887	-200.000	-0.056	-0.343
-515.872	472.933	-0.141	-0.319
-514.858	6.932	-0.349	-0.261
-513.843	316.123	0.196	-0.372
-512.829	-95.264	-0.182	-0.049
-511.814	-8.371	0.136	0.092
-510.799	-73.475	0.066	0.024
-509.785	-200.000	-0.008	-0.095
-508.770	-200.000	-0.005	-0.191
-507.756	-59.325	-0.187	-0.081
-506.741	800.000	-0.071	0.285
-505.726	800.000	-0.068	-0.238
-504.712	-200.000	0.013	-0.073
-503.697	-24.393	0.106	-0.063
-502.683	-82.860	0.200	-0.065
-501.668	-200.000	-0.063	0.337
-500.653	-200.000	-0.011	0.061
-499.639	79.961	-0.130	0.141
-498.624	-88.001	-0.347	0.105
-497.610	-49.781	0.060	0.028
-496.595	-59.530	-0.251	-0.108
-495.581	-107.005	0.404	0.090
-494.566	-115.346	0.133	-0.025
-493.551	15.979	0.047	-0.037
-492.537	25.208	0.035	-0.029
-491.522	7.653	0.106	-0.079
-490.508	26.811	-0.120	-0.101
-489.493	-113.565	0.240	0.047
-488.478	261.537	0.066	0.114
-487.464	800.000	-0.092	0.265
-486.449	-67.787	-0.209	-0.082
-485.435	-200.000	0.037	-0.247
-484.420	72.972	0.082	-0.086
-483.405	-103.311	-0.100	0.024
-482.391	131.237	0.272	0.351
-481.376	46.550	-0.186	-0.173
-480.362	60.526	-0.040	-0.040
-479.347	-200.000	0.030	0.137
-478.332	-50.382	-0.236	-0.112
-477.318	-120.313	-0.026	-0.005
-476.303	129.501	-0.001	-0.001
-475.289	17.288	0.215	0.171
-474.274	-55.983	-0.040	-0.018
-473.259	-200.000	0.013	-0.125
-472.245	286.513	0.174	-0.316
-471.230	-32.712	-0.359	-0.200
-470.216	-56.871	0.124	-0.055
-469.201	90.803	0.130	-0.145
-468.186	-45.694	-0.193	-0.096
-467.172	-200.000	-0.034	0.195
-466.157	-200.000	0.009	0.116
-465.143	206.149	0.139	0.217
-464.128	-16.583	0.144	-0.091
-463.113	487.124	0.057	-0.131
-462.099	-155.221	0.259	-0.017
-461.084	-200.000	0.025	0.272
-460.070	90.373	0.171	0.192
-459.055	174.330	0.118	-0.171
-458.040	-80.759	0.162	0.054
-457.026	166.057	0.185	-0.262
-456.011	-84.050	0.055	-0.017
-454.997	-49.089	0.219	0.105
-453.982	47.495	-0.078	0.073
-452.968	248.052	0.165	-0.279
-451.953	-128.916	0.094	0.013
-450.938	-102.374	0.136	0.033
-449.924	25.385	0.148	0.123
-448.909	-200.000	-0.022	0.306
-447.895	-200.000	0.001	0.231
-446.880	-200.000	0.016	-0.127
-445.865	-129.581	-0.230	0.032
-444.851	-180.959	-0.196	0.004
-443.836	-68.880	-0.346	0.134
-442.822	-200.000	0.014	-0.325
-441.807	788.639	0.046	0.126
-440.792	-112.936	-0.323	-0.064
-439.778	-80.146	0.314	0.105
-438.763	-200.000	0.054	0.307
-437.749	9.374	0.048	-0.036
-436.734	800.000	-0.049	0.151
-435.719	-200.000	-0.013	-0.343
-434.705	-74.064	0.110	-0.040
-433.690	446.776	-0.073	-0.161
-432.676	-111.828	0.326	0.066
-431.661	20.540	0.124	0.101
-430.646	-8.320	0.266	-0.179
-429.632	-21.442	-0.134	0.082
-428.617	-102.014	-0.197	0.048
-427.603	55.141	0.298	-0.288
-426.588	-200.000	0.025	0.240
-425.573	-82.094	0.347	-0.113
-424.559	-200.000	-0.079	0.358
-423.544	-58.220	-0.153	0.067
-422.530	-182.641	0.312	-0.006
-421.515	800.000	0.109	0.333
-420.500	800.000	-0.052	0.197
-419.486	261.108	-0.106	0.183
-418.471	152.013	-0.108	0.147
-417.457	388.579	0.034	0.071
-416.442	-46.870	0.357	0.174
-415.428	800.000	0.080	0.274
-414.413	-78.960	0.049	0.017
-413.398	800.000	0.020	0.065
-412.384	-65.211	-0.214	-0.086
-411.369	-106.138	-0.059	-0.013
-410.355	-101.135	0.304	0.074
-409.340	50.468	0.105	0.099
-408.325	0.342	-0.249	-0.178
-407.311	82.258	-0.210	0.228
-406.296	272.870	-0.262	-0.463
-405.282	800.000	-0.112	-0.435
-404.267	27.046	-0.220	0.185
-403.252	712.220	0.014	0.036
-402.238	800.000	-0.104	-0.295
-401.223	-23.444	-0.247	-0.148
-400.209	-44.039	0.298	-0.150
-399.194	-25.390	-0.408	0.241
-398.179	261.368	0.087	0.151
-397.165	-86.252	0.060	0.018
-396.150	128.048	0.121	-0.153
-395.136	74.013	0.056	-0.058
-394.121	-69.448	-0.465	0.178
-393.106	-69.502	0.175	-0.067
-392.092	-13.815	0.142	-0.092
-391.077	76.847	0.111	-0.118
-390.063	-43.131	-0.121	-0.061
-389.048	150.039	0.123	-0.167
-388.033	-200.000	0.008	0.086
-387.019	-118.871	-0.329	0.058
-386.004	-10.114	0.278	-0.184
-384.990	-200.000	-0.016	-0.081
-383.975	135.172	-0.067	0.086
-382.960	800.000	0.022	0.068
-381.946	-57.806	0.189	-0.082
-380.931	-35.993	0.149	-0.080
-379.917	-200.000	0.011	0.166
-378.902	254.662	-0.077	-0.131
-377.888	-70.090	-0.092	0.035
-376.873	-200.000	-0.022	0.152
-375.858	-175.276	0.245	-0.007
-374.844	523.585	0.051	0.121
-373.829	-200.000	-0.022	0.420
-372.815	800.000	-0.079	0.295
-371.800	415.162	0.153	0.325
-370.785	-69.645	-0.263	-0.101
-369.771	-91.130	0.369	-0.106
-368.756	-12.965	-0.222	-0.144
-367.742	29.106	-0.170	0.144
-366.727	112.255	-0.155	-0.187
-365.712	-56.188	0.245	-0.109
-364.698	-68.424	-0.116	-0.045
-363.683	-19.594	-0.459	-0.283
-362.669	-0.662	-0.148	0.104
-361.654	-116.240	0.202	0.037
-360.639	-200.000	-0.011	-0.275
-359.625	-16.775	0.287	0.181
-358.610	800.000	0.049	-0.187
-357.596	-42.635	0.170	-0.086
-356.581	517.087	-0.011	-0.026
-355.566	-200.000	-0.019	-0.152
-354.552	32.751	0.139	0.120
-353.537	-46.037	-0.270	0.132
-352.523	31.088	-0.103	0.089
-351.508	-200.000	-0.029	-0.199
-350.493	93.171	0.227	-0.256
-349.479	123.287	-0.126	0.158
-348.464	-174.032	0.294	-0.009
-347.450	-200.000	0.001	0.043
-346.435	515.339	-0.137	0.320
-345.420	763.636	0.081	-0.219
-344.406	-81.261	-0.115	-0.038
-343.391	-190.020	-0.496	-0.006
-342.377	-158.881	-0.331	0.019
-341.362	-74.767	0.189	0.068
-340.348	340.555	0.177	-0.345
-339.333	-83.610	0.170	-0.054
-338.318	491.185	-0.102	0.232
-337.304	99.972	-0.262	-0.303
-336.289	-200.000	0.028	-0.201
-335.275	-172.396	-0.325	0.010
-334.260	-59.123	-0.195	-0.084
-333.245	-42.851	0.199	-0.101
-332.231	-200.000	0.043	-0.245
-331.216	135.722	-0.133	0.172
-330.202	416.373	0.132	0.281
-329.187	-130.293	-0.030	0.004
-328.172	-95.171	0.201	-0.054
-327.158	49.273	-0.250	-0.234
-326.143	-28.066	-0.181	-0.104
-325.129	296.164	0.108	0.197
-324.114	-141.697	0.235	0.024
-323.099	-32.075	0.184	-0.102
-322.085	800.000	0.015	0.049
-321.070	800.000	0.058	0.225
-320.056	-31.868	0.240	-0.134
-319.041	-116.024	0.072	0.013
-318.026	-156.656	0.152	-0.009
-317.012	516.031	0.085	-0.199
-315.997	-200.000	-0.031	0.249
-314.983	117.666	0.199	-0.244
-313.968	-142.643	0.158	-0.015
-312.953	397.388	-0.169	0.351
-311.939	-55.975	0.081	0.036
-310.924	-6.647	0.209	-0.142
-309.910	-96.041	-0.223	-0.059
-308.895	-51.402	-0.180	-0.084
-307.880	585.834	-0.134	0.328
-306.866	264.085	-0.133	0.231
-305.851	-200.000	0.016	0.264
-304.837	-200.000	-0.007	0.124
-303.822	130.491	-0.097	0.123
-302.807	-58.282	0.093	0.040
-301.793	58.900	0.048	-0.047
-300.778	57.109	-0.238	0.231
-299.764	-106.322	-0.098	-0.022
-298.749	-146.385	-0.180	0.016
-297.735	-85.240	-0.254	-0.079
-296.720	25.776	0.255	0.212
-295.705	-61.775	0.185	0.077
-294.691	-188.792	-0.154	0.002
-293.676	-15.477	-0.434	-0.276
-292.662	-94.663	0.115	-0.031
-291.647	-25.604	-0.138	-0.081
-290.632	-81.001	0.230	-0.076
-289.618	-99.895	0.212	0.053
-288.603	168.417	0.215	0.304
-287.589	271.415	-0.095	-0.167
-286.574	79.731	0.177	-0.189
-285.559	171.967	0.062	-0.088
-284.545	623.734	0.042	-0.105
-283.530	-200.000	-0.009	0.109
-282.516	43.283	0.208	0.189
-281.501	-62.943	0.324	0.133
-280.486	-200.000	0.059	-0.328
-279.472	-118.062	0.094	0.017
-278.457	-72.233	0.248	0.091
-277.443	381.503	-0.167	-0.341
-276.428	800.000	0.054	-0.177
-275.413	-200.000	-0.010	-0.080
-274.399	671.903	0.099	0.256
-273.384	120.498	-0.224	0.277
-272.370	365.626	0.118	0.236
-271.355	80.332	0.193	-0.206
-270.340	150.890	0.050	0.068
-269.326	-15.027	0.328	0.209
-268.311	165.831	-0.152	-0.214
-267.297	-115.392	0.312	-0.059
-266.282	-160.415	0.234	-0.013
-265.267	-74.335	-0.129	0.046
-264.253	-200.000	0.052	0.342
-263.238	340.855	-0.095	0.184
-262.224	-200.000	0.007	0.269
-261.209	-87.864	-0.374	0.112
-260.195	11.128	0.359	-0.273
-259.180	-1.909	-0.220	-0.154
-258.165	42.772	0.045	-0.041
-257.151	-3.205	-0.217	-0.150
-256.136	-138.503	-0.213	0.023
-255.122	70.154	-0.178	0.183
-254.107	-200.000	-0.014	0.168
-253.092	-31.879	0.081	0.045
-252.078	61.492	-0.265	-0.262
-251.063	-200.000	-0.029	0.141
-250.049	-58.778	-0.223	0.096
-249.034	-109.592	-0.116	-0.024
-248.019	83.375	-0.057	-0.062
-247.005	-42.433	-0.193	0.098
-245.990	-164.962	-0.046	0.002
-244.976	21.757	0.064	-0.052
-243.961	185.808	-0.128	0.188
-242.946	-36.326	0.097	0.052
-241.932	-93.357	0.317	0.087
-240.917	179.647	0.266	-0.387
-239.903	8.301	-0.023	0.017
-238.888	2.217	-0.183	-0.131
-237.873	-200.000	-0.023	0.160
-236.859	-200.000	0.043	0.275
-235.844	-168.726	-0.250	-0.009
-234.830	800.000	0.021	-0.059
-233.815	-200.000	-0.068	-0.320
-232.800	297.130	0.010	-0.018
-231.786	-109.839	-0.416	-0.087
-230.771	-107.024	0.303	0.067
-229.757	-103.788	0.180	-0.042
-228.742	-76.925	-0.543	0.188
-227.727	-122.289	0.328	0.053
-226.713	1.197	0.151	-0.108
-225.698	-162.417	-0.152	-0.007
-224.684	140.043	0.106	-0.139
-223.669	28.972	0.053	-0.045
-222.655	253.163	-0.144	0.243
-221.640	27.192	0.183	-0.152
-220.625	626.855	-0.013	0.033
-219.611	-200.000	-0.239	0.000
-218.596	800.000	0.053	0.164
-217.582	99.868	-0.082	0.094
-216.567	18.797	-0.311	-0.247
-215.552	-75.734	0.226	-0.080
-214.538	-52.760	0.360	0.165
-213.523	-36.470	-0.068	0.036
-212.509	-70.463	0.167	-0.063
-211.494	-174.322	-0.355	0.010
-210.479	-85.463	-0.378	0.117
-209.465	-200.000	-0.001	-0.152
-208.450	800.000	0.054	0.183
-207.436	440.735	0.045	0.098
-206.421	85.188	-0.093	-0.101
-205.406	232.732	0.064	0.104
-204.392	-156.322	0.346	-0.021
-203.377	-200.000	0.068	0.639
-202.363	136.228	0.139	-0.180
-201.348	-43.862	0.121	0.060
-200.333	-21.153	0.100	0.060
-199.319	-93.927	0.310	-0.085
-198.304	800.000	-0.098	0.295
-197.290	-200.000	-0.019	-0.285
-196.275	-94.877	-0.303	-0.081
-195.260	-200.000	0.029	0.143
-194.246	-92.816	0.168	-0.047
-193.231	-83.183	0.428	0.136
-192.217	181.047	0.074	0.108
-191.202	45.568	0.034	-0.031
-190.187	-111.469	0.309	-0.062
-189.173	-38.824	-0.150	0.078
-188.158	188.383	0.044	-0.065
-187.144	237.671	0.056	0.093
-186.129	-11.155	-0.195	0.127
-185.114	-105.209	0.149	0.034
-184.100	-20.586	0.122	-0.074
-183.085	431.443	-0.165	0.354
-182.071	1.578	-0.154	-0.110
-181.056	-136.282	0.027	-0.003
-180.042	7.650	0.507	0.376
-179.027	133.819	0.167	-0.214
-178.012	6.153	-0.194	0.143
-176.998	-35.818	-0.158	0.085
-175.983	321.226	-0.036	0.067
-174.969	-16.726	0.148	-0.093
-173.954	158.168	-0.026	0.035
-172.939	-114.417	-0.294	0.056
-171.925	-128.501	0.132	0.019
-170.910	-163.006	0.249	0.012
-169.896	-200.000	-0.017	-0.278
-168.881	-29.869	-0.376	-0.212
-167.866	-91.695	-0.356	0.100
-166.852	14.231	0.189	0.146
-165.837	-200.000	-0.011	0.329
-164.823	77.033	-0.142	-0.149
-163.808	1.234	0.263	-0.187
-162.793	-94.781	-0.123	0.033
-161.779	634.612	-0.020	-0.050
-160.764	-200.000	-0.003	-0.086
-159.750	264.058	-0.194	-0.334
-158.735	479.987	-0.055	0.122
-157.720	800.000	-0.064	-0.177
-156.706	-9.399	0.166	-0.110
-155.691	84.270	-0.221	0.239
-154.677	467.172	-0.040	-0.090
-153.662	112.023	0.217	-0.259
-152.647	-108.918	0.024	0.005
-151.633	32.071	-0.150	0.128
-150.618	134.330	0.307	0.394
-149.604	395.214	0.174	-0.358
-148.589	-103.590	-0.469	0.109
-147.574	-200.000	0.038	0.184
-146.560	-140.583	0.213	-0.022
-145.545	-176.225	-0.320	0.008
-144.531	46.375	0.038	0.035
-143.516	-83.991	0.364	-0.115
-142.502	562.049	-0.009	0.021
-141.487	-28.477	-0.253	-0.144
-140.472	800.000	0.027	-0.094
-139.458	-200.000	-0.045	-0.211
-138.443	-37.272	-0.174	0.092
-137.429	800.000	-0.110	-0.327
-136.414	37.848	0.235	0.207
-135.399	-200.000	-0.061	0.390
-134.385	29.000	-0.272	-0.228
-133.370	-42.288	0.301	0.152
-132.356	57.392	-0.212	0.204
-131.341	84.150	-0.090	0.098
-130.326	-200.000	-0.029	0.214
-129.312	12.710	-0.179	0.137
-128.297	105.422	-0.089	0.104
-127.283	-62.117	-0.178	-0.073
-126.268	-94.618	0.003	-0.001
-125.253	42.588	0.195	0.175
-124.239	-131.524	0.358	-0.047
-123.224	776.391	0.156	0.421
-122.210	178.339	0.152	-0.219
-121.195	265.739	0.069	0.119
