DTS Sentinel unit serial number:	SN413079Multiplexer serial number:	ORYXHardware model number:	OX4-SRSoftware version number:	ORYX F/W v4.00 Oryx Data Collector v3.7.2.0data status	okinstallation	princeton_trtdifferential loss correction	single-endedforward channel	channel 4reverse channel	N/Adate	2019/09/14time	09:41:34forward acquisition time	60.00reverse acquisition time	0.00gamma	496.2192k internal	0.2303k external	0.2303temperature offset calibration	1.0132default loss term (dB/km)	0.3790temperature slope calibration	1.0000multiplexer offset coefficient	1.0000multiplexer slope coefficient	1.0000fibre end	0.00T internal ref (°C)	32.03T ext. ref 1 (°C)	3.90T ext. ref 2 (°C)	30.30length (m)	temperature (°C)	Stokes	anti-Stokes-747.200	800.000	-0.102	0.318
-746.185	106.517	-0.259	0.313
-745.171	-56.748	0.143	0.064
-744.156	111.104	0.152	0.186
-743.142	244.812	0.250	-0.429
-742.127	652.818	0.020	-0.052
-741.112	608.973	-0.147	0.374
-740.098	676.281	0.157	0.415
-739.083	211.280	-0.055	-0.087
-738.069	800.000	0.128	0.526
-737.054	-88.618	-0.164	-0.050
-736.039	-121.692	-0.155	0.026
-735.025	-68.817	-0.369	-0.145
-734.010	-102.248	-0.423	0.104
-732.996	-200.000	0.037	0.206
-731.981	-139.967	0.121	0.013
-730.966	123.534	-0.130	-0.166
-729.952	-43.227	-0.127	-0.066
-728.937	800.000	0.059	0.220
-727.923	228.702	0.105	0.174
-726.908	257.733	0.071	-0.124
-725.894	23.107	-0.098	-0.082
-724.879	800.000	0.101	0.305
-723.864	185.594	-0.189	0.286
-722.850	-25.717	0.302	-0.181
-721.835	-85.918	-0.211	0.066
-720.821	318.345	-0.064	0.123
-719.806	-93.363	0.273	-0.077
-718.791	-200.000	-0.012	0.228
-717.777	-1.593	-0.216	-0.155
-716.762	-135.911	-0.278	0.033
-715.748	-40.758	-0.113	-0.060
-714.733	40.706	-0.501	-0.459
-713.718	-30.777	-0.161	-0.092
-712.704	626.034	0.156	-0.401
-711.689	-70.385	0.169	0.065
-710.675	-195.625	-0.242	-0.002
-709.660	33.016	-0.130	0.114
-708.645	-49.908	0.398	-0.192
-707.631	122.030	-0.105	0.134
-706.616	198.413	-0.166	-0.258
-705.602	274.150	-0.285	0.513
-704.587	-37.337	-0.078	-0.042
-703.572	669.638	-0.058	-0.153
-702.558	-118.941	0.554	-0.099
-701.543	365.130	-0.051	-0.105
-700.529	89.629	-0.148	-0.168
-699.514	48.066	-0.287	0.272
-698.499	332.861	-0.023	0.045
-697.485	-25.167	-0.456	-0.275
-696.470	14.590	-0.275	-0.218
-695.456	-71.074	-0.285	0.109
-694.441	-95.887	0.101	0.027
-693.426	686.692	0.039	0.104
-692.412	631.973	-0.057	0.147
-691.397	-140.461	-0.428	0.045
-690.383	-32.030	0.179	0.102
-689.368	-100.955	0.160	0.040
-688.354	-200.000	-0.010	0.079
-687.339	-16.249	0.329	0.212
-686.324	63.028	0.226	-0.230
-685.310	335.680	-0.165	-0.325
-684.295	-200.000	0.034	-0.250
-683.281	88.405	0.043	0.048
-682.266	14.037	0.188	0.149
-681.251	-200.000	-0.537	0.000
-680.237	11.083	0.095	0.074
-679.222	-22.502	0.055	0.034
-678.208	-175.400	0.293	0.008
-677.193	126.201	-0.250	0.321
-676.178	-200.000	0.030	0.310
-675.164	82.081	0.213	-0.234
-674.149	800.000	0.063	-0.208
-673.135	321.007	0.101	0.196
-672.120	-44.813	0.041	0.021
-671.105	406.340	-0.232	0.497
-670.091	-200.000	-0.057	0.256
-669.076	21.668	-0.124	0.102
-668.062	-183.136	0.430	-0.008
-667.047	402.017	-0.175	-0.373
-666.032	-200.000	0.038	-0.262
-665.018	579.942	0.064	0.160
-664.003	-200.000	-0.004	-0.221
-662.989	-200.000	0.010	-0.116
-661.974	-57.397	-0.129	0.058
-660.959	2.994	0.022	-0.016
-659.945	800.000	-0.020	0.089
-658.930	374.710	0.097	-0.200
-657.916	-110.310	0.358	0.076
-656.901	710.582	-0.035	-0.095
-655.886	704.168	0.167	0.447
-654.872	-71.961	-0.266	0.100
-653.857	117.103	-0.073	0.091
-652.843	-88.080	0.174	-0.053
-651.828	-200.000	-0.014	-0.313
-650.814	-44.559	-0.115	-0.058
-649.799	561.907	-0.085	-0.209
-648.784	713.107	-0.134	0.360
-647.770	186.703	-0.093	-0.140
-646.755	800.000	0.024	-0.104
-645.741	-200.000	0.008	0.040
-644.726	-200.000	0.022	0.176
-643.711	-200.000	0.019	-0.164
-642.697	-199.821	0.164	0.001
-641.682	-147.050	-0.316	-0.027
-640.668	45.654	-0.120	0.112
-639.653	353.307	-0.143	0.289
-638.638	38.351	-0.048	-0.043
-637.624	-60.596	-0.036	0.016
-636.609	50.262	-0.188	-0.180
-635.595	634.793	0.079	-0.204
-634.580	-105.181	-0.181	0.042
-633.565	206.730	-0.123	0.194
-632.551	-200.000	-0.047	-0.288
-631.536	12.691	0.128	0.100
-630.522	-37.552	0.100	0.054
-629.507	-181.750	-0.449	-0.009
-628.492	134.545	-0.164	0.216
-627.478	102.546	-0.162	-0.192
-626.463	-178.352	0.071	-0.002
-625.449	-43.087	0.171	-0.088
-624.434	800.000	0.029	-0.089
-623.419	-200.000	0.006	-0.268
-622.405	800.000	0.049	0.166
-621.390	362.169	-0.055	-0.113
-620.376	-156.124	-0.069	0.004
-619.361	-139.841	0.086	-0.009
-618.346	-62.953	-0.351	-0.147
-617.332	-200.000	-0.038	-0.168
-616.317	14.361	-0.406	-0.321
-615.303	800.000	0.019	0.055
-614.288	-1.696	-0.092	0.065
-613.273	-105.017	-0.436	0.101
-612.259	-125.232	-0.120	0.019
-611.244	-126.073	0.179	0.027
-610.230	188.195	-0.057	0.087
-609.215	-34.097	0.190	0.106
-608.201	-129.927	-0.085	-0.012
-607.186	-200.000	-0.020	-0.166
-606.171	-200.000	-0.015	-0.088
-605.157	263.340	-0.083	0.145
-604.142	283.109	0.237	-0.431
-603.128	188.961	-0.027	-0.041
-602.113	-200.000	0.023	0.338
-601.098	800.000	-0.038	-0.131
-600.084	-23.794	-0.227	-0.138
-599.069	-200.000	-0.006	-0.341
-598.055	336.171	0.114	-0.225
-597.040	-51.958	-0.078	0.037
-596.025	-150.860	0.103	-0.008
-595.011	3.322	-0.101	-0.074
-593.996	611.756	0.147	-0.372
-592.982	-200.000	-0.029	-0.151
-591.967	11.066	0.078	-0.061
-590.952	304.186	-0.068	0.127
-589.938	-27.203	0.212	0.125
-588.923	-157.467	-0.322	-0.020
-587.909	21.663	0.274	0.226
-586.894	-200.000	-0.032	0.461
-585.879	-200.000	0.075	0.404
-584.865	-17.897	0.242	-0.154
-583.850	74.240	-0.323	0.343
-582.836	-200.000	-0.008	-0.205
-581.821	219.688	-0.053	-0.086
-580.806	-44.346	0.252	0.128
-579.792	287.146	-0.136	-0.248
-578.777	185.941	-0.184	-0.277
-577.763	0.602	-0.129	-0.094
-576.748	22.965	-0.309	0.256
-575.733	63.754	0.116	-0.117
-574.719	41.996	0.182	0.167
-573.704	-86.936	0.293	-0.090
-572.690	25.536	0.059	0.050
-571.675	238.819	0.053	0.090
-570.661	46.197	0.093	0.087
-569.646	-200.000	0.028	-0.147
-568.631	313.672	0.071	-0.135
-567.617	-117.470	0.216	0.040
-566.602	4.233	-0.278	0.206
-565.588	18.156	-0.215	0.174
-564.573	54.844	0.275	0.269
-563.558	-58.234	0.153	-0.067
-562.544	-200.000	0.029	-0.455
-561.529	302.441	0.160	0.300
-560.515	-200.000	-0.024	0.155
-559.500	-115.031	-0.230	0.044
-558.485	-200.000	-0.009	-0.252
-557.471	256.659	-0.004	0.007
-556.456	764.366	-0.077	0.212
-555.442	800.000	-0.054	-0.167
-554.427	249.178	-0.080	0.137
-553.412	695.077	0.060	-0.160
-552.398	-200.000	-0.028	-0.211
-551.383	40.260	-0.234	-0.213
-550.369	110.076	-0.376	-0.456
-549.354	-141.888	-0.087	-0.009
-548.339	44.218	-0.154	-0.143
-547.325	-200.000	-0.028	-0.276
-546.310	-115.285	-0.113	-0.022
-545.296	-15.051	0.153	0.099
-544.281	118.408	0.067	0.084
-543.266	536.768	-0.165	-0.395
-542.252	336.269	-0.047	-0.093
-541.237	-200.000	0.022	-0.284
-540.223	-27.112	0.094	0.055
-539.208	-90.195	-0.403	0.118
-538.193	520.392	0.066	-0.157
-537.179	-200.000	0.013	-0.127
-536.164	-23.132	-0.266	0.162
-535.150	-42.777	0.272	0.140
-534.135	525.436	0.035	0.084
-533.121	-41.845	0.075	-0.039
-532.106	800.000	-0.116	0.402
-531.091	227.455	0.045	0.073
-530.077	-2.544	0.059	-0.042
-529.062	18.337	-0.266	0.215
-528.048	278.256	0.196	-0.353
-527.033	-78.110	0.179	0.062
-526.018	82.749	-0.125	0.137
-525.004	-13.856	0.263	0.172
-523.989	-28.049	-0.146	-0.086
-522.975	800.000	-0.068	-0.193
-521.960	-74.555	-0.244	-0.089
-520.945	800.000	0.015	-0.066
-519.931	-97.994	-0.252	0.066
-518.916	-200.000	-0.001	0.018
-517.902	185.698	-0.072	-0.109
-516.887	-84.215	0.249	-0.080
-515.872	624.921	-0.091	-0.231
-514.858	-3.563	-0.315	-0.221
-513.843	310.834	0.130	-0.245
-512.829	-137.809	-0.028	0.003
-511.814	-22.766	-0.217	-0.132
-510.799	-200.000	0.003	-0.208
-509.785	-16.318	-0.159	-0.102
-508.770	800.000	-0.122	-0.342
-507.756	-113.955	-0.044	0.009
-506.741	461.539	-0.095	0.213
-505.726	448.964	-0.112	-0.250
-504.712	-6.561	0.069	-0.048
-503.697	-200.000	-0.070	0.321
-502.683	247.013	-0.133	0.227
-501.668	-74.789	-0.029	0.011
-500.653	800.000	0.038	0.119
-499.639	-200.000	-0.008	-0.049
-498.624	133.199	0.101	0.132
-497.610	190.907	-0.128	0.195
-496.595	-129.407	-0.118	0.017
-495.581	-103.568	-0.117	-0.028
-494.566	-13.070	0.177	0.116
-493.551	-46.779	0.212	0.105
-492.537	-67.786	-0.231	0.091
-491.522	-6.078	-0.224	0.154
-490.508	385.573	-0.195	-0.405
-489.493	-104.950	0.442	-0.102
-488.478	63.761	-0.125	-0.126
-487.464	70.260	-0.076	-0.079
-486.449	-200.000	-0.045	0.242
-485.435	362.517	-0.035	-0.071
-484.420	-200.000	0.017	0.190
-483.405	-200.000	0.010	-0.287
-482.391	-159.535	-0.194	-0.011
-481.376	-20.134	0.321	0.199
-480.362	-54.793	-0.124	-0.056
-479.347	616.059	-0.064	0.163
-478.332	800.000	0.042	0.144
-477.318	109.058	-0.074	0.090
-476.303	424.125	-0.066	-0.143
-475.289	-87.951	0.357	0.108
-474.274	198.878	0.123	0.189
-473.259	202.513	0.124	-0.193
-472.245	800.000	-0.127	0.461
-471.230	-104.491	0.108	-0.025
-470.216	800.000	-0.030	0.126
-469.201	-200.000	0.030	0.194
-468.186	215.170	-0.064	0.103
-467.172	-200.000	0.015	-0.175
-466.157	800.000	0.058	-0.255
-465.143	13.083	-0.140	-0.109
-464.128	617.169	0.089	0.224
-463.113	-97.047	0.111	-0.029
-462.099	224.063	-0.147	0.239
-461.084	6.912	0.173	0.130
-460.070	348.682	0.142	0.283
-459.055	76.254	-0.230	-0.246
-458.040	18.631	-0.179	-0.144
-457.026	-200.000	-0.189	-0.000
-456.011	-200.000	0.018	0.274
-454.997	-67.842	-0.161	-0.063
-453.982	-132.055	0.220	-0.029
-452.968	-112.616	-0.147	-0.030
-451.953	135.943	0.108	-0.141
-450.938	204.490	0.105	-0.164
-449.924	-104.797	-0.146	0.034
-448.909	435.381	-0.148	0.324
-447.895	800.000	0.148	-0.546
-446.880	-65.381	0.201	0.082
-445.865	-200.000	-0.010	-0.119
-444.851	8.535	0.048	0.036
-443.836	8.196	-0.366	-0.277
-442.822	72.455	-0.103	0.108
-441.807	-124.558	0.155	0.024
-440.792	-200.000	0.034	0.498
-439.778	-101.317	0.516	0.127
-438.763	-39.690	-0.194	0.102
-437.749	-51.303	-0.253	0.119
-436.734	-200.000	-0.006	-0.147
-435.719	-200.000	-0.007	-0.073
-434.705	352.224	-0.138	0.275
-433.690	62.089	-0.096	0.096
-432.676	-97.973	0.407	-0.106
-431.661	-132.137	0.351	0.046
-430.646	-31.835	-0.227	0.128
-429.632	156.259	0.124	-0.172
-428.617	-200.000	0.051	-0.278
-427.603	171.329	0.125	0.180
-426.588	-6.991	0.169	0.115
-425.573	-31.979	0.004	0.002
-424.559	800.000	-0.104	0.341
-423.544	-88.002	0.110	0.033
-422.530	-192.221	0.110	-0.001
-421.515	585.762	0.021	0.051
-420.500	38.442	0.075	-0.067
-419.486	-67.721	0.352	-0.139
-418.471	-43.776	0.275	-0.140
-417.457	5.253	0.229	0.170
-416.442	-130.570	0.118	0.016
-415.428	375.864	-0.162	0.333
-414.413	155.507	-0.255	-0.353
-413.398	-89.125	-0.081	0.024
-412.384	-200.000	0.010	0.216
-411.369	-200.000	0.087	0.391
-410.355	157.856	0.039	-0.055
-409.340	-200.000	-0.007	0.043
-408.325	138.248	-0.078	-0.103
-407.311	77.834	-0.157	0.168
-406.296	800.000	0.035	0.144
-405.282	-21.712	0.370	0.226
-404.267	-54.551	0.253	0.115
-403.252	-5.725	0.239	-0.165
-402.238	632.659	0.059	0.150
-401.223	-6.427	0.358	-0.245
-400.209	-200.000	0.001	0.048
-399.194	364.803	0.119	-0.241
-398.179	-200.000	0.016	0.353
-397.165	-91.467	0.047	-0.014
-396.150	-59.882	-0.155	-0.066
-395.136	-81.690	-0.101	0.033
-394.121	-16.592	-0.031	-0.020
-393.106	46.834	-0.113	0.106
-392.092	800.000	0.109	-0.379
-391.077	-148.169	0.309	-0.026
-390.063	-135.139	-0.163	-0.020
-389.048	195.451	0.097	0.148
-388.033	59.311	0.113	-0.112
-387.019	-158.621	-0.038	0.002
-386.004	800.000	-0.130	-0.453
-384.990	-200.000	0.011	-0.143
-383.975	-11.202	-0.039	0.025
-382.960	-200.000	-0.011	-0.172
-381.946	166.183	-0.278	-0.395
-380.931	83.978	0.140	-0.153
-379.917	-4.440	-0.146	-0.101
-378.902	-103.491	0.174	-0.041
-377.888	-200.000	-0.060	0.325
-376.873	-52.760	0.232	-0.107
-375.858	69.112	-0.168	-0.174
-374.844	349.180	-0.123	0.244
-373.829	-155.976	0.212	0.013
-372.815	14.845	-0.186	0.146
-371.800	164.051	0.047	-0.066
-370.785	-200.000	0.009	-0.060
-369.771	800.000	0.057	-0.242
-368.756	-200.000	0.018	-0.187
-367.742	200.242	-0.282	-0.434
-366.727	-200.000	0.024	0.190
-365.712	800.000	0.099	-0.352
-364.698	-99.922	-0.055	-0.014
-363.683	40.227	-0.109	-0.098
-362.669	32.315	-0.124	0.107
-361.654	296.842	0.108	0.198
-360.639	-164.769	0.106	-0.005
-359.625	232.846	0.140	0.230
-358.610	-200.000	-0.029	0.149
-357.596	-29.779	-0.242	0.139
-356.581	-51.695	0.153	-0.072
-355.566	132.659	-0.138	-0.178
-354.552	-117.303	0.226	-0.041
-353.537	-119.526	0.087	-0.015
-352.523	800.000	-0.087	-0.302
-351.508	162.475	0.139	-0.195
-350.493	129.260	0.183	0.235
-349.479	-142.774	0.227	0.022
-348.464	-0.202	0.124	0.088
-347.450	-137.358	0.149	-0.017
-346.435	-58.003	0.262	0.115
-345.420	-191.918	-0.287	0.003
-344.406	83.515	0.158	-0.172
-343.391	41.405	-0.188	0.171
-342.377	-32.883	0.322	-0.179
-341.362	-165.592	-0.099	-0.004
-340.348	219.280	-0.171	0.274
-339.333	800.000	-0.077	0.334
-338.318	800.000	-0.116	-0.376
-337.304	-1.561	0.314	0.222
-336.289	-200.000	-0.002	-0.040
-335.275	754.935	0.131	-0.356
-334.260	-88.950	0.238	-0.071
-333.245	134.868	-0.114	-0.149
-332.231	-83.276	-0.264	0.085
-331.216	7.737	-0.163	-0.122
-330.202	-98.747	0.384	-0.098
-329.187	146.612	-0.194	0.261
-328.172	-161.662	0.099	-0.005
-327.158	800.000	0.153	-0.434
-326.143	-200.000	-0.037	-0.240
-325.129	-5.779	-0.104	0.072
-324.114	88.278	0.077	0.085
-323.099	593.212	0.126	0.313
-322.085	-200.000	0.033	0.199
-321.070	210.270	-0.140	-0.220
-320.056	-73.624	-0.230	0.084
-319.041	205.330	0.131	0.204
-318.026	-53.778	0.125	0.057
-317.012	-136.610	-0.463	-0.054
-315.997	56.491	0.182	0.177
-314.983	-111.260	0.367	-0.075
-313.968	-104.716	-0.296	0.068
-312.953	478.217	-0.149	0.337
-311.939	-13.234	0.016	0.010
-310.924	-71.281	0.461	-0.173
-309.910	-112.999	-0.286	-0.057
-308.895	72.152	0.104	-0.108
-307.880	-84.837	-0.252	-0.079
-306.866	-94.907	0.253	-0.069
-305.851	-13.492	-0.100	-0.065
-304.837	-200.000	-0.007	-0.099
-303.822	181.570	-0.082	0.121
-302.807	-200.000	-0.005	0.043
-301.793	800.000	0.033	-0.132
-300.778	671.557	0.139	-0.360
-299.764	94.389	0.017	0.020
-298.749	-78.192	0.120	-0.041
-297.735	800.000	-0.068	0.246
-296.720	-65.528	0.064	-0.026
-295.705	-115.750	0.120	-0.022
-294.691	-139.094	-0.349	-0.038
-293.676	-35.791	0.040	0.022
-292.662	228.400	-0.127	0.208
-291.647	-102.691	0.416	-0.099
-290.632	0.776	0.270	0.194
-289.618	-200.000	-0.030	0.155
-288.603	-60.750	0.222	0.094
-287.589	46.536	0.118	-0.110
-286.574	-65.330	-0.267	0.107
-285.559	344.444	0.047	-0.092
-284.545	-98.023	0.349	-0.090
-283.530	-98.441	-0.185	-0.047
-282.516	-46.132	0.210	-0.103
-281.501	148.095	0.101	0.136
-280.486	208.106	0.189	0.295
-279.472	36.899	-0.293	0.259
-278.457	-103.191	0.458	0.108
-277.443	-69.476	-0.377	-0.145
-276.428	800.000	0.031	0.114
-275.413	-200.000	0.002	0.123
-274.399	800.000	-0.011	0.046
-273.384	-200.000	-0.046	0.382
-272.370	-124.083	-0.195	-0.031
-271.355	-42.995	0.007	0.004
-270.340	-96.929	0.085	-0.022
-269.326	46.851	-0.140	-0.130
-268.311	118.889	0.094	-0.116
-267.297	227.310	-0.029	-0.047
-266.282	800.000	0.046	-0.143
-265.267	25.460	-0.147	-0.122
-264.253	81.477	0.245	0.265
-263.238	-61.874	0.119	0.050
-262.224	-200.000	-0.002	-0.533
-261.209	-200.000	-0.025	-0.182
-260.195	-200.000	0.002	-0.055
-259.180	-200.000	0.077	-0.596
-258.165	800.000	0.064	0.255
-257.151	-23.368	-0.189	-0.113
-256.136	348.165	0.062	0.122
-255.122	65.882	-0.252	0.256
-254.107	-200.000	0.035	-0.244
-253.092	182.897	0.307	-0.453
-252.078	47.803	-0.134	0.125
-251.063	-144.622	0.351	-0.032
-250.049	-158.420	-0.089	0.005
-249.034	-132.930	-0.327	0.042
-248.019	-200.000	-0.017	0.179
-247.005	800.000	0.107	0.308
-245.990	128.105	-0.304	-0.386
-244.976	376.286	-0.133	-0.272
-243.961	800.000	-0.039	0.159
-242.946	44.253	0.110	-0.101
-241.932	-92.265	-0.128	-0.036
-240.917	-200.000	-0.060	0.547
-239.903	414.152	0.129	0.275
-238.888	438.474	0.059	0.129
-237.873	96.838	0.159	-0.182
-236.859	693.162	0.089	-0.232
-235.844	619.603	-0.168	0.421
-234.830	-83.929	0.229	-0.073
-233.815	-104.088	-0.070	-0.016
-232.800	-37.633	-0.144	-0.077
-231.786	800.000	0.079	0.231
-230.771	48.113	-0.100	0.093
-229.757	644.868	0.052	0.133
-228.742	70.616	0.135	-0.140
-227.727	21.032	-0.184	-0.149
-226.713	-200.000	-0.047	-0.245
-225.698	667.084	-0.158	0.408
-224.684	437.537	-0.134	0.292
-223.669	-65.076	0.345	-0.139
-222.655	-21.422	0.163	0.099
-221.640	-200.000	0.012	-0.052
-220.625	-12.269	-0.070	0.046
-219.611	800.000	-0.092	0.259
-218.596	-139.127	-0.216	-0.023
-217.582	-200.000	0.282	0.001
-216.567	-200.000	-0.011	-0.244
-215.552	-135.035	0.272	0.033
-214.538	239.264	-0.298	-0.494
-213.523	-3.614	-0.041	0.028
-212.509	1.148	0.197	0.141
-211.494	46.140	0.193	0.179
-210.479	141.161	-0.099	0.130
-209.465	-200.000	-0.028	0.145
-208.450	257.471	-0.126	0.216
-207.436	-35.189	0.283	0.154
-206.421	-200.000	-0.022	0.131
-205.406	-200.000	0.055	0.368
-204.392	-200.000	0.026	0.276
-203.377	79.986	-0.127	-0.136
-202.363	-24.814	-0.367	-0.217
-201.348	-200.000	0.076	0.503
-200.333	-120.075	0.073	0.013
-199.319	-198.396	-0.205	0.001
-198.304	-83.376	-0.234	0.075
-197.290	-33.421	-0.132	0.073
-196.275	279.082	0.106	-0.189
-195.260	-183.871	0.131	0.002
-194.246	-63.260	0.294	-0.121
-193.231	800.000	0.114	0.446
-192.217	-122.966	-0.145	0.023
-191.202	800.000	0.086	-0.271
-190.187	50.963	-0.048	0.045
-189.173	-200.000	0.038	0.283
-188.158	-200.000	0.039	0.221
-187.144	78.599	0.147	-0.157
-186.129	-65.349	0.201	0.081
-185.114	566.079	0.037	-0.089
-184.100	580.589	0.023	-0.056
-183.085	113.234	0.304	-0.367
-182.071	800.000	-0.009	-0.037
-181.056	151.195	0.102	-0.138
-180.042	-42.711	-0.189	-0.096
-179.027	272.893	-0.195	0.343
-178.012	800.000	-0.053	0.208
-176.998	238.863	-0.071	-0.118
-175.983	-74.513	0.314	-0.113
-174.969	152.896	0.120	-0.164
-173.954	152.745	-0.111	-0.151
-172.939	-13.485	-0.403	-0.260
-171.925	-75.624	-0.182	0.064
-170.910	-43.688	-0.268	0.134
-169.896	395.280	0.090	0.186
-168.881	455.080	0.026	-0.058
-167.866	483.076	0.099	0.223
-166.852	-124.707	0.358	0.055
-165.837	623.753	0.029	0.073
-164.823	-5.597	0.310	0.212
-163.808	-95.040	-0.364	-0.098
-162.793	755.368	0.115	0.310
-161.779	-200.000	-0.014	-0.235
-160.764	-92.037	-0.231	-0.065
-159.750	-64.660	-0.222	0.089
-158.735	303.600	0.120	0.222
-157.720	-106.272	-0.296	-0.066
-156.706	-46.314	0.236	-0.115
-155.691	117.746	0.171	-0.209
-154.677	610.160	0.161	-0.400
-153.662	-96.692	0.207	-0.054
-152.647	-200.000	-0.019	0.399
-151.633	-200.000	-0.040	0.178
-150.618	67.231	0.399	-0.405
-149.604	62.404	0.216	-0.215
-148.589	627.657	-0.120	-0.302
-147.574	-61.618	-0.103	-0.043
-146.560	112.405	-0.083	0.100
-145.545	301.829	-0.112	-0.206
-144.531	-64.625	-0.191	0.077
-143.516	-47.282	-0.075	-0.036
-142.502	-32.706	-0.326	0.180
-141.487	-141.101	-0.122	0.012
-140.472	211.750	0.074	0.115
-139.458	-113.631	0.190	-0.037
-138.443	789.893	0.046	-0.125
-137.429	308.318	0.101	-0.187
-136.414	-90.454	-0.130	-0.037
-135.399	800.000	-0.093	0.301
-134.385	38.913	0.276	0.245
-133.370	200.488	-0.217	0.332
-132.356	-76.104	0.059	0.021
-131.341	-200.000	0.049	0.258
-130.326	800.000	0.018	-0.069
-129.312	-200.000	0.011	0.115
-128.297	60.280	0.057	0.056
-127.283	800.000	0.061	0.236
-126.268	139.869	0.171	0.224
-125.253	-83.880	0.084	-0.027
-124.239	122.843	0.050	-0.062
-123.224	-130.715	0.240	-0.032
-122.210	-200.000	0.016	0.073
-121.195	-200.000	-0.014	-0.184
