DTS Sentinel unit serial number:	SN413079Multiplexer serial number:	ORYXHardware model number:	OX4-SRSoftware version number:	ORYX F/W v4.00 Oryx Data Collector v3.7.2.0data status	okinstallation	princeton_trtdifferential loss correction	single-endedforward channel	channel 4reverse channel	N/Adate	2019/09/13time	01:01:34forward acquisition time	60.00reverse acquisition time	0.00gamma	496.2192k internal	0.2318k external	0.2318temperature offset calibration	1.0171default loss term (dB/km)	0.3790temperature slope calibration	1.0000multiplexer offset coefficient	1.0000multiplexer slope coefficient	1.0000fibre end	0.00T internal ref (°C)	28.03T ext. ref 1 (°C)	3.67T ext. ref 2 (°C)	22.61length (m)	temperature (°C)	Stokes	anti-Stokes-747.200	112.332	-0.072	0.089
-746.185	-38.782	-0.109	0.058
-745.171	10.156	0.164	0.126
-744.156	260.072	0.016	0.028
-743.142	-115.800	-0.105	0.020
-742.127	519.956	-0.111	0.263
-741.112	163.347	0.031	0.044
-740.098	-130.938	-0.195	0.026
-739.083	-200.000	0.010	0.232
-738.069	-114.536	-0.319	-0.062
-737.054	160.761	-0.063	-0.089
-736.039	104.784	-0.110	-0.132
-735.025	132.987	0.117	0.153
-734.010	189.836	-0.048	-0.072
-732.996	487.087	0.086	-0.199
-731.981	-31.979	0.138	0.078
-730.966	-200.000	0.011	0.109
-729.952	71.659	0.199	0.210
-728.937	-200.000	0.024	-0.194
-727.923	180.880	0.093	-0.139
-726.908	-130.863	0.133	0.018
-725.894	-200.000	0.018	-0.297
-724.879	224.047	-0.060	-0.098
-723.864	63.284	0.235	-0.238
-722.850	-0.034	-0.310	-0.223
-721.835	30.436	-0.037	0.032
-720.821	8.162	0.222	-0.169
-719.806	-57.385	-0.305	0.136
-718.791	800.000	-0.086	0.261
-717.777	-200.000	0.004	-0.137
-716.762	366.826	-0.154	0.314
-715.748	-200.000	0.008	-0.160
-714.733	-97.525	-0.180	-0.047
-713.718	125.242	-0.035	-0.044
-712.704	-117.769	0.168	0.030
-711.689	-42.211	0.105	-0.054
-710.675	-146.384	-0.162	-0.014
-709.660	21.884	-0.147	-0.121
-708.645	-150.052	-0.220	0.017
-707.631	-200.000	-0.020	-0.129
-706.616	-158.150	0.224	-0.013
-705.602	35.714	0.132	0.117
-704.587	-20.229	-0.275	-0.171
-703.572	-77.134	0.285	0.100
-702.558	117.770	-0.186	0.232
-701.543	18.097	0.264	0.213
-700.529	168.849	-0.096	0.138
-699.514	-92.018	-0.305	-0.087
-698.499	800.000	0.021	-0.063
-697.485	-155.796	-0.029	-0.002
-696.470	-200.000	-0.020	-0.096
-695.456	-95.469	-0.145	0.039
-694.441	800.000	0.079	-0.225
-693.426	800.000	-0.026	0.088
-692.412	-80.688	-0.229	0.077
-691.397	512.563	0.079	0.187
-690.383	-129.337	-0.251	-0.035
-689.368	-41.029	-0.194	-0.101
-688.354	-113.690	0.348	-0.069
-687.339	-127.947	0.088	-0.013
-686.324	-200.000	-0.009	0.181
-685.310	-122.400	0.226	0.037
-684.295	-71.000	-0.146	0.056
-683.281	-87.804	0.267	0.081
-682.266	-76.098	-0.459	0.164
-681.251	233.330	0.181	-0.300
-680.237	-36.959	0.026	0.014
-679.222	800.000	0.053	-0.224
-678.208	-200.000	0.038	-0.186
-677.193	132.378	-0.080	-0.104
-676.178	-200.000	0.003	-0.381
-675.164	-154.156	0.079	0.005
-674.149	140.612	-0.017	0.023
-673.135	-60.976	-0.264	-0.113
-672.120	-4.531	0.188	-0.131
-671.105	-158.423	0.098	-0.006
-670.091	800.000	-0.025	-0.075
-669.076	-99.965	-0.179	-0.045
-668.062	800.000	0.054	0.165
-667.047	186.381	0.026	0.038
-666.032	95.053	-0.231	0.265
-665.018	-73.913	-0.249	0.091
-664.003	-76.555	-0.142	-0.050
-662.989	-70.449	-0.294	0.112
-661.974	53.589	-0.008	-0.008
-660.959	-169.391	0.318	0.012
-659.945	374.247	-0.031	-0.064
-658.930	222.233	-0.068	-0.110
-657.916	-12.193	0.229	0.151
-656.901	304.181	0.066	0.123
-655.886	800.000	0.063	0.217
-654.872	-33.862	0.220	0.122
-653.857	-45.904	0.237	-0.118
-652.843	40.522	0.056	0.050
-651.828	449.283	0.069	0.153
-650.814	78.288	0.162	-0.175
-649.799	52.924	-0.212	-0.205
-648.784	-125.241	-0.292	-0.045
-647.770	-77.715	-0.135	0.047
-646.755	-119.957	-0.381	0.066
-645.741	-108.835	-0.181	0.039
-644.726	-163.765	-0.299	0.014
-643.711	112.294	0.082	-0.100
-642.697	800.000	-0.136	-0.392
-641.682	-5.858	0.197	0.136
-640.668	709.061	-0.092	-0.244
-639.653	-114.175	0.065	0.013
-638.638	-25.037	0.131	0.078
-637.624	-10.921	-0.193	-0.129
-636.609	152.864	-0.048	-0.066
-635.595	-200.000	0.038	-0.236
-634.580	34.878	-0.071	-0.063
-633.565	-42.916	-0.080	-0.041
-632.551	231.227	-0.202	0.334
-631.536	-200.000	0.005	0.135
-630.522	-140.863	-0.171	0.018
-629.507	-200.000	0.033	-0.153
-628.492	-164.570	-0.442	0.020
-627.478	-11.867	-0.110	0.073
-626.463	-61.942	0.210	-0.089
-625.449	-200.000	0.074	0.462
-624.434	6.472	0.150	0.112
-623.419	-183.402	0.104	-0.002
-622.405	-200.000	0.003	0.119
-621.390	800.000	0.085	-0.252
-620.376	800.000	-0.034	-0.130
-619.361	-200.000	0.015	-0.248
-618.346	-31.768	0.458	-0.259
-617.332	-55.831	-0.156	0.070
-616.317	-150.718	0.284	-0.022
-615.303	800.000	-0.095	-0.314
-614.288	383.265	0.228	-0.471
-613.273	-26.195	0.288	-0.170
-612.259	-35.481	-0.049	-0.027
-611.244	397.920	-0.035	-0.074
-610.230	302.935	0.095	-0.177
-609.215	-200.000	-0.022	-0.249
-608.201	188.488	-0.019	-0.028
-607.186	-55.140	-0.286	0.130
-606.171	3.886	0.205	-0.151
-605.157	234.466	-0.259	-0.430
-604.142	-200.000	0.025	0.180
-603.128	146.912	0.205	-0.277
-602.113	-47.171	-0.231	-0.113
-601.098	230.673	0.162	0.267
-600.084	-200.000	0.016	0.340
-599.069	21.543	-0.207	0.170
-598.055	-33.673	-0.230	0.128
-597.040	54.390	0.247	0.239
-596.025	-200.000	-0.047	0.439
-595.011	-23.617	-0.275	-0.166
-593.996	-42.729	0.325	-0.167
-592.982	64.906	-0.250	0.254
-591.967	-80.107	-0.101	0.034
-590.952	-133.422	-0.095	0.012
-589.938	391.800	0.022	-0.045
-588.923	-96.469	-0.225	0.060
-587.909	-200.000	-0.002	0.169
-586.894	-200.000	0.073	0.329
-585.879	39.897	0.205	-0.185
-584.865	96.440	-0.117	0.134
-583.850	-55.171	-0.103	0.047
-582.836	-200.000	0.046	-0.276
-581.821	800.000	0.110	0.333
-580.806	17.413	-0.225	0.180
-579.792	-105.897	-0.261	-0.059
-578.777	-76.094	-0.530	0.188
-577.763	285.834	0.229	-0.415
-576.748	526.596	0.110	-0.261
-575.733	434.345	0.112	-0.246
-574.719	512.450	-0.097	0.228
-573.704	-67.160	-0.230	-0.091
-572.690	229.712	0.182	0.299
-571.675	-100.212	-0.257	0.064
-570.661	-62.762	-0.147	-0.061
-569.646	43.832	0.060	0.056
-568.631	416.234	-0.082	0.175
-567.617	14.832	-0.082	-0.064
-566.602	-69.861	-0.313	0.120
-565.588	-200.000	0.002	0.031
-564.573	3.957	-0.266	-0.195
-563.558	71.865	-0.106	-0.111
-562.544	47.091	-0.237	-0.221
-561.529	-174.850	0.196	0.006
-560.515	-87.025	-0.282	-0.086
-559.500	46.824	-0.259	-0.241
-558.485	-47.372	0.135	-0.066
-557.471	-112.629	0.162	0.032
-556.456	219.689	-0.107	-0.172
-555.442	-76.781	0.202	-0.071
-554.427	130.089	-0.128	-0.165
-553.412	416.489	-0.081	-0.173
-552.398	263.664	-0.041	-0.072
-551.383	-106.341	-0.058	-0.013
-550.369	800.000	-0.051	-0.164
-549.354	-19.024	-0.178	0.111
-548.339	482.616	-0.130	0.297
-547.325	-77.769	-0.163	-0.057
-546.310	-200.000	-0.021	-0.186
-545.296	29.425	-0.329	0.281
-544.281	-139.639	0.091	0.010
-543.266	-156.833	0.116	0.007
-542.252	-200.000	0.039	0.383
-541.237	800.000	-0.055	0.172
-540.223	-122.336	0.088	-0.014
-539.208	276.993	-0.105	-0.188
-538.193	525.943	-0.102	0.242
-537.179	-200.000	-0.027	-0.150
-536.164	-125.017	0.158	0.024
-535.150	-155.240	-0.189	0.012
-534.135	-11.477	-0.225	-0.148
-533.121	-175.151	0.093	0.003
-532.106	-179.257	0.144	0.003
-531.091	-10.653	0.110	-0.073
-530.077	-155.331	-0.297	0.019
-529.062	-175.149	-0.163	-0.005
-528.048	-92.715	-0.209	-0.059
-527.033	-200.000	-0.030	0.205
-526.018	-200.000	-0.011	0.281
-525.004	-200.000	-0.019	-0.093
-523.989	468.913	-0.102	0.231
-522.975	92.543	0.110	0.124
-521.960	65.299	0.139	0.141
-520.945	38.500	0.055	0.049
-519.931	-127.727	-0.280	-0.041
-518.916	179.780	0.045	0.066
-517.902	-200.000	0.025	0.254
-516.887	441.053	-0.069	0.151
-515.872	10.607	0.287	0.219
-514.858	387.216	-0.039	-0.080
-513.843	-56.957	-0.297	-0.131
-512.829	-13.312	-0.156	-0.102
-511.814	133.202	-0.078	0.101
-510.799	-200.000	0.003	0.110
-509.785	-10.925	-0.259	0.171
-508.770	95.223	0.156	0.178
-507.756	-50.818	-0.119	0.056
-506.741	-200.000	-0.035	0.249
-505.726	145.930	0.080	-0.108
-504.712	47.281	-0.058	0.054
-503.697	-200.000	-0.002	0.241
-502.683	800.000	0.035	-0.120
-501.668	-106.698	0.154	-0.034
-500.653	-45.123	-0.309	0.154
-499.639	-200.000	0.010	0.258
-498.624	42.525	0.176	0.160
-497.610	-106.074	-0.201	-0.045
-496.595	561.074	-0.066	-0.161
-495.581	22.140	-0.398	-0.326
-494.566	-200.000	-0.023	-0.237
-493.551	63.166	-0.152	-0.152
-492.537	-105.936	0.310	-0.070
-491.522	-72.527	0.101	0.037
-490.508	-114.064	0.272	0.053
-489.493	10.644	0.126	0.096
-488.478	534.652	-0.076	0.180
-487.464	800.000	0.102	0.339
-486.449	-123.301	0.252	0.040
-485.435	-151.128	-0.189	0.014
-484.420	16.257	0.147	0.116
-483.405	-2.757	-0.162	0.114
-482.391	800.000	0.046	-0.173
-481.376	-200.000	-0.008	0.171
-480.362	385.584	0.114	0.235
-479.347	117.684	0.051	-0.063
-478.332	-102.507	0.186	-0.045
-477.318	259.796	0.013	-0.023
-476.303	403.977	-0.094	0.198
-475.289	-82.426	0.142	-0.046
-474.274	-111.563	0.264	-0.054
-473.259	-26.097	0.244	-0.143
-472.245	680.267	0.030	0.078
-471.230	248.520	0.085	-0.144
-470.216	-200.000	0.009	-0.115
-469.201	144.446	0.275	-0.368
-468.186	-140.067	-0.106	-0.011
-467.172	15.954	-0.157	0.124
-466.157	-147.525	0.234	-0.020
-465.143	12.169	0.127	-0.098
-464.128	32.292	0.165	-0.142
-463.113	658.655	-0.037	-0.095
-462.099	-56.734	-0.235	-0.104
-461.084	-200.000	0.012	0.130
-460.070	13.928	0.368	-0.286
-459.055	-63.166	0.138	0.057
-458.040	-72.932	0.153	-0.056
-457.026	-200.000	0.023	0.270
-456.011	-200.000	0.024	0.193
-454.997	50.435	0.070	0.066
-453.982	-177.211	0.248	-0.006
-452.968	383.037	0.050	0.104
-451.953	-168.725	-0.111	0.004
-450.938	800.000	0.042	0.158
-449.924	-126.805	-0.227	0.034
-448.909	-200.000	0.050	-0.233
-447.895	-34.912	-0.182	-0.099
-446.880	156.349	0.094	-0.130
-445.865	-101.343	0.498	-0.122
-444.851	-93.021	0.219	0.061
-443.836	-200.000	-0.006	0.326
-442.822	221.974	0.058	-0.093
-441.807	24.069	0.016	0.014
-440.792	-152.281	-0.124	-0.009
-439.778	565.341	-0.074	0.180
-438.763	-200.000	0.042	0.292
-437.749	207.179	0.148	0.230
-436.734	-85.491	-0.081	-0.025
-435.719	-200.000	-0.001	0.048
-434.705	52.976	0.365	-0.349
-433.690	800.000	0.051	-0.209
-432.676	-45.656	0.104	0.052
-431.661	800.000	-0.114	0.414
-430.646	800.000	0.064	0.178
-429.632	34.259	-0.060	-0.052
-428.617	-192.598	0.315	0.003
-427.603	-200.000	-0.017	-0.265
-426.588	407.747	0.093	0.196
-425.573	800.000	-0.162	-0.582
-424.559	-97.865	-0.051	-0.013
-423.544	-74.353	-0.358	-0.129
-422.530	291.954	0.078	0.141
-421.515	-109.186	0.525	0.111
-420.500	216.075	-0.130	-0.207
-419.486	-121.817	0.130	-0.021
-418.471	-121.622	0.114	0.019
-417.457	-58.491	-0.212	0.092
-416.442	422.953	-0.087	0.186
-415.428	383.139	-0.059	0.120
-414.413	243.503	-0.083	-0.139
-413.398	800.000	0.110	-0.331
-412.384	800.000	-0.105	0.375
-411.369	-4.313	0.029	-0.020
-410.355	800.000	0.062	0.171
-409.340	164.097	0.122	0.172
-408.325	382.019	-0.077	-0.159
-407.311	-33.072	-0.182	0.101
-406.296	-78.254	-0.051	0.017
-405.282	800.000	-0.030	0.114
-404.267	16.141	-0.230	0.181
-403.252	131.951	0.303	0.389
-402.238	739.972	0.045	-0.122
-401.223	109.532	-0.317	0.379
-400.209	209.136	-0.164	0.257
-399.194	138.242	-0.279	0.365
-398.179	-97.213	-0.060	-0.016
-397.165	-200.000	-0.012	0.244
-396.150	103.433	0.146	0.171
-395.136	-74.625	0.271	-0.097
-394.121	-13.263	0.224	-0.145
-393.106	205.365	-0.166	-0.257
-392.092	49.052	-0.139	-0.131
-391.077	-200.000	-0.118	0.556
-390.063	-22.924	0.515	0.310
-389.048	143.950	-0.117	0.156
-388.033	181.045	-0.177	0.260
-387.019	-115.398	0.375	-0.071
-386.004	-106.619	0.017	-0.004
-384.990	71.553	0.076	0.079
-383.975	198.462	-0.081	0.124
-382.960	-60.179	-0.158	-0.067
-381.946	311.488	-0.103	-0.193
-380.931	-200.000	-0.014	-0.274
-379.917	-53.516	-0.193	-0.088
-378.902	-19.043	0.052	0.033
-377.888	-33.157	0.124	-0.069
-376.873	212.869	0.110	-0.173
-375.858	-200.000	0.056	-0.279
-374.844	-200.000	-0.003	-0.085
-373.829	-159.905	0.341	0.019
-372.815	-20.767	-0.168	0.103
-371.800	-83.961	-0.046	-0.015
-370.785	-200.000	0.002	-0.075
-369.771	297.135	-0.123	-0.226
-368.756	166.518	0.026	-0.036
-367.742	-144.376	-0.241	0.022
-366.727	129.777	0.070	0.090
-365.712	164.402	0.337	0.473
-364.698	-102.726	-0.320	-0.076
-363.683	46.535	-0.128	-0.119
-362.669	171.532	-0.012	-0.018
-361.654	526.246	-0.114	0.268
-360.639	800.000	0.065	0.224
-359.625	-103.599	-0.156	0.037
-358.610	451.854	-0.030	0.066
-357.596	144.104	0.208	0.277
-356.581	185.853	-0.073	0.108
-355.566	-200.000	-0.032	-0.261
-354.552	-110.033	-0.261	-0.054
-353.537	-91.801	0.343	0.097
-352.523	98.968	0.191	-0.220
-351.508	545.425	0.145	0.346
-350.493	-65.542	0.289	0.116
-349.479	194.150	-0.115	-0.174
-348.464	288.989	-0.047	-0.084
-347.450	-200.000	-0.037	-0.342
-346.435	-163.061	0.510	-0.025
-345.420	800.000	0.035	-0.117
-344.406	-200.000	-0.001	-0.104
-343.391	175.789	0.158	0.229
-342.377	800.000	-0.122	-0.445
-341.362	-200.000	0.060	0.362
-340.348	467.124	0.009	0.020
-339.333	-140.446	0.072	-0.007
-338.318	-130.933	-0.049	0.007
-337.304	457.905	0.124	-0.275
-336.289	-185.006	-0.327	-0.005
-335.275	128.628	0.216	-0.274
-334.260	-134.709	-0.212	-0.026
-333.245	-14.670	0.098	-0.063
-332.231	-145.681	-0.039	-0.003
-331.216	-3.494	-0.300	0.208
-330.202	-169.564	-0.108	0.004
-329.187	-119.897	0.254	-0.043
-328.172	-200.000	0.033	-0.408
-327.158	-110.840	-0.101	-0.021
-326.143	-60.134	0.133	0.056
-325.129	-153.720	0.094	-0.006
-324.114	-161.552	0.173	-0.009
-323.099	-41.686	-0.208	-0.106
-322.085	-153.105	-0.338	-0.024
-321.070	75.214	0.089	0.093
-320.056	113.528	-0.090	0.109
-319.041	27.966	0.071	0.060
-318.026	20.970	-0.147	0.119
-317.012	-150.965	0.376	0.028
-315.997	97.595	-0.162	-0.186
-314.983	332.598	-0.052	0.100
-313.968	-83.214	0.203	0.065
-312.953	800.000	-0.055	-0.237
-311.939	421.172	0.168	-0.358
-310.924	380.857	-0.229	-0.467
-309.910	201.415	-0.100	-0.152
-308.895	-200.000	0.026	-0.307
-307.880	-200.000	0.034	-0.259
-306.866	-26.884	0.306	-0.178
-305.851	800.000	-0.144	0.480
-304.837	127.069	0.197	-0.248
-303.822	-105.025	0.378	-0.086
-302.807	14.031	0.074	0.058
-301.793	-59.239	0.156	-0.067
-300.778	-60.278	-0.042	-0.018
-299.764	251.364	-0.140	0.236
-298.749	45.505	0.264	0.242
-297.735	-133.763	-0.112	-0.014
-296.720	-42.081	0.363	0.185
-295.705	800.000	0.051	0.142
-294.691	-200.000	0.039	-0.268
-293.676	-119.192	0.111	-0.019
-292.662	-200.000	-0.011	-0.148
-291.647	-200.000	0.121	-0.000
-290.632	-78.395	-0.446	0.152
-289.618	627.464	-0.135	-0.339
-288.603	129.141	0.125	-0.158
-287.589	-200.000	-0.006	0.521
-286.574	-51.607	0.122	0.057
-285.559	200.436	-0.264	-0.404
-284.545	-36.168	-0.236	-0.127
-283.530	469.187	0.148	-0.329
-282.516	-18.145	0.106	0.066
-281.501	35.459	-0.311	-0.271
-280.486	-180.304	0.123	-0.003
-279.472	365.710	0.050	0.099
-278.457	-200.000	0.002	-0.155
-277.443	-64.762	-0.290	-0.117
-276.428	20.457	0.184	-0.148
-275.413	-59.912	0.154	-0.066
-274.399	-123.904	0.167	0.026
-273.384	-36.787	0.355	0.189
-272.370	-26.689	0.142	-0.082
-271.355	11.456	0.102	0.078
-270.340	586.554	-0.056	-0.138
-269.326	800.000	-0.036	0.122
-268.311	596.492	-0.042	-0.103
-267.297	323.175	-0.026	-0.050
-266.282	68.505	0.174	0.177
-265.267	-40.902	-0.086	-0.044
-264.253	33.715	-0.089	-0.077
-263.238	-6.050	0.292	0.199
-262.224	-200.000	-0.196	-0.000
-261.209	-23.246	0.187	-0.112
-260.195	-200.000	-0.023	0.174
-259.180	141.095	-0.104	-0.137
-258.165	-112.960	0.187	-0.037
-257.151	225.088	-0.021	0.033
-256.136	800.000	0.060	0.197
-255.122	-129.965	-0.137	0.019
-254.107	-165.520	0.294	0.013
-253.092	-14.578	0.165	-0.105
-252.078	-38.521	0.142	0.074
-251.063	135.326	-0.228	0.294
-250.049	800.000	0.021	-0.057
-249.034	-170.889	0.142	-0.005
-248.019	77.790	0.298	0.315
-247.005	-200.000	0.010	0.156
-245.990	-68.155	-0.073	-0.028
-244.976	-200.000	0.005	0.346
-243.961	93.928	-0.132	0.149
-242.946	-8.321	0.256	-0.171
-241.932	-106.448	0.133	-0.029
-240.917	46.246	-0.204	-0.187
-239.903	-69.947	-0.227	0.086
-238.888	589.917	0.038	-0.093
-237.873	113.808	-0.087	-0.104
-236.859	81.257	0.191	0.205
-235.844	166.018	-0.076	-0.106
-234.830	-200.000	-0.018	0.151
-233.815	136.754	-0.227	-0.295
-232.800	31.988	0.254	-0.218
-231.786	48.920	-0.098	-0.092
-230.771	110.731	-0.152	-0.182
-229.757	-101.652	0.276	0.067
-228.742	-77.873	-0.131	0.045
-227.727	-54.178	-0.446	-0.201
-226.713	394.527	-0.157	0.325
-225.698	800.000	0.036	-0.126
-224.684	-200.000	0.012	-0.065
-223.669	-94.969	0.257	-0.069
-222.655	170.127	-0.156	-0.221
-221.640	-150.141	-0.346	0.027
-220.625	189.772	0.237	0.353
-219.611	52.483	-0.163	-0.154
-218.596	-166.044	-0.163	0.007
-217.582	22.023	0.264	0.213
-216.567	-200.000	0.042	0.232
-215.552	-35.118	-0.174	0.094
-214.538	800.000	-0.010	0.034
-213.523	-30.007	-0.071	-0.040
-212.509	800.000	-0.096	0.365
-211.494	-200.000	0.044	0.228
-210.479	800.000	-0.038	-0.135
-209.465	-200.000	-0.030	0.194
-208.450	800.000	-0.015	-0.042
-207.436	-103.652	0.247	0.057
-206.421	208.082	-0.164	0.254
-205.406	206.982	0.068	-0.104
-204.392	6.766	0.228	0.168
-203.377	-49.724	-0.122	-0.057
-202.363	-76.032	-0.228	0.080
-201.348	-52.696	0.168	-0.077
-200.333	-200.000	-0.016	-0.146
-199.319	800.000	0.080	-0.290
-198.304	600.100	0.139	-0.341
-197.290	17.218	-0.104	-0.082
-196.275	79.872	-0.026	0.027
-195.260	-116.423	-0.320	0.059
-194.246	-144.086	0.088	0.008
-193.231	-184.744	0.222	0.004
-192.217	81.941	0.117	0.126
-191.202	-126.164	0.344	-0.051
-190.187	800.000	0.053	-0.217
-189.173	14.977	0.176	0.136
-188.158	-16.606	-0.177	-0.111
-187.144	-40.709	-0.346	0.177
-186.129	-21.366	0.135	0.081
-185.114	-109.318	0.176	0.037
-184.100	-40.591	-0.128	0.066
-183.085	-200.000	0.004	-0.095
-182.071	329.700	-0.048	-0.092
-181.056	-147.181	-0.351	0.030
-180.042	-115.426	-0.054	-0.010
-179.027	-96.668	0.161	-0.042
-178.012	800.000	0.040	-0.127
-176.998	-75.778	0.338	-0.119
-175.983	800.000	-0.044	-0.180
-174.969	79.974	-0.230	-0.245
-173.954	-22.646	0.155	-0.093
-172.939	-200.000	0.017	-0.092
-171.925	-116.592	-0.130	0.024
-170.910	-93.266	0.240	0.066
-169.896	-65.573	-0.209	0.083
-168.881	351.444	-0.158	-0.310
-167.866	800.000	-0.094	0.273
-166.852	-3.401	0.263	0.181
-165.837	186.306	0.126	-0.185
-164.823	-156.100	0.170	0.011
-163.808	792.576	-0.045	0.124
-162.793	151.907	-0.191	0.257
-161.779	800.000	0.028	0.091
-160.764	402.356	0.059	0.124
-159.750	13.754	0.335	-0.257
-158.735	298.738	-0.192	-0.349
-157.720	141.574	-0.122	0.160
-156.706	-82.724	0.319	0.102
-155.691	513.819	-0.055	0.127
-154.677	273.989	-0.112	-0.197
-153.662	-37.771	0.190	-0.100
-152.647	800.000	-0.079	-0.241
-151.633	-8.761	0.154	-0.102
-150.618	731.142	0.089	0.234
-149.604	-115.792	-0.181	0.033
-148.589	-162.203	-0.163	-0.008
-147.574	-10.704	-0.087	0.057
-146.560	800.000	-0.050	-0.141
-145.545	304.779	0.134	-0.246
-144.531	78.344	0.294	-0.310
-143.516	800.000	0.057	0.193
-142.502	-200.000	0.020	-0.187
-141.487	232.471	0.031	-0.050
-140.472	-200.000	0.028	-0.154
-139.458	-90.641	-0.277	-0.079
-138.443	-200.000	-0.030	0.334
-137.429	-200.000	0.001	0.381
-136.414	1.570	-0.196	0.139
-135.399	-21.531	0.146	0.088
-134.385	-49.725	0.318	0.150
-133.370	9.909	-0.218	-0.163
-132.356	29.509	0.140	0.118
-131.341	475.895	-0.072	0.161
-130.326	284.821	-0.215	0.382
-129.312	800.000	-0.039	-0.163
-128.297	60.345	0.210	-0.205
-127.283	338.171	0.252	0.485
-126.268	27.517	-0.043	0.036
-125.253	-200.000	0.057	0.391
-124.239	800.000	0.056	0.237
-123.224	58.348	-0.189	0.183
-122.210	800.000	0.035	0.101
