DTS Sentinel unit serial number:	SN413079Multiplexer serial number:	ORYXHardware model number:	OX4-SRSoftware version number:	ORYX F/W v4.00 Oryx Data Collector v3.7.2.0data status	okinstallation	princeton_trtdifferential loss correction	single-endedforward channel	channel 4reverse channel	N/Adate	2019/09/13time	09:13:35forward acquisition time	60.00reverse acquisition time	0.00gamma	496.2192k internal	0.2313k external	0.2313temperature offset calibration	1.0194default loss term (dB/km)	0.3790temperature slope calibration	1.0000multiplexer offset coefficient	1.0000multiplexer slope coefficient	1.0000fibre end	0.00T internal ref (°C)	28.94T ext. ref 1 (°C)	4.38T ext. ref 2 (°C)	26.30length (m)	temperature (°C)	Stokes	anti-Stokes-747.200	-23.756	0.258	-0.157
-746.185	306.489	-0.264	0.498
-745.171	204.463	-0.187	0.294
-744.156	-127.311	-0.170	-0.025
-743.142	-96.108	-0.123	-0.033
-742.127	-200.000	-0.008	0.258
-741.112	-103.376	0.397	0.095
-740.098	515.854	0.027	0.065
-739.083	800.000	0.049	-0.219
-738.069	36.172	0.059	0.053
-737.054	45.550	0.220	0.206
-736.039	64.973	-0.267	0.274
-735.025	800.000	-0.054	0.163
-734.010	-61.836	-0.059	-0.025
-732.996	94.401	-0.204	-0.235
-731.981	-42.134	-0.165	-0.086
-730.966	-20.131	-0.129	0.081
-729.952	-200.000	-0.011	0.055
-728.937	-82.027	0.372	0.123
-727.923	268.596	-0.085	-0.151
-726.908	-6.565	-0.352	0.243
-725.894	-200.000	-0.061	-0.342
-724.879	800.000	-0.063	-0.271
-723.864	-131.115	-0.287	-0.039
-722.850	-200.000	0.009	0.103
-721.835	-62.623	0.200	-0.084
-720.821	248.186	0.094	-0.161
-719.806	-24.888	-0.263	-0.158
-718.791	800.000	-0.104	-0.375
-717.777	397.238	-0.177	-0.374
-716.762	-200.000	0.294	0.000
-715.748	86.536	0.119	-0.133
-714.733	91.288	-0.061	-0.069
-713.718	478.105	-0.090	-0.205
-712.704	189.341	0.098	0.149
-711.689	-100.476	0.181	0.045
-710.675	-110.590	0.118	-0.025
-709.660	695.231	0.158	0.420
-708.645	292.820	-0.129	0.239
-707.631	49.998	0.100	-0.096
-706.616	-200.000	-0.007	0.174
-705.602	176.123	-0.171	0.252
-704.587	-93.184	-0.376	0.106
-703.572	56.745	0.063	-0.062
-702.558	800.000	-0.140	0.402
-701.543	294.040	-0.207	0.384
-700.529	-78.332	-0.088	-0.031
-699.514	651.037	-0.046	-0.119
-698.499	443.056	-0.093	-0.207
-697.485	-116.438	-0.155	-0.029
-696.470	24.658	0.083	0.069
-695.456	154.863	0.192	-0.268
-694.441	-131.200	0.228	-0.031
-693.426	-200.000	-0.053	0.284
-692.412	-32.339	-0.026	0.015
-691.397	-54.527	-0.179	-0.082
-690.383	-108.353	-0.241	-0.053
-689.368	-200.000	0.023	-0.208
-688.354	246.886	0.146	0.249
-687.339	-61.603	-0.409	0.174
-686.324	377.065	-0.029	0.061
-685.310	-200.000	-0.013	-0.085
-684.295	-121.320	-0.152	-0.026
-683.281	-200.000	-0.012	-0.069
-682.266	-51.331	-0.084	-0.040
-681.251	-200.000	-0.045	-0.280
-680.237	-101.277	-0.363	0.090
-679.222	-59.501	-0.096	0.042
-678.208	800.000	0.084	-0.370
-677.193	800.000	0.027	0.091
-676.178	-77.501	0.154	-0.054
-675.164	-192.987	0.109	0.001
-674.149	88.471	0.204	0.230
-673.135	-90.154	0.063	-0.018
-672.120	210.366	0.087	-0.138
-671.105	-200.000	0.030	-0.207
-670.091	13.102	0.161	0.126
-669.076	344.671	-0.172	-0.341
-668.062	-200.000	-0.026	-0.177
-667.047	-88.503	0.070	-0.021
-666.032	-200.000	-0.027	0.231
-665.018	-170.226	-0.375	-0.013
-664.003	66.848	-0.030	0.031
-662.989	-27.418	-0.104	-0.061
-661.974	-166.566	-0.047	-0.002
-660.959	79.400	0.170	0.184
-659.945	800.000	-0.096	0.386
-658.930	-54.065	-0.338	-0.155
-657.916	371.593	0.144	-0.295
-656.901	-125.997	0.333	0.051
-655.886	-92.590	-0.154	-0.044
-654.872	-200.000	-0.004	-0.046
-653.857	-200.000	-0.002	0.053
-652.843	-124.191	-0.102	-0.016
-651.828	800.000	0.058	-0.225
-650.814	-55.967	-0.114	-0.051
-649.799	131.677	0.176	-0.228
-648.784	-122.106	-0.199	-0.033
-647.770	-200.000	-0.067	0.335
-646.755	-143.340	0.382	-0.037
-645.741	48.171	0.150	-0.142
-644.726	-32.631	-0.091	0.051
-643.711	-45.218	0.177	-0.089
-642.697	-84.379	0.368	-0.117
-641.682	199.620	0.216	-0.334
-640.668	529.298	-0.072	-0.171
-639.653	143.941	0.137	0.185
-638.638	158.956	-0.111	-0.156
-637.624	-57.350	-0.315	-0.140
-636.609	216.185	0.092	-0.148
-635.595	-98.649	-0.349	-0.090
-634.580	552.002	0.103	-0.249
-633.565	283.744	0.066	0.119
-632.551	-185.288	0.415	0.006
-631.536	-137.186	-0.335	0.038
-630.522	9.677	-0.219	-0.167
-629.507	273.433	-0.189	-0.338
-628.492	-200.000	0.015	0.322
-627.478	800.000	0.027	-0.101
-626.463	517.598	-0.036	-0.084
-625.449	-89.596	-0.088	-0.026
-624.434	-200.000	-0.044	0.290
-623.419	-134.378	-0.219	0.027
-622.405	-92.967	0.162	-0.046
-621.390	800.000	0.031	-0.103
-620.376	-63.798	0.214	-0.089
-619.361	-109.034	0.192	-0.041
-618.346	-160.837	-0.132	-0.007
-617.332	-55.139	0.204	-0.093
-616.317	-177.088	-0.174	0.004
-615.303	-200.000	-0.004	-0.031
-614.288	147.251	0.011	-0.015
-613.273	-10.202	0.053	-0.036
-612.259	401.722	-0.160	-0.340
-611.244	-200.000	0.030	-0.220
-610.230	567.552	-0.177	0.433
-609.215	800.000	-0.048	-0.160
-608.201	17.756	-0.082	0.066
-607.186	250.420	-0.091	-0.155
-606.171	-44.164	0.302	0.153
-605.157	-67.229	-0.150	-0.059
-604.142	22.648	-0.313	-0.259
-603.128	101.375	0.227	-0.267
-602.113	374.821	0.108	-0.221
-601.098	165.132	0.264	-0.377
-600.084	87.884	-0.200	-0.223
-599.069	-177.337	-0.436	-0.011
-598.055	800.000	0.032	0.118
-597.040	-116.222	0.093	0.017
-596.025	94.501	-0.103	0.118
-595.011	-69.374	0.057	-0.022
-593.996	402.625	-0.058	-0.123
-592.982	201.230	-0.142	0.220
-591.967	-200.000	-0.028	0.154
-590.952	-14.005	-0.164	0.107
-589.938	21.780	0.390	-0.321
-588.923	126.153	-0.062	-0.079
-587.909	-76.884	0.108	0.038
-586.894	347.535	0.090	0.178
-585.879	-200.000	0.009	0.130
-584.865	-112.300	0.172	0.035
-583.850	800.000	0.017	-0.049
-582.836	162.735	0.077	0.109
-581.821	800.000	0.055	0.240
-580.806	800.000	-0.077	-0.221
-579.792	83.129	-0.112	0.123
-578.777	-200.000	-0.025	0.221
-577.763	190.233	-0.019	0.029
-576.748	-101.645	0.204	-0.050
-575.733	508.375	0.061	0.143
-574.719	197.886	-0.191	-0.294
-573.704	-107.030	-0.405	-0.090
-572.690	-54.433	0.276	0.126
-571.675	-200.000	-0.048	-0.386
-570.661	-42.888	0.105	-0.054
-569.646	466.477	-0.075	0.170
-568.631	84.273	0.045	0.049
-567.617	100.363	-0.253	0.296
-566.602	-39.946	0.172	-0.090
-565.588	129.893	-0.045	-0.057
-564.573	800.000	0.008	-0.027
-563.558	5.011	0.074	-0.055
-562.544	112.105	-0.123	-0.149
-561.529	-2.371	-0.124	-0.088
-560.515	151.167	0.179	0.246
-559.500	567.061	-0.090	0.220
-558.485	-200.000	-0.014	0.381
-557.471	-139.713	-0.047	0.005
-556.456	800.000	-0.029	-0.093
-555.442	662.298	-0.103	0.267
-554.427	-200.000	-0.075	0.410
-553.412	235.824	-0.289	0.481
-552.398	-42.623	-0.141	0.072
-551.383	-45.381	-0.317	0.158
-550.369	-200.000	0.012	-0.061
-549.354	44.250	-0.158	-0.146
-548.339	-200.000	-0.011	0.160
-547.325	27.203	0.258	0.218
-546.310	182.094	0.158	0.234
-545.296	129.260	-0.298	-0.382
-544.281	-96.798	0.104	0.028
-543.266	423.952	0.043	0.094
-542.252	657.324	0.115	-0.298
-541.237	-96.561	-0.069	-0.018
-540.223	-48.087	-0.375	0.182
-539.208	-200.000	-0.005	0.184
-538.193	278.264	-0.081	-0.146
-537.179	-71.858	0.331	0.124
-536.164	132.412	-0.140	0.181
-535.150	231.211	-0.173	0.285
-534.135	119.024	-0.089	-0.110
-533.121	54.869	-0.137	0.133
-532.106	311.946	0.114	0.215
-531.091	-196.402	0.101	0.001
-530.077	-122.863	0.362	0.059
-529.062	192.101	0.056	-0.085
-528.048	-200.000	-0.005	-0.187
-527.033	559.262	0.144	-0.350
-526.018	623.589	-0.059	0.150
-525.004	-101.684	0.082	0.020
-523.989	63.663	0.130	0.131
-522.975	261.692	-0.075	-0.131
-521.960	4.196	-0.080	-0.059
-520.945	85.102	-0.222	-0.245
-519.931	-200.000	-0.043	-0.293
-518.916	449.160	-0.120	0.265
-517.902	-110.864	0.056	-0.012
-516.887	-108.591	-0.121	0.026
-515.872	-104.068	-0.111	0.026
-514.858	-36.753	-0.193	0.104
-513.843	-153.566	-0.148	-0.010
-512.829	-89.538	0.144	-0.043
-511.814	-63.573	-0.172	-0.071
-510.799	4.280	0.172	0.127
-509.785	32.075	-0.229	-0.198
-508.770	13.229	0.089	-0.069
-507.756	-48.515	-0.154	0.074
-506.741	14.775	0.041	-0.032
-505.726	262.158	0.127	-0.221
-504.712	-162.887	0.153	-0.007
-503.697	-200.000	0.050	0.237
-502.683	155.031	-0.110	0.152
-501.668	-88.473	-0.061	-0.018
-500.653	225.831	-0.099	-0.162
-499.639	-200.000	0.017	0.142
-498.624	32.087	-0.176	0.152
-497.610	194.331	-0.061	-0.092
-496.595	-54.663	-0.122	0.055
-495.581	-61.262	-0.044	0.018
-494.566	260.759	-0.110	0.191
-493.551	-112.226	-0.290	0.058
-492.537	-87.242	-0.060	-0.018
-491.522	-200.000	0.003	0.100
-490.508	36.511	0.094	-0.083
-489.493	33.317	-0.286	-0.250
-488.478	-20.300	-0.334	0.207
-487.464	-141.887	-0.373	-0.037
-486.449	800.000	-0.015	-0.049
-485.435	214.739	-0.134	-0.213
-484.420	136.810	-0.186	-0.244
-483.405	-200.000	0.005	0.203
-482.391	75.186	-0.038	0.040
-481.376	235.439	-0.016	-0.026
-480.362	-127.435	0.193	0.028
-479.347	411.185	0.141	-0.301
-478.332	-200.000	0.054	-0.246
-477.318	-76.004	-0.093	0.033
-476.303	-107.186	-0.083	-0.018
-475.289	-200.000	-0.094	-0.416
-474.274	57.428	0.168	0.165
-473.259	-112.186	-0.330	0.067
-472.245	147.233	-0.117	-0.157
-471.230	259.404	0.138	0.240
-470.216	-200.000	-0.085	0.434
-469.201	-32.008	0.201	0.113
-468.186	-63.855	0.180	-0.074
-467.172	-164.754	-0.055	0.002
-466.157	101.866	-0.199	0.233
-465.143	-110.605	0.400	-0.083
-464.128	-37.072	-0.113	0.061
-463.113	-146.222	-0.322	-0.028
-462.099	-39.036	-0.133	0.070
-461.084	-133.982	-0.240	-0.030
-460.070	800.000	0.108	0.369
-459.055	395.019	0.037	-0.078
-458.040	297.701	-0.054	-0.100
-457.026	425.349	0.053	-0.114
-456.011	47.340	-0.209	0.195
-454.997	267.140	-0.081	-0.142
-453.982	800.000	-0.137	-0.451
-452.968	-49.741	-0.048	-0.023
-451.953	133.948	0.025	0.032
-450.938	107.610	-0.093	-0.111
-449.924	55.595	-0.030	0.030
-448.909	-75.079	-0.072	-0.026
-447.895	118.332	0.175	-0.216
-446.880	800.000	0.030	-0.086
-445.865	102.890	0.222	-0.260
-444.851	133.193	0.094	-0.122
-443.836	-200.000	0.037	-0.257
-442.822	-200.000	-0.025	-0.209
-441.807	-179.730	0.135	0.003
-440.792	800.000	-0.077	0.277
-439.778	204.948	-0.072	-0.112
-438.763	-51.713	-0.322	-0.150
-437.749	-122.437	-0.089	0.014
-436.734	-200.000	0.066	0.289
-435.719	23.565	-0.193	0.159
-434.705	-200.000	0.005	0.046
-433.690	119.959	0.337	-0.419
-432.676	-200.000	-0.031	0.213
-431.661	-21.240	-0.205	-0.125
-430.646	-127.511	-0.239	0.035
-429.632	394.311	0.046	0.096
-428.617	-45.053	-0.061	0.031
-427.603	-98.851	-0.013	-0.003
-426.588	-118.001	-0.355	-0.064
-425.573	-77.376	-0.295	-0.103
-424.559	-40.043	-0.109	0.057
-423.544	800.000	-0.035	0.116
-422.530	-0.615	-0.069	-0.049
-421.515	46.536	0.295	0.274
-420.500	-84.208	0.234	-0.074
-419.486	-60.257	0.210	0.089
-418.471	-200.000	0.017	-0.096
-417.457	-175.686	-0.238	-0.006
-416.442	317.024	-0.043	-0.081
-415.428	-200.000	-0.004	0.109
-414.413	213.536	-0.175	0.276
-413.398	-139.650	0.152	-0.016
-412.384	222.250	0.096	0.155
-411.369	-24.413	0.117	-0.070
-410.355	-53.131	-0.120	0.055
-409.340	-70.711	-0.194	0.073
-408.325	-71.873	-0.196	0.073
-407.311	-131.089	-0.379	0.050
-406.296	43.325	0.117	0.107
-405.282	157.356	-0.065	0.090
-404.267	304.408	0.108	0.200
-403.252	-172.664	-0.539	-0.017
-402.238	-84.243	0.073	0.023
-401.223	244.738	0.128	0.215
-400.209	800.000	0.022	0.092
-399.194	-130.459	0.338	-0.046
-398.179	-6.219	0.131	0.089
-397.165	83.572	0.242	-0.264
-396.150	-200.000	-0.076	-0.377
-395.136	-47.981	0.095	-0.046
-394.121	-126.070	-0.169	-0.025
-393.106	-11.830	0.089	0.058
-392.092	-200.000	-0.069	-0.363
-391.077	67.063	0.161	-0.164
-390.063	4.942	0.252	-0.186
-389.048	65.069	0.146	0.148
-388.033	214.012	-0.073	0.116
-387.019	-120.895	-0.077	-0.013
-386.004	244.133	0.064	0.107
-384.990	-122.570	0.191	0.031
-383.975	700.456	-0.099	-0.262
-382.960	-114.667	-0.199	-0.038
-381.946	370.566	0.045	0.092
-380.931	-150.766	0.422	-0.032
-379.917	-74.069	-0.374	-0.136
-378.902	-58.132	-0.079	0.034
-377.888	59.933	-0.083	0.082
-376.873	88.201	0.112	0.124
-375.858	-200.000	0.035	-0.224
-374.844	-200.000	-0.020	-0.123
-373.829	589.001	0.036	0.088
-372.815	93.843	0.050	-0.057
-371.800	24.257	0.204	-0.168
-370.785	261.195	-0.010	-0.017
-369.771	-79.704	-0.350	0.118
-368.756	2.117	0.247	-0.179
-367.742	-137.244	0.292	-0.033
-366.727	-13.966	0.353	-0.228
-365.712	166.142	0.055	-0.078
-364.698	184.343	-0.204	-0.302
-363.683	-200.000	0.031	-0.219
-362.669	241.910	0.107	-0.178
-361.654	-200.000	0.003	-0.233
-360.639	193.816	0.043	0.065
-359.625	371.353	0.128	0.259
-358.610	-85.325	-0.166	0.052
-357.596	800.000	-0.005	0.019
-356.581	-64.669	0.129	0.052
-355.566	-82.819	-0.040	0.013
-354.552	-95.904	-0.063	-0.017
-353.537	-62.942	0.311	0.129
-352.523	-150.847	-0.226	-0.017
-351.508	423.327	-0.106	-0.228
-350.493	-163.139	-0.164	-0.008
-349.479	95.940	-0.103	-0.117
-348.464	-69.277	-0.061	-0.023
-347.450	90.510	-0.120	-0.134
-346.435	-137.957	0.153	0.017
-345.420	-116.797	0.212	-0.039
-344.406	-105.762	-0.380	-0.086
-343.391	-71.634	0.182	-0.068
-342.377	-4.424	-0.208	0.143
-341.362	-122.319	0.421	0.069
-340.348	-83.926	0.257	-0.082
-339.333	8.546	-0.045	0.034
-338.318	734.137	-0.086	0.229
-337.304	-90.057	0.058	0.017
-336.289	-200.000	0.027	0.470
-335.275	-200.000	-0.043	0.228
-334.260	-18.534	0.241	-0.150
-333.245	-200.000	0.016	0.250
-332.231	31.492	-0.190	0.163
-331.216	800.000	-0.043	-0.175
-330.202	800.000	0.122	0.342
-329.187	-180.959	0.489	-0.010
-328.172	800.000	0.019	0.063
-327.158	-131.635	0.332	0.044
-326.143	213.133	0.057	-0.090
-325.129	-64.787	0.105	-0.042
-324.114	-200.000	0.015	-0.102
-323.099	800.000	-0.056	0.153
-322.085	-200.000	-0.047	-0.556
-321.070	384.669	-0.073	0.149
-320.056	-75.958	0.115	0.041
-319.041	122.754	-0.033	0.041
-318.026	7.447	-0.052	0.039
-317.012	34.410	-0.131	0.114
-315.997	-25.457	-0.060	0.036
-314.983	-200.000	-0.001	0.149
-313.968	-200.000	-0.013	0.224
-312.953	221.765	0.261	-0.418
-311.939	-43.576	0.292	-0.147
-310.924	-200.000	0.086	0.377
-309.910	623.890	0.070	-0.177
-308.895	-6.463	-0.135	-0.092
-307.880	-200.000	-0.056	0.311
-306.866	-51.413	-0.193	0.090
-305.851	-71.973	0.255	0.094
-304.837	274.844	-0.154	0.272
-303.822	3.001	-0.047	-0.034
-302.807	-167.903	-0.215	0.008
-301.793	98.149	0.328	0.376
-300.778	-200.000	-0.057	0.266
-299.764	88.425	0.082	0.091
-298.749	142.572	0.219	0.290
-297.735	-200.000	0.059	0.306
-296.720	-121.204	0.118	0.020
-295.705	-81.540	-0.170	0.056
-294.691	127.861	-0.064	0.082
-293.676	153.176	0.100	0.136
-292.662	-83.385	-0.234	0.075
-291.647	-118.459	0.039	-0.007
-290.632	-91.797	-0.264	0.075
-289.618	-41.067	0.490	-0.252
-288.603	249.553	0.082	-0.139
-287.589	39.315	-0.161	-0.143
-286.574	-200.000	-0.035	0.262
-285.559	-86.989	-0.071	-0.022
-284.545	-200.000	-0.062	0.428
-283.530	-155.828	-0.085	-0.005
-282.516	211.957	0.151	-0.237
-281.501	39.623	0.013	0.012
-280.486	77.433	-0.163	-0.173
-279.472	800.000	0.035	-0.113
-278.457	-200.000	0.059	0.323
-277.443	745.260	-0.089	-0.239
-276.428	-200.000	-0.006	-0.088
-275.413	157.570	-0.100	0.138
-274.399	221.743	0.019	-0.030
-273.384	-148.253	-0.067	-0.006
-272.370	-91.247	0.327	0.093
-271.355	-171.750	0.130	0.004
-270.340	-87.803	0.244	0.073
-269.326	13.672	-0.186	0.144
-268.311	139.291	0.191	0.250
-267.297	164.438	-0.145	-0.204
-266.282	800.000	-0.028	-0.111
-265.267	310.579	-0.078	-0.146
-264.253	60.874	-0.132	-0.131
-263.238	-200.000	0.020	-0.216
-262.224	216.299	0.095	-0.151
-261.209	-200.000	0.007	-0.105
-260.195	133.145	-0.079	-0.101
-259.180	-200.000	-0.021	-0.230
-258.165	4.826	-0.116	-0.085
-257.151	800.000	-0.043	0.149
-256.136	-18.382	-0.122	0.076
-255.122	205.965	0.118	0.182
-254.107	-161.273	0.303	0.016
-253.092	-94.540	-0.336	-0.091
-252.078	-76.272	0.298	0.104
-251.063	-200.000	-0.024	0.258
-250.049	-66.413	-0.088	0.035
-249.034	-75.552	0.231	-0.082
-248.019	323.778	0.113	0.214
-247.005	-0.406	0.252	0.178
-245.990	-24.102	0.191	-0.114
-244.976	-163.508	0.312	-0.015
-243.961	1.655	0.278	-0.199
-242.946	-134.026	0.125	0.015
-241.932	82.392	0.243	0.262
-240.917	800.000	-0.096	0.364
-239.903	36.619	0.251	0.220
-238.888	-106.546	0.217	-0.048
-237.873	-9.968	0.342	0.226
-236.859	77.885	0.070	0.075
-235.844	118.172	-0.126	-0.154
-234.830	-101.399	0.317	-0.077
-233.815	-20.564	0.165	0.101
-232.800	180.982	-0.111	-0.163
-231.786	131.263	0.192	-0.245
-230.771	382.697	-0.056	0.113
-229.757	527.166	-0.026	0.061
-228.742	800.000	-0.052	-0.157
-227.727	-84.331	-0.128	0.040
-226.713	127.409	0.083	0.105
-225.698	76.375	-0.064	0.068
-224.684	-126.724	-0.263	-0.039
-223.669	496.247	-0.048	-0.109
-222.655	-99.591	0.479	0.120
-221.640	409.385	-0.067	0.141
-220.625	-105.736	-0.211	-0.047
-219.611	-200.000	-0.056	-0.443
-218.596	103.628	-0.040	0.047
-217.582	-153.988	-0.008	0.001
-216.567	124.536	0.132	-0.165
-215.552	-200.000	-0.008	-0.137
-214.538	-130.862	-0.185	-0.025
-213.523	73.854	0.152	0.158
-212.509	121.396	-0.201	0.248
-211.494	-200.000	-0.013	-0.095
-210.479	150.210	0.094	-0.127
-209.465	349.392	0.041	0.081
-208.450	-192.367	-0.439	0.004
-207.436	749.540	-0.139	0.372
-206.421	800.000	-0.039	0.140
-205.406	53.095	-0.127	-0.121
-204.392	-200.000	0.019	0.129
-203.377	202.482	-0.053	-0.081
-202.363	-149.436	-0.160	-0.013
-201.348	-69.936	0.256	0.097
-200.333	-200.000	0.036	-0.274
-199.319	-200.000	-0.000	-0.021
-198.304	585.137	-0.044	0.108
-197.290	-9.748	-0.148	-0.098
-196.275	-61.045	-0.167	0.070
-195.260	-59.108	-0.195	-0.083
-194.246	800.000	-0.070	-0.262
-193.231	800.000	-0.061	0.191
-192.217	-200.000	-0.000	-0.087
-191.202	-157.342	0.143	0.009
-190.187	-107.766	0.328	-0.071
-189.173	-110.414	-0.130	-0.027
-188.158	800.000	0.041	-0.160
-187.144	136.124	-0.015	0.019
-186.129	-120.288	0.298	0.050
-185.114	-5.696	0.266	-0.181
-184.100	-46.417	0.215	0.105
-183.085	168.511	-0.318	-0.449
-182.071	753.368	-0.038	-0.102
-181.056	453.889	-0.153	-0.336
-180.042	-96.317	-0.207	0.055
-179.027	-200.000	0.016	-0.081
-178.012	-200.000	0.009	-0.313
-176.998	-90.538	0.275	0.079
-175.983	-200.000	0.041	-0.268
-174.969	103.529	0.462	0.538
-173.954	315.353	-0.076	0.142
-172.939	-200.000	0.006	0.290
-171.925	20.283	0.238	-0.190
-170.910	122.833	-0.187	-0.232
-169.896	72.183	-0.076	-0.078
-168.881	766.488	-0.167	0.451
-167.866	-154.037	0.239	0.016
-166.852	800.000	0.084	-0.276
-165.837	-10.339	0.096	-0.063
-164.823	-72.148	0.261	0.096
-163.808	-200.000	0.018	0.125
-162.793	-100.882	-0.211	0.052
-161.779	-73.868	0.289	-0.104
-160.764	-39.351	-0.084	0.044
-159.750	-27.401	0.151	-0.087
-158.735	-200.000	-0.020	0.102
-157.720	107.389	-0.113	0.133
-156.706	-200.000	-0.007	0.125
-155.691	-93.121	-0.239	0.066
-154.677	-125.876	0.163	0.024
-153.662	196.895	-0.121	-0.183
-152.647	-59.699	0.074	-0.032
-151.633	57.600	0.107	0.103
-150.618	263.846	0.188	0.324
-149.604	34.711	0.227	-0.197
-148.589	-138.425	-0.320	-0.035
-147.574	6.495	-0.055	-0.041
-146.560	125.657	-0.199	-0.250
-145.545	-46.534	-0.169	-0.082
-144.531	-18.545	0.163	-0.101
-143.516	150.005	-0.415	0.557
-142.502	-46.785	0.270	-0.131
-141.487	124.641	0.285	0.355
-140.472	800.000	0.049	0.206
-139.458	6.962	0.040	-0.029
-138.443	566.454	-0.064	-0.154
-137.429	-200.000	-0.004	-0.043
-136.414	-119.013	0.163	0.028
-135.399	77.075	-0.074	0.078
-134.385	530.102	0.117	-0.275
-133.370	-108.593	0.216	-0.046
-132.356	-200.000	0.028	0.148
-131.341	116.939	0.220	0.268
-130.326	800.000	0.116	0.345
-129.312	-200.000	0.034	0.161
-128.297	800.000	-0.051	0.178
-127.283	-94.779	0.355	-0.095
-126.268	-95.884	-0.387	-0.102
-125.253	-200.000	-0.007	-0.108
-124.239	-1.209	0.194	-0.136
-123.224	64.641	0.373	0.373
