DTS Sentinel unit serial number:	SN413079Multiplexer serial number:	ORYXHardware model number:	OX4-SRSoftware version number:	ORYX F/W v4.00 Oryx Data Collector v3.7.2.0data status	okinstallation	princeton_trtdifferential loss correction	single-endedforward channel	channel 4reverse channel	N/Adate	2019/09/19time	12:17:34forward acquisition time	60.00reverse acquisition time	0.00gamma	496.2192k internal	0.2323k external	0.2323temperature offset calibration	1.0018default loss term (dB/km)	0.3790temperature slope calibration	1.0000multiplexer offset coefficient	1.0000multiplexer slope coefficient	1.0000fibre end	0.00T internal ref (°C)	26.53T ext. ref 1 (°C)	0.87T ext. ref 2 (°C)	23.51length (m)	temperature (°C)	Stokes	anti-Stokes-747.200	19.517	0.285	0.231
-746.185	-200.000	0.001	0.105
-745.171	24.605	0.119	0.099
-744.156	-200.000	0.024	0.126
-743.142	-167.828	-0.281	-0.011
-742.127	-200.000	-0.006	0.044
-741.112	-58.568	0.241	0.105
-740.098	600.195	-0.079	-0.197
-739.083	-200.000	-0.053	-0.449
-738.069	-68.032	-0.330	0.130
-737.054	41.678	0.060	0.055
-736.039	800.000	-0.116	-0.401
-735.025	18.404	0.253	0.204
-734.010	-157.871	-0.125	-0.007
-732.996	600.941	-0.161	-0.403
-731.981	798.797	0.059	0.164
-730.966	800.000	-0.072	0.303
-729.952	-200.000	-0.011	0.194
-728.937	-200.000	-0.205	-0.001
-727.923	-52.829	-0.313	-0.145
-726.908	1.423	-0.202	0.147
-725.894	-32.932	-0.205	-0.115
-724.879	150.449	-0.091	0.124
-723.864	1.727	-0.045	0.033
-722.850	-77.065	0.433	0.152
-721.835	-31.064	-0.444	-0.253
-720.821	293.515	-0.104	-0.192
-719.806	108.900	-0.164	-0.198
-718.791	-124.287	-0.206	-0.033
-717.777	66.464	-0.206	-0.212
-716.762	-200.000	-0.036	-0.195
-715.748	150.155	0.109	0.149
-714.733	24.891	0.077	-0.064
-713.718	-200.000	-0.070	0.330
-712.704	-200.000	-0.085	-0.380
-711.689	440.478	-0.064	0.141
-710.675	-55.283	-0.160	-0.073
-709.660	-83.562	0.220	-0.071
-708.645	338.447	-0.131	-0.258
-707.631	768.118	-0.028	0.078
-706.616	-14.137	-0.064	0.042
-705.602	35.941	0.144	-0.128
-704.587	271.577	0.106	-0.189
-703.572	-22.175	-0.134	-0.082
-702.558	-174.040	-0.152	-0.005
-701.543	-57.545	-0.451	0.200
-700.529	-200.000	0.088	0.433
-699.514	205.244	-0.191	0.299
-698.499	-110.862	-0.133	0.028
-697.485	6.907	-0.209	-0.157
-696.470	638.921	-0.149	-0.382
-695.456	-94.374	0.377	0.104
-694.441	555.925	0.048	0.116
-693.426	-158.765	-0.705	-0.041
-692.412	-129.005	0.195	-0.027
-691.397	795.944	0.070	-0.195
-690.383	800.000	-0.120	-0.489
-689.368	-117.740	0.363	-0.066
-688.354	20.979	0.088	-0.072
-687.339	78.936	0.063	0.068
-686.324	-127.208	-0.135	-0.020
-685.310	2.716	0.101	-0.074
-684.295	125.621	-0.176	-0.223
-683.281	95.809	0.208	-0.239
-682.266	-28.370	0.122	0.071
-681.251	456.006	-0.067	-0.151
-680.237	10.827	0.095	-0.073
-679.222	-200.000	-0.025	0.232
-678.208	598.253	0.047	0.117
-677.193	437.313	-0.193	0.424
-676.178	-35.774	0.010	0.005
-675.164	-3.587	-0.112	-0.078
-674.149	-40.379	0.353	0.185
-673.135	-200.000	-0.021	-0.113
-672.120	66.995	-0.192	0.197
-671.105	6.960	-0.336	-0.252
-670.091	54.158	-0.098	-0.095
-669.076	55.579	0.103	-0.101
-668.062	-115.933	0.239	-0.045
-667.047	-58.888	0.216	-0.094
-666.032	800.000	-0.015	0.063
-665.018	589.816	-0.071	-0.175
-664.003	321.021	0.084	-0.161
-662.989	250.608	-0.114	0.195
-661.974	320.108	0.170	-0.326
-660.959	142.316	0.168	0.224
-659.945	-156.789	-0.154	-0.010
-658.930	-200.000	0.044	0.261
-657.916	-60.509	-0.112	-0.048
-656.901	83.297	-0.160	-0.175
-655.886	-200.000	-0.009	0.501
-654.872	-46.713	-0.106	-0.052
-653.857	-200.000	-0.097	-0.486
-652.843	-168.490	0.315	0.012
-651.828	-14.603	0.144	-0.093
-650.814	-200.000	0.004	0.217
-649.799	195.123	-0.062	0.095
-648.784	-200.000	-0.009	-0.121
-647.770	-91.053	-0.134	0.039
-646.755	-83.477	-0.299	0.096
-645.741	800.000	-0.045	0.184
-644.726	-200.000	0.004	-0.039
-643.711	-133.089	-0.418	0.053
-642.697	800.000	0.083	0.267
-641.682	-167.978	-0.236	0.009
-640.668	-106.570	0.233	0.052
-639.653	189.238	-0.304	-0.458
-638.638	11.993	0.166	0.128
-637.624	-94.096	-0.221	0.061
-636.609	-47.205	-0.122	-0.060
-635.595	-200.000	-0.044	-0.247
-634.580	67.363	0.149	0.153
-633.565	-200.000	0.039	0.276
-632.551	800.000	-0.016	0.071
-631.536	-53.104	-0.193	0.089
-630.522	-200.000	0.036	0.245
-629.507	-87.267	0.152	0.046
-628.492	-200.000	-0.014	-0.341
-627.478	800.000	-0.018	-0.070
-626.463	-200.000	-0.056	-0.286
-625.449	35.946	-0.271	0.240
-624.434	-5.527	0.209	0.144
-623.419	-49.292	0.189	0.091
-622.405	-200.000	0.000	-0.074
-621.390	-200.000	-0.031	-0.179
-620.376	-84.711	-0.274	-0.087
-619.361	397.932	-0.133	-0.279
-618.346	-200.000	0.038	0.167
-617.332	633.677	0.040	-0.103
-616.317	-16.514	-0.224	0.143
-615.303	405.894	-0.159	0.336
-614.288	-9.213	-0.077	0.052
-613.273	69.833	0.128	-0.133
-612.259	-71.726	-0.217	-0.081
-611.244	269.329	0.103	-0.182
-610.230	-73.460	0.183	-0.067
-609.215	283.567	0.167	0.302
-608.201	617.339	-0.050	-0.125
-607.186	93.671	-0.144	0.163
-606.171	-200.000	-0.026	0.202
-605.157	660.006	0.076	-0.196
-604.142	-200.000	0.054	0.252
-603.128	-200.000	0.023	0.163
-602.113	-200.000	-0.006	-0.122
-601.098	-13.631	-0.212	0.138
-600.084	13.803	0.232	-0.181
-599.069	800.000	0.054	-0.190
-598.055	-200.000	-0.000	0.103
-597.040	-200.000	0.002	0.257
-596.025	-200.000	-0.064	0.306
-595.011	-45.726	-0.179	0.089
-593.996	170.614	0.105	-0.151
-592.982	-81.725	0.173	-0.057
-591.967	-110.841	0.127	0.026
-590.952	-57.041	0.362	0.160
-589.938	800.000	0.043	-0.152
-588.923	-148.658	-0.223	0.018
-587.909	-200.000	0.014	-0.314
-586.894	800.000	-0.021	0.083
-585.879	458.878	0.115	0.257
-584.865	79.980	0.100	-0.108
-583.850	-13.852	0.143	0.093
-582.836	-157.317	0.236	-0.014
-581.821	-83.791	-0.129	-0.041
-580.806	-117.568	0.291	0.053
-579.792	102.406	0.199	-0.234
-578.777	5.566	0.140	-0.104
-577.763	38.074	-0.216	-0.193
-576.748	-200.000	0.004	-0.286
-575.733	-200.000	-0.034	-0.181
-574.719	52.675	-0.311	-0.298
-573.704	800.000	0.035	-0.143
-572.690	-121.151	0.031	0.005
-571.675	67.195	-0.098	0.100
-570.661	148.896	0.138	-0.187
-569.646	192.080	0.117	-0.177
-568.631	-1.661	-0.281	0.198
-567.617	800.000	-0.022	0.064
-566.602	403.371	-0.123	-0.259
-565.588	191.008	-0.148	0.223
-564.573	-65.367	-0.030	0.012
-563.558	800.000	-0.129	-0.375
-562.544	800.000	0.054	-0.196
-561.529	-39.284	0.361	-0.190
-560.515	-146.440	0.084	0.007
-559.500	-200.000	0.014	0.169
-558.485	-132.191	0.106	-0.014
-557.471	562.084	0.063	-0.153
-556.456	-132.253	-0.244	0.032
-555.442	-200.000	-0.004	-0.033
-554.427	-79.299	-0.406	0.138
-553.412	-200.000	0.002	-0.039
-552.398	115.815	0.087	-0.107
-551.383	800.000	0.085	0.273
-550.369	-200.000	0.023	-0.242
-549.354	800.000	0.054	-0.166
-548.339	-153.818	-0.513	0.035
-547.325	-77.100	0.367	0.128
-546.310	49.887	0.132	-0.125
-545.296	-200.000	-0.013	0.219
-544.281	800.000	0.039	-0.116
-543.266	741.545	-0.086	0.233
-542.252	-140.446	-0.323	0.034
-541.237	210.516	0.172	0.271
-540.223	-200.000	-0.071	0.351
-539.208	-61.216	-0.242	-0.102
-538.193	-150.482	0.146	0.011
-537.179	800.000	0.022	0.090
-536.164	-113.731	0.388	0.076
-535.150	-175.461	0.042	0.001
-534.135	-62.056	-0.201	-0.084
-533.121	-60.121	0.221	0.095
-532.106	253.232	0.035	0.059
-531.091	-200.000	-0.002	-0.123
-530.077	-102.185	-0.197	0.047
-529.062	72.742	-0.167	0.175
-528.048	22.142	0.173	0.142
-527.033	83.683	-0.163	-0.178
-526.018	800.000	-0.043	0.154
-525.004	-55.858	-0.197	-0.088
-523.989	800.000	-0.045	-0.140
-522.975	-200.000	0.018	0.122
-521.960	-59.594	0.142	0.061
-520.945	-62.501	0.124	-0.052
-519.931	8.065	0.169	0.127
-518.916	-11.914	-0.124	-0.081
-517.902	-34.564	0.072	-0.039
-516.887	-58.776	-0.241	0.105
-515.872	36.177	-0.188	-0.165
-514.858	-200.000	-0.014	0.277
-513.843	-200.000	0.010	-0.261
-512.829	800.000	-0.038	0.120
-511.814	-109.622	-0.266	0.056
-510.799	800.000	-0.110	-0.412
-509.785	-52.684	-0.272	-0.126
-508.770	-200.000	-0.034	0.279
-507.756	-111.954	-0.174	-0.035
-506.741	-84.078	0.327	-0.104
-505.726	-79.701	0.200	0.068
-504.712	-21.118	-0.203	0.124
-503.697	-200.000	-0.023	-0.174
-502.683	-94.921	0.222	0.060
-501.668	-200.000	-0.005	-0.080
-500.653	-57.509	-0.092	0.041
-499.639	187.268	0.043	-0.064
-498.624	320.410	-0.012	-0.022
-497.610	206.393	-0.063	-0.099
-496.595	-22.989	-0.132	-0.080
-495.581	528.840	0.049	0.115
-494.566	53.186	-0.135	-0.130
-493.551	95.175	0.170	0.193
-492.537	-200.000	0.036	0.172
-491.522	-200.000	-0.053	0.460
-490.508	-200.000	0.019	-0.206
-489.493	-200.000	0.012	0.230
-488.478	-122.108	-0.401	-0.066
-487.464	0.550	0.270	-0.193
-486.449	-200.000	-0.030	-0.197
-485.435	1.735	-0.041	0.030
-484.420	-30.216	0.112	0.064
-483.405	-17.291	0.511	-0.322
-482.391	296.717	-0.037	-0.067
-481.376	411.761	0.009	0.019
-480.362	207.420	0.056	-0.088
-479.347	56.732	-0.202	-0.197
-478.332	800.000	0.056	-0.167
-477.318	-141.285	0.566	-0.058
-476.303	-200.000	-0.020	-0.156
-475.289	-106.449	0.156	-0.035
-474.274	-95.269	-0.086	0.023
-473.259	-49.660	0.365	0.174
-472.245	-105.168	-0.196	-0.045
-471.230	-79.384	-0.133	0.045
-470.216	183.063	0.169	0.249
-469.201	-45.774	-0.257	0.127
-468.186	177.505	0.110	0.160
-467.172	-200.000	0.049	0.275
-466.157	53.933	-0.098	-0.094
-465.143	93.818	-0.187	0.211
-464.128	-105.104	0.352	-0.080
-463.113	-80.314	0.064	0.021
-462.099	289.138	-0.160	0.289
-461.084	-11.686	0.290	-0.190
-460.070	56.814	0.184	0.179
-459.055	-87.430	-0.034	0.010
-458.040	-110.695	0.270	-0.056
-457.026	130.374	0.143	0.183
-456.011	800.000	-0.052	-0.175
-454.997	-200.000	0.001	-0.181
-453.982	7.516	-0.195	0.146
-452.968	111.219	0.082	-0.098
-451.953	-200.000	0.025	0.518
-450.938	-62.419	-0.340	-0.141
-449.924	343.128	-0.125	0.245
-448.909	118.676	0.059	-0.073
-447.895	-34.549	0.173	0.095
-446.880	-137.253	-0.213	-0.024
-445.865	-200.000	-0.028	0.268
-444.851	706.175	0.095	0.250
-443.836	-200.000	-0.013	-0.230
-442.822	104.825	0.191	-0.224
-441.807	625.406	-0.006	0.016
-440.792	-200.000	0.040	-0.269
-439.778	800.000	0.060	0.209
-438.763	-25.177	0.315	-0.186
-437.749	-39.210	0.208	-0.109
-436.734	-200.000	-0.053	-0.324
-435.719	119.991	0.081	-0.100
-434.705	-89.870	0.192	0.056
-433.690	-39.520	-0.084	-0.044
-432.676	-61.061	0.189	-0.080
-431.661	46.965	-0.185	0.171
-430.646	-115.013	-0.097	-0.018
-429.632	748.473	-0.043	-0.115
-428.617	368.254	0.137	0.276
-427.603	-55.561	0.261	-0.117
-426.588	190.753	0.054	0.081
-425.573	-93.854	-0.250	-0.069
-424.559	-200.000	-0.003	0.334
-423.544	-200.000	-0.010	-0.238
-422.530	-131.133	0.306	0.041
-421.515	-200.000	0.009	-0.055
-420.500	800.000	-0.071	-0.267
-419.486	156.594	0.116	0.159
-418.471	-66.481	-0.148	-0.058
-417.457	-87.877	0.175	-0.053
-416.442	-30.923	0.125	-0.070
-415.428	50.429	0.131	0.124
-414.413	724.149	0.048	-0.127
-413.398	229.292	-0.092	-0.149
-412.384	17.890	-0.124	-0.099
-411.369	390.692	-0.150	0.311
-410.355	-151.379	-0.265	0.020
-409.340	6.852	-0.341	-0.253
-408.325	-75.641	-0.364	0.129
-407.311	-200.000	0.064	-0.389
-406.296	711.885	-0.037	-0.099
-405.282	260.520	-0.146	-0.251
-404.267	6.567	-0.197	-0.146
-403.252	45.918	-0.221	-0.204
-402.238	136.035	0.072	0.094
-401.223	-164.978	0.218	-0.010
-400.209	38.835	-0.243	-0.216
-399.194	212.418	0.114	-0.180
-398.179	25.423	0.253	0.210
-397.165	-200.000	-0.011	0.120
-396.150	-2.558	0.205	-0.143
-395.136	-14.196	-0.043	0.027
-394.121	456.920	-0.105	0.232
-393.106	131.819	0.147	0.189
-392.092	-200.000	-0.010	0.265
-391.077	-39.956	-0.078	0.041
-390.063	340.597	-0.040	0.079
-389.048	249.430	-0.071	-0.120
-388.033	800.000	-0.029	0.114
-387.019	800.000	0.020	0.067
-386.004	338.414	0.084	0.162
-384.990	-189.562	0.144	-0.002
-383.975	-200.000	-0.026	0.206
-382.960	800.000	0.007	0.024
-381.946	63.399	-0.284	0.284
-380.931	348.931	0.060	0.117
-379.917	-14.281	0.252	0.162
-378.902	-61.468	0.258	-0.108
-377.888	33.352	0.228	0.197
-376.873	352.229	-0.063	0.124
-375.858	25.750	-0.212	-0.175
-374.844	-72.905	-0.210	0.077
-373.829	150.659	-0.201	-0.271
-372.815	62.221	-0.097	-0.096
-371.800	94.495	-0.135	0.153
-370.785	94.140	0.248	0.280
-369.771	-133.515	0.313	0.039
-368.756	340.661	-0.136	-0.263
-367.742	176.421	-0.074	-0.107
-366.727	-149.059	0.276	0.022
-365.712	1.294	0.202	-0.145
-364.698	250.317	-0.075	0.127
-363.683	-4.423	-0.161	-0.111
-362.669	800.000	-0.028	-0.082
-361.654	-163.483	0.124	-0.006
-360.639	387.042	-0.073	0.150
-359.625	-200.000	0.013	0.086
-358.610	27.584	-0.174	-0.146
-357.596	-107.201	0.497	-0.109
-356.581	-24.082	-0.025	-0.015
-355.566	9.562	-0.460	0.347
-354.552	-200.000	0.009	0.248
-353.537	800.000	-0.102	0.350
-352.523	-31.820	-0.278	0.155
-351.508	56.157	-0.228	-0.220
-350.493	-68.385	0.276	0.106
-349.479	-75.602	-0.231	0.081
-348.464	-200.000	0.057	-0.270
-347.450	-4.332	0.088	-0.060
-346.435	9.887	0.185	0.139
-345.420	-43.206	0.097	-0.049
-344.406	-120.919	0.121	0.020
-343.391	383.790	0.076	-0.155
-342.377	-63.398	0.138	0.057
-341.362	-200.000	0.014	-0.213
-340.348	-110.574	0.255	0.053
-339.333	6.886	-0.165	0.122
-338.318	5.917	0.328	0.241
-337.304	14.444	-0.069	0.053
-336.289	-77.838	0.039	0.013
-335.275	800.000	0.046	0.139
-334.260	-200.000	-0.069	0.317
-333.245	-52.349	-0.269	-0.124
-332.231	99.119	0.119	0.137
-331.216	-94.693	0.116	-0.031
-330.202	8.577	-0.158	0.118
-329.187	63.514	0.205	-0.204
-328.172	159.016	0.101	0.139
-327.158	265.202	-0.182	0.316
-326.143	800.000	0.054	0.161
-325.129	-200.000	-0.006	-0.316
-324.114	-200.000	0.012	-0.245
-323.099	135.216	0.085	0.109
-322.085	-200.000	-0.000	0.111
-321.070	-66.833	0.067	0.026
-320.056	123.586	-0.213	0.266
-319.041	40.231	0.038	0.034
-318.026	109.722	0.194	0.232
-317.012	-8.879	0.117	0.078
-315.997	-71.167	-0.237	-0.088
-314.983	-29.079	0.080	0.045
-313.968	-76.195	-0.351	0.123
-312.953	65.707	-0.162	0.163
-311.939	115.563	0.113	-0.138
-310.924	-87.323	-0.215	-0.065
-309.910	-178.581	-0.063	0.001
-308.895	-200.000	0.019	0.143
-307.880	85.824	-0.112	-0.122
-306.866	-11.899	0.179	0.117
-305.851	647.132	0.041	0.104
-304.837	-128.998	0.216	-0.030
-303.822	-200.000	-0.003	0.111
-302.807	117.368	0.128	-0.157
-301.793	20.376	-0.227	-0.182
-300.778	1.432	0.010	0.007
-299.764	-119.325	-0.258	-0.045
-298.749	-30.167	-0.124	-0.070
-297.735	92.496	0.144	-0.161
-296.720	-200.000	-0.001	-0.093
-295.705	800.000	0.046	-0.196
-294.691	-56.618	0.123	0.054
-293.676	159.780	-0.159	-0.220
-292.662	240.669	0.239	-0.395
-291.647	-200.000	0.068	0.371
-290.632	116.141	0.179	0.217
-289.618	241.589	0.107	0.178
-288.603	688.558	0.060	-0.156
-287.589	-200.000	-0.005	-0.146
-286.574	558.679	0.127	0.304
-285.559	-11.991	0.061	0.040
-284.545	800.000	-0.044	-0.138
-283.530	135.543	0.120	0.155
-282.516	800.000	0.068	0.279
-281.501	-92.781	-0.235	-0.065
-280.486	206.293	0.148	0.229
-279.472	299.061	-0.013	0.024
-278.457	16.202	0.094	0.073
-277.443	800.000	-0.123	-0.345
-276.428	-101.533	0.124	-0.030
-275.413	-146.601	0.295	-0.025
-274.399	-69.387	-0.287	0.109
-273.384	-140.776	0.218	0.022
-272.370	-200.000	0.025	0.127
-271.355	-20.763	-0.321	-0.195
-270.340	-185.445	0.209	-0.003
-269.326	-200.000	0.022	-0.165
-268.311	-56.808	0.131	0.057
-267.297	176.076	-0.064	0.092
-266.282	-200.000	0.031	-0.193
-265.267	800.000	-0.195	-0.608
-264.253	169.037	-0.149	-0.211
-263.238	-200.000	-0.022	0.158
-262.224	-104.304	-0.291	0.067
-261.209	273.575	-0.142	-0.248
-260.195	-200.000	-0.001	-0.099
-259.180	-200.000	0.030	0.179
-258.165	-50.490	-0.391	-0.183
-257.151	-85.908	-0.136	0.042
-256.136	248.116	-0.237	0.397
-255.122	-73.238	-0.325	0.118
-254.107	-106.162	-0.253	-0.056
-253.092	800.000	0.052	-0.192
-252.078	-200.000	-0.052	0.434
-251.063	-200.000	0.028	0.364
-250.049	179.889	0.127	-0.184
-249.034	622.582	0.115	-0.287
-248.019	-107.078	-0.233	-0.051
-247.005	-133.648	-0.212	-0.026
-245.990	-70.273	-0.126	-0.047
-244.976	56.425	-0.103	0.100
-243.961	-1.626	0.427	-0.298
-242.946	-79.827	-0.123	0.041
-241.932	-37.178	-0.208	-0.110
-240.917	-118.453	0.410	0.072
-239.903	213.279	0.030	-0.047
-238.888	66.384	-0.206	-0.207
-237.873	-95.901	0.282	-0.074
-236.859	-200.000	-0.034	0.205
-235.844	-168.642	0.297	-0.011
-234.830	800.000	0.119	-0.392
-233.815	-82.437	0.063	-0.020
-232.800	27.246	-0.161	-0.134
-231.786	139.553	0.098	-0.128
-230.771	294.565	-0.130	0.235
-229.757	520.036	-0.122	-0.282
-228.742	-200.000	-0.016	-0.102
-227.727	284.275	-0.063	-0.112
-226.713	-200.000	-0.032	-0.184
-225.698	90.556	-0.134	0.148
-224.684	704.794	-0.095	0.249
-223.669	800.000	-0.076	0.229
-222.655	463.498	0.067	-0.148
-221.640	-43.207	0.218	0.109
-220.625	-200.000	0.046	-0.299
-219.611	-177.235	0.316	-0.008
-218.596	483.412	0.090	-0.202
-217.582	10.577	0.257	0.194
-216.567	265.080	-0.059	0.102
-215.552	-159.405	0.074	0.004
-214.538	-34.019	-0.221	-0.120
-213.523	-22.660	-0.210	-0.125
-212.509	84.299	0.126	0.136
-211.494	-127.216	-0.285	0.041
-210.479	-64.903	0.246	0.098
-209.465	-45.753	-0.270	0.132
-208.450	-21.041	-0.164	0.099
-207.436	143.354	0.203	0.267
-206.421	184.793	0.088	0.128
-205.406	208.963	0.307	0.476
-204.392	41.466	0.394	-0.353
-203.377	-98.981	-0.281	0.071
-202.363	389.971	0.156	0.321
-201.348	426.757	-0.043	-0.092
-200.333	-200.000	-0.001	-0.415
-199.319	-78.054	-0.083	0.028
-198.304	-41.783	0.235	0.119
-197.290	-200.000	-0.013	-0.101
-196.275	-129.470	0.123	-0.017
-195.260	150.545	0.102	-0.137
-194.246	800.000	0.119	-0.426
-193.231	-177.873	-0.104	0.002
-192.217	-47.134	-0.290	0.140
-191.202	-200.000	-0.029	-0.341
-190.187	100.938	0.107	0.122
-189.173	95.272	0.182	-0.205
-188.158	-28.434	0.156	0.089
-187.144	78.176	0.075	0.079
-186.129	-200.000	0.001	-0.274
-185.114	800.000	0.023	0.092
-184.100	677.866	0.134	-0.343
-183.085	-88.875	-0.396	0.116
-182.071	13.504	-0.118	0.091
-181.056	125.902	0.077	-0.096
-180.042	44.703	0.048	0.044
-179.027	-40.093	0.392	-0.202
-178.012	0.192	0.159	-0.112
-176.998	-40.659	-0.145	-0.074
-175.983	-117.410	-0.444	-0.079
-174.969	800.000	0.095	0.282
-173.954	-43.951	0.065	-0.032
-172.939	-147.463	0.113	0.009
-171.925	708.193	0.146	-0.382
-170.910	536.282	-0.076	0.179
-169.896	-39.882	0.431	-0.222
-168.881	-90.067	-0.319	0.092
-167.866	-29.078	0.277	-0.157
-166.852	217.358	0.189	-0.298
-165.837	178.861	-0.140	0.203
-164.823	-162.585	0.217	-0.011
-163.808	-119.533	-0.368	0.063
-162.793	-200.000	-0.072	0.400
-161.779	-76.392	0.081	0.028
-160.764	-200.000	0.053	-0.314
-159.750	-54.125	-0.329	0.148
-158.735	-75.826	-0.096	-0.034
-157.720	800.000	0.028	-0.114
-156.706	412.110	0.171	-0.357
-155.691	72.900	-0.317	0.327
-154.677	443.397	-0.087	-0.187
-153.662	-200.000	0.029	0.368
-152.647	800.000	-0.056	-0.167
-151.633	33.829	-0.200	0.172
-150.618	-200.000	0.010	0.186
-149.604	184.816	-0.045	-0.066
-148.589	-66.753	-0.112	0.044
-147.574	-200.000	-0.015	0.087
-146.560	23.045	-0.092	0.075
-145.545	10.101	0.324	0.243
-144.531	-39.220	-0.046	0.024
-143.516	40.945	0.077	-0.069
-142.502	-200.000	-0.009	0.147
-141.487	-126.473	-0.399	0.059
-140.472	-92.613	-0.038	0.011
-139.458	-200.000	-0.002	0.030
-138.443	-177.751	-0.278	0.007
-137.429	-58.833	0.075	-0.032
-136.414	297.622	0.070	-0.127
-135.399	63.481	0.251	0.249
-134.385	-105.181	0.233	0.052
-133.370	-114.738	-0.307	0.058
-132.356	-200.000	-0.004	-0.254
-131.341	-5.776	0.172	0.116
-130.326	-65.798	0.223	0.088
-129.312	290.188	0.115	0.207
-128.297	-90.177	0.218	0.063
-127.283	-57.053	-0.325	-0.141
-126.268	-200.000	0.032	0.337
-125.253	698.002	-0.102	0.263
-124.239	800.000	0.127	-0.377
-123.224	-22.635	-0.113	-0.068
-122.210	-145.248	-0.351	-0.031
-121.195	-200.000	0.023	0.303
