DTS Sentinel unit serial number:	SN413079Multiplexer serial number:	ORYXHardware model number:	OX4-SRSoftware version number:	ORYX F/W v4.00 Oryx Data Collector v3.7.2.0data status	okinstallation	princeton_trtdifferential loss correction	single-endedforward channel	channel 4reverse channel	N/Adate	2019/09/14time	18:41:34forward acquisition time	60.00reverse acquisition time	0.00gamma	496.2192k internal	0.2300k external	0.2300temperature offset calibration	1.0106default loss term (dB/km)	0.3790temperature slope calibration	1.0000multiplexer offset coefficient	1.0000multiplexer slope coefficient	1.0000fibre end	0.00T internal ref (°C)	36.27T ext. ref 1 (°C)	4.93T ext. ref 2 (°C)	29.98length (m)	temperature (°C)	Stokes	anti-Stokes-747.200	-200.000	0.093	0.640
-746.185	163.040	-0.128	0.183
-745.171	159.628	0.151	0.215
-744.156	-200.000	-0.013	0.399
-743.142	-44.390	0.094	0.048
-742.127	-101.109	-0.243	0.061
-741.112	52.560	0.133	0.130
-740.098	800.000	0.018	-0.075
-739.083	199.484	0.224	-0.350
-738.069	800.000	-0.025	0.082
-737.054	-200.000	-0.053	0.342
-736.039	748.031	-0.037	-0.103
-735.025	800.000	-0.031	0.117
-734.010	800.000	-0.110	-0.318
-732.996	55.363	0.070	0.069
-731.981	-118.591	0.281	-0.051
-730.966	-134.324	-0.506	0.063
-729.952	-123.155	-0.451	0.074
-728.937	103.531	-0.057	-0.068
-727.923	-146.836	-0.140	0.012
-726.908	-25.742	-0.353	0.212
-725.894	-200.000	-0.039	-0.224
-724.879	-200.000	-0.041	-0.221
-723.864	-200.000	0.044	0.288
-722.850	419.579	0.100	0.217
-721.835	800.000	0.071	0.312
-720.821	23.863	-0.187	0.157
-719.806	206.503	0.164	-0.261
-718.791	119.168	-0.136	0.171
-717.777	800.000	0.025	0.109
-716.762	-200.000	0.058	-0.263
-715.748	-200.000	0.042	-0.257
-714.733	-5.945	-0.261	0.182
-713.718	144.162	-0.171	-0.233
-712.704	-200.000	0.061	-0.524
-711.689	251.924	-0.194	0.337
-710.675	-129.967	0.099	-0.014
-709.660	-140.915	-0.037	0.004
-708.645	-68.481	-0.353	0.139
-707.631	-186.481	0.103	-0.002
-706.616	117.356	-0.184	-0.230
-705.602	163.710	-0.275	-0.394
-704.587	800.000	-0.113	-0.425
-703.572	-200.000	0.004	-0.216
-702.558	800.000	0.063	-0.208
-701.543	-200.000	-0.015	0.453
-700.529	550.232	0.218	-0.532
-699.514	-200.000	0.001	0.186
-698.499	2.286	-0.136	-0.100
-697.485	32.860	0.156	-0.138
-696.470	800.000	0.062	0.225
-695.456	800.000	0.049	0.186
-694.441	800.000	0.101	0.318
-693.426	-114.309	-0.183	0.036
-692.412	-200.000	0.026	-0.173
-691.397	-200.000	0.035	-0.213
-690.383	236.666	-0.169	-0.285
-689.368	455.655	0.114	-0.256
-688.354	-99.459	-0.249	-0.064
-687.339	-79.472	0.336	-0.115
-686.324	-119.372	-0.318	-0.056
-685.310	18.010	-0.064	-0.052
-684.295	-63.994	0.295	-0.123
-683.281	-200.000	0.006	-0.290
-682.266	800.000	-0.164	-0.479
-681.251	1.846	0.232	-0.170
-680.237	-107.050	-0.181	-0.041
-679.222	800.000	0.057	0.224
-678.208	-200.000	0.000	0.301
-677.193	-200.000	0.009	-0.057
-676.178	8.473	0.317	0.242
-675.164	-200.000	0.000	0.230
-674.149	-200.000	0.072	-0.000
-673.135	666.339	0.046	-0.120
-672.120	-13.136	0.225	-0.149
-671.105	39.887	0.111	-0.101
-670.091	-200.000	-0.022	-0.120
-669.076	-8.605	0.041	0.028
-668.062	-135.096	-0.251	-0.031
-667.047	58.358	-0.153	-0.153
-666.032	55.234	-0.365	-0.359
-665.018	800.000	-0.060	0.218
-664.003	-200.000	0.021	-0.268
-662.989	96.804	0.165	-0.192
-661.974	-90.811	0.200	0.059
-660.959	161.834	-0.078	0.111
-659.945	95.368	-0.144	0.167
-658.930	233.111	0.024	0.041
-657.916	-200.000	-0.013	0.227
-656.901	-106.156	0.157	0.036
-655.886	41.240	0.165	0.152
-654.872	-87.108	0.217	-0.067
-653.857	797.602	-0.053	-0.148
-652.843	-200.000	-0.025	-0.300
-651.828	86.430	-0.242	0.271
-650.814	178.945	-0.226	-0.336
-649.799	-200.000	-0.013	0.062
-648.784	-87.251	0.143	-0.044
-647.770	-8.249	-0.060	0.041
-646.755	65.818	0.014	0.014
-645.741	-19.502	0.143	0.090
-644.726	86.159	0.099	-0.110
-643.711	-113.830	-0.167	0.033
-642.697	600.262	0.047	-0.120
-641.682	-103.271	-0.192	-0.046
-640.668	-106.518	0.105	0.024
-639.653	-114.749	0.151	0.029
-638.638	800.000	0.066	0.264
-637.624	138.361	0.211	-0.281
-636.609	800.000	0.084	0.262
-635.595	-168.442	-0.206	-0.008
-634.580	306.554	0.244	0.462
-633.565	-166.586	-0.305	-0.013
-632.551	425.859	-0.069	0.150
-631.536	-50.253	-0.249	0.120
-630.522	-200.000	0.022	-0.136
-629.507	114.602	0.083	0.102
-628.492	-149.742	-0.036	-0.003
-627.478	-133.746	0.180	-0.023
-626.463	340.928	-0.135	-0.268
-625.449	800.000	0.032	-0.111
-624.434	92.035	0.096	0.110
-623.419	-108.315	-0.324	-0.071
-622.405	-18.639	-0.193	0.122
-621.390	7.980	0.169	-0.128
-620.376	-138.273	-0.399	-0.045
-619.361	-140.521	-0.462	-0.049
-618.346	56.483	0.090	-0.089
-617.332	31.982	-0.112	-0.098
-616.317	-94.316	-0.204	0.057
-615.303	-5.718	0.159	0.110
-614.288	111.273	0.065	-0.080
-613.273	-91.240	-0.077	-0.022
-612.259	-44.952	-0.024	0.012
-611.244	450.218	0.155	-0.347
-610.230	-142.581	-0.337	-0.034
-609.215	-168.970	-0.258	0.010
-608.201	-142.897	-0.348	-0.034
-607.186	-98.637	-0.250	-0.065
-606.171	13.748	-0.193	-0.152
-605.157	46.447	-0.139	-0.131
-604.142	-67.587	-0.206	0.082
-603.128	-77.693	0.072	0.025
-602.113	-87.473	0.087	-0.027
-601.098	800.000	0.047	0.153
-600.084	-200.000	0.030	-0.333
-599.069	-200.000	0.006	-0.189
-598.055	-17.875	0.044	0.028
-597.040	-67.015	-0.369	0.148
-596.025	-200.000	-0.024	0.158
-595.011	-126.622	-0.515	0.077
-593.996	800.000	0.038	0.108
-592.982	522.375	0.186	-0.444
-591.967	-67.402	0.153	0.061
-590.952	-136.741	0.086	-0.010
-589.938	800.000	-0.029	-0.109
-588.923	121.662	0.054	-0.068
-587.909	-73.477	-0.197	-0.073
-586.894	800.000	0.041	-0.131
-585.879	800.000	-0.012	0.051
-584.865	579.228	-0.125	-0.309
-583.850	606.690	-0.046	-0.116
-582.836	-55.997	-0.226	0.102
-581.821	-200.000	0.006	-0.070
-580.806	-200.000	-0.017	0.166
-579.792	73.425	0.054	-0.057
-578.777	-200.000	0.001	0.023
-577.763	785.477	0.099	-0.275
-576.748	141.012	-0.155	0.208
-575.733	179.603	-0.180	-0.267
-574.719	132.250	-0.113	-0.148
-573.704	-120.172	-0.333	0.058
-572.690	-128.870	-0.218	0.031
-571.675	80.913	-0.177	-0.194
-570.661	-106.209	-0.051	0.012
-569.646	588.409	-0.069	-0.173
-568.631	-200.000	0.039	-0.221
-567.617	-16.726	-0.164	-0.105
-566.602	-125.080	0.078	0.012
-565.588	-200.000	-0.011	0.241
-564.573	-143.689	-0.110	0.011
-563.558	-200.000	0.025	-0.118
-562.544	-43.953	0.238	-0.121
-561.529	214.742	0.182	0.293
-560.515	800.000	-0.103	0.347
-559.500	-13.973	0.018	0.012
-558.485	-200.000	0.015	-0.106
-557.471	8.070	-0.146	-0.111
-556.456	-142.081	-0.256	-0.026
-555.442	-200.000	0.049	0.315
-554.427	386.128	0.061	0.128
-553.412	-82.339	0.176	0.058
-552.398	138.667	-0.113	-0.150
-551.383	-53.046	0.164	-0.077
-550.369	-12.490	-0.179	0.119
-549.354	271.993	0.024	0.042
-548.339	-46.979	0.202	0.100
-547.325	25.032	0.189	-0.158
-546.310	-34.074	-0.106	0.059
-545.296	800.000	-0.121	-0.408
-544.281	120.542	0.111	0.139
-543.266	800.000	0.049	0.214
-542.252	221.503	-0.202	-0.329
-541.237	-92.262	-0.052	-0.015
-540.223	161.267	0.244	0.345
-539.208	-200.000	-0.008	0.078
-538.193	-143.969	0.438	-0.042
-537.179	-104.364	0.241	0.056
-536.164	800.000	0.042	0.181
-535.150	800.000	0.047	0.163
-534.135	8.354	0.041	0.031
-533.121	-98.921	0.331	0.085
-532.106	-77.282	0.351	0.124
-531.091	76.212	-0.301	0.322
-530.077	-200.000	-0.021	0.153
-529.062	-90.409	0.028	-0.008
-528.048	800.000	0.013	0.046
-527.033	-102.643	-0.326	-0.079
-526.018	34.946	-0.174	-0.154
-525.004	-200.000	-0.023	0.157
-523.989	29.854	-0.087	-0.075
-522.975	800.000	0.086	-0.263
-521.960	29.065	-0.119	0.102
-520.945	-188.177	-0.320	0.004
-519.931	642.874	0.145	-0.373
-518.916	-200.000	0.021	0.335
-517.902	800.000	0.064	0.261
-516.887	3.448	-0.263	0.194
-515.872	214.599	-0.106	-0.169
-514.858	-68.335	0.116	-0.046
-513.843	-200.000	0.020	0.118
-512.829	559.179	0.072	0.176
-511.814	-42.556	0.242	-0.124
-510.799	-134.923	-0.094	0.012
-509.785	783.717	0.060	0.166
-508.770	281.814	-0.067	0.122
-507.756	-89.527	0.117	-0.035
-506.741	-82.733	-0.081	-0.026
-505.726	136.813	0.058	0.076
-504.712	-30.012	-0.245	0.141
-503.697	-200.000	-0.056	-0.416
-502.683	-200.000	0.006	-0.135
-501.668	-29.971	-0.081	-0.047
-500.653	-101.962	0.283	0.069
-499.639	125.093	0.196	0.249
-498.624	-103.408	0.124	-0.030
-497.610	469.856	0.112	0.255
-496.595	800.000	0.048	-0.161
-495.581	310.410	-0.128	-0.242
-494.566	0.523	-0.144	-0.104
-493.551	-200.000	-0.058	0.570
-492.537	-39.599	-0.157	0.083
-491.522	-19.201	-0.179	0.113
-490.508	369.169	0.057	0.117
-489.493	309.842	-0.278	-0.525
-488.478	231.813	0.050	-0.083
-487.464	-67.457	-0.265	-0.105
-486.449	800.000	-0.055	-0.215
-485.435	36.328	0.168	-0.150
-484.420	-200.000	0.056	-0.322
-483.405	-46.825	0.210	0.103
-482.391	800.000	0.016	0.047
-481.376	-135.206	0.432	-0.052
-480.362	17.309	0.072	0.058
-479.347	-200.000	0.022	-0.444
-478.332	195.306	0.027	-0.041
-477.318	-64.069	-0.158	0.065
-476.303	-200.000	-0.011	0.185
-475.289	-200.000	0.083	-0.427
-474.274	-64.052	-0.275	-0.113
-473.259	116.387	-0.164	-0.203
-472.245	23.844	0.005	-0.004
-471.230	37.510	-0.115	0.103
-470.216	-200.000	-0.010	0.179
-469.201	310.592	0.109	-0.205
-468.186	-40.044	-0.305	-0.161
-467.172	-90.024	0.319	0.094
-466.157	-169.149	0.300	0.011
-465.143	-134.409	-0.462	-0.057
-464.128	168.417	0.009	-0.013
-463.113	22.728	0.209	-0.173
-462.099	-18.506	-0.113	-0.071
-461.084	-30.847	0.311	0.177
-460.070	66.888	-0.138	-0.142
-459.055	150.312	0.105	0.144
-458.040	-131.459	-0.122	0.016
-457.026	-165.393	0.074	0.003
-456.011	34.691	-0.219	-0.193
-454.997	-94.232	-0.152	-0.042
-453.982	-200.000	-0.007	0.192
-452.968	-145.656	0.266	0.024
-451.953	-200.000	0.006	-0.266
-450.938	-6.278	0.179	-0.123
-449.924	93.879	0.267	-0.305
-448.909	201.752	0.097	-0.151
-447.895	-200.000	0.042	0.256
-446.880	85.955	-0.051	0.056
-445.865	800.000	0.040	-0.133
-444.851	401.825	-0.067	-0.141
-443.836	96.179	0.053	-0.061
-442.822	-77.291	-0.167	-0.059
-441.807	-20.636	0.083	0.052
-440.792	749.791	-0.055	0.150
-439.778	800.000	0.078	0.271
-438.763	133.784	-0.043	0.056
-437.749	-87.800	0.129	-0.039
-436.734	-35.876	-0.200	0.109
-435.719	-93.195	0.229	-0.064
-434.705	94.608	0.284	-0.325
-433.690	-27.453	-0.219	-0.128
-432.676	-149.475	-0.132	-0.011
-431.661	-117.431	0.324	0.059
-430.646	648.851	0.134	0.346
-429.632	800.000	-0.095	0.366
-428.617	45.878	0.292	0.272
-427.603	-49.478	-0.178	-0.085
-426.588	-200.000	0.011	-0.234
-425.573	-200.000	-0.045	0.456
-424.559	178.887	0.071	-0.105
-423.544	-75.362	0.185	0.067
-422.530	564.804	0.161	-0.394
-421.515	189.149	0.149	-0.224
-420.500	-200.000	0.057	-0.363
-419.486	-135.131	0.289	0.035
-418.471	32.806	0.115	0.100
-417.457	-200.000	-0.042	-0.252
-416.442	-55.049	-0.275	0.125
-415.428	-90.088	-0.186	0.055
-414.413	501.273	-0.143	-0.331
-413.398	-200.000	-0.002	-0.109
-412.384	213.198	0.115	0.182
-411.369	-125.866	0.052	-0.008
-410.355	555.656	0.150	0.365
-409.340	190.164	0.066	-0.100
-408.325	-200.000	-0.015	0.469
-407.311	96.586	-0.107	0.123
-406.296	31.288	-0.199	-0.172
-405.282	-86.063	-0.322	-0.100
-404.267	-62.287	-0.161	0.067
-403.252	-63.964	-0.189	0.078
-402.238	-56.338	-0.226	-0.101
-401.223	-200.000	0.028	-0.225
-400.209	-111.491	-0.313	-0.064
-399.194	-84.824	-0.215	0.068
-398.179	0.752	0.052	0.037
-397.165	-59.386	0.324	-0.140
-396.150	-200.000	-0.001	0.091
-395.136	-57.394	-0.170	0.075
-394.121	488.758	-0.071	0.163
-393.106	78.413	0.185	-0.199
-392.092	6.307	-0.230	0.172
-391.077	-146.014	0.257	-0.023
-390.063	128.429	0.262	-0.336
-389.048	-96.007	0.359	0.096
-388.033	-200.000	0.030	-0.289
-387.019	-200.000	0.016	-0.122
-386.004	-71.854	-0.075	-0.028
-384.990	196.729	0.067	0.103
-383.975	-200.000	-0.046	-0.480
-382.960	800.000	-0.141	-0.429
-381.946	-33.307	0.084	-0.047
-380.931	-99.847	-0.111	0.028
-379.917	-29.829	0.155	0.089
-378.902	-200.000	-0.045	0.352
-377.888	-200.000	-0.068	0.319
-376.873	-132.967	-0.165	-0.021
-375.858	495.149	-0.124	-0.286
-374.844	-41.571	-0.217	-0.112
-373.829	-103.808	-0.238	0.056
-372.815	35.421	-0.259	-0.228
-371.800	7.298	-0.035	0.027
-370.785	-166.929	-0.061	0.002
-369.771	664.288	0.016	0.042
-368.756	275.814	0.075	-0.133
-367.742	261.587	0.166	0.289
-366.727	-200.000	-0.019	0.190
-365.712	138.258	-0.149	0.196
-364.698	33.441	0.088	-0.077
-363.683	800.000	0.049	0.192
-362.669	4.655	-0.243	0.179
-361.654	-25.637	0.247	-0.146
-360.639	-124.391	0.339	0.053
-359.625	86.341	0.100	-0.111
-358.610	-200.000	0.037	0.351
-357.596	-200.000	0.015	0.141
-356.581	-175.909	0.199	0.005
-355.566	430.756	0.056	0.122
-354.552	156.483	0.028	-0.039
-353.537	344.609	-0.052	-0.102
-352.523	-108.830	-0.146	-0.031
-351.508	408.878	0.082	-0.175
-350.493	-200.000	-0.010	0.469
-349.479	-146.840	0.332	0.029
-348.464	225.787	0.144	0.234
-347.450	452.921	-0.183	0.406
-346.435	-153.158	-0.312	-0.022
-345.420	29.036	0.167	-0.143
-344.406	-107.356	-0.123	0.027
-343.391	-151.067	-0.075	0.006
-342.377	800.000	0.098	-0.342
-341.362	-200.000	0.030	-0.182
-340.348	800.000	0.018	0.057
-339.333	330.349	0.088	0.171
-338.318	-200.000	0.009	0.081
-337.304	-71.135	0.114	-0.043
-336.289	553.713	-0.058	-0.140
-335.275	242.601	-0.107	0.179
-334.260	209.839	-0.136	0.214
-333.245	-22.773	0.188	-0.114
-332.231	-104.688	0.271	-0.063
-331.216	168.803	0.114	-0.163
-330.202	133.222	-0.327	-0.424
-329.187	167.835	0.026	0.037
-328.172	-55.734	-0.070	0.031
-327.158	-145.175	-0.222	0.020
-326.143	136.047	-0.211	-0.276
-325.129	-84.146	-0.371	-0.118
-324.114	308.328	0.159	-0.298
-323.099	27.881	-0.082	0.069
-322.085	128.138	0.254	0.324
-321.070	-64.075	0.274	-0.112
-320.056	-150.400	0.142	-0.011
-319.041	-200.000	-0.010	-0.068
-318.026	-62.228	0.276	0.115
-317.012	-42.809	0.210	0.107
-315.997	295.330	-0.023	-0.043
-314.983	800.000	0.081	0.250
-313.968	134.764	-0.093	-0.122
-312.953	175.466	-0.134	0.194
-311.939	473.810	-0.063	-0.141
-310.924	20.292	-0.107	-0.087
-309.910	75.288	0.039	-0.041
-308.895	358.190	-0.077	0.154
-307.880	232.697	-0.123	0.202
-306.866	270.108	-0.056	0.099
-305.851	-200.000	0.050	-0.278
-304.837	154.811	0.116	-0.159
-303.822	7.220	-0.267	-0.200
-302.807	-51.273	-0.380	0.178
-301.793	-119.626	0.207	0.036
-300.778	26.444	-0.139	-0.116
-299.764	25.701	0.083	-0.070
-298.749	-46.031	-0.094	-0.047
-297.735	-200.000	-0.020	-0.240
-296.720	255.471	-0.059	0.101
-295.705	-133.530	-0.264	0.033
-294.691	126.240	0.107	0.135
-293.676	64.931	0.185	0.188
-292.662	-109.613	-0.093	-0.020
-291.647	296.969	0.066	-0.122
-290.632	-53.508	0.447	0.205
-289.618	800.000	0.038	0.133
-288.603	84.383	0.216	0.237
-287.589	-102.811	0.519	0.124
-286.574	-145.305	0.213	0.019
-285.559	-200.000	0.035	0.413
-284.545	0.002	-0.155	0.111
-283.530	-21.539	0.146	0.089
-282.516	800.000	-0.052	-0.191
-281.501	20.278	0.215	-0.174
-280.486	-61.383	-0.202	-0.085
-279.472	-162.161	0.189	-0.010
-278.457	71.434	-0.095	-0.099
-277.443	-200.000	-0.006	-0.470
-276.428	196.631	-0.122	0.186
-275.413	233.875	0.058	0.095
-274.399	29.522	0.209	-0.178
-273.384	122.976	0.216	0.271
-272.370	309.788	-0.172	0.323
-271.355	-126.823	0.201	0.030
-270.340	672.117	0.131	0.341
-269.326	-117.181	-0.112	-0.020
-268.311	438.188	-0.082	0.178
-267.297	152.652	0.136	0.186
-266.282	155.814	0.137	0.189
-265.267	-200.000	0.002	-0.044
-264.253	-56.529	0.383	0.170
-263.238	218.684	-0.217	-0.347
-262.224	444.199	-0.167	-0.367
-261.209	173.126	-0.124	-0.179
-260.195	75.854	0.157	-0.166
-259.180	-200.000	-0.007	0.183
-258.165	-200.000	0.002	0.044
-257.151	-26.004	-0.144	0.085
-256.136	367.587	0.170	0.343
-255.122	49.220	0.075	-0.070
-254.107	586.445	0.085	0.210
-253.092	-106.796	0.116	0.026
-252.078	360.623	-0.082	-0.163
-251.063	25.815	-0.162	-0.135
-250.049	207.382	0.005	-0.008
-249.034	-23.422	-0.076	0.046
-248.019	54.266	-0.206	0.198
-247.005	-75.139	0.290	0.104
-245.990	-97.593	0.212	0.055
-244.976	689.447	0.041	0.107
-243.961	800.000	-0.079	-0.323
-242.946	-200.000	0.014	0.226
-241.932	212.616	0.053	0.084
-240.917	514.960	0.086	-0.200
-239.903	-167.289	0.173	0.007
-238.888	800.000	0.197	0.550
-237.873	227.965	-0.230	-0.374
-236.859	248.070	0.088	0.149
-235.844	168.559	-0.006	-0.009
-234.830	-200.000	-0.025	-0.109
-233.815	800.000	-0.135	-0.375
-232.800	264.743	0.093	0.162
-231.786	-39.795	-0.078	0.041
-230.771	222.637	-0.086	0.138
-229.757	-114.336	0.061	0.012
-228.742	-141.377	-0.143	-0.015
-227.727	199.308	-0.121	0.186
-226.713	-41.810	0.095	-0.049
-225.698	-39.198	0.335	0.176
-224.684	-128.103	-0.183	0.026
-223.669	800.000	-0.111	-0.404
-222.655	27.562	0.184	-0.155
-221.640	64.114	0.015	0.015
-220.625	-200.000	0.032	0.195
-219.611	178.636	-0.109	0.160
-218.596	-51.600	0.205	-0.096
-217.582	139.824	-0.035	0.046
-216.567	25.419	-0.128	0.106
-215.552	-79.007	0.204	0.069
-214.538	12.405	-0.118	-0.091
-213.523	150.474	-0.235	0.319
-212.509	800.000	0.034	-0.102
-211.494	800.000	0.061	-0.180
-210.479	-125.893	0.215	-0.032
-209.465	-109.100	0.372	0.079
-208.450	-150.691	0.273	-0.021
-207.436	-141.186	-0.240	-0.024
-206.421	147.801	-0.068	0.092
-205.406	-200.000	-0.022	-0.106
-204.392	6.595	-0.257	-0.190
-203.377	59.220	-0.049	-0.048
-202.363	800.000	-0.097	-0.387
-201.348	-2.077	0.171	-0.120
-200.333	-117.535	-0.067	-0.012
-199.319	-200.000	-0.076	0.459
-198.304	-174.841	0.454	-0.013
-197.290	-4.390	0.196	-0.135
-196.275	69.949	0.034	0.035
-195.260	-3.581	0.221	-0.154
-194.246	-138.701	-0.069	0.008
-193.231	-99.740	-0.162	-0.041
-192.217	10.196	0.055	-0.042
-191.202	-151.147	0.073	0.005
-190.187	-9.131	0.222	-0.148
-189.173	48.127	0.052	-0.049
-188.158	-8.763	0.213	0.142
-187.144	800.000	0.094	-0.273
-186.129	-1.001	0.132	0.093
-185.114	799.993	-0.110	-0.302
-184.100	307.793	0.070	0.129
-183.085	430.021	0.135	-0.292
-182.071	387.886	-0.110	-0.227
-181.056	57.150	-0.086	-0.083
-180.042	35.081	0.167	-0.146
-179.027	-106.839	0.076	0.017
-178.012	-200.000	0.012	0.389
-176.998	-165.043	0.304	0.013
-175.983	49.663	-0.169	-0.159
-174.969	267.326	-0.168	-0.293
-173.954	-8.182	0.063	0.043
-172.939	-86.259	-0.190	0.058
-171.925	-133.031	-0.152	-0.019
-170.910	221.065	0.259	0.414
-169.896	461.536	-0.091	-0.202
-168.881	136.772	-0.044	0.058
-167.866	-149.780	-0.220	-0.017
-166.852	800.000	-0.033	0.139
-165.837	800.000	0.062	-0.202
-164.823	29.240	-0.122	0.103
-163.808	800.000	0.078	0.301
-162.793	800.000	-0.136	0.582
-161.779	800.000	-0.073	0.237
-160.764	-200.000	0.008	-0.096
-159.750	-7.956	-0.116	-0.078
-158.735	-84.182	-0.271	0.086
-157.720	-165.420	-0.112	0.005
-156.706	-133.684	0.481	0.060
-155.691	-59.755	-0.351	0.150
-154.677	-44.776	0.068	-0.034
-153.662	165.647	0.173	0.244
-152.647	204.833	0.195	0.301
-151.633	-148.531	-0.233	0.019
-150.618	800.000	0.087	0.318
-149.604	800.000	-0.059	-0.257
-148.589	-200.000	0.027	0.178
-147.574	648.570	-0.084	-0.213
-146.560	-200.000	-0.031	-0.162
-145.545	779.817	-0.095	-0.258
-144.531	-4.855	0.385	0.264
-143.516	333.632	-0.213	0.410
-142.502	184.160	0.087	-0.128
-141.487	42.050	0.153	-0.138
-140.472	524.526	-0.105	0.246
-139.458	-11.999	-0.196	-0.128
-138.443	585.996	-0.058	-0.142
-137.429	-76.330	0.328	0.115
-136.414	800.000	-0.043	0.179
-135.399	160.017	0.022	0.031
-134.385	87.670	-0.068	0.075
-133.370	-99.744	-0.099	-0.025
-132.356	370.083	-0.111	-0.224
-131.341	238.605	0.084	0.139
-130.326	67.230	0.197	-0.200
-129.312	-200.000	0.016	0.266
-128.297	56.048	0.094	0.091
-127.283	-200.000	-0.041	0.264
-126.268	221.837	0.111	-0.177
-125.253	-180.125	0.149	-0.003
-124.239	282.714	0.017	-0.030
-123.224	-87.026	0.093	-0.028
-122.210	276.715	0.262	0.463
-121.195	-121.027	-0.169	-0.028
