DTS Sentinel unit serial number:	SN413079Multiplexer serial number:	ORYXHardware model number:	OX4-SRSoftware version number:	ORYX F/W v4.00 Oryx Data Collector v3.7.2.0data status	okinstallation	princeton_trtdifferential loss correction	single-endedforward channel	channel 4reverse channel	N/Adate	2019/09/14time	02:33:34forward acquisition time	60.00reverse acquisition time	0.00gamma	496.2192k internal	0.2323k external	0.2323temperature offset calibration	1.0130default loss term (dB/km)	0.3790temperature slope calibration	1.0000multiplexer offset coefficient	1.0000multiplexer slope coefficient	1.0000fibre end	0.00T internal ref (°C)	26.52T ext. ref 1 (°C)	3.22T ext. ref 2 (°C)	21.55length (m)	temperature (°C)	Stokes	anti-Stokes-747.200	4.302	-0.107	-0.079
-746.185	-100.395	0.108	-0.027
-745.171	157.144	0.183	-0.256
-744.156	102.966	-0.234	0.277
-743.142	-74.705	0.250	0.091
-742.127	-95.299	-0.388	-0.106
-741.112	-6.782	-0.213	-0.147
-740.098	143.117	0.068	0.091
-739.083	-134.747	0.281	0.035
-738.069	103.540	-0.152	0.180
-737.054	-0.073	0.133	-0.095
-736.039	-200.000	0.005	-0.021
-735.025	800.000	0.048	0.157
-734.010	97.890	-0.229	0.266
-732.996	-200.000	-0.036	0.270
-731.981	135.331	-0.204	-0.268
-730.966	-200.000	0.003	0.103
-729.952	800.000	0.028	0.117
-728.937	-200.000	0.000	-0.338
-727.923	-200.000	0.023	-0.343
-726.908	-14.437	0.112	-0.073
-725.894	-200.000	-0.007	0.104
-724.879	724.097	-0.040	-0.109
-723.864	-18.701	-0.067	-0.042
-722.850	465.071	0.169	-0.382
-721.835	-66.448	0.119	-0.048
-720.821	-156.446	0.170	-0.011
-719.806	-65.925	0.050	-0.020
-718.791	243.935	-0.153	-0.260
-717.777	-30.933	0.175	-0.099
-716.762	237.949	-0.065	-0.109
-715.748	231.277	-0.040	-0.067
-714.733	78.917	-0.065	0.070
-713.718	-59.390	-0.142	-0.062
-712.704	327.680	-0.053	-0.102
-711.689	-102.445	0.387	0.094
-710.675	94.287	-0.067	-0.077
-709.660	122.714	0.170	-0.215
-708.645	-78.248	0.321	-0.111
-707.631	-85.933	0.289	0.090
-706.616	83.184	-0.125	0.138
-705.602	762.348	0.004	-0.012
-704.587	139.323	0.226	-0.300
-703.572	-74.625	-0.310	-0.112
-702.558	81.762	0.189	0.206
-701.543	-144.299	0.485	-0.046
-700.529	-96.095	0.253	-0.068
-699.514	-107.618	-0.274	0.060
-698.499	126.048	-0.183	0.233
-697.485	128.611	-0.046	0.059
-696.470	-44.511	-0.180	-0.091
-695.456	-200.000	0.043	-0.301
-694.441	525.948	0.133	-0.315
-693.426	221.297	0.023	-0.037
-692.412	89.911	0.100	0.112
-691.397	-200.000	-0.007	-0.372
-690.383	-89.522	-0.209	-0.062
-689.368	800.000	0.056	-0.238
-688.354	60.153	-0.205	-0.205
-687.339	-25.952	0.206	-0.122
-686.324	238.725	-0.116	0.195
-685.310	-114.427	-0.276	0.053
-684.295	107.740	0.112	-0.134
-683.281	800.000	-0.011	-0.032
-682.266	-96.354	0.201	-0.054
-681.251	-200.000	-0.005	-0.239
-680.237	-83.260	0.240	0.078
-679.222	-142.890	-0.229	-0.022
-678.208	1.681	0.284	-0.206
-677.193	218.040	0.092	0.148
-676.178	82.733	-0.169	-0.185
-675.164	174.208	-0.232	-0.338
-674.149	-150.805	0.099	-0.008
-673.135	800.000	0.095	0.320
-672.120	34.142	-0.201	0.176
-671.105	-32.753	-0.042	0.024
-670.091	-200.000	0.026	0.146
-669.076	171.787	-0.084	-0.122
-668.062	-130.801	-0.401	-0.054
-667.047	-46.055	0.238	0.118
-666.032	-200.000	-0.005	-0.099
-665.018	66.681	-0.130	0.134
-664.003	-200.000	0.011	-0.221
-662.989	331.862	0.110	0.214
-661.974	800.000	-0.046	0.159
-660.959	-181.766	0.231	-0.004
-659.945	800.000	0.024	-0.078
-658.930	383.733	-0.099	-0.206
-657.916	800.000	0.048	0.194
-656.901	-81.740	-0.119	0.039
-655.886	161.129	-0.277	0.390
-654.872	397.920	-0.080	0.169
-653.857	300.354	-0.045	-0.084
-652.843	-103.098	-0.317	0.076
-651.828	-21.448	-0.222	-0.137
-650.814	-200.000	0.018	-0.188
-649.799	800.000	0.037	-0.128
-648.784	-200.000	-0.035	-0.231
-647.770	17.936	0.157	-0.126
-646.755	-55.438	0.288	-0.130
-645.741	98.946	0.131	0.152
-644.726	-200.000	0.014	0.187
-643.711	38.592	0.108	0.097
-642.697	349.059	-0.026	-0.051
-641.682	-200.000	-0.009	0.400
-640.668	-93.134	0.155	-0.043
-639.653	-8.569	-0.328	-0.222
-638.638	-191.391	-0.070	0.001
-637.624	23.633	-0.146	-0.121
-636.609	800.000	0.017	0.063
-635.595	-111.392	-0.236	0.048
-634.580	288.878	0.175	-0.318
-633.565	-136.798	0.188	-0.022
-632.551	-5.999	0.125	0.086
-631.536	800.000	0.145	-0.543
-630.522	-34.414	-0.128	0.070
-629.507	-157.697	-0.124	-0.007
-628.492	363.028	-0.130	0.262
-627.478	40.659	0.288	0.261
-626.463	237.939	0.033	-0.055
-625.449	-200.000	-0.024	0.233
-624.434	90.029	0.223	0.251
-623.419	-68.216	0.079	0.031
-622.405	67.424	-0.079	-0.081
-621.390	-200.000	0.020	-0.187
-620.376	-78.206	-0.196	0.068
-619.361	800.000	0.072	-0.210
-618.346	5.960	0.176	-0.131
-617.332	-71.099	0.306	0.116
-616.317	-118.308	-0.024	0.004
-615.303	-117.645	0.028	0.005
-614.288	-51.908	0.193	0.090
-613.273	82.953	-0.169	0.185
-612.259	133.582	-0.279	-0.362
-611.244	-200.000	-0.019	-0.140
-610.230	263.346	0.084	0.147
-609.215	-55.655	-0.021	0.009
-608.201	800.000	-0.076	-0.331
-607.186	-200.000	-0.013	0.149
-606.171	-67.979	-0.284	-0.111
-605.157	800.000	-0.072	-0.209
-604.142	5.466	-0.331	0.245
-603.128	230.518	-0.198	0.325
-602.113	122.493	0.242	0.304
-601.098	399.340	0.092	0.194
-600.084	-116.156	0.226	0.042
-599.069	40.130	-0.151	-0.136
-598.055	55.099	-0.093	0.090
-597.040	109.491	0.210	0.253
-596.025	-200.000	0.011	-0.115
-595.011	93.639	-0.094	-0.107
-593.996	196.233	-0.192	-0.294
-592.982	75.879	0.289	-0.307
-591.967	800.000	0.100	-0.393
-590.952	-83.107	-0.138	0.045
-589.938	-133.194	0.266	-0.034
-588.923	-185.263	-0.259	-0.004
-587.909	-92.493	0.162	0.046
-586.894	-47.368	0.223	-0.109
-585.879	240.366	-0.143	-0.240
-584.865	-108.371	0.328	0.071
-583.850	87.532	-0.043	0.048
-582.836	-129.817	0.366	0.051
-581.821	182.997	0.075	0.110
-580.806	-20.667	0.148	0.091
-579.792	101.696	0.100	-0.117
-578.777	800.000	0.079	-0.290
-577.763	-200.000	-0.026	0.117
-576.748	671.328	0.130	0.337
-575.733	-30.870	-0.243	-0.138
-574.719	-44.476	-0.196	-0.098
-573.704	213.955	0.067	-0.106
-572.690	17.941	0.250	0.200
-571.675	-200.000	-0.007	0.250
-570.661	-39.663	0.130	0.068
-569.646	800.000	0.102	0.339
-568.631	725.095	-0.106	-0.283
-567.617	-107.524	0.273	-0.060
-566.602	-93.395	-0.110	0.031
-565.588	-31.666	0.261	-0.147
-564.573	-200.000	0.011	-0.068
-563.558	-200.000	-0.051	0.518
-562.544	-54.135	-0.223	0.102
-561.529	2.959	-0.219	0.160
-560.515	345.138	-0.078	0.154
-559.500	144.311	-0.087	0.117
-558.485	737.958	-0.123	0.332
-557.471	-200.000	-0.011	0.075
-556.456	-200.000	0.031	-0.219
-555.442	-51.926	0.055	0.026
-554.427	-200.000	0.057	-0.368
-553.412	-95.764	0.442	0.118
-552.398	800.000	0.089	-0.277
-551.383	141.531	-0.167	-0.221
-550.369	68.005	-0.132	0.135
-549.354	-200.000	0.015	-0.120
-548.339	56.600	0.162	0.158
-547.325	493.876	-0.028	0.064
-546.310	-88.750	-0.100	-0.030
-545.296	3.813	0.168	0.123
-544.281	-80.440	-0.108	-0.036
-543.266	-45.242	0.206	-0.102
-542.252	-73.666	-0.096	-0.035
-541.237	78.436	0.242	0.259
-540.223	-124.188	-0.624	-0.098
-539.208	19.958	0.151	-0.122
-538.193	-56.193	-0.037	-0.016
-537.179	-126.155	-0.315	-0.047
-536.164	166.832	-0.044	-0.063
-535.150	-105.177	-0.137	-0.031
-534.135	-200.000	-0.052	0.252
-533.121	372.194	0.187	0.380
-532.106	-28.110	-0.150	0.087
-531.091	37.125	-0.133	0.118
-530.077	-200.000	0.028	-0.158
-529.062	-97.220	-0.314	0.082
-528.048	735.980	-0.046	-0.125
-527.033	384.794	0.057	0.117
-526.018	-51.906	-0.400	0.186
-525.004	-200.000	0.052	-0.327
-523.989	-135.881	0.045	-0.005
-522.975	-200.000	0.036	0.370
-521.960	456.885	-0.087	0.194
-520.945	-130.390	0.230	-0.031
-519.931	800.000	0.064	-0.200
-518.916	143.001	-0.149	0.198
-517.902	-200.000	0.019	0.304
-516.887	94.188	-0.133	0.151
-515.872	82.323	0.334	0.363
-514.858	60.400	0.137	-0.136
-513.843	37.850	-0.229	-0.204
-512.829	-71.139	0.305	-0.115
-511.814	-88.742	0.015	-0.004
-510.799	800.000	-0.101	-0.333
-509.785	800.000	0.079	-0.264
-508.770	636.199	-0.037	-0.095
-507.756	-86.140	-0.186	0.057
-506.741	-119.953	0.348	-0.060
-505.726	800.000	-0.020	-0.079
-504.712	334.514	-0.133	0.257
-503.697	459.137	-0.061	-0.136
-502.683	464.363	0.084	-0.187
-501.668	-61.770	-0.088	-0.037
-500.653	99.415	-0.267	0.309
-499.639	196.553	-0.040	-0.062
-498.624	247.526	0.163	-0.275
-497.610	-200.000	-0.032	0.257
-496.595	800.000	0.042	-0.124
-495.581	-96.736	0.058	-0.015
-494.566	-17.302	-0.212	-0.134
-493.551	48.075	0.289	-0.271
-492.537	-200.000	-0.065	0.449
-491.522	32.979	0.060	0.052
-490.508	-200.000	-0.021	-0.169
-489.493	-83.435	0.154	0.049
-488.478	-66.519	0.098	0.039
-487.464	173.281	-0.112	-0.161
-486.449	-200.000	0.006	-0.325
-485.435	96.039	-0.198	0.227
-484.420	-200.000	0.018	0.125
-483.405	-86.555	0.189	0.058
-482.391	41.212	0.121	-0.109
-481.376	-78.361	-0.173	0.059
-480.362	800.000	-0.012	0.036
-479.347	800.000	-0.045	0.165
-478.332	-113.382	0.314	-0.062
-477.318	159.030	-0.089	0.123
-476.303	800.000	0.088	-0.307
-475.289	-57.864	-0.253	-0.111
-474.274	17.798	-0.305	0.243
-473.259	-22.822	-0.161	-0.097
-472.245	183.012	-0.126	-0.186
-471.230	215.427	-0.064	-0.102
-470.216	-67.300	-0.168	0.066
-469.201	-133.366	0.480	-0.060
-468.186	-200.000	-0.035	-0.170
-467.172	800.000	0.084	0.265
-466.157	99.367	-0.309	-0.357
-465.143	-185.782	-0.068	0.001
-464.128	44.841	-0.293	-0.269
-463.113	-200.000	0.039	0.244
-462.099	379.270	-0.068	0.140
-461.084	39.762	-0.176	0.158
-460.070	-131.050	0.333	-0.044
-459.055	-200.000	-0.073	-0.568
-458.040	-70.283	-0.163	0.062
-457.026	18.130	-0.200	0.159
-456.011	86.089	0.162	-0.178
-454.997	118.397	0.119	0.147
-453.982	-111.251	0.137	-0.028
-452.968	-17.819	0.208	-0.130
-451.953	800.000	-0.104	-0.363
-450.938	334.004	-0.090	0.174
-449.924	68.613	-0.030	-0.030
-448.909	800.000	0.071	0.204
-447.895	143.919	-0.179	-0.238
-446.880	261.053	-0.083	-0.144
-445.865	-171.520	0.063	-0.002
-444.851	-96.177	-0.070	0.019
-443.836	-126.924	0.073	0.011
-442.822	800.000	-0.106	0.384
-441.807	-51.608	0.225	0.105
-440.792	-200.000	0.017	0.190
-439.778	423.754	0.057	0.123
-438.763	265.552	0.045	-0.078
-437.749	-200.000	-0.025	0.126
-436.734	-174.878	0.094	0.003
-435.719	151.996	0.180	0.245
-434.705	11.273	-0.190	0.145
-433.690	37.586	-0.151	0.134
-432.676	-200.000	-0.016	0.276
-431.661	-6.187	0.154	0.105
-430.646	-200.000	-0.420	0.000
-429.632	-200.000	-0.022	0.222
-428.617	-33.337	0.271	-0.150
-427.603	-164.209	-0.020	-0.001
-426.588	141.940	-0.204	0.270
-425.573	-34.274	0.437	0.239
-424.559	-44.570	-0.441	0.220
-423.544	-200.000	-0.042	-0.426
-422.530	34.698	0.288	0.251
-421.515	137.876	-0.054	-0.070
-420.500	-72.535	0.148	0.054
-419.486	-80.135	0.414	-0.138
-418.471	-39.726	-0.429	-0.224
-417.457	26.740	-0.145	0.121
-416.442	71.956	0.171	-0.177
-415.428	102.229	0.095	0.110
-414.413	-200.000	-0.018	0.094
-413.398	800.000	0.073	0.249
-412.384	-106.411	-0.153	-0.034
-411.369	47.015	0.159	0.147
-410.355	54.399	-0.221	0.212
-409.340	-101.392	0.134	0.033
-408.325	89.001	0.290	0.322
-407.311	96.119	-0.057	-0.065
-406.296	279.543	-0.196	-0.348
-405.282	233.886	0.081	-0.134
-404.267	800.000	0.107	-0.411
-403.252	-99.929	-0.022	-0.006
-402.238	-119.349	0.401	-0.070
-401.223	347.575	0.053	-0.104
-400.209	106.809	-0.171	-0.202
-399.194	-44.106	0.245	0.122
-398.179	133.561	-0.228	-0.294
-397.165	800.000	-0.026	0.102
-396.150	-72.099	0.195	-0.072
-395.136	503.598	0.040	-0.092
-394.121	800.000	0.020	-0.056
-393.106	-121.792	-0.394	0.065
-392.092	-94.476	0.362	0.098
-391.077	35.526	0.111	-0.097
-390.063	142.216	-0.088	-0.116
-389.048	-53.628	0.149	0.068
-388.033	-85.277	-0.381	-0.118
-387.019	541.460	0.092	-0.219
-386.004	486.747	-0.097	-0.221
-384.990	-28.436	0.093	0.053
-383.975	39.581	-0.166	0.148
-382.960	-200.000	0.025	0.370
-381.946	61.255	0.156	0.154
-380.931	-139.930	-0.246	0.026
-379.917	418.797	-0.032	0.068
-378.902	-95.819	0.234	0.062
-377.888	800.000	-0.066	0.190
-376.873	-4.288	-0.153	-0.105
-375.858	-13.441	0.167	0.108
-374.844	-33.892	-0.120	-0.066
-373.829	-170.441	-0.099	-0.003
-372.815	-87.006	-0.402	-0.122
-371.800	-29.833	0.069	0.039
-370.785	-123.996	0.365	-0.057
-369.771	-200.000	0.003	0.092
-368.756	800.000	0.027	0.108
-367.742	-200.000	-0.013	-0.133
-366.727	0.228	0.273	-0.194
-365.712	248.262	-0.033	-0.055
-364.698	47.869	-0.224	0.208
-363.683	722.256	0.047	0.124
-362.669	372.389	0.061	-0.124
-361.654	126.327	-0.121	-0.153
-360.639	-120.100	0.169	0.029
-359.625	-105.514	0.174	0.039
-358.610	119.847	-0.031	-0.038
-357.596	-13.942	-0.234	0.150
-356.581	454.231	0.105	-0.232
-355.566	110.376	-0.192	-0.230
-354.552	-13.036	0.090	-0.058
-353.537	-200.000	0.000	-0.239
-352.523	32.956	-0.027	0.024
-351.508	409.861	0.167	0.351
-350.493	-58.972	0.036	0.015
-349.479	-60.767	-0.250	-0.105
-348.464	-54.213	0.168	-0.076
-347.450	642.980	0.121	-0.307
-346.435	800.000	-0.015	-0.059
-345.420	235.462	-0.051	-0.083
-344.406	-200.000	0.012	0.319
-343.391	40.323	-0.107	-0.096
-342.377	-200.000	-0.021	-0.113
-341.362	-65.038	0.119	-0.048
-340.348	-200.000	-0.007	-0.038
-339.333	-2.086	-0.113	0.079
-338.318	-50.120	-0.146	0.069
-337.304	-158.694	-0.252	0.014
-336.289	103.615	0.111	-0.130
-335.275	-200.000	0.041	-0.353
-334.260	154.044	-0.148	-0.201
-333.245	-83.607	0.096	0.031
-332.231	-144.395	0.302	-0.028
-331.216	3.834	-0.237	0.172
-330.202	145.279	0.065	-0.086
-329.187	446.280	-0.156	-0.340
-328.172	800.000	-0.091	-0.312
-327.158	-88.446	0.435	-0.129
-326.143	-170.978	-0.240	0.008
-325.129	-200.000	-0.021	0.218
-324.114	-200.000	0.010	-0.156
-323.099	-3.870	-0.083	-0.057
-322.085	-87.973	-0.085	-0.025
-321.070	-91.428	0.244	-0.069
-320.056	406.115	0.064	0.134
-319.041	-200.000	0.033	0.342
-318.026	-122.248	-0.229	0.037
-317.012	535.948	0.095	0.225
-315.997	-141.022	-0.037	-0.004
-314.983	-200.000	-0.013	0.301
-313.968	270.356	-0.127	0.221
-312.953	27.778	-0.098	0.082
-311.939	-200.000	-0.011	-0.050
-310.924	-200.000	0.047	-0.238
-309.910	41.547	-0.199	-0.178
-308.895	202.711	0.141	0.216
-307.880	105.012	0.159	0.187
-306.866	-200.000	0.047	-0.229
-305.851	235.435	0.097	-0.159
-304.837	36.938	0.206	-0.181
-303.822	-200.000	-0.017	-0.180
-302.807	-39.159	0.214	0.111
-301.793	-80.565	-0.375	0.124
-300.778	-200.000	0.050	-0.288
-299.764	-72.847	-0.100	-0.036
-298.749	-90.610	-0.253	-0.073
-297.735	323.358	0.138	0.261
-296.720	158.576	-0.165	0.227
-295.705	94.339	-0.279	0.315
-294.691	-9.537	0.046	0.030
-293.676	-51.250	0.283	0.132
-292.662	76.491	-0.248	0.261
-291.647	337.836	0.145	0.280
-290.632	800.000	-0.042	0.129
-289.618	346.795	0.054	-0.105
-288.603	-30.037	-0.091	0.052
-287.589	-71.198	0.069	0.026
-286.574	550.764	0.061	0.145
-285.559	176.475	-0.103	-0.148
-284.545	-200.000	0.044	-0.264
-283.530	207.276	-0.253	-0.391
-282.516	225.266	0.135	0.218
-281.501	-140.529	-0.029	0.003
-280.486	-90.386	0.033	0.009
-279.472	-79.232	-0.119	-0.040
-278.457	-126.648	0.167	0.025
-277.443	-54.216	0.108	0.049
-276.428	-96.049	0.233	0.061
-275.413	-200.000	0.001	-0.089
-274.399	38.650	0.050	-0.044
-273.384	-106.830	-0.294	0.065
-272.370	800.000	0.145	-0.419
-271.355	434.432	-0.108	-0.232
-270.340	-96.589	0.092	0.024
-269.326	-32.979	-0.252	0.139
-268.311	800.000	0.053	0.161
-267.297	770.852	-0.068	-0.184
-266.282	-64.243	0.079	0.032
-265.267	-3.072	-0.187	0.130
-264.253	265.889	-0.186	-0.322
-263.238	189.708	-0.274	0.408
-262.224	100.609	-0.102	0.117
-261.209	-103.549	0.009	0.002
-260.195	-5.507	-0.285	-0.194
-259.180	-120.502	0.207	0.035
-258.165	404.882	0.060	0.125
-257.151	27.542	0.118	-0.098
-256.136	720.501	-0.062	0.164
-255.122	-138.479	-0.140	0.015
-254.107	201.657	0.115	-0.175
-253.092	595.702	0.090	-0.222
-252.078	40.479	0.251	0.224
-251.063	641.624	0.145	-0.365
-250.049	3.502	0.479	-0.346
-249.034	-12.464	-0.161	0.104
-248.019	-31.657	0.131	-0.073
-247.005	19.758	-0.130	-0.103
-245.990	-200.000	-0.006	0.066
-244.976	160.904	0.084	-0.117
-243.961	58.705	-0.160	0.155
-242.946	76.218	-0.392	0.411
-241.932	-200.000	0.040	0.215
-240.917	-200.000	-0.015	0.181
-239.903	140.401	0.198	-0.259
-238.888	-56.958	-0.322	0.141
-237.873	511.413	0.107	-0.248
-236.859	-19.859	-0.076	-0.046
-235.844	2.398	-0.176	-0.126
-234.830	-15.512	-0.189	-0.120
-233.815	-200.000	0.014	0.187
-232.800	288.071	-0.135	-0.242
-231.786	-77.300	-0.209	-0.072
-230.771	229.480	-0.130	0.211
-229.757	-123.840	-0.191	-0.030
-228.742	567.417	0.095	0.228
-227.727	-51.748	0.116	-0.053
-226.713	-114.855	-0.171	0.032
-225.698	140.883	-0.261	-0.341
-224.684	-11.003	-0.096	-0.063
-223.669	211.376	0.041	0.064
-222.655	-104.558	0.293	-0.067
-221.640	-200.000	0.037	0.202
-220.625	285.009	0.203	0.361
-219.611	135.887	-0.045	0.058
-218.596	181.831	-0.082	-0.119
-217.582	-200.000	0.029	-0.201
-216.567	-107.666	0.327	-0.071
-215.552	-106.717	0.103	-0.023
-214.538	-92.893	0.299	0.083
-213.523	-30.283	-0.131	-0.074
-212.509	13.147	-0.114	0.088
-211.494	-18.971	0.063	0.039
-210.479	-120.502	-0.306	-0.051
-209.465	380.397	0.198	0.402
-208.450	70.588	-0.093	0.095
-207.436	-65.266	0.150	0.060
-206.421	78.843	-0.114	-0.121
-205.406	-200.000	0.072	-0.332
-204.392	-200.000	-0.008	0.073
-203.377	138.980	0.184	-0.239
-202.363	57.214	-0.136	-0.131
-201.348	-84.493	-0.441	-0.138
-200.333	90.616	-0.089	0.099
-199.319	-144.176	0.254	-0.023
-198.304	13.853	0.217	0.167
-197.290	407.080	0.040	-0.085
-196.275	342.003	0.025	-0.048
-195.260	326.236	-0.130	0.247
-194.246	-200.000	-0.002	0.054
-193.231	5.663	0.064	0.047
-192.217	-108.910	-0.171	0.036
-191.202	0.107	-0.267	0.188
-190.187	-173.650	0.190	0.006
-189.173	581.609	-0.040	-0.096
-188.158	-194.964	-0.446	0.003
-187.144	-20.330	0.170	0.103
-186.129	800.000	-0.086	-0.249
-185.114	-23.818	0.207	0.123
-184.100	-169.412	-0.263	-0.010
-183.085	-62.513	-0.291	0.119
-182.071	83.867	-0.194	0.209
-181.056	-113.370	-0.051	-0.010
-180.042	800.000	0.065	-0.223
-179.027	679.616	-0.094	0.241
-178.012	-148.811	0.144	0.012
-176.998	-200.000	-0.021	-0.197
-175.983	130.662	0.051	0.065
-174.969	10.781	0.120	0.090
-173.954	189.288	0.198	0.293
-172.939	-83.897	0.365	0.115
-171.925	-63.327	-0.144	-0.059
-170.910	800.000	0.057	0.235
-169.896	-200.000	-0.010	0.363
-168.881	-200.000	0.002	-0.389
-167.866	-46.097	0.219	0.107
-166.852	796.509	0.086	-0.235
-165.837	48.934	-0.189	-0.175
-164.823	-200.000	-0.035	-0.461
-163.808	-166.591	0.191	0.008
-162.793	-127.481	0.326	0.047
-161.779	-101.555	0.329	-0.079
-160.764	-46.741	0.245	0.119
-159.750	46.265	-0.059	-0.054
-158.735	118.869	0.106	-0.129
-157.720	12.020	-0.099	0.075
-156.706	-159.344	-0.207	-0.011
-155.691	800.000	0.093	-0.274
-154.677	-70.213	-0.296	-0.111
-153.662	-200.000	-0.023	-0.215
-152.647	-28.819	0.264	0.150
-151.633	-200.000	0.078	0.370
-150.618	74.841	-0.126	-0.131
-149.604	207.013	0.306	0.471
-148.589	-31.825	0.173	0.095
-147.574	-200.000	0.016	-0.071
-146.560	800.000	-0.059	0.182
-145.545	-150.767	0.134	0.010
-144.531	-185.469	0.028	0.000
-143.516	135.897	-0.140	0.180
-142.502	-46.235	0.047	0.023
-141.487	800.000	-0.093	0.276
-140.472	436.503	0.067	-0.145
-139.458	-108.712	-0.183	-0.039
-138.443	350.800	-0.139	-0.272
-137.429	-103.892	0.123	0.028
-136.414	-200.000	0.023	-0.271
-135.399	22.971	-0.133	0.108
-134.385	193.354	0.156	-0.233
-133.370	-109.738	0.462	0.096
-132.356	-118.585	-0.159	0.028
-131.341	-118.136	0.129	-0.023
-130.326	800.000	-0.040	-0.156
-129.312	-189.124	-0.237	0.003
-128.297	33.817	0.159	-0.137
-127.283	-33.715	0.115	-0.062
-126.268	0.327	-0.075	0.053
-125.253	357.195	-0.120	-0.236
-124.239	-31.084	0.461	0.256
-123.224	215.544	-0.044	0.069
-122.210	-8.561	0.125	-0.082
-121.195	190.721	0.084	-0.125
