DTS Sentinel unit serial number:	SN413079Multiplexer serial number:	ORYXHardware model number:	OX4-SRSoftware version number:	ORYX F/W v4.00 Oryx Data Collector v3.7.2.0data status	okinstallation	princeton_trtdifferential loss correction	single-endedforward channel	channel 4reverse channel	N/Adate	2019/09/17time	02:17:34forward acquisition time	60.00reverse acquisition time	0.00gamma	496.2192k internal	0.2312k external	0.2312temperature offset calibration	0.9976default loss term (dB/km)	0.3790temperature slope calibration	1.0000multiplexer offset coefficient	1.0000multiplexer slope coefficient	1.0000fibre end	0.00T internal ref (°C)	29.75T ext. ref 1 (°C)	0.12T ext. ref 2 (°C)	24.69length (m)	temperature (°C)	Stokes	anti-Stokes-747.200	800.000	0.095	0.386
-746.185	110.757	0.187	0.228
-745.171	-200.000	0.078	0.390
-744.156	141.958	0.137	0.184
-743.142	103.942	-0.283	0.338
-742.127	-200.000	-0.070	0.455
-741.112	-200.000	-0.009	-0.041
-740.098	24.302	-0.290	-0.243
-739.083	-15.092	0.382	0.248
-738.069	-200.000	-0.024	0.196
-737.054	139.592	-0.322	-0.430
-736.039	-123.380	-0.290	0.047
-735.025	165.113	-0.235	0.337
-734.010	324.837	0.101	-0.197
-732.996	196.721	-0.119	-0.183
-731.981	-125.445	0.433	0.067
-730.966	-111.149	0.104	0.022
-729.952	-144.715	-0.154	0.014
-728.937	184.437	-0.167	-0.252
-727.923	-200.000	-0.013	-0.101
-726.908	482.904	0.128	-0.296
-725.894	16.389	-0.185	-0.148
-724.879	712.160	0.058	-0.156
-723.864	-200.000	0.012	0.170
-722.850	-61.007	0.159	-0.068
-721.835	800.000	-0.079	-0.220
-720.821	20.433	0.178	0.146
-719.806	-10.478	-0.159	-0.107
-718.791	128.677	-0.148	-0.192
-717.777	33.629	-0.071	0.062
-716.762	130.464	0.109	-0.141
-715.748	-140.479	0.233	-0.025
-714.733	142.838	0.050	-0.068
-713.718	-200.000	0.051	0.261
-712.704	-180.851	0.232	0.005
-711.689	-107.856	0.157	0.035
-710.675	161.649	0.136	0.193
-709.660	-200.000	0.019	-0.214
-708.645	228.821	-0.119	-0.197
-707.631	334.633	-0.078	-0.154
-706.616	-59.841	0.397	-0.172
-705.602	-200.000	-0.007	0.378
-704.587	-110.652	0.185	0.039
-703.572	-200.000	0.011	-0.351
-702.558	-41.121	0.061	0.032
-701.543	210.126	0.098	0.156
-700.529	297.275	-0.067	-0.124
-699.514	657.060	-0.140	0.365
-698.499	605.009	-0.177	-0.446
-697.485	-200.000	-0.032	-0.366
-696.470	128.532	-0.177	-0.228
-695.456	-112.502	-0.188	0.038
-694.441	128.486	0.181	-0.233
-693.426	-4.044	-0.051	0.036
-692.412	719.855	-0.069	-0.185
-691.397	291.378	0.122	-0.225
-690.383	800.000	0.061	-0.225
-689.368	521.685	-0.073	-0.173
-688.354	-200.000	-0.002	0.025
-687.339	41.607	-0.210	-0.193
-686.324	-3.661	0.072	0.050
-685.310	676.374	-0.098	0.257
-684.295	-130.542	-0.097	-0.013
-683.281	294.130	-0.105	-0.195
-682.266	30.552	-0.285	-0.247
-681.251	-109.996	0.381	0.081
-680.237	393.514	-0.015	-0.031
-679.222	-123.911	0.113	0.018
-678.208	670.461	0.153	-0.401
-677.193	-36.038	-0.105	0.057
-676.178	219.405	-0.124	-0.201
-675.164	-144.580	-0.233	0.022
-674.149	-15.814	0.258	-0.167
-673.135	-130.642	-0.215	-0.029
-672.120	-47.888	-0.071	-0.035
-671.105	-200.000	0.038	-0.218
-670.091	440.020	-0.045	-0.099
-669.076	-60.155	0.283	-0.122
-668.062	-42.191	-0.267	0.138
-667.047	800.000	0.087	-0.351
-666.032	-25.980	-0.330	-0.196
-665.018	663.083	0.103	-0.269
-664.003	-82.444	-0.153	-0.050
-662.989	10.409	0.383	-0.295
-661.974	-73.547	0.171	0.063
-660.959	70.630	0.083	-0.086
-659.945	-96.541	0.185	-0.049
-658.930	-103.211	-0.297	-0.071
-657.916	-127.149	-0.147	0.022
-656.901	800.000	0.056	-0.217
-655.886	-69.606	0.272	-0.105
-654.872	35.148	-0.303	0.268
-653.857	800.000	-0.044	-0.192
-652.843	-200.000	-0.011	-0.098
-651.828	-101.473	0.227	0.056
-650.814	195.872	0.192	0.295
-649.799	-92.075	-0.356	-0.102
-648.784	710.131	0.091	0.243
-647.770	311.890	0.209	0.396
-646.755	281.709	-0.077	-0.139
-645.741	-86.936	0.069	0.021
-644.726	108.701	-0.174	-0.210
-643.711	-200.000	-0.058	-0.423
-642.697	-115.425	-0.373	0.071
-641.682	-73.989	-0.080	-0.029
-640.668	96.117	-0.212	-0.245
-639.653	299.050	0.134	0.250
-638.638	-75.349	-0.103	0.037
-637.624	-200.000	-0.082	-0.437
-636.609	59.535	-0.346	0.344
-635.595	405.717	-0.116	0.248
-634.580	-100.910	0.164	0.041
-633.565	-200.000	-0.029	0.185
-632.551	-200.000	0.027	0.158
-631.536	293.352	-0.098	-0.180
-630.522	800.000	0.054	0.219
-629.507	40.166	0.154	0.140
-628.492	-122.926	-0.390	0.063
-627.478	154.412	-0.076	0.106
-626.463	150.618	-0.090	-0.124
-625.449	-80.274	0.144	0.049
-624.434	128.928	0.106	0.137
-623.419	-88.649	0.280	-0.084
-622.405	800.000	-0.041	0.130
-621.390	235.239	-0.151	0.251
-620.376	8.313	0.188	0.142
-619.361	-200.000	0.036	-0.000
-618.346	800.000	-0.043	-0.180
-617.332	9.401	-0.044	0.034
-616.317	-46.085	-0.286	-0.142
-615.303	11.250	-0.104	0.080
-614.288	149.408	-0.144	-0.197
-613.273	187.268	-0.164	-0.246
-612.259	-134.318	0.062	0.008
-611.244	-200.000	-0.025	-0.259
-610.230	800.000	-0.047	0.205
-609.215	-60.733	-0.179	-0.077
-608.201	49.668	0.121	-0.115
-607.186	136.985	0.058	-0.076
-606.171	-1.887	-0.149	-0.106
-605.157	-93.145	-0.307	0.086
-604.142	-200.000	-0.027	0.215
-603.128	-200.000	-0.356	0.001
-602.113	-33.849	-0.167	0.093
-601.098	75.640	-0.075	-0.080
-600.084	800.000	0.011	0.033
-599.069	-200.000	0.016	-0.100
-598.055	-29.124	-0.086	0.050
-597.040	42.151	-0.159	-0.145
-596.025	-103.385	-0.371	-0.088
-595.011	-200.000	0.023	-0.121
-593.996	492.463	0.075	-0.173
-592.982	-30.969	-0.046	-0.026
-591.967	544.697	-0.060	-0.145
-590.952	9.601	-0.104	0.079
-589.938	-200.000	0.063	0.290
-588.923	-28.916	0.372	0.215
-587.909	-96.919	0.178	-0.047
-586.894	-200.000	0.034	0.465
-585.879	-200.000	-0.023	0.166
-584.865	280.374	-0.136	-0.245
-583.850	137.206	-0.186	-0.245
-582.836	141.001	-0.131	-0.174
-581.821	-200.000	0.017	-0.146
-580.806	-132.870	0.083	-0.011
-579.792	-42.066	0.080	0.041
-578.777	-3.342	-0.083	-0.058
-577.763	698.386	0.103	-0.273
-576.748	-71.794	-0.189	0.071
-575.733	13.306	0.055	-0.043
-574.719	800.000	-0.087	0.318
-573.704	480.939	0.067	0.152
-572.690	67.939	0.205	0.211
-571.675	67.121	0.189	-0.194
-570.661	302.181	-0.172	0.321
-569.646	617.290	-0.017	0.043
-568.631	-55.140	-0.471	0.214
-567.617	-164.206	-0.387	0.018
-566.602	-39.225	0.184	0.098
-565.588	399.715	0.056	0.117
-564.573	-200.000	-0.020	-0.142
-563.558	-200.000	0.001	0.269
-562.544	-200.000	-0.025	0.197
-561.529	-70.037	0.111	0.043
-560.515	-139.932	-0.059	0.006
-559.500	-45.736	0.118	-0.059
-558.485	-162.584	0.328	-0.016
-557.471	68.647	-0.320	0.331
-556.456	147.167	0.278	0.376
-555.442	-35.591	0.254	0.139
-554.427	-130.419	0.178	-0.024
-553.412	-200.000	-0.001	-0.267
-552.398	88.794	-0.069	-0.078
-551.383	-200.000	0.088	-0.409
-550.369	-200.000	0.004	-0.159
-549.354	-47.132	0.144	-0.071
-548.339	-200.000	0.021	-0.163
-547.325	-200.000	-0.007	-0.184
-546.310	40.210	-0.119	-0.107
-545.296	-100.012	0.150	-0.038
-544.281	-167.807	-0.314	0.012
-543.266	-84.596	0.195	0.062
-542.252	-53.284	0.146	-0.068
-541.237	117.071	0.244	0.302
-540.223	37.408	-0.016	0.014
-539.208	-42.001	0.181	-0.094
-538.193	-200.000	0.029	-0.249
-537.179	-23.437	0.230	0.139
-536.164	-123.592	-0.039	0.006
-535.150	174.561	0.129	-0.188
-534.135	800.000	0.020	-0.086
-533.121	-152.143	0.097	-0.007
-532.106	800.000	-0.072	0.208
-531.091	49.864	-0.281	-0.266
-530.077	85.125	-0.151	-0.166
-529.062	330.808	-0.125	0.242
-528.048	-70.848	-0.415	0.158
-527.033	698.479	-0.119	-0.315
-526.018	670.791	-0.081	-0.212
-525.004	340.404	0.089	0.175
-523.989	93.662	0.089	-0.101
-522.975	0.975	0.117	-0.084
-521.960	-96.540	0.394	-0.105
-520.945	-200.000	-0.015	0.134
-519.931	-115.381	0.234	-0.044
-518.916	800.000	0.044	0.140
-517.902	-185.405	0.095	-0.001
-516.887	-46.191	0.189	0.094
-515.872	-107.736	-0.024	-0.005
-514.858	-200.000	-0.033	0.231
-513.843	-135.634	-0.242	-0.029
-512.829	-14.787	-0.309	-0.199
-511.814	136.450	-0.174	-0.228
-510.799	44.228	0.119	0.109
-509.785	-200.000	-0.053	-0.405
-508.770	-200.000	0.029	-0.309
-507.756	342.484	0.131	0.257
-506.741	-193.167	0.182	-0.002
-505.726	298.176	-0.147	-0.271
-504.712	-34.749	0.305	-0.168
-503.697	-200.000	0.047	-0.253
-502.683	-200.000	0.038	-0.389
-501.668	5.583	-0.164	0.122
-500.653	-154.378	-0.230	-0.016
-499.639	83.377	0.085	-0.093
-498.624	-67.783	0.109	-0.043
-497.610	800.000	-0.055	-0.200
-496.595	-37.832	-0.071	-0.038
-495.581	-200.000	0.017	-0.217
-494.566	-200.000	-0.027	0.122
-493.551	800.000	-0.064	-0.251
-492.537	-118.943	-0.267	0.047
-491.522	-25.524	0.008	0.005
-490.508	101.290	0.244	-0.286
-489.493	218.420	0.030	-0.047
-488.478	-200.000	0.046	0.290
-487.464	4.704	0.159	0.117
-486.449	-200.000	0.001	-0.115
-485.435	-21.095	-0.126	-0.077
-484.420	800.000	0.071	-0.268
-483.405	324.226	0.124	-0.238
-482.391	500.339	0.082	0.190
-481.376	-118.788	0.296	-0.052
-480.362	694.536	-0.079	0.209
-479.347	-148.892	-0.022	-0.002
-478.332	260.743	-0.048	0.084
-477.318	10.823	0.337	0.258
-476.303	800.000	-0.033	0.124
-475.289	800.000	0.014	-0.052
-474.274	-13.772	-0.062	0.040
-473.259	-36.718	0.292	0.157
-472.245	-129.273	-0.391	-0.055
-471.230	-200.000	0.003	-0.144
-470.216	158.404	-0.201	-0.280
-469.201	800.000	-0.032	-0.091
-468.186	125.669	-0.181	0.229
-467.172	-200.000	-0.014	-0.079
-466.157	41.401	0.258	0.234
-465.143	-14.809	-0.190	-0.123
-464.128	800.000	-0.033	0.094
-463.113	-75.448	-0.207	0.074
-462.099	-112.173	0.252	0.051
-461.084	-200.000	0.015	0.101
-460.070	-200.000	-0.051	0.283
-459.055	-19.343	-0.146	0.091
-458.040	-56.393	0.283	0.126
-457.026	-200.000	-0.037	-0.320
-456.011	317.241	0.022	-0.042
-454.997	29.737	0.208	-0.178
-453.982	-200.000	0.070	-0.334
-452.968	-12.760	-0.159	0.104
-451.953	594.227	-0.041	-0.101
-450.938	-0.354	-0.170	-0.121
-449.924	152.688	-0.112	0.154
-448.909	-44.937	0.303	-0.151
-447.895	217.450	-0.117	0.187
-446.880	-200.000	0.054	0.255
-445.865	-200.000	0.035	0.170
-444.851	-200.000	-0.026	0.119
-443.836	268.898	-0.181	-0.319
-442.822	103.616	-0.088	0.104
-441.807	-184.963	-0.280	-0.004
-440.792	88.024	0.102	-0.114
-439.778	607.131	0.165	-0.413
-438.763	-86.963	0.236	-0.072
-437.749	102.489	-0.035	-0.041
-436.734	-41.434	-0.038	-0.020
-435.719	186.973	-0.221	-0.330
-434.705	11.543	0.378	-0.291
-433.690	-200.000	-0.010	0.067
-432.676	166.301	-0.018	-0.026
-431.661	398.577	-0.194	-0.406
-430.646	-28.206	0.349	-0.202
-429.632	412.077	0.090	-0.191
-428.617	-50.913	-0.251	-0.118
-427.603	355.535	-0.123	0.245
-426.588	65.472	-0.336	-0.341
-425.573	-22.215	-0.179	-0.109
-424.559	187.814	-0.258	-0.387
-423.544	329.645	-0.049	-0.094
-422.530	-200.000	0.050	0.264
-421.515	299.897	-0.217	-0.400
-420.500	47.169	-0.274	-0.256
-419.486	159.798	0.052	0.072
-418.471	-54.734	0.204	0.092
-417.457	43.439	0.304	0.278
-416.442	29.626	-0.041	-0.035
-415.428	36.078	-0.074	-0.065
-414.413	668.669	-0.135	-0.349
-413.398	-57.144	0.396	0.175
-412.384	-200.000	-0.001	-0.212
-411.369	-92.209	0.249	-0.070
-410.355	-200.000	0.001	-0.034
-409.340	613.379	0.035	-0.088
-408.325	283.758	-0.231	-0.417
-407.311	-12.938	0.082	0.054
-406.296	800.000	0.046	-0.139
-405.282	505.395	0.018	-0.041
-404.267	-168.168	-0.092	0.004
-403.252	800.000	-0.057	-0.245
-402.238	-78.985	0.226	-0.077
-401.223	177.099	-0.086	-0.126
-400.209	-113.641	0.098	-0.019
-399.194	-19.147	-0.205	-0.127
-398.179	-62.912	0.251	0.104
-397.165	-200.000	-0.004	-0.175
-396.150	417.997	-0.084	0.180
-395.136	-65.518	0.146	0.059
-394.121	30.285	0.083	0.071
-393.106	224.327	-0.089	0.145
-392.092	533.553	-0.082	0.193
-391.077	29.337	0.182	0.155
-390.063	336.962	-0.141	-0.275
-389.048	-200.000	-0.003	-0.034
-388.033	-29.864	-0.289	0.165
-387.019	-10.172	0.310	-0.206
-386.004	-200.000	-0.040	0.224
-384.990	-200.000	0.029	-0.169
-383.975	-189.290	0.265	0.003
-382.960	-12.253	-0.186	0.122
-381.946	90.908	0.054	0.061
-380.931	-131.805	-0.230	0.030
-379.917	-36.997	-0.408	-0.218
-378.902	197.406	0.029	-0.045
-377.888	602.533	0.111	0.277
-376.873	-162.581	0.403	0.020
-375.858	117.701	0.184	0.227
-374.844	-200.000	0.005	0.102
-373.829	-57.905	0.275	-0.120
-372.815	-77.849	-0.197	-0.068
-371.800	3.014	0.202	-0.147
-370.785	-116.617	-0.080	-0.015
-369.771	54.632	0.072	0.069
-368.756	-55.977	0.065	-0.029
-367.742	277.101	-0.098	-0.174
-366.727	-200.000	-0.190	0.001
-365.712	-165.037	-0.250	-0.011
-364.698	-28.499	-0.269	-0.155
-363.683	24.585	-0.432	0.358
-362.669	-28.388	0.250	-0.144
-361.654	-143.609	-0.217	-0.021
-360.639	-133.797	0.094	-0.012
-359.625	528.083	0.073	-0.172
-358.610	-113.720	-0.135	0.026
-357.596	-81.419	-0.168	0.055
-356.581	800.000	-0.018	0.052
-355.566	220.303	-0.047	0.075
-354.552	-66.945	0.438	0.173
-353.537	-200.000	-0.044	0.358
-352.523	-200.000	0.005	-0.163
-351.508	-162.239	-0.154	-0.008
-350.493	-47.195	0.218	-0.106
-349.479	-69.474	-0.156	0.060
-348.464	-101.269	-0.115	0.028
-347.450	-26.831	0.078	0.046
-346.435	-132.496	-0.366	0.047
-345.420	-150.968	0.059	-0.004
-344.406	309.695	-0.092	0.172
-343.391	-110.649	-0.113	0.023
-342.377	5.770	-0.037	0.028
-341.362	-34.747	0.196	-0.107
-340.348	-16.511	0.188	-0.119
-339.333	367.813	-0.115	-0.232
-338.318	127.840	0.130	-0.165
-337.304	-105.289	0.065	0.015
-336.289	-166.039	0.122	-0.005
-335.275	-90.042	-0.265	0.077
-334.260	-84.419	-0.027	0.008
-333.245	-151.084	-0.093	-0.007
-332.231	800.000	-0.052	-0.182
-331.216	800.000	0.047	-0.134
-330.202	471.356	-0.137	0.307
-329.187	-57.482	0.173	0.076
-328.172	-117.464	0.175	0.032
-327.158	-200.000	-0.009	0.294
-326.143	43.210	0.094	0.085
-325.129	-200.000	-0.004	0.266
-324.114	800.000	0.074	0.262
-323.099	44.732	-0.148	-0.136
-322.085	-75.825	-0.149	0.053
-321.070	753.892	0.097	-0.262
-320.056	362.993	0.099	0.198
-319.041	800.000	-0.017	0.069
-318.026	-93.388	-0.084	0.023
-317.012	-138.586	-0.203	0.022
-315.997	51.764	0.243	-0.231
-314.983	-15.199	0.179	0.114
-313.968	634.897	-0.073	0.185
-312.953	-18.177	-0.084	0.052
-311.939	157.836	0.234	-0.323
-310.924	-7.556	0.179	0.121
-309.910	-128.385	-0.077	-0.011
-308.895	-60.099	-0.069	-0.029
-307.880	-86.579	-0.332	-0.102
-306.866	-29.813	-0.059	0.034
-305.851	-99.956	0.213	0.053
-304.837	120.869	0.052	-0.065
-303.822	-200.000	0.010	-0.174
-302.807	1.587	-0.153	0.110
-301.793	471.355	0.109	0.245
-300.778	-109.885	0.111	0.023
-299.764	-98.455	0.119	-0.030
-298.749	42.938	-0.337	0.306
-297.735	-153.340	-0.190	0.013
-296.720	-200.000	0.022	0.492
-295.705	-61.008	0.174	0.073
-294.691	-86.684	0.179	-0.055
-293.676	477.727	0.049	0.110
-292.662	66.211	0.250	-0.253
-291.647	182.469	-0.179	-0.263
-290.632	800.000	-0.041	-0.167
-289.618	-200.000	-0.023	-0.173
-288.603	800.000	0.041	-0.149
-287.589	-200.000	-0.053	0.233
-286.574	800.000	-0.053	0.153
-285.559	199.415	-0.126	0.192
-284.545	331.318	0.098	0.188
-283.530	240.597	0.148	-0.245
-282.516	170.094	-0.068	-0.098
-281.501	-17.068	0.189	0.119
-280.486	-133.234	0.098	0.012
-279.472	-91.129	-0.351	0.100
-278.457	-200.000	0.037	-0.172
-277.443	-11.485	-0.285	0.186
-276.428	800.000	-0.116	-0.444
-275.413	-9.027	-0.307	0.205
-274.399	-24.438	0.073	0.043
-273.384	85.576	0.064	-0.070
-272.370	89.789	-0.196	-0.218
-271.355	-200.000	-0.032	-0.147
-270.340	-200.000	-0.019	0.360
-269.326	-36.383	-0.204	-0.110
-268.311	258.203	0.186	-0.319
-267.297	800.000	-0.063	0.217
-266.282	127.971	0.211	0.267
-265.267	-141.588	-0.187	-0.019
-264.253	23.632	-0.185	0.152
-263.238	-65.874	-0.266	0.106
-262.224	63.577	0.146	-0.146
-261.209	-200.000	0.212	-0.001
-260.195	-121.157	-0.254	0.042
-259.180	-91.705	-0.174	0.049
-258.165	-9.936	-0.096	0.064
-257.151	800.000	-0.104	0.346
-256.136	-93.191	-0.247	0.068
-255.122	-200.000	0.003	0.178
-254.107	12.514	0.270	0.207
-253.092	-198.031	-0.053	0.000
-252.078	-200.000	-0.021	0.109
-251.063	428.585	-0.078	0.168
-250.049	800.000	-0.063	-0.180
-249.034	-41.432	-0.253	-0.130
-248.019	-200.000	0.094	0.452
-247.005	255.840	0.038	-0.064
-245.990	114.094	0.219	0.266
-244.976	113.623	-0.248	0.300
-243.961	-46.527	0.421	-0.206
-242.946	-149.118	0.192	0.015
-241.932	-144.638	0.171	-0.016
-240.917	-44.698	-0.315	-0.156
-239.903	-60.903	0.061	0.026
-238.888	800.000	0.053	0.174
-237.873	53.161	-0.052	0.049
-236.859	137.305	-0.030	0.039
-235.844	-28.395	0.186	-0.107
-234.830	-200.000	-0.039	-0.270
-233.815	-132.652	0.243	0.031
-232.800	800.000	0.030	0.118
-231.786	84.523	0.249	-0.271
-230.771	192.078	0.113	-0.169
-229.757	349.876	0.184	0.362
-228.742	-51.248	0.141	-0.066
-227.727	-200.000	0.000	0.110
-226.713	32.223	0.112	0.096
-225.698	-120.059	-0.345	0.059
-224.684	-47.392	0.142	-0.069
-223.669	800.000	-0.031	0.114
-222.655	357.970	-0.227	-0.451
-221.640	-40.039	0.135	-0.070
-220.625	800.000	-0.092	-0.313
-219.611	21.307	0.157	0.126
-218.596	140.099	-0.036	0.047
-217.582	-200.000	0.000	0.069
-216.567	-200.000	0.019	0.090
-215.552	146.684	-0.119	-0.159
-214.538	-36.794	0.170	0.091
-213.523	27.784	0.085	-0.071
-212.509	-70.222	0.283	0.107
-211.494	-7.791	-0.207	-0.139
-210.479	800.000	0.031	0.121
-209.465	347.290	0.232	0.454
-208.450	49.882	0.369	0.346
-207.436	-193.142	0.149	-0.001
-206.421	275.207	0.055	0.097
-205.406	20.870	0.174	0.140
-204.392	-83.511	-0.137	0.044
-203.377	-92.178	-0.160	0.045
-202.363	63.885	0.211	-0.210
-201.348	-96.965	-0.196	0.051
-200.333	91.342	0.218	0.243
-199.319	800.000	-0.053	0.203
-198.304	-64.686	-0.313	-0.126
-197.290	-119.159	0.116	-0.020
-196.275	28.288	0.133	-0.111
-195.260	-22.283	0.214	0.129
-194.246	449.940	0.110	0.240
-193.231	-200.000	0.001	0.278
-192.217	-56.326	0.171	0.076
-191.202	-103.507	-0.050	0.012
-190.187	-113.444	-0.288	-0.056
-189.173	81.101	-0.174	0.187
-188.158	-200.000	0.012	0.141
-187.144	-200.000	0.078	-0.340
-186.129	-117.946	-0.194	-0.035
-185.114	-113.936	0.125	0.024
-184.100	-200.000	-0.079	0.425
-183.085	305.474	-0.158	-0.291
-182.071	-131.259	0.350	0.046
-181.056	-106.626	-0.116	-0.026
-180.042	-12.984	0.119	-0.077
-179.027	-66.133	0.098	0.039
-178.012	87.024	0.109	-0.119
-176.998	327.401	0.018	-0.035
-175.983	-50.289	0.079	0.037
-174.969	361.502	-0.042	0.085
-173.954	-85.922	-0.179	-0.055
-172.939	433.115	0.141	-0.304
-171.925	-60.934	0.260	0.109
-170.910	244.484	0.078	0.130
-169.896	800.000	0.070	0.238
-168.881	-118.737	-0.045	-0.008
-167.866	49.981	0.254	0.238
-166.852	111.381	0.044	0.052
-165.837	-200.000	0.018	0.183
-164.823	-76.308	-0.058	0.020
-163.808	22.347	0.292	-0.237
-162.793	-141.606	0.414	0.041
-161.779	388.288	0.104	-0.214
-160.764	228.467	0.058	-0.094
-159.750	-200.000	0.014	-0.230
-158.735	-200.000	-0.031	0.251
-157.720	-27.998	0.123	-0.071
-156.706	144.687	0.268	0.355
-155.691	187.064	-0.057	-0.084
-154.677	-200.000	0.007	0.219
-153.662	107.054	-0.058	0.068
-152.647	716.034	0.081	0.212
-151.633	-61.326	0.187	-0.078
-150.618	50.802	0.081	0.076
-149.604	-67.372	0.062	0.024
-148.589	-28.769	0.157	-0.089
-147.574	214.818	-0.033	-0.053
-146.560	-200.000	-0.007	-0.151
-145.545	-120.748	-0.155	-0.026
-144.531	-200.000	-0.031	0.248
-143.516	-200.000	0.026	0.271
-142.502	-8.178	0.539	0.359
-141.487	-94.654	-0.342	-0.092
-140.472	-163.833	-0.298	0.014
-139.458	84.355	0.032	-0.034
-138.443	-200.000	-0.021	-0.224
-137.429	-10.719	0.089	-0.058
-136.414	4.195	0.104	0.075
-135.399	-15.733	-0.206	0.130
-134.385	-200.000	0.002	0.012
-133.370	399.691	0.132	-0.273
-132.356	-114.630	-0.055	0.010
-131.341	46.225	-0.054	0.049
-130.326	800.000	-0.042	-0.127
-129.312	487.141	0.109	0.246
-128.297	-26.224	-0.283	-0.165
-127.283	800.000	-0.086	-0.246
-126.268	-35.002	0.156	0.085
-125.253	-200.000	0.045	-0.239
-124.239	373.593	0.023	0.046
-123.224	-9.396	0.447	-0.295
-122.210	125.883	-0.049	0.062
