DTS Sentinel unit serial number:	SN413079Multiplexer serial number:	ORYXHardware model number:	OX4-SRSoftware version number:	ORYX F/W v4.00 Oryx Data Collector v3.7.2.0data status	okinstallation	princeton_trtdifferential loss correction	single-endedforward channel	channel 4reverse channel	N/Adate	2019/09/17time	15:37:35forward acquisition time	60.00reverse acquisition time	0.00gamma	496.2192k internal	0.2290k external	0.2290temperature offset calibration	0.9985default loss term (dB/km)	0.3790temperature slope calibration	1.0000multiplexer offset coefficient	1.0000multiplexer slope coefficient	1.0000fibre end	0.00T internal ref (°C)	38.58T ext. ref 1 (°C)	0.38T ext. ref 2 (°C)	36.00length (m)	temperature (°C)	Stokes	anti-Stokes-747.200	-200.000	-0.018	-0.089
-746.185	19.338	0.167	0.137
-745.171	33.172	0.273	0.242
-744.156	800.000	0.063	0.185
-743.142	-200.000	0.524	-0.000
-742.127	-107.613	-0.030	-0.007
-741.112	800.000	0.068	0.211
-740.098	-200.000	0.011	0.266
-739.083	64.405	0.084	0.086
-738.069	33.265	-0.234	0.208
-737.054	-62.985	-0.132	0.056
-736.039	-34.023	0.069	-0.039
-735.025	393.972	0.159	0.338
-734.010	-62.795	-0.277	0.118
-732.996	165.706	-0.092	0.133
-731.981	-4.039	-0.307	0.218
-730.966	6.549	-0.171	0.130
-729.952	-107.529	-0.516	0.116
-728.937	-23.818	-0.298	0.183
-727.923	800.000	-0.063	-0.189
-726.908	-22.501	-0.082	0.051
-725.894	-68.548	0.137	0.054
-724.879	154.974	-0.296	-0.417
-723.864	-16.253	-0.422	-0.274
-722.850	72.086	-0.141	-0.150
-721.835	-200.000	-0.046	-0.248
-720.821	137.736	0.230	-0.308
-719.806	-1.508	0.263	-0.190
-718.791	-163.872	0.137	-0.007
-717.777	-58.452	-0.205	-0.091
-716.762	-88.595	-0.189	0.058
-715.748	-99.475	0.152	-0.039
-714.733	-70.538	-0.149	0.058
-713.718	85.188	-0.156	-0.175
-712.704	211.553	-0.133	-0.214
-711.689	379.079	0.063	-0.133
-710.675	-56.696	-0.256	-0.116
-709.660	-70.609	-0.108	-0.042
-708.645	-78.230	0.277	0.097
-707.631	-96.330	0.261	-0.071
-706.616	-195.698	-0.201	-0.001
-705.602	273.546	-0.103	0.187
-704.587	165.129	0.129	0.186
-703.572	162.213	0.103	0.147
-702.558	-15.149	-0.322	0.211
-701.543	-200.000	0.045	0.361
-700.529	165.504	0.100	-0.144
-699.514	292.042	0.132	0.246
-698.499	57.058	0.205	0.205
-697.485	78.249	0.193	-0.210
-696.470	486.584	0.009	0.021
-695.456	-115.415	0.245	-0.047
-694.441	800.000	-0.035	-0.121
-693.426	-47.965	0.047	-0.023
-692.412	-74.418	-0.372	0.137
-691.397	-20.674	-0.132	-0.083
-690.383	-39.603	0.139	-0.075
-689.368	286.243	0.072	0.133
-688.354	-76.189	0.127	-0.046
-687.339	206.384	0.021	0.034
-686.324	800.000	0.040	-0.133
-685.310	-200.000	-0.071	-0.381
-684.295	800.000	0.069	-0.245
-683.281	-33.113	-0.180	-0.102
-682.266	-154.151	-0.272	-0.019
-681.251	-35.038	-0.308	0.172
-680.237	-38.681	0.111	0.060
-679.222	295.092	0.055	0.104
-678.208	724.396	-0.113	0.309
-677.193	-122.380	0.290	0.048
-676.178	800.000	0.069	-0.281
-675.164	-161.348	0.167	0.009
-674.149	210.611	-0.216	0.346
-673.135	-41.124	0.289	-0.152
-672.120	-78.041	-0.312	0.110
-671.105	22.886	0.164	0.138
-670.091	516.510	-0.123	-0.294
-669.076	-111.558	-0.080	-0.017
-668.062	348.972	0.057	-0.114
-667.047	-106.417	0.182	-0.042
-666.032	227.319	-0.086	0.143
-665.018	-200.000	-0.000	0.100
-664.003	-0.682	-0.079	0.057
-662.989	74.644	0.207	0.223
-661.974	800.000	-0.158	0.450
-660.959	-104.678	0.218	0.051
-659.945	363.098	0.067	-0.137
-658.930	-180.858	0.105	-0.002
-657.916	11.382	0.195	-0.153
-656.901	76.628	-0.059	0.064
-655.886	800.000	-0.054	-0.222
-654.872	-200.000	0.044	-0.353
-653.857	-31.791	0.141	0.081
-652.843	56.311	-0.108	-0.107
-651.828	-61.507	0.119	0.051
-650.814	-200.000	-0.011	0.136
-649.799	-155.337	0.217	0.014
-648.784	568.626	0.081	-0.201
-647.770	-50.166	-0.123	0.059
-646.755	-200.000	0.045	0.259
-645.741	-80.722	-0.218	-0.074
-644.726	-12.057	0.175	0.117
-643.711	-200.000	0.017	0.190
-642.697	11.799	0.173	-0.135
-641.682	800.000	0.070	0.289
-640.668	183.388	-0.256	-0.386
-639.653	16.648	-0.212	0.171
-638.638	109.762	-0.090	0.110
-637.624	-107.210	0.108	-0.024
-636.609	-23.968	-0.305	-0.186
-635.595	106.585	-0.201	-0.243
-634.580	-200.000	0.066	0.357
-633.565	-92.206	-0.042	-0.012
-632.551	-162.035	0.215	-0.011
-631.536	35.647	-0.282	-0.253
-630.522	-50.583	-0.064	0.031
-629.507	-166.805	-0.081	0.003
-628.492	-100.245	0.249	-0.063
-627.478	-161.006	-0.299	-0.016
-626.463	800.000	-0.107	0.342
-625.449	-200.000	-0.030	-0.188
-624.434	800.000	-0.027	0.079
-623.419	-170.390	0.208	-0.007
-622.405	67.910	-0.219	-0.228
-621.390	-3.392	0.121	0.086
-620.376	336.823	-0.206	-0.407
-619.361	99.111	-0.172	0.202
-618.346	-116.260	0.155	-0.029
-617.332	-117.829	-0.118	-0.022
-616.317	166.499	-0.137	-0.198
-615.303	140.643	-0.206	0.277
-614.288	-107.916	0.085	-0.019
-613.273	800.000	0.040	-0.137
-612.259	-169.080	-0.237	-0.009
-611.244	16.276	-0.083	-0.067
-610.230	253.102	-0.250	-0.435
-609.215	-200.000	0.017	-0.298
-608.201	-23.103	-0.090	-0.055
-607.186	71.189	0.214	0.226
-606.171	800.000	0.072	0.203
-605.157	174.896	-0.231	-0.340
-604.142	-128.336	-0.215	-0.031
-603.128	-81.914	0.186	0.062
-602.113	65.147	-0.105	0.108
-601.098	-200.000	-0.088	0.434
-600.084	-200.000	0.026	0.315
-599.069	-87.940	0.195	-0.060
-598.055	24.129	-0.070	0.059
-597.040	56.477	-0.092	-0.092
-596.025	295.526	0.098	-0.183
-595.011	-28.764	-0.107	0.063
-593.996	800.000	-0.066	0.204
-592.982	252.820	-0.026	0.045
-591.967	-200.000	-0.032	0.318
-590.952	163.607	0.054	-0.077
-589.938	-99.393	-0.255	0.065
-588.923	-116.510	-0.166	0.031
-587.909	28.601	0.051	-0.044
-586.894	64.351	-0.123	-0.126
-585.879	61.956	0.110	0.111
-584.865	-124.203	-0.122	-0.019
-583.850	-38.477	-0.213	0.115
-582.836	22.621	-0.283	0.236
-581.821	-35.118	-0.151	0.084
-580.806	6.958	-0.221	0.167
-579.792	-40.745	0.221	0.117
-578.777	-60.439	0.217	-0.094
-577.763	-146.668	-0.342	0.030
-576.748	-108.314	0.342	-0.075
-575.733	-174.737	-0.136	0.004
-574.719	24.900	0.041	-0.034
-573.704	-3.714	0.115	-0.081
-572.690	296.569	-0.072	-0.134
-571.675	-200.000	-0.089	0.000
-570.661	-200.000	0.000	0.152
-569.646	54.606	-0.031	0.031
-568.631	800.000	-0.093	-0.266
-567.617	226.504	-0.246	-0.406
-566.602	-171.474	0.452	-0.015
-565.588	63.317	-0.111	0.113
-564.573	490.070	-0.146	0.339
-563.558	-106.682	-0.074	0.017
-562.544	-200.000	-0.016	-0.273
-561.529	-167.874	-0.091	-0.004
-560.515	124.969	-0.057	-0.073
-559.500	-200.000	0.001	-0.072
-558.485	-70.528	0.046	0.018
-557.471	-74.351	-0.402	0.148
-556.456	-75.833	-0.130	-0.047
-555.442	-118.599	-0.378	-0.068
-554.427	-200.000	-0.007	-0.307
-553.412	127.810	0.195	-0.252
-552.398	-200.000	0.018	-0.179
-551.383	-200.000	0.008	-0.301
-550.369	-138.126	-0.104	-0.012
-549.354	-200.000	0.007	0.140
-548.339	160.235	-0.055	-0.078
-547.325	51.449	-0.099	-0.096
-546.310	28.732	0.193	-0.166
-545.296	184.981	-0.188	-0.283
-544.281	433.755	0.040	-0.088
-543.266	197.998	0.084	-0.130
-542.252	-200.000	-0.017	0.241
-541.237	-200.000	-0.004	0.133
-540.223	-107.163	0.076	-0.017
-539.208	-22.857	-0.252	-0.155
-538.193	800.000	-0.042	-0.119
-537.179	753.627	0.152	-0.417
-536.164	-160.803	0.168	0.009
-535.150	800.000	0.018	-0.063
-534.135	-200.000	-0.004	-0.425
-533.121	636.293	-0.142	0.366
-532.106	763.743	-0.087	0.239
-531.091	800.000	0.140	-0.415
-530.077	507.991	0.087	-0.205
-529.062	-36.960	0.197	-0.107
-528.048	-3.827	-0.071	-0.050
-527.033	-154.715	-0.208	0.014
-526.018	-200.000	0.014	-0.161
-525.004	-200.000	0.046	-0.408
-523.989	-90.847	-0.035	-0.010
-522.975	800.000	-0.085	-0.291
-521.960	-143.074	-0.027	-0.003
-520.945	-97.055	-0.126	-0.034
-519.931	52.769	-0.106	0.103
-518.916	-117.366	-0.256	-0.047
-517.902	-200.000	-0.005	-0.093
-516.887	343.682	0.129	-0.256
-515.872	-148.579	0.317	-0.026
-514.858	-120.721	-0.136	-0.023
-513.843	-126.914	0.334	-0.050
-512.829	-155.190	0.296	0.020
-511.814	71.531	-0.088	-0.092
-510.799	245.007	-0.102	0.173
-509.785	1.006	0.132	-0.096
-508.770	800.000	-0.089	0.303
-507.756	-60.816	-0.230	-0.099
-506.741	-86.060	0.259	-0.081
-505.726	-22.531	0.064	-0.039
-504.712	-46.789	-0.035	0.017
-503.697	107.548	0.118	0.142
-502.683	-71.145	-0.256	0.098
-501.668	84.783	0.166	0.185
-500.653	-1.150	-0.111	-0.080
-499.639	-71.260	-0.304	0.116
-498.624	127.276	0.196	0.253
-497.610	-55.277	-0.237	-0.108
-496.595	40.173	-0.110	-0.100
-495.581	-23.730	-0.104	0.063
-494.566	-129.495	-0.203	-0.029
-493.551	96.820	0.220	0.256
-492.537	264.398	-0.171	-0.302
-491.522	800.000	-0.118	-0.394
-490.508	-200.000	-0.010	0.101
-489.493	-200.000	0.019	0.127
-488.478	-74.516	-0.180	-0.066
-487.464	-143.046	0.410	0.040
-486.449	347.789	0.048	-0.097
-485.435	-36.302	-0.480	-0.263
-484.420	18.492	-0.271	0.220
-483.405	117.896	-0.112	-0.140
-482.391	-200.000	-0.005	0.093
-481.376	17.778	0.015	0.012
-480.362	-6.407	0.271	-0.187
-479.347	-200.000	0.002	-0.137
-478.332	273.755	0.215	-0.385
-477.318	-47.668	-0.154	-0.076
-476.303	-103.548	-0.354	0.084
-475.289	-49.605	0.128	0.062
-474.274	-88.394	-0.267	0.081
-473.259	176.785	-0.221	-0.326
-472.245	-44.082	0.316	0.161
-471.230	-200.000	0.005	-0.062
-470.216	-200.000	0.010	-0.208
-469.201	-200.000	-0.015	0.193
-468.186	-200.000	-0.002	-0.036
-467.172	800.000	-0.094	0.361
-466.157	18.722	0.188	0.152
-465.143	72.894	0.091	0.097
-464.128	-190.165	0.243	0.003
-463.113	63.921	0.199	0.202
-462.099	-200.000	-0.070	0.420
-461.084	155.499	-0.195	0.272
-460.070	-4.415	0.180	0.126
-459.055	-55.576	-0.303	-0.137
-458.040	-200.000	0.031	-0.245
-457.026	160.841	0.078	0.110
-456.011	-200.000	0.018	0.119
-454.997	-19.004	-0.356	0.224
-453.982	455.884	-0.071	-0.159
-452.968	37.593	0.133	-0.120
-451.953	-200.000	0.039	-0.288
-450.938	-40.448	-0.307	0.162
-449.924	800.000	-0.114	-0.389
-448.909	-29.776	0.152	-0.088
-447.895	-59.005	-0.233	-0.102
-446.880	218.990	0.044	0.071
-445.865	-120.117	-0.190	-0.033
-444.851	44.720	0.302	0.282
-443.836	-200.000	-0.033	0.190
-442.822	-72.987	-0.162	-0.060
-441.807	-167.796	0.236	-0.009
-440.792	-53.034	0.174	-0.081
-439.778	297.810	-0.082	0.153
-438.763	130.872	-0.187	-0.243
-437.749	800.000	-0.077	-0.333
-436.734	-168.415	0.138	-0.005
-435.719	36.715	-0.114	0.102
-434.705	-200.000	0.000	-0.130
-433.690	-200.000	0.006	-0.040
-432.676	259.901	-0.106	-0.186
-431.661	578.517	0.076	-0.189
-430.646	182.231	0.018	0.027
-429.632	550.101	-0.086	0.210
-428.617	731.383	0.035	0.096
-427.603	-25.782	-0.284	0.169
-426.588	69.215	-0.099	0.103
-425.573	370.647	0.187	0.384
-424.559	49.117	0.192	0.183
-423.544	-34.331	-0.064	-0.036
-422.530	-200.000	0.020	0.116
-421.515	-200.000	0.021	0.143
-420.500	234.827	0.072	-0.120
-419.486	-123.113	-0.496	-0.080
-418.471	-200.000	-0.010	-0.399
-417.457	96.711	0.110	0.128
-416.442	-144.351	-0.363	0.034
-415.428	-118.539	-0.260	-0.047
-414.413	-200.000	0.003	0.316
-413.398	-121.435	0.245	0.041
-412.384	-75.231	-0.114	-0.041
-411.369	-186.602	-0.399	-0.006
-410.355	41.727	-0.149	-0.136
-409.340	125.739	0.152	-0.194
-408.325	127.391	-0.039	0.050
-407.311	54.993	0.215	0.210
-406.296	365.832	-0.174	-0.354
-405.282	113.297	-0.143	-0.175
-404.267	-122.416	0.290	0.048
-403.252	-200.000	-0.037	-0.171
-402.238	800.000	0.068	-0.292
-401.223	182.650	0.123	0.183
-400.209	800.000	-0.066	-0.250
-399.194	-200.000	-0.070	-0.478
-398.179	-200.000	0.054	0.313
-397.165	165.220	0.104	0.149
-396.150	273.537	-0.131	-0.235
-395.136	-98.101	0.419	-0.109
-394.121	-200.000	-0.007	0.279
-393.106	800.000	0.098	0.293
-392.092	-0.825	0.227	-0.162
-391.077	187.852	-0.057	-0.085
-390.063	355.584	-0.057	-0.114
-389.048	365.148	-0.054	-0.111
-388.033	684.669	0.170	0.447
-387.019	-66.506	0.080	-0.032
-386.004	478.834	-0.074	0.170
-384.990	0.329	0.026	0.018
-383.975	37.379	-0.316	0.283
-382.960	-136.730	-0.268	0.031
-381.946	-14.321	-0.105	0.069
-380.931	-5.018	0.161	-0.112
-379.917	-200.000	-0.029	0.325
-378.902	-51.821	0.260	0.122
-377.888	-88.859	0.200	0.060
-376.873	-37.780	-0.134	0.072
-375.858	-37.693	0.332	0.178
-374.844	-200.000	0.057	-0.436
-373.829	51.521	0.143	0.137
-372.815	148.530	0.193	0.264
-371.800	94.981	-0.145	-0.167
-370.785	95.439	-0.130	-0.149
-369.771	22.971	0.016	0.013
-368.756	-33.618	-0.173	-0.097
-367.742	-61.694	-0.251	0.106
-366.727	-100.670	-0.259	0.065
-365.712	170.962	0.166	-0.241
-364.698	-45.495	0.247	0.123
-363.683	39.053	0.170	0.154
-362.669	50.361	-0.093	-0.089
-361.654	-81.956	0.149	0.049
-360.639	83.056	0.103	0.113
-359.625	7.502	0.135	0.102
-358.610	6.634	-0.077	-0.057
-357.596	-2.035	-0.334	-0.237
-356.581	-29.509	-0.210	0.121
-355.566	-63.917	-0.102	-0.042
-354.552	-200.000	0.007	-0.339
-353.537	-105.787	0.148	0.034
-352.523	65.496	-0.238	0.243
-351.508	248.194	0.094	-0.161
-350.493	-168.676	-0.208	-0.008
-349.479	-37.773	-0.109	0.058
-348.464	184.298	-0.159	-0.237
-347.450	192.689	-0.115	0.175
-346.435	221.808	0.116	0.188
-345.420	-108.479	0.156	0.034
-344.406	148.263	-0.098	0.134
-343.391	-200.000	-0.007	-0.164
-342.377	35.236	0.056	0.050
-341.362	0.021	-0.186	-0.134
-340.348	-98.809	0.245	0.063
-339.333	95.639	-0.065	-0.075
-338.318	199.073	0.173	0.267
-337.304	-14.399	0.142	0.092
-336.289	17.963	-0.097	-0.078
-335.275	-200.000	0.029	-0.176
-334.260	-200.000	-0.016	-0.123
-333.245	47.430	-0.142	-0.134
-332.231	-24.971	0.275	0.164
-331.216	-50.566	-0.221	-0.105
-330.202	30.942	0.139	-0.120
-329.187	-200.000	-0.015	0.158
-328.172	89.089	-0.216	0.242
-327.158	24.016	-0.279	0.232
-326.143	473.706	-0.167	0.379
-325.129	800.000	0.064	-0.264
-324.114	155.711	0.271	-0.377
-323.099	-138.912	-0.214	0.023
-322.085	263.034	0.165	0.289
-321.070	-101.885	0.186	0.045
-320.056	45.471	0.187	0.174
-319.041	-119.624	0.092	-0.016
-318.026	-56.264	0.404	0.181
-317.012	35.398	0.182	0.160
-315.997	403.452	0.103	-0.219
-314.983	743.008	0.027	-0.073
-313.968	-155.062	0.255	-0.017
-312.953	-112.680	0.378	0.076
-311.939	800.000	-0.048	0.167
-310.924	156.521	-0.161	0.224
-309.910	25.240	-0.138	0.115
-308.895	-200.000	0.070	-0.312
-307.880	-95.972	0.041	0.011
-306.866	165.509	0.111	0.158
-305.851	-200.000	-0.018	-0.189
-304.837	218.148	0.110	-0.177
-303.822	800.000	0.092	0.311
-302.807	-27.844	0.159	-0.093
-301.793	-200.000	-0.024	0.126
-300.778	-18.451	0.120	-0.075
-299.764	-43.208	0.329	0.168
-298.749	-88.993	-0.205	-0.061
-297.735	493.087	0.117	-0.269
-296.720	800.000	-0.030	-0.120
-295.705	-58.701	0.367	-0.160
-294.691	-200.000	0.008	0.157
-293.676	800.000	-0.118	0.410
-292.662	-124.727	0.104	-0.016
-291.647	30.197	0.142	0.122
-290.632	800.000	-0.071	-0.269
-289.618	-122.389	0.284	-0.047
-288.603	800.000	0.044	-0.193
-287.589	-53.238	0.339	0.156
-286.574	-87.540	0.368	0.112
-285.559	-200.000	-0.009	0.181
-284.545	-98.880	0.110	0.028
-283.530	-200.000	-0.058	-0.353
-282.516	20.017	0.172	0.140
-281.501	106.864	-0.053	-0.063
-280.486	-200.000	0.036	-0.165
-279.472	29.255	0.157	-0.134
-278.457	191.529	0.162	-0.246
-277.443	3.996	0.154	0.113
-276.428	65.453	0.264	0.269
-275.413	600.091	-0.049	-0.121
-274.399	568.076	-0.069	-0.169
-273.384	-93.359	-0.312	0.087
-272.370	-148.593	0.222	0.018
-271.355	201.863	0.227	0.353
-270.340	-18.945	-0.082	0.051
-269.326	57.627	0.104	-0.103
-268.311	-183.105	0.150	-0.003
-267.297	-200.000	-0.001	0.270
-266.282	-134.133	0.367	-0.046
-265.267	-117.995	-0.079	0.014
-264.253	-200.000	-0.038	-0.269
-263.238	-13.772	0.117	0.076
-262.224	800.000	0.056	0.197
-261.209	90.309	-0.075	0.084
-260.195	-200.000	-0.018	-0.306
-259.180	800.000	-0.038	0.157
-258.165	427.147	0.100	-0.218
-257.151	-200.000	0.038	0.326
-256.136	-125.962	0.143	0.022
-255.122	800.000	-0.021	-0.086
-254.107	-47.451	-0.136	-0.066
-253.092	-62.649	-0.555	-0.231
-252.078	-9.579	-0.143	0.096
-251.063	800.000	-0.018	-0.053
-250.049	33.730	-0.185	-0.161
-249.034	800.000	0.084	-0.333
-248.019	-200.000	0.004	-0.041
-247.005	-200.000	0.026	-0.283
-245.990	298.513	-0.071	0.132
-244.976	378.639	0.165	0.340
-243.961	-53.527	-0.266	-0.122
-242.946	800.000	0.147	-0.421
-241.932	66.828	0.066	-0.067
-240.917	-115.953	0.235	0.044
-239.903	-58.072	-0.261	-0.114
-238.888	-200.000	-0.035	-0.283
-237.873	-117.858	0.063	0.011
-236.859	-121.619	0.241	0.040
-235.844	-50.603	0.161	0.076
-234.830	127.647	-0.167	-0.213
-233.815	43.071	-0.051	0.047
-232.800	314.191	0.067	0.127
-231.786	50.414	-0.225	0.214
-230.771	166.913	-0.035	0.050
-229.757	-200.000	-0.018	0.284
-228.742	-200.000	0.061	0.275
-227.727	-84.426	0.361	0.115
-226.713	800.000	0.038	0.163
-225.698	68.200	0.239	-0.245
-224.684	19.615	-0.157	0.127
-223.669	-199.477	-0.257	-0.001
-222.655	359.787	0.119	-0.239
-221.640	27.535	0.223	0.188
-220.625	-80.292	-0.150	0.050
-219.611	258.472	-0.191	0.330
-218.596	770.427	-0.046	-0.126
-217.582	-22.019	0.106	-0.064
-216.567	-111.634	0.238	-0.048
-215.552	-15.422	-0.241	0.154
-214.538	-98.890	-0.220	0.056
-213.523	-45.565	0.119	0.059
-212.509	92.678	0.224	0.254
-211.494	-40.476	-0.180	0.094
-210.479	-70.043	0.216	-0.082
-209.465	8.300	0.185	0.140
-208.450	-14.334	0.327	-0.211
-207.436	-85.000	0.086	-0.027
-206.421	-200.000	-0.063	-0.342
-205.406	-141.277	0.141	-0.014
-204.392	86.906	-0.284	0.314
-203.377	311.136	-0.074	0.139
-202.363	-130.991	0.370	-0.050
-201.348	349.469	0.107	0.212
-200.333	130.162	0.083	-0.106
-199.319	80.503	0.078	-0.084
-198.304	-200.000	-0.022	-0.312
-197.290	-45.029	-0.083	0.041
-196.275	90.585	-0.075	-0.084
-195.260	800.000	0.028	-0.078
-194.246	800.000	0.106	0.434
-193.231	365.671	0.153	-0.310
-192.217	-21.551	0.230	-0.141
-191.202	-94.243	-0.366	-0.100
-190.187	-15.577	-0.111	-0.071
-189.173	204.087	0.133	-0.207
-188.158	-200.000	0.006	0.083
-187.144	-153.741	0.146	0.010
-186.129	-91.850	0.282	-0.080
-185.114	-200.000	0.020	0.183
-184.100	-65.792	-0.082	0.033
-183.085	106.212	0.154	0.182
-182.071	-26.802	0.234	0.137
-181.056	-156.491	-0.233	-0.015
-180.042	-200.000	-0.043	0.196
-179.027	-123.174	-0.330	-0.053
-178.012	-200.000	-0.007	0.222
-176.998	-200.000	0.025	0.265
-175.983	92.593	0.125	-0.141
-174.969	800.000	0.040	0.177
-173.954	-50.529	-0.192	-0.091
-172.939	-26.706	0.199	0.117
-171.925	216.487	0.136	0.217
-170.910	30.687	0.110	0.094
-169.896	800.000	0.044	0.191
-168.881	-97.175	0.289	0.076
-167.866	-200.000	0.001	-0.057
-166.852	116.301	-0.213	0.261
-165.837	-35.592	-0.155	-0.084
-164.823	-16.057	-0.100	0.063
-163.808	-63.752	-0.119	0.049
-162.793	238.432	0.121	-0.201
-161.779	-124.100	0.300	-0.047
-160.764	-200.000	0.015	0.077
-159.750	22.758	0.241	0.198
-158.735	-200.000	0.021	-0.145
-157.720	800.000	-0.062	0.246
-156.706	280.637	0.058	0.104
-155.691	-200.000	0.024	-0.122
-154.677	-13.041	-0.126	-0.082
-153.662	86.294	-0.154	0.170
-152.647	-200.000	0.041	0.268
-151.633	68.559	0.306	0.315
-150.618	800.000	-0.030	0.125
-149.604	800.000	-0.055	0.180
-148.589	-41.226	0.372	-0.192
-147.574	160.702	-0.078	-0.109
-146.560	277.729	0.055	0.098
-145.545	800.000	-0.161	0.464
-144.531	800.000	0.056	0.206
-143.516	-125.207	0.169	-0.026
-142.502	-94.547	0.175	-0.048
-141.487	596.773	0.016	-0.039
-140.472	346.375	-0.143	0.282
-139.458	123.060	0.125	0.157
-138.443	-169.199	0.236	-0.009
-137.429	-109.312	0.217	-0.046
-136.414	-200.000	0.037	-0.350
-135.399	-200.000	-0.052	0.235
-134.385	-102.547	-0.319	-0.076
-133.370	-64.033	0.222	-0.091
-132.356	-200.000	-0.035	-0.217
-131.341	800.000	0.114	-0.356
-130.326	-200.000	-0.028	-0.372
-129.312	93.596	0.112	-0.127
-128.297	-21.361	0.107	-0.065
-127.283	-25.606	0.261	0.154
-126.268	124.075	0.182	-0.229
-125.253	-96.126	-0.114	-0.030
-124.239	-200.000	-0.006	-0.057
-123.224	-200.000	-0.017	-0.146
-122.210	-55.251	-0.372	0.167
-121.195	800.000	-0.064	-0.195
