DTS Sentinel unit serial number:	SN413079Multiplexer serial number:	ORYXHardware model number:	OX4-SRSoftware version number:	ORYX F/W v4.00 Oryx Data Collector v3.7.2.0data status	okinstallation	princeton_trtdifferential loss correction	single-endedforward channel	channel 4reverse channel	N/Adate	2019/09/13time	04:09:34forward acquisition time	60.00reverse acquisition time	0.00gamma	496.2192k internal	0.2322k external	0.2322temperature offset calibration	1.0195default loss term (dB/km)	0.3790temperature slope calibration	1.0000multiplexer offset coefficient	1.0000multiplexer slope coefficient	1.0000fibre end	0.00T internal ref (°C)	26.92T ext. ref 1 (°C)	4.06T ext. ref 2 (°C)	21.28length (m)	temperature (°C)	Stokes	anti-Stokes-747.200	-107.554	-0.113	-0.025
-746.185	-84.797	-0.197	0.062
-745.171	-142.799	0.212	-0.021
-744.156	292.256	0.296	0.545
-743.142	-55.897	-0.102	-0.046
-742.127	800.000	0.125	0.359
-741.112	16.203	0.111	0.089
-740.098	-156.627	-0.309	0.019
-739.083	66.697	0.245	-0.252
-738.069	-53.175	-0.097	-0.045
-737.054	5.910	-0.100	-0.075
-736.039	-174.938	0.065	-0.002
-735.025	54.060	0.191	-0.186
-734.010	-200.000	-0.047	-0.255
-732.996	-177.948	-0.185	0.004
-731.981	-35.536	0.094	0.051
-730.966	3.694	-0.181	-0.133
-729.952	94.958	0.162	-0.186
-728.937	115.607	-0.225	-0.277
-727.923	165.281	-0.161	-0.230
-726.908	-200.000	-0.034	-0.169
-725.894	67.939	0.164	0.170
-724.879	-39.139	-0.331	-0.176
-723.864	-27.708	-0.399	-0.234
-722.850	68.680	0.219	-0.226
-721.835	-200.000	-0.033	-0.261
-720.821	800.000	-0.014	-0.048
-719.806	122.158	-0.159	-0.201
-718.791	-108.185	-0.141	0.031
-717.777	-16.896	-0.262	-0.167
-716.762	288.257	-0.045	-0.082
-715.748	233.051	-0.105	-0.174
-714.733	800.000	-0.058	0.218
-713.718	-147.395	-0.335	-0.029
-712.704	60.274	0.071	0.071
-711.689	-95.232	0.063	-0.017
-710.675	-78.181	0.313	0.109
-709.660	192.870	-0.178	-0.271
-708.645	11.628	0.237	-0.183
-707.631	800.000	-0.118	-0.345
-706.616	80.136	0.027	0.029
-705.602	-63.753	-0.262	0.108
-704.587	-95.072	-0.225	-0.061
-703.572	186.094	0.062	-0.093
-702.558	800.000	0.028	-0.118
-701.543	31.726	0.016	0.014
-700.529	-163.997	-0.297	0.014
-699.514	-200.000	0.025	0.178
-698.499	469.001	0.087	-0.197
-697.485	-200.000	-0.026	-0.402
-696.470	114.734	-0.166	-0.205
-695.456	-200.000	0.007	0.172
-694.441	-42.988	-0.220	-0.112
-693.426	-27.833	-0.446	-0.261
-692.412	-16.369	0.141	-0.090
-691.397	89.297	0.086	0.096
-690.383	800.000	0.116	0.425
-689.368	800.000	-0.150	-0.429
-688.354	-200.000	0.002	0.162
-687.339	-200.000	-0.081	0.398
-686.324	227.995	-0.125	-0.205
-685.310	203.801	0.103	-0.161
-684.295	-18.083	0.145	-0.092
-683.281	-38.853	0.044	-0.023
-682.266	217.258	0.089	-0.143
-681.251	191.687	0.191	-0.290
-680.237	43.838	-0.245	0.226
-679.222	-200.000	-0.005	-0.274
-678.208	75.156	-0.146	0.156
-677.193	-200.000	0.001	0.103
-676.178	-65.080	0.280	0.114
-675.164	161.588	-0.115	-0.162
-674.149	-157.765	-0.151	0.009
-673.135	-99.157	0.356	0.091
-672.120	16.524	0.256	0.204
-671.105	-52.383	0.117	0.054
-670.091	207.809	-0.076	-0.119
-669.076	-118.591	0.089	-0.016
-668.062	-46.430	-0.243	-0.120
-667.047	673.905	0.026	-0.068
-666.032	249.538	-0.141	-0.241
-665.018	800.000	0.114	-0.373
-664.003	-102.414	-0.053	-0.013
-662.989	258.560	0.142	-0.246
-661.974	6.855	0.130	-0.097
-660.959	-145.147	0.330	-0.030
-659.945	-36.561	-0.182	-0.099
-658.930	4.111	-0.135	0.099
-657.916	38.175	-0.175	-0.157
-656.901	50.793	0.105	-0.100
-655.886	-14.762	-0.162	-0.104
-654.872	-136.895	-0.360	0.042
-653.857	800.000	-0.092	0.259
-652.843	18.824	-0.369	-0.297
-651.828	-125.593	0.241	-0.037
-650.814	-95.624	-0.206	-0.055
-649.799	-200.000	0.046	-0.215
-648.784	-66.563	-0.283	0.113
-647.770	132.534	-0.021	0.027
-646.755	-29.562	0.287	-0.165
-645.741	-24.576	-0.101	-0.061
-644.726	-87.113	0.326	0.100
-643.711	5.493	-0.291	-0.216
-642.697	111.930	0.040	0.049
-641.682	-148.288	-0.213	-0.018
-640.668	123.580	0.122	-0.153
-639.653	-200.000	0.024	-0.224
-638.638	369.985	-0.088	0.179
-637.624	800.000	0.036	0.145
-636.609	-119.760	-0.289	-0.050
-635.595	35.825	-0.299	0.264
-634.580	78.381	-0.108	-0.116
-633.565	-84.787	-0.170	-0.054
-632.551	137.148	-0.131	0.173
-631.536	-75.908	-0.062	-0.022
-630.522	-200.000	-0.033	0.242
-629.507	-200.000	0.026	-0.202
-628.492	-71.991	0.157	-0.059
-627.478	-57.872	0.126	-0.056
-626.463	-156.459	-0.363	-0.023
-625.449	-24.743	0.092	-0.055
-624.434	-58.246	-0.173	-0.076
-623.419	-134.163	0.391	-0.048
-622.405	-15.932	-0.210	-0.134
-621.390	-41.503	-0.256	0.132
-620.376	5.767	-0.250	-0.186
-619.361	-144.599	-0.193	-0.018
-618.346	-52.383	0.410	0.191
-617.332	34.129	-0.168	0.147
-616.317	18.749	-0.094	-0.076
-615.303	-10.871	-0.093	-0.062
-614.288	193.325	0.168	-0.255
-613.273	-66.918	-0.271	-0.107
-612.259	493.888	0.098	-0.225
-611.244	-112.686	-0.233	-0.047
-610.230	-112.199	-0.181	0.037
-609.215	-50.540	-0.277	0.131
-608.201	-57.527	-0.133	-0.059
-607.186	-56.999	0.040	-0.018
-606.171	-102.535	0.208	-0.050
-605.157	-200.000	0.025	-0.151
-604.142	-99.353	-0.127	-0.032
-603.128	-154.337	0.186	0.013
-602.113	1.469	-0.199	-0.144
-601.098	800.000	-0.028	0.094
-600.084	278.750	-0.082	0.147
-599.069	-100.082	0.120	-0.030
-598.055	16.326	-0.027	0.022
-597.040	168.392	0.116	-0.166
-596.025	-2.945	0.056	0.039
-595.011	291.141	-0.115	0.210
-593.996	-200.000	0.077	0.000
-592.982	50.936	-0.359	0.342
-591.967	30.180	-0.231	0.198
-590.952	-200.000	0.046	-0.381
-589.938	-57.750	0.037	-0.016
-588.923	210.301	-0.175	0.276
-587.909	-101.431	-0.307	-0.075
-586.894	304.778	-0.140	0.260
-585.879	800.000	0.059	0.196
-584.865	421.659	-0.052	-0.113
-583.850	-55.173	-0.528	-0.238
-582.836	342.144	0.094	0.184
-581.821	800.000	-0.030	-0.085
-580.806	-78.174	0.274	-0.095
-579.792	131.660	-0.054	0.069
-578.777	153.371	0.075	0.102
-577.763	50.719	-0.133	-0.127
-576.748	-99.344	-0.127	0.032
-575.733	-200.000	0.016	0.337
-574.719	-137.311	-0.304	0.035
-573.704	456.166	-0.078	0.174
-572.690	198.696	0.096	-0.148
-571.675	396.447	0.075	0.156
-570.661	-182.613	-0.243	0.004
-569.646	140.602	0.115	-0.152
-568.631	9.248	0.135	0.102
-567.617	194.664	-0.130	-0.197
-566.602	800.000	0.094	0.300
-565.588	-1.088	0.143	0.102
-564.573	-200.000	0.036	-0.184
-563.558	131.798	-0.140	0.181
-562.544	-165.169	0.137	-0.006
-561.529	-150.520	-0.400	0.031
-560.515	13.560	-0.255	0.199
-559.500	-200.000	0.016	-0.344
-558.485	378.401	-0.064	-0.131
-557.471	337.946	-0.187	0.365
-556.456	477.501	-0.029	0.066
-555.442	320.263	-0.061	0.116
-554.427	-109.723	0.245	-0.052
-553.412	165.755	-0.202	0.287
-552.398	364.784	-0.122	-0.246
-551.383	-111.753	0.153	0.031
-550.369	-115.067	0.244	-0.046
-549.354	-76.333	0.330	-0.116
-548.339	328.087	0.203	-0.390
-547.325	-200.000	-0.009	0.422
-546.310	800.000	0.015	0.051
-545.296	19.843	-0.009	0.008
-544.281	473.754	-0.079	0.179
-543.266	132.731	0.123	0.159
-542.252	-114.742	0.347	0.066
-541.237	-36.946	-0.059	-0.032
-540.223	-6.901	0.272	-0.185
-539.208	-54.795	-0.112	0.051
-538.193	-71.050	0.077	-0.029
-537.179	302.519	-0.223	-0.414
-536.164	-43.492	0.160	0.081
-535.150	-200.000	0.002	0.100
-534.135	-40.509	-0.160	0.083
-533.121	-53.337	0.321	0.148
-532.106	497.863	-0.088	-0.203
-531.091	-66.986	0.083	-0.033
-530.077	0.462	0.163	0.117
-529.062	-200.000	0.030	0.137
-528.048	800.000	-0.041	0.142
-527.033	-200.000	0.049	-0.347
-526.018	-86.555	0.214	-0.066
-525.004	49.262	0.203	0.191
-523.989	800.000	0.086	-0.279
-522.975	800.000	0.037	-0.131
-521.960	362.169	-0.288	-0.578
-520.945	151.072	-0.238	0.324
-519.931	-151.674	-0.225	-0.017
-518.916	-200.000	-0.040	-0.318
-517.902	25.459	-0.069	0.058
-516.887	800.000	0.093	0.280
-515.872	-69.030	0.006	-0.002
-514.858	-71.478	-0.162	-0.061
-513.843	-51.092	-0.389	-0.183
-512.829	67.819	-0.123	0.126
-511.814	800.000	0.074	-0.296
-510.799	-114.533	-0.124	-0.024
-509.785	-67.928	0.274	-0.107
-508.770	119.655	-0.158	-0.195
-507.756	-121.173	0.400	0.067
-506.741	-32.888	0.027	-0.015
-505.726	6.964	0.173	0.129
-504.712	107.870	0.197	-0.235
-503.697	73.334	0.072	-0.076
-502.683	145.876	0.060	-0.081
-501.668	-200.000	-0.054	0.277
-500.653	-200.000	-0.019	-0.385
-499.639	800.000	-0.090	0.299
-498.624	-200.000	-0.018	-0.155
-497.610	-25.877	0.241	-0.142
-496.595	800.000	0.032	0.098
-495.581	-200.000	0.005	0.120
-494.566	-109.297	-0.188	0.040
-493.551	63.025	0.237	0.237
-492.537	-81.733	0.184	0.060
-491.522	-39.692	-0.142	-0.074
-490.508	-38.579	0.139	-0.073
-489.493	744.931	0.180	0.485
-488.478	-29.140	0.186	0.107
-487.464	-200.000	0.051	0.279
-486.449	285.789	0.160	0.289
-485.435	-61.287	-0.140	-0.059
-484.420	315.685	0.050	-0.094
-483.405	-57.418	-0.305	-0.134
-482.391	-200.000	0.020	-0.148
-481.376	23.297	0.244	-0.201
-480.362	-67.764	0.021	0.008
-479.347	-29.635	0.124	0.071
-478.332	-200.000	-0.018	0.279
-477.318	71.757	-0.112	0.116
-476.303	-108.742	-0.459	0.098
-475.289	-102.439	0.217	0.052
-474.274	227.893	0.110	0.180
-473.259	-159.764	-0.011	0.001
-472.245	-200.000	0.038	-0.203
-471.230	47.785	-0.081	-0.075
-470.216	-29.133	0.156	0.089
-469.201	-40.245	0.355	-0.185
-468.186	-47.587	0.197	0.096
-467.172	-4.286	0.070	-0.048
-466.157	-103.151	-0.083	-0.020
-465.143	29.309	0.086	-0.073
-464.128	-46.113	0.336	0.165
-463.113	-153.836	0.308	-0.021
-462.099	-82.441	-0.083	-0.027
-461.084	-97.643	-0.097	0.025
-460.070	-138.383	-0.342	0.038
-459.055	-12.194	0.340	-0.222
-458.040	-175.658	0.328	0.009
-457.026	-102.098	-0.251	0.060
-456.011	800.000	-0.077	-0.218
-454.997	800.000	0.036	-0.146
-453.982	620.414	-0.104	-0.261
-452.968	188.541	0.191	-0.285
-451.953	38.541	-0.137	-0.122
-450.938	-53.056	-0.279	-0.128
-449.924	75.995	0.061	0.065
-448.909	47.949	-0.243	0.227
-447.895	-35.298	0.150	0.082
-446.880	738.790	-0.055	-0.147
-445.865	-200.000	0.034	-0.151
-444.851	800.000	0.087	-0.326
-443.836	-24.522	-0.301	-0.179
-442.822	-134.862	-0.131	-0.016
-441.807	-17.923	-0.092	-0.058
-440.792	-141.887	-0.251	0.025
-439.778	-90.257	0.191	-0.055
-438.763	-87.365	0.182	-0.055
-437.749	-191.798	-0.175	0.002
-436.734	14.598	0.100	0.078
-435.719	-114.596	-0.235	0.045
-434.705	83.255	-0.100	0.109
-433.690	12.605	0.028	-0.021
-432.676	-5.284	0.118	-0.081
-431.661	-39.949	-0.154	0.080
-430.646	-33.147	0.253	-0.140
-429.632	73.128	0.158	0.165
-428.617	736.663	0.093	0.250
-427.603	46.284	0.264	-0.245
-426.588	-128.116	0.339	-0.048
-425.573	800.000	0.057	0.184
-424.559	-44.911	0.153	0.076
-423.544	235.308	-0.101	0.167
-422.530	160.925	-0.110	0.154
-421.515	308.943	-0.026	0.049
-420.500	597.445	0.073	0.180
-419.486	-200.000	-0.018	-0.215
-418.471	281.247	-0.104	-0.185
-417.457	-200.000	0.011	0.351
-416.442	639.052	-0.117	-0.296
-415.428	49.355	-0.150	0.141
-414.413	234.501	-0.067	0.111
-413.398	-83.485	-0.197	-0.063
-412.384	272.359	-0.057	-0.100
-411.369	483.956	-0.097	-0.221
-410.355	346.337	0.037	-0.073
-409.340	800.000	0.055	-0.210
-408.325	-127.285	0.297	-0.043
-407.311	-200.000	-0.004	-0.072
-406.296	-200.000	-0.061	0.285
-405.282	234.180	0.103	-0.170
-404.267	279.767	-0.138	0.246
-403.252	393.031	-0.097	0.202
-402.238	262.115	0.048	-0.084
-401.223	251.034	0.160	-0.271
-400.209	-57.639	-0.168	-0.074
-399.194	-56.617	0.154	0.068
-398.179	800.000	-0.073	0.284
-397.165	-200.000	0.007	-0.096
-396.150	137.985	-0.134	-0.176
-395.136	135.236	0.178	0.230
-394.121	12.384	0.247	0.190
-393.106	159.994	0.142	-0.197
-392.092	214.849	0.158	-0.249
-391.077	605.718	-0.071	0.176
-390.063	-157.338	-0.066	-0.004
-389.048	-11.181	-0.309	0.203
-388.033	-66.878	0.099	0.039
-387.019	-154.563	-0.173	0.012
-386.004	-121.883	0.212	-0.035
-384.990	60.725	-0.355	-0.351
-383.975	-200.000	-0.003	0.141
-382.960	-60.463	-0.330	-0.140
-381.946	234.381	-0.134	-0.219
-380.931	509.646	-0.129	0.298
-379.917	800.000	-0.043	-0.142
-378.902	330.739	0.088	-0.168
-377.888	-13.185	-0.142	0.092
-376.873	414.128	-0.124	-0.263
-375.858	-30.170	0.229	0.129
-374.844	-200.000	-0.023	0.107
-373.829	284.858	-0.049	0.088
-372.815	-0.477	0.112	0.079
-371.800	20.274	0.081	-0.065
-370.785	-200.000	-0.004	0.055
-369.771	-138.538	-0.289	-0.032
-368.756	-200.000	0.002	0.059
-367.742	124.661	0.058	0.073
-366.727	-132.498	0.084	-0.011
-365.712	800.000	-0.037	0.103
-364.698	28.817	-0.229	0.194
-363.683	526.210	-0.112	-0.264
-362.669	87.625	0.154	-0.169
-361.654	800.000	-0.065	-0.231
-360.639	-15.903	0.373	-0.236
-359.625	132.710	-0.163	0.209
-358.610	447.981	-0.042	-0.093
-357.596	-200.000	0.019	-0.197
-356.581	105.913	-0.131	0.155
-355.566	-200.000	-0.008	-0.158
-354.552	7.400	0.158	-0.118
-353.537	5.349	-0.199	0.146
-352.523	-35.431	-0.085	-0.046
-351.508	-100.440	-0.189	0.047
-350.493	-21.430	-0.055	-0.033
-349.479	800.000	0.067	0.244
-348.464	120.297	-0.060	-0.074
-347.450	95.189	-0.152	-0.172
-346.435	122.496	0.131	-0.163
-345.420	-200.000	-0.014	0.162
-344.406	-200.000	-0.004	-0.132
-343.391	-20.739	0.122	0.075
-342.377	-157.819	-0.358	-0.021
-341.362	38.394	0.121	-0.107
-340.348	-126.216	-0.236	0.035
-339.333	116.538	0.077	0.094
-338.318	526.038	0.057	-0.134
-337.304	-85.991	-0.127	-0.039
-336.289	11.864	-0.387	-0.295
-335.275	-112.289	-0.306	0.061
-334.260	-200.000	0.027	0.244
-333.245	-177.922	-0.318	0.008
-332.231	-136.871	0.044	0.005
-331.216	-92.391	-0.238	-0.067
-330.202	-78.569	-0.155	-0.053
-329.187	-51.648	0.096	-0.044
-328.172	-200.000	0.015	-0.087
-327.158	-200.000	0.036	-0.269
-326.143	-200.000	0.003	-0.266
-325.129	576.004	0.058	0.140
-324.114	-106.613	0.379	0.084
-323.099	800.000	-0.108	0.342
-322.085	-45.474	-0.031	-0.015
-321.070	-200.000	0.038	0.173
-320.056	389.737	0.220	-0.453
-319.041	115.634	-0.131	-0.160
-318.026	-52.937	0.191	0.088
-317.012	-153.725	0.089	0.006
-315.997	-128.528	0.349	0.049
-314.983	-56.275	-0.224	-0.099
-313.968	-200.000	-0.050	-0.292
-312.953	117.502	0.212	-0.259
-311.939	201.063	0.124	-0.190
-310.924	-200.000	0.043	-0.188
-309.910	88.972	-0.148	-0.163
-308.895	800.000	-0.107	-0.427
-307.880	44.281	0.235	-0.214
-306.866	-200.000	0.001	-0.244
-305.851	800.000	-0.024	-0.079
-304.837	31.763	-0.215	0.184
-303.822	-66.375	0.246	-0.097
-302.807	160.626	-0.121	-0.168
-301.793	-126.779	0.195	0.029
-300.778	-200.000	0.052	0.276
-299.764	-21.422	0.383	0.232
-298.749	71.372	-0.129	-0.133
-297.735	-54.796	-0.280	-0.126
-296.720	800.000	-0.083	0.245
-295.705	185.588	-0.064	0.094
-294.691	-200.000	0.054	0.386
-293.676	-61.574	0.088	-0.037
-292.662	164.400	-0.047	-0.066
-291.647	-200.000	0.003	0.134
-290.632	-167.418	-0.037	-0.001
-289.618	-24.619	0.227	-0.134
-288.603	354.161	0.136	-0.267
-287.589	450.699	-0.057	0.125
-286.574	200.482	0.031	-0.047
-285.559	800.000	-0.095	0.277
-284.545	115.562	-0.046	0.056
-283.530	-200.000	0.048	-0.349
-282.516	-56.276	0.115	-0.051
-281.501	157.325	0.064	0.088
-280.486	-173.213	0.347	0.011
-279.472	383.001	-0.090	0.183
-278.457	-200.000	-0.005	0.175
-277.443	-200.000	0.072	-0.385
-276.428	-200.000	0.095	0.659
-275.413	48.763	-0.129	0.120
-274.399	-200.000	0.002	0.125
-273.384	-93.539	-0.284	-0.078
-272.370	-78.399	-0.087	0.030
-271.355	-200.000	-0.021	0.122
-270.340	156.594	-0.131	-0.180
-269.326	-87.997	-0.056	0.017
-268.311	302.737	-0.097	0.178
-267.297	-43.334	-0.107	0.054
-266.282	-32.554	-0.091	0.051
-265.267	-51.462	0.379	-0.176
-264.253	9.447	0.252	-0.189
-263.238	-88.548	-0.364	-0.108
-262.224	456.989	0.188	0.414
-261.209	21.615	0.197	0.159
-260.195	-80.521	-0.182	-0.060
-259.180	45.982	0.097	-0.089
-258.165	37.573	0.106	-0.093
-257.151	-183.624	0.056	-0.001
-256.136	797.177	-0.062	0.169
-255.122	-37.879	0.024	-0.013
-254.107	48.847	-0.138	0.129
-253.092	47.007	0.204	0.188
-252.078	-79.257	0.186	-0.063
-251.063	585.893	0.091	0.221
-250.049	-121.330	0.201	-0.033
-249.034	162.287	-0.068	-0.095
-248.019	800.000	0.112	0.332
-247.005	800.000	0.093	-0.254
-245.990	800.000	0.120	-0.440
-244.976	-28.769	0.128	-0.073
-243.961	104.375	0.165	-0.192
-242.946	800.000	-0.133	0.381
-241.932	-96.685	-0.261	-0.068
-240.917	37.022	0.142	0.125
-239.903	50.306	0.030	0.028
-238.888	33.593	0.309	0.266
-237.873	94.084	-0.156	0.176
-236.859	-58.087	0.115	0.050
-235.844	-33.700	-0.031	-0.017
-234.830	-41.354	-0.269	0.137
-233.815	-113.904	0.104	0.020
-232.800	-200.000	-0.004	0.229
-231.786	-46.395	0.104	-0.050
-230.771	-62.201	-0.065	-0.027
-229.757	-31.033	0.319	0.178
-228.742	-36.135	0.244	-0.131
-227.727	-96.470	-0.382	0.100
-226.713	-103.012	0.229	0.054
-225.698	306.183	-0.088	-0.162
-224.684	-200.000	0.015	-0.158
-223.669	-200.000	-0.030	0.268
-222.655	-40.883	0.115	0.059
-221.640	-88.794	0.326	0.096
-220.625	-112.122	-0.312	-0.062
-219.611	-34.537	0.180	-0.097
-218.596	-90.955	-0.356	0.101
-217.582	-0.454	-0.232	-0.163
-216.567	105.767	0.081	-0.095
-215.552	52.155	0.068	-0.064
-214.538	-200.000	-0.052	0.263
-213.523	-200.000	-0.043	0.203
-212.509	293.345	0.068	-0.123
-211.494	-7.694	0.123	-0.082
-210.479	90.360	0.090	0.100
-209.465	-180.378	-0.165	-0.003
-208.450	-104.896	0.451	0.103
-207.436	-166.536	-0.086	0.004
-206.421	-200.000	0.042	0.274
-205.406	84.589	-0.162	0.176
-204.392	800.000	0.147	-0.459
-203.377	-200.000	0.030	0.234
-202.363	-101.947	-0.061	-0.015
-201.348	117.895	-0.122	-0.149
-200.333	567.506	-0.075	-0.181
-199.319	-33.140	-0.049	-0.027
-198.304	56.552	-0.143	-0.138
-197.290	-129.543	0.368	0.050
-196.275	312.914	-0.182	0.339
-195.260	170.448	-0.023	0.033
-194.246	-170.658	-0.309	-0.011
-193.231	-61.131	0.140	0.059
-192.217	614.344	-0.060	0.148
-191.202	800.000	0.099	-0.372
-190.187	-69.152	0.311	0.118
-189.173	800.000	0.044	-0.162
-188.158	-126.978	-0.161	-0.023
-187.144	800.000	-0.078	0.277
-186.129	113.261	-0.134	0.160
-185.114	-200.000	-0.028	0.328
-184.100	-200.000	-0.018	0.577
-183.085	102.552	-0.043	0.050
-182.071	8.371	0.258	0.192
-181.056	260.909	0.143	0.244
-180.042	-117.346	0.321	0.058
-179.027	-69.739	-0.287	0.109
-178.012	800.000	-0.016	-0.056
-176.998	-152.850	0.203	-0.014
-175.983	-4.576	0.047	-0.032
-174.969	800.000	0.084	-0.330
-173.954	-65.283	0.073	0.029
-172.939	800.000	-0.038	0.122
-171.925	-187.406	0.150	-0.002
-170.910	-98.024	-0.112	0.028
-169.896	-3.726	0.112	0.077
-168.881	-76.957	-0.049	-0.017
-167.866	-173.472	-0.083	0.002
-166.852	10.883	0.211	-0.159
-165.837	-200.000	-0.013	-0.228
-164.823	-45.684	-0.138	-0.067
-163.808	-200.000	0.076	0.412
-162.793	17.019	0.236	-0.185
-161.779	-69.930	-0.231	-0.087
-160.764	-200.000	0.029	-0.131
-159.750	-129.829	0.411	0.056
-158.735	800.000	-0.042	0.137
-157.720	34.520	0.157	-0.136
-156.706	-200.000	0.047	0.209
-155.691	-45.829	-0.040	0.020
-154.677	-125.126	-0.095	-0.014
-153.662	-50.140	0.277	-0.129
-152.647	800.000	-0.005	0.017
-151.633	431.760	0.120	0.257
-150.618	-99.469	-0.173	0.043
-149.604	-166.205	0.339	0.014
-148.589	-200.000	0.006	-0.266
-147.574	54.385	-0.131	-0.125
-146.560	-84.110	-0.124	0.039
-145.545	-143.005	0.150	-0.014
-144.531	-200.000	-0.026	0.433
-143.516	221.749	-0.205	-0.325
-142.502	-27.706	0.198	0.113
-141.487	293.578	-0.191	-0.344
-140.472	21.273	0.092	0.074
-139.458	-6.533	-0.228	-0.153
-138.443	33.032	-0.076	0.065
-137.429	-200.000	-0.003	0.170
-136.414	-125.995	0.211	-0.031
-135.399	395.436	-0.073	-0.150
-134.385	82.774	-0.137	-0.147
-133.370	145.181	-0.115	-0.151
-132.356	142.226	-0.224	0.293
-131.341	135.681	-0.228	0.293
-130.326	-32.216	0.331	0.182
-129.312	306.732	0.083	0.153
-128.297	-200.000	0.024	0.169
-127.283	-10.907	-0.232	0.151
-126.268	-76.277	0.337	-0.117
-125.253	180.581	-0.103	-0.150
-124.239	800.000	0.017	-0.067
-123.224	800.000	-0.127	-0.375
-122.210	-44.351	0.196	-0.097
