DTS Sentinel unit serial number:	SN413079Multiplexer serial number:	ORYXHardware model number:	OX4-SRSoftware version number:	ORYX F/W v4.00 Oryx Data Collector v3.7.2.0data status	okinstallation	princeton_trtdifferential loss correction	single-endedforward channel	channel 4reverse channel	N/Adate	2019/09/16time	00:29:35forward acquisition time	60.00reverse acquisition time	0.00gamma	496.2192k internal	0.2323k external	0.2323temperature offset calibration	0.9965default loss term (dB/km)	0.3790temperature slope calibration	1.0000multiplexer offset coefficient	1.0000multiplexer slope coefficient	1.0000fibre end	0.00T internal ref (°C)	27.56T ext. ref 1 (°C)	9.56T ext. ref 2 (°C)	21.56length (m)	temperature (°C)	Stokes	anti-Stokes-747.200	-200.000	-0.010	0.070
-746.185	-168.834	-0.422	-0.016
-745.171	273.150	0.257	0.458
-744.156	-17.723	-0.206	0.131
-743.142	-143.113	0.182	-0.018
-742.127	16.165	-0.103	-0.082
-741.112	366.261	0.051	-0.104
-740.098	47.723	-0.415	0.391
-739.083	-92.299	-0.188	-0.054
-738.069	161.510	-0.029	-0.042
-737.054	800.000	-0.112	0.353
-736.039	149.330	-0.220	0.301
-735.025	49.410	0.274	0.260
-734.010	-149.838	-0.207	-0.016
-732.996	-153.393	-0.114	-0.008
-731.981	-15.718	-0.264	0.170
-730.966	351.809	-0.145	-0.290
-729.952	-200.000	-0.085	-0.487
-728.937	-200.000	-0.038	-0.336
-727.923	-200.000	0.031	-0.262
-726.908	-47.545	-0.175	0.086
-725.894	-21.158	0.189	0.117
-724.879	800.000	0.032	0.094
-723.864	339.281	-0.025	0.049
-722.850	-37.838	0.078	-0.042
-721.835	-200.000	0.027	0.199
-720.821	82.867	-0.195	0.213
-719.806	52.565	0.145	0.140
-718.791	-79.859	-0.204	-0.069
-717.777	304.424	0.028	0.053
-716.762	78.662	0.178	-0.192
-715.748	-85.134	-0.218	-0.069
-714.733	-200.000	0.065	0.352
-713.718	74.149	-0.166	-0.176
-712.704	-200.000	-0.006	-0.069
-711.689	19.969	-0.253	-0.205
-710.675	-200.000	0.064	-0.303
-709.660	17.300	0.241	-0.193
-708.645	-29.677	-0.283	-0.163
-707.631	-200.000	0.007	-0.142
-706.616	48.517	0.233	0.220
-705.602	-154.657	0.144	-0.010
-704.587	48.659	-0.276	-0.261
-703.572	70.648	-0.144	-0.150
-702.558	-60.463	-0.017	0.007
-701.543	800.000	-0.041	0.149
-700.529	-150.308	-0.225	0.018
-699.514	800.000	0.084	0.345
-698.499	800.000	-0.061	0.213
-697.485	-17.637	0.003	-0.002
-696.470	28.316	-0.056	-0.048
-695.456	204.451	-0.103	-0.160
-694.441	68.978	-0.231	-0.239
-693.426	152.448	0.102	-0.140
-692.412	-200.000	0.002	-0.055
-691.397	800.000	-0.100	0.377
-690.383	132.114	-0.048	0.063
-689.368	61.614	0.136	-0.136
-688.354	58.132	0.078	-0.077
-687.339	-28.476	0.058	-0.034
-686.324	-97.342	0.225	-0.059
-685.310	305.861	-0.166	-0.311
-684.295	270.642	-0.110	-0.194
-683.281	800.000	-0.073	-0.275
-682.266	4.305	-0.244	0.180
-681.251	107.032	0.175	-0.209
-680.237	-200.000	-0.014	-0.312
-679.222	-63.944	-0.516	-0.212
-678.208	131.074	-0.081	-0.105
-677.193	202.155	0.252	-0.391
-676.178	-200.000	-0.032	-0.588
-675.164	692.610	-0.108	-0.285
-674.149	236.565	0.194	-0.324
-673.135	520.300	-0.170	0.401
-672.120	688.206	-0.022	-0.057
-671.105	-106.315	-0.203	0.046
-670.091	238.839	-0.062	-0.104
-669.076	800.000	0.042	0.178
-668.062	800.000	-0.021	-0.092
-667.047	-51.654	-0.249	0.117
-666.032	-157.331	-0.381	-0.023
-665.018	800.000	0.048	-0.141
-664.003	542.048	0.050	-0.121
-662.989	237.356	0.149	0.249
-661.974	-110.869	-0.276	0.057
-660.959	238.541	-0.111	0.185
-659.945	800.000	0.072	-0.260
-658.930	-121.892	0.091	-0.015
-657.916	629.168	-0.131	-0.332
-656.901	161.288	0.322	-0.452
-655.886	-98.016	-0.117	-0.030
-654.872	-200.000	-0.003	0.195
-653.857	-200.000	-0.001	0.055
-652.843	-200.000	0.012	-0.057
-651.828	-54.886	-0.243	0.110
-650.814	-53.279	-0.215	0.099
-649.799	1.838	-0.229	-0.166
-648.784	-200.000	-0.002	-0.373
-647.770	8.720	-0.164	-0.124
-646.755	530.617	0.185	0.440
-645.741	-77.334	-0.155	-0.054
-644.726	800.000	0.056	-0.194
-643.711	-43.072	0.153	-0.078
-642.697	-109.742	0.134	0.028
-641.682	1.224	-0.305	0.220
-640.668	-143.018	-0.143	0.014
-639.653	232.475	-0.010	0.016
-638.638	-165.875	0.238	-0.010
-637.624	32.048	-0.090	-0.078
-636.609	191.902	0.162	-0.245
-635.595	-39.697	-0.207	-0.109
-634.580	196.550	-0.233	-0.357
-633.565	90.390	-0.123	0.139
-632.551	217.929	-0.024	0.039
-631.536	-58.326	0.493	-0.216
-630.522	-105.892	-0.183	0.041
-629.507	411.485	-0.180	0.383
-628.492	800.000	0.077	0.218
-627.478	-111.893	0.186	0.038
-626.463	-160.293	0.288	-0.016
-625.449	-6.832	-0.125	-0.086
-624.434	-26.999	-0.158	-0.093
-623.419	164.851	-0.125	-0.177
-622.405	-200.000	-0.029	0.222
-621.390	-168.621	-0.424	-0.016
-620.376	-87.425	0.303	-0.092
-619.361	21.660	0.106	0.087
-618.346	20.124	0.194	0.157
-617.332	-99.854	-0.458	0.115
-616.317	-200.000	-0.011	0.066
-615.303	71.038	-0.234	-0.244
-614.288	-154.950	0.112	0.007
-613.273	556.401	0.162	-0.391
-612.259	26.498	-0.226	-0.190
-611.244	187.751	-0.136	0.204
-610.230	-200.000	-0.003	0.231
-609.215	-200.000	-0.010	0.372
-608.201	-79.550	0.214	0.072
-607.186	-200.000	0.014	0.152
-606.171	-109.411	0.164	-0.035
-605.157	104.561	-0.213	-0.252
-604.142	-200.000	-0.042	-0.223
-603.128	-87.098	-0.380	-0.116
-602.113	51.858	-0.148	-0.142
-601.098	165.201	-0.050	0.070
-600.084	191.759	-0.053	-0.080
-599.069	800.000	0.030	0.102
-598.055	800.000	0.092	0.270
-597.040	800.000	0.076	-0.225
-596.025	607.475	0.095	-0.237
-595.011	21.093	0.127	-0.103
-593.996	-126.141	0.173	0.026
-592.982	177.639	0.253	0.371
-591.967	-14.746	-0.199	0.128
-590.952	101.719	0.146	0.171
-589.938	-200.000	0.048	-0.248
-588.923	-72.139	-0.060	0.022
-587.909	27.578	0.286	-0.241
-586.894	58.537	-0.060	-0.059
-585.879	800.000	0.014	0.054
-584.865	-108.251	-0.539	-0.117
-583.850	175.769	-0.171	0.249
-582.836	-200.000	-0.042	0.354
-581.821	-78.890	0.068	-0.023
-580.806	-150.533	0.176	-0.014
-579.792	-169.865	-0.145	-0.005
-578.777	-173.016	-0.364	0.011
-577.763	128.774	0.078	-0.100
-576.748	150.123	0.161	-0.219
-575.733	107.778	0.130	0.155
-574.719	-101.875	-0.334	0.081
-573.704	-200.000	-0.009	0.202
-572.690	800.000	-0.101	-0.419
-571.675	-1.353	0.111	0.078
-570.661	23.024	-0.214	-0.176
-569.646	-200.000	-0.004	0.434
-568.631	338.898	-0.045	-0.088
-567.617	800.000	0.036	-0.123
-566.602	-200.000	0.000	0.026
-565.588	304.308	-0.284	0.528
-564.573	-200.000	0.034	-0.379
-563.558	-200.000	-0.000	-0.097
-562.544	800.000	-0.091	0.281
-561.529	196.111	-0.126	0.193
-560.515	358.054	0.142	0.285
-559.500	-200.000	-0.006	0.234
-558.485	-200.000	0.043	0.214
-557.471	14.494	0.227	-0.178
-556.456	-44.607	-0.277	-0.139
-555.442	800.000	0.053	-0.190
-554.427	-100.664	0.238	-0.059
-553.412	374.051	-0.109	0.222
-552.398	-143.412	0.348	0.033
-551.383	800.000	0.020	0.086
-550.369	-200.000	-0.003	0.186
-549.354	-101.636	-0.274	-0.067
-548.339	-200.000	-0.026	0.268
-547.325	800.000	0.125	0.361
-546.310	800.000	0.038	-0.150
-545.296	20.353	0.062	-0.050
-544.281	40.250	-0.400	-0.360
-543.266	800.000	0.040	0.125
-542.252	-188.836	-0.352	0.004
-541.237	800.000	0.073	0.262
-540.223	800.000	-0.110	0.357
-539.208	-200.000	0.024	0.135
-538.193	-91.943	-0.377	-0.107
-537.179	403.785	0.061	-0.129
-536.164	-172.292	0.088	0.003
-535.150	-123.194	-0.177	0.028
-534.135	-26.338	-0.180	-0.106
-533.121	-200.000	-0.034	-0.188
-532.106	29.564	0.360	-0.307
-531.091	352.953	0.238	-0.473
-530.077	5.046	-0.118	-0.087
-529.062	93.529	-0.202	0.229
-528.048	-17.682	0.069	-0.043
-527.033	60.272	-0.065	-0.065
-526.018	156.248	-0.086	-0.118
-525.004	-175.415	0.119	0.003
-523.989	-5.880	-0.124	-0.085
-522.975	-46.350	0.136	0.067
-521.960	144.622	-0.150	-0.200
-520.945	-5.537	-0.079	0.054
-519.931	800.000	-0.028	0.119
-518.916	-26.914	0.015	-0.008
-517.902	-200.000	0.004	-0.081
-516.887	52.134	-0.087	-0.083
-515.872	-200.000	-0.032	-0.256
-514.858	-17.195	0.168	-0.106
-513.843	-108.834	0.180	0.038
-512.829	-111.626	-0.309	0.063
-511.814	-89.816	0.196	0.057
-510.799	240.856	-0.191	0.319
-509.785	-56.282	-0.131	0.058
-508.770	800.000	-0.058	0.188
-507.756	-200.000	-0.051	0.366
-506.741	122.640	-0.123	-0.154
-505.726	-183.957	-0.089	-0.002
-504.712	-200.000	0.003	-0.230
-503.697	-179.092	0.458	-0.010
-502.683	-41.310	-0.190	0.098
-501.668	-43.491	-0.339	-0.171
-500.653	-45.555	0.179	-0.089
-499.639	251.906	-0.121	-0.205
-498.624	245.717	0.281	-0.473
-497.610	694.566	-0.063	-0.166
-496.595	-200.000	0.025	-0.546
-495.581	-94.294	0.235	-0.064
-494.566	113.467	-0.136	-0.165
-493.551	-63.523	0.279	0.115
-492.537	-200.000	0.020	0.232
-491.522	60.856	0.246	0.244
-490.508	219.835	-0.027	-0.044
-489.493	-200.000	0.003	0.171
-488.478	-200.000	-0.033	-0.331
-487.464	-200.000	-0.002	-0.192
-486.449	800.000	0.095	0.294
-485.435	-23.492	0.228	0.137
-484.420	-200.000	-0.050	-0.324
-483.405	-43.116	-0.081	-0.041
-482.391	-200.000	0.042	0.266
-481.376	-25.497	-0.177	-0.104
-480.362	800.000	0.051	0.217
-479.347	142.863	0.229	-0.304
-478.332	8.216	-0.092	-0.069
-477.318	12.904	0.275	-0.212
-476.303	800.000	-0.050	-0.147
-475.289	657.688	-0.129	-0.331
-474.274	126.989	-0.193	-0.245
-473.259	-91.798	0.187	0.053
-472.245	43.875	-0.270	0.247
-471.230	302.399	-0.128	-0.237
-470.216	-200.000	-0.011	0.139
-469.201	-41.311	-0.066	-0.034
-468.186	61.887	-0.199	0.198
-467.172	239.957	-0.236	-0.393
-466.157	-200.000	-0.004	-0.081
-465.143	153.662	0.035	-0.048
-464.128	-200.000	0.070	-0.357
-463.113	-200.000	0.012	-0.225
-462.099	-200.000	-0.015	0.139
-461.084	800.000	0.079	0.242
-460.070	-75.435	-0.163	0.058
-459.055	12.248	-0.242	0.186
-458.040	175.292	0.057	-0.082
-457.026	672.837	0.051	0.133
-456.011	197.438	0.207	0.315
-454.997	-200.000	0.035	-0.301
-453.982	15.611	0.102	0.080
-452.968	-12.065	0.241	-0.157
-451.953	14.246	-0.113	0.088
-450.938	-92.752	-0.062	-0.017
-449.924	92.197	-0.160	-0.179
-448.909	-200.000	-0.016	0.081
-447.895	96.445	-0.113	-0.129
-446.880	-183.048	0.068	-0.001
-445.865	-200.000	-0.033	0.231
-444.851	97.998	-0.047	0.054
-443.836	506.645	-0.046	-0.107
-442.822	165.158	0.169	0.238
-441.807	137.433	0.117	-0.152
-440.792	-21.579	0.174	0.106
-439.778	-200.000	0.000	-0.109
-438.763	800.000	0.042	0.156
-437.749	178.290	0.125	-0.183
-436.734	193.893	-0.047	-0.072
-435.719	-200.000	-0.004	-0.072
-434.705	375.490	0.093	0.188
-433.690	-61.035	0.083	-0.035
-432.676	84.001	-0.258	-0.281
-431.661	565.603	-0.041	-0.098
-430.646	-15.931	0.285	-0.181
-429.632	112.749	-0.156	0.189
-428.617	-28.527	0.147	-0.085
-427.603	122.884	0.120	0.149
-426.588	800.000	-0.024	0.081
-425.573	800.000	-0.026	0.102
-424.559	-200.000	0.024	0.198
-423.544	-94.951	-0.216	-0.058
-422.530	250.060	-0.062	0.105
-421.515	-45.393	0.248	-0.123
-420.500	-88.186	0.276	-0.083
-419.486	-115.014	-0.121	0.023
-418.471	800.000	0.055	0.151
-417.457	-33.369	0.180	-0.099
-416.442	-108.443	0.122	-0.026
-415.428	-35.048	0.187	-0.102
-414.413	-43.666	0.099	-0.050
-413.398	8.022	0.171	0.128
-412.384	96.264	0.139	-0.159
-411.369	-200.000	-0.068	-0.328
-410.355	272.010	-0.135	-0.237
-409.340	246.863	0.136	-0.228
-408.325	-200.000	0.019	0.335
-407.311	-81.863	0.222	0.072
-406.296	178.051	0.048	0.069
-405.282	-148.890	0.120	-0.010
-404.267	-200.000	0.014	-0.142
-403.252	124.419	0.072	-0.091
-402.238	-62.296	0.057	-0.024
-401.223	-178.949	0.100	-0.002
-400.209	149.864	-0.127	0.171
-399.194	716.143	-0.052	0.139
-398.179	143.337	-0.248	-0.329
-397.165	-195.902	0.254	-0.002
-396.150	32.262	-0.056	0.048
-395.136	73.108	0.279	0.290
-394.121	62.453	0.199	0.198
-393.106	-93.582	-0.246	0.068
-392.092	239.425	0.104	0.173
-391.077	-200.000	0.061	-0.325
-390.063	-44.849	-0.173	0.086
-389.048	69.386	0.049	0.050
-388.033	800.000	0.104	-0.438
-387.019	40.228	0.203	-0.181
-386.004	142.899	-0.188	0.248
-384.990	229.880	-0.103	-0.168
-383.975	3.852	-0.064	-0.046
-382.960	603.778	0.047	0.117
-381.946	103.854	0.253	0.296
-380.931	208.403	0.211	-0.328
-379.917	800.000	-0.033	0.135
-378.902	98.722	0.106	0.122
-377.888	800.000	-0.009	0.033
-376.873	-37.273	-0.293	0.156
-375.858	495.999	0.120	-0.274
-374.844	-200.000	-0.025	0.140
-373.829	40.826	0.065	-0.058
-372.815	659.431	0.022	-0.055
-371.800	671.436	-0.179	0.462
-370.785	392.858	0.097	0.201
-369.771	800.000	-0.035	0.103
-368.756	727.383	0.041	0.109
-367.742	-4.953	0.418	-0.286
-366.727	-73.640	0.235	0.085
-365.712	-200.000	-0.003	0.137
-364.698	-200.000	-0.062	-0.381
-363.683	-200.000	0.046	0.325
-362.669	-107.577	-0.295	0.064
-361.654	-9.187	0.066	0.044
-360.639	-149.106	0.439	-0.035
-359.625	56.133	0.086	0.083
-358.610	-200.000	-0.032	0.144
-357.596	89.977	-0.165	0.184
-356.581	-125.155	0.171	-0.026
-355.566	-7.474	-0.201	-0.135
-354.552	-200.000	-0.010	-0.105
-353.537	27.347	0.107	0.089
-352.523	-133.884	0.350	-0.043
-351.508	223.463	-0.189	0.303
-350.493	-200.000	-0.007	0.049
-349.479	-11.814	-0.023	0.015
-348.464	-168.641	-0.154	-0.006
-347.450	-52.802	0.353	-0.162
-346.435	127.493	0.060	-0.076
-345.420	-90.462	-0.350	0.101
-344.406	800.000	-0.029	-0.114
-343.391	-64.393	-0.161	0.065
-342.377	636.648	-0.114	0.288
-341.362	123.080	0.148	0.184
-340.348	290.754	-0.134	0.242
-339.333	-84.267	0.087	-0.027
-338.318	-200.000	0.015	-0.217
-337.304	800.000	-0.057	0.164
-336.289	-52.223	0.242	0.111
-335.275	800.000	0.051	-0.217
-334.260	16.241	0.231	0.181
-333.245	-200.000	-0.021	0.266
-332.231	547.147	-0.148	-0.352
-331.216	29.832	0.221	0.187
-330.202	-200.000	-0.055	-0.302
-329.187	-79.299	-0.131	0.044
-328.172	-28.176	-0.293	0.168
-327.158	64.866	-0.151	0.151
-326.143	-13.221	-0.228	-0.147
-325.129	-105.158	0.264	0.060
-324.114	192.634	0.062	0.093
-323.099	200.905	-0.116	0.177
-322.085	-200.000	0.073	-0.472
-321.070	-56.248	-0.097	0.043
-320.056	-56.699	-0.088	0.039
-319.041	89.824	-0.061	-0.068
-318.026	-23.028	0.047	-0.028
-317.012	-200.000	0.002	-0.014
-315.997	2.261	0.129	0.092
-314.983	-29.546	0.235	-0.133
-313.968	800.000	0.066	0.184
-312.953	110.505	-0.275	0.329
-311.939	22.010	0.048	0.039
-310.924	711.122	-0.041	-0.108
-309.910	324.309	-0.183	-0.347
-308.895	-124.812	-0.242	-0.037
-307.880	143.641	-0.197	0.260
-306.866	-127.890	-0.298	-0.043
-305.851	-90.507	-0.229	-0.066
-304.837	385.285	0.128	0.261
-303.822	-72.160	0.106	0.039
-302.807	-72.419	0.280	-0.103
-301.793	439.173	-0.165	-0.358
-300.778	-36.750	-0.138	-0.073
-299.764	-85.803	0.057	-0.017
-298.749	705.786	-0.075	-0.197
-297.735	-3.292	-0.179	0.124
-296.720	-100.323	0.393	0.097
-295.705	34.935	-0.112	0.097
-294.691	-137.053	0.257	-0.029
-293.676	-200.000	-0.037	-0.242
-292.662	39.854	-0.281	-0.250
-291.647	-200.000	-0.028	0.135
-290.632	126.857	-0.267	0.335
-289.618	-164.348	0.248	0.011
-288.603	-42.377	-0.256	-0.130
-287.589	190.906	0.171	0.256
-286.574	-96.665	0.188	0.049
-285.559	-39.698	0.066	-0.034
-284.545	-155.560	-0.112	-0.007
-283.530	100.840	-0.114	0.132
-282.516	-112.083	-0.229	0.046
-281.501	279.670	0.053	-0.094
-280.486	800.000	-0.089	-0.262
-279.472	200.416	0.048	-0.073
-278.457	-92.577	0.366	0.102
-277.443	-200.000	0.029	0.186
-276.428	-200.000	-0.008	0.210
-275.413	-39.120	-0.157	-0.082
-274.399	124.320	0.152	0.189
-273.384	-200.000	0.031	-0.389
-272.370	322.391	-0.061	-0.115
-271.355	292.824	0.100	-0.180
-270.340	-200.000	-0.044	-0.312
-269.326	27.133	-0.159	-0.132
-268.311	-200.000	0.008	0.256
-267.297	-200.000	-0.021	0.143
-266.282	-200.000	0.262	0.000
-265.267	-45.869	0.151	0.074
-264.253	-138.308	0.381	-0.042
-263.238	-33.937	-0.066	0.036
-262.224	94.128	-0.051	0.057
-261.209	266.014	-0.090	-0.156
-260.195	-97.700	0.178	0.046
-259.180	-200.000	-0.012	0.174
-258.165	217.390	0.039	-0.062
-257.151	-0.668	-0.211	-0.148
-256.136	-127.053	0.198	0.029
-255.122	-200.000	-0.047	-0.293
-254.107	566.371	-0.064	-0.154
-253.092	-156.031	0.284	0.018
-252.078	-101.521	0.377	-0.091
-251.063	800.000	-0.060	0.181
-250.049	448.750	-0.025	0.054
-249.034	-8.503	0.145	0.096
-248.019	-128.226	-0.127	0.018
-247.005	-51.115	-0.165	0.077
-245.990	800.000	0.094	0.369
-244.976	-200.000	0.036	0.247
-243.961	168.425	0.132	-0.186
-242.946	503.206	-0.058	0.133
-241.932	82.398	-0.052	-0.056
-240.917	-200.000	0.067	0.325
-239.903	-200.000	-0.034	-0.162
-238.888	-132.969	0.334	0.042
-237.873	800.000	-0.158	0.451
-236.859	-104.564	-0.085	-0.019
-235.844	4.324	0.283	0.205
-234.830	-173.798	0.354	-0.010
-233.815	537.768	0.090	0.212
-232.800	533.930	-0.176	-0.412
-231.786	72.987	-0.092	-0.095
-230.771	-114.247	-0.514	0.098
-229.757	-138.914	0.106	0.011
-228.742	233.817	-0.134	-0.218
-227.727	-200.000	0.006	-0.097
-226.713	-200.000	0.015	0.179
-225.698	713.698	-0.131	-0.342
-224.684	800.000	0.062	-0.181
-223.669	-161.881	0.213	0.011
-222.655	-7.547	0.133	-0.089
-221.640	20.284	-0.257	0.205
-220.625	-131.398	0.106	-0.014
-219.611	62.490	0.176	0.174
-218.596	-3.962	-0.254	0.174
-217.582	800.000	0.047	-0.175
-216.567	-140.271	-0.222	0.023
-215.552	800.000	-0.106	-0.312
-214.538	695.928	0.040	-0.105
-213.523	294.285	0.084	-0.153
-212.509	800.000	0.056	0.158
-211.494	74.445	0.121	-0.126
-210.479	800.000	0.048	-0.139
-209.465	-150.059	0.164	0.013
-208.450	-91.546	-0.360	0.102
-207.436	-80.292	-0.331	0.110
-206.421	800.000	-0.062	0.229
-205.406	17.632	-0.229	-0.180
-204.392	-140.818	-0.201	-0.021
-203.377	-70.798	-0.329	-0.123
-202.363	-80.261	-0.380	0.126
-201.348	-200.000	0.023	0.147
-200.333	800.000	0.021	-0.084
-199.319	690.833	0.142	0.367
-198.304	159.853	-0.071	0.098
-197.290	295.765	-0.210	0.380
-196.275	165.633	-0.131	0.183
-195.260	-140.005	0.296	0.031
-194.246	-131.997	-0.188	0.024
-193.231	7.984	0.085	-0.063
-192.217	287.419	0.045	-0.081
-191.202	-200.000	-0.004	-0.066
-190.187	-82.028	0.104	-0.034
-189.173	-117.812	0.270	-0.048
-188.158	19.124	-0.287	-0.228
-187.144	248.222	0.143	-0.238
-186.129	-168.598	-0.248	0.009
-185.114	107.252	0.249	-0.292
-184.100	-93.587	-0.104	0.028
-183.085	-200.000	-0.021	-0.146
-182.071	3.516	-0.248	-0.179
-181.056	-17.827	0.096	0.060
-180.042	27.875	0.266	0.221
-179.027	-91.582	0.253	0.071
-178.012	800.000	-0.034	0.122
-176.998	-200.000	0.050	-0.379
-175.983	283.218	0.104	-0.184
-174.969	407.349	-0.048	-0.099
-173.954	151.218	-0.188	0.252
-172.939	15.691	-0.175	-0.136
-171.925	-138.610	-0.469	0.051
-170.910	-200.000	-0.008	0.184
-169.896	-200.000	-0.008	0.039
-168.881	-192.864	-0.065	0.001
-167.866	617.392	0.145	0.359
-166.852	55.790	0.106	-0.101
-165.837	133.858	0.201	-0.256
-164.823	-88.852	0.273	-0.080
-163.808	-200.000	-0.018	-0.121
-162.793	347.900	0.067	0.131
-161.779	-200.000	-0.005	-0.095
-160.764	-99.685	0.140	-0.035
-159.750	-200.000	-0.015	-0.169
-158.735	490.948	0.094	0.212
-157.720	-139.429	0.226	0.024
-156.706	-44.558	0.052	-0.025
-155.691	-13.694	0.426	0.272
-154.677	-200.000	-0.036	0.244
-153.662	-200.000	0.088	0.478
-152.647	-172.687	-0.197	-0.006
-151.633	-4.146	-0.027	0.018
-150.618	-146.211	-0.302	-0.026
-149.604	23.715	0.456	-0.370
-148.589	-68.502	0.080	0.031
-147.574	-200.000	0.004	0.061
-146.560	533.566	-0.090	-0.210
-145.545	-135.175	-0.050	-0.006
-144.531	-13.637	-0.227	-0.145
-143.516	-128.871	0.194	0.027
-142.502	-102.461	-0.026	-0.006
-141.487	86.675	0.058	-0.063
-140.472	13.409	-0.196	-0.150
-139.458	-200.000	-0.018	0.321
-138.443	13.163	0.202	-0.154
-137.429	-125.538	-0.323	0.048
-136.414	164.738	0.155	0.216
-135.399	-84.347	-0.212	0.066
-134.385	-200.000	-0.037	0.264
-133.370	-32.063	0.327	0.181
-132.356	58.610	-0.060	-0.058
-131.341	-52.513	-0.216	-0.099
-130.326	-28.017	0.293	-0.167
-129.312	142.789	-0.104	-0.136
-128.297	288.872	0.091	-0.162
-127.283	275.467	0.038	0.066
-126.268	216.817	-0.158	-0.248
-125.253	-139.152	-0.209	-0.022
-124.239	143.663	0.150	0.197
-123.224	17.580	-0.249	0.195
-122.210	-200.000	0.011	0.125
