DTS Sentinel unit serial number:	SN413079Multiplexer serial number:	ORYXHardware model number:	OX4-SRSoftware version number:	ORYX F/W v4.00 Oryx Data Collector v3.7.2.0data status	okinstallation	princeton_trtdifferential loss correction	single-endedforward channel	channel 4reverse channel	N/Adate	2019/09/19time	02:53:35forward acquisition time	60.00reverse acquisition time	0.00gamma	496.2192k internal	0.2340k external	0.2340temperature offset calibration	1.0024default loss term (dB/km)	0.3790temperature slope calibration	1.0000multiplexer offset coefficient	1.0000multiplexer slope coefficient	1.0000fibre end	0.00T internal ref (°C)	20.87T ext. ref 1 (°C)	0.66T ext. ref 2 (°C)	14.69length (m)	temperature (°C)	Stokes	anti-Stokes-747.200	82.951	0.154	-0.168
-746.185	27.260	-0.550	0.463
-745.171	-134.217	0.272	-0.034
-744.156	-39.984	-0.079	-0.041
-743.142	593.104	0.079	0.195
-742.127	800.000	-0.065	-0.260
-741.112	-123.620	-0.131	0.021
-740.098	-56.791	-0.294	-0.130
-739.083	213.522	-0.077	0.122
-738.069	-0.575	-0.175	0.124
-737.054	-29.391	0.071	0.040
-736.039	-200.000	0.016	-0.338
-735.025	4.970	0.140	-0.103
-734.010	-200.000	-0.035	-0.303
-732.996	237.402	-0.130	0.216
-731.981	734.737	-0.021	0.056
-730.966	445.485	0.080	-0.177
-729.952	-69.446	-0.151	-0.058
-728.937	86.017	0.141	-0.156
-727.923	-58.373	-0.117	0.051
-726.908	-106.328	-0.139	0.031
-725.894	800.000	0.033	-0.097
-724.879	134.530	0.230	-0.299
-723.864	30.324	-0.187	0.160
-722.850	-39.600	0.371	-0.194
-721.835	-125.254	0.015	-0.002
-720.821	-200.000	0.032	-0.206
-719.806	197.861	-0.124	-0.189
-718.791	1.666	-0.177	-0.127
-717.777	107.194	-0.043	0.051
-716.762	-9.485	0.279	-0.187
-715.748	-105.398	-0.118	0.027
-714.733	-142.174	-0.209	-0.021
-713.718	-200.000	-0.009	-0.122
-712.704	165.084	-0.187	0.265
-711.689	101.301	0.164	0.191
-710.675	61.599	-0.155	-0.154
-709.660	800.000	0.096	-0.288
-708.645	-200.000	0.014	0.170
-707.631	498.053	-0.121	0.278
-706.616	183.742	0.069	0.103
-705.602	-106.883	-0.120	-0.027
-704.587	-200.000	-0.060	-0.333
-703.572	-0.073	-0.044	0.032
-702.558	-159.175	0.210	-0.012
-701.543	-190.980	0.461	-0.005
-700.529	-200.000	0.033	0.268
-699.514	47.487	-0.089	0.083
-698.499	-200.000	-0.010	-0.135
-697.485	244.447	0.163	-0.274
-696.470	359.758	0.069	0.138
-695.456	800.000	0.103	0.407
-694.441	-200.000	0.085	0.422
-693.426	6.081	-0.241	0.179
-692.412	245.625	0.118	-0.200
-691.397	47.770	0.027	0.025
-690.383	306.594	0.013	-0.025
-689.368	-200.000	-0.038	-0.326
-688.354	-55.953	-0.334	-0.149
-687.339	800.000	0.005	-0.020
-686.324	-8.564	0.055	-0.037
-685.310	-200.000	0.043	-0.315
-684.295	-92.572	0.221	0.062
-683.281	125.013	0.268	0.337
-682.266	24.364	-0.124	-0.102
-681.251	298.523	0.082	-0.152
-680.237	-200.000	-0.008	0.195
-679.222	-101.143	0.308	0.075
-678.208	-61.877	0.275	-0.115
-677.193	-200.000	0.029	0.203
-676.178	-49.824	-0.318	0.151
-675.164	-200.000	0.032	0.267
-674.149	283.571	0.203	0.364
-673.135	-145.108	-0.174	0.016
-672.120	-87.410	0.162	-0.049
-671.105	111.011	-0.150	-0.180
-670.091	-200.000	0.022	-0.166
-669.076	336.481	0.143	0.278
-668.062	-18.204	-0.306	0.191
-667.047	-46.085	0.091	-0.045
-666.032	-102.469	-0.247	-0.059
-665.018	-109.853	0.162	-0.034
-664.003	77.907	0.258	-0.275
-662.989	159.277	0.203	-0.283
-661.974	50.690	-0.411	-0.389
-660.959	800.000	0.104	0.312
-659.945	-24.003	0.287	-0.171
-658.930	-69.166	-0.358	-0.138
-657.916	-200.000	0.018	0.143
-656.901	24.446	-0.258	-0.213
-655.886	331.279	0.193	-0.372
-654.872	-63.811	-0.097	-0.040
-653.857	-150.709	-0.187	-0.014
-652.843	688.411	0.037	0.096
-651.828	-114.529	-0.067	0.013
-650.814	506.993	0.100	-0.233
-649.799	-200.000	-0.028	-0.348
-648.784	173.640	0.178	-0.257
-647.770	669.322	0.097	-0.249
-646.755	230.601	0.042	-0.068
-645.741	795.473	-0.016	-0.044
-644.726	-150.447	-0.413	0.032
-643.711	126.327	-0.101	-0.127
-642.697	48.273	-0.088	0.082
-641.682	800.000	0.019	-0.063
-640.668	581.157	0.074	0.180
-639.653	-200.000	0.028	-0.205
-638.638	418.388	0.091	-0.194
-637.624	-200.000	0.009	-0.170
-636.609	-8.267	0.309	-0.208
-635.595	-37.456	-0.062	0.033
-634.580	89.313	0.207	-0.230
-633.565	35.442	-0.106	-0.093
-632.551	439.958	-0.040	0.086
-631.536	-107.773	0.048	-0.011
-630.522	58.042	-0.289	-0.283
-629.507	607.691	-0.046	-0.114
-628.492	800.000	-0.117	-0.402
-627.478	-175.681	-0.220	-0.006
-626.463	167.077	-0.124	0.175
-625.449	-200.000	0.003	-0.146
-624.434	186.816	0.013	0.020
-623.419	800.000	-0.046	-0.158
-622.405	-200.000	0.023	0.205
-621.390	-94.551	0.293	-0.079
-620.376	800.000	-0.076	-0.289
-619.361	-17.130	0.248	-0.156
-618.346	800.000	0.058	-0.212
-617.332	-200.000	-0.020	0.140
-616.317	-98.280	0.266	-0.068
-615.303	199.132	-0.176	-0.269
-614.288	-23.205	-0.155	-0.093
-613.273	-163.231	0.127	-0.006
-612.259	41.960	-0.125	0.113
-611.244	71.277	0.132	-0.137
-610.230	800.000	0.038	0.128
-609.215	61.241	0.050	-0.050
-608.201	141.460	-0.092	-0.122
-607.186	121.326	-0.102	0.126
-606.171	11.230	-0.193	0.148
-605.157	-30.491	-0.089	-0.050
-604.142	-200.000	0.020	-0.447
-603.128	-81.708	-0.134	-0.044
-602.113	-152.197	-0.366	0.026
-601.098	243.244	0.062	-0.103
-600.084	800.000	0.057	-0.236
-599.069	-71.703	0.281	-0.105
-598.055	-200.000	-0.026	-0.554
-597.040	37.756	-0.251	-0.222
-596.025	800.000	-0.052	-0.208
-595.011	-106.164	0.368	-0.082
-593.996	-80.946	-0.294	-0.097
-592.982	-200.000	-0.018	0.106
-591.967	354.196	0.025	0.050
-590.952	-21.590	-0.206	-0.125
-589.938	-70.834	-0.271	0.102
-588.923	-200.000	-0.026	-0.167
-587.909	-64.778	-0.278	-0.112
-586.894	-72.482	0.286	-0.105
-585.879	-173.401	0.253	-0.008
-584.865	-118.264	0.035	0.006
-583.850	800.000	-0.048	0.158
-582.836	-60.335	0.138	0.059
-581.821	800.000	0.036	-0.157
-580.806	-200.000	-0.012	-0.283
-579.792	-39.735	-0.309	-0.161
-578.777	-70.403	-0.128	0.048
-577.763	-200.000	0.044	0.305
-576.748	800.000	0.160	-0.449
-575.733	-95.214	-0.064	-0.017
-574.719	40.539	-0.240	-0.216
-573.704	-200.000	0.011	-0.487
-572.690	17.648	-0.217	-0.172
-571.675	51.985	0.244	0.231
-570.661	800.000	-0.073	-0.226
-569.646	-160.282	0.437	-0.024
-568.631	-4.185	0.078	0.054
-567.617	-124.013	0.374	0.058
-566.602	-70.972	0.093	0.035
-565.588	42.748	-0.146	-0.133
-564.573	380.264	0.042	-0.087
-563.558	97.860	-0.146	-0.167
-562.544	-58.129	-0.174	0.075
-561.529	222.597	0.232	0.372
-560.515	-76.993	-0.077	-0.027
-559.500	89.057	-0.319	0.354
-558.485	-120.329	-0.203	-0.034
-557.471	-77.955	-0.146	-0.050
-556.456	421.565	-0.132	-0.283
-555.442	508.148	0.074	-0.172
-554.427	-103.531	-0.146	0.034
-553.412	-93.766	0.391	-0.107
-552.398	51.633	-0.176	0.166
-551.383	-121.177	0.241	0.040
-550.369	225.589	-0.042	-0.068
-549.354	-33.103	0.352	0.194
-548.339	-51.906	-0.070	-0.032
-547.325	281.552	0.068	-0.120
-546.310	484.496	0.141	0.320
-545.296	78.170	-0.101	0.107
-544.281	800.000	0.065	0.208
-543.266	-87.935	0.123	0.037
-542.252	225.481	-0.210	-0.338
-541.237	288.550	-0.191	-0.345
-540.223	-53.630	-0.252	-0.115
-539.208	-200.000	0.019	0.147
-538.193	259.883	0.009	-0.016
-537.179	30.377	0.388	-0.330
-536.164	-200.000	0.003	0.073
-535.150	-43.374	0.041	0.021
-534.135	653.442	-0.199	0.507
-533.121	-91.136	-0.212	-0.061
-532.106	-200.000	-0.081	0.446
-531.091	451.874	0.100	0.221
-530.077	26.325	-0.302	-0.251
-529.062	118.454	0.128	-0.156
-528.048	4.645	-0.232	-0.169
-527.033	-200.000	-0.026	-0.175
-526.018	-146.817	0.393	0.034
-525.004	-200.000	-0.022	0.096
-523.989	800.000	-0.078	-0.271
-522.975	21.411	-0.213	-0.172
-521.960	145.636	-0.072	-0.095
-520.945	-63.989	0.112	-0.045
-519.931	-51.696	0.357	-0.165
-518.916	87.042	0.091	-0.100
-517.902	800.000	-0.016	-0.066
-516.887	513.104	0.109	0.251
-515.872	-75.205	0.110	0.039
-514.858	-93.103	-0.050	-0.014
-513.843	-87.692	0.296	-0.089
-512.829	413.915	-0.071	0.149
-511.814	65.317	-0.192	0.193
-510.799	-132.080	0.371	0.048
-509.785	-183.700	-0.218	-0.004
-508.770	-49.158	-0.066	-0.032
-507.756	-45.887	0.320	0.157
-506.741	29.268	0.034	-0.029
-505.726	256.016	-0.103	0.176
-504.712	-134.944	0.158	-0.019
-503.697	-51.052	-0.063	0.029
-502.683	158.353	-0.284	0.391
-501.668	-200.000	0.066	-0.331
-500.653	-200.000	0.007	0.287
-499.639	-200.000	0.003	0.228
-498.624	-78.542	-0.207	0.070
-497.610	100.176	0.226	0.260
-496.595	253.467	-0.142	0.241
-495.581	800.000	0.077	-0.243
-494.566	0.660	-0.131	-0.093
-493.551	-144.888	-0.289	0.026
-492.537	-200.000	0.006	-0.163
-491.522	800.000	-0.096	0.309
-490.508	-74.607	0.314	0.112
-489.493	-200.000	0.054	0.242
-488.478	800.000	-0.039	-0.141
-487.464	149.025	0.080	0.107
-486.449	177.130	-0.121	-0.175
-485.435	122.222	0.077	-0.095
-484.420	-53.146	-0.376	0.172
-483.405	78.922	0.086	0.091
-482.391	79.465	0.233	0.247
-481.376	-180.759	-0.147	0.003
-480.362	800.000	-0.059	-0.184
-479.347	6.148	-0.145	0.107
-478.332	253.969	-0.219	0.371
-477.318	-41.655	0.076	-0.039
-476.303	690.271	-0.103	-0.269
-475.289	800.000	0.042	-0.163
-474.274	-97.002	-0.372	-0.097
-473.259	-200.000	-0.005	0.328
-472.245	-112.901	0.127	0.025
-471.230	-173.222	0.118	0.004
-470.216	36.236	-0.039	0.034
-469.201	685.218	-0.073	0.188
-468.186	-32.718	-0.200	-0.110
-467.172	800.000	-0.058	0.196
-466.157	158.611	0.045	-0.062
-465.143	7.939	0.173	0.129
-464.128	-72.704	0.365	-0.133
-463.113	88.348	-0.125	0.138
-462.099	-128.588	0.322	0.045
-461.084	84.568	0.028	0.030
-460.070	119.744	-0.328	0.402
-459.055	-200.000	0.024	-0.247
-458.040	26.788	-0.061	0.051
-457.026	-113.585	-0.246	0.048
-456.011	-30.119	0.325	-0.183
-454.997	477.283	-0.110	0.246
-453.982	254.124	-0.268	0.455
-452.968	-87.381	-0.263	-0.079
-451.953	800.000	0.087	-0.238
-450.938	-200.000	0.034	0.147
-449.924	-146.112	-0.196	-0.017
-448.909	300.423	-0.064	-0.118
-447.895	70.666	0.164	-0.168
-446.880	-86.693	0.099	0.030
-445.865	-90.707	-0.138	0.040
-444.851	-200.000	-0.002	-0.013
-443.836	105.843	0.135	-0.159
-442.822	-75.355	0.206	-0.073
-441.807	-200.000	-0.035	-0.482
-440.792	-200.000	0.032	-0.280
-439.778	50.164	-0.126	0.118
-438.763	-96.113	0.031	0.008
-437.749	-200.000	-0.006	0.129
-436.734	800.000	-0.007	-0.020
-435.719	143.555	0.246	0.325
-434.705	800.000	-0.051	-0.219
-433.690	283.769	-0.103	0.183
-432.676	800.000	0.107	0.436
-431.661	188.058	-0.125	-0.186
-430.646	743.167	0.152	0.404
-429.632	-124.594	0.159	-0.024
-428.617	424.786	-0.058	-0.123
-427.603	-18.079	-0.472	0.293
-426.588	800.000	0.014	0.046
-425.573	-200.000	0.068	-0.299
-424.559	-76.151	-0.264	-0.092
-423.544	20.050	-0.260	-0.208
-422.530	800.000	0.051	-0.159
-421.515	-83.067	0.234	-0.075
-420.500	67.433	0.256	-0.259
-419.486	35.265	0.210	-0.182
-418.471	142.016	-0.191	0.250
-417.457	0.037	-0.282	-0.199
-416.442	-113.446	-0.064	-0.012
-415.428	-200.000	-0.015	-0.140
-414.413	-129.868	0.300	-0.041
-413.398	-20.617	-0.096	-0.058
-412.384	12.225	-0.179	0.136
-411.369	-170.784	-0.215	0.007
-410.355	-200.000	-0.007	0.038
-409.340	747.920	0.087	-0.232
-408.325	-125.678	-0.224	-0.033
-407.311	-41.604	-0.292	0.148
-406.296	-200.000	-0.242	-0.001
-405.282	800.000	0.072	-0.218
-404.267	-98.438	0.287	-0.073
-403.252	-119.689	-0.305	-0.052
-402.238	-16.506	-0.125	0.078
-401.223	21.707	-0.155	0.125
-400.209	-200.000	-0.000	-0.163
-399.194	523.626	-0.054	0.127
-398.179	-200.000	-0.026	0.358
-397.165	-200.000	-0.009	-0.211
-396.150	55.068	0.303	-0.290
-395.136	-52.083	-0.300	-0.138
-394.121	38.000	0.273	-0.240
-393.106	-132.724	0.159	-0.020
-392.092	203.552	0.086	0.132
-391.077	-11.169	0.092	0.060
-390.063	-79.452	-0.375	0.125
-389.048	-200.000	0.037	0.310
-388.033	-70.782	0.043	-0.016
-387.019	-82.498	-0.114	-0.037
-386.004	-200.000	-0.007	0.188
-384.990	32.024	0.109	0.093
-383.975	-111.750	-0.242	0.048
-382.960	304.907	0.081	-0.148
-381.946	-200.000	0.011	-0.087
-380.931	-72.626	-0.259	-0.095
-379.917	-123.085	0.300	-0.048
-378.902	-200.000	-0.066	-0.376
-377.888	78.734	-0.068	-0.072
-376.873	459.452	-0.087	0.192
-375.858	5.473	-0.163	0.119
-374.844	-125.375	0.079	-0.012
-373.829	99.177	0.259	-0.296
-372.815	-141.153	0.221	-0.022
-371.800	-200.000	-0.022	0.103
-370.785	-51.973	-0.084	-0.039
-369.771	23.638	-0.196	0.159
-368.756	17.600	-0.195	-0.153
-367.742	-48.102	0.195	0.093
-366.727	88.591	-0.150	0.164
-365.712	-200.000	0.043	-0.288
-364.698	-19.856	-0.134	-0.082
-363.683	800.000	-0.031	-0.121
-362.669	201.870	0.184	-0.280
-361.654	-163.253	0.122	-0.006
-360.639	800.000	-0.010	0.027
-359.625	-47.578	0.069	0.033
-358.610	800.000	-0.063	-0.177
-357.596	-200.000	-0.033	-0.357
-356.581	-200.000	0.022	0.269
-355.566	-200.000	0.027	0.287
-354.552	180.625	-0.070	-0.101
-353.537	-112.355	-0.196	0.039
-352.523	-88.909	-0.125	0.037
-351.508	-121.369	0.164	-0.027
-350.493	-22.209	0.260	0.156
-349.479	-200.000	0.046	-0.199
-348.464	80.442	0.073	0.078
-347.450	-56.532	0.188	-0.082
-346.435	-12.778	0.328	0.211
-345.420	-92.223	0.101	-0.028
-344.406	67.394	0.124	0.125
-343.391	-200.000	0.032	-0.252
-342.377	333.064	0.188	0.358
-341.362	-124.798	-0.120	0.018
-340.348	800.000	0.080	0.301
-339.333	-58.271	0.058	-0.025
-338.318	181.263	0.077	0.112
-337.304	70.608	0.021	0.021
-336.289	-70.053	0.129	-0.048
-335.275	358.628	-0.090	0.178
-334.260	-119.523	0.276	0.047
-333.245	-160.888	0.257	0.013
-332.231	800.000	0.057	-0.159
-331.216	727.370	-0.093	0.245
-330.202	-1.714	-0.185	0.128
-329.187	-90.936	0.282	0.080
-328.172	-200.000	-0.014	0.583
-327.158	195.369	0.014	0.020
-326.143	800.000	-0.058	0.233
-325.129	-200.000	0.046	0.245
-324.114	25.509	-0.107	0.087
-323.099	-134.872	0.134	-0.016
-322.085	-200.000	0.058	0.387
-321.070	-200.000	-0.008	-0.197
-320.056	-200.000	0.021	-0.132
-319.041	-169.952	0.231	-0.008
-318.026	366.428	0.096	0.191
-317.012	-130.844	0.283	0.037
-315.997	18.413	0.031	-0.025
-314.983	-48.116	0.296	-0.141
-313.968	75.275	-0.064	-0.066
-312.953	-116.258	-0.295	-0.054
-311.939	-12.575	-0.155	-0.099
-310.924	-76.100	-0.185	0.064
-309.910	331.260	-0.136	-0.258
-308.895	-126.478	-0.231	0.034
-307.880	-93.749	0.055	0.015
-306.866	169.351	-0.064	0.090
-305.851	-117.839	0.470	0.083
-304.837	320.735	0.113	0.211
-303.822	-200.000	-0.033	-0.211
-302.807	-94.248	0.100	-0.027
-301.793	-55.670	-0.189	-0.083
-300.778	532.038	-0.023	0.054
-299.764	69.943	0.009	0.009
-298.749	-161.710	-0.094	-0.005
-297.735	800.000	0.019	-0.072
-296.720	-92.348	-0.339	0.094
-295.705	800.000	-0.105	0.299
-294.691	-29.450	-0.304	0.172
-293.676	10.912	-0.216	-0.163
-292.662	-91.016	0.071	0.020
-291.647	721.467	-0.064	-0.167
-290.632	110.270	0.023	0.028
-289.618	141.904	0.199	-0.260
-288.603	-200.000	0.000	0.073
-287.589	116.883	-0.113	-0.137
-286.574	21.282	0.238	0.190
-285.559	4.758	-0.312	0.226
-284.545	-43.069	0.185	0.092
-283.530	-200.000	-0.018	-0.124
-282.516	-114.096	-0.263	-0.050
-281.501	-200.000	-0.005	0.127
-280.486	800.000	0.059	0.177
-279.472	110.107	0.129	0.152
-278.457	462.345	-0.164	0.360
-277.443	-33.306	0.188	0.102
-276.428	-200.000	-0.033	0.146
-275.413	-100.260	-0.267	0.065
-274.399	84.622	0.118	-0.128
-273.384	-135.294	0.196	-0.023
-272.370	-200.000	-0.004	-0.182
-271.355	-57.969	0.240	0.103
-270.340	-200.000	0.060	-0.306
-269.326	-119.372	-0.258	0.044
-268.311	460.235	-0.070	0.153
-267.297	47.435	-0.050	-0.046
-266.282	10.103	-0.159	0.119
-265.267	-166.894	0.222	-0.009
-264.253	-200.000	-0.003	0.277
-263.238	-200.000	-0.014	0.152
-262.224	800.000	-0.116	-0.399
-261.209	-3.890	-0.206	0.141
-260.195	165.304	-0.111	0.155
-259.180	-200.000	-0.085	-0.418
-258.165	-34.392	0.117	-0.063
-257.151	-10.870	-0.297	-0.193
-256.136	96.164	0.131	0.147
-255.122	-174.206	-0.210	-0.006
-254.107	-151.067	-0.305	0.023
-253.092	-200.000	0.004	0.208
-252.078	183.134	-0.052	0.076
-251.063	-97.754	0.113	-0.029
-250.049	-43.095	0.192	-0.095
-249.034	197.083	-0.179	0.269
-248.019	-200.000	0.042	0.402
-247.005	-88.286	0.148	-0.044
-245.990	-76.528	-0.161	-0.056
-244.976	-95.238	0.099	-0.026
-243.961	-93.840	0.343	-0.093
-242.946	205.893	-0.089	-0.136
-241.932	169.970	-0.064	0.090
-240.917	17.453	-0.016	-0.013
-239.903	800.000	-0.040	-0.148
-238.888	-1.970	0.282	0.195
-237.873	248.254	0.116	0.192
-236.859	196.519	-0.065	-0.097
-235.844	-43.030	0.049	0.024
-234.830	133.447	0.279	-0.355
-233.815	88.643	0.237	-0.259
-232.800	-200.000	-0.010	-0.112
-231.786	800.000	-0.041	0.153
-230.771	294.653	0.207	0.371
-229.757	5.292	0.278	-0.201
-228.742	131.939	0.061	-0.077
-227.727	123.169	0.240	0.295
-226.713	800.000	-0.037	0.159
-225.698	-72.145	-0.324	-0.118
-224.684	800.000	0.062	0.190
-223.669	-6.762	-0.143	0.096
-222.655	-68.993	-0.140	-0.053
-221.640	-200.000	-0.001	0.245
-220.625	-98.710	0.376	-0.094
-219.611	-137.241	-0.373	-0.042
-218.596	95.009	0.044	-0.049
-217.582	218.089	0.115	0.180
-216.567	-200.000	-0.024	0.325
-215.552	-83.857	0.061	-0.019
-214.538	275.101	0.097	0.169
-213.523	800.000	0.167	0.576
-212.509	778.308	0.046	0.123
-211.494	-23.846	-0.272	-0.160
-210.479	-74.741	-0.262	0.092
-209.465	737.057	-0.063	-0.166
-208.450	143.635	0.220	0.287
-207.436	-200.000	0.000	0.122
-206.421	-80.645	-0.111	-0.036
-205.406	-32.681	-0.334	0.182
-204.392	800.000	0.069	0.200
-203.377	-95.382	-0.178	0.047
-202.363	60.339	-0.088	0.085
-201.348	-200.000	-0.002	-0.051
-200.333	-159.326	0.053	-0.003
-199.319	-168.374	-0.137	-0.005
-198.304	-200.000	0.017	0.122
-197.290	-200.000	-0.076	-0.419
-196.275	74.549	0.168	-0.174
-195.260	-81.614	-0.241	0.078
-194.246	554.796	-0.120	-0.283
-193.231	394.905	0.166	-0.339
-192.217	225.774	0.183	-0.292
-191.202	175.148	-0.063	0.090
-190.187	401.968	-0.113	0.232
-189.173	-164.017	0.267	-0.012
-188.158	-16.244	-0.124	0.077
-187.144	82.302	0.254	0.271
-186.129	-104.353	0.173	-0.039
-185.114	-109.266	0.179	-0.037
-184.100	-77.567	-0.219	-0.075
-183.085	-200.000	0.012	-0.088
-182.071	-200.000	0.001	0.089
-181.056	689.954	0.135	0.346
-180.042	-139.071	0.504	0.053
-179.027	75.247	0.030	0.031
-178.012	58.500	0.287	0.276
-176.998	800.000	-0.013	0.057
-175.983	98.275	-0.147	0.166
-174.969	42.390	-0.232	0.207
-173.954	34.620	-0.090	0.077
-172.939	-27.920	0.204	-0.116
-171.925	183.036	-0.146	0.211
-170.910	-47.763	0.197	0.094
-169.896	-200.000	0.094	-0.522
-168.881	518.970	-0.082	0.189
-167.866	-124.854	-0.137	-0.021
-166.852	-141.689	-0.147	0.015
-165.837	-86.888	0.257	0.077
-164.823	-200.000	-0.006	-0.330
-163.808	-107.850	-0.266	-0.057
-162.793	800.000	0.043	-0.158
-161.779	-75.917	0.109	0.038
-160.764	165.164	-0.082	0.113
-159.750	111.897	0.237	0.280
-158.735	-124.313	0.396	-0.061
-157.720	229.373	-0.039	0.062
-156.706	14.549	0.148	0.113
-155.691	282.911	0.072	0.127
-154.677	-68.456	-0.128	-0.049
-153.662	-42.095	-0.088	0.044
-152.647	-111.138	0.120	-0.024
-151.633	-125.928	0.481	0.071
-150.618	94.090	-0.060	0.067
-149.604	-147.113	-0.231	0.019
-148.589	518.539	0.169	0.389
-147.574	386.821	0.132	-0.267
-146.560	-200.000	-0.042	-0.263
-145.545	-83.205	0.226	0.071
-144.531	-13.602	-0.030	0.019
-143.516	-160.712	-0.238	0.012
-142.502	147.270	-0.082	0.108
-141.487	101.299	-0.163	0.186
-140.472	115.730	-0.110	0.131
-139.458	169.208	0.084	0.117
-138.443	4.778	-0.105	0.076
-137.429	-32.343	0.274	0.150
-136.414	-200.000	0.002	0.484
-135.399	52.578	-0.335	-0.313
-134.385	-52.990	-0.215	-0.097
-133.370	800.000	0.027	0.099
-132.356	-186.466	0.149	0.002
-131.341	276.023	-0.134	-0.232
-130.326	-200.000	-0.005	-0.094
-129.312	23.118	0.249	0.200
-128.297	-131.721	0.251	-0.032
-127.283	691.013	0.092	-0.235
-126.268	-18.220	0.161	0.098
-125.253	800.000	0.011	-0.031
-124.239	800.000	-0.017	0.062
-123.224	-200.000	0.007	0.031
-122.210	800.000	-0.039	-0.155
