DTS Sentinel unit serial number:	SN413079Multiplexer serial number:	ORYXHardware model number:	OX4-SRSoftware version number:	ORYX F/W v4.00 Oryx Data Collector v3.7.2.0data status	okinstallation	princeton_trtdifferential loss correction	single-endedforward channel	channel 4reverse channel	N/Adate	2019/09/17time	13:01:35forward acquisition time	60.00reverse acquisition time	0.00gamma	496.2192k internal	0.2301k external	0.2301temperature offset calibration	0.9986default loss term (dB/km)	0.3790temperature slope calibration	1.0000multiplexer offset coefficient	1.0000multiplexer slope coefficient	1.0000fibre end	0.00T internal ref (°C)	33.37T ext. ref 1 (°C)	0.41T ext. ref 2 (°C)	31.59length (m)	temperature (°C)	Stokes	anti-Stokes-747.200	800.000	0.041	0.148
-746.185	800.000	-0.084	0.326
-745.171	135.847	0.130	0.172
-744.156	-200.000	0.005	-0.101
-743.142	800.000	-0.118	0.385
-742.127	800.000	-0.117	0.523
-741.112	-146.711	0.183	0.016
-740.098	44.577	-0.164	0.153
-739.083	436.226	0.022	0.048
-738.069	-200.000	-0.082	0.417
-737.054	-122.601	0.246	-0.041
-736.039	10.928	-0.338	-0.263
-735.025	-187.132	0.199	0.003
-734.010	-200.000	-0.031	-0.247
-732.996	-200.000	0.067	-0.312
-731.981	-170.419	-0.141	-0.005
-730.966	667.190	0.021	-0.056
-729.952	-200.000	0.017	0.085
-728.937	800.000	-0.042	0.181
-727.923	-123.544	-0.387	-0.063
-726.908	280.656	-0.066	-0.120
-725.894	81.550	-0.098	-0.108
-724.879	-54.856	-0.250	0.115
-723.864	1.502	0.282	-0.207
-722.850	19.774	-0.117	-0.096
-721.835	800.000	0.067	-0.253
-720.821	800.000	-0.008	0.028
-719.806	800.000	0.080	-0.266
-718.791	800.000	0.098	-0.388
-717.777	800.000	-0.036	-0.108
-716.762	800.000	-0.074	0.218
-715.748	800.000	-0.053	0.185
-714.733	-7.068	0.263	0.181
-713.718	220.685	-0.092	0.150
-712.704	800.000	0.041	-0.139
-711.689	108.941	-0.154	0.188
-710.675	-200.000	-0.022	0.103
-709.660	401.447	-0.105	0.225
-708.645	458.048	0.059	0.134
-707.631	-151.699	-0.431	-0.032
-706.616	-188.101	0.231	-0.003
-705.602	94.205	-0.175	0.202
-704.587	125.077	-0.163	0.210
-703.572	-200.000	-0.000	-0.058
-702.558	-160.863	0.197	-0.011
-701.543	-85.621	0.287	-0.091
-700.529	-115.003	-0.161	-0.031
-699.514	-30.523	-0.142	-0.082
-698.499	4.217	-0.118	-0.088
-697.485	800.000	0.016	-0.054
-696.470	-60.665	-0.210	0.091
-695.456	800.000	-0.100	0.335
-694.441	-36.439	-0.237	0.130
-693.426	800.000	-0.048	0.182
-692.412	231.229	-0.097	-0.162
-691.397	800.000	-0.029	-0.107
-690.383	17.920	0.173	-0.141
-689.368	512.928	0.062	0.148
-688.354	-38.579	-0.107	0.058
-687.339	423.220	-0.028	0.062
-686.324	270.741	-0.176	0.314
-685.310	-30.772	-0.160	-0.092
-684.295	-120.191	-0.145	0.025
-683.281	-73.921	0.193	0.071
-682.266	-77.625	-0.123	0.043
-681.251	-10.243	-0.053	0.036
-680.237	-200.000	0.031	-0.388
-679.222	-88.574	0.057	0.017
-678.208	800.000	-0.106	0.328
-677.193	-52.142	-0.249	0.118
-676.178	304.930	0.084	0.158
-675.164	69.337	-0.158	0.166
-674.149	4.356	-0.356	-0.265
-673.135	87.743	0.199	-0.224
-672.120	-102.077	0.141	0.035
-671.105	-0.999	-0.214	0.154
-670.091	16.914	0.111	0.090
-669.076	-135.335	-0.146	-0.018
-668.062	-145.460	-0.278	-0.025
-667.047	800.000	0.107	-0.336
-666.032	800.000	0.164	-0.469
-665.018	-200.000	0.013	-0.177
-664.003	-21.179	-0.261	-0.162
-662.989	800.000	-0.065	-0.259
-661.974	-147.305	0.384	0.033
-660.959	-200.000	-0.018	0.135
-659.945	-60.526	0.135	0.058
-658.930	-34.247	0.219	0.122
-657.916	-113.344	0.336	-0.067
-656.901	800.000	-0.048	-0.164
-655.886	-200.000	0.028	-0.164
-654.872	54.770	-0.142	-0.139
-653.857	-112.424	0.267	-0.054
-652.843	800.000	-0.090	-0.302
-651.828	-200.000	0.015	0.196
-650.814	-200.000	0.025	0.116
-649.799	-200.000	-0.054	-0.266
-648.784	-200.000	0.068	-0.363
-647.770	-38.995	0.233	0.124
-646.755	-200.000	-0.045	0.326
-645.741	659.889	0.109	-0.285
-644.726	-49.984	-0.129	-0.062
-643.711	-97.915	-0.218	-0.057
-642.697	129.656	0.095	0.123
-641.682	33.790	-0.240	-0.212
-640.668	-47.917	-0.342	0.168
-639.653	76.994	0.139	-0.150
-638.638	-93.947	-0.426	-0.119
-637.624	143.403	-0.115	0.155
-636.609	-77.598	0.101	-0.035
-635.595	334.797	-0.120	-0.235
-634.580	546.631	0.106	0.256
-633.565	269.847	0.193	-0.344
-632.551	-190.669	-0.302	0.003
-631.536	314.879	0.108	-0.206
-630.522	106.616	-0.229	-0.275
-629.507	-200.000	-0.013	0.196
-628.492	356.398	0.147	0.296
-627.478	60.282	0.203	-0.204
-626.463	800.000	0.101	-0.282
-625.449	-110.055	-0.299	-0.063
-624.434	79.786	0.176	0.192
-623.419	-132.686	0.171	0.022
-622.405	-200.000	0.003	0.021
-621.390	-109.755	-0.228	-0.049
-620.376	-134.198	-0.281	-0.035
-619.361	800.000	0.116	-0.363
-618.346	-41.123	0.219	0.115
-617.332	102.910	-0.211	-0.251
-616.317	-56.110	-0.409	0.185
-615.303	109.883	-0.187	-0.228
-614.288	-200.000	-0.048	-0.308
-613.273	800.000	-0.058	-0.167
-612.259	298.199	-0.173	-0.322
-611.244	180.426	-0.061	-0.091
-610.230	81.901	0.134	0.147
-609.215	800.000	-0.036	0.102
-608.201	-88.209	0.033	-0.010
-607.186	-200.000	-0.044	-0.247
-606.171	-200.000	-0.064	-0.423
-605.157	91.341	-0.197	0.225
-604.142	445.593	0.049	0.110
-603.128	564.731	-0.009	0.023
-602.113	280.396	0.156	-0.282
-601.098	88.870	0.072	-0.082
-600.084	695.561	-0.063	0.168
-599.069	-73.580	0.158	0.059
-598.055	-163.214	0.225	-0.011
-597.040	222.374	-0.057	0.094
-596.025	-15.254	-0.177	0.115
-595.011	-105.188	0.265	-0.061
-593.996	-120.781	0.159	-0.027
-592.982	-98.597	0.202	-0.052
-591.967	32.529	0.190	0.167
-590.952	-158.744	-0.297	-0.017
-589.938	800.000	0.064	0.187
-588.923	18.852	0.181	0.147
-587.909	687.038	0.078	-0.208
-586.894	425.535	-0.116	-0.252
-585.879	66.499	-0.249	0.256
-584.865	-112.630	0.457	-0.092
-583.850	-66.835	0.092	0.037
-582.836	-42.086	0.282	-0.146
-581.821	-118.267	-0.229	-0.041
-580.806	-200.000	0.050	0.304
-579.792	282.424	-0.119	0.216
-578.777	110.953	0.117	-0.142
-577.763	-42.319	0.189	-0.097
-576.748	51.271	-0.095	-0.092
-575.733	98.531	-0.143	0.167
-574.719	-122.402	-0.366	0.060
-573.704	-73.871	-0.353	0.130
-572.690	-35.173	-0.276	-0.152
-571.675	128.540	-0.044	0.057
-570.661	-35.651	0.289	0.159
-569.646	800.000	0.022	0.088
-568.631	41.779	-0.082	0.075
-567.617	133.873	0.076	-0.099
-566.602	-95.222	0.180	0.049
-565.588	-200.000	0.035	0.289
-564.573	204.167	-0.089	-0.140
-563.558	-38.306	0.407	-0.218
-562.544	769.002	0.065	0.179
-561.529	8.603	-0.022	-0.017
-560.515	32.191	-0.088	-0.076
-559.500	205.491	0.040	-0.063
-558.485	-117.208	0.181	-0.033
-557.471	490.940	0.033	-0.075
-556.456	-135.987	0.281	-0.033
-555.442	-116.247	0.165	-0.031
-554.427	-26.005	-0.091	0.054
-553.412	-9.979	0.217	-0.146
-552.398	360.406	-0.092	-0.186
-551.383	-57.417	-0.109	0.048
-550.369	-87.357	-0.041	-0.013
-549.354	800.000	0.063	0.186
-548.339	-129.876	0.077	-0.011
-547.325	54.977	-0.025	-0.024
-546.310	800.000	-0.109	-0.423
-545.296	-61.615	-0.337	0.143
-544.281	772.225	0.019	-0.053
-543.266	-71.751	-0.378	-0.142
-542.252	556.034	-0.103	-0.252
-541.237	-79.555	-0.330	0.113
-540.223	168.308	-0.057	-0.082
-539.208	225.479	0.161	0.264
-538.193	-89.644	-0.264	0.078
-537.179	9.290	-0.220	-0.168
-536.164	-200.000	-0.029	-0.159
-535.150	-200.000	-0.012	-0.310
-534.135	227.339	0.066	0.108
-533.121	136.862	0.116	-0.153
-532.106	-200.000	-0.033	-0.193
-531.091	-200.000	-0.047	-0.264
-530.077	-132.135	-0.241	-0.032
-529.062	42.355	-0.165	-0.151
-528.048	158.345	0.307	-0.430
-527.033	110.834	0.049	0.059
-526.018	116.781	-0.117	-0.145
-525.004	800.000	-0.012	0.048
-523.989	-200.000	-0.049	-0.294
-522.975	-67.286	0.086	0.034
-521.960	-30.527	-0.117	-0.067
-520.945	-119.687	-0.055	-0.010
-519.931	-73.215	-0.270	0.100
-518.916	-200.000	-0.010	0.211
-517.902	-200.000	-0.049	-0.330
-516.887	304.610	0.309	-0.579
-515.872	35.358	-0.040	-0.036
-514.858	-28.290	0.218	0.127
-513.843	125.533	0.143	0.183
-512.829	-35.597	0.215	-0.118
-511.814	-159.794	0.082	0.005
-510.799	-200.000	0.008	-0.069
-509.785	52.757	0.162	-0.156
-508.770	-200.000	0.014	0.138
-507.756	665.048	0.085	0.222
-506.741	-15.295	0.350	0.226
-505.726	67.380	-0.099	0.102
-504.712	196.068	-0.105	-0.162
-503.697	213.598	0.108	-0.173
-502.683	196.717	0.174	-0.268
-501.668	223.378	-0.104	-0.170
-500.653	471.126	-0.135	0.306
-499.639	752.555	-0.025	-0.068
-498.624	800.000	-0.046	-0.148
-497.610	52.099	-0.116	0.111
-496.595	-110.072	-0.295	0.062
-495.581	-200.000	0.050	-0.260
-494.566	20.893	-0.085	0.070
-493.551	-80.612	0.198	-0.066
-492.537	-200.000	0.187	-0.000
-491.522	-39.325	-0.128	0.068
-490.508	583.952	-0.127	-0.316
-489.493	-0.705	0.332	0.237
-488.478	-116.637	0.053	-0.010
-487.464	38.335	0.050	0.045
-486.449	-90.975	0.216	-0.063
-485.435	-200.000	0.024	-0.147
-484.420	-108.126	0.287	-0.063
-483.405	-200.000	-0.042	0.284
-482.391	70.917	0.111	0.116
-481.376	-200.000	0.023	0.186
-480.362	-158.500	0.026	0.001
-479.347	-200.000	-0.018	-0.295
-478.332	639.593	0.063	-0.161
-477.318	412.000	0.182	0.390
-476.303	31.738	-0.085	-0.074
-475.289	63.340	-0.092	-0.093
-474.274	53.577	0.181	0.176
-473.259	421.342	0.203	0.438
-472.245	-200.000	-0.008	0.317
-471.230	-130.441	0.263	0.036
-470.216	-65.647	-0.169	0.068
-469.201	800.000	0.026	-0.109
-468.186	68.825	0.103	-0.107
-467.172	-148.146	-0.218	-0.018
-466.157	34.407	-0.143	0.126
-465.143	70.738	0.250	0.261
-464.128	-27.380	0.090	0.053
-463.113	245.647	-0.101	0.171
-462.099	183.080	0.031	0.046
-461.084	565.795	0.068	-0.165
-460.070	800.000	0.041	0.172
-459.055	-60.902	0.058	0.025
-458.040	-172.620	0.177	-0.006
-457.026	800.000	0.033	-0.123
-456.011	-131.338	-0.125	0.017
-454.997	-63.913	-0.259	0.107
-453.982	-60.036	-0.139	-0.060
-452.968	-200.000	0.009	0.085
-451.953	-200.000	-0.018	-0.121
-450.938	-96.930	0.411	-0.109
-449.924	130.766	-0.087	-0.112
-448.909	12.838	-0.119	-0.093
-447.895	-73.005	-0.225	-0.083
-446.880	800.000	0.045	0.157
-445.865	-200.000	-0.066	-0.354
-444.851	-109.986	0.070	-0.015
-443.836	502.363	-0.147	0.343
-442.822	-165.516	0.153	-0.007
-441.807	800.000	0.036	-0.159
-440.792	-24.246	0.159	0.096
-439.778	800.000	0.110	-0.388
-438.763	259.482	0.090	0.157
-437.749	244.074	0.069	0.117
-436.734	-116.274	-0.148	-0.028
-435.719	-49.981	-0.073	-0.035
-434.705	-200.000	-0.110	0.000
-433.690	137.650	0.131	0.173
-432.676	-155.443	-0.286	0.019
-431.661	165.753	-0.110	-0.156
-430.646	-169.694	-0.324	0.012
-429.632	88.583	-0.139	0.155
-428.617	111.875	-0.132	0.161
-427.603	475.428	-0.154	-0.349
-426.588	-111.312	-0.298	0.061
-425.573	-119.848	0.139	0.024
-424.559	283.606	0.138	0.249
-423.544	-112.198	-0.316	-0.064
-422.530	-200.000	-0.055	0.278
-421.515	-200.000	-0.023	-0.600
-420.500	-50.518	0.034	0.016
-419.486	538.870	0.097	0.231
-418.471	-89.261	-0.250	0.074
-417.457	-200.000	0.015	-0.135
-416.442	-200.000	0.011	0.430
-415.428	-108.861	0.385	0.083
-414.413	-200.000	-0.034	0.158
-413.398	-163.254	0.187	-0.009
-412.384	273.760	-0.025	0.044
-411.369	-45.717	0.165	-0.082
-410.355	22.981	-0.348	-0.287
-409.340	800.000	-0.089	0.298
-408.325	-48.164	0.163	-0.079
-407.311	-17.359	-0.288	-0.183
-406.296	40.802	-0.163	-0.148
-405.282	347.513	0.011	0.023
-404.267	21.550	-0.071	-0.058
-403.252	170.324	-0.055	0.080
-402.238	0.429	0.054	-0.038
-401.223	-63.931	-0.113	-0.046
-400.209	-42.436	0.341	-0.175
-399.194	204.801	-0.028	0.044
-398.179	-20.172	0.165	-0.102
-397.165	409.980	0.071	0.151
-396.150	706.661	-0.063	0.168
-395.136	-162.380	-0.277	0.014
-394.121	-189.865	0.174	-0.002
-393.106	-136.154	0.180	0.021
-392.092	202.679	0.101	-0.157
-391.077	-148.916	-0.225	0.018
-390.063	-200.000	0.061	0.374
-389.048	-2.008	0.171	0.121
-388.033	-94.432	-0.126	-0.034
-387.019	-113.431	0.182	-0.036
-386.004	508.883	-0.140	0.326
-384.990	-200.000	-0.014	0.177
-383.975	-113.988	0.314	0.061
-382.960	-128.559	0.201	0.029
-381.946	-55.707	-0.114	0.051
-380.931	12.108	0.182	-0.141
-379.917	-10.041	0.123	0.082
-378.902	-14.389	0.169	-0.110
-377.888	82.199	-0.186	0.203
-376.873	-158.808	-0.049	0.003
-375.858	-200.000	0.040	0.196
-374.844	462.797	0.177	0.397
-373.829	-200.000	-0.021	0.115
-372.815	300.237	0.139	-0.257
-371.800	178.100	0.150	-0.221
-370.785	34.263	0.198	0.174
-369.771	122.611	-0.021	-0.026
-368.756	274.715	0.152	-0.270
-367.742	-135.982	0.292	0.035
-366.727	178.661	0.207	-0.303
-365.712	-114.253	-0.138	0.027
-364.698	-200.000	-0.041	-0.219
-363.683	7.566	-0.289	-0.217
-362.669	147.436	-0.184	-0.249
-361.654	-163.942	0.297	0.014
-360.639	-98.030	-0.122	-0.032
-359.625	239.161	0.073	0.123
-358.610	-154.630	-0.196	0.013
-357.596	-164.261	0.088	-0.004
-356.581	-200.000	0.003	0.088
-355.566	81.394	-0.120	-0.130
-354.552	252.103	0.151	-0.257
-353.537	352.786	0.107	-0.214
-352.523	-200.000	-0.001	-0.141
-351.508	235.660	0.040	0.066
-350.493	572.885	0.096	-0.234
-349.479	-137.018	-0.078	0.009
-348.464	-90.065	-0.138	-0.040
-347.450	-200.000	-0.044	-0.261
-346.435	-112.165	-0.337	0.068
-345.420	364.483	-0.076	-0.153
-344.406	-166.557	0.277	0.012
-343.391	-197.275	-0.179	0.001
-342.377	-200.000	-0.089	0.431
-341.362	800.000	-0.052	-0.206
-340.348	178.947	0.071	0.105
-339.333	-83.118	-0.134	-0.043
-338.318	-200.000	0.009	0.292
-337.304	178.554	0.069	-0.101
-336.289	0.797	-0.108	-0.078
-335.275	135.021	0.102	-0.133
-334.260	503.474	-0.030	0.071
-333.245	-118.103	-0.073	-0.013
-332.231	-107.191	-0.273	-0.060
-331.216	-200.000	0.023	-0.115
-330.202	263.897	-0.139	0.242
-329.187	-200.000	-0.171	0.001
-328.172	22.933	0.290	0.239
-327.158	-39.332	-0.141	0.074
-326.143	367.238	0.092	-0.185
-325.129	-200.000	-0.042	0.262
-324.114	-200.000	0.040	0.244
-323.099	-31.898	-0.151	-0.085
-322.085	645.679	-0.090	0.231
-321.070	219.100	-0.150	0.240
-320.056	800.000	-0.078	-0.223
-319.041	-43.701	-0.184	0.093
-318.026	374.909	0.088	-0.179
-317.012	-57.831	0.037	0.016
-315.997	-147.199	0.245	0.021
-314.983	89.590	0.266	-0.298
-313.968	-66.357	0.177	-0.070
-312.953	-42.489	0.260	0.133
-311.939	23.521	-0.329	-0.271
-310.924	-200.000	0.012	-0.095
-309.910	800.000	-0.014	0.044
-308.895	-158.299	-0.111	0.006
-307.880	-132.886	0.107	0.014
-306.866	800.000	0.050	0.177
-305.851	98.123	0.078	-0.090
-304.837	-41.068	0.092	-0.048
-303.822	386.301	-0.143	0.297
-302.807	-200.000	-0.012	0.383
-301.793	51.202	-0.180	0.171
-300.778	135.666	-0.028	0.037
-299.764	581.645	-0.142	-0.350
-298.749	-98.490	-0.192	-0.049
-297.735	-73.941	0.120	-0.044
-296.720	539.530	0.239	0.569
-295.705	-200.000	0.021	0.263
-294.691	231.539	0.153	0.252
-293.676	-200.000	-0.011	0.142
-292.662	800.000	0.050	-0.151
-291.647	0.217	-0.243	-0.174
-290.632	-117.450	0.394	0.071
-289.618	-59.318	-0.152	0.066
-288.603	-13.385	0.121	0.079
-287.589	126.647	0.134	0.170
-286.574	152.150	-0.083	0.114
-285.559	182.650	-0.076	-0.113
-284.545	-112.066	0.226	-0.045
-283.530	-145.156	-0.333	0.030
-282.516	-29.963	0.260	-0.148
-281.501	-57.988	-0.242	0.106
-280.486	26.715	-0.180	0.151
-279.472	-191.992	0.384	0.004
-278.457	24.879	-0.177	0.147
-277.443	486.046	0.059	0.134
-276.428	171.407	0.138	0.199
-275.413	5.514	-0.060	-0.045
-274.399	329.375	-0.157	0.302
-273.384	-200.000	-0.030	-0.223
-272.370	-77.249	0.324	-0.113
-271.355	137.272	-0.080	0.105
-270.340	800.000	-0.067	0.215
-269.326	800.000	0.027	0.083
-268.311	114.578	-0.153	-0.187
-267.297	-53.062	0.170	-0.078
-266.282	368.598	0.080	-0.161
-265.267	-34.868	0.128	0.070
-264.253	800.000	-0.031	0.132
-263.238	29.597	-0.275	-0.234
-262.224	-134.827	-0.395	0.048
-261.209	487.531	0.152	-0.346
-260.195	21.092	0.130	-0.105
-259.180	46.376	0.332	0.308
-258.165	193.339	-0.173	0.261
-257.151	715.461	0.150	0.397
-256.136	-74.609	-0.122	-0.044
-255.122	-94.701	-0.328	-0.089
-254.107	122.189	0.107	0.133
-253.092	125.828	-0.066	0.083
-252.078	-113.678	0.362	0.071
-251.063	-41.070	-0.132	0.068
-250.049	214.164	-0.173	0.274
-249.034	-200.000	0.039	0.272
-248.019	669.602	-0.124	-0.322
-247.005	-31.620	-0.240	-0.135
-245.990	-200.000	0.001	-0.064
-244.976	-61.216	-0.135	0.057
-243.961	116.109	-0.191	0.234
-242.946	-59.878	0.341	-0.146
-241.932	491.208	0.044	0.101
-240.917	-49.972	-0.354	0.168
-239.903	-200.000	0.046	0.228
-238.888	126.401	0.310	0.392
-237.873	-145.591	0.220	0.020
-236.859	135.874	-0.120	0.156
-235.844	-135.949	0.277	0.033
-234.830	462.225	0.069	0.153
-233.815	-61.142	0.136	0.057
-232.800	35.164	-0.172	0.150
-231.786	-86.153	-0.290	-0.089
-230.771	800.000	0.126	0.432
-229.757	166.348	0.268	0.380
-228.742	800.000	0.047	0.144
-227.727	46.496	0.070	-0.065
-226.713	158.743	0.142	-0.197
-225.698	-72.066	-0.152	-0.056
-224.684	-200.000	0.053	-0.335
-223.669	-99.297	-0.266	-0.067
-222.655	-172.607	-0.147	0.005
-221.640	-178.909	0.306	0.007
-220.625	18.276	-0.185	-0.148
-219.611	262.818	-0.190	0.329
-218.596	-200.000	0.303	0.001
-217.582	-148.973	0.298	-0.024
-216.567	-88.731	-0.352	0.104
-215.552	800.000	0.072	-0.211
-214.538	-73.000	-0.133	0.049
-213.523	355.769	-0.104	0.207
-212.509	17.101	0.062	-0.049
-211.494	-93.859	0.183	-0.050
-210.479	-108.093	0.167	-0.036
-209.465	-51.490	0.156	0.073
-208.450	53.368	0.063	0.060
-207.436	-136.834	-0.079	-0.009
-206.421	212.196	0.116	-0.183
-205.406	556.707	-0.032	0.076
-204.392	-45.617	-0.382	-0.189
-203.377	-89.039	-0.305	0.090
-202.363	612.528	-0.045	0.111
-201.348	-60.257	-0.193	-0.082
-200.333	800.000	0.041	0.127
-199.319	-70.946	0.107	0.040
-198.304	-159.968	0.204	-0.011
-197.290	800.000	0.037	-0.147
-196.275	96.178	-0.142	-0.162
-195.260	-99.168	0.216	0.055
-194.246	-55.402	-0.157	0.070
-193.231	237.534	-0.162	0.268
-192.217	-148.752	0.253	-0.020
-191.202	137.042	-0.073	-0.096
-190.187	-200.000	-0.041	-0.250
-189.173	43.261	-0.201	-0.183
-188.158	63.968	0.138	0.138
-187.144	-32.960	-0.182	0.101
-186.129	74.342	0.213	0.223
-185.114	-200.000	0.047	0.357
-184.100	121.533	0.294	0.365
-183.085	-121.191	-0.125	0.021
-182.071	-200.000	0.002	0.220
-181.056	800.000	0.091	-0.335
-180.042	-51.129	0.229	-0.107
-179.027	-200.000	0.007	-0.101
-178.012	314.771	-0.085	-0.160
-176.998	-68.387	-0.111	0.043
-175.983	-29.454	-0.209	-0.119
-174.969	800.000	-0.104	0.358
-173.954	-69.690	0.319	-0.122
-172.939	125.288	-0.185	-0.233
-171.925	208.228	0.115	-0.179
-170.910	800.000	0.046	-0.135
-169.896	-3.199	0.138	0.096
-168.881	-200.000	-0.015	-0.244
-167.866	-200.000	0.031	-0.226
-166.852	-122.281	0.213	0.035
-165.837	-68.100	0.026	-0.010
-164.823	76.010	-0.212	0.223
-163.808	501.764	-0.041	0.094
-162.793	-200.000	0.017	-0.185
-161.779	-71.948	-0.227	0.084
-160.764	485.209	-0.025	-0.056
-159.750	800.000	0.047	-0.165
-158.735	-106.856	-0.052	0.011
-157.720	147.179	-0.131	-0.175
-156.706	800.000	-0.131	-0.374
-155.691	-113.786	-0.159	-0.031
-154.677	5.205	0.251	0.184
-153.662	54.935	0.285	0.274
-152.647	310.574	-0.089	0.166
-151.633	63.812	-0.024	-0.024
-150.618	-200.000	0.023	0.163
-149.604	115.130	0.144	0.175
-148.589	183.723	0.177	0.261
-147.574	-52.889	0.226	0.104
-146.560	-15.300	-0.220	0.140
-145.545	69.631	0.142	0.145
-144.531	-139.647	0.078	0.008
-143.516	-140.021	0.277	0.029
-142.502	150.886	0.179	-0.243
-141.487	-200.000	0.054	0.316
-140.472	51.342	-0.388	0.367
-139.458	-121.750	-0.169	-0.028
-138.443	-200.000	-0.068	-0.467
-137.429	-200.000	-0.014	0.155
-136.414	-18.271	-0.153	-0.095
-135.399	-11.383	0.122	0.080
-134.385	-200.000	-0.011	0.202
-133.370	800.000	0.030	-0.093
-132.356	-200.000	0.039	0.274
-131.341	241.540	-0.028	-0.047
-130.326	633.312	-0.131	-0.330
-129.312	8.294	-0.250	0.187
-128.297	307.368	-0.151	-0.281
-127.283	450.421	0.086	-0.188
-126.268	-200.000	0.009	0.191
-125.253	-1.324	0.110	0.077
-124.239	-200.000	0.012	0.139
-123.224	141.230	-0.219	0.289
-122.210	-39.107	-0.516	0.270
-121.195	-96.466	-0.072	-0.019
