DTS Sentinel unit serial number:	SN413079Multiplexer serial number:	ORYXHardware model number:	OX4-SRSoftware version number:	ORYX F/W v4.00 Oryx Data Collector v3.7.2.0data status	okinstallation	princeton_trtdifferential loss correction	single-endedforward channel	channel 4reverse channel	N/Adate	2019/09/17time	14:53:35forward acquisition time	60.00reverse acquisition time	0.00gamma	496.2192k internal	0.2294k external	0.2294temperature offset calibration	0.9985default loss term (dB/km)	0.3790temperature slope calibration	1.0000multiplexer offset coefficient	1.0000multiplexer slope coefficient	1.0000fibre end	0.00T internal ref (°C)	37.19T ext. ref 1 (°C)	0.39T ext. ref 2 (°C)	34.18length (m)	temperature (°C)	Stokes	anti-Stokes-747.200	-200.000	0.007	-0.281
-746.185	-200.000	-0.049	0.367
-745.171	-16.642	0.167	-0.108
-744.156	-200.000	-0.002	-0.014
-743.142	89.819	-0.022	-0.025
-742.127	534.188	-0.046	0.111
-741.112	-200.000	-0.011	0.080
-740.098	-164.797	0.335	0.015
-739.083	-11.402	-0.300	-0.202
-738.069	105.950	-0.069	0.083
-737.054	9.175	-0.104	0.081
-736.039	36.891	-0.341	-0.308
-735.025	-22.286	-0.156	0.096
-734.010	201.363	-0.220	-0.346
-732.996	143.297	0.051	-0.070
-731.981	-142.667	0.126	0.013
-730.966	-51.003	0.016	0.008
-729.952	81.903	-0.125	-0.139
-728.937	131.627	-0.201	0.265
-727.923	563.743	0.095	-0.234
-726.908	112.633	0.138	-0.171
-725.894	428.465	-0.088	0.195
-724.879	192.237	-0.130	-0.200
-723.864	156.388	-0.138	0.194
-722.850	145.758	-0.056	0.077
-721.835	800.000	0.036	0.115
-720.821	-167.650	-0.104	-0.004
-719.806	459.613	-0.114	-0.259
-718.791	-195.540	0.166	-0.001
-717.777	-200.000	0.056	-0.348
-716.762	800.000	0.077	0.286
-715.748	130.354	-0.151	-0.197
-714.733	58.039	-0.086	0.086
-713.718	116.104	0.139	0.174
-712.704	-200.000	-0.003	-0.377
-711.689	800.000	-0.023	0.069
-710.675	356.359	-0.154	-0.312
-709.660	134.348	-0.175	0.231
-708.645	13.148	0.089	-0.071
-707.631	800.000	-0.038	0.125
-706.616	-66.298	0.353	-0.143
-705.602	92.852	0.092	-0.106
-704.587	412.861	-0.071	-0.154
-703.572	-74.576	0.087	0.032
-702.558	-111.703	-0.109	-0.023
-701.543	-200.000	0.037	0.193
-700.529	175.192	-0.149	-0.221
-699.514	800.000	-0.113	-0.402
-698.499	37.070	-0.145	-0.131
-697.485	3.144	0.299	-0.222
-696.470	-200.000	0.019	-0.271
-695.456	-200.000	-0.072	0.363
-694.441	169.227	-0.057	0.082
-693.426	-5.104	-0.153	-0.107
-692.412	-82.160	-0.107	-0.036
-691.397	-80.118	-0.250	0.085
-690.383	-90.451	0.405	-0.120
-689.368	11.386	0.157	0.123
-688.354	191.848	0.155	-0.239
-687.339	800.000	0.061	0.250
-686.324	57.466	0.340	0.339
-685.310	-64.377	-0.386	0.160
-684.295	-139.878	0.110	0.012
-683.281	96.969	-0.154	-0.181
-682.266	-200.000	-0.005	0.414
-681.251	-125.364	0.132	0.021
-680.237	-78.752	0.355	-0.124
-679.222	-200.000	0.002	-0.093
-678.208	800.000	-0.081	-0.276
-677.193	-200.000	0.001	0.057
-676.178	-140.786	-0.232	-0.024
-675.164	23.712	0.181	-0.152
-674.149	800.000	0.051	-0.225
-673.135	800.000	0.017	0.059
-672.120	800.000	-0.053	0.208
-671.105	-94.896	0.190	-0.052
-670.091	213.730	0.177	0.285
-669.076	-94.912	-0.239	0.066
-668.062	-200.000	0.010	-0.347
-667.047	44.079	0.246	0.230
-666.032	-68.852	0.169	-0.067
-665.018	-115.841	-0.211	-0.040
-664.003	-200.000	0.020	-0.447
-662.989	-118.757	0.383	-0.069
-661.974	134.673	0.080	-0.105
-660.959	-70.248	0.269	-0.104
-659.945	800.000	-0.051	0.156
-658.930	-38.530	-0.178	0.096
-657.916	-63.740	0.093	0.039
-656.901	490.039	-0.116	-0.271
-655.886	-4.439	-0.118	0.083
-654.872	7.795	0.094	0.072
-653.857	-154.245	0.256	-0.018
-652.843	-200.000	-0.012	-0.363
-651.828	-10.019	0.085	-0.057
-650.814	42.617	0.166	0.154
-649.799	268.820	0.163	0.292
-648.784	16.966	0.173	0.139
-647.770	-82.648	0.253	-0.083
-646.755	-63.946	0.092	0.038
-645.741	-200.000	0.010	-0.113
-644.726	-200.000	-0.022	0.099
-643.711	-200.000	0.072	-0.366
-642.697	800.000	0.144	-0.414
-641.682	-89.927	0.290	0.086
-640.668	-29.529	0.083	-0.049
-639.653	-54.884	-0.063	0.029
-638.638	210.233	-0.186	0.298
-637.624	-148.486	-0.087	0.007
-636.609	-156.718	-0.312	-0.020
-635.595	-200.000	0.022	0.119
-634.580	58.999	-0.302	0.302
-633.565	-169.068	-0.272	-0.010
-632.551	-114.095	0.309	0.061
-631.536	46.099	0.024	-0.022
-630.522	468.835	-0.036	-0.081
-629.507	-101.977	-0.275	-0.067
-628.492	463.973	-0.083	-0.188
-627.478	45.187	0.079	0.074
-626.463	-111.495	-0.059	0.012
-625.449	-200.000	-0.036	0.229
-624.434	800.000	0.026	0.110
-623.419	109.391	0.068	-0.083
-622.405	-200.000	-0.034	0.391
-621.390	252.557	0.146	-0.253
-620.376	-55.098	0.114	0.052
-619.361	-200.000	-0.022	-0.315
-618.346	25.421	0.334	0.283
-617.332	800.000	0.066	-0.193
-616.317	115.000	-0.055	-0.068
-615.303	800.000	0.100	0.307
-614.288	-2.897	-0.166	-0.118
-613.273	-87.332	0.198	-0.061
-612.259	-200.000	0.010	-0.053
-611.244	-169.246	-0.145	0.005
-610.230	-200.000	-0.007	0.249
-609.215	-56.472	-0.183	0.083
-608.201	62.513	0.043	0.044
-607.186	116.996	-0.124	-0.155
-606.171	-200.000	0.044	0.243
-605.157	-200.000	-0.011	0.092
-604.142	-139.996	0.235	0.025
-603.128	-200.000	-0.037	-0.294
-602.113	-200.000	0.039	-0.235
-601.098	-200.000	0.032	-0.356
-600.084	800.000	-0.084	-0.246
-599.069	-67.206	-0.174	-0.070
-598.055	109.886	-0.198	-0.242
-597.040	800.000	0.100	-0.351
-596.025	56.297	-0.154	-0.152
-595.011	237.890	0.087	-0.147
-593.996	282.969	0.051	0.094
-592.982	-36.183	-0.199	-0.109
-591.967	1.915	0.321	-0.235
-590.952	64.200	0.097	0.100
-589.938	137.936	-0.099	-0.132
-588.923	800.000	-0.087	-0.302
-587.909	-114.967	0.085	-0.017
-586.894	800.000	0.076	-0.319
-585.879	267.674	0.187	0.333
-584.865	800.000	-0.117	-0.342
-583.850	-48.082	0.155	-0.076
-582.836	-200.000	0.021	0.190
-581.821	-21.998	-0.134	-0.083
-580.806	4.024	0.107	0.080
-579.792	-0.888	0.232	0.167
-578.777	-200.000	0.013	0.205
-577.763	-160.604	0.253	-0.014
-576.748	-41.383	0.352	0.184
-575.733	99.648	0.147	0.173
-574.719	-58.978	-0.140	0.061
-573.704	460.340	-0.031	0.069
-572.690	800.000	-0.112	0.447
-571.675	-31.837	-0.111	-0.063
-570.661	-7.849	0.134	-0.092
-569.646	-125.001	0.147	0.023
-568.631	-200.000	0.012	-0.190
-567.617	-62.013	-0.373	0.158
-566.602	14.731	0.310	0.246
-565.588	262.787	-0.044	0.078
-564.573	503.705	0.065	0.152
-563.558	-71.173	-0.023	0.009
-562.544	-200.000	0.011	0.081
-561.529	-49.160	-0.235	0.114
-560.515	210.015	-0.127	-0.203
-559.500	-137.764	0.049	0.006
-558.485	-93.754	0.294	0.082
-557.471	6.487	0.035	0.026
-556.456	-127.796	0.113	0.017
-555.442	634.404	0.130	-0.334
-554.427	278.814	-0.152	-0.275
-553.412	-108.241	-0.223	-0.049
-552.398	-200.000	-0.020	0.100
-551.383	800.000	-0.033	-0.100
-550.369	109.481	0.118	0.143
-549.354	-200.000	-0.001	-0.409
-548.339	-111.429	-0.179	0.037
-547.325	454.876	-0.144	0.323
-546.310	-72.283	-0.176	0.066
-545.296	119.710	0.152	-0.191
-544.281	-200.000	0.016	0.371
-543.266	-58.139	-0.168	0.075
-542.252	-147.925	-0.273	-0.023
-541.237	-200.000	-0.034	-0.210
-540.223	-105.513	0.256	0.059
-539.208	-89.833	-0.030	-0.009
-538.193	-200.000	0.004	0.035
-537.179	-6.975	0.190	-0.131
-536.164	95.691	0.264	-0.305
-535.150	-6.453	-0.212	-0.147
-534.135	158.209	0.270	-0.380
-533.121	103.968	0.229	-0.273
-532.106	424.762	-0.125	-0.273
-531.091	587.818	-0.157	0.391
-530.077	139.334	0.104	0.138
-529.062	800.000	-0.029	-0.095
-528.048	-29.364	0.183	-0.106
-527.033	-197.400	-0.206	0.001
-526.018	21.701	-0.303	-0.250
-525.004	209.880	0.072	0.114
-523.989	-200.000	-0.015	0.177
-522.975	-200.000	-0.030	0.166
-521.960	-105.892	0.319	-0.073
-520.945	800.000	-0.038	-0.141
-519.931	267.415	-0.305	0.541
-518.916	645.961	0.110	0.285
-517.902	-5.731	0.400	0.278
-516.887	-200.000	0.001	0.124
-515.872	129.044	-0.206	0.267
-514.858	800.000	-0.082	0.250
-513.843	-89.397	0.485	-0.145
-512.829	-146.866	0.164	-0.014
-511.814	-200.000	-0.029	-0.138
-510.799	438.515	-0.085	0.187
-509.785	532.377	0.018	-0.043
-508.770	-15.171	-0.236	-0.153
-507.756	-71.575	-0.183	-0.069
-506.741	-200.000	0.051	-0.325
-505.726	-123.212	-0.106	-0.017
-504.712	523.012	0.110	-0.262
-503.697	-63.806	0.137	0.057
-502.683	15.504	-0.181	-0.144
-501.668	-46.605	-0.556	0.276
-500.653	142.710	-0.020	0.027
-499.639	-76.316	0.234	0.083
-498.624	191.630	0.199	-0.304
-497.610	34.245	-0.172	-0.152
-496.595	48.388	0.310	0.294
-495.581	-39.212	-0.227	0.121
-494.566	-138.495	0.162	0.018
-493.551	-112.542	0.420	0.085
-492.537	-98.678	0.156	0.040
-491.522	-200.000	0.059	0.277
-490.508	800.000	0.059	-0.222
-489.493	-117.945	0.225	0.041
-488.478	-117.320	0.277	-0.051
-487.464	-200.000	0.025	-0.340
-486.449	-123.068	-0.120	0.020
-485.435	800.000	0.052	-0.157
-484.420	328.490	-0.142	-0.276
-483.405	166.312	-0.217	0.311
-482.391	-66.400	-0.148	0.060
-481.376	719.813	0.108	-0.292
-480.362	-46.512	-0.161	-0.080
-479.347	5.215	-0.159	0.118
-478.332	604.238	0.139	0.351
-477.318	-53.769	0.043	0.020
-476.303	87.960	0.058	0.065
-475.289	-169.942	0.166	-0.006
-474.274	-169.460	0.252	0.009
-473.259	-104.662	-0.161	0.038
-472.245	-166.031	-0.145	-0.006
-471.230	354.924	-0.171	-0.345
-470.216	-102.634	-0.339	-0.082
-469.201	266.264	0.191	-0.337
-468.186	-200.000	0.014	0.180
-467.172	496.613	0.059	-0.137
-466.157	73.306	-0.185	-0.195
-465.143	800.000	0.063	-0.179
-464.128	-66.342	-0.229	0.092
-463.113	55.316	-0.171	-0.167
-462.099	95.317	0.227	-0.261
-461.084	214.118	-0.158	-0.252
-460.070	25.685	0.163	-0.138
-459.055	-200.000	0.048	0.399
-458.040	47.128	0.211	-0.199
-457.026	9.844	-0.043	0.033
-456.011	34.365	-0.174	-0.153
-454.997	134.886	-0.087	-0.114
-453.982	-113.612	0.074	-0.015
-452.968	-11.387	-0.264	-0.176
-451.953	-200.000	-0.048	-0.265
-450.938	-105.810	-0.233	0.053
-449.924	90.490	-0.135	-0.152
-448.909	-200.000	-0.009	-0.324
-447.895	-29.115	-0.084	-0.049
-446.880	432.727	0.020	-0.043
-445.865	100.026	0.108	-0.127
-444.851	298.198	0.074	-0.137
-443.836	-13.206	-0.228	0.149
-442.822	-27.620	0.010	0.006
-441.807	-200.000	-0.010	-0.054
-440.792	51.562	0.038	-0.037
-439.778	23.054	0.339	0.281
-438.763	-16.187	-0.268	0.172
-437.749	461.213	-0.021	0.048
-436.734	-135.815	-0.206	0.025
-435.719	426.944	0.112	-0.244
-434.705	800.000	0.051	0.221
-433.690	-91.917	-0.147	-0.042
-432.676	4.284	0.320	0.237
-431.661	79.210	-0.110	-0.120
-430.646	-97.065	-0.112	0.029
-429.632	2.148	0.210	-0.153
-428.617	-77.673	-0.060	-0.021
-427.603	-69.108	-0.299	0.116
-426.588	-200.000	0.011	0.194
-425.573	133.609	-0.158	-0.207
-424.559	86.079	-0.149	0.166
-423.544	-56.129	-0.264	0.119
-422.530	-120.451	0.251	0.043
-421.515	-11.854	-0.276	-0.183
-420.500	-68.636	0.293	0.115
-419.486	-81.430	0.319	0.106
-418.471	-200.000	-0.013	0.067
-417.457	-200.000	-0.001	-0.011
-416.442	51.716	-0.314	-0.301
-415.428	800.000	-0.060	-0.171
-414.413	-118.120	0.128	-0.023
-413.398	800.000	0.011	0.043
-412.384	280.594	-0.103	-0.186
-411.369	-112.295	-0.224	-0.045
-410.355	43.239	0.061	-0.056
-409.340	135.958	-0.096	-0.126
-408.325	453.674	0.054	-0.121
-407.311	800.000	0.078	0.294
-406.296	153.493	-0.125	-0.172
-405.282	118.017	0.121	0.150
-404.267	-200.000	0.040	0.254
-403.252	763.169	0.072	-0.196
-402.238	-130.586	0.342	-0.047
-401.223	-93.993	-0.107	-0.030
-400.209	208.666	-0.136	0.215
-399.194	-200.000	0.053	-0.260
-398.179	36.474	-0.198	0.176
-397.165	-22.628	-0.295	0.180
-396.150	-82.521	0.062	0.020
-395.136	60.132	0.277	0.276
-394.121	124.077	-0.162	0.206
-393.106	149.171	-0.227	-0.310
-392.092	-53.026	0.284	-0.132
-391.077	-164.903	-0.101	0.005
-390.063	17.971	-0.093	0.075
-389.048	369.000	0.096	-0.195
-388.033	550.300	0.096	0.232
-387.019	-122.489	-0.223	0.036
-386.004	-114.041	0.074	-0.014
-384.990	-200.000	0.028	-0.349
-383.975	-200.000	0.041	0.268
-382.960	-102.815	0.199	-0.048
-381.946	-200.000	0.014	-0.221
-380.931	800.000	0.083	0.336
-379.917	384.061	-0.054	0.112
-378.902	-127.965	-0.180	-0.026
-377.888	-200.000	-0.079	0.403
-376.873	-59.322	0.111	-0.048
-375.858	-125.142	0.334	0.052
-374.844	-200.000	-0.041	0.281
-373.829	-60.826	0.154	0.066
-372.815	-40.991	-0.259	0.135
-371.800	368.600	-0.112	0.229
-370.785	-200.000	0.041	-0.318
-369.771	157.132	0.104	-0.145
-368.756	581.591	0.069	-0.170
-367.742	-101.347	-0.079	-0.019
-366.727	20.638	-0.254	0.207
-365.712	28.212	-0.165	-0.141
-364.698	-94.121	0.197	-0.054
-363.683	-200.000	-0.033	-0.165
-362.669	65.224	0.121	-0.123
-361.654	88.793	-0.210	0.235
-360.639	-14.407	-0.284	0.184
-359.625	-44.398	-0.255	0.129
-358.610	73.726	-0.139	0.147
-357.596	76.763	0.065	-0.069
-356.581	-75.067	-0.010	-0.004
-355.566	-120.882	0.315	0.053
-354.552	-140.359	0.317	0.033
-353.537	195.881	-0.107	0.164
-352.523	-52.208	-0.239	-0.112
-351.508	-138.957	-0.222	-0.024
-350.493	139.100	-0.211	0.279
-349.479	-200.000	0.036	-0.182
-348.464	-129.230	-0.216	-0.030
-347.450	-200.000	-0.022	0.117
-346.435	35.721	0.091	0.080
-345.420	800.000	-0.037	-0.142
-344.406	800.000	-0.015	0.042
-343.391	-200.000	-0.041	0.352
-342.377	95.525	0.246	0.283
-341.362	237.173	-0.099	0.166
-340.348	-65.660	0.255	0.103
-339.333	431.807	0.143	0.312
-338.318	524.260	0.142	0.335
-337.304	207.622	0.084	-0.132
-336.289	-200.000	-0.018	0.231
-335.275	230.258	0.278	-0.457
-334.260	40.813	-0.094	-0.086
-333.245	-200.000	0.040	-0.213
-332.231	-90.279	-0.060	-0.017
-331.216	-143.105	0.215	0.021
-330.202	-31.194	-0.107	-0.061
-329.187	-40.009	0.396	0.208
-328.172	42.176	-0.279	0.255
-327.158	14.581	0.114	-0.090
-326.143	-170.224	-0.314	-0.011
-325.129	-105.337	-0.192	0.044
-324.114	61.197	0.051	0.051
-323.099	-139.660	-0.110	0.012
-322.085	350.702	0.117	0.232
-321.070	-200.000	-0.073	-0.644
-320.056	-200.000	0.050	0.251
-319.041	-200.000	-0.035	-0.258
-318.026	424.979	0.128	0.276
-317.012	-120.836	0.233	-0.040
-315.997	800.000	-0.124	0.439
-314.983	-76.187	-0.552	0.196
-313.968	-120.889	-0.293	0.050
-312.953	-200.000	-0.025	-0.356
-311.939	-200.000	-0.002	-0.171
-310.924	-200.000	-0.016	0.252
-309.910	-148.789	-0.453	0.037
-308.895	40.960	0.332	-0.302
-307.880	-200.000	-0.050	0.305
-306.866	-24.400	0.496	0.297
-305.851	-133.048	0.192	-0.025
-304.837	192.608	-0.213	-0.323
-303.822	130.893	0.127	-0.163
-302.807	-112.579	0.133	-0.027
-301.793	-200.000	-0.023	-0.216
-300.778	-15.073	0.065	-0.042
-299.764	563.962	-0.140	0.341
-298.749	109.984	0.217	0.261
-297.735	-68.795	-0.075	0.029
-296.720	-112.701	-0.188	0.038
-295.705	318.312	-0.255	-0.486
-294.691	400.587	-0.104	-0.219
-293.676	-200.000	-0.057	0.275
-292.662	-75.396	-0.511	-0.183
-291.647	-101.199	0.187	0.046
-290.632	-200.000	-0.052	0.399
-289.618	-39.461	0.317	-0.167
-288.603	181.243	0.063	-0.093
-287.589	-69.795	0.294	0.113
-286.574	-200.000	0.008	0.076
-285.559	39.209	-0.099	-0.089
-284.545	-75.825	-0.216	0.077
-283.530	-119.497	0.115	0.020
-282.516	-179.844	0.225	0.005
-281.501	-102.746	0.345	-0.083
-280.486	7.107	0.332	0.248
-279.472	800.000	-0.027	-0.098
-278.457	800.000	-0.064	0.235
-277.443	-200.000	0.025	-0.189
-276.428	-200.000	0.015	0.107
-275.413	14.163	-0.248	0.194
-274.399	800.000	-0.019	-0.063
-273.384	235.204	0.126	-0.209
-272.370	-60.769	-0.076	0.032
-271.355	367.804	-0.171	0.346
-270.340	767.283	-0.097	-0.264
-269.326	-200.000	0.009	0.075
-268.311	-200.000	0.056	-0.323
-267.297	-101.469	-0.060	-0.015
-266.282	-34.094	-0.311	0.172
-265.267	800.000	0.135	0.439
-264.253	11.586	0.210	-0.161
-263.238	78.826	0.084	0.090
-262.224	135.899	-0.101	-0.132
-261.209	-200.000	0.007	-0.060
-260.195	-138.895	0.107	0.012
-259.180	98.035	0.227	-0.263
-258.165	800.000	0.056	0.218
-257.151	181.602	-0.122	-0.181
-256.136	128.766	-0.148	0.189
-255.122	711.332	0.101	0.269
-254.107	408.564	0.090	0.192
-253.092	-200.000	0.003	0.104
-252.078	-143.062	-0.255	0.025
-251.063	-144.019	0.336	-0.032
-250.049	-200.000	-0.048	-0.243
-249.034	46.903	0.185	0.172
-248.019	-20.461	-0.185	0.114
-247.005	-62.287	0.210	0.088
-245.990	551.980	0.165	-0.396
-244.976	-29.628	0.120	-0.069
-243.961	-81.303	-0.140	-0.046
-242.946	372.606	0.040	-0.080
-241.932	-62.344	-0.283	-0.118
-240.917	-5.376	0.143	-0.098
-239.903	431.367	-0.096	0.209
-238.888	-167.750	-0.187	0.007
-237.873	131.064	0.155	-0.199
-236.859	37.269	0.188	-0.167
-235.844	-47.062	0.170	-0.083
-234.830	-200.000	-0.037	0.241
-233.815	4.754	-0.154	0.113
-232.800	354.381	0.036	-0.072
-231.786	187.244	0.073	0.109
-230.771	196.022	0.068	-0.104
-229.757	-120.773	0.177	-0.030
-228.742	-154.449	0.034	-0.002
-227.727	70.735	0.059	-0.062
-226.713	97.883	0.143	0.164
-225.698	800.000	-0.092	-0.373
-224.684	40.956	-0.043	-0.039
-223.669	35.361	0.207	-0.182
-222.655	-91.154	-0.222	-0.064
-221.640	-36.749	-0.199	0.107
-220.625	246.833	-0.034	-0.057
-219.611	20.010	0.180	0.145
-218.596	273.110	-0.075	-0.133
-217.582	55.955	0.178	0.173
-216.567	-200.000	0.047	0.371
-215.552	26.754	0.198	0.166
-214.538	74.307	-0.175	-0.184
-213.523	34.262	0.304	0.265
-212.509	106.124	-0.100	0.118
-211.494	-114.850	-0.385	-0.074
-210.479	800.000	-0.052	0.176
-209.465	-134.677	0.205	0.025
-208.450	29.246	0.229	-0.195
-207.436	-71.495	-0.426	0.159
-206.421	-124.252	0.286	0.045
-205.406	-200.000	0.000	-0.189
-204.392	132.805	-0.236	-0.305
-203.377	-13.865	0.167	-0.108
-202.363	-116.904	0.178	-0.033
-201.348	163.810	-0.046	0.065
-200.333	-200.000	-0.034	-0.263
-199.319	10.658	-0.086	0.066
-198.304	17.952	-0.125	-0.100
-197.290	209.504	-0.172	0.270
-196.275	-200.000	0.031	0.293
-195.260	340.227	0.052	-0.102
-194.246	-200.000	0.009	-0.134
-193.231	646.207	0.073	-0.187
-192.217	-62.044	0.170	0.071
-191.202	-148.233	-0.490	0.040
-190.187	213.264	0.211	-0.333
-189.173	10.737	0.282	0.216
-188.158	-83.149	0.080	-0.026
-187.144	122.168	-0.176	0.220
-186.129	-29.624	0.167	0.095
-185.114	137.806	-0.146	-0.192
-184.100	-20.420	-0.317	-0.195
-183.085	-65.947	-0.279	-0.112
-182.071	-32.539	0.120	0.067
-181.056	-200.000	-0.001	-0.121
-180.042	-108.062	0.245	-0.053
-179.027	23.887	0.047	0.039
-178.012	-200.000	0.023	0.103
-176.998	197.755	-0.139	0.212
-175.983	-61.225	0.239	-0.101
-174.969	-200.000	-0.004	0.176
-173.954	-9.100	-0.182	-0.122
-172.939	-34.365	-0.110	0.060
-171.925	800.000	0.078	0.272
-170.910	-200.000	-0.016	-0.172
-169.896	-15.010	-0.048	0.031
-168.881	-93.300	-0.252	0.070
-167.866	237.608	-0.114	0.189
-166.852	757.875	0.146	0.395
-165.837	-115.105	-0.263	0.050
-164.823	51.237	0.182	0.173
-163.808	147.786	-0.067	-0.091
-162.793	-200.000	-0.059	-0.278
-161.779	-200.000	0.002	-0.372
-160.764	150.571	0.118	0.160
-159.750	-60.294	0.081	0.035
-158.735	-152.051	-0.176	-0.013
-157.720	164.910	-0.179	-0.253
-156.706	-88.501	0.247	0.074
-155.691	-11.967	0.244	0.160
-154.677	-108.244	-0.200	0.043
-153.662	90.041	-0.107	-0.120
-152.647	-132.996	-0.062	-0.008
-151.633	-57.561	-0.167	-0.073
-150.618	-200.000	-0.006	0.074
-149.604	33.876	-0.261	0.227
-148.589	255.113	0.127	0.217
-147.574	-69.505	0.142	0.054
-146.560	654.588	0.028	0.071
-145.545	-200.000	-0.254	0.001
-144.531	24.479	0.145	-0.120
-143.516	-200.000	0.012	-0.087
-142.502	800.000	-0.039	-0.148
-141.487	-200.000	0.056	0.257
-140.472	21.378	-0.192	0.156
-139.458	-60.732	-0.084	-0.035
-138.443	-75.008	0.207	-0.074
-137.429	63.894	-0.213	-0.214
-136.414	6.259	0.182	0.134
-135.399	-200.000	-0.026	0.139
-134.385	213.483	0.197	0.311
-133.370	-60.334	0.029	-0.012
-132.356	800.000	-0.024	0.088
-131.341	65.934	0.128	0.130
-130.326	-89.335	0.264	0.078
-129.312	800.000	-0.129	-0.539
-128.297	-79.090	-0.106	0.036
-127.283	-14.622	-0.207	-0.133
-126.268	-200.000	0.052	-0.359
-125.253	302.633	0.128	-0.237
-124.239	-200.000	0.031	-0.225
-123.224	-85.753	-0.134	0.042
-122.210	-200.000	0.009	-0.170
-121.195	224.627	-0.061	0.099
