DTS Sentinel unit serial number:	SN413079Multiplexer serial number:	ORYXHardware model number:	OX4-SRSoftware version number:	ORYX F/W v4.00 Oryx Data Collector v3.7.2.0data status	okinstallation	princeton_trtdifferential loss correction	single-endedforward channel	channel 4reverse channel	N/Adate	2019/09/15time	05:49:34forward acquisition time	60.00reverse acquisition time	0.00gamma	496.2192k internal	0.2311k external	0.2311temperature offset calibration	1.0038default loss term (dB/km)	0.3790temperature slope calibration	1.0000multiplexer offset coefficient	1.0000multiplexer slope coefficient	1.0000fibre end	0.00T internal ref (°C)	30.62T ext. ref 1 (°C)	4.84T ext. ref 2 (°C)	25.61length (m)	temperature (°C)	Stokes	anti-Stokes-747.200	-200.000	0.011	-0.288
-746.185	-200.000	0.001	0.154
-745.171	133.138	-0.137	0.180
-744.156	253.609	0.121	-0.210
-743.142	-124.681	0.334	-0.052
-742.127	371.848	-0.166	0.341
-741.112	89.808	0.164	-0.186
-740.098	262.198	-0.103	0.181
-739.083	-56.780	-0.602	-0.270
-738.069	231.663	-0.052	0.086
-737.054	-125.233	-0.063	0.010
-736.039	-156.203	-0.378	-0.024
-735.025	539.645	-0.232	0.559
-734.010	-200.000	0.008	0.383
-732.996	-113.847	-0.391	-0.077
-731.981	218.161	-0.084	-0.135
-730.966	174.016	-0.097	0.142
-729.952	800.000	-0.092	0.260
-728.937	-67.482	-0.172	0.069
-727.923	211.654	0.048	0.076
-726.908	282.751	0.243	-0.443
-725.894	-4.326	-0.200	-0.140
-724.879	800.000	0.055	-0.178
-723.864	-200.000	-0.022	-0.162
-722.850	-80.250	-0.455	0.154
-721.835	68.155	-0.095	0.098
-720.821	187.657	-0.055	-0.083
-719.806	38.608	0.161	-0.146
-718.791	-103.380	-0.295	0.071
-717.777	800.000	-0.088	0.259
-716.762	-60.309	-0.119	-0.051
-715.748	348.801	-0.084	-0.167
-714.733	94.255	0.068	0.079
-713.718	-18.173	-0.216	0.137
-712.704	-36.579	0.272	0.148
-711.689	-76.126	0.281	-0.101
-710.675	337.815	-0.091	0.180
-709.660	-159.609	0.182	-0.010
-708.645	50.561	0.149	-0.143
-707.631	-25.349	0.066	0.039
-706.616	-57.643	-0.225	-0.100
-705.602	-91.663	0.130	-0.037
-704.587	-6.626	-0.362	-0.250
-703.572	472.335	-0.177	0.404
-702.558	35.811	-0.107	-0.095
-701.543	-57.528	0.258	0.115
-700.529	719.650	-0.034	0.092
-699.514	395.391	-0.136	-0.288
-698.499	-32.804	-0.130	0.073
-697.485	86.789	0.155	0.173
-696.470	-86.095	-0.218	-0.068
-695.456	-88.520	-0.223	0.067
-694.441	-81.302	-0.146	-0.049
-693.426	584.753	0.155	-0.386
-692.412	184.206	-0.168	0.251
-691.397	800.000	0.009	0.041
-690.383	-170.071	-0.164	0.006
-689.368	-112.418	-0.226	-0.046
-688.354	-78.195	-0.154	0.054
-687.339	-24.165	-0.286	0.173
-686.324	800.000	0.082	0.237
-685.310	57.198	0.413	0.408
-684.295	-200.000	0.001	0.164
-683.281	458.754	0.116	-0.262
-682.266	-22.101	0.303	0.186
-681.251	-200.000	-0.013	-0.205
-680.237	-141.534	0.138	0.014
-679.222	-138.786	0.208	-0.023
-678.208	64.414	-0.092	-0.094
-677.193	331.908	0.028	-0.055
-676.178	-10.485	-0.145	-0.097
-675.164	800.000	-0.040	0.158
-674.149	376.834	0.084	-0.174
-673.135	-152.983	0.321	-0.023
-672.120	-200.000	0.038	-0.220
-671.105	37.138	-0.168	-0.151
-670.091	-67.847	-0.100	-0.039
-669.076	96.455	0.062	0.071
-668.062	-103.041	0.153	0.037
-667.047	-89.214	0.383	0.114
-666.032	-146.689	-0.115	-0.010
-665.018	-60.849	0.177	0.076
-664.003	203.569	-0.115	0.180
-662.989	-15.362	0.190	-0.123
-661.974	-36.109	-0.284	-0.155
-660.959	239.041	-0.075	0.126
-659.945	56.345	-0.209	-0.206
-658.930	-200.000	0.003	0.349
-657.916	-200.000	0.021	-0.127
-656.901	-145.108	0.285	-0.026
-655.886	-58.257	-0.199	0.087
-654.872	184.349	0.241	0.361
-653.857	255.377	0.070	-0.121
-652.843	-200.000	-0.001	-0.037
-651.828	47.605	-0.227	0.215
-650.814	-111.598	-0.341	-0.070
-649.799	39.159	-0.206	-0.187
-648.784	-133.628	-0.438	-0.055
-647.770	-10.078	-0.065	-0.044
-646.755	-53.563	-0.058	0.027
-645.741	705.061	-0.008	-0.021
-644.726	-200.000	-0.016	0.087
-643.711	0.697	-0.207	-0.150
-642.697	-200.000	-0.004	0.255
-641.682	313.244	-0.162	-0.307
-640.668	-200.000	0.056	-0.382
-639.653	147.458	-0.234	-0.319
-638.638	-105.724	0.055	0.012
-637.624	-118.489	-0.211	-0.038
-636.609	196.527	-0.071	0.110
-635.595	109.839	0.135	-0.163
-634.580	40.673	0.184	0.167
-633.565	491.805	-0.090	-0.208
-632.551	302.182	-0.119	-0.222
-631.536	-79.094	0.147	-0.051
-630.522	357.208	-0.018	0.036
-629.507	-39.135	0.110	0.059
-628.492	164.226	0.166	0.236
-627.478	26.676	0.059	-0.050
-626.463	102.729	-0.204	0.242
-625.449	-121.757	-0.296	-0.049
-624.434	-82.850	-0.215	-0.070
-623.419	43.062	-0.206	-0.189
-622.405	511.525	-0.058	0.136
-621.390	-23.120	0.229	0.139
-620.376	-4.856	-0.223	-0.155
-619.361	40.614	-0.059	-0.054
-618.346	-40.503	0.197	0.104
-617.332	-200.000	-0.020	0.213
-616.317	351.456	-0.077	0.154
-615.303	800.000	0.138	0.401
-614.288	214.267	-0.091	0.145
-613.273	-112.329	0.188	0.038
-612.259	-151.099	0.380	-0.029
-611.244	-30.371	0.174	-0.100
-610.230	-22.545	-0.191	0.117
-609.215	-200.000	-0.017	0.359
-608.201	800.000	0.046	-0.141
-607.186	471.687	-0.152	0.345
-606.171	-200.000	-0.017	0.223
-605.157	-63.558	-0.155	-0.064
-604.142	-96.422	-0.106	0.028
-603.128	800.000	-0.096	0.395
-602.113	79.758	0.121	-0.131
-601.098	638.868	0.080	0.204
-600.084	83.498	-0.209	0.230
-599.069	28.407	0.123	0.105
-598.055	61.312	-0.100	-0.100
-597.040	-200.000	-0.022	-0.136
-596.025	-30.738	-0.368	0.210
-595.011	800.000	0.022	0.085
-593.996	240.025	-0.135	0.227
-592.982	-200.000	0.044	0.281
-591.967	-102.314	-0.174	0.042
-590.952	21.523	-0.135	-0.111
-589.938	800.000	0.105	-0.341
-588.923	-42.026	-0.150	-0.078
-587.909	-27.266	0.097	0.057
-586.894	106.846	-0.160	0.192
-585.879	-200.000	0.000	0.141
-584.865	-1.516	-0.128	-0.091
-583.850	291.968	0.129	0.236
-582.836	558.421	-0.020	0.050
-581.821	-24.510	-0.239	-0.144
-580.806	-48.748	-0.218	-0.106
-579.792	800.000	-0.118	-0.334
-578.777	91.077	-0.070	-0.080
-577.763	-0.883	-0.457	0.326
-576.748	63.008	0.265	0.268
-575.733	-200.000	0.000	-0.232
-574.719	436.450	-0.128	0.280
-573.704	90.439	0.270	0.304
-572.690	-90.662	-0.373	-0.109
-571.675	88.441	-0.188	-0.210
-570.661	166.179	0.308	0.439
-569.646	-86.953	0.018	0.006
-568.631	-63.098	0.244	0.102
-567.617	45.204	0.166	0.155
-566.602	16.896	0.072	-0.057
-565.588	295.953	-0.078	0.143
-564.573	-68.334	-0.067	-0.026
-563.558	-200.000	-0.025	0.161
-562.544	612.698	0.152	0.385
-561.529	-17.846	0.203	-0.129
-560.515	-200.000	0.000	-0.064
-559.500	158.627	0.136	0.190
-558.485	180.363	-0.169	0.250
-557.471	-200.000	0.059	-0.264
-556.456	-200.000	0.014	-0.316
-555.442	-67.680	0.282	-0.111
-554.427	172.732	0.174	0.252
-553.412	-37.724	-0.302	0.162
-552.398	358.446	-0.082	-0.165
-551.383	-129.322	-0.157	-0.022
-550.369	520.791	0.123	-0.291
-549.354	-103.804	0.252	0.059
-548.339	-156.937	-0.221	-0.014
-547.325	-200.000	0.065	0.377
-546.310	504.703	-0.106	0.246
-545.296	-6.305	-0.130	0.089
-544.281	-66.233	0.068	-0.027
-543.266	-27.813	-0.040	0.024
-542.252	33.642	0.257	0.225
-541.237	-166.101	0.169	-0.007
-540.223	574.628	-0.034	0.083
-539.208	-200.000	0.075	-0.425
-538.193	-200.000	-0.011	0.215
-537.179	-101.182	-0.257	-0.063
-536.164	-116.140	0.167	0.031
-535.150	-200.000	0.026	-0.252
-534.135	-22.973	-0.210	-0.127
-533.121	2.275	0.202	-0.147
-532.106	189.490	-0.089	0.134
-531.091	212.913	-0.130	0.207
-530.077	156.939	0.188	-0.261
-529.062	-122.391	0.076	0.012
-528.048	-188.710	0.384	-0.005
-527.033	136.379	-0.103	-0.135
-526.018	70.465	-0.060	0.062
-525.004	-90.289	-0.300	-0.088
-523.989	-200.000	0.000	-0.043
-522.975	97.846	0.107	-0.124
-521.960	215.351	-0.124	-0.199
-520.945	272.088	0.129	-0.229
-519.931	800.000	0.080	0.239
-518.916	18.651	-0.113	-0.091
-517.902	119.151	0.179	-0.222
-516.887	34.992	-0.073	-0.065
-515.872	7.242	-0.281	-0.211
-514.858	461.595	-0.018	-0.040
-513.843	55.044	0.092	0.089
-512.829	-76.690	0.426	0.150
-511.814	800.000	0.010	0.039
-510.799	800.000	0.063	0.219
-509.785	-124.460	0.167	0.026
-508.770	-200.000	-0.040	-0.215
-507.756	102.356	0.064	0.075
-506.741	-90.189	-0.053	-0.015
-505.726	757.340	-0.014	-0.039
-504.712	-9.282	-0.147	-0.099
-503.697	-30.968	0.261	-0.148
-502.683	-200.000	-0.065	0.428
-501.668	87.622	-0.076	0.085
-500.653	-106.155	0.238	-0.054
-499.639	268.443	0.111	0.196
-498.624	-48.644	-0.414	-0.200
-497.610	-16.838	0.052	-0.033
-496.595	27.088	0.186	-0.157
-495.581	627.495	0.173	-0.440
-494.566	-200.000	-0.045	0.275
-493.551	-200.000	-0.038	0.226
-492.537	-72.383	0.292	0.109
-491.522	588.303	-0.116	-0.288
-490.508	87.879	-0.208	-0.232
-489.493	-200.000	0.046	0.231
-488.478	23.507	-0.184	0.152
-487.464	678.837	0.109	-0.286
-486.449	12.307	0.180	-0.139
-485.435	349.244	0.044	0.088
-484.420	-49.090	0.354	0.170
-483.405	349.716	0.095	-0.189
-482.391	414.113	-0.054	0.116
-481.376	600.900	0.049	0.122
-480.362	173.954	0.164	0.238
-479.347	72.249	-0.040	-0.042
-478.332	240.237	-0.027	0.045
-477.318	96.980	-0.115	0.132
-476.303	-77.123	0.462	0.162
-475.289	-200.000	-0.066	-0.337
-474.274	114.380	0.168	-0.205
-473.259	567.113	0.115	0.281
-472.245	72.131	-0.349	0.365
-471.230	18.074	-0.177	-0.142
-470.216	116.431	-0.293	0.361
-469.201	69.199	-0.233	-0.240
-468.186	800.000	0.038	-0.150
-467.172	-59.156	-0.106	0.046
-466.157	-15.633	0.183	-0.117
-465.143	-8.897	0.076	-0.051
-464.128	139.895	-0.204	-0.270
-463.113	-42.887	0.170	-0.087
-462.099	-99.717	-0.077	-0.019
-461.084	10.624	-0.159	-0.122
-460.070	34.299	-0.287	0.251
-459.055	325.925	0.098	0.188
-458.040	5.589	-0.093	0.069
-457.026	-146.931	-0.273	-0.024
-456.011	409.144	0.053	-0.114
-454.997	106.149	-0.106	-0.126
-453.982	-28.989	0.116	0.067
-452.968	-103.856	-0.147	-0.035
-451.953	-96.299	-0.452	0.120
-450.938	-17.373	0.333	-0.211
-449.924	240.291	-0.088	-0.147
-448.909	-120.480	0.137	-0.023
-447.895	-166.198	-0.205	-0.009
-446.880	-39.337	-0.174	0.092
-445.865	-49.826	0.069	0.033
-444.851	248.302	-0.146	-0.248
-443.836	-61.804	0.239	0.101
-442.822	800.000	0.082	0.302
-441.807	-52.393	-0.119	-0.055
-440.792	-131.185	0.167	0.022
-439.778	-142.998	0.166	-0.016
-438.763	8.688	0.138	-0.104
-437.749	-89.080	-0.329	-0.098
-436.734	76.953	-0.165	0.175
-435.719	244.471	0.116	0.196
-434.705	87.377	-0.103	-0.115
-433.690	-102.367	0.439	-0.106
-432.676	-200.000	-0.006	-0.355
-431.661	18.502	-0.285	-0.229
-430.646	-114.444	0.159	-0.031
-429.632	11.098	-0.148	0.113
-428.617	-200.000	-0.001	0.027
-427.603	107.174	0.106	0.126
-426.588	-83.727	-0.066	0.021
-425.573	800.000	-0.060	-0.175
-424.559	-200.000	0.004	0.077
-423.544	-135.091	-0.244	-0.029
-422.530	-64.128	-0.116	-0.047
-421.515	93.326	-0.217	-0.246
-420.500	800.000	-0.055	-0.213
-419.486	396.381	-0.132	0.276
-418.471	64.477	0.185	0.187
-417.457	681.577	0.043	-0.113
-416.442	-87.540	-0.255	-0.077
-415.428	-127.744	-0.102	0.015
-414.413	306.512	0.062	-0.117
-413.398	800.000	0.168	0.485
-412.384	-200.000	-0.040	0.466
-411.369	-36.676	0.214	0.115
-410.355	16.352	0.119	0.094
-409.340	7.347	0.191	-0.143
-408.325	800.000	0.064	-0.226
-407.311	-91.499	0.216	0.062
-406.296	86.913	-0.246	-0.272
-405.282	268.455	0.167	0.293
-404.267	-77.657	0.370	0.128
-403.252	-61.228	0.186	-0.079
-402.238	-159.925	0.241	-0.013
-401.223	800.000	0.041	0.134
-400.209	-156.601	-0.088	-0.005
-399.194	-139.064	0.222	0.024
-398.179	246.376	0.059	0.099
-397.165	800.000	-0.077	0.229
-396.150	800.000	-0.082	-0.279
-395.136	-200.000	0.015	0.128
-394.121	-64.797	-0.088	-0.036
-393.106	108.029	-0.116	-0.138
-392.092	-99.439	0.332	-0.084
-391.077	50.688	0.183	-0.174
-390.063	-80.052	0.433	-0.145
-389.048	-200.000	-0.112	0.000
-388.033	-150.714	0.230	-0.018
-387.019	-118.490	-0.172	-0.031
-386.004	179.473	0.159	-0.232
-384.990	-200.000	-0.035	-0.180
-383.975	-13.793	0.063	-0.041
-382.960	211.129	0.057	0.089
-381.946	-49.833	-0.177	0.084
-380.931	-104.054	-0.190	0.044
-379.917	-200.000	0.006	0.199
-378.902	-200.000	-0.012	-0.253
-377.888	-200.000	0.018	-0.227
-376.873	-3.983	0.392	-0.272
-375.858	499.614	-0.067	0.153
-374.844	-60.930	0.394	0.167
-373.829	-127.381	-0.059	0.009
-372.815	-129.876	0.328	-0.045
-371.800	-2.428	-0.030	-0.021
-370.785	317.732	0.049	0.093
-369.771	78.741	-0.136	-0.146
-368.756	-200.000	-0.008	-0.058
-367.742	635.460	0.039	-0.099
-366.727	90.062	0.139	0.156
-365.712	-95.050	-0.121	0.033
-364.698	449.852	-0.070	0.154
-363.683	331.060	-0.125	-0.242
-362.669	800.000	-0.054	-0.196
-361.654	-200.000	0.011	-0.146
-360.639	-81.954	-0.049	-0.016
-359.625	-200.000	-0.018	0.163
-358.610	-61.529	0.182	0.076
-357.596	109.867	0.164	0.197
-356.581	133.519	-0.163	-0.211
-355.566	539.618	-0.175	-0.416
-354.552	-200.000	0.038	-0.511
-353.537	-68.330	-0.141	-0.055
-352.523	198.557	-0.048	-0.074
-351.508	31.385	0.084	-0.072
-350.493	-7.376	0.160	-0.109
-349.479	-65.782	-0.017	-0.007
-348.464	427.762	0.160	-0.345
-347.450	-200.000	-0.029	0.320
-346.435	269.040	0.099	0.173
-345.420	-200.000	-0.014	-0.122
-344.406	264.648	-0.037	-0.065
-343.391	-200.000	0.035	0.276
-342.377	800.000	-0.086	0.271
-341.362	765.418	0.047	-0.127
-340.348	-77.726	-0.059	-0.020
-339.333	-20.470	0.086	0.053
-338.318	80.257	0.270	0.290
-337.304	-125.677	-0.105	0.016
-336.289	800.000	0.043	0.176
-335.275	-200.000	-0.018	0.145
-334.260	800.000	0.102	0.286
-333.245	-200.000	0.057	-0.317
-332.231	300.926	0.127	-0.235
-331.216	800.000	-0.029	0.122
-330.202	-101.793	0.224	0.054
-329.187	800.000	0.098	-0.311
-328.172	96.463	0.166	0.189
-327.158	800.000	-0.048	-0.147
-326.143	65.218	-0.193	0.195
-325.129	45.483	-0.113	0.105
-324.114	-73.298	0.049	-0.018
-323.099	-109.384	-0.193	0.041
-322.085	-200.000	-0.029	0.207
-321.070	333.155	-0.058	0.111
-320.056	-59.360	-0.457	0.196
-319.041	-112.083	-0.324	-0.065
-318.026	34.665	-0.181	-0.158
-317.012	108.067	-0.067	-0.080
-315.997	338.829	-0.108	-0.210
-314.983	-60.240	-0.345	-0.147
-313.968	-101.839	-0.190	-0.046
-312.953	-57.664	0.028	0.012
-311.939	-92.108	0.208	-0.059
-310.924	-139.232	-0.106	-0.011
-309.910	-9.451	0.116	-0.077
-308.895	137.079	-0.083	0.109
-307.880	-92.306	0.139	-0.039
-306.866	38.345	0.069	0.061
-305.851	-69.526	0.192	-0.073
-304.837	-200.000	-0.004	0.049
-303.822	320.440	0.063	0.119
-302.807	-102.071	0.266	0.064
-301.793	127.563	0.173	0.219
-300.778	296.807	-0.214	0.392
-299.764	-200.000	-0.021	-0.240
-298.749	-195.099	0.158	-0.001
-297.735	408.040	-0.114	-0.241
-296.720	-200.000	0.006	-0.380
-295.705	18.163	0.182	0.145
-294.691	-156.492	0.179	0.011
-293.676	-97.602	0.080	-0.021
-292.662	-6.592	0.037	-0.025
-291.647	800.000	-0.113	0.425
-290.632	-66.775	-0.136	0.054
-289.618	800.000	0.052	0.204
-288.603	-36.834	0.448	0.240
-287.589	286.834	-0.140	-0.252
-286.574	-110.658	0.127	0.026
-285.559	-200.000	0.045	-0.362
-284.545	800.000	0.080	-0.341
-283.530	-90.923	-0.181	-0.052
-282.516	69.319	0.096	-0.098
-281.501	-200.000	0.007	0.109
-280.486	-134.195	-0.398	0.049
-279.472	-22.544	0.235	-0.142
-278.457	-200.000	0.020	-0.150
-277.443	-154.840	-0.154	0.010
-276.428	-82.581	0.064	-0.021
-275.413	72.640	0.121	-0.126
-274.399	-200.000	-0.017	0.079
-273.384	7.680	-0.237	0.177
-272.370	450.255	-0.038	0.085
-271.355	-59.143	0.106	-0.046
-270.340	168.909	0.063	-0.089
-269.326	114.248	-0.020	-0.025
-268.311	-200.000	-0.018	0.362
-267.297	-77.828	0.116	0.040
-266.282	707.351	-0.072	-0.189
-265.267	-65.856	0.211	-0.084
-264.253	82.276	0.196	0.212
-263.238	52.804	-0.111	0.105
-262.224	-41.945	0.082	0.042
-261.209	-175.614	-0.142	-0.004
-260.195	-118.223	0.017	0.003
-259.180	65.694	0.047	0.048
-258.165	-63.123	0.196	-0.081
-257.151	-119.467	-0.148	-0.026
-256.136	-109.969	-0.346	-0.072
-255.122	144.496	0.232	0.309
-254.107	800.000	0.075	0.276
-253.092	-44.865	0.118	-0.058
-252.078	-200.000	0.029	-0.128
-251.063	-60.065	-0.339	-0.144
-250.049	-54.062	-0.181	-0.082
-249.034	-49.780	0.179	-0.084
-248.019	-200.000	-0.040	0.336
-247.005	-112.427	-0.316	0.063
-245.990	32.252	0.227	-0.195
-244.976	5.292	0.285	-0.209
-243.961	-149.886	-0.091	0.007
-242.946	176.742	-0.149	-0.216
-241.932	800.000	0.083	0.230
-240.917	-63.388	0.296	0.121
-239.903	-73.199	0.096	0.035
-238.888	21.668	-0.204	0.165
-237.873	-200.000	-0.013	0.247
-236.859	300.726	0.097	0.177
-235.844	-12.855	0.248	-0.161
-234.830	800.000	0.122	-0.492
-233.815	136.499	-0.045	0.058
-232.800	239.581	-0.028	0.046
-231.786	-200.000	-0.045	0.346
-230.771	-58.766	-0.328	0.141
-229.757	-144.773	0.088	0.008
-228.742	-68.983	0.086	0.033
-227.727	-14.913	-0.213	0.136
-226.713	800.000	0.027	-0.100
-225.698	-200.000	0.023	-0.165
-224.684	159.451	0.038	-0.053
-223.669	-35.702	-0.311	-0.168
-222.655	-63.681	0.133	-0.054
-221.640	151.305	0.071	0.096
-220.625	163.162	-0.137	0.192
-219.611	298.250	-0.165	0.302
-218.596	4.280	0.215	-0.157
-217.582	-200.000	0.026	0.227
-216.567	800.000	0.041	-0.122
-215.552	-106.172	-0.151	-0.034
-214.538	-108.667	-0.119	-0.025
-213.523	-44.113	0.283	-0.141
-212.509	-200.000	0.049	-0.527
-211.494	-200.000	-0.016	-0.562
-210.479	-44.513	-0.401	-0.199
-209.465	-67.008	0.094	-0.037
-208.450	25.163	-0.505	-0.417
-207.436	800.000	-0.045	-0.176
-206.421	-29.127	0.131	0.075
-205.406	-47.431	-0.131	-0.063
-204.392	-71.165	0.095	-0.036
-203.377	46.726	0.147	0.136
-202.363	587.935	-0.115	-0.282
-201.348	-97.090	0.111	-0.029
-200.333	-79.398	0.102	-0.034
-199.319	-44.959	0.090	-0.045
-198.304	121.766	0.148	-0.183
-197.290	-200.000	-0.004	0.119
-196.275	-38.239	0.165	-0.087
-195.260	88.175	0.112	-0.124
-194.246	-25.928	-0.191	0.112
-193.231	-150.943	0.379	0.028
-192.217	-21.010	-0.053	-0.032
-191.202	-112.977	0.447	-0.088
-190.187	-67.761	0.147	0.057
-189.173	23.634	-0.210	0.171
-188.158	-145.275	-0.165	-0.015
-187.144	-200.000	-0.017	0.223
-186.129	191.303	0.052	-0.078
-185.114	33.774	0.257	0.222
-184.100	-11.449	0.156	0.102
-183.085	-200.000	0.005	0.030
-182.071	-30.869	0.278	-0.156
-181.056	43.033	-0.048	0.044
-180.042	-200.000	-0.007	0.035
-179.027	281.345	0.163	0.291
-178.012	-11.824	-0.273	-0.178
-176.998	581.065	-0.182	-0.443
-175.983	-200.000	-0.004	0.251
-174.969	-152.171	-0.221	-0.016
-173.954	556.095	-0.100	0.239
-172.939	94.779	-0.149	-0.168
-171.925	-95.270	0.176	-0.047
-170.910	-200.000	-0.002	-0.073
-169.896	-38.822	-0.003	-0.001
-168.881	-7.706	-0.166	0.112
-167.866	143.517	0.127	0.167
-166.852	-200.000	-0.298	0.001
-165.837	24.275	0.098	0.080
-164.823	78.362	0.088	-0.094
-163.808	241.437	0.033	0.054
-162.793	-57.205	-0.117	-0.051
-161.779	537.477	-0.020	-0.046
-160.764	800.000	-0.061	0.187
-159.750	420.245	-0.126	-0.267
-158.735	427.524	0.126	0.270
-157.720	-96.831	-0.394	-0.103
-156.706	-25.005	-0.150	-0.089
-155.691	800.000	-0.043	-0.169
-154.677	216.889	-0.024	0.039
-153.662	-71.309	0.211	0.078
-152.647	124.045	0.044	-0.055
-151.633	-200.000	0.001	-0.013
-150.618	-67.230	0.415	0.162
-149.604	386.851	-0.136	0.278
-148.589	-83.565	0.103	0.033
-147.574	289.243	0.032	-0.058
-146.560	-89.424	0.114	-0.033
-145.545	-16.553	0.269	0.169
-144.531	15.330	0.084	0.066
-143.516	63.587	0.145	-0.144
-142.502	-200.000	-0.010	0.052
-141.487	800.000	0.034	-0.096
-140.472	-76.486	0.277	0.096
-139.458	800.000	0.050	0.218
-138.443	114.262	-0.101	0.122
-137.429	800.000	0.165	0.547
-136.414	194.943	-0.063	0.095
-135.399	375.914	0.149	-0.301
-134.385	-4.133	0.277	0.190
-133.370	-25.674	0.074	0.043
-132.356	160.736	-0.102	0.141
-131.341	100.773	-0.190	0.219
-130.326	-200.000	0.004	0.036
-129.312	460.232	-0.022	-0.048
-128.297	0.295	0.134	0.095
-127.283	800.000	-0.112	-0.342
-126.268	-40.787	0.127	0.065
-125.253	8.776	-0.369	0.275
-124.239	800.000	-0.004	0.015
-123.224	-99.145	-0.066	0.017
-122.210	-132.750	-0.043	-0.005
-121.195	764.742	-0.109	-0.292
