DTS Sentinel unit serial number:	SN413079Multiplexer serial number:	ORYXHardware model number:	OX4-SRSoftware version number:	ORYX F/W v4.00 Oryx Data Collector v3.7.2.0data status	okinstallation	princeton_trtdifferential loss correction	single-endedforward channel	channel 4reverse channel	N/Adate	2019/09/17time	15:09:35forward acquisition time	60.00reverse acquisition time	0.00gamma	496.2192k internal	0.2293k external	0.2293temperature offset calibration	0.9983default loss term (dB/km)	0.3790temperature slope calibration	1.0000multiplexer offset coefficient	1.0000multiplexer slope coefficient	1.0000fibre end	0.00T internal ref (°C)	37.62T ext. ref 1 (°C)	0.38T ext. ref 2 (°C)	34.35length (m)	temperature (°C)	Stokes	anti-Stokes-747.200	-40.713	-0.047	0.025
-746.185	213.594	-0.221	0.357
-745.171	-124.969	-0.268	0.042
-744.156	-200.000	-0.009	0.476
-743.142	312.042	0.102	0.195
-742.127	81.513	-0.287	0.318
-741.112	-200.000	0.036	0.292
-740.098	800.000	-0.098	0.346
-739.083	547.979	-0.040	-0.098
-738.069	22.405	-0.159	0.133
-737.054	635.335	-0.125	-0.325
-736.039	59.669	-0.226	-0.228
-735.025	-200.000	-0.002	0.428
-734.010	1.591	-0.422	0.311
-732.996	26.544	-0.281	-0.240
-731.981	-200.000	-0.003	0.200
-730.966	-200.000	0.003	0.499
-729.952	155.982	-0.115	-0.162
-728.937	-105.515	-0.177	-0.041
-727.923	-46.283	-0.299	0.151
-726.908	-129.312	0.313	0.044
-725.894	170.441	0.080	0.118
-724.879	564.459	-0.157	0.390
-723.864	34.474	-0.197	-0.176
-722.850	133.386	0.093	0.123
-721.835	513.789	0.033	-0.078
-720.821	-200.000	-0.036	-0.305
-719.806	-59.810	-0.242	-0.106
-718.791	-111.970	0.293	0.060
-717.777	292.363	0.081	0.151
-716.762	-16.909	-0.293	-0.189
-715.748	206.236	0.168	-0.267
-714.733	-115.758	-0.226	0.043
-713.718	-200.000	0.042	-0.189
-712.704	800.000	0.026	-0.094
-711.689	94.794	0.167	0.195
-710.675	116.881	0.210	-0.264
-709.660	421.046	0.134	-0.293
-708.645	-46.156	-0.188	-0.094
-707.631	-146.522	0.205	-0.018
-706.616	-200.000	-0.001	0.177
-705.602	800.000	0.036	-0.155
-704.587	-105.656	-0.006	0.001
-703.572	-12.343	-0.329	0.219
-702.558	-56.321	0.438	0.199
-701.543	-157.707	0.302	-0.018
-700.529	212.515	0.235	-0.379
-699.514	-200.000	-0.009	-0.318
-698.499	-164.206	0.200	0.009
-697.485	49.002	0.290	0.278
-696.470	-174.176	0.082	0.002
-695.456	-70.444	-0.307	0.119
-694.441	167.243	0.154	-0.223
-693.426	155.022	-0.171	-0.240
-692.412	-200.000	0.048	-0.240
-691.397	175.206	-0.186	-0.275
-690.383	57.548	-0.076	0.076
-689.368	183.505	0.184	-0.277
-688.354	79.159	-0.141	0.154
-687.339	273.620	0.058	-0.105
-686.324	223.892	0.242	-0.399
-685.310	-121.849	0.255	0.043
-684.295	-12.624	0.117	0.078
-683.281	-87.903	0.371	0.114
-682.266	-200.000	-0.059	-0.322
-681.251	257.616	0.138	0.243
-680.237	-84.270	-0.248	0.080
-679.222	-200.000	-0.031	-0.194
-678.208	130.581	-0.134	0.176
-677.193	800.000	-0.045	-0.134
-676.178	54.095	0.128	-0.125
-675.164	-200.000	0.045	-0.321
-674.149	201.267	0.033	0.051
-673.135	15.341	0.100	0.080
-672.120	-200.000	-0.013	-0.077
-671.105	354.540	0.121	-0.246
-670.091	-64.752	-0.374	-0.154
-669.076	-75.676	-0.166	-0.060
-668.062	-98.488	0.109	-0.028
-667.047	-173.958	0.260	0.008
-666.032	-200.000	-0.009	0.190
-665.018	10.494	-0.223	0.174
-664.003	99.041	0.023	0.027
-662.989	-74.960	0.153	0.056
-661.974	24.711	0.335	0.283
-660.959	82.412	0.259	-0.286
-659.945	-200.000	-0.052	0.257
-658.930	-162.097	0.268	-0.014
-657.916	-200.000	-0.070	0.362
-656.901	489.536	-0.152	0.355
-655.886	-200.000	-0.089	-0.469
-654.872	-120.606	0.268	0.046
-653.857	-79.422	0.238	-0.082
-652.843	560.703	-0.109	0.269
-651.828	-200.000	0.024	-0.121
-650.814	477.669	-0.186	-0.428
-649.799	-71.586	0.196	-0.075
-648.784	-200.000	-0.035	0.288
-647.770	-200.000	0.011	-0.306
-646.755	-200.000	-0.018	0.323
-645.741	-29.631	-0.119	0.069
-644.726	-84.737	0.145	-0.046
-643.711	-115.686	0.289	-0.055
-642.697	552.240	-0.188	-0.461
-641.682	427.865	0.116	0.255
-640.668	130.952	-0.095	-0.124
-639.653	-87.671	-0.188	-0.058
-638.638	-35.640	0.346	0.191
-637.624	-200.000	-0.006	-0.082
-636.609	-41.369	-0.280	0.147
-635.595	800.000	0.111	-0.462
-634.580	359.042	-0.169	-0.343
-633.565	194.986	0.089	-0.138
-632.551	146.038	-0.049	-0.068
-631.536	-79.531	-0.201	0.069
-630.522	210.336	0.122	-0.195
-629.507	42.588	-0.182	0.168
-628.492	-200.000	-0.034	-0.310
-627.478	-134.418	-0.144	-0.018
-626.463	-200.000	-0.014	-0.175
-625.449	148.772	0.075	-0.104
-624.434	-63.568	-0.322	-0.135
-623.419	-73.281	0.211	-0.079
-622.405	156.185	-0.033	-0.047
-621.390	268.191	-0.068	-0.122
-620.376	-200.000	-0.025	-0.163
-619.361	-62.870	0.347	-0.146
-618.346	-42.183	-0.034	-0.018
-617.332	-57.943	0.092	0.041
-616.317	366.610	0.098	-0.202
-615.303	-111.875	0.203	-0.042
-614.288	800.000	-0.007	0.022
-613.273	-129.335	0.228	-0.032
-612.259	0.539	0.130	0.095
-611.244	-200.000	-0.055	0.323
-610.230	-137.329	0.326	0.038
-609.215	800.000	-0.057	0.254
-608.201	24.340	0.123	-0.104
-607.186	276.454	-0.171	-0.310
-606.171	-4.916	0.088	0.062
-605.157	-159.331	-0.090	-0.005
-604.142	62.481	-0.071	-0.072
-603.128	237.481	0.037	-0.063
-602.113	-200.000	0.025	-0.119
-601.098	-200.000	-0.005	-0.079
-600.084	-200.000	0.026	-0.121
-599.069	800.000	0.012	-0.046
-598.055	-106.293	-0.098	0.022
-597.040	-200.000	-0.025	0.125
-596.025	-30.637	0.321	0.185
-595.011	-121.705	0.171	-0.029
-593.996	-64.739	-0.226	0.093
-592.982	-4.201	0.454	0.320
-591.967	800.000	0.008	0.029
-590.952	-101.550	-0.190	-0.047
-589.938	277.293	0.168	0.305
-588.923	59.335	-0.228	0.229
-587.909	-32.045	0.063	0.036
-586.894	800.000	0.002	-0.006
-585.879	-117.612	0.358	0.066
-584.865	142.844	0.084	0.114
-583.850	-23.670	-0.178	0.108
-582.836	321.724	-0.133	-0.257
-581.821	329.324	0.017	-0.034
-580.806	409.616	-0.046	-0.099
-579.792	786.073	-0.049	-0.136
-578.777	800.000	-0.087	0.334
-577.763	-53.025	0.083	-0.039
-576.748	44.022	-0.111	0.104
-575.733	47.543	-0.100	0.095
-574.719	196.465	0.111	-0.171
-573.704	-200.000	0.004	-0.109
-572.690	-200.000	0.020	0.192
-571.675	-160.657	-0.254	0.014
-570.661	767.541	-0.137	-0.380
-569.646	800.000	-0.131	-0.424
-568.631	35.960	0.032	0.029
-567.617	-200.000	0.034	0.205
-566.602	-75.072	0.245	0.089
-565.588	-200.000	0.070	-0.507
-564.573	376.525	-0.053	-0.110
-563.558	-130.407	0.183	-0.025
-562.544	9.173	-0.040	0.031
-561.529	-200.000	0.054	0.264
-560.515	49.262	0.156	0.149
-559.500	800.000	-0.120	-0.457
-558.485	-98.006	0.044	-0.012
-557.471	-36.412	0.221	-0.121
-556.456	41.789	0.206	0.190
-555.442	451.398	0.122	0.273
-554.427	120.980	-0.224	0.283
-553.412	98.839	0.155	-0.182
-552.398	-200.000	0.042	-0.297
-551.383	-55.939	-0.357	-0.162
-550.369	-200.000	0.014	-0.224
-549.354	21.334	-0.186	0.154
-548.339	30.033	-0.148	-0.128
-547.325	354.386	-0.070	0.140
-546.310	-200.000	0.070	0.338
-545.296	-200.000	-0.006	-0.304
-544.281	-42.795	0.166	-0.086
-543.266	144.935	0.102	0.139
-542.252	-93.645	0.315	0.088
-541.237	-43.171	0.077	-0.039
-540.223	8.434	-0.088	-0.067
-539.208	-168.434	-0.216	0.008
-538.193	-14.845	0.229	0.149
-537.179	-89.560	-0.133	-0.040
-536.164	-200.000	0.039	0.229
-535.150	-200.000	0.051	0.259
-534.135	-174.252	-0.109	-0.003
-533.121	-51.950	0.230	0.109
-532.106	-200.000	-0.005	0.101
-531.091	-186.308	0.228	-0.003
-530.077	800.000	-0.081	0.289
-529.062	169.605	-0.247	0.358
-528.048	63.981	0.146	0.149
-527.033	671.600	-0.019	0.050
-526.018	-120.473	-0.389	-0.067
-525.004	-132.787	0.185	-0.024
-523.989	-121.567	0.197	-0.033
-522.975	14.222	-0.182	0.144
-521.960	-47.550	0.124	-0.061
-520.945	-200.000	0.016	0.092
-519.931	-200.000	0.025	0.220
-518.916	-3.114	-0.158	0.112
-517.902	-120.438	-0.382	0.066
-516.887	-73.796	-0.359	0.132
-515.872	-200.000	0.000	0.190
-514.858	-100.577	0.236	-0.059
-513.843	84.556	0.361	0.401
-512.829	-118.453	-0.107	-0.019
-511.814	-160.171	-0.125	0.007
-510.799	45.336	-0.154	0.144
-509.785	166.771	0.112	0.161
-508.770	-2.701	-0.085	-0.061
-507.756	-130.556	-0.248	-0.034
-506.741	-64.498	-0.156	-0.064
-505.726	-4.337	0.076	0.053
-504.712	-200.000	-0.072	0.339
-503.697	-200.000	0.015	0.079
-502.683	-162.232	0.541	0.027
-501.668	-200.000	-0.016	-0.312
-500.653	20.022	0.062	-0.050
-499.639	18.765	0.131	-0.107
-498.624	322.382	0.198	-0.382
-497.610	-19.017	-0.038	0.024
-496.595	514.317	0.100	0.236
-495.581	-141.726	0.410	-0.042
-494.566	-155.882	0.068	-0.004
-493.551	538.269	0.097	0.234
-492.537	-200.000	0.007	0.145
-491.522	-200.000	-0.080	0.465
-490.508	-149.360	-0.266	-0.021
-489.493	800.000	-0.027	0.085
-488.478	41.411	0.057	0.052
-487.464	-200.000	-0.030	-0.452
-486.449	15.309	0.335	-0.266
-485.435	800.000	-0.045	0.172
-484.420	-137.142	-0.156	0.018
-483.405	53.617	0.105	-0.102
-482.391	-77.564	-0.448	-0.157
-481.376	800.000	0.074	-0.269
-480.362	-119.270	-0.201	-0.035
-479.347	800.000	0.100	0.332
-478.332	3.108	-0.226	0.166
-477.318	-69.445	0.205	-0.080
-476.303	800.000	-0.112	-0.359
-475.289	98.066	-0.194	0.226
-474.274	-200.000	0.034	0.000
-473.259	-81.034	0.152	0.051
-472.245	178.905	0.056	-0.083
-471.230	-176.588	-0.358	-0.009
-470.216	-4.697	-0.277	0.193
-469.201	-200.000	0.113	0.000
-468.186	-19.614	-0.075	-0.047
-467.172	271.818	-0.103	-0.184
-466.157	-34.868	0.490	-0.271
-465.143	-200.000	-0.016	-0.188
-464.128	141.369	0.182	0.244
-463.113	800.000	0.097	-0.295
-462.099	-200.000	0.028	-0.320
-461.084	-200.000	0.081	0.422
-460.070	-36.575	0.185	-0.101
-459.055	65.928	0.181	0.186
-458.040	33.589	-0.126	0.111
-457.026	-92.818	0.308	0.087
-456.011	-200.000	0.024	0.168
-454.997	164.808	-0.253	-0.361
-453.982	800.000	0.080	-0.287
-452.968	-200.000	-0.008	0.073
-451.953	-117.271	0.219	0.040
-450.938	-76.978	-0.036	0.013
-449.924	800.000	-0.065	-0.191
-448.909	-200.000	0.001	0.076
-447.895	800.000	-0.054	-0.202
-446.880	-141.051	0.275	-0.028
-445.865	12.192	-0.050	-0.039
-444.851	277.285	0.120	0.216
-443.836	-66.589	-0.176	0.071
-442.822	-128.081	0.319	0.046
-441.807	446.886	-0.103	0.229
-440.792	-10.614	0.132	-0.088
-439.778	-200.000	0.001	0.121
-438.763	-118.307	-0.104	0.019
-437.749	756.155	-0.058	0.159
-436.734	-200.000	0.141	-0.001
-435.719	-34.058	0.071	-0.040
-434.705	262.676	0.165	-0.290
-433.690	-3.088	-0.222	0.157
-432.676	-110.592	-0.115	-0.024
-431.661	-200.000	0.022	0.188
-430.646	800.000	-0.076	-0.223
-429.632	437.409	-0.147	-0.325
-428.617	-95.669	0.357	-0.097
-427.603	-200.000	0.008	0.156
-426.588	9.843	-0.431	-0.330
-425.573	63.733	-0.147	-0.149
-424.559	-54.036	0.242	0.111
-423.544	179.061	-0.113	-0.167
-422.530	-200.000	-0.009	-0.050
-421.515	-34.932	-0.352	-0.194
-420.500	64.580	-0.184	-0.188
-419.486	114.618	0.130	0.161
-418.471	-200.000	-0.006	-0.176
-417.457	-20.694	0.082	-0.051
-416.442	-52.233	0.278	0.130
-415.428	800.000	0.135	-0.416
-414.413	-30.933	-0.160	-0.091
-413.398	52.367	0.208	-0.201
-412.384	106.293	-0.104	0.125
-411.369	-44.087	0.183	0.093
-410.355	-130.705	-0.472	0.064
-409.340	-25.285	-0.158	-0.094
-408.325	292.547	0.015	-0.028
-407.311	-200.000	0.088	-0.438
-406.296	13.042	0.111	-0.087
-405.282	213.850	0.182	0.290
-404.267	-33.953	0.419	0.233
-403.252	502.444	0.135	0.316
-402.238	-87.138	-0.467	0.143
-401.223	-200.000	-0.008	-0.085
-400.209	401.886	-0.111	-0.236
-399.194	-156.038	-0.385	-0.025
-398.179	-200.000	0.038	-0.344
-397.165	154.222	0.127	-0.176
-396.150	-122.534	-0.021	0.003
-395.136	360.144	0.108	0.219
-394.121	-124.405	0.331	-0.052
-393.106	800.000	0.023	0.096
-392.092	-38.167	-0.352	-0.188
-391.077	800.000	0.009	-0.033
-390.063	409.544	0.100	-0.214
-389.048	138.554	-0.120	-0.159
-388.033	205.269	-0.016	-0.025
-387.019	-89.164	-0.275	0.082
-386.004	800.000	-0.053	-0.182
-384.990	-176.571	0.072	0.002
-383.975	-200.000	0.048	-0.212
-382.960	502.431	0.132	0.308
-381.946	352.081	-0.083	0.165
-380.931	-110.801	0.369	0.077
-379.917	-200.000	0.050	-0.531
-378.902	-123.054	-0.286	-0.046
-377.888	47.575	0.112	-0.106
-376.873	-72.086	0.187	0.070
-375.858	22.511	-0.570	-0.471
-374.844	105.971	0.108	0.129
-373.829	-200.000	-0.007	0.278
-372.815	800.000	-0.053	-0.168
-371.800	115.894	-0.175	-0.216
-370.785	-200.000	-0.032	0.387
-369.771	219.946	0.083	-0.134
-368.756	-79.428	0.220	-0.075
-367.742	-58.450	-0.180	-0.079
-366.727	52.751	-0.348	0.336
-365.712	-124.520	-0.258	0.040
-364.698	243.537	0.065	-0.110
-363.683	391.033	-0.107	-0.224
-362.669	800.000	0.029	0.124
-361.654	81.786	-0.269	-0.293
-360.639	71.952	-0.119	0.125
-359.625	181.151	0.107	0.159
-358.610	-94.990	-0.106	0.029
-357.596	800.000	-0.099	0.301
-356.581	0.711	-0.159	0.115
-355.566	-132.752	0.206	0.026
-354.552	-200.000	0.020	-0.113
-353.537	800.000	-0.032	0.101
-352.523	95.568	-0.105	0.121
-351.508	-157.565	0.585	-0.035
-350.493	103.379	0.108	-0.128
-349.479	-112.646	-0.628	-0.126
-348.464	-200.000	0.013	-0.130
-347.450	-192.733	0.296	0.003
-346.435	-38.174	0.242	-0.129
-345.420	115.459	0.045	0.055
-344.406	-81.405	0.160	0.053
-343.391	-104.058	0.306	0.072
-342.377	-200.000	-0.062	-0.391
-341.362	61.020	-0.069	0.069
-340.348	800.000	-0.032	-0.092
-339.333	110.894	0.226	0.274
-338.318	-70.964	0.204	-0.077
-337.304	800.000	-0.101	-0.444
-336.289	119.995	-0.035	0.044
-335.275	199.554	-0.047	0.073
-334.260	102.769	0.036	-0.042
-333.245	112.689	-0.122	-0.149
-332.231	800.000	0.029	0.102
-331.216	36.569	-0.095	0.084
-330.202	187.499	-0.038	0.058
-329.187	-200.000	0.041	-0.297
-328.172	-3.456	0.033	-0.023
-327.158	65.812	0.240	0.245
-326.143	28.953	-0.091	-0.078
-325.129	-45.557	-0.343	-0.171
-324.114	282.159	0.044	0.080
-323.099	-120.142	0.051	-0.009
-322.085	-75.418	-0.173	0.062
-321.070	-200.000	0.050	0.231
-320.056	50.343	-0.173	0.165
-319.041	-59.692	0.218	0.094
-318.026	-104.129	0.309	0.072
-317.012	-200.000	-0.006	0.224
-315.997	800.000	-0.091	0.318
-314.983	-200.000	0.023	0.146
-313.968	161.295	-0.148	0.208
-312.953	-176.688	-0.304	-0.008
-311.939	800.000	-0.074	-0.245
-310.924	-59.872	0.279	0.120
-309.910	800.000	-0.147	0.468
-308.895	-23.006	0.389	0.236
-307.880	754.708	0.159	0.432
-306.866	-46.341	-0.121	-0.060
-305.851	150.322	0.105	-0.143
-304.837	-200.000	-0.046	0.613
-303.822	354.468	-0.084	0.169
-302.807	800.000	0.053	0.222
-301.793	-82.876	-0.052	0.017
-300.778	-200.000	0.006	0.058
-299.764	800.000	0.033	-0.106
-298.749	183.338	-0.127	-0.188
-297.735	-178.216	-0.355	-0.008
-296.720	154.602	0.107	0.148
-295.705	-114.980	-0.213	0.041
-294.691	120.711	-0.137	-0.172
-293.676	251.948	-0.188	0.321
-292.662	-85.685	-0.357	-0.111
-291.647	-125.979	-0.124	-0.019
-290.632	243.428	-0.046	-0.077
-289.618	-200.000	0.009	0.309
-288.603	-162.872	-0.217	-0.011
-287.589	657.211	0.106	0.273
-286.574	14.980	-0.330	-0.259
-285.559	-64.161	0.014	-0.006
-284.545	9.098	-0.587	0.446
-283.530	171.201	0.052	-0.075
-282.516	225.668	-0.081	0.131
-281.501	-20.374	0.091	0.057
-280.486	254.673	-0.092	-0.158
-279.472	126.729	0.174	0.221
-278.457	705.804	-0.071	-0.189
-277.443	-124.654	0.178	0.028
-276.428	-200.000	-0.022	0.294
-275.413	-5.623	0.248	-0.171
-274.399	-139.375	0.214	-0.023
-273.384	-200.000	-0.051	-0.306
-272.370	289.817	-0.078	0.142
-271.355	578.161	0.047	-0.115
-270.340	704.389	-0.099	0.262
-269.326	800.000	-0.063	-0.191
-268.311	-155.416	0.072	0.005
-267.297	-145.889	0.274	-0.024
-266.282	-53.533	-0.201	0.092
-265.267	800.000	0.056	-0.196
-264.253	48.826	0.329	0.310
-263.238	-50.049	0.158	-0.075
-262.224	-83.035	-0.049	-0.016
-261.209	800.000	0.054	-0.201
-260.195	-17.345	-0.072	-0.046
-259.180	800.000	0.088	0.298
-258.165	-162.314	0.127	-0.006
-257.151	220.186	-0.158	-0.254
-256.136	65.115	-0.163	0.166
-255.122	201.880	-0.139	0.216
-254.107	-10.402	-0.036	0.024
-253.092	800.000	-0.151	0.448
-252.078	-200.000	0.006	0.139
-251.063	-192.414	0.292	0.003
-250.049	-53.637	-0.027	-0.013
-249.034	-172.685	-0.210	-0.007
-248.019	156.494	0.044	0.061
-247.005	-129.791	-0.153	-0.021
-245.990	442.831	0.117	0.257
-244.976	-20.126	0.154	0.095
-243.961	-200.000	0.015	0.332
-242.946	45.037	0.112	0.103
-241.932	563.762	0.041	0.099
-240.917	170.796	0.136	0.195
-239.903	73.643	0.110	0.116
-238.888	31.315	0.200	-0.173
-237.873	-63.355	0.016	0.007
-236.859	116.322	0.068	-0.084
-235.844	800.000	-0.029	0.096
-234.830	12.738	0.130	-0.101
-233.815	154.472	0.216	-0.297
-232.800	77.142	0.011	0.012
-231.786	-122.417	-0.280	0.046
-230.771	511.142	-0.020	-0.047
-229.757	493.981	-0.044	-0.102
-228.742	-108.811	-0.055	-0.012
-227.727	-102.008	-0.174	0.042
-226.713	45.009	-0.222	-0.205
-225.698	-200.000	-0.042	-0.222
-224.684	-47.467	-0.186	-0.091
-223.669	-129.455	-0.292	-0.041
-222.655	562.049	0.139	-0.336
-221.640	-200.000	0.022	0.142
-220.625	3.760	0.181	0.133
-219.611	-200.000	-0.006	-0.367
-218.596	108.196	-0.094	0.113
-217.582	30.537	-0.333	-0.285
-216.567	800.000	-0.080	0.281
-215.552	-200.000	-0.025	-0.132
-214.538	2.386	0.117	0.085
-213.523	-200.000	-0.035	0.166
-212.509	-20.699	-0.116	-0.071
-211.494	800.000	0.102	-0.285
-210.479	94.304	-0.106	-0.120
-209.465	275.549	-0.166	-0.295
-208.450	69.292	0.102	0.105
-207.436	-170.349	0.204	0.007
-206.421	800.000	-0.063	-0.179
-205.406	-97.229	0.113	0.030
-204.392	-197.597	0.397	0.002
-203.377	-7.030	-0.106	-0.072
-202.363	179.903	-0.076	-0.112
-201.348	318.395	-0.083	-0.157
-200.333	-2.506	0.342	0.240
-199.319	416.537	-0.140	0.299
-198.304	-200.000	0.048	-0.218
-197.290	-200.000	0.016	0.085
-196.275	-200.000	-0.033	0.268
-195.260	257.643	-0.150	-0.258
-194.246	119.805	-0.228	-0.283
-193.231	10.110	-0.194	-0.148
-192.217	-53.707	0.096	0.044
-191.202	-33.352	0.395	0.219
-190.187	-9.168	0.347	-0.232
-189.173	-151.292	0.225	0.017
-188.158	106.861	-0.131	0.156
-187.144	64.066	0.144	0.145
-186.129	800.000	0.043	-0.152
-185.114	16.611	-0.176	0.139
-184.100	-161.072	0.492	0.026
-183.085	524.351	-0.095	-0.225
-182.071	-73.575	0.093	-0.034
-181.056	-200.000	-0.008	-0.145
-180.042	-1.969	0.154	-0.108
-179.027	-197.418	-0.086	-0.001
-178.012	369.638	0.021	0.042
-176.998	31.540	-0.253	-0.218
-175.983	-103.553	-0.233	0.055
-174.969	529.837	-0.053	-0.125
-173.954	135.518	0.186	-0.242
-172.939	324.090	0.064	0.122
-171.925	-141.025	0.240	-0.025
-170.910	800.000	-0.016	-0.059
-169.896	-17.019	-0.227	-0.143
-168.881	-150.552	0.011	-0.001
-167.866	-200.000	-0.027	0.189
-166.852	-200.000	-0.002	-0.258
-165.837	-13.749	-0.288	0.187
-164.823	-200.000	0.030	0.369
-163.808	-78.711	-0.690	-0.236
-162.793	-33.854	-0.282	-0.155
-161.779	-200.000	0.131	-0.000
-160.764	-153.803	0.342	-0.023
-159.750	639.710	-0.160	0.408
-158.735	80.937	0.146	0.158
-157.720	-76.218	-0.325	0.115
-156.706	53.501	0.099	0.095
-155.691	-148.234	-0.172	0.014
-154.677	-88.149	0.269	-0.081
-153.662	519.891	0.024	-0.055
-152.647	180.134	-0.042	-0.062
-151.633	47.273	0.026	-0.024
-150.618	-20.480	-0.169	0.104
-149.604	-108.059	0.553	0.120
-148.589	137.818	-0.172	0.226
-147.574	9.386	0.104	0.079
-146.560	-97.877	0.250	0.065
-145.545	-56.573	0.215	0.095
-144.531	203.094	-0.074	-0.114
-143.516	-187.578	0.308	-0.004
-142.502	-151.384	-0.323	-0.024
-141.487	121.380	-0.196	-0.245
-140.472	-1.565	0.043	-0.030
-139.458	800.000	-0.123	0.445
-138.443	83.912	-0.064	-0.070
-137.429	-75.675	0.169	0.060
-136.414	86.892	-0.095	-0.105
-135.399	-200.000	-0.062	0.364
-134.385	-56.050	-0.256	0.114
-133.370	-125.138	-0.224	0.034
-132.356	-92.836	0.444	-0.124
-131.341	-156.525	0.389	-0.024
-130.326	-26.534	0.268	-0.157
-129.312	36.012	0.045	-0.040
-128.297	135.174	0.179	-0.233
-127.283	-144.168	0.311	-0.029
-126.268	715.189	0.027	0.072
-125.253	-4.529	-0.243	-0.168
-124.239	79.168	0.333	0.356
-123.224	-14.654	0.323	0.207
-122.210	-200.000	-0.027	-0.197
