DTS Sentinel unit serial number:	SN413079Multiplexer serial number:	ORYXHardware model number:	OX4-SRSoftware version number:	ORYX F/W v4.00 Oryx Data Collector v3.7.2.0data status	okinstallation	princeton_trtdifferential loss correction	single-endedforward channel	channel 4reverse channel	N/Adate	2019/09/16time	23:17:35forward acquisition time	60.00reverse acquisition time	0.00gamma	496.2192k internal	0.2314k external	0.2314temperature offset calibration	0.9973default loss term (dB/km)	0.3790temperature slope calibration	1.0000multiplexer offset coefficient	1.0000multiplexer slope coefficient	1.0000fibre end	0.00T internal ref (°C)	30.06T ext. ref 1 (°C)	0.09T ext. ref 2 (°C)	23.72length (m)	temperature (°C)	Stokes	anti-Stokes-747.200	410.597	-0.174	0.374
-746.185	-200.000	-0.006	0.322
-745.171	-12.693	0.336	-0.222
-744.156	-200.000	-0.053	0.440
-743.142	415.823	0.148	0.320
-742.127	121.104	-0.054	0.069
-741.112	-52.572	0.093	-0.043
-740.098	29.476	-0.152	0.131
-739.083	128.445	0.099	0.128
-738.069	317.012	0.133	0.255
-737.054	800.000	-0.038	-0.154
-736.039	-1.726	-0.113	0.081
-735.025	-156.967	0.237	-0.015
-734.010	221.762	-0.124	0.202
-732.996	-200.000	0.033	-0.174
-731.981	-48.922	0.085	0.041
-730.966	44.509	-0.196	-0.183
-729.952	516.604	0.147	-0.348
-728.937	-200.000	0.079	-0.523
-727.923	51.704	0.136	0.131
-726.908	544.025	-0.074	-0.180
-725.894	53.762	-0.163	-0.158
-724.879	588.552	-0.079	-0.197
-723.864	150.066	-0.225	-0.309
-722.850	135.748	0.081	-0.107
-721.835	-143.118	-0.235	0.023
-720.821	473.630	-0.047	0.108
-719.806	27.716	0.142	0.122
-718.791	800.000	-0.060	-0.210
-717.777	-146.285	0.115	0.010
-716.762	553.560	-0.068	0.165
-715.748	-200.000	0.040	0.239
-714.733	416.657	0.014	0.031
-713.718	-66.556	0.259	-0.104
-712.704	111.807	-0.041	-0.050
-711.689	-21.903	0.286	0.176
-710.675	-91.506	-0.188	-0.054
-709.660	-121.651	-0.335	-0.056
-708.645	157.126	-0.224	-0.314
-707.631	-200.000	0.016	-0.191
-706.616	69.028	-0.260	-0.270
-705.602	-70.037	0.195	-0.075
-704.587	-124.278	-0.447	-0.071
-703.572	-116.337	0.187	0.035
-702.558	67.649	-0.229	0.237
-701.543	-200.000	-0.053	0.276
-700.529	800.000	-0.054	-0.184
-699.514	-85.400	0.299	0.094
-698.499	77.692	0.166	-0.179
-697.485	-200.000	-0.004	0.182
-696.470	644.924	-0.069	-0.177
-695.456	309.115	0.067	-0.126
-694.441	-142.614	-0.186	-0.018
-693.426	-98.641	0.175	-0.045
-692.412	-200.000	-0.011	-0.478
-691.397	-200.000	-0.005	-0.200
-690.383	149.393	0.157	-0.215
-689.368	-200.000	-0.004	-0.205
-688.354	73.896	-0.067	0.071
-687.339	42.331	0.257	0.236
-686.324	-0.082	0.055	0.040
-685.310	800.000	0.029	0.118
-684.295	162.608	0.033	-0.047
-683.281	-116.453	0.189	-0.035
-682.266	-34.421	-0.401	-0.222
-681.251	-200.000	0.028	0.206
-680.237	-40.055	-0.525	-0.277
-679.222	-200.000	0.032	0.376
-678.208	-139.567	-0.124	0.013
-677.193	271.992	-0.150	-0.267
-676.178	800.000	0.086	0.331
-675.164	-16.281	-0.298	-0.191
-674.149	-200.000	0.045	-0.203
-673.135	-51.377	0.324	-0.153
-672.120	-95.418	-0.261	-0.071
-671.105	-105.714	0.147	-0.034
-670.091	329.745	0.165	-0.321
-669.076	-200.000	-0.001	-0.239
-668.062	183.818	-0.254	0.380
-667.047	782.758	0.055	0.154
-666.032	218.843	-0.123	-0.198
-665.018	133.302	-0.148	0.193
-664.003	62.517	-0.025	0.025
-662.989	-63.523	-0.228	0.095
-661.974	21.234	0.148	0.121
-660.959	56.244	-0.127	-0.124
-659.945	92.423	0.069	-0.079
-658.930	50.390	-0.105	-0.100
-657.916	-161.559	0.277	-0.014
-656.901	169.694	-0.179	0.258
-655.886	792.407	-0.095	0.265
-654.872	-16.133	-0.183	0.118
-653.857	173.856	-0.248	0.362
-652.843	467.173	0.054	-0.122
-651.828	347.922	-0.207	-0.412
-650.814	180.987	0.170	-0.253
-649.799	193.304	0.054	-0.082
-648.784	37.306	0.174	-0.156
-647.770	-119.577	-0.045	-0.008
-646.755	-200.000	0.036	0.252
-645.741	-200.000	0.022	-0.174
-644.726	200.937	-0.159	0.247
-643.711	344.243	0.057	0.114
-642.697	-200.000	0.021	0.287
-641.682	-200.000	-0.005	0.063
-640.668	107.406	0.195	0.234
-639.653	-200.000	-0.007	-0.038
-638.638	545.476	0.059	0.142
-637.624	-200.000	-0.042	-0.332
-636.609	-29.889	0.083	0.048
-635.595	800.000	0.070	-0.233
-634.580	172.711	-0.051	0.074
-633.565	-146.588	0.127	-0.011
-632.551	800.000	-0.037	-0.165
-631.536	762.957	-0.088	-0.242
-630.522	-43.898	-0.310	-0.158
-629.507	800.000	-0.117	-0.354
-628.492	-67.109	0.057	0.023
-627.478	238.623	-0.174	-0.291
-626.463	-86.094	0.337	0.105
-625.449	88.521	0.178	-0.199
-624.434	-200.000	0.032	-0.421
-623.419	130.022	0.291	0.375
-622.405	225.161	-0.154	-0.251
-621.390	71.863	0.181	-0.190
-620.376	-144.024	-0.207	-0.020
-619.361	432.985	-0.172	0.376
-618.346	800.000	0.068	-0.294
-617.332	-117.774	-0.169	0.031
-616.317	-149.043	0.295	-0.024
-615.303	109.645	-0.228	0.276
-614.288	800.000	0.063	-0.270
-613.273	-37.985	-0.024	-0.013
-612.259	-200.000	0.011	0.296
-611.244	-60.006	-0.041	-0.018
-610.230	800.000	-0.026	-0.104
-609.215	335.331	-0.144	-0.281
-608.201	800.000	0.059	-0.217
-607.186	-40.690	0.129	-0.067
-606.171	800.000	0.050	-0.220
-605.157	-96.974	-0.548	-0.145
-604.142	-159.702	-0.623	-0.035
-603.128	-95.163	0.075	0.020
-602.113	236.021	-0.046	0.076
-601.098	-40.427	0.319	-0.167
-600.084	-152.193	-0.383	0.028
-599.069	96.185	-0.100	-0.115
-598.055	800.000	-0.060	0.248
-597.040	800.000	0.028	0.095
-596.025	-16.850	0.194	0.124
-595.011	-200.000	0.012	0.310
-593.996	101.182	-0.202	0.237
-592.982	114.445	-0.095	-0.117
-591.967	-200.000	0.006	0.060
-590.952	98.098	0.212	-0.246
-589.938	-124.302	0.408	0.064
-588.923	621.392	-0.051	-0.129
-587.909	12.987	-0.044	-0.034
-586.894	-200.000	0.039	0.271
-585.879	226.770	0.066	-0.107
-584.865	-79.269	0.336	-0.115
-583.850	91.009	-0.074	0.084
-582.836	18.506	0.202	-0.163
-581.821	293.182	0.117	-0.216
-580.806	-200.000	0.018	-0.205
-579.792	-60.752	-0.160	0.068
-578.777	-200.000	0.051	0.239
-577.763	-70.801	0.079	0.030
-576.748	-27.885	0.125	0.073
-575.733	-31.950	-0.141	-0.079
-574.719	50.606	0.170	0.162
-573.704	177.966	0.102	0.150
-572.690	800.000	0.004	-0.017
-571.675	203.685	0.069	-0.108
-570.661	-136.797	0.188	0.022
-569.646	-200.000	0.009	0.047
-568.631	-136.426	-0.125	0.015
-567.617	-77.359	-0.321	-0.112
-566.602	-14.765	0.150	-0.097
-565.588	-141.671	-0.113	-0.011
-564.573	-94.010	-0.188	-0.052
-563.558	96.210	0.166	0.192
-562.544	15.938	0.173	0.137
-561.529	-76.322	0.113	0.040
-560.515	798.996	-0.060	-0.166
-559.500	800.000	-0.060	0.231
-558.485	-200.000	0.003	-0.228
-557.471	-200.000	0.000	0.242
-556.456	-200.000	0.018	0.085
-555.442	-93.610	0.299	0.083
-554.427	282.173	-0.138	-0.248
-553.412	-88.691	0.145	0.043
-552.398	-162.548	-0.066	0.003
-551.383	-52.137	-0.160	-0.075
-550.369	-30.581	0.174	-0.099
-549.354	181.205	0.124	0.183
-548.339	800.000	-0.057	-0.184
-547.325	-57.693	-0.163	-0.072
-546.310	-118.585	0.229	-0.041
-545.296	-123.852	-0.075	-0.012
-544.281	-200.000	0.033	0.177
-543.266	258.536	0.073	0.127
-542.252	-82.570	-0.118	-0.039
-541.237	16.174	0.113	0.090
-540.223	-161.938	0.116	0.006
-539.208	-64.567	0.191	-0.078
-538.193	-85.337	-0.280	0.088
-537.179	-200.000	0.019	-0.136
-536.164	-200.000	-0.007	-0.126
-535.150	800.000	0.054	0.189
-534.135	254.381	0.087	0.149
-533.121	47.766	-0.114	0.107
-532.106	208.403	0.234	0.368
-531.091	227.468	-0.123	-0.201
-530.077	-56.737	0.307	0.137
-529.062	85.783	0.163	-0.180
-528.048	-200.000	-0.033	-0.307
-527.033	800.000	-0.069	-0.258
-526.018	-190.139	0.238	0.003
-525.004	228.439	0.196	-0.320
-523.989	800.000	-0.074	-0.243
-522.975	21.457	-0.149	0.122
-521.960	147.290	0.094	-0.127
-520.945	-69.220	-0.062	0.024
-519.931	736.005	0.048	-0.129
-518.916	-200.000	0.003	-0.270
-517.902	-92.599	0.401	-0.113
-516.887	-72.110	0.138	-0.052
-515.872	142.224	-0.155	-0.206
-514.858	-175.042	-0.274	0.008
-513.843	-102.953	-0.400	-0.095
-512.829	800.000	0.056	-0.204
-511.814	376.462	0.010	0.021
-510.799	224.545	-0.073	0.118
-509.785	20.983	0.184	0.150
-508.770	-133.263	0.250	-0.032
-507.756	360.130	-0.090	-0.182
-506.741	-85.044	-0.051	-0.016
-505.726	-11.522	-0.156	-0.103
-504.712	64.718	0.119	0.121
-503.697	-70.871	-0.185	0.070
-502.683	-26.271	-0.234	-0.138
-501.668	24.699	-0.232	-0.193
-500.653	791.027	0.069	0.191
-499.639	75.555	-0.142	-0.150
-498.624	-133.370	0.401	-0.051
-497.610	-200.000	0.045	0.200
-496.595	84.205	-0.180	0.197
-495.581	-200.000	0.041	0.330
-494.566	42.667	-0.084	-0.077
-493.551	-58.959	0.333	-0.144
-492.537	218.932	-0.060	0.097
-491.522	229.412	0.097	0.158
-490.508	-45.837	-0.148	-0.074
-489.493	-6.579	-0.141	-0.096
-488.478	-102.918	0.075	-0.018
-487.464	-12.244	-0.253	0.166
-486.449	-200.000	0.033	-0.352
-485.435	384.191	-0.069	-0.143
-484.420	-200.000	0.006	0.128
-483.405	274.967	-0.073	0.129
-482.391	-123.262	0.240	-0.039
-481.376	34.139	0.177	0.155
-480.362	-200.000	-0.033	-0.158
-479.347	133.879	-0.084	-0.109
-478.332	285.252	0.130	0.235
-477.318	69.393	0.178	0.184
-476.303	60.105	-0.174	-0.172
-475.289	163.738	-0.094	0.133
-474.274	126.383	0.117	-0.149
-473.259	-6.188	0.315	-0.216
-472.245	-200.000	0.030	-0.174
-471.230	84.807	-0.171	-0.187
-470.216	9.964	0.267	-0.203
-469.201	-119.079	0.248	-0.044
-468.186	800.000	0.037	-0.145
-467.172	702.337	0.087	0.229
-466.157	16.309	-0.222	-0.176
-465.143	31.362	0.203	-0.175
-464.128	-149.355	0.375	0.030
-463.113	521.149	0.021	0.049
-462.099	40.144	0.069	-0.062
-461.084	-200.000	0.052	0.342
-460.070	-11.177	-0.322	-0.213
-459.055	800.000	-0.058	0.191
-458.040	-200.000	-0.009	-0.182
-457.026	800.000	0.041	0.141
-456.011	800.000	-0.043	0.131
-454.997	800.000	-0.037	-0.135
-453.982	47.601	-0.234	-0.219
-452.968	5.731	0.079	-0.059
-451.953	-178.785	0.235	-0.005
-450.938	38.265	-0.195	0.174
-449.924	262.527	-0.058	-0.101
-448.909	297.908	0.067	-0.123
-447.895	-63.134	0.301	0.124
-446.880	-200.000	-0.082	0.470
-445.865	71.778	0.116	0.121
-444.851	-56.149	0.086	-0.038
-443.836	-3.308	-0.208	0.145
-442.822	126.058	-0.217	-0.274
-441.807	118.690	0.166	0.205
-440.792	-200.000	-0.077	-0.406
-439.778	357.143	-0.098	-0.196
-438.763	-148.305	0.457	0.038
-437.749	800.000	0.156	0.455
-436.734	20.958	-0.253	-0.205
-435.719	693.828	0.095	0.250
-434.705	800.000	0.033	0.111
-433.690	52.775	0.024	-0.023
-432.676	367.518	-0.107	-0.216
-431.661	-147.795	0.320	-0.027
-430.646	161.698	-0.041	0.057
-429.632	13.627	-0.219	0.171
-428.617	800.000	0.069	0.225
-427.603	-35.477	0.136	0.074
-426.588	-56.547	-0.121	-0.054
-425.573	-200.000	-0.036	-0.195
-424.559	-106.751	-0.332	0.074
-423.544	106.695	0.233	-0.277
-422.530	20.255	-0.068	0.055
-421.515	-106.958	0.070	-0.015
-420.500	-200.000	0.034	-0.178
-419.486	164.105	0.015	0.021
-418.471	-200.000	0.005	0.148
-417.457	-200.000	0.010	0.124
-416.442	-98.832	0.256	-0.065
-415.428	267.655	0.043	-0.076
-414.413	733.284	-0.077	0.205
-413.398	532.699	-0.179	-0.425
-412.384	104.771	-0.103	-0.121
-411.369	275.752	0.179	0.319
-410.355	-200.000	0.006	0.269
-409.340	142.595	-0.376	0.499
-408.325	-45.914	0.234	-0.115
-407.311	83.548	-0.152	0.166
-406.296	-200.000	-0.069	0.309
-405.282	-96.852	0.359	0.094
-404.267	252.064	0.080	-0.136
-403.252	-26.946	-0.356	0.208
-402.238	127.922	-0.204	0.260
-401.223	800.000	-0.086	-0.368
-400.209	800.000	0.084	-0.275
-399.194	-51.970	-0.203	0.095
-398.179	190.676	-0.190	-0.286
-397.165	-53.426	-0.354	-0.162
-396.150	243.572	0.150	-0.252
-395.136	-200.000	0.000	-0.337
-394.121	-81.645	-0.163	0.054
-393.106	385.310	-0.065	-0.135
-392.092	-4.488	-0.102	0.070
-391.077	631.812	0.057	0.145
-390.063	33.790	-0.125	-0.108
-389.048	-110.639	-0.061	-0.013
-388.033	25.064	-0.016	-0.013
-387.019	-10.693	0.120	0.079
-386.004	799.343	-0.183	-0.505
-384.990	330.545	0.102	-0.196
-383.975	293.031	0.099	0.180
-382.960	428.335	0.063	-0.136
-381.946	800.000	-0.063	-0.209
-380.931	800.000	-0.081	0.348
-379.917	157.316	-0.178	0.246
-378.902	-158.925	0.273	0.016
-377.888	800.000	-0.037	-0.143
-376.873	-32.084	-0.098	0.055
-375.858	31.562	-0.158	0.136
-374.844	-200.000	-0.030	0.378
-373.829	47.289	-0.063	-0.058
-372.815	76.514	-0.245	0.260
-371.800	-107.197	0.095	-0.021
-370.785	-112.802	-0.209	-0.041
-369.771	-102.155	-0.159	-0.038
-368.756	748.036	-0.024	-0.065
-367.742	-9.090	-0.168	0.112
-366.727	-200.000	0.020	-0.230
-365.712	133.170	0.165	0.213
-364.698	-2.573	-0.245	0.171
-363.683	99.932	0.237	0.275
-362.669	-69.339	0.182	-0.070
-361.654	20.326	0.377	-0.304
-360.639	-154.136	-0.134	-0.009
-359.625	270.185	0.065	0.114
-358.610	-77.165	-0.216	-0.075
-357.596	21.106	-0.054	-0.044
-356.581	-128.375	0.296	-0.042
-355.566	-200.000	-0.004	0.087
-354.552	220.425	-0.203	0.326
-353.537	75.925	0.197	0.208
-352.523	-200.000	0.031	0.191
-351.508	-18.935	0.122	-0.076
-350.493	104.006	0.126	-0.148
-349.479	42.017	0.159	0.144
-348.464	106.884	-0.110	0.131
-347.450	-200.000	-0.016	0.204
-346.435	704.543	-0.123	-0.325
-345.420	-200.000	0.008	0.168
-344.406	800.000	0.041	-0.121
-343.391	-14.625	-0.290	-0.186
-342.377	40.334	-0.055	-0.049
-341.362	131.278	-0.245	0.314
-340.348	800.000	0.075	0.256
-339.333	46.059	0.214	0.197
-338.318	-96.332	-0.096	-0.025
-337.304	-200.000	0.009	-0.108
-336.289	-138.663	-0.169	-0.018
-335.275	-120.590	-0.348	-0.059
-334.260	-40.053	-0.095	0.049
-333.245	-158.765	-0.200	-0.011
-332.231	-51.297	0.178	0.083
-331.216	56.265	-0.098	0.095
-330.202	46.339	0.110	-0.102
-329.187	800.000	-0.002	0.008
-328.172	-200.000	-0.003	-0.064
-327.158	334.645	0.075	0.145
-326.143	2.169	-0.154	-0.111
-325.129	-65.312	0.154	0.062
-324.114	23.459	0.218	0.179
-323.099	6.671	0.155	0.115
-322.085	800.000	0.085	-0.318
-321.070	-91.456	0.123	-0.035
-320.056	-113.858	-0.349	-0.068
-319.041	800.000	0.069	0.200
-318.026	-63.023	-0.192	-0.079
-317.012	347.605	-0.106	0.209
-315.997	99.547	-0.319	-0.369
-314.983	-100.759	0.209	0.051
-313.968	78.888	0.018	-0.019
-312.953	-1.568	-0.100	0.071
-311.939	-82.832	0.073	-0.024
-310.924	-32.298	0.154	0.086
-309.910	-200.000	0.014	-0.068
-308.895	-24.961	-0.212	0.125
-307.880	800.000	-0.055	0.162
-306.866	226.732	0.222	0.359
-305.851	-13.989	0.312	0.201
-304.837	-77.685	-0.205	-0.071
-303.822	-97.306	-0.143	-0.037
-302.807	472.706	-0.165	0.371
-301.793	-122.274	-0.225	-0.037
-300.778	-200.000	-0.058	0.394
-299.764	-39.827	-0.198	0.103
-298.749	-87.150	-0.370	0.112
-297.735	74.187	-0.135	0.141
-296.720	-200.000	0.007	0.093
-295.705	-132.925	-0.066	-0.008
-294.691	-179.876	-0.187	0.004
-293.676	-200.000	0.027	-0.500
-292.662	-13.718	-0.122	-0.079
-291.647	-62.242	0.255	0.106
-290.632	69.468	0.101	-0.104
-289.618	-127.283	0.597	-0.087
-288.603	-37.354	0.052	-0.028
-287.589	181.897	-0.149	-0.218
-286.574	-43.017	-0.126	-0.064
-285.559	16.824	-0.156	0.123
-284.545	39.672	-0.214	-0.191
-283.530	-115.786	-0.410	0.076
-282.516	-200.000	0.072	0.414
-281.501	-15.454	0.329	0.209
-280.486	63.663	-0.191	-0.191
-279.472	389.813	0.041	-0.085
-278.457	48.646	-0.212	0.198
-277.443	-200.000	-0.017	0.394
-276.428	39.072	-0.011	-0.010
-275.413	20.101	-0.043	-0.034
-274.399	77.822	0.191	-0.203
-273.384	-150.501	0.352	-0.027
-272.370	800.000	0.080	0.271
-271.355	800.000	-0.051	0.142
-270.340	-110.187	-0.117	-0.024
-269.326	-126.709	-0.249	0.037
-268.311	26.290	-0.189	-0.157
-267.297	-200.000	-0.017	-0.121
-266.282	161.392	0.114	-0.158
-265.267	698.655	0.119	-0.312
-264.253	106.319	0.111	0.131
-263.238	-200.000	0.025	0.114
-262.224	-200.000	-0.033	-0.190
-261.209	-128.166	-0.168	0.024
-260.195	-200.000	-0.008	0.065
-259.180	-14.298	0.234	0.150
-258.165	74.230	-0.277	0.290
-257.151	-48.651	-0.103	-0.049
-256.136	800.000	0.102	-0.299
-255.122	60.777	0.214	-0.211
-254.107	800.000	-0.050	0.201
-253.092	-52.001	-0.110	0.051
-252.078	25.009	0.079	0.066
-251.063	-200.000	-0.080	-0.364
-250.049	62.393	0.143	0.142
-249.034	-14.628	-0.070	0.045
-248.019	-69.115	-0.139	-0.053
-247.005	-141.841	0.339	0.034
-245.990	-70.897	-0.124	0.046
-244.976	-30.697	-0.134	-0.075
-243.961	-40.598	-0.347	-0.179
-242.946	-53.453	0.136	0.062
-241.932	-200.000	0.004	-0.110
-240.917	330.580	0.142	0.271
-239.903	197.050	-0.093	-0.141
-238.888	90.394	0.245	-0.273
-237.873	102.673	-0.249	0.289
-236.859	485.084	0.079	0.179
-235.844	-15.348	0.286	-0.182
-234.830	-48.494	0.087	0.042
-233.815	556.282	0.134	-0.320
-232.800	-112.468	-0.374	-0.074
-231.786	3.471	-0.149	-0.108
-230.771	-46.863	-0.313	-0.152
-229.757	-200.000	-0.022	-0.192
-228.742	800.000	0.011	0.045
-227.727	-184.685	0.353	0.006
-226.713	281.907	0.132	0.235
-225.698	800.000	0.076	-0.209
-224.684	-200.000	-0.006	0.030
-223.669	-170.010	-0.100	0.004
-222.655	56.549	-0.092	0.089
-221.640	-145.026	0.455	-0.041
-220.625	122.083	0.227	0.281
-219.611	-39.882	0.116	0.060
-218.596	-28.957	-0.089	0.051
-217.582	-140.154	0.107	0.011
-216.567	12.030	0.207	-0.158
-215.552	109.724	0.348	-0.414
-214.538	398.230	0.092	0.192
-213.523	-200.000	0.021	-0.157
-212.509	-114.823	-0.216	-0.041
-211.494	37.072	-0.059	-0.052
-210.479	110.510	0.107	-0.128
-209.465	-90.329	0.133	-0.038
-208.450	800.000	0.028	0.103
-207.436	114.236	0.056	0.067
-206.421	-114.357	-0.263	0.050
-205.406	229.936	0.096	-0.155
-204.392	10.264	0.101	-0.076
-203.377	-200.000	-0.039	0.462
-202.363	800.000	-0.069	0.265
-201.348	-59.384	-0.045	-0.019
-200.333	349.191	0.132	-0.258
-199.319	58.363	0.127	0.123
-198.304	-25.184	0.241	-0.141
-197.290	310.067	0.211	0.392
-196.275	-4.370	-0.168	0.115
-195.260	-81.516	0.183	0.060
-194.246	69.728	0.163	-0.167
-193.231	-200.000	0.039	0.239
-192.217	722.890	0.069	0.182
-191.202	-5.330	-0.067	0.046
-190.187	326.406	-0.194	0.369
-189.173	-112.051	0.403	-0.080
-188.158	-200.000	-0.024	-0.133
-187.144	477.259	-0.042	0.093
-186.129	-55.853	-0.199	0.088
-185.114	-21.067	0.100	0.061
-184.100	460.206	-0.119	0.263
-183.085	264.713	-0.084	-0.145
-182.071	491.384	0.124	0.281
-181.056	-200.000	-0.031	0.167
-180.042	-200.000	-0.003	0.250
-179.027	-200.000	-0.057	-0.388
-178.012	-164.348	0.127	0.006
-176.998	61.648	0.201	0.199
-175.983	800.000	-0.099	-0.388
-174.969	77.750	0.093	-0.098
-173.954	-200.000	0.001	0.061
-172.939	122.862	-0.124	-0.153
-171.925	202.834	-0.120	0.184
-170.910	-114.691	-0.567	0.107
-169.896	-200.000	-0.027	0.262
-168.881	-35.571	-0.247	-0.133
-167.866	-48.515	0.321	-0.153
-166.852	-89.319	-0.218	-0.064
-165.837	256.905	0.105	-0.180
-164.823	5.539	-0.189	0.139
-163.808	-66.677	0.176	-0.069
-162.793	50.627	0.126	0.118
-161.779	-15.826	-0.081	0.051
-160.764	-41.225	-0.139	-0.071
-159.750	-111.477	0.097	-0.020
-158.735	-45.300	0.180	0.089
-157.720	-0.530	0.126	0.088
-156.706	-200.000	0.000	-0.059
-155.691	54.480	-0.283	-0.271
-154.677	61.517	-0.106	0.104
-153.662	13.545	-0.133	-0.102
-152.647	48.980	-0.141	-0.131
-151.633	-200.000	-0.045	-0.209
-150.618	67.278	0.104	0.105
-149.604	210.072	-0.107	0.166
-148.589	800.000	-0.106	0.331
-147.574	456.288	-0.075	0.165
-146.560	-76.755	0.191	-0.066
-145.545	800.000	0.018	-0.054
-144.531	-200.000	0.042	0.222
-143.516	5.743	0.084	-0.061
-142.502	-200.000	0.024	0.220
-141.487	687.439	0.033	0.086
-140.472	-200.000	-0.011	-0.083
-139.458	82.267	-0.119	-0.128
-138.443	-155.326	-0.230	0.015
-137.429	50.648	-0.258	-0.242
-136.414	-200.000	0.033	-0.433
-135.399	-24.472	-0.260	-0.153
-134.385	197.271	0.042	-0.064
-133.370	-200.000	0.035	-0.308
-132.356	-84.230	0.085	0.027
-131.341	296.308	-0.088	-0.160
-130.326	-147.624	0.029	-0.002
-129.312	-200.000	0.007	-0.427
-128.297	-138.323	0.133	-0.015
-127.283	-76.375	0.166	-0.058
-126.268	-200.000	0.007	-0.032
-125.253	-14.062	0.069	0.044
-124.239	21.849	0.176	0.142
-123.224	800.000	0.109	0.315
-122.210	-39.445	-0.153	0.079
-121.195	207.439	-0.205	0.316
