DTS Sentinel unit serial number:	SN413079Multiplexer serial number:	ORYXHardware model number:	OX4-SRSoftware version number:	ORYX F/W v4.00 Oryx Data Collector v3.7.2.0data status	okinstallation	princeton_trtdifferential loss correction	single-endedforward channel	channel 4reverse channel	N/Adate	2019/09/16time	22:09:35forward acquisition time	60.00reverse acquisition time	0.00gamma	496.2192k internal	0.2312k external	0.2312temperature offset calibration	0.9970default loss term (dB/km)	0.3790temperature slope calibration	1.0000multiplexer offset coefficient	1.0000multiplexer slope coefficient	1.0000fibre end	0.00T internal ref (°C)	31.06T ext. ref 1 (°C)	0.08T ext. ref 2 (°C)	24.83length (m)	temperature (°C)	Stokes	anti-Stokes-747.200	374.507	-0.021	-0.043
-746.185	-48.584	0.093	-0.045
-745.171	350.030	0.137	0.274
-744.156	36.950	0.185	-0.166
-743.142	-70.775	-0.101	-0.039
-742.127	-111.656	-0.059	-0.012
-741.112	113.321	0.158	0.195
-740.098	-29.985	0.291	-0.168
-739.083	-55.038	-0.179	-0.082
-738.069	423.407	-0.107	0.234
-737.054	79.129	-0.083	-0.090
-736.039	-82.046	-0.338	0.112
-735.025	-47.168	-0.314	0.155
-734.010	-200.000	0.012	-0.176
-732.996	-147.694	0.310	0.026
-731.981	69.535	0.114	0.119
-730.966	346.933	0.051	0.103
-729.952	-158.524	-0.187	-0.011
-728.937	-98.331	0.224	-0.058
-727.923	227.541	-0.101	-0.166
-726.908	-116.090	0.160	-0.030
-725.894	175.354	-0.340	-0.500
-724.879	-16.322	0.045	0.029
-723.864	-191.847	-0.225	0.002
-722.850	47.625	0.102	0.096
-721.835	-105.509	-0.133	-0.031
-720.821	88.327	0.164	0.184
-719.806	-149.262	0.259	0.021
-718.791	-3.755	0.109	-0.076
-717.777	-50.079	-0.197	0.095
-716.762	-56.157	-0.076	-0.034
-715.748	-90.093	0.181	-0.053
-714.733	-121.718	-0.086	0.014
-713.718	800.000	-0.084	-0.312
-712.704	156.287	0.139	0.195
-711.689	-200.000	-0.045	-0.304
-710.675	-105.137	0.327	-0.076
-709.660	-200.000	0.033	-0.169
-708.645	228.592	0.186	-0.307
-707.631	630.544	-0.115	0.295
-706.616	-47.906	0.249	-0.122
-705.602	138.314	0.099	0.131
-704.587	-200.000	-0.014	-0.195
-703.572	-59.638	0.181	0.078
-702.558	-50.787	0.093	-0.044
-701.543	173.392	0.070	-0.103
-700.529	-97.095	0.295	0.078
-699.514	83.293	-0.255	0.281
-698.499	-200.000	-0.032	0.185
-697.485	-100.944	0.246	0.061
-696.470	800.000	-0.060	-0.212
-695.456	-200.000	-0.031	-0.633
-694.441	21.719	-0.199	-0.164
-693.426	142.232	0.054	0.073
-692.412	82.820	0.059	-0.065
-691.397	21.884	0.276	0.227
-690.383	-200.000	0.025	-0.355
-689.368	20.961	0.388	-0.319
-688.354	-200.000	-0.013	0.110
-687.339	-200.000	-0.008	-0.305
-686.324	-200.000	0.005	0.242
-685.310	-200.000	0.004	-0.085
-684.295	800.000	0.032	0.097
-683.281	-129.735	0.437	-0.061
-682.266	-103.444	-0.540	-0.129
-681.251	294.203	0.129	-0.238
-680.237	-67.917	0.053	0.021
-679.222	800.000	-0.056	0.166
-678.208	97.221	0.142	0.165
-677.193	-46.910	0.188	0.093
-676.178	344.744	-0.065	0.130
-675.164	-70.239	-0.197	0.076
-674.149	-200.000	-0.037	-0.214
-673.135	151.868	-0.076	-0.105
-672.120	-106.006	-0.206	0.047
-671.105	-68.096	0.227	-0.090
-670.091	196.091	0.194	0.298
-669.076	267.810	0.113	-0.200
-668.062	48.082	-0.192	0.181
-667.047	-43.693	-0.294	-0.150
-666.032	307.962	0.149	0.280
-665.018	766.573	0.102	-0.280
-664.003	-200.000	-0.028	-0.366
-662.989	267.167	0.105	-0.186
-661.974	113.292	-0.139	-0.171
-660.959	-55.636	-0.319	0.144
-659.945	35.192	0.367	-0.325
-658.930	15.079	0.148	-0.118
-657.916	-39.898	-0.296	0.156
-656.901	179.379	-0.092	-0.136
-655.886	-36.860	-0.090	0.049
-654.872	70.195	-0.383	-0.400
-653.857	800.000	-0.089	-0.383
-652.843	-200.000	0.005	0.108
-651.828	255.914	-0.206	0.356
-650.814	-53.622	-0.071	-0.033
-649.799	125.720	0.246	-0.314
-648.784	800.000	0.065	-0.266
-647.770	85.811	0.047	-0.052
-646.755	800.000	0.052	-0.155
-645.741	-84.704	-0.270	-0.086
-644.726	800.000	-0.053	0.227
-643.711	151.404	-0.145	0.200
-642.697	800.000	-0.008	-0.023
-641.682	-186.758	0.321	0.005
-640.668	-200.000	0.025	0.297
-639.653	140.035	-0.121	-0.161
-638.638	534.606	-0.085	-0.203
-637.624	261.754	0.181	0.317
-636.609	659.994	0.034	0.088
-635.595	-53.775	0.218	0.100
-634.580	800.000	-0.087	-0.282
-633.565	-41.369	0.097	-0.050
-632.551	110.512	-0.176	-0.214
-631.536	800.000	-0.086	-0.281
-630.522	-163.549	-0.140	0.007
-629.507	56.882	-0.126	-0.124
-628.492	123.397	0.136	-0.173
-627.478	-42.265	-0.114	0.059
-626.463	-59.738	0.174	-0.075
-625.449	-86.588	-0.299	-0.093
-624.434	131.377	0.064	-0.083
-623.419	70.010	-0.176	0.183
-622.405	-18.566	-0.027	-0.017
-621.390	-200.000	0.023	0.356
-620.376	110.352	-0.008	0.010
-619.361	-73.218	-0.117	0.043
-618.346	-19.422	-0.265	0.166
-617.332	17.651	0.023	0.018
-616.317	-95.895	-0.156	0.042
-615.303	88.555	0.122	-0.137
-614.288	-136.962	-0.464	0.054
-613.273	31.820	-0.264	0.229
-612.259	800.000	0.173	0.511
-611.244	-200.000	0.008	0.412
-610.230	-89.873	0.286	-0.084
-609.215	-69.432	0.235	0.091
-608.201	70.475	0.096	0.100
-607.186	-129.799	-0.056	-0.008
-606.171	-53.990	0.321	0.148
-605.157	-4.580	-0.362	0.253
-604.142	-72.020	0.083	-0.031
-603.128	-116.805	-0.178	0.033
-602.113	-128.449	-0.318	-0.045
-601.098	-50.602	0.110	-0.052
-600.084	-61.148	0.219	0.093
-599.069	-108.258	0.336	0.073
-598.055	-110.088	-0.293	0.062
-597.040	-82.181	0.206	0.068
-596.025	448.213	-0.163	0.362
-595.011	-120.511	0.110	0.019
-593.996	-46.058	0.255	-0.127
-592.982	566.814	-0.030	-0.073
-591.967	-104.047	-0.291	-0.068
-590.952	-55.190	0.190	-0.086
-589.938	4.691	-0.221	0.164
-588.923	-200.000	-0.008	0.243
-587.909	63.354	0.333	0.336
-586.894	65.740	-0.115	0.117
-585.879	516.042	-0.165	-0.388
-584.865	-182.186	0.167	-0.003
-583.850	-105.073	0.093	0.022
-582.836	-27.037	0.198	0.116
-581.821	800.000	-0.095	0.393
-580.806	-68.099	0.265	0.104
-579.792	642.652	0.078	-0.200
-578.777	-123.941	0.182	-0.029
-577.763	-120.686	-0.166	-0.028
-576.748	800.000	0.056	-0.164
-575.733	126.405	0.114	-0.145
-574.719	4.074	0.257	-0.190
-573.704	160.760	-0.156	-0.219
-572.690	-41.759	-0.210	-0.109
-571.675	-200.000	-0.050	-0.248
-570.661	800.000	-0.073	-0.249
-569.646	800.000	-0.092	-0.265
-568.631	-121.461	-0.170	0.028
-567.617	800.000	-0.100	-0.313
-566.602	800.000	0.046	0.196
-565.588	48.176	-0.144	-0.136
-564.573	-7.358	-0.085	-0.058
-563.558	-35.938	0.106	0.058
-562.544	59.435	0.151	0.150
-561.529	-3.839	0.132	-0.092
-560.515	800.000	0.041	-0.152
-559.500	621.278	-0.023	0.057
-558.485	-15.463	-0.029	0.019
-557.471	0.868	-0.157	0.113
-556.456	-100.082	-0.216	-0.054
-555.442	-85.521	0.073	-0.023
-554.427	14.869	0.136	-0.107
-553.412	-42.192	-0.147	0.076
-552.398	80.328	-0.074	0.080
-551.383	-82.288	-0.302	-0.099
-550.369	-54.875	-0.093	0.042
-549.354	-58.996	-0.329	0.143
-548.339	152.300	0.118	-0.162
-547.325	-200.000	-0.033	-0.191
-546.310	-53.356	-0.333	-0.153
-545.296	-141.575	-0.029	0.003
-544.281	-129.629	-0.190	-0.026
-543.266	64.725	-0.049	0.050
-542.252	-132.741	0.196	-0.025
-541.237	-200.000	0.014	0.239
-540.223	-162.886	0.189	-0.009
-539.208	171.621	-0.039	-0.057
-538.193	248.570	0.272	0.464
-537.179	-19.464	-0.074	-0.046
-536.164	332.939	-0.132	-0.257
-535.150	-200.000	0.007	-0.116
-534.135	-90.618	0.159	0.046
-533.121	147.009	0.145	-0.196
-532.106	-200.000	0.020	-0.094
-531.091	-5.347	0.176	0.122
-530.077	-47.536	-0.239	-0.117
-529.062	800.000	-0.037	-0.127
-528.048	-53.953	0.368	0.169
-527.033	60.057	-0.276	0.274
-526.018	39.094	0.144	0.129
-525.004	162.612	0.022	0.031
-523.989	-29.675	0.153	-0.088
-522.975	109.810	-0.042	0.050
-521.960	-200.000	0.069	-0.000
-520.945	246.982	0.111	0.189
-519.931	-43.317	-0.132	0.067
-518.916	255.406	-0.049	-0.084
-517.902	153.162	-0.196	0.270
-516.887	-1.140	0.227	-0.161
-515.872	152.728	0.140	-0.193
-514.858	-117.200	0.049	-0.009
-513.843	103.925	-0.223	0.263
-512.829	-3.084	-0.216	-0.151
-511.814	-22.846	0.470	0.285
-510.799	147.150	-0.154	0.209
-509.785	-200.000	0.048	-0.232
-508.770	448.236	0.049	0.109
-507.756	24.358	-0.267	-0.222
-506.741	-96.430	0.027	-0.007
-505.726	45.031	0.038	-0.035
-504.712	90.621	0.079	-0.089
-503.697	94.213	-0.145	-0.165
-502.683	-87.836	0.198	-0.060
-501.668	-200.000	0.020	0.190
-500.653	-53.592	-0.117	0.054
-499.639	-178.588	-0.220	-0.005
-498.624	-200.000	-0.012	0.134
-497.610	26.977	-0.218	0.184
-496.595	-200.000	-0.006	-0.167
-495.581	502.544	-0.081	-0.189
-494.566	67.013	-0.144	-0.147
-493.551	83.187	-0.161	0.176
-492.537	-57.032	0.169	0.075
-491.522	-43.085	0.244	0.124
-490.508	-200.000	-0.002	-0.040
-489.493	-200.000	-0.063	-0.315
-488.478	-200.000	-0.031	0.183
-487.464	-106.181	-0.231	-0.052
-486.449	-48.415	-0.146	-0.071
-485.435	-200.000	0.013	0.275
-484.420	-56.489	0.207	-0.092
-483.405	386.708	0.056	-0.117
-482.391	224.770	0.219	-0.356
-481.376	-12.419	0.047	-0.031
-480.362	179.220	-0.106	-0.155
-479.347	82.893	-0.224	-0.244
-478.332	55.294	0.169	0.164
-477.318	-64.723	-0.116	-0.047
-476.303	-200.000	-0.004	-0.137
-475.289	54.552	-0.415	-0.402
-474.274	604.264	0.052	0.131
-473.259	-65.806	-0.216	-0.087
-472.245	107.444	-0.153	0.182
-471.230	800.000	0.080	0.290
-470.216	800.000	0.124	-0.353
-469.201	-122.359	0.266	0.044
-468.186	42.751	0.119	0.109
-467.172	-163.644	-0.192	-0.009
-466.157	-45.603	0.118	-0.059
-465.143	-8.376	0.179	-0.121
-464.128	338.301	-0.145	-0.283
-463.113	-7.004	0.282	0.192
-462.099	-200.000	0.018	0.164
-461.084	-60.428	-0.243	-0.104
-460.070	-200.000	0.000	-0.342
-459.055	561.829	0.019	-0.046
-458.040	-200.000	-0.028	-0.137
-457.026	-69.258	0.245	0.095
-456.011	442.750	0.091	0.199
-454.997	567.793	0.099	0.241
-453.982	-200.000	0.070	-0.331
-452.968	32.858	0.212	0.184
-451.953	326.772	0.152	0.291
-450.938	-200.000	-0.049	0.216
-449.924	-129.605	0.198	0.027
-448.909	164.531	0.107	-0.151
-447.895	80.791	-0.076	-0.083
-446.880	76.672	0.164	-0.174
-445.865	-200.000	-0.007	-0.222
-444.851	-31.090	-0.291	0.164
-443.836	694.149	0.078	-0.206
-442.822	-73.759	-0.304	-0.111
-441.807	18.847	-0.193	-0.155
-440.792	-118.781	-0.156	-0.027
-439.778	-108.162	-0.213	0.046
-438.763	-140.025	-0.076	-0.008
-437.749	86.943	0.166	0.184
-436.734	800.000	-0.166	0.560
-435.719	147.270	0.097	0.131
-434.705	800.000	0.062	0.208
-433.690	369.673	-0.075	-0.153
-432.676	104.051	0.145	0.171
-431.661	-110.995	0.205	0.042
-430.646	800.000	-0.094	-0.393
-429.632	-22.056	-0.182	0.111
-428.617	800.000	-0.040	0.118
-427.603	-200.000	-0.054	0.358
-426.588	-200.000	-0.055	-0.374
-425.573	157.146	0.109	-0.151
-424.559	47.164	-0.060	0.056
-423.544	-93.550	0.181	0.050
-422.530	800.000	-0.099	-0.337
-421.515	-200.000	0.001	-0.075
-420.500	478.035	-0.038	-0.086
-419.486	800.000	-0.067	-0.216
-418.471	79.672	0.176	0.190
-417.457	-108.271	-0.156	0.034
-416.442	-80.055	0.242	-0.081
-415.428	-200.000	0.032	-0.366
-414.413	-200.000	0.023	-0.121
-413.398	520.613	0.099	-0.234
-412.384	-200.000	0.036	-0.171
-411.369	-56.221	-0.181	-0.081
-410.355	-128.489	-0.055	0.008
-409.340	800.000	-0.027	-0.096
-408.325	800.000	0.049	0.139
-407.311	-200.000	-0.024	-0.260
-406.296	238.527	0.186	-0.309
-405.282	-12.089	0.167	-0.110
-404.267	759.031	0.014	0.037
-403.252	-129.349	-0.484	-0.067
-402.238	800.000	0.057	0.197
-401.223	-164.554	0.388	0.018
-400.209	-106.392	0.213	-0.048
-399.194	4.453	-0.120	0.088
-398.179	-200.000	-0.020	0.150
-397.165	-41.123	0.245	0.127
-396.150	-200.000	0.029	-0.198
-395.136	-140.119	-0.240	0.025
-394.121	-137.626	-0.163	0.018
-393.106	-143.527	0.157	-0.015
-392.092	147.289	0.188	0.254
-391.077	-200.000	-0.027	0.205
-390.063	800.000	-0.068	-0.234
-389.048	-200.000	-0.048	0.250
-388.033	-9.618	0.170	0.113
-387.019	324.782	-0.139	0.266
-386.004	-200.000	-0.036	-0.191
-384.990	-128.361	0.288	-0.041
-383.975	-35.590	-0.392	0.213
-382.960	-124.556	0.411	0.064
-381.946	3.532	-0.043	0.031
-380.931	-67.636	-0.234	0.092
-379.917	25.930	-0.135	0.113
-378.902	800.000	0.043	-0.160
-377.888	-147.507	0.344	0.029
-376.873	25.844	0.038	-0.032
-375.858	800.000	-0.086	-0.297
-374.844	391.333	0.068	-0.140
-373.829	35.830	-0.086	0.076
-372.815	358.843	-0.078	-0.155
-371.800	-107.033	0.331	0.073
-370.785	-75.767	0.403	-0.143
-369.771	358.427	-0.163	-0.326
-368.756	-130.971	0.168	0.022
-367.742	480.109	0.036	0.081
-366.727	327.114	-0.018	-0.034
-365.712	213.696	-0.168	0.265
-364.698	-116.929	0.218	-0.040
-363.683	-200.000	0.027	-0.223
-362.669	15.653	-0.028	0.022
-361.654	-200.000	-0.029	-0.292
-360.639	-46.909	0.246	-0.120
-359.625	37.532	0.180	0.159
-358.610	-119.976	0.043	0.007
-357.596	-200.000	0.048	-0.476
-356.581	100.237	0.099	-0.114
-355.566	-6.488	-0.063	0.043
-354.552	29.849	0.391	0.333
-353.537	164.150	0.071	0.100
-352.523	800.000	0.059	0.187
-351.508	-200.000	0.045	0.243
-350.493	-50.037	0.210	-0.100
-349.479	-87.092	0.131	0.040
-348.464	-200.000	-0.011	0.060
-347.450	-186.783	-0.151	-0.002
-346.435	800.000	-0.053	0.150
-345.420	-200.000	-0.006	0.234
-344.406	-169.230	0.337	-0.012
-343.391	85.639	-0.256	-0.281
-342.377	135.692	-0.342	0.445
-341.362	-137.335	0.191	-0.022
-340.348	32.128	-0.174	-0.150
-339.333	-172.793	0.089	0.003
-338.318	-37.276	-0.084	0.045
-337.304	31.702	-0.110	-0.095
-336.289	167.348	-0.102	0.145
-335.275	-200.000	-0.024	-0.129
-334.260	800.000	0.069	0.299
-333.245	62.419	0.118	0.118
-332.231	-80.565	-0.279	-0.093
-331.216	-19.482	-0.211	-0.131
-330.202	242.050	-0.086	-0.144
-329.187	167.916	0.275	0.390
-328.172	-200.000	0.054	-0.466
-327.158	-200.000	-0.025	-0.448
-326.143	-52.379	0.125	0.058
-325.129	-200.000	0.002	-0.057
-324.114	-172.494	-0.206	-0.007
-323.099	-135.492	0.315	0.037
-322.085	800.000	0.120	0.385
-321.070	800.000	-0.082	-0.327
-320.056	-79.738	-0.167	0.056
-319.041	203.722	-0.151	-0.234
-318.026	53.119	-0.139	0.133
-317.012	-22.229	-0.233	0.141
-315.997	-200.000	0.027	0.290
-314.983	-1.104	0.385	-0.271
-313.968	113.672	0.113	0.137
-312.953	405.001	-0.060	0.127
-311.939	-23.816	0.231	-0.138
-310.924	-72.704	0.130	0.048
-309.910	233.040	0.125	0.204
-308.895	-46.088	0.194	0.096
-307.880	53.135	0.283	0.270
-306.866	-49.158	0.008	-0.004
-305.851	-63.220	0.165	0.068
-304.837	-200.000	0.002	0.038
-303.822	64.103	-0.187	0.188
-302.807	19.176	-0.115	0.092
-301.793	64.804	-0.188	-0.189
-300.778	-155.276	0.490	-0.032
-299.764	-97.852	-0.227	-0.058
-298.749	-86.334	0.350	-0.107
-297.735	80.601	-0.167	-0.180
-296.720	-200.000	0.009	-0.324
-295.705	34.322	-0.148	0.129
-294.691	125.675	0.134	0.169
-293.676	138.473	-0.083	-0.109
-292.662	-200.000	0.024	-0.139
-291.647	-80.687	0.307	-0.102
-290.632	-14.424	-0.047	0.030
-289.618	268.599	-0.115	-0.201
-288.603	-39.563	-0.216	-0.113
-287.589	-19.659	-0.053	0.033
-286.574	49.390	0.202	0.190
-285.559	73.469	-0.121	0.126
-284.545	329.182	-0.120	0.229
-283.530	187.858	-0.063	-0.093
-282.516	-45.895	-0.057	-0.028
-281.501	-200.000	0.028	0.323
-280.486	345.726	-0.048	-0.094
-279.472	-133.518	-0.406	-0.051
-278.457	-64.705	0.153	0.062
-277.443	-19.128	-0.147	-0.091
-276.428	-36.412	0.173	0.093
-275.413	-200.000	-0.059	0.343
-274.399	-134.122	-0.143	-0.018
-273.384	800.000	-0.075	0.248
-272.370	-200.000	0.037	0.301
-271.355	-55.797	-0.153	-0.068
-270.340	226.222	0.086	-0.139
-269.326	-2.917	0.122	0.085
-268.311	800.000	-0.144	0.426
-267.297	94.404	-0.056	0.063
-266.282	380.660	0.081	-0.165
-265.267	125.668	0.074	-0.093
-264.253	800.000	-0.013	-0.043
-263.238	-171.349	0.066	-0.002
-262.224	680.160	-0.089	0.231
-261.209	3.965	-0.059	0.043
-260.195	-157.367	0.071	0.004
-259.180	-60.171	-0.169	0.072
-258.165	230.231	0.138	0.224
-257.151	-126.736	-0.249	-0.037
-256.136	-200.000	0.094	-0.639
-255.122	-193.672	0.089	0.001
-254.107	800.000	0.058	0.236
-253.092	-119.489	-0.052	0.009
-252.078	-82.090	-0.208	-0.068
-251.063	-52.570	-0.078	-0.036
-250.049	111.244	0.098	-0.118
-249.034	-200.000	-0.000	0.070
-248.019	21.745	-0.039	0.032
-247.005	-81.371	-0.212	-0.069
-245.990	-110.924	-0.169	0.035
-244.976	800.000	-0.019	-0.069
-243.961	-99.590	-0.221	-0.055
-242.946	-37.710	0.027	-0.014
-241.932	-33.359	-0.179	0.098
-240.917	-200.000	-0.002	-0.109
-239.903	-45.236	-0.179	-0.088
-238.888	9.335	-0.196	0.148
-237.873	-30.778	-0.097	-0.054
-236.859	-157.061	0.188	0.011
-235.844	-82.391	-0.102	0.033
-234.830	342.620	0.070	-0.136
-233.815	-108.551	0.498	-0.106
-232.800	499.040	0.019	0.043
-231.786	45.116	-0.082	0.075
-230.771	800.000	0.129	0.422
-229.757	212.122	0.075	0.118
-228.742	-200.000	0.042	0.491
-227.727	-47.738	-0.249	-0.120
-226.713	-101.782	-0.142	-0.034
-225.698	782.289	-0.047	-0.127
-224.684	800.000	0.132	-0.430
-223.669	-2.946	-0.130	0.090
-222.655	-200.000	0.007	-0.291
-221.640	-64.425	-0.190	-0.077
-220.625	215.925	0.178	0.282
-219.611	800.000	-0.077	0.260
-218.596	-31.120	-0.171	0.096
-217.582	72.961	-0.273	-0.283
-216.567	-47.013	0.079	0.039
-215.552	-170.113	-0.301	0.011
-214.538	-128.498	0.253	-0.036
-213.523	-18.690	-0.209	0.129
-212.509	800.000	-0.076	-0.254
-211.494	-200.000	0.041	0.228
-210.479	-154.707	0.092	0.006
-209.465	-29.303	-0.293	0.167
-208.450	-200.000	-0.020	0.212
-207.436	-120.827	0.322	-0.054
-206.421	800.000	0.061	-0.231
-205.406	256.847	-0.243	-0.414
-204.392	8.944	-0.177	-0.133
-203.377	-86.580	0.281	0.086
-202.363	800.000	0.055	0.166
-201.348	-200.000	0.007	-0.089
-200.333	-176.270	0.388	-0.010
-199.319	-129.756	-0.399	0.055
-198.304	480.191	-0.074	-0.166
-197.290	547.542	-0.036	0.085
-196.275	-200.000	-0.001	0.181
-195.260	-173.142	-0.266	0.008
-194.246	238.524	0.058	0.095
-193.231	-176.485	0.522	-0.013
-192.217	283.175	-0.150	-0.268
-191.202	-49.628	0.114	-0.054
-190.187	353.227	-0.063	0.124
-189.173	-99.602	0.329	0.082
-188.158	-126.940	0.164	0.024
-187.144	334.658	-0.097	-0.186
-186.129	53.628	0.169	0.161
-185.114	-5.981	0.158	0.107
-184.100	-180.159	0.183	-0.004
-183.085	800.000	0.015	-0.063
-182.071	65.650	-0.111	-0.112
-181.056	21.908	0.100	0.081
-180.042	-86.582	-0.144	0.044
-179.027	6.987	-0.118	0.087
-178.012	227.689	0.112	0.181
-176.998	81.199	-0.157	0.168
-175.983	24.691	0.073	0.060
-174.969	-97.676	0.103	0.026
-173.954	-152.103	0.087	0.006
-172.939	-136.690	-0.165	0.019
-171.925	-38.388	-0.122	0.064
-170.910	757.431	-0.053	-0.142
-169.896	35.354	0.210	-0.183
-168.881	-95.687	-0.177	-0.047
-167.866	-45.359	0.120	0.059
-166.852	-200.000	0.004	-0.102
-165.837	-46.692	0.251	-0.122
-164.823	-0.462	-0.150	-0.105
-163.808	800.000	0.046	-0.186
-162.793	247.662	-0.083	0.139
-161.779	-163.658	-0.210	0.010
-160.764	-200.000	-0.009	0.118
-159.750	-161.773	-0.127	0.006
-158.735	-94.030	0.281	-0.077
-157.720	-129.975	-0.366	-0.050
-156.706	-44.128	-0.239	0.119
-155.691	-177.075	0.329	0.008
-154.677	68.888	-0.047	0.048
-153.662	-37.557	-0.124	-0.066
-152.647	77.959	0.222	-0.234
-151.633	-200.000	0.050	0.234
-150.618	-28.664	0.162	-0.093
-149.604	-38.999	0.246	0.129
-148.589	93.771	-0.323	0.363
-147.574	563.565	-0.065	0.156
-146.560	52.608	-0.162	0.153
-145.545	170.555	0.223	-0.317
-144.531	25.805	0.079	0.065
-143.516	-61.273	0.191	-0.080
-142.502	800.000	0.115	0.346
-141.487	800.000	-0.034	-0.103
-140.472	53.774	0.250	-0.238
-139.458	-122.960	-0.366	0.058
-138.443	-1.288	0.214	0.150
-137.429	43.152	0.119	0.108
-136.414	-127.495	0.058	0.008
-135.399	210.707	-0.137	0.213
-134.385	-68.595	0.256	0.098
-133.370	-115.605	0.118	0.022
-132.356	26.497	0.321	-0.266
-131.341	800.000	-0.068	0.249
-130.326	10.068	0.109	0.082
-129.312	800.000	-0.064	0.232
-128.297	800.000	0.030	-0.129
-127.283	-110.964	-0.038	-0.008
-126.268	-83.531	-0.135	0.043
-125.253	746.915	-0.084	0.225
-124.239	-20.477	0.359	-0.218
-123.224	14.568	-0.324	-0.251
-122.210	135.508	0.081	-0.105
-121.195	512.054	-0.032	0.073
