DTS Sentinel unit serial number:	SN413079Multiplexer serial number:	ORYXHardware model number:	OX4-SRSoftware version number:	ORYX F/W v4.00 Oryx Data Collector v3.7.2.0data status	okinstallation	princeton_trtdifferential loss correction	single-endedforward channel	channel 4reverse channel	N/Adate	2019/09/16time	16:21:34forward acquisition time	60.00reverse acquisition time	0.00gamma	496.2192k internal	0.2291k external	0.2291temperature offset calibration	0.9939default loss term (dB/km)	0.3790temperature slope calibration	1.0000multiplexer offset coefficient	1.0000multiplexer slope coefficient	1.0000fibre end	0.00T internal ref (°C)	40.47T ext. ref 1 (°C)	15.03T ext. ref 2 (°C)	34.44length (m)	temperature (°C)	Stokes	anti-Stokes-747.200	-188.954	-0.308	0.004
-746.185	-180.862	-0.129	-0.003
-745.171	108.422	-0.174	0.213
-744.156	-200.000	0.011	-0.075
-743.142	-45.669	0.193	-0.097
-742.127	-12.982	0.542	0.361
-741.112	-200.000	0.082	0.423
-740.098	-115.859	-0.060	0.012
-739.083	-200.000	0.029	-0.136
-738.069	-200.000	0.019	0.525
-737.054	103.430	0.207	0.248
-736.039	245.457	-0.133	0.230
-735.025	178.253	-0.023	0.034
-734.010	-200.000	-0.045	-0.368
-732.996	-200.000	0.019	-0.421
-731.981	-200.000	-0.009	-0.083
-730.966	21.149	-0.007	-0.006
-729.952	2.849	-0.251	0.187
-728.937	-97.643	-0.267	-0.071
-727.923	130.654	-0.211	0.276
-726.908	173.112	-0.079	0.116
-725.894	-86.937	-0.221	-0.069
-724.879	125.846	0.192	0.248
-723.864	-200.000	-0.001	-0.150
-722.850	787.077	-0.050	-0.140
-721.835	-111.421	0.196	-0.041
-720.821	-156.663	0.166	0.010
-719.806	-73.160	-0.206	-0.077
-718.791	44.650	0.201	-0.189
-717.777	24.201	-0.312	-0.264
-716.762	-200.000	0.021	0.109
-715.748	623.404	-0.030	-0.078
-714.733	-9.635	-0.145	0.099
-713.718	27.486	-0.075	-0.065
-712.704	-54.666	0.080	0.037
-711.689	-200.000	-0.009	-0.159
-710.675	800.000	-0.077	0.248
-709.660	-81.310	0.389	-0.131
-708.645	45.380	0.197	0.186
-707.631	-49.486	-0.260	-0.127
-706.616	-200.000	-0.028	-0.199
-705.602	-67.779	0.093	-0.037
-704.587	-76.041	0.359	0.130
-703.572	37.262	0.087	0.079
-702.558	265.214	-0.055	0.098
-701.543	47.805	0.111	0.106
-700.529	248.815	-0.120	-0.207
-699.514	800.000	0.097	0.409
-698.499	178.607	-0.202	0.301
-697.485	-200.000	0.029	0.134
-696.470	-9.955	-0.179	0.122
-695.456	-168.539	0.148	0.006
-694.441	-68.024	0.146	-0.058
-693.426	0.124	-0.188	0.137
-692.412	96.338	0.079	0.092
-691.397	-63.278	0.173	-0.073
-690.383	40.214	0.159	0.147
-689.368	384.794	0.138	-0.291
-688.354	695.342	-0.154	-0.413
-687.339	62.866	-0.275	-0.281
-686.324	-200.000	-0.004	0.019
-685.310	-26.429	0.340	0.204
-684.295	-150.546	0.210	0.016
-683.281	-101.728	0.126	-0.031
-682.266	-106.279	-0.185	-0.042
-681.251	-200.000	0.052	-0.354
-680.237	119.290	-0.212	-0.268
-679.222	15.096	-0.280	-0.224
-678.208	696.207	-0.071	-0.191
-677.193	-200.000	0.080	-0.368
-676.178	-23.276	-0.046	-0.029
-675.164	-9.970	0.471	0.320
-674.149	352.876	-0.027	0.054
-673.135	419.425	0.036	0.078
-672.120	121.971	0.109	0.139
-671.105	119.164	0.165	-0.208
-670.091	-85.617	0.181	0.058
-669.076	224.242	-0.112	0.184
-668.062	-61.412	0.281	0.121
-667.047	447.941	0.095	0.213
-666.032	-41.559	0.092	-0.048
-665.018	-18.375	-0.129	0.082
-664.003	141.069	-0.092	-0.124
-662.989	2.390	-0.101	0.075
-661.974	363.777	0.073	-0.150
-660.959	-200.000	-0.007	0.303
-659.945	-29.348	0.367	-0.215
-658.930	489.606	-0.171	0.399
-657.916	15.535	0.369	0.295
-656.901	11.666	0.096	0.075
-655.886	-200.000	0.030	-0.208
-654.872	499.518	-0.036	0.085
-653.857	212.946	-0.127	0.204
-652.843	-82.604	0.206	0.068
-651.828	800.000	-0.070	-0.205
-650.814	-17.141	0.229	-0.147
-649.799	75.059	-0.256	0.276
-648.784	-146.891	-0.198	-0.017
-647.770	-200.000	0.025	-0.243
-646.755	-113.346	-0.419	-0.084
-645.741	800.000	-0.047	-0.179
-644.726	-146.181	0.445	0.040
-643.711	800.000	-0.073	0.296
-642.697	-166.041	0.072	0.003
-641.682	336.573	-0.029	-0.058
-640.668	-200.000	0.025	-0.155
-639.653	800.000	0.066	0.196
-638.638	28.091	-0.249	0.215
-637.624	-104.195	-0.287	0.068
-636.609	542.299	-0.027	-0.065
-635.595	-123.947	-0.117	0.019
-634.580	304.813	0.044	0.083
-633.565	-99.509	0.170	-0.044
-632.551	-112.119	0.153	-0.031
-631.536	-200.000	-0.031	-0.230
-630.522	-6.756	-0.293	-0.203
-629.507	-55.661	-0.150	0.068
-628.492	222.364	-0.112	0.183
-627.478	-105.872	-0.206	0.047
-626.463	-67.105	0.193	-0.077
-625.449	-200.000	-0.003	-0.203
-624.434	-51.762	0.182	0.087
-623.419	318.753	0.161	0.311
-622.405	97.152	-0.272	0.318
-621.390	-69.640	0.071	-0.028
-620.376	23.060	0.007	0.006
-619.361	-62.929	-0.212	-0.089
-618.346	117.863	-0.236	-0.297
-617.332	-142.762	-0.064	0.006
-616.317	-200.000	-0.021	0.187
-615.303	-200.000	0.003	0.261
-614.288	-121.163	0.076	0.013
-613.273	291.361	0.115	-0.212
-612.259	-128.064	0.175	-0.026
-611.244	798.180	-0.042	0.119
-610.230	792.601	0.069	0.192
-609.215	800.000	-0.064	-0.232
-608.201	800.000	-0.084	-0.314
-607.186	106.507	-0.190	0.230
-606.171	563.310	-0.068	0.169
-605.157	-98.587	0.381	0.099
-604.142	103.499	-0.203	-0.242
-603.128	-168.100	0.100	0.004
-602.113	-120.691	-0.055	0.009
-601.098	113.704	-0.233	-0.288
-600.084	-96.614	-0.053	0.014
-599.069	133.115	-0.189	-0.248
-598.055	-101.548	0.077	0.019
-597.040	60.371	-0.162	-0.164
-596.025	-90.587	-0.167	0.049
-595.011	800.000	-0.026	0.075
-593.996	800.000	-0.087	0.312
-592.982	800.000	0.034	0.095
-591.967	-133.586	-0.326	-0.042
-590.952	31.716	-0.132	-0.116
-589.938	-200.000	-0.006	-0.367
-588.923	16.203	0.244	0.196
-587.909	-105.211	-0.234	0.054
-586.894	-146.058	-0.158	0.014
-585.879	165.403	0.154	0.222
-584.865	-200.000	-0.050	0.236
-583.850	105.989	0.194	0.234
-582.836	-200.000	-0.019	0.132
-581.821	109.249	-0.109	-0.133
-580.806	-153.566	0.236	0.017
-579.792	165.376	0.076	0.109
-578.777	800.000	0.063	-0.228
-577.763	147.685	-0.244	-0.335
-576.748	337.328	0.046	0.091
-575.733	354.902	0.260	-0.526
-574.719	800.000	-0.097	-0.287
-573.704	-129.562	0.367	-0.052
-572.690	-200.000	-0.021	-0.119
-571.675	40.990	0.155	-0.142
-570.661	-82.375	-0.235	0.078
-569.646	79.990	-0.212	-0.232
-568.631	162.678	-0.082	-0.117
-567.617	411.937	0.044	0.096
-566.602	208.460	0.121	0.192
-565.588	193.021	-0.200	-0.307
-564.573	311.983	-0.084	-0.159
-563.558	5.150	-0.153	-0.115
-562.544	-118.431	-0.082	0.015
-561.529	113.714	0.070	0.087
-560.515	63.325	-0.063	-0.064
-559.500	-120.546	0.132	0.023
-558.485	800.000	0.033	-0.136
-557.471	457.759	0.050	0.113
-556.456	-43.339	0.104	0.053
-555.442	-200.000	0.003	0.039
-554.427	12.280	-0.210	-0.165
-553.412	314.760	0.022	-0.042
-552.398	-51.184	-0.126	-0.060
-551.383	469.993	0.089	-0.204
-550.369	213.797	-0.049	0.079
-549.354	-96.016	-0.270	0.073
-548.339	166.732	-0.164	0.237
-547.325	-138.142	0.251	-0.028
-546.310	-85.179	0.186	0.059
-545.296	-91.680	-0.175	-0.051
-544.281	-200.000	-0.065	-0.310
-543.266	104.187	0.126	0.151
-542.252	-30.856	-0.263	-0.151
-541.237	-174.723	0.402	0.012
-540.223	-200.000	0.050	0.350
-539.208	-164.848	-0.088	0.004
-538.193	-200.000	-0.007	-0.071
-537.179	654.945	0.066	-0.171
-536.164	362.156	0.179	-0.365
-535.150	71.123	0.084	0.088
-534.135	-45.116	0.067	0.034
-533.121	-8.375	0.302	-0.206
-532.106	597.013	-0.106	-0.266
-531.091	-200.000	0.003	0.058
-530.077	63.231	0.150	0.152
-529.062	-200.000	-0.011	0.129
-528.048	-42.083	0.307	-0.160
-527.033	283.737	-0.071	-0.129
-526.018	-60.590	0.227	-0.098
-525.004	-200.000	-0.000	0.189
-523.989	-99.948	-0.065	-0.017
-522.975	106.380	-0.099	0.120
-521.960	-109.009	-0.385	0.083
-520.945	446.177	-0.088	-0.196
-519.931	-200.000	-0.032	-0.266
-518.916	800.000	0.014	0.055
-517.902	-62.049	0.320	0.136
-516.887	-97.968	0.186	0.049
-515.872	101.631	-0.133	-0.157
-514.858	800.000	0.068	0.296
-513.843	-200.000	-0.006	-0.418
-512.829	-200.000	0.083	0.373
-511.814	-106.348	-0.174	0.040
-510.799	-62.727	0.057	-0.024
-509.785	-54.122	-0.166	0.077
-508.770	28.559	-0.124	-0.107
-507.756	606.200	0.092	0.233
-506.741	-27.112	0.299	0.177
-505.726	528.960	-0.101	0.242
-504.712	-87.814	-0.058	-0.018
-503.697	13.418	-0.113	-0.089
-502.683	-41.876	-0.235	0.122
-501.668	178.114	0.063	-0.093
-500.653	-80.817	-0.091	0.031
-499.639	-200.000	-0.123	0.000
-498.624	-81.703	-0.138	-0.046
-497.610	395.657	0.068	0.143
-496.595	-67.535	-0.332	0.132
-495.581	387.495	-0.082	-0.171
-494.566	169.983	0.045	0.066
-493.551	17.475	0.090	0.073
-492.537	-74.890	-0.415	0.151
-491.522	-104.370	0.461	-0.108
-490.508	-86.458	-0.191	0.059
-489.493	-200.000	-0.005	-0.230
-488.478	-200.000	-0.003	-0.157
-487.464	124.186	-0.241	-0.307
-486.449	-200.000	-0.013	0.136
-485.435	32.766	0.012	0.011
-484.420	482.404	-0.138	0.318
-483.405	800.000	0.045	-0.186
-482.391	800.000	-0.098	0.285
-481.376	-138.693	-0.159	0.018
-480.362	-153.194	-0.406	-0.029
-479.347	374.157	0.171	-0.353
-478.332	-200.000	0.001	0.029
-477.318	15.920	0.194	0.155
-476.303	-138.862	0.265	0.029
-475.289	-70.966	0.143	-0.054
-474.274	-200.000	-0.010	0.212
-473.259	-143.695	0.139	-0.013
-472.245	83.905	0.152	-0.169
-471.230	-6.801	-0.082	0.057
-470.216	155.464	-0.144	-0.200
-469.201	-54.474	0.243	0.111
-468.186	800.000	-0.027	0.086
-467.172	-182.250	0.155	0.003
-466.157	18.618	-0.170	0.138
-465.143	-200.000	0.002	-0.065
-464.128	-72.557	0.237	0.089
-463.113	240.233	-0.116	0.195
-462.099	-38.365	0.269	0.144
-461.084	-74.636	0.346	-0.126
-460.070	-137.099	0.145	-0.017
-459.055	-200.000	0.027	-0.203
-458.040	64.450	-0.479	0.489
-457.026	-194.581	-0.153	-0.001
-456.011	203.620	-0.135	0.212
-454.997	800.000	-0.079	0.336
-453.982	-200.000	0.022	0.218
-452.968	-197.757	-0.055	-0.000
-451.953	363.089	-0.162	-0.330
-450.938	-200.000	0.017	-0.182
-449.924	6.122	0.036	-0.027
-448.909	800.000	0.011	-0.046
-447.895	-144.867	0.166	-0.015
-446.880	-125.555	-0.267	0.041
-445.865	306.915	0.155	-0.293
-444.851	800.000	-0.101	-0.392
-443.836	-148.731	-0.379	-0.031
-442.822	-122.661	0.125	0.020
-441.807	-179.756	0.156	0.003
-440.792	49.475	0.173	-0.165
-439.778	-129.243	0.252	-0.036
-438.763	28.565	-0.063	0.054
-437.749	-169.488	-0.213	-0.008
-436.734	-128.302	-0.240	0.035
-435.719	27.054	0.347	-0.295
-434.705	-79.300	-0.136	-0.047
-433.690	163.909	0.063	-0.090
-432.676	80.372	-0.095	-0.104
-431.661	-200.000	-0.003	-0.154
-430.646	800.000	0.041	0.124
-429.632	-73.465	-0.262	0.097
-428.617	-200.000	0.030	-0.379
-427.603	164.391	0.155	0.221
-426.588	143.013	-0.055	0.074
-425.573	89.234	0.089	0.100
-424.559	85.888	0.146	-0.162
-423.544	-22.941	0.022	-0.013
-422.530	-77.515	0.244	0.085
-421.515	-82.696	-0.323	0.106
-420.500	-23.468	-0.347	0.211
-419.486	578.742	0.143	-0.354
-418.471	214.926	-0.148	0.237
-417.457	2.138	0.188	0.137
-416.442	-200.000	-0.013	-0.175
-415.428	-79.266	-0.087	-0.030
-414.413	-64.411	0.276	-0.114
-413.398	-28.329	0.218	-0.127
-412.384	800.000	0.077	-0.326
-411.369	-19.687	0.326	-0.204
-410.355	395.638	0.184	0.389
-409.340	-200.000	0.022	0.099
-408.325	-68.924	0.286	-0.111
-407.311	-63.602	-0.332	-0.138
-406.296	-39.794	-0.223	0.118
-405.282	69.142	0.221	-0.229
-404.267	486.672	0.174	-0.402
-403.252	651.356	0.076	-0.196
-402.238	60.713	0.043	-0.043
-401.223	-92.624	0.280	0.079
-400.209	192.261	-0.047	0.071
-399.194	297.114	0.083	0.154
-398.179	-76.337	0.047	0.017
-397.165	125.748	-0.162	0.207
-396.150	126.414	-0.057	0.073
-395.136	-27.812	0.198	0.116
-394.121	800.000	-0.031	-0.110
-393.106	-92.874	-0.093	0.026
-392.092	800.000	0.116	0.408
-391.077	86.841	-0.187	0.209
-390.063	-48.049	0.557	0.272
-389.048	-200.000	0.006	-0.039
-388.033	582.170	-0.153	0.380
-387.019	-44.205	0.286	0.145
-386.004	-200.000	-0.007	0.292
-384.990	-77.836	-0.262	0.091
-383.975	-200.000	0.022	0.514
-382.960	-200.000	-0.001	0.111
-381.946	6.407	-0.117	-0.087
-380.931	-127.707	0.363	0.053
-379.917	75.881	-0.170	-0.182
-378.902	34.939	0.121	0.107
-377.888	56.167	-0.133	-0.130
-376.873	-173.556	0.122	-0.004
-375.858	6.951	0.298	-0.224
-374.844	17.929	0.194	-0.156
-373.829	-138.351	-0.073	0.008
-372.815	-9.308	0.056	0.038
-371.800	-200.000	-0.056	0.614
-370.785	154.125	0.166	0.229
-369.771	-143.811	-0.105	0.010
-368.756	-153.467	-0.121	0.008
-367.742	-62.379	-0.095	0.040
-366.727	-200.000	0.032	0.545
-365.712	164.520	0.200	0.285
-364.698	-200.000	0.014	0.261
-363.683	-25.656	-0.129	0.077
-362.669	800.000	0.128	0.387
-361.654	-184.053	-0.112	0.002
-360.639	156.693	0.086	-0.120
-359.625	-200.000	-0.027	0.134
-358.610	-137.355	0.266	-0.030
-357.596	800.000	0.026	0.098
-356.581	-200.000	-0.004	-0.135
-355.566	21.819	0.215	-0.177
-354.552	800.000	-0.140	0.535
-353.537	45.242	-0.126	-0.118
-352.523	-103.971	-0.310	0.073
-351.508	135.802	-0.285	-0.374
-350.493	-55.874	0.041	-0.018
-349.479	-23.599	0.271	-0.164
-348.464	800.000	0.093	-0.324
-347.450	-86.409	-0.082	-0.026
-346.435	51.298	0.108	0.103
-345.420	-144.213	-0.225	0.021
-344.406	-126.347	0.135	0.020
-343.391	228.841	0.099	0.163
-342.377	3.115	0.202	-0.148
-341.362	196.572	-0.151	-0.232
-340.348	62.165	0.186	-0.187
-339.333	33.441	0.105	-0.092
-338.318	800.000	0.045	0.183
-337.304	-200.000	0.044	0.254
-336.289	800.000	0.105	-0.352
-335.275	133.524	-0.211	0.275
-334.260	-88.487	0.147	0.044
-333.245	-174.040	0.132	-0.004
-332.231	-16.795	-0.064	0.041
-331.216	229.291	0.089	0.146
-330.202	-10.698	-0.276	-0.184
-329.187	-123.927	-0.264	0.042
-328.172	-1.861	-0.022	0.015
-327.158	265.377	0.165	0.290
-326.143	411.581	-0.102	0.219
-325.129	-135.875	0.292	0.035
-324.114	-200.000	-0.046	-0.334
-323.099	-200.000	0.005	-0.156
-322.085	342.283	0.037	0.074
-321.070	126.063	0.108	0.137
-320.056	634.747	-0.025	-0.063
-319.041	-21.775	0.191	-0.117
-318.026	800.000	0.069	0.197
-317.012	17.950	-0.132	-0.106
-315.997	330.113	0.219	-0.425
-314.983	-123.292	-0.308	0.049
-313.968	52.372	-0.123	-0.119
-312.953	-138.299	-0.208	0.023
-311.939	-149.860	-0.128	-0.010
-310.924	-98.843	0.232	-0.059
-309.910	-111.506	-0.088	0.018
-308.895	-175.252	0.044	-0.001
-307.880	81.211	0.278	-0.303
-306.866	-17.677	0.224	-0.142
-305.851	-35.378	-0.310	0.170
-304.837	24.652	-0.069	0.057
-303.822	-138.106	-0.163	-0.018
-302.807	26.087	0.173	0.146
-301.793	-8.203	0.301	0.204
-300.778	-200.000	0.023	0.185
-299.764	-51.269	0.206	-0.097
-298.749	22.909	-0.269	-0.222
-297.735	191.699	0.270	-0.410
-296.720	-3.500	0.113	0.079
-295.705	122.057	-0.157	-0.197
-294.691	-200.000	0.038	0.176
-293.676	190.627	0.119	0.180
-292.662	118.795	-0.203	0.252
-291.647	690.283	-0.095	-0.251
-290.632	-181.005	0.358	0.007
-289.618	-128.261	-0.110	-0.016
-288.603	439.801	0.090	-0.197
-287.589	700.548	-0.064	-0.170
-286.574	-68.549	0.204	-0.080
-285.559	800.000	0.014	-0.049
-284.545	-171.735	-0.091	-0.003
-283.530	800.000	0.059	-0.202
-282.516	-69.264	0.103	-0.040
-281.501	-20.058	-0.270	0.167
-280.486	800.000	0.035	-0.148
-279.472	654.329	0.029	-0.074
-278.457	-30.074	-0.246	-0.141
-277.443	-200.000	0.008	-0.251
-276.428	-200.000	-0.031	0.256
-275.413	-20.880	-0.077	-0.047
-274.399	165.546	-0.124	-0.176
-273.384	38.380	0.159	0.143
-272.370	-200.000	0.016	-0.503
-271.355	-200.000	0.013	0.196
-270.340	800.000	-0.036	-0.137
-269.326	-9.739	-0.154	0.103
-268.311	51.408	0.275	0.262
-267.297	-200.000	0.020	-0.615
-266.282	8.196	0.302	-0.228
-265.267	-200.000	0.049	0.235
-264.253	56.224	0.248	0.242
-263.238	59.784	-0.086	0.085
-262.224	80.315	-0.274	-0.296
-261.209	104.663	-0.041	-0.049
-260.195	615.779	0.098	-0.247
-259.180	-200.000	0.033	0.292
-258.165	800.000	-0.020	0.059
-257.151	800.000	-0.005	0.019
-256.136	57.151	0.104	0.102
-255.122	-87.533	-0.242	-0.074
-254.107	668.194	0.089	-0.230
-253.092	0.099	0.283	0.202
-252.078	166.196	-0.147	0.209
-251.063	248.149	-0.088	-0.150
-250.049	148.937	0.139	-0.188
-249.034	800.000	0.055	0.186
-248.019	240.035	0.159	0.266
-247.005	-163.110	-0.153	0.007
-245.990	-39.996	0.074	-0.039
-244.976	-129.669	-0.101	0.014
-243.961	800.000	0.054	0.151
-242.946	-19.404	-0.063	-0.039
-241.932	-200.000	-0.044	-0.214
-240.917	18.709	-0.130	0.104
-239.903	-170.024	0.248	0.009
-238.888	-150.129	-0.097	0.008
-237.873	180.414	0.175	0.258
-236.859	89.646	0.076	-0.085
-235.844	800.000	-0.039	0.167
-234.830	-71.663	-0.419	0.157
-233.815	467.158	0.026	0.059
-232.800	3.912	-0.209	-0.153
-231.786	31.705	-0.241	0.208
-230.771	-75.935	0.348	-0.124
-229.757	177.754	-0.265	-0.388
-228.742	800.000	-0.123	0.375
-227.727	-15.271	0.135	-0.087
-226.713	49.488	-0.103	0.098
-225.698	586.027	0.030	0.074
-224.684	6.533	0.193	-0.144
-223.669	66.104	-0.116	-0.118
-222.655	124.784	-0.259	-0.328
-221.640	-120.550	0.213	-0.036
-220.625	333.148	0.038	-0.073
-219.611	800.000	-0.074	-0.209
-218.596	11.940	-0.061	-0.047
-217.582	-127.661	0.265	-0.038
-216.567	800.000	0.027	0.111
-215.552	-8.394	-0.657	0.443
-214.538	45.093	-0.089	0.083
-213.523	800.000	0.014	-0.062
-212.509	-69.783	0.273	-0.104
-211.494	-3.338	-0.045	-0.031
-210.479	223.701	0.104	0.168
-209.465	-32.898	0.226	0.126
-208.450	-30.660	0.134	0.076
-207.436	-200.000	-0.031	0.179
-206.421	142.214	-0.095	0.126
-205.406	518.690	-0.153	-0.358
-204.392	100.395	-0.083	-0.096
-203.377	-200.000	-0.069	0.354
-202.363	-110.801	-0.277	-0.057
-201.348	-19.819	-0.213	-0.132
-200.333	-200.000	0.071	-0.349
-199.319	445.488	-0.134	0.294
-198.304	-32.922	0.127	0.071
-197.290	-191.765	-0.101	0.001
-196.275	159.113	0.091	-0.127
-195.260	291.274	0.072	0.131
-194.246	61.482	0.055	-0.055
-193.231	133.478	-0.246	0.318
-192.217	99.109	-0.026	0.030
-191.202	-200.000	-0.027	0.198
-190.187	-76.164	0.320	0.113
-189.173	415.918	0.059	0.125
-188.158	124.578	-0.244	0.308
-187.144	-4.765	-0.254	-0.175
-186.129	-38.720	0.098	0.052
-185.114	-189.254	-0.079	-0.001
-184.100	143.329	-0.031	0.041
-183.085	-3.520	0.097	0.068
-182.071	117.293	0.158	-0.194
-181.056	-196.283	-0.307	-0.002
-180.042	170.330	0.104	0.150
-179.027	-150.723	0.273	-0.021
-178.012	-23.737	0.101	0.060
-176.998	344.740	-0.077	-0.151
-175.983	370.876	-0.158	-0.320
-174.969	-98.800	0.018	-0.004
-173.954	800.000	-0.020	0.080
-172.939	-117.306	0.561	0.102
-171.925	229.131	-0.073	0.119
-170.910	-133.029	0.066	-0.008
-169.896	-127.415	0.029	0.004
-168.881	800.000	-0.031	0.114
-167.866	-200.000	0.009	-0.321
-166.852	23.897	0.114	0.094
-165.837	-200.000	-0.052	-0.256
-164.823	115.259	0.056	0.068
-163.808	181.593	-0.180	-0.265
-162.793	-24.167	-0.049	-0.029
-161.779	800.000	-0.122	-0.366
-160.764	800.000	-0.104	0.345
-159.750	632.890	0.074	0.189
-158.735	44.781	0.206	0.190
-157.720	-200.000	-0.024	0.133
-156.706	800.000	-0.123	-0.401
-155.691	-103.514	0.136	-0.032
-154.677	-62.202	-0.162	-0.067
-153.662	-87.238	-0.122	0.037
-152.647	-191.118	0.234	-0.002
-151.633	-200.000	0.036	-0.262
-150.618	-200.000	0.020	-0.306
-149.604	-93.658	0.320	-0.088
-148.589	-28.224	0.174	-0.100
-147.574	-58.111	0.111	-0.048
-146.560	-111.529	-0.073	-0.015
-145.545	-117.787	0.261	-0.047
-144.531	-129.493	-0.221	0.031
-143.516	-125.281	-0.145	-0.022
-142.502	95.351	0.184	-0.210
-141.487	145.302	0.275	0.368
-140.472	800.000	-0.064	-0.199
-139.458	64.619	0.210	-0.212
-138.443	-67.304	-0.082	-0.032
-137.429	77.145	-0.015	0.016
-136.414	-4.486	0.198	-0.137
-135.399	-14.669	0.327	-0.210
-134.385	-5.815	0.183	0.126
-133.370	603.175	0.039	0.098
-132.356	180.043	0.009	0.013
-131.341	1.439	0.184	-0.132
-130.326	-190.062	-0.275	0.003
-129.312	-124.544	-0.095	-0.015
-128.297	-3.895	-0.104	-0.072
-127.283	266.175	-0.184	-0.321
-126.268	-42.433	0.242	-0.123
-125.253	-176.323	0.393	-0.010
-124.239	750.981	-0.080	0.215
-123.224	-200.000	-0.064	0.342
-122.210	800.000	-0.126	0.369
-121.195	-200.000	-0.021	0.227
-120.180	-200.000	-0.008	0.149
