DTS Sentinel unit serial number:	SN413079Multiplexer serial number:	ORYXHardware model number:	OX4-SRSoftware version number:	ORYX F/W v4.00 Oryx Data Collector v3.7.2.0data status	okinstallation	princeton_trtdifferential loss correction	single-endedforward channel	channel 4reverse channel	N/Adate	2019/09/13time	04:29:35forward acquisition time	60.00reverse acquisition time	0.00gamma	496.2192k internal	0.2321k external	0.2321temperature offset calibration	1.0196default loss term (dB/km)	0.3790temperature slope calibration	1.0000multiplexer offset coefficient	1.0000multiplexer slope coefficient	1.0000fibre end	0.00T internal ref (°C)	26.69T ext. ref 1 (°C)	4.05T ext. ref 2 (°C)	21.20length (m)	temperature (°C)	Stokes	anti-Stokes-747.200	800.000	-0.138	0.421
-746.185	19.606	0.274	0.223
-745.171	-49.785	0.158	0.076
-744.156	800.000	-0.154	0.447
-743.142	-113.440	0.222	0.044
-742.127	208.510	-0.166	0.262
-741.112	565.741	0.091	-0.224
-740.098	-43.527	0.199	-0.101
-739.083	-0.316	0.184	0.132
-738.069	800.000	0.059	0.235
-737.054	119.394	-0.191	0.239
-736.039	592.395	0.052	0.129
-735.025	109.974	0.319	0.386
-734.010	800.000	0.057	-0.199
-732.996	205.647	-0.137	-0.215
-731.981	5.467	-0.167	0.125
-730.966	338.694	-0.249	-0.490
-729.952	-86.210	-0.210	-0.065
-728.937	373.029	-0.101	0.207
-727.923	-64.454	-0.137	0.056
-726.908	-155.744	0.191	0.012
-725.894	287.891	0.101	-0.185
-724.879	-200.000	-0.129	0.585
-723.864	-17.735	0.199	0.126
-722.850	-2.611	0.080	0.056
-721.835	-112.117	-0.034	0.007
-720.821	-84.157	-0.025	0.008
-719.806	-20.261	-0.233	-0.145
-718.791	273.115	0.138	-0.246
-717.777	-200.000	0.034	0.181
-716.762	-200.000	0.033	0.280
-715.748	7.442	-0.411	-0.310
-714.733	140.573	-0.234	-0.312
-713.718	-50.067	0.246	-0.118
-712.704	-115.325	-0.158	-0.030
-711.689	-179.585	0.268	-0.006
-710.675	-200.000	0.031	0.264
-709.660	-112.466	-0.229	0.046
-708.645	149.183	0.083	0.113
-707.631	-200.000	0.042	0.328
-706.616	-148.956	0.200	-0.016
-705.602	800.000	0.081	0.236
-704.587	95.507	0.120	0.138
-703.572	-82.444	-0.097	0.032
-702.558	800.000	-0.030	0.112
-701.543	-99.980	-0.229	0.058
-700.529	-0.598	-0.075	0.054
-699.514	-86.912	-0.259	-0.080
-698.499	-99.957	-0.053	0.013
-697.485	800.000	-0.036	-0.115
-696.470	387.768	0.051	-0.106
-695.456	-182.520	0.302	-0.006
-694.441	-63.922	-0.181	0.075
-693.426	212.559	0.295	0.470
-692.412	281.273	0.093	-0.167
-691.397	-132.026	0.084	0.011
-690.383	79.164	-0.242	0.262
-689.368	-96.037	-0.066	-0.018
-688.354	-157.831	-0.167	0.010
-687.339	-200.000	-0.052	-0.440
-686.324	-70.561	-0.327	-0.125
-685.310	800.000	0.112	-0.326
-684.295	-200.000	0.001	-0.277
-683.281	800.000	0.011	0.041
-682.266	208.650	-0.117	0.185
-681.251	-61.884	-0.216	-0.091
-680.237	-200.000	-0.012	-0.180
-679.222	251.724	-0.302	-0.519
-678.208	-76.855	0.163	-0.057
-677.193	70.445	0.095	0.099
-676.178	-200.000	0.013	0.071
-675.164	85.022	-0.291	0.322
-674.149	-49.027	0.272	0.131
-673.135	105.038	0.112	-0.134
-672.120	246.293	-0.084	0.142
-671.105	63.772	-0.231	0.234
-670.091	51.690	0.200	-0.191
-669.076	740.753	0.033	-0.089
-668.062	-63.075	-0.117	0.049
-667.047	800.000	-0.088	-0.325
-666.032	744.473	-0.054	0.148
-665.018	113.964	-0.119	-0.146
-664.003	76.840	0.133	-0.142
-662.989	195.018	-0.189	-0.289
-661.974	94.643	-0.096	0.110
-660.959	148.828	0.100	-0.136
-659.945	-21.244	-0.117	0.072
-658.930	129.957	-0.126	-0.163
-657.916	138.132	-0.172	-0.227
-656.901	473.788	0.073	-0.166
-655.886	30.654	0.246	0.212
-654.872	-65.585	-0.387	0.156
-653.857	-200.000	-0.004	-0.047
-652.843	-66.999	0.220	0.088
-651.828	-200.000	-0.007	-0.033
-650.814	25.763	-0.132	-0.111
-649.799	-200.000	-0.052	0.376
-648.784	-188.098	-0.037	0.000
-647.770	-71.486	-0.242	-0.091
-646.755	232.306	0.097	0.161
-645.741	-68.522	0.119	0.046
-644.726	-200.000	0.002	-0.201
-643.711	-200.000	0.038	0.405
-642.697	800.000	-0.044	-0.195
-641.682	-184.778	0.228	-0.004
-640.668	800.000	-0.045	0.137
-639.653	-18.943	-0.103	0.064
-638.638	42.854	0.194	0.178
-637.624	-200.000	0.009	-0.086
-636.609	-37.565	-0.194	0.104
-635.595	61.091	0.055	0.055
-634.580	-107.614	-0.027	-0.006
-633.565	41.364	-0.069	-0.063
-632.551	-200.000	-0.034	-0.201
-631.536	207.648	-0.036	-0.056
-630.522	-166.918	-0.229	-0.009
-629.507	800.000	-0.030	-0.105
-628.492	319.162	0.154	-0.293
-627.478	176.192	0.027	0.039
-626.463	-149.295	-0.226	0.018
-625.449	50.862	0.056	-0.054
-624.434	-1.111	0.238	-0.169
-623.419	-87.276	-0.344	0.105
-622.405	-46.321	-0.244	0.121
-621.390	-200.000	-0.014	0.292
-620.376	-200.000	-0.088	-0.497
-619.361	800.000	0.064	-0.257
-618.346	-130.655	0.060	-0.008
-617.332	7.330	-0.164	-0.123
-616.317	-200.000	-0.049	0.255
-615.303	800.000	0.068	-0.223
-614.288	-53.028	-0.188	-0.087
-613.273	-88.101	-0.113	0.034
-612.259	57.543	-0.229	-0.225
-611.244	-200.000	0.025	-0.150
-610.230	193.821	-0.078	0.118
-609.215	45.936	-0.318	-0.296
-608.201	-99.581	0.155	-0.039
-607.186	-25.135	0.194	-0.116
-606.171	-0.414	0.277	0.198
-605.157	-58.122	-0.245	-0.107
-604.142	-200.000	-0.011	-0.071
-603.128	800.000	0.019	0.077
-602.113	78.210	-0.071	-0.077
-601.098	800.000	0.036	0.114
-600.084	-200.000	-0.026	0.243
-599.069	-43.247	-0.384	-0.195
-598.055	384.659	0.139	0.288
-597.040	-136.864	-0.253	-0.029
-596.025	-200.000	0.015	-0.123
-595.011	85.411	-0.032	-0.035
-593.996	-66.035	0.098	0.039
-592.982	454.075	-0.036	0.080
-591.967	402.235	0.038	0.080
-590.952	-200.000	0.022	-0.195
-589.938	122.798	-0.169	-0.212
-588.923	50.424	-0.110	0.104
-587.909	210.552	-0.096	-0.152
-586.894	94.076	0.286	0.326
-585.879	-55.724	0.111	0.050
-584.865	-200.000	0.025	0.189
-583.850	800.000	-0.161	0.473
-582.836	147.982	-0.132	0.179
-581.821	-200.000	-0.044	0.246
-580.806	314.635	-0.062	-0.117
-579.792	800.000	-0.187	-0.545
-578.777	233.357	0.050	0.083
-577.763	-193.641	-0.212	0.002
-576.748	46.947	-0.163	-0.152
-575.733	-200.000	0.043	-0.401
-574.719	-12.814	-0.312	-0.204
-573.704	-200.000	0.011	0.143
-572.690	-55.710	-0.337	0.151
-571.675	65.084	0.123	0.125
-570.661	13.412	0.095	-0.074
-569.646	-79.218	0.072	0.024
-568.631	-200.000	-0.079	0.000
-567.617	8.342	-0.340	-0.257
-566.602	369.607	-0.141	-0.288
-565.588	195.803	-0.127	0.194
-564.573	-108.237	0.248	-0.054
-563.558	117.289	0.082	0.101
-562.544	-111.013	-0.161	0.033
-561.529	-200.000	0.004	-0.064
-560.515	800.000	-0.075	0.311
-559.500	-37.794	-0.277	0.148
-558.485	708.370	-0.119	-0.316
-557.471	86.343	-0.070	-0.078
-556.456	-138.792	0.088	0.010
-555.442	7.560	0.150	-0.113
-554.427	-50.545	-0.085	-0.040
-553.412	760.514	0.017	-0.045
-552.398	305.064	-0.095	-0.176
-551.383	-54.425	0.085	0.039
-550.369	-200.000	-0.026	-0.286
-549.354	800.000	0.018	-0.063
-548.339	146.827	-0.270	-0.364
-547.325	-200.000	0.068	-0.389
-546.310	-120.984	-0.091	-0.015
-545.296	-0.920	0.200	-0.142
-544.281	407.721	0.112	0.238
-543.266	-177.131	-0.105	-0.003
-542.252	17.029	-0.096	-0.076
-541.237	61.903	-0.081	0.081
-540.223	161.896	-0.126	0.177
-539.208	-169.339	-0.256	-0.009
-538.193	-104.097	0.467	-0.109
-537.179	261.589	-0.233	-0.405
-536.164	68.791	-0.052	-0.054
-535.150	-88.680	0.273	-0.081
-534.135	800.000	-0.039	-0.135
-533.121	27.359	-0.273	-0.230
-532.106	-200.000	0.019	-0.272
-531.091	-200.000	-0.016	0.182
-530.077	-200.000	-0.009	0.199
-529.062	-102.582	0.166	0.040
-528.048	98.566	0.111	0.128
-527.033	-200.000	0.015	0.116
-526.018	-14.560	-0.151	0.098
-525.004	-200.000	0.018	-0.213
-523.989	294.106	-0.083	-0.153
-522.975	-125.197	-0.122	0.019
-521.960	-200.000	-0.062	0.334
-520.945	-36.893	0.224	0.120
-519.931	800.000	0.051	-0.201
-518.916	2.363	0.102	-0.074
-517.902	-84.505	0.218	-0.069
-516.887	-7.986	0.109	-0.073
-515.872	-134.078	0.028	-0.004
-514.858	-200.000	-0.027	-0.274
-513.843	-24.444	0.238	0.142
-512.829	800.000	-0.017	-0.076
-511.814	-200.000	0.048	-0.307
-510.799	-200.000	-0.018	-0.101
-509.785	69.540	0.175	-0.181
-508.770	800.000	-0.066	0.184
-507.756	407.760	-0.030	0.063
-506.741	192.198	-0.122	-0.185
-505.726	-200.000	-0.006	0.209
-504.712	785.799	0.080	0.219
-503.697	-157.043	-0.186	-0.011
-502.683	32.949	-0.212	-0.184
-501.668	530.382	0.106	-0.250
-500.653	-200.000	-0.002	-0.437
-499.639	0.039	-0.268	0.191
-498.624	-99.695	0.390	0.098
-497.610	78.167	0.031	-0.033
-496.595	93.609	-0.172	0.196
-495.581	23.881	0.329	0.272
-494.566	-200.000	0.024	0.187
-493.551	-64.009	-0.293	-0.120
-492.537	-86.875	-0.158	0.048
-491.522	-119.489	-0.303	-0.053
-490.508	-54.911	0.362	-0.163
-489.493	-200.000	-0.013	0.206
-488.478	-57.316	0.212	0.093
-487.464	-200.000	-0.031	0.181
-486.449	-85.195	-0.333	0.104
-485.435	-122.124	0.130	0.021
-484.420	-175.108	0.124	0.003
-483.405	-44.178	-0.302	-0.152
-482.391	-7.119	0.094	0.064
-481.376	-85.423	-0.061	0.019
-480.362	800.000	-0.051	-0.191
-479.347	-147.950	0.038	0.003
-478.332	173.412	-0.182	-0.262
-477.318	-181.954	0.232	-0.004
-476.303	-81.532	0.252	0.083
-475.289	89.667	-0.104	-0.116
-474.274	-200.000	-0.040	0.206
-473.259	24.291	-0.243	-0.201
-472.245	-181.334	-0.314	-0.006
-471.230	-200.000	-0.010	0.153
-470.216	-200.000	0.022	-0.256
-469.201	-38.654	0.191	-0.101
-468.186	-108.387	-0.222	0.048
-467.172	-200.000	-0.043	-0.391
-466.157	-103.417	-0.188	0.044
-465.143	207.886	0.152	-0.237
-464.128	-149.970	-0.239	-0.019
-463.113	26.531	0.056	0.047
-462.099	5.656	0.261	-0.193
-461.084	-100.185	0.199	0.049
-460.070	157.715	0.154	-0.213
-459.055	800.000	0.085	0.283
-458.040	-200.000	-0.039	0.223
-457.026	-200.000	0.047	0.327
-456.011	800.000	-0.077	0.330
-454.997	-24.896	-0.177	0.105
-453.982	800.000	0.058	0.245
-452.968	-188.502	0.175	-0.002
-451.953	670.162	-0.139	-0.360
-450.938	119.143	0.060	-0.074
-449.924	352.153	0.088	-0.173
-448.909	-36.506	0.074	-0.040
-447.895	115.168	0.110	0.134
-446.880	-200.000	-0.035	0.433
-445.865	18.679	-0.140	-0.112
-444.851	40.913	-0.155	0.140
-443.836	-8.317	-0.103	0.069
-442.822	800.000	-0.060	-0.195
-441.807	-127.190	0.517	0.075
-440.792	167.076	-0.069	-0.098
-439.778	-50.281	0.077	0.036
-438.763	-172.398	0.162	-0.005
-437.749	192.435	-0.166	0.250
-436.734	-16.571	0.382	-0.241
-435.719	-200.000	0.034	-0.247
-434.705	101.183	-0.305	-0.355
-433.690	800.000	0.058	0.210
-432.676	800.000	-0.095	0.281
-431.661	55.823	0.163	0.157
-430.646	367.649	0.103	-0.207
-429.632	120.465	-0.073	0.090
-428.617	45.255	0.202	0.186
-427.603	206.133	-0.191	-0.297
-426.588	-7.079	0.081	0.055
-425.573	-200.000	-0.007	-0.233
-424.559	592.163	-0.065	0.160
-423.544	-104.703	-0.101	0.023
-422.530	492.620	0.119	0.272
-421.515	-115.240	-0.333	0.063
-420.500	337.959	-0.131	0.254
-419.486	-41.532	0.129	0.066
-418.471	-43.022	0.265	0.134
-417.457	-131.217	0.404	0.054
-416.442	800.000	0.084	-0.290
-415.428	35.844	-0.331	0.290
-414.413	800.000	0.046	-0.150
-413.398	718.008	-0.018	-0.049
-412.384	-163.564	-0.503	0.024
-411.369	-200.000	0.022	-0.186
-410.355	347.646	-0.100	-0.196
-409.340	40.501	-0.106	0.095
-408.325	-51.523	-0.414	-0.193
-407.311	382.879	0.104	-0.214
-406.296	-14.013	0.072	-0.046
-405.282	57.869	0.134	-0.130
-404.267	-200.000	0.005	-0.048
-403.252	800.000	0.048	-0.204
-402.238	264.654	0.092	0.160
-401.223	-200.000	-0.024	-0.418
-400.209	424.166	-0.078	0.168
-399.194	-200.000	-0.008	-0.437
-398.179	-200.000	-0.024	0.311
-397.165	35.098	-0.245	0.214
-396.150	-74.654	0.371	0.133
-395.136	65.592	0.069	-0.069
-394.121	-68.749	-0.250	-0.096
-393.106	65.710	0.316	-0.319
-392.092	199.821	0.188	0.288
-391.077	-182.496	-0.212	0.004
-390.063	4.622	-0.160	0.117
-389.048	562.396	-0.055	-0.131
-388.033	19.972	-0.081	-0.065
-387.019	-28.145	0.154	-0.089
-386.004	18.833	0.211	-0.168
-384.990	125.598	-0.235	0.295
-383.975	-90.851	0.291	0.084
-382.960	228.893	-0.024	-0.039
-381.946	800.000	0.049	0.188
-380.931	297.653	-0.027	0.050
-379.917	-39.318	-0.142	0.074
-378.902	615.129	-0.081	0.202
-377.888	-34.193	-0.159	0.087
-376.873	-91.641	-0.152	-0.043
-375.858	-37.510	0.398	0.212
-374.844	1.976	-0.159	0.114
-373.829	-200.000	0.020	-0.111
-372.815	-28.931	-0.162	0.093
-371.800	-95.364	0.149	0.040
-370.785	146.333	0.146	0.195
-369.771	-66.427	0.228	-0.090
-368.756	88.711	0.240	0.266
-367.742	800.000	0.035	0.140
-366.727	-200.000	0.069	-0.372
-365.712	800.000	0.055	-0.191
-364.698	23.762	0.151	-0.124
-363.683	-23.283	0.245	0.147
-362.669	135.631	0.248	-0.321
-361.654	111.991	-0.151	-0.182
-360.639	800.000	0.134	-0.424
-359.625	102.549	-0.112	-0.130
-358.610	-36.340	0.211	-0.113
-357.596	-200.000	-0.065	-0.329
-356.581	-103.312	0.307	0.072
-355.566	-117.576	0.026	-0.005
-354.552	-114.628	0.076	0.015
-353.537	735.249	0.149	0.396
-352.523	-105.148	-0.069	0.016
-351.508	-200.000	-0.026	0.194
-350.493	-200.000	-0.018	0.274
-349.479	37.233	-0.084	-0.074
-348.464	-165.070	0.192	0.008
-347.450	-200.000	0.008	-0.086
-346.435	96.408	-0.266	-0.303
-345.420	487.568	0.131	0.297
-344.406	160.853	0.136	0.189
-343.391	51.691	0.041	-0.039
-342.377	-133.001	0.284	0.036
-341.362	-107.034	0.157	-0.034
-340.348	50.227	-0.187	-0.175
-339.333	-200.000	0.037	0.215
-338.318	164.448	0.163	0.229
-337.304	-79.302	-0.063	-0.021
-336.289	-200.000	-0.019	0.179
-335.275	-124.711	-0.108	-0.017
-334.260	40.222	-0.418	0.374
-333.245	-200.000	-0.000	0.163
-332.231	-34.216	-0.135	-0.073
-331.216	-10.403	0.120	-0.079
-330.202	190.759	0.116	0.174
-329.187	800.000	0.073	0.234
-328.172	-149.134	0.216	0.017
-327.158	-134.017	-0.051	0.006
-326.143	439.833	-0.112	-0.244
-325.129	-67.189	0.034	0.013
-324.114	496.651	0.145	-0.331
-323.099	266.061	0.085	0.147
-322.085	286.572	0.101	0.181
-321.070	-200.000	0.035	0.207
-320.056	43.918	0.247	-0.225
-319.041	-125.860	-0.226	0.034
-318.026	235.660	0.024	0.040
-317.012	-124.878	-0.220	0.034
-315.997	-200.000	-0.003	0.347
-314.983	108.629	0.058	0.068
-313.968	-28.097	-0.078	-0.045
-312.953	-146.051	-0.342	-0.030
-311.939	375.530	0.127	0.258
-310.924	-105.807	-0.426	-0.096
-309.910	-8.167	0.349	-0.234
-308.895	47.558	0.162	0.150
-307.880	142.892	-0.267	0.353
-306.866	-31.648	-0.096	0.054
-305.851	-82.000	0.243	0.079
-304.837	800.000	-0.029	0.082
-303.822	510.070	-0.101	-0.234
-302.807	-84.248	0.214	-0.067
-301.793	-200.000	-0.011	0.083
-300.778	-200.000	-0.015	-0.238
-299.764	638.717	0.023	-0.058
-298.749	78.488	-0.184	-0.196
-297.735	-29.305	-0.198	0.113
-296.720	-9.735	0.299	-0.198
-295.705	20.267	0.231	0.186
-294.691	13.304	0.146	0.112
-293.676	444.050	0.068	0.148
-292.662	-200.000	-0.011	-0.130
-291.647	-141.672	-0.172	0.017
-290.632	129.941	-0.125	-0.158
-289.618	-124.803	0.067	0.010
-288.603	-141.762	-0.102	0.010
-287.589	-200.000	-0.033	0.306
-286.574	144.492	-0.145	0.193
-285.559	-200.000	0.003	-0.121
-284.545	-51.914	-0.499	0.231
-283.530	-200.000	-0.093	0.476
-282.516	475.787	-0.129	0.290
-281.501	-167.872	-0.132	-0.005
-280.486	-111.417	0.233	0.047
-279.472	354.914	-0.082	-0.162
-278.457	-51.576	0.353	-0.163
-277.443	800.000	0.150	0.623
-276.428	32.488	0.096	0.082
-275.413	330.440	-0.062	0.118
-274.399	-56.572	-0.203	0.089
-273.384	800.000	-0.066	0.247
-272.370	-152.552	0.162	-0.012
-271.355	-158.992	-0.213	-0.012
-270.340	-200.000	0.061	0.268
-269.326	800.000	-0.030	0.105
-268.311	-200.000	0.030	-0.285
-267.297	-200.000	0.059	0.332
-266.282	-101.107	0.262	-0.064
-265.267	-144.654	-0.265	0.024
-264.253	-47.955	0.237	-0.114
-263.238	136.281	0.149	-0.192
-262.224	590.117	-0.071	0.173
-261.209	15.009	-0.138	0.107
-260.195	-200.000	0.028	-0.250
-259.180	238.189	-0.121	-0.199
-258.165	9.781	0.142	0.107
-257.151	107.583	0.256	0.303
-256.136	-125.939	0.149	0.022
-255.122	-200.000	0.015	0.175
-254.107	401.944	-0.058	-0.122
-253.092	187.340	0.171	0.252
-252.078	158.994	-0.143	-0.197
-251.063	-133.447	0.057	0.007
-250.049	-200.000	0.041	0.328
-249.034	71.954	-0.130	0.134
-248.019	-32.798	0.238	-0.131
-247.005	6.492	0.096	-0.071
-245.990	-124.023	0.229	-0.036
-244.976	-90.160	0.108	0.031
-243.961	368.932	0.034	0.068
-242.946	-200.000	-0.013	-0.108
-241.932	334.545	-0.162	-0.311
-240.917	88.199	-0.137	0.151
-239.903	-10.850	-0.195	-0.128
-238.888	183.735	-0.126	-0.185
-237.873	127.915	0.184	0.232
-236.859	-123.386	0.102	-0.016
-235.844	-93.237	-0.234	0.064
-234.830	-200.000	-0.003	0.360
-233.815	76.199	0.081	0.085
-232.800	800.000	-0.110	-0.312
-231.786	800.000	-0.074	-0.322
-230.771	-200.000	0.004	-0.037
-229.757	-100.773	-0.151	-0.037
-228.742	-200.000	0.015	0.434
-227.727	-110.516	0.341	-0.070
-226.713	-200.000	-0.042	0.462
-225.698	-50.677	-0.272	-0.127
-224.684	0.717	-0.067	-0.047
-223.669	33.376	0.062	0.053
-222.655	-60.799	0.320	0.134
-221.640	-96.838	-0.043	0.011
-220.625	-200.000	0.020	0.184
-219.611	800.000	-0.038	0.153
-218.596	-51.648	-0.237	-0.109
-217.582	-123.905	-0.119	-0.019
-216.567	303.979	-0.070	-0.129
-215.552	31.170	0.197	-0.167
-214.538	62.570	0.071	0.070
-213.523	-115.099	0.397	0.075
-212.509	-45.917	0.353	0.173
-211.494	146.201	-0.140	0.186
-210.479	800.000	0.053	0.166
-209.465	-85.661	-0.421	0.129
-208.450	-200.000	-0.017	-0.261
-207.436	-115.327	0.213	-0.040
-206.421	-77.996	0.153	-0.052
-205.406	-64.037	0.238	-0.096
-204.392	-139.591	-0.484	-0.051
-203.377	63.694	-0.186	-0.185
-202.363	-60.216	0.085	-0.036
-201.348	428.749	0.077	-0.164
-200.333	138.164	0.161	-0.209
-199.319	-200.000	0.006	0.215
-198.304	461.340	-0.117	0.259
-197.290	800.000	0.106	-0.447
-196.275	-15.734	-0.208	0.131
-195.260	75.132	0.044	0.046
-194.246	181.245	0.043	-0.062
-193.231	-200.000	-0.044	-0.224
-192.217	-153.236	0.093	0.006
-191.202	800.000	-0.165	-0.494
-190.187	-136.625	0.405	-0.046
-189.173	-200.000	-0.013	-0.291
-188.158	-77.181	0.266	-0.092
-187.144	110.357	0.107	-0.127
-186.129	51.518	0.069	0.065
-185.114	800.000	-0.073	0.226
-184.100	-18.128	0.036	-0.022
-183.085	183.622	0.076	0.112
-182.071	-3.176	0.280	0.193
-181.056	719.238	0.026	0.068
-180.042	800.000	-0.118	-0.395
-179.027	417.360	0.047	0.099
-178.012	80.944	0.239	-0.255
-176.998	800.000	-0.042	0.115
-175.983	395.801	0.142	-0.292
-174.969	-4.119	-0.115	-0.079
-173.954	-119.065	-0.332	0.057
-172.939	800.000	-0.031	0.121
-171.925	72.548	0.098	-0.102
-170.910	-8.323	0.314	-0.209
-169.896	121.255	-0.205	0.253
-168.881	-18.161	0.164	0.102
-167.866	-200.000	-0.010	-0.276
-166.852	271.107	-0.077	0.133
-165.837	653.666	-0.100	-0.255
-164.823	-69.433	0.139	0.053
-163.808	-73.083	-0.439	-0.159
-162.793	800.000	-0.089	0.307
-161.779	-189.192	-0.104	0.001
-160.764	133.388	0.195	-0.249
-159.750	27.957	0.071	-0.060
-158.735	217.159	-0.070	-0.110
-157.720	-87.992	0.245	-0.073
-156.706	21.686	0.037	0.029
-155.691	114.316	0.070	-0.084
-154.677	-170.388	0.097	-0.003
-153.662	380.580	-0.149	0.301
-152.647	-53.730	0.453	0.204
-151.633	800.000	0.084	0.318
-150.618	431.491	-0.032	0.069
-149.604	-46.302	0.173	0.084
-148.589	337.997	0.087	-0.167
-147.574	-200.000	-0.002	0.242
-146.560	367.166	0.040	0.080
-145.545	-73.046	-0.192	0.070
-144.531	-100.920	-0.132	-0.032
-143.516	-86.484	-0.337	0.102
-142.502	-111.276	-0.296	-0.060
-141.487	-200.000	-0.002	0.081
-140.472	-200.000	0.018	-0.179
-139.458	-48.826	0.055	-0.026
-138.443	-68.814	-0.180	0.069
-137.429	3.903	-0.061	0.044
-136.414	-158.565	0.264	0.015
-135.399	-200.000	-0.023	0.243
-134.385	-128.182	-0.133	-0.019
-133.370	5.519	0.258	-0.188
-132.356	-200.000	0.001	-0.159
-131.341	-92.527	0.201	-0.056
-130.326	-74.640	0.158	0.056
-129.312	537.045	-0.063	0.149
-128.297	23.496	0.080	0.065
-127.283	21.020	0.122	0.097
-126.268	207.750	-0.129	0.198
-125.253	800.000	-0.049	-0.154
-124.239	732.325	0.086	0.228
-123.224	210.365	-0.304	0.470
-122.210	378.762	-0.128	0.258
-121.195	236.160	0.109	0.178
