DTS Sentinel unit serial number:	SN413079Multiplexer serial number:	ORYXHardware model number:	OX4-SRSoftware version number:	ORYX F/W v4.00 Oryx Data Collector v3.7.2.0data status	okinstallation	princeton_trtdifferential loss correction	single-endedforward channel	channel 4reverse channel	N/Adate	2019/09/13time	10:33:35forward acquisition time	60.00reverse acquisition time	0.00gamma	496.2192k internal	0.2306k external	0.2306temperature offset calibration	1.0195default loss term (dB/km)	0.3790temperature slope calibration	1.0000multiplexer offset coefficient	1.0000multiplexer slope coefficient	1.0000fibre end	0.00T internal ref (°C)	31.23T ext. ref 1 (°C)	4.57T ext. ref 2 (°C)	28.34length (m)	temperature (°C)	Stokes	anti-Stokes-747.200	438.425	-0.022	-0.048
-746.185	-125.055	-0.123	-0.019
-745.171	-89.336	0.175	-0.052
-744.156	-88.967	0.165	-0.050
-743.142	-15.639	0.411	0.267
-742.127	-24.276	0.027	-0.017
-741.112	-200.000	-0.034	-0.183
-740.098	254.324	-0.066	0.114
-739.083	-140.379	0.200	0.021
-738.069	-200.000	0.054	0.412
-737.054	138.124	-0.276	-0.368
-736.039	-10.949	-0.009	-0.006
-735.025	-159.011	0.162	0.009
-734.010	396.903	-0.112	-0.239
-732.996	-177.576	0.263	-0.007
-731.981	-18.430	-0.093	-0.059
-730.966	-140.553	-0.194	0.020
-729.952	800.000	0.085	-0.332
-728.937	-36.852	-0.201	-0.109
-727.923	-125.422	-0.380	-0.059
-726.908	-139.060	0.069	-0.008
-725.894	-90.230	-0.171	0.051
-724.879	356.070	0.214	-0.433
-723.864	-75.541	-0.081	0.029
-722.850	-200.000	0.006	-0.335
-721.835	15.605	0.077	0.062
-720.821	161.353	-0.149	0.211
-719.806	47.962	-0.087	0.083
-718.791	734.612	-0.093	-0.254
-717.777	144.651	0.096	-0.130
-716.762	-4.243	0.241	0.170
-715.748	131.078	0.123	0.161
-714.733	-58.142	0.191	0.084
-713.718	-193.168	-0.412	0.004
-712.704	38.307	0.107	-0.097
-711.689	-200.000	-0.000	-0.214
-710.675	276.914	0.075	0.136
-709.660	-200.000	-0.018	0.082
-708.645	-66.931	0.330	-0.132
-707.631	-66.236	-0.238	0.096
-706.616	800.000	0.047	0.161
-705.602	156.570	-0.207	0.290
-704.587	67.447	0.246	0.255
-703.572	-61.924	-0.220	0.093
-702.558	-200.000	-0.012	-0.081
-701.543	98.430	0.211	0.248
-700.529	-200.000	-0.032	-0.162
-699.514	-172.748	0.261	-0.008
-698.499	-137.326	-0.459	0.053
-697.485	-20.614	0.144	-0.090
-696.470	42.139	0.196	-0.181
-695.456	45.510	-0.054	0.050
-694.441	-92.307	-0.206	0.059
-693.426	-39.119	-0.261	0.139
-692.412	-155.446	-0.212	0.014
-691.397	800.000	-0.048	0.209
-690.383	151.505	0.205	-0.283
-689.368	75.090	-0.158	-0.169
-688.354	779.883	-0.060	-0.167
-687.339	-200.000	0.023	-0.257
-686.324	126.133	0.132	-0.170
-685.310	800.000	0.122	0.357
-684.295	-72.837	0.233	0.087
-683.281	44.739	-0.180	-0.168
-682.266	-143.852	0.213	-0.020
-681.251	273.162	-0.131	-0.235
-680.237	-174.780	0.218	0.006
-679.222	-199.867	0.146	0.001
-678.208	800.000	0.031	-0.092
-677.193	58.697	-0.263	-0.262
-676.178	800.000	0.060	-0.184
-675.164	-159.143	-0.153	-0.009
-674.149	151.476	-0.278	0.384
-673.135	800.000	-0.119	-0.427
-672.120	-19.623	-0.292	0.183
-671.105	800.000	0.057	-0.219
-670.091	-200.000	-0.005	-0.353
-669.076	365.321	-0.194	0.397
-668.062	-200.000	-0.009	0.050
-667.047	65.896	-0.220	-0.226
-666.032	-102.439	0.164	0.040
-665.018	93.100	-0.100	0.114
-664.003	800.000	-0.019	-0.063
-662.989	218.450	0.187	-0.303
-661.974	82.069	-0.109	0.119
-660.959	-47.539	-0.228	-0.113
-659.945	251.657	0.079	0.136
-658.930	417.110	0.044	-0.095
-657.916	416.398	0.065	-0.140
-656.901	18.227	0.154	-0.124
-655.886	51.307	0.055	-0.052
-654.872	800.000	-0.015	0.058
-653.857	-94.575	0.388	-0.107
-652.843	-200.000	-0.006	-0.215
-651.828	-200.000	0.024	-0.249
-650.814	-12.373	0.359	-0.238
-649.799	433.421	-0.052	0.114
-648.784	432.852	0.137	-0.301
-647.770	571.822	0.044	-0.108
-646.755	-71.912	0.143	-0.054
-645.741	6.556	0.208	0.157
-644.726	-157.262	-0.085	0.005
-643.711	-95.177	0.180	-0.049
-642.697	-0.441	-0.361	-0.260
-641.682	-200.000	0.028	0.301
-640.668	-81.964	0.109	0.036
-639.653	121.361	-0.266	-0.335
-638.638	-200.000	0.087	-0.395
-637.624	-200.000	-0.041	-0.312
-636.609	-8.000	0.092	0.063
-635.595	57.283	-0.099	-0.098
-634.580	-24.154	0.282	-0.171
-633.565	3.385	-0.279	0.206
-632.551	800.000	0.028	0.097
-631.536	-13.313	0.288	-0.190
-630.522	-200.000	0.070	-0.332
-629.507	19.251	0.253	-0.206
-628.492	-28.449	0.308	0.180
-627.478	-170.164	-0.344	0.012
-626.463	56.783	0.016	0.016
-625.449	800.000	-0.043	-0.127
-624.434	5.928	0.292	-0.219
-623.419	184.630	-0.155	0.233
-622.405	218.426	0.094	-0.152
-621.390	163.163	0.139	-0.197
-620.376	-12.656	-0.260	0.171
-619.361	-146.762	-0.213	-0.019
-618.346	287.562	0.135	0.248
-617.332	231.052	-0.052	-0.086
-616.317	184.108	-0.205	0.307
-615.303	46.950	-0.054	-0.051
-614.288	-69.894	0.171	-0.066
-613.273	-44.940	0.179	-0.090
-612.259	575.090	-0.122	-0.302
-611.244	633.453	-0.049	-0.125
-610.230	194.802	-0.075	0.115
-609.215	-200.000	0.018	-0.284
-608.201	-200.000	0.004	0.180
-607.186	206.827	-0.043	-0.068
-606.171	72.904	-0.209	-0.221
-605.157	73.388	-0.157	-0.166
-604.142	375.799	0.083	0.172
-603.128	-60.521	-0.300	0.129
-602.113	-84.588	0.231	-0.074
-601.098	332.665	-0.192	-0.374
-600.084	46.226	-0.118	-0.110
-599.069	-69.149	-0.160	0.062
-598.055	349.395	0.064	-0.127
-597.040	730.583	0.061	-0.164
-596.025	-200.000	-0.004	0.147
-595.011	-112.749	0.206	0.041
-593.996	113.310	0.252	0.309
-592.982	633.556	-0.081	-0.208
-591.967	-200.000	0.058	-0.361
-590.952	-43.888	0.264	0.134
-589.938	208.445	-0.258	0.408
-588.923	-200.000	0.029	0.161
-587.909	-113.478	0.490	-0.097
-586.894	715.246	0.109	0.291
-585.879	152.185	0.145	0.200
-584.865	32.217	0.156	-0.136
-583.850	334.242	-0.038	0.075
-582.836	45.189	0.150	-0.140
-581.821	-74.333	-0.280	-0.102
-580.806	-200.000	0.018	0.534
-579.792	292.103	-0.173	0.319
-578.777	9.719	0.301	0.231
-577.763	40.595	-0.124	0.113
-576.748	483.964	0.148	0.341
-575.733	98.046	0.244	-0.283
-574.719	-29.781	0.075	-0.043
-573.704	-22.620	-0.223	-0.136
-572.690	174.593	-0.165	-0.241
-571.675	800.000	0.069	-0.294
-570.661	-118.300	-0.124	-0.022
-569.646	4.255	0.286	-0.212
-568.631	-181.179	-0.103	-0.002
-567.617	-200.000	0.005	0.092
-566.602	-48.890	-0.158	0.077
-565.588	-20.984	-0.133	-0.082
-564.573	800.000	0.012	0.046
-563.558	378.670	0.083	0.172
-562.544	210.093	0.250	0.397
-561.529	516.340	-0.111	-0.262
-560.515	-15.097	0.061	0.039
-559.500	-44.859	-0.259	-0.130
-558.485	800.000	-0.029	-0.096
-557.471	-200.000	0.046	-0.306
-556.456	138.199	0.059	0.078
-555.442	-200.000	0.007	-0.151
-554.427	-122.003	0.239	0.040
-553.412	386.853	0.139	0.290
-552.398	376.266	0.028	-0.058
-551.383	126.885	0.207	0.265
-550.369	-8.963	-0.256	-0.173
-549.354	113.712	0.115	0.141
-548.339	538.210	0.075	0.180
-547.325	-74.917	0.223	-0.081
-546.310	-200.000	-0.010	0.302
-545.296	-13.733	-0.295	0.193
-544.281	51.799	0.051	0.049
-543.266	798.107	-0.136	0.379
-542.252	25.874	0.276	-0.232
-541.237	82.738	0.056	-0.061
-540.223	-57.262	0.111	-0.049
-539.208	-93.943	-0.161	-0.045
-538.193	-200.000	-0.016	-0.306
-537.179	147.532	-0.079	-0.107
-536.164	241.731	-0.163	-0.276
-535.150	800.000	-0.058	-0.238
-534.135	-200.000	0.042	-0.258
-533.121	-200.000	-0.028	0.276
-532.106	48.848	-0.157	0.149
-531.091	63.057	-0.091	-0.091
-530.077	120.868	0.155	-0.194
-529.062	7.463	0.168	0.127
-528.048	-99.123	-0.172	0.044
-527.033	-135.086	0.098	0.012
-526.018	800.000	-0.122	0.377
-525.004	58.309	-0.104	-0.102
-523.989	-126.805	0.431	0.064
-522.975	201.843	0.167	0.259
-521.960	-13.161	0.229	0.150
-520.945	21.723	0.171	0.140
-519.931	35.405	0.500	-0.443
-518.916	-112.860	-0.225	0.045
-517.902	-84.282	-0.163	0.052
-516.887	107.152	0.204	-0.245
-515.872	800.000	0.023	-0.064
-514.858	-34.339	0.220	0.121
-513.843	-200.000	0.028	0.245
-512.829	-9.650	-0.174	-0.117
-511.814	-100.319	0.178	-0.044
-510.799	-200.000	0.013	0.256
-509.785	-38.305	-0.333	0.178
-508.770	680.737	-0.067	-0.175
-507.756	-105.224	-0.227	0.052
-506.741	800.000	-0.063	-0.217
-505.726	32.563	-0.143	0.125
-504.712	-116.754	0.228	-0.042
-503.697	-18.560	-0.139	-0.087
-502.683	-144.746	0.075	0.007
-501.668	365.357	0.180	0.366
-500.653	-30.066	0.209	0.120
-499.639	-30.819	-0.485	-0.276
-498.624	336.001	-0.073	-0.143
-497.610	43.946	-0.223	-0.206
-496.595	-55.587	-0.135	-0.061
-495.581	308.803	-0.172	0.324
-494.566	800.000	0.118	0.350
-493.551	-172.237	-0.501	0.016
-492.537	61.970	-0.190	-0.191
-491.522	800.000	0.077	0.222
-490.508	62.480	0.173	-0.174
-489.493	-28.290	-0.226	0.131
-488.478	123.850	0.278	-0.351
-487.464	800.000	0.064	0.279
-486.449	-79.242	-0.106	0.036
-485.435	46.787	-0.193	0.180
-484.420	73.428	0.253	-0.266
-483.405	-99.399	0.281	0.071
-482.391	-137.060	-0.243	-0.028
-481.376	273.572	-0.102	0.181
-480.362	-65.812	-0.216	-0.087
-479.347	162.907	-0.078	0.110
-478.332	-200.000	0.040	0.223
-477.318	106.580	-0.171	-0.204
-476.303	-200.000	0.015	0.200
-475.289	-23.315	-0.211	0.128
-474.274	-83.924	-0.163	-0.052
-473.259	-115.961	-0.103	-0.019
-472.245	-163.800	-0.157	-0.007
-471.230	-82.250	0.188	-0.062
-470.216	26.330	0.071	0.059
-469.201	217.992	-0.044	-0.071
-468.186	-92.298	-0.202	0.057
-467.172	208.297	0.045	-0.071
-466.157	-72.653	0.471	0.175
-465.143	-200.000	-0.025	0.319
-464.128	-18.009	-0.117	0.074
-463.113	116.819	-0.103	0.127
-462.099	388.532	-0.146	-0.305
-461.084	671.004	0.074	-0.193
-460.070	-138.444	0.403	-0.045
-459.055	-84.593	0.200	-0.063
-458.040	250.539	-0.077	0.132
-457.026	-141.501	-0.191	-0.019
-456.011	-200.000	-0.002	-0.032
-454.997	-59.878	0.440	-0.190
-453.982	-126.720	0.252	-0.038
-452.968	-68.518	-0.426	-0.166
-451.953	-200.000	0.002	0.134
-450.938	-200.000	-0.059	-0.375
-449.924	-96.138	0.427	0.114
-448.909	-52.773	0.130	-0.060
-447.895	99.643	0.140	0.163
-446.880	170.718	-0.245	-0.353
-445.865	-200.000	-0.035	0.231
-444.851	-200.000	0.031	0.141
-443.836	259.982	0.236	0.411
-442.822	-112.728	0.199	-0.040
-441.807	12.141	-0.314	-0.243
-440.792	-200.000	-0.000	-0.033
-439.778	31.026	0.238	-0.205
-438.763	152.321	-0.154	0.211
-437.749	30.204	-0.120	-0.103
-436.734	-200.000	0.009	0.076
-435.719	-49.483	0.346	0.166
-434.705	-89.998	0.157	0.046
-433.690	-200.000	0.057	-0.270
-432.676	-158.096	-0.244	0.014
-431.661	-15.583	0.279	0.179
-430.646	-200.000	0.027	0.373
-429.632	327.171	0.122	-0.234
-428.617	-88.249	-0.336	0.101
-427.603	800.000	0.070	-0.202
-426.588	113.161	-0.161	0.196
-425.573	800.000	-0.131	-0.541
-424.559	-200.000	-0.067	0.381
-423.544	800.000	-0.075	0.275
-422.530	-104.585	-0.320	-0.074
-421.515	-200.000	0.042	-0.513
-420.500	184.952	0.075	0.111
-419.486	-200.000	0.000	0.109
-418.471	47.063	0.015	0.014
-417.457	800.000	-0.069	-0.234
-416.442	-105.244	0.169	-0.039
-415.428	-70.398	-0.190	0.072
-414.413	565.426	-0.032	0.077
-413.398	288.695	-0.049	-0.088
-412.384	-50.556	-0.116	-0.055
-411.369	-5.679	-0.036	0.025
-410.355	649.178	0.105	-0.270
-409.340	-22.340	-0.235	0.143
-408.325	56.477	-0.015	-0.015
-407.311	22.513	-0.109	0.090
-406.296	58.032	0.166	0.163
-405.282	-200.000	0.039	0.201
-404.267	108.139	0.235	-0.282
-403.252	-40.283	0.290	-0.152
-402.238	-38.124	-0.185	-0.099
-401.223	750.484	-0.139	0.378
-400.209	-64.434	0.088	0.036
-399.194	310.115	-0.067	0.126
-398.179	-194.877	-0.362	-0.003
-397.165	-126.961	0.069	0.010
-396.150	-30.529	0.177	0.101
-395.136	236.753	-0.100	0.167
-394.121	800.000	0.020	0.060
-393.106	-115.829	0.210	0.039
-392.092	-89.977	-0.381	-0.112
-391.077	-200.000	0.003	0.085
-390.063	201.281	0.099	0.153
-389.048	-4.054	-0.214	-0.149
-388.033	373.629	-0.147	-0.301
-387.019	-120.877	0.133	-0.022
-386.004	-89.901	-0.125	-0.037
-384.990	-91.238	-0.387	-0.111
-383.975	-200.000	0.011	0.177
-382.960	40.030	-0.232	0.210
-381.946	36.988	-0.156	0.138
-380.931	339.254	-0.059	0.116
-379.917	280.976	0.154	0.277
-378.902	-187.570	0.044	-0.001
-377.888	-24.349	0.273	-0.163
-376.873	560.524	0.076	0.184
-375.858	-200.000	-0.018	-0.108
-374.844	387.542	0.059	0.121
-373.829	406.304	0.124	0.262
-372.815	-102.997	-0.118	-0.028
-371.800	-12.179	0.176	0.116
-370.785	-52.140	0.097	0.045
-369.771	-14.801	0.288	0.186
-368.756	-99.055	0.114	-0.029
-367.742	-118.941	-0.271	-0.048
-366.727	-135.923	-0.239	0.028
-365.712	800.000	-0.030	-0.124
-364.698	-108.711	0.155	0.033
-363.683	194.906	0.226	-0.344
-362.669	-130.865	-0.224	0.030
-361.654	-82.996	-0.143	-0.046
-360.639	572.577	-0.023	-0.056
-359.625	-34.312	0.189	-0.104
-358.610	-166.718	-0.386	-0.016
-357.596	-81.885	-0.274	-0.090
-356.581	4.795	0.431	0.318
-355.566	800.000	0.057	0.178
-354.552	-34.807	-0.071	-0.039
-353.537	-122.240	0.091	0.015
-352.523	30.608	0.110	0.094
-351.508	-49.430	0.160	-0.076
-350.493	92.314	0.157	-0.177
-349.479	800.000	-0.149	-0.517
-348.464	26.510	-0.173	-0.145
-347.450	800.000	0.051	-0.156
-346.435	284.663	0.076	0.137
-345.420	120.676	-0.212	-0.264
-344.406	800.000	0.170	-0.517
-343.391	-32.697	-0.090	0.050
-342.377	-81.934	-0.160	-0.052
-341.362	-187.453	0.133	0.002
-340.348	800.000	0.129	0.445
-339.333	573.175	0.167	-0.407
-338.318	-67.224	-0.258	-0.102
-337.304	-200.000	-0.067	0.407
-336.289	23.479	0.172	0.142
-335.275	-200.000	-0.017	-0.330
-334.260	-127.341	0.250	0.036
-333.245	15.159	0.284	0.223
-332.231	96.780	0.197	0.226
-331.216	3.996	-0.219	0.161
-330.202	-200.000	-0.005	-0.413
-329.187	-146.312	0.189	0.017
-328.172	494.091	-0.079	0.182
-327.158	800.000	0.030	-0.122
-326.143	-5.099	-0.216	-0.149
-325.129	46.573	0.198	-0.184
-324.114	-68.038	-0.174	0.068
-323.099	-79.146	-0.187	-0.064
-322.085	146.606	0.057	-0.077
-321.070	734.294	0.101	-0.270
-320.056	-200.000	-0.050	0.307
-319.041	677.065	-0.044	0.115
-318.026	-39.355	0.209	0.110
-317.012	161.611	-0.148	0.207
-315.997	-200.000	0.016	-0.262
-314.983	800.000	0.055	0.203
-313.968	-200.000	-0.037	-0.301
-312.953	800.000	0.052	0.183
-311.939	-53.357	-0.287	0.132
-310.924	-113.175	-0.141	-0.028
-309.910	-148.488	0.281	0.023
-308.895	800.000	0.084	0.266
-307.880	-5.277	0.235	0.162
-306.866	-131.890	0.379	0.050
-305.851	-27.163	-0.275	-0.160
-304.837	99.934	0.294	-0.341
-303.822	26.151	0.038	-0.032
-302.807	-71.080	-0.211	0.079
-301.793	-144.439	-0.251	-0.023
-300.778	189.761	0.219	0.329
-299.764	-51.894	0.150	-0.070
-298.749	125.655	-0.164	0.207
-297.735	-121.966	-0.188	0.031
-296.720	-129.359	-0.200	0.028
-295.705	-97.700	0.122	0.032
-294.691	121.428	0.033	0.042
-293.676	-143.293	-0.366	0.035
-292.662	113.352	-0.039	-0.048
-291.647	-105.326	0.427	0.097
-290.632	-28.449	0.263	0.152
-289.618	-200.000	0.047	0.300
-288.603	-103.072	0.160	-0.038
-287.589	133.109	-0.170	0.219
-286.574	-148.094	0.285	0.024
-285.559	-200.000	-0.008	0.097
-284.545	39.811	-0.046	0.042
-283.530	800.000	-0.027	-0.093
-282.516	-46.372	0.220	-0.108
-281.501	-74.875	0.036	-0.013
-280.486	-2.500	-0.182	0.127
-279.472	112.403	0.119	0.144
-278.457	-200.000	0.009	0.344
-277.443	-200.000	0.043	0.215
-276.428	-13.777	-0.113	-0.073
-275.413	117.141	-0.138	-0.170
-274.399	568.896	-0.077	0.187
-273.384	-124.704	0.125	0.019
-272.370	-104.415	0.164	-0.038
-271.355	800.000	0.059	-0.244
-270.340	-45.229	-0.337	-0.167
-269.326	-84.958	-0.184	-0.058
-268.311	35.859	0.076	0.067
-267.297	800.000	0.033	-0.116
-266.282	25.360	0.152	0.126
-265.267	249.782	-0.161	-0.273
-264.253	410.903	0.076	0.161
-263.238	-200.000	0.017	-0.181
-262.224	-97.932	0.102	-0.026
-261.209	178.412	-0.047	0.068
-260.195	-200.000	0.028	0.220
-259.180	-200.000	-0.031	-0.233
-258.165	37.336	0.095	0.084
-257.151	-107.039	-0.040	0.009
-256.136	-29.859	-0.138	-0.079
-255.122	800.000	-0.113	0.320
-254.107	-50.605	-0.474	0.223
-253.092	-176.023	0.309	0.008
-252.078	14.639	-0.138	0.108
-251.063	109.525	-0.064	0.077
-250.049	-34.103	0.282	-0.155
-249.034	209.458	0.126	0.197
-248.019	800.000	-0.116	-0.342
-247.005	50.493	-0.234	-0.220
-245.990	59.993	0.092	-0.090
-244.976	760.633	-0.060	0.161
-243.961	-26.370	0.210	0.123
-242.946	218.358	-0.229	0.365
-241.932	53.220	-0.028	-0.027
-240.917	612.070	0.058	0.145
-239.903	800.000	-0.097	-0.348
-238.888	-10.010	-0.043	-0.029
-237.873	-173.015	-0.174	0.005
-236.859	11.951	-0.131	0.101
-235.844	142.756	-0.096	0.128
-234.830	606.167	0.049	-0.121
-233.815	53.812	-0.093	-0.090
-232.800	-101.948	0.326	-0.078
-231.786	-200.000	0.008	0.156
-230.771	-87.126	-0.072	-0.022
-229.757	-200.000	-0.013	-0.204
-228.742	249.805	-0.174	0.295
-227.727	206.646	-0.062	-0.097
-226.713	-190.177	0.188	0.002
-225.698	78.200	-0.277	0.294
-224.684	-200.000	0.022	-0.149
-223.669	51.073	0.092	-0.087
-222.655	319.522	-0.129	0.245
-221.640	289.518	0.182	-0.330
-220.625	-132.418	-0.508	-0.065
-219.611	-169.776	0.149	0.005
-218.596	-66.804	-0.304	-0.120
-217.582	-110.966	-0.124	-0.025
-216.567	800.000	0.112	0.375
-215.552	-200.000	-0.029	-0.398
-214.538	160.080	-0.160	0.223
-213.523	800.000	-0.043	0.138
-212.509	-25.360	-0.468	0.276
-211.494	-168.886	0.091	-0.003
-210.479	8.779	-0.177	0.133
-209.465	-200.000	0.010	0.207
-208.450	10.353	-0.054	-0.041
-207.436	-84.612	0.151	-0.047
-206.421	-147.715	0.573	-0.048
-205.406	-200.000	-0.040	0.279
-204.392	-85.373	-0.030	-0.009
-203.377	-14.382	-0.272	0.174
-202.363	-200.000	-0.024	-0.364
-201.348	643.146	0.046	-0.117
-200.333	137.548	-0.059	-0.077
-199.319	4.184	-0.082	0.060
-198.304	285.058	0.133	-0.238
-197.290	800.000	0.158	-0.438
-196.275	98.676	-0.174	-0.200
-195.260	-200.000	-0.049	0.316
-194.246	76.413	0.205	-0.217
-193.231	-92.339	-0.050	0.014
-192.217	800.000	-0.048	-0.154
-191.202	252.692	-0.091	-0.155
-190.187	-133.918	0.071	0.009
-189.173	-84.292	0.164	-0.052
-188.158	422.305	-0.056	0.120
-187.144	-90.048	-0.060	0.017
-186.129	-56.450	-0.131	0.058
-185.114	-43.497	0.504	-0.253
-184.100	800.000	0.187	-0.575
-183.085	-200.000	-0.016	0.101
-182.071	-200.000	-0.002	0.087
-181.056	59.754	0.292	-0.287
-180.042	51.233	0.157	0.148
-179.027	600.508	-0.071	0.176
-178.012	-149.595	-0.264	0.021
-176.998	198.048	0.126	0.192
-175.983	146.516	0.121	0.162
-174.969	39.598	0.177	-0.158
-173.954	209.084	-0.177	0.275
-172.939	8.937	0.132	-0.099
-171.925	-68.923	-0.044	-0.017
-170.910	3.739	0.222	0.161
-169.896	141.917	-0.024	-0.032
-168.881	787.226	0.057	-0.155
-167.866	-90.112	0.058	0.017
-166.852	232.490	-0.295	-0.483
-165.837	-38.389	0.111	0.058
-164.823	-129.472	0.174	-0.024
-163.808	-125.572	0.056	0.008
-162.793	-19.008	-0.155	-0.096
-161.779	-53.644	-0.149	-0.068
-160.764	125.398	-0.102	-0.128
-159.750	527.975	0.103	0.243
-158.735	535.120	-0.147	0.348
-157.720	-39.917	-0.251	-0.130
-156.706	-72.864	0.351	-0.128
-155.691	7.943	-0.310	-0.231
-154.677	-200.000	0.001	-0.039
-153.662	-76.248	-0.367	-0.129
-152.647	79.631	-0.041	0.044
-151.633	-200.000	0.012	-0.086
-150.618	124.350	-0.160	0.200
-149.604	800.000	0.042	0.138
-148.589	-200.000	-0.016	0.088
-147.574	-15.146	0.216	-0.137
-146.560	-200.000	0.002	0.310
-145.545	-104.656	-0.377	0.086
-144.531	-200.000	-0.002	0.117
-143.516	-155.972	-0.167	-0.011
-142.502	-100.878	-0.201	-0.049
-141.487	188.499	-0.204	0.304
-140.472	-110.577	0.227	-0.047
-139.458	164.324	0.086	-0.121
-138.443	342.118	-0.081	0.157
-137.429	16.600	0.094	-0.074
-136.414	79.199	0.271	-0.289
-135.399	261.761	0.066	-0.114
-134.385	-95.606	0.313	0.083
-133.370	800.000	0.060	-0.228
-132.356	78.331	-0.277	-0.294
-131.341	-51.274	-0.222	0.103
-130.326	85.823	0.094	0.102
-129.312	294.386	0.150	-0.272
-128.297	-9.511	0.229	-0.152
-127.283	65.780	-0.212	-0.214
-126.268	-200.000	-0.069	-0.312
-125.253	125.418	0.092	-0.115
-124.239	165.401	-0.130	0.182
-123.224	-57.008	0.312	-0.137
-122.210	-39.520	0.452	-0.235
-121.195	70.957	-0.229	-0.236
