DTS Sentinel unit serial number:	SN413079Multiplexer serial number:	ORYXHardware model number:	OX4-SRSoftware version number:	ORYX F/W v4.00 Oryx Data Collector v3.7.2.0data status	okinstallation	princeton_trtdifferential loss correction	single-endedforward channel	channel 4reverse channel	N/Adate	2019/09/10time	22:43:11forward acquisition time	60.00reverse acquisition time	0.00gamma	496.2192k internal	0.2316k external	0.2316temperature offset calibration	0.9947default loss term (dB/km)	0.3790temperature slope calibration	1.0000multiplexer offset coefficient	1.0000multiplexer slope coefficient	1.0000fibre end	0.00T internal ref (°C)	30.23T ext. ref 1 (°C)	-0.31T ext. ref 2 (°C)	23.76length (m)	temperature (°C)	Stokes	anti-Stokes-747.200	-84.941	0.155	-0.049
-746.185	-162.448	-0.100	-0.005
-745.171	-200.000	0.012	-0.096
-744.156	-55.233	0.172	-0.078
-743.142	-173.908	0.265	-0.008
-742.127	183.603	0.080	0.120
-741.112	-99.048	-0.200	0.051
-740.098	800.000	-0.030	-0.092
-739.083	-38.372	0.169	0.090
-738.069	-200.000	-0.013	-0.313
-737.054	800.000	0.100	0.309
-736.039	-200.000	0.003	0.043
-735.025	-200.000	-0.023	-0.267
-734.010	-200.000	0.009	0.048
-732.996	-81.711	-0.147	0.049
-731.981	707.684	0.087	-0.234
-730.966	624.070	-0.028	0.072
-729.952	800.000	0.084	-0.339
-728.937	78.044	-0.239	-0.258
-727.923	-22.688	0.164	-0.100
-726.908	-116.933	-0.105	0.019
-725.894	-45.402	0.285	0.143
-724.879	-130.468	-0.195	-0.027
-723.864	-65.387	0.230	-0.094
-722.850	-200.000	0.011	0.302
-721.835	-200.000	-0.004	-0.035
-720.821	223.866	0.187	-0.305
-719.806	38.751	-0.065	0.059
-718.791	-200.000	-0.067	0.332
-717.777	17.226	0.363	-0.291
-716.762	39.227	0.019	0.018
-715.748	-122.688	-0.364	-0.060
-714.733	164.245	0.161	0.230
-713.718	14.963	-0.181	0.144
-712.704	-200.000	-0.016	0.141
-711.689	-74.251	0.189	-0.069
-710.675	96.929	-0.175	-0.203
-709.660	256.959	-0.105	-0.182
-708.645	-200.000	0.025	0.420
-707.631	81.024	0.142	-0.155
-706.616	800.000	-0.024	0.104
-705.602	224.466	0.053	-0.087
-704.587	-123.140	0.278	0.045
-703.572	15.167	-0.161	0.128
-702.558	-65.780	-0.389	0.157
-701.543	-153.218	0.168	0.012
-700.529	-200.000	-0.046	-0.285
-699.514	-25.437	0.306	0.183
-698.499	-41.380	0.197	0.103
-697.485	260.058	0.159	0.277
-696.470	316.661	0.106	-0.202
-695.456	0.124	0.185	-0.134
-694.441	-118.804	-0.269	0.048
-693.426	-71.835	-0.047	-0.018
-692.412	41.699	-0.089	-0.082
-691.397	242.209	-0.027	0.046
-690.383	-12.936	0.041	-0.027
-689.368	-200.000	0.005	-0.086
-688.354	-200.000	0.004	0.220
-687.339	-25.281	0.413	-0.247
-686.324	15.163	-0.209	0.165
-685.310	29.077	0.257	-0.220
-684.295	-55.456	0.253	-0.115
-683.281	-110.243	-0.174	-0.037
-682.266	-47.335	-0.091	0.045
-681.251	132.839	0.174	0.226
-680.237	168.082	-0.149	-0.215
-679.222	507.813	-0.082	0.193
-678.208	-200.000	-0.015	-0.110
-677.193	242.163	0.060	0.102
-676.178	36.613	0.094	0.084
-675.164	-112.556	0.176	-0.036
-674.149	-200.000	-0.027	0.280
-673.135	-85.554	-0.173	-0.054
-672.120	-200.000	0.005	0.050
-671.105	-107.059	-0.109	-0.024
-670.091	-104.558	-0.205	0.048
-669.076	-200.000	0.012	-0.175
-668.062	382.590	0.060	-0.124
-667.047	-45.333	0.287	-0.144
-666.032	130.810	0.063	0.081
-665.018	-25.245	0.402	-0.240
-664.003	-21.134	0.195	-0.120
-662.989	312.978	0.176	0.334
-661.974	-200.000	-0.001	0.170
-660.959	-146.645	0.144	0.013
-659.945	43.277	-0.142	0.131
-658.930	-75.063	0.219	-0.079
-657.916	-88.743	-0.276	0.083
-656.901	800.000	0.063	0.217
-655.886	-200.000	-0.002	-0.341
-654.872	85.431	0.113	-0.125
-653.857	-73.645	-0.080	-0.029
-652.843	-160.869	0.233	-0.012
-651.828	-97.816	0.197	-0.051
-650.814	113.224	-0.350	-0.429
-649.799	112.626	-0.089	0.108
-648.784	112.652	-0.173	-0.211
-647.770	49.193	-0.114	0.108
-646.755	800.000	-0.007	-0.026
-645.741	37.567	-0.069	0.062
-644.726	236.457	0.125	-0.209
-643.711	31.367	0.216	0.187
-642.697	-96.789	0.190	-0.050
-641.682	-200.000	-0.011	-0.075
-640.668	382.427	-0.112	0.232
-639.653	-6.741	0.115	-0.079
-638.638	-200.000	0.079	-0.381
-637.624	669.065	-0.041	-0.106
-636.609	-200.000	-0.002	-0.292
-635.595	-11.487	-0.161	0.107
-634.580	-78.358	0.372	-0.129
-633.565	800.000	-0.055	0.231
-632.551	-200.000	0.002	-0.210
-631.536	238.449	0.064	-0.107
-630.522	-96.216	-0.100	-0.027
-629.507	-61.870	-0.294	0.124
-628.492	800.000	0.026	-0.098
-627.478	-74.537	-0.356	0.129
-626.463	800.000	0.060	-0.204
-625.449	-35.505	-0.389	0.213
-624.434	-56.558	0.230	-0.103
-623.419	174.218	-0.133	-0.194
-622.405	104.315	-0.102	-0.121
-621.390	-160.019	0.187	-0.010
-620.376	113.984	0.102	0.125
-619.361	35.958	0.201	0.178
-618.346	105.692	-0.065	-0.077
-617.332	-135.452	0.066	-0.008
-616.317	-68.211	0.071	-0.028
-615.303	-34.853	0.280	0.154
-614.288	75.432	0.256	-0.272
-613.273	-44.714	0.296	-0.149
-612.259	-74.150	-0.192	-0.070
-611.244	-200.000	-0.031	0.223
-610.230	186.462	-0.063	0.095
-609.215	-119.109	-0.101	0.018
-608.201	-175.441	0.293	0.008
-607.186	-22.514	0.173	0.105
-606.171	143.114	0.068	0.092
-605.157	102.154	-0.095	0.112
-604.142	638.443	0.051	-0.130
-603.128	-34.401	0.141	0.078
-602.113	403.076	-0.020	-0.042
-601.098	-58.313	0.358	0.157
-600.084	-59.447	0.078	0.034
-599.069	-34.205	-0.070	-0.038
-598.055	25.894	0.154	0.129
-597.040	800.000	0.075	-0.212
-596.025	88.180	0.106	0.119
-595.011	800.000	0.066	-0.234
-593.996	-58.633	0.330	0.144
-592.982	365.128	0.143	-0.290
-591.967	7.633	-0.193	0.145
-590.952	397.722	-0.068	-0.143
-589.938	34.355	-0.187	0.165
-588.923	-56.696	-0.130	0.058
-587.909	-13.094	-0.089	0.058
-586.894	-173.548	-0.105	-0.003
-585.879	326.655	-0.071	-0.136
-584.865	14.704	0.125	0.099
-583.850	-200.000	0.020	-0.146
-582.836	35.356	0.090	-0.080
-581.821	-90.104	0.144	0.042
-580.806	-39.940	-0.099	-0.052
-579.792	-96.089	-0.123	-0.033
-578.777	-25.431	0.193	-0.115
-577.763	-115.276	-0.147	0.028
-576.748	662.925	0.078	0.202
-575.733	-23.134	-0.322	-0.195
-574.719	89.603	0.056	-0.063
-573.704	-12.474	0.370	-0.243
-572.690	-200.000	-0.000	-0.044
-571.675	-139.858	0.333	0.035
-570.661	-13.822	-0.130	0.085
-569.646	-121.480	0.135	-0.023
-568.631	90.004	0.059	0.067
-567.617	800.000	-0.032	-0.108
-566.602	8.747	0.134	-0.102
-565.588	-137.060	0.010	-0.001
-564.573	320.458	0.082	-0.156
-563.558	56.277	-0.082	0.080
-562.544	800.000	-0.028	-0.115
-561.529	-138.019	-0.370	-0.041
-560.515	-200.000	-0.014	0.575
-559.500	-40.115	-0.150	-0.079
-558.485	-200.000	0.073	0.336
-557.471	-56.825	0.073	-0.032
-556.456	246.998	-0.036	-0.060
-555.442	181.845	0.308	0.456
-554.427	-175.885	-0.113	-0.003
-553.412	-48.594	-0.242	0.117
-552.398	-64.115	-0.466	-0.191
-551.383	800.000	-0.042	-0.144
-550.369	-145.795	0.135	0.012
-549.354	-37.741	0.110	-0.059
-548.339	184.294	0.095	-0.142
-547.325	-129.421	0.201	-0.028
-546.310	130.047	-0.251	-0.323
-545.296	156.471	-0.172	0.239
-544.281	274.034	-0.028	-0.050
-543.266	800.000	0.019	0.061
-542.252	-200.000	-0.012	0.196
-541.237	-92.614	0.272	-0.077
-540.223	267.533	0.202	-0.354
-539.208	-81.747	-0.077	0.025
-538.193	800.000	-0.060	0.225
-537.179	-71.914	-0.214	0.080
-536.164	-134.304	0.242	-0.030
-535.150	98.453	-0.142	0.164
-534.135	-36.097	0.179	-0.097
-533.121	-81.442	-0.115	0.038
-532.106	800.000	0.021	0.066
-531.091	-102.041	-0.299	-0.072
-530.077	-9.971	-0.370	0.247
-529.062	-114.640	0.103	0.020
-528.048	800.000	-0.128	-0.416
-527.033	131.528	0.392	0.506
-526.018	-181.343	-0.221	-0.004
-525.004	-103.276	-0.154	0.037
-523.989	800.000	-0.086	-0.266
-522.975	-106.823	0.105	-0.023
-521.960	97.552	-0.074	0.085
-520.945	44.161	-0.039	0.036
-519.931	162.579	-0.085	0.119
-518.916	-200.000	-0.025	0.140
-517.902	800.000	-0.072	0.220
-516.887	-36.635	0.230	-0.124
-515.872	14.177	-0.168	-0.131
-514.858	108.558	-0.261	0.313
-513.843	57.705	0.253	0.248
-512.829	-200.000	0.016	-0.149
-511.814	-200.000	-0.026	0.215
-510.799	-94.172	0.184	-0.051
-509.785	560.370	0.116	0.281
-508.770	-88.534	0.130	0.039
-507.756	-200.000	-0.065	0.319
-506.741	-200.000	-0.031	-0.154
-505.726	-169.553	0.262	0.010
-504.712	110.465	-0.177	0.213
-503.697	-167.601	-0.217	0.009
-502.683	511.402	-0.053	0.124
-501.668	-97.557	-0.310	-0.081
-500.653	-55.703	-0.050	0.022
-499.639	-200.000	-0.014	0.097
-498.624	-41.862	-0.147	-0.076
-497.610	123.988	0.109	-0.138
-496.595	-200.000	0.024	0.257
-495.581	-115.631	-0.298	0.056
-494.566	-65.202	-0.313	0.126
-493.551	7.255	0.154	-0.115
-492.537	426.289	-0.053	-0.115
-491.522	279.464	0.079	-0.141
-490.508	-19.048	0.188	-0.117
-489.493	52.337	-0.184	0.176
-488.478	-200.000	0.004	-0.182
-487.464	-3.340	0.144	-0.101
-486.449	-17.492	-0.180	-0.114
-485.435	-200.000	0.008	0.341
-484.420	-47.734	-0.135	0.066
-483.405	-41.553	-0.233	0.120
-482.391	800.000	0.055	-0.199
-481.376	67.080	-0.289	0.296
-480.362	108.022	0.035	-0.042
-479.347	-91.894	-0.098	0.028
-478.332	183.387	-0.088	-0.131
-477.318	-200.000	-0.004	0.045
-476.303	-111.098	0.158	0.033
-475.289	-200.000	0.020	-0.316
-474.274	613.086	-0.042	-0.105
-473.259	-65.360	-0.265	-0.107
-472.245	11.288	-0.237	0.182
-471.230	122.357	0.225	0.282
-470.216	382.783	-0.026	0.053
-469.201	118.583	0.102	0.126
-468.186	-136.695	-0.075	0.009
-467.172	-58.733	-0.174	-0.076
-466.157	145.735	-0.163	0.219
-465.143	-10.999	-0.136	-0.090
-464.128	-92.451	-0.105	-0.030
-463.113	166.717	0.146	-0.208
-462.099	-200.000	0.007	0.100
-461.084	800.000	-0.126	0.360
-460.070	-200.000	0.002	-0.027
-459.055	8.509	0.111	-0.084
-458.040	-48.936	-0.167	0.080
-457.026	-200.000	0.013	-0.328
-456.011	-193.624	-0.393	-0.003
-454.997	800.000	-0.126	-0.378
-453.982	800.000	-0.064	0.211
-452.968	-69.892	-0.052	-0.020
-451.953	800.000	0.048	-0.153
-450.938	118.338	0.059	-0.073
-449.924	-200.000	-0.020	-0.184
-448.909	-200.000	0.005	-0.050
-447.895	-77.334	0.390	-0.136
-446.880	162.976	0.094	0.132
-445.865	-108.551	0.351	0.076
-444.851	-19.191	0.307	-0.191
-443.836	-34.535	-0.418	0.229
-442.822	-180.909	-0.128	0.003
-441.807	-33.143	0.137	-0.076
-440.792	-143.693	0.482	-0.046
-439.778	124.969	0.058	-0.073
-438.763	-74.038	-0.198	-0.072
-437.749	242.095	0.160	-0.268
-436.734	800.000	0.090	-0.353
-435.719	-116.873	0.218	-0.040
-434.705	53.275	-0.193	-0.185
-433.690	-120.366	-0.332	0.057
-432.676	45.976	0.247	-0.229
-431.661	584.494	-0.050	-0.122
-430.646	-40.314	0.099	0.051
-429.632	-70.173	0.075	-0.028
-428.617	133.608	0.225	-0.292
-427.603	631.571	-0.050	0.126
-426.588	65.678	0.239	0.242
-425.573	800.000	-0.041	-0.169
-424.559	436.019	0.170	0.371
-423.544	413.339	-0.051	-0.109
-422.530	-42.814	0.295	-0.150
-421.515	-200.000	-0.019	-0.100
-420.500	303.847	0.126	0.233
-419.486	-80.542	0.240	0.080
-418.471	-200.000	0.007	0.109
-417.457	-200.000	0.025	-0.418
-416.442	-23.867	-0.168	-0.100
-415.428	484.841	0.089	-0.202
-414.413	-200.000	-0.036	-0.241
-413.398	-200.000	-0.021	-0.440
-412.384	-200.000	-0.023	-0.243
-411.369	-200.000	0.001	0.121
-410.355	167.702	-0.198	-0.282
-409.340	49.927	-0.256	0.242
-408.325	106.764	-0.011	-0.014
-407.311	466.708	-0.167	0.373
-406.296	39.646	-0.058	-0.052
-405.282	-84.757	0.134	0.042
-404.267	25.734	0.165	0.137
-403.252	-200.000	-0.048	-0.416
-402.238	-200.000	-0.002	0.224
-401.223	91.177	0.282	0.316
-400.209	-62.078	0.263	0.110
-399.194	41.481	0.175	0.158
-398.179	800.000	-0.065	0.202
-397.165	-146.505	0.121	0.011
-396.150	800.000	0.075	0.208
-395.136	-28.898	0.213	0.122
-394.121	7.602	-0.113	-0.085
-393.106	-78.082	0.307	0.105
-392.092	-120.571	-0.466	-0.079
-391.077	800.000	0.046	0.158
-390.063	-42.539	-0.090	0.046
-389.048	97.184	-0.241	-0.276
-388.033	194.389	0.240	0.363
-387.019	-110.729	-0.414	-0.085
-386.004	-57.865	0.179	0.078
-384.990	-1.209	-0.325	0.230
-383.975	-200.000	-0.024	0.254
-382.960	522.894	-0.068	0.159
-381.946	81.915	0.132	0.143
-380.931	137.568	0.097	-0.127
-379.917	-107.551	-0.257	0.056
-378.902	49.858	-0.049	-0.046
-377.888	76.532	-0.102	-0.108
-376.873	800.000	-0.053	0.221
-375.858	273.684	-0.147	0.260
-374.844	-200.000	-0.038	0.208
-373.829	776.298	-0.064	-0.175
-372.815	-55.972	0.209	0.093
-371.800	-134.654	0.091	0.011
-370.785	-200.000	-0.007	-0.163
-369.771	-44.679	0.184	-0.092
-368.756	-200.000	0.007	0.110
-367.742	-14.895	0.146	-0.094
-366.727	800.000	-0.053	-0.155
-365.712	800.000	-0.092	-0.274
-364.698	-18.391	0.189	0.118
-363.683	800.000	-0.052	-0.214
-362.669	-2.912	0.125	0.087
-361.654	307.809	0.091	-0.169
-360.639	-125.265	0.270	0.041
-359.625	2.067	-0.156	-0.113
-358.610	-61.594	0.076	-0.032
-357.596	-65.443	-0.193	-0.077
-356.581	-200.000	-0.061	-0.306
-355.566	-48.124	-0.258	0.124
-354.552	-127.013	-0.197	-0.029
-353.537	491.650	0.067	-0.152
-352.523	800.000	0.074	-0.228
-351.508	-60.955	-0.113	-0.048
-350.493	-171.750	0.175	-0.006
-349.479	800.000	-0.090	-0.262
-348.464	93.921	-0.106	0.120
-347.450	-28.372	-0.166	-0.095
-346.435	-70.831	-0.035	-0.013
-345.420	200.907	-0.025	-0.039
-344.406	-200.000	0.007	-0.073
-343.391	-63.747	0.339	0.138
-342.377	800.000	0.144	0.427
-341.362	-2.346	0.071	0.050
-340.348	-73.447	-0.299	-0.109
-339.333	-47.304	0.101	-0.049
-338.318	-85.538	0.145	-0.045
-337.304	-60.140	0.126	0.053
-336.289	25.577	0.087	-0.072
-335.275	22.191	-0.143	0.116
-334.260	129.575	0.232	0.296
-333.245	299.022	0.091	0.167
-332.231	65.217	-0.182	0.183
-331.216	570.536	0.074	0.179
-330.202	127.171	-0.152	0.192
-329.187	-200.000	-0.012	-0.279
-328.172	-4.356	-0.149	-0.103
-327.158	-106.647	-0.153	0.034
-326.143	800.000	-0.052	0.160
-325.129	-63.633	0.154	0.063
-324.114	-110.013	0.267	0.056
-323.099	-30.948	0.173	-0.097
-322.085	-200.000	-0.015	-0.072
-321.070	-115.424	-0.296	-0.056
-320.056	237.793	-0.198	0.328
-319.041	-109.097	0.367	-0.078
-318.026	167.725	-0.257	-0.364
-317.012	62.528	0.075	0.074
-315.997	-42.109	0.252	0.129
-314.983	-119.186	0.292	-0.051
-313.968	97.838	-0.197	-0.226
-312.953	-200.000	0.008	-0.317
-311.939	-59.911	0.056	0.024
-310.924	-131.844	0.163	0.021
-309.910	95.936	0.172	-0.196
-308.895	-200.000	-0.069	-0.310
-307.880	-82.404	-0.203	0.066
-306.866	-38.542	0.314	0.165
-305.851	800.000	0.113	0.343
-304.837	312.271	0.057	0.106
-303.822	-81.763	-0.192	0.063
-302.807	-110.393	0.116	0.024
-301.793	206.231	0.082	0.126
-300.778	710.745	-0.119	0.314
-299.764	46.758	0.237	-0.219
-298.749	800.000	-0.067	-0.236
-297.735	328.880	0.065	-0.125
-296.720	208.095	-0.008	-0.012
-295.705	341.007	-0.098	-0.191
-294.691	72.003	0.169	0.175
-293.676	353.945	0.214	0.423
-292.662	-109.824	-0.378	-0.079
-291.647	508.892	-0.104	-0.239
-290.632	515.541	0.047	-0.109
-289.618	800.000	0.037	-0.159
-288.603	216.104	0.250	-0.396
-287.589	-20.665	0.261	-0.159
-286.574	-200.000	0.028	0.150
-285.559	47.754	0.193	0.179
-284.545	327.189	-0.099	-0.188
-283.530	800.000	-0.007	-0.026
-282.516	-2.076	-0.194	0.136
-281.501	-92.569	0.265	-0.074
-280.486	187.574	0.070	0.104
-279.472	-200.000	0.019	-0.177
-278.457	-79.434	-0.219	0.074
-277.443	194.177	-0.060	-0.091
-276.428	-9.253	-0.118	0.079
-275.413	800.000	0.081	-0.243
-274.399	94.343	0.056	-0.063
-273.384	-104.624	-0.259	0.059
-272.370	323.179	0.079	-0.149
-271.355	-103.588	-0.350	-0.082
-270.340	-200.000	-0.024	0.198
-269.326	-104.315	-0.460	0.106
-268.311	-76.808	0.056	-0.019
-267.297	-41.605	0.063	-0.032
-266.282	-53.244	-0.363	0.166
-265.267	-97.102	-0.368	0.096
-264.253	-113.315	0.123	-0.024
-263.238	-200.000	-0.006	-0.194
-262.224	395.317	0.113	0.234
-261.209	-117.103	-0.445	-0.081
-260.195	800.000	0.041	-0.131
-259.180	-183.003	-0.316	-0.006
-258.165	455.901	0.124	0.274
-257.151	-200.000	-0.045	0.212
-256.136	-34.966	0.269	0.146
-255.122	143.518	0.147	0.194
-254.107	-12.313	-0.086	0.056
-253.092	800.000	0.058	0.191
-252.078	-200.000	-0.027	0.214
-251.063	69.972	-0.268	0.275
-250.049	-104.171	0.196	-0.045
-249.034	696.305	0.134	-0.349
-248.019	800.000	0.016	-0.063
-247.005	308.386	0.077	-0.142
-245.990	-200.000	-0.029	-0.357
-244.976	75.115	0.269	0.282
-243.961	-193.213	0.262	-0.002
-242.946	-104.788	0.254	-0.058
-241.932	-85.282	0.073	-0.023
-240.917	-44.940	-0.186	0.092
-239.903	-56.984	-0.231	-0.101
-238.888	441.322	-0.095	0.206
-237.873	-200.000	0.028	-0.165
-236.859	-200.000	0.001	0.017
-235.844	60.313	0.088	0.086
-234.830	-36.063	0.348	-0.187
-233.815	-5.095	-0.418	0.286
-232.800	480.255	-0.099	0.222
-231.786	-111.683	0.176	0.035
-230.771	800.000	0.145	0.535
-229.757	-114.824	0.037	0.007
-228.742	128.971	0.106	-0.134
-227.727	72.642	0.082	-0.084
-226.713	-9.967	-0.206	-0.136
-225.698	800.000	-0.050	-0.168
-224.684	-64.075	-0.193	0.078
-223.669	-176.485	0.413	-0.011
-222.655	65.216	0.205	-0.206
-221.640	151.025	0.180	0.243
-220.625	-200.000	0.011	0.131
-219.611	96.039	-0.213	0.242
-218.596	59.308	0.107	-0.105
-217.582	-101.197	0.115	0.028
-216.567	353.729	0.247	0.486
-215.552	-200.000	-0.003	0.103
-214.538	95.767	-0.136	0.154
-213.523	-42.948	-0.123	-0.062
-212.509	-200.000	0.024	-0.412
-211.494	-145.268	0.282	-0.025
-210.479	-36.703	-0.179	-0.095
-209.465	-200.000	-0.068	-0.334
-208.450	501.305	0.061	-0.140
-207.436	-96.249	-0.303	-0.080
-206.421	90.656	0.197	-0.219
-205.406	119.058	-0.173	0.212
-204.392	452.894	0.061	-0.133
-203.377	-103.312	0.067	-0.016
-202.363	37.076	-0.035	0.030
-201.348	-200.000	-0.022	0.339
-200.333	-200.000	-0.005	-0.078
-199.319	321.698	0.096	-0.181
-198.304	-143.929	0.356	0.033
-197.290	-200.000	0.021	-0.164
-196.275	-117.224	0.127	0.023
-195.260	409.493	0.078	-0.164
-194.246	297.860	0.027	-0.049
-193.231	-167.424	0.129	0.005
-192.217	-200.000	0.039	0.215
-191.202	-200.000	0.004	0.191
-190.187	-82.268	-0.333	-0.108
-189.173	-18.595	-0.211	-0.131
-188.158	-200.000	-0.005	-0.109
-187.144	-200.000	-0.026	-0.277
-186.129	101.685	0.312	-0.361
-185.114	774.856	-0.094	-0.253
-184.100	-42.313	0.166	-0.084
-183.085	-60.785	-0.056	0.024
-182.071	-118.387	0.235	0.041
-181.056	-200.000	-0.000	-0.093
-180.042	79.289	-0.058	0.062
-179.027	-24.094	0.275	-0.163
-178.012	-119.087	-0.104	0.018
-176.998	62.453	-0.277	0.274
-175.983	-113.092	-0.161	0.031
-174.969	38.694	0.158	0.139
-173.954	800.000	0.003	-0.009
-172.939	-90.800	-0.205	0.059
-171.925	225.113	-0.163	0.261
-170.910	55.426	-0.084	-0.081
-169.896	170.126	-0.034	0.048
-168.881	-104.268	-0.481	0.111
-167.866	53.271	-0.116	-0.111
-166.852	23.797	-0.154	-0.126
-165.837	-200.000	-0.044	0.364
-164.823	27.835	0.062	0.052
-163.808	22.383	0.191	-0.154
-162.793	720.786	0.136	-0.358
-161.779	60.497	0.169	-0.166
-160.764	-57.361	0.044	-0.019
-159.750	73.293	-0.309	0.320
-158.735	-60.667	-0.128	-0.054
-157.720	-11.711	-0.130	-0.084
-156.706	-59.834	-0.336	0.142
-155.691	-58.427	-0.199	-0.085
-154.677	-200.000	0.072	0.327
-153.662	-200.000	-0.032	0.217
-152.647	363.344	-0.075	-0.150
-151.633	210.137	-0.076	0.119
-150.618	-111.558	-0.353	0.071
-149.604	-70.924	0.154	-0.057
-148.589	-68.189	0.019	-0.007
-147.574	-87.516	0.182	-0.054
-146.560	518.298	0.111	0.257
-145.545	800.000	0.044	0.128
-144.531	77.160	0.091	-0.096
-143.516	34.623	0.204	-0.176
-142.502	-136.964	-0.359	0.041
-141.487	-200.000	-0.059	-0.341
-140.472	-55.975	0.173	0.076
-139.458	-200.000	-0.003	-0.099
-138.443	159.175	0.094	-0.129
-137.429	173.550	-0.145	-0.206
-136.414	800.000	0.065	-0.262
-135.399	113.661	0.133	0.160
-134.385	350.260	0.054	0.105
-133.370	293.780	-0.087	0.157
-132.356	800.000	0.071	-0.254
-131.341	-200.000	0.050	0.248
-130.326	-69.713	0.103	0.039
-129.312	153.646	0.219	0.297
-128.297	-149.977	-0.272	0.021
-127.283	-33.307	0.153	0.084
-126.268	438.748	0.065	0.139
-125.253	-105.123	-0.060	0.014
-124.239	139.938	-0.145	-0.190
-123.224	152.480	-0.123	-0.166
-122.210	-200.000	0.031	-0.181
