DTS Sentinel unit serial number:	SN413079Multiplexer serial number:	ORYXHardware model number:	OX4-SRSoftware version number:	ORYX F/W v4.00 Oryx Data Collector v3.7.2.0data status	okinstallation	princeton_trtdifferential loss correction	single-endedforward channel	channel 4reverse channel	N/Adate	2019/09/12time	20:29:35forward acquisition time	60.00reverse acquisition time	0.00gamma	496.2192k internal	0.2311k external	0.2311temperature offset calibration	1.0169default loss term (dB/km)	0.3790temperature slope calibration	1.0000multiplexer offset coefficient	1.0000multiplexer slope coefficient	1.0000fibre end	0.00T internal ref (°C)	31.30T ext. ref 1 (°C)	3.57T ext. ref 2 (°C)	25.84length (m)	temperature (°C)	Stokes	anti-Stokes-747.200	32.328	0.253	-0.222
-746.185	-200.000	-0.026	0.147
-745.171	16.795	0.180	-0.145
-744.156	5.827	0.269	0.202
-743.142	-200.000	-0.001	0.544
-742.127	118.035	0.126	0.158
-741.112	-200.000	-0.390	-0.000
-740.098	148.249	0.098	-0.135
-739.083	-88.351	-0.304	-0.092
-738.069	576.657	0.120	-0.298
-737.054	-49.821	0.180	-0.087
-736.039	-56.297	-0.122	-0.055
-735.025	-71.555	0.180	-0.068
-734.010	800.000	0.083	-0.353
-732.996	-200.000	-0.017	-0.342
-731.981	13.359	0.062	0.049
-730.966	84.092	-0.055	0.060
-729.952	-66.422	-0.294	0.119
-728.937	800.000	0.036	-0.118
-727.923	283.986	0.107	0.194
-726.908	-115.047	-0.262	0.051
-725.894	-118.760	-0.082	0.015
-724.879	-30.028	-0.235	-0.136
-723.864	263.820	-0.089	0.157
-722.850	3.946	-0.281	-0.209
-721.835	-20.139	0.201	-0.126
-720.821	-200.000	0.019	-0.121
-719.806	-200.000	-0.051	-0.313
-718.791	-33.226	0.088	-0.050
-717.777	17.847	-0.195	-0.158
-716.762	800.000	0.059	0.215
-715.748	-65.774	-0.228	-0.092
-714.733	-200.000	0.093	0.463
-713.718	231.637	-0.187	-0.310
-712.704	-200.000	0.031	0.304
-711.689	-23.524	-0.072	0.044
-710.675	465.535	0.112	-0.253
-709.660	74.104	-0.235	-0.250
-708.645	-111.729	-0.184	-0.038
-707.631	-154.463	-0.145	-0.010
-706.616	179.720	0.030	-0.044
-705.602	-138.698	0.267	-0.030
-704.587	283.883	0.069	-0.127
-703.572	131.154	-0.169	-0.219
-702.558	-122.755	-0.226	-0.037
-701.543	-45.102	-0.412	0.208
-700.529	-200.000	-0.087	-0.493
-699.514	20.725	0.116	-0.096
-698.499	221.105	-0.168	0.274
-697.485	111.176	-0.242	0.295
-696.470	-46.495	0.337	-0.168
-695.456	25.798	-0.249	0.210
-694.441	31.346	0.181	0.158
-693.426	118.764	0.046	-0.058
-692.412	-200.000	0.041	0.216
-691.397	-200.000	-0.029	-0.177
-690.383	109.803	-0.093	0.113
-689.368	59.979	-0.148	-0.148
-688.354	-101.473	-0.294	-0.072
-687.339	161.402	-0.056	-0.080
-686.324	-200.000	-0.072	-0.460
-685.310	461.037	-0.164	-0.371
-684.295	600.877	-0.078	-0.196
-683.281	-122.058	-0.190	-0.032
-682.266	502.095	-0.045	0.105
-681.251	-43.704	0.148	0.076
-680.237	205.617	0.065	-0.103
-679.222	396.980	-0.088	-0.187
-678.208	84.725	0.106	-0.118
-677.193	-197.370	-0.080	-0.001
-676.178	800.000	0.030	0.113
-675.164	-200.000	-0.045	0.232
-674.149	529.595	0.114	0.273
-673.135	686.400	-0.039	0.104
-672.120	24.558	-0.276	-0.231
-671.105	92.493	0.152	0.173
-670.091	168.954	-0.088	0.127
-669.076	-200.000	-0.018	0.085
-668.062	372.285	-0.051	0.104
-667.047	-69.301	0.118	-0.046
-666.032	-24.377	-0.086	0.052
-665.018	58.587	-0.095	0.094
-664.003	800.000	0.059	0.256
-662.989	-77.731	0.163	-0.057
-661.974	324.596	0.071	0.137
-660.959	-19.112	-0.394	0.248
-659.945	17.866	0.132	0.106
-658.930	-95.715	0.298	0.081
-657.916	-56.252	-0.047	0.021
-656.901	53.355	-0.119	-0.115
-655.886	-200.000	0.045	-0.366
-654.872	-200.000	-0.025	0.136
-653.857	93.173	0.042	0.048
-652.843	536.551	0.093	-0.224
-651.828	176.653	0.175	-0.257
-650.814	-200.000	0.011	0.364
-649.799	800.000	0.021	-0.079
-648.784	12.378	0.225	-0.175
-647.770	-12.920	-0.222	0.146
-646.755	-5.001	0.294	-0.204
-645.741	280.450	-0.020	-0.036
-644.726	-200.000	-0.016	-0.288
-643.711	54.515	-0.235	-0.229
-642.697	602.183	-0.181	0.456
-641.682	-6.039	0.248	-0.172
-640.668	26.937	-0.435	-0.369
-639.653	800.000	-0.027	0.088
-638.638	800.000	0.021	-0.083
-637.624	-140.033	0.190	0.020
-636.609	-200.000	0.025	-0.176
-635.595	-56.380	-0.156	0.070
-634.580	250.776	-0.281	0.483
-633.565	110.321	-0.113	0.138
-632.551	-55.967	0.262	-0.118
-631.536	-200.000	-0.016	-0.123
-630.522	-200.000	-0.005	-0.040
-629.507	800.000	-0.075	-0.297
-628.492	-200.000	0.020	-0.198
-627.478	-24.033	0.130	0.079
-626.463	-200.000	-0.042	0.284
-625.449	403.331	0.111	-0.237
-624.434	799.136	-0.061	0.170
-623.419	-33.586	0.182	-0.102
-622.405	179.911	-0.153	0.226
-621.390	800.000	0.065	-0.182
-620.376	-124.645	0.116	0.018
-619.361	1.988	-0.106	-0.077
-618.346	498.847	-0.181	-0.422
-617.332	157.071	-0.101	-0.141
-616.317	-200.000	0.029	-0.407
-615.303	-200.000	0.008	-0.064
-614.288	188.446	-0.122	0.184
-613.273	226.949	0.253	0.415
-612.259	6.775	0.254	0.191
-611.244	103.508	-0.113	-0.134
-610.230	-83.898	0.212	0.068
-609.215	166.964	-0.243	-0.348
-608.201	-200.000	-0.047	0.299
-607.186	-31.769	-0.220	-0.125
-606.171	350.697	0.112	0.223
-605.157	42.345	-0.105	-0.097
-604.142	37.993	-0.138	-0.124
-603.128	800.000	-0.054	0.188
-602.113	-80.579	-0.287	0.096
-601.098	186.734	0.221	-0.332
-600.084	-48.433	-0.324	-0.158
-599.069	7.562	0.136	-0.102
-598.055	-37.554	0.073	0.039
-597.040	43.903	-0.219	0.202
-596.025	41.320	0.124	-0.113
-595.011	-200.000	-0.049	-0.548
-593.996	94.268	-0.102	-0.116
-592.982	2.676	-0.190	0.139
-591.967	284.948	0.154	0.279
-590.952	139.804	-0.142	-0.189
-589.938	-30.766	0.174	-0.100
-588.923	-75.983	-0.183	0.065
-587.909	87.656	0.150	-0.168
-586.894	-10.083	-0.290	-0.194
-585.879	-200.000	-0.037	-0.192
-584.865	-45.604	-0.219	-0.109
-583.850	123.375	-0.109	0.137
-582.836	-130.035	0.371	-0.051
-581.821	-200.000	0.017	0.120
-580.806	-200.000	0.008	0.223
-579.792	800.000	-0.015	-0.048
-578.777	-110.114	0.155	-0.033
-577.763	82.188	0.116	0.127
-576.748	210.456	0.030	-0.048
-575.733	153.007	0.050	-0.070
-574.719	-200.000	-0.024	-0.205
-573.704	90.499	-0.163	-0.184
-572.690	800.000	0.034	0.129
-571.675	-200.000	-0.020	-0.135
-570.661	3.179	-0.216	-0.158
-569.646	-68.737	0.076	0.030
-568.631	-87.793	0.157	-0.048
-567.617	124.012	0.066	0.084
-566.602	-109.189	-0.180	-0.039
-565.588	-122.252	-0.200	-0.033
-564.573	-136.633	-0.093	-0.011
-563.558	95.782	0.166	-0.191
-562.544	-121.242	0.169	-0.028
-561.529	566.750	-0.036	-0.089
-560.515	-200.000	0.064	0.293
-559.500	-200.000	0.142	-0.001
-558.485	-144.319	0.610	0.057
-557.471	800.000	-0.051	-0.189
-556.456	-186.910	-0.280	-0.004
-555.442	523.073	-0.078	-0.184
-554.427	131.331	0.168	-0.217
-553.412	-13.608	-0.335	0.219
-552.398	103.922	0.080	0.095
-551.383	224.365	-0.166	0.270
-550.369	-80.151	0.224	-0.076
-549.354	736.990	-0.060	0.161
-548.339	756.278	-0.084	-0.228
-547.325	-106.710	-0.125	-0.028
-546.310	200.871	-0.081	0.125
-545.296	108.422	0.184	0.221
-544.281	69.900	-0.144	0.150
-543.266	-24.490	0.181	0.108
-542.252	-55.934	-0.155	-0.070
-541.237	-70.872	0.062	-0.023
-540.223	800.000	0.068	0.275
-539.208	-132.230	-0.129	-0.017
-538.193	44.250	0.181	0.167
-537.179	337.086	-0.058	-0.113
-536.164	-200.000	-0.001	-0.224
-535.150	400.247	-0.096	-0.202
-534.135	233.583	-0.090	-0.148
-533.121	125.964	-0.092	0.118
-532.106	132.145	-0.162	0.211
-531.091	800.000	-0.058	0.197
-530.077	-180.985	0.070	0.001
-529.062	288.453	-0.043	0.077
-528.048	800.000	0.034	0.141
-527.033	-75.305	0.082	-0.030
-526.018	97.667	-0.248	0.287
-525.004	-200.000	0.030	-0.169
-523.989	-51.081	-0.135	-0.064
-522.975	-32.367	-0.229	-0.129
-521.960	82.837	-0.180	0.196
-520.945	-52.091	0.162	-0.076
-519.931	19.850	0.121	-0.098
-518.916	800.000	0.085	0.322
-517.902	-200.000	-0.012	0.091
-516.887	-95.052	0.074	0.020
-515.872	-157.115	-0.202	-0.012
-514.858	542.864	0.100	-0.240
-513.843	-122.381	-0.199	-0.033
-512.829	-117.088	-0.263	-0.048
-511.814	237.786	-0.013	-0.022
-510.799	-200.000	-0.001	0.131
-509.785	-84.138	-0.173	-0.055
-508.770	222.822	-0.227	-0.369
-507.756	-189.006	0.142	0.002
-506.741	190.620	0.188	-0.284
-505.726	-10.553	0.425	0.283
-504.712	-48.201	0.577	-0.280
-503.697	345.815	0.058	-0.115
-502.683	462.482	0.069	0.155
-501.668	-200.000	-0.003	-0.291
-500.653	738.032	-0.015	-0.040
-499.639	-200.000	0.099	0.514
-498.624	-117.372	-0.293	0.053
-497.610	-70.285	-0.224	0.086
-496.595	-136.792	-0.239	-0.028
-495.581	66.492	-0.186	-0.190
-494.566	-200.000	-0.015	-0.116
-493.551	194.361	-0.271	-0.414
-492.537	581.550	-0.051	-0.126
-491.522	800.000	-0.118	-0.339
-490.508	-121.444	-0.303	-0.051
-489.493	70.271	0.191	0.198
-488.478	-193.281	0.360	-0.003
-487.464	-112.308	-0.312	0.063
-486.449	63.564	-0.083	0.084
-485.435	148.585	-0.191	0.259
-484.420	122.851	0.111	-0.139
-483.405	-200.000	0.015	0.122
-482.391	-200.000	-0.004	0.242
-481.376	-36.624	0.190	0.102
-480.362	7.096	-0.107	0.080
-479.347	-200.000	0.001	0.092
-478.332	-154.624	-0.112	0.007
-477.318	-65.038	0.308	-0.125
-476.303	800.000	0.063	-0.247
-475.289	76.523	0.117	-0.124
-474.274	52.529	0.120	-0.115
-473.259	-200.000	0.033	0.288
-472.245	-108.608	-0.134	0.029
-471.230	599.914	0.133	-0.332
-470.216	244.102	0.091	0.153
-469.201	800.000	-0.055	0.228
-468.186	109.659	-0.188	0.227
-467.172	-13.635	-0.212	0.138
-466.157	249.105	-0.119	0.202
-465.143	-85.278	0.171	0.054
-464.128	-87.890	-0.222	0.067
-463.113	171.772	-0.045	0.065
-462.099	-200.000	0.008	-0.149
-461.084	-200.000	-0.006	-0.119
-460.070	-200.000	0.014	0.236
-459.055	-90.655	0.177	-0.051
-458.040	396.626	-0.114	-0.238
-457.026	0.120	0.121	0.087
-456.011	111.579	0.228	0.276
-454.997	589.089	-0.042	-0.103
-453.982	474.645	0.170	0.385
-452.968	53.354	-0.134	-0.129
-451.953	114.497	0.079	-0.096
-450.938	-200.000	-0.015	0.209
-449.924	130.851	0.099	0.128
-448.909	-200.000	-0.045	-0.264
-447.895	167.303	0.225	0.321
-446.880	800.000	0.046	-0.194
-445.865	-200.000	0.034	0.157
-444.851	-71.600	-0.173	0.065
-443.836	135.939	0.117	-0.153
-442.822	-52.674	-0.379	-0.175
-441.807	800.000	0.102	-0.288
-440.792	-5.804	0.320	-0.220
-439.778	127.585	0.124	-0.158
-438.763	268.348	0.169	-0.298
-437.749	-100.371	0.420	-0.104
-436.734	-153.735	0.188	-0.013
-435.719	-76.020	0.407	-0.144
-434.705	-200.000	-0.004	0.032
-433.690	40.867	0.165	0.149
-432.676	-200.000	0.000	-0.104
-431.661	-200.000	-0.074	-0.368
-430.646	117.039	0.194	0.239
-429.632	127.182	-0.180	-0.229
-428.617	140.703	-0.137	0.181
-427.603	800.000	0.074	-0.229
-426.588	103.652	0.189	0.222
-425.573	-129.908	-0.374	-0.051
-424.559	2.053	0.100	-0.072
-423.544	800.000	-0.077	0.227
-422.530	-89.541	0.390	0.115
-421.515	212.910	-0.156	-0.246
-420.500	-200.000	-0.037	0.189
-419.486	307.222	0.076	-0.141
-418.471	-124.177	-0.211	0.033
-417.457	77.881	-0.212	-0.227
-416.442	7.874	-0.257	-0.193
-415.428	-5.551	-0.180	-0.124
-414.413	-17.960	0.060	0.038
-413.398	181.056	0.252	0.372
-412.384	-200.000	-0.051	0.252
-411.369	-200.000	-0.038	-0.225
-410.355	-200.000	-0.009	-0.281
-409.340	-132.815	-0.165	0.021
-408.325	800.000	-0.045	-0.193
-407.311	-200.000	0.013	0.328
-406.296	-83.676	0.120	0.038
-405.282	288.702	-0.065	0.119
-404.267	-24.547	-0.275	-0.164
-403.252	170.259	-0.020	0.028
-402.238	-37.152	0.039	0.021
-401.223	-79.484	-0.238	0.081
-400.209	-200.000	0.009	0.126
-399.194	-38.405	-0.198	-0.105
-398.179	-200.000	0.008	-0.213
-397.165	-100.492	-0.279	0.069
-396.150	273.212	-0.115	0.204
-395.136	-200.000	0.045	-0.323
-394.121	511.910	-0.146	-0.341
-393.106	50.280	-0.083	-0.079
-392.092	-88.211	0.099	-0.030
-391.077	-79.308	0.543	0.184
-390.063	-138.738	-0.492	0.054
-389.048	20.827	0.106	-0.086
-388.033	800.000	0.014	-0.053
-387.019	397.779	0.060	-0.125
-386.004	-12.679	-0.246	-0.160
-384.990	-87.104	0.104	0.032
-383.975	-66.588	0.202	0.080
-382.960	330.288	0.082	-0.158
-381.946	-33.926	0.120	-0.066
-380.931	27.947	0.291	0.246
-379.917	-69.661	-0.002	-0.001
-378.902	301.029	0.113	0.209
-377.888	-68.468	-0.261	-0.101
-376.873	70.104	0.185	0.191
-375.858	30.958	0.324	-0.278
-374.844	118.446	0.088	-0.108
-373.829	-102.295	0.132	0.032
-372.815	-200.000	0.037	0.175
-371.800	-143.400	-0.241	-0.023
-370.785	-200.000	-0.038	0.263
-369.771	468.621	-0.082	0.183
-368.756	418.838	0.080	-0.172
-367.742	-200.000	-0.027	-0.353
-366.727	-0.240	-0.369	-0.263
-365.712	215.068	0.337	-0.535
-364.698	-53.628	-0.321	-0.147
-363.683	-200.000	-0.015	0.077
-362.669	161.678	0.111	-0.156
-361.654	-200.000	-0.021	0.162
-360.639	148.819	0.114	-0.154
-359.625	50.768	0.142	0.134
-358.610	800.000	-0.069	-0.277
-357.596	-165.209	-0.257	-0.011
-356.581	-103.360	0.343	0.081
-355.566	246.171	0.216	0.364
-354.552	-200.000	0.087	0.559
-353.537	608.359	-0.171	0.426
-352.523	254.687	-0.031	0.052
-351.508	120.052	0.022	0.028
-350.493	-200.000	-0.045	-0.201
-349.479	-81.983	-0.082	0.027
-348.464	404.146	-0.067	-0.140
-347.450	-200.000	0.024	0.110
-346.435	800.000	-0.091	-0.381
-345.420	-163.388	-0.415	-0.020
-344.406	800.000	0.054	-0.156
-343.391	292.353	0.047	-0.086
-342.377	-138.821	-0.251	0.027
-341.362	-48.550	-0.084	-0.040
-340.348	-200.000	0.033	-0.155
-339.333	-17.012	-0.235	-0.148
-338.318	-173.240	-0.153	0.005
-337.304	800.000	0.026	0.108
-336.289	-59.333	0.220	0.095
-335.275	196.695	-0.046	0.070
-334.260	-200.000	-0.003	-0.378
-333.245	800.000	-0.139	-0.395
-332.231	-151.850	-0.212	-0.015
-331.216	800.000	0.066	0.184
-330.202	-42.845	0.225	0.114
-329.187	115.008	-0.211	0.257
-328.172	88.577	0.235	0.260
-327.158	-75.131	0.245	-0.088
-326.143	328.748	0.134	-0.257
-325.129	-200.000	0.021	0.333
-324.114	102.427	0.092	-0.108
-323.099	-49.093	-0.178	0.085
-322.085	44.262	-0.013	0.012
-321.070	275.038	-0.099	0.175
-320.056	-200.000	0.013	0.241
-319.041	186.094	-0.147	0.219
-318.026	729.910	-0.036	0.096
-317.012	34.550	0.285	-0.249
-315.997	270.243	-0.163	0.286
-314.983	-130.971	-0.084	0.011
-313.968	64.438	-0.100	0.101
-312.953	800.000	0.084	0.311
-311.939	-39.538	0.038	0.020
-310.924	281.856	0.193	0.345
-309.910	2.249	-0.174	-0.125
-308.895	305.316	-0.167	0.310
-307.880	89.612	0.056	0.063
-306.866	753.216	0.107	0.289
-305.851	328.513	0.248	0.475
-304.837	88.676	-0.138	-0.153
-303.822	41.606	0.236	-0.213
-302.807	73.479	-0.218	-0.228
-301.793	-169.201	-0.038	-0.001
-300.778	-80.648	0.267	-0.089
-299.764	442.712	-0.106	-0.231
-298.749	220.589	-0.080	-0.129
-297.735	16.468	0.211	0.166
-296.720	-13.626	0.157	0.101
-295.705	-72.852	0.251	-0.092
-294.691	-200.000	0.030	-0.237
-293.676	800.000	-0.061	0.201
-292.662	-169.934	0.326	-0.012
-291.647	-66.957	-0.145	-0.057
-290.632	-65.397	-0.219	-0.088
-289.618	-200.000	0.076	-0.594
-288.603	-40.511	0.320	-0.166
-287.589	-200.000	0.070	0.357
-286.574	-200.000	0.009	-0.091
-285.559	143.661	-0.070	0.094
-284.545	429.897	-0.033	-0.071
-283.530	800.000	-0.042	0.123
-282.516	-45.839	0.209	-0.103
-281.501	312.392	-0.192	-0.359
-280.486	800.000	-0.097	-0.270
-279.472	800.000	0.077	0.309
-278.457	-68.164	-0.108	0.042
-277.443	302.063	0.356	0.656
-276.428	674.738	0.068	0.177
-275.413	310.340	-0.130	-0.243
-274.399	800.000	0.045	0.165
-273.384	325.203	0.126	-0.240
-272.370	-111.262	-0.107	0.022
-271.355	44.815	-0.216	0.199
-270.340	-115.303	0.216	0.041
-269.326	18.307	0.215	0.171
-268.311	67.862	0.189	-0.192
-267.297	35.107	-0.267	-0.233
-266.282	-111.009	-0.181	-0.037
-265.267	-24.717	0.172	0.102
-264.253	45.490	0.227	0.209
-263.238	-15.441	-0.080	0.051
-262.224	-47.419	0.168	0.081
-261.209	-107.626	-0.049	-0.011
-260.195	3.043	0.108	-0.079
-259.180	20.787	-0.118	0.095
-258.165	-146.266	0.033	0.003
-257.151	271.657	-0.040	0.071
-256.136	-108.041	0.318	-0.069
-255.122	-90.207	-0.025	0.007
-254.107	-181.351	-0.169	-0.003
-253.092	-200.000	-0.016	0.183
-252.078	800.000	0.033	0.105
-251.063	47.045	-0.258	0.239
-250.049	-198.766	-0.091	-0.001
-249.034	56.246	0.130	0.126
-248.019	724.666	0.020	0.054
-247.005	32.019	0.057	0.049
-245.990	356.177	-0.137	0.271
-244.976	-85.729	0.247	0.076
-243.961	-116.740	-0.290	0.053
-242.946	415.436	-0.077	-0.163
-241.932	800.000	0.062	0.214
-240.917	-34.033	-0.305	0.167
-239.903	366.697	0.109	0.218
-238.888	25.734	0.081	-0.068
-237.873	-116.263	-0.127	0.024
-236.859	308.933	0.064	-0.118
-235.844	123.968	-0.075	0.093
-234.830	-55.123	-0.158	0.071
-233.815	-37.050	-0.086	0.046
-232.800	-57.159	-0.258	-0.113
-231.786	434.203	0.083	-0.180
-230.771	173.865	0.238	-0.342
-229.757	-18.024	-0.020	0.013
-228.742	218.620	0.061	0.098
-227.727	-104.697	-0.301	-0.069
-226.713	375.723	0.101	-0.205
-225.698	-59.666	0.231	0.099
-224.684	122.487	-0.223	0.278
-223.669	-138.968	0.219	0.024
-222.655	-200.000	0.039	-0.191
-221.640	132.597	0.147	-0.188
-220.625	104.688	-0.436	-0.511
-219.611	82.774	-0.088	0.095
-218.596	-51.938	0.190	0.088
-217.582	31.928	-0.162	0.138
-216.567	82.017	0.130	-0.140
-215.552	-7.855	0.115	-0.077
-214.538	-41.286	0.447	0.229
-213.523	-200.000	0.063	0.366
-212.509	650.349	0.042	-0.108
-211.494	-113.237	-0.101	0.020
-210.479	-200.000	-0.032	0.242
-209.465	-5.104	-0.195	-0.133
-208.450	-200.000	0.028	0.193
-207.436	436.637	-0.097	0.211
-206.421	800.000	-0.083	0.229
-205.406	-200.000	0.050	0.367
-204.392	-200.000	0.006	-0.115
-203.377	16.635	-0.157	-0.123
-202.363	1.570	0.314	0.224
-201.348	-153.848	0.343	-0.023
-200.333	-154.228	-0.105	0.007
-199.319	-87.353	0.236	-0.071
-198.304	399.072	0.051	0.106
-197.290	-108.964	0.113	0.024
-196.275	97.934	-0.213	0.244
-195.260	102.156	0.307	0.356
-194.246	131.253	0.091	0.116
-193.231	-96.480	0.385	0.101
-192.217	-44.164	-0.327	0.163
-191.202	186.769	-0.239	0.354
-190.187	395.821	-0.027	0.056
-189.173	-174.075	-0.277	-0.008
-188.158	243.184	0.085	0.141
-187.144	-64.675	0.244	-0.098
-186.129	-156.979	-0.089	0.005
-185.114	412.151	-0.061	0.129
-184.100	-72.297	0.059	0.022
-183.085	-110.163	0.233	0.048
-182.071	-84.183	-0.263	0.083
-181.056	92.771	0.129	-0.144
-180.042	28.811	0.174	0.146
-179.027	17.153	-0.099	0.078
-178.012	66.480	0.098	0.099
-176.998	-42.646	0.109	0.055
-175.983	-72.956	-0.131	-0.048
-174.969	316.396	0.073	0.138
-173.954	-126.360	-0.279	0.041
-172.939	-46.405	0.391	-0.191
-171.925	-124.323	-0.162	0.025
-170.910	50.646	0.159	-0.149
-169.896	-141.827	0.069	0.007
-168.881	-200.000	-0.019	-0.279
-167.866	-36.958	-0.299	0.159
-166.852	800.000	-0.111	0.423
-165.837	800.000	0.016	0.049
-164.823	60.832	0.187	-0.184
-163.808	-200.000	0.004	-0.239
-162.793	-86.539	0.101	-0.031
-161.779	-158.153	0.134	0.008
-160.764	-134.233	-0.202	0.025
-159.750	-105.891	-0.273	0.061
-158.735	88.694	0.279	-0.308
-157.720	-200.000	0.006	-0.248
-156.706	135.124	-0.348	-0.449
-155.691	-42.691	0.352	-0.177
-154.677	-39.834	-0.124	0.064
-153.662	151.769	-0.097	-0.131
-152.647	-200.000	-0.017	0.246
-151.633	-70.479	0.265	-0.100
-150.618	-21.764	-0.166	0.100
-149.604	125.456	0.047	-0.059
-148.589	751.344	0.025	0.068
-147.574	184.075	0.102	-0.150
-146.560	172.915	-0.040	0.058
-145.545	20.178	-0.220	0.176
-144.531	-142.967	0.144	0.014
-143.516	341.252	0.190	-0.369
-142.502	458.767	-0.128	0.282
-141.487	-200.000	-0.030	-0.214
-140.472	-200.000	0.010	-0.095
-139.458	103.920	0.197	-0.229
-138.443	450.067	-0.199	0.435
-137.429	800.000	-0.005	-0.015
-136.414	23.853	0.097	0.079
-135.399	-24.341	-0.084	0.050
-134.385	-200.000	-0.022	-0.164
-133.370	-37.521	0.332	-0.175
-132.356	-200.000	0.024	0.257
-131.341	-200.000	-0.001	0.119
-130.326	-173.188	0.091	0.003
-129.312	-28.792	-0.277	0.158
-128.297	-200.000	-0.013	0.468
-127.283	-155.120	-0.227	-0.015
-126.268	800.000	0.035	0.128
-125.253	244.498	0.066	-0.109
-124.239	-164.033	0.150	0.007
-123.224	24.438	-0.130	-0.106
-122.210	87.909	0.212	0.232
-121.195	800.000	-0.042	0.166
