DTS Sentinel unit serial number:	SN413079Multiplexer serial number:	ORYXHardware model number:	OX4-SRSoftware version number:	ORYX F/W v4.00 Oryx Data Collector v3.7.2.0data status	okinstallation	princeton_trtdifferential loss correction	single-endedforward channel	channel 4reverse channel	N/Adate	2019/09/15time	21:41:35forward acquisition time	60.00reverse acquisition time	0.00gamma	496.2192k internal	0.2318k external	0.2318temperature offset calibration	0.9944default loss term (dB/km)	0.3790temperature slope calibration	1.0000multiplexer offset coefficient	1.0000multiplexer slope coefficient	1.0000fibre end	0.00T internal ref (°C)	30.37T ext. ref 1 (°C)	8.39T ext. ref 2 (°C)	23.49length (m)	temperature (°C)	Stokes	anti-Stokes-747.200	800.000	-0.078	0.280
-746.185	396.240	0.111	0.234
-745.171	-143.309	-0.067	-0.007
-744.156	-200.000	-0.035	0.598
-743.142	135.939	0.143	0.189
-742.127	160.681	-0.225	0.318
-741.112	161.823	0.141	0.200
-740.098	800.000	0.061	0.243
-739.083	-200.000	0.002	-0.492
-738.069	-200.000	-0.022	0.379
-737.054	549.939	-0.147	-0.357
-736.039	59.343	-0.112	0.111
-735.025	-200.000	0.046	0.384
-734.010	-11.427	-0.468	0.311
-732.996	709.392	-0.052	0.139
-731.981	3.362	-0.280	0.206
-730.966	7.479	-0.160	0.121
-729.952	-200.000	-0.493	0.000
-728.937	-152.826	0.281	0.020
-727.923	25.237	-0.147	0.124
-726.908	759.188	0.089	-0.244
-725.894	131.149	-0.431	0.560
-724.879	-125.347	-0.171	0.026
-723.864	800.000	0.097	-0.306
-722.850	800.000	-0.048	-0.198
-721.835	-26.943	-0.226	0.133
-720.821	-14.752	-0.153	-0.099
-719.806	800.000	0.102	-0.295
-718.791	170.609	-0.072	-0.104
-717.777	800.000	0.062	0.180
-716.762	197.606	-0.091	0.141
-715.748	88.982	-0.289	-0.325
-714.733	45.467	0.163	-0.152
-713.718	40.337	0.188	-0.171
-712.704	-15.633	-0.173	0.111
-711.689	-105.824	-0.270	-0.062
-710.675	-56.395	0.276	-0.124
-709.660	-168.333	-0.342	0.013
-708.645	-75.620	0.281	0.101
-707.631	-200.000	0.008	0.077
-706.616	119.932	0.300	-0.376
-705.602	153.646	-0.256	-0.355
-704.587	-2.462	0.194	-0.137
-703.572	800.000	0.031	-0.112
-702.558	-121.788	0.158	-0.026
-701.543	-200.000	0.006	0.340
-700.529	-77.500	-0.292	-0.102
-699.514	-200.000	-0.006	0.093
-698.499	233.165	-0.233	0.387
-697.485	-58.960	0.115	0.050
-696.470	55.926	0.180	-0.176
-695.456	-118.695	-0.107	-0.019
-694.441	-200.000	0.006	0.386
-693.426	-88.418	-0.043	0.013
-692.412	364.431	0.130	-0.264
-691.397	800.000	0.041	0.179
-690.383	150.895	0.108	0.148
-689.368	12.943	-0.220	0.172
-688.354	148.299	0.053	0.072
-687.339	-166.408	-0.295	-0.012
-686.324	105.762	0.091	-0.109
-685.310	476.181	-0.113	0.257
-684.295	46.266	-0.207	-0.194
-683.281	-29.867	0.080	-0.046
-682.266	-191.831	-0.285	0.003
-681.251	-90.797	-0.235	-0.068
-680.237	-3.226	-0.136	0.096
-679.222	59.312	0.022	0.022
-678.208	81.707	-0.175	-0.191
-677.193	-103.983	-0.337	-0.079
-676.178	113.054	0.134	-0.164
-675.164	800.000	0.098	-0.273
-674.149	-173.888	0.228	-0.007
-673.135	6.585	-0.065	-0.049
-672.120	245.620	-0.062	0.106
-671.105	-200.000	0.008	0.073
-670.091	-200.000	0.015	0.163
-669.076	121.664	0.086	-0.109
-668.062	-66.194	0.103	-0.041
-667.047	473.634	-0.105	0.238
-666.032	73.696	-0.257	0.272
-665.018	531.662	-0.034	0.081
-664.003	-144.939	0.138	-0.013
-662.989	-200.000	-0.009	0.137
-661.974	-200.000	0.021	-0.269
-660.959	89.602	-0.298	0.336
-659.945	-166.349	-0.098	-0.004
-658.930	-109.290	-0.397	-0.085
-657.916	225.774	-0.227	-0.371
-656.901	342.669	0.053	-0.106
-655.886	-86.755	0.215	0.066
-654.872	-110.287	0.142	0.030
-653.857	-150.402	-0.197	0.015
-652.843	-200.000	-0.055	0.394
-651.828	204.941	0.077	-0.121
-650.814	-200.000	0.026	-0.204
-649.799	-200.000	-0.005	0.105
-648.784	-200.000	0.003	0.274
-647.770	-145.043	-0.247	0.023
-646.755	62.801	0.265	-0.268
-645.741	87.779	0.183	-0.205
-644.726	288.044	0.050	-0.091
-643.711	-200.000	-0.034	-0.212
-642.697	800.000	0.071	-0.242
-641.682	-39.675	0.287	0.151
-640.668	69.673	-0.030	-0.031
-639.653	-200.000	-0.096	-0.623
-638.638	268.185	0.218	-0.385
-637.624	-106.459	-0.266	0.060
-636.609	213.344	0.101	-0.161
-635.595	-8.645	-0.190	0.129
-634.580	800.000	-0.061	0.206
-633.565	-73.672	0.078	0.028
-632.551	450.150	0.054	0.120
-631.536	-200.000	0.039	-0.225
-630.522	472.179	0.064	-0.145
-629.507	-154.640	0.347	-0.023
-628.492	792.908	0.019	-0.052
-627.478	262.223	-0.193	0.338
-626.463	198.953	0.132	0.204
-625.449	172.453	-0.201	0.291
-624.434	465.747	0.103	0.231
-623.419	256.214	0.133	-0.230
-622.405	-4.107	-0.131	0.092
-621.390	183.832	0.053	-0.079
-620.376	-200.000	0.051	0.275
-619.361	-66.502	-0.189	0.076
-618.346	-8.988	-0.064	0.043
-617.332	800.000	0.135	-0.438
-616.317	312.503	-0.106	0.200
-615.303	-48.497	0.181	-0.088
-614.288	800.000	0.083	0.312
-613.273	94.266	-0.319	-0.365
-612.259	-194.978	0.214	-0.002
-611.244	-157.071	-0.222	0.014
-610.230	-200.000	0.004	0.053
-609.215	-200.000	0.007	-0.252
-608.201	-200.000	0.249	0.001
-607.186	-38.372	0.281	0.150
-606.171	32.396	0.088	-0.077
-605.157	140.034	-0.143	-0.190
-604.142	663.217	0.052	0.135
-603.128	95.029	-0.107	-0.123
-602.113	-86.691	-0.219	-0.068
-601.098	-62.878	0.164	0.068
-600.084	-60.983	-0.051	0.022
-599.069	-25.053	0.169	0.101
-598.055	225.321	-0.106	0.173
-597.040	25.251	0.190	-0.159
-596.025	-200.000	-0.004	-0.061
-595.011	-200.000	0.025	-0.246
-593.996	-92.241	-0.539	0.153
-592.982	800.000	-0.051	0.148
-591.967	-82.168	0.233	0.076
-590.952	44.840	0.117	0.108
-589.938	225.447	-0.126	0.205
-588.923	-200.000	-0.046	-0.280
-587.909	291.631	0.092	0.168
-586.894	9.193	-0.192	-0.146
-585.879	-143.654	0.099	0.009
-584.865	-200.000	-0.046	0.312
-583.850	-200.000	-0.011	0.201
-582.836	800.000	0.056	-0.173
-581.821	512.510	0.068	-0.160
-580.806	95.235	-0.119	-0.137
-579.792	373.968	-0.026	0.054
-578.777	5.693	-0.032	0.024
-577.763	159.631	0.112	0.157
-576.748	112.467	-0.227	0.276
-575.733	130.338	-0.125	0.161
-574.719	-19.954	-0.166	0.103
-573.704	-47.116	0.142	-0.070
-572.690	89.214	-0.177	-0.198
-571.675	86.306	0.194	-0.214
-570.661	15.425	0.127	-0.100
-569.646	78.852	-0.176	-0.189
-568.631	-200.000	-0.012	0.103
-567.617	525.080	0.126	-0.298
-566.602	-101.968	-0.276	-0.067
-565.588	800.000	0.044	0.130
-564.573	-8.548	0.060	-0.040
-563.558	79.381	-0.128	-0.138
-562.544	658.279	0.151	-0.390
-561.529	178.120	0.177	0.259
-560.515	-200.000	-0.017	-0.082
-559.500	-82.587	0.268	-0.087
-558.485	428.652	-0.016	0.035
-557.471	4.578	-0.126	0.093
-556.456	273.739	0.062	0.111
-555.442	194.528	0.087	0.133
-554.427	-200.000	-0.020	0.435
-553.412	607.175	-0.075	0.188
-552.398	-50.342	-0.113	0.054
-551.383	-63.166	-0.271	0.112
-550.369	-75.123	-0.140	-0.050
-549.354	800.000	-0.011	-0.044
-548.339	800.000	0.041	0.117
-547.325	154.941	0.167	-0.230
-546.310	-200.000	0.025	-0.352
-545.296	-200.000	0.024	0.231
-544.281	74.323	-0.211	0.223
-543.266	-9.498	0.033	0.022
-542.252	10.187	0.336	-0.256
-541.237	-200.000	-0.030	-0.230
-540.223	-10.003	0.268	0.179
-539.208	53.722	-0.050	-0.048
-538.193	146.977	0.223	-0.302
-537.179	-80.070	-0.268	-0.090
-536.164	4.625	-0.134	0.099
-535.150	800.000	0.026	-0.083
-534.135	-34.784	-0.082	0.045
-533.121	-200.000	0.024	-0.173
-532.106	203.741	0.171	0.266
-531.091	-103.514	0.177	-0.042
-530.077	-137.287	-0.112	0.013
-529.062	800.000	0.161	-0.447
-528.048	-50.113	0.242	-0.115
-527.033	-99.518	0.250	-0.063
-526.018	88.124	-0.253	0.282
-525.004	800.000	0.096	0.280
-523.989	-80.392	0.158	-0.053
-522.975	-200.000	-0.012	0.142
-521.960	-7.154	-0.382	0.260
-520.945	282.092	0.107	0.193
-519.931	-200.000	-0.015	0.110
-518.916	256.759	0.258	-0.445
-517.902	156.873	0.112	-0.156
-516.887	-73.713	0.507	-0.185
-515.872	198.755	-0.060	0.093
-514.858	-90.379	0.203	-0.059
-513.843	-99.634	0.295	0.074
-512.829	-200.000	0.003	-0.026
-511.814	648.404	-0.043	-0.110
-510.799	50.077	-0.164	-0.156
-509.785	-200.000	0.022	-0.131
-508.770	203.091	-0.106	-0.164
-507.756	-41.030	0.264	-0.137
-506.741	47.729	0.242	-0.226
-505.726	-118.763	-0.249	-0.044
-504.712	419.488	-0.092	-0.197
-503.697	800.000	0.043	-0.164
-502.683	-120.167	0.132	0.023
-501.668	54.972	0.137	-0.133
-500.653	1.112	0.077	0.055
-499.639	800.000	0.093	0.317
-498.624	-135.327	0.283	0.034
-497.610	752.478	-0.071	0.193
-496.595	-0.921	0.047	0.034
-495.581	42.574	-0.175	-0.160
-494.566	-200.000	-0.055	-0.343
-493.551	-59.028	-0.396	0.171
-492.537	-200.000	0.064	0.303
-491.522	-12.058	-0.145	0.095
-490.508	-106.380	0.212	0.047
-489.493	266.341	0.085	-0.148
-488.478	43.667	0.175	0.160
-487.464	245.528	-0.020	0.033
-486.449	87.933	0.038	-0.042
-485.435	-200.000	0.062	0.351
-484.420	-49.190	0.029	-0.014
-483.405	177.789	-0.107	0.156
-482.391	-36.431	0.338	0.182
-481.376	-184.696	-0.047	0.001
-480.362	-200.000	0.006	-0.075
-479.347	-200.000	-0.007	-0.189
-478.332	-200.000	-0.021	0.122
-477.318	-200.000	-0.080	0.397
-476.303	477.126	-0.122	0.277
-475.289	800.000	-0.048	0.187
-474.274	-136.323	0.134	0.016
-473.259	451.818	0.142	0.313
-472.245	800.000	-0.067	0.218
-471.230	88.626	0.099	-0.110
-470.216	-142.080	0.329	0.033
-469.201	75.244	-0.245	0.259
-468.186	-200.000	0.010	0.256
-467.172	166.382	0.057	0.081
-466.157	-200.000	0.004	0.071
-465.143	-110.092	0.259	0.054
-464.128	-200.000	-0.043	-0.208
-463.113	-200.000	0.011	0.227
-462.099	-200.000	-0.001	0.049
-461.084	-200.000	-0.040	-0.237
-460.070	-77.301	0.083	0.029
-459.055	404.407	0.080	0.168
-458.040	40.842	-0.093	-0.084
-457.026	-120.170	0.067	0.011
-456.011	331.740	0.008	0.015
-454.997	-182.155	0.134	-0.003
-453.982	-139.553	0.326	0.035
-452.968	-200.000	0.046	-0.205
-451.953	446.568	0.139	-0.306
-450.938	-99.768	0.223	-0.056
-449.924	-200.000	0.034	-0.303
-448.909	-102.922	-0.118	0.028
-447.895	800.000	0.106	0.370
-446.880	800.000	-0.107	-0.329
-445.865	-200.000	-0.014	-0.296
-444.851	-200.000	0.054	0.451
-443.836	-148.119	0.349	0.029
-442.822	-89.250	0.106	0.031
-441.807	107.475	0.189	0.225
-440.792	-44.097	0.128	0.065
-439.778	800.000	-0.154	-0.457
-438.763	52.721	-0.123	0.117
-437.749	-179.203	0.114	-0.003
-436.734	800.000	0.013	0.044
-435.719	-200.000	0.037	0.196
-434.705	47.302	-0.198	-0.185
-433.690	800.000	-0.025	0.074
-432.676	436.093	0.092	0.200
-431.661	-69.996	0.246	0.094
-430.646	-200.000	-0.021	0.252
-429.632	9.444	-0.192	-0.145
-428.617	-28.737	0.275	-0.158
-427.603	-200.000	-0.003	0.181
-426.588	-200.000	-0.056	0.246
-425.573	-200.000	-0.047	-0.229
-424.559	0.508	-0.061	-0.043
-423.544	-200.000	-0.024	0.199
-422.530	41.019	-0.110	0.100
-421.515	-200.000	-0.003	0.173
-420.500	6.452	-0.076	0.057
-419.486	271.583	-0.025	-0.044
-418.471	-126.952	-0.246	-0.036
-417.457	800.000	0.050	0.181
-416.442	90.790	-0.066	-0.074
-415.428	-200.000	0.044	-0.286
-414.413	81.865	0.054	0.058
-413.398	800.000	-0.036	-0.152
-412.384	-200.000	0.002	0.017
-411.369	-17.890	-0.351	0.220
-410.355	-200.000	0.059	-0.350
-409.340	86.777	-0.175	-0.193
-408.325	13.588	0.144	0.112
-407.311	17.449	-0.146	0.116
-406.296	566.010	0.078	-0.188
-405.282	56.269	-0.112	0.109
-404.267	-28.243	-0.295	-0.170
-403.252	-117.910	-0.456	0.082
-402.238	-123.465	0.086	-0.014
-401.223	160.136	0.135	-0.188
-400.209	-84.969	0.151	-0.047
-399.194	-163.225	-0.250	0.012
-398.179	-91.577	0.267	-0.076
-397.165	-96.375	0.162	0.043
-396.150	800.000	0.022	-0.082
-395.136	-200.000	-0.054	0.280
-394.121	-80.480	0.157	0.052
-393.106	-153.536	0.294	0.020
-392.092	-200.000	0.017	0.281
-391.077	177.775	0.263	0.382
-390.063	-44.611	-0.210	0.105
-389.048	-200.000	0.000	-0.012
-388.033	466.344	0.119	-0.266
-387.019	-161.674	-0.314	-0.016
-386.004	800.000	-0.082	-0.264
-384.990	-200.000	0.011	0.056
-383.975	-11.797	0.216	0.142
-382.960	83.787	0.149	0.162
-381.946	-67.923	-0.416	-0.162
-380.931	309.441	-0.048	0.090
-379.917	-200.000	-0.011	0.243
-378.902	-111.886	-0.117	0.024
-377.888	-200.000	-0.003	-0.162
-376.873	-32.916	-0.136	-0.075
-375.858	800.000	-0.127	0.399
-374.844	624.535	-0.125	0.315
-373.829	-21.806	0.156	-0.095
-372.815	228.582	-0.057	-0.092
-371.800	-101.981	0.086	-0.021
-370.785	800.000	-0.048	-0.133
-369.771	192.579	-0.113	-0.171
-368.756	-91.871	-0.134	-0.038
-367.742	-158.705	-0.262	-0.015
-366.727	-85.584	-0.204	0.063
-365.712	800.000	-0.064	-0.179
-364.698	45.936	0.082	0.076
-363.683	174.774	-0.083	0.120
-362.669	-109.640	-0.262	0.055
-361.654	310.677	0.153	-0.286
-360.639	-108.617	-0.239	-0.051
-359.625	164.322	0.071	-0.100
-358.610	-10.227	0.157	0.104
-357.596	-147.182	-0.152	-0.013
-356.581	22.716	0.088	0.072
-355.566	-132.550	-0.113	-0.015
-354.552	-31.249	0.156	0.087
-353.537	568.492	-0.064	0.155
-352.523	-200.000	-0.017	0.128
-351.508	549.609	-0.038	0.090
-350.493	-74.884	-0.552	-0.197
-349.479	-41.375	0.127	0.065
-348.464	248.956	-0.102	-0.171
-347.450	-147.745	-0.204	-0.017
-346.435	-105.184	-0.347	0.079
-345.420	-66.172	0.045	0.018
-344.406	800.000	-0.019	0.078
-343.391	-200.000	-0.011	-0.298
-342.377	-69.437	-0.078	0.030
-341.362	29.234	-0.281	0.237
-340.348	45.904	0.215	-0.198
-339.333	200.788	-0.072	0.110
-338.318	-138.650	-0.424	0.046
-337.304	-157.047	0.412	-0.025
-336.289	-144.540	-0.294	0.027
-335.275	-8.589	-0.281	-0.188
-334.260	-144.154	0.274	-0.026
-333.245	-123.086	0.039	-0.006
-332.231	147.373	-0.066	-0.089
-331.216	-184.948	-0.189	0.003
-330.202	-200.000	0.028	-0.223
-329.187	-30.564	0.108	-0.061
-328.172	800.000	-0.062	0.171
-327.158	26.282	0.058	0.048
-326.143	-200.000	-0.007	0.246
-325.129	-162.268	0.284	0.014
-324.114	65.812	-0.160	-0.161
-323.099	-0.063	0.126	-0.089
-322.085	9.682	-0.069	-0.052
-321.070	338.565	-0.068	0.131
-320.056	-169.558	-0.155	0.006
-319.041	-155.080	-0.362	0.024
-318.026	800.000	-0.047	0.156
-317.012	151.245	0.178	0.242
-315.997	706.374	-0.104	0.273
-314.983	-30.599	0.396	-0.223
-313.968	-200.000	0.001	0.279
-312.953	789.748	0.031	0.085
-311.939	22.523	-0.283	0.230
-310.924	76.380	0.193	0.204
-309.910	800.000	-0.006	0.023
-308.895	244.880	-0.031	0.052
-307.880	103.607	0.152	0.178
-306.866	-21.243	-0.235	-0.143
-305.851	139.180	-0.095	-0.124
-304.837	800.000	0.048	-0.134
-303.822	245.590	-0.153	-0.255
-302.807	-68.674	-0.272	0.105
-301.793	327.942	-0.032	-0.061
-300.778	638.905	0.016	0.041
-299.764	54.202	-0.130	0.124
-298.749	-75.709	0.200	0.071
-297.735	-11.555	-0.255	-0.167
-296.720	-61.831	0.077	0.032
-295.705	-76.627	0.219	0.077
-294.691	800.000	0.052	0.152
-293.676	176.140	0.075	0.108
-292.662	-200.000	-0.017	0.403
-291.647	9.063	-0.153	0.115
-290.632	-200.000	-0.012	0.075
-289.618	246.038	-0.134	0.224
-288.603	-152.228	-0.087	0.006
-287.589	-23.616	0.127	0.076
-286.574	72.190	0.075	0.077
-285.559	-10.027	0.334	-0.221
-284.545	800.000	0.089	0.365
-283.530	535.222	0.172	0.404
-282.516	424.694	-0.062	-0.132
-281.501	120.602	0.236	-0.291
-280.486	27.112	-0.127	-0.106
-279.472	240.020	-0.023	-0.039
-278.457	-2.023	-0.085	-0.059
-277.443	800.000	-0.166	-0.455
-276.428	-126.641	0.166	-0.024
-275.413	-200.000	0.001	0.158
-274.399	139.854	0.160	-0.210
-273.384	-17.300	-0.120	0.075
-272.370	-200.000	-0.032	-0.236
-271.355	268.570	0.047	-0.081
-270.340	-107.765	0.149	-0.032
-269.326	-200.000	0.004	-0.042
-268.311	-182.673	0.124	0.002
-267.297	196.507	0.074	-0.112
-266.282	800.000	-0.056	-0.186
-265.267	800.000	0.034	-0.143
-264.253	-158.138	0.413	0.024
-263.238	7.367	-0.213	0.158
-262.224	800.000	-0.133	0.380
-261.209	800.000	0.072	-0.262
-260.195	-187.013	-0.173	-0.002
-259.180	23.627	-0.176	-0.144
-258.165	149.493	-0.079	0.106
-257.151	225.817	-0.099	0.160
-256.136	-63.162	-0.560	0.229
-255.122	-41.726	0.187	-0.096
-254.107	-21.714	-0.291	-0.176
-253.092	-200.000	-0.045	-0.260
-252.078	-200.000	-0.065	-0.394
-251.063	-131.805	0.256	-0.033
-250.049	-200.000	0.042	-0.194
-249.034	127.506	0.081	-0.102
-248.019	638.388	0.026	0.067
-247.005	176.571	-0.107	0.154
-245.990	290.650	-0.163	0.295
-244.976	113.803	0.144	-0.174
-243.961	-172.771	-0.168	0.005
-242.946	222.681	-0.183	0.292
-241.932	-55.368	0.069	-0.031
-240.917	800.000	0.012	-0.044
-239.903	8.000	0.192	-0.143
-238.888	-76.472	0.268	-0.093
-237.873	152.189	0.019	0.025
-236.859	95.916	0.202	0.229
-235.844	76.431	0.236	0.248
-234.830	467.630	0.169	-0.375
-233.815	510.401	-0.049	-0.114
-232.800	-200.000	-0.024	-0.275
-231.786	800.000	0.031	-0.105
-230.771	279.823	0.037	0.065
-229.757	-32.600	0.126	0.069
-228.742	-46.501	-0.207	-0.101
-227.727	-91.378	0.246	-0.070
-226.713	-200.000	-0.029	-0.326
-225.698	263.897	-0.086	0.149
-224.684	-89.311	-0.166	-0.049
-223.669	800.000	0.112	-0.342
-222.655	-200.000	0.033	-0.161
-221.640	529.248	-0.117	-0.274
-220.625	-79.510	-0.062	-0.021
-219.611	100.624	0.264	-0.305
-218.596	-89.711	0.358	0.104
-217.582	-89.908	-0.532	-0.154
-216.567	800.000	0.056	0.159
-215.552	152.256	-0.306	0.414
-214.538	-200.000	0.025	0.285
-213.523	378.052	-0.091	0.185
-212.509	800.000	0.053	0.165
-211.494	211.593	0.162	0.253
-210.479	-62.319	-0.051	0.021
-209.465	-11.672	0.330	0.215
-208.450	317.281	-0.083	-0.155
-207.436	-158.887	0.208	0.012
-206.421	435.678	-0.019	-0.042
-205.406	8.860	-0.144	-0.107
-204.392	800.000	-0.045	-0.165
-203.377	-130.279	-0.254	0.034
-202.363	-89.952	-0.097	-0.028
-201.348	-81.874	0.096	-0.031
-200.333	225.811	0.029	0.047
-199.319	-114.153	-0.337	0.065
-198.304	161.444	-0.095	-0.132
-197.290	-68.791	0.110	0.042
-196.275	-34.376	-0.107	0.058
-195.260	-77.727	-0.110	0.038
-194.246	-200.000	-0.010	-0.235
-193.231	-50.482	-0.142	0.066
-192.217	800.000	0.069	-0.278
-191.202	202.479	0.079	-0.121
-190.187	87.651	-0.138	-0.151
-189.173	-89.200	0.396	-0.116
-188.158	318.057	-0.066	-0.123
-187.144	150.825	-0.105	-0.141
-186.129	-135.143	0.184	0.022
-185.114	121.867	0.156	0.193
-184.100	-139.508	-0.422	-0.045
-183.085	-52.815	0.022	0.010
-182.071	53.734	0.129	0.122
-181.056	-150.620	-0.257	0.019
-180.042	-200.000	0.002	-0.058
-179.027	313.425	0.083	-0.155
-178.012	-165.207	-0.282	-0.012
-176.998	-115.946	0.147	0.027
-175.983	311.074	-0.117	0.218
-174.969	-34.712	-0.224	0.121
-173.954	-94.723	-0.165	-0.044
-172.939	-17.224	0.249	-0.156
-171.925	800.000	-0.069	0.295
-170.910	-8.456	-0.118	-0.079
-169.896	53.509	-0.249	-0.236
-168.881	800.000	-0.046	-0.175
-167.866	170.584	0.081	-0.115
-166.852	-5.510	0.133	-0.090
-165.837	-111.940	-0.049	-0.010
-164.823	-15.948	0.125	0.079
-163.808	-200.000	-0.010	0.225
-162.793	-63.920	0.452	0.183
-161.779	-81.782	-0.346	0.112
-160.764	-163.186	-0.405	-0.019
-159.750	19.134	-0.203	-0.161
-158.735	-114.322	0.274	0.052
-157.720	800.000	-0.036	0.116
-156.706	67.760	0.211	-0.213
-155.691	800.000	-0.180	-0.632
-154.677	-102.736	-0.210	0.050
-153.662	444.252	-0.122	-0.264
-152.647	-142.592	0.439	-0.043
-151.633	41.442	0.306	0.274
-150.618	670.528	-0.125	0.320
-149.604	800.000	-0.048	0.142
-148.589	800.000	0.111	0.361
-147.574	-90.057	-0.190	0.055
-146.560	17.344	0.113	0.088
-145.545	0.945	0.191	-0.135
-144.531	23.841	0.228	0.186
-143.516	-161.334	-0.263	0.013
-142.502	800.000	-0.111	0.359
-141.487	-39.139	0.221	-0.115
-140.472	-168.351	-0.015	-0.001
-139.458	118.086	0.067	0.081
-138.443	-82.628	0.159	0.051
-137.429	-45.174	0.332	-0.163
-136.414	263.784	-0.012	0.021
-135.399	-138.573	0.148	0.016
-134.385	386.975	-0.049	0.099
-133.370	-110.849	0.130	0.027
-132.356	-200.000	-0.010	0.108
-131.341	800.000	-0.138	0.424
-130.326	47.371	0.115	-0.106
-129.312	3.885	0.109	-0.079
-128.297	95.677	-0.208	0.234
-127.283	-183.919	0.346	0.006
-126.268	800.000	0.070	0.301
-125.253	-122.663	-0.296	0.047
-124.239	102.873	-0.247	-0.286
-123.224	233.483	-0.219	-0.356
-122.210	-200.000	-0.016	-0.075
-121.195	669.886	0.041	0.104
-120.180	-200.000	-0.002	-0.216
