DTS Sentinel unit serial number:	SN413079Multiplexer serial number:	ORYXHardware model number:	OX4-SRSoftware version number:	ORYX F/W v4.00 Oryx Data Collector v3.7.2.0data status	okinstallation	princeton_trtdifferential loss correction	single-endedforward channel	channel 4reverse channel	N/Adate	2019/09/19time	02:17:34forward acquisition time	60.00reverse acquisition time	0.00gamma	496.2192k internal	0.2340k external	0.2340temperature offset calibration	1.0026default loss term (dB/km)	0.3790temperature slope calibration	1.0000multiplexer offset coefficient	1.0000multiplexer slope coefficient	1.0000fibre end	0.00T internal ref (°C)	21.12T ext. ref 1 (°C)	0.68T ext. ref 2 (°C)	14.56length (m)	temperature (°C)	Stokes	anti-Stokes-747.200	18.026	-0.079	0.063
-746.185	17.514	0.373	0.298
-745.171	39.198	-0.152	-0.137
-744.156	277.935	0.140	0.249
-743.142	160.331	0.086	-0.120
-742.127	328.487	0.057	-0.109
-741.112	800.000	0.025	-0.111
-740.098	-158.217	0.087	-0.005
-739.083	-200.000	-0.077	-0.359
-738.069	800.000	-0.029	0.108
-737.054	-152.079	-0.333	0.024
-736.039	-200.000	0.013	-0.330
-735.025	-80.815	-0.108	-0.036
-734.010	-200.000	0.043	0.199
-732.996	131.412	-0.127	-0.164
-731.981	45.598	0.131	0.122
-730.966	-65.864	0.043	-0.017
-729.952	800.000	0.004	0.018
-728.937	800.000	-0.026	-0.094
-727.923	93.747	0.394	-0.448
-726.908	71.694	-0.169	0.175
-725.894	-200.000	0.020	-0.221
-724.879	366.330	-0.104	-0.211
-723.864	399.551	0.171	-0.359
-722.850	-140.466	-0.280	0.029
-721.835	35.447	-0.126	-0.111
-720.821	-200.000	-0.009	-0.089
-719.806	112.765	0.120	-0.145
-718.791	-19.409	-0.160	0.100
-717.777	-72.511	0.107	0.040
-716.762	92.805	-0.059	0.066
-715.748	-31.291	-0.065	-0.037
-714.733	460.967	0.093	0.208
-713.718	800.000	-0.096	-0.339
-712.704	407.658	-0.104	0.220
-711.689	63.119	-0.093	-0.093
-710.675	-200.000	-0.009	-0.046
-709.660	-176.504	0.536	-0.014
-708.645	-163.260	0.336	0.016
-707.631	-71.864	0.218	0.081
-706.616	800.000	-0.060	0.250
-705.602	143.221	-0.158	0.211
-704.587	85.264	0.007	0.008
-703.572	-67.449	0.169	-0.067
-702.558	-51.185	-0.273	-0.128
-701.543	433.277	0.169	0.367
-700.529	800.000	0.097	0.274
-699.514	-93.062	-0.199	0.056
-698.499	218.988	-0.101	-0.161
-697.485	11.717	0.302	-0.232
-696.470	437.230	0.048	0.105
-695.456	-159.961	0.143	0.008
-694.441	226.215	0.123	-0.200
-693.426	264.885	0.076	-0.132
-692.412	-130.619	0.242	-0.033
-691.397	-50.788	0.138	-0.065
-690.383	-25.953	-0.149	-0.088
-689.368	561.253	0.131	0.317
-688.354	220.936	-0.013	-0.021
-687.339	175.442	-0.147	0.214
-686.324	107.063	0.108	0.129
-685.310	321.051	-0.062	-0.119
-684.295	86.772	-0.085	0.094
-683.281	-35.087	0.057	0.031
-682.266	-74.071	0.322	-0.117
-681.251	800.000	-0.017	-0.049
-680.237	-158.566	-0.083	-0.005
-679.222	800.000	-0.086	0.349
-678.208	-34.276	0.259	0.142
-677.193	41.082	-0.127	-0.115
-676.178	-28.641	-0.216	-0.124
-675.164	667.189	0.117	0.302
-674.149	14.556	-0.217	0.170
-673.135	-129.432	-0.201	-0.028
-672.120	-15.611	0.082	0.052
-671.105	800.000	-0.046	-0.149
-670.091	-55.348	-0.225	-0.101
-669.076	91.627	0.067	-0.075
-668.062	188.430	0.093	0.139
-667.047	80.144	0.118	-0.127
-666.032	-200.000	-0.031	-0.271
-665.018	271.544	-0.020	0.035
-664.003	-135.027	-0.473	0.057
-662.989	-104.457	0.271	-0.063
-661.974	-89.303	0.262	0.077
-660.959	800.000	-0.029	-0.096
-659.945	-56.298	-0.052	0.023
-658.930	-200.000	-0.004	-0.215
-657.916	-200.000	0.054	-0.414
-656.901	130.262	-0.211	0.269
-655.886	-80.470	-0.184	-0.061
-654.872	-200.000	0.122	-0.000
-653.857	597.576	0.140	-0.346
-652.843	-20.563	-0.178	0.109
-651.828	-156.410	-0.200	-0.012
-650.814	-200.000	-0.067	-0.377
-649.799	65.836	0.144	-0.146
-648.784	31.700	-0.058	0.050
-647.770	-200.000	0.032	-0.146
-646.755	38.061	-0.126	0.112
-645.741	-103.751	0.167	0.039
-644.726	800.000	0.037	0.108
-643.711	800.000	0.052	0.180
-642.697	386.295	0.179	-0.368
-641.682	-200.000	-0.007	-0.052
-640.668	-117.983	-0.417	0.074
-639.653	111.835	0.095	-0.115
-638.638	-200.000	0.007	-0.298
-637.624	-200.000	0.035	0.352
-636.609	-26.727	-0.029	-0.017
-635.595	291.394	-0.012	-0.022
-634.580	-99.520	0.322	0.081
-633.565	34.696	-0.176	0.154
-632.551	-172.064	-0.186	0.006
-631.536	8.319	0.160	0.120
-630.522	-200.000	-0.006	-0.162
-629.507	8.016	-0.205	-0.153
-628.492	-4.731	-0.202	-0.139
-627.478	55.875	-0.171	0.166
-626.463	348.319	0.030	-0.060
-625.449	102.891	-0.194	-0.226
-624.434	355.161	0.026	-0.051
-623.419	-200.000	-0.024	0.215
-622.405	-129.032	0.234	0.033
-621.390	40.665	0.317	0.285
-620.376	141.607	0.120	-0.158
-619.361	643.693	-0.078	-0.198
-618.346	-200.000	-0.026	-0.179
-617.332	-200.000	-0.016	-0.076
-616.317	-29.893	0.135	-0.077
-615.303	164.468	-0.159	-0.224
-614.288	-88.800	-0.125	-0.037
-613.273	11.778	-0.280	-0.214
-612.259	-200.000	0.053	-0.252
-611.244	350.933	0.046	0.091
-610.230	-132.673	-0.375	-0.048
-609.215	-60.008	0.239	-0.102
-608.201	94.498	0.066	-0.074
-607.186	-96.665	0.185	-0.049
-606.171	-101.249	-0.199	0.048
-605.157	151.775	-0.090	-0.122
-604.142	800.000	-0.070	-0.264
-603.128	-98.858	-0.139	-0.035
-602.113	-41.263	0.183	0.094
-601.098	-88.494	-0.463	0.138
-600.084	167.607	-0.249	0.353
-599.069	-200.000	-0.044	0.198
-598.055	800.000	-0.052	-0.158
-597.040	-101.561	0.231	-0.056
-596.025	44.218	-0.382	-0.349
-595.011	-200.000	0.005	-0.051
-593.996	-14.462	-0.124	0.079
-592.982	-35.707	0.128	0.069
-591.967	121.846	0.288	0.358
-590.952	588.009	0.079	0.193
-589.938	-116.474	-0.220	-0.041
-588.923	107.831	0.148	-0.176
-587.909	464.117	0.069	-0.153
-586.894	-134.739	0.157	-0.019
-585.879	800.000	0.069	0.276
-584.865	-143.476	-0.230	0.022
-583.850	-164.232	-0.409	0.019
-582.836	183.749	-0.149	0.219
-581.821	19.534	-0.111	-0.089
-580.806	77.291	-0.158	-0.168
-579.792	23.605	0.110	-0.090
-578.777	-22.213	-0.207	0.125
-577.763	800.000	0.125	0.352
-576.748	-132.218	0.297	-0.038
-575.733	-169.387	0.189	0.007
-574.719	-19.260	-0.359	0.222
-573.704	72.085	0.032	-0.033
-572.690	-151.095	0.330	0.025
-571.675	-33.513	0.237	0.131
-570.661	1.913	-0.171	0.123
-569.646	-33.255	0.253	0.140
-568.631	47.805	-0.126	-0.117
-567.617	-78.936	0.355	0.120
-566.602	-93.294	0.204	0.056
-565.588	114.441	-0.175	-0.212
-564.573	-47.790	0.222	-0.107
-563.558	403.338	0.110	-0.231
-562.544	-36.823	0.118	0.063
-561.529	49.971	-0.173	-0.162
-560.515	-81.705	-0.187	0.061
-559.500	-28.130	0.321	0.184
-558.485	-34.038	0.098	0.053
-557.471	100.086	0.223	-0.258
-556.456	128.331	-0.177	0.224
-555.442	-22.923	0.202	0.121
-554.427	248.656	0.085	0.144
-553.412	800.000	-0.124	-0.361
-552.398	238.951	0.120	-0.198
-551.383	274.081	0.111	0.196
-550.369	-87.855	0.328	-0.098
-549.354	-55.480	-0.322	0.144
-548.339	-120.225	-0.049	-0.008
-547.325	142.372	0.071	0.093
-546.310	-5.837	-0.256	-0.175
-545.296	-4.634	-0.096	0.066
-544.281	-56.427	0.233	-0.103
-543.266	14.191	0.266	-0.206
-542.252	-124.311	-0.676	-0.105
-541.237	800.000	0.095	-0.288
-540.223	424.914	-0.038	-0.082
-539.208	-200.000	0.065	0.000
-538.193	-137.984	0.081	0.009
-537.179	51.858	0.186	0.176
-536.164	8.899	-0.048	0.036
-535.150	237.376	0.043	0.070
-534.135	43.143	0.032	-0.029
-533.121	542.416	-0.046	-0.108
-532.106	-200.000	0.005	-0.246
-531.091	-99.784	0.211	0.052
-530.077	-48.345	0.180	-0.086
-529.062	-200.000	-0.012	0.108
-528.048	-54.821	0.153	-0.069
-527.033	-182.726	-0.069	-0.001
-526.018	-17.792	0.051	0.032
-525.004	-200.000	0.041	-0.230
-523.989	501.625	0.107	-0.247
-522.975	-123.530	-0.461	0.073
-521.960	-63.746	0.004	-0.002
-520.945	-98.834	-0.273	-0.069
-519.931	-119.836	-0.148	0.025
-518.916	-7.877	0.223	-0.149
-517.902	208.301	-0.080	-0.124
-516.887	25.864	-0.229	-0.189
-515.872	44.591	0.112	0.102
-514.858	156.276	0.063	0.086
-513.843	215.120	0.090	0.141
-512.829	-113.284	0.156	0.030
-511.814	-200.000	0.017	0.198
-510.799	698.090	0.032	0.083
-509.785	20.401	-0.107	-0.086
-508.770	-121.863	-0.223	-0.037
-507.756	-200.000	0.003	0.095
-506.741	-143.986	-0.093	0.009
-505.726	-200.000	0.050	0.221
-504.712	-5.350	0.186	0.127
-503.697	209.158	-0.041	-0.064
-502.683	382.106	-0.053	-0.108
-501.668	-63.130	-0.532	0.218
-500.653	800.000	0.058	0.196
-499.639	-7.453	0.082	0.055
-498.624	522.588	-0.107	0.249
-497.610	112.580	-0.205	0.247
-496.595	800.000	-0.045	-0.181
-495.581	274.459	-0.039	0.069
-494.566	-200.000	-0.053	-0.375
-493.551	-123.719	0.510	-0.080
-492.537	-23.915	-0.265	-0.157
-491.522	2.045	-0.102	-0.073
-490.508	-108.744	0.236	-0.050
-489.493	-200.000	0.024	0.112
-488.478	124.658	-0.111	0.138
-487.464	-142.132	-0.213	0.021
-486.449	-104.618	-0.437	0.100
-485.435	-137.019	0.073	0.008
-484.420	169.872	0.124	0.176
-483.405	800.000	0.091	-0.271
-482.391	-80.604	-0.080	0.026
-481.376	-119.354	0.223	0.039
-480.362	-152.149	-0.092	0.007
-479.347	392.310	0.018	0.038
-478.332	-138.942	-0.232	0.025
-477.318	-85.487	-0.353	0.109
-476.303	-118.380	-0.367	0.065
-475.289	-200.000	0.001	-0.083
-474.274	-39.095	0.244	-0.127
-473.259	-200.000	-0.004	0.163
-472.245	-8.714	0.078	-0.052
-471.230	-166.049	-0.203	0.009
-470.216	102.449	-0.102	-0.118
-469.201	-200.000	-0.081	0.521
-468.186	-200.000	0.070	0.313
-467.172	800.000	-0.063	0.231
-466.157	800.000	0.110	-0.361
-465.143	-200.000	0.004	-0.088
-464.128	288.585	0.136	0.245
-463.113	-12.449	0.053	-0.034
-462.099	29.929	0.362	0.306
-461.084	141.819	0.096	-0.126
-460.070	-106.644	-0.424	-0.093
-459.055	-45.481	0.242	0.119
-458.040	303.361	-0.050	-0.091
-457.026	-107.795	0.230	0.050
-456.011	-200.000	-0.015	0.180
-454.997	-121.743	0.189	0.031
-453.982	-134.703	-0.101	-0.012
-452.968	-28.415	-0.268	0.153
-451.953	-18.804	-0.188	-0.116
-450.938	-200.000	0.003	-0.363
-449.924	-200.000	-0.022	-0.208
-448.909	-200.000	-0.009	-0.349
-447.895	-200.000	0.019	0.369
-446.880	17.087	-0.127	0.100
-445.865	98.699	0.122	0.140
-444.851	-134.005	-0.265	0.033
-443.836	-200.000	-0.058	-0.257
-442.822	-50.570	0.368	-0.172
-441.807	800.000	-0.109	-0.399
-440.792	119.007	-0.183	0.224
-439.778	-100.814	0.215	-0.053
-438.763	170.945	-0.040	0.057
-437.749	-26.568	-0.245	0.142
-436.734	-182.305	0.296	0.005
-435.719	800.000	0.096	-0.366
-434.705	-168.586	-0.205	-0.008
-433.690	-200.000	0.274	0.001
-432.676	-200.000	-0.054	-0.283
-431.661	-8.686	-0.042	-0.028
-430.646	-40.309	-0.303	0.156
-429.632	100.475	-0.133	0.153
-428.617	-157.899	-0.284	-0.017
-427.603	-200.000	0.017	0.384
-426.588	237.629	-0.228	0.374
-425.573	-106.357	-0.184	0.041
-424.559	-93.948	-0.094	-0.026
-423.544	541.441	0.103	-0.243
-422.530	800.000	-0.057	-0.219
-421.515	171.847	-0.094	-0.134
-420.500	-200.000	-0.021	0.203
-419.486	-126.400	0.447	-0.066
-418.471	86.708	-0.295	0.322
-417.457	15.134	0.017	0.013
-416.442	-40.210	0.211	-0.109
-415.428	-200.000	-0.010	-0.075
-414.413	-138.254	0.305	0.033
-413.398	800.000	0.077	-0.316
-412.384	-200.000	0.076	-0.506
-411.369	-196.529	0.280	0.002
-410.355	40.918	0.253	0.226
-409.340	-138.214	0.311	-0.034
-408.325	-200.000	-0.010	0.158
-407.311	-182.300	0.253	-0.005
-406.296	-60.135	-0.194	-0.082
-405.282	14.278	-0.235	-0.181
-404.267	-200.000	-0.012	0.179
-403.252	82.089	0.121	0.130
-402.238	-144.514	-0.286	0.026
-401.223	-57.504	0.133	0.058
-400.209	-67.259	0.086	0.033
-399.194	-161.881	0.208	-0.010
-398.179	-66.209	0.197	-0.078
-397.165	-106.175	-0.202	0.045
-396.150	-55.805	0.328	0.145
-395.136	-153.681	-0.101	0.007
-394.121	-87.677	-0.280	0.084
-393.106	256.145	0.054	-0.091
-392.092	130.484	-0.093	-0.118
-391.077	-91.651	0.159	-0.045
-390.063	-42.483	0.285	0.144
-389.048	-64.054	0.192	0.077
-388.033	-47.472	-0.311	0.149
-387.019	20.675	0.220	0.176
-386.004	-200.000	0.007	-0.165
-384.990	-66.097	0.063	0.025
-383.975	-18.953	-0.174	0.107
-382.960	-121.296	-0.234	0.039
-381.946	800.000	-0.020	-0.084
-380.931	-157.219	-0.137	-0.008
-379.917	146.235	-0.059	-0.078
-378.902	136.035	-0.093	-0.120
-377.888	-31.498	0.281	-0.156
-376.873	339.239	-0.125	-0.240
-375.858	218.235	-0.050	-0.079
-374.844	168.659	0.116	0.163
-373.829	-200.000	-0.009	0.079
-372.815	218.961	0.114	0.181
-371.800	164.607	-0.090	-0.126
-370.785	-200.000	0.023	0.133
-369.771	21.040	-0.318	0.255
-368.756	139.271	0.162	0.210
-367.742	388.468	0.102	0.208
-366.727	-200.000	-0.017	0.177
-365.712	-200.000	0.032	-0.276
-364.698	-105.579	0.219	-0.049
-363.683	-125.669	0.179	0.027
-362.669	159.623	-0.200	-0.274
-361.654	-200.000	-0.030	-0.333
-360.639	223.962	0.047	0.074
-359.625	31.658	0.438	0.372
-358.610	800.000	0.038	0.131
-357.596	-76.260	0.041	0.014
-356.581	83.100	-0.088	0.094
-355.566	457.425	-0.083	0.181
-354.552	-33.583	-0.081	-0.044
-353.537	-103.683	-0.443	0.103
-352.523	-200.000	0.022	-0.096
-351.508	-64.077	-0.071	-0.029
-350.493	800.000	0.048	-0.148
-349.479	-51.329	0.310	0.143
-348.464	-48.427	0.224	0.106
-347.450	-145.512	0.536	-0.047
-346.435	27.754	-0.099	0.082
-345.420	-32.322	-0.232	-0.128
-344.406	-137.870	0.095	0.010
-343.391	-19.090	-0.170	-0.104
-342.377	-150.226	-0.172	0.013
-341.362	-200.000	0.008	-0.175
-340.348	-22.393	-0.197	-0.118
-339.333	-20.448	0.268	0.163
-338.318	279.088	-0.026	-0.045
-337.304	324.491	0.178	-0.336
-336.289	-200.000	-0.014	-0.217
-335.275	177.802	-0.057	0.082
-334.260	169.350	0.328	0.463
-333.245	-123.359	-0.090	-0.014
-332.231	-200.000	0.012	-0.338
-331.216	230.685	0.064	-0.103
-330.202	29.121	-0.166	0.139
-329.187	-41.579	-0.173	-0.088
-328.172	-40.909	-0.085	0.043
-327.158	321.271	0.061	0.115
-326.143	139.937	0.276	0.359
-325.129	85.330	0.267	0.289
-324.114	-48.636	0.178	-0.085
-323.099	72.149	0.095	-0.098
-322.085	628.382	0.153	-0.382
-321.070	140.710	-0.149	-0.193
-320.056	367.293	0.040	0.079
-319.041	225.719	0.098	-0.157
-318.026	10.380	-0.362	-0.272
-317.012	423.307	-0.030	0.063
-315.997	257.328	-0.140	-0.237
-314.983	-200.000	-0.028	-0.166
-313.968	-44.717	0.190	0.093
-312.953	-113.526	-0.175	-0.034
-311.939	800.000	-0.079	-0.334
-310.924	74.603	0.190	-0.197
-309.910	531.065	-0.200	0.467
-308.895	95.972	0.206	-0.232
-307.880	-200.000	0.016	-0.305
-306.866	464.695	0.063	-0.138
-305.851	-106.735	0.214	0.047
-304.837	-106.499	0.216	0.048
-303.822	800.000	0.071	0.196
-302.807	163.699	0.115	0.160
-301.793	800.000	0.087	-0.263
-300.778	-50.146	0.200	0.093
-299.764	80.734	-0.314	-0.334
-298.749	12.546	0.227	-0.173
-297.735	800.000	0.046	0.161
-296.720	-152.237	-0.137	0.010
-295.705	-142.744	-0.261	-0.025
-294.691	-117.440	-0.184	0.033
-293.676	800.000	0.030	-0.104
-292.662	332.833	-0.039	-0.075
-291.647	-200.000	0.027	0.187
-290.632	-200.000	0.031	-0.228
-289.618	-200.000	-0.064	0.523
-288.603	-68.350	0.159	0.061
-287.589	-200.000	0.018	-0.352
-286.574	-98.616	0.198	0.050
-285.559	4.400	-0.173	-0.125
-284.545	375.775	-0.112	-0.225
-283.530	-98.697	0.305	0.076
-282.516	-34.751	-0.364	0.196
-281.501	666.412	0.109	0.277
-280.486	-200.000	-0.018	-0.223
-279.472	-200.000	0.022	0.299
-278.457	-5.109	0.067	-0.046
-277.443	30.350	-0.202	-0.170
-276.428	426.396	-0.092	0.196
-275.413	277.591	-0.166	0.290
-274.399	-110.403	0.367	-0.075
-273.384	-51.639	-0.177	-0.081
-272.370	29.561	-0.281	-0.235
-271.355	-47.376	-0.236	0.113
-270.340	-30.690	0.144	0.080
-269.326	-200.000	0.028	0.163
-268.311	-18.395	0.064	0.039
-267.297	-200.000	0.018	0.164
-266.282	45.169	-0.300	0.272
-265.267	800.000	-0.024	0.099
-264.253	-28.689	0.348	-0.197
-263.238	-104.049	0.658	-0.151
-262.224	399.966	0.118	0.243
-261.209	39.388	0.167	-0.147
-260.195	551.536	-0.135	-0.318
-259.180	499.965	0.033	0.076
-258.165	-200.000	0.007	0.125
-257.151	-22.192	0.192	-0.114
-256.136	71.114	0.077	-0.078
-255.122	259.280	-0.035	-0.060
-254.107	800.000	-0.067	-0.253
-253.092	-6.500	0.206	0.138
-252.078	-69.270	0.058	0.022
-251.063	-108.052	-0.112	0.024
-250.049	-42.032	-0.098	-0.050
-249.034	-149.030	0.059	0.005
-248.019	-92.204	-0.125	-0.035
-247.005	-200.000	-0.011	0.116
-245.990	-24.350	-0.292	0.171
-244.976	-43.372	-0.116	-0.058
-243.961	-34.909	-0.023	0.013
-242.946	22.845	0.235	0.189
-241.932	35.743	-0.189	-0.164
-240.917	-143.599	-0.179	0.017
-239.903	244.900	-0.103	-0.170
-238.888	-200.000	-0.011	0.150
-237.873	344.447	0.118	-0.227
-236.859	-135.790	-0.271	0.032
-235.844	78.669	0.263	-0.276
-234.830	-68.654	-0.109	-0.041
-233.815	-102.428	-0.342	-0.081
-232.800	-200.000	0.019	0.090
-231.786	-6.298	0.411	-0.276
-230.771	800.000	0.082	-0.249
-229.757	292.936	-0.029	0.051
-228.742	800.000	-0.092	0.257
-227.727	-118.270	-0.193	-0.034
-226.713	-73.569	-0.158	-0.057
-225.698	171.740	0.293	-0.413
-224.684	-27.942	-0.186	-0.106
-223.669	188.962	0.172	-0.252
-222.655	-200.000	0.280	-0.001
-221.640	50.639	-0.132	-0.123
-220.625	537.501	0.060	0.141
-219.611	-63.416	0.136	-0.055
-218.596	58.793	-0.243	-0.234
-217.582	800.000	0.080	0.322
-216.567	-44.014	-0.344	0.170
-215.552	-200.000	-0.001	0.099
-214.538	-200.000	0.011	0.231
-213.523	79.953	0.025	-0.026
-212.509	42.043	-0.067	0.059
-211.494	4.684	-0.168	0.121
-210.479	28.786	-0.056	0.047
-209.465	9.818	-0.151	-0.112
-208.450	-82.491	-0.151	0.048
-207.436	717.896	-0.019	-0.050
-206.421	-53.687	0.271	-0.121
-205.406	-15.065	0.017	-0.011
-204.392	116.083	-0.119	0.143
-203.377	-79.567	0.421	0.139
-202.363	146.555	-0.066	-0.086
-201.348	400.474	0.036	-0.074
-200.333	0.557	-0.093	-0.066
-199.319	-158.797	0.272	0.015
-198.304	-18.032	0.147	0.090
-197.290	91.437	-0.144	-0.158
-196.275	-63.633	0.160	0.064
-195.260	-61.476	0.230	-0.095
-194.246	193.285	-0.129	0.192
-193.231	185.769	-0.201	0.292
-192.217	-113.126	0.139	0.027
-191.202	764.113	-0.008	0.022
-190.187	72.898	-0.192	-0.197
-189.173	197.501	-0.044	0.065
-188.158	-74.005	-0.100	0.036
-187.144	106.193	-0.283	-0.329
-186.129	-137.018	-0.089	-0.010
-185.114	800.000	0.079	0.318
-184.100	61.679	0.145	-0.141
-183.085	-200.000	-0.011	0.196
-182.071	-94.232	0.305	0.082
-181.056	-118.252	0.268	-0.047
-180.042	61.343	-0.211	0.205
-179.027	275.434	-0.154	0.268
-178.012	472.275	0.038	-0.084
-176.998	64.348	-0.086	0.085
-175.983	58.887	0.156	0.150
-174.969	-200.000	-0.002	0.305
-173.954	-79.801	-0.136	-0.045
-172.939	35.350	0.256	0.221
-171.925	-200.000	-0.051	0.347
-170.910	-32.447	-0.215	0.118
-169.896	-88.614	0.072	-0.021
-168.881	18.538	-0.154	-0.121
-167.866	148.514	0.054	0.072
-166.852	800.000	0.059	-0.162
-165.837	-196.440	0.276	-0.002
-164.823	15.418	0.117	0.090
-163.808	108.591	-0.276	0.323
-162.793	697.325	-0.176	0.454
-161.779	23.244	0.030	0.024
-160.764	13.112	-0.286	0.217
-159.750	-44.169	-0.243	0.119
-158.735	-200.000	-0.027	0.218
-157.720	-171.979	-0.118	-0.004
-156.706	422.102	0.258	-0.543
-155.691	-200.000	0.103	-0.715
-154.677	425.762	-0.143	0.302
-153.662	-172.233	0.148	-0.005
-152.647	-200.000	-0.048	-0.207
-151.633	800.000	0.072	0.273
-150.618	-48.650	-0.325	0.153
-149.604	-160.046	0.332	-0.018
-148.589	-200.000	-0.012	-0.154
-147.574	-200.000	0.026	-0.380
-146.560	9.674	0.068	0.051
-145.545	-138.718	0.271	0.029
-144.531	100.486	-0.179	-0.203
-143.516	204.231	-0.095	-0.144
-142.502	-200.000	-0.017	0.105
-141.487	800.000	0.084	-0.284
-140.472	800.000	0.111	0.330
-139.458	659.306	-0.163	-0.411
-138.443	-79.412	-0.099	-0.033
-137.429	493.713	-0.158	0.355
-136.414	-200.000	-0.021	0.201
-135.399	-200.000	-0.047	0.280
-134.385	47.521	0.141	0.129
-133.370	69.648	0.345	-0.348
-132.356	-176.612	-0.196	-0.005
-131.341	30.596	-0.305	-0.255
-130.326	152.713	-0.191	-0.256
-129.312	-163.616	0.207	-0.010
-128.297	800.000	0.027	0.106
-127.283	-47.263	0.385	0.184
-126.268	-69.738	-0.226	-0.085
-125.253	-4.401	0.234	-0.159
-124.239	800.000	-0.134	-0.426
-123.224	-164.285	0.098	0.004
-122.210	771.416	-0.078	-0.209
-121.195	-42.509	0.092	-0.046
