DTS Sentinel unit serial number:	SN413079Multiplexer serial number:	ORYXHardware model number:	OX4-SRSoftware version number:	ORYX F/W v4.00 Oryx Data Collector v3.7.2.0data status	okinstallation	princeton_trtdifferential loss correction	single-endedforward channel	channel 4reverse channel	N/Adate	2019/09/11time	15:47:11forward acquisition time	60.00reverse acquisition time	0.00gamma	496.2192k internal	0.2278k external	0.2278temperature offset calibration	1.0010default loss term (dB/km)	0.3790temperature slope calibration	1.0000multiplexer offset coefficient	1.0000multiplexer slope coefficient	1.0000fibre end	0.00T internal ref (°C)	42.87T ext. ref 1 (°C)	1.00T ext. ref 2 (°C)	38.17length (m)	temperature (°C)	Stokes	anti-Stokes-747.200	20.017	0.133	-0.110
-746.185	-140.236	-0.146	-0.016
-745.171	-165.052	0.277	0.013
-744.156	-14.099	-0.243	0.161
-743.142	-200.000	-0.002	0.140
-742.127	57.118	-0.200	0.201
-741.112	602.892	0.099	0.253
-740.098	374.725	0.140	0.293
-739.083	-134.007	0.298	0.038
-738.069	-200.000	-0.032	0.468
-737.054	122.905	-0.155	-0.199
-736.039	-200.000	0.041	0.354
-735.025	-122.687	0.282	-0.047
-734.010	-130.332	0.062	0.009
-732.996	-38.625	-0.246	-0.134
-731.981	211.034	-0.134	-0.217
-730.966	-1.606	-0.167	-0.121
-729.952	-105.494	-0.288	-0.067
-728.937	86.173	0.111	-0.126
-727.923	-117.991	0.093	-0.017
-726.908	88.446	0.222	-0.254
-725.894	-19.939	-0.135	-0.086
-724.879	713.094	0.073	-0.200
-723.864	-5.865	-0.084	0.059
-722.850	-91.676	-0.381	0.111
-721.835	-81.261	-0.281	-0.095
-720.821	800.000	-0.070	-0.217
-719.806	-29.159	-0.175	0.103
-718.791	-200.000	0.047	-0.252
-717.777	-200.000	0.007	-0.467
-716.762	-200.000	-0.012	-0.298
-715.748	-21.125	-0.241	0.152
-714.733	-41.597	-0.381	0.202
-713.718	357.574	-0.093	0.191
-712.704	123.763	-0.177	-0.228
-711.689	264.287	0.123	-0.219
-710.675	-28.803	-0.222	0.131
-709.660	-78.584	0.012	0.004
-708.645	213.223	-0.074	-0.120
-707.631	197.217	-0.171	0.269
-706.616	800.000	0.126	-0.405
-705.602	-200.000	-0.001	0.050
-704.587	-200.000	0.024	-0.312
-703.572	-86.829	-0.143	-0.045
-702.558	103.399	-0.145	-0.174
-701.543	-36.002	-0.211	-0.118
-700.529	389.689	-0.098	-0.210
-699.514	107.231	0.040	-0.048
-698.499	-119.360	-0.397	0.071
-697.485	186.510	0.148	-0.227
-696.470	224.114	0.123	-0.204
-695.456	-160.737	-0.147	-0.008
-694.441	35.045	0.114	0.103
-693.426	800.000	-0.047	-0.205
-692.412	-122.136	0.062	-0.010
-691.397	303.164	0.078	0.149
-690.383	-3.131	-0.126	0.090
-689.368	-200.000	0.000	-0.181
-688.354	341.666	0.105	0.210
-687.339	55.306	0.066	-0.065
-686.324	-200.000	-0.063	0.380
-685.310	-173.434	-0.196	-0.006
-684.295	736.060	-0.072	0.198
-683.281	497.092	-0.170	-0.402
-682.266	-200.000	-0.005	0.501
-681.251	242.346	0.069	-0.118
-680.237	-104.944	-0.244	-0.058
-679.222	-85.772	-0.302	-0.096
-678.208	-167.189	-0.155	0.006
-677.193	-200.000	0.005	0.140
-676.178	-200.000	-0.052	0.242
-675.164	-200.000	0.058	0.375
-674.149	-200.000	0.018	-0.270
-673.135	10.448	-0.161	0.126
-672.120	-91.433	0.430	0.126
-671.105	-72.059	0.142	-0.054
-670.091	326.919	-0.181	0.356
-669.076	186.151	0.040	-0.061
-668.062	-120.053	-0.074	-0.013
-667.047	178.858	0.085	0.128
-666.032	362.863	0.051	-0.105
-665.018	-200.000	-0.035	-0.396
-664.003	-0.803	0.088	-0.064
-662.989	-200.000	-0.073	-0.607
-661.974	-23.358	-0.322	0.199
-660.959	-200.000	-0.004	-0.072
-659.945	-22.926	0.163	0.101
-658.930	-62.814	-0.127	0.054
-657.916	-200.000	0.035	0.173
-656.901	-137.898	-0.375	-0.043
-655.886	-49.133	-0.140	0.069
-654.872	-22.463	-0.149	0.093
-653.857	-59.817	-0.239	0.105
-652.843	-101.209	-0.551	0.138
-651.828	158.251	0.120	0.170
-650.814	361.153	-0.148	-0.304
-649.799	-200.000	0.000	-0.154
-648.784	800.000	-0.071	-0.258
-647.770	-200.000	0.026	-0.146
-646.755	-11.330	0.239	-0.161
-645.741	-200.000	-0.027	-0.257
-644.726	-42.922	0.159	-0.083
-643.711	-159.712	-0.103	0.006
-642.697	233.057	-0.181	-0.306
-641.682	44.074	-0.300	-0.282
-640.668	-200.000	-0.014	0.190
-639.653	4.011	-0.139	-0.104
-638.638	-12.016	0.082	-0.055
-637.624	-117.630	0.269	0.050
-636.609	493.489	0.134	-0.316
-635.595	81.730	-0.159	-0.177
-634.580	110.081	-0.101	0.124
-633.565	105.061	0.286	0.346
-632.551	800.000	-0.051	0.161
-631.536	13.425	-0.191	0.152
-630.522	499.975	0.113	-0.268
-629.507	-49.628	-0.344	-0.168
-628.492	-99.999	-0.378	-0.097
-627.478	-109.065	-0.038	-0.008
-626.463	-150.953	0.106	-0.008
-625.449	4.162	-0.006	-0.005
-624.434	-200.000	0.028	-0.258
-623.419	-20.834	0.205	0.129
-622.405	-11.840	0.239	0.161
-621.390	47.113	0.189	0.181
-620.376	76.097	-0.061	0.066
-619.361	-5.722	0.135	-0.095
-618.346	-36.097	0.337	0.187
-617.332	800.000	-0.062	-0.207
-616.317	-85.412	-0.176	0.056
-615.303	15.304	0.112	-0.090
-614.288	-200.000	-0.012	-0.119
-613.273	-60.551	0.185	0.081
-612.259	-47.738	-0.151	-0.075
-611.244	611.867	0.057	0.145
-610.230	138.033	0.151	-0.203
-609.215	800.000	0.099	0.371
-608.201	-52.853	0.059	-0.028
-607.186	-5.775	0.126	0.089
-606.171	-102.057	0.250	-0.062
-605.157	140.889	0.176	0.239
-604.142	191.868	-0.192	-0.296
-603.128	225.710	0.096	-0.159
-602.113	155.468	0.046	-0.065
-601.098	-46.101	0.240	-0.121
-600.084	-108.927	-0.150	0.033
-599.069	-108.223	-0.050	0.011
-598.055	-111.285	0.145	-0.030
-597.040	-172.586	0.103	-0.003
-596.025	224.147	-0.096	-0.159
-595.011	-89.436	-0.226	0.068
-593.996	-58.046	-0.241	-0.108
-592.982	138.033	0.039	0.053
-591.967	555.563	0.095	-0.234
-590.952	696.590	-0.062	-0.167
-589.938	-200.000	-0.003	0.064
-588.923	-15.030	0.128	-0.084
-587.909	-84.682	0.149	-0.048
-586.894	146.063	-0.160	0.219
-585.879	-18.397	0.154	-0.099
-584.865	-109.264	0.105	-0.023
-583.850	64.188	0.276	0.285
-582.836	-69.111	-0.095	0.037
-581.821	-49.913	-0.028	0.014
-580.806	-83.788	-0.076	0.025
-579.792	137.619	-0.088	0.118
-578.777	-200.000	0.091	-0.410
-577.763	-72.777	-0.120	-0.045
-576.748	253.011	-0.106	-0.184
-575.733	728.595	0.011	-0.030
-574.719	303.554	0.246	-0.466
-573.704	-40.438	0.294	0.156
-572.690	283.135	-0.169	0.311
-571.675	11.522	-0.151	0.118
-570.661	-108.909	0.265	0.058
-569.646	-18.311	-0.206	0.132
-568.631	18.500	0.103	-0.084
-567.617	-122.006	0.072	-0.012
-566.602	185.762	0.143	-0.217
-565.588	-200.000	0.003	-0.101
-564.573	40.584	-0.139	0.128
-563.558	-200.000	0.039	0.279
-562.544	65.296	0.264	0.273
-561.529	800.000	-0.065	0.194
-560.515	-200.000	-0.018	0.498
-559.500	190.669	-0.220	0.338
-558.485	47.715	-0.316	-0.301
-557.471	-156.752	0.183	0.012
-556.456	-200.000	0.078	-0.564
-555.442	-12.437	0.129	-0.086
-554.427	800.000	0.050	0.186
-553.412	53.577	0.132	0.129
-552.398	-18.346	0.175	0.112
-551.383	48.998	0.120	-0.116
-550.369	-98.710	0.073	-0.019
-549.354	800.000	-0.028	-0.121
-548.339	690.217	0.059	0.157
-547.325	-200.000	0.038	-0.180
-546.310	-79.442	-0.256	-0.088
-545.296	108.135	-0.059	0.072
-544.281	-87.454	-0.317	-0.098
-543.266	-99.904	-0.414	0.106
-542.252	-200.000	0.011	0.059
-541.237	523.116	-0.127	-0.304
-540.223	-200.000	0.009	-0.144
-539.208	-8.153	-0.355	-0.244
-538.193	47.665	-0.221	-0.210
-537.179	-200.000	-0.003	0.104
-536.164	-68.083	0.133	-0.053
-535.150	-45.862	0.042	-0.021
-534.135	800.000	-0.132	-0.398
-533.121	-85.811	0.031	-0.010
-532.106	396.519	-0.068	0.145
-531.091	-72.691	-0.054	-0.020
-530.077	346.696	0.129	-0.259
-529.062	-56.439	-0.216	0.098
-528.048	739.057	-0.126	0.346
-527.033	800.000	-0.052	0.150
-526.018	3.181	-0.040	-0.030
-525.004	230.453	-0.145	0.242
-523.989	-42.938	0.160	-0.083
-522.975	4.054	0.076	0.056
-521.960	-97.706	0.266	-0.070
-520.945	-200.000	0.004	0.099
-519.931	220.200	-0.114	0.187
-518.916	-71.219	-0.190	0.073
-517.902	-24.666	-0.052	0.031
-516.887	800.000	-0.022	-0.065
-515.872	-71.890	0.291	0.111
-514.858	270.152	0.041	0.074
-513.843	23.930	0.235	-0.198
-512.829	43.879	-0.061	-0.057
-511.814	71.181	-0.176	-0.186
-510.799	-159.842	-0.248	0.014
-509.785	-105.026	-0.166	0.039
-508.770	-134.601	-0.184	-0.023
-507.756	154.009	-0.201	-0.282
-506.741	256.014	0.120	0.210
-505.726	-7.762	-0.125	0.086
-504.712	-180.873	-0.085	0.002
-503.697	-200.000	-0.037	0.362
-502.683	-126.539	0.214	-0.032
-501.668	383.512	0.161	0.339
-500.653	108.321	-0.239	0.290
-499.639	-85.944	0.228	-0.072
-498.624	800.000	0.026	0.105
-497.610	324.628	-0.023	-0.046
-496.595	-175.981	0.116	-0.003
-495.581	-26.332	-0.085	-0.051
-494.566	-132.197	0.253	-0.034
-493.551	412.602	-0.108	-0.234
-492.537	-75.207	0.317	0.116
-491.522	-94.610	0.200	-0.055
-490.508	-165.517	-0.349	0.016
-489.493	-127.798	-0.174	-0.026
-488.478	22.994	0.055	-0.046
-487.464	5.359	-0.143	0.107
-486.449	-173.255	-0.242	0.008
-485.435	-200.000	-0.003	0.140
-484.420	24.963	-0.099	0.084
-483.405	-106.192	-0.409	0.093
-482.391	487.314	0.188	0.437
-481.376	387.619	-0.117	0.246
-480.362	-88.332	-0.318	0.097
-479.347	153.285	-0.251	-0.351
-478.332	800.000	-0.088	0.300
-477.318	-13.083	-0.037	-0.025
-476.303	-4.281	0.317	-0.224
-475.289	255.972	-0.099	0.174
-474.274	-142.504	-0.256	0.026
-473.259	249.559	-0.116	0.201
-472.245	800.000	-0.021	-0.066
-471.230	-77.863	0.209	0.073
-470.216	-61.079	0.022	-0.009
-469.201	179.358	-0.058	0.086
-468.186	34.685	-0.134	-0.119
-467.172	729.188	-0.212	-0.577
-466.157	46.374	0.230	0.217
-465.143	649.775	-0.067	0.175
-464.128	140.388	-0.086	0.116
-463.113	800.000	0.073	0.209
-462.099	131.409	0.160	0.210
-461.084	800.000	0.055	0.165
-460.070	248.810	0.028	0.048
-459.055	25.366	-0.102	-0.086
-458.040	711.441	0.106	0.286
-457.026	800.000	0.093	-0.351
-456.011	-83.161	-0.333	-0.109
-454.997	-52.731	-0.257	-0.121
-453.982	197.093	-0.099	-0.154
-452.968	-104.013	0.375	-0.089
-451.953	71.023	0.162	-0.171
-450.938	83.469	0.032	0.036
-449.924	-41.958	-0.205	0.107
-448.909	-200.000	-0.019	0.259
-447.895	-200.000	0.034	0.224
-446.880	4.823	-0.239	0.179
-445.865	143.532	-0.087	-0.118
-444.851	94.411	0.058	0.067
-443.836	-42.784	0.242	0.125
-442.822	528.713	-0.254	0.611
-441.807	800.000	0.060	0.187
-440.792	-15.491	-0.310	0.201
-439.778	429.560	0.039	-0.087
-438.763	74.426	-0.062	0.066
-437.749	-104.408	0.236	-0.056
-436.734	-104.342	-0.293	0.069
-435.719	-200.000	0.008	-0.052
-434.705	-78.548	0.267	0.093
-433.690	-25.173	-0.243	-0.147
-432.676	-50.772	0.151	-0.072
-431.661	-200.000	-0.009	-0.117
-430.646	-200.000	0.002	-0.282
-429.632	-152.238	0.260	-0.019
-428.617	800.000	0.067	0.241
-427.603	-155.539	-0.142	0.009
-426.588	-200.000	0.016	0.169
-425.573	154.480	-0.071	0.098
-424.559	-200.000	0.066	-0.321
-423.544	162.723	0.317	-0.453
-422.530	-200.000	-0.017	0.425
-421.515	-200.000	-0.036	0.221
-420.500	-53.271	-0.210	0.098
-419.486	-132.971	0.128	0.017
-418.471	-98.054	-0.286	0.075
-417.457	53.213	0.267	0.260
-416.442	-19.210	-0.105	0.066
-415.428	221.690	-0.070	-0.114
-414.413	-200.000	-0.037	0.181
-413.398	-88.394	0.331	-0.101
-412.384	55.142	-0.074	-0.073
-411.369	-200.000	-0.036	0.234
-410.355	88.124	-0.128	0.144
-409.340	-120.648	0.296	-0.051
-408.325	45.826	0.197	-0.186
-407.311	-36.441	0.076	-0.042
-406.296	-102.445	0.254	0.062
-405.282	-200.000	0.044	0.431
-404.267	15.170	-0.209	0.166
-403.252	-101.224	0.267	0.066
-402.238	800.000	-0.046	-0.157
-401.223	-200.000	-0.026	-0.152
-400.209	145.509	0.169	0.230
-399.194	-7.362	-0.056	0.038
-398.179	-115.613	-0.150	-0.029
-397.165	-169.502	0.303	0.011
-396.150	165.071	0.178	0.255
-395.136	-16.791	-0.419	0.269
-394.121	67.593	0.213	0.221
-393.106	469.255	-0.108	0.246
-392.092	-109.015	0.295	-0.064
-391.077	80.244	0.225	0.246
-390.063	41.291	-0.227	0.208
-389.048	366.607	0.031	-0.064
-388.033	-200.000	0.011	-0.302
-387.019	800.000	0.106	-0.310
-386.004	-51.718	-0.084	0.040
-384.990	-129.072	-0.282	0.040
-383.975	-43.996	-0.148	0.076
-382.960	-200.000	-0.005	0.026
-381.946	-200.000	-0.039	0.283
-380.931	800.000	-0.092	0.307
-379.917	-53.533	0.068	0.032
-378.902	800.000	-0.025	0.086
-377.888	-111.375	0.198	-0.041
-376.873	800.000	-0.060	0.220
-375.858	-105.845	0.108	0.025
-374.844	641.934	-0.147	0.380
-373.829	225.830	0.130	-0.214
-372.815	67.226	-0.111	-0.114
-371.800	-200.000	0.019	0.107
-370.785	-52.076	0.251	0.118
-369.771	-3.374	-0.070	0.050
-368.756	-87.205	0.135	-0.042
-367.742	-88.781	0.142	-0.043
-366.727	55.119	-0.223	0.219
-365.712	-14.916	-0.087	-0.057
-364.698	-121.562	-0.112	0.019
-363.683	-85.567	-0.266	-0.084
-362.669	-54.799	0.231	-0.106
-361.654	800.000	0.057	-0.171
-360.639	-8.977	0.096	0.065
-359.625	-200.000	0.001	0.240
-358.610	-88.277	0.103	0.031
-357.596	-200.000	-0.006	0.099
-356.581	-82.489	0.186	0.061
-355.566	10.193	0.146	-0.113
-354.552	5.430	0.147	-0.110
-353.537	-200.000	-0.009	0.063
-352.523	-51.345	0.091	-0.043
-351.508	-74.525	0.226	-0.083
-350.493	337.496	-0.052	-0.102
-349.479	800.000	0.025	-0.102
-348.464	-127.177	-0.068	0.010
-347.450	-84.315	0.208	0.067
-346.435	-81.845	0.087	-0.029
-345.420	141.942	0.256	-0.344
-344.406	112.170	0.180	-0.220
-343.391	-200.000	-0.013	-0.250
-342.377	131.303	-0.200	-0.261
-341.362	177.845	0.159	0.235
-340.348	800.000	-0.047	0.142
-339.333	43.863	-0.128	0.119
-338.318	110.356	0.250	0.304
-337.304	-113.604	0.166	-0.033
-336.289	-11.057	0.215	-0.144
-335.275	16.016	0.251	0.200
-334.260	800.000	0.009	0.028
-333.245	800.000	-0.034	-0.100
-332.231	800.000	-0.049	0.154
-331.216	395.256	0.085	-0.180
-330.202	368.252	0.109	-0.223
-329.187	-200.000	0.007	0.123
-328.172	73.981	-0.125	-0.133
-327.158	200.023	-0.069	0.108
-326.143	311.265	-0.127	0.241
-325.129	-67.273	0.098	-0.039
-324.114	800.000	-0.019	-0.058
-323.099	-3.630	0.112	0.079
-322.085	286.686	0.147	0.268
-321.070	302.705	-0.032	0.060
-320.056	-66.309	-0.196	-0.079
-319.041	602.811	-0.057	-0.145
-318.026	-200.000	-0.007	-0.276
-317.012	-100.167	-0.182	0.046
-315.997	18.076	0.228	-0.184
-314.983	142.426	-0.130	-0.175
-313.968	-60.007	0.212	-0.092
-312.953	-142.060	-0.318	0.032
-311.939	-17.839	0.054	-0.034
-310.924	117.701	0.074	-0.092
-309.910	-22.105	-0.327	-0.201
-308.895	-200.000	0.007	-0.132
-307.880	703.974	-0.052	-0.139
-306.866	-109.895	0.296	0.063
-305.851	800.000	0.075	0.231
-304.837	-73.200	-0.074	-0.027
-303.822	-163.681	0.285	0.014
-302.807	-122.753	-0.249	-0.041
-301.793	-0.525	-0.071	-0.051
-300.778	-200.000	-0.061	0.296
-299.764	647.464	0.044	0.115
-298.749	27.710	-0.146	-0.125
-297.735	-74.420	0.367	-0.134
-296.720	132.584	0.109	0.142
-295.705	165.442	0.056	0.081
-294.691	-22.431	0.271	-0.166
-293.676	-115.678	-0.200	-0.038
-292.662	-80.456	-0.118	0.040
-291.647	-53.683	-0.061	0.028
-290.632	800.000	-0.050	-0.195
-289.618	-18.640	-0.225	-0.142
-288.603	99.116	-0.066	-0.077
-287.589	800.000	0.057	0.191
-286.574	-90.509	0.184	-0.054
-285.559	236.788	-0.085	-0.143
-284.545	-200.000	0.000	-0.200
-283.530	363.519	-0.103	0.209
-282.516	-51.465	0.139	0.066
-281.501	-200.000	0.019	-0.131
-280.486	-200.000	0.016	-0.318
-279.472	-50.426	0.268	-0.128
-278.457	-200.000	0.031	-0.492
-277.443	-200.000	0.024	0.237
-276.428	-55.370	-0.269	0.122
-275.413	800.000	0.055	0.169
-274.399	-0.653	0.329	0.236
-273.384	-200.000	-0.013	-0.181
-272.370	347.313	0.110	-0.219
-271.355	-71.954	-0.147	0.055
-270.340	15.252	-0.141	-0.111
-269.326	-200.000	0.005	-0.120
-268.311	-170.674	0.070	0.002
-267.297	-123.327	0.164	0.026
-266.282	17.203	-0.168	0.135
-265.267	80.897	-0.300	-0.327
-264.253	354.755	-0.077	0.155
-263.238	3.417	-0.118	0.087
-262.224	340.884	0.049	-0.097
-261.209	-103.503	0.156	-0.037
-260.195	-200.000	0.029	-0.267
-259.180	-144.797	-0.215	0.020
-258.165	-200.000	0.015	0.274
-257.151	-8.711	-0.134	-0.091
-256.136	-144.372	-0.302	0.028
-255.122	-92.959	0.112	0.032
-254.107	106.633	0.086	0.104
-253.092	800.000	-0.076	0.255
-252.078	-77.274	0.289	0.102
-251.063	11.855	-0.123	0.095
-250.049	800.000	0.048	-0.186
-249.034	-13.671	0.097	-0.063
-248.019	127.186	0.221	-0.283
-247.005	99.958	-0.378	-0.443
-245.990	-200.000	0.033	0.239
-244.976	-135.440	-0.167	0.020
-243.961	-26.820	-0.208	0.123
-242.946	-25.484	0.052	-0.031
-241.932	177.475	-0.115	0.169
-240.917	-200.000	-0.018	-0.151
-239.903	800.000	-0.106	-0.429
-238.888	800.000	0.067	-0.199
-237.873	-49.376	0.144	-0.069
-236.859	18.468	-0.216	-0.174
-235.844	261.695	0.113	0.198
-234.830	-88.965	0.114	0.034
-233.815	-159.309	-0.192	-0.011
-232.800	-181.245	-0.466	0.009
-231.786	279.411	0.084	-0.152
-230.771	267.384	0.096	-0.170
-229.757	-113.783	0.334	0.066
-228.742	-200.000	-0.042	-0.200
-227.727	-0.082	0.132	0.095
-226.713	800.000	0.115	-0.340
-225.698	800.000	0.055	-0.186
-224.684	-23.960	-0.197	0.119
-223.669	-166.536	-0.178	0.007
-222.655	-114.012	-0.148	0.029
-221.640	-47.655	0.082	-0.040
-220.625	800.000	-0.030	0.099
-219.611	291.111	0.188	-0.345
-218.596	67.680	0.062	0.064
-217.582	-175.780	-0.068	0.002
-216.567	285.579	-0.144	-0.263
-215.552	22.829	-0.271	0.224
-214.538	711.787	-0.077	-0.207
-213.523	437.071	-0.146	-0.321
-212.509	-21.301	0.409	0.252
-211.494	800.000	-0.062	0.215
-210.479	386.360	-0.196	-0.408
-209.465	56.207	-0.100	0.098
-208.450	12.748	0.198	0.154
-207.436	179.916	-0.230	0.340
-206.421	-185.807	-0.120	-0.002
-205.406	-74.678	0.133	0.048
-204.392	-58.210	0.192	-0.084
-203.377	36.399	0.071	-0.063
-202.363	800.000	-0.120	-0.483
-201.348	3.974	0.286	-0.211
-200.333	104.225	0.071	0.084
-199.319	-5.592	0.117	-0.081
-198.304	80.062	0.131	0.141
-197.290	-58.898	-0.222	0.097
-196.275	68.058	-0.140	0.144
-195.260	-200.000	-0.051	0.330
-194.246	-46.260	-0.215	0.106
-193.231	-200.000	-0.032	-0.353
-192.217	-74.476	0.241	-0.088
-191.202	46.298	0.090	-0.084
-190.187	108.060	-0.056	-0.067
-189.173	257.078	0.138	-0.239
-188.158	-200.000	-0.004	-0.378
-187.144	-200.000	-0.022	0.358
-186.129	-69.991	-0.171	0.065
-185.114	296.558	-0.082	-0.151
-184.100	608.876	0.078	-0.196
-183.085	-0.691	0.050	0.036
-182.071	-34.129	-0.231	0.128
-181.056	46.859	-0.130	-0.121
-180.042	-139.120	0.144	0.016
-179.027	67.667	-0.214	0.221
-178.012	59.074	-0.120	0.119
-176.998	47.394	-0.171	0.160
-175.983	-200.000	0.018	-0.149
-174.969	-42.193	0.112	0.058
-173.954	-65.593	0.179	0.072
-172.939	-131.580	0.079	0.010
-171.925	-157.626	0.263	0.016
-170.910	-42.458	0.146	-0.075
-169.896	59.220	-0.348	0.345
-168.881	112.741	-0.049	0.060
-167.866	800.000	-0.049	-0.210
-166.852	-30.610	-0.158	0.090
-165.837	-180.912	0.239	0.005
-164.823	-158.120	-0.232	-0.014
-163.808	-119.780	-0.096	0.017
-162.793	197.280	-0.201	0.309
-161.779	246.917	-0.125	0.212
-160.764	-11.845	0.147	0.097
-159.750	-24.139	0.328	-0.197
-158.735	233.667	0.107	-0.177
-157.720	26.102	-0.269	0.226
-156.706	187.147	0.182	-0.274
-155.691	184.521	-0.030	0.045
-154.677	121.569	0.074	0.093
-153.662	800.000	0.012	-0.038
-152.647	484.382	-0.083	-0.190
-151.633	125.267	0.055	-0.070
-150.618	56.686	-0.056	0.055
-149.604	-200.000	0.031	0.144
-148.589	-200.000	-0.005	0.205
-147.574	36.631	-0.219	0.195
-146.560	-51.325	0.161	-0.076
-145.545	-95.896	-0.320	0.086
-144.531	192.580	-0.091	0.138
-143.516	20.380	0.086	-0.070
-142.502	97.987	0.128	0.148
-141.487	-200.000	0.042	-0.258
-140.472	611.816	0.070	0.177
-139.458	75.787	-0.185	0.197
-138.443	-72.756	-0.207	0.077
-137.429	782.341	0.124	0.343
-136.414	37.368	0.209	0.186
-135.399	407.184	0.102	0.217
-134.385	-107.206	-0.324	0.072
-133.370	607.674	-0.082	-0.206
-132.356	70.904	-0.072	-0.075
-131.341	145.366	-0.133	0.179
-130.326	-200.000	-0.082	0.499
-129.312	-81.119	-0.028	-0.009
-128.297	748.128	0.096	0.259
-127.283	800.000	-0.078	-0.327
-126.268	-57.983	-0.338	0.149
-125.253	-52.683	-0.227	-0.105
-124.239	-20.849	-0.133	-0.082
-123.224	-77.349	-0.252	-0.088
-122.210	26.819	-0.063	-0.053
-121.195	71.170	-0.175	0.182
