DTS Sentinel unit serial number:	SN413079Multiplexer serial number:	ORYXHardware model number:	OX4-SRSoftware version number:	ORYX F/W v4.00 Oryx Data Collector v3.7.2.0data status	okinstallation	princeton_trtdifferential loss correction	single-endedforward channel	channel 4reverse channel	N/Adate	2019/09/16time	15:21:35forward acquisition time	60.00reverse acquisition time	0.00gamma	496.2192k internal	0.2288k external	0.2288temperature offset calibration	0.9935default loss term (dB/km)	0.3790temperature slope calibration	1.0000multiplexer offset coefficient	1.0000multiplexer slope coefficient	1.0000fibre end	0.00T internal ref (°C)	41.06T ext. ref 1 (°C)	14.63T ext. ref 2 (°C)	37.29length (m)	temperature (°C)	Stokes	anti-Stokes-747.200	328.293	-0.147	-0.289
-746.185	-52.281	-0.373	0.177
-745.171	15.099	0.083	0.067
-744.156	800.000	0.109	0.363
-743.142	156.838	-0.192	0.272
-742.127	-138.084	-0.404	0.046
-741.112	71.846	0.040	0.043
-740.098	177.791	-0.236	0.353
-739.083	-153.160	0.194	0.014
-738.069	-200.000	-0.014	0.119
-737.054	-119.113	0.138	-0.025
-736.039	23.629	-0.109	-0.092
-735.025	-86.823	0.402	0.126
-734.010	-200.000	-0.052	0.257
-732.996	300.478	-0.114	-0.215
-731.981	33.968	-0.152	-0.135
-730.966	800.000	0.065	0.201
-729.952	-120.089	-0.210	-0.037
-728.937	-54.511	-0.166	-0.077
-727.923	-123.136	-0.188	0.031
-726.908	800.000	-0.071	0.201
-725.894	210.276	-0.113	-0.182
-724.879	-74.623	0.145	-0.053
-723.864	-85.552	-0.112	-0.036
-722.850	800.000	0.054	0.179
-721.835	169.007	-0.083	0.121
-720.821	350.985	0.173	-0.351
-719.806	97.287	0.307	-0.361
-718.791	-200.000	0.006	-0.257
-717.777	-200.000	0.013	0.187
-716.762	493.071	0.157	0.369
-715.748	182.934	-0.210	-0.317
-714.733	29.494	-0.055	-0.048
-713.718	800.000	0.067	-0.204
-712.704	800.000	0.027	-0.084
-711.689	-200.000	-0.009	-0.251
-710.675	17.620	0.058	-0.047
-709.660	417.102	-0.145	0.318
-708.645	69.455	0.042	-0.044
-707.631	-49.190	0.016	0.008
-706.616	667.918	0.063	-0.167
-705.602	-20.223	-0.144	-0.091
-704.587	-34.667	-0.062	-0.035
-703.572	-200.000	-0.012	0.060
-702.558	-60.532	-0.234	0.102
-701.543	-127.703	0.169	-0.025
-700.529	351.691	0.087	0.177
-699.514	-42.927	-0.240	-0.125
-698.499	-200.000	0.016	0.255
-697.485	-200.000	-0.040	0.220
-696.470	301.133	0.012	-0.022
-695.456	-165.902	0.035	-0.002
-694.441	-27.965	0.248	0.147
-693.426	-51.070	-0.225	-0.108
-692.412	-154.915	0.150	-0.010
-691.397	-28.055	-0.375	-0.222
-690.383	145.392	0.081	-0.110
-689.368	-93.588	-0.099	0.028
-688.354	-54.600	-0.037	-0.017
-687.339	-90.766	-0.283	-0.083
-686.324	-81.385	0.046	0.016
-685.310	20.544	-0.204	-0.168
-684.295	117.060	-0.157	-0.198
-683.281	-11.889	0.251	0.168
-682.266	-200.000	0.010	0.160
-681.251	62.628	0.172	-0.176
-680.237	-92.077	0.219	-0.063
-679.222	758.722	0.124	-0.343
-678.208	325.793	-0.130	-0.254
-677.193	89.687	-0.072	-0.082
-676.178	430.445	0.045	-0.099
-675.164	-200.000	-0.024	-0.254
-674.149	-194.330	0.362	-0.003
-673.135	-51.139	-0.223	0.107
-672.120	213.120	-0.254	0.410
-671.105	16.038	0.099	0.080
-670.091	-35.333	-0.279	-0.155
-669.076	97.442	-0.274	-0.322
-668.062	509.845	0.019	0.045
-667.047	-200.000	0.044	0.340
-666.032	-200.000	-0.020	0.180
-665.018	-200.000	-0.016	0.169
-664.003	321.997	0.293	-0.569
-662.989	-133.993	-0.056	-0.007
-661.974	-200.000	-0.002	-0.154
-660.959	-69.307	-0.190	0.075
-659.945	800.000	-0.024	0.094
-658.930	800.000	0.074	-0.225
-657.916	-200.000	-0.018	-0.093
-656.901	-142.893	-0.329	0.033
-655.886	-0.238	0.043	-0.031
-654.872	-13.804	0.253	-0.167
-653.857	-200.000	0.016	-0.271
-652.843	-127.077	-0.226	-0.034
-651.828	800.000	-0.015	0.055
-650.814	-88.522	0.421	-0.128
-649.799	-67.818	0.083	0.033
-648.784	-112.374	0.160	-0.033
-647.770	150.357	0.118	-0.164
-646.755	-62.017	-0.018	0.007
-645.741	-31.690	-0.094	0.054
-644.726	579.697	0.075	0.188
-643.711	800.000	0.091	-0.386
-642.697	-179.302	0.240	0.005
-641.682	382.607	-0.165	0.347
-640.668	-1.170	0.117	0.084
-639.653	-32.351	-0.161	0.092
-638.638	202.153	-0.126	0.199
-637.624	-20.578	-0.088	0.055
-636.609	27.023	-0.041	-0.035
-635.595	249.003	0.126	0.217
-634.580	-152.753	-0.081	0.006
-633.565	63.686	0.205	0.210
-632.551	-63.167	-0.052	-0.022
-631.536	-112.957	-0.134	-0.027
-630.522	160.257	-0.090	0.129
-629.507	28.025	-0.113	-0.097
-628.492	-113.852	0.183	0.036
-627.478	428.487	-0.122	0.268
-626.463	-200.000	-0.010	0.322
-625.449	-200.000	0.008	0.044
-624.434	391.043	0.096	0.204
-623.419	800.000	0.064	0.232
-622.405	219.534	-0.049	-0.080
-621.390	-126.380	-0.230	-0.035
-620.376	148.003	-0.135	-0.186
-619.361	-200.000	-0.047	-0.444
-618.346	-200.000	-0.007	0.084
-617.332	77.203	-0.054	0.059
-616.317	-96.622	-0.289	0.078
-615.303	-56.495	-0.227	0.103
-614.288	-200.000	0.071	0.471
-613.273	-200.000	-0.059	-0.274
-612.259	625.506	-0.091	0.234
-611.244	23.084	-0.276	-0.231
-610.230	-200.000	0.010	-0.154
-609.215	-200.000	0.019	0.296
-608.201	-86.232	0.363	0.114
-607.186	-115.287	-0.352	-0.068
-606.171	-187.184	-0.281	-0.004
-605.157	-108.618	0.218	0.048
-604.142	-41.694	-0.042	-0.022
-603.128	-68.666	0.270	-0.107
-602.113	374.000	0.011	0.023
-601.098	-200.000	0.039	-0.253
-600.084	167.386	0.189	0.274
-599.069	-55.228	-0.157	0.072
-598.055	-21.985	-0.180	-0.111
-597.040	-126.725	-0.188	0.028
-596.025	287.210	0.067	-0.124
-595.011	-200.000	-0.017	0.173
-593.996	-110.343	-0.289	-0.061
-592.982	188.085	0.090	0.136
-591.967	-105.903	0.162	0.037
-590.952	-200.000	-0.029	-0.191
-589.938	-89.875	-0.274	0.082
-588.923	-200.000	0.003	-0.029
-587.909	800.000	-0.025	-0.074
-586.894	-41.125	0.118	-0.062
-585.879	-200.000	0.046	-0.277
-584.865	-200.000	0.028	-0.275
-583.850	-200.000	0.034	-0.160
-582.836	-54.854	0.091	0.042
-581.821	167.959	-0.235	0.340
-580.806	615.945	0.085	-0.217
-579.792	189.730	0.135	0.206
-578.777	-116.032	0.164	-0.031
-577.763	683.648	0.059	-0.156
-576.748	800.000	-0.074	-0.248
-575.733	-77.561	0.159	0.056
-574.719	800.000	-0.048	-0.198
-573.704	435.915	0.100	-0.221
-572.690	-114.975	-0.150	0.029
-571.675	-28.646	-0.025	0.015
-570.661	-50.771	0.136	0.065
-569.646	65.182	-0.202	0.208
-568.631	-162.927	-0.228	-0.011
-567.617	31.623	0.055	-0.048
-566.602	-200.000	-0.007	0.101
-565.588	-149.880	0.109	0.009
-564.573	496.460	-0.087	0.203
-563.558	-118.135	0.036	0.007
-562.544	-114.377	0.211	-0.041
-561.529	94.795	0.137	-0.159
-560.515	-111.815	-0.292	-0.060
-559.500	-13.000	0.220	0.145
-558.485	-200.000	0.009	-0.127
-557.471	800.000	-0.066	0.235
-556.456	402.534	0.149	-0.318
-555.442	-200.000	0.060	-0.303
-554.427	-168.685	-0.385	-0.015
-553.412	418.732	-0.062	-0.134
-552.398	322.152	-0.199	0.386
-551.383	85.463	0.249	0.278
-550.369	435.931	-0.144	-0.319
-549.354	-132.527	-0.182	0.024
-548.339	672.591	0.058	-0.152
-547.325	-114.760	0.174	-0.034
-546.310	-83.356	-0.060	-0.019
-545.296	-185.086	-0.303	0.005
-544.281	-86.407	0.266	0.083
-543.266	130.993	0.046	-0.059
-542.252	77.810	0.152	-0.165
-541.237	751.058	-0.030	0.082
-540.223	195.116	0.111	0.171
-539.208	164.145	-0.093	-0.134
-538.193	253.996	0.190	-0.330
-537.179	-71.662	-0.088	0.033
-536.164	170.273	0.178	0.259
-535.150	13.718	0.102	0.080
-534.135	-63.526	0.258	-0.108
-533.121	-23.052	0.100	0.061
-532.106	-200.000	0.005	0.226
-531.091	-2.938	0.071	0.051
-530.077	179.347	0.174	0.258
-529.062	-154.669	-0.168	-0.011
-528.048	-200.000	0.024	0.232
-527.033	108.501	-0.062	-0.076
-526.018	-200.000	-0.007	0.199
-525.004	555.843	0.102	0.251
-523.989	4.335	0.234	-0.174
-522.975	70.761	-0.080	0.084
-521.960	-137.563	-0.130	-0.015
-520.945	426.019	0.169	-0.370
-519.931	189.020	-0.182	0.277
-518.916	-200.000	0.001	0.154
-517.902	-101.401	-0.043	0.011
-516.887	-200.000	0.033	-0.178
-515.872	-200.000	-0.032	-0.250
-514.858	61.161	0.048	-0.049
-513.843	800.000	0.067	0.250
-512.829	11.783	0.096	0.075
-511.814	-200.000	0.016	0.132
-510.799	192.766	0.156	0.240
-509.785	-200.000	-0.007	-0.260
-508.770	-60.578	-0.165	0.071
-507.756	-52.872	0.080	-0.037
-506.741	-105.265	0.227	-0.053
-505.726	-104.158	-0.298	-0.070
-504.712	287.636	0.131	-0.241
-503.697	-65.229	-0.155	-0.063
-502.683	-200.000	0.004	0.167
-501.668	-63.492	-0.228	0.095
-500.653	283.448	0.097	-0.176
-499.639	-6.224	0.145	-0.101
-498.624	-20.152	0.365	0.228
-497.610	-106.383	0.098	0.022
-496.595	-166.282	0.136	-0.006
-495.581	450.995	0.062	-0.139
-494.566	-9.458	-0.184	0.125
-493.551	55.160	0.268	-0.263
-492.537	18.377	-0.296	-0.240
-491.522	-131.994	0.238	0.032
-490.508	800.000	0.044	0.190
-489.493	-200.000	-0.009	0.342
-488.478	-108.624	-0.161	-0.035
-487.464	-73.854	0.136	-0.050
-486.449	107.780	-0.148	-0.178
-485.435	144.490	-0.203	-0.275
-484.420	-200.000	-0.071	-0.338
-483.405	800.000	0.080	0.231
-482.391	15.462	0.107	-0.085
-481.376	-60.682	-0.149	0.064
-480.362	249.320	-0.084	0.145
-479.347	222.916	0.095	0.155
-478.332	444.477	0.118	-0.263
-477.318	-37.160	-0.080	-0.043
-476.303	-123.149	-0.019	-0.003
-475.289	94.861	0.100	0.115
-474.274	8.202	0.103	-0.079
-473.259	-4.601	-0.153	-0.107
-472.245	800.000	-0.049	-0.145
-471.230	28.665	0.075	-0.065
-470.216	93.164	-0.125	-0.143
-469.201	800.000	0.019	-0.058
-468.186	13.819	-0.156	0.123
-467.172	-200.000	0.004	0.252
-466.157	25.899	-0.266	0.225
-465.143	61.698	-0.142	-0.143
-464.128	332.520	-0.162	0.317
-463.113	309.183	0.207	-0.393
-462.099	-48.232	-0.085	0.042
-461.084	800.000	0.105	0.339
-460.070	-200.000	-0.043	-0.243
-459.055	-112.005	0.069	0.014
-458.040	800.000	-0.069	0.246
-457.026	-200.000	0.028	0.125
-456.011	153.531	0.074	-0.103
-454.997	800.000	0.035	0.119
-453.982	363.901	0.049	0.100
-452.968	245.228	0.013	-0.023
-451.953	101.484	-0.060	-0.070
-450.938	-112.045	0.420	-0.086
-449.924	123.217	-0.044	0.056
-448.909	-58.074	0.066	0.029
-447.895	19.875	-0.062	0.051
-446.880	-88.524	0.259	-0.078
-445.865	-60.492	-0.218	-0.094
-444.851	-158.217	-0.093	-0.006
-443.836	-17.369	-0.432	-0.276
-442.822	-200.000	0.003	-0.126
-441.807	-107.962	0.248	-0.055
-440.792	292.193	0.049	-0.090
-439.778	-47.206	-0.099	0.049
-438.763	30.181	0.160	-0.138
-437.749	-149.638	-0.281	-0.022
-436.734	88.620	-0.155	0.175
-435.719	131.251	-0.169	-0.220
-434.705	-2.884	-0.118	-0.083
-433.690	-200.000	-0.002	0.196
-432.676	-148.248	-0.191	0.016
-431.661	800.000	-0.075	-0.262
-430.646	-119.812	-0.304	-0.053
-429.632	66.773	0.136	0.140
-428.617	178.780	0.249	0.369
-427.603	800.000	-0.036	-0.100
-426.588	-47.414	0.046	-0.023
-425.573	-53.802	0.108	-0.050
-424.559	58.030	-0.225	-0.223
-423.544	1.724	-0.049	0.036
-422.530	-127.291	-0.153	-0.023
-421.515	81.505	0.177	-0.193
-420.500	37.869	0.239	0.215
-419.486	-86.480	-0.100	0.031
-418.471	800.000	-0.098	0.334
-417.457	-200.000	0.023	0.130
-416.442	18.699	-0.063	0.051
-415.428	616.947	0.084	0.213
-414.413	-78.080	0.152	-0.053
-413.398	-48.015	-0.434	0.212
-412.384	379.886	0.110	0.227
-411.369	-106.510	0.293	0.066
-410.355	492.802	0.035	0.080
-409.340	800.000	-0.088	0.300
-408.325	76.263	0.060	0.064
-407.311	-200.000	0.063	-0.302
-406.296	78.593	-0.321	0.347
-405.282	2.508	0.176	0.129
-404.267	159.988	0.110	0.154
-403.252	-200.000	0.004	0.114
-402.238	-43.177	0.154	0.079
-401.223	326.497	-0.130	-0.251
-400.209	705.199	-0.117	-0.312
-399.194	657.448	-0.089	-0.231
-398.179	8.646	0.134	-0.102
-397.165	201.907	-0.152	0.237
-396.150	-187.084	-0.141	-0.002
-395.136	754.122	-0.101	-0.276
-394.121	800.000	-0.075	-0.264
-393.106	-200.000	-0.017	-0.204
-392.092	-5.568	-0.260	-0.180
-391.077	-200.000	-0.027	-0.138
-390.063	-200.000	0.040	0.318
-389.048	-17.843	-0.117	0.074
-388.033	162.030	-0.054	-0.076
-387.019	-200.000	-0.050	0.265
-386.004	-3.278	-0.120	-0.084
-384.990	-46.979	0.221	-0.109
-383.975	-55.866	0.051	0.023
-382.960	-54.729	0.375	-0.171
-381.946	-166.248	0.205	-0.009
-380.931	25.013	0.158	0.132
-379.917	-200.000	0.005	-0.159
-378.902	-23.917	-0.177	-0.107
-377.888	248.558	-0.107	0.183
-376.873	28.933	0.225	0.193
-375.858	671.034	0.041	-0.107
-374.844	-57.517	0.384	0.170
-373.829	211.712	0.147	0.234
-372.815	553.086	-0.062	-0.151
-371.800	-110.599	-0.257	-0.054
-370.785	-74.504	-0.479	-0.174
-369.771	-20.185	-0.378	-0.235
-368.756	-200.000	0.067	-0.375
-367.742	63.236	0.128	0.129
-366.727	102.302	0.136	-0.161
-365.712	92.886	-0.179	-0.204
-364.698	-200.000	0.047	-0.227
-363.683	-79.402	0.068	-0.023
-362.669	168.874	-0.238	-0.343
-361.654	1.066	-0.149	-0.108
-360.639	-84.993	0.436	-0.138
-359.625	-147.098	0.319	-0.028
-358.610	74.597	0.158	0.167
-357.596	223.831	-0.047	-0.076
-356.581	-23.357	-0.052	0.032
-355.566	199.069	0.266	0.411
-354.552	126.451	0.091	0.117
-353.537	615.465	-0.097	0.245
-352.523	745.471	-0.084	0.229
-351.508	362.039	-0.094	-0.191
-350.493	-144.985	0.181	-0.017
-349.479	-200.000	-0.039	0.238
-348.464	-200.000	-0.086	-0.484
-347.450	228.568	0.045	0.074
-346.435	-81.880	-0.222	-0.073
-345.420	-31.690	0.256	-0.145
-344.406	-96.082	-0.083	0.022
-343.391	287.879	-0.114	0.207
-342.377	-75.139	-0.141	-0.051
-341.362	0.759	-0.147	-0.106
-340.348	-94.459	0.323	-0.089
-339.333	-167.419	0.030	-0.001
-338.318	168.505	0.043	-0.062
-337.304	-128.303	0.141	-0.020
-336.289	32.357	-0.076	-0.066
-335.275	17.091	0.191	0.153
-334.260	-106.067	-0.113	-0.026
-333.245	-31.096	0.034	-0.019
-332.231	800.000	-0.065	0.240
-331.216	132.035	0.107	0.139
-330.202	-171.692	0.128	0.004
-329.187	179.293	-0.193	0.285
-328.172	-142.884	-0.114	0.011
-327.158	-43.486	-0.066	-0.034
-326.143	-99.268	-0.112	-0.029
-325.129	-146.785	0.250	0.022
-324.114	114.396	0.060	-0.074
-323.099	-200.000	-0.061	-0.276
-322.085	800.000	0.067	0.214
-321.070	-200.000	-0.015	-0.074
-320.056	-138.362	0.224	-0.025
-319.041	-59.235	-0.137	-0.060
-318.026	45.897	-0.289	-0.269
-317.012	800.000	-0.080	0.246
-315.997	-33.286	0.102	0.057
-314.983	-49.332	0.222	0.107
-313.968	158.497	-0.075	0.105
-312.953	85.508	0.116	0.128
-311.939	65.420	0.134	0.137
-310.924	261.974	0.216	-0.377
-309.910	327.933	-0.144	-0.278
-308.895	38.005	0.191	-0.171
-307.880	-104.991	-0.254	-0.059
-306.866	-40.437	-0.007	-0.004
-305.851	-138.994	-0.272	-0.030
-304.837	-51.026	-0.171	0.081
-303.822	-97.839	0.156	0.041
-302.807	59.596	-0.196	0.195
-301.793	-200.000	0.001	0.160
-300.778	800.000	-0.092	-0.402
-299.764	109.582	-0.227	0.274
-298.749	-159.108	-0.132	0.008
-297.735	-12.222	-0.428	0.282
-296.720	-91.558	-0.151	-0.043
-295.705	-200.000	0.010	0.187
-294.691	800.000	-0.041	-0.131
-293.676	-200.000	-0.010	0.140
-292.662	-200.000	0.022	-0.206
-291.647	-102.302	-0.031	-0.007
-290.632	188.497	0.111	0.168
-289.618	-51.893	0.180	-0.085
-288.603	100.922	0.071	0.083
-287.589	800.000	0.096	-0.348
-286.574	-158.536	-0.102	0.006
-285.559	-86.652	0.230	-0.071
-284.545	-192.691	0.115	-0.001
-283.530	86.783	-0.102	-0.114
-282.516	-120.760	-0.081	0.014
-281.501	171.379	-0.185	0.267
-280.486	488.482	0.007	-0.015
-279.472	-135.797	0.161	-0.019
-278.457	-200.000	-0.054	0.343
-277.443	-111.889	-0.039	0.008
-276.428	800.000	-0.028	0.092
-275.413	76.305	0.159	0.170
-274.399	-200.000	0.033	0.156
-273.384	456.136	-0.150	-0.335
-272.370	-99.189	-0.114	-0.029
-271.355	45.152	-0.057	0.053
-270.340	800.000	-0.105	-0.376
-269.326	-134.237	0.130	0.016
-268.311	32.431	-0.147	-0.128
-267.297	151.495	0.267	0.366
-266.282	727.062	0.117	0.313
-265.267	42.547	-0.091	0.084
-264.253	-57.322	-0.108	-0.048
-263.238	-200.000	0.022	-0.153
-262.224	151.735	-0.069	0.094
-261.209	26.283	0.238	0.200
-260.195	37.036	-0.056	0.049
-259.180	-200.000	0.014	0.268
-258.165	35.373	0.274	0.242
-257.151	-177.378	0.398	0.010
-256.136	745.254	-0.077	-0.208
-255.122	79.085	-0.055	-0.060
-254.107	-200.000	-0.032	-0.458
-253.092	-200.000	-0.003	-0.256
-252.078	-200.000	-0.003	-0.071
-251.063	-130.397	-0.330	0.045
-250.049	-69.506	-0.150	-0.058
-249.034	32.858	-0.228	-0.198
-248.019	800.000	-0.036	0.146
-247.005	-143.999	-0.244	0.023
-245.990	-65.987	0.213	0.086
-244.976	-200.000	-0.000	0.211
-243.961	-59.175	0.302	0.131
-242.946	-200.000	-0.026	-0.126
-241.932	-66.405	0.200	-0.080
-240.917	-200.000	0.064	0.445
-239.903	-95.635	-0.455	0.122
-238.888	-72.609	0.094	0.035
-237.873	388.958	-0.158	0.328
-236.859	-122.473	-0.126	0.021
-235.844	66.797	0.085	-0.087
-234.830	755.998	-0.106	-0.287
-233.815	-200.000	0.028	0.138
-232.800	-200.000	0.027	0.262
-231.786	148.982	-0.145	-0.197
-230.771	-105.370	0.232	0.053
-229.757	-47.256	-0.277	0.135
-228.742	-63.767	0.307	-0.126
-227.727	-80.789	0.069	-0.023
-226.713	653.067	-0.113	-0.290
-225.698	-138.673	0.203	0.022
-224.684	-39.300	0.126	-0.066
-223.669	309.903	0.215	-0.404
-222.655	-200.000	0.020	0.144
-221.640	-68.371	0.357	0.139
-220.625	-200.000	0.035	-0.325
-219.611	-200.000	-0.076	-0.340
-218.596	-187.490	-0.181	-0.002
-217.582	-200.000	0.007	-0.091
-216.567	-3.318	0.071	-0.050
-215.552	65.330	-0.233	0.237
-214.538	47.509	-0.093	-0.087
-213.523	-45.580	-0.164	0.081
-212.509	-187.316	-0.277	-0.004
-211.494	276.477	0.082	0.146
-210.479	800.000	-0.046	-0.140
-209.465	-18.968	-0.398	0.248
-208.450	-78.504	0.218	-0.075
-207.436	-127.123	-0.392	-0.058
-206.421	-131.236	-0.154	-0.021
-205.406	54.382	-0.272	-0.263
-204.392	-200.000	0.010	-0.202
-203.377	20.857	0.159	-0.130
-202.363	338.296	0.097	-0.190
-201.348	-174.476	-0.190	0.005
-200.333	18.878	0.030	0.024
-199.319	-86.455	0.090	-0.028
-198.304	287.356	0.085	-0.154
-197.290	48.308	-0.031	-0.029
-196.275	15.170	-0.214	0.168
-195.260	162.354	-0.059	-0.083
-194.246	-101.527	0.135	-0.033
-193.231	-150.545	-0.322	0.025
-192.217	130.938	0.236	-0.304
-191.202	611.571	-0.088	0.222
-190.187	-81.065	-0.177	0.059
-189.173	-200.000	-0.068	-0.302
-188.158	-84.252	0.133	0.042
-187.144	-200.000	0.001	-0.170
-186.129	800.000	-0.055	0.175
-185.114	-192.241	0.298	-0.003
-184.100	93.026	0.117	0.132
-183.085	-92.793	0.067	0.019
-182.071	-200.000	-0.040	0.000
-181.056	-90.698	0.235	0.068
-180.042	800.000	0.094	0.318
-179.027	-135.812	0.164	0.019
-178.012	66.528	0.015	-0.015
-176.998	67.722	0.181	-0.185
-175.983	56.322	0.064	-0.062
-174.969	-124.377	0.284	0.044
-173.954	190.951	0.081	0.121
-172.939	-102.835	0.508	-0.121
-171.925	-200.000	0.029	0.147
-170.910	-64.466	-0.096	0.039
-169.896	305.340	0.030	-0.055
-168.881	-124.938	0.109	-0.017
-167.866	-67.052	0.102	-0.040
-166.852	-200.000	0.019	-0.412
-165.837	800.000	-0.062	-0.178
-164.823	-119.590	0.392	-0.068
-163.808	44.827	0.145	-0.134
-162.793	260.931	0.165	0.286
-161.779	343.343	0.086	0.169
-160.764	34.958	-0.222	0.195
-159.750	204.600	-0.025	0.040
-158.735	-199.468	-0.147	-0.001
-157.720	108.674	0.154	-0.185
-156.706	-109.431	-0.043	0.009
-155.691	125.451	-0.044	-0.056
-154.677	-200.000	0.043	-0.199
-153.662	565.516	0.073	0.178
-152.647	-200.000	-0.019	0.161
-151.633	97.688	0.114	0.131
-150.618	96.980	-0.218	-0.250
-149.604	-97.284	-0.297	0.078
-148.589	800.000	-0.060	-0.229
-147.574	88.501	0.248	-0.276
-146.560	133.658	-0.104	0.134
-145.545	800.000	0.109	0.374
-144.531	-117.813	-0.234	0.042
-143.516	-88.245	-0.110	0.033
-142.502	-171.487	0.204	0.007
-141.487	-200.000	-0.049	-0.419
-140.472	-33.483	0.124	-0.069
-139.458	-80.069	0.279	-0.094
-138.443	101.219	0.132	0.154
-137.429	800.000	0.062	-0.261
-136.414	-114.845	0.417	0.080
-135.399	46.179	-0.276	-0.256
-134.385	800.000	-0.146	-0.518
-133.370	-9.074	0.119	0.080
-132.356	-16.572	-0.533	0.338
-131.341	265.834	0.118	-0.206
-130.326	105.691	-0.039	0.047
-129.312	59.667	0.118	-0.117
-128.297	323.105	-0.072	-0.138
-127.283	47.295	-0.140	-0.130
-126.268	-104.877	0.076	-0.017
-125.253	-44.068	-0.208	-0.105
-124.239	-200.000	0.068	0.465
-123.224	66.270	-0.154	-0.157
-122.210	-27.590	-0.277	-0.161
