DTS Sentinel unit serial number:	SN413079Multiplexer serial number:	ORYXHardware model number:	OX4-SRSoftware version number:	ORYX F/W v4.00 Oryx Data Collector v3.7.2.0data status	okinstallation	princeton_trtdifferential loss correction	single-endedforward channel	channel 4reverse channel	N/Adate	2019/09/18time	05:21:35forward acquisition time	60.00reverse acquisition time	0.00gamma	496.2192k internal	0.2332k external	0.2332temperature offset calibration	0.9993default loss term (dB/km)	0.3790temperature slope calibration	1.0000multiplexer offset coefficient	1.0000multiplexer slope coefficient	1.0000fibre end	0.00T internal ref (°C)	23.50T ext. ref 1 (°C)	0.19T ext. ref 2 (°C)	17.24length (m)	temperature (°C)	Stokes	anti-Stokes-747.200	-168.416	0.152	-0.006
-746.185	10.345	-0.301	0.230
-745.171	-200.000	0.003	-0.166
-744.156	227.670	0.199	0.326
-743.142	-123.802	-0.206	0.033
-742.127	48.967	-0.125	0.118
-741.112	0.661	0.050	0.036
-740.098	-200.000	0.049	0.482
-739.083	-18.484	0.126	0.079
-738.069	281.773	-0.176	0.317
-737.054	30.855	-0.240	-0.206
-736.039	-86.210	-0.131	-0.040
-735.025	-200.000	0.024	-0.131
-734.010	242.004	0.071	-0.120
-732.996	82.781	-0.302	-0.330
-731.981	746.721	-0.064	0.174
-730.966	201.878	-0.127	-0.197
-729.952	-87.578	0.306	-0.093
-728.937	-200.000	-0.030	-0.180
-727.923	-132.279	-0.498	-0.065
-726.908	-174.443	0.182	0.005
-725.894	-100.709	0.144	-0.036
-724.879	-139.250	0.250	0.027
-723.864	559.859	0.155	0.377
-722.850	-200.000	-0.022	-0.219
-721.835	23.103	-0.205	0.169
-720.821	-104.745	-0.273	0.063
-719.806	634.389	-0.234	0.596
-718.791	800.000	0.182	-0.540
-717.777	-70.449	-0.529	-0.201
-716.762	343.580	0.057	0.112
-715.748	-22.208	-0.172	0.105
-714.733	-100.728	0.287	-0.071
-713.718	-77.966	-0.235	-0.081
-712.704	125.495	-0.122	0.155
-711.689	595.612	0.013	0.033
-710.675	-172.230	-0.333	0.011
-709.660	-200.000	0.052	0.276
-708.645	-200.000	-0.001	-0.014
-707.631	201.220	-0.094	-0.145
-706.616	-29.935	-0.136	0.078
-705.602	-200.000	-0.037	-0.478
-704.587	-25.972	-0.246	-0.145
-703.572	-14.412	-0.109	0.071
-702.558	-132.453	0.329	-0.043
-701.543	-38.763	0.199	0.105
-700.529	40.481	0.132	-0.119
-699.514	800.000	-0.054	0.176
-698.499	-5.395	-0.185	-0.128
-697.485	302.949	-0.052	-0.097
-696.470	-120.307	0.058	0.010
-695.456	-72.477	0.251	0.093
-694.441	-129.080	0.152	-0.021
-693.426	-200.000	-0.047	0.301
-692.412	-73.832	0.324	0.118
-691.397	22.168	-0.140	0.114
-690.383	-137.754	0.316	-0.036
-689.368	81.258	0.043	-0.047
-688.354	-187.516	0.115	0.002
-687.339	-200.000	-0.003	-0.251
-686.324	-128.495	-0.091	-0.013
-685.310	-25.284	-0.259	-0.154
-684.295	800.000	0.122	0.366
-683.281	-89.616	-0.399	-0.117
-682.266	-48.378	0.406	-0.196
-681.251	259.429	-0.010	0.018
-680.237	-149.262	0.184	0.015
-679.222	160.890	0.036	-0.051
-678.208	177.538	0.246	0.359
-677.193	59.076	-0.148	-0.146
-676.178	304.504	0.246	-0.458
-675.164	-40.703	0.222	0.116
-674.149	-85.464	-0.172	0.054
-673.135	209.529	0.130	-0.205
-672.120	234.155	0.067	-0.111
-671.105	-166.724	-0.425	0.018
-670.091	800.000	-0.117	-0.323
-669.076	-5.894	-0.194	-0.133
-668.062	433.707	0.160	-0.347
-667.047	161.634	0.202	0.284
-666.032	169.228	0.105	0.150
-665.018	-200.000	0.010	0.096
-664.003	-8.044	-0.295	-0.200
-662.989	-90.636	-0.164	0.048
-661.974	-153.136	0.159	0.011
-660.959	-148.165	-0.170	-0.014
-659.945	-200.000	-0.011	0.168
-658.930	-5.193	0.243	-0.168
-657.916	106.199	-0.121	-0.144
-656.901	-89.598	-0.144	0.042
-655.886	-57.570	0.144	0.063
-654.872	-74.368	0.155	0.056
-653.857	-200.000	-0.056	-0.322
-652.843	800.000	-0.058	0.229
-651.828	-16.277	0.173	0.110
-650.814	-33.813	0.344	-0.190
-649.799	-126.155	-0.363	0.054
-648.784	800.000	0.049	-0.177
-647.770	76.096	-0.094	-0.099
-646.755	-47.768	-0.186	-0.090
-645.741	26.533	0.049	-0.041
-644.726	366.689	-0.017	-0.035
-643.711	800.000	-0.079	0.232
-642.697	-111.773	0.072	0.015
-641.682	240.651	0.181	-0.302
-640.668	800.000	0.023	-0.079
-639.653	0.876	-0.319	0.229
-638.638	-7.057	-0.161	0.109
-637.624	-39.917	-0.088	0.046
-636.609	144.486	0.174	-0.233
-635.595	-155.526	-0.033	0.002
-634.580	-200.000	0.057	-0.275
-633.565	291.542	0.108	-0.198
-632.551	18.780	-0.203	0.163
-631.536	-93.694	0.110	0.030
-630.522	800.000	-0.012	-0.037
-629.507	123.384	-0.130	-0.163
-628.492	-12.601	-0.162	-0.106
-627.478	-53.620	0.112	0.051
-626.463	-98.943	0.333	-0.085
-625.449	-69.950	0.135	0.051
-624.434	418.733	0.151	-0.324
-623.419	192.306	-0.138	-0.208
-622.405	-85.257	-0.218	-0.068
-621.390	-28.236	0.217	0.125
-620.376	149.342	-0.094	-0.128
-619.361	-35.427	-0.143	-0.078
-618.346	-124.751	-0.192	0.030
-617.332	298.803	-0.139	-0.256
-616.317	800.000	0.038	-0.119
-615.303	40.100	-0.257	-0.231
-614.288	270.249	-0.110	-0.194
-613.273	-32.989	-0.233	0.129
-612.259	423.431	-0.079	-0.170
-611.244	-200.000	0.043	0.234
-610.230	-3.205	0.194	0.135
-609.215	-200.000	0.004	-0.126
-608.201	-109.406	0.065	0.014
-607.186	-200.000	-0.034	0.205
-606.171	45.731	0.184	0.170
-605.157	-141.742	0.092	-0.009
-604.142	76.776	0.278	-0.295
-603.128	-94.884	0.060	-0.016
-602.113	-149.722	-0.268	-0.021
-601.098	800.000	0.056	0.243
-600.084	-118.824	0.239	0.042
-599.069	269.823	0.078	-0.137
-598.055	-200.000	0.032	-0.200
-597.040	-96.835	-0.175	-0.046
-596.025	-111.080	-0.176	0.036
-595.011	121.339	-0.196	-0.244
-593.996	-123.729	0.201	-0.032
-592.982	800.000	0.108	-0.419
-591.967	27.560	-0.112	0.094
-590.952	800.000	-0.058	-0.187
-589.938	22.077	-0.166	-0.135
-588.923	-20.575	0.263	-0.161
-587.909	567.912	0.134	-0.326
-586.894	-25.300	0.204	-0.121
-585.879	-83.993	-0.213	0.068
-584.865	-31.279	-0.119	0.067
-583.850	-64.628	0.131	-0.053
-582.836	-114.829	0.377	-0.072
-581.821	85.867	0.239	-0.263
-580.806	-46.239	-0.369	-0.182
-579.792	-151.721	0.502	-0.037
-578.777	784.477	-0.093	-0.254
-577.763	213.709	-0.074	0.116
-576.748	136.541	0.039	0.051
-575.733	-34.085	0.207	-0.113
-574.719	-14.748	-0.040	-0.025
-573.704	656.072	0.014	0.036
-572.690	41.485	-0.082	0.075
-571.675	75.748	-0.133	-0.141
-570.661	-94.546	0.054	0.015
-569.646	0.065	-0.148	-0.105
-568.631	-73.222	-0.194	0.071
-567.617	-50.512	-0.469	-0.221
-566.602	372.574	-0.062	0.126
-565.588	800.000	0.074	-0.253
-564.573	-87.730	-0.153	-0.046
-563.558	-200.000	0.013	-0.184
-562.544	-15.416	-0.149	0.095
-561.529	570.811	0.045	-0.108
-560.515	-185.341	-0.459	-0.007
-559.500	-120.576	0.187	0.032
-558.485	-114.256	-0.055	0.011
-557.471	-200.000	0.044	-0.211
-556.456	-59.693	0.275	-0.118
-555.442	-200.000	0.017	-0.112
-554.427	-89.463	0.250	-0.073
-553.412	-200.000	0.023	0.114
-552.398	-200.000	-0.027	-0.121
-551.383	800.000	0.009	0.029
-550.369	-79.998	-0.122	-0.041
-549.354	-69.915	0.275	0.105
-548.339	800.000	0.035	-0.132
-547.325	-46.643	-0.286	0.140
-546.310	160.118	0.154	0.214
-545.296	-200.000	0.002	-0.356
-544.281	302.206	-0.229	0.423
-543.266	-52.284	0.127	0.059
-542.252	-161.256	-0.268	-0.014
-541.237	-60.794	0.317	0.134
-540.223	-133.642	0.117	0.015
-539.208	-200.000	-0.106	0.560
-538.193	458.684	0.065	-0.145
-537.179	800.000	-0.121	-0.430
-536.164	-200.000	0.009	0.046
-535.150	445.534	0.114	0.250
-534.135	32.554	0.032	-0.028
-533.121	-88.028	-0.230	-0.069
-532.106	106.936	0.198	-0.234
-531.091	-39.279	-0.057	-0.030
-530.077	-62.941	-0.117	-0.048
-529.062	71.534	0.213	-0.221
-528.048	137.660	-0.074	-0.097
-527.033	800.000	-0.062	0.190
-526.018	106.757	-0.193	-0.229
-525.004	52.213	0.101	0.096
-523.989	800.000	0.024	0.091
-522.975	217.358	-0.059	-0.094
-521.960	172.665	0.118	-0.170
-520.945	-37.387	-0.231	-0.123
-519.931	-131.391	-0.236	-0.031
-518.916	-114.987	-0.319	-0.061
-517.902	-83.518	0.208	-0.066
-516.887	188.947	0.050	-0.075
-515.872	-86.000	0.440	-0.136
-514.858	200.577	-0.125	0.191
-513.843	800.000	0.051	-0.172
-512.829	98.145	0.223	0.256
-511.814	-200.000	0.025	0.236
-510.799	800.000	-0.060	-0.214
-509.785	31.117	0.258	0.221
-508.770	212.999	-0.089	-0.140
-507.756	-70.707	0.198	-0.074
-506.741	24.383	-0.088	0.073
-505.726	-5.217	-0.245	-0.168
-504.712	800.000	-0.105	0.302
-503.697	319.039	-0.213	0.403
-502.683	478.869	0.044	0.100
-501.668	800.000	-0.021	-0.067
-500.653	-6.347	-0.293	0.199
-499.639	-32.578	0.263	-0.146
-498.624	800.000	0.043	-0.139
-497.610	145.765	0.045	0.060
-496.595	21.050	-0.149	0.120
-495.581	-200.000	0.005	-0.100
-494.566	114.582	0.129	0.156
-493.551	-95.519	-0.095	-0.025
-492.537	481.515	0.098	0.222
-491.522	200.641	0.151	0.232
-490.508	-200.000	-0.024	0.121
-489.493	-151.788	-0.218	-0.016
-488.478	226.350	-0.082	-0.132
-487.464	-44.343	0.258	0.129
-486.449	-131.254	0.129	0.017
-485.435	-35.149	-0.035	-0.019
-484.420	800.000	-0.049	0.170
-483.405	588.199	-0.006	-0.015
-482.391	171.816	-0.134	0.192
-481.376	-100.602	0.092	0.023
-480.362	117.556	-0.068	-0.083
-479.347	-200.000	0.012	0.131
-478.332	800.000	0.044	0.167
-477.318	800.000	0.102	0.374
-476.303	408.872	0.077	0.162
-475.289	298.697	0.046	-0.085
-474.274	77.061	-0.096	-0.102
-473.259	-200.000	-0.024	0.196
-472.245	800.000	0.026	-0.103
-471.230	-132.129	0.072	0.009
-470.216	-63.565	0.194	0.079
-469.201	27.766	-0.411	-0.344
-468.186	137.495	-0.070	-0.092
-467.172	179.361	-0.115	0.168
-466.157	800.000	-0.028	-0.105
-465.143	-6.506	0.328	-0.222
-464.128	-200.000	-0.015	-0.081
-463.113	1.889	0.162	0.116
-462.099	34.969	-0.117	-0.102
-461.084	-200.000	0.006	-0.283
-460.070	-200.000	0.074	0.422
-459.055	656.869	-0.128	-0.328
-458.040	112.540	0.025	0.030
-457.026	137.721	-0.125	0.163
-456.011	57.768	0.155	0.151
-454.997	-143.467	0.085	0.008
-453.982	74.272	0.045	-0.047
-452.968	-35.402	0.213	-0.115
-451.953	-126.084	0.381	0.057
-450.938	113.126	-0.159	0.192
-449.924	-200.000	0.021	0.174
-448.909	-191.398	0.418	0.004
-447.895	45.094	-0.136	-0.125
-446.880	-4.601	0.169	0.116
-445.865	43.005	0.203	-0.184
-444.851	98.577	-0.045	-0.051
-443.836	-103.033	-0.188	0.044
-442.822	-137.073	-0.118	0.013
-441.807	197.205	-0.114	-0.173
-440.792	474.715	-0.088	0.197
-439.778	-54.074	-0.096	0.043
-438.763	-116.871	0.295	0.054
-437.749	-17.218	-0.119	-0.075
-436.734	5.390	-0.211	-0.155
-435.719	58.908	0.112	0.110
-434.705	-80.336	-0.145	-0.048
-433.690	-78.806	0.210	-0.071
-432.676	-115.494	-0.183	0.034
-431.661	-94.843	-0.167	0.045
-430.646	71.086	0.058	0.060
-429.632	-99.216	0.154	-0.039
-428.617	-72.102	-0.222	0.082
-427.603	46.656	0.324	-0.299
-426.588	-200.000	-0.004	-0.147
-425.573	-40.459	0.105	0.054
-424.559	-153.595	-0.083	0.006
-423.544	51.748	-0.232	0.219
-422.530	103.190	0.253	-0.294
-421.515	-30.965	0.225	-0.126
-420.500	-153.378	0.085	-0.006
-419.486	523.282	0.064	0.150
-418.471	-64.788	-0.235	-0.095
-417.457	35.308	-0.005	-0.005
-416.442	-107.153	-0.308	0.068
-415.428	-200.000	-0.022	0.351
-414.413	64.598	0.234	-0.234
-413.398	-200.000	0.086	0.494
-412.384	22.867	-0.139	-0.113
-411.369	-200.000	-0.011	-0.133
-410.355	-200.000	0.026	-0.157
-409.340	300.338	0.126	-0.231
-408.325	295.226	0.172	0.312
-407.311	55.456	0.092	0.089
-406.296	-55.812	0.307	0.136
-405.282	503.903	0.056	-0.128
-404.267	611.372	0.125	0.309
-403.252	635.461	-0.013	-0.033
-402.238	2.151	0.101	0.072
-401.223	172.590	0.272	0.389
-400.209	197.279	-0.129	0.196
-399.194	258.165	-0.055	0.094
-398.179	-25.087	-0.155	-0.091
-397.165	-134.280	-0.210	0.026
-396.150	-200.000	0.001	0.103
-395.136	469.636	0.175	0.390
-394.121	25.507	0.301	0.249
-393.106	-24.300	-0.371	0.220
-392.092	184.991	-0.074	-0.109
-391.077	-57.746	-0.084	-0.037
-390.063	800.000	0.064	-0.194
-389.048	-58.908	-0.206	-0.088
-388.033	-200.000	0.033	-0.402
-387.019	763.783	-0.151	-0.406
-386.004	800.000	-0.014	0.041
-384.990	95.930	-0.140	-0.158
-383.975	252.561	0.085	0.144
-382.960	-79.478	-0.135	-0.045
-381.946	-200.000	-0.029	-0.149
-380.931	-200.000	-0.042	-0.194
-379.917	-58.764	-0.215	-0.093
-378.902	-98.158	0.191	-0.049
-377.888	-24.128	0.216	-0.128
-376.873	800.000	-0.024	0.104
-375.858	295.169	0.065	0.117
-374.844	-37.154	0.174	-0.092
-373.829	253.274	-0.103	0.174
-372.815	57.862	-0.029	-0.028
-371.800	351.260	-0.164	0.321
-370.785	-200.000	-0.003	0.209
-369.771	800.000	-0.044	0.185
-368.756	500.726	-0.127	-0.290
-367.742	346.084	0.136	0.265
-366.727	-51.402	-0.287	-0.133
-365.712	-108.278	-0.083	0.018
-364.698	-56.420	-0.273	0.120
-363.683	135.020	0.214	-0.275
-362.669	-200.000	-0.036	-0.251
-361.654	58.219	-0.077	-0.075
-360.639	75.916	-0.239	0.251
-359.625	590.226	-0.034	-0.084
-358.610	69.301	0.120	0.122
-357.596	-156.035	0.250	-0.016
-356.581	111.769	-0.048	0.057
-355.566	-116.863	0.431	-0.078
-354.552	161.529	-0.164	0.227
-353.537	-200.000	-0.005	-0.087
-352.523	146.034	-0.098	-0.131
-351.508	-83.330	0.088	-0.028
-350.493	-200.000	-0.041	-0.225
-349.479	-83.805	0.137	-0.043
-348.464	109.761	-0.121	0.144
-347.450	-105.042	-0.220	0.050
-346.435	-81.684	-0.278	0.090
-345.420	208.935	0.183	0.283
-344.406	-29.661	-0.198	-0.112
-343.391	174.062	0.079	-0.112
-342.377	106.277	0.059	-0.069
-341.362	-7.616	-0.068	-0.046
-340.348	118.248	0.190	-0.232
-339.333	-75.855	-0.236	-0.083
-338.318	100.282	0.281	0.323
-337.304	-145.264	-0.238	-0.021
-336.289	91.904	-0.099	-0.110
-335.275	-200.000	0.010	-0.145
-334.260	800.000	0.130	0.390
-333.245	-145.719	-0.238	-0.021
-332.231	-150.638	0.149	0.011
-331.216	368.645	-0.139	-0.279
-330.202	443.573	0.117	-0.254
-329.187	30.218	-0.281	-0.237
-328.172	-200.000	-0.015	-0.092
-327.158	-87.420	0.258	-0.077
-326.143	81.427	-0.166	0.178
-325.129	-200.000	0.007	-0.303
-324.114	367.870	0.153	-0.306
-323.099	800.000	0.024	0.095
-322.085	800.000	0.146	0.448
-321.070	238.472	-0.083	-0.136
-320.056	336.601	0.131	-0.252
-319.041	-79.832	-0.360	-0.120
-318.026	-200.000	0.014	0.086
-317.012	-18.761	-0.114	-0.070
-315.997	-89.802	-0.191	0.055
-314.983	800.000	0.035	-0.105
-313.968	800.000	-0.063	0.204
-312.953	-131.332	0.109	0.014
-311.939	-200.000	0.029	-0.419
-310.924	800.000	-0.036	-0.109
-309.910	212.936	-0.152	-0.237
-308.895	-76.051	-0.146	0.051
-307.880	548.768	-0.071	-0.169
-306.866	72.394	-0.091	0.094
-305.851	800.000	-0.058	-0.243
-304.837	-32.643	-0.125	-0.069
-303.822	138.076	-0.205	-0.266
-302.807	122.713	-0.064	0.080
-301.793	800.000	-0.043	0.161
-300.778	37.073	0.064	-0.056
-299.764	14.224	-0.050	-0.039
-298.749	-23.328	0.375	-0.223
-297.735	-72.155	-0.175	0.064
-296.720	-88.903	-0.192	0.056
-295.705	573.785	-0.025	-0.061
-294.691	420.231	0.140	-0.296
-293.676	169.250	0.149	-0.210
-292.662	647.979	0.068	0.173
-291.647	-25.838	-0.314	0.183
-290.632	-149.767	-0.274	0.021
-289.618	324.558	0.107	-0.201
-288.603	-111.726	0.335	0.067
-287.589	-22.414	0.128	-0.077
-286.574	352.392	-0.116	-0.226
-285.559	-112.766	-0.445	0.087
-284.545	463.738	-0.069	-0.152
-283.530	723.940	0.101	-0.267
-282.516	657.922	0.093	0.236
-281.501	-200.000	0.002	0.127
-280.486	-200.000	0.018	0.211
-279.472	222.387	0.182	0.289
-278.457	88.545	-0.179	0.196
-277.443	355.780	0.112	0.221
-276.428	29.558	0.326	-0.274
-275.413	-197.717	-0.124	0.001
-274.399	350.912	0.118	-0.230
-273.384	163.985	-0.265	0.369
-272.370	-200.000	-0.068	0.359
-271.355	116.423	0.238	0.288
-270.340	22.989	0.163	0.132
-269.326	-200.000	-0.023	0.183
-268.311	204.484	0.158	0.242
-267.297	-200.000	-0.006	-0.062
-266.282	615.093	-0.030	0.075
-265.267	667.187	0.028	-0.071
-264.253	800.000	-0.045	0.133
-263.238	365.396	-0.203	-0.404
-262.224	-46.150	0.119	-0.058
-261.209	-32.078	0.133	0.074
-260.195	-137.862	-0.340	0.038
-259.180	-14.183	0.305	-0.194
-258.165	-145.282	-0.215	-0.019
-257.151	88.970	0.052	0.057
-256.136	306.784	0.088	-0.162
-255.122	38.534	0.159	0.140
-254.107	719.897	-0.017	0.043
-253.092	385.573	-0.031	-0.064
-252.078	562.106	0.007	0.016
-251.063	71.749	-0.036	-0.037
-250.049	-200.000	0.064	0.475
-249.034	27.540	0.293	-0.243
-248.019	-114.287	-0.292	-0.056
-247.005	-16.880	0.244	0.152
-245.990	137.419	-0.089	0.115
-244.976	-200.000	0.052	0.272
-243.961	-200.000	0.062	0.466
-242.946	-120.269	-0.278	0.047
-241.932	135.710	-0.208	0.267
-240.917	800.000	0.032	-0.109
-239.903	79.214	0.242	0.255
-238.888	387.628	0.084	0.172
-237.873	-200.000	-0.036	0.218
-236.859	-200.000	0.016	-0.203
-235.844	19.631	0.046	-0.036
-234.830	-200.000	0.026	-0.379
-233.815	-29.104	0.355	0.201
-232.800	428.103	-0.117	0.248
-231.786	-66.351	-0.302	0.118
-230.771	800.000	-0.051	0.155
-229.757	800.000	0.043	0.122
-228.742	-200.000	0.029	0.200
-227.727	78.628	0.101	0.107
-226.713	20.966	0.133	0.107
-225.698	-200.000	0.009	0.201
-224.684	-46.122	-0.101	-0.049
-223.669	-87.270	0.085	-0.025
-222.655	655.940	-0.048	-0.120
-221.640	228.948	-0.288	-0.462
-220.625	563.735	-0.085	0.203
-219.611	-30.644	-0.121	0.067
-218.596	364.822	0.051	0.101
-217.582	357.502	0.130	0.255
-216.567	184.547	0.242	-0.354
-215.552	-200.000	-0.021	0.306
-214.538	365.622	0.016	0.031
-213.523	-85.542	-0.100	0.031
-212.509	470.909	-0.149	0.330
-211.494	-82.351	-0.121	-0.039
-210.479	62.941	-0.169	-0.167
-209.465	-51.180	0.128	-0.059
-208.450	-110.302	0.247	0.051
-207.436	-154.663	-0.436	-0.029
-206.421	379.387	0.021	0.042
-205.406	800.000	0.056	-0.172
-204.392	39.967	-0.208	0.184
-203.377	-73.092	0.183	0.066
-202.363	800.000	0.081	0.270
-201.348	800.000	-0.059	0.217
-200.333	51.941	0.020	-0.019
-199.319	304.427	0.063	0.116
-198.304	-200.000	0.029	0.175
-197.290	-117.477	0.300	-0.053
-196.275	-64.208	0.166	0.067
-195.260	234.187	0.139	-0.226
-194.246	-200.000	0.033	-0.161
-193.231	-17.534	0.211	-0.131
-192.217	-177.912	-0.069	0.002
-191.202	-146.393	-0.375	0.032
-190.187	-30.951	-0.052	-0.029
-189.173	-200.000	0.048	-0.420
-188.158	800.000	-0.022	0.073
-187.144	-30.033	0.234	-0.131
-186.129	187.273	-0.164	0.241
-185.114	-16.852	0.161	-0.100
-184.100	-200.000	0.045	0.245
-183.085	-34.109	-0.275	-0.149
-182.071	800.000	-0.069	-0.221
-181.056	-69.021	-0.256	-0.097
-180.042	-200.000	-0.010	-0.152
-179.027	-155.556	0.066	0.004
-178.012	58.755	0.340	0.329
-176.998	237.249	0.090	0.147
-175.983	102.695	-0.129	0.148
-174.969	-200.000	-0.058	0.312
-173.954	110.069	0.329	-0.389
-172.939	-125.659	0.249	0.037
-171.925	-78.278	0.231	0.078
-170.910	-187.858	0.594	0.008
-169.896	-128.816	-0.090	0.012
-168.881	44.493	0.106	-0.096
-167.866	-85.571	-0.302	0.092
-166.852	85.691	0.159	-0.172
-165.837	-137.031	-0.146	0.016
-164.823	-117.520	-0.257	0.046
-163.808	-200.000	0.017	0.108
-162.793	800.000	0.115	0.320
-161.779	177.869	0.235	0.338
-160.764	146.989	0.105	0.139
-159.750	217.429	0.111	-0.174
-158.735	43.437	0.379	0.341
-157.720	-36.559	0.248	-0.131
-156.706	-88.953	-0.079	0.023
-155.691	330.598	0.130	0.247
-154.677	-43.039	-0.136	0.068
-153.662	-200.000	-0.014	-0.140
-152.647	-96.356	-0.431	0.112
-151.633	32.301	-0.174	0.148
-150.618	347.556	-0.201	-0.388
-149.604	-200.000	0.030	0.197
-148.589	468.288	0.169	-0.374
-147.574	555.413	0.105	0.248
-146.560	-200.000	-0.054	-0.405
-145.545	800.000	0.048	0.155
-144.531	-131.265	-0.275	-0.036
-143.516	-164.523	0.093	-0.004
-142.502	611.341	0.048	0.118
-141.487	-200.000	-0.072	0.406
-140.472	24.865	-0.050	0.040
-139.458	351.642	-0.145	0.283
-138.443	-200.000	0.072	-0.321
-137.429	4.031	-0.102	-0.073
-136.414	-200.000	-0.028	0.163
-135.399	-200.000	-0.044	-0.249
-134.385	-160.255	-0.044	-0.002
-133.370	-111.955	-0.089	0.018
-132.356	-68.511	-0.269	-0.102
-131.341	68.666	-0.082	0.083
-130.326	800.000	-0.009	-0.031
-129.312	209.374	-0.095	-0.147
-128.297	-109.999	-0.057	-0.012
-127.283	800.000	-0.067	0.269
-126.268	-40.927	0.238	0.121
-125.253	353.644	0.052	-0.100
-124.239	639.740	0.065	-0.162
-123.224	800.000	-0.105	0.353
-122.210	-111.507	0.300	0.060
-121.195	-70.205	-0.190	0.071
