DTS Sentinel unit serial number:	SN413079Multiplexer serial number:	ORYXHardware model number:	OX4-SRSoftware version number:	ORYX F/W v4.00 Oryx Data Collector v3.7.2.0data status	okinstallation	princeton_trtdifferential loss correction	single-endedforward channel	channel 4reverse channel	N/Adate	2019/09/15time	12:25:35forward acquisition time	60.00reverse acquisition time	0.00gamma	496.2192k internal	0.2294k external	0.2294temperature offset calibration	1.0018default loss term (dB/km)	0.3790temperature slope calibration	1.0000multiplexer offset coefficient	1.0000multiplexer slope coefficient	1.0000fibre end	0.00T internal ref (°C)	34.95T ext. ref 1 (°C)	5.05T ext. ref 2 (°C)	32.50length (m)	temperature (°C)	Stokes	anti-Stokes-747.200	-172.486	-0.228	-0.007
-746.185	315.047	0.023	-0.045
-745.171	-111.620	-0.216	-0.045
-744.156	-163.660	-0.091	-0.004
-743.142	-146.928	-0.213	0.019
-742.127	800.000	-0.163	0.594
-741.112	53.645	-0.112	0.110
-740.098	-87.249	-0.180	0.056
-739.083	-200.000	-0.004	0.119
-738.069	-128.601	0.069	-0.010
-737.054	-70.367	0.242	0.094
-736.039	-200.000	0.043	-0.341
-735.025	312.102	0.148	0.285
-734.010	70.613	0.232	-0.245
-732.996	-13.123	-0.156	-0.103
-731.981	-100.051	0.490	-0.125
-730.966	-53.176	-0.118	-0.055
-729.952	122.848	-0.152	-0.195
-728.937	231.962	-0.147	-0.247
-727.923	174.876	-0.169	-0.250
-726.908	29.469	-0.223	0.193
-725.894	-73.632	-0.291	0.108
-724.879	-63.514	-0.359	-0.151
-723.864	376.258	0.041	-0.085
-722.850	-72.321	-0.656	0.248
-721.835	28.639	-0.307	0.266
-720.821	736.977	-0.036	-0.098
-719.806	-110.189	-0.356	0.076
-718.791	800.000	-0.091	-0.401
-717.777	-200.000	-0.030	-0.188
-716.762	-70.973	-0.176	-0.068
-715.748	-51.046	0.184	0.088
-714.733	69.954	-0.168	0.177
-713.718	103.808	-0.134	-0.161
-712.704	543.386	-0.136	-0.331
-711.689	183.943	0.030	-0.046
-710.675	-17.142	-0.106	-0.068
-709.660	-131.772	-0.489	0.065
-708.645	403.551	-0.103	-0.222
-707.631	-158.171	0.257	-0.015
-706.616	72.525	-0.097	-0.103
-705.602	800.000	-0.044	-0.175
-704.587	800.000	-0.117	0.348
-703.572	-107.862	0.164	-0.036
-702.558	-33.170	0.226	-0.128
-701.543	-52.808	-0.125	-0.059
-700.529	73.480	0.257	0.275
-699.514	52.799	-0.118	0.115
-698.499	-74.066	-0.229	-0.085
-697.485	-89.014	0.463	-0.140
-696.470	-149.300	-0.014	-0.001
-695.456	535.784	-0.144	-0.349
-694.441	800.000	-0.034	-0.133
-693.426	-49.865	0.223	0.108
-692.412	0.034	0.103	0.075
-691.397	19.230	0.209	0.171
-690.383	-200.000	0.027	-0.334
-689.368	-15.373	-0.333	-0.217
-688.354	-12.631	-0.269	0.179
-687.339	-200.000	0.001	0.152
-686.324	-200.000	-0.005	-0.206
-685.310	25.671	-0.233	-0.198
-684.295	-75.678	0.170	-0.061
-683.281	-200.000	0.017	-0.263
-682.266	241.898	-0.054	0.092
-681.251	-30.471	-0.145	0.084
-680.237	-200.000	-0.023	0.130
-679.222	23.912	-0.188	-0.159
-678.208	317.121	0.081	0.157
-677.193	156.358	0.226	0.318
-676.178	13.942	0.249	0.197
-675.164	-163.931	-0.310	-0.015
-674.149	56.796	0.078	0.077
-673.135	68.208	0.040	-0.042
-672.120	56.609	-0.240	-0.238
-671.105	17.380	0.117	-0.095
-670.091	-200.000	-0.003	-0.443
-669.076	482.738	-0.052	-0.119
-668.062	338.798	0.103	-0.204
-667.047	219.714	-0.024	-0.039
-666.032	-51.796	0.086	-0.041
-665.018	134.866	-0.093	0.124
-664.003	-63.360	-0.320	-0.134
-662.989	-136.624	0.340	0.040
-661.974	-84.454	-0.173	0.056
-660.959	-200.000	-0.040	-0.233
-659.945	289.686	0.112	-0.207
-658.930	60.885	-0.253	0.256
-657.916	-22.021	0.366	-0.227
-656.901	281.800	-0.053	0.098
-655.886	-116.933	-0.185	0.034
-654.872	800.000	-0.028	0.121
-653.857	-46.755	-0.173	-0.086
-652.843	127.127	-0.088	0.114
-651.828	800.000	-0.083	0.278
-650.814	69.897	0.050	-0.052
-649.799	195.226	0.114	-0.176
-648.784	691.606	0.094	-0.252
-647.770	-125.771	-0.259	-0.040
-646.755	327.377	0.053	-0.103
-645.741	-109.989	0.226	-0.048
-644.726	270.631	0.055	-0.099
-643.711	72.936	-0.134	0.143
-642.697	-39.179	-0.200	-0.107
-641.682	90.522	0.110	0.126
-640.668	-200.000	-0.008	0.118
-639.653	59.412	-0.062	-0.062
-638.638	293.526	-0.056	0.105
-637.624	295.797	0.106	-0.197
-636.609	-143.571	0.148	-0.014
-635.595	-42.372	0.323	0.168
-634.580	69.281	-0.093	-0.098
-633.565	222.786	0.062	-0.101
-632.551	112.933	-0.018	-0.023
-631.536	-113.841	0.068	0.014
-630.522	102.067	0.215	-0.256
-629.507	-56.975	0.322	0.145
-628.492	-129.838	-0.148	0.021
-627.478	-137.513	-0.288	-0.033
-626.463	800.000	0.011	0.033
-625.449	-46.097	-0.117	0.059
-624.434	-40.979	-0.403	-0.212
-623.419	800.000	0.110	-0.346
-622.405	-200.000	-0.055	-0.249
-621.390	-52.466	0.175	0.083
-620.376	-200.000	-0.021	-0.332
-619.361	57.441	0.175	-0.174
-618.346	-200.000	-0.020	0.098
-617.332	134.112	-0.262	-0.345
-616.317	-5.377	-0.119	0.083
-615.303	-21.153	-0.055	0.034
-614.288	541.671	0.041	-0.099
-613.273	346.493	0.061	0.121
-612.259	-26.870	-0.038	0.023
-611.244	41.613	0.256	0.236
-610.230	639.529	-0.037	0.096
-609.215	63.129	-0.089	-0.091
-608.201	302.172	-0.181	-0.340
-607.186	13.019	-0.106	0.084
-606.171	-200.000	-0.024	-0.203
-605.157	-200.000	-0.031	-0.213
-604.142	-200.000	-0.019	0.190
-603.128	-72.784	-0.276	-0.103
-602.113	-52.385	-0.379	-0.179
-601.098	-114.688	-0.438	0.085
-600.084	-147.097	0.081	0.007
-599.069	340.015	-0.133	-0.264
-598.055	-106.937	0.020	-0.005
-597.040	-171.237	0.088	0.003
-596.025	138.759	-0.113	0.151
-595.011	-105.091	-0.636	-0.148
-593.996	246.939	0.155	0.266
-592.982	-138.813	0.060	-0.007
-591.967	-200.000	-0.003	0.168
-590.952	52.149	0.072	-0.070
-589.938	-200.000	0.009	0.134
-588.923	-19.595	-0.118	-0.074
-587.909	-97.432	-0.245	0.065
-586.894	26.412	-0.170	-0.145
-585.879	-133.357	0.223	0.029
-584.865	-32.101	0.080	0.045
-583.850	286.376	0.094	0.173
-582.836	582.631	0.122	-0.303
-581.821	18.733	-0.111	0.090
-580.806	779.550	-0.028	0.077
-579.792	-200.000	-0.020	0.103
-578.777	-153.364	-0.203	-0.014
-577.763	-53.622	0.138	-0.064
-576.748	-64.478	-0.425	-0.175
-575.733	-23.855	-0.363	-0.220
-574.719	291.381	0.054	0.100
-573.704	-200.000	0.011	0.145
-572.690	-1.793	-0.096	-0.069
-571.675	-200.000	-0.032	-0.170
-570.661	-110.393	-0.277	0.058
-569.646	185.602	-0.177	0.268
-568.631	22.419	0.325	0.270
-567.617	-200.000	0.007	0.038
-566.602	-200.000	-0.101	-0.000
-565.588	-93.620	0.156	0.044
-564.573	-200.000	0.022	-0.131
-563.558	-29.536	0.154	0.089
-562.544	332.459	0.011	-0.021
-561.529	627.098	-0.022	-0.057
-560.515	97.151	-0.041	0.048
-559.500	800.000	0.074	0.230
-558.485	-81.142	0.214	0.072
-557.471	-114.271	-0.156	-0.031
-556.456	-164.308	-0.037	-0.002
-555.442	-43.108	-0.079	0.041
-554.427	166.206	0.031	-0.044
-553.412	-136.407	0.365	0.043
-552.398	800.000	0.026	0.091
-551.383	63.301	0.185	-0.189
-550.369	-200.000	0.013	-0.330
-549.354	-200.000	-0.010	0.053
-548.339	-200.000	0.026	-0.364
-547.325	-74.638	0.081	0.030
-546.310	-67.569	0.047	0.019
-545.296	-200.000	-0.021	-0.368
-544.281	24.339	0.132	-0.111
-543.266	197.462	-0.074	-0.115
-542.252	39.534	0.259	0.236
-541.237	-160.439	0.301	-0.016
-540.223	227.255	-0.069	0.113
-539.208	15.053	0.281	0.224
-538.193	-115.355	-0.131	-0.025
-537.179	-200.000	0.018	-0.301
-536.164	-94.335	-0.321	-0.089
-535.150	-127.118	0.176	-0.026
-534.135	226.768	-0.141	-0.233
-533.121	216.961	-0.185	-0.299
-532.106	-43.615	0.229	-0.117
-531.091	93.600	0.145	0.166
-530.077	66.919	-0.147	-0.152
-529.062	-156.975	0.281	-0.017
-528.048	-43.872	-0.248	-0.126
-527.033	-91.421	0.096	0.028
-526.018	388.093	-0.095	0.200
-525.004	-120.658	0.305	-0.052
-523.989	203.205	0.025	-0.040
-522.975	0.840	-0.135	-0.098
-521.960	447.520	0.160	0.357
-520.945	78.100	-0.223	-0.242
-519.931	-186.969	-0.267	0.004
-518.916	149.191	0.128	-0.176
-517.902	90.537	0.139	0.158
-516.887	-200.000	0.009	0.059
-515.872	800.000	0.014	0.055
-514.858	800.000	-0.081	-0.275
-513.843	342.585	-0.061	-0.120
-512.829	-200.000	-0.009	-0.207
-511.814	17.526	0.201	0.162
-510.799	73.998	-0.251	0.266
-509.785	-200.000	0.043	-0.289
-508.770	44.099	-0.199	-0.185
-507.756	-123.379	-0.116	0.019
-506.741	-69.041	0.215	-0.084
-505.726	-26.174	-0.292	-0.174
-504.712	-200.000	0.023	-0.437
-503.697	2.858	0.224	-0.165
-502.683	-139.715	0.105	0.011
-501.668	800.000	-0.049	-0.170
-500.653	-200.000	-0.007	0.037
-499.639	339.571	0.031	0.062
-498.624	-89.508	-0.199	0.059
-497.610	-161.611	-0.242	-0.013
-496.595	19.774	-0.327	0.267
-495.581	-200.000	0.015	-0.075
-494.566	250.548	0.238	0.410
-493.551	-71.010	0.407	-0.155
-492.537	52.366	-0.088	0.085
-491.522	-200.000	-0.009	0.475
-490.508	-120.980	-0.081	0.014
-489.493	63.379	-0.206	-0.209
-488.478	-126.410	0.141	-0.021
-487.464	734.580	0.088	0.238
-486.449	-111.593	-0.369	0.076
-485.435	18.511	0.270	-0.218
-484.420	800.000	-0.099	-0.287
-483.405	410.483	0.169	0.362
-482.391	12.047	0.176	0.137
-481.376	43.860	0.099	0.091
-480.362	-144.564	0.037	0.003
-479.347	68.556	0.167	-0.174
-478.332	-134.504	0.402	0.050
-477.318	-95.173	-0.408	0.111
-476.303	-154.229	-0.099	-0.007
-475.289	-200.000	0.055	0.394
-474.274	-41.225	0.286	-0.149
-473.259	-14.715	0.191	-0.124
-472.245	247.212	0.080	0.136
-471.230	115.860	0.231	0.286
-470.216	-49.287	-0.147	0.071
-469.201	190.735	0.109	0.166
-468.186	800.000	-0.023	-0.077
-467.172	800.000	-0.039	0.167
-466.157	-119.331	-0.123	0.022
-465.143	332.560	0.014	0.027
-464.128	15.771	0.145	0.115
-463.113	-59.446	-0.220	-0.096
-462.099	1.690	-0.384	-0.280
-461.084	-200.000	-0.001	-0.010
-460.070	-200.000	0.002	0.140
-459.055	-200.000	-0.053	0.284
-458.040	-69.722	0.172	0.066
-457.026	67.939	0.099	-0.102
-456.011	551.839	-0.112	-0.273
-454.997	-35.634	-0.208	0.114
-453.982	800.000	0.033	0.108
-452.968	-138.707	0.329	0.036
-451.953	-138.753	-0.158	0.017
-450.938	-200.000	0.020	-0.095
-449.924	800.000	-0.053	0.201
-448.909	10.711	-0.324	-0.250
-447.895	-5.159	0.175	0.122
-446.880	-123.668	0.490	-0.079
-445.865	239.603	-0.127	-0.214
-444.851	-83.315	-0.066	-0.021
-443.836	241.720	0.057	0.097
-442.822	-29.461	-0.061	0.035
-441.807	-160.609	-0.268	-0.014
-440.792	-75.585	0.196	0.070
-439.778	-200.000	-0.005	-0.235
-438.763	73.562	-0.064	0.067
-437.749	419.908	0.024	-0.052
-436.734	-35.330	-0.147	0.081
-435.719	197.448	0.169	0.261
-434.705	467.860	-0.073	0.166
-433.690	81.946	-0.088	-0.096
-432.676	251.426	-0.136	0.233
-431.661	-167.991	0.141	0.006
-430.646	-55.785	-0.285	0.129
-429.632	166.728	0.163	-0.234
-428.617	-200.000	-0.013	0.192
-427.603	-149.270	-0.194	-0.016
-426.588	408.758	-0.043	0.092
-425.573	-200.000	-0.028	0.139
-424.559	-31.720	0.336	0.191
-423.544	-200.000	-0.010	-0.084
-422.530	-157.192	-0.125	-0.008
-421.515	-200.000	0.044	-0.214
-420.500	39.362	0.216	0.195
-419.486	446.158	-0.176	-0.390
-418.471	-140.698	0.190	-0.020
-417.457	161.599	0.145	0.205
-416.442	-78.643	-0.129	0.045
-415.428	613.447	-0.080	-0.203
-414.413	-200.000	0.030	-0.199
-413.398	13.029	0.296	-0.231
-412.384	-115.516	0.052	0.010
-411.369	48.975	-0.068	-0.065
-410.355	800.000	-0.050	-0.212
-409.340	-200.000	-0.021	-0.136
-408.325	800.000	0.041	0.164
-407.311	267.205	0.041	-0.072
-406.296	-200.000	-0.034	-0.210
-405.282	-64.094	0.490	-0.202
-404.267	144.661	0.090	0.122
-403.252	247.492	-0.152	0.260
-402.238	-58.848	0.333	0.145
-401.223	-46.902	0.059	0.029
-400.209	-130.637	0.112	-0.015
-399.194	-200.000	0.048	0.245
-398.179	800.000	0.019	-0.068
-397.165	800.000	-0.037	0.125
-396.150	-55.852	0.219	0.099
-395.136	-200.000	0.000	0.130
-394.121	-35.523	0.060	0.033
-393.106	-200.000	0.103	0.510
-392.092	523.016	-0.119	0.283
-391.077	-200.000	0.007	0.120
-390.063	63.639	0.227	0.229
-389.048	-200.000	0.010	0.308
-388.033	-28.417	0.069	0.040
-387.019	-72.568	-0.248	-0.092
-386.004	-200.000	0.005	0.188
-384.990	-200.000	-0.010	0.072
-383.975	-200.000	0.011	0.240
-382.960	-200.000	-0.004	-0.123
-381.946	-200.000	0.010	-0.481
-380.931	-200.000	-0.013	0.281
-379.917	-103.164	-0.206	-0.049
-378.902	152.104	0.162	-0.223
-377.888	252.118	0.131	-0.224
-376.873	-55.288	-0.172	-0.078
-375.858	-19.750	0.086	-0.053
-374.844	-62.185	0.333	0.140
-373.829	164.943	0.072	0.102
-372.815	201.426	-0.176	-0.273
-371.800	800.000	-0.035	-0.105
-370.785	-24.108	-0.053	0.032
-369.771	-200.000	0.022	-0.205
-368.756	-109.004	0.112	0.024
-367.742	270.437	0.195	0.345
-366.727	800.000	0.051	0.152
-365.712	-37.160	-0.208	0.112
-364.698	800.000	-0.037	-0.133
-363.683	-200.000	-0.032	0.191
-362.669	2.787	-0.218	0.159
-361.654	392.961	0.119	-0.250
-360.639	800.000	-0.144	0.407
-359.625	-89.134	0.031	-0.009
-358.610	137.204	-0.147	0.193
-357.596	71.342	-0.061	-0.063
-356.581	-97.004	-0.191	0.050
-355.566	288.881	-0.197	-0.360
-354.552	327.453	0.096	-0.186
-353.537	-83.632	0.063	-0.020
-352.523	-132.056	-0.235	-0.031
-351.508	5.843	0.204	-0.152
-350.493	76.583	0.105	-0.112
-349.479	103.284	-0.089	-0.105
-348.464	30.894	-0.099	0.086
-347.450	-32.764	-0.461	0.258
-346.435	-47.584	-0.204	0.100
-345.420	-40.483	0.126	-0.066
-344.406	25.015	0.203	0.170
-343.391	622.777	-0.068	0.173
-342.377	-127.546	0.127	0.019
-341.362	37.517	-0.028	-0.025
-340.348	800.000	-0.086	0.349
-339.333	229.584	-0.203	-0.333
-338.318	800.000	0.057	0.162
-337.304	-200.000	0.036	0.229
-336.289	131.643	-0.105	-0.136
-335.275	-200.000	-0.018	0.262
-334.260	-200.000	0.033	0.257
-333.245	-88.988	-0.297	0.089
-332.231	83.290	0.130	0.142
-331.216	-82.381	0.326	0.107
-330.202	-81.231	0.313	0.104
-329.187	800.000	-0.126	0.374
-328.172	-78.029	0.179	0.062
-327.158	-94.113	0.174	-0.048
-326.143	11.857	0.032	0.025
-325.129	-128.834	0.166	0.023
-324.114	-18.341	0.209	-0.132
-323.099	27.089	-0.065	0.055
-322.085	-106.764	0.022	-0.005
-321.070	-82.851	-0.099	-0.032
-320.056	98.645	-0.130	0.151
-319.041	-1.442	0.182	0.129
-318.026	-200.000	-0.001	-0.099
-317.012	39.836	-0.115	-0.104
-315.997	21.871	-0.177	0.145
-314.983	-25.947	0.223	0.132
-313.968	45.937	0.023	-0.022
-312.953	-62.045	0.138	-0.058
-311.939	-49.753	0.112	-0.054
-310.924	-14.472	-0.194	-0.126
-309.910	-131.238	-0.140	-0.019
-308.895	800.000	-0.102	0.340
-307.880	-200.000	0.004	-0.074
-306.866	41.653	0.278	0.253
-305.851	-200.000	0.011	-0.483
-304.837	252.736	0.189	-0.325
-303.822	257.114	0.087	0.150
-302.807	-47.709	-0.164	-0.080
-301.793	-113.362	0.142	0.028
-300.778	-61.110	-0.071	0.030
-299.764	-132.633	-0.165	0.021
-298.749	-200.000	0.079	-0.362
-297.735	-200.000	-0.023	-0.193
-296.720	-76.008	-0.144	-0.051
-295.705	800.000	-0.064	0.202
-294.691	-92.873	0.079	-0.022
-293.676	-48.705	0.002	0.001
-292.662	175.615	-0.114	-0.167
-291.647	-72.615	-0.098	0.036
-290.632	-200.000	0.005	-0.201
-289.618	-62.172	0.207	0.087
-288.603	-25.749	0.254	-0.151
-287.589	447.912	0.082	-0.180
-286.574	-200.000	-0.012	0.096
-285.559	-135.440	-0.154	-0.018
-284.545	692.943	0.067	-0.176
-283.530	-62.402	0.092	-0.039
-282.516	265.002	0.074	0.129
-281.501	32.164	0.284	0.246
-280.486	-144.683	-0.255	0.024
-279.472	-55.331	-0.049	0.022
-278.457	800.000	-0.080	0.279
-277.443	-119.984	-0.305	-0.053
-276.428	0.977	0.226	-0.163
-275.413	-80.683	0.389	0.130
-274.399	800.000	0.017	-0.072
-273.384	54.907	-0.257	0.249
-272.370	-106.362	-0.284	0.064
-271.355	-68.267	0.100	0.039
-270.340	-200.000	0.023	0.128
-269.326	-123.340	-0.252	0.040
-268.311	-69.081	0.065	0.025
-267.297	-98.018	0.169	-0.044
-266.282	-16.899	0.196	-0.124
-265.267	800.000	0.041	-0.147
-264.253	146.294	0.155	0.208
-263.238	17.931	-0.059	-0.047
-262.224	0.311	-0.155	-0.111
-261.209	38.026	-0.202	-0.180
-260.195	-53.129	-0.385	-0.178
-259.180	-146.216	0.384	0.034
-258.165	20.226	0.253	-0.205
-257.151	-200.000	-0.009	-0.140
-256.136	-200.000	0.102	-0.476
-255.122	43.441	-0.091	-0.084
-254.107	360.154	-0.052	0.105
-253.092	800.000	-0.127	0.392
-252.078	-170.576	-0.073	0.003
-251.063	-9.421	0.075	-0.050
-250.049	28.012	0.082	0.070
-249.034	800.000	-0.059	-0.216
-248.019	-200.000	-0.030	0.233
-247.005	389.861	-0.259	0.538
-245.990	359.998	-0.102	0.205
-244.976	800.000	-0.082	-0.348
-243.961	-23.034	-0.224	0.135
-242.946	116.363	-0.069	-0.085
-241.932	91.395	-0.094	-0.106
-240.917	-200.000	0.031	-0.240
-239.903	-105.958	-0.189	0.043
-238.888	74.606	-0.225	-0.237
-237.873	-133.863	-0.157	-0.020
-236.859	-85.383	-0.191	-0.060
-235.844	-126.950	-0.195	0.029
-234.830	-200.000	-0.004	0.150
-233.815	654.000	-0.105	0.271
-232.800	197.142	-0.064	-0.098
-231.786	-127.061	-0.224	0.033
-230.771	-130.801	-0.030	0.004
-229.757	-31.277	-0.260	0.147
-228.742	800.000	0.008	-0.027
-227.727	800.000	-0.069	-0.288
-226.713	-42.525	0.177	0.091
-225.698	19.705	-0.140	0.113
-224.684	-141.410	-0.110	0.011
-223.669	474.098	0.079	-0.179
-222.655	-114.172	0.148	0.029
-221.640	-73.614	0.298	0.109
-220.625	-72.325	0.100	-0.037
-219.611	265.825	-0.146	0.256
-218.596	118.625	-0.031	-0.039
-217.582	-6.560	0.289	0.197
-216.567	800.000	0.078	0.234
-215.552	-117.694	0.146	0.026
-214.538	-146.944	0.058	0.005
-213.523	169.455	0.201	0.288
-212.509	-137.555	0.289	-0.033
-211.494	-56.312	-0.083	0.037
-210.479	386.449	0.069	-0.142
-209.465	-78.706	-0.326	-0.112
-208.450	-200.000	-0.014	-0.326
-207.436	15.417	0.112	-0.088
-206.421	-103.192	-0.133	-0.031
-205.406	-24.771	0.312	-0.186
-204.392	800.000	-0.041	0.138
-203.377	-200.000	0.000	0.151
-202.363	698.877	-0.068	-0.179
-201.348	-23.811	-0.247	0.148
-200.333	-17.211	-0.290	0.183
-199.319	-75.537	-0.109	-0.039
-198.304	48.423	0.329	0.309
-197.290	-200.000	-0.027	-0.206
-196.275	-200.000	-0.063	0.309
-195.260	-80.123	0.151	-0.051
-194.246	69.447	-0.190	0.196
-193.231	-61.429	0.071	0.030
-192.217	198.581	0.161	-0.246
-191.202	93.893	-0.391	0.444
-190.187	-104.723	-0.239	0.055
-189.173	-14.324	0.155	0.100
-188.158	-83.012	0.191	0.062
-187.144	800.000	-0.051	-0.157
-186.129	800.000	0.038	-0.133
-185.114	-200.000	-0.031	-0.232
-184.100	-15.483	0.249	0.159
-183.085	-58.158	0.058	0.025
-182.071	-41.940	-0.256	0.131
-181.056	800.000	-0.107	-0.447
-180.042	-200.000	-0.022	-0.157
-179.027	-36.001	-0.122	-0.066
-178.012	241.486	0.048	0.081
-176.998	-45.586	-0.072	-0.036
-175.983	-127.445	0.155	-0.023
-174.969	-21.929	0.486	0.296
-173.954	-28.761	0.223	-0.128
-172.939	-17.292	0.124	0.078
-171.925	393.209	-0.054	-0.112
-170.910	-200.000	0.005	-0.264
-169.896	106.605	0.090	0.107
-168.881	488.074	0.091	-0.207
-167.866	800.000	-0.053	0.160
-166.852	29.745	0.137	-0.116
-165.837	185.214	0.057	-0.084
-164.823	-85.674	-0.055	0.017
-163.808	800.000	0.060	-0.217
-162.793	-200.000	0.066	-0.298
-161.779	46.973	0.135	-0.125
-160.764	-41.739	0.253	-0.130
-159.750	-61.486	-0.187	0.078
-158.735	-15.042	0.371	0.238
-157.720	234.080	-0.170	0.279
-156.706	121.765	-0.064	0.080
-155.691	-200.000	0.013	-0.103
-154.677	-149.916	-0.234	0.018
-153.662	-94.943	-0.235	0.064
-152.647	297.917	0.062	-0.115
-151.633	-123.010	0.228	0.037
-150.618	800.000	-0.035	-0.128
-149.604	-200.000	0.019	-0.177
-148.589	-19.644	0.027	0.017
-147.574	180.364	0.089	-0.131
-146.560	-87.083	-0.122	0.037
-145.545	-45.697	-0.181	-0.089
-144.531	-46.518	0.062	-0.030
-143.516	-200.000	-0.027	0.191
-142.502	-110.078	0.208	0.043
-141.487	184.582	0.136	0.202
-140.472	-117.695	0.165	-0.030
-139.458	107.266	0.274	-0.326
-138.443	61.843	-0.290	0.288
-137.429	800.000	0.023	0.093
-136.414	-94.826	0.079	0.021
-135.399	-200.000	-0.042	0.184
-134.385	-200.000	0.024	-0.257
-133.370	-200.000	-0.030	-0.274
-132.356	28.898	-0.136	-0.115
-131.341	538.282	0.053	-0.127
-130.326	-49.627	-0.208	0.099
-129.312	-30.996	0.209	0.118
-128.297	-39.019	-0.337	0.177
-127.283	-200.000	0.012	-0.225
-126.268	-154.206	0.241	-0.016
-125.253	-200.000	-0.024	-0.131
-124.239	498.892	-0.048	0.111
-123.224	382.558	-0.067	0.137
-122.210	-128.056	0.198	0.028
