DTS Sentinel unit serial number:	SN413079Multiplexer serial number:	ORYXHardware model number:	OX4-SRSoftware version number:	ORYX F/W v4.00 Oryx Data Collector v3.7.2.0data status	okinstallation	princeton_trtdifferential loss correction	single-endedforward channel	channel 4reverse channel	N/Adate	2019/09/13time	02:57:34forward acquisition time	60.00reverse acquisition time	0.00gamma	496.2192k internal	0.2319k external	0.2319temperature offset calibration	1.0194default loss term (dB/km)	0.3790temperature slope calibration	1.0000multiplexer offset coefficient	1.0000multiplexer slope coefficient	1.0000fibre end	0.00T internal ref (°C)	27.42T ext. ref 1 (°C)	4.05T ext. ref 2 (°C)	22.25length (m)	temperature (°C)	Stokes	anti-Stokes-747.200	-99.312	-0.080	0.020
-746.185	46.688	-0.093	0.087
-745.171	166.487	0.069	0.099
-744.156	573.403	-0.042	0.103
-743.142	800.000	-0.038	-0.120
-742.127	-12.566	0.269	-0.178
-741.112	-115.297	-0.220	-0.042
-740.098	225.973	-0.195	0.320
-739.083	-200.000	0.089	0.471
-738.069	800.000	-0.136	0.502
-737.054	-128.166	0.139	-0.020
-736.039	137.629	-0.092	-0.122
-735.025	68.780	-0.242	0.251
-734.010	800.000	-0.088	0.359
-732.996	517.903	-0.029	-0.068
-731.981	409.246	-0.103	-0.220
-730.966	-70.651	0.152	0.058
-729.952	8.311	-0.134	0.102
-728.937	-85.072	-0.389	-0.123
-727.923	-59.295	-0.236	-0.103
-726.908	-28.922	-0.157	-0.091
-725.894	-128.297	-0.248	0.036
-724.879	70.716	-0.182	-0.191
-723.864	550.420	0.134	0.326
-722.850	763.084	0.093	-0.254
-721.835	-60.116	0.127	0.055
-720.821	78.449	-0.110	0.118
-719.806	-200.000	0.004	-0.046
-718.791	800.000	0.091	-0.260
-717.777	-14.006	-0.089	0.058
-716.762	-50.390	-0.375	-0.179
-715.748	390.963	-0.055	-0.114
-714.733	-200.000	0.036	-0.274
-713.718	24.075	0.086	0.072
-712.704	-51.766	0.160	0.075
-711.689	113.265	0.120	0.147
-710.675	-149.083	-0.130	0.011
-709.660	222.839	0.020	-0.033
-708.645	187.792	-0.191	-0.288
-707.631	111.359	0.261	-0.318
-706.616	63.362	-0.146	-0.148
-705.602	800.000	0.043	0.169
-704.587	800.000	0.048	0.199
-703.572	-200.000	-0.007	0.135
-702.558	-200.000	-0.005	0.150
-701.543	-125.423	-0.143	0.022
-700.529	-200.000	0.048	0.321
-699.514	-200.000	-0.014	-0.109
-698.499	-89.124	0.108	0.032
-697.485	-108.985	-0.058	-0.013
-696.470	272.302	-0.186	-0.331
-695.456	-137.908	-0.044	-0.005
-694.441	-200.000	-0.004	0.089
-693.426	185.882	-0.067	-0.101
-692.412	-65.475	-0.260	0.105
-691.397	-155.679	-0.176	-0.011
-690.383	85.538	-0.140	-0.155
-689.368	-200.000	0.047	-0.218
-688.354	-71.066	-0.146	0.055
-687.339	-111.686	0.098	-0.020
-686.324	-31.221	-0.339	-0.193
-685.310	206.300	0.130	-0.204
-684.295	-125.145	-0.236	-0.036
-683.281	311.549	0.048	-0.091
-682.266	117.030	0.358	-0.444
-681.251	618.178	0.091	-0.229
-680.237	800.000	0.064	0.205
-679.222	-46.904	0.250	-0.123
-678.208	800.000	0.080	-0.307
-677.193	800.000	-0.072	0.293
-676.178	-200.000	0.037	-0.188
-675.164	439.014	0.061	-0.134
-674.149	-144.571	0.383	-0.036
-673.135	800.000	-0.066	-0.279
-672.120	35.297	0.210	-0.186
-671.105	-71.038	-0.123	0.047
-670.091	-69.913	-0.261	0.100
-669.076	53.900	0.068	-0.065
-668.062	9.134	0.223	-0.170
-667.047	20.269	-0.209	-0.170
-666.032	-0.587	0.234	-0.167
-665.018	-34.836	-0.232	-0.128
-664.003	-200.000	0.025	-0.114
-662.989	6.979	0.226	0.170
-661.974	786.898	0.121	-0.334
-660.959	-200.000	-0.018	-0.370
-659.945	186.421	0.153	0.230
-658.930	-98.976	0.125	-0.032
-657.916	-96.246	-0.271	-0.072
-656.901	-200.000	-0.042	-0.284
-655.886	601.883	-0.077	0.192
-654.872	-32.363	-0.142	0.080
-653.857	112.311	0.043	-0.053
-652.843	63.268	0.162	0.163
-651.828	-29.118	0.265	0.153
-650.814	-125.671	0.326	0.050
-649.799	-57.289	-0.274	-0.121
-648.784	756.077	-0.105	0.287
-647.770	-200.000	-0.013	0.312
-646.755	-200.000	0.017	0.183
-645.741	-24.776	0.262	-0.157
-644.726	-127.353	-0.208	-0.031
-643.711	232.724	-0.141	-0.234
-642.697	110.591	-0.052	-0.063
-641.682	581.503	-0.068	-0.167
-640.668	-200.000	-0.053	-0.553
-639.653	-200.000	0.018	-0.316
-638.638	-200.000	0.003	-0.025
-637.624	-61.203	0.060	0.026
-636.609	389.137	0.064	-0.133
-635.595	54.037	0.022	0.021
-634.580	291.996	-0.164	-0.300
-633.565	-68.680	-0.211	-0.082
-632.551	-123.816	-0.218	0.035
-631.536	800.000	0.074	0.252
-630.522	-200.000	-0.001	0.112
-629.507	62.824	-0.233	-0.235
-628.492	294.661	-0.051	0.094
-627.478	-200.000	0.043	0.249
-626.463	-81.836	0.157	0.052
-625.449	153.664	0.145	-0.199
-624.434	-133.231	-0.139	0.018
-623.419	-116.298	-0.111	0.021
-622.405	90.474	-0.118	0.133
-621.390	3.749	-0.238	-0.175
-620.376	-20.979	0.379	0.234
-619.361	-153.753	0.168	0.012
-618.346	88.258	0.134	0.150
-617.332	800.000	0.067	-0.188
-616.317	-69.040	0.261	-0.101
-615.303	-110.240	-0.185	0.039
-614.288	-44.055	-0.374	-0.189
-613.273	-86.146	0.359	0.111
-612.259	-20.899	-0.106	0.066
-611.244	-43.005	-0.057	0.029
-610.230	-200.000	-0.074	-0.478
-609.215	-157.913	-0.030	0.002
-608.201	-200.000	0.016	-0.156
-607.186	800.000	0.055	-0.180
-606.171	198.394	0.253	-0.389
-605.157	23.381	0.127	0.105
-604.142	-145.890	-0.214	-0.019
-603.128	-57.182	-0.028	0.013
-602.113	-126.054	0.235	-0.036
-601.098	27.481	-0.322	0.273
-600.084	-169.637	-0.235	-0.009
-599.069	424.338	0.037	-0.081
-598.055	800.000	-0.057	0.162
-597.040	17.611	0.246	-0.197
-596.025	-123.519	0.415	-0.066
-595.011	800.000	-0.028	-0.081
-593.996	249.244	0.086	0.146
-592.982	-158.121	-0.221	-0.013
-591.967	229.612	-0.028	0.046
-590.952	-17.405	-0.117	-0.074
-589.938	-55.491	0.293	-0.132
-588.923	-33.580	-0.132	-0.074
-587.909	-12.819	0.102	0.067
-586.894	25.533	0.158	-0.132
-585.879	793.300	0.048	0.132
-584.865	107.425	-0.117	-0.140
-583.850	298.167	-0.079	-0.146
-582.836	800.000	0.086	0.240
-581.821	-200.000	-0.031	0.139
-580.806	-99.805	0.382	0.096
-579.792	800.000	-0.072	0.315
-578.777	-148.958	-0.366	-0.030
-577.763	800.000	-0.081	-0.239
-576.748	-115.673	-0.285	-0.054
-575.733	763.177	-0.083	0.226
-574.719	-46.921	-0.203	-0.099
-573.704	-14.512	0.115	0.074
-572.690	800.000	-0.057	0.212
-571.675	150.789	0.156	-0.213
-570.661	-10.245	0.048	-0.032
-569.646	100.649	0.090	0.105
-568.631	-153.969	0.344	-0.024
-567.617	-200.000	-0.033	-0.147
-566.602	-78.532	0.260	-0.089
-565.588	-116.134	-0.349	-0.065
-564.573	800.000	-0.014	0.059
-563.558	-83.131	-0.173	0.056
-562.544	-72.166	-0.339	-0.126
-561.529	-200.000	-0.025	0.190
-560.515	-68.282	0.134	-0.052
-559.500	-14.316	-0.379	-0.245
-558.485	-200.000	0.010	-0.273
-557.471	30.282	-0.123	-0.105
-556.456	42.745	-0.202	-0.185
-555.442	-92.106	0.155	-0.044
-554.427	800.000	-0.112	-0.342
-553.412	-101.834	-0.139	-0.034
-552.398	19.655	-0.225	-0.182
-551.383	-68.776	-0.147	0.057
-550.369	520.037	0.149	0.351
-549.354	49.154	0.154	0.145
-548.339	97.124	-0.247	-0.285
-547.325	-42.886	-0.139	0.071
-546.310	105.004	-0.073	0.087
-545.296	33.314	0.077	-0.067
-544.281	252.985	0.089	0.153
-543.266	90.660	0.203	-0.228
-542.252	-170.470	0.098	0.003
-541.237	-14.517	-0.130	-0.084
-540.223	18.859	-0.218	-0.175
-539.208	124.340	-0.229	-0.289
-538.193	-92.454	0.104	0.029
-537.179	243.082	-0.174	0.293
-536.164	-8.909	0.053	0.035
-535.150	628.205	0.136	0.344
-534.135	386.172	0.125	0.258
-533.121	-63.732	-0.344	0.141
-532.106	-116.073	0.238	0.044
-531.091	211.573	0.160	0.253
-530.077	-200.000	0.055	0.336
-529.062	-70.228	0.052	-0.020
-528.048	-157.644	-0.253	0.015
-527.033	-171.057	-0.448	-0.015
-526.018	288.989	0.051	-0.093
-525.004	-12.930	-0.161	-0.105
-523.989	-200.000	0.006	-0.096
-522.975	-132.983	0.154	0.020
-521.960	8.720	0.202	-0.153
-520.945	-34.647	0.099	-0.054
-519.931	658.832	0.066	0.169
-518.916	800.000	0.022	0.066
-517.902	74.009	-0.150	-0.158
-516.887	-200.000	0.017	-0.169
-515.872	160.731	-0.182	-0.255
-514.858	-51.553	0.258	0.121
-513.843	80.170	0.111	0.119
-512.829	11.044	0.273	-0.209
-511.814	-37.373	0.168	-0.090
-510.799	-123.491	-0.528	0.084
-509.785	-160.301	-0.403	-0.022
-508.770	-162.958	0.420	-0.020
-507.756	800.000	0.080	0.265
-506.741	-161.191	0.290	0.015
-505.726	65.853	0.122	-0.124
-504.712	118.289	-0.139	-0.171
-503.697	173.508	0.248	-0.359
-502.683	-150.952	-0.237	-0.018
-501.668	-116.237	0.186	0.035
-500.653	294.200	-0.099	0.181
-499.639	-74.554	-0.141	-0.051
-498.624	380.009	0.103	-0.211
-497.610	-200.000	0.047	-0.399
-496.595	800.000	0.113	-0.422
-495.581	-200.000	-0.068	-0.419
-494.566	180.068	0.099	-0.145
-493.551	-6.421	-0.243	0.166
-492.537	237.104	0.083	-0.137
-491.522	42.350	0.069	-0.063
-490.508	-9.711	0.170	-0.113
-489.493	-107.487	0.116	0.025
-488.478	9.712	-0.302	-0.230
-487.464	513.038	0.072	0.168
-486.449	-24.342	0.051	0.031
-485.435	-60.522	0.245	-0.104
-484.420	-200.000	-0.002	-0.075
-483.405	1.428	-0.142	-0.102
-482.391	183.645	0.134	0.198
-481.376	575.814	-0.167	0.408
-480.362	10.860	-0.218	0.166
-479.347	-104.081	-0.473	0.110
-478.332	467.683	-0.156	0.349
-477.318	68.526	-0.157	0.161
-476.303	-70.905	0.211	-0.079
-475.289	-113.246	-0.169	0.033
-474.274	270.697	0.139	-0.245
-473.259	-146.641	-0.451	0.039
-472.245	-47.622	-0.075	-0.036
-471.230	-191.852	0.331	-0.003
-470.216	-54.363	-0.238	-0.108
-469.201	291.197	-0.149	-0.272
-468.186	137.128	-0.119	-0.155
-467.172	493.575	0.101	-0.231
-466.157	3.942	-0.126	0.092
-465.143	-20.941	0.014	-0.008
-464.128	800.000	0.035	0.114
-463.113	144.836	-0.081	0.109
-462.099	-200.000	0.015	-0.073
-461.084	600.599	-0.114	0.284
-460.070	188.378	-0.083	0.123
-459.055	-76.673	-0.352	-0.123
-458.040	-92.431	-0.276	0.078
-457.026	27.033	-0.065	-0.054
-456.011	800.000	-0.040	0.135
-454.997	242.841	-0.038	-0.064
-453.982	-104.416	0.203	-0.047
-452.968	-60.015	-0.138	-0.059
-451.953	-200.000	-0.050	0.247
-450.938	-105.303	-0.331	-0.075
-449.924	-81.264	-0.067	-0.022
-448.909	-131.551	0.076	0.010
-447.895	800.000	0.046	-0.146
-446.880	-200.000	0.010	-0.164
-445.865	-110.377	0.053	0.011
-444.851	-200.000	0.017	-0.116
-443.836	57.358	-0.197	0.192
-442.822	793.356	0.100	0.275
-441.807	131.667	0.063	-0.081
-440.792	800.000	-0.029	-0.086
-439.778	12.899	0.286	-0.221
-438.763	-47.423	-0.194	-0.094
-437.749	-20.377	-0.086	-0.053
-436.734	-123.811	0.188	0.030
-435.719	-200.000	-0.097	-0.440
-434.705	-200.000	-0.015	0.219
-433.690	-165.029	-0.099	-0.004
-432.676	800.000	0.070	0.207
-431.661	-49.335	-0.358	0.171
-430.646	7.353	-0.166	0.124
-429.632	-38.688	0.189	-0.100
-428.617	-200.000	-0.006	-0.086
-427.603	-5.909	-0.249	-0.170
-426.588	85.307	-0.146	0.160
-425.573	800.000	0.033	0.100
-424.559	-150.631	0.262	-0.020
-423.544	54.702	0.210	0.202
-422.530	-33.172	-0.244	0.135
-421.515	124.935	-0.083	0.104
-420.500	206.806	0.244	-0.380
-419.486	298.079	0.070	0.129
-418.471	-185.101	0.125	0.002
-417.457	-161.478	0.233	-0.012
-416.442	247.600	0.057	0.095
-415.428	0.624	-0.138	-0.098
-414.413	50.971	-0.114	-0.108
-413.398	-119.471	0.369	-0.064
-412.384	-49.697	0.075	0.036
-411.369	-30.055	0.234	-0.133
-410.355	-200.000	0.022	-0.142
-409.340	-173.192	-0.368	-0.011
-408.325	-22.950	-0.163	-0.098
-407.311	800.000	-0.081	-0.318
-406.296	-11.387	0.265	-0.174
-405.282	119.758	0.071	0.088
-404.267	500.349	0.077	-0.176
-403.252	-75.896	-0.023	0.008
-402.238	-200.000	-0.001	0.275
-401.223	-81.304	0.208	0.068
-400.209	-105.903	0.208	-0.047
-399.194	-97.413	-0.124	-0.032
-398.179	-138.976	0.250	-0.027
-397.165	171.298	0.161	-0.231
-396.150	-200.000	-0.078	0.355
-395.136	-176.501	-0.363	0.009
-394.121	-199.397	-0.648	-0.003
-393.106	-200.000	0.046	0.258
-392.092	101.167	-0.166	-0.193
-391.077	-200.000	0.003	-0.161
-390.063	-36.348	-0.165	0.089
-389.048	-49.345	0.239	-0.114
-388.033	-107.985	0.156	-0.034
-387.019	-102.724	0.345	-0.082
-386.004	-69.453	-0.234	0.089
-384.990	-42.003	-0.150	-0.077
-383.975	278.383	-0.102	-0.182
-382.960	-200.000	-0.004	0.079
-381.946	-200.000	0.015	-0.086
-380.931	800.000	0.022	-0.077
-379.917	-33.103	0.352	-0.194
-378.902	-10.625	-0.297	0.196
-377.888	-101.964	0.351	0.085
-376.873	4.394	-0.259	0.190
-375.858	-54.223	0.296	0.134
-374.844	-104.780	0.067	-0.015
-373.829	-200.000	-0.223	-0.000
-372.815	-78.782	-0.047	0.016
-371.800	-87.427	0.164	-0.049
-370.785	-175.215	-0.286	0.008
-369.771	-200.000	0.049	-0.232
-368.756	-168.315	-0.277	-0.011
-367.742	-130.931	-0.183	0.024
-366.727	-172.483	0.198	0.006
-365.712	-105.464	-0.274	-0.062
-364.698	800.000	0.059	0.179
-363.683	-21.878	-0.132	-0.080
-362.669	-200.000	0.007	-0.441
-361.654	116.101	0.051	0.063
-360.639	342.354	-0.098	-0.191
-359.625	-200.000	-0.022	-0.271
-358.610	30.198	-0.214	-0.182
-357.596	-27.156	-0.356	0.207
-356.581	-200.000	-0.001	0.061
-355.566	392.730	-0.077	-0.160
-354.552	485.827	0.086	0.195
-353.537	81.394	-0.119	-0.128
-352.523	800.000	-0.051	-0.150
-351.508	140.095	-0.053	0.070
-350.493	-82.628	-0.420	0.136
-349.479	291.147	-0.080	-0.145
-348.464	-60.626	-0.137	0.058
-347.450	-61.375	0.076	-0.032
-346.435	800.000	0.056	0.230
-345.420	-153.973	0.336	-0.023
-344.406	689.695	0.133	0.346
-343.391	-69.263	0.305	0.117
-342.377	-98.241	0.142	0.036
-341.362	-22.603	0.059	-0.035
-340.348	-98.547	0.284	-0.072
-339.333	463.568	0.088	0.196
-338.318	369.054	-0.039	-0.078
-337.304	232.855	-0.085	0.139
-336.289	65.047	0.059	0.059
-335.275	18.491	-0.233	-0.185
-334.260	-28.088	-0.323	-0.186
-333.245	-200.000	-0.017	0.291
-332.231	800.000	0.062	0.213
-331.216	-0.307	0.165	0.116
-330.202	268.275	-0.031	-0.054
-329.187	157.744	0.089	0.123
-328.172	-53.448	0.020	-0.009
-327.158	78.258	-0.024	0.025
-326.143	-98.790	-0.317	0.080
-325.129	800.000	0.059	0.200
-324.114	-200.000	0.007	0.157
-323.099	-27.425	0.158	-0.092
-322.085	-105.949	0.082	0.018
-321.070	98.469	0.161	-0.184
-320.056	-43.287	-0.072	0.036
-319.041	34.246	0.249	0.216
-318.026	-200.000	-0.027	0.282
-317.012	800.000	0.058	0.220
-315.997	-28.030	0.082	-0.047
-314.983	348.886	-0.069	0.135
-313.968	87.567	-0.076	0.084
-312.953	-134.370	0.018	-0.002
-311.939	-200.000	-0.063	-0.394
-310.924	151.896	-0.179	-0.243
-309.910	-71.123	0.509	0.190
-308.895	-79.514	0.187	-0.063
-307.880	800.000	0.054	0.158
-306.866	101.206	0.105	-0.121
-305.851	-29.319	0.163	-0.093
-304.837	-27.597	0.364	0.210
-303.822	443.887	-0.109	0.238
-302.807	-70.585	0.303	-0.114
-301.793	-200.000	0.026	-0.285
-300.778	-200.000	-0.011	-0.230
-299.764	-118.122	0.224	-0.040
-298.749	109.577	0.262	0.312
-297.735	-21.870	0.186	0.113
-296.720	201.732	-0.205	0.314
-295.705	-200.000	0.000	-0.080
-294.691	11.349	0.057	0.044
-293.676	-24.357	0.134	-0.079
-292.662	478.986	-0.089	0.200
-291.647	71.070	0.115	0.118
-290.632	122.621	-0.043	0.054
-289.618	151.787	0.098	0.133
-288.603	-200.000	0.026	-0.242
-287.589	65.125	-0.186	0.187
-286.574	201.600	-0.239	0.365
-285.559	395.171	-0.030	-0.063
-284.545	-98.893	0.088	-0.022
-283.530	-16.306	0.290	0.183
-282.516	-108.073	-0.343	0.074
-281.501	156.462	0.085	-0.116
-280.486	-27.221	0.314	-0.182
-279.472	-49.488	-0.334	-0.158
-278.457	800.000	0.104	0.313
-277.443	-78.254	0.328	-0.112
-276.428	-92.622	-0.090	-0.025
-275.413	132.289	-0.037	0.047
-274.399	-200.000	-0.008	0.137
-273.384	8.490	-0.011	-0.008
-272.370	800.000	-0.050	0.164
-271.355	10.455	-0.074	0.056
-270.340	70.158	-0.169	-0.173
-269.326	87.035	-0.021	-0.023
-268.311	-200.000	-0.003	-0.319
-267.297	157.121	-0.094	-0.129
-266.282	157.222	-0.064	0.088
-265.267	-200.000	0.019	0.179
-264.253	5.842	0.288	0.212
-263.238	74.951	-0.150	0.157
-262.224	800.000	-0.045	0.188
-261.209	-200.000	0.002	0.071
-260.195	72.880	-0.256	0.265
-259.180	-5.218	-0.080	0.054
-258.165	-78.364	0.321	0.109
-257.151	-200.000	0.012	-0.077
-256.136	-171.525	0.293	0.010
-255.122	146.637	0.116	0.154
-254.107	123.996	0.104	-0.130
-253.092	-50.748	-0.200	-0.094
-252.078	234.378	0.109	-0.179
-251.063	229.562	0.152	0.246
-250.049	-51.080	-0.113	0.053
-249.034	-62.888	0.325	-0.134
-248.019	800.000	-0.078	-0.256
-247.005	-122.329	0.244	0.039
-245.990	-200.000	-0.022	-0.214
-244.976	-16.575	0.107	-0.067
-243.961	-130.419	-0.438	0.059
-242.946	-31.312	0.323	-0.181
-241.932	800.000	0.112	0.397
-240.917	200.906	0.146	0.223
-239.903	280.390	0.034	0.061
-238.888	780.498	-0.074	0.202
-237.873	23.425	0.299	0.244
-236.859	268.900	-0.139	-0.243
-235.844	-200.000	0.019	-0.084
-234.830	-30.371	0.103	0.058
-233.815	-91.835	0.160	0.045
-232.800	109.645	-0.062	0.074
-231.786	143.581	-0.164	0.216
-230.771	-128.574	0.170	-0.024
-229.757	-12.204	0.164	-0.106
-228.742	-112.612	-0.131	0.026
-227.727	-109.955	-0.196	0.041
-226.713	417.945	-0.089	0.189
-225.698	-200.000	-0.054	0.243
-224.684	-187.868	0.067	-0.001
-223.669	423.813	-0.139	-0.296
-222.655	315.482	0.164	-0.307
-221.640	330.703	-0.133	-0.254
-220.625	800.000	0.068	0.194
-219.611	-200.000	0.030	0.264
-218.596	-200.000	-0.004	-0.102
-217.582	-8.485	0.180	-0.120
-216.567	-200.000	0.068	0.301
-215.552	19.710	0.105	-0.083
-214.538	166.597	-0.095	0.133
-213.523	409.531	0.045	0.094
-212.509	-200.000	0.007	0.031
-211.494	-200.000	0.033	-0.218
-210.479	553.123	0.066	-0.157
-209.465	135.671	-0.253	0.326
-208.450	-200.000	0.036	0.175
-207.436	-62.683	0.131	0.054
-206.421	273.646	0.126	-0.221
-205.406	224.182	0.226	0.362
-204.392	-151.334	0.348	0.026
-203.377	380.206	0.233	0.474
-202.363	-200.000	-0.041	-0.240
-201.348	-124.360	0.108	0.017
-200.333	29.432	0.046	-0.039
-199.319	-200.000	0.022	0.312
-198.304	-107.826	-0.182	-0.039
-197.290	-200.000	0.007	-0.163
-196.275	-42.484	0.165	0.083
-195.260	-57.453	-0.227	-0.099
-194.246	-200.000	0.016	0.214
-193.231	29.431	-0.242	-0.204
-192.217	-144.027	-0.207	-0.019
-191.202	-89.327	0.320	0.093
-190.187	249.917	-0.082	-0.138
-189.173	-64.078	0.139	-0.056
-188.158	286.835	-0.142	0.253
-187.144	-200.000	-0.028	0.238
-186.129	-200.000	-0.022	-0.144
-185.114	-200.000	0.058	0.263
-184.100	-200.000	-0.018	-0.291
-183.085	365.929	0.072	-0.145
-182.071	-81.438	-0.487	-0.159
-181.056	26.882	0.378	0.314
-180.042	-200.000	0.006	-0.311
-179.027	148.370	-0.113	0.152
-178.012	-150.657	0.100	-0.008
-176.998	-200.000	0.024	-0.149
-175.983	82.729	0.214	0.230
-174.969	-49.472	-0.297	-0.140
-173.954	-0.857	0.240	0.168
-172.939	-4.107	0.326	0.224
-171.925	800.000	-0.103	0.445
-170.910	-200.000	-0.046	-0.370
-169.896	800.000	0.071	-0.203
-168.881	185.309	-0.035	-0.051
-167.866	-174.686	0.269	-0.008
-166.852	-200.000	-0.026	0.125
-165.837	-200.000	-0.017	0.132
-164.823	73.496	-0.101	0.104
-163.808	-200.000	0.030	0.188
-162.793	-156.721	0.151	0.009
-161.779	800.000	0.056	0.164
-160.764	-91.322	0.177	0.050
-159.750	-87.024	0.314	-0.095
-158.735	642.583	-0.048	-0.121
-157.720	157.892	0.124	0.170
-156.706	-50.183	0.108	-0.051
-155.691	-76.996	-0.275	0.095
-154.677	-118.847	-0.145	0.025
-153.662	-18.892	-0.112	-0.069
-152.647	800.000	0.111	-0.366
-151.633	-35.846	-0.051	0.027
-150.618	83.874	-0.090	0.097
-149.604	-85.384	-0.197	0.061
-148.589	-134.064	0.031	0.004
-147.574	490.382	-0.216	0.489
-146.560	-129.480	0.458	0.063
-145.545	247.399	0.066	-0.110
-144.531	-102.349	-0.155	0.037
-143.516	-200.000	-0.005	0.140
-142.502	562.534	-0.047	0.111
-141.487	-84.381	-0.072	-0.023
-140.472	-200.000	0.013	0.065
-139.458	-58.957	0.370	0.158
-138.443	-91.447	-0.083	0.023
-137.429	-21.772	0.233	0.140
-136.414	-200.000	0.014	0.194
-135.399	800.000	-0.100	0.320
-134.385	-79.233	0.085	0.028
-133.370	-200.000	-0.014	-0.174
-132.356	452.793	0.042	-0.092
-131.341	-3.814	0.211	-0.145
-130.326	190.321	-0.153	-0.227
-129.312	-200.000	0.041	-0.230
-128.297	74.110	0.213	0.221
-127.283	58.625	0.064	-0.062
-126.268	-134.706	-0.222	0.027
-125.253	-136.551	0.264	-0.030
-124.239	39.959	0.209	0.185
-123.224	8.626	-0.078	-0.058
-122.210	-200.000	-0.014	0.066
