DTS Sentinel unit serial number:	SN413079Multiplexer serial number:	ORYXHardware model number:	OX4-SRSoftware version number:	ORYX F/W v4.00 Oryx Data Collector v3.7.2.0data status	okinstallation	princeton_trtdifferential loss correction	single-endedforward channel	channel 4reverse channel	N/Adate	2019/09/13time	02:09:35forward acquisition time	60.00reverse acquisition time	0.00gamma	496.2192k internal	0.2319k external	0.2319temperature offset calibration	1.0183default loss term (dB/km)	0.3790temperature slope calibration	1.0000multiplexer offset coefficient	1.0000multiplexer slope coefficient	1.0000fibre end	0.00T internal ref (°C)	27.56T ext. ref 1 (°C)	3.89T ext. ref 2 (°C)	22.28length (m)	temperature (°C)	Stokes	anti-Stokes-747.200	-70.242	0.083	0.032
-746.185	115.192	-0.176	0.217
-745.171	-200.000	0.021	0.157
-744.156	101.030	-0.280	0.330
-743.142	38.209	-0.147	0.133
-742.127	158.967	0.105	0.148
-741.112	-187.124	-0.344	0.005
-740.098	400.214	-0.192	0.408
-739.083	-47.235	0.020	0.010
-738.069	-200.000	-0.036	0.174
-737.054	-95.762	0.226	0.061
-736.039	19.596	-0.132	-0.108
-735.025	20.100	0.198	0.161
-734.010	-79.133	-0.159	-0.055
-732.996	800.000	0.026	-0.103
-731.981	119.447	0.187	0.234
-730.966	-118.147	-0.118	-0.021
-729.952	-119.457	0.259	0.046
-728.937	580.167	-0.111	-0.274
-727.923	-200.000	-0.030	0.231
-726.908	588.226	-0.166	0.414
-725.894	-200.000	0.031	-0.219
-724.879	-132.122	0.183	-0.024
-723.864	-42.739	-0.461	0.237
-722.850	-11.435	0.062	0.041
-721.835	-21.783	0.333	-0.205
-720.821	0.542	-0.260	-0.188
-719.806	-94.532	-0.268	-0.074
-718.791	-154.476	-0.256	-0.017
-717.777	-200.000	-0.039	-0.236
-716.762	50.897	0.172	0.164
-715.748	-28.864	-0.107	0.062
-714.733	326.241	0.194	-0.376
-713.718	-139.425	-0.282	0.031
-712.704	-99.396	-0.262	0.067
-711.689	800.000	0.056	-0.235
-710.675	-127.566	-0.404	-0.059
-709.660	-200.000	0.016	0.231
-708.645	200.233	-0.184	0.286
-707.631	408.038	-0.032	0.067
-706.616	263.163	0.084	-0.147
-705.602	-200.000	0.074	-0.367
-704.587	-21.943	-0.231	0.142
-703.572	-36.947	-0.264	-0.143
-702.558	-200.000	0.003	-0.159
-701.543	-200.000	-0.020	-0.169
-700.529	82.896	0.190	-0.209
-699.514	141.405	0.032	-0.042
-698.499	-136.290	0.110	0.013
-697.485	56.760	0.271	0.267
-696.470	258.947	-0.089	0.154
-695.456	-12.244	0.067	-0.044
-694.441	800.000	0.021	-0.086
-693.426	43.391	0.360	-0.332
-692.412	-60.498	-0.040	-0.017
-691.397	79.200	-0.260	-0.282
-690.383	-200.000	0.000	-0.248
-689.368	85.668	0.167	0.185
-688.354	496.603	-0.176	0.409
-687.339	204.351	0.108	-0.169
-686.324	112.557	0.038	-0.046
-685.310	-54.269	-0.218	0.100
-684.295	-74.664	0.208	-0.075
-683.281	21.002	-0.076	-0.063
-682.266	-1.721	0.111	0.079
-681.251	-89.187	-0.239	-0.071
-680.237	150.099	-0.219	-0.299
-679.222	54.419	0.137	-0.133
-678.208	69.314	-0.155	-0.161
-677.193	331.279	0.078	0.152
-676.178	800.000	0.053	-0.197
-675.164	-200.000	0.018	0.135
-674.149	442.257	0.061	0.134
-673.135	800.000	0.106	-0.305
-672.120	-200.000	0.060	-0.281
-671.105	-47.349	-0.337	-0.166
-670.091	-77.975	0.177	-0.062
-669.076	-146.804	0.158	0.014
-668.062	-52.270	-0.233	-0.109
-667.047	658.632	-0.099	-0.258
-666.032	181.677	0.045	-0.067
-665.018	-18.244	0.267	0.169
-664.003	-41.695	0.098	-0.051
-662.989	-77.268	0.050	-0.018
-661.974	37.422	-0.195	0.174
-660.959	59.957	-0.122	0.121
-659.945	4.926	-0.317	0.235
-658.930	-135.852	0.227	-0.027
-657.916	-200.000	0.013	-0.085
-656.901	-200.000	-0.096	-0.452
-655.886	577.732	0.088	-0.217
-654.872	102.468	0.182	0.215
-653.857	-62.110	-0.093	-0.039
-652.843	67.617	-0.024	0.025
-651.828	-200.000	-0.052	-0.232
-650.814	-200.000	0.045	0.341
-649.799	-134.364	0.068	-0.008
-648.784	335.271	-0.077	0.150
-647.770	-200.000	-0.001	-0.007
-646.755	-85.879	-0.174	0.054
-645.741	54.592	0.131	0.127
-644.726	-58.882	0.204	-0.089
-643.711	84.188	-0.130	-0.144
-642.697	16.362	-0.054	-0.043
-641.682	-200.000	0.017	0.186
-640.668	12.946	-0.065	-0.051
-639.653	292.978	-0.150	0.275
-638.638	46.769	-0.050	-0.047
-637.624	-154.454	-0.352	0.024
-636.609	-26.769	-0.186	-0.110
-635.595	-80.142	0.090	-0.030
-634.580	-93.950	-0.268	-0.074
-633.565	-12.329	0.024	0.016
-632.551	-70.227	0.256	-0.098
-631.536	37.532	-0.166	-0.148
-630.522	289.431	-0.036	-0.066
-629.507	800.000	0.033	0.116
-628.492	23.670	0.265	-0.220
-627.478	800.000	-0.057	0.183
-626.463	-47.354	0.138	-0.068
-625.449	-200.000	-0.011	0.248
-624.434	-200.000	-0.038	-0.552
-623.419	9.526	-0.352	-0.268
-622.405	800.000	-0.025	0.085
-621.390	800.000	0.023	-0.078
-620.376	-128.082	-0.213	-0.031
-619.361	800.000	0.046	0.152
-618.346	169.349	0.074	-0.107
-617.332	-200.000	0.008	0.174
-616.317	36.662	0.225	0.200
-615.303	-134.651	-0.303	0.037
-614.288	-29.718	-0.023	0.013
-613.273	-27.983	0.252	0.147
-612.259	-53.074	-0.064	-0.029
-611.244	-200.000	0.030	0.225
-610.230	-200.000	-0.010	-0.305
-609.215	-200.000	0.023	0.121
-608.201	55.863	-0.118	0.115
-607.186	800.000	-0.034	0.150
-606.171	-174.709	-0.050	0.001
-605.157	22.781	0.281	-0.231
-604.142	268.818	-0.156	-0.275
-603.128	503.619	-0.169	-0.393
-602.113	-87.146	-0.132	0.040
-601.098	-57.501	0.183	0.081
-600.084	-163.864	0.188	0.009
-599.069	-71.693	-0.143	0.054
-598.055	-139.206	-0.252	-0.027
-597.040	-200.000	-0.046	-0.261
-596.025	-98.397	0.128	0.033
-595.011	-14.543	-0.206	0.133
-593.996	50.999	-0.042	0.040
-592.982	-35.439	0.115	0.063
-591.967	-10.320	-0.040	0.027
-590.952	800.000	0.146	-0.425
-589.938	800.000	0.086	0.289
-588.923	609.512	-0.084	0.210
-587.909	320.412	-0.074	-0.142
-586.894	-52.278	0.110	-0.051
-585.879	-94.523	0.216	-0.059
-584.865	-105.337	0.204	0.047
-583.850	205.846	0.249	0.389
-582.836	9.330	0.178	0.136
-581.821	-84.330	-0.341	0.109
-580.806	800.000	-0.019	-0.074
-579.792	162.920	0.119	-0.168
-578.777	150.846	-0.064	-0.088
-577.763	-200.000	-0.006	0.125
-576.748	-200.000	0.079	-0.383
-575.733	361.060	-0.169	-0.340
-574.719	800.000	0.106	-0.302
-573.704	800.000	0.147	-0.459
-572.690	54.921	0.035	0.034
-571.675	194.356	-0.089	0.135
-570.661	-47.445	-0.141	0.069
-569.646	-59.410	-0.261	0.113
-568.631	-200.000	0.017	0.135
-567.617	-36.907	0.456	0.246
-566.602	-105.242	-0.209	-0.048
-565.588	800.000	-0.026	-0.085
-564.573	0.578	-0.100	0.072
-563.558	-14.341	0.251	-0.162
-562.544	33.003	-0.277	0.241
-561.529	800.000	0.097	0.353
-560.515	-99.666	-0.409	-0.103
-559.500	-200.000	-0.011	0.102
-558.485	184.641	0.145	0.215
-557.471	-200.000	-0.005	0.038
-556.456	3.883	0.122	0.089
-555.442	107.132	0.141	-0.169
-554.427	-28.331	0.026	0.015
-553.412	-56.762	-0.026	0.012
-552.398	585.127	0.115	-0.285
-551.383	405.528	-0.117	-0.248
-550.369	8.219	-0.248	-0.187
-549.354	-200.000	-0.019	-0.117
-548.339	-66.534	0.276	-0.110
-547.325	800.000	-0.046	-0.185
-546.310	107.573	0.046	-0.055
-545.296	661.045	0.070	-0.180
-544.281	200.078	-0.040	-0.061
-543.266	-37.397	0.096	-0.051
-542.252	207.424	-0.072	0.113
-541.237	-200.000	-0.018	-0.097
-540.223	-158.930	-0.161	0.009
-539.208	-200.000	0.010	-0.052
-538.193	800.000	-0.094	-0.379
-537.179	-20.725	0.044	0.027
-536.164	-200.000	-0.065	-0.363
-535.150	-35.404	-0.120	0.066
-534.135	800.000	-0.082	0.264
-533.121	800.000	-0.029	0.110
-532.106	-200.000	0.026	0.369
-531.091	248.388	-0.128	-0.217
-530.077	230.686	-0.181	-0.296
-529.062	-45.144	0.320	-0.159
-528.048	333.052	-0.135	-0.262
-527.033	-14.113	0.049	-0.032
-526.018	-90.360	0.342	0.099
-525.004	176.576	0.271	0.396
-523.989	586.920	-0.043	-0.107
-522.975	-89.070	0.089	0.027
-521.960	-200.000	-0.013	-0.205
-520.945	-74.626	0.244	0.088
-519.931	-26.463	0.181	0.106
-518.916	56.851	0.159	-0.155
-517.902	-200.000	-0.036	-0.250
-516.887	-200.000	-0.006	0.200
-515.872	150.145	-0.161	-0.218
-514.858	-200.000	-0.001	-0.527
-513.843	50.761	0.165	-0.157
-512.829	0.056	-0.239	-0.171
-511.814	104.108	0.249	-0.293
-510.799	-113.546	-0.187	0.037
-509.785	239.736	0.060	-0.100
-508.770	800.000	-0.075	-0.322
-507.756	-94.365	-0.225	-0.062
-506.741	-95.780	0.149	0.040
-505.726	-52.232	0.110	-0.051
-504.712	145.148	0.181	0.243
-503.697	512.719	-0.103	-0.241
-502.683	32.048	0.148	-0.128
-501.668	157.875	0.082	-0.113
-500.653	92.570	-0.100	-0.113
-499.639	-166.691	0.182	-0.008
-498.624	80.855	-0.113	-0.122
-497.610	69.871	0.129	0.133
-496.595	-65.181	0.167	0.067
-495.581	-200.000	-0.028	0.164
-494.566	-32.139	-0.039	0.022
-493.551	347.858	-0.086	-0.169
-492.537	37.787	0.060	-0.054
-491.522	443.148	0.071	-0.156
-490.508	-200.000	0.041	-0.271
-489.493	191.433	0.147	-0.221
-488.478	-42.112	-0.096	-0.049
-487.464	6.425	0.399	0.297
-486.449	-113.483	0.324	0.064
-485.435	7.944	-0.178	0.134
-484.420	-125.447	0.287	0.044
-483.405	167.556	0.184	-0.262
-482.391	-200.000	-0.042	0.197
-481.376	79.127	-0.372	-0.399
-480.362	228.875	-0.066	-0.107
-479.347	-200.000	0.003	0.148
-478.332	800.000	-0.024	0.091
-477.318	-28.895	0.234	0.134
-476.303	201.477	0.002	-0.003
-475.289	350.157	-0.095	0.188
-474.274	-200.000	0.033	0.274
-473.259	180.270	-0.126	-0.185
-472.245	-161.707	-0.307	0.016
-471.230	38.031	0.060	0.053
-470.216	170.454	-0.065	0.094
-469.201	7.987	0.370	0.278
-468.186	42.834	0.256	-0.233
-467.172	331.545	0.094	0.181
-466.157	-200.000	0.009	-0.061
-465.143	-200.000	-0.014	0.258
-464.128	-200.000	0.017	0.086
-463.113	343.617	-0.079	0.155
-462.099	664.470	-0.099	0.256
-461.084	-93.063	0.100	-0.028
-460.070	800.000	0.029	-0.106
-459.055	-129.551	-0.091	0.013
-458.040	-40.591	-0.197	0.102
-457.026	95.456	0.122	-0.139
-456.011	-90.418	0.020	0.006
-454.997	-45.501	0.117	0.058
-453.982	-200.000	0.020	0.184
-452.968	800.000	0.037	-0.120
-451.953	-200.000	-0.016	-0.286
-450.938	-93.433	-0.219	-0.061
-449.924	-109.283	-0.265	-0.056
-448.909	-7.928	0.267	-0.180
-447.895	-200.000	-0.009	0.096
-446.880	619.457	-0.082	-0.205
-445.865	-47.146	-0.150	-0.073
-444.851	-130.068	-0.388	-0.053
-443.836	-7.943	0.092	-0.062
-442.822	800.000	-0.036	-0.144
-441.807	92.914	0.068	-0.077
-440.792	-106.470	-0.271	-0.061
-439.778	-75.596	-0.082	-0.029
-438.763	2.964	-0.141	-0.103
-437.749	-136.564	0.305	0.035
-436.734	35.458	-0.133	0.117
-435.719	-100.555	0.174	-0.043
-434.705	-200.000	-0.006	-0.253
-433.690	800.000	0.045	0.133
-432.676	-200.000	0.034	-0.310
-431.661	323.131	-0.099	0.188
-430.646	800.000	-0.022	0.081
-429.632	-72.935	-0.226	-0.083
-428.617	-26.379	0.223	0.131
-427.603	-44.498	-0.207	0.103
-426.588	154.400	-0.322	0.442
-425.573	-187.118	0.169	0.002
-424.559	-200.000	0.066	0.349
-423.544	800.000	0.031	0.110
-422.530	-69.673	-0.258	0.099
-421.515	-131.995	0.402	0.052
-420.500	-127.358	0.114	0.017
-419.486	800.000	0.132	0.444
-418.471	-37.433	-0.141	0.075
-417.457	-52.379	0.433	-0.200
-416.442	-200.000	0.021	-0.300
-415.428	-34.268	0.218	-0.119
-414.413	-114.772	0.104	0.020
-413.398	-97.049	-0.107	0.028
-412.384	-146.833	0.233	0.020
-411.369	-178.614	0.577	-0.013
-410.355	-149.898	-0.310	0.024
-409.340	447.649	0.181	-0.399
-408.325	-200.000	-0.069	0.422
-407.311	527.442	0.032	0.076
-406.296	78.442	-0.147	0.157
-405.282	262.121	0.208	0.360
-404.267	-200.000	-0.001	0.345
-403.252	49.427	0.131	0.123
-402.238	277.620	0.039	-0.069
-401.223	-25.505	-0.070	0.041
-400.209	21.991	0.240	-0.196
-399.194	-200.000	0.046	-0.222
-398.179	82.075	-0.172	-0.187
-397.165	214.033	0.215	-0.340
-396.150	155.551	0.080	-0.110
-395.136	-32.029	-0.178	-0.099
-394.121	-72.834	-0.213	-0.078
-393.106	-161.586	0.216	-0.011
-392.092	178.931	-0.062	0.091
-391.077	-68.075	-0.069	-0.027
-390.063	-59.148	0.387	0.166
-389.048	449.736	0.078	-0.172
-388.033	-143.000	0.238	0.023
-387.019	-101.276	-0.388	-0.094
-386.004	-200.000	0.000	-0.169
-384.990	-200.000	0.009	-0.184
-383.975	262.509	0.049	-0.084
-382.960	580.840	0.155	0.379
-381.946	-70.853	-0.063	-0.024
-380.931	-91.543	-0.219	-0.062
-379.917	-133.779	0.105	0.013
-378.902	50.243	-0.175	-0.165
-377.888	800.000	-0.027	0.116
-376.873	268.745	0.064	0.111
-375.858	-37.579	-0.096	-0.051
-374.844	-200.000	-0.008	0.123
-373.829	-34.927	-0.047	-0.026
-372.815	-70.016	0.295	-0.112
-371.800	80.480	-0.061	0.065
-370.785	-200.000	-0.008	-0.178
-369.771	67.757	0.140	0.143
-368.756	-102.158	-0.140	0.034
-367.742	-200.000	0.068	0.348
-366.727	-200.000	-0.005	0.412
-365.712	-122.724	-0.342	0.055
-364.698	-200.000	0.001	0.234
-363.683	-69.143	-0.158	0.061
-362.669	-171.103	0.160	-0.005
-361.654	-134.341	0.154	-0.019
-360.639	-200.000	-0.036	-0.212
-359.625	94.139	-0.102	-0.115
-358.610	800.000	-0.070	0.249
-357.596	285.190	-0.143	0.257
-356.581	56.701	0.196	0.190
-355.566	304.456	0.069	0.128
-354.552	313.952	-0.069	-0.130
-353.537	119.920	0.149	-0.184
-352.523	288.563	-0.233	0.421
-351.508	-17.099	-0.257	-0.162
-350.493	613.719	-0.092	0.231
-349.479	-175.355	0.316	0.009
-348.464	-92.727	-0.201	0.056
-347.450	-89.956	-0.154	0.045
-346.435	-153.288	-0.163	-0.011
-345.420	800.000	-0.109	0.437
-344.406	-81.200	0.320	-0.105
-343.391	-27.242	-0.170	-0.099
-342.377	-162.585	-0.225	-0.011
-341.362	358.797	-0.086	-0.171
-340.348	-89.157	0.061	-0.018
-339.333	800.000	0.080	0.262
-338.318	-124.331	-0.144	0.022
-337.304	800.000	-0.042	-0.174
-336.289	-147.068	-0.504	-0.043
-335.275	-200.000	0.000	-0.185
-334.260	-33.580	-0.376	0.207
-333.245	-133.292	-0.046	-0.006
-332.231	130.337	0.065	0.083
-331.216	-20.734	-0.066	-0.040
-330.202	729.204	0.059	-0.156
-329.187	-31.861	0.227	0.127
-328.172	-200.000	0.011	-0.105
-327.158	-200.000	-0.052	-0.281
-326.143	800.000	-0.091	-0.382
-325.129	33.076	0.108	0.093
-324.114	78.201	0.147	0.156
-323.099	-12.342	0.189	0.123
-322.085	7.648	-0.085	-0.063
-321.070	-8.814	0.106	0.071
-320.056	255.153	-0.103	-0.175
-319.041	-200.000	0.065	0.382
-318.026	-112.427	-0.283	0.056
-317.012	26.036	0.230	-0.191
-315.997	-15.904	0.161	-0.102
-314.983	-200.000	0.013	0.303
-313.968	800.000	-0.088	0.248
-312.953	-140.796	0.171	0.018
-311.939	-52.463	0.144	-0.066
-310.924	-150.411	-0.196	0.015
-309.910	177.590	0.043	0.062
-308.895	770.532	0.087	-0.237
-307.880	-200.000	0.008	-0.164
-306.866	800.000	0.044	-0.146
-305.851	-58.364	0.127	-0.055
-304.837	520.722	-0.040	0.093
-303.822	-96.716	-0.247	-0.065
-302.807	-145.926	0.192	0.017
-301.793	228.847	0.059	0.096
-300.778	-123.239	0.341	0.054
-299.764	520.369	-0.168	0.391
-298.749	113.803	-0.022	-0.027
-297.735	25.467	0.190	-0.157
-296.720	-200.000	0.286	0.000
-295.705	106.750	-0.055	0.065
-294.691	-52.399	-0.209	0.096
-293.676	-200.000	0.025	0.213
-292.662	30.054	-0.095	-0.080
-291.647	-200.000	-0.031	-0.293
-290.632	-171.223	-0.249	0.008
-289.618	-200.000	-0.044	0.265
-288.603	-200.000	-0.017	-0.129
-287.589	180.472	0.045	0.066
-286.574	131.845	-0.164	-0.210
-285.559	-200.000	-0.015	0.144
-284.545	270.673	0.241	0.422
-283.530	346.031	-0.039	-0.076
-282.516	-99.285	-0.159	0.040
-281.501	-185.116	0.061	-0.001
-280.486	65.120	0.252	-0.253
-279.472	-124.225	-0.389	-0.060
-278.457	-66.777	0.288	0.113
-277.443	-130.259	-0.243	0.033
-276.428	490.643	-0.052	0.119
-275.413	-73.939	-0.122	0.044
-274.399	13.452	-0.012	0.009
-273.384	705.273	0.094	-0.247
-272.370	-144.106	-0.115	-0.011
-271.355	31.206	0.077	-0.066
-270.340	109.012	0.122	-0.144
-269.326	10.104	-0.079	0.060
-268.311	-113.518	-0.254	-0.049
-267.297	2.428	0.079	-0.056
-266.282	-134.806	-0.496	-0.060
-265.267	-200.000	-0.045	0.348
-264.253	-118.319	-0.113	0.020
-263.238	-200.000	-0.025	-0.353
-262.224	-164.810	-0.339	-0.015
-261.209	187.464	0.213	-0.315
-260.195	-29.859	0.167	-0.094
-259.180	-200.000	0.039	-0.177
-258.165	-200.000	-0.025	0.159
-257.151	345.467	0.074	0.144
-256.136	-70.343	-0.215	-0.081
-255.122	62.834	-0.302	0.300
-254.107	370.794	0.083	0.166
-253.092	800.000	-0.097	0.356
-252.078	-114.932	-0.368	0.069
-251.063	-200.000	0.032	-0.142
-250.049	218.076	0.210	-0.332
-249.034	14.968	-0.087	-0.068
-248.019	-71.030	0.227	-0.085
-247.005	-82.228	-0.179	-0.058
-245.990	-39.338	-0.097	-0.050
-244.976	-4.532	0.208	-0.143
-243.961	397.101	0.034	0.071
-242.946	-35.675	-0.183	0.098
-241.932	-146.098	-0.134	-0.012
-240.917	417.114	0.030	0.064
-239.903	89.297	0.122	-0.135
-238.888	-139.564	-0.130	0.014
-237.873	56.255	-0.252	-0.243
-236.859	800.000	0.009	0.035
-235.844	-200.000	0.024	-0.265
-234.830	-28.674	0.128	0.073
-233.815	-95.622	0.171	-0.045
-232.800	30.943	-0.180	0.153
-231.786	-72.154	0.202	0.074
-230.771	800.000	-0.032	-0.130
-229.757	43.077	0.100	0.090
-228.742	284.588	0.143	-0.255
-227.727	-200.000	0.016	0.071
-226.713	-200.000	-0.005	0.160
-225.698	800.000	0.135	0.444
-224.684	92.937	0.248	0.278
-223.669	768.496	-0.029	0.079
-222.655	376.982	-0.061	0.123
-221.640	-200.000	0.018	0.367
-220.625	-200.000	-0.031	-0.174
-219.611	432.626	0.148	-0.318
-218.596	248.802	-0.085	-0.143
-217.582	370.799	-0.175	-0.351
-216.567	-200.000	-0.012	-0.237
-215.552	-29.287	-0.408	0.232
-214.538	50.803	-0.251	0.236
-213.523	251.055	-0.174	0.292
-212.509	-142.967	-0.197	-0.019
-211.494	16.182	0.303	0.236
-210.479	-200.000	-0.035	0.284
-209.465	256.975	-0.101	-0.172
-208.450	78.240	-0.273	0.289
-207.436	-69.620	-0.246	0.093
-206.421	-24.095	-0.153	-0.090
-205.406	-79.952	0.271	-0.090
-204.392	-200.000	-0.048	-0.363
-203.377	-200.000	-0.005	-0.151
-202.363	-20.291	-0.060	0.036
-201.348	-200.000	-0.020	0.308
-200.333	-44.082	0.181	-0.090
-199.319	78.028	-0.100	-0.106
-198.304	-102.786	0.413	-0.097
-197.290	330.933	0.092	0.176
-196.275	-145.572	-0.186	-0.017
-195.260	-200.000	-0.030	0.173
-194.246	-5.209	0.090	-0.061
-193.231	-104.100	0.202	0.047
-192.217	-84.742	0.229	-0.071
-191.202	-80.692	-0.148	-0.049
-190.187	50.742	0.219	0.206
-189.173	-99.492	-0.282	-0.070
-188.158	-200.000	0.049	0.421
-187.144	800.000	0.094	-0.383
-186.129	532.448	0.068	-0.158
-185.114	800.000	0.086	-0.256
-184.100	-200.000	-0.223	0.001
-183.085	-48.957	0.304	0.144
-182.071	11.446	-0.318	0.241
-181.056	-200.000	0.004	-0.119
-180.042	231.534	0.082	0.134
-179.027	-200.000	0.033	-0.235
-178.012	92.084	-0.058	-0.064
-176.998	-200.000	0.051	0.350
-175.983	-200.000	-0.004	-0.055
-174.969	-200.000	-0.025	-0.495
-173.954	77.462	0.136	0.143
-172.939	800.000	-0.124	0.381
-171.925	-200.000	-0.004	0.065
-170.910	420.689	0.027	0.057
-169.896	-163.822	-0.345	0.016
-168.881	261.606	-0.160	0.274
-167.866	-200.000	0.004	0.086
-166.852	317.050	0.083	-0.156
-165.837	-134.745	-0.226	0.027
-164.823	-200.000	0.016	0.109
-163.808	-83.514	-0.215	0.068
-162.793	468.776	0.073	-0.163
-161.779	11.587	-0.127	-0.097
-160.764	46.226	0.096	-0.088
-159.750	-144.346	0.341	0.031
-158.735	800.000	0.044	0.190
-157.720	-14.084	0.312	0.199
-156.706	-31.173	0.293	0.163
-155.691	-42.354	0.195	0.098
-154.677	106.561	0.088	0.103
-153.662	140.478	-0.265	0.346
-152.647	-46.644	0.471	0.228
-151.633	79.519	0.081	-0.086
-150.618	321.950	0.159	-0.300
-149.604	-47.091	-0.076	-0.036
-148.589	376.140	0.139	-0.280
-147.574	123.994	-0.209	-0.260
-146.560	-102.449	0.224	0.053
-145.545	158.743	-0.158	0.217
-144.531	-200.000	-0.012	0.307
-143.516	-142.780	0.130	0.013
-142.502	-58.935	-0.222	-0.095
-141.487	-135.140	-0.119	0.014
-140.472	-200.000	-0.045	-0.229
-139.458	-99.345	-0.281	-0.070
-138.443	-24.467	-0.167	0.098
-137.429	60.955	-0.039	0.038
-136.414	-122.260	0.203	0.033
-135.399	-57.148	-0.322	0.140
-134.385	-200.000	-0.000	0.408
-133.370	-129.367	0.026	0.004
-132.356	90.667	0.285	-0.316
-131.341	-22.528	0.230	-0.137
-130.326	-200.000	-0.012	-0.185
-129.312	-73.089	0.167	-0.061
-128.297	86.618	-0.108	0.118
-127.283	-196.533	-0.276	-0.002
-126.268	112.710	0.202	-0.242
-125.253	800.000	-0.038	0.135
-124.239	-163.416	0.284	0.013
-123.224	-70.996	-0.194	-0.072
-122.210	201.428	-0.105	-0.160
