DTS Sentinel unit serial number:	SN413079Multiplexer serial number:	ORYXHardware model number:	OX4-SRSoftware version number:	ORYX F/W v4.00 Oryx Data Collector v3.7.2.0data status	okinstallation	princeton_trtdifferential loss correction	single-endedforward channel	channel 4reverse channel	N/Adate	2019/09/12time	18:58:19forward acquisition time	15.00reverse acquisition time	0.00gamma	496.2192k internal	0.2307k external	0.2307temperature offset calibration	1.0133default loss term (dB/km)	0.3790temperature slope calibration	1.0000multiplexer offset coefficient	1.0000multiplexer slope coefficient	1.0000fibre end	0.00T internal ref (°C)	32.81T ext. ref 1 (°C)	3.00T ext. ref 2 (°C)	27.35length (m)	temperature (°C)	Stokes	anti-Stokes-747.200	661.990	0.316	-0.827
-746.185	84.697	0.491	-0.547
-745.171	774.833	0.193	-0.535
-744.156	-200.000	0.055	0.714
-743.142	3.730	0.303	-0.225
-742.127	472.359	0.217	0.497
-741.112	-22.298	0.615	0.379
-740.098	-47.238	-0.848	-0.420
-739.083	441.328	0.288	0.641
-738.069	417.839	0.441	0.957
-737.054	75.565	0.148	0.158
-736.039	-129.450	-0.662	0.093
-735.025	60.860	-0.487	0.490
-734.010	-19.147	0.327	0.207
-732.996	317.132	-0.237	-0.456
-731.981	378.105	-0.155	0.323
-730.966	272.311	-0.051	0.092
-729.952	93.168	-0.538	0.618
-728.937	-95.065	0.432	0.119
-727.923	800.000	-0.306	0.892
-726.908	100.428	0.415	-0.489
-725.894	-12.800	-0.399	-0.264
-724.879	98.861	-0.370	-0.434
-723.864	53.143	-0.145	0.141
-722.850	-124.180	-0.803	0.128
-721.835	-43.731	0.805	-0.412
-720.821	86.850	-0.404	-0.453
-719.806	133.465	-0.448	0.588
-718.791	-4.382	0.623	0.437
-717.777	-74.638	0.288	-0.105
-716.762	-52.360	-0.305	-0.144
-715.748	9.952	-0.437	-0.337
-714.733	207.012	-0.172	0.272
-713.718	-200.000	-0.036	0.434
-712.704	800.000	-0.127	0.548
-711.689	-47.735	-0.567	-0.279
-710.675	-200.000	-0.002	-0.056
-709.660	-1.993	0.446	0.318
-708.645	109.147	0.273	0.332
-707.631	-200.000	-0.105	-0.710
-706.616	-75.554	-0.486	0.175
-705.602	10.444	0.375	0.290
-704.587	47.456	-0.571	0.540
-703.572	-200.000	-0.011	0.370
-702.558	9.310	0.393	-0.302
-701.543	800.000	0.137	-0.420
-700.529	52.179	0.130	-0.126
-699.514	227.008	-0.474	0.781
-698.499	-200.000	-0.008	-0.039
-697.485	-131.856	0.663	-0.088
-696.470	-49.530	0.575	0.278
-695.456	-169.098	-0.472	-0.018
-694.441	520.294	0.211	-0.502
-693.426	-29.795	1.068	-0.618
-692.412	-122.982	-0.591	0.096
-691.397	304.737	0.237	0.447
-690.383	-6.355	-0.582	0.402
-689.368	-200.000	0.025	-1.053
-688.354	458.654	-0.141	-0.319
-687.339	-74.973	-0.533	0.194
-686.324	92.572	0.465	-0.532
-685.310	172.467	-0.211	0.308
-684.295	68.978	0.541	0.564
-683.281	-37.607	-0.685	0.370
-682.266	78.529	-0.442	0.479
-681.251	-169.575	1.020	0.038
-680.237	660.709	-0.358	0.934
-679.222	-74.979	1.480	0.538
-678.208	382.483	-0.432	-0.901
-677.193	-66.569	-0.923	-0.371
-676.178	-200.000	-0.064	1.082
-675.164	260.180	-0.144	-0.252
-674.149	24.602	0.460	-0.386
-673.135	-131.207	0.211	0.028
-672.120	242.607	-0.105	0.179
-671.105	141.035	-0.079	-0.106
-670.091	139.616	-0.370	0.494
-669.076	-75.630	1.122	0.404
-668.062	52.586	0.952	-0.921
-667.047	800.000	-0.265	-0.752
-666.032	-200.000	-0.078	-0.779
-665.018	48.327	0.336	-0.319
-664.003	-61.562	-0.620	0.264
-662.989	86.407	-0.361	-0.403
-661.974	56.180	0.183	-0.180
-660.959	-200.000	-0.186	1.011
-659.945	-112.992	-0.613	-0.123
-658.930	22.313	0.317	0.263
-657.916	-144.391	0.555	-0.052
-656.901	282.285	-0.304	0.552
-655.886	-109.741	0.432	-0.092
-654.872	-112.937	-0.385	-0.077
-653.857	-100.561	-0.778	0.195
-652.843	-200.000	-0.022	0.317
-651.828	-100.996	0.415	0.103
-650.814	-99.303	1.076	-0.275
-649.799	-200.000	-0.046	-0.492
-648.784	-73.975	-0.644	-0.237
-647.770	-46.410	0.523	0.260
-646.755	800.000	-0.105	-0.365
-645.741	208.730	0.265	0.420
-644.726	-43.936	0.339	0.172
-643.711	-103.323	0.754	0.180
-642.697	-200.000	0.027	0.378
-641.682	-200.000	0.038	0.168
-640.668	-95.965	-0.444	-0.120
-639.653	-86.690	-0.679	0.210
-638.638	-103.045	-0.694	-0.167
-637.624	-124.746	-1.084	-0.170
-636.609	187.088	-0.072	0.109
-635.595	-200.000	-0.058	0.350
-634.580	-200.000	0.028	0.502
-633.565	102.399	0.557	0.659
-632.551	252.226	0.201	-0.346
-631.536	-200.000	0.003	-0.192
-630.522	-73.736	0.509	0.187
-629.507	-125.398	1.190	0.184
-628.492	-142.307	0.434	-0.043
-627.478	114.391	-0.440	0.542
-626.463	-41.927	0.326	-0.169
-625.449	-200.000	0.023	0.306
-624.434	131.461	-0.683	-0.888
-623.419	541.491	-0.219	0.528
-622.405	-51.093	-0.508	0.241
-621.390	480.166	0.399	-0.915
-620.376	53.076	0.437	0.423
-619.361	338.725	-0.193	0.381
-618.346	-147.462	0.300	0.026
-617.332	-85.645	0.202	0.063
-616.317	64.065	0.230	-0.234
-615.303	47.966	-0.274	-0.259
-614.288	-85.416	0.199	-0.063
-613.273	209.882	-0.224	0.355
-612.259	12.130	-0.427	-0.332
-611.244	-96.631	-0.352	0.094
-610.230	-16.836	-0.119	0.076
-609.215	800.000	0.313	-0.906
-608.201	-149.556	-0.635	0.051
-607.186	-9.708	0.465	0.313
-606.171	-20.596	-0.252	-0.156
-605.157	-2.525	-0.761	-0.539
-604.142	800.000	-0.220	0.787
-603.128	-20.735	0.447	-0.277
-602.113	800.000	-0.093	-0.299
-601.098	7.044	-0.683	-0.515
-600.084	20.013	-0.743	-0.606
-599.069	800.000	-0.197	0.606
-598.055	225.311	-0.298	0.488
-597.040	-169.853	-1.401	0.051
-596.025	185.614	0.389	0.584
-595.011	252.970	0.075	0.129
-593.996	-13.153	-0.313	-0.205
-592.982	268.863	0.243	0.431
-591.967	-38.325	-0.496	0.266
-590.952	-106.237	0.191	0.043
-589.938	-3.884	-0.129	0.090
-588.923	19.307	0.315	-0.256
-587.909	205.813	-0.446	0.700
-586.894	-132.131	0.565	0.074
-585.879	-151.913	-0.699	0.052
-584.865	-105.042	-1.043	0.241
-583.850	304.112	0.159	0.299
-582.836	18.917	0.837	-0.678
-581.821	-17.202	-0.695	-0.442
-580.806	800.000	0.157	-0.502
-579.792	120.702	-0.173	-0.217
-578.777	374.331	-0.540	1.110
-577.763	-200.000	-0.003	0.675
-576.748	-65.840	0.393	0.159
-575.733	86.495	0.538	0.599
-574.719	800.000	0.240	-0.755
-573.704	-19.297	-0.654	-0.410
-572.690	43.264	-0.409	-0.377
-571.675	215.922	-0.146	0.235
-570.661	-52.158	0.267	-0.125
-569.646	800.000	-0.066	0.240
-568.631	-200.000	-0.099	-1.127
-567.617	-53.020	0.164	0.076
-566.602	-200.000	0.021	0.211
-565.588	-67.585	0.846	0.335
-564.573	560.323	-0.068	-0.165
-563.558	14.538	-0.431	-0.340
-562.544	800.000	0.224	0.721
-561.529	15.752	-0.374	-0.297
-560.515	-87.111	-0.607	0.186
-559.500	-200.000	0.024	-0.491
-558.485	800.000	-0.145	-0.441
-557.471	10.020	0.336	-0.258
-556.456	-16.417	-0.516	0.330
-555.442	36.843	-0.185	-0.165
-554.427	45.653	0.564	-0.526
-553.412	166.838	0.121	0.173
-552.398	41.182	-0.206	-0.188
-551.383	19.985	-0.930	-0.757
-550.369	-76.302	-1.021	-0.363
-549.354	235.073	-0.141	0.235
-548.339	-65.176	-0.482	-0.196
-547.325	177.006	-0.203	0.298
-546.310	-18.649	0.578	-0.364
-545.296	800.000	0.271	-0.823
-544.281	800.000	-0.083	-0.240
-543.266	-133.865	0.629	0.079
-542.252	-200.000	0.477	-0.002
-541.237	-192.055	-0.346	0.003
-540.223	-164.287	-0.217	-0.010
-539.208	-200.000	0.054	-0.399
-538.193	-200.000	-0.004	-0.842
-537.179	-200.000	-0.056	0.398
-536.164	-79.937	-0.407	0.138
-535.150	44.693	0.121	-0.113
-534.135	-200.000	-0.034	-0.425
-533.121	-200.000	-0.070	-0.554
-532.106	116.510	-0.346	-0.427
-531.091	-14.479	-0.343	-0.222
-530.077	-12.093	-0.231	0.152
-529.062	-200.000	0.040	-0.326
-528.048	46.698	-0.126	-0.118
-527.033	264.135	0.287	-0.504
-526.018	-200.000	0.032	-0.470
-525.004	40.991	-0.511	-0.465
-523.989	194.130	-0.208	-0.317
-522.975	-200.000	0.047	-0.659
-521.960	3.863	0.063	-0.046
-520.945	299.023	0.229	0.425
-519.931	109.194	-0.079	0.096
-518.916	-64.716	-0.066	0.027
-517.902	696.743	0.149	0.396
-516.887	-41.468	0.379	0.196
-515.872	-13.517	-0.637	0.416
-514.858	-23.471	-0.329	0.199
-513.843	693.591	0.275	-0.727
-512.829	-62.392	-0.379	0.159
-511.814	-151.697	0.672	-0.050
-510.799	638.429	0.080	-0.206
-509.785	800.000	0.075	-0.266
-508.770	201.209	-0.309	-0.480
-507.756	168.321	0.702	-1.006
-506.741	122.636	-0.286	0.361
-505.726	-118.357	-0.424	0.076
-504.712	-110.454	-0.560	-0.117
-503.697	114.662	-0.284	-0.348
-502.683	86.800	-0.118	0.131
-501.668	-169.455	-0.239	0.009
-500.653	800.000	0.120	0.431
-499.639	-6.917	-0.553	0.378
-498.624	-36.301	-0.370	-0.201
-497.610	-200.000	-0.136	-0.761
-496.595	750.625	-0.211	-0.572
-495.581	-70.408	0.317	-0.121
-494.566	-200.000	0.121	-0.913
-493.551	-200.000	-0.001	0.844
-492.537	-81.377	0.674	0.224
-491.522	-82.243	0.580	-0.190
-490.508	-24.419	-0.883	0.530
-489.493	-200.000	-0.087	0.590
-488.478	800.000	-0.067	0.293
-487.464	43.091	1.017	-0.934
-486.449	-92.984	0.283	0.079
-485.435	268.295	0.310	0.547
-484.420	150.187	-0.250	-0.341
-483.405	-31.964	0.021	-0.012
-482.391	337.178	-0.218	-0.426
-481.376	-200.000	-0.004	0.633
-480.362	133.522	0.479	-0.624
-479.347	-81.858	-0.503	-0.166
-478.332	46.777	0.207	-0.193
-477.318	-200.000	-0.071	0.428
-476.303	800.000	-0.082	-0.242
-475.289	9.033	0.459	0.349
-474.274	49.073	0.016	0.015
-473.259	-71.233	0.527	0.199
-472.245	-22.629	0.740	0.450
-471.230	-151.058	0.204	0.015
-470.216	-28.535	-0.208	-0.120
-469.201	-100.341	0.981	0.245
-468.186	-30.171	0.392	0.224
-467.172	-86.627	-0.576	0.177
-466.157	-91.810	0.496	0.142
-465.143	-24.650	0.726	-0.434
-464.128	-117.545	0.470	-0.085
-463.113	-28.507	0.599	0.347
-462.099	334.400	-0.063	0.124
-461.084	-115.379	0.686	0.130
-460.070	24.993	0.521	-0.435
-459.055	-69.256	0.623	0.241
-458.040	288.870	-0.254	0.464
-457.026	-48.219	0.640	-0.310
-456.011	157.970	0.360	0.502
-454.997	-200.000	0.006	0.721
-453.982	-200.000	0.110	-0.834
-452.968	136.703	0.524	-0.687
-451.953	169.502	0.932	1.339
-450.938	246.224	-0.489	0.828
-449.924	-29.127	-0.350	0.202
-448.909	800.000	-0.082	-0.266
-447.895	800.000	0.194	0.613
-446.880	800.000	-0.030	0.093
-445.865	14.499	0.515	0.404
-444.851	585.487	0.367	0.908
-443.836	38.558	0.477	-0.427
-442.822	-73.052	-1.056	-0.389
-441.807	-200.000	-0.113	0.686
-440.792	-200.000	0.053	-0.294
-439.778	-200.000	0.232	1.191
-438.763	129.837	-0.408	-0.524
-437.749	102.783	-0.479	0.563
-436.734	659.193	0.152	0.394
-435.719	-88.692	0.677	-0.202
-434.705	575.326	-0.154	0.377
-433.690	140.167	-0.119	0.158
-432.676	-110.622	-0.206	-0.043
-431.661	243.286	-0.085	0.143
-430.646	-200.000	-0.023	-0.430
-429.632	121.423	-0.702	-0.878
-428.617	-66.274	-0.205	0.082
-427.603	489.592	-0.166	-0.382
-426.588	-200.000	0.022	-0.834
-425.573	-20.629	0.633	0.390
-424.559	-55.121	0.360	-0.163
-423.544	-84.319	-0.515	0.164
-422.530	-200.000	0.064	0.293
-421.515	634.372	-0.332	0.846
-420.500	3.101	-0.560	-0.408
-419.486	800.000	0.248	1.051
-418.471	241.522	0.250	0.420
-417.457	-192.161	0.258	0.002
-416.442	-200.000	-0.022	0.882
-415.428	-77.794	-1.048	-0.363
-414.413	-58.465	-0.419	-0.183
-413.398	-29.017	-0.708	-0.408
-412.384	-200.000	0.031	-0.726
-411.369	-53.200	0.661	0.304
-410.355	73.196	0.588	0.617
-409.340	-7.533	0.595	-0.404
-408.325	-200.000	-0.063	-0.961
-407.311	800.000	0.118	-0.495
-406.296	551.731	-0.384	-0.926
-405.282	-82.594	0.468	0.152
-404.267	-100.381	0.268	0.067
-403.252	-100.854	1.072	0.264
-402.238	-168.992	-0.395	0.015
-401.223	-116.450	0.737	0.137
-400.209	-200.000	0.027	0.127
-399.194	-100.450	0.470	-0.117
-398.179	-200.000	0.058	0.445
-397.165	95.964	-0.447	-0.513
-396.150	-166.062	0.386	-0.016
-395.136	-85.562	0.460	0.144
-394.121	498.728	0.478	1.105
-393.106	-136.502	-0.322	-0.037
-392.092	-92.987	0.337	-0.094
-391.077	244.318	-0.105	-0.177
-390.063	302.300	0.015	-0.028
-389.048	-82.754	0.703	0.228
-388.033	-60.182	-0.567	-0.242
-387.019	208.153	0.074	-0.116
-386.004	308.934	0.378	0.708
-384.990	9.029	-0.498	-0.377
-383.975	104.422	0.505	0.596
-382.960	800.000	-0.063	-0.216
-381.946	450.695	-0.446	0.986
-380.931	436.309	-0.095	0.207
-379.917	-136.707	0.781	-0.090
-378.902	626.854	-0.198	0.502
-377.888	800.000	-0.208	0.600
-376.873	800.000	-0.136	-0.590
-375.858	765.732	0.273	-0.743
-374.844	195.648	-0.115	-0.175
-373.829	95.883	0.219	0.251
-372.815	460.814	-0.145	-0.323
-371.800	-32.158	-0.463	0.259
-370.785	128.546	0.375	0.478
-369.771	-168.012	-0.624	0.024
-368.756	-154.708	0.591	0.039
-367.742	-93.925	-0.494	0.136
-366.727	-23.448	-1.160	-0.698
-365.712	800.000	0.066	-0.186
-364.698	506.651	0.229	-0.531
-363.683	286.728	-0.279	-0.505
-362.669	58.603	0.407	0.400
-361.654	-200.000	-0.014	-0.254
-360.639	-200.000	-0.041	0.434
-359.625	-34.199	-1.041	0.573
-358.610	-99.157	0.427	0.108
-357.596	-200.000	0.019	0.640
-356.581	-116.311	-0.531	-0.098
-355.566	-13.536	-0.448	0.291
-354.552	-200.000	-0.049	0.358
-353.537	-109.375	0.350	-0.074
-352.523	84.981	-0.403	0.443
-351.508	470.030	-0.176	0.395
-350.493	-200.000	-0.133	0.969
-349.479	-200.000	0.016	-0.132
-348.464	-27.216	0.363	0.212
-347.450	-92.393	-0.490	-0.138
-346.435	300.776	-0.080	0.148
-345.420	144.214	-0.477	-0.637
-344.406	300.417	-0.477	-0.881
-343.391	-111.787	-0.329	0.067
-342.377	32.192	0.455	0.393
-341.362	66.426	-0.541	0.550
-340.348	-38.157	0.438	0.232
-339.333	-134.569	-0.184	-0.022
-338.318	37.071	-0.925	-0.819
-337.304	-0.936	-0.741	-0.525
-336.289	-161.112	-0.546	0.029
-335.275	-149.202	-0.221	-0.018
-334.260	-200.000	0.219	1.029
-333.245	-17.517	-0.681	-0.429
-332.231	-5.657	0.449	-0.308
-331.216	-126.121	-0.392	-0.059
-330.202	-175.396	0.449	-0.012
-329.187	800.000	0.050	0.139
-328.172	75.766	-0.265	0.280
-327.158	-147.187	1.103	-0.094
-326.143	-146.244	-0.153	0.013
-325.129	255.370	0.173	0.296
-324.114	-154.760	0.046	-0.003
-323.099	28.603	-0.357	0.302
-322.085	-100.001	0.831	0.207
-321.070	800.000	0.125	-0.449
-320.056	-200.000	-0.005	-0.098
-319.041	-5.053	0.276	-0.190
-318.026	-200.000	0.032	-0.794
-317.012	-200.000	0.003	-0.093
-315.997	-200.000	-0.010	-0.077
-314.983	-200.000	0.012	0.392
-313.968	193.834	0.284	-0.429
-312.953	150.576	0.229	0.311
-311.939	-84.693	0.251	0.079
-310.924	-58.817	0.555	0.240
-309.910	-101.735	1.017	0.246
-308.895	290.141	0.357	0.648
-307.880	246.231	-0.291	0.490
-306.866	-123.133	0.066	-0.011
-305.851	-147.519	-0.147	-0.012
-304.837	268.272	-0.106	-0.185
-303.822	13.823	-0.410	0.318
-302.807	348.386	0.096	0.188
-301.793	-92.002	-0.696	-0.197
-300.778	348.706	0.181	-0.358
-299.764	-135.615	0.671	-0.080
-298.749	-200.000	-0.053	0.686
-297.735	-4.018	-0.388	-0.269
-296.720	-200.000	-0.057	-1.100
-295.705	-118.835	-0.580	-0.102
-294.691	-128.070	-1.020	0.146
-293.676	36.442	-0.201	-0.177
-292.662	109.607	-0.252	0.302
-291.647	236.572	-0.513	-0.848
-290.632	554.450	-0.080	-0.193
-289.618	-83.325	-0.495	-0.159
-288.603	-200.000	0.059	-0.584
-287.589	-193.041	-0.936	0.008
-286.574	800.000	0.239	-0.867
-285.559	-200.000	-0.018	0.282
-284.545	-200.000	0.057	0.540
-283.530	227.132	0.449	-0.729
-282.516	57.163	0.373	0.364
-281.501	-148.023	-0.274	-0.023
-280.486	-61.003	-0.408	-0.172
-279.472	479.612	0.450	1.018
-278.457	-179.739	1.295	-0.028
-277.443	-65.377	-0.341	0.137
-276.428	-34.286	-0.072	-0.039
-275.413	-79.958	-0.465	-0.156
-274.399	-200.000	0.085	0.418
-273.384	-40.160	0.347	-0.180
-272.370	800.000	0.157	0.633
-271.355	800.000	-0.048	0.193
-270.340	-93.651	-0.479	-0.132
-269.326	-102.417	-0.549	0.131
-268.311	68.073	0.129	-0.132
-267.297	-86.893	-0.419	-0.128
-266.282	-200.000	0.058	-0.631
-265.267	9.531	0.231	0.174
-264.253	-7.879	-0.267	0.180
-263.238	-96.572	-0.588	-0.155
-262.224	25.328	-0.453	-0.376
-261.209	-200.000	-0.044	-0.263
-260.195	406.769	-0.244	0.514
-259.180	452.873	-0.346	-0.764
-258.165	-72.269	-0.295	-0.109
-257.151	500.487	0.175	-0.402
-256.136	21.684	0.572	0.465
-255.122	-68.082	-0.052	-0.020
-254.107	-165.908	0.159	0.007
-253.092	565.005	0.175	-0.423
-252.078	800.000	-0.063	0.183
-251.063	-39.578	0.494	-0.258
-250.049	8.618	0.566	0.425
-249.034	-200.000	0.032	0.182
-248.019	-11.275	0.319	0.209
-247.005	219.124	-0.391	0.624
-245.990	-26.689	0.680	0.397
-244.976	800.000	-0.173	0.724
-243.961	-76.998	-0.456	-0.159
-242.946	-85.299	0.445	0.139
-241.932	38.839	-0.220	-0.196
-240.917	-85.523	0.601	-0.186
-239.903	-96.369	-0.327	0.086
-238.888	-137.074	0.732	-0.083
-237.873	79.466	-0.708	-0.757
-236.859	-141.040	0.380	-0.039
-235.844	-1.079	-0.172	0.121
-234.830	-163.455	0.411	0.019
-233.815	191.003	0.397	0.595
-232.800	337.617	0.365	0.707
-231.786	467.899	0.180	0.401
-230.771	-200.000	0.015	-0.476
-229.757	403.974	-0.305	-0.639
-228.742	-21.817	0.400	-0.243
-227.727	48.562	-0.162	0.151
-226.713	-75.623	0.484	-0.172
-225.698	59.044	0.442	-0.433
-224.684	-190.303	-0.501	0.005
-223.669	-200.000	0.003	-0.312
-222.655	47.789	-0.237	-0.220
-221.640	-139.990	0.442	-0.046
-220.625	-0.832	0.168	0.119
-219.611	256.171	0.084	-0.144
-218.596	800.000	-0.091	-0.340
-217.582	-200.000	0.070	-0.465
-216.567	-1.709	-0.184	-0.129
-215.552	-39.934	-0.555	0.289
-214.538	13.880	0.004	-0.003
-213.523	86.044	-0.315	-0.345
-212.509	63.328	-0.583	-0.582
-211.494	-125.034	1.206	-0.185
-210.479	-200.000	0.002	0.236
-209.465	-38.346	-0.316	0.166
-208.450	74.930	0.406	-0.425
-207.436	239.923	-0.458	-0.759
-206.421	-15.470	0.878	0.558
-205.406	-200.000	0.100	0.618
-204.392	-105.958	-0.979	-0.219
-203.377	-121.944	-0.497	-0.081
-202.363	-107.484	0.461	0.101
-201.348	-200.000	-0.050	-0.378
-200.333	-150.878	1.158	0.087
-199.319	411.295	-0.374	0.790
-198.304	-200.000	-0.005	0.147
-197.290	-92.764	-0.477	-0.133
-196.275	699.242	0.090	0.236
-195.260	-200.000	0.107	-0.483
-194.246	1.787	-0.374	0.268
-193.231	-9.557	0.561	-0.372
-192.217	-200.000	0.024	0.298
-191.202	11.831	0.266	-0.203
-190.187	614.269	-0.329	0.819
-189.173	800.000	0.065	-0.193
-188.158	257.681	-0.260	-0.445
-187.144	-173.974	0.524	0.015
-186.129	-161.769	-0.260	-0.013
-185.114	68.233	0.667	0.679
-184.100	4.127	0.383	0.279
-183.085	-167.267	-0.482	-0.019
-182.071	-14.598	-0.819	-0.524
-181.056	728.199	-0.089	0.236
-180.042	175.707	0.462	0.666
-179.027	-5.442	-0.279	0.190
-178.012	800.000	-0.111	-0.351
-176.998	154.862	-0.135	-0.185
-175.983	-156.917	0.383	-0.023
-174.969	95.887	0.147	0.167
-173.954	204.812	-0.152	0.235
-172.939	-53.050	0.687	0.314
-171.925	-200.000	0.153	-1.009
-170.910	800.000	-0.097	-0.276
-169.896	739.516	-0.187	0.499
-168.881	87.516	0.622	-0.685
-167.866	99.800	0.702	0.808
-166.852	75.942	0.392	-0.412
-165.837	-7.730	0.631	0.424
-164.823	-98.577	0.515	-0.131
-163.808	684.778	-0.353	-0.917
-162.793	39.769	-0.804	0.717
-161.779	-94.947	0.146	-0.039
-160.764	-200.000	0.024	0.470
-159.750	33.217	0.059	-0.051
-158.735	-55.524	0.326	0.145
-157.720	-89.798	-0.261	0.076
-156.706	-108.257	0.189	-0.041
-155.691	-101.872	0.547	0.131
-154.677	116.180	-0.296	-0.360
-153.662	-81.241	0.657	-0.215
-152.647	34.390	-0.481	0.417
-151.633	17.198	0.283	-0.223
-150.618	-82.018	0.179	0.058
-149.604	94.538	0.643	0.726
-148.589	469.092	-0.206	0.459
-147.574	-200.000	0.011	0.602
-146.560	66.670	0.073	-0.074
-145.545	-200.000	0.041	0.530
-144.531	-165.482	-0.249	0.011
-143.516	364.584	0.258	-0.516
-142.502	5.158	0.328	0.240
-141.487	355.790	-0.062	-0.123
-140.472	-200.000	0.028	0.157
-139.458	6.535	0.365	-0.269
-138.443	-33.364	-0.216	0.118
-137.429	-132.721	-0.228	-0.029
-136.414	800.000	0.336	0.990
-135.399	133.349	0.136	0.174
-134.385	-200.000	0.015	0.107
-133.370	-137.461	-0.918	0.103
-132.356	-189.947	0.711	-0.008
-131.341	800.000	0.156	0.499
-130.326	205.421	-0.403	-0.621
-129.312	800.000	0.250	-0.910
-128.297	144.311	-0.292	-0.386
-127.283	-49.914	-0.831	0.391
-126.268	-17.183	-0.424	0.265
-125.253	199.539	0.372	-0.566
-124.239	-113.382	0.202	0.039
-123.224	30.682	-0.594	-0.505
-122.210	-200.000	0.023	-0.354
-121.195	318.807	-0.290	-0.545
-120.180	-200.000	0.079	0.452
