DTS Sentinel unit serial number:	SN413079Multiplexer serial number:	ORYXHardware model number:	OX4-SRSoftware version number:	ORYX F/W v4.00 Oryx Data Collector v3.7.2.0data status	okinstallation	princeton_trtdifferential loss correction	single-endedforward channel	channel 4reverse channel	N/Adate	2019/09/14time	08:57:35forward acquisition time	60.00reverse acquisition time	0.00gamma	496.2192k internal	0.2310k external	0.2310temperature offset calibration	1.0128default loss term (dB/km)	0.3790temperature slope calibration	1.0000multiplexer offset coefficient	1.0000multiplexer slope coefficient	1.0000fibre end	0.00T internal ref (°C)	29.77T ext. ref 1 (°C)	3.72T ext. ref 2 (°C)	27.92length (m)	temperature (°C)	Stokes	anti-Stokes-747.200	-0.059	-0.217	0.157
-746.185	524.151	0.115	0.274
-745.171	41.528	0.171	0.157
-744.156	-119.160	-0.375	-0.066
-743.142	-63.033	-0.176	-0.074
-742.127	-161.896	-0.125	-0.006
-741.112	-5.246	-0.137	-0.096
-740.098	-112.739	-0.302	-0.061
-739.083	-177.564	-0.338	0.008
-738.069	-88.335	0.342	0.104
-737.054	800.000	0.005	-0.017
-736.039	-26.997	0.102	0.061
-735.025	146.417	0.155	0.211
-734.010	26.117	0.284	-0.240
-732.996	475.358	-0.121	-0.278
-731.981	-26.290	-0.412	0.246
-730.966	21.095	-0.116	0.095
-729.952	79.514	-0.274	-0.298
-728.937	-8.082	-0.168	0.115
-727.923	108.874	-0.109	-0.133
-726.908	-160.579	-0.073	-0.004
-725.894	-200.000	-0.002	-0.039
-724.879	-25.009	-0.051	0.030
-723.864	-118.454	0.321	0.058
-722.850	800.000	0.022	0.084
-721.835	800.000	0.007	0.031
-720.821	-200.000	0.038	-0.176
-719.806	57.983	-0.086	-0.085
-718.791	-127.064	-0.095	0.014
-717.777	-200.000	0.045	-0.290
-716.762	-186.527	-0.138	0.002
-715.748	545.500	0.181	-0.438
-714.733	249.320	-0.102	-0.176
-713.718	-134.006	0.100	-0.013
-712.704	-60.584	-0.384	0.165
-711.689	326.421	-0.147	-0.285
-710.675	-29.429	0.136	-0.079
-709.660	-200.000	0.018	-0.164
-708.645	56.155	-0.210	-0.207
-707.631	-54.499	0.250	0.115
-706.616	-200.000	-0.024	0.218
-705.602	-46.778	-0.107	-0.053
-704.587	-200.000	0.037	-0.194
-703.572	-78.987	0.198	-0.068
-702.558	169.476	0.232	-0.336
-701.543	-179.228	-0.114	-0.003
-700.529	567.832	0.067	0.164
-699.514	-90.450	-0.290	0.085
-698.499	63.334	-0.209	0.213
-697.485	43.495	-0.169	-0.157
-696.470	438.911	-0.188	0.415
-695.456	87.550	-0.156	0.175
-694.441	-136.656	0.191	-0.022
-693.426	-46.302	-0.291	0.145
-692.412	13.978	0.140	-0.110
-691.397	628.663	-0.070	-0.179
-690.383	129.974	0.122	0.159
-689.368	-200.000	0.001	0.199
-688.354	86.413	0.233	0.261
-687.339	-200.000	-0.040	-0.213
-686.324	-63.487	0.321	0.134
-685.310	92.733	-0.120	0.137
-684.295	36.559	-0.040	-0.036
-683.281	22.903	0.136	0.113
-682.266	48.477	-0.145	0.137
-681.251	-105.506	0.147	0.034
-680.237	-112.329	-0.202	-0.041
-679.222	-200.000	-0.022	0.250
-678.208	-34.914	-0.137	0.076
-677.193	-172.238	0.108	0.004
-676.178	96.504	0.086	-0.099
-675.164	-0.046	-0.180	-0.130
-674.149	-53.988	0.239	-0.110
-673.135	-26.493	-0.063	-0.037
-672.120	491.151	-0.134	-0.311
-671.105	-125.965	-0.408	0.062
-670.091	-98.164	-0.320	-0.083
-669.076	-200.000	-0.040	0.202
-668.062	23.020	-0.080	0.067
-667.047	-81.264	0.523	0.175
-666.032	-49.810	-0.253	-0.122
-665.018	-200.000	-0.032	0.209
-664.003	227.032	0.065	0.106
-662.989	-43.159	0.160	0.082
-661.974	92.014	0.052	-0.059
-660.959	32.860	-0.165	-0.145
-659.945	151.232	-0.210	0.289
-658.930	592.111	-0.080	0.199
-657.916	-51.443	-0.039	-0.018
-656.901	267.232	0.050	-0.089
-655.886	-135.951	0.171	-0.020
-654.872	-200.000	0.051	-0.323
-653.857	-115.330	-0.348	-0.066
-652.843	208.892	-0.051	-0.081
-651.828	187.390	-0.064	-0.096
-650.814	76.393	-0.155	-0.166
-649.799	-84.201	0.189	0.061
-648.784	39.721	-0.040	-0.036
-647.770	800.000	-0.071	-0.226
-646.755	176.181	0.087	-0.128
-645.741	-154.682	-0.184	0.012
-644.726	344.267	-0.150	-0.298
-643.711	-200.000	-0.043	-0.267
-642.697	4.740	0.052	0.039
-641.682	23.149	-0.037	-0.030
-640.668	-200.000	0.012	0.108
-639.653	-200.000	-0.080	-0.392
-638.638	46.890	-0.113	0.106
-637.624	-200.000	0.026	-0.160
-636.609	525.794	-0.071	0.169
-635.595	77.718	0.233	-0.251
-634.580	-127.080	0.171	-0.025
-633.565	-53.803	-0.148	-0.068
-632.551	148.666	0.179	0.245
-631.536	-200.000	0.000	0.246
-630.522	-80.958	0.301	0.101
-629.507	800.000	-0.079	0.321
-628.492	492.874	0.161	-0.372
-627.478	89.959	-0.243	-0.275
-626.463	-200.000	0.013	-0.312
-625.449	193.751	-0.039	-0.060
-624.434	-93.172	-0.165	-0.046
-623.419	-120.218	-0.212	-0.037
-622.405	-14.704	0.173	-0.113
-621.390	71.098	-0.088	0.092
-620.376	241.057	0.114	-0.192
-619.361	800.000	0.012	0.036
-618.346	-61.266	0.251	-0.107
-617.332	-200.000	0.003	0.254
-616.317	-75.251	0.293	-0.106
-615.303	-145.488	-0.136	-0.012
-614.288	800.000	0.073	0.213
-613.273	-143.783	-0.289	0.028
-612.259	46.639	0.146	-0.137
-611.244	-22.351	0.317	0.194
-610.230	-200.000	-0.000	-0.053
-609.215	256.520	0.258	-0.447
-608.201	-148.224	-0.095	-0.008
-607.186	-139.823	-0.091	0.010
-606.171	-200.000	-0.022	-0.166
-605.157	-111.610	0.253	-0.052
-604.142	-200.000	0.001	-0.394
-603.128	800.000	-0.020	0.071
-602.113	133.582	-0.131	-0.171
-601.098	314.366	0.042	-0.079
-600.084	-25.471	-0.071	-0.042
-599.069	43.898	0.121	0.112
-598.055	81.616	0.118	-0.129
-597.040	8.577	0.177	0.134
-596.025	50.004	-0.133	0.127
-595.011	-200.000	0.050	-0.404
-593.996	-200.000	-0.016	-0.181
-592.982	16.063	-0.216	-0.172
-591.967	144.159	0.077	0.104
-590.952	-16.884	0.363	-0.232
-589.938	-68.568	-0.232	-0.091
-588.923	447.283	-0.086	0.190
-587.909	328.270	0.085	0.165
-586.894	52.697	-0.103	-0.100
-585.879	-108.757	-0.211	-0.046
-584.865	-97.302	-0.580	0.153
-583.850	-70.471	0.445	-0.170
-582.836	122.064	0.133	0.167
-581.821	72.678	-0.278	-0.293
-580.806	-200.000	-0.011	-0.331
-579.792	416.274	-0.111	0.239
-578.777	344.742	0.148	0.293
-577.763	9.381	0.294	0.224
-576.748	800.000	-0.082	-0.270
-575.733	14.202	0.064	-0.050
-574.719	-168.472	-0.355	-0.014
-573.704	-99.455	0.254	0.065
-572.690	-200.000	-0.030	0.182
-571.675	-163.814	-0.440	-0.021
-570.661	71.770	0.208	0.218
-569.646	-200.000	0.035	-0.211
-568.631	-30.871	-0.176	-0.100
-567.617	67.230	0.261	0.268
-566.602	364.051	-0.068	-0.138
-565.588	-200.000	0.027	0.272
-564.573	-200.000	0.048	-0.444
-563.558	-4.512	-0.168	-0.117
-562.544	-108.857	-0.238	-0.051
-561.529	-149.347	-0.108	-0.009
-560.515	187.566	0.085	-0.129
-559.500	-112.256	-0.162	0.033
-558.485	147.676	0.117	-0.158
-557.471	84.597	0.153	-0.169
-556.456	85.548	-0.118	-0.130
-555.442	428.303	-0.037	0.080
-554.427	234.975	-0.088	-0.146
-553.412	-144.770	0.437	0.040
-552.398	500.727	-0.070	-0.164
-551.383	-200.000	-0.033	-0.156
-550.369	-0.927	0.049	0.035
-549.354	361.559	-0.064	-0.130
-548.339	-13.665	-0.176	-0.115
-547.325	-153.299	-0.179	0.013
-546.310	-200.000	0.038	0.463
-545.296	711.457	-0.135	-0.360
-544.281	-86.632	0.241	0.074
-543.266	800.000	-0.087	0.243
-542.252	-12.574	0.255	0.168
-541.237	-200.000	0.045	0.212
-540.223	29.035	0.375	0.320
-539.208	-80.995	-0.102	0.034
-538.193	96.163	-0.074	-0.085
-537.179	800.000	-0.086	-0.331
-536.164	327.593	0.141	0.273
-535.150	-70.074	0.154	-0.059
-534.135	-89.956	-0.362	0.106
-533.121	54.692	0.069	-0.067
-532.106	-200.000	0.084	-0.418
-531.091	-104.454	-0.266	-0.062
-530.077	-55.157	0.136	-0.062
-529.062	16.854	-0.152	0.121
-528.048	-200.000	0.029	0.470
-527.033	121.129	0.243	-0.304
-526.018	-130.187	-0.279	-0.038
-525.004	297.143	0.167	-0.308
-523.989	10.862	-0.102	0.079
-522.975	70.375	-0.064	0.066
-521.960	-55.644	-0.243	-0.109
-520.945	-200.000	-0.005	0.178
-519.931	-51.592	-0.072	-0.034
-518.916	309.897	0.161	-0.303
-517.902	-118.804	0.177	-0.031
-516.887	149.078	-0.107	-0.146
-515.872	480.154	0.099	-0.226
-514.858	-200.000	0.022	0.177
-513.843	-62.239	-0.067	0.028
-512.829	-200.000	0.044	-0.362
-511.814	-9.587	0.016	-0.011
-510.799	-62.344	0.247	0.103
-509.785	19.543	-0.191	0.155
-508.770	-101.657	-0.188	-0.046
-507.756	16.956	0.234	0.186
-506.741	402.738	-0.117	0.247
-505.726	81.863	0.419	-0.457
-504.712	-72.236	0.036	0.014
-503.697	321.917	0.067	0.129
-502.683	206.287	0.086	0.135
-501.668	-170.836	0.110	-0.004
-500.653	39.732	0.350	-0.315
-499.639	-200.000	0.025	-0.118
-498.624	-175.447	-0.196	-0.005
-497.610	-115.609	0.110	0.021
-496.595	476.303	-0.069	0.157
-495.581	26.257	-0.273	0.230
-494.566	198.859	-0.059	0.090
-493.551	-200.000	0.014	0.332
-492.537	800.000	0.085	0.299
-491.522	-200.000	-0.040	0.243
-490.508	69.807	-0.321	-0.332
-489.493	-33.308	-0.299	-0.166
-488.478	-78.439	0.206	-0.071
-487.464	476.514	-0.110	-0.250
-486.449	71.046	-0.050	-0.052
-485.435	22.613	0.129	0.106
-484.420	-166.950	-0.013	0.001
-483.405	20.913	0.219	0.179
-482.391	-102.112	0.275	-0.067
-481.376	-180.431	0.238	-0.005
-480.362	167.647	-0.140	-0.200
-479.347	-200.000	0.054	-0.244
-478.332	190.288	-0.096	-0.145
-477.318	356.653	-0.168	-0.337
-476.303	98.092	-0.112	0.129
-475.289	-200.000	0.000	-0.203
-474.274	-200.000	0.083	0.000
-473.259	-33.195	-0.155	0.086
-472.245	307.348	-0.155	-0.290
-471.230	-200.000	0.027	-0.176
-470.216	800.000	0.076	-0.269
-469.201	38.555	-0.206	-0.185
-468.186	-33.252	0.157	-0.087
-467.172	-200.000	-0.034	-0.155
-466.157	-17.248	-0.140	0.089
-465.143	800.000	-0.141	0.392
-464.128	97.766	0.173	-0.200
-463.113	44.864	0.161	0.149
-462.099	104.042	0.142	0.167
-461.084	-37.659	-0.202	0.108
-460.070	182.475	-0.086	0.128
-459.055	273.868	0.050	0.089
-458.040	742.222	-0.108	-0.290
-457.026	31.623	0.195	-0.168
-456.011	242.853	0.008	-0.013
-454.997	800.000	0.052	-0.206
-453.982	-173.404	0.154	0.005
-452.968	800.000	0.132	0.381
-451.953	-200.000	0.004	0.213
-450.938	-161.328	0.190	-0.010
-449.924	134.772	-0.090	0.117
-448.909	-3.104	-0.340	0.238
-447.895	217.780	0.068	0.109
-446.880	-6.391	0.267	-0.183
-445.865	-200.000	-0.004	0.122
-444.851	-200.000	-0.012	-0.211
-443.836	58.893	0.248	-0.244
-442.822	765.655	0.074	-0.202
-441.807	157.566	0.043	-0.059
-440.792	-110.561	0.147	0.030
-439.778	616.865	-0.082	-0.207
-438.763	202.889	0.055	0.085
-437.749	-118.217	0.196	-0.035
-436.734	305.418	-0.066	-0.123
-435.719	515.423	-0.150	0.352
-434.705	-94.627	0.030	-0.008
-433.690	-103.016	0.162	0.039
-432.676	24.019	-0.118	-0.097
-431.661	800.000	0.046	0.139
-430.646	-101.593	-0.176	-0.043
-429.632	-107.273	0.331	-0.073
-428.617	800.000	-0.067	0.233
-427.603	237.569	0.138	0.230
-426.588	-200.000	-0.004	-0.103
-425.573	-106.926	0.309	0.069
-424.559	-30.126	0.080	0.046
-423.544	800.000	0.051	-0.166
-422.530	-200.000	0.015	-0.156
-421.515	-71.462	0.390	-0.146
-420.500	-200.000	0.012	-0.240
-419.486	-67.975	0.225	-0.088
-418.471	75.812	0.151	0.160
-417.457	66.336	-0.234	-0.238
-416.442	-200.000	0.013	-0.118
-415.428	152.406	-0.041	-0.056
-414.413	-58.472	-0.147	0.064
-413.398	-200.000	0.019	-0.094
-412.384	202.776	0.139	-0.215
-411.369	-116.100	0.120	-0.022
-410.355	-20.104	0.186	-0.115
-409.340	800.000	0.058	0.175
-408.325	13.464	0.274	-0.213
-407.311	41.997	-0.122	0.111
-406.296	99.914	0.324	0.376
-405.282	-200.000	-0.040	0.363
-404.267	24.728	0.177	0.147
-403.252	-187.615	-0.194	-0.003
-402.238	446.227	0.121	-0.267
-401.223	800.000	0.003	0.013
-400.209	-6.686	0.264	0.180
-399.194	-59.841	-0.392	-0.168
-398.179	97.286	-0.212	-0.244
-397.165	-128.068	-0.253	0.036
-396.150	190.083	0.025	-0.037
-395.136	-40.905	0.084	0.044
-394.121	-52.416	-0.228	0.106
-393.106	-144.140	0.102	-0.010
-392.092	-139.230	0.251	0.027
-391.077	800.000	-0.012	0.037
-390.063	-11.027	0.048	-0.032
-389.048	511.304	-0.019	0.045
-388.033	307.666	-0.138	0.257
-387.019	-110.143	-0.190	-0.040
-386.004	12.230	-0.212	-0.164
-384.990	256.182	0.193	-0.331
-383.975	-200.000	-0.017	0.249
-382.960	-41.910	-0.116	-0.059
-381.946	-48.998	-0.105	-0.050
-380.931	9.940	-0.084	0.064
-379.917	-146.255	-0.289	0.025
-378.902	65.603	-0.196	-0.199
-377.888	251.971	0.155	-0.264
-376.873	111.679	0.164	0.198
-375.858	800.000	-0.047	0.132
-374.844	91.561	0.119	-0.134
-373.829	-92.121	0.450	0.127
-372.815	130.149	-0.117	0.150
-371.800	13.204	0.164	0.127
-370.785	600.956	0.134	0.333
-369.771	173.497	-0.067	0.097
-368.756	-200.000	-0.020	0.326
-367.742	81.995	-0.374	0.405
-366.727	-105.852	0.190	0.043
-365.712	21.473	-0.237	-0.193
-364.698	-26.345	-0.196	-0.115
-363.683	167.995	-0.071	0.101
-362.669	-57.486	-0.356	0.156
-361.654	166.452	-0.134	0.190
-360.639	60.828	0.057	0.057
-359.625	92.332	-0.130	0.147
-358.610	256.992	0.092	0.158
-357.596	-158.488	-0.186	-0.011
-356.581	546.087	0.050	0.120
-355.566	781.435	0.028	-0.078
-354.552	-200.000	0.014	0.170
-353.537	-24.408	0.027	0.016
-352.523	-140.190	0.183	0.019
-351.508	85.076	0.193	-0.212
-350.493	-42.605	-0.199	-0.101
-349.479	-97.146	0.448	-0.117
-348.464	-62.995	-0.161	-0.066
-347.450	-59.182	0.303	-0.131
-346.435	-116.430	0.191	0.035
-345.420	293.286	0.126	0.230
-344.406	-200.000	-0.043	0.332
-343.391	-62.412	-0.253	0.105
-342.377	-143.976	0.189	0.018
-341.362	-43.966	0.217	0.109
-340.348	-177.688	-0.377	0.009
-339.333	670.652	-0.033	0.085
-338.318	284.168	0.110	-0.198
-337.304	-58.781	0.280	-0.121
-336.289	183.312	0.012	0.018
-335.275	-91.405	0.372	0.106
-334.260	-200.000	0.009	0.169
-333.245	-43.115	0.308	-0.156
-332.231	-12.501	-0.061	0.040
-331.216	-106.281	-0.088	-0.020
-330.202	-200.000	-0.019	0.272
-329.187	-108.782	0.101	-0.022
-328.172	-25.128	0.190	-0.113
-327.158	800.000	-0.041	-0.174
-326.143	107.570	0.227	0.270
-325.129	15.224	-0.142	-0.111
-324.114	-200.000	-0.004	0.268
-323.099	-200.000	-0.037	0.180
-322.085	-200.000	-0.003	-0.135
-321.070	800.000	0.012	0.033
-320.056	77.448	-0.039	0.041
-319.041	152.258	-0.234	-0.319
-318.026	-200.000	-0.003	0.268
-317.012	800.000	-0.065	0.178
-315.997	-200.000	-0.007	0.201
-314.983	-63.633	0.226	-0.093
-313.968	650.380	-0.138	0.353
-312.953	-200.000	-0.054	0.350
-311.939	27.051	-0.191	0.160
-310.924	-200.000	-0.055	0.307
-309.910	587.041	-0.047	-0.116
-308.895	800.000	0.069	0.225
-307.880	800.000	-0.142	0.536
-306.866	-200.000	-0.083	0.384
-305.851	9.403	-0.361	0.273
-304.837	122.337	-0.103	0.129
-303.822	-200.000	-0.025	-0.184
-302.807	234.713	-0.119	0.195
-301.793	800.000	0.029	0.103
-300.778	49.976	-0.222	-0.209
-299.764	-200.000	-0.033	0.446
-298.749	48.015	-0.389	0.363
-297.735	83.188	0.129	0.140
-296.720	197.935	-0.047	0.072
-295.705	-22.905	0.042	-0.025
-294.691	96.938	0.232	-0.265
-293.676	-200.000	-0.012	0.115
-292.662	-200.000	0.048	0.214
-291.647	387.455	-0.176	0.363
-290.632	-200.000	0.024	0.295
-289.618	-11.836	-0.199	-0.130
-288.603	143.034	-0.227	0.301
-287.589	800.000	0.057	-0.232
-286.574	-35.941	-0.148	-0.080
-285.559	-200.000	0.011	-0.253
-284.545	-200.000	-0.002	-0.035
-283.530	-35.960	0.122	-0.066
-282.516	-172.304	0.156	-0.005
-281.501	-153.377	-0.155	-0.011
-280.486	-79.550	0.157	0.053
-279.472	-68.360	-0.101	0.039
-278.457	-131.421	-0.063	0.008
-277.443	269.889	-0.094	0.164
-276.428	-80.227	0.115	0.038
-275.413	-34.875	-0.117	0.064
-274.399	22.218	0.161	0.131
-273.384	364.843	0.042	-0.084
-272.370	-14.874	0.143	-0.092
-271.355	379.964	-0.075	-0.154
-270.340	-148.149	-0.165	-0.014
-269.326	-0.234	-0.218	-0.155
-268.311	-87.503	-0.118	0.036
-267.297	-131.186	0.278	-0.037
-266.282	290.109	-0.278	0.503
-265.267	407.685	-0.050	0.106
-264.253	101.023	0.050	-0.058
-263.238	231.743	-0.093	-0.152
-262.224	59.171	-0.169	-0.166
-261.209	33.242	0.117	-0.101
-260.195	-40.110	-0.359	-0.186
-259.180	47.164	-0.118	0.109
-258.165	49.092	0.081	-0.076
-257.151	800.000	-0.029	0.086
-256.136	173.379	0.030	-0.043
-255.122	266.216	0.115	-0.200
-254.107	800.000	-0.062	-0.216
-253.092	365.701	-0.058	-0.116
-252.078	-67.193	0.073	0.029
-251.063	-134.096	0.302	0.037
-250.049	-76.058	-0.163	-0.057
-249.034	-100.411	0.175	-0.043
-248.019	-142.525	0.269	0.026
-247.005	-101.054	-0.414	-0.101
-245.990	-32.964	-0.412	0.228
-244.976	800.000	-0.116	0.343
-243.961	471.554	-0.165	-0.369
-242.946	290.881	0.034	0.062
-241.932	39.967	0.222	0.198
-240.917	147.396	-0.170	0.228
-239.903	-200.000	-0.024	-0.121
-238.888	-30.719	-0.129	-0.073
-237.873	84.682	0.081	-0.088
-236.859	-77.179	0.130	0.045
-235.844	-77.312	0.166	-0.058
-234.830	130.924	0.043	0.055
-233.815	-200.000	0.083	-0.384
-232.800	469.561	-0.049	0.110
-231.786	-200.000	0.028	0.217
-230.771	1.711	-0.151	0.108
-229.757	74.375	0.181	-0.190
-228.742	-55.363	-0.259	-0.116
-227.727	-48.407	0.142	-0.068
-226.713	-200.000	0.059	-0.312
-225.698	-35.473	0.177	-0.096
-224.684	-126.110	0.246	-0.037
-223.669	50.766	-0.138	-0.130
-222.655	176.413	0.242	0.351
-221.640	-200.000	-0.013	0.245
-220.625	717.114	0.067	-0.176
-219.611	514.681	-0.021	-0.049
-218.596	30.439	-0.097	-0.082
-217.582	106.840	0.060	0.070
-216.567	-175.486	0.128	-0.003
-215.552	-186.995	0.307	0.004
-214.538	499.390	-0.152	-0.349
-213.523	-200.000	-0.003	0.120
-212.509	-119.836	-0.343	0.059
-211.494	-51.405	-0.185	0.086
-210.479	-200.000	0.013	-0.075
-209.465	-200.000	-0.002	-0.033
-208.450	-77.213	-0.026	-0.009
-207.436	6.816	0.167	-0.123
-206.421	-200.000	0.006	-0.041
-205.406	78.555	0.085	-0.090
-204.392	800.000	0.060	0.180
-203.377	58.443	-0.108	0.105
-202.363	148.470	-0.208	0.279
-201.348	-127.567	-0.394	0.057
-200.333	110.168	0.216	0.258
-199.319	-107.262	-0.268	-0.059
-198.304	-200.000	-0.012	-0.216
-197.290	800.000	-0.055	0.215
-196.275	800.000	0.094	-0.349
-195.260	-49.649	-0.186	-0.088
-194.246	591.098	-0.037	0.092
-193.231	-200.000	-0.010	0.057
-192.217	43.729	-0.073	0.067
-191.202	193.666	0.131	0.198
-190.187	250.444	0.072	-0.121
-189.173	-123.321	-0.144	0.023
-188.158	11.155	0.060	-0.046
-187.144	-42.576	-0.341	-0.173
-186.129	15.216	0.153	-0.119
-185.114	-82.233	-0.135	-0.044
-184.100	334.907	0.139	0.268
-183.085	-99.126	-0.101	-0.025
-182.071	207.615	-0.111	0.172
-181.056	-200.000	-0.003	-0.125
-180.042	40.536	0.130	0.116
-179.027	-192.754	-0.074	-0.001
-178.012	-0.843	0.120	0.084
-176.998	-6.692	0.119	0.080
-175.983	-200.000	0.059	0.283
-174.969	53.919	-0.169	0.161
-173.954	-200.000	0.051	-0.353
-172.939	-145.618	0.236	0.021
-171.925	800.000	0.021	0.071
-170.910	456.003	0.160	0.353
-169.896	-140.070	-0.192	-0.020
-168.881	-3.380	-0.257	-0.178
-167.866	-89.342	-0.318	-0.093
-166.852	-200.000	0.004	-0.119
-165.837	61.141	0.254	-0.251
-164.823	-108.000	0.121	0.026
-163.808	-80.139	-0.151	0.050
-162.793	194.571	-0.083	-0.125
-161.779	87.294	-0.243	-0.267
-160.764	288.301	-0.044	-0.079
-159.750	-27.431	0.260	0.150
-158.735	-200.000	0.030	0.284
-157.720	-57.468	-0.208	0.091
-156.706	75.987	-0.057	-0.060
-155.691	-16.748	-0.133	-0.083
-154.677	-43.293	0.315	-0.158
-153.662	117.794	-0.142	-0.173
-152.647	-124.046	0.325	-0.051
-151.633	-134.736	-0.177	0.021
-150.618	332.764	0.101	-0.193
-149.604	247.646	0.184	0.309
-148.589	-53.608	-0.072	-0.033
-147.574	-5.127	-0.123	0.084
-146.560	-53.829	0.365	0.165
-145.545	185.591	0.052	-0.076
-144.531	-200.000	-0.076	0.419
-143.516	-136.311	-0.199	-0.023
-142.502	-42.541	0.129	0.065
-141.487	187.656	0.032	-0.047
-140.472	3.070	-0.175	-0.126
-139.458	-19.562	-0.169	-0.104
-138.443	-200.000	0.021	-0.158
-137.429	107.113	-0.187	0.221
-136.414	800.000	-0.037	-0.123
-135.399	-200.000	0.039	-0.308
-134.385	800.000	-0.038	0.132
-133.370	-86.732	-0.278	-0.084
-132.356	-200.000	0.004	-0.120
-131.341	-27.421	-0.174	0.100
-130.326	256.780	-0.130	0.222
-129.312	58.110	0.077	0.075
-128.297	800.000	0.054	0.235
-127.283	174.346	0.030	0.043
-126.268	-4.340	0.231	-0.158
-125.253	800.000	-0.044	-0.132
-124.239	-200.000	0.016	0.073
-123.224	800.000	0.097	0.311
-122.210	26.250	0.048	-0.040
-121.195	469.216	0.056	-0.124
