DTS Sentinel unit serial number:	SN413079Multiplexer serial number:	ORYXHardware model number:	OX4-SRSoftware version number:	ORYX F/W v4.00 Oryx Data Collector v3.7.2.0data status	okinstallation	princeton_trtdifferential loss correction	single-endedforward channel	channel 4reverse channel	N/Adate	2019/09/13time	00:37:34forward acquisition time	60.00reverse acquisition time	0.00gamma	496.2192k internal	0.2317k external	0.2317temperature offset calibration	1.0166default loss term (dB/km)	0.3790temperature slope calibration	1.0000multiplexer offset coefficient	1.0000multiplexer slope coefficient	1.0000fibre end	0.00T internal ref (°C)	28.30T ext. ref 1 (°C)	3.70T ext. ref 2 (°C)	22.90length (m)	temperature (°C)	Stokes	anti-Stokes-747.200	22.748	-0.195	0.162
-746.185	800.000	0.054	0.181
-745.171	-200.000	-0.083	0.493
-744.156	800.000	0.035	-0.101
-743.142	-123.211	0.115	0.019
-742.127	-99.424	0.116	-0.030
-741.112	32.604	0.283	-0.248
-740.098	-200.000	0.014	0.230
-739.083	-200.000	-0.008	0.109
-738.069	-133.182	-0.246	0.031
-737.054	-122.674	0.113	0.018
-736.039	-98.555	-0.232	0.060
-735.025	-144.981	0.088	0.008
-734.010	111.454	0.206	-0.252
-732.996	-0.901	-0.095	0.068
-731.981	298.904	-0.044	-0.083
-730.966	60.468	-0.168	-0.168
-729.952	-151.091	-0.390	0.030
-728.937	96.004	-0.296	-0.342
-727.923	89.805	0.084	-0.095
-726.908	-7.139	0.156	-0.107
-725.894	190.481	-0.118	0.180
-724.879	800.000	-0.077	-0.283
-723.864	-10.081	0.052	-0.035
-722.850	-200.000	-0.032	-0.274
-721.835	-94.124	0.131	-0.036
-720.821	12.127	-0.221	-0.172
-719.806	-59.450	0.328	0.143
-718.791	-200.000	0.001	-0.123
-717.777	482.317	-0.014	0.033
-716.762	80.687	0.048	0.052
-715.748	-200.000	-0.027	0.513
-714.733	-200.000	0.025	0.202
-713.718	115.241	0.064	0.079
-712.704	-51.929	-0.364	0.171
-711.689	48.060	-0.183	0.173
-710.675	-144.296	-0.114	-0.011
-709.660	800.000	-0.054	-0.217
-708.645	33.938	0.109	-0.096
-707.631	322.536	0.060	0.115
-706.616	-99.627	0.242	0.061
-705.602	33.529	-0.260	-0.228
-704.587	125.993	-0.204	-0.261
-703.572	-107.010	0.361	0.081
-702.558	-56.572	0.254	0.114
-701.543	800.000	-0.044	0.158
-700.529	-19.327	-0.025	0.016
-699.514	-55.992	0.280	0.126
-698.499	452.535	-0.074	-0.166
-697.485	294.446	-0.052	0.096
-696.470	-151.076	-0.104	-0.008
-695.456	17.755	0.070	-0.056
-694.441	-200.000	-0.017	-0.199
-693.426	-200.000	-0.006	-0.147
-692.412	-168.178	0.104	-0.004
-691.397	800.000	-0.083	0.311
-690.383	-200.000	0.007	-0.055
-689.368	-139.546	0.140	-0.015
-688.354	-157.468	0.138	0.008
-687.339	601.869	-0.170	-0.426
-686.324	-15.488	-0.138	-0.089
-685.310	-61.586	-0.181	-0.077
-684.295	373.201	0.036	-0.074
-683.281	-31.718	-0.202	0.114
-682.266	-81.832	-0.231	-0.076
-681.251	226.625	-0.068	-0.112
-680.237	160.939	-0.202	0.285
-679.222	-85.007	0.271	0.086
-678.208	-4.370	-0.190	-0.132
-677.193	800.000	-0.042	0.168
-676.178	250.355	0.134	-0.230
-675.164	67.854	-0.122	-0.126
-674.149	-200.000	0.020	-0.291
-673.135	405.008	0.085	-0.181
-672.120	-73.920	0.044	-0.016
-671.105	-33.704	0.122	0.068
-670.091	800.000	0.122	-0.344
-669.076	-69.726	-0.109	-0.042
-668.062	800.000	-0.096	-0.311
-667.047	167.406	-0.129	0.185
-666.032	-91.314	-0.199	-0.058
-665.018	-162.574	-0.306	-0.015
-664.003	221.451	0.085	0.138
-662.989	-200.000	-0.056	-0.255
-661.974	-94.579	0.092	-0.025
-660.959	-91.057	0.132	-0.038
-659.945	-80.164	0.210	-0.071
-658.930	-200.000	-0.037	0.279
-657.916	-98.614	0.244	0.063
-656.901	800.000	0.041	-0.133
-655.886	-200.000	0.018	-0.119
-654.872	-69.917	-0.195	0.075
-653.857	116.478	-0.128	-0.158
-652.843	142.074	0.093	0.124
-651.828	264.282	-0.147	-0.258
-650.814	364.887	0.079	-0.161
-649.799	157.036	-0.102	0.142
-648.784	-85.246	0.095	-0.030
-647.770	37.001	0.081	-0.073
-646.755	7.427	-0.252	-0.190
-645.741	85.221	0.211	-0.234
-644.726	-84.952	-0.134	0.042
-643.711	-11.994	-0.257	-0.170
-642.697	-200.000	0.064	-0.352
-641.682	-188.273	-0.261	-0.003
-640.668	-46.943	0.089	-0.044
-639.653	-200.000	-0.093	0.477
-638.638	-200.000	-0.073	-0.424
-637.624	57.114	-0.247	-0.243
-636.609	68.499	-0.147	0.152
-635.595	-38.905	0.137	-0.073
-634.580	765.695	0.077	0.212
-633.565	449.036	0.074	-0.164
-632.551	-200.000	0.021	-0.186
-631.536	-67.707	0.218	-0.086
-630.522	-30.953	-0.133	-0.076
-629.507	20.706	0.078	0.064
-628.492	68.359	0.310	-0.321
-627.478	-133.908	0.325	-0.041
-626.463	-184.850	-0.336	0.005
-625.449	42.920	-0.160	0.147
-624.434	800.000	0.072	-0.237
-623.419	-42.713	-0.252	0.129
-622.405	352.874	0.142	-0.284
-621.390	-85.904	-0.187	-0.058
-620.376	-137.498	0.297	0.034
-619.361	199.893	0.093	0.144
-618.346	740.503	0.037	-0.100
-617.332	149.391	-0.208	0.284
-616.317	-59.587	0.152	-0.066
-615.303	800.000	0.057	0.203
-614.288	53.524	0.188	0.181
-613.273	-152.271	0.093	-0.007
-612.259	658.593	0.110	0.285
-611.244	-200.000	0.091	-0.460
-610.230	42.159	0.220	-0.201
-609.215	220.946	0.259	-0.419
-608.201	265.956	-0.102	0.179
-607.186	-150.523	0.122	-0.009
-606.171	169.136	-0.200	-0.287
-605.157	253.116	0.133	0.229
-604.142	-49.693	0.205	0.098
-603.128	-9.293	-0.178	0.120
-602.113	800.000	0.046	0.136
-601.098	-88.420	-0.139	-0.042
-600.084	800.000	0.109	0.326
-599.069	-46.168	0.109	0.054
-598.055	295.127	0.065	-0.120
-597.040	487.399	0.040	-0.091
-596.025	175.587	-0.061	-0.089
-595.011	198.873	0.059	-0.091
-593.996	202.973	0.090	0.140
-592.982	-200.000	0.002	-0.161
-591.967	-200.000	-0.016	-0.122
-590.952	-200.000	0.041	-0.374
-589.938	-23.024	0.198	-0.120
-588.923	-200.000	0.004	0.049
-587.909	-200.000	-0.001	0.256
-586.894	108.353	-0.025	0.030
-585.879	-162.769	0.251	0.012
-584.865	158.389	-0.051	0.071
-583.850	39.722	0.137	0.123
-582.836	-200.000	-0.046	0.205
-581.821	-200.000	0.035	-0.196
-580.806	49.996	-0.140	-0.132
-579.792	99.144	-0.099	0.115
-578.777	800.000	-0.069	0.295
-577.763	-33.560	0.145	0.081
-576.748	-77.217	0.175	-0.061
-575.733	109.940	-0.322	0.388
-574.719	-100.122	-0.138	-0.035
-573.704	-200.000	0.023	-0.254
-572.690	-19.693	-0.271	0.169
-571.675	-67.291	-0.127	0.050
-570.661	-200.000	0.006	-0.103
-569.646	-200.000	0.025	-0.136
-568.631	-32.165	-0.215	0.121
-567.617	-200.000	-0.030	0.417
-566.602	-93.689	-0.227	0.063
-565.588	-107.224	-0.192	0.043
-564.573	-200.000	-0.013	-0.183
-563.558	800.000	-0.020	-0.076
-562.544	40.364	0.196	0.177
-561.529	-91.925	0.150	-0.043
-560.515	77.344	0.141	-0.151
-559.500	800.000	-0.196	-0.804
-558.485	-106.563	0.243	-0.054
-557.471	334.803	-0.146	0.285
-556.456	-163.543	-0.387	-0.018
-555.442	-200.000	-0.016	0.138
-554.427	-31.067	-0.077	-0.044
-553.412	-40.558	0.160	-0.083
-552.398	13.564	0.084	0.066
-551.383	57.656	-0.128	-0.126
-550.369	-196.311	0.203	-0.001
-549.354	-4.789	-0.091	0.063
-548.339	-200.000	0.037	-0.274
-547.325	-152.692	-0.204	-0.015
-546.310	295.352	0.194	-0.357
-545.296	177.775	0.143	0.210
-544.281	504.684	-0.005	0.013
-543.266	52.573	0.111	-0.106
-542.252	35.456	-0.221	-0.195
-541.237	-200.000	0.026	0.126
-540.223	219.341	-0.074	0.119
-539.208	-200.000	0.014	-0.502
-538.193	-189.458	-0.374	0.004
-537.179	800.000	-0.098	-0.412
-536.164	800.000	-0.109	-0.465
-535.150	-155.293	0.094	0.006
-534.135	29.330	0.088	0.075
-533.121	-52.008	0.129	0.060
-532.106	-200.000	-0.035	0.309
-531.091	12.881	0.067	0.052
-530.077	-78.043	0.103	0.036
-529.062	-91.511	-0.229	-0.066
-528.048	-0.654	-0.192	0.137
-527.033	-200.000	0.014	-0.306
-526.018	164.147	0.112	0.158
-525.004	-121.383	-0.180	-0.030
-523.989	-200.000	-0.028	-0.132
-522.975	800.000	-0.053	0.226
-521.960	326.553	-0.092	0.177
-520.945	-77.826	0.070	0.024
-519.931	-114.230	-0.351	0.068
-518.916	135.823	-0.119	0.155
-517.902	-116.998	-0.191	0.035
-516.887	110.469	0.229	-0.276
-515.872	800.000	-0.082	-0.291
-514.858	229.145	0.049	-0.081
-513.843	-114.142	0.243	-0.047
-512.829	255.790	-0.113	0.194
-511.814	800.000	0.073	0.244
-510.799	-200.000	-0.017	0.251
-509.785	53.431	-0.182	0.175
-508.770	35.432	0.070	0.062
-507.756	-70.776	0.144	0.055
-506.741	800.000	0.090	0.266
-505.726	-200.000	0.003	0.058
-504.712	49.994	-0.257	-0.243
-503.697	-200.000	-0.034	0.182
-502.683	174.938	0.028	-0.040
-501.668	-200.000	-0.018	0.132
-500.653	-111.065	-0.206	0.042
-499.639	-200.000	-0.016	-0.113
-498.624	44.237	0.177	-0.163
-497.610	6.204	0.121	0.090
-496.595	-101.031	0.202	-0.050
-495.581	-166.460	-0.330	0.014
-494.566	-91.501	-0.134	-0.038
-493.551	800.000	0.065	0.282
-492.537	120.771	-0.204	0.255
-491.522	-141.896	-0.329	0.033
-490.508	-200.000	0.011	-0.089
-489.493	767.156	0.053	-0.144
-488.478	-139.680	-0.322	-0.034
-487.464	800.000	-0.122	-0.500
-486.449	82.824	0.066	-0.071
-485.435	125.262	0.080	0.101
-484.420	170.535	0.116	0.166
-483.405	-29.445	-0.274	0.157
-482.391	-142.314	0.390	0.039
-481.376	-185.236	-0.252	-0.004
-480.362	-104.153	-0.221	0.051
-479.347	-6.178	-0.063	-0.043
-478.332	-115.021	0.120	-0.023
-477.318	800.000	-0.110	-0.419
-476.303	67.264	-0.087	-0.089
-475.289	187.864	0.096	-0.143
-474.274	-26.760	0.202	0.118
-473.259	-200.000	-0.030	-0.148
-472.245	-200.000	-0.012	-0.287
-471.230	-23.091	-0.069	0.041
-470.216	51.228	0.392	0.373
-469.201	79.509	0.228	-0.245
-468.186	800.000	-0.050	0.156
-467.172	-200.000	0.038	0.221
-466.157	-200.000	-0.025	0.149
-465.143	270.120	-0.104	0.183
-464.128	325.024	-0.176	-0.337
-463.113	-73.853	-0.258	0.094
-462.099	-61.071	0.300	0.127
-461.084	-100.956	0.079	-0.019
-460.070	170.312	-0.082	-0.118
-459.055	-178.728	0.165	0.004
-458.040	-200.000	-0.009	-0.185
-457.026	93.134	-0.214	0.242
-456.011	800.000	0.070	-0.230
-454.997	-54.513	-0.283	0.128
-453.982	-200.000	0.009	-0.063
-452.968	138.450	-0.083	-0.109
-451.953	-83.083	-0.138	-0.044
-450.938	-149.419	0.100	0.008
-449.924	492.416	-0.107	-0.245
-448.909	37.446	-0.156	0.139
-447.895	-54.264	-0.200	0.091
-446.880	3.208	-0.113	0.082
-445.865	-168.025	0.416	-0.016
-444.851	800.000	-0.068	-0.261
-443.836	631.396	0.059	0.149
-442.822	-188.493	-0.279	-0.003
-441.807	-200.000	-0.053	-0.264
-440.792	480.853	-0.063	0.143
-439.778	-129.959	-0.100	0.014
-438.763	128.081	-0.104	0.132
-437.749	-200.000	0.003	0.120
-436.734	800.000	0.049	-0.189
-435.719	40.456	-0.162	0.146
-434.705	387.470	0.127	0.263
-433.690	120.584	0.066	-0.082
-432.676	-200.000	-0.021	-0.247
-431.661	800.000	-0.087	0.289
-430.646	-122.152	-0.085	-0.014
-429.632	77.963	0.095	-0.101
-428.617	800.000	-0.063	-0.223
-427.603	-19.422	0.249	0.154
-426.588	-200.000	-0.029	-0.156
-425.573	800.000	0.090	0.263
-424.559	70.757	-0.077	0.080
-423.544	-200.000	0.004	-0.401
-422.530	-189.972	-0.363	0.004
-421.515	210.512	0.094	0.148
-420.500	-58.974	-0.138	-0.060
-419.486	-200.000	-0.035	0.157
-418.471	152.715	-0.148	0.202
-417.457	638.227	0.091	0.231
-416.442	29.622	-0.229	0.195
-415.428	382.218	-0.159	-0.327
-414.413	-31.055	0.149	0.084
-413.398	80.202	-0.021	0.022
-412.384	427.516	-0.024	-0.053
-411.369	354.329	0.040	0.079
-410.355	-200.000	0.052	-0.248
-409.340	5.136	0.077	0.057
-408.325	-200.000	-0.023	-0.215
-407.311	55.970	-0.151	-0.146
-406.296	85.236	-0.069	-0.076
-405.282	-38.967	-0.312	-0.164
-404.267	507.285	0.095	0.221
-403.252	-200.000	0.052	0.277
-402.238	-131.323	0.249	0.033
-401.223	-141.498	0.189	-0.019
-400.209	-200.000	0.005	-0.164
-399.194	576.056	0.054	0.132
-398.179	-200.000	-0.035	0.283
-397.165	255.820	-0.128	0.220
-396.150	-200.000	-0.035	0.205
-395.136	97.798	-0.177	-0.203
-394.121	800.000	0.081	-0.299
-393.106	-42.332	0.146	-0.074
-392.092	16.131	-0.102	-0.080
-391.077	-12.751	0.292	0.190
-390.063	-64.590	0.373	0.151
-389.048	67.108	0.086	0.087
-388.033	-33.680	0.321	0.177
-387.019	800.000	0.102	-0.287
-386.004	407.400	0.091	-0.191
-384.990	-59.917	0.515	0.220
-383.975	14.780	0.199	-0.155
-382.960	-200.000	-0.005	-0.206
-381.946	12.961	0.101	-0.078
-380.931	141.827	0.068	0.089
-379.917	-200.000	0.033	-0.147
-378.902	-117.529	-0.120	-0.022
-377.888	12.502	-0.244	0.188
-376.873	71.114	-0.109	0.113
-375.858	-200.000	0.027	-0.243
-374.844	-38.438	0.027	-0.014
-373.829	-200.000	0.017	-0.160
-372.815	-200.000	-0.014	0.118
-371.800	-165.523	-0.145	-0.006
-370.785	-200.000	0.044	0.341
-369.771	-200.000	0.074	0.370
-368.756	800.000	0.018	-0.059
-367.742	350.218	0.120	-0.238
-366.727	11.402	-0.065	-0.050
-365.712	-200.000	0.029	-0.138
-364.698	-200.000	0.056	0.318
-363.683	-81.593	-0.106	-0.035
-362.669	-93.071	-0.054	-0.015
-361.654	-65.978	-0.233	0.093
-360.639	208.232	-0.123	-0.192
-359.625	128.781	0.102	0.130
-358.610	-175.064	0.255	-0.007
-357.596	20.069	-0.110	0.089
-356.581	294.187	-0.179	0.325
-355.566	91.974	0.307	0.345
-354.552	513.806	-0.142	-0.329
-353.537	-63.962	-0.311	0.127
-352.523	186.765	-0.105	0.155
-351.508	6.051	0.248	0.183
-350.493	-157.500	-0.278	0.017
-349.479	-200.000	-0.001	0.245
-348.464	-122.126	-0.197	-0.032
-347.450	-45.332	0.174	0.086
-346.435	-200.000	-0.006	0.031
-345.420	-145.861	-0.299	-0.026
-344.406	250.960	-0.135	0.228
-343.391	79.086	0.054	-0.058
-342.377	-200.000	0.002	-0.212
-341.362	-99.347	-0.165	0.041
-340.348	-200.000	-0.024	-0.207
-339.333	800.000	-0.081	0.277
-338.318	10.362	0.379	0.287
-337.304	302.881	0.152	-0.280
-336.289	43.242	0.075	0.068
-335.275	-121.022	-0.096	-0.016
-334.260	301.216	-0.067	-0.123
-333.245	-124.951	-0.435	-0.067
-332.231	-106.737	-0.195	-0.043
-331.216	800.000	0.109	0.421
-330.202	800.000	0.065	0.255
-329.187	-200.000	-0.063	-0.418
-328.172	-46.738	0.086	0.042
-327.158	-155.904	0.071	-0.005
-326.143	-148.819	0.280	0.023
-325.129	800.000	-0.060	0.254
-324.114	82.577	0.077	0.083
-323.099	-200.000	-0.001	-0.163
-322.085	-79.583	-0.321	-0.108
-321.070	-19.493	0.248	-0.153
-320.056	-200.000	0.010	-0.071
-319.041	800.000	-0.057	-0.162
-318.026	76.745	-0.246	-0.260
-317.012	67.186	-0.138	-0.140
-315.997	-73.255	0.426	0.155
-314.983	-66.575	0.026	0.010
-313.968	-8.790	-0.345	-0.230
-312.953	187.114	-0.167	0.248
-311.939	800.000	-0.084	0.294
-310.924	800.000	0.076	0.268
-309.910	137.574	0.103	-0.134
-308.895	-200.000	-0.072	0.316
-307.880	33.003	-0.181	-0.156
-306.866	-81.448	0.113	0.037
-305.851	-200.000	-0.216	-0.001
-304.837	-95.687	0.374	-0.100
-303.822	-38.837	-0.235	0.123
-302.807	800.000	0.104	-0.320
-301.793	-200.000	0.022	-0.277
-300.778	-200.000	-0.006	0.135
-299.764	-56.743	-0.175	-0.077
-298.749	-200.000	0.039	-0.268
-297.735	800.000	-0.041	0.149
-296.720	152.799	-0.217	-0.295
-295.705	682.055	0.135	-0.350
-294.691	-87.074	-0.170	0.051
-293.676	398.579	0.036	0.076
-292.662	-151.569	0.067	-0.005
-291.647	33.857	0.178	0.154
-290.632	184.271	0.171	0.252
-289.618	-109.243	-0.194	-0.041
-288.603	398.369	-0.020	0.041
-287.589	287.099	-0.137	0.246
-286.574	208.275	0.210	0.326
-285.559	446.362	0.153	0.334
-284.545	-192.974	-0.208	0.002
-283.530	-105.575	-0.478	-0.108
-282.516	800.000	0.132	-0.425
-281.501	800.000	-0.051	-0.176
-280.486	-48.983	-0.023	0.011
-279.472	800.000	0.035	-0.144
-278.457	197.703	-0.222	0.337
-277.443	-131.893	-0.105	-0.014
-276.428	-49.706	-0.077	0.036
-275.413	48.106	-0.192	0.179
-274.399	-73.088	0.384	-0.140
-273.384	-118.245	-0.234	0.041
-272.370	-24.540	0.311	-0.184
-271.355	-96.413	0.230	0.060
-270.340	-144.753	0.316	-0.029
-269.326	548.921	-0.072	0.172
-268.311	-52.719	-0.262	0.120
-267.297	-200.000	0.073	0.413
-266.282	800.000	-0.041	0.143
-265.267	-47.796	0.323	-0.155
-264.253	394.805	-0.029	-0.059
-263.238	-118.211	0.438	0.078
-262.224	-37.418	-0.150	0.080
-261.209	48.242	-0.143	-0.133
-260.195	-200.000	0.027	0.129
-259.180	51.625	0.248	0.234
-258.165	-78.975	-0.043	-0.014
-257.151	-91.134	-0.380	-0.108
-256.136	-81.638	0.064	-0.021
-255.122	53.966	0.205	0.196
-254.107	3.576	0.269	-0.195
-253.092	38.412	-0.091	-0.080
-252.078	72.863	0.124	0.128
-251.063	-200.000	0.008	-0.374
-250.049	-83.883	0.090	-0.029
-249.034	-74.667	0.357	0.128
-248.019	62.441	-0.122	0.121
-247.005	-40.851	-0.138	0.071
-245.990	-133.203	-0.113	0.014
-244.976	293.671	-0.102	0.186
-243.961	468.475	0.023	0.051
-242.946	6.775	0.150	-0.111
-241.932	-76.303	0.359	-0.125
-240.917	-26.330	-0.067	-0.039
-239.903	-117.735	0.187	-0.033
-238.888	49.966	-0.204	0.191
-237.873	-29.169	0.255	-0.145
-236.859	582.362	-0.078	0.191
-235.844	318.584	0.121	0.227
-234.830	-56.417	-0.210	0.092
-233.815	-90.956	-0.281	0.080
-232.800	-125.530	-0.339	0.051
-231.786	800.000	0.034	-0.135
-230.771	-89.201	0.198	0.058
-229.757	-200.000	0.005	-0.085
-228.742	16.403	0.148	-0.116
-227.727	92.026	-0.279	-0.311
-226.713	185.565	-0.170	-0.250
-225.698	800.000	0.148	0.442
-224.684	-170.237	0.116	0.004
-223.669	152.076	0.167	-0.225
-222.655	229.600	-0.099	-0.160
-221.640	117.915	0.053	-0.065
-220.625	355.751	0.084	-0.166
-219.611	-200.000	0.001	-0.153
-218.596	800.000	-0.085	-0.272
-217.582	-42.508	0.129	0.065
-216.567	-158.478	0.254	0.015
-215.552	89.960	0.117	0.129
-214.538	800.000	0.036	-0.113
-213.523	-136.759	0.148	-0.017
-212.509	800.000	0.035	-0.098
-211.494	424.655	-0.064	-0.137
-210.479	-136.957	0.123	0.014
-209.465	-200.000	-0.003	0.298
-208.450	-200.000	-0.009	0.158
-207.436	12.397	0.150	0.115
-206.421	-118.296	0.378	0.067
-205.406	-127.316	0.372	0.054
-204.392	421.000	0.058	0.124
-203.377	-191.951	-0.238	-0.002
-202.363	3.848	0.078	-0.057
-201.348	45.175	0.120	-0.110
-200.333	-200.000	-0.021	0.198
-199.319	-200.000	0.035	0.207
-198.304	627.677	-0.090	-0.226
-197.290	222.455	0.044	-0.071
-196.275	-70.327	-0.096	0.036
-195.260	-166.104	0.157	0.007
-194.246	-109.403	-0.111	-0.023
-193.231	565.122	0.104	-0.251
-192.217	-138.253	-0.136	-0.015
-191.202	148.051	0.108	-0.144
-190.187	106.610	-0.092	-0.108
-189.173	-200.000	0.066	-0.429
-188.158	-200.000	0.033	-0.246
-187.144	-114.401	0.098	-0.019
-186.129	-58.854	0.263	0.113
-185.114	73.634	0.122	0.126
-184.100	800.000	-0.088	0.350
-183.085	-22.438	0.178	0.107
-182.071	38.659	-0.149	-0.132
-181.056	800.000	0.061	-0.176
-180.042	56.031	-0.092	-0.089
-179.027	15.942	-0.106	0.083
-178.012	72.633	0.065	-0.067
-176.998	-200.000	-0.001	-0.018
-175.983	1.572	-0.116	-0.083
-174.969	-15.156	0.166	-0.105
-173.954	37.409	-0.141	-0.124
-172.939	-200.000	-0.004	0.142
-171.925	1.567	-0.231	0.164
-170.910	354.033	0.241	0.473
-169.896	-154.417	-0.189	-0.013
-168.881	-34.089	0.126	-0.069
-167.866	-166.420	0.144	0.006
-166.852	-9.362	-0.038	-0.025
-165.837	230.378	-0.211	-0.341
-164.823	77.267	0.167	0.176
-163.808	-85.812	0.372	0.114
-162.793	114.917	0.043	-0.052
-161.779	509.194	-0.091	-0.209
-160.764	348.180	-0.118	0.231
-159.750	-200.000	0.005	0.156
-158.735	-130.697	0.201	-0.027
-157.720	-200.000	0.022	0.185
-156.706	-200.000	0.012	-0.073
-155.691	248.319	0.216	0.361
-154.677	109.365	0.123	-0.145
-153.662	265.158	-0.084	0.144
-152.647	157.693	-0.181	-0.249
-151.633	-200.000	0.023	0.271
-150.618	-200.000	-0.003	-0.018
-149.604	201.861	-0.174	0.265
-148.589	-200.000	0.013	0.121
-147.574	186.367	0.032	-0.046
-146.560	800.000	0.049	-0.143
-145.545	53.941	0.140	0.133
-144.531	-169.612	-0.225	0.008
-143.516	-200.000	0.001	-0.141
-142.502	-200.000	-0.057	0.270
-141.487	-11.082	-0.195	-0.127
-140.472	-57.030	-0.054	-0.023
-139.458	384.693	-0.090	-0.184
-138.443	-25.722	0.091	0.053
-137.429	6.355	0.228	-0.167
-136.414	116.434	-0.227	0.275
-135.399	57.949	-0.134	-0.130
-134.385	224.251	-0.166	-0.265
-133.370	222.826	0.168	0.268
-132.356	-200.000	0.002	0.093
-131.341	68.300	-0.241	0.244
-130.326	-200.000	0.061	0.388
-129.312	-44.630	0.348	0.172
-128.297	-200.000	-0.044	0.198
-127.283	-138.798	-0.177	-0.019
-126.268	48.407	-0.024	-0.022
-125.253	201.802	0.072	0.109
-124.239	-131.365	-0.161	-0.021
-123.224	112.203	-0.147	-0.175
-122.210	181.713	-0.076	-0.111
