DTS Sentinel unit serial number:	SN413079Multiplexer serial number:	ORYXHardware model number:	OX4-SRSoftware version number:	ORYX F/W v4.00 Oryx Data Collector v3.7.2.0data status	okinstallation	princeton_trtdifferential loss correction	single-endedforward channel	channel 4reverse channel	N/Adate	2019/09/13time	17:49:34forward acquisition time	60.00reverse acquisition time	0.00gamma	496.2192k internal	0.2297k external	0.2297temperature offset calibration	1.0219default loss term (dB/km)	0.3790temperature slope calibration	1.0000multiplexer offset coefficient	1.0000multiplexer slope coefficient	1.0000fibre end	0.00T internal ref (°C)	35.52T ext. ref 1 (°C)	5.08T ext. ref 2 (°C)	28.86length (m)	temperature (°C)	Stokes	anti-Stokes-747.200	236.363	-0.118	-0.200
-746.185	-200.000	0.069	0.493
-745.171	89.344	-0.102	0.116
-744.156	-114.619	-0.398	-0.078
-743.142	40.304	-0.069	-0.064
-742.127	109.369	-0.259	0.317
-741.112	-114.408	-0.244	-0.048
-740.098	800.000	-0.144	0.465
-739.083	-161.330	0.107	-0.006
-738.069	-200.000	0.003	-0.116
-737.054	51.001	-0.060	-0.058
-736.039	26.258	-0.307	-0.262
-735.025	-7.330	0.123	0.085
-734.010	795.851	0.096	-0.271
-732.996	800.000	0.048	-0.142
-731.981	16.819	-0.250	0.202
-730.966	-133.834	0.282	-0.036
-729.952	-29.471	-0.376	0.220
-728.937	-85.536	0.150	-0.048
-727.923	-20.504	-0.259	0.162
-726.908	104.131	0.181	-0.217
-725.894	-38.779	0.332	-0.179
-724.879	-36.687	-0.125	-0.068
-723.864	-139.883	-0.320	0.035
-722.850	-68.314	-0.237	0.094
-721.835	361.110	-0.082	0.168
-720.821	709.033	0.027	0.072
-719.806	-78.958	-0.315	-0.109
-718.791	75.304	-0.183	-0.197
-717.777	252.681	-0.040	0.070
-716.762	-32.435	0.253	-0.144
-715.748	-200.000	0.005	-0.160
-714.733	8.639	-0.107	0.082
-713.718	-112.774	-0.177	-0.036
-712.704	322.806	-0.150	0.291
-711.689	58.189	0.042	0.042
-710.675	-200.000	0.017	0.227
-709.660	-44.024	-0.100	0.051
-708.645	119.667	0.147	-0.185
-707.631	-200.000	0.019	-0.254
-706.616	-29.621	-0.238	-0.138
-705.602	2.046	0.276	0.203
-704.587	32.246	-0.197	-0.174
-703.572	-71.027	-0.145	0.056
-702.558	-46.273	0.099	-0.049
-701.543	153.336	0.043	-0.060
-700.529	20.358	0.033	-0.027
-699.514	800.000	0.078	0.227
-698.499	800.000	-0.011	0.042
-697.485	121.988	-0.087	0.110
-696.470	51.861	0.292	-0.283
-695.456	800.000	0.051	-0.177
-694.441	8.832	0.207	-0.159
-693.426	168.789	-0.053	0.077
-692.412	158.888	-0.124	0.176
-691.397	356.535	0.015	-0.031
-690.383	-70.346	-0.456	0.176
-689.368	90.275	0.095	0.109
-688.354	-107.018	0.274	0.062
-687.339	-39.229	0.278	-0.149
-686.324	-49.872	-0.400	-0.193
-685.310	403.069	0.242	-0.519
-684.295	-38.468	-0.209	-0.112
-683.281	-200.000	-0.066	0.318
-682.266	-14.007	-0.436	0.287
-681.251	159.483	-0.132	0.187
-680.237	258.371	0.007	-0.013
-679.222	-70.720	-0.380	0.146
-678.208	-104.292	-0.258	0.061
-677.193	800.000	0.106	-0.346
-676.178	-128.217	-0.132	-0.019
-675.164	-45.062	-0.118	0.060
-674.149	486.520	0.155	-0.360
-673.135	765.940	-0.016	-0.043
-672.120	1.217	0.146	0.107
-671.105	203.241	0.189	0.298
-670.091	-164.381	-0.252	-0.012
-669.076	32.650	0.169	0.149
-668.062	-67.827	-0.208	-0.083
-667.047	-200.000	0.022	0.107
-666.032	-26.729	0.174	0.104
-665.018	-200.000	0.096	-0.463
-664.003	-144.800	-0.145	0.014
-662.989	800.000	0.129	-0.444
-661.974	-200.000	-0.270	-0.000
-660.959	192.815	-0.203	0.312
-659.945	28.443	-0.231	-0.199
-658.930	49.358	-0.125	-0.120
-657.916	800.000	-0.073	-0.232
-656.901	-52.824	-0.096	-0.045
-655.886	-57.660	0.101	0.045
-654.872	23.162	-0.200	-0.167
-653.857	651.065	-0.078	-0.204
-652.843	-200.000	-0.031	-0.149
-651.828	-126.409	0.261	-0.040
-650.814	800.000	-0.056	-0.220
-649.799	-200.000	0.020	0.295
-648.784	-71.002	-0.172	0.066
-647.770	-150.376	0.064	0.005
-646.755	-200.000	-0.013	-0.242
-645.741	486.177	0.126	-0.293
-644.726	560.538	-0.119	-0.291
-643.711	-121.003	-0.139	0.024
-642.697	-175.827	-0.290	0.008
-641.682	104.408	0.165	-0.197
-640.668	663.833	0.088	-0.231
-639.653	54.111	0.131	0.128
-638.638	318.404	-0.061	0.117
-637.624	-154.558	0.187	0.013
-636.609	-200.000	0.044	-0.398
-635.595	-92.180	0.104	0.030
-634.580	-200.000	0.022	0.237
-633.565	800.000	-0.029	0.123
-632.551	-49.705	-0.208	-0.100
-631.536	101.798	-0.113	0.135
-630.522	-9.369	-0.245	0.166
-629.507	-123.313	-0.251	0.041
-628.492	-30.401	-0.159	-0.092
-627.478	35.206	-0.163	0.145
-626.463	20.756	-0.261	0.215
-625.449	80.727	0.276	0.303
-624.434	20.129	-0.163	0.134
-623.419	64.693	0.179	-0.183
-622.405	-128.114	0.082	0.012
-621.390	-125.552	-0.292	0.045
-620.376	123.532	-0.007	-0.009
-619.361	185.009	0.232	0.349
-618.346	-77.777	-0.121	0.043
-617.332	-63.805	0.340	0.141
-616.317	-50.261	-0.367	-0.176
-615.303	-200.000	0.036	0.343
-614.288	-9.402	0.276	-0.187
-613.273	55.693	-0.085	-0.084
-612.259	286.314	-0.106	-0.194
-611.244	-200.000	-0.009	-0.198
-610.230	800.000	0.097	-0.412
-609.215	-200.000	0.015	0.073
-608.201	105.533	-0.096	0.116
-607.186	81.517	-0.237	0.260
-606.171	-87.273	-0.273	0.084
-605.157	-200.000	0.018	-0.086
-604.142	152.660	0.183	-0.253
-603.128	-111.796	-0.170	-0.035
-602.113	206.629	-0.100	-0.158
-601.098	-147.717	0.197	-0.017
-600.084	800.000	-0.045	0.131
-599.069	-110.818	-0.220	0.046
-598.055	99.613	-0.110	-0.129
-597.040	-71.514	-0.272	-0.103
-596.025	-3.970	0.371	0.262
-595.011	-143.863	0.330	-0.032
-593.996	14.695	0.171	-0.136
-592.982	432.728	-0.116	-0.256
-591.967	-39.980	-0.137	0.073
-590.952	-171.104	-0.111	0.004
-589.938	-56.582	0.208	0.094
-588.923	633.001	-0.069	-0.178
-587.909	42.856	-0.170	-0.157
-586.894	-108.893	-0.405	0.088
-585.879	-36.382	-0.224	0.122
-584.865	-99.808	-0.140	-0.035
-583.850	-42.237	0.428	-0.222
-582.836	-107.321	0.120	0.027
-581.821	373.941	0.096	-0.197
-580.806	-200.000	0.049	-0.322
-579.792	16.622	-0.111	0.089
-578.777	9.744	-0.178	-0.137
-577.763	-200.000	-0.071	-0.391
-576.748	-141.300	-0.274	-0.028
-575.733	800.000	0.034	-0.138
-574.719	148.354	0.084	-0.115
-573.704	30.719	-0.331	-0.287
-572.690	800.000	-0.109	-0.325
-571.675	63.255	0.242	-0.246
-570.661	87.079	-0.392	-0.440
-569.646	733.486	-0.087	-0.236
-568.631	-67.695	-0.284	-0.113
-567.617	-11.980	-0.147	0.097
-566.602	-60.381	0.150	0.065
-565.588	-81.203	0.189	0.063
-564.573	800.000	0.038	0.121
-563.558	15.216	-0.184	0.146
-562.544	-30.963	-0.307	0.176
-561.529	-110.829	0.280	-0.059
-560.515	-116.140	-0.069	0.013
-559.500	44.163	-0.194	0.180
-558.485	113.067	0.139	-0.171
-557.471	800.000	-0.036	0.136
-556.456	21.564	-0.059	0.049
-555.442	221.767	-0.223	0.363
-554.427	470.626	-0.065	0.148
-553.412	18.763	0.190	0.154
-552.398	-105.381	0.094	0.022
-551.383	-44.540	-0.129	-0.065
-550.369	-66.204	-0.171	0.069
-549.354	800.000	-0.038	0.119
-548.339	800.000	0.081	0.250
-547.325	25.520	0.200	0.169
-546.310	656.998	-0.078	0.203
-545.296	-185.851	-0.218	0.003
-544.281	253.658	0.072	0.125
-543.266	-200.000	-0.006	-0.204
-542.252	-200.000	-0.005	0.183
-541.237	-200.000	0.011	0.065
-540.223	-200.000	0.028	0.132
-539.208	800.000	-0.060	0.221
-538.193	-53.185	-0.140	0.065
-537.179	-79.827	-0.395	0.135
-536.164	-64.045	-0.083	-0.034
-535.150	-200.000	-0.046	-0.312
-534.135	-200.000	0.060	-0.275
-533.121	512.793	-0.125	0.295
-532.106	23.432	-0.058	-0.048
-531.091	21.363	0.222	-0.182
-530.077	-200.000	-0.039	-0.203
-529.062	-69.259	0.246	0.096
-528.048	144.720	0.099	0.133
-527.033	-100.824	-0.164	-0.041
-526.018	27.428	-0.250	-0.213
-525.004	189.047	0.075	-0.114
-523.989	-200.000	0.037	0.306
-522.975	5.106	0.127	-0.095
-521.960	20.094	-0.147	0.120
-520.945	-200.000	-0.033	-0.259
-519.931	149.194	0.060	0.083
-518.916	226.448	0.105	-0.172
-517.902	148.820	0.146	0.200
-516.887	-41.398	-0.226	0.118
-515.872	800.000	-0.110	-0.444
-514.858	172.394	0.202	-0.294
-513.843	-33.589	0.299	0.167
-512.829	565.690	0.061	0.149
-511.814	570.372	0.083	-0.205
-510.799	-64.369	-0.196	-0.081
-509.785	-140.612	-0.378	-0.040
-508.770	82.898	0.098	-0.108
-507.756	-118.673	-0.224	-0.040
-506.741	79.563	0.183	0.199
-505.726	-29.293	-0.030	-0.018
-504.712	29.716	-0.052	-0.045
-503.697	705.465	-0.137	0.367
-502.683	259.931	0.082	0.143
-501.668	-155.443	-0.483	-0.032
-500.653	-86.586	-0.218	-0.068
-499.639	-63.896	0.175	-0.072
-498.624	800.000	-0.073	0.245
-497.610	243.292	-0.025	-0.043
-496.595	97.798	0.018	-0.021
-495.581	-1.346	0.274	-0.196
-494.566	85.221	-0.164	-0.182
-493.551	282.379	0.133	0.241
-492.537	-200.000	-0.031	0.320
-491.522	-200.000	-0.048	0.222
-490.508	-105.686	-0.256	0.059
-489.493	119.069	-0.167	0.209
-488.478	572.157	-0.032	0.079
-487.464	-160.869	-0.221	0.012
-486.449	290.776	0.016	0.029
-485.435	-129.265	0.294	-0.041
-484.420	11.349	0.114	0.089
-483.405	-23.375	-0.207	0.126
-482.391	12.554	0.212	0.165
-481.376	172.103	-0.081	-0.117
-480.362	-63.859	0.140	-0.058
-479.347	5.874	0.303	0.226
-478.332	-124.655	-0.329	-0.052
-477.318	110.006	0.214	-0.260
-476.303	800.000	-0.056	0.166
-475.289	482.546	-0.112	0.257
-474.274	-61.723	-0.045	-0.019
-473.259	-41.671	0.115	0.060
-472.245	226.404	-0.154	0.252
-471.230	-200.000	-0.028	-0.259
-470.216	-95.137	0.142	-0.039
-469.201	-122.128	0.044	0.007
-468.186	10.890	0.254	-0.196
-467.172	800.000	-0.089	-0.382
-466.157	242.772	0.031	0.053
-465.143	158.001	-0.103	-0.145
-464.128	326.874	-0.038	-0.074
-463.113	263.352	0.070	-0.124
-462.099	259.717	-0.137	-0.239
-461.084	333.672	-0.067	0.130
-460.070	-200.000	-0.016	0.137
-459.055	-200.000	-0.015	-0.274
-458.040	-168.211	-0.209	0.008
-457.026	-13.042	-0.177	-0.116
-456.011	532.713	0.027	0.065
-454.997	-89.476	-0.106	-0.031
-453.982	-200.000	-0.028	0.242
-452.968	800.000	0.052	0.188
-451.953	11.536	0.203	-0.157
-450.938	152.232	0.083	0.115
-449.924	800.000	-0.052	0.169
-448.909	-200.000	-0.040	-0.266
-447.895	109.104	-0.110	0.133
-446.880	487.709	-0.004	0.010
-445.865	-108.598	0.185	0.040
-444.851	221.444	0.195	0.316
-443.836	308.158	0.170	-0.321
-442.822	-105.457	0.130	0.030
-441.807	-80.639	0.121	0.041
-440.792	119.411	0.176	0.220
-439.778	-200.000	-0.017	0.197
-438.763	-132.840	0.345	0.044
-437.749	-103.541	-0.330	-0.078
-436.734	-163.467	0.280	0.013
-435.719	22.352	-0.144	-0.119
-434.705	78.918	-0.071	0.077
-433.690	58.111	-0.122	0.120
-432.676	-121.235	0.356	0.060
-431.661	629.787	-0.088	0.223
-430.646	800.000	0.130	-0.486
-429.632	-48.099	0.134	0.066
-428.617	-73.513	-0.263	-0.097
-427.603	800.000	0.052	0.159
-426.588	-15.543	-0.233	-0.150
-425.573	-115.331	0.120	-0.023
-424.559	-163.351	-0.078	-0.004
-423.544	29.765	0.157	0.134
-422.530	-141.685	0.259	-0.026
-421.515	-142.720	0.104	0.010
-420.500	-91.770	0.394	0.113
-419.486	-200.000	-0.032	0.289
-418.471	-14.571	0.080	-0.052
-417.457	800.000	0.047	0.203
-416.442	-18.798	-0.328	0.206
-415.428	45.051	-0.147	0.136
-414.413	-200.000	-0.005	0.043
-413.398	241.987	0.100	-0.168
-412.384	-28.181	-0.187	0.109
-411.369	-200.000	-0.002	0.311
-410.355	-141.496	-0.312	-0.032
-409.340	341.934	-0.042	0.083
-408.325	-145.836	-0.287	-0.026
-407.311	-118.843	0.080	0.014
-406.296	-66.069	0.093	0.038
-405.282	-112.558	0.148	0.030
-404.267	-200.000	-0.031	0.188
-403.252	-161.856	0.177	0.009
-402.238	-200.000	-0.002	0.282
-401.223	800.000	-0.063	-0.257
-400.209	-200.000	-0.036	0.267
-399.194	230.153	0.161	-0.265
-398.179	-200.000	0.014	-0.127
-397.165	-151.676	0.211	-0.016
-396.150	-7.285	0.087	0.059
-395.136	-146.856	-0.378	0.033
-394.121	-11.680	0.243	-0.161
-393.106	-200.000	-0.001	0.034
-392.092	-200.000	0.016	0.141
-391.077	290.623	0.167	-0.305
-390.063	161.039	0.039	0.055
-389.048	192.577	0.141	0.215
-388.033	-58.133	-0.091	-0.040
-387.019	800.000	0.033	-0.113
-386.004	-200.000	-0.014	0.157
-384.990	-81.491	0.017	0.006
-383.975	-200.000	0.036	-0.295
-382.960	-158.163	-0.113	-0.007
-381.946	122.114	0.172	0.217
-380.931	-36.501	0.021	0.012
-379.917	-73.679	0.095	0.035
-378.902	-44.275	-0.062	-0.031
-377.888	390.982	0.100	-0.210
-376.873	5.338	0.090	0.067
-375.858	-154.271	0.337	-0.023
-374.844	405.988	0.139	0.295
-373.829	39.233	0.119	-0.107
-372.815	800.000	0.062	-0.213
-371.800	88.261	0.154	0.172
-370.785	124.115	0.119	0.151
-369.771	-200.000	-0.002	-0.018
-368.756	-14.860	-0.361	0.233
-367.742	-200.000	0.026	-0.180
-366.727	-128.815	-0.380	0.054
-365.712	43.849	-0.164	0.151
-364.698	277.135	0.166	0.297
-363.683	121.078	-0.008	0.010
-362.669	800.000	0.070	-0.270
-361.654	-139.335	0.355	0.038
-360.639	-60.528	0.157	-0.067
-359.625	161.135	-0.133	0.187
-358.610	423.934	-0.151	-0.327
-357.596	-200.000	-0.002	0.156
-356.581	82.354	0.338	0.369
-355.566	-51.302	-0.456	0.215
-354.552	181.213	-0.071	-0.105
-353.537	-200.000	0.004	0.072
-352.523	193.086	-0.057	-0.086
-351.508	262.900	0.099	-0.173
-350.493	-40.648	-0.162	-0.084
-349.479	-200.000	-0.014	-0.321
-348.464	56.046	-0.095	0.093
-347.450	-19.623	0.165	0.102
-346.435	-43.009	0.273	0.139
-345.420	188.002	-0.022	0.033
-344.406	628.433	-0.037	-0.093
-343.391	265.498	-0.114	-0.199
-342.377	22.567	-0.212	-0.175
-341.362	-200.000	-0.013	0.138
-340.348	-144.768	0.146	-0.013
-339.333	150.360	0.113	0.154
-338.318	-14.287	0.170	0.110
-337.304	161.077	-0.032	-0.045
-336.289	-170.551	-0.094	0.003
-335.275	163.919	-0.179	-0.253
-334.260	-200.000	-0.015	0.115
-333.245	79.184	-0.243	-0.262
-332.231	69.006	-0.093	0.096
-331.216	-35.352	0.314	0.171
-330.202	-124.236	0.071	0.011
-329.187	-150.921	0.159	-0.012
-328.172	51.521	-0.088	-0.084
-327.158	-200.000	-0.030	-0.238
-326.143	-28.259	-0.196	-0.114
-325.129	-7.246	0.306	0.208
-324.114	510.023	-0.015	0.036
-323.099	-200.000	-0.014	-0.184
-322.085	133.028	-0.133	0.173
-321.070	800.000	-0.076	0.221
-320.056	-24.516	0.390	0.233
-319.041	-91.894	-0.415	0.118
-318.026	-82.046	-0.244	-0.080
-317.012	-153.055	-0.203	0.014
-315.997	668.737	-0.096	0.248
-314.983	59.646	0.071	-0.070
-313.968	112.860	0.080	0.097
-312.953	70.343	0.082	0.085
-311.939	458.690	0.067	-0.149
-310.924	-12.910	-0.112	-0.073
-309.910	-200.000	-0.049	-0.289
-308.895	-124.436	0.204	0.032
-307.880	310.329	-0.068	0.128
-306.866	-200.000	0.062	0.364
-305.851	366.403	0.031	-0.062
-304.837	-142.596	0.328	0.032
-303.822	-200.000	-0.012	0.343
-302.807	67.482	-0.180	-0.184
-301.793	-200.000	-0.143	-0.000
-300.778	309.711	-0.075	-0.141
-299.764	-22.019	-0.236	0.144
-298.749	64.324	0.150	0.152
-297.735	56.798	0.145	0.142
-296.720	59.166	-0.080	0.079
-295.705	-16.854	0.194	0.123
-294.691	-155.025	0.087	0.006
-293.676	-22.027	0.368	0.224
-292.662	445.071	-0.069	0.153
-291.647	800.000	0.079	0.262
-290.632	78.003	-0.009	0.010
-289.618	64.870	-0.018	0.018
-288.603	-31.609	0.065	0.037
-287.589	-200.000	-0.008	0.267
-286.574	519.088	0.108	0.253
-285.559	-96.951	-0.103	0.027
-284.545	668.725	-0.086	0.224
-283.530	-137.779	-0.356	0.040
-282.516	-200.000	-0.004	-0.267
-281.501	650.017	0.176	-0.451
-280.486	714.690	-0.086	0.229
-279.472	-127.639	0.166	-0.024
-278.457	-26.221	-0.103	-0.061
-277.443	114.593	-0.046	0.056
-276.428	125.933	-0.031	-0.039
-275.413	-200.000	-0.006	0.114
-274.399	-71.064	-0.216	-0.081
-273.384	4.177	0.232	0.171
-272.370	33.820	0.176	0.153
-271.355	267.253	-0.101	-0.177
-270.340	20.116	-0.102	-0.083
-269.326	-200.000	-0.079	-0.396
-268.311	-80.690	0.168	-0.056
-267.297	-55.268	-0.064	-0.029
-266.282	-38.656	0.380	-0.201
-265.267	-200.000	-0.012	0.222
-264.253	800.000	0.095	0.267
-263.238	350.010	0.037	-0.073
-262.224	104.845	-0.134	0.159
-261.209	75.618	0.109	0.115
-260.195	800.000	-0.048	-0.148
-259.180	800.000	0.074	0.301
-258.165	-200.000	0.013	0.092
-257.151	109.420	0.006	-0.008
-256.136	121.548	-0.122	-0.152
-255.122	800.000	-0.047	0.135
-254.107	-155.217	-0.158	0.010
-253.092	-200.000	-0.005	-0.487
-252.078	-158.479	-0.211	0.012
-251.063	800.000	-0.090	0.303
-250.049	9.066	-0.177	0.134
-249.034	-61.106	-0.267	-0.113
-248.019	-141.577	-0.063	0.006
-247.005	-32.271	-0.150	0.084
-245.990	-149.782	-0.043	0.003
-244.976	-82.863	-0.150	0.049
-243.961	26.742	0.113	-0.094
-242.946	91.919	0.222	-0.250
-241.932	-5.660	-0.141	0.097
-240.917	-200.000	-0.015	-0.128
-239.903	-200.000	0.057	-0.324
-238.888	800.000	-0.035	-0.151
-237.873	-2.192	-0.292	-0.205
-236.859	-57.538	0.272	0.119
-235.844	-83.516	0.267	-0.086
-234.830	11.980	0.047	-0.036
-233.815	82.629	-0.151	-0.164
-232.800	800.000	0.038	-0.159
-231.786	212.396	-0.065	-0.103
-230.771	318.020	-0.104	-0.196
-229.757	634.510	-0.091	-0.230
-228.742	633.923	0.082	0.208
-227.727	-89.672	0.204	0.060
-226.713	131.552	0.231	0.297
-225.698	-200.000	0.015	-0.145
-224.684	800.000	-0.037	0.136
-223.669	44.727	-0.079	0.073
-222.655	-58.671	-0.218	0.095
-221.640	-200.000	-0.019	0.229
-220.625	-55.387	0.276	-0.124
-219.611	-8.470	-0.268	-0.180
-218.596	43.566	-0.249	-0.228
-217.582	-200.000	0.044	-0.311
-216.567	13.465	0.133	0.103
-215.552	324.852	0.078	-0.148
-214.538	-165.531	-0.084	-0.004
-213.523	-200.000	-0.011	0.101
-212.509	348.511	0.125	-0.247
-211.494	-200.000	0.043	-0.241
-210.479	259.513	-0.119	-0.205
-209.465	7.856	0.421	-0.316
-208.450	-64.926	-0.182	-0.074
-207.436	-128.393	-0.160	-0.023
-206.421	137.626	-0.140	-0.184
-205.406	800.000	0.065	-0.210
-204.392	-55.850	0.169	-0.075
-203.377	-66.960	0.255	0.101
-202.363	-16.902	0.266	-0.168
-201.348	-164.049	-0.148	-0.007
-200.333	-21.908	0.264	-0.161
-199.319	130.233	0.045	-0.057
-198.304	49.738	0.117	-0.110
-197.290	-88.412	0.237	0.071
-196.275	-54.533	0.259	0.117
-195.260	254.209	0.152	0.260
-194.246	-147.693	0.293	-0.025
-193.231	-71.520	-0.244	-0.091
-192.217	-6.168	-0.015	-0.010
-191.202	602.792	0.189	0.470
-190.187	563.160	-0.044	-0.106
-189.173	-40.822	-0.070	-0.036
-188.158	-168.026	0.314	-0.012
-187.144	-200.000	0.035	-0.377
-186.129	226.238	0.057	0.093
-185.114	800.000	0.030	-0.120
-184.100	-70.086	0.377	0.143
-183.085	162.596	0.175	0.246
-182.071	82.508	0.164	-0.177
-181.056	-200.000	-0.025	0.241
-180.042	800.000	0.029	0.096
-179.027	-145.309	0.083	-0.007
-178.012	-200.000	-0.016	0.322
-176.998	-85.801	0.288	0.089
-175.983	84.439	-0.135	-0.147
-174.969	-114.439	-0.037	0.007
-173.954	-200.000	0.032	0.177
-172.939	250.916	0.143	-0.243
-171.925	-75.541	-0.119	-0.042
-170.910	172.389	-0.089	0.128
-169.896	800.000	0.043	-0.184
-168.881	-58.092	0.167	0.073
-167.866	101.674	-0.094	-0.109
-166.852	-200.000	-0.010	-0.105
-165.837	-51.802	0.143	-0.067
-164.823	7.180	0.368	-0.274
-163.808	-200.000	0.001	-0.220
-162.793	-200.000	0.002	-0.016
-161.779	249.841	0.071	0.121
-160.764	9.558	-0.191	-0.145
-159.750	800.000	0.111	-0.320
-158.735	-148.716	0.136	-0.011
-157.720	-110.699	-0.145	-0.030
-156.706	23.507	-0.125	-0.103
-155.691	-75.560	0.184	0.065
-154.677	360.133	-0.066	-0.132
-153.662	167.539	-0.087	0.123
-152.647	-23.116	0.031	0.018
-151.633	191.524	-0.038	-0.057
-150.618	-95.561	0.244	0.065
-149.604	-109.982	0.035	-0.007
-148.589	800.000	0.101	0.408
-147.574	687.894	0.058	0.151
-146.560	125.926	0.219	-0.276
-145.545	138.028	-0.131	0.172
-144.531	-107.164	0.141	0.031
-143.516	232.165	0.010	0.016
-142.502	20.493	0.059	0.048
-141.487	128.813	-0.178	-0.226
-140.472	128.932	0.138	-0.175
-139.458	-200.000	-0.033	-0.159
-138.443	-148.653	0.483	0.039
-137.429	-72.056	-0.205	0.076
-136.414	-90.258	0.189	-0.055
-135.399	-138.536	-0.080	-0.009
-134.385	49.537	0.062	-0.058
-133.370	-18.830	0.275	-0.171
-132.356	178.393	0.102	-0.148
-131.341	800.000	-0.012	0.049
-130.326	800.000	0.013	0.041
-129.312	-97.363	-0.128	-0.033
-128.297	270.209	0.057	0.101
-127.283	39.369	-0.133	0.119
-126.268	-103.283	-0.228	0.054
-125.253	164.996	0.035	-0.049
-124.239	398.440	0.057	0.119
-123.224	146.322	0.117	0.157
-122.210	-63.747	-0.202	-0.082
-121.195	-102.402	0.230	0.055
