DTS Sentinel unit serial number:	SN413079Multiplexer serial number:	ORYXHardware model number:	OX4-SRSoftware version number:	ORYX F/W v4.00 Oryx Data Collector v3.7.2.0data status	okinstallation	princeton_trtdifferential loss correction	single-endedforward channel	channel 4reverse channel	N/Adate	2019/09/11time	01:19:11forward acquisition time	60.00reverse acquisition time	0.00gamma	496.2192k internal	0.2318k external	0.2318temperature offset calibration	0.9949default loss term (dB/km)	0.3790temperature slope calibration	1.0000multiplexer offset coefficient	1.0000multiplexer slope coefficient	1.0000fibre end	0.00T internal ref (°C)	29.12T ext. ref 1 (°C)	-0.30T ext. ref 2 (°C)	23.17length (m)	temperature (°C)	Stokes	anti-Stokes-747.200	-11.330	0.310	0.206
-746.185	-138.441	0.159	-0.018
-745.171	133.343	0.046	-0.060
-744.156	429.589	-0.171	0.374
-743.142	-200.000	0.003	-0.202
-742.127	-96.541	-0.175	-0.047
-741.112	-11.403	-0.405	-0.270
-740.098	-115.144	-0.113	-0.022
-739.083	-144.498	0.315	-0.029
-738.069	28.129	0.137	0.117
-737.054	-200.000	0.011	0.145
-736.039	4.402	-0.184	-0.137
-735.025	90.046	0.129	-0.146
-734.010	134.006	-0.098	-0.128
-732.996	-78.495	0.144	0.050
-731.981	-200.000	0.008	0.062
-730.966	469.089	-0.111	-0.253
-729.952	800.000	-0.033	-0.127
-728.937	-200.000	0.057	-0.279
-727.923	-121.156	-0.235	0.040
-726.908	-71.460	0.179	0.068
-725.894	-122.559	0.006	0.001
-724.879	48.090	0.221	-0.209
-723.864	-200.000	-0.042	-0.282
-722.850	318.108	0.049	-0.093
-721.835	254.477	0.044	-0.076
-720.821	-107.815	-0.049	0.011
-719.806	-108.660	-0.195	0.042
-718.791	-164.884	-0.222	-0.010
-717.777	270.201	-0.114	-0.202
-716.762	-200.000	0.068	-0.303
-715.748	305.635	-0.161	-0.302
-714.733	3.612	0.175	0.129
-713.718	782.596	-0.029	-0.079
-712.704	145.368	-0.048	0.064
-711.689	-55.676	0.073	0.033
-710.675	-200.000	0.007	-0.184
-709.660	-87.168	-0.053	0.016
-708.645	141.838	-0.154	-0.206
-707.631	287.025	0.123	0.224
-706.616	-150.309	-0.230	-0.018
-705.602	-200.000	0.031	-0.331
-704.587	-57.276	0.159	-0.070
-703.572	-200.000	-0.020	0.160
-702.558	455.057	0.040	-0.089
-701.543	800.000	-0.069	-0.258
-700.529	155.295	-0.089	0.123
-699.514	-68.948	-0.069	0.027
-698.499	150.688	0.123	0.169
-697.485	-106.320	-0.069	-0.016
-696.470	-55.910	0.404	0.182
-695.456	644.125	-0.018	-0.047
-694.441	-157.575	-0.477	0.029
-693.426	-60.924	0.223	0.095
-692.412	190.811	-0.114	-0.173
-691.397	-153.085	-0.154	-0.011
-690.383	-151.893	-0.312	0.023
-689.368	-125.758	0.265	0.040
-688.354	416.379	0.056	0.121
-687.339	800.000	-0.029	-0.103
-686.324	-116.823	-0.089	-0.016
-685.310	-200.000	0.071	0.508
-684.295	800.000	-0.068	-0.297
-683.281	-200.000	-0.052	-0.297
-682.266	-137.022	-0.295	-0.034
-681.251	-200.000	0.023	0.264
-680.237	-200.000	-0.042	-0.420
-679.222	122.412	-0.065	0.082
-678.208	-1.343	0.293	0.209
-677.193	241.051	-0.082	-0.139
-676.178	104.498	-0.041	-0.048
-675.164	800.000	-0.181	0.571
-674.149	-200.000	0.062	0.353
-673.135	-39.068	0.225	0.120
-672.120	-175.580	0.126	0.003
-671.105	-93.615	-0.257	-0.072
-670.091	550.278	0.185	-0.447
-669.076	383.972	-0.054	-0.113
-668.062	14.407	0.400	-0.315
-667.047	-3.855	0.050	0.035
-666.032	6.160	0.235	-0.176
-665.018	0.667	-0.042	-0.030
-664.003	18.771	-0.313	-0.253
-662.989	-18.661	0.121	0.076
-661.974	-200.000	-0.044	-0.214
-660.959	800.000	0.058	-0.231
-659.945	21.590	-0.172	-0.141
-658.930	-175.608	0.302	-0.008
-657.916	-119.522	0.115	0.020
-656.901	205.657	-0.228	0.358
-655.886	111.844	0.140	0.170
-654.872	58.660	0.053	-0.053
-653.857	114.074	0.057	-0.070
-652.843	-132.257	-0.100	-0.013
-651.828	350.379	0.264	-0.527
-650.814	-3.134	0.257	-0.181
-649.799	-200.000	0.031	-0.170
-648.784	41.671	-0.037	0.034
-647.770	-200.000	0.038	-0.192
-646.755	2.357	-0.131	-0.096
-645.741	-104.243	0.165	-0.039
-644.726	145.747	-0.201	-0.272
-643.711	-115.910	0.195	-0.037
-642.697	-200.000	0.023	0.268
-641.682	-71.960	-0.368	-0.138
-640.668	-94.033	0.136	-0.037
-639.653	58.295	-0.138	0.137
-638.638	800.000	0.143	-0.401
-637.624	-25.459	0.076	0.045
-636.609	-178.171	0.196	0.005
-635.595	-200.000	0.001	0.057
-634.580	800.000	0.120	0.430
-633.565	-106.293	0.220	-0.050
-632.551	-153.298	-0.136	-0.010
-631.536	-97.554	-0.155	-0.041
-630.522	-59.179	-0.319	-0.139
-629.507	122.489	0.124	0.156
-628.492	-89.701	-0.187	-0.055
-627.478	-200.000	-0.147	-0.000
-626.463	-27.469	0.166	-0.097
-625.449	450.873	0.133	-0.296
-624.434	-12.361	0.252	-0.166
-623.419	-72.959	-0.075	-0.028
-622.405	-64.149	-0.230	-0.094
-621.390	151.912	-0.082	-0.113
-620.376	498.774	-0.029	-0.066
-619.361	94.666	-0.165	-0.189
-618.346	-200.000	-0.026	0.334
-617.332	119.453	-0.230	0.287
-616.317	-101.141	-0.185	0.046
-615.303	46.460	0.118	0.111
-614.288	447.607	0.114	-0.252
-613.273	123.395	0.142	-0.180
-612.259	255.081	-0.077	-0.132
-611.244	136.250	0.122	0.160
-610.230	-30.461	-0.058	0.033
-609.215	-200.000	0.018	-0.099
-608.201	35.305	-0.225	-0.199
-607.186	-91.046	-0.387	0.112
-606.171	800.000	-0.025	0.085
-605.157	-92.483	0.273	-0.077
-604.142	114.088	-0.220	-0.269
-603.128	7.640	-0.242	0.182
-602.113	-8.082	0.110	-0.074
-601.098	199.713	-0.015	0.024
-600.084	93.510	0.252	0.287
-599.069	-73.993	-0.156	-0.057
-598.055	-200.000	-0.024	0.187
-597.040	92.301	0.060	0.068
-596.025	-147.573	-0.179	0.015
-595.011	-65.680	0.387	-0.156
-593.996	-29.919	0.165	0.095
-592.982	-43.843	0.215	-0.109
-591.967	-59.944	0.177	-0.076
-590.952	-137.040	0.033	0.004
-589.938	114.892	-0.115	-0.141
-588.923	54.266	0.188	-0.182
-587.909	563.529	0.111	0.271
-586.894	12.186	0.092	0.072
-585.879	800.000	-0.067	0.265
-584.865	28.945	-0.200	0.171
-583.850	-200.000	0.063	-0.296
-582.836	7.272	0.086	-0.065
-581.821	-135.338	0.257	0.031
-580.806	387.055	0.114	-0.237
-579.792	800.000	-0.093	-0.266
-578.777	-32.431	-0.031	0.017
-577.763	-48.958	0.139	0.067
-576.748	137.274	-0.161	-0.212
-575.733	-22.358	0.146	-0.089
-574.719	-164.303	-0.150	-0.007
-573.704	-200.000	0.041	0.306
-572.690	800.000	-0.063	-0.211
-571.675	-200.000	-0.019	-0.141
-570.661	327.449	0.153	-0.294
-569.646	230.554	0.143	0.235
-568.631	-4.332	-0.170	-0.118
-567.617	-200.000	-0.002	0.082
-566.602	-200.000	-0.019	0.149
-565.588	-200.000	0.002	0.013
-564.573	246.411	0.066	-0.111
-563.558	391.203	-0.064	-0.134
-562.544	-112.629	-0.394	-0.079
-561.529	125.120	0.128	-0.162
-560.515	69.969	0.032	-0.033
-559.500	38.452	-0.123	0.110
-558.485	225.102	0.206	0.336
-557.471	800.000	-0.026	0.106
-556.456	-147.608	-0.105	-0.009
-555.442	115.906	0.161	-0.198
-554.427	-16.017	-0.133	-0.085
-553.412	204.194	0.222	-0.346
-552.398	-200.000	0.001	-0.247
-551.383	76.972	0.226	-0.241
-550.369	-30.017	-0.154	0.088
-549.354	-200.000	0.010	-0.242
-548.339	-109.321	0.221	0.047
-547.325	-36.845	-0.107	-0.058
-546.310	-200.000	-0.004	-0.134
-545.296	-7.835	0.121	-0.082
-544.281	-32.326	0.149	-0.084
-543.266	203.341	-0.183	0.284
-542.252	0.506	0.291	0.209
-541.237	800.000	0.111	-0.343
-540.223	-200.000	-0.028	0.141
-539.208	182.428	0.178	0.263
-538.193	-200.000	-0.010	-0.106
-537.179	-51.809	0.321	-0.150
-536.164	-39.102	0.039	-0.020
-535.150	-46.107	-0.124	0.061
-534.135	800.000	-0.076	-0.286
-533.121	-83.261	-0.463	-0.149
-532.106	42.892	-0.115	0.105
-531.091	-200.000	-0.035	0.155
-530.077	-2.614	0.208	-0.146
-529.062	-200.000	0.072	0.345
-528.048	-200.000	0.008	-0.095
-527.033	-144.120	-0.059	0.006
-526.018	-51.090	-0.128	0.060
-525.004	-200.000	0.004	0.202
-523.989	800.000	-0.026	0.098
-522.975	12.895	-0.151	0.117
-521.960	-200.000	0.057	0.262
-520.945	336.571	-0.036	0.071
-519.931	-200.000	-0.014	-0.222
-518.916	469.043	-0.060	-0.134
-517.902	-110.624	0.101	-0.021
-516.887	154.425	0.194	-0.267
-515.872	142.665	-0.192	-0.256
-514.858	357.633	0.174	-0.348
-513.843	31.753	0.092	-0.080
-512.829	-36.253	-0.152	-0.082
-511.814	1.850	-0.202	-0.146
-510.799	154.588	-0.239	0.329
-509.785	185.629	-0.192	-0.286
-508.770	33.145	0.238	-0.207
-507.756	-51.284	-0.169	0.079
-506.741	-72.367	-0.129	0.048
-505.726	-62.722	0.161	0.067
-504.712	-81.228	0.083	0.027
-503.697	2.210	-0.220	0.160
-502.683	800.000	0.033	-0.095
-501.668	118.094	-0.141	-0.174
-500.653	-144.062	0.279	-0.026
-499.639	-42.550	0.393	0.201
-498.624	126.958	0.086	-0.110
-497.610	-1.446	0.209	0.148
-496.595	-200.000	-0.008	-0.222
-495.581	-200.000	0.051	0.266
-494.566	-200.000	0.006	-0.167
-493.551	432.389	-0.074	0.162
-492.537	-38.370	0.056	0.029
-491.522	-39.248	-0.167	-0.088
-490.508	86.885	0.236	0.261
-489.493	-73.663	0.161	0.059
-488.478	-200.000	0.050	-0.293
-487.464	155.753	-0.329	-0.455
-486.449	-134.147	-0.085	-0.010
-485.435	-115.600	0.036	-0.007
-484.420	428.852	-0.029	0.063
-483.405	-29.831	-0.056	-0.032
-482.391	-29.524	0.167	-0.096
-481.376	51.804	0.221	0.211
-480.362	520.159	-0.042	-0.099
-479.347	27.839	0.162	0.137
-478.332	-125.230	-0.175	0.027
-477.318	748.170	-0.109	-0.293
-476.303	-7.280	0.191	-0.129
-475.289	800.000	-0.041	0.154
-474.274	509.707	0.125	-0.290
-473.259	-155.482	0.201	-0.013
-472.245	616.187	-0.146	0.368
-471.230	-67.981	0.129	0.050
-470.216	-137.388	-0.417	-0.047
-469.201	-200.000	0.029	-0.155
-468.186	143.371	0.126	-0.167
-467.172	116.188	0.192	0.236
-466.157	-15.306	0.376	0.241
-465.143	-77.184	0.107	0.037
-464.128	-200.000	-0.025	-0.498
-463.113	693.311	-0.185	-0.486
-462.099	45.425	0.241	-0.222
-461.084	-116.737	0.094	0.017
-460.070	-0.955	0.095	0.067
-459.055	800.000	-0.097	0.358
-458.040	7.858	0.274	0.206
-457.026	-7.122	0.189	-0.129
-456.011	-27.840	0.258	0.149
-454.997	86.237	-0.160	0.176
-453.982	-200.000	0.004	0.299
-452.968	-113.787	0.151	0.029
-451.953	224.228	0.062	-0.101
-450.938	397.617	-0.047	0.098
-449.924	800.000	-0.039	-0.149
-448.909	-114.262	-0.092	0.018
-447.895	-157.136	0.172	0.010
-446.880	-15.622	-0.086	0.055
-445.865	39.030	0.203	-0.181
-444.851	102.513	-0.099	0.116
-443.836	-54.041	0.194	-0.088
-442.822	117.651	-0.108	-0.133
-441.807	123.554	0.176	0.221
-440.792	-117.316	0.270	-0.049
-439.778	-97.187	-0.356	-0.093
-438.763	251.422	0.034	-0.058
-437.749	800.000	-0.012	0.035
-436.734	-127.087	-0.202	0.030
-435.719	121.739	0.259	0.323
-434.705	-150.838	-0.381	0.029
-433.690	-39.353	-0.215	-0.113
-432.676	10.867	0.079	0.060
-431.661	256.346	-0.033	-0.056
-430.646	141.776	0.112	-0.149
-429.632	-11.030	0.127	0.084
-428.617	-79.508	0.392	0.132
-427.603	-30.304	-0.129	-0.073
-426.588	-114.863	-0.162	0.031
-425.573	154.976	-0.350	-0.480
-424.559	-82.119	0.244	-0.080
-423.544	-38.957	-0.158	0.083
-422.530	90.095	0.040	-0.045
-421.515	-200.000	0.028	-0.345
-420.500	800.000	0.116	0.395
-419.486	-200.000	0.006	-0.163
-418.471	23.059	-0.033	-0.027
-417.457	162.326	0.146	0.205
-416.442	-104.806	0.368	-0.084
-415.428	7.516	-0.143	-0.107
-414.413	155.141	0.450	-0.618
-413.398	-0.293	0.251	0.178
-412.384	-200.000	0.050	0.333
-411.369	682.212	0.171	0.446
-410.355	119.014	0.023	-0.029
-409.340	34.945	-0.277	0.242
-408.325	-200.000	0.014	-0.095
-407.311	513.423	0.088	0.204
-406.296	-200.000	0.040	-0.432
-405.282	-73.180	-0.148	-0.054
-404.267	246.904	0.139	0.234
-403.252	-200.000	0.000	-0.148
-402.238	-61.770	-0.180	-0.075
-401.223	800.000	0.112	-0.400
-400.209	66.182	-0.120	0.122
-399.194	41.343	0.244	-0.221
-398.179	-128.857	0.479	0.067
-397.165	-12.904	-0.065	0.042
-396.150	45.845	-0.224	-0.207
-395.136	42.444	-0.220	-0.200
-394.121	279.369	-0.199	-0.354
-393.106	-120.783	-0.076	-0.013
-392.092	91.677	-0.298	0.335
-391.077	-200.000	-0.009	-0.246
-390.063	-100.447	0.238	-0.059
-389.048	499.504	0.091	0.210
-388.033	21.724	0.100	-0.081
-387.019	800.000	-0.027	-0.102
-386.004	373.013	0.039	0.079
-384.990	-200.000	-0.055	0.252
-383.975	316.963	0.122	0.230
-382.960	-200.000	-0.034	0.181
-381.946	-200.000	-0.000	0.306
-380.931	-200.000	-0.032	0.242
-379.917	-68.810	0.097	0.037
-378.902	-92.043	0.113	0.032
-377.888	-145.174	0.087	0.008
-376.873	-200.000	-0.024	0.143
-375.858	2.216	-0.147	0.106
-374.844	-200.000	-0.040	-0.215
-373.829	90.125	-0.186	0.207
-372.815	-51.481	0.186	0.087
-371.800	-86.871	-0.184	0.056
-370.785	74.540	0.074	0.078
-369.771	-37.381	-0.237	0.126
-368.756	-47.215	0.222	-0.108
-367.742	42.533	0.156	0.142
-366.727	335.579	0.077	-0.149
-365.712	525.429	-0.123	-0.289
-364.698	200.189	-0.234	0.359
-363.683	157.614	0.090	0.125
-362.669	800.000	-0.088	0.244
-361.654	142.601	-0.137	0.182
-360.639	-200.000	0.050	-0.223
-359.625	-150.212	0.209	-0.016
-358.610	171.740	0.057	0.081
-357.596	421.779	0.052	-0.112
-356.581	-160.864	0.196	-0.010
-355.566	-63.235	-0.185	-0.076
-354.552	288.967	-0.151	0.273
-353.537	-141.311	0.184	0.019
-352.523	-89.245	-0.326	0.096
-351.508	106.947	0.137	-0.163
-350.493	-200.000	-0.006	-0.079
-349.479	800.000	-0.051	-0.158
-348.464	28.456	-0.113	0.095
-347.450	24.170	0.172	-0.141
-346.435	153.876	0.135	0.185
-345.420	-200.000	-0.038	-0.179
-344.406	-138.951	0.132	0.014
-343.391	4.903	0.180	0.132
-342.377	-183.975	0.121	-0.002
-341.362	-200.000	0.041	-0.224
-340.348	-183.456	-0.383	-0.007
-339.333	-20.108	0.046	-0.028
-338.318	-48.963	-0.190	0.090
-337.304	-200.000	0.036	-0.166
-336.289	-200.000	0.014	0.137
-335.275	-200.000	-0.033	0.190
-334.260	-61.739	0.118	0.049
-333.245	-99.246	-0.142	0.036
-332.231	-112.357	0.091	-0.018
-331.216	134.264	0.124	0.160
-330.202	-24.967	-0.189	0.112
-329.187	-166.674	0.229	-0.009
-328.172	-200.000	0.003	0.106
-327.158	800.000	-0.027	0.088
-326.143	800.000	-0.081	-0.226
-325.129	800.000	0.099	0.300
-324.114	14.049	0.202	-0.156
-323.099	168.201	-0.042	0.060
-322.085	-61.403	-0.396	0.166
-321.070	115.807	0.054	-0.065
-320.056	-2.449	-0.109	0.076
-319.041	499.090	-0.129	-0.297
-318.026	-18.852	-0.185	0.115
-317.012	196.697	0.128	0.194
-315.997	-29.002	-0.331	-0.189
-314.983	72.429	0.208	0.216
-313.968	361.065	-0.088	-0.176
-312.953	-200.000	0.009	-0.190
-311.939	-127.376	0.264	0.038
-310.924	-200.000	0.013	-0.435
-309.910	-200.000	-0.019	-0.340
-308.895	800.000	-0.055	0.220
-307.880	-75.929	0.227	0.080
-306.866	-200.000	0.016	-0.160
-305.851	-99.375	0.067	-0.017
-304.837	311.873	-0.171	0.320
-303.822	800.000	0.065	-0.180
-302.807	232.776	0.061	0.099
-301.793	615.889	-0.122	0.304
-300.778	-145.101	0.217	0.020
-299.764	228.866	-0.313	0.508
-298.749	-63.371	0.336	-0.137
-297.735	800.000	-0.133	0.378
-296.720	8.673	-0.241	0.181
-295.705	-166.207	-0.302	-0.013
-294.691	-200.000	-0.006	-0.197
-293.676	800.000	0.072	0.210
-292.662	-184.257	-0.233	-0.004
-291.647	800.000	-0.050	-0.152
-290.632	405.362	-0.154	-0.323
-289.618	-141.111	0.137	-0.014
-288.603	9.776	0.123	0.093
-287.589	210.140	0.059	0.092
-286.574	-190.661	-0.415	-0.004
-285.559	-200.000	0.049	-0.287
-284.545	800.000	0.084	0.356
-283.530	26.409	0.014	-0.012
-282.516	-200.000	-0.016	-0.133
-281.501	459.176	0.079	0.174
-280.486	36.008	-0.167	-0.146
-279.472	18.575	-0.314	0.249
-278.457	-112.124	0.223	0.045
-277.443	-130.153	-0.055	0.007
-276.428	-48.148	0.382	-0.183
-275.413	-83.421	-0.139	0.044
-274.399	-105.773	0.124	-0.028
-273.384	280.972	-0.097	-0.172
-272.370	255.464	0.076	-0.130
-271.355	657.828	0.020	0.052
-270.340	-191.408	-0.093	0.001
-269.326	-200.000	-0.042	-0.205
-268.311	-31.981	-0.295	0.164
-267.297	220.797	0.083	0.132
-266.282	-40.080	-0.265	0.137
-265.267	-200.000	0.003	-0.251
-264.253	-200.000	-0.009	-0.134
-263.238	261.220	-0.103	0.177
-262.224	-64.945	-0.230	0.092
-261.209	507.287	0.109	-0.251
-260.195	-100.591	-0.298	-0.073
-259.180	10.908	-0.094	0.071
-258.165	-4.748	-0.328	0.225
-257.151	800.000	-0.032	-0.114
-256.136	-200.000	-0.041	-0.449
-255.122	-102.803	-0.061	-0.014
-254.107	307.791	-0.072	-0.133
-253.092	-80.911	0.171	-0.056
-252.078	-57.717	-0.259	0.112
-251.063	-200.000	-0.033	0.241
-250.049	-200.000	-0.096	0.423
-249.034	-31.441	0.412	0.230
-248.019	-97.587	-0.103	0.026
-247.005	62.882	-0.103	0.102
-245.990	800.000	-0.093	0.326
-244.976	22.114	0.233	0.189
-243.961	48.083	-0.127	0.118
-242.946	-7.341	-0.192	0.129
-241.932	-81.665	0.220	-0.072
-240.917	800.000	-0.018	-0.063
-239.903	-200.000	-0.023	0.107
-238.888	800.000	-0.137	-0.421
-237.873	-146.660	0.128	0.011
-236.859	-99.441	0.130	-0.032
-235.844	-31.958	0.146	-0.081
-234.830	-88.613	0.116	0.034
-233.815	48.653	-0.118	-0.110
-232.800	-99.451	0.237	-0.059
-231.786	46.165	0.151	0.139
-230.771	-200.000	-0.040	0.233
-229.757	-25.101	-0.135	0.080
-228.742	761.997	0.071	-0.191
-227.727	-30.631	0.303	0.170
-226.713	498.596	0.129	0.295
-225.698	26.562	0.065	-0.054
-224.684	-46.039	-0.178	-0.087
-223.669	800.000	0.030	-0.109
-222.655	-121.979	0.259	-0.042
-221.640	800.000	0.071	0.227
-220.625	-200.000	0.018	0.098
-219.611	-97.598	0.388	-0.100
-218.596	-153.462	-0.113	0.008
-217.582	-137.061	-0.246	-0.028
-216.567	-141.475	-0.405	-0.041
-215.552	-4.337	-0.120	0.083
-214.538	-134.394	-0.195	-0.024
-213.523	-200.000	0.020	0.125
-212.509	-13.626	0.288	-0.185
-211.494	-200.000	-0.007	-0.289
-210.479	18.537	-0.087	0.069
-209.465	-102.131	-0.429	0.102
-208.450	-67.272	0.213	0.083
-207.436	161.748	-0.196	0.272
-206.421	-87.215	-0.473	-0.142
-205.406	153.869	-0.200	-0.271
-204.392	-200.000	-0.004	-0.086
-203.377	800.000	-0.041	0.117
-202.363	46.276	-0.339	-0.311
-201.348	800.000	-0.097	-0.318
-200.333	504.763	-0.091	-0.209
-199.319	109.627	0.039	0.047
-198.304	-48.310	0.288	-0.138
-197.290	603.430	-0.136	0.336
-196.275	-7.122	0.254	0.171
-195.260	90.946	0.260	-0.288
-194.246	-29.235	0.305	-0.173
-193.231	138.258	-0.021	0.028
-192.217	187.283	-0.046	0.069
-191.202	12.927	0.111	0.085
-190.187	273.151	0.236	-0.414
-189.173	-61.339	-0.046	0.019
-188.158	204.071	-0.198	0.303
-187.144	-200.000	-0.036	0.293
-186.129	-170.349	-0.229	-0.008
-185.114	-200.000	0.003	0.100
-184.100	-139.104	0.304	-0.033
-183.085	-115.602	-0.395	0.074
-182.071	110.818	-0.201	0.240
-181.056	-0.525	-0.090	-0.063
-180.042	187.213	-0.142	0.209
-179.027	617.560	-0.090	0.224
-178.012	-4.826	-0.263	0.180
-176.998	288.581	-0.162	0.291
-175.983	-200.000	0.033	0.369
-174.969	267.210	0.087	0.151
-173.954	97.695	-0.236	0.269
-172.939	125.224	0.055	0.069
-171.925	45.889	0.125	-0.115
-170.910	-121.816	-0.320	-0.052
-169.896	26.868	0.119	0.099
-168.881	800.000	0.090	0.253
-167.866	19.437	-0.152	0.121
-166.852	-200.000	0.004	-0.038
-165.837	306.092	0.168	0.310
-164.823	124.545	0.201	-0.250
-163.808	42.687	-0.079	0.071
-162.793	-67.067	0.155	0.060
-161.779	39.951	0.172	-0.153
-160.764	-20.145	0.209	-0.128
-159.750	-115.336	-0.513	0.096
-158.735	-200.000	0.002	0.244
-157.720	-0.380	0.053	-0.037
-156.706	-106.489	-0.250	-0.055
-155.691	-9.344	-0.303	0.200
-154.677	-18.834	0.137	-0.084
-153.662	225.636	0.221	-0.354
-152.647	-91.161	0.136	-0.039
-151.633	17.689	-0.105	-0.083
-150.618	302.593	0.016	-0.029
-149.604	195.622	0.095	-0.143
-148.589	-84.426	-0.293	0.091
-147.574	367.718	0.078	-0.156
-146.560	-82.944	0.086	0.027
-145.545	-200.000	-0.015	-0.244
-144.531	9.029	-0.130	-0.097
-143.516	-86.161	0.033	-0.010
-142.502	-150.512	-0.110	0.008
-141.487	-200.000	-0.024	-0.129
-140.472	-33.888	0.054	-0.030
-139.458	3.738	0.361	-0.261
-138.443	220.600	-0.034	-0.054
-137.429	-21.671	0.133	0.080
-136.414	800.000	-0.056	-0.229
-135.399	143.818	0.096	-0.127
-134.385	-40.802	-0.136	0.070
-133.370	227.104	0.046	-0.075
-132.356	800.000	0.076	-0.222
-131.341	-117.425	0.260	0.047
-130.326	-183.262	-0.340	-0.006
-129.312	-50.982	-0.168	-0.078
-128.297	178.891	-0.067	0.096
-127.283	800.000	-0.072	-0.261
-126.268	247.803	0.074	-0.124
-125.253	449.076	-0.041	0.090
-124.239	-132.130	0.071	0.009
-123.224	-32.320	-0.361	0.199
-122.210	117.171	0.114	0.139
-121.195	-122.618	0.208	-0.033
