DTS Sentinel unit serial number:	SN413079Multiplexer serial number:	ORYXHardware model number:	OX4-SRSoftware version number:	ORYX F/W v4.00 Oryx Data Collector v3.7.2.0data status	okinstallation	princeton_trtdifferential loss correction	single-endedforward channel	channel 4reverse channel	N/Adate	2019/09/18time	09:41:34forward acquisition time	60.00reverse acquisition time	0.00gamma	496.2192k internal	0.2321k external	0.2321temperature offset calibration	0.9983default loss term (dB/km)	0.3790temperature slope calibration	1.0000multiplexer offset coefficient	1.0000multiplexer slope coefficient	1.0000fibre end	0.00T internal ref (°C)	26.78T ext. ref 1 (°C)	0.28T ext. ref 2 (°C)	23.38length (m)	temperature (°C)	Stokes	anti-Stokes-747.200	-14.247	0.110	0.072
-746.185	-200.000	-0.134	0.671
-745.171	-200.000	0.002	0.127
-744.156	-56.338	-0.150	0.067
-743.142	-164.555	0.218	0.010
-742.127	89.260	-0.107	0.121
-741.112	174.872	0.065	0.095
-740.098	-34.596	0.206	0.114
-739.083	-157.422	-0.301	0.018
-738.069	-166.178	0.268	0.011
-737.054	-36.786	-0.082	0.045
-736.039	-24.965	-0.336	-0.201
-735.025	479.103	0.140	0.321
-734.010	45.824	-0.286	0.267
-732.996	292.168	-0.049	0.090
-731.981	-200.000	-0.046	0.203
-730.966	14.653	-0.046	-0.037
-729.952	-106.232	-0.394	0.089
-728.937	309.016	-0.060	-0.113
-727.923	48.234	-0.147	-0.139
-726.908	-39.341	-0.070	-0.037
-725.894	800.000	0.049	-0.207
-724.879	68.534	0.079	0.082
-723.864	56.385	-0.232	0.228
-722.850	552.672	-0.025	-0.061
-721.835	132.729	0.185	0.240
-720.821	-200.000	-0.040	-0.189
-719.806	92.345	0.050	0.057
-718.791	-126.204	-0.393	-0.059
-717.777	-200.000	0.030	-0.155
-716.762	254.644	-0.226	0.391
-715.748	-107.502	-0.287	-0.063
-714.733	-29.290	0.113	-0.066
-713.718	-46.922	0.205	0.101
-712.704	196.816	-0.147	-0.226
-711.689	90.180	0.135	0.152
-710.675	180.872	-0.137	-0.203
-709.660	800.000	-0.024	-0.071
-708.645	-101.494	-0.206	-0.051
-707.631	-163.130	-0.333	0.016
-706.616	-76.610	0.423	0.150
-705.602	-7.887	-0.281	0.191
-704.587	-103.488	-0.135	0.032
-703.572	-24.377	0.145	-0.087
-702.558	128.743	-0.051	0.065
-701.543	49.341	0.173	-0.164
-700.529	200.736	-0.075	0.116
-699.514	-59.263	0.084	0.037
-698.499	34.170	-0.158	0.139
-697.485	-200.000	-0.008	0.350
-696.470	-88.524	0.368	-0.111
-695.456	-63.662	0.131	0.054
-694.441	127.421	0.058	0.074
-693.426	-135.837	-0.120	0.014
-692.412	-200.000	0.044	-0.371
-691.397	491.158	-0.067	0.154
-690.383	-47.378	0.261	0.128
-689.368	9.776	-0.191	-0.146
-688.354	155.527	-0.109	0.151
-687.339	783.939	0.047	0.129
-686.324	128.657	-0.161	-0.207
-685.310	106.657	-0.336	0.402
-684.295	765.295	-0.067	0.183
-683.281	-200.000	0.008	0.258
-682.266	251.525	0.027	-0.046
-681.251	-200.000	-0.013	-0.361
-680.237	725.676	-0.139	-0.375
-679.222	19.277	0.058	0.047
-678.208	102.736	0.240	0.283
-677.193	604.343	-0.101	0.253
-676.178	17.853	-0.377	-0.303
-675.164	-100.547	0.168	0.042
-674.149	45.989	-0.193	0.180
-673.135	6.662	0.092	0.069
-672.120	759.158	0.102	-0.278
-671.105	179.361	0.177	0.261
-670.091	178.086	-0.147	-0.217
-669.076	-98.108	0.188	-0.049
-668.062	266.455	-0.153	0.270
-667.047	-66.981	0.260	-0.104
-666.032	-88.297	0.046	-0.014
-665.018	-121.259	-0.221	-0.037
-664.003	-133.306	0.201	-0.026
-662.989	800.000	-0.022	-0.086
-661.974	26.311	-0.221	0.186
-660.959	-200.000	-0.032	0.178
-659.945	-121.120	-0.245	0.041
-658.930	-52.600	0.157	0.073
-657.916	162.470	-0.036	-0.050
-656.901	-138.783	-0.315	-0.035
-655.886	-127.317	0.385	0.057
-654.872	2.224	0.219	-0.160
-653.857	431.553	-0.047	-0.103
-652.843	-125.728	-0.344	0.052
-651.828	-200.000	0.029	0.255
-650.814	637.612	-0.137	-0.351
-649.799	-80.351	0.273	-0.092
-648.784	6.968	-0.188	0.141
-647.770	36.874	0.044	-0.040
-646.755	-200.000	-0.023	0.143
-645.741	133.828	-0.206	0.268
-644.726	-128.510	0.126	0.018
-643.711	-6.257	0.147	0.101
-642.697	126.580	-0.135	-0.172
-641.682	2.998	-0.121	-0.088
-640.668	385.859	-0.120	-0.249
-639.653	-50.964	0.194	-0.092
-638.638	-98.636	0.198	-0.051
-637.624	-200.000	-0.001	0.052
-636.609	-69.947	-0.358	0.137
-635.595	-200.000	0.039	0.211
-634.580	353.069	0.030	0.061
-633.565	800.000	-0.051	-0.163
-632.551	61.402	0.088	0.088
-631.536	264.271	0.077	0.135
-630.522	469.018	0.040	-0.091
-629.507	496.500	0.059	-0.136
-628.492	23.514	0.240	0.199
-627.478	117.144	-0.021	-0.026
-626.463	-78.358	0.121	-0.042
-625.449	5.996	-0.175	-0.130
-624.434	397.643	-0.054	-0.113
-623.419	237.165	0.042	0.069
-622.405	-1.442	-0.415	-0.295
-621.390	574.286	0.178	0.438
-620.376	794.154	0.044	-0.121
-619.361	-97.184	0.188	0.049
-618.346	800.000	0.098	0.292
-617.332	207.304	0.199	0.311
-616.317	-200.000	-0.026	0.342
-615.303	293.102	0.256	-0.471
-614.288	-200.000	-0.022	-0.386
-613.273	-89.968	-0.282	0.083
-612.259	-200.000	0.017	-0.203
-611.244	-74.947	0.119	0.043
-610.230	-172.416	-0.057	0.002
-609.215	30.926	-0.187	-0.162
-608.201	800.000	0.058	0.235
-607.186	687.305	0.053	-0.139
-606.171	132.347	-0.084	-0.109
-605.157	-200.000	-0.052	-0.362
-604.142	800.000	-0.057	0.233
-603.128	-200.000	-0.027	0.229
-602.113	163.444	-0.086	0.121
-601.098	107.022	0.160	0.191
-600.084	95.704	0.131	-0.150
-599.069	348.786	0.204	0.405
-598.055	-67.596	0.165	-0.065
-597.040	-110.328	-0.100	0.021
-596.025	-67.530	0.163	-0.064
-595.011	353.045	-0.041	0.081
-593.996	286.807	-0.267	0.485
-592.982	-96.391	0.227	-0.060
-591.967	604.924	0.078	-0.195
-590.952	628.704	-0.036	-0.091
-589.938	-129.064	-0.334	0.047
-588.923	82.438	-0.036	-0.039
-587.909	800.000	-0.067	0.210
-586.894	-30.962	0.377	-0.214
-585.879	-200.000	0.016	-0.114
-584.865	800.000	-0.077	-0.235
-583.850	-200.000	0.002	-0.264
-582.836	-200.000	0.011	-0.061
-581.821	-200.000	-0.039	-0.361
-580.806	-132.436	-0.339	-0.044
-579.792	-111.630	-0.192	0.039
-578.777	23.856	0.157	0.130
-577.763	-129.038	0.166	0.023
-576.748	-9.166	0.136	0.091
-575.733	-76.076	-0.226	-0.080
-574.719	128.651	-0.130	0.166
-573.704	30.419	-0.155	-0.133
-572.690	623.555	0.085	0.214
-571.675	341.819	-0.047	0.091
-570.661	119.161	0.053	-0.066
-569.646	-129.304	-0.110	0.015
-568.631	-168.545	-0.071	0.003
-567.617	266.372	0.136	-0.239
-566.602	-21.016	-0.154	0.094
-565.588	-105.415	-0.293	-0.067
-564.573	-127.367	0.238	0.035
-563.558	275.915	0.139	0.247
-562.544	800.000	-0.052	0.163
-561.529	-200.000	0.037	-0.324
-560.515	-79.198	0.092	-0.031
-559.500	2.751	-0.215	-0.157
-558.485	438.324	0.091	-0.199
-557.471	9.599	0.078	-0.059
-556.456	800.000	-0.070	0.251
-555.442	176.556	0.016	-0.023
-554.427	-174.360	0.192	0.006
-553.412	-65.271	-0.135	-0.054
-552.398	-45.262	-0.224	-0.112
-551.383	800.000	-0.141	-0.436
-550.369	-74.362	-0.298	-0.108
-549.354	-33.016	-0.377	0.210
-548.339	127.943	-0.127	0.163
-547.325	800.000	0.045	0.164
-546.310	-96.430	-0.447	-0.119
-545.296	-14.659	0.268	-0.173
-544.281	-200.000	0.051	-0.312
-543.266	-88.732	0.188	0.056
-542.252	63.286	-0.247	-0.249
-541.237	-44.676	0.318	-0.159
-540.223	-200.000	0.007	-0.204
-539.208	198.467	-0.257	-0.394
-538.193	-101.508	-0.017	0.004
-537.179	-200.000	-0.035	0.249
-536.164	155.772	-0.120	0.166
-535.150	-131.444	0.092	0.012
-534.135	109.960	-0.129	0.155
-533.121	-200.000	-0.050	0.000
-532.106	408.330	0.142	0.301
-531.091	-83.796	0.240	0.077
-530.077	173.679	0.088	-0.127
-529.062	327.345	0.109	-0.210
-528.048	321.170	0.159	0.303
-527.033	73.013	-0.153	-0.160
-526.018	56.459	-0.117	0.114
-525.004	102.672	0.212	0.248
-523.989	457.030	-0.110	0.245
-522.975	-28.438	0.455	0.263
-521.960	-41.229	0.227	0.117
-520.945	188.926	-0.182	-0.272
-519.931	-117.311	-0.192	-0.035
-518.916	-105.339	-0.084	0.019
-517.902	-82.183	-0.184	0.060
-516.887	85.262	-0.116	-0.127
-515.872	-131.160	0.054	-0.007
-514.858	-84.590	-0.209	0.066
-513.843	-200.000	0.005	0.176
-512.829	1.210	-0.500	0.360
-511.814	-96.640	-0.132	-0.035
-510.799	165.776	0.047	-0.067
-509.785	43.641	0.060	-0.055
-508.770	112.535	0.119	0.144
-507.756	-2.843	0.303	-0.212
-506.741	-35.727	0.224	-0.122
-505.726	-130.724	-0.123	-0.017
-504.712	-200.000	-0.033	-0.285
-503.697	78.883	0.244	-0.262
-502.683	-200.000	-0.002	-0.010
-501.668	30.611	0.183	-0.156
-500.653	-200.000	0.017	-0.299
-499.639	-148.958	-0.141	-0.011
-498.624	-188.169	-0.147	-0.002
-497.610	-6.212	-0.219	0.150
-496.595	27.348	-0.186	-0.157
-495.581	-13.449	-0.145	0.094
-494.566	-120.206	-0.303	0.052
-493.551	-74.706	-0.110	-0.040
-492.537	59.650	0.110	-0.109
-491.522	-200.000	-0.099	-0.699
-490.508	92.897	0.138	0.156
-489.493	-200.000	0.058	0.364
-488.478	-86.035	-0.196	0.061
-487.464	-200.000	0.010	-0.255
-486.449	-111.119	-0.157	0.032
-485.435	-121.829	0.317	-0.052
-484.420	800.000	-0.051	-0.145
-483.405	800.000	0.040	-0.145
-482.391	-103.208	0.385	0.091
-481.376	3.329	-0.298	-0.217
-480.362	68.096	0.245	-0.250
-479.347	800.000	0.071	-0.222
-478.332	-54.883	0.211	-0.095
-477.318	15.134	0.082	-0.064
-476.303	398.588	0.146	0.305
-475.289	597.413	-0.066	0.164
-474.274	336.680	0.061	0.118
-473.259	-17.442	-0.078	-0.049
-472.245	800.000	-0.025	-0.089
-471.230	-138.682	-0.121	-0.013
-470.216	-99.250	-0.338	-0.085
-469.201	-108.322	0.165	-0.036
-468.186	-25.195	-0.175	-0.103
-467.172	158.247	-0.151	-0.209
-466.157	-200.000	-0.009	-0.159
-465.143	-200.000	0.028	-0.234
-464.128	800.000	-0.048	-0.145
-463.113	-200.000	0.022	-0.123
-462.099	-89.233	0.198	0.058
-461.084	13.840	-0.144	0.112
-460.070	-37.239	-0.391	-0.209
-459.055	-20.908	-0.109	-0.067
-458.040	-61.033	0.041	0.017
-457.026	199.157	0.319	-0.488
-456.011	-200.000	-0.017	0.243
-454.997	7.300	-0.284	-0.212
-453.982	21.775	0.250	0.204
-452.968	-134.441	0.092	-0.011
-451.953	318.520	0.154	0.292
-450.938	377.651	-0.050	-0.102
-449.924	-139.453	-0.563	-0.060
-448.909	3.181	0.036	0.026
-447.895	540.147	0.072	0.172
-446.880	27.682	-0.171	-0.144
-445.865	356.855	0.163	-0.325
-444.851	138.977	0.125	-0.164
-443.836	800.000	0.068	-0.272
-442.822	188.700	0.043	-0.065
-441.807	357.388	-0.105	-0.209
-440.792	161.837	0.250	-0.349
-439.778	-51.503	-0.021	-0.010
-438.763	287.421	-0.182	0.328
-437.749	-43.209	0.283	0.143
-436.734	-200.000	0.022	0.301
-435.719	800.000	0.018	-0.078
-434.705	75.778	0.158	-0.167
-433.690	-93.812	-0.218	0.060
-432.676	-147.068	0.414	-0.035
-431.661	-11.279	-0.160	0.105
-430.646	167.870	0.085	-0.121
-429.632	-104.268	0.296	0.069
-428.617	-200.000	0.075	0.482
-427.603	126.294	0.166	0.210
-426.588	-47.621	-0.151	-0.073
-425.573	232.568	0.059	-0.097
-424.559	-13.274	0.279	-0.181
-423.544	-31.102	-0.039	0.022
-422.530	800.000	-0.096	0.265
-421.515	-29.501	-0.322	-0.183
-420.500	-115.507	-0.347	0.065
-419.486	-30.050	-0.106	-0.060
-418.471	185.402	0.196	-0.291
-417.457	559.848	0.029	-0.069
-416.442	300.288	-0.117	-0.215
-415.428	-43.569	0.287	0.145
-414.413	-184.644	0.208	-0.003
-413.398	-48.069	-0.184	0.089
-412.384	60.181	0.142	-0.140
-411.369	800.000	0.099	0.329
-410.355	-31.336	0.098	0.055
-409.340	96.385	0.154	0.176
-408.325	193.321	-0.221	0.334
-407.311	-200.000	0.010	0.254
-406.296	800.000	0.041	0.115
-405.282	800.000	-0.117	0.419
-404.267	620.972	0.042	-0.106
-403.252	-35.998	-0.186	0.101
-402.238	6.742	-0.217	-0.161
-401.223	198.060	0.034	-0.052
-400.209	-23.856	0.100	0.060
-399.194	-47.741	0.134	-0.065
-398.179	4.882	-0.336	0.247
-397.165	-120.359	0.470	-0.080
-396.150	-192.213	0.054	0.001
-395.136	800.000	0.114	0.379
-394.121	-200.000	-0.022	-0.114
-393.106	55.143	0.148	-0.143
-392.092	-17.241	0.063	-0.040
-391.077	-76.918	-0.350	-0.122
-390.063	391.347	-0.104	-0.216
-389.048	-200.000	0.012	-0.059
-388.033	-44.254	-0.148	-0.074
-387.019	148.881	-0.296	0.399
-386.004	-59.265	0.059	-0.025
-384.990	389.846	-0.143	-0.295
-383.975	800.000	-0.076	-0.280
-382.960	-200.000	-0.051	-0.304
-381.946	604.954	-0.068	-0.169
-380.931	-147.444	-0.098	-0.008
-379.917	53.191	-0.196	0.187
-378.902	794.009	0.079	-0.215
-377.888	433.553	0.135	-0.292
-376.873	290.391	-0.079	-0.143
-375.858	235.766	0.030	-0.050
-374.844	-200.000	-0.015	0.167
-373.829	-200.000	0.026	-0.185
-372.815	68.018	0.324	0.330
-371.800	-200.000	-0.006	0.086
-370.785	396.603	0.174	-0.362
-369.771	101.266	0.163	-0.188
-368.756	136.567	0.080	-0.104
-367.742	390.637	0.062	0.127
-366.727	97.491	0.195	-0.223
-365.712	71.103	-0.187	0.193
-364.698	-150.637	-0.071	-0.005
-363.683	-95.850	-0.178	0.047
-362.669	-73.982	-0.308	0.111
-361.654	-64.171	0.122	-0.050
-360.639	800.000	0.034	0.134
-359.625	238.972	-0.218	0.361
-358.610	-110.982	-0.058	0.012
-357.596	800.000	-0.082	-0.278
-356.581	104.456	0.141	-0.165
-355.566	800.000	-0.052	-0.157
-354.552	-200.000	-0.017	-0.209
-353.537	-200.000	0.036	0.190
-352.523	800.000	0.028	-0.085
-351.508	-98.441	-0.406	0.104
-350.493	74.925	-0.165	-0.173
-349.479	-200.000	-0.011	-0.257
-348.464	127.048	-0.177	-0.223
-347.450	800.000	-0.073	0.295
-346.435	109.272	-0.152	-0.182
-345.420	-200.000	0.017	-0.095
-344.406	96.695	-0.127	-0.145
-343.391	-10.080	-0.023	-0.015
-342.377	800.000	0.090	-0.248
-341.362	-200.000	-0.002	0.231
-340.348	-176.139	0.347	0.009
-339.333	-200.000	0.012	-0.160
-338.318	800.000	0.071	-0.249
-337.304	-126.210	-0.082	-0.012
-336.289	405.337	-0.040	-0.085
-335.275	100.033	-0.118	0.136
-334.260	-77.366	0.064	-0.022
-333.245	-113.872	-0.480	-0.093
-332.231	182.012	-0.077	0.112
-331.216	3.331	0.170	0.123
-330.202	-156.014	0.264	0.017
-329.187	-200.000	0.031	-0.182
-328.172	644.741	0.017	0.043
-327.158	-103.958	0.204	-0.047
-326.143	-119.227	-0.125	0.022
-325.129	26.026	-0.147	0.122
-324.114	-30.814	-0.414	-0.233
-323.099	130.548	-0.052	-0.066
-322.085	-95.009	0.119	0.032
-321.070	268.568	0.151	-0.264
-320.056	-18.899	-0.053	-0.033
-319.041	218.433	-0.257	-0.408
-318.026	101.579	0.141	-0.163
-317.012	800.000	0.051	0.202
-315.997	-96.139	0.046	-0.012
-314.983	-11.862	0.220	0.144
-313.968	39.826	0.175	-0.156
-312.953	-13.987	-0.298	0.192
-311.939	-103.472	-0.033	0.008
-310.924	-134.810	0.149	-0.018
-309.910	-52.212	0.192	0.088
-308.895	-96.923	0.545	0.142
-307.880	-80.988	-0.212	0.070
-306.866	-188.547	-0.149	0.002
-305.851	247.231	-0.081	0.136
-304.837	163.561	-0.103	-0.143
-303.822	256.073	0.076	0.129
-302.807	49.763	0.149	0.139
-301.793	32.035	0.041	0.035
-300.778	561.948	0.097	-0.232
-299.764	188.769	0.146	0.218
-298.749	800.000	0.055	-0.159
-297.735	249.899	0.251	0.422
-296.720	-7.828	0.032	0.021
-295.705	441.257	-0.044	-0.096
-294.691	-200.000	0.046	-0.395
-293.676	-200.000	0.018	0.144
-292.662	-30.757	0.095	0.054
-291.647	-26.874	0.359	-0.208
-290.632	-11.330	0.160	0.105
-289.618	26.093	-0.224	0.185
-288.603	-200.000	-0.062	0.279
-287.589	112.165	-0.149	0.179
-286.574	-200.000	0.033	0.277
-285.559	-200.000	-0.031	0.433
-284.545	51.303	0.080	-0.075
-283.530	-137.053	0.190	-0.022
-282.516	600.719	-0.120	0.295
-281.501	-14.866	-0.106	0.067
-280.486	800.000	-0.054	-0.199
-279.472	800.000	0.024	0.085
-278.457	449.178	0.078	-0.170
-277.443	247.984	-0.133	-0.223
-276.428	-41.369	-0.088	0.045
-275.413	-16.336	0.197	-0.124
-274.399	-109.726	0.054	0.011
-273.384	85.644	0.236	0.258
-272.370	44.323	-0.193	-0.176
-271.355	-200.000	0.011	-0.089
-270.340	-119.791	0.273	-0.047
-269.326	124.119	-0.152	0.189
-268.311	-4.294	0.204	-0.140
-267.297	131.822	-0.036	-0.046
-266.282	374.640	0.077	-0.156
-265.267	57.398	0.349	0.338
-264.253	-200.000	-0.019	0.299
-263.238	354.554	0.133	-0.261
-262.224	-200.000	-0.047	0.292
-261.209	33.577	-0.322	0.277
-260.195	-200.000	0.069	0.441
-259.180	63.464	-0.078	0.078
-258.165	-177.493	0.235	-0.006
-257.151	3.712	0.320	-0.231
-256.136	110.299	0.088	0.105
-255.122	65.347	0.160	0.161
-254.107	29.025	-0.037	0.031
-253.092	-58.671	0.047	0.020
-252.078	115.583	-0.111	0.135
-251.063	800.000	0.044	0.139
-250.049	-4.151	0.298	-0.205
-249.034	-200.000	0.028	0.203
-248.019	-158.596	-0.066	0.004
-247.005	-83.956	0.055	0.017
-245.990	800.000	0.048	0.140
-244.976	-139.299	0.133	-0.014
-243.961	-200.000	0.019	-0.181
-242.946	226.606	0.121	-0.195
-241.932	-200.000	-0.011	0.415
-240.917	69.016	-0.164	0.167
-239.903	-199.776	0.161	0.001
-238.888	322.202	0.112	-0.211
-237.873	-200.000	-0.022	-0.110
-236.859	-200.000	0.009	-0.044
-235.844	-200.000	-0.034	0.223
-234.830	800.000	0.088	-0.309
-233.815	-146.831	-0.093	0.008
-232.800	29.660	-0.131	0.110
-231.786	-96.427	0.239	-0.063
-230.771	81.974	0.065	0.070
-229.757	379.165	-0.084	0.171
-228.742	-200.000	0.028	0.192
-227.727	-91.666	-0.339	-0.096
-226.713	25.025	0.212	0.174
-225.698	430.806	-0.035	0.075
-224.684	-101.469	0.161	0.039
-223.669	-161.943	-0.478	-0.024
-222.655	-22.896	-0.071	0.042
-221.640	56.632	0.180	0.173
-220.625	-75.608	0.188	-0.066
-219.611	82.021	-0.091	0.098
-218.596	-113.311	0.121	0.024
-217.582	800.000	-0.078	-0.253
-216.567	-200.000	0.002	0.271
-215.552	6.513	0.179	-0.132
-214.538	-200.000	-0.020	0.272
-213.523	69.624	0.209	-0.213
-212.509	-61.767	-0.290	-0.120
-211.494	5.960	-0.291	0.213
-210.479	82.406	0.076	0.082
-209.465	-128.944	-0.515	0.072
-208.450	-200.000	-0.037	0.188
-207.436	-126.818	0.223	-0.033
-206.421	65.598	0.153	0.153
-205.406	-32.707	0.389	0.214
-204.392	-183.656	0.196	0.003
-203.377	-200.000	-0.034	0.250
-202.363	217.756	-0.125	-0.197
-201.348	-191.205	0.241	-0.002
-200.333	217.369	-0.098	0.154
-199.319	392.740	-0.077	0.159
-198.304	-21.017	-0.293	0.177
-197.290	79.215	-0.052	-0.055
-196.275	-71.401	0.286	0.106
-195.260	-115.498	-0.352	-0.066
-194.246	179.738	0.054	-0.078
-193.231	-200.000	0.031	-0.264
-192.217	220.212	-0.105	0.166
-191.202	181.297	-0.104	0.151
-190.187	800.000	0.101	-0.391
-189.173	593.440	-0.148	-0.362
-188.158	394.280	0.207	0.426
-187.144	32.814	-0.049	0.042
-186.129	-22.593	-0.222	-0.133
-185.114	195.859	0.117	0.176
-184.100	-133.825	-0.132	0.016
-183.085	-200.000	-0.010	0.226
-182.071	-145.984	-0.111	0.010
-181.056	-34.773	0.345	-0.186
-180.042	110.731	0.143	-0.170
-179.027	235.579	0.096	0.157
-178.012	-102.849	-0.160	0.038
-176.998	219.567	-0.157	0.248
-175.983	-93.739	0.262	-0.071
-174.969	-167.918	-0.101	-0.004
-173.954	-19.774	-0.202	-0.123
-172.939	-82.525	0.336	0.108
-171.925	-19.270	0.168	0.103
-170.910	26.194	0.143	0.118
-169.896	54.668	-0.175	-0.167
-168.881	-93.449	-0.142	-0.039
-167.866	481.379	0.060	0.134
-166.852	800.000	0.129	0.372
-165.837	-171.525	0.242	-0.008
-164.823	800.000	-0.112	-0.308
-163.808	-46.818	0.133	-0.064
-162.793	800.000	-0.060	0.232
-161.779	-164.696	-0.072	-0.003
-160.764	-200.000	0.009	-0.319
-159.750	42.079	-0.327	0.293
-158.735	-142.222	0.208	-0.020
-157.720	-90.324	-0.183	-0.052
-156.706	-200.000	-0.001	0.363
-155.691	-43.661	-0.121	0.060
-154.677	-112.287	-0.217	-0.043
-153.662	-137.517	-0.186	-0.021
-152.647	-200.000	-0.082	0.401
-151.633	-100.999	-0.118	0.029
-150.618	43.039	-0.123	0.111
-149.604	-200.000	0.059	0.295
-148.589	193.039	0.122	0.181
-147.574	-125.204	-0.383	0.058
-146.560	-73.936	-0.233	-0.083
-145.545	181.359	0.154	0.223
-144.531	167.510	-0.074	-0.104
-143.516	-20.675	0.179	0.109
-142.502	701.447	0.124	-0.322
-141.487	-108.086	-0.031	0.007
-140.472	800.000	0.033	-0.124
-139.458	116.926	0.136	0.165
-138.443	-79.860	0.325	0.108
-137.429	15.957	-0.304	-0.236
-136.414	409.518	0.089	0.187
-135.399	132.615	-0.011	-0.014
-134.385	-46.133	-0.253	0.123
-133.370	-140.583	-0.103	0.011
-132.356	36.483	0.124	0.108
-131.341	423.893	-0.057	-0.120
-130.326	15.332	0.301	0.233
-129.312	625.255	-0.166	0.412
-128.297	173.878	-0.208	0.296
-127.283	80.873	0.326	-0.347
-126.268	-52.484	0.168	-0.077
-125.253	-18.410	-0.296	-0.183
-124.239	-147.873	0.168	-0.014
-123.224	-200.000	-0.019	0.251
-122.210	-154.033	0.321	0.022
-121.195	-135.008	0.354	-0.042
