DTS Sentinel unit serial number:	SN413079Multiplexer serial number:	ORYXHardware model number:	OX4-SRSoftware version number:	ORYX F/W v4.00 Oryx Data Collector v3.7.2.0data status	okinstallation	princeton_trtdifferential loss correction	single-endedforward channel	channel 4reverse channel	N/Adate	2019/09/14time	23:05:35forward acquisition time	60.00reverse acquisition time	0.00gamma	496.2192k internal	0.2306k external	0.2306temperature offset calibration	1.0060default loss term (dB/km)	0.3790temperature slope calibration	1.0000multiplexer offset coefficient	1.0000multiplexer slope coefficient	1.0000fibre end	0.00T internal ref (°C)	32.44T ext. ref 1 (°C)	4.69T ext. ref 2 (°C)	27.47length (m)	temperature (°C)	Stokes	anti-Stokes-747.200	-200.000	0.008	0.245
-746.185	-26.845	0.105	-0.062
-745.171	-200.000	-0.003	-0.286
-744.156	800.000	-0.062	0.232
-743.142	125.827	-0.115	0.148
-742.127	6.397	0.149	0.112
-741.112	-31.963	0.120	-0.068
-740.098	-64.323	0.124	-0.051
-739.083	-90.612	0.162	0.048
-738.069	684.267	-0.129	0.341
-737.054	-19.450	0.154	0.097
-736.039	219.827	-0.117	-0.191
-735.025	648.742	0.117	0.304
-734.010	-100.027	-0.124	-0.031
-732.996	-68.322	-0.565	-0.223
-731.981	-130.101	0.256	-0.035
-730.966	191.821	0.084	-0.128
-729.952	545.231	-0.168	-0.408
-728.937	-23.237	0.179	-0.109
-727.923	-31.746	-0.129	0.074
-726.908	-200.000	-0.008	-0.143
-725.894	800.000	-0.033	0.128
-724.879	800.000	-0.102	0.355
-723.864	-69.844	-0.192	0.075
-722.850	-91.834	0.102	0.029
-721.835	-200.000	-0.018	0.279
-720.821	50.641	-0.158	-0.152
-719.806	-14.944	0.277	-0.180
-718.791	-200.000	-0.006	0.077
-717.777	-108.399	-0.096	0.021
-716.762	59.546	-0.107	-0.107
-715.748	102.146	0.173	-0.205
-714.733	-133.055	-0.308	0.040
-713.718	-84.742	0.162	0.052
-712.704	-153.852	-0.214	-0.015
-711.689	338.836	-0.059	0.116
-710.675	800.000	-0.045	-0.197
-709.660	-131.499	-0.233	-0.031
-708.645	-166.749	-0.294	-0.012
-707.631	-200.000	-0.013	0.091
-706.616	331.064	-0.092	-0.181
-705.602	-51.698	-0.300	0.142
-704.587	-200.000	0.028	-0.162
-703.572	-200.000	-0.007	-0.033
-702.558	403.855	0.035	0.074
-701.543	109.356	-0.185	-0.225
-700.529	-141.163	0.098	0.010
-699.514	229.650	-0.013	0.022
-698.499	-23.723	0.275	-0.167
-697.485	-200.000	-0.010	-0.145
-696.470	246.794	-0.055	0.094
-695.456	-43.785	0.142	-0.073
-694.441	-11.703	0.052	0.035
-693.426	800.000	0.095	-0.369
-692.412	800.000	-0.084	-0.252
-691.397	284.550	-0.061	-0.111
-690.383	-200.000	0.005	0.089
-689.368	-122.506	-0.251	-0.041
-688.354	-200.000	-0.035	-0.256
-687.339	-7.513	-0.038	-0.026
-686.324	-53.705	-0.067	0.031
-685.310	-16.078	-0.073	-0.047
-684.295	-184.410	0.252	-0.004
-683.281	29.094	-0.204	-0.175
-682.266	-120.635	0.153	0.026
-681.251	-200.000	-0.009	0.211
-680.237	-140.732	0.212	-0.022
-679.222	-76.571	-0.155	-0.055
-678.208	800.000	0.132	-0.378
-677.193	-200.000	-0.038	-0.265
-676.178	-84.256	0.119	-0.038
-675.164	-106.205	-0.249	-0.057
-674.149	780.375	-0.119	-0.330
-673.135	336.591	-0.139	0.275
-672.120	462.248	-0.067	0.152
-671.105	-4.168	0.054	0.038
-670.091	-72.054	0.399	-0.150
-669.076	-184.884	-0.320	0.005
-668.062	-129.328	0.236	-0.033
-667.047	800.000	0.076	-0.221
-666.032	22.923	-0.184	0.153
-665.018	-74.042	-0.158	-0.058
-664.003	23.592	-0.182	-0.152
-662.989	-93.101	0.385	0.109
-661.974	206.053	0.157	-0.247
-660.959	20.184	-0.396	-0.324
-659.945	170.215	0.236	-0.343
-658.930	248.264	-0.124	0.213
-657.916	-22.250	-0.068	0.042
-656.901	73.333	-0.159	-0.169
-655.886	527.808	0.026	-0.061
-654.872	-200.000	-0.012	0.130
-653.857	800.000	0.058	0.186
-652.843	-0.273	0.284	-0.205
-651.828	157.178	-0.159	0.223
-650.814	-57.228	0.117	-0.052
-649.799	-99.206	-0.071	-0.018
-648.784	-32.273	-0.334	-0.189
-647.770	-159.419	-0.155	-0.009
-646.755	85.972	-0.043	-0.048
-645.741	504.228	-0.160	-0.374
-644.726	-200.000	-0.079	-0.391
-643.711	-47.544	0.053	0.026
-642.697	-131.503	-0.283	-0.038
-641.682	217.802	-0.070	0.113
-640.668	-62.751	0.298	0.125
-639.653	-66.388	-0.215	0.087
-638.638	-200.000	-0.002	0.213
-637.624	-72.533	-0.098	0.037
-636.609	-200.000	0.042	0.218
-635.595	-57.594	0.070	-0.031
-634.580	-200.000	0.003	-0.476
-633.565	474.967	-0.074	0.170
-632.551	-120.173	-0.238	0.041
-631.536	43.246	-0.299	0.277
-630.522	-110.554	-0.180	-0.038
-629.507	-84.095	0.007	-0.002
-628.492	-46.412	-0.044	-0.022
-627.478	-16.751	-0.161	-0.103
-626.463	-57.897	-0.034	-0.015
-625.449	-13.757	-0.114	0.075
-624.434	97.445	0.109	-0.126
-623.419	-39.678	-0.065	0.034
-622.405	158.624	0.149	0.209
-621.390	445.309	0.120	0.266
-620.376	279.220	-0.255	0.460
-619.361	147.019	0.059	-0.080
-618.346	51.673	0.044	0.043
-617.332	403.170	0.132	0.281
-616.317	-64.964	0.054	-0.022
-615.303	-155.190	-0.267	-0.018
-614.288	800.000	-0.020	0.085
-613.273	-73.137	0.169	-0.063
-612.259	-93.110	0.085	-0.024
-611.244	435.594	-0.120	-0.263
-610.230	-118.802	0.253	0.045
-609.215	286.369	-0.102	-0.186
-608.201	-31.011	-0.158	0.090
-607.186	339.826	-0.125	0.247
-606.171	-29.894	0.111	0.064
-605.157	263.148	-0.168	-0.295
-604.142	731.547	-0.044	-0.118
-603.128	800.000	-0.089	-0.317
-602.113	-155.427	-0.040	0.003
-601.098	139.132	0.181	0.240
-600.084	800.000	-0.130	0.430
-599.069	-119.157	0.252	0.044
-598.055	-200.000	-0.033	0.259
-597.040	-41.357	0.237	-0.123
-596.025	-125.792	0.027	-0.004
-595.011	83.183	-0.253	0.278
-593.996	-87.064	0.112	0.034
-592.982	-38.441	0.236	0.126
-591.967	-93.585	-0.220	0.061
-590.952	-139.952	-0.089	-0.010
-589.938	-123.275	0.238	-0.038
-588.923	576.526	-0.081	0.199
-587.909	391.492	0.094	0.196
-586.894	70.145	-0.113	-0.118
-585.879	98.526	0.184	-0.214
-584.865	117.126	0.079	0.099
-583.850	-200.000	-0.046	0.236
-582.836	164.500	-0.074	-0.106
-581.821	630.369	-0.071	0.182
-580.806	-32.808	-0.206	0.116
-579.792	-56.936	-0.241	-0.107
-578.777	-80.957	0.473	0.158
-577.763	109.191	0.158	0.191
-576.748	800.000	-0.080	0.251
-575.733	-66.443	-0.215	0.086
-574.719	-10.712	-0.230	-0.154
-573.704	-132.825	-0.065	0.008
-572.690	-200.000	-0.027	0.359
-571.675	-46.547	-0.127	0.063
-570.661	659.690	0.066	-0.170
-569.646	-104.839	-0.178	-0.041
-568.631	-86.572	-0.154	-0.048
-567.617	306.205	-0.097	-0.183
-566.602	0.344	0.070	-0.050
-565.588	800.000	0.153	0.497
-564.573	-171.257	0.095	0.003
-563.558	363.314	0.203	-0.412
-562.544	-200.000	-0.021	0.148
-561.529	185.816	-0.082	-0.123
-560.515	94.976	0.028	0.033
-559.500	21.970	0.144	-0.119
-558.485	-124.736	-0.111	0.017
-557.471	65.841	-0.258	-0.264
-556.456	2.217	-0.212	0.155
-555.442	-127.264	0.179	-0.026
-554.427	9.411	-0.079	0.060
-553.412	-74.982	-0.149	-0.054
-552.398	9.984	0.303	-0.232
-551.383	800.000	-0.084	0.308
-550.369	-58.917	-0.271	0.118
-549.354	-50.000	0.064	-0.031
-548.339	62.500	0.329	-0.332
-547.325	66.668	0.090	-0.092
-546.310	95.595	-0.105	0.121
-545.296	-200.000	0.017	0.155
-544.281	-200.000	0.015	-0.179
-543.266	-105.519	-0.366	-0.084
-542.252	329.388	-0.088	-0.172
-541.237	-200.000	-0.031	-0.323
-540.223	101.448	-0.166	-0.195
-539.208	-87.760	-0.111	-0.034
-538.193	287.395	0.054	-0.099
-537.179	-103.980	-0.144	0.034
-536.164	-195.744	-0.126	-0.001
-535.150	410.071	-0.024	0.052
-534.135	79.799	-0.034	-0.037
-533.121	-200.000	0.054	0.258
-532.106	800.000	-0.015	-0.050
-531.091	62.239	0.107	0.108
-530.077	-200.000	0.013	0.259
-529.062	260.556	-0.121	0.211
-528.048	3.934	0.155	0.115
-527.033	-3.219	0.150	0.105
-526.018	159.510	0.028	0.040
-525.004	-200.000	0.039	0.186
-523.989	-4.606	0.285	-0.198
-522.975	-95.540	-0.196	-0.053
-521.960	-158.339	-0.068	0.004
-520.945	172.069	0.037	-0.054
-519.931	-24.179	-0.191	-0.115
-518.916	264.878	-0.063	-0.111
-517.902	-200.000	0.020	0.235
-516.887	203.426	-0.016	-0.026
-515.872	-37.585	-0.161	-0.087
-514.858	96.611	0.177	0.204
-513.843	123.207	-0.234	0.295
-512.829	-200.000	0.037	0.190
-511.814	-35.805	0.381	-0.208
-510.799	34.016	0.059	-0.052
-509.785	-25.421	-0.087	0.052
-508.770	114.665	-0.316	-0.388
-507.756	-66.376	-0.072	0.029
-506.741	424.998	0.077	-0.168
-505.726	-81.413	-0.254	0.084
-504.712	105.732	-0.091	-0.109
-503.697	792.280	-0.020	-0.054
-502.683	800.000	0.076	0.225
-501.668	-135.485	-0.232	-0.028
-500.653	-50.020	-0.121	0.058
-499.639	-148.424	0.192	0.016
-498.624	148.067	-0.116	-0.157
-497.610	214.453	-0.204	0.326
-496.595	-200.000	-0.023	0.317
-495.581	-121.344	-0.082	0.014
-494.566	-200.000	-0.002	-0.123
-493.551	474.542	-0.035	0.079
-492.537	-200.000	-0.004	-0.169
-491.522	800.000	0.095	0.344
-490.508	-68.044	-0.192	0.076
-489.493	-138.726	0.306	-0.034
-488.478	-200.000	-0.039	-0.172
-487.464	800.000	0.061	0.225
-486.449	506.220	-0.218	0.510
-485.435	495.096	0.037	-0.085
-484.420	-200.000	-0.050	-0.286
-483.405	620.931	0.122	-0.310
-482.391	-167.397	0.316	-0.013
-481.376	800.000	-0.038	-0.140
-480.362	146.699	-0.074	-0.100
-479.347	-53.386	0.262	-0.121
-478.332	-54.228	0.183	0.084
-477.318	-200.000	0.078	0.000
-476.303	800.000	-0.051	0.143
-475.289	-200.000	-0.012	-0.335
-474.274	800.000	0.013	0.051
-473.259	694.260	0.033	0.087
-472.245	800.000	0.087	-0.252
-471.230	284.727	0.024	-0.043
-470.216	800.000	-0.075	0.326
-469.201	187.371	0.100	-0.150
-468.186	187.616	0.067	-0.100
-467.172	42.881	0.214	0.196
-466.157	206.656	-0.015	0.023
-465.143	-43.516	-0.191	-0.097
-464.128	800.000	0.036	0.121
-463.113	60.433	-0.181	0.181
-462.099	-37.079	0.275	-0.148
-461.084	153.270	0.068	-0.093
-460.070	536.029	0.076	-0.182
-459.055	26.387	-0.219	-0.184
-458.040	58.374	-0.093	0.091
-457.026	-200.000	-0.108	-0.477
-456.011	149.151	-0.044	-0.059
-454.997	12.050	0.356	0.275
-453.982	11.346	-0.049	-0.038
-452.968	30.743	0.047	0.041
-451.953	136.695	0.068	-0.089
-450.938	172.460	-0.044	0.064
-449.924	204.116	-0.058	-0.090
-448.909	-133.494	-0.223	0.028
-447.895	23.732	-0.274	0.227
-446.880	-151.687	-0.204	-0.015
-445.865	-200.000	-0.036	-0.358
-444.851	230.903	-0.137	-0.226
-443.836	-200.000	0.041	-0.425
-442.822	-200.000	-0.015	0.121
-441.807	146.604	0.190	-0.256
-440.792	-10.753	0.198	0.131
-439.778	-116.399	0.261	0.049
-438.763	28.977	0.163	-0.139
-437.749	88.459	-0.028	-0.031
-436.734	800.000	-0.068	0.214
-435.719	-53.838	0.155	0.071
-434.705	-123.140	0.188	0.030
-433.690	-200.000	-0.037	-0.210
-432.676	-10.295	0.252	-0.168
-431.661	53.452	0.239	-0.230
-430.646	-200.000	0.059	-0.331
-429.632	37.655	-0.124	0.111
-428.617	800.000	-0.041	-0.121
-427.603	-200.000	-0.027	-0.214
-426.588	-106.692	-0.174	0.039
-425.573	624.170	0.088	-0.222
-424.559	-70.739	0.128	-0.049
-423.544	-25.318	0.360	-0.214
-422.530	-21.689	-0.145	-0.089
-421.515	-44.482	-0.189	0.095
-420.500	-200.000	0.007	0.246
-419.486	-118.722	0.328	0.058
-418.471	-22.263	0.363	-0.221
-417.457	-138.679	-0.437	-0.048
-416.442	217.365	-0.051	0.082
-415.428	82.771	0.141	0.154
-414.413	26.152	-0.213	0.178
-413.398	-28.277	-0.118	-0.069
-412.384	54.973	-0.257	-0.250
-411.369	223.249	0.062	-0.101
-410.355	-36.488	0.159	-0.086
-409.340	50.393	0.191	-0.181
-408.325	454.189	-0.073	-0.163
-407.311	-137.167	0.193	0.022
-406.296	800.000	-0.129	-0.388
-405.282	414.063	0.184	-0.393
-404.267	-200.000	0.001	-0.523
-403.252	800.000	0.091	-0.286
-402.238	10.852	-0.078	-0.060
-401.223	-200.000	-0.008	0.185
-400.209	-95.488	-0.178	-0.048
-399.194	-25.243	0.236	-0.140
-398.179	-61.663	0.521	-0.219
-397.165	-185.409	0.238	0.004
-396.150	-22.142	0.248	-0.151
-395.136	68.905	-0.311	-0.320
-394.121	120.888	-0.220	-0.275
-393.106	-200.000	-0.001	-0.263
-392.092	800.000	-0.068	-0.214
-391.077	-40.842	-0.036	0.019
-390.063	-185.547	-0.300	0.005
-389.048	-200.000	-0.058	0.360
-388.033	-2.054	0.126	0.089
-387.019	167.517	-0.065	0.093
-386.004	-124.146	0.251	-0.039
-384.990	251.731	-0.063	0.107
-383.975	58.401	0.215	0.212
-382.960	646.209	0.078	0.200
-381.946	-53.528	0.187	-0.086
-380.931	-22.267	-0.306	0.186
-379.917	-80.306	-0.199	-0.067
-378.902	223.197	-0.091	0.148
-377.888	-46.081	0.074	-0.036
-376.873	-60.022	-0.391	-0.167
-375.858	-157.013	0.372	0.023
-374.844	800.000	0.119	-0.368
-373.829	-200.000	-0.517	0.001
-372.815	39.653	0.044	-0.039
-371.800	-8.673	-0.072	0.049
-370.785	-30.829	0.070	0.039
-369.771	-43.867	-0.284	0.143
-368.756	-151.691	0.051	-0.004
-367.742	-200.000	-0.001	0.039
-366.727	-200.000	-0.008	0.062
-365.712	69.472	0.083	-0.086
-364.698	31.397	0.206	-0.178
-363.683	-63.471	-0.075	-0.031
-362.669	-131.432	-0.042	0.006
-361.654	-99.693	0.243	-0.061
-360.639	-200.000	-0.014	-0.279
-359.625	738.450	0.197	0.529
-358.610	-50.206	-0.377	0.179
-357.596	-2.360	-0.113	0.079
-356.581	-101.019	-0.193	-0.047
-355.566	313.425	-0.041	-0.078
-354.552	-200.000	0.075	0.328
-353.537	-79.210	0.315	0.107
-352.523	-154.185	-0.189	-0.013
-351.508	780.366	-0.074	0.203
-350.493	800.000	-0.109	0.344
-349.479	549.171	0.094	0.226
-348.464	125.652	0.070	-0.088
-347.450	-200.000	-0.037	0.322
-346.435	-158.886	0.124	0.007
-345.420	-200.000	0.027	-0.237
-344.406	-135.226	0.057	-0.007
-343.391	11.667	0.293	-0.225
-342.377	410.380	-0.024	0.050
-341.362	-62.755	0.204	-0.085
-340.348	680.184	0.019	-0.049
-339.333	-24.712	-0.032	0.019
-338.318	-47.284	0.122	-0.059
-337.304	289.386	-0.222	-0.404
-336.289	144.053	0.053	-0.070
-335.275	-200.000	0.028	-0.239
-334.260	800.000	-0.043	-0.173
-333.245	-42.391	0.197	0.100
-332.231	192.617	-0.119	0.179
-331.216	-119.204	0.101	-0.018
-330.202	97.300	0.190	-0.219
-329.187	-102.904	-0.452	-0.107
-328.172	108.321	-0.070	0.084
-327.158	-9.058	-0.219	-0.147
-326.143	353.612	-0.177	-0.351
-325.129	-200.000	-0.034	-0.252
-324.114	-80.114	0.154	0.052
-323.099	160.500	0.257	-0.359
-322.085	-51.841	0.243	-0.113
-321.070	141.538	0.085	-0.113
-320.056	21.123	-0.052	-0.042
-319.041	-161.750	-0.276	0.014
-318.026	220.244	0.267	0.427
-317.012	800.000	0.093	-0.258
-315.997	240.432	0.087	-0.146
-314.983	36.152	0.161	0.142
-313.968	-46.677	-0.041	0.020
-312.953	193.518	0.200	0.302
-311.939	800.000	0.034	-0.136
-310.924	-121.247	0.103	0.017
-309.910	800.000	-0.023	0.074
-308.895	800.000	-0.085	-0.352
-307.880	800.000	0.074	0.257
-306.866	90.149	0.043	0.049
-305.851	-55.569	0.077	0.035
-304.837	-77.657	0.206	0.071
-303.822	27.282	0.067	0.056
-302.807	-65.936	-0.207	0.083
-301.793	-200.000	0.196	0.000
-300.778	262.706	-0.057	0.100
-299.764	217.871	0.234	0.372
-298.749	-113.330	-0.285	-0.056
-297.735	-123.347	0.265	-0.042
-296.720	606.101	-0.050	0.124
-295.705	131.183	-0.150	0.193
-294.691	800.000	0.060	-0.252
-293.676	183.364	-0.111	-0.164
-292.662	-200.000	-0.057	0.256
-291.647	-108.630	-0.279	0.060
-290.632	-122.723	0.156	-0.025
-289.618	-95.346	-0.125	0.033
-288.603	800.000	0.031	-0.130
-287.589	800.000	0.008	0.024
-286.574	-177.658	0.307	-0.007
-285.559	183.909	-0.173	0.256
-284.545	672.307	0.151	-0.390
-283.530	9.378	0.033	-0.025
-282.516	-130.858	0.225	0.030
-281.501	-28.899	0.022	0.012
-280.486	368.473	0.063	0.126
-279.472	-200.000	0.031	-0.210
-278.457	-155.558	0.444	0.029
-277.443	-200.000	0.043	0.205
-276.428	80.538	0.138	0.148
-275.413	800.000	0.030	0.100
-274.399	39.879	0.247	0.222
-273.384	-110.277	-0.128	-0.027
-272.370	-88.914	0.221	0.065
-271.355	800.000	0.076	-0.268
-270.340	450.628	0.043	-0.094
-269.326	233.188	0.106	-0.174
-268.311	800.000	0.063	0.210
-267.297	6.453	-0.228	-0.169
-266.282	-51.595	0.332	-0.155
-265.267	5.892	-0.212	-0.157
-264.253	800.000	0.020	0.073
-263.238	-160.062	-0.162	-0.009
-262.224	51.166	0.085	0.081
-261.209	-18.808	0.164	-0.102
-260.195	-66.475	-0.293	-0.116
-259.180	-134.696	0.212	0.026
-258.165	800.000	-0.030	-0.102
-257.151	79.357	-0.161	-0.172
-256.136	-140.021	-0.165	0.017
-255.122	-200.000	0.007	-0.093
-254.107	198.000	0.085	0.130
-253.092	308.976	0.063	0.118
-252.078	-138.256	-0.028	0.003
-251.063	-200.000	-0.045	0.296
-250.049	800.000	-0.064	-0.196
-249.034	-147.394	0.188	-0.016
-248.019	98.588	0.127	-0.146
-247.005	55.166	0.098	-0.095
-245.990	-124.120	-0.272	0.043
-244.976	114.220	0.050	-0.061
-243.961	-92.657	0.152	0.042
-242.946	186.546	-0.197	0.293
-241.932	-200.000	0.064	0.294
-240.917	800.000	0.039	0.147
-239.903	800.000	-0.119	0.347
-238.888	87.938	0.257	-0.284
-237.873	800.000	-0.150	-0.447
-236.859	32.999	-0.251	-0.216
-235.844	88.848	0.099	-0.110
-234.830	-14.438	0.232	0.149
-233.815	-39.193	-0.274	-0.144
-232.800	-200.000	-0.039	-0.285
-231.786	509.927	0.059	0.138
-230.771	199.066	0.164	0.251
-229.757	-95.602	-0.217	0.058
-228.742	126.084	0.151	0.191
-227.727	800.000	-0.158	0.477
-226.713	238.193	0.163	0.270
-225.698	800.000	-0.055	0.169
-224.684	253.008	0.170	-0.289
-223.669	-60.472	0.202	-0.085
-222.655	-95.945	-0.306	0.081
-221.640	-118.700	-0.262	0.046
-220.625	98.666	0.142	-0.163
-219.611	-2.852	0.116	0.081
-218.596	420.795	0.147	0.314
-217.582	-120.725	-0.234	-0.039
-216.567	-200.000	0.039	0.217
-215.552	-4.034	0.327	0.226
-214.538	81.380	0.172	-0.185
-213.523	-20.422	0.075	0.046
-212.509	800.000	0.078	-0.221
-211.494	-200.000	-0.019	0.099
-210.479	-107.182	0.507	-0.111
-209.465	-200.000	0.030	0.221
-208.450	160.175	-0.112	-0.155
-207.436	-83.625	-0.106	-0.034
-206.421	800.000	-0.074	0.262
-205.406	800.000	0.128	0.382
-204.392	472.459	0.071	0.160
-203.377	-200.000	0.002	0.008
-202.363	28.087	-0.067	0.056
-201.348	-200.000	0.003	-0.195
-200.333	-3.829	-0.136	-0.094
-199.319	462.917	0.037	0.083
-198.304	-43.997	0.102	0.051
-197.290	-200.000	0.037	0.170
-196.275	-200.000	0.010	0.242
-195.260	496.537	-0.038	0.087
-194.246	-67.129	0.126	-0.050
-193.231	584.502	0.075	0.182
-192.217	202.560	-0.183	0.281
-191.202	800.000	0.065	0.262
-190.187	9.414	0.272	0.205
-189.173	-200.000	-0.004	-0.089
-188.158	-98.415	-0.175	0.045
-187.144	489.341	0.014	0.031
-186.129	-151.854	0.329	0.024
-185.114	800.000	-0.041	-0.156
-184.100	9.091	-0.316	0.237
-183.085	-147.115	-0.212	0.018
-182.071	-84.184	-0.266	0.084
-181.056	71.573	0.110	-0.114
-180.042	663.434	0.048	-0.122
-179.027	-152.036	-0.309	0.022
-178.012	-141.215	-0.291	-0.030
-176.998	-8.247	0.145	-0.097
-175.983	-130.620	-0.468	0.063
-174.969	800.000	-0.075	0.298
-173.954	-32.994	0.056	0.031
-172.939	178.530	-0.126	-0.183
-171.925	-4.778	-0.024	-0.017
-170.910	84.235	0.112	0.121
-169.896	101.766	-0.046	-0.053
-168.881	-121.058	-0.022	-0.004
-167.866	-54.026	0.074	0.034
-166.852	288.837	-0.175	0.315
-165.837	406.887	-0.100	-0.211
-164.823	-44.901	0.256	0.127
-163.808	-22.264	-0.248	-0.150
-162.793	-143.766	0.220	0.021
-161.779	-200.000	0.044	0.491
-160.764	-113.791	-0.265	0.051
-159.750	-90.495	0.258	-0.074
-158.735	-200.000	-0.055	-0.279
-157.720	-91.476	0.154	0.044
-156.706	-165.718	-0.228	-0.010
-155.691	-70.287	-0.132	-0.050
-154.677	-35.923	-0.106	0.057
-153.662	34.240	-0.033	-0.029
-152.647	262.411	-0.078	0.134
-151.633	271.629	0.115	-0.201
-150.618	123.384	0.180	-0.224
-149.604	38.927	0.174	0.154
-148.589	396.262	-0.141	0.293
-147.574	-75.998	0.211	0.074
-146.560	49.945	0.070	0.065
-145.545	-200.000	-0.013	-0.166
-144.531	-200.000	0.009	-0.294
-143.516	-34.138	-0.065	0.036
-142.502	-200.000	0.011	0.470
-141.487	-91.646	-0.152	0.043
-140.472	-158.195	-0.183	0.011
-139.458	-71.830	0.162	0.060
-138.443	-79.619	0.143	-0.048
-137.429	307.660	-0.093	-0.173
-136.414	71.376	0.204	0.211
-135.399	-200.000	0.055	0.268
-134.385	609.872	0.022	0.054
-133.370	800.000	-0.097	0.422
-132.356	-200.000	0.046	-0.264
-131.341	-116.364	-0.157	0.029
-130.326	7.391	0.038	-0.028
-129.312	-81.336	0.160	-0.052
-128.297	-200.000	-0.029	0.155
-127.283	-1.837	-0.246	-0.172
-126.268	-115.868	0.262	0.049
-125.253	50.979	-0.146	-0.137
-124.239	-33.493	0.434	-0.238
-123.224	-184.950	-0.248	-0.004
-122.210	51.269	-0.146	-0.137
-121.195	128.790	0.146	0.184
