DTS Sentinel unit serial number:	SN413079Multiplexer serial number:	ORYXHardware model number:	OX4-SRSoftware version number:	ORYX F/W v4.00 Oryx Data Collector v3.7.2.0data status	okinstallation	princeton_trtdifferential loss correction	single-endedforward channel	channel 4reverse channel	N/Adate	2019/09/17time	21:41:34forward acquisition time	60.00reverse acquisition time	0.00gamma	496.2192k internal	0.2328k external	0.2328temperature offset calibration	0.9990default loss term (dB/km)	0.3790temperature slope calibration	1.0000multiplexer offset coefficient	1.0000multiplexer slope coefficient	1.0000fibre end	0.00T internal ref (°C)	26.69T ext. ref 1 (°C)	0.17T ext. ref 2 (°C)	19.09length (m)	temperature (°C)	Stokes	anti-Stokes-747.200	-149.033	-0.177	-0.014
-746.185	-200.000	0.024	0.440
-745.171	-142.312	0.212	0.021
-744.156	31.127	-0.195	0.168
-743.142	-16.290	-0.220	0.141
-742.127	80.993	0.021	0.022
-741.112	-200.000	-0.032	-0.165
-740.098	-74.591	-0.267	0.097
-739.083	-5.937	0.280	0.193
-738.069	-168.292	0.097	-0.004
-737.054	-106.534	0.138	-0.031
-736.039	70.405	0.086	-0.089
-735.025	136.873	0.209	0.275
-734.010	-85.475	-0.372	-0.117
-732.996	-200.000	-0.026	-0.415
-731.981	800.000	-0.063	0.204
-730.966	244.894	0.044	-0.075
-729.952	-14.297	0.181	-0.118
-728.937	-175.051	-0.290	-0.008
-727.923	-115.610	-0.191	-0.036
-726.908	112.266	-0.065	-0.079
-725.894	-200.000	0.006	0.194
-724.879	-4.899	-0.297	-0.206
-723.864	-23.886	-0.102	0.062
-722.850	148.929	-0.094	-0.128
-721.835	317.302	-0.086	0.163
-720.821	272.444	-0.086	-0.153
-719.806	65.906	-0.126	-0.128
-718.791	-67.884	0.184	0.073
-717.777	194.438	-0.162	-0.247
-716.762	8.295	-0.291	-0.220
-715.748	-107.005	0.185	0.041
-714.733	636.130	-0.129	0.329
-713.718	800.000	-0.049	-0.150
-712.704	800.000	-0.077	0.301
-711.689	800.000	0.018	-0.054
-710.675	-129.840	-0.118	0.016
-709.660	-89.193	-0.192	-0.057
-708.645	-115.955	0.352	-0.066
-707.631	-35.947	0.068	0.037
-706.616	-200.000	-0.028	-0.212
-705.602	43.539	0.216	-0.198
-704.587	24.858	0.078	-0.065
-703.572	-179.218	0.256	0.006
-702.558	4.131	-0.176	0.130
-701.543	-145.189	0.147	0.013
-700.529	-120.778	0.085	-0.014
-699.514	109.797	0.038	-0.046
-698.499	-56.585	0.270	0.120
-697.485	544.172	0.117	-0.280
-696.470	-132.795	-0.211	0.027
-695.456	194.342	-0.116	-0.177
-694.441	-136.591	-0.229	-0.027
-693.426	-200.000	0.006	0.105
-692.412	-114.155	-0.043	0.008
-691.397	-175.125	-0.237	0.007
-690.383	-200.000	0.012	-0.061
-689.368	-61.342	0.099	-0.042
-688.354	-122.738	0.239	0.039
-687.339	-112.797	0.089	0.018
-686.324	800.000	-0.068	-0.197
-685.310	-97.081	0.159	0.042
-684.295	800.000	0.074	0.319
-683.281	-92.775	-0.410	-0.115
-682.266	313.775	-0.062	0.116
-681.251	-100.551	-0.255	-0.063
-680.237	-151.741	-0.109	0.008
-679.222	-159.280	0.261	-0.015
-678.208	503.655	-0.102	-0.238
-677.193	6.949	-0.205	-0.154
-676.178	34.483	-0.333	0.292
-675.164	524.169	-0.044	-0.104
-674.149	800.000	-0.074	0.315
-673.135	-75.793	0.066	-0.023
-672.120	-74.480	-0.083	0.030
-671.105	303.016	0.314	-0.585
-670.091	800.000	0.018	-0.059
-669.076	-200.000	-0.025	-0.171
-668.062	17.580	-0.279	0.223
-667.047	10.583	-0.123	0.094
-666.032	356.901	0.125	0.251
-665.018	800.000	-0.100	-0.391
-664.003	-107.585	0.216	-0.047
-662.989	1.531	-0.117	0.084
-661.974	-200.000	0.096	-0.462
-660.959	-7.090	0.390	-0.266
-659.945	420.700	-0.116	-0.250
-658.930	800.000	0.053	0.209
-657.916	428.159	-0.062	-0.134
-656.901	500.145	0.187	-0.432
-655.886	427.553	-0.082	-0.177
-654.872	-122.023	-0.206	0.034
-653.857	800.000	0.083	-0.259
-652.843	0.421	-0.205	-0.147
-651.828	286.562	0.032	-0.057
-650.814	516.201	-0.097	-0.228
-649.799	380.829	-0.026	-0.053
-648.784	171.397	0.134	0.193
-647.770	45.659	0.184	0.171
-646.755	-112.151	-0.173	-0.035
-645.741	31.176	0.070	0.061
-644.726	-45.444	0.131	0.065
-643.711	-200.000	-0.059	0.313
-642.697	800.000	0.024	0.068
-641.682	800.000	-0.085	-0.297
-640.668	-140.466	-0.224	0.023
-639.653	2.932	0.203	-0.148
-638.638	37.148	-0.134	0.119
-637.624	-200.000	-0.014	0.247
-636.609	-88.671	0.143	0.043
-635.595	-53.053	-0.070	0.032
-634.580	-38.485	-0.164	0.087
-633.565	-174.957	0.115	-0.003
-632.551	81.510	0.115	0.125
-631.536	-122.740	-0.277	0.045
-630.522	328.764	0.093	0.179
-629.507	800.000	-0.095	0.289
-628.492	-79.568	-0.297	0.101
-627.478	-200.000	-0.205	-0.000
-626.463	-28.017	0.262	0.152
-625.449	-84.379	0.041	-0.013
-624.434	-106.819	-0.232	-0.052
-623.419	-0.016	0.143	-0.102
-622.405	553.645	-0.158	0.382
-621.390	4.704	-0.116	-0.085
-620.376	-69.281	-0.176	0.068
-619.361	-200.000	0.032	0.242
-618.346	-11.130	0.166	0.110
-617.332	168.952	-0.052	0.074
-616.317	800.000	0.040	0.161
-615.303	191.262	-0.128	-0.193
-614.288	-200.000	-0.007	-0.071
-613.273	-6.960	-0.168	-0.114
-612.259	623.786	-0.145	-0.366
-611.244	-27.828	-0.273	-0.159
-610.230	129.225	0.209	0.267
-609.215	299.561	-0.069	0.127
-608.201	211.071	-0.137	-0.216
-607.186	248.059	0.097	-0.164
-606.171	54.765	0.184	0.178
-605.157	4.516	0.062	-0.046
-604.142	-200.000	0.039	0.402
-603.128	21.665	-0.275	0.224
-602.113	250.926	0.136	-0.231
-601.098	240.533	-0.102	-0.171
-600.084	36.076	-0.010	0.009
-599.069	-78.087	-0.256	-0.088
-598.055	122.701	0.202	-0.254
-597.040	4.916	0.119	-0.088
-596.025	-22.734	-0.223	0.135
-595.011	17.288	-0.065	0.052
-593.996	800.000	0.041	0.120
-592.982	-74.686	-0.148	0.053
-591.967	302.345	-0.087	0.160
-590.952	-200.000	-0.056	-0.281
-589.938	-200.000	-0.270	-0.001
-588.923	-200.000	-0.006	-0.247
-587.909	800.000	-0.076	0.318
-586.894	-200.000	0.009	0.098
-585.879	-62.728	0.384	-0.159
-584.865	-65.590	-0.382	-0.154
-583.850	-200.000	-0.082	0.475
-582.836	290.790	-0.036	0.066
-581.821	17.280	0.208	0.165
-580.806	473.339	0.036	0.081
-579.792	-200.000	-0.019	0.105
-578.777	-200.000	0.037	0.271
-577.763	-37.187	0.409	0.219
-576.748	-37.701	0.064	0.034
-575.733	111.263	-0.186	-0.224
-574.719	800.000	-0.096	0.399
-573.704	7.058	-0.131	-0.098
-572.690	77.290	-0.064	0.069
-571.675	-43.652	0.067	-0.034
-570.661	-73.990	-0.301	0.109
-569.646	5.214	-0.233	-0.172
-568.631	800.000	0.041	-0.134
-567.617	-200.000	0.033	-0.362
-566.602	-200.000	-0.049	-0.301
-565.588	10.096	-0.128	-0.098
-564.573	11.519	-0.119	0.091
-563.558	-200.000	-0.017	0.149
-562.544	-140.832	-0.239	0.025
-561.529	-48.941	-0.140	-0.067
-560.515	-65.009	-0.091	-0.037
-559.500	44.495	-0.128	0.118
-558.485	-51.217	0.164	-0.077
-557.471	800.000	0.052	-0.227
-556.456	-6.093	-0.235	-0.161
-555.442	-46.844	0.274	-0.134
-554.427	159.256	-0.102	-0.142
-553.412	205.223	-0.066	0.102
-552.398	70.954	0.014	0.014
-551.383	78.211	0.082	0.087
-550.369	176.131	0.078	0.113
-549.354	97.189	-0.035	-0.040
-548.339	-51.464	-0.284	-0.133
-547.325	-150.776	0.302	0.023
-546.310	-69.767	-0.130	0.050
-545.296	283.264	-0.101	0.181
-544.281	252.597	-0.158	-0.269
-543.266	33.739	-0.131	-0.114
-542.252	800.000	-0.047	0.169
-541.237	257.258	-0.190	-0.326
-540.223	400.826	-0.143	-0.300
-539.208	-200.000	0.045	-0.522
-538.193	710.152	-0.085	-0.224
-537.179	40.209	0.276	0.248
-536.164	37.313	-0.239	0.212
-535.150	-155.906	0.080	-0.005
-534.135	164.870	0.032	-0.046
-533.121	-109.092	0.188	0.040
-532.106	-120.702	0.364	-0.061
-531.091	100.279	-0.105	-0.121
-530.077	321.772	0.072	0.136
-529.062	-25.145	0.217	-0.128
-528.048	-200.000	-0.002	-0.344
-527.033	74.393	-0.047	-0.049
-526.018	304.880	-0.088	-0.163
-525.004	7.595	0.075	-0.056
-523.989	323.007	-0.025	0.047
-522.975	-200.000	-0.035	-0.228
-521.960	-200.000	0.009	-0.207
-520.945	13.109	0.168	-0.130
-519.931	249.729	0.076	0.130
-518.916	156.783	0.313	0.432
-517.902	6.358	-0.195	-0.145
-516.887	49.427	-0.264	0.248
-515.872	131.389	-0.057	-0.073
-514.858	30.037	-0.166	-0.142
-513.843	111.085	-0.073	0.088
-512.829	8.108	0.087	0.065
-511.814	293.409	0.028	-0.050
-510.799	-91.499	0.350	0.100
-509.785	473.280	-0.094	-0.211
-508.770	800.000	0.040	-0.132
-507.756	800.000	-0.098	0.427
-506.741	-159.132	-0.123	0.007
-505.726	-95.170	-0.360	0.097
-504.712	480.282	0.082	0.186
-503.697	86.779	-0.155	-0.171
-502.683	-165.496	-0.155	0.007
-501.668	-200.000	0.013	-0.214
-500.653	-70.161	-0.197	-0.075
-499.639	157.507	0.154	0.213
-498.624	800.000	-0.160	-0.541
-497.610	113.818	0.107	-0.130
-496.595	800.000	0.100	0.301
-495.581	230.068	-0.156	-0.254
-494.566	-30.986	-0.223	-0.126
-493.551	-200.000	0.043	0.211
-492.537	-200.000	-0.016	0.087
-491.522	-11.872	0.490	-0.321
-490.508	-200.000	-0.002	-0.196
-489.493	-138.316	0.250	0.028
-488.478	257.531	-0.140	0.241
-487.464	-37.351	-0.006	-0.003
-486.449	152.545	0.108	-0.148
-485.435	174.540	-0.097	-0.140
-484.420	-58.309	0.074	0.032
-483.405	800.000	0.041	-0.156
-482.391	172.787	0.086	-0.123
-481.376	1.708	0.278	-0.200
-480.362	-139.807	-0.226	-0.024
-479.347	-55.349	0.214	0.096
-478.332	800.000	-0.061	-0.218
-477.318	-186.108	0.124	0.002
-476.303	-47.465	0.135	-0.066
-475.289	0.790	-0.154	0.110
-474.274	6.498	0.226	-0.167
-473.259	-41.599	0.352	0.180
-472.245	21.341	0.044	-0.035
-471.230	800.000	-0.050	-0.169
-470.216	-54.723	-0.054	-0.024
-469.201	150.104	0.234	-0.317
-468.186	-200.000	0.015	-0.109
-467.172	-79.405	0.197	0.066
-466.157	-182.918	0.038	0.001
-465.143	-52.550	-0.359	-0.165
-464.128	39.752	-0.274	0.245
-463.113	358.662	-0.157	0.312
-462.099	492.016	0.152	-0.348
-461.084	-59.823	-0.320	0.136
-460.070	-200.000	0.021	0.195
-459.055	-200.000	-0.010	0.172
-458.040	-74.192	0.281	-0.101
-457.026	33.464	0.315	0.273
-456.011	161.820	-0.255	0.356
-454.997	-143.858	0.226	0.021
-453.982	-66.034	0.205	0.082
-452.968	170.179	0.302	0.430
-451.953	-77.086	-0.362	-0.126
-450.938	386.331	0.091	-0.187
-449.924	800.000	0.033	0.103
-448.909	257.101	-0.044	0.076
-447.895	-126.831	-0.051	0.008
-446.880	800.000	0.075	0.259
-445.865	-42.589	0.216	-0.110
-444.851	-150.745	-0.130	0.010
-443.836	-151.204	0.319	0.024
-442.822	-17.745	-0.186	-0.117
-441.807	-200.000	-0.097	0.438
-440.792	-102.324	0.392	-0.094
-439.778	-120.541	-0.290	-0.049
-438.763	768.790	0.016	-0.044
-437.749	-37.430	-0.138	0.073
-436.734	-200.000	0.037	-0.187
-435.719	58.224	0.030	0.029
-434.705	-11.712	0.208	0.136
-433.690	-200.000	0.022	-0.099
-432.676	-200.000	-0.038	0.351
-431.661	-200.000	-0.046	-0.357
-430.646	-200.000	-0.028	-0.271
-429.632	120.366	-0.254	-0.314
-428.617	-117.458	-0.078	0.014
-427.603	-182.418	-0.285	-0.005
-426.588	-99.214	-0.231	0.058
-425.573	-200.000	0.050	-0.231
-424.559	-147.118	0.142	0.012
-423.544	-24.011	-0.269	0.160
-422.530	99.643	0.148	-0.171
-421.515	-68.216	-0.097	0.038
-420.500	-32.824	-0.294	-0.162
-419.486	-136.590	0.169	-0.019
-418.471	-145.208	0.360	0.032
-417.457	-127.724	0.242	-0.035
-416.442	-146.245	-0.026	0.002
-415.428	-200.000	0.129	-0.000
-414.413	646.614	-0.039	-0.099
-413.398	43.773	0.038	0.034
-412.384	11.362	0.163	-0.124
-411.369	146.162	0.112	-0.150
-410.355	800.000	0.088	-0.258
-409.340	-200.000	0.010	-0.223
-408.325	-200.000	-0.000	0.226
-407.311	-20.634	0.194	-0.119
-406.296	44.864	0.083	-0.076
-405.282	-141.033	0.372	-0.038
-404.267	53.743	0.078	0.074
-403.252	-200.000	0.009	0.056
-402.238	-49.190	0.473	0.225
-401.223	-200.000	0.031	0.228
-400.209	-13.674	0.095	0.061
-399.194	63.511	0.071	-0.071
-398.179	-10.879	0.297	0.195
-397.165	-24.946	-0.252	0.148
-396.150	-200.000	0.059	0.496
-395.136	-108.673	0.145	0.031
-394.121	-177.691	0.469	0.011
-393.106	-138.168	-0.057	0.006
-392.092	-200.000	-0.040	-0.228
-391.077	6.873	0.199	0.147
-390.063	290.231	0.012	-0.022
-389.048	-200.000	-0.043	-0.235
-388.033	83.065	0.128	0.138
-387.019	342.224	-0.042	-0.082
-386.004	-68.627	0.335	-0.129
-384.990	-6.661	0.106	0.072
-383.975	337.751	-0.007	0.013
-382.960	-71.963	0.439	0.162
-381.946	-25.230	0.075	0.044
-380.931	-178.536	-0.357	-0.008
-379.917	-77.426	0.151	-0.052
-378.902	-200.000	-0.007	0.201
-377.888	-69.979	0.130	-0.049
-376.873	-62.960	-0.364	0.149
-375.858	-161.658	-0.145	-0.007
-374.844	-107.811	-0.174	-0.038
-373.829	-35.625	-0.027	0.015
-372.815	-54.798	0.190	-0.085
-371.800	44.054	-0.322	-0.293
-370.785	70.389	0.095	-0.097
-369.771	-2.425	-0.239	0.167
-368.756	-102.811	-0.084	-0.020
-367.742	30.874	0.115	0.098
-366.727	-18.593	-0.212	-0.131
-365.712	-107.722	0.154	-0.033
-364.698	-163.204	-0.431	0.021
-363.683	97.317	0.096	0.109
-362.669	632.081	-0.060	-0.150
-361.654	-200.000	0.105	0.509
-360.639	-127.586	-0.041	-0.006
-359.625	2.681	-0.100	-0.072
-358.610	-119.349	0.096	0.017
-357.596	-37.197	0.014	-0.007
-356.581	72.039	0.059	0.061
-355.566	-200.000	0.011	-0.113
-354.552	38.007	-0.377	-0.333
-353.537	131.700	-0.241	-0.308
-352.523	-89.496	0.126	-0.037
-351.508	-16.509	0.185	-0.117
-350.493	-74.933	-0.173	0.061
-349.479	-183.097	-0.394	-0.007
-348.464	800.000	-0.041	-0.120
-347.450	-200.000	-0.001	0.212
-346.435	-161.506	-0.220	0.011
-345.420	-69.460	-0.124	0.047
-344.406	185.694	0.045	-0.066
-343.391	-102.844	0.227	0.054
-342.377	657.005	0.059	-0.150
-341.362	-127.614	-0.290	0.042
-340.348	-200.000	0.075	0.364
-339.333	800.000	-0.051	0.184
-338.318	3.339	0.163	0.117
-337.304	-200.000	-0.027	0.370
-336.289	-200.000	0.024	-0.234
-335.275	35.485	-0.350	-0.305
-334.260	-28.711	0.217	-0.124
-333.245	112.859	0.124	-0.149
-332.231	241.250	-0.163	-0.270
-331.216	-114.224	0.149	-0.028
-330.202	115.754	0.168	0.204
-329.187	156.800	-0.046	-0.062
-328.172	-96.404	-0.100	-0.026
-327.158	800.000	0.043	0.126
-326.143	-200.000	0.025	0.180
-325.129	494.371	-0.080	0.182
-324.114	-8.820	0.320	0.213
-323.099	-182.524	0.173	0.003
-322.085	-77.945	0.275	0.094
-321.070	-172.506	-0.226	-0.007
-320.056	81.677	-0.161	0.173
-319.041	-31.293	-0.248	0.138
-318.026	92.471	-0.063	-0.070
-317.012	-36.086	0.043	0.023
-315.997	113.487	-0.132	0.159
-314.983	12.990	0.099	-0.076
-313.968	-15.753	0.225	-0.142
-312.953	-200.000	0.001	-0.153
-311.939	-40.627	-0.340	0.175
-310.924	142.057	-0.006	-0.007
-309.910	387.521	-0.065	0.134
-308.895	-5.296	-0.175	0.119
-307.880	639.913	-0.149	0.375
-306.866	130.979	-0.064	0.081
-305.851	800.000	0.022	0.095
-304.837	-30.862	0.112	0.063
-303.822	34.848	0.409	0.354
-302.807	800.000	0.060	-0.256
-301.793	-64.441	-0.122	0.049
-300.778	4.702	-0.184	0.134
-299.764	800.000	0.101	-0.327
-298.749	618.812	0.067	-0.166
-297.735	13.486	-0.058	-0.044
-296.720	5.426	-0.070	-0.051
-295.705	19.895	-0.247	-0.197
-294.691	193.255	0.173	-0.258
-293.676	76.307	0.206	-0.216
-292.662	800.000	-0.084	-0.268
-291.647	126.776	-0.038	0.048
-290.632	274.107	0.162	0.283
-289.618	-140.869	0.150	-0.015
-288.603	758.881	-0.101	0.272
-287.589	485.169	0.100	-0.226
-286.574	242.597	-0.074	0.123
-285.559	-6.445	-0.191	0.129
-284.545	156.523	-0.261	-0.356
-283.530	-200.000	-0.079	-0.512
-282.516	48.279	0.093	-0.086
-281.501	-200.000	-0.010	0.331
-280.486	-87.148	-0.235	-0.071
-279.472	1.237	0.262	-0.187
-278.457	195.360	0.122	-0.183
-277.443	240.726	-0.128	-0.212
-276.428	-200.000	-0.076	-0.339
-275.413	-200.000	-0.041	-0.420
-274.399	-112.817	0.240	0.047
-273.384	-93.761	0.273	0.074
-272.370	52.895	-0.085	0.081
-271.355	559.048	-0.034	0.082
-270.340	-200.000	0.045	-0.294
-269.326	-178.640	0.237	-0.005
-268.311	-106.813	-0.186	-0.041
-267.297	-60.625	0.019	0.008
-266.282	44.770	0.110	0.100
-265.267	-16.362	0.179	-0.112
-264.253	-117.771	-0.120	0.021
-263.238	593.097	0.056	-0.137
-262.224	324.586	0.084	-0.159
-261.209	-200.000	0.009	0.259
-260.195	800.000	0.077	0.312
-259.180	-200.000	0.038	0.239
-258.165	-103.392	-0.101	0.023
-257.151	128.779	0.263	-0.332
-256.136	169.479	-0.142	-0.201
-255.122	800.000	-0.008	0.031
-254.107	-200.000	0.031	-0.229
-253.092	-81.775	-0.274	-0.089
-252.078	144.707	0.084	0.111
-251.063	119.730	-0.152	0.186
-250.049	14.933	0.235	0.182
-249.034	-150.591	0.068	0.005
-248.019	193.339	-0.058	0.087
-247.005	-200.000	0.042	-0.315
-245.990	214.825	-0.107	-0.168
-244.976	66.975	0.151	-0.152
-243.961	94.499	0.237	0.266
-242.946	-200.000	-0.105	-0.557
-241.932	-54.327	0.252	0.113
-240.917	-136.713	-0.250	0.029
-239.903	800.000	0.042	0.165
-238.888	-69.644	-0.225	0.085
-237.873	150.117	-0.158	0.212
-236.859	-165.074	-0.326	0.014
-235.844	130.329	0.121	-0.153
-234.830	97.843	-0.143	0.162
-233.815	-17.697	0.229	0.142
-232.800	-108.671	0.196	0.042
-231.786	231.008	0.074	0.120
-230.771	-170.993	-0.206	0.007
-229.757	240.971	0.163	0.270
-228.742	-103.988	0.275	0.063
-227.727	100.389	0.220	-0.252
-226.713	579.923	0.157	-0.379
-225.698	259.339	-0.096	0.164
-224.684	-200.000	-0.049	0.223
-223.669	-106.840	-0.103	0.023
-222.655	30.545	0.325	0.274
-221.640	-83.753	-0.263	0.083
-220.625	139.183	-0.068	0.088
-219.611	-112.573	0.288	-0.057
-218.596	332.955	0.063	0.120
-217.582	-139.309	0.398	-0.042
-216.567	-120.432	-0.129	0.022
-215.552	-49.186	0.338	0.160
-214.538	72.713	0.227	0.233
-213.523	171.559	-0.135	-0.191
-212.509	-200.000	0.018	0.224
-211.494	800.000	0.040	-0.140
-210.479	-32.341	0.156	0.086
-209.465	-53.327	-0.099	0.045
-208.450	-50.599	-0.146	-0.068
-207.436	152.069	-0.024	0.032
-206.421	156.844	-0.097	-0.133
-205.406	-200.000	-0.034	-0.344
-204.392	97.461	0.100	0.114
-203.377	800.000	-0.029	-0.089
-202.363	800.000	-0.071	-0.300
-201.348	145.051	-0.059	-0.077
-200.333	435.684	0.196	0.420
-199.319	17.707	-0.129	-0.101
-198.304	-128.066	0.299	0.042
-197.290	-16.878	-0.132	0.082
-196.275	238.744	0.120	-0.197
-195.260	-127.438	-0.189	0.027
-194.246	26.090	-0.300	-0.247
-193.231	-22.765	-0.124	0.074
-192.217	-154.588	0.186	-0.012
-191.202	-200.000	-0.055	0.309
-190.187	452.954	-0.022	0.047
-189.173	-49.389	-0.202	-0.095
-188.158	42.629	-0.006	0.005
-187.144	-10.471	0.169	-0.110
-186.129	-27.609	0.156	-0.090
-185.114	-35.500	-0.252	-0.135
-184.100	387.705	-0.073	-0.149
-183.085	-175.894	0.210	0.006
-182.071	800.000	-0.047	0.136
-181.056	-122.039	0.277	-0.045
-180.042	-80.143	0.057	0.019
-179.027	-28.948	-0.193	0.109
-178.012	-39.629	0.144	0.074
-176.998	-148.994	0.210	0.017
-175.983	102.017	-0.224	0.258
-174.969	81.286	0.092	0.098
-173.954	574.055	0.062	-0.149
-172.939	-91.899	-0.348	-0.097
-171.925	-37.617	-0.042	-0.022
-170.910	-200.000	-0.024	0.124
-169.896	-70.972	-0.322	-0.120
-168.881	-101.896	0.360	0.086
-167.866	43.811	-0.185	0.167
-166.852	-22.859	-0.095	-0.057
-165.837	46.839	0.135	-0.124
-164.823	-34.280	0.063	0.034
-163.808	-171.065	-0.229	0.008
-162.793	-37.157	0.127	-0.067
-161.779	-173.264	-0.714	0.021
-160.764	121.286	0.230	0.283
-159.750	-29.928	0.179	0.101
-158.735	-35.537	0.187	0.100
-157.720	-200.000	-0.003	-0.148
-156.706	-200.000	-0.043	-0.256
-155.691	-200.000	0.028	0.329
-154.677	800.000	0.019	0.057
-153.662	-200.000	-0.010	-0.153
-152.647	45.602	-0.343	0.312
-151.633	92.464	0.070	0.078
-150.618	-76.343	-0.142	0.049
-149.604	-200.000	-0.074	-0.371
-148.589	-200.000	-0.020	-0.175
-147.574	23.882	-0.318	0.258
-146.560	-54.141	-0.070	0.031
-145.545	-119.371	0.040	0.007
-144.531	23.500	-0.210	0.170
-143.516	-78.572	-0.037	-0.012
-142.502	152.726	-0.163	0.220
-141.487	131.230	0.244	-0.308
-140.472	-200.000	-0.007	0.087
-139.458	-78.998	-0.289	-0.097
-138.443	-1.549	-0.304	0.211
-137.429	-139.175	-0.327	-0.035
-136.414	661.146	-0.064	0.164
-135.399	80.694	-0.132	0.140
-134.385	329.973	-0.207	0.392
-133.370	-38.772	0.471	0.245
-132.356	-165.293	-0.350	0.015
-131.341	-105.534	-0.199	-0.044
-130.326	260.095	0.009	-0.015
-129.312	468.030	-0.106	-0.234
-128.297	-200.000	-0.069	-0.369
-127.283	100.237	0.050	-0.057
-126.268	659.494	-0.078	0.198
-125.253	-200.000	-0.028	-0.186
-124.239	71.046	0.276	0.282
-123.224	-109.001	-0.060	0.013
-122.210	-140.856	-0.219	-0.022
-121.195	-72.401	-0.454	0.165
