DTS Sentinel unit serial number:	SN413079Multiplexer serial number:	ORYXHardware model number:	OX4-SRSoftware version number:	ORYX F/W v4.00 Oryx Data Collector v3.7.2.0data status	okinstallation	princeton_trtdifferential loss correction	single-endedforward channel	channel 4reverse channel	N/Adate	2019/09/11time	03:03:11forward acquisition time	60.00reverse acquisition time	0.00gamma	496.2192k internal	0.2317k external	0.2317temperature offset calibration	0.9946default loss term (dB/km)	0.3790temperature slope calibration	1.0000multiplexer offset coefficient	1.0000multiplexer slope coefficient	1.0000fibre end	0.00T internal ref (°C)	29.30T ext. ref 1 (°C)	-0.30T ext. ref 2 (°C)	23.67length (m)	temperature (°C)	Stokes	anti-Stokes-747.200	384.328	0.113	0.236
-746.185	167.463	-0.243	0.350
-745.171	-118.900	0.231	0.041
-744.156	-200.000	0.027	-0.159
-743.142	-39.731	0.120	-0.063
-742.127	-200.000	0.009	0.107
-741.112	-29.611	-0.243	0.141
-740.098	137.643	-0.171	0.226
-739.083	-146.181	-0.098	0.009
-738.069	286.072	0.198	0.362
-737.054	312.366	0.138	-0.262
-736.039	191.700	-0.136	-0.208
-735.025	495.928	0.237	0.551
-734.010	107.361	-0.135	-0.162
-732.996	-99.935	-0.196	0.049
-731.981	-200.000	0.004	-0.236
-730.966	-25.419	-0.154	-0.092
-729.952	95.164	-0.189	-0.218
-728.937	403.093	0.115	0.245
-727.923	800.000	0.039	0.156
-726.908	-140.482	0.482	-0.051
-725.894	592.044	-0.045	-0.112
-724.879	2.096	0.192	-0.140
-723.864	-54.860	0.490	-0.224
-722.850	-18.414	-0.200	-0.126
-721.835	159.579	-0.109	0.153
-720.821	-71.445	-0.241	-0.091
-719.806	-68.608	-0.233	-0.091
-718.791	-48.093	0.120	0.059
-717.777	-200.000	0.016	-0.304
-716.762	-200.000	-0.005	0.313
-715.748	-89.944	-0.378	-0.112
-714.733	-126.190	-0.209	-0.032
-713.718	-60.880	-0.514	-0.220
-712.704	800.000	0.026	0.111
-711.689	205.558	0.025	-0.039
-710.675	732.813	0.073	0.198
-709.660	-15.606	-0.073	0.047
-708.645	397.582	0.048	0.101
-707.631	95.810	-0.119	-0.137
-706.616	337.085	-0.062	-0.122
-705.602	68.070	-0.277	0.286
-704.587	52.402	0.066	0.064
-703.572	304.353	-0.046	-0.087
-702.558	75.235	0.182	-0.194
-701.543	800.000	-0.055	-0.200
-700.529	104.431	0.318	0.378
-699.514	800.000	-0.062	0.245
-698.499	-200.000	-0.066	-0.526
-697.485	146.978	-0.107	-0.145
-696.470	-53.092	0.220	0.102
-695.456	800.000	0.041	-0.173
-694.441	448.884	0.146	0.325
-693.426	98.890	0.049	0.057
-692.412	-54.493	0.148	-0.068
-691.397	-115.638	-0.273	0.052
-690.383	-200.000	0.028	-0.203
-689.368	373.677	0.167	-0.343
-688.354	800.000	0.113	-0.328
-687.339	-158.605	0.350	0.020
-686.324	102.061	-0.356	0.420
-685.310	-87.343	0.093	-0.029
-684.295	-65.744	-0.168	-0.068
-683.281	-200.000	0.044	0.206
-682.266	-200.000	0.025	0.239
-681.251	-200.000	-0.019	-0.124
-680.237	-97.228	-0.282	0.074
-679.222	188.143	-0.089	-0.135
-678.208	800.000	-0.093	-0.289
-677.193	-200.000	-0.038	-0.210
-676.178	81.234	0.178	-0.194
-675.164	-73.641	-0.312	-0.115
-674.149	-200.000	0.018	0.174
-673.135	722.961	0.071	-0.190
-672.120	-63.859	-0.445	-0.184
-671.105	-88.133	-0.171	-0.052
-670.091	-36.539	0.073	0.040
-669.076	-5.102	-0.080	0.055
-668.062	-200.000	-0.007	-0.131
-667.047	-28.976	-0.283	0.164
-666.032	-120.933	0.362	0.061
-665.018	53.192	-0.117	0.113
-664.003	-174.245	-0.149	-0.004
-662.989	800.000	-0.031	-0.098
-661.974	4.004	-0.246	-0.182
-660.959	-79.362	-0.082	0.028
-659.945	-49.142	-0.383	-0.185
-658.930	800.000	-0.080	-0.316
-657.916	-68.710	0.187	0.073
-656.901	145.337	0.045	-0.061
-655.886	-45.868	-0.305	0.152
-654.872	-126.597	-0.233	0.035
-653.857	-200.000	0.022	0.109
-652.843	-200.000	-0.007	-0.391
-651.828	437.212	-0.096	-0.210
-650.814	-168.079	0.481	0.019
-649.799	-119.708	-0.181	-0.031
-648.784	800.000	0.112	-0.463
-647.770	-1.043	-0.216	-0.154
-646.755	-200.000	-0.018	0.171
-645.741	66.628	0.080	-0.082
-644.726	800.000	-0.071	0.200
-643.711	-16.674	0.113	-0.072
-642.697	395.158	0.038	0.081
-641.682	-157.922	0.235	0.014
-640.668	-23.633	0.433	0.262
-639.653	24.518	-0.167	-0.139
-638.638	-12.049	-0.208	0.137
-637.624	269.540	-0.045	-0.080
-636.609	76.915	-0.218	0.234
-635.595	-200.000	-0.002	0.241
-634.580	-200.000	-0.048	0.383
-633.565	-21.026	-0.185	-0.114
-632.551	-65.305	-0.094	-0.038
-631.536	33.321	-0.246	-0.215
-630.522	61.077	-0.164	0.164
-629.507	-200.000	0.006	0.122
-628.492	86.376	-0.240	0.267
-627.478	171.750	0.231	0.335
-626.463	-49.613	0.042	-0.020
-625.449	-22.152	0.448	-0.274
-624.434	-112.288	-0.268	-0.054
-623.419	-200.000	-0.028	0.131
-622.405	-92.969	0.360	0.101
-621.390	-27.686	0.319	-0.186
-620.376	-119.185	-0.258	-0.045
-619.361	-200.000	0.011	0.132
-618.346	80.500	0.240	0.260
-617.332	-135.073	-0.139	0.017
-616.317	-122.101	-0.079	-0.013
-615.303	-200.000	0.012	-0.127
-614.288	788.843	0.113	-0.314
-613.273	360.987	-0.066	-0.133
-612.259	9.286	0.186	-0.142
-611.244	-144.220	0.234	-0.022
-610.230	-92.475	0.117	-0.033
-609.215	527.940	0.091	-0.216
-608.201	800.000	0.054	-0.205
-607.186	643.450	0.147	-0.377
-606.171	-178.935	0.218	0.005
-605.157	457.804	-0.098	0.219
-604.142	211.588	0.121	0.191
-603.128	53.650	-0.164	0.159
-602.113	800.000	0.024	-0.103
-601.098	29.944	-0.041	0.035
-600.084	-136.658	-0.201	0.023
-599.069	8.889	0.095	0.072
-598.055	800.000	-0.037	0.124
-597.040	-88.884	0.457	0.137
-596.025	-200.000	-0.032	-0.282
-595.011	-200.000	-0.044	0.277
-593.996	-56.518	0.175	0.078
-592.982	639.423	-0.144	0.369
-591.967	77.618	0.163	-0.175
-590.952	53.957	-0.142	-0.138
-589.938	82.590	-0.215	-0.235
-588.923	195.356	-0.217	0.332
-587.909	-81.661	-0.435	0.144
-586.894	17.076	-0.035	0.028
-585.879	424.730	-0.014	-0.030
-584.865	-98.658	-0.115	0.030
-583.850	-200.000	0.025	0.332
-582.836	800.000	0.076	0.245
-581.821	-139.719	0.107	0.011
-580.806	285.786	-0.071	-0.129
-579.792	-164.488	-0.128	-0.006
-578.777	-41.069	0.198	-0.103
-577.763	737.209	0.092	0.248
-576.748	-24.593	0.118	0.071
-575.733	63.293	0.107	-0.108
-574.719	-1.968	0.100	0.071
-573.704	800.000	0.125	-0.439
-572.690	2.642	-0.181	-0.132
-571.675	133.791	-0.049	0.063
-570.661	-151.758	0.480	0.036
-569.646	-200.000	-0.040	-0.497
-568.631	619.240	0.152	-0.383
-567.617	800.000	0.159	-0.495
-566.602	800.000	-0.044	0.176
-565.588	316.419	-0.136	-0.258
-564.573	506.465	-0.113	0.264
-563.558	-200.000	-0.007	0.183
-562.544	534.748	0.029	-0.070
-561.529	213.020	0.141	-0.223
-560.515	800.000	-0.046	-0.170
-559.500	-200.000	-0.056	0.250
-558.485	800.000	-0.084	0.339
-557.471	-128.221	0.285	0.041
-556.456	140.866	-0.115	-0.152
-555.442	-200.000	-0.005	0.023
-554.427	85.836	-0.021	0.023
-553.412	800.000	0.074	-0.263
-552.398	-97.976	-0.120	0.031
-551.383	65.867	-0.227	0.231
-550.369	-98.943	-0.172	0.044
-549.354	-125.640	-0.158	0.024
-548.339	278.203	0.109	0.195
-547.325	-200.000	0.040	-0.224
-546.310	339.621	-0.060	0.118
-545.296	293.524	-0.053	0.098
-544.281	-200.000	-0.041	0.506
-543.266	-72.059	0.140	0.052
-542.252	164.587	0.122	0.173
-541.237	-55.336	0.147	-0.067
-540.223	132.036	-0.163	0.211
-539.208	-90.283	0.071	0.021
-538.193	-8.583	0.029	-0.019
-537.179	176.038	-0.182	0.265
-536.164	18.695	-0.228	-0.183
-535.150	81.635	-0.103	-0.111
-534.135	-168.072	0.139	0.005
-533.121	36.292	-0.065	0.057
-532.106	-136.665	-0.303	-0.035
-531.091	800.000	0.051	0.190
-530.077	3.222	-0.056	-0.041
-529.062	-105.196	-0.485	-0.111
-528.048	-184.066	-0.147	0.002
-527.033	-200.000	-0.009	-0.267
-526.018	-54.131	0.253	-0.115
-525.004	-108.800	0.236	-0.051
-523.989	121.598	-0.135	0.169
-522.975	-83.837	0.297	0.095
-521.960	-87.549	0.212	-0.064
-520.945	800.000	-0.084	-0.237
-519.931	-116.441	-0.096	-0.018
-518.916	-116.121	-0.214	-0.040
-517.902	-182.066	0.324	-0.006
-516.887	-56.166	-0.119	-0.053
-515.872	719.363	-0.108	-0.289
-514.858	63.474	-0.192	0.193
-513.843	8.103	-0.073	0.055
-512.829	531.813	0.094	0.223
-511.814	53.213	0.034	0.032
-510.799	-22.887	-0.077	-0.047
-509.785	319.599	-0.210	-0.400
-508.770	651.285	-0.068	0.174
-507.756	-53.449	0.342	-0.157
-506.741	402.933	-0.014	0.029
-505.726	-107.254	0.262	-0.058
-504.712	-33.691	-0.048	-0.026
-503.697	244.499	0.094	-0.159
-502.683	800.000	-0.036	-0.115
-501.668	73.368	-0.149	-0.156
-500.653	-200.000	-0.172	0.001
-499.639	207.908	-0.090	-0.141
-498.624	-97.785	0.073	0.019
-497.610	-114.717	-0.071	0.014
-496.595	-200.000	0.014	-0.196
-495.581	-200.000	0.021	0.421
-494.566	-200.000	-0.025	0.400
-493.551	75.308	-0.146	-0.154
-492.537	45.530	-0.068	-0.063
-491.522	-1.403	-0.057	-0.040
-490.508	4.283	0.285	0.209
-489.493	800.000	0.073	-0.262
-488.478	800.000	-0.161	-0.527
-487.464	-200.000	0.036	0.336
-486.449	-153.845	-0.131	0.009
-485.435	-140.712	-0.105	-0.011
-484.420	125.457	0.108	-0.137
-483.405	188.557	-0.207	-0.310
-482.391	153.414	0.030	0.042
-481.376	286.565	-0.131	-0.238
-480.362	253.970	0.249	0.427
-479.347	-200.000	0.009	0.190
-478.332	-114.242	0.331	0.064
-477.318	-160.574	-0.115	-0.006
-476.303	47.571	0.260	0.243
-475.289	-1.187	0.150	-0.106
-474.274	25.312	-0.102	0.085
-473.259	-123.888	-0.020	-0.003
-472.245	57.414	-0.131	0.128
-471.230	507.646	-0.060	-0.140
-470.216	588.820	0.065	-0.162
-469.201	-46.821	0.152	-0.075
-468.186	800.000	-0.072	-0.202
-467.172	-116.640	-0.276	0.051
-466.157	-200.000	0.079	0.413
-465.143	-200.000	-0.007	-0.116
-464.128	3.716	0.149	-0.109
-463.113	-64.696	-0.257	0.104
-462.099	48.176	-0.134	-0.125
-461.084	225.355	0.095	0.153
-460.070	261.789	0.053	0.092
-459.055	-200.000	-0.010	0.059
-458.040	101.184	-0.186	-0.217
-457.026	-105.891	0.300	-0.068
-456.011	-200.000	-0.051	-0.326
-454.997	-76.479	-0.143	-0.050
-453.982	192.257	-0.208	0.315
-452.968	-125.702	0.055	-0.008
-451.953	128.960	0.096	-0.123
-450.938	800.000	-0.056	-0.211
-449.924	-200.000	0.032	0.222
-448.909	-85.545	0.261	0.081
-447.895	3.406	-0.258	-0.188
-446.880	-130.911	0.077	-0.010
-445.865	-200.000	-0.019	0.121
-444.851	-141.840	-0.220	-0.022
-443.836	-119.454	0.142	0.025
-442.822	800.000	-0.010	0.039
-441.807	-56.561	-0.267	-0.119
-440.792	16.653	0.147	0.116
-439.778	-200.000	-0.018	0.101
-438.763	159.118	0.104	-0.144
-437.749	-200.000	0.032	0.147
-436.734	-132.078	-0.507	0.066
-435.719	518.747	0.095	-0.223
-434.705	-114.694	0.404	-0.077
-433.690	800.000	0.076	0.242
-432.676	160.993	-0.131	0.183
-431.661	7.811	0.073	-0.055
-430.646	-132.264	0.263	-0.034
-429.632	800.000	0.057	0.200
-428.617	-123.728	-0.325	-0.051
-427.603	702.182	-0.089	0.233
-426.588	718.198	-0.028	-0.074
-425.573	155.614	0.126	-0.173
-424.559	15.263	-0.189	0.148
-423.544	800.000	-0.055	-0.220
-422.530	-200.000	0.057	0.257
-421.515	-130.856	-0.120	0.016
-420.500	24.979	0.062	-0.052
-419.486	800.000	0.048	0.181
-418.471	-16.778	-0.340	0.215
-417.457	293.595	0.132	-0.240
-416.442	213.453	0.113	-0.179
-415.428	26.642	-0.150	-0.126
-414.413	-128.722	0.109	-0.015
-413.398	800.000	-0.042	-0.130
-412.384	412.822	-0.179	0.380
-411.369	64.923	0.148	-0.149
-410.355	-152.202	0.075	-0.005
-409.340	-2.494	-0.212	-0.149
-408.325	49.642	0.128	0.121
-407.311	-40.824	0.499	0.258
-406.296	-25.664	-0.060	0.035
-405.282	-114.848	-0.081	-0.015
-404.267	9.827	-0.123	-0.093
-403.252	-118.291	-0.151	-0.027
-402.238	-200.000	-0.006	0.106
-401.223	72.187	0.143	0.149
-400.209	-136.425	-0.344	-0.040
-399.194	-58.367	0.180	0.078
-398.179	82.762	-0.190	0.207
-397.165	-31.715	0.064	0.036
-396.150	110.034	-0.123	0.147
-395.136	-153.658	-0.130	-0.009
-394.121	380.930	-0.117	-0.241
-393.106	-200.000	0.021	-0.429
-392.092	-79.168	-0.217	-0.074
-391.077	-200.000	-0.056	0.270
-390.063	800.000	-0.100	0.403
-389.048	167.706	0.058	-0.083
-388.033	-148.544	0.393	-0.032
-387.019	181.135	0.154	-0.226
-386.004	-200.000	-0.007	0.230
-384.990	-26.106	-0.222	0.130
-383.975	800.000	0.089	0.331
-382.960	-42.525	-0.216	-0.110
-381.946	-200.000	0.022	0.115
-380.931	-125.823	-0.354	-0.053
-379.917	-96.470	-0.391	0.103
-378.902	730.128	0.118	-0.315
-377.888	-200.000	0.000	-0.206
-376.873	70.727	-0.053	-0.055
-375.858	668.222	-0.060	-0.154
-374.844	-52.194	0.320	-0.148
-373.829	754.225	0.041	0.111
-372.815	-20.386	0.270	0.166
-371.800	-48.323	-0.221	0.106
-370.785	-5.739	0.331	-0.226
-369.771	-200.000	-0.088	-0.549
-368.756	-200.000	0.200	-0.001
-367.742	-200.000	-0.026	0.139
-366.727	800.000	-0.047	-0.168
-365.712	-146.670	-0.461	0.040
-364.698	106.396	0.321	-0.380
-363.683	453.060	-0.103	-0.228
-362.669	-111.955	0.390	0.079
-361.654	-38.142	-0.032	0.017
-360.639	-200.000	-0.018	0.232
-359.625	-63.999	-0.323	-0.132
-358.610	800.000	0.083	-0.242
-357.596	-15.503	0.096	0.061
-356.581	800.000	-0.134	0.586
-355.566	401.342	0.063	0.132
-354.552	-135.125	-0.209	0.025
-353.537	116.536	-0.094	0.115
-352.523	145.805	-0.107	-0.142
-351.508	-125.255	0.380	-0.058
-350.493	-200.000	-0.001	0.193
-349.479	800.000	-0.069	-0.288
-348.464	227.596	-0.185	0.300
-347.450	-200.000	-0.034	0.211
-346.435	23.940	0.088	0.073
-345.420	210.202	0.113	0.178
-344.406	-27.654	-0.106	-0.061
-343.391	-200.000	-0.012	-0.122
-342.377	-200.000	0.031	0.259
-341.362	-65.848	-0.094	-0.038
-340.348	254.276	-0.164	-0.279
-339.333	-125.827	0.122	0.018
-338.318	-118.083	0.078	-0.014
-337.304	-105.530	-0.185	-0.042
-336.289	-155.363	-0.217	0.014
-335.275	-49.302	-0.348	-0.166
-334.260	157.007	0.213	0.294
-333.245	-200.000	-0.018	0.268
-332.231	-200.000	0.149	0.686
-331.216	361.034	0.168	0.335
-330.202	269.222	-0.268	-0.469
-329.187	589.121	0.114	0.279
-328.172	-21.337	0.223	0.136
-327.158	2.589	-0.151	-0.109
-326.143	-147.498	0.267	-0.022
-325.129	437.536	0.080	-0.174
-324.114	44.017	0.046	0.042
-323.099	8.699	-0.123	0.092
-322.085	-59.240	-0.342	0.147
-321.070	348.898	-0.071	0.140
-320.056	241.282	-0.121	0.201
-319.041	125.023	0.052	-0.066
-318.026	-200.000	0.037	0.242
-317.012	108.811	-0.083	-0.099
-315.997	122.095	-0.251	-0.311
-314.983	-138.840	-0.146	0.016
-313.968	-102.199	0.184	0.044
-312.953	800.000	-0.159	-0.445
-311.939	6.416	0.189	0.140
-310.924	-200.000	0.002	0.026
-309.910	-10.131	0.120	-0.079
-308.895	542.341	-0.100	-0.238
-307.880	236.511	0.212	-0.349
-306.866	-200.000	-0.022	0.297
-305.851	407.298	0.155	-0.325
-304.837	103.990	0.216	-0.253
-303.822	-87.128	0.161	-0.049
-302.807	160.944	-0.142	-0.197
-301.793	342.891	0.007	0.013
-300.778	-81.085	-0.256	-0.084
-299.764	-49.658	0.227	0.108
-298.749	-200.000	0.036	-0.172
-297.735	-143.736	-0.043	0.004
-296.720	800.000	0.058	0.230
-295.705	-130.587	-0.236	0.032
-294.691	40.523	0.158	-0.142
-293.676	-50.939	0.117	0.054
-292.662	-42.315	0.297	0.151
-291.647	-200.000	0.013	0.217
-290.632	-200.000	-0.261	0.001
-289.618	11.772	0.144	0.110
-288.603	-86.772	0.268	0.082
-287.589	-200.000	-0.027	-0.263
-286.574	140.015	0.087	0.114
-285.559	496.382	-0.122	-0.278
-284.545	-126.484	-0.200	-0.030
-283.530	97.056	-0.194	-0.221
-282.516	-154.116	0.159	-0.011
-281.501	91.708	0.197	-0.220
-280.486	-200.000	-0.030	0.155
-279.472	800.000	-0.069	-0.213
-278.457	270.234	-0.042	0.073
-277.443	-200.000	0.060	0.327
-276.428	159.595	0.171	-0.236
-275.413	-91.161	-0.189	0.054
-274.399	464.769	-0.017	0.039
-273.384	-200.000	0.012	-0.212
-272.370	-200.000	-0.010	-0.068
-271.355	-200.000	0.002	0.128
-270.340	269.902	-0.082	-0.144
-269.326	617.349	-0.067	-0.167
-268.311	72.328	0.063	-0.065
-267.297	-200.000	0.004	0.035
-266.282	93.695	0.177	0.199
-265.267	-85.996	0.212	-0.065
-264.253	-97.252	0.258	-0.067
-263.238	74.951	-0.111	-0.116
-262.224	-133.235	0.158	0.020
-261.209	-51.692	0.104	0.048
-260.195	108.958	0.160	0.190
-259.180	-112.759	0.323	0.064
-258.165	-113.613	0.058	0.011
-257.151	-141.757	-0.208	-0.021
-256.136	44.099	-0.162	0.147
-255.122	-112.491	0.195	0.039
-254.107	-200.000	0.009	-0.045
-253.092	-58.973	-0.167	-0.072
-252.078	309.847	0.078	0.146
-251.063	68.604	0.088	-0.089
-250.049	-67.555	0.218	-0.085
-249.034	800.000	0.071	0.205
-248.019	86.198	0.054	-0.059
-247.005	-60.721	0.285	0.120
-245.990	9.117	-0.131	0.098
-244.976	211.350	-0.218	0.340
-243.961	-53.978	0.289	-0.131
-242.946	372.339	-0.047	-0.094
-241.932	-200.000	0.003	0.086
-240.917	269.232	0.213	0.372
-239.903	-35.526	-0.242	-0.130
-238.888	-200.000	-0.021	0.390
-237.873	-36.873	0.236	0.126
-236.859	253.071	0.155	-0.262
-235.844	100.247	-0.100	0.115
-234.830	-200.000	0.066	0.529
-233.815	-184.739	0.265	-0.004
-232.800	19.188	-0.153	0.122
-231.786	-200.000	0.022	-0.105
-230.771	800.000	0.035	-0.107
-229.757	474.374	-0.125	0.280
-228.742	-95.004	-0.360	0.096
-227.727	-141.972	0.365	0.036
-226.713	-200.000	0.049	-0.466
-225.698	800.000	-0.118	-0.373
-224.684	312.229	0.077	-0.143
-223.669	-200.000	-0.039	0.244
-222.655	551.399	-0.105	0.250
-221.640	-99.269	-0.155	-0.039
-220.625	-200.000	0.008	-0.175
-219.611	-55.624	0.228	0.101
-218.596	-140.136	-0.113	0.012
-217.582	-200.000	-0.004	-0.105
-216.567	319.707	-0.138	-0.259
-215.552	-102.309	0.210	-0.050
-214.538	-9.407	0.223	0.148
-213.523	151.300	0.196	-0.264
-212.509	222.870	-0.103	-0.165
-211.494	57.199	-0.184	-0.178
-210.479	-92.588	-0.189	-0.053
-209.465	88.943	0.225	0.248
-208.450	192.529	-0.184	-0.275
-207.436	-200.000	-0.014	0.135
-206.421	800.000	-0.071	-0.264
-205.406	391.790	-0.117	0.242
-204.392	-20.276	0.244	0.149
-203.377	-117.194	-0.221	-0.040
-202.363	-200.000	0.020	-0.182
-201.348	-32.659	-0.095	0.053
-200.333	-167.050	0.244	0.010
-199.319	-200.000	-0.035	-0.344
-198.304	-87.576	-0.401	-0.120
-197.290	48.409	0.249	0.231
-196.275	-150.608	-0.191	0.014
-195.260	5.290	-0.067	0.049
-194.246	213.416	-0.035	-0.055
-193.231	-170.237	0.329	0.012
-192.217	-84.939	-0.144	0.045
-191.202	800.000	0.051	-0.165
-190.187	73.739	-0.119	0.124
-189.173	-200.000	-0.016	-0.236
-188.158	-29.871	-0.134	-0.075
-187.144	-97.520	0.238	-0.061
-186.129	-32.966	-0.216	-0.119
-185.114	-1.553	-0.065	-0.046
-184.100	398.856	0.211	0.438
-183.085	357.496	-0.073	-0.145
-182.071	-127.249	-0.182	0.026
-181.056	269.416	-0.127	-0.221
-180.042	-4.384	0.430	-0.294
-179.027	-200.000	0.001	-0.062
-178.012	-56.234	-0.325	-0.143
-176.998	119.651	-0.090	0.110
-175.983	800.000	-0.063	0.212
-174.969	-62.808	0.600	-0.246
-173.954	100.418	0.363	0.417
-172.939	-103.597	-0.127	-0.029
-171.925	-80.707	-0.219	0.072
-170.910	-73.952	-0.230	-0.083
-169.896	800.000	0.049	-0.155
-168.881	-24.056	-0.180	0.106
-167.866	4.959	-0.379	-0.276
-166.852	415.513	-0.058	-0.123
-165.837	-166.029	-0.146	-0.006
-164.823	-65.351	0.132	0.053
-163.808	-200.000	0.007	0.050
-162.793	-7.102	0.163	-0.110
-161.779	41.795	-0.028	-0.025
-160.764	9.618	0.204	-0.153
-159.750	-200.000	-0.016	0.221
-158.735	-59.247	0.369	0.157
-157.720	-34.497	-0.189	-0.103
-156.706	-96.105	0.265	-0.070
-155.691	800.000	0.042	0.169
-154.677	-98.744	-0.057	-0.014
-153.662	511.215	0.084	0.192
-152.647	315.809	-0.037	-0.068
-151.633	800.000	-0.050	-0.209
-150.618	148.023	0.012	0.016
-149.604	193.270	-0.198	0.297
-148.589	-106.510	0.281	-0.062
-147.574	170.426	-0.211	-0.299
-146.560	502.070	0.068	-0.155
-145.545	375.723	-0.217	-0.438
-144.531	-200.000	-0.003	0.087
-143.516	37.831	-0.072	0.064
-142.502	-200.000	-0.017	0.309
-141.487	249.006	-0.135	-0.225
-140.472	-200.000	0.034	-0.240
-139.458	118.825	-0.311	0.381
-138.443	-114.652	-0.380	-0.072
-137.429	67.637	0.221	-0.223
-136.414	-109.088	-0.091	0.019
-135.399	-8.534	0.169	0.112
-134.385	130.655	-0.271	-0.344
-133.370	256.455	0.054	-0.092
-132.356	-59.051	-0.055	0.024
-131.341	214.154	-0.156	0.244
-130.326	-54.345	-0.297	-0.133
-129.312	-78.185	-0.143	0.049
-128.297	199.385	0.114	-0.173
-127.283	194.884	-0.091	0.136
-126.268	-200.000	0.000	-0.002
-125.253	-200.000	-0.005	-0.230
-124.239	-200.000	-0.001	0.179
-123.224	-200.000	0.037	0.419
-122.210	666.499	0.085	0.217
