DTS Sentinel unit serial number:	SN413079Multiplexer serial number:	ORYXHardware model number:	OX4-SRSoftware version number:	ORYX F/W v4.00 Oryx Data Collector v3.7.2.0data status	okinstallation	princeton_trtdifferential loss correction	single-endedforward channel	channel 4reverse channel	N/Adate	2019/09/17time	18:33:34forward acquisition time	60.00reverse acquisition time	0.00gamma	496.2192k internal	0.2280k external	0.2280temperature offset calibration	0.9980default loss term (dB/km)	0.3790temperature slope calibration	1.0000multiplexer offset coefficient	1.0000multiplexer slope coefficient	1.0000fibre end	0.00T internal ref (°C)	42.87T ext. ref 1 (°C)	0.31T ext. ref 2 (°C)	35.86length (m)	temperature (°C)	Stokes	anti-Stokes-747.200	-100.960	0.140	-0.035
-746.185	56.127	-0.149	-0.148
-745.171	53.433	0.075	-0.074
-744.156	14.623	0.255	-0.205
-743.142	218.075	-0.132	-0.217
-742.127	-38.738	0.238	-0.129
-741.112	149.484	0.183	0.255
-740.098	745.032	-0.181	0.501
-739.083	-93.152	-0.205	0.059
-738.069	-123.852	0.121	-0.020
-737.054	9.193	0.226	-0.175
-736.039	-200.000	0.003	0.229
-735.025	116.064	0.205	0.259
-734.010	171.401	-0.126	-0.186
-732.996	73.246	-0.094	-0.101
-731.981	610.997	0.026	-0.068
-730.966	-24.058	0.231	0.142
-729.952	5.826	-0.130	0.099
-728.937	-11.486	-0.257	-0.174
-727.923	-30.759	-0.330	-0.192
-726.908	-167.035	-0.439	-0.018
-725.894	432.078	-0.057	-0.127
-724.879	171.286	0.195	0.288
-723.864	63.502	-0.196	0.203
-722.850	-112.712	-0.171	-0.035
-721.835	-44.165	0.088	0.045
-720.821	800.000	0.066	0.239
-719.806	-169.950	-0.181	0.007
-718.791	-154.891	-0.146	0.010
-717.777	-102.441	-0.211	-0.052
-716.762	664.314	-0.095	-0.252
-715.748	89.976	-0.057	-0.065
-714.733	417.657	-0.207	0.455
-713.718	35.558	0.215	-0.194
-712.704	23.413	-0.168	0.142
-711.689	81.193	-0.133	0.148
-710.675	-117.843	0.287	0.053
-709.660	408.011	0.178	-0.386
-708.645	-200.000	0.022	-0.166
-707.631	137.949	-0.155	-0.208
-706.616	-200.000	0.004	-0.131
-705.602	-41.469	-0.140	0.074
-704.587	101.377	0.101	0.121
-703.572	28.571	0.275	0.239
-702.558	-200.000	0.020	0.153
-701.543	106.808	0.057	0.069
-700.529	-52.347	0.370	0.176
-699.514	-43.120	-0.105	0.055
-698.499	-200.000	-0.000	0.028
-697.485	152.877	-0.021	0.029
-696.470	281.994	0.044	0.081
-695.456	-1.834	0.203	-0.146
-694.441	130.219	0.071	-0.093
-693.426	58.786	0.207	-0.209
-692.412	-53.087	-0.263	-0.124
-691.397	63.687	0.312	0.322
-690.383	-102.545	0.310	0.076
-689.368	166.993	0.091	0.132
-688.354	-135.574	-0.307	0.037
-687.339	88.764	-0.255	-0.291
-686.324	-43.793	-0.211	0.109
-685.310	33.771	0.197	0.176
-684.295	80.656	0.200	0.221
-683.281	64.379	-0.222	0.230
-682.266	-4.490	0.227	0.161
-681.251	-51.648	-0.048	0.023
-680.237	67.173	0.288	-0.301
-679.222	-134.150	0.077	0.010
-678.208	-200.000	-0.006	0.043
-677.193	-98.337	0.158	0.041
-676.178	137.976	-0.037	-0.049
-675.164	-65.013	0.167	0.069
-674.149	-48.064	0.046	0.023
-673.135	800.000	-0.038	-0.151
-672.120	-154.976	-0.205	-0.014
-671.105	800.000	-0.070	0.286
-670.091	800.000	-0.051	0.191
-669.076	20.692	0.205	0.170
-668.062	310.565	0.204	0.391
-667.047	-173.227	-0.175	-0.005
-666.032	-200.000	0.041	-0.205
-665.018	-200.000	-0.047	0.369
-664.003	-42.845	-0.180	-0.094
-662.989	-200.000	0.019	0.174
-661.974	-155.203	-0.037	0.002
-660.959	800.000	0.042	-0.148
-659.945	-200.000	0.003	0.017
-658.930	-78.800	0.219	0.077
-657.916	358.850	0.023	0.048
-656.901	-200.000	-0.057	-0.448
-655.886	-70.139	0.229	-0.089
-654.872	-104.444	0.061	-0.015
-653.857	-75.055	0.302	-0.111
-652.843	349.238	-0.081	0.164
-651.828	-101.379	0.062	0.016
-650.814	-147.107	-0.201	-0.018
-649.799	-200.000	0.003	-0.138
-648.784	800.000	0.053	-0.204
-647.770	-139.284	-0.172	0.019
-646.755	-200.000	-0.017	0.120
-645.741	-156.091	-0.141	0.009
-644.726	542.885	-0.049	0.120
-643.711	-75.848	-0.146	0.053
-642.697	103.331	-0.112	-0.135
-641.682	-200.000	0.022	-0.317
-640.668	-54.933	0.284	0.131
-639.653	255.753	0.093	-0.164
-638.638	-200.000	-0.027	0.360
-637.624	-7.846	0.176	0.121
-636.609	-35.667	-0.332	0.184
-635.595	-42.005	-0.215	-0.113
-634.580	-29.943	-0.046	-0.027
-633.565	440.584	-0.128	0.286
-632.551	-143.122	-0.184	-0.018
-631.536	170.183	-0.135	0.199
-630.522	-200.000	0.005	-0.049
-629.507	134.826	-0.282	-0.376
-628.492	77.307	-0.038	-0.042
-627.478	83.570	-0.129	0.144
-626.463	78.622	0.131	-0.143
-625.449	-200.000	0.048	-0.242
-624.434	-200.000	0.036	0.350
-623.419	80.091	-0.138	0.152
-622.405	-31.927	-0.189	0.109
-621.390	800.000	-0.091	-0.262
-620.376	-200.000	0.011	-0.253
-619.361	154.611	0.111	-0.157
-618.346	-200.000	-0.001	0.067
-617.332	-27.434	0.207	-0.123
-616.317	223.341	-0.159	0.263
-615.303	-200.000	-0.001	0.156
-614.288	800.000	-0.042	0.183
-613.273	-153.651	0.372	-0.026
-612.259	-67.629	-0.141	0.057
-611.244	93.940	-0.120	-0.139
-610.230	158.356	-0.053	-0.075
-609.215	120.620	-0.102	0.130
-608.201	-200.000	0.004	-0.299
-607.186	-103.699	-0.340	0.082
-606.171	-102.938	0.138	-0.034
-605.157	54.636	-0.155	-0.153
-604.142	39.534	-0.227	-0.208
-603.128	-42.256	0.207	-0.108
-602.113	257.256	0.119	-0.209
-601.098	-8.297	0.111	0.076
-600.084	-200.000	-0.001	-0.190
-599.069	-13.589	-0.300	0.199
-598.055	104.107	-0.191	0.230
-597.040	10.451	0.330	0.258
-596.025	28.355	0.232	0.201
-595.011	57.577	-0.261	0.261
-593.996	15.719	0.284	-0.229
-592.982	-200.000	0.014	-0.348
-591.967	734.091	-0.018	-0.049
-590.952	800.000	-0.079	0.244
-589.938	-200.000	0.192	-0.001
-588.923	632.900	0.121	0.313
-587.909	-200.000	-0.031	-0.227
-586.894	21.886	-0.131	-0.109
-585.879	49.212	-0.068	0.066
-584.865	-200.000	-0.012	-0.110
-583.850	57.209	-0.056	-0.056
-582.836	-100.068	-0.331	-0.084
-581.821	193.811	-0.087	0.134
-580.806	189.942	0.120	0.184
-579.792	-107.330	-0.022	-0.005
-578.777	-71.497	0.269	-0.103
-577.763	800.000	-0.088	0.258
-576.748	-140.560	-0.187	-0.020
-575.733	191.401	-0.140	-0.216
-574.719	30.839	-0.234	0.205
-573.704	-69.120	0.365	-0.144
-572.690	-90.350	0.178	-0.053
-571.675	-80.392	-0.063	-0.021
-570.661	7.290	-0.210	-0.160
-569.646	-200.000	0.020	-0.099
-568.631	24.410	0.069	-0.059
-567.617	-200.000	0.027	0.134
-566.602	-200.000	0.007	0.053
-565.588	-130.142	0.146	0.020
-564.573	-156.874	-0.083	-0.005
-563.558	0.356	-0.088	0.064
-562.544	-158.534	-0.244	-0.014
-561.529	800.000	0.127	0.443
-560.515	-200.000	-0.011	0.131
-559.500	-200.000	-0.042	0.206
-558.485	-138.399	-0.504	-0.057
-557.471	800.000	-0.034	-0.108
-556.456	-151.966	0.254	0.019
-555.442	-150.233	0.060	-0.005
-554.427	-1.275	-0.125	0.090
-553.412	44.484	-0.242	0.227
-552.398	251.761	0.169	0.293
-551.383	-143.010	-0.048	-0.005
-550.369	-200.000	0.037	0.225
-549.354	-200.000	0.052	0.300
-548.339	-200.000	0.061	-0.297
-547.325	-134.634	-0.351	0.044
-546.310	-23.068	-0.128	-0.079
-545.296	40.503	0.177	0.163
-544.281	-200.000	0.011	0.073
-543.266	54.083	0.272	0.267
-542.252	-132.792	0.516	-0.067
-541.237	-159.849	-0.420	-0.024
-540.223	-43.611	-0.206	0.106
-539.208	-126.690	-0.204	0.031
-538.193	-200.000	0.041	0.240
-537.179	800.000	0.052	0.187
-536.164	101.821	0.069	-0.082
-535.150	51.780	-0.138	-0.134
-534.135	800.000	-0.089	-0.335
-533.121	-51.440	0.203	-0.097
-532.106	178.284	0.103	-0.153
-531.091	-84.492	-0.337	0.109
-530.077	-97.126	-0.079	0.021
-529.062	-139.633	0.285	0.031
-528.048	-81.153	-0.078	0.026
-527.033	637.939	-0.085	0.220
-526.018	800.000	-0.107	0.454
-525.004	-82.723	0.293	0.097
-523.989	-135.282	-0.289	0.035
-522.975	800.000	-0.025	0.089
-521.960	277.697	-0.106	0.192
-520.945	-47.045	0.183	0.091
-519.931	-200.000	0.003	0.069
-518.916	-99.340	0.377	0.097
-517.902	-159.400	0.139	-0.008
-516.887	-22.250	-0.158	-0.098
-515.872	-86.034	-0.108	0.034
-514.858	357.533	0.123	-0.251
-513.843	-92.958	-0.206	-0.059
-512.829	66.188	0.277	-0.286
-511.814	-200.000	0.027	0.279
-510.799	693.112	0.152	0.406
-509.785	-2.691	-0.351	-0.251
-508.770	-174.201	0.155	0.005
-507.756	-200.000	0.030	-0.187
-506.741	-95.547	0.491	0.134
-505.726	-83.724	-0.191	0.062
-504.712	132.389	0.142	0.187
-503.697	800.000	-0.040	0.132
-502.683	-200.000	0.053	-0.255
-501.668	-200.000	0.016	-0.232
-500.653	-47.298	0.143	-0.071
-499.639	36.185	-0.164	0.148
-498.624	224.832	-0.026	-0.042
-497.610	-116.618	-0.357	-0.067
-496.595	-103.700	0.189	-0.045
-495.581	-113.610	-0.023	-0.004
-494.566	-13.490	-0.214	-0.142
-493.551	241.384	0.195	-0.332
-492.537	-132.637	0.052	-0.007
-491.522	-200.000	0.048	0.379
-490.508	-200.000	-0.015	0.148
-489.493	-200.000	-0.011	0.133
-488.478	800.000	0.047	-0.174
-487.464	126.713	-0.078	-0.100
-486.449	442.119	-0.087	0.194
-485.435	-76.404	0.237	0.085
-484.420	-200.000	-0.045	-0.202
-483.405	-83.107	0.154	-0.051
-482.391	-200.000	0.018	-0.208
-481.376	800.000	0.067	0.228
-480.362	137.782	-0.185	0.247
-479.347	254.533	0.063	0.111
-478.332	-74.454	-0.114	0.042
-477.318	194.515	0.165	0.255
-476.303	-82.395	0.128	0.042
-475.289	124.406	-0.067	0.086
-474.274	144.726	-0.129	-0.176
-473.259	-20.096	-0.076	0.048
-472.245	-162.785	0.179	-0.009
-471.230	-200.000	-0.024	0.317
-470.216	-117.648	0.194	0.036
-469.201	282.537	0.194	-0.355
-468.186	308.392	0.097	-0.184
-467.172	586.337	0.068	0.170
-466.157	152.421	0.032	0.044
-465.143	-200.000	0.009	-0.129
-464.128	-42.814	0.085	-0.044
-463.113	313.686	-0.055	-0.106
-462.099	45.291	0.138	0.130
-461.084	-200.000	-0.019	0.149
-460.070	516.351	-0.025	-0.060
-459.055	99.361	-0.128	-0.150
-458.040	-200.000	-0.063	-0.382
-457.026	-74.917	-0.253	0.092
-456.011	-200.000	0.021	0.241
-454.997	223.490	0.110	-0.180
-453.982	-200.000	-0.002	0.263
-452.968	113.891	0.073	0.090
-451.953	11.887	0.088	-0.069
-450.938	129.470	-0.033	-0.043
-449.924	216.724	0.130	-0.211
-448.909	212.016	0.136	-0.218
-447.895	-44.942	0.132	-0.067
-446.880	4.472	0.233	-0.174
-445.865	-103.754	0.334	-0.080
-444.851	170.305	-0.174	0.254
-443.836	-78.071	-0.138	0.048
-442.822	12.665	-0.029	-0.023
-441.807	800.000	0.077	0.302
-440.792	800.000	0.056	-0.220
-439.778	160.442	-0.264	-0.374
-438.763	800.000	-0.025	-0.085
-437.749	-200.000	0.010	0.106
-436.734	800.000	0.012	0.041
-435.719	-161.500	-0.346	0.018
-434.705	-103.847	-0.366	0.087
-433.690	-16.425	-0.128	0.082
-432.676	-200.000	-0.003	0.018
-431.661	-71.932	0.376	-0.142
-430.646	-143.056	-0.120	-0.012
-429.632	-200.000	0.011	0.310
-428.617	-123.915	0.166	0.027
-427.603	-101.090	-0.179	-0.044
-426.588	-63.038	0.161	-0.068
-425.573	-200.000	-0.003	-0.089
-424.559	-200.000	-0.028	-0.185
-423.544	6.947	0.054	-0.041
-422.530	800.000	-0.047	-0.190
-421.515	-161.650	-0.225	0.012
-420.500	86.270	0.061	-0.068
-419.486	-152.056	-0.110	-0.008
-418.471	-170.937	0.259	0.009
-417.457	-200.000	0.000	-0.051
-416.442	-67.454	-0.019	-0.007
-415.428	-52.487	0.186	0.088
-414.413	-66.019	0.159	0.064
-413.398	-138.284	0.079	-0.009
-412.384	3.803	0.335	0.249
-411.369	65.704	-0.205	0.211
-410.355	418.895	0.044	0.097
-409.340	31.274	-0.234	-0.204
-408.325	-162.172	-0.071	-0.004
-407.311	49.519	0.061	-0.058
-406.296	-129.074	0.140	-0.020
-405.282	-200.000	-0.030	-0.480
-404.267	-92.380	-0.160	0.046
-403.252	8.932	-0.215	-0.164
-402.238	78.511	-0.225	-0.244
-401.223	166.088	-0.051	0.073
-400.209	800.000	-0.063	-0.184
-399.194	800.000	0.030	-0.093
-398.179	157.828	-0.191	-0.268
-397.165	-52.218	-0.427	-0.201
-396.150	132.735	-0.108	-0.141
-395.136	-62.295	-0.217	-0.092
-394.121	34.042	0.258	0.228
-393.106	33.724	-0.129	-0.114
-392.092	179.340	0.098	-0.145
-391.077	-186.708	-0.249	-0.004
-390.063	-71.820	0.171	0.065
-389.048	170.798	0.140	0.203
-388.033	-200.000	-0.016	-0.115
-387.019	-200.000	-0.057	-0.296
-386.004	-5.002	0.163	-0.114
-384.990	-17.974	-0.172	0.109
-383.975	39.697	-0.101	0.092
-382.960	-200.000	-0.031	-0.321
-381.946	-200.000	-0.041	0.287
-380.931	-121.538	-0.030	-0.005
-379.917	8.430	0.311	-0.237
-378.902	-152.911	-0.118	0.008
-377.888	221.931	-0.110	-0.179
-376.873	-50.714	0.083	0.040
-375.858	-200.000	0.003	-0.193
-374.844	67.659	0.053	-0.055
-373.829	800.000	0.051	-0.225
-372.815	800.000	0.027	-0.105
-371.800	75.347	0.222	0.237
-370.785	230.764	0.142	0.236
-369.771	22.699	0.247	0.205
-368.756	438.190	-0.107	-0.237
-367.742	29.462	0.136	0.117
-366.727	11.939	0.210	-0.164
-365.712	-47.177	0.083	-0.041
-364.698	-200.000	0.019	-0.242
-363.683	212.727	-0.136	-0.218
-362.669	800.000	0.119	0.397
-361.654	-66.178	0.212	-0.086
-360.639	-33.102	-0.128	0.072
-359.625	-153.467	-0.035	0.002
-358.610	-200.000	0.005	0.265
-357.596	-58.098	0.288	0.127
-356.581	-11.863	-0.153	0.102
-355.566	1.728	0.219	-0.160
-354.552	-200.000	-0.010	0.291
-353.537	-25.205	0.082	-0.049
-352.523	-17.312	0.142	0.091
-351.508	139.021	-0.079	0.105
-350.493	-200.000	0.033	0.251
-349.479	800.000	-0.005	0.015
-348.464	42.866	-0.087	-0.080
-347.450	800.000	0.061	0.233
-346.435	656.531	-0.184	-0.478
-345.420	-70.174	0.112	0.043
-344.406	800.000	0.094	-0.310
-343.391	-170.267	-0.148	0.005
-342.377	308.778	-0.141	-0.267
-341.362	-23.125	-0.213	0.130
-340.348	-200.000	0.026	-0.167
-339.333	361.034	-0.109	0.221
-338.318	-96.586	-0.135	0.036
-337.304	-96.447	-0.260	0.070
-336.289	-17.445	0.300	0.191
-335.275	-128.100	-0.217	0.032
-334.260	3.241	0.266	0.196
-333.245	15.245	0.087	-0.069
-332.231	-112.125	0.247	-0.050
-331.216	20.887	0.230	0.189
-330.202	-33.982	0.291	0.162
-329.187	271.622	-0.166	0.296
-328.172	-11.809	-0.249	0.165
-327.158	-200.000	-0.013	-0.165
-326.143	347.625	-0.019	-0.038
-325.129	180.131	-0.069	-0.102
-324.114	-200.000	0.119	-0.001
-323.099	-46.861	0.184	0.091
-322.085	-67.360	0.385	0.153
-321.070	183.397	0.075	-0.113
-320.056	248.417	-0.018	-0.031
-319.041	-54.698	0.285	0.130
-318.026	217.553	0.152	0.245
-317.012	290.053	-0.145	0.267
-315.997	140.010	-0.033	0.044
-314.983	-159.932	0.267	0.015
-313.968	-155.184	0.328	0.022
-312.953	-91.950	-0.320	-0.092
-311.939	435.604	0.061	0.134
-310.924	109.693	-0.220	0.267
-309.910	6.981	0.088	0.066
-308.895	-200.000	0.060	-0.462
-307.880	84.507	0.154	-0.170
-306.866	275.782	-0.074	0.133
-305.851	-200.000	-0.024	0.298
-304.837	67.464	0.263	0.272
-303.822	-4.939	-0.120	0.084
-302.807	-110.308	-0.141	0.030
-301.793	-200.000	0.014	-0.286
-300.778	-156.694	-0.129	-0.008
-299.764	50.950	-0.174	-0.167
-298.749	35.045	-0.080	-0.071
-297.735	9.980	-0.271	-0.208
-296.720	-26.200	0.107	-0.063
-295.705	-138.441	0.277	-0.031
-294.691	28.689	0.193	0.165
-293.676	-18.565	0.226	-0.143
-292.662	32.687	0.253	0.221
-291.647	-102.254	0.052	-0.013
-290.632	236.093	-0.078	0.130
-289.618	-153.467	0.247	-0.017
-288.603	-60.294	0.138	-0.059
-287.589	566.807	0.028	0.069
-286.574	36.503	-0.164	0.146
-285.559	-11.186	-0.197	0.131
-284.545	-7.456	0.220	-0.150
-283.530	632.390	0.090	-0.231
-282.516	-126.372	-0.388	-0.058
-281.501	-200.000	0.034	-0.164
-280.486	800.000	0.112	-0.400
-279.472	136.886	-0.046	-0.061
-278.457	223.371	0.087	0.141
-277.443	-52.792	0.065	0.030
-276.428	26.413	0.082	-0.069
-275.413	800.000	-0.044	-0.136
-274.399	800.000	-0.073	-0.301
-273.384	-118.012	-0.153	0.028
-272.370	-84.793	-0.101	-0.032
-271.355	-200.000	-0.025	-0.229
-270.340	322.303	0.157	0.303
-269.326	-200.000	0.006	0.052
-268.311	-87.711	-0.173	-0.053
-267.297	-200.000	-0.066	-0.363
-266.282	38.996	-0.142	0.128
-265.267	800.000	0.031	-0.133
-264.253	-4.130	0.299	0.209
-263.238	-48.235	-0.272	-0.132
-262.224	141.536	-0.136	-0.182
-261.209	-200.000	0.017	0.146
-260.195	372.400	0.127	0.260
-259.180	-125.192	-0.076	0.012
-258.165	-60.649	0.186	-0.080
-257.151	-200.000	-0.048	-0.226
-256.136	7.678	-0.289	-0.219
-255.122	82.830	0.100	-0.110
-254.107	-200.000	-0.004	-0.098
-253.092	149.171	0.046	0.063
-252.078	597.901	-0.118	0.296
-251.063	-76.988	0.015	0.005
-250.049	6.944	-0.281	0.211
-249.034	90.312	-0.114	0.128
-248.019	-95.348	-0.192	-0.052
-247.005	606.945	0.015	0.038
-245.990	-41.713	0.153	0.079
-244.976	-32.184	-0.191	0.108
-243.961	-69.943	-0.173	-0.067
-242.946	-200.000	-0.068	-0.305
-241.932	137.606	-0.188	-0.249
-240.917	-2.055	0.155	-0.110
-239.903	-200.000	-0.039	0.200
-238.888	365.224	-0.085	0.172
-237.873	-66.648	-0.121	-0.048
-236.859	-200.000	-0.030	0.176
-235.844	248.896	-0.098	-0.167
-234.830	-121.864	-0.201	0.033
-233.815	163.485	0.161	0.229
-232.800	1.475	-0.463	-0.336
-231.786	-200.000	-0.002	-0.322
-230.771	416.195	-0.094	-0.203
-229.757	132.477	0.160	-0.208
-228.742	7.337	-0.104	0.079
-227.727	338.553	0.156	-0.307
-226.713	-97.872	-0.365	0.095
-225.698	-77.308	0.205	-0.072
-224.684	253.760	0.144	0.249
-223.669	-46.608	-0.019	-0.010
-222.655	-124.464	-0.257	-0.040
-221.640	662.030	-0.002	-0.005
-220.625	-115.619	0.214	0.040
-219.611	342.692	-0.113	0.224
-218.596	800.000	0.007	-0.028
-217.582	800.000	0.067	-0.239
-216.567	-132.715	0.180	0.023
-215.552	655.571	-0.044	-0.114
-214.538	335.143	0.080	-0.157
-213.523	451.308	0.139	0.309
-212.509	-41.844	-0.075	0.039
-211.494	367.609	-0.055	-0.112
-210.479	202.641	-0.287	0.446
-209.465	-200.000	-0.027	0.181
-208.450	-6.943	0.322	-0.220
-207.436	-200.000	-0.020	-0.103
-206.421	8.383	-0.114	-0.086
-205.406	51.263	0.337	0.322
-204.392	-73.743	-0.190	-0.070
-203.377	102.932	0.097	-0.114
-202.363	-76.940	0.190	0.067
-201.348	7.553	-0.092	0.069
-200.333	155.934	-0.078	-0.109
-199.319	-115.269	0.495	0.094
-198.304	-135.497	0.246	0.029
-197.290	99.063	0.288	-0.336
-196.275	-200.000	0.005	0.150
-195.260	-11.965	0.115	-0.076
-194.246	107.058	0.041	-0.049
-193.231	0.069	0.025	-0.018
-192.217	800.000	0.024	-0.101
-191.202	-14.211	-0.108	-0.070
-190.187	-200.000	0.016	-0.200
-189.173	-200.000	0.010	-0.049
-188.158	-76.752	0.197	-0.069
-187.144	274.761	-0.068	-0.122
-186.129	119.594	0.194	0.242
-185.114	-69.257	0.157	0.061
-184.100	165.019	0.205	-0.291
-183.085	-9.339	-0.053	0.035
-182.071	-200.000	0.062	0.283
-181.056	431.377	-0.075	0.164
-180.042	22.801	-0.411	-0.339
-179.027	-200.000	-0.021	0.119
-178.012	-104.647	0.070	-0.016
-176.998	-37.458	0.071	-0.038
-175.983	90.549	-0.071	-0.080
-174.969	-200.000	0.034	-0.254
-173.954	609.091	-0.164	0.411
-172.939	-24.531	-0.171	-0.102
-171.925	460.308	-0.181	0.405
-170.910	-68.660	0.136	0.053
-169.896	-200.000	-0.020	0.176
-168.881	60.569	0.205	-0.205
-167.866	-200.000	0.012	-0.294
-166.852	-104.119	-0.012	0.003
-165.837	363.863	-0.106	0.215
-164.823	-200.000	0.024	-0.128
-163.808	-200.000	-0.029	-0.242
-162.793	312.698	0.148	0.279
-161.779	-200.000	0.006	0.165
-160.764	-127.650	-0.111	0.016
-159.750	-112.927	-0.364	0.072
-158.735	327.864	0.103	-0.199
-157.720	130.574	0.164	0.211
-156.706	-10.338	-0.314	-0.209
-155.691	39.726	-0.125	-0.113
-154.677	-38.090	0.175	-0.094
-153.662	-19.950	0.155	0.096
-152.647	106.875	0.125	0.149
-151.633	-5.086	0.132	0.092
-150.618	18.544	0.191	0.153
-149.604	207.225	0.158	0.247
-148.589	592.092	-0.066	0.164
-147.574	-28.407	-0.220	0.127
-146.560	372.338	0.084	0.172
-145.545	-36.160	-0.059	-0.032
-144.531	187.454	-0.156	0.233
-143.516	-134.666	0.226	-0.028
-142.502	244.239	-0.026	0.044
-141.487	19.601	-0.214	-0.173
-140.472	-186.561	0.205	0.003
-139.458	109.057	-0.053	0.064
-138.443	21.338	0.112	0.092
-137.429	-200.000	-0.015	0.533
-136.414	-200.000	-0.050	-0.269
-135.399	-108.382	-0.029	-0.006
-134.385	-77.851	0.237	0.082
-133.370	-53.893	-0.190	-0.087
-132.356	-107.259	0.214	-0.047
-131.341	-85.975	0.281	-0.087
-130.326	459.440	-0.080	-0.179
-129.312	-111.330	-0.136	-0.028
-128.297	5.816	0.315	0.234
-127.283	800.000	-0.097	-0.275
-126.268	-90.233	-0.198	0.058
-125.253	-133.560	-0.347	-0.044
-124.239	-200.000	0.004	0.240
-123.224	553.289	0.047	-0.114
-122.210	476.060	-0.092	0.209
-121.195	199.221	0.060	0.092
