DTS Sentinel unit serial number:	SN413079Multiplexer serial number:	ORYXHardware model number:	OX4-SRSoftware version number:	ORYX F/W v4.00 Oryx Data Collector v3.7.2.0data status	okinstallation	princeton_trtdifferential loss correction	single-endedforward channel	channel 4reverse channel	N/Adate	2019/09/14time	14:45:34forward acquisition time	60.00reverse acquisition time	0.00gamma	496.2192k internal	0.2290k external	0.2290temperature offset calibration	1.0137default loss term (dB/km)	0.3790temperature slope calibration	1.0000multiplexer offset coefficient	1.0000multiplexer slope coefficient	1.0000fibre end	0.00T internal ref (°C)	39.22T ext. ref 1 (°C)	4.94T ext. ref 2 (°C)	33.99length (m)	temperature (°C)	Stokes	anti-Stokes-747.200	800.000	-0.100	0.420
-746.185	218.381	0.150	0.245
-745.171	3.677	0.277	-0.207
-744.156	721.207	-0.074	-0.201
-743.142	-200.000	0.030	0.225
-742.127	-200.000	0.092	0.574
-741.112	-200.000	0.018	-0.122
-740.098	537.720	-0.158	-0.385
-739.083	-126.543	-0.092	-0.014
-738.069	30.090	-0.169	-0.148
-737.054	-114.134	0.205	0.041
-736.039	65.687	-0.291	-0.302
-735.025	699.421	0.047	0.127
-734.010	-91.410	0.150	-0.044
-732.996	-200.000	0.030	-0.386
-731.981	800.000	-0.060	-0.204
-730.966	44.034	0.057	0.053
-729.952	-5.966	-0.157	0.110
-728.937	-87.306	-0.065	-0.020
-727.923	-7.336	-0.194	0.135
-726.908	87.319	-0.145	-0.164
-725.894	249.144	-0.022	-0.038
-724.879	-3.339	-0.194	0.138
-723.864	35.620	0.260	0.234
-722.850	4.522	-0.173	0.130
-721.835	-63.001	0.099	0.042
-720.821	800.000	-0.078	-0.269
-719.806	-103.501	-0.099	-0.024
-718.791	485.421	-0.220	-0.514
-717.777	3.496	0.094	-0.070
-716.762	740.848	0.085	0.235
-715.748	-98.240	-0.135	0.035
-714.733	0.538	-0.131	-0.096
-713.718	-24.918	0.216	-0.131
-712.704	-200.000	-0.064	-0.306
-711.689	-31.591	-0.384	-0.221
-710.675	436.282	-0.053	-0.118
-709.660	448.314	0.062	0.141
-708.645	-6.871	-0.223	0.155
-707.631	800.000	-0.073	-0.276
-706.616	109.185	0.045	0.055
-705.602	-200.000	-0.024	-0.289
-704.587	154.277	-0.183	0.258
-703.572	122.884	-0.154	-0.198
-702.558	74.915	-0.133	-0.144
-701.543	-59.719	-0.343	-0.150
-700.529	-200.000	0.003	-0.184
-699.514	-37.642	-0.162	-0.088
-698.499	-113.704	0.200	-0.040
-697.485	283.194	-0.131	0.240
-696.470	-122.567	0.172	-0.029
-695.456	-64.466	-0.160	-0.066
-694.441	-184.740	-0.231	-0.004
-693.426	325.035	0.148	-0.289
-692.412	-64.767	0.319	0.132
-691.397	-112.608	-0.183	-0.037
-690.383	573.079	-0.213	-0.531
-689.368	234.957	-0.155	-0.262
-688.354	-146.351	-0.477	-0.043
-687.339	242.291	-0.061	-0.104
-686.324	432.796	-0.188	0.416
-685.310	-60.410	-0.123	0.054
-684.295	-200.000	0.037	-0.572
-683.281	-181.143	-0.193	-0.004
-682.266	-32.644	0.191	0.109
-681.251	-136.784	-0.099	-0.012
-680.237	-200.000	-0.001	0.068
-679.222	120.996	0.159	-0.202
-678.208	-200.000	0.024	-0.207
-677.193	-154.177	0.456	0.032
-676.178	-155.592	0.374	0.025
-675.164	-59.542	-0.061	-0.027
-674.149	592.136	-0.067	-0.170
-673.135	-200.000	-0.031	-0.314
-672.120	800.000	-0.147	0.422
-671.105	355.023	0.069	0.141
-670.091	11.504	0.269	-0.211
-669.076	-2.760	-0.182	0.130
-668.062	30.559	0.273	-0.238
-667.047	-63.995	-0.301	0.126
-666.032	382.483	-0.109	-0.230
-665.018	-61.125	0.185	0.080
-664.003	800.000	-0.051	-0.212
-662.989	-200.000	-0.015	-0.548
-661.974	-46.471	0.051	-0.026
-660.959	-75.712	0.163	-0.059
-659.945	25.370	0.259	-0.220
-658.930	224.929	-0.068	0.112
-657.916	-146.551	0.148	0.013
-656.901	793.513	-0.085	-0.238
-655.886	55.108	0.118	-0.116
-654.872	-32.713	-0.242	0.138
-653.857	204.341	-0.056	0.088
-652.843	-69.622	-0.215	0.084
-651.828	275.184	0.037	-0.067
-650.814	800.000	0.132	-0.431
-649.799	-200.000	-0.004	0.141
-648.784	-158.325	0.286	0.017
-647.770	-29.438	-0.116	0.068
-646.755	-200.000	0.215	-0.000
-645.741	9.690	-0.057	0.044
-644.726	411.382	-0.199	0.432
-643.711	175.147	0.141	-0.208
-642.697	-37.153	-0.457	0.250
-641.682	800.000	0.101	0.301
-640.668	-65.630	-0.010	-0.004
-639.653	113.697	0.142	-0.176
-638.638	615.161	-0.133	-0.339
-637.624	91.882	0.224	-0.257
-636.609	284.076	0.288	-0.528
-635.595	-44.823	0.516	-0.263
-634.580	-200.000	0.000	-0.031
-633.565	-200.000	-0.076	0.424
-632.551	304.029	0.041	-0.078
-631.536	-200.000	0.009	0.044
-630.522	409.204	-0.102	-0.221
-629.507	-200.000	0.044	-0.203
-628.492	494.154	0.128	0.300
-627.478	-55.309	0.256	0.117
-626.463	800.000	0.021	-0.059
-625.449	-39.443	0.135	-0.072
-624.434	-77.190	0.400	0.142
-623.419	10.902	0.183	-0.143
-622.405	6.044	0.053	-0.040
-621.390	-200.000	-0.017	0.131
-620.376	5.810	-0.104	0.078
-619.361	-130.456	0.129	-0.018
-618.346	-48.660	-0.305	-0.150
-617.332	-70.958	0.095	-0.037
-616.317	174.927	-0.056	-0.082
-615.303	127.844	-0.146	0.189
-614.288	107.897	0.042	-0.051
-613.273	-200.000	-0.003	-0.181
-612.259	19.754	-0.094	0.078
-611.244	131.105	-0.198	-0.259
-610.230	-18.378	-0.086	0.055
-609.215	-106.623	0.085	-0.019
-608.201	17.500	-0.174	0.141
-607.186	556.739	0.005	0.012
-606.171	-37.530	-0.229	-0.124
-605.157	-200.000	-0.029	-0.217
-604.142	-42.378	0.188	-0.098
-603.128	317.571	-0.062	0.120
-602.113	3.347	-0.050	0.037
-601.098	800.000	-0.015	0.058
-600.084	-200.000	-0.002	0.117
-599.069	-200.000	0.017	0.133
-598.055	-200.000	-0.025	-0.292
-597.040	82.838	-0.119	-0.132
-596.025	39.156	-0.152	0.139
-595.011	-200.000	0.072	-0.333
-593.996	-139.674	-0.339	-0.037
-592.982	-59.296	0.116	0.051
-591.967	-200.000	0.015	-0.294
-590.952	36.699	0.107	-0.096
-589.938	-59.105	-0.279	-0.123
-588.923	224.232	0.083	-0.137
-587.909	596.117	-0.055	0.138
-586.894	800.000	-0.095	0.304
-585.879	269.270	-0.118	0.210
-584.865	92.408	-0.157	-0.180
-583.850	-151.857	-0.086	-0.006
-582.836	-50.165	-0.128	-0.061
-581.821	-200.000	-0.020	0.257
-580.806	570.431	-0.104	-0.257
-579.792	-79.722	0.170	-0.058
-578.777	626.076	0.065	-0.166
-577.763	-200.000	-0.002	-0.027
-576.748	254.783	-0.057	0.099
-575.733	800.000	0.056	0.164
-574.719	800.000	0.077	0.267
-573.704	618.503	-0.054	0.137
-572.690	636.030	-0.072	-0.185
-571.675	129.313	-0.048	0.063
-570.661	800.000	0.060	0.194
-569.646	-143.322	-0.136	0.013
-568.631	-101.834	-0.420	-0.103
-567.617	15.497	0.189	-0.151
-566.602	118.570	0.364	-0.457
-565.588	-200.000	0.009	0.093
-564.573	-148.892	-0.037	0.003
-563.558	184.833	-0.078	0.118
-562.544	-164.502	-0.303	0.014
-561.529	-200.000	0.024	-0.160
-560.515	-180.786	-0.240	0.005
-559.500	92.623	-0.337	-0.387
-558.485	264.923	0.078	-0.138
-557.471	-102.605	-0.169	0.041
-556.456	-200.000	-0.001	-0.040
-555.442	-74.236	-0.079	0.029
-554.427	5.209	-0.081	-0.061
-553.412	527.684	0.125	-0.299
-552.398	45.183	0.189	-0.177
-551.383	74.680	-0.046	0.050
-550.369	31.113	0.069	-0.060
-549.354	48.731	-0.074	0.071
-548.339	-54.106	0.292	0.135
-547.325	-75.450	-0.315	0.114
-546.310	-84.257	-0.045	0.015
-545.296	-72.057	-0.094	-0.036
-544.281	56.123	0.108	0.106
-543.266	620.565	-0.102	-0.260
-542.252	-162.043	0.088	-0.005
-541.237	160.621	0.186	-0.264
-540.223	-90.938	-0.288	-0.084
-539.208	800.000	-0.051	0.168
-538.193	800.000	0.040	-0.174
-537.179	-200.000	0.046	-0.320
-536.164	-50.147	0.291	-0.140
-535.150	615.615	-0.153	-0.390
-534.135	-5.082	0.059	-0.042
-533.121	-171.011	0.251	-0.009
-532.106	-105.669	-0.126	0.029
-531.091	85.518	0.105	-0.117
-530.077	-54.155	0.270	0.125
-529.062	56.517	-0.039	0.039
-528.048	800.000	0.038	-0.113
-527.033	-200.000	-0.008	-0.064
-526.018	518.202	-0.049	-0.115
-525.004	-124.438	0.201	-0.032
-523.989	136.820	-0.349	-0.463
-522.975	262.537	-0.176	0.310
-521.960	341.467	-0.133	0.265
-520.945	115.528	-0.007	-0.008
-519.931	155.281	0.090	0.125
-518.916	-54.650	-0.191	-0.088
-517.902	67.385	0.190	-0.196
-516.887	-20.775	0.215	0.134
-515.872	404.477	0.093	0.199
-514.858	-141.076	-0.396	-0.041
-513.843	-47.455	0.303	0.150
-512.829	121.531	0.119	0.151
-511.814	-200.000	-0.032	0.275
-510.799	-200.000	0.070	0.420
-509.785	159.447	-0.275	-0.389
-508.770	508.286	0.093	-0.220
-507.756	-200.000	0.009	-0.089
-506.741	-139.922	0.281	-0.030
-505.726	736.159	-0.117	0.318
-504.712	515.212	0.075	0.177
-503.697	-32.280	-0.149	-0.084
-502.683	-114.929	-0.136	0.026
-501.668	360.258	-0.191	0.387
-500.653	-200.000	0.009	-0.181
-499.639	-200.000	0.020	-0.119
-498.624	169.911	0.120	0.175
-497.610	-112.853	-0.119	0.024
-496.595	-90.132	-0.367	0.108
-495.581	-76.562	-0.306	0.109
-494.566	-111.001	0.220	0.046
-493.551	529.289	0.130	0.312
-492.537	48.366	-0.343	0.326
-491.522	-99.779	0.063	-0.016
-490.508	-106.640	0.309	0.070
-489.493	-42.305	-0.091	0.047
-488.478	-13.989	0.141	0.092
-487.464	-200.000	0.008	0.063
-486.449	699.187	-0.039	-0.103
-485.435	-79.322	0.235	-0.081
-484.420	-100.795	0.303	-0.076
-483.405	24.191	0.218	-0.182
-482.391	-137.413	-0.147	0.017
-481.376	13.166	-0.114	-0.090
-480.362	115.415	0.310	-0.385
-479.347	58.873	-0.067	0.067
-478.332	87.876	0.108	-0.121
-477.318	-106.284	-0.098	0.022
-476.303	122.733	-0.146	-0.185
-475.289	-88.822	-0.182	0.055
-474.274	75.434	-0.120	-0.129
-473.259	504.559	0.133	-0.312
-472.245	180.651	-0.184	-0.273
-471.230	136.568	0.080	-0.106
-470.216	-200.000	-0.002	-0.035
-469.201	-128.491	0.242	0.035
-468.186	74.827	-0.205	-0.219
-467.172	-123.570	0.314	-0.051
-466.157	36.246	0.051	0.046
-465.143	67.430	-0.067	-0.069
-464.128	117.860	0.158	-0.197
-463.113	221.746	0.105	-0.171
-462.099	11.917	-0.172	-0.134
-461.084	135.615	-0.171	0.225
-460.070	217.371	-0.074	-0.119
-459.055	116.651	0.053	0.066
-458.040	-200.000	-0.016	0.141
-457.026	-200.000	0.028	-0.309
-456.011	58.480	0.172	0.171
-454.997	-200.000	-0.023	0.176
-453.982	-62.997	-0.027	-0.011
-452.968	612.620	-0.113	-0.286
-451.953	41.482	0.349	0.320
-450.938	695.879	-0.024	-0.064
-449.924	108.249	0.120	-0.146
-448.909	800.000	0.062	0.210
-447.895	800.000	-0.043	-0.164
-446.880	-200.000	-0.003	0.081
-445.865	25.758	-0.209	0.176
-444.851	30.484	-0.065	0.056
-443.836	332.514	-0.166	0.325
-442.822	97.560	0.235	0.273
-441.807	687.295	0.081	0.214
-440.792	-200.000	-0.045	-0.262
-439.778	-53.926	0.326	0.150
-438.763	-103.741	-0.163	0.039
-437.749	-96.548	-0.140	0.037
-436.734	93.561	-0.229	0.262
-435.719	399.854	0.019	0.041
-434.705	-5.962	-0.360	-0.249
-433.690	76.427	0.096	0.103
-432.676	239.686	0.078	0.132
-431.661	140.117	-0.161	-0.215
-430.646	-200.000	0.014	-0.154
-429.632	-160.520	0.086	-0.005
-428.617	-105.228	-0.239	0.055
-427.603	26.433	0.317	0.268
-426.588	-200.000	0.078	0.610
-425.573	-82.280	0.087	-0.029
-424.559	800.000	0.091	-0.266
-423.544	257.116	0.042	-0.073
-422.530	92.528	-0.102	-0.117
-421.515	-113.044	-0.065	-0.013
-420.500	-200.000	-0.024	0.136
-419.486	800.000	-0.030	0.126
-418.471	-185.885	-0.172	-0.003
-417.457	-200.000	-0.002	0.120
-416.442	-200.000	0.005	0.027
-415.428	27.604	-0.089	-0.076
-414.413	-156.748	-0.118	0.007
-413.398	-64.080	0.249	-0.103
-412.384	-200.000	-0.015	0.215
-411.369	400.980	0.114	0.241
-410.355	185.895	0.041	-0.062
-409.340	-200.000	-0.038	-0.228
-408.325	-138.643	0.579	0.064
-407.311	-131.429	0.120	0.016
-406.296	-99.404	0.244	0.062
-405.282	157.574	0.164	0.230
-404.267	-200.000	0.012	-0.095
-403.252	187.075	-0.179	0.269
-402.238	-200.000	0.003	-0.312
-401.223	2.677	-0.082	0.060
-400.209	-15.965	0.204	-0.131
-399.194	101.831	-0.035	-0.042
-398.179	-72.429	0.151	0.056
-397.165	-51.998	-0.053	0.025
-396.150	0.011	-0.278	-0.200
-395.136	349.296	-0.061	-0.122
-394.121	497.980	-0.042	-0.098
-393.106	-200.000	-0.016	-0.118
-392.092	-121.275	-0.223	-0.038
-391.077	-200.000	0.016	-0.240
-390.063	222.456	0.195	0.318
-389.048	-200.000	0.010	-0.091
-388.033	-14.727	-0.168	0.109
-387.019	-122.942	0.182	0.030
-386.004	-144.865	-0.395	0.037
-384.990	573.776	-0.145	0.356
-383.975	24.766	0.262	0.220
-382.960	13.342	0.196	0.154
-381.946	-73.813	-0.230	0.084
-380.931	-200.000	0.011	0.216
-379.917	171.735	-0.247	-0.358
-378.902	797.532	-0.084	0.234
-377.888	-146.541	-0.159	-0.014
-376.873	-10.316	-0.062	-0.041
-375.858	-200.000	-0.008	-0.077
-374.844	-200.000	-0.054	-0.253
-373.829	173.615	0.165	-0.240
-372.815	-40.346	0.135	-0.071
-371.800	800.000	0.099	0.367
-370.785	-54.820	-0.179	-0.082
-369.771	88.229	-0.130	-0.145
-368.756	109.880	0.175	-0.212
-367.742	-53.161	0.218	0.101
-366.727	-91.133	-0.122	0.035
-365.712	-127.882	-0.251	0.036
-364.698	-186.538	-0.242	-0.003
-363.683	19.985	-0.171	0.139
-362.669	29.883	-0.073	-0.063
-361.654	-166.676	-0.413	0.017
-360.639	-20.048	0.103	0.064
-359.625	101.403	0.132	0.155
-358.610	185.834	0.131	0.197
-357.596	535.351	0.136	-0.326
-356.581	-7.471	0.096	-0.065
-355.566	10.515	0.173	0.133
-354.552	-172.889	-0.116	-0.004
-353.537	8.575	0.126	-0.096
-352.523	-135.186	-0.083	-0.010
-351.508	85.437	-0.262	0.290
-350.493	-16.953	0.172	0.109
-349.479	506.740	-0.037	0.087
-348.464	800.000	0.065	0.268
-347.450	199.835	-0.236	0.365
-346.435	-200.000	0.014	-0.323
-345.420	-200.000	0.023	-0.176
-344.406	-130.384	0.425	0.058
-343.391	-44.988	-0.312	0.157
-342.377	-141.807	0.266	0.027
-341.362	-97.035	0.037	0.010
-340.348	-30.298	-0.242	-0.139
-339.333	800.000	-0.072	0.295
-338.318	-72.835	-0.195	-0.072
-337.304	205.432	0.093	-0.146
-336.289	-147.199	-0.189	-0.016
-335.275	671.046	-0.046	0.121
-334.260	-200.000	0.010	0.097
-333.245	800.000	-0.118	0.328
-332.231	11.716	-0.148	0.114
-331.216	273.191	-0.054	0.096
-330.202	772.789	0.116	0.320
-329.187	-138.424	-0.331	0.037
-328.172	-34.427	0.076	0.042
-327.158	-115.529	-0.190	-0.036
-326.143	268.574	0.181	-0.320
-325.129	430.945	-0.117	0.254
-324.114	665.387	0.038	0.099
-323.099	13.551	-0.214	-0.167
-322.085	7.112	0.189	-0.142
-321.070	-200.000	0.201	0.001
-320.056	20.893	-0.289	0.236
-319.041	-117.203	0.338	-0.062
-318.026	194.929	0.108	0.166
-317.012	-144.608	-0.195	0.018
-315.997	120.460	-0.091	-0.114
-314.983	-100.514	-0.291	-0.072
-313.968	-132.814	-0.212	-0.027
-312.953	343.807	0.157	-0.311
-311.939	115.367	0.184	-0.226
-310.924	123.708	0.126	0.159
-309.910	-200.000	-0.014	-0.103
-308.895	7.695	-0.071	-0.053
-307.880	13.921	-0.191	0.150
-306.866	28.978	-0.106	-0.091
-305.851	113.309	0.082	0.100
-304.837	-157.610	-0.194	0.012
-303.822	-200.000	-0.021	0.093
-302.807	9.325	0.058	0.044
-301.793	-73.000	-0.454	0.168
-300.778	-19.741	0.123	0.076
-299.764	-161.863	0.176	0.009
-298.749	173.225	-0.012	0.017
-297.735	800.000	-0.047	0.187
-296.720	-139.171	-0.189	0.021
-295.705	463.810	-0.040	-0.091
-294.691	-200.000	0.006	-0.186
-293.676	347.846	-0.091	-0.180
-292.662	-179.654	0.336	0.007
-291.647	-125.820	-0.208	-0.032
-290.632	-200.000	-0.006	0.132
-289.618	268.426	0.172	-0.303
-288.603	-153.403	0.217	0.015
-287.589	51.031	0.291	0.278
-286.574	154.601	-0.111	0.153
-285.559	-200.000	0.013	-0.074
-284.545	-52.445	0.163	0.076
-283.530	125.100	-0.078	0.099
-282.516	800.000	0.125	0.370
-281.501	541.954	0.010	-0.024
-280.486	-200.000	0.016	-0.239
-279.472	-88.838	-0.174	0.052
-278.457	-200.000	0.037	-0.546
-277.443	800.000	-0.133	-0.391
-276.428	137.755	-0.114	0.150
-275.413	800.000	0.080	0.293
-274.399	-200.000	0.033	-0.169
-273.384	-200.000	-0.050	-0.256
-272.370	43.330	0.492	-0.452
-271.355	302.164	-0.061	0.114
-270.340	403.313	0.012	-0.025
-269.326	-200.000	0.002	0.034
-268.311	-102.864	-0.255	-0.061
-267.297	323.270	0.209	-0.401
-266.282	-14.029	-0.083	0.054
-265.267	293.192	0.067	-0.124
-264.253	577.612	0.052	0.128
-263.238	560.695	-0.056	0.137
-262.224	21.695	0.207	-0.170
-261.209	-200.000	0.060	-0.333
-260.195	800.000	0.085	0.292
-259.180	800.000	0.085	0.283
-258.165	-148.856	-0.368	0.030
-257.151	800.000	-0.023	-0.090
-256.136	791.423	-0.056	0.155
-255.122	776.690	-0.131	0.359
-254.107	229.166	0.205	0.335
-253.092	-200.000	-0.000	-0.271
-252.078	64.258	0.119	0.121
-251.063	-76.138	0.125	0.044
-250.049	-88.872	-0.104	0.031
-249.034	800.000	0.070	-0.297
-248.019	159.090	-0.073	-0.103
-247.005	-144.116	-0.119	0.011
-245.990	536.694	0.035	-0.084
-244.976	287.500	-0.179	0.325
-243.961	-53.425	-0.186	0.086
-242.946	-200.000	0.053	-0.262
-241.932	-200.000	-0.022	0.157
-240.917	-64.873	0.177	0.072
-239.903	-180.709	0.133	-0.003
-238.888	-95.867	-0.160	0.043
-237.873	-200.000	-0.008	-0.200
-236.859	591.690	0.075	-0.186
-235.844	33.323	-0.187	-0.163
-234.830	5.397	0.136	0.101
-233.815	176.896	-0.194	0.283
-232.800	5.880	0.216	-0.161
-231.786	-87.179	-0.075	-0.023
-230.771	43.428	-0.226	0.207
-229.757	-37.142	0.276	0.148
-228.742	-166.878	-0.268	-0.011
-227.727	-200.000	-0.026	0.127
-226.713	800.000	-0.018	0.073
-225.698	214.869	-0.076	0.122
-224.684	-91.176	-0.318	0.092
-223.669	800.000	0.041	-0.165
-222.655	800.000	0.072	0.237
-221.640	72.962	0.270	0.283
-220.625	169.020	0.122	-0.175
-219.611	-126.606	0.380	-0.057
-218.596	-9.601	0.152	-0.102
-217.582	0.070	0.357	0.255
-216.567	469.624	0.010	0.022
-215.552	-200.000	0.056	-0.279
-214.538	-118.905	-0.234	-0.041
-213.523	-69.475	-0.041	0.016
-212.509	249.290	-0.107	0.183
-211.494	93.193	-0.114	0.129
-210.479	492.611	-0.095	0.218
-209.465	-137.171	0.238	0.027
-208.450	-32.598	0.146	0.082
-207.436	303.800	0.049	-0.092
-206.421	223.530	-0.089	0.145
-205.406	-174.183	-0.074	0.002
-204.392	-80.107	0.242	0.082
-203.377	77.841	-0.145	-0.155
-202.363	-112.382	-0.160	-0.032
-201.348	-40.440	0.102	0.053
-200.333	20.354	0.047	0.038
-199.319	613.774	-0.077	-0.193
-198.304	-117.145	-0.117	-0.021
-197.290	62.636	0.143	-0.143
-196.275	-60.271	0.061	0.026
-195.260	-70.239	-0.226	-0.086
-194.246	117.372	0.063	-0.078
-193.231	-200.000	0.018	0.121
-192.217	179.773	-0.089	-0.130
-191.202	-200.000	0.019	-0.231
-190.187	-124.440	-0.381	-0.060
-189.173	-200.000	-0.030	0.351
-188.158	-93.032	0.224	-0.063
-187.144	-200.000	-0.000	0.079
-186.129	40.858	0.562	0.508
-185.114	45.659	-0.226	0.209
-184.100	-122.186	0.208	-0.034
-183.085	-132.709	0.058	0.007
-182.071	300.119	0.160	-0.296
-181.056	-48.951	0.363	-0.174
-180.042	-68.086	0.383	0.150
-179.027	-6.166	-0.063	0.043
-178.012	-38.068	0.150	0.080
-176.998	-142.629	-0.147	-0.014
-175.983	800.000	0.075	0.317
-174.969	81.688	0.205	-0.222
-173.954	-31.114	0.182	0.103
-172.939	-102.118	0.145	-0.035
-171.925	-58.882	-0.283	0.122
-170.910	15.652	0.085	-0.067
-169.896	800.000	-0.096	-0.336
-168.881	-200.000	0.004	-0.123
-167.866	-16.332	-0.176	-0.112
-166.852	800.000	0.114	-0.343
-165.837	-200.000	-0.039	-0.232
-164.823	-67.733	-0.329	0.129
-163.808	-137.447	-0.061	0.007
-162.793	-200.000	-0.015	-0.160
-161.779	800.000	0.038	-0.159
-160.764	-144.862	-0.017	0.002
-159.750	-176.560	0.337	0.009
-158.735	156.115	-0.094	0.130
-157.720	659.697	-0.045	-0.117
-156.706	295.166	-0.050	-0.092
-155.691	-16.971	0.236	0.149
-154.677	800.000	0.078	0.219
-153.662	800.000	-0.068	-0.285
-152.647	-200.000	-0.044	0.335
-151.633	41.956	0.165	0.149
-150.618	-200.000	0.006	-0.104
-149.604	111.065	0.271	0.327
-148.589	54.198	0.164	-0.158
-147.574	800.000	0.031	-0.096
-146.560	-170.030	0.173	0.006
-145.545	-200.000	-0.004	0.022
-144.531	-200.000	-0.092	-0.483
-143.516	-200.000	-0.025	0.182
-142.502	103.199	-0.161	-0.188
-141.487	-137.281	-0.181	-0.021
-140.472	-200.000	-0.068	0.373
-139.458	284.746	0.070	-0.125
-138.443	-200.000	0.010	-0.348
-137.429	227.311	-0.249	0.404
-136.414	-4.008	0.184	-0.127
-135.399	-5.116	0.182	0.125
-134.385	47.084	-0.074	-0.069
-133.370	260.656	0.061	-0.105
-132.356	-103.900	-0.330	0.077
-131.341	119.980	-0.161	0.200
-130.326	306.981	0.016	0.029
-129.312	397.884	0.187	0.390
-128.297	55.412	-0.099	0.096
-127.283	95.480	0.244	-0.278
-126.268	-12.639	-0.147	-0.096
-125.253	-200.000	-0.005	0.317
-124.239	-178.779	0.341	-0.008
-123.224	250.568	-0.085	-0.144
-122.210	-200.000	0.068	0.331
