DTS Sentinel unit serial number:	SN413079Multiplexer serial number:	ORYXHardware model number:	OX4-SRSoftware version number:	ORYX F/W v4.00 Oryx Data Collector v3.7.2.0data status	okinstallation	princeton_trtdifferential loss correction	single-endedforward channel	channel 4reverse channel	N/Adate	2019/09/17time	11:57:35forward acquisition time	60.00reverse acquisition time	0.00gamma	496.2192k internal	0.2307k external	0.2307temperature offset calibration	0.9989default loss term (dB/km)	0.3790temperature slope calibration	1.0000multiplexer offset coefficient	1.0000multiplexer slope coefficient	1.0000fibre end	0.00T internal ref (°C)	31.05T ext. ref 1 (°C)	0.41T ext. ref 2 (°C)	27.16length (m)	temperature (°C)	Stokes	anti-Stokes-747.200	224.740	0.004	0.006
-746.185	-200.000	-0.042	0.292
-745.171	-200.000	-0.021	0.229
-744.156	-71.872	0.244	0.092
-743.142	-19.391	-0.227	-0.143
-742.127	138.213	-0.122	-0.163
-741.112	-127.149	0.228	0.034
-740.098	-86.535	0.175	-0.055
-739.083	119.975	-0.084	-0.107
-738.069	-11.405	0.216	0.145
-737.054	-67.257	0.037	-0.015
-736.039	800.000	-0.164	0.477
-735.025	-200.000	0.017	0.313
-734.010	13.959	-0.313	-0.247
-732.996	160.796	0.023	-0.032
-731.981	-65.065	-0.189	-0.078
-730.966	-39.420	0.047	0.025
-729.952	-200.000	-0.024	-0.131
-728.937	-154.787	-0.039	0.003
-727.923	130.684	-0.157	-0.204
-726.908	800.000	0.010	-0.041
-725.894	-200.000	0.006	0.234
-724.879	-200.000	0.033	-0.351
-723.864	56.636	-0.141	-0.139
-722.850	800.000	0.061	0.186
-721.835	-162.703	-0.116	-0.006
-720.821	-7.140	0.285	-0.197
-719.806	195.985	-0.189	-0.293
-718.791	-200.000	-0.053	-0.289
-717.777	185.041	0.055	0.083
-716.762	42.340	-0.173	0.160
-715.748	-72.155	0.156	-0.059
-714.733	-115.973	0.489	-0.093
-713.718	8.684	0.393	-0.300
-712.704	-113.950	0.194	-0.038
-711.689	-200.000	-0.042	-0.390
-710.675	432.452	0.191	0.420
-709.660	-111.834	-0.404	0.083
-708.645	-56.443	0.155	0.070
-707.631	115.086	-0.039	0.048
-706.616	-146.583	-0.123	0.011
-705.602	-100.425	-0.067	0.017
-704.587	-147.797	-0.360	0.031
-703.572	-66.304	0.345	0.139
-702.558	-26.415	-0.182	-0.108
-701.543	-136.947	0.099	0.012
-700.529	-4.680	-0.181	-0.127
-699.514	-200.000	0.013	0.352
-698.499	47.894	-0.144	-0.137
-697.485	800.000	0.104	-0.311
-696.470	-52.084	0.381	-0.179
-695.456	-200.000	0.027	0.208
-694.441	800.000	-0.085	-0.371
-693.426	25.523	-0.449	-0.379
-692.412	288.091	-0.158	0.291
-691.397	9.952	-0.062	-0.048
-690.383	459.252	0.026	-0.060
-689.368	557.131	-0.109	0.267
-688.354	759.617	0.070	0.191
-687.339	119.677	-0.090	-0.113
-686.324	-37.933	-0.095	0.051
-685.310	-200.000	0.037	0.234
-684.295	-119.001	-0.175	0.031
-683.281	257.332	-0.131	0.228
-682.266	-188.925	-0.199	-0.002
-681.251	-171.185	0.234	0.008
-680.237	465.178	-0.061	0.138
-679.222	346.605	-0.141	0.282
-678.208	148.158	0.098	0.134
-677.193	500.019	0.142	-0.332
-676.178	-50.034	-0.184	-0.089
-675.164	298.027	0.038	-0.072
-674.149	-200.000	-0.049	-0.250
-673.135	-200.000	0.070	-0.314
-672.120	112.891	0.197	-0.242
-671.105	201.135	-0.073	0.114
-670.091	800.000	-0.111	-0.376
-669.076	23.173	-0.239	0.199
-668.062	-123.134	-0.340	0.055
-667.047	-53.764	0.325	0.151
-666.032	-200.000	-0.006	0.111
-665.018	772.493	-0.061	-0.167
-664.003	267.922	-0.144	0.256
-662.989	-200.000	-0.026	0.165
-661.974	-76.370	-0.281	-0.100
-660.959	131.211	-0.102	0.133
-659.945	-25.427	0.165	-0.099
-658.930	-8.083	0.460	-0.314
-657.916	318.405	-0.087	-0.167
-656.901	320.574	0.084	-0.162
-655.886	112.136	0.065	-0.080
-654.872	-44.911	-0.081	-0.041
-653.857	-118.868	0.259	-0.046
-652.843	53.496	0.141	-0.137
-651.828	238.657	-0.294	-0.496
-650.814	-200.000	-0.018	-0.163
-649.799	-12.494	0.186	0.123
-648.784	-61.677	-0.208	0.088
-647.770	6.916	0.064	-0.048
-646.755	800.000	0.046	0.162
-645.741	-9.499	-0.201	0.136
-644.726	0.528	0.065	0.047
-643.711	312.909	-0.092	-0.176
-642.697	48.768	-0.135	0.128
-641.682	-90.734	-0.132	-0.038
-640.668	36.346	-0.005	0.004
-639.653	-36.095	0.097	-0.053
-638.638	-200.000	0.002	-0.032
-637.624	-200.000	-0.047	-0.327
-636.609	-146.351	0.117	0.010
-635.595	-108.893	0.067	0.015
-634.580	-200.000	0.028	-0.152
-633.565	-29.048	0.192	-0.111
-632.551	101.220	-0.164	-0.193
-631.536	31.392	0.149	-0.129
-630.522	800.000	0.061	0.180
-629.507	-12.643	-0.300	0.198
-628.492	800.000	0.075	-0.263
-627.478	800.000	-0.028	-0.100
-626.463	800.000	0.028	-0.092
-625.449	233.333	-0.159	0.264
-624.434	-56.712	0.172	-0.077
-623.419	-181.242	0.381	-0.008
-622.405	32.998	0.078	-0.068
-621.390	-200.000	0.030	0.155
-620.376	800.000	0.086	0.251
-619.361	800.000	-0.023	-0.077
-618.346	-75.317	-0.273	0.098
-617.332	151.701	-0.169	0.233
-616.317	-72.063	0.132	-0.050
-615.303	-105.669	0.279	0.064
-614.288	74.357	0.137	0.146
-613.273	-200.000	-0.015	-0.077
-612.259	800.000	-0.032	0.117
-611.244	800.000	-0.096	0.296
-610.230	-200.000	-0.031	-0.263
-609.215	-17.224	0.159	-0.101
-608.201	71.617	-0.083	0.087
-607.186	-200.000	-0.004	-0.109
-606.171	122.461	-0.127	-0.161
-605.157	800.000	0.022	0.090
-604.142	-20.706	-0.333	-0.207
-603.128	-46.760	-0.162	-0.080
-602.113	-200.000	-0.027	0.256
-601.098	155.485	-0.103	0.143
-600.084	-29.379	0.211	0.122
-599.069	109.589	0.118	-0.143
-598.055	-200.000	0.059	-0.267
-597.040	86.577	0.219	-0.244
-596.025	47.205	-0.216	0.203
-595.011	-200.000	-0.017	-0.141
-593.996	-22.197	-0.163	-0.100
-592.982	-138.151	-0.157	0.018
-591.967	-30.995	-0.200	0.114
-590.952	-103.813	0.104	-0.025
-589.938	-175.799	0.143	0.004
-588.923	88.117	0.158	0.177
-587.909	-200.000	0.013	0.061
-586.894	-22.913	0.153	-0.093
-585.879	55.542	-0.254	-0.249
-584.865	-112.522	0.092	0.019
-583.850	185.814	0.116	0.174
-582.836	800.000	0.117	-0.343
-581.821	-200.000	0.055	0.328
-580.806	-161.630	-0.130	-0.007
-579.792	-200.000	0.045	0.212
-578.777	-75.526	-0.109	-0.039
-577.763	-167.372	-0.197	-0.008
-576.748	-74.188	0.189	0.069
-575.733	-21.303	0.077	0.047
-574.719	-166.764	0.140	0.006
-573.704	-92.547	-0.087	-0.025
-572.690	190.760	0.119	-0.181
-571.675	658.647	-0.076	-0.198
-570.661	-56.161	0.181	0.082
-569.646	260.091	0.122	-0.214
-568.631	-147.365	0.235	-0.020
-567.617	151.453	0.283	-0.390
-566.602	-20.845	0.137	-0.085
-565.588	800.000	-0.103	-0.302
-564.573	69.564	-0.316	-0.329
-563.558	81.334	-0.166	-0.181
-562.544	190.342	0.243	0.369
-561.529	-174.209	-0.263	0.008
-560.515	-200.000	-0.007	-0.091
-559.500	-200.000	0.021	0.166
-558.485	-56.514	-0.125	0.056
-557.471	63.692	0.122	0.123
-556.456	-200.000	0.070	-0.364
-555.442	64.711	-0.206	0.210
-554.427	-126.139	-0.280	0.042
-553.412	-133.319	-0.068	0.009
-552.398	-23.195	-0.087	0.053
-551.383	119.052	0.031	0.038
-550.369	202.159	0.169	0.264
-549.354	-135.440	0.122	0.015
-548.339	-200.000	0.039	-0.242
-547.325	166.219	0.192	-0.275
-546.310	-200.000	-0.106	0.000
-545.296	0.744	-0.204	-0.147
-544.281	706.827	0.063	-0.168
-543.266	-92.572	0.366	-0.104
-542.252	109.782	0.122	-0.148
-541.237	103.081	-0.031	0.036
-540.223	26.691	0.154	0.130
-539.208	-22.074	0.249	-0.153
-538.193	496.097	-0.028	-0.065
-537.179	16.289	0.104	0.082
-536.164	77.627	0.170	-0.183
-535.150	-35.819	0.171	0.093
-534.135	-65.129	-0.298	0.121
-533.121	800.000	-0.058	0.217
-532.106	66.927	-0.254	-0.261
-531.091	800.000	-0.080	-0.236
-530.077	-97.103	-0.119	0.031
-529.062	-74.559	-0.306	-0.111
-528.048	-155.460	0.442	0.029
-527.033	-174.061	0.170	-0.005
-526.018	-200.000	-0.006	0.101
-525.004	-127.090	0.191	0.028
-523.989	-200.000	0.073	-0.381
-522.975	91.577	-0.241	0.273
-521.960	800.000	-0.062	0.249
-520.945	-9.645	-0.232	-0.156
-519.931	-20.067	0.064	-0.040
-518.916	-44.508	0.216	-0.109
-517.902	390.668	0.039	0.081
-516.887	-54.465	-0.056	-0.025
-515.872	20.062	-0.239	-0.194
-514.858	-154.340	-0.153	-0.010
-513.843	-200.000	-0.010	0.167
-512.829	-200.000	0.044	0.364
-511.814	-134.058	0.161	-0.020
-510.799	153.936	-0.123	-0.169
-509.785	-43.708	-0.059	-0.030
-508.770	-165.682	0.353	-0.015
-507.756	-149.021	0.136	-0.011
-506.741	127.464	-0.032	0.040
-505.726	-200.000	0.027	0.121
-504.712	2.971	0.037	-0.027
-503.697	-67.934	-0.304	0.119
-502.683	-200.000	-0.025	0.207
-501.668	800.000	0.162	0.482
-500.653	-200.000	-0.042	0.267
-499.639	81.820	-0.261	-0.285
-498.624	-12.970	-0.115	-0.075
-497.610	-65.368	0.271	-0.110
-496.595	-15.433	0.197	0.126
-495.581	626.690	-0.064	0.164
-494.566	-200.000	0.002	-0.159
-493.551	122.749	0.011	-0.014
-492.537	-37.446	0.287	0.154
-491.522	-200.000	0.001	0.320
-490.508	407.550	-0.089	-0.189
-489.493	-54.450	-0.200	0.091
-488.478	357.002	-0.201	0.404
-487.464	760.050	-0.087	-0.237
-486.449	-59.037	0.129	0.056
-485.435	-166.637	-0.278	-0.012
-484.420	175.000	0.153	-0.223
-483.405	-18.127	0.159	-0.100
-482.391	-28.662	0.483	-0.280
-481.376	-200.000	-0.057	-0.354
-480.362	-24.779	0.148	-0.089
-479.347	-176.915	0.108	0.003
-478.332	352.639	0.107	0.214
-477.318	800.000	0.090	0.321
-476.303	86.629	-0.307	0.341
-475.289	377.149	0.114	0.234
-474.274	-22.591	0.339	-0.206
-473.259	-200.000	0.011	-0.260
-472.245	-47.815	-0.146	-0.071
-471.230	-119.717	0.151	-0.026
-470.216	-161.392	0.122	-0.006
-469.201	-94.869	-0.112	0.030
-468.186	-200.000	-0.088	0.463
-467.172	-102.546	0.118	0.028
-466.157	-158.060	0.133	0.008
-465.143	-200.000	0.022	0.150
-464.128	-8.241	-0.098	-0.066
-463.113	-69.761	0.128	0.049
-462.099	136.022	-0.179	-0.235
-461.084	48.876	-0.175	0.166
-460.070	130.250	-0.131	-0.169
-459.055	-81.108	0.189	-0.063
-458.040	-76.150	0.341	-0.121
-457.026	800.000	0.034	-0.100
-456.011	800.000	0.053	-0.200
-454.997	12.745	0.063	-0.049
-453.982	800.000	-0.137	-0.560
-452.968	-80.840	-0.089	-0.030
-451.953	465.306	0.057	0.129
-450.938	800.000	-0.080	0.228
-449.924	92.066	0.032	0.036
-448.909	-110.733	-0.175	0.036
-447.895	9.653	-0.099	0.076
-446.880	-140.939	-0.309	0.032
-445.865	388.669	0.096	-0.201
-444.851	-17.526	-0.123	0.078
-443.836	126.619	-0.157	0.200
-442.822	-23.386	0.243	0.147
-441.807	-200.000	-0.107	-0.000
-440.792	60.039	-0.071	-0.071
-439.778	78.029	0.073	0.078
-438.763	425.274	0.015	-0.033
-437.749	-21.493	-0.069	0.042
-436.734	-9.171	-0.248	-0.167
-435.719	171.221	-0.071	-0.103
-434.705	800.000	-0.071	0.265
-433.690	-191.763	0.211	0.002
-432.676	-110.077	0.129	-0.027
-431.661	-200.000	0.063	0.515
-430.646	52.415	0.197	0.189
-429.632	-133.764	-0.114	0.014
-428.617	-64.327	-0.103	-0.042
-427.603	-79.881	-0.331	-0.112
-426.588	-63.628	0.252	0.104
-425.573	0.209	-0.299	0.214
-424.559	-77.124	0.160	0.056
-423.544	-200.000	-0.013	-0.214
-422.530	633.017	-0.133	-0.339
-421.515	-30.528	-0.040	0.023
-420.500	286.357	0.118	0.214
-419.486	-59.792	-0.311	0.134
-418.471	800.000	-0.060	0.180
-417.457	-155.853	-0.269	-0.017
-416.442	17.391	-0.271	-0.216
-415.428	-154.166	-0.397	-0.027
-414.413	-200.000	0.080	0.366
-413.398	-115.722	-0.434	-0.082
-412.384	50.901	-0.089	0.085
-411.369	-95.996	0.285	-0.076
-410.355	-44.232	0.214	-0.108
-409.340	-141.386	-0.265	0.027
-408.325	2.678	0.139	-0.101
-407.311	-54.348	0.150	0.068
-406.296	279.775	-0.136	0.244
-405.282	185.298	-0.091	-0.136
-404.267	-162.768	0.279	-0.014
-403.252	-42.475	0.110	-0.056
-402.238	800.000	-0.032	0.121
-401.223	-73.305	-0.310	0.114
-400.209	-144.654	0.251	0.023
-399.194	-8.856	0.165	-0.111
-398.179	800.000	-0.067	0.195
-397.165	24.332	0.237	0.196
-396.150	163.730	-0.070	-0.099
-395.136	-165.480	0.237	0.010
-394.121	-87.427	0.144	-0.044
-393.106	-47.267	-0.308	0.150
-392.092	20.187	0.148	0.120
-391.077	14.231	0.199	0.155
-390.063	102.012	-0.094	0.110
-389.048	-200.000	0.017	0.091
-388.033	39.606	-0.086	0.077
-387.019	-62.750	-0.148	-0.062
-386.004	-61.717	-0.059	0.025
-384.990	800.000	0.117	0.455
-383.975	755.902	0.079	0.213
-382.960	162.411	-0.162	0.227
-381.946	-200.000	0.020	0.127
-380.931	-33.966	0.241	0.133
-379.917	-34.619	-0.224	-0.123
-378.902	800.000	-0.013	-0.043
-377.888	-193.723	-0.236	-0.002
-376.873	800.000	-0.095	-0.284
-375.858	-200.000	-0.055	-0.245
-374.844	-94.141	-0.272	0.075
-373.829	17.734	-0.110	-0.088
-372.815	43.012	0.144	0.132
-371.800	-9.716	0.190	-0.127
-370.785	145.276	0.156	0.209
-369.771	-15.993	-0.121	0.077
-368.756	-110.502	0.236	-0.049
-367.742	571.478	-0.018	-0.045
-366.727	-27.529	-0.091	0.053
-365.712	-200.000	-0.059	-0.317
-364.698	-57.653	-0.205	0.090
-363.683	132.142	-0.261	-0.337
-362.669	-53.008	0.162	0.075
-361.654	-17.830	-0.171	0.107
-360.639	298.127	-0.058	-0.107
-359.625	75.493	-0.149	-0.157
-358.610	-200.000	0.015	0.398
-357.596	-1.134	-0.159	0.113
-356.581	-113.430	-0.138	-0.027
-355.566	-177.927	-0.257	-0.006
-354.552	-2.643	0.293	-0.206
-353.537	800.000	0.069	-0.202
-352.523	-4.819	-0.249	0.172
-351.508	-200.000	0.062	-0.331
-350.493	51.946	-0.145	0.138
-349.479	-54.103	-0.444	0.202
-348.464	-72.064	0.374	0.139
-347.450	-134.273	0.438	0.054
-346.435	-53.063	-0.292	-0.135
-345.420	-200.000	-0.004	-0.121
-344.406	290.182	-0.081	0.146
-343.391	-200.000	-0.025	0.355
-342.377	104.965	-0.117	0.138
-341.362	-200.000	-0.036	-0.174
-340.348	-70.196	0.265	0.101
-339.333	719.808	-0.016	-0.042
-338.318	-114.609	0.039	-0.008
-337.304	800.000	0.026	0.112
-336.289	1.306	0.162	0.116
-335.275	36.253	0.127	-0.112
-334.260	53.510	-0.120	0.115
-333.245	441.484	-0.191	0.418
-332.231	800.000	-0.058	0.161
-331.216	-107.396	-0.073	0.016
-330.202	65.000	-0.117	-0.118
-329.187	-200.000	0.010	-0.313
-328.172	-93.080	0.186	-0.052
-327.158	-5.958	-0.172	-0.118
-326.143	-47.796	-0.345	-0.167
-325.129	-40.876	0.159	-0.082
-324.114	-144.987	-0.341	0.031
-323.099	-200.000	0.076	-0.355
-322.085	-200.000	-0.036	-0.205
-321.070	437.424	0.089	0.194
-320.056	164.368	-0.155	0.219
-319.041	292.247	0.079	0.144
-318.026	800.000	-0.085	0.269
-317.012	-164.071	-0.232	0.011
-315.997	-41.294	0.212	-0.109
-314.983	-94.646	0.228	-0.062
-313.968	-200.000	0.002	0.080
-312.953	-200.000	-0.055	0.260
-311.939	372.377	0.107	-0.218
-310.924	-38.811	-0.297	-0.157
-309.910	-200.000	0.027	-0.175
-308.895	496.973	-0.209	0.480
-307.880	-88.046	-0.236	0.071
-306.866	-200.000	-0.043	-0.326
-305.851	800.000	0.094	-0.318
-304.837	-200.000	-0.029	-0.300
-303.822	-129.365	0.183	0.025
-302.807	-61.753	0.112	0.047
-301.793	-200.000	-0.035	-0.196
-300.778	320.342	0.127	0.240
-299.764	-99.159	-0.521	0.132
-298.749	800.000	0.074	0.266
-297.735	-200.000	-0.035	-0.211
-296.720	5.786	-0.135	-0.100
-295.705	800.000	-0.044	-0.166
-294.691	-44.767	-0.148	0.074
-293.676	19.907	0.229	0.184
-292.662	57.036	0.073	0.071
-291.647	310.888	-0.124	0.232
-290.632	-200.000	-0.056	0.357
-289.618	456.242	0.026	0.057
-288.603	-7.445	0.225	-0.152
-287.589	261.705	0.126	-0.218
-286.574	224.847	0.058	0.094
-285.559	262.028	-0.172	-0.299
-284.545	93.347	-0.074	0.083
-283.530	-71.692	-0.389	-0.145
-282.516	-47.371	0.271	-0.132
-281.501	409.007	0.089	-0.188
-280.486	456.288	-0.136	-0.302
-279.472	-200.000	0.032	0.158
-278.457	800.000	-0.059	0.241
-277.443	-84.207	-0.296	0.094
-276.428	800.000	-0.116	-0.320
-275.413	800.000	0.075	-0.224
-274.399	265.527	-0.033	0.058
-273.384	-71.167	-0.223	-0.084
-272.370	549.919	-0.050	0.121
-271.355	-12.377	0.481	-0.314
-270.340	158.029	0.078	-0.108
-269.326	345.153	0.143	0.281
-268.311	137.803	-0.125	0.163
-267.297	-200.000	-0.022	-0.125
-266.282	465.405	0.046	0.103
-265.267	800.000	-0.132	-0.377
-264.253	-40.629	0.222	-0.115
-263.238	-49.516	0.266	-0.126
-262.224	273.493	0.193	0.341
-261.209	800.000	-0.093	-0.347
-260.195	83.221	0.192	0.209
-259.180	437.880	0.040	0.086
-258.165	-200.000	0.003	0.185
-257.151	303.607	-0.103	-0.191
-256.136	20.902	-0.208	-0.168
-255.122	-168.977	-0.246	-0.009
-254.107	-75.059	-0.172	0.061
-253.092	59.388	0.092	0.090
-252.078	-200.000	-0.012	-0.328
-251.063	-53.616	0.147	0.067
-250.049	-200.000	0.005	-0.053
-249.034	-7.190	0.174	-0.117
-248.019	99.795	-0.163	0.188
-247.005	266.190	-0.079	0.138
-245.990	277.469	0.110	0.195
-244.976	395.278	-0.093	-0.193
-243.961	-99.427	-0.068	0.017
-242.946	800.000	0.087	-0.252
-241.932	35.413	0.356	0.311
-240.917	-200.000	0.016	0.296
-239.903	140.435	-0.159	0.209
-238.888	-200.000	0.003	-0.036
-237.873	262.419	0.043	0.075
-236.859	-200.000	-0.036	-0.240
-235.844	-16.028	0.307	-0.195
-234.830	-52.457	-0.308	-0.142
-233.815	181.534	0.133	-0.195
-232.800	-200.000	-0.002	0.293
-231.786	-35.269	-0.130	-0.070
-230.771	800.000	0.031	-0.127
-229.757	-154.320	0.173	-0.012
-228.742	238.759	-0.258	0.428
-227.727	-200.000	0.026	0.137
-226.713	3.476	0.189	0.137
-225.698	63.564	0.109	0.109
-224.684	-33.106	0.251	-0.139
-223.669	-25.941	0.365	-0.214
-222.655	31.786	-0.301	-0.258
-221.640	-68.915	-0.219	0.084
-220.625	-102.119	-0.164	-0.039
-219.611	-65.635	-0.198	-0.079
-218.596	-60.998	0.327	0.138
-217.582	-200.000	-0.012	-0.225
-216.567	800.000	0.080	0.333
-215.552	-200.000	-0.027	0.454
-214.538	648.179	-0.085	0.215
-213.523	-200.000	0.024	-0.114
-212.509	99.291	0.014	0.016
-211.494	-58.782	-0.156	0.067
-210.479	-57.765	0.263	-0.115
-209.465	444.964	-0.200	-0.437
-208.450	-169.675	0.139	-0.005
-207.436	-76.302	0.204	-0.072
-206.421	519.691	0.111	-0.260
-205.406	346.785	-0.041	0.080
-204.392	-44.374	0.266	-0.133
-203.377	306.609	-0.037	-0.068
-202.363	-200.000	0.007	-0.153
-201.348	-146.214	0.102	0.009
-200.333	46.680	0.086	-0.079
-199.319	-113.802	-0.088	0.017
-198.304	-113.724	0.171	0.033
-197.290	610.287	-0.100	-0.249
-196.275	-73.442	-0.274	-0.099
-195.260	47.452	-0.036	0.033
-194.246	2.024	0.219	0.157
-193.231	-48.752	-0.080	0.038
-192.217	-200.000	0.052	0.330
-191.202	-83.401	-0.382	0.122
-190.187	127.744	0.146	0.185
-189.173	116.160	-0.072	-0.087
-188.158	20.611	-0.082	0.066
-187.144	-66.682	-0.469	0.185
-186.129	800.000	-0.012	-0.048
-185.114	-62.590	-0.120	0.050
-184.100	436.983	0.163	0.352
-183.085	14.404	0.089	0.069
-182.071	-74.360	0.215	0.077
-181.056	-65.162	0.316	0.127
-180.042	109.392	-0.237	-0.283
-179.027	-37.122	-0.226	-0.120
-178.012	-200.000	0.064	-0.332
-176.998	800.000	0.014	-0.048
-175.983	-100.906	0.332	-0.081
-174.969	374.812	-0.146	-0.295
-173.954	-29.726	0.206	0.117
-172.939	0.613	-0.241	-0.171
-171.925	-200.000	0.043	-0.400
-170.910	-200.000	0.011	-0.266
-169.896	-112.090	0.314	0.063
-168.881	46.165	0.154	0.141
-167.866	-97.403	0.306	0.079
-166.852	497.754	-0.065	0.148
-165.837	-53.101	0.214	-0.098
-164.823	114.220	-0.070	0.084
-163.808	-107.827	-0.240	-0.052
-162.793	34.700	0.342	-0.297
-161.779	99.497	0.201	-0.231
-160.764	40.256	-0.183	-0.163
-159.750	-121.741	-0.136	-0.022
-158.735	-124.736	0.362	0.056
-157.720	89.363	-0.100	0.110
-156.706	-141.816	0.173	-0.017
-155.691	-200.000	-0.002	0.261
-154.677	-56.559	0.205	0.090
-153.662	-200.000	0.043	0.200
-152.647	-200.000	-0.011	-0.152
-151.633	-135.259	0.117	0.014
-150.618	-185.047	-0.376	-0.006
-149.604	58.333	-0.113	-0.110
-148.589	461.170	-0.088	-0.195
-147.574	-31.522	-0.225	-0.126
-146.560	81.434	-0.213	0.229
-145.545	-200.000	-0.017	-0.092
-144.531	34.877	-0.291	-0.253
-143.516	5.669	-0.243	0.178
-142.502	45.226	-0.166	-0.152
-141.487	46.984	-0.028	0.026
-140.472	-200.000	-0.033	-0.312
-139.458	-42.136	0.293	0.149
-138.443	437.465	-0.128	0.278
-137.429	-145.871	0.059	0.005
-136.414	727.657	0.114	0.303
-135.399	-200.000	-0.007	0.035
-134.385	-51.417	-0.118	0.055
-133.370	-178.812	-0.262	-0.006
-132.356	47.788	0.152	-0.141
-131.341	-200.000	0.025	-0.146
-130.326	-200.000	0.040	0.248
-129.312	53.797	0.027	0.026
-128.297	-162.664	0.360	0.018
-127.283	707.898	0.102	-0.268
-126.268	-86.349	0.040	-0.012
-125.253	-200.000	-0.008	-0.119
-124.239	-139.171	0.443	0.048
-123.224	-78.096	0.150	-0.051
-122.210	800.000	0.106	0.324
-121.195	-32.011	-0.352	0.196
