DTS Sentinel unit serial number:	SN413079Multiplexer serial number:	ORYXHardware model number:	OX4-SRSoftware version number:	ORYX F/W v4.00 Oryx Data Collector v3.7.2.0data status	okinstallation	princeton_trtdifferential loss correction	single-endedforward channel	channel 4reverse channel	N/Adate	2019/09/14time	14:33:35forward acquisition time	60.00reverse acquisition time	0.00gamma	496.2192k internal	0.2289k external	0.2289temperature offset calibration	1.0144default loss term (dB/km)	0.3790temperature slope calibration	1.0000multiplexer offset coefficient	1.0000multiplexer slope coefficient	1.0000fibre end	0.00T internal ref (°C)	39.17T ext. ref 1 (°C)	5.03T ext. ref 2 (°C)	35.54length (m)	temperature (°C)	Stokes	anti-Stokes-747.200	-15.759	0.052	-0.034
-746.185	-180.062	-0.267	-0.006
-745.171	-18.723	0.105	-0.067
-744.156	156.363	0.175	0.247
-743.142	-102.773	0.223	0.054
-742.127	-86.940	0.293	-0.092
-741.112	-200.000	-0.028	-0.256
-740.098	-200.000	-0.025	0.270
-739.083	800.000	-0.092	-0.283
-738.069	-146.759	-0.166	0.015
-737.054	514.977	0.065	0.155
-736.039	-6.661	-0.198	0.138
-735.025	-16.290	-0.161	0.105
-734.010	658.683	-0.039	-0.102
-732.996	-43.031	-0.059	-0.031
-731.981	342.168	-0.054	-0.108
-730.966	-125.210	-0.613	-0.096
-729.952	-200.000	0.036	-0.201
-728.937	-100.409	-0.106	-0.027
-727.923	98.214	-0.141	-0.166
-726.908	357.524	-0.217	-0.444
-725.894	-46.995	0.023	-0.012
-724.879	-156.580	-0.277	-0.018
-723.864	-168.195	0.161	-0.006
-722.850	54.681	-0.120	-0.118
-721.835	-77.536	-0.355	0.126
-720.821	-170.309	-0.435	-0.016
-719.806	116.362	0.167	-0.209
-718.791	800.000	0.073	-0.256
-717.777	-84.177	-0.116	0.038
-716.762	-190.088	-0.122	0.001
-715.748	36.346	0.145	0.131
-714.733	-76.308	-0.199	0.072
-713.718	62.945	-0.180	0.185
-712.704	-61.306	-0.061	0.026
-711.689	-4.794	0.166	-0.118
-710.675	56.197	0.297	-0.296
-709.660	35.515	0.195	-0.175
-708.645	-200.000	-0.010	0.188
-707.631	-200.000	0.040	0.253
-706.616	782.026	0.042	-0.119
-705.602	370.738	-0.094	-0.195
-704.587	-7.578	-0.141	-0.098
-703.572	-148.661	0.413	-0.034
-702.558	517.256	-0.151	-0.362
-701.543	339.565	-0.050	0.100
-700.529	-63.880	0.147	-0.062
-699.514	-19.007	0.227	0.144
-698.499	137.697	-0.224	0.299
-697.485	428.847	0.081	-0.180
-696.470	386.713	-0.096	0.203
-695.456	21.502	-0.323	-0.269
-694.441	32.556	0.102	-0.090
-693.426	19.504	0.216	-0.177
-692.412	-50.939	-0.045	0.021
-691.397	-41.558	-0.326	0.172
-690.383	-40.440	-0.253	-0.134
-689.368	116.665	-0.065	0.082
-688.354	666.453	0.038	-0.102
-687.339	-66.561	0.167	0.068
-686.324	800.000	-0.033	0.101
-685.310	-66.083	0.371	-0.151
-684.295	538.066	0.094	-0.228
-683.281	-118.425	-0.096	-0.017
-682.266	122.377	0.142	-0.182
-681.251	-59.657	-0.457	-0.200
-680.237	-121.507	-0.093	-0.016
-679.222	156.878	0.073	-0.103
-678.208	-101.693	-0.552	0.137
-677.193	-138.493	0.214	-0.024
-676.178	-84.013	-0.360	0.117
-675.164	23.558	0.197	-0.166
-674.149	99.723	-0.167	-0.197
-673.135	79.462	0.220	-0.241
-672.120	-200.000	-0.053	-0.446
-671.105	617.061	-0.170	-0.436
-670.091	70.465	-0.066	-0.069
-669.076	150.048	-0.126	0.174
-668.062	43.656	-0.092	0.086
-667.047	-55.106	-0.205	0.094
-666.032	94.263	0.165	-0.192
-665.018	-88.990	-0.376	0.114
-664.003	800.000	0.068	0.231
-662.989	731.101	-0.112	-0.307
-661.974	-81.596	-0.197	-0.066
-660.959	800.000	0.065	-0.238
-659.945	23.023	-0.291	0.244
-658.930	-10.337	0.247	-0.167
-657.916	-55.414	-0.145	-0.066
-656.901	495.959	-0.126	0.297
-655.886	-200.000	-0.014	0.289
-654.872	255.819	0.007	-0.012
-653.857	-50.890	0.154	0.074
-652.843	180.127	-0.223	0.333
-651.828	-92.742	0.100	0.029
-650.814	37.070	-0.131	0.118
-649.799	-200.000	0.014	0.125
-648.784	-33.687	0.248	-0.140
-647.770	-200.000	0.012	0.078
-646.755	59.655	-0.047	-0.047
-645.741	800.000	-0.050	-0.179
-644.726	95.680	0.085	-0.099
-643.711	103.135	0.065	0.078
-642.697	800.000	-0.142	0.456
-641.682	-72.547	-0.231	0.087
-640.668	-29.639	-0.125	-0.073
-639.653	-96.672	-0.381	-0.102
-638.638	-200.000	-0.005	0.105
-637.624	277.003	0.200	0.362
-636.609	555.532	-0.083	-0.204
-635.595	-200.000	0.016	0.484
-634.580	145.217	0.105	0.144
-633.565	-127.782	0.196	0.029
-632.551	48.366	-0.218	-0.209
-631.536	93.461	0.099	-0.114
-630.522	800.000	0.059	0.225
-629.507	-97.588	-0.362	0.096
-628.492	129.737	-0.159	0.208
-627.478	111.996	-0.133	-0.164
-626.463	-145.452	-0.249	0.023
-625.449	-102.360	-0.179	0.044
-624.434	800.000	0.035	-0.151
-623.419	27.617	-0.345	-0.296
-622.405	-126.870	-0.153	-0.023
-621.390	576.229	-0.137	0.341
-620.376	-148.681	0.288	-0.024
-619.361	-63.752	-0.123	0.051
-618.346	79.809	0.172	-0.189
-617.332	800.000	-0.076	-0.304
-616.317	52.049	-0.280	-0.272
-615.303	20.835	-0.206	-0.170
-614.288	35.012	0.204	0.182
-613.273	4.987	0.392	0.294
-612.259	38.642	-0.010	0.009
-611.244	-200.000	0.000	-0.633
-610.230	25.642	-0.105	-0.089
-609.215	800.000	-0.025	0.085
-608.201	-70.772	-0.319	-0.123
-607.186	-200.000	0.036	-0.244
-606.171	64.536	0.117	0.120
-605.157	23.056	-0.221	0.185
-604.142	147.349	0.081	0.111
-603.128	-57.923	-0.043	-0.019
-602.113	-122.823	0.222	0.036
-601.098	-159.405	0.244	-0.014
-600.084	122.059	-0.047	-0.060
-599.069	165.429	0.079	0.114
-598.055	138.211	0.094	0.125
-597.040	75.794	-0.322	-0.346
-596.025	31.516	-0.260	-0.228
-595.011	380.297	0.089	-0.186
-593.996	800.000	0.105	-0.363
-592.982	92.863	0.069	-0.079
-591.967	11.807	-0.239	0.187
-590.952	800.000	-0.065	0.256
-589.938	-163.622	0.105	-0.005
-588.923	-200.000	-0.006	-0.183
-587.909	369.195	0.062	-0.128
-586.894	160.485	-0.169	0.240
-585.879	-200.000	-0.022	-0.234
-584.865	800.000	-0.128	-0.507
-583.850	-78.211	0.217	-0.076
-582.836	-35.742	-0.208	0.115
-581.821	-17.632	-0.041	0.026
-580.806	455.715	0.137	0.309
-579.792	-200.000	-0.006	-0.030
-578.777	-85.057	-0.322	0.103
-577.763	-165.261	0.255	-0.011
-576.748	63.458	-0.172	-0.176
-575.733	309.129	0.081	0.155
-574.719	373.226	-0.058	-0.120
-573.704	57.697	-0.191	-0.190
-572.690	800.000	-0.125	-0.355
-571.675	-119.240	0.158	0.028
-570.661	434.514	-0.060	-0.132
-569.646	278.966	0.155	0.281
-568.631	-39.141	0.302	-0.161
-567.617	105.472	0.083	-0.100
-566.602	-200.000	-0.048	-0.328
-565.588	23.821	-0.382	-0.321
-564.573	73.723	-0.307	-0.328
-563.558	225.683	0.105	0.173
-562.544	-32.069	-0.238	-0.136
-561.529	131.057	-0.278	0.364
-560.515	398.051	-0.125	0.265
-559.500	-170.287	0.389	0.014
-558.485	800.000	0.075	-0.311
-557.471	-200.000	-0.011	-0.324
-556.456	145.517	0.120	0.164
-555.442	-200.000	0.026	-0.183
-554.427	164.405	0.167	-0.239
-553.412	-161.995	-0.339	-0.017
-552.398	-97.503	0.041	-0.011
-551.383	51.902	-0.182	-0.176
-550.369	-92.957	0.188	-0.053
-549.354	-200.000	0.005	-0.027
-548.339	599.329	-0.073	0.183
-547.325	-45.757	-0.375	-0.188
-546.310	299.322	0.076	0.143
-545.296	800.000	-0.070	0.217
-544.281	94.397	0.240	0.277
-543.266	-200.000	0.029	-0.171
-542.252	245.469	0.188	-0.322
-541.237	446.166	-0.104	-0.233
-540.223	-200.000	0.046	0.265
-539.208	423.833	-0.090	-0.198
-538.193	733.562	-0.101	0.276
-537.179	701.868	0.134	0.358
-536.164	-16.398	-0.211	-0.136
-535.150	134.104	-0.096	0.127
-534.135	-200.000	-0.017	0.157
-533.121	136.981	0.108	0.143
-532.106	66.132	0.075	0.077
-531.091	-200.000	0.031	-0.171
-530.077	-200.000	0.059	0.278
-529.062	104.344	0.159	-0.190
-528.048	-0.309	0.163	0.117
-527.033	-200.000	-0.001	-0.063
-526.018	800.000	0.011	-0.042
-525.004	247.921	0.157	-0.270
-523.989	160.004	0.139	-0.197
-522.975	-178.154	-0.228	0.005
-521.960	-19.178	-0.056	-0.035
-520.945	-55.281	-0.064	-0.029
-519.931	193.499	-0.162	0.249
-518.916	-76.346	-0.068	-0.024
-517.902	-17.960	-0.178	-0.113
-516.887	-42.827	-0.171	-0.088
-515.872	113.604	0.203	-0.251
-514.858	-184.667	0.390	0.006
-513.843	327.077	0.051	-0.100
-512.829	654.563	0.107	-0.278
-511.814	385.517	-0.135	-0.283
-510.799	-200.000	0.013	0.070
-509.785	1.924	0.117	0.086
-508.770	-24.510	-0.081	-0.049
-507.756	559.127	0.172	-0.421
-506.741	498.037	0.012	-0.028
-505.726	-106.301	-0.105	0.024
-504.712	-133.176	0.032	0.004
-503.697	-87.968	0.285	0.087
-502.683	-12.505	0.060	0.040
-501.668	52.596	-0.192	0.186
-500.653	-29.383	0.137	0.080
-499.639	-32.109	0.284	0.161
-498.624	673.287	-0.038	0.101
-497.610	-161.125	-0.402	-0.021
-496.595	-200.000	0.005	0.241
-495.581	396.213	-0.037	-0.078
-494.566	50.360	0.278	0.267
-493.551	21.703	-0.239	-0.198
-492.537	160.830	0.033	0.047
-491.522	-200.000	0.022	0.265
-490.508	800.000	0.044	0.130
-489.493	-137.074	0.491	0.057
-488.478	-200.000	-0.066	0.398
-487.464	-96.829	0.267	0.071
-486.449	-2.457	0.064	-0.045
-485.435	-190.869	-0.133	-0.001
-484.420	-156.140	-0.120	0.008
-483.405	-200.000	0.016	0.356
-482.391	-107.548	-0.220	-0.049
-481.376	227.359	-0.108	-0.178
-480.362	276.702	-0.133	-0.241
-479.347	345.174	-0.178	-0.354
-478.332	-73.884	0.401	-0.148
-477.318	-200.000	-0.003	-0.134
-476.303	-3.234	-0.033	-0.023
-475.289	624.528	0.045	0.115
-474.274	164.875	-0.275	-0.393
-473.259	-17.763	0.111	0.071
-472.245	800.000	-0.058	0.237
-471.230	-200.000	-0.042	-0.279
-470.216	-22.833	0.465	-0.285
-469.201	-128.394	0.294	0.042
-468.186	26.963	-0.148	0.125
-467.172	110.754	0.089	0.109
-466.157	-145.975	-0.299	-0.027
-465.143	186.426	-0.179	-0.270
-464.128	-200.000	0.003	0.115
-463.113	-30.961	-0.249	-0.143
-462.099	323.704	-0.110	0.212
-461.084	800.000	-0.048	0.197
-460.070	-12.142	-0.343	0.228
-459.055	-72.058	0.367	-0.138
-458.040	-200.000	-0.027	-0.246
-457.026	399.509	0.130	-0.277
-456.011	-177.927	0.301	-0.007
-454.997	81.523	0.125	0.137
-453.982	-57.358	0.058	-0.026
-452.968	85.319	-0.258	-0.287
-451.953	-37.616	0.230	-0.124
-450.938	-34.142	-0.062	-0.035
-449.924	216.811	0.188	-0.304
-448.909	-27.803	0.173	-0.102
-447.895	8.695	0.268	-0.205
-446.880	89.014	-0.124	-0.140
-445.865	-200.000	-0.007	0.317
-444.851	198.005	-0.096	-0.149
-443.836	-200.000	0.002	-0.050
-442.822	-200.000	-0.010	0.148
-441.807	-112.371	-0.261	0.053
-440.792	-73.740	-0.279	0.103
-439.778	129.487	-0.278	-0.359
-438.763	-95.875	0.233	-0.063
-437.749	-200.000	-0.020	-0.098
-436.734	-50.458	0.230	-0.110
-435.719	131.232	-0.068	0.088
-434.705	-28.560	-0.170	-0.099
-433.690	-200.000	0.024	-0.332
-432.676	239.454	0.029	0.050
-431.661	481.358	0.058	-0.132
-430.646	439.025	0.068	0.151
-429.632	-48.725	-0.043	0.021
-428.617	-59.525	-0.087	0.038
-427.603	119.589	-0.218	0.273
-426.588	-165.241	0.338	-0.015
-425.573	-88.642	0.172	0.052
-424.559	-200.000	0.011	-0.083
-423.544	-180.250	-0.469	-0.010
-422.530	58.652	-0.176	0.175
-421.515	-173.074	-0.333	0.010
-420.500	657.260	-0.099	0.259
-419.486	-200.000	-0.028	0.159
-418.471	-16.385	-0.212	0.136
-417.457	187.739	0.239	-0.362
-416.442	29.333	0.265	0.228
-415.428	-146.435	-0.255	0.023
-414.413	357.460	-0.085	-0.171
-413.398	-156.998	0.213	0.013
-412.384	-200.000	-0.002	-0.067
-411.369	-200.000	0.001	-0.080
-410.355	-105.300	-0.092	-0.021
-409.340	-186.746	-0.137	-0.002
-408.325	-200.000	-0.003	-0.114
-407.311	287.141	0.072	0.132
-406.296	-7.669	0.144	0.098
-405.282	-73.936	-0.262	0.096
-404.267	800.000	0.031	-0.108
-403.252	500.517	0.111	-0.258
-402.238	-200.000	-0.050	-0.280
-401.223	204.875	-0.019	0.029
-400.209	312.438	0.223	-0.424
-399.194	800.000	-0.056	-0.158
-398.179	40.318	0.071	0.064
-397.165	-48.105	0.189	0.092
-396.150	-46.229	-0.269	-0.134
-395.136	-200.000	-0.001	0.145
-394.121	-43.940	0.180	0.092
-393.106	-11.800	0.192	0.128
-392.092	-132.060	0.264	-0.035
-391.077	-200.000	0.081	-0.430
-390.063	-168.912	0.064	0.002
-389.048	30.765	0.044	0.038
-388.033	-200.000	-0.026	-0.224
-387.019	17.798	-0.261	-0.210
-386.004	-200.000	-0.025	-0.165
-384.990	-24.916	0.014	0.008
-383.975	-84.985	0.232	0.074
-382.960	-62.064	0.233	-0.098
-381.946	-200.000	-0.048	-0.287
-380.931	-52.902	0.081	-0.038
-379.917	-122.777	-0.288	0.047
-378.902	113.676	-0.131	0.161
-377.888	-22.315	0.219	0.134
-376.873	11.712	0.137	0.106
-375.858	-200.000	-0.029	-0.240
-374.844	-147.418	0.380	-0.033
-373.829	-102.898	0.118	0.028
-372.815	-153.619	0.240	0.017
-371.800	-48.536	0.117	-0.057
-370.785	121.476	0.072	0.091
-369.771	-59.064	-0.341	0.149
-368.756	-40.953	-0.090	0.047
-367.742	-124.817	-0.213	0.033
-366.727	16.426	-0.057	0.046
-365.712	-161.991	-0.206	-0.010
-364.698	13.733	-0.323	-0.253
-363.683	-105.443	0.190	-0.044
-362.669	-137.003	-0.375	-0.043
-361.654	45.780	-0.177	0.165
-360.639	59.578	-0.067	0.067
-359.625	-106.937	-0.098	0.022
-358.610	800.000	0.103	0.337
-357.596	63.521	0.285	-0.288
-356.581	-12.720	-0.223	0.147
-355.566	-54.046	-0.134	-0.062
-354.552	134.753	-0.122	0.160
-353.537	81.249	-0.249	0.272
-352.523	-200.000	0.032	-0.190
-351.508	263.042	-0.137	-0.240
-350.493	48.736	0.158	-0.150
-349.479	389.169	0.082	-0.170
-348.464	3.856	0.210	0.155
-347.450	-74.816	0.121	0.044
-346.435	165.545	-0.222	-0.317
-345.420	-200.000	-0.001	-0.162
-344.406	-137.500	0.177	0.020
-343.391	389.609	0.167	-0.350
-342.377	-46.755	0.120	-0.059
-341.362	16.828	-0.150	0.119
-340.348	-200.000	-0.004	0.080
-339.333	-128.407	0.283	0.041
-338.318	270.248	-0.103	-0.183
-337.304	800.000	0.044	0.151
-336.289	-30.453	-0.282	-0.162
-335.275	-116.024	-0.305	-0.057
-334.260	-83.066	-0.140	0.046
-333.245	-200.000	-0.034	-0.164
-332.231	-111.714	0.274	-0.056
-331.216	48.776	0.134	-0.127
-330.202	-74.486	0.169	-0.061
-329.187	776.904	0.104	0.286
-328.172	800.000	0.034	0.146
-327.158	-200.000	0.016	0.112
-326.143	86.474	-0.048	-0.054
-325.129	65.274	-0.137	-0.139
-324.114	-128.379	0.400	-0.057
-323.099	-200.000	-0.009	0.151
-322.085	-200.000	0.053	0.321
-321.070	-24.369	-0.296	-0.178
-320.056	-45.069	0.130	0.065
-319.041	-134.875	0.080	-0.010
-318.026	284.657	-0.137	0.249
-317.012	-83.716	0.156	-0.050
-315.997	165.756	0.128	-0.183
-314.983	800.000	0.136	0.411
-313.968	13.435	-0.147	0.115
-312.953	-200.000	-0.020	0.144
-311.939	-200.000	-0.040	0.182
-310.924	-200.000	0.017	0.226
-309.910	-200.000	-0.009	0.140
-308.895	-118.549	0.227	-0.040
-307.880	-100.976	-0.143	-0.035
-306.866	800.000	-0.066	0.232
-305.851	-74.303	0.165	-0.060
-304.837	264.482	-0.072	0.126
-303.822	243.618	0.081	0.137
-302.807	-155.147	0.078	-0.005
-301.793	800.000	0.023	-0.072
-300.778	23.758	-0.107	0.089
-299.764	233.276	-0.078	-0.130
-298.749	800.000	0.047	-0.188
-297.735	-93.569	0.193	-0.054
-296.720	-197.681	-0.256	-0.002
-295.705	-140.718	-0.018	0.002
-294.691	-200.000	0.008	-0.133
-293.676	-52.660	0.374	0.174
-292.662	305.224	0.238	0.446
-291.647	-200.000	-0.041	0.223
-290.632	-96.294	0.162	-0.043
-289.618	47.509	0.320	-0.300
-288.603	21.209	-0.259	0.212
-287.589	-200.000	0.032	-0.262
-286.574	-150.926	0.050	-0.004
-285.559	-200.000	-0.015	0.209
-284.545	-200.000	-0.024	0.207
-283.530	-200.000	0.046	0.431
-282.516	-125.989	0.315	-0.048
-281.501	77.603	-0.042	0.044
-280.486	30.360	0.254	0.218
-279.472	-149.049	-0.310	0.025
-278.457	226.489	-0.103	-0.168
-277.443	-33.502	-0.336	0.187
-276.428	-129.888	-0.334	-0.046
-275.413	-45.430	0.227	0.113
-274.399	-110.137	-0.361	-0.076
-273.384	-85.195	0.511	0.161
-272.370	-138.623	-0.267	0.029
-271.355	-200.000	-0.002	-0.137
-270.340	-200.000	0.028	-0.292
-269.326	-126.449	0.265	-0.040
-268.311	2.491	-0.055	0.040
-267.297	-165.906	-0.282	0.012
-266.282	-196.949	-0.032	0.000
-265.267	226.598	-0.087	0.142
-264.253	257.790	0.077	0.133
-263.238	243.385	0.042	0.071
-262.224	-184.855	-0.106	0.002
-261.209	-106.219	0.245	-0.055
-260.195	119.135	-0.037	0.046
-259.180	278.767	-0.222	0.398
-258.165	510.128	0.102	-0.238
-257.151	800.000	0.074	0.287
-256.136	-140.366	0.088	0.009
-255.122	-200.000	0.028	-0.358
-254.107	65.060	-0.055	0.056
-253.092	84.192	0.143	-0.157
-252.078	-200.000	0.030	0.189
-251.063	-148.156	0.424	0.035
-250.049	170.783	-0.138	0.199
-249.034	523.293	-0.039	0.092
-248.019	-200.000	-0.013	0.194
-247.005	538.372	-0.104	-0.249
-245.990	-86.101	-0.097	0.030
-244.976	458.913	0.111	0.248
-243.961	-200.000	-0.013	-0.150
-242.946	-9.734	-0.120	-0.080
-241.932	-200.000	0.007	0.039
-240.917	-110.644	0.294	0.061
-239.903	-188.544	-0.292	-0.004
-238.888	-146.558	0.080	-0.007
-237.873	800.000	0.043	0.138
-236.859	-24.399	-0.192	0.115
-235.844	-74.787	-0.265	-0.096
-234.830	800.000	0.092	-0.300
-233.815	95.235	0.213	-0.243
-232.800	-200.000	0.016	-0.247
-231.786	219.624	-0.153	-0.247
-230.771	465.304	-0.087	0.195
-229.757	-200.000	0.021	0.139
-228.742	-19.302	-0.390	0.243
-227.727	97.756	-0.188	0.217
-226.713	147.730	0.062	-0.085
-225.698	-200.000	-0.006	-0.287
-224.684	800.000	0.026	-0.082
-223.669	800.000	0.037	0.121
-222.655	178.110	-0.267	-0.392
-221.640	428.549	0.088	0.191
-220.625	-78.822	-0.213	0.073
-219.611	68.758	0.126	0.129
-218.596	-76.064	0.292	0.104
-217.582	1.158	0.273	0.197
-216.567	-195.852	-0.205	0.001
-215.552	-149.753	-0.289	-0.023
-214.538	-142.371	0.348	0.034
-213.523	-50.019	-0.087	-0.041
-212.509	7.791	-0.318	0.239
-211.494	75.906	0.196	-0.208
-210.479	-103.899	0.354	-0.083
-209.465	25.567	0.236	0.197
-208.450	-46.651	0.337	0.166
-207.436	-116.137	-0.261	-0.049
-206.421	463.053	-0.029	0.065
-205.406	800.000	-0.022	0.064
-204.392	-83.900	0.201	0.064
-203.377	-200.000	-0.014	0.198
-202.363	378.097	-0.058	-0.119
-201.348	-114.839	0.327	0.063
-200.333	329.596	-0.052	0.101
-199.319	-119.315	-0.043	0.007
-198.304	-70.742	-0.112	0.042
-197.290	-200.000	-0.063	0.350
-196.275	-200.000	-0.023	-0.168
-195.260	-74.993	0.356	0.128
-194.246	493.170	0.222	0.510
-193.231	563.794	0.155	0.376
-192.217	-54.394	-0.468	0.213
-191.202	-53.582	0.286	0.131
-190.187	-40.977	-0.136	0.071
-189.173	-200.000	-0.010	-0.132
-188.158	99.647	0.209	-0.243
-187.144	32.929	0.240	0.209
-186.129	73.900	0.126	-0.133
-185.114	236.955	0.090	-0.150
-184.100	-41.340	-0.288	-0.149
-183.085	-71.270	-0.137	-0.051
-182.071	-101.561	0.157	-0.038
-181.056	-141.345	-0.301	0.031
-180.042	-93.566	0.011	-0.003
-179.027	800.000	0.062	0.261
-178.012	439.988	-0.073	-0.159
-176.998	-120.818	-0.207	0.035
-175.983	10.906	0.164	0.126
-174.969	-179.717	0.278	-0.006
-173.954	200.982	-0.187	0.289
-172.939	276.706	-0.057	-0.101
-171.925	-98.290	0.205	0.053
-170.910	-200.000	0.519	-0.001
-169.896	-200.000	-0.128	0.000
-168.881	-100.238	-0.337	0.084
-167.866	-83.862	-0.147	0.047
-166.852	549.004	-0.066	0.158
-165.837	-82.509	0.404	-0.131
-164.823	800.000	0.073	0.312
-163.808	-200.000	0.023	0.240
-162.793	263.568	0.168	0.293
-161.779	-170.520	-0.209	-0.007
-160.764	6.304	0.311	-0.231
-159.750	800.000	0.057	0.171
-158.735	153.069	0.027	-0.037
-157.720	339.187	-0.125	-0.243
-156.706	295.277	0.163	0.299
-155.691	93.712	-0.203	0.230
-154.677	-77.132	0.284	-0.099
-153.662	-154.222	-0.393	-0.027
-152.647	-22.173	0.178	-0.108
-151.633	168.746	-0.202	0.289
-150.618	34.406	0.105	-0.091
-149.604	-108.923	0.044	0.009
-148.589	-145.299	0.099	0.009
-147.574	-200.000	0.018	-0.127
-146.560	77.511	-0.143	-0.152
-145.545	7.638	-0.156	0.117
-144.531	800.000	0.096	-0.353
-143.516	-200.000	0.026	0.225
-142.502	18.290	-0.195	0.156
-141.487	162.775	-0.021	-0.030
-140.472	-78.654	0.175	0.060
-139.458	-69.160	-0.250	-0.096
-138.443	-200.000	0.036	-0.169
-137.429	-18.118	0.151	0.095
-136.414	4.168	0.173	-0.127
-135.399	26.222	0.146	-0.122
-134.385	516.961	0.045	0.106
-133.370	-114.305	-0.151	-0.029
-132.356	298.761	0.161	-0.296
-131.341	-50.231	0.147	-0.070
-130.326	-68.819	-0.349	0.135
-129.312	800.000	0.058	0.192
-128.297	34.612	-0.116	0.101
-127.283	-93.268	0.240	0.067
-126.268	-85.931	0.257	-0.080
-125.253	800.000	0.052	-0.193
-124.239	-187.120	0.266	-0.004
-123.224	800.000	-0.036	-0.106
-122.210	132.388	-0.075	0.097
