DTS Sentinel unit serial number:	SN413079Multiplexer serial number:	ORYXHardware model number:	OX4-SRSoftware version number:	ORYX F/W v4.00 Oryx Data Collector v3.7.2.0data status	okinstallation	princeton_trtdifferential loss correction	single-endedforward channel	channel 4reverse channel	N/Adate	2019/09/17time	14:49:35forward acquisition time	60.00reverse acquisition time	0.00gamma	496.2192k internal	0.2295k external	0.2295temperature offset calibration	0.9987default loss term (dB/km)	0.3790temperature slope calibration	1.0000multiplexer offset coefficient	1.0000multiplexer slope coefficient	1.0000fibre end	0.00T internal ref (°C)	37.06T ext. ref 1 (°C)	0.40T ext. ref 2 (°C)	34.12length (m)	temperature (°C)	Stokes	anti-Stokes-747.200	-82.612	0.154	0.051
-746.185	800.000	0.069	0.234
-745.171	-160.932	-0.280	-0.015
-744.156	465.769	-0.147	0.337
-743.142	311.355	0.044	0.085
-742.127	149.739	-0.206	0.286
-741.112	31.626	0.140	-0.123
-740.098	-123.235	0.241	0.039
-739.083	158.743	0.201	-0.286
-738.069	-26.558	0.082	-0.049
-737.054	-200.000	0.012	-0.241
-736.039	800.000	-0.091	0.274
-735.025	-24.950	-0.108	0.065
-734.010	91.108	0.112	-0.129
-732.996	50.484	-0.189	-0.183
-731.981	56.022	0.146	0.145
-730.966	-28.054	0.182	-0.107
-729.952	-159.745	-0.084	0.005
-728.937	10.557	0.130	-0.101
-727.923	800.000	0.019	-0.079
-726.908	207.364	-0.063	-0.101
-725.894	-71.605	-0.350	-0.134
-724.879	-78.502	0.123	0.043
-723.864	-24.881	-0.098	-0.060
-722.850	-19.698	-0.112	-0.071
-721.835	-28.542	0.046	-0.027
-720.821	52.556	0.189	0.184
-719.806	-49.154	-0.305	0.149
-718.791	-200.000	-0.013	-0.101
-717.777	-29.435	-0.292	0.170
-716.762	130.597	-0.075	0.099
-715.748	-200.000	0.000	0.108
-714.733	-18.452	-0.251	-0.160
-713.718	-193.080	0.146	0.001
-712.704	-200.000	-0.025	0.127
-711.689	-200.000	0.008	-0.184
-710.675	-85.322	-0.350	-0.112
-709.660	245.659	-0.142	-0.244
-708.645	217.632	0.071	0.115
-707.631	-200.000	-0.009	-0.175
-706.616	-91.814	0.266	0.077
-705.602	209.507	-0.064	-0.103
-704.587	-43.576	0.129	0.067
-703.572	210.375	-0.018	0.028
-702.558	38.383	0.192	0.175
-701.543	-200.000	0.035	0.249
-700.529	-59.397	-0.412	0.181
-699.514	-200.000	0.002	-0.185
-698.499	-145.064	0.692	0.064
-697.485	-75.017	-0.327	-0.120
-696.470	-200.000	0.037	-0.197
-695.456	69.807	0.170	0.179
-694.441	182.168	0.083	-0.124
-693.426	3.653	-0.351	0.261
-692.412	-10.976	-0.135	-0.091
-691.397	800.000	-0.056	0.160
-690.383	-164.777	0.263	-0.012
-689.368	-148.670	-0.390	-0.032
-688.354	800.000	0.030	-0.094
-687.339	57.570	-0.182	-0.181
-686.324	6.557	-0.082	0.062
-685.310	-200.000	-0.003	-0.035
-684.295	28.304	0.095	-0.082
-683.281	120.388	-0.074	0.094
-682.266	-47.760	0.141	0.070
-681.251	-111.686	0.244	0.050
-680.237	-23.172	0.136	0.083
-679.222	6.229	0.342	-0.259
-678.208	-200.000	0.030	0.181
-677.193	304.408	0.056	-0.105
-676.178	-24.564	-0.202	-0.123
-675.164	-38.776	-0.126	0.068
-674.149	-126.876	0.221	0.033
-673.135	57.737	-0.197	0.196
-672.120	-129.650	0.178	0.025
-671.105	800.000	0.054	-0.228
-670.091	205.016	-0.136	-0.215
-669.076	385.979	-0.079	-0.167
-668.062	-142.392	-0.024	-0.002
-667.047	-67.669	0.048	-0.019
-666.032	-4.644	-0.297	-0.209
-665.018	76.918	-0.262	0.284
-664.003	66.728	0.067	-0.070
-662.989	-108.967	0.117	-0.026
-661.974	-200.000	-0.010	0.086
-660.959	-20.649	-0.302	-0.189
-659.945	-27.737	-0.149	0.088
-658.930	202.840	0.113	-0.179
-657.916	766.603	-0.062	-0.171
-656.901	800.000	0.134	0.527
-655.886	800.000	-0.070	-0.249
-654.872	194.284	0.111	-0.172
-653.857	-200.000	0.057	-0.260
-652.843	64.428	-0.108	-0.111
-651.828	156.353	-0.104	0.146
-650.814	800.000	0.039	-0.144
-649.799	-53.829	-0.267	-0.124
-648.784	-33.364	0.099	0.056
-647.770	-76.386	-0.038	0.014
-646.755	393.189	-0.063	0.133
-645.741	8.292	-0.249	0.191
-644.726	-14.796	0.082	0.054
-643.711	14.584	-0.294	0.233
-642.697	-116.596	0.240	-0.045
-641.682	-90.883	-0.377	0.110
-640.668	-119.022	-0.252	0.045
-639.653	-25.080	-0.252	0.152
-638.638	800.000	0.050	0.195
-637.624	-46.953	-0.066	0.033
-636.609	-76.773	0.421	-0.150
-635.595	71.657	0.087	-0.092
-634.580	90.740	-0.128	-0.146
-633.565	-89.230	0.120	0.036
-632.551	45.845	-0.222	0.209
-631.536	294.124	-0.071	0.132
-630.522	-7.045	0.367	0.254
-629.507	231.561	-0.246	-0.411
-628.492	-160.526	0.084	0.005
-627.478	277.709	-0.097	-0.176
-626.463	-200.000	0.044	-0.229
-625.449	-38.660	-0.286	0.154
-624.434	-74.777	-0.130	0.047
-623.419	563.080	-0.069	-0.171
-622.405	-146.638	-0.074	-0.007
-621.390	142.436	-0.128	0.173
-620.376	-200.000	-0.045	0.368
-619.361	800.000	-0.134	-0.491
-618.346	-200.000	-0.073	0.386
-617.332	-163.016	-0.218	0.011
-616.317	-173.216	-0.301	0.009
-615.303	800.000	0.075	-0.325
-614.288	294.121	-0.196	-0.363
-613.273	100.396	0.131	-0.155
-612.259	310.705	-0.009	0.017
-611.244	-67.317	-0.060	0.024
-610.230	-200.000	-0.001	-0.286
-609.215	-90.151	0.124	0.037
-608.201	-169.198	0.225	0.008
-607.186	-168.538	-0.411	-0.016
-606.171	496.050	-0.090	0.210
-605.157	673.746	-0.088	0.233
-604.142	-19.745	-0.308	-0.194
-603.128	7.647	-0.064	0.049
-602.113	-11.996	-0.311	0.207
-601.098	-0.312	-0.071	-0.051
-600.084	-70.076	0.166	-0.064
-599.069	-200.000	-0.026	0.209
-598.055	-200.000	0.007	0.161
-597.040	220.869	-0.071	0.116
-596.025	-200.000	0.022	0.129
-595.011	-200.000	-0.020	0.211
-593.996	18.888	0.114	0.093
-592.982	800.000	0.143	-0.533
-591.967	-87.954	0.118	-0.036
-590.952	105.864	0.151	-0.181
-589.938	626.303	-0.108	0.277
-588.923	737.098	0.182	0.496
-587.909	69.544	-0.189	0.198
-586.894	800.000	-0.112	-0.389
-585.879	4.723	0.216	-0.161
-584.865	114.368	0.273	-0.338
-583.850	692.129	-0.073	0.195
-582.836	267.797	-0.091	0.162
-581.821	428.258	0.153	0.335
-580.806	-156.810	0.089	0.006
-579.792	-131.133	-0.349	0.047
-578.777	-106.787	0.235	0.053
-577.763	-136.020	0.199	0.024
-576.748	-115.318	-0.123	-0.024
-575.733	228.911	0.034	0.057
-574.719	354.900	0.062	0.125
-573.704	-38.399	0.071	-0.038
-572.690	-175.871	-0.118	-0.003
-571.675	-61.165	0.126	0.054
-570.661	-58.140	-0.211	0.093
-569.646	800.000	0.074	0.283
-568.631	-33.172	-0.128	0.072
-567.617	-16.556	0.087	-0.056
-566.602	12.055	-0.236	-0.185
-565.588	-132.812	-0.215	-0.028
-564.573	375.929	0.034	-0.070
-563.558	-117.220	0.633	0.117
-562.544	153.765	0.115	-0.160
-561.529	-18.911	-0.236	0.149
-560.515	91.598	-0.185	0.212
-559.500	583.643	-0.066	0.166
-558.485	50.626	0.091	-0.087
-557.471	-200.000	-0.003	-0.039
-556.456	-200.000	0.002	0.168
-555.442	800.000	0.090	-0.269
-554.427	800.000	-0.031	0.116
-553.412	422.212	0.011	-0.025
-552.398	-70.067	0.200	-0.077
-551.383	-200.000	0.010	0.272
-550.369	-119.068	0.189	-0.034
-549.354	-106.844	-0.299	-0.067
-548.339	-124.021	-0.084	0.013
-547.325	-128.016	0.086	-0.012
-546.310	-10.857	-0.121	0.081
-545.296	-161.028	-0.360	-0.019
-544.281	-17.450	-0.112	0.071
-543.266	-74.073	0.118	-0.043
-542.252	47.128	-0.121	0.114
-541.237	-29.241	0.141	-0.082
-540.223	-200.000	-0.015	-0.139
-539.208	-149.125	-0.144	-0.012
-538.193	800.000	-0.061	-0.188
-537.179	800.000	-0.100	-0.432
-536.164	-200.000	-0.014	-0.138
-535.150	-7.140	-0.136	-0.093
-534.135	-200.000	0.006	-0.266
-533.121	8.268	0.251	0.191
-532.106	-200.000	-0.038	-0.326
-531.091	-94.216	0.166	-0.046
-530.077	-81.913	-0.024	-0.008
-529.062	-32.233	0.096	0.054
-528.048	152.633	0.186	-0.258
-527.033	60.541	0.067	-0.067
-526.018	61.591	-0.123	0.124
-525.004	-61.760	-0.121	-0.051
-523.989	-82.707	-0.157	0.051
-522.975	109.511	0.134	0.163
-521.960	606.456	-0.228	-0.575
-520.945	-170.747	0.455	0.016
-519.931	39.570	-0.099	0.090
-518.916	-200.000	-0.001	-0.221
-517.902	-76.166	0.083	0.030
-516.887	280.646	-0.185	-0.335
-515.872	7.062	-0.087	-0.066
-514.858	-50.052	0.139	-0.067
-513.843	-78.916	-0.128	0.044
-512.829	-64.025	0.156	-0.065
-511.814	14.282	-0.125	0.099
-510.799	-82.666	-0.427	-0.140
-509.785	369.101	0.036	-0.074
-508.770	-120.678	0.274	0.047
-507.756	-2.081	-0.086	-0.061
-506.741	-191.615	0.309	-0.003
-505.726	170.405	0.116	0.168
-504.712	-73.806	-0.203	-0.075
-503.697	190.474	-0.123	0.187
-502.683	71.196	0.020	-0.021
-501.668	800.000	0.042	-0.146
-500.653	30.283	-0.390	0.338
-499.639	-200.000	0.006	0.236
-498.624	-8.590	0.121	0.082
-497.610	-69.199	0.221	0.086
-496.595	-127.621	0.139	0.020
-495.581	-39.475	-0.179	-0.095
-494.566	-200.000	0.029	-0.254
-493.551	-43.868	-0.242	-0.123
-492.537	-200.000	0.067	0.359
-491.522	-56.074	0.100	-0.045
-490.508	-38.588	0.166	-0.089
-489.493	443.070	0.118	-0.261
-488.478	-82.220	-0.065	-0.022
-487.464	12.651	-0.264	0.206
-486.449	-80.143	0.256	0.087
-485.435	-9.316	0.251	0.170
-484.420	-14.494	-0.100	-0.065
-483.405	177.785	-0.099	0.147
-482.391	-110.541	0.067	-0.014
-481.376	-200.000	-0.008	0.109
-480.362	9.665	0.215	-0.165
-479.347	65.542	0.114	-0.117
-478.332	-78.140	0.282	-0.098
-477.318	783.907	-0.146	0.404
-476.303	800.000	-0.146	0.418
-475.289	-200.000	0.002	0.076
-474.274	-52.747	0.307	0.143
-473.259	206.278	-0.091	-0.143
-472.245	736.706	-0.056	0.151
-471.230	-72.731	-0.208	0.077
-470.216	-20.562	0.263	0.164
-469.201	64.956	-0.029	-0.030
-468.186	-93.065	0.189	-0.053
-467.172	3.012	0.137	-0.101
-466.157	234.201	0.024	0.040
-465.143	30.331	0.084	-0.073
-464.128	800.000	-0.070	-0.220
-463.113	800.000	0.069	-0.219
-462.099	5.988	0.120	-0.090
-461.084	800.000	-0.049	0.196
-460.070	237.617	-0.116	0.195
-459.055	-52.937	0.237	0.110
-458.040	113.995	-0.085	-0.104
-457.026	119.020	-0.116	-0.145
-456.011	-31.146	-0.204	-0.116
-454.997	800.000	-0.088	0.286
-453.982	431.076	0.142	-0.312
-452.968	-13.661	0.289	0.189
-451.953	116.070	-0.129	-0.159
-450.938	429.531	0.203	-0.444
-449.924	800.000	0.051	0.197
-448.909	125.898	0.325	0.415
-447.895	-142.307	-0.230	0.023
-446.880	-44.600	0.198	0.100
-445.865	247.762	0.157	0.268
-444.851	-162.258	-0.213	-0.011
-443.836	24.488	-0.161	0.134
-442.822	-154.159	0.062	0.004
-441.807	-70.440	0.200	0.076
-440.792	213.498	-0.178	0.284
-439.778	-92.767	0.272	-0.077
-438.763	492.527	-0.059	0.137
-437.749	179.721	0.167	0.248
-436.734	-78.841	-0.465	0.160
-435.719	7.317	-0.331	-0.250
-434.705	12.780	-0.060	-0.047
-433.690	-145.695	0.158	0.014
-432.676	-87.317	-0.413	-0.126
-431.661	-112.754	-0.151	0.030
-430.646	-46.149	0.153	-0.076
-429.632	-91.735	0.147	0.042
-428.617	235.065	-0.073	0.121
-427.603	154.007	-0.178	0.246
-426.588	-200.000	0.016	0.371
-425.573	800.000	0.055	-0.239
-424.559	-200.000	-0.017	0.087
-423.544	133.774	0.044	-0.058
-422.530	-200.000	0.018	0.158
-421.515	292.358	-0.232	0.426
-420.500	-131.192	-0.200	0.027
-419.486	-134.306	-0.252	0.031
-418.471	239.916	0.090	-0.152
-417.457	106.717	-0.129	-0.155
-416.442	-34.660	0.218	0.120
-415.428	495.602	-0.079	0.183
-414.413	645.670	0.050	0.128
-413.398	86.174	0.104	-0.115
-412.384	-137.905	0.277	0.031
-411.369	653.566	-0.217	-0.562
-410.355	-200.000	-0.021	-0.160
-409.340	-78.357	-0.310	-0.107
-408.325	-179.947	-0.121	0.003
-407.311	585.875	-0.051	0.127
-406.296	-84.500	-0.247	0.079
-405.282	387.275	-0.129	0.270
-404.267	134.316	0.170	0.222
-403.252	152.695	0.165	-0.227
-402.238	-200.000	-0.004	-0.108
-401.223	-200.000	-0.054	0.253
-400.209	-142.439	-0.143	0.014
-399.194	-50.842	0.234	-0.111
-398.179	-33.991	-0.172	0.096
-397.165	297.530	-0.027	-0.049
-396.150	177.188	-0.093	-0.137
-395.136	-200.000	-0.020	0.291
-394.121	-24.426	-0.078	0.047
-393.106	-200.000	-0.033	0.294
-392.092	37.003	-0.152	-0.136
-391.077	-58.679	0.340	-0.149
-390.063	-200.000	-0.041	-0.221
-389.048	218.804	0.331	-0.533
-388.033	-153.440	0.217	0.015
-387.019	-97.860	0.208	0.054
-386.004	263.168	-0.268	-0.469
-384.990	121.023	0.221	-0.277
-383.975	-200.000	-0.028	-0.188
-382.960	-200.000	-0.015	-0.108
-381.946	-200.000	0.019	-0.108
-380.931	-200.000	0.017	0.241
-379.917	-125.934	0.192	0.029
-378.902	-100.437	0.307	-0.077
-377.888	-109.636	0.127	-0.027
-376.873	-200.000	-0.007	0.051
-375.858	-0.422	-0.219	-0.157
-374.844	142.733	-0.199	-0.267
-373.829	-123.061	0.137	-0.022
-372.815	130.335	-0.136	-0.175
-371.800	-88.525	0.192	0.058
-370.785	800.000	-0.050	0.149
-369.771	-49.302	0.315	-0.152
-368.756	-79.116	0.032	0.011
-367.742	-18.053	-0.176	0.111
-366.727	337.737	-0.129	-0.253
-365.712	382.319	0.110	-0.228
-364.698	51.590	0.130	-0.125
-363.683	-60.938	0.224	0.095
-362.669	-113.319	0.301	0.059
-361.654	-130.744	0.404	0.055
-360.639	-55.271	-0.220	0.100
-359.625	99.437	-0.031	0.036
-358.610	-191.950	0.121	0.001
-357.596	-165.117	0.344	0.015
-356.581	800.000	-0.088	0.245
-355.566	-77.064	0.334	-0.117
-354.552	-78.139	0.249	0.086
-353.537	-106.316	0.284	0.064
-352.523	724.027	-0.070	-0.187
-351.508	346.364	-0.136	-0.269
-350.493	-71.453	-0.191	0.072
-349.479	-200.000	0.015	0.338
-348.464	-200.000	0.007	0.237
-347.450	800.000	-0.009	0.036
-346.435	524.355	-0.171	0.404
-345.420	-200.000	0.015	0.258
-344.406	-200.000	-0.009	-0.092
-343.391	445.266	0.111	-0.245
-342.377	-25.800	0.245	-0.145
-341.362	-100.336	-0.148	-0.037
-340.348	800.000	-0.024	0.077
-339.333	-3.923	-0.102	-0.071
-338.318	-122.083	-0.075	-0.012
-337.304	133.664	0.112	-0.146
-336.289	-50.085	-0.368	0.176
-335.275	800.000	0.012	0.035
-334.260	102.216	-0.101	0.119
-333.245	248.295	0.177	0.302
-332.231	-102.310	-0.255	0.062
-331.216	-88.034	-0.030	0.009
-330.202	-37.442	0.251	-0.135
-329.187	-50.274	0.398	0.189
-328.172	-132.577	-0.009	0.001
-327.158	62.370	0.097	-0.097
-326.143	-200.000	0.012	0.071
-325.129	9.903	-0.202	0.154
-324.114	800.000	0.070	-0.231
-323.099	800.000	0.074	-0.315
-322.085	122.908	-0.330	-0.415
-321.070	105.267	0.016	-0.019
-320.056	-89.325	-0.268	-0.079
-319.041	-158.078	-0.197	0.012
-318.026	273.806	-0.150	-0.267
-317.012	164.368	0.165	0.234
-315.997	648.747	-0.008	-0.022
-314.983	-86.683	0.097	-0.030
-313.968	-200.000	-0.009	-0.076
-312.953	-200.000	-0.051	-0.399
-311.939	800.000	-0.057	-0.206
-310.924	63.662	-0.272	0.275
-309.910	-50.467	-0.202	-0.096
-308.895	-29.231	-0.314	0.181
-307.880	-200.000	-0.067	0.318
-306.866	-200.000	0.019	0.214
-305.851	-20.236	-0.369	-0.229
-304.837	47.640	0.103	-0.096
-303.822	224.191	-0.087	-0.141
-302.807	-26.927	0.022	-0.013
-301.793	600.593	0.092	-0.229
-300.778	-200.000	-0.003	-0.281
-299.764	-200.000	-0.004	-0.484
-298.749	210.219	0.063	-0.100
-297.735	800.000	0.054	0.175
-296.720	188.524	0.109	-0.164
-295.705	665.118	-0.034	-0.088
-294.691	86.571	0.112	0.125
-293.676	-111.059	-0.225	0.046
-292.662	87.771	0.182	0.203
-291.647	680.244	0.109	0.284
-290.632	-200.000	-0.170	0.001
-289.618	65.777	0.314	-0.320
-288.603	119.469	0.161	0.200
-287.589	501.374	0.015	-0.035
-286.574	-200.000	0.016	-0.192
-285.559	-46.050	0.133	-0.066
-284.545	800.000	-0.041	0.116
-283.530	800.000	0.058	0.209
-282.516	800.000	0.012	0.047
-281.501	109.210	0.051	-0.061
-280.486	-200.000	0.021	0.154
-279.472	-94.244	-0.244	-0.067
-278.457	-200.000	0.015	0.218
-277.443	-200.000	0.010	0.167
-276.428	-200.000	0.013	-0.103
-275.413	-200.000	0.046	-0.207
-274.399	-200.000	-0.054	-0.386
-273.384	800.000	0.054	0.177
-272.370	-140.415	0.023	-0.002
-271.355	-200.000	0.013	0.067
-270.340	-91.731	-0.057	-0.016
-269.326	287.420	-0.086	0.156
-268.311	-98.985	-0.160	-0.041
-267.297	471.373	0.156	0.352
-266.282	-130.834	0.271	0.036
-265.267	9.425	-0.461	-0.350
-264.253	-149.284	0.377	-0.030
-263.238	-200.000	-0.006	0.191
-262.224	-63.171	0.117	0.048
-261.209	-200.000	-0.069	-0.338
-260.195	55.627	0.143	-0.139
-259.180	286.103	0.137	0.248
-258.165	608.062	0.142	-0.356
-257.151	-84.108	-0.029	-0.009
-256.136	-41.784	0.057	0.029
-255.122	84.821	0.127	-0.140
-254.107	318.606	0.120	0.228
-253.092	-89.222	-0.270	0.080
-252.078	-200.000	0.061	-0.305
-251.063	493.027	-0.082	-0.189
-250.049	628.994	-0.096	-0.245
-249.034	800.000	0.091	-0.269
-248.019	91.632	0.150	0.169
-247.005	483.926	0.063	0.144
-245.990	654.267	0.043	0.111
-244.976	206.695	0.065	-0.102
-243.961	800.000	0.188	-0.625
-242.946	-73.755	0.206	-0.075
-241.932	204.354	-0.197	0.306
-240.917	-26.195	-0.360	0.212
-239.903	72.334	0.246	0.257
-238.888	102.920	0.071	-0.083
-237.873	62.536	0.175	0.175
-236.859	-38.476	-0.183	-0.097
-235.844	130.029	-0.056	0.072
-234.830	-200.000	0.000	-0.199
-233.815	791.013	-0.021	-0.059
-232.800	800.000	-0.025	0.107
-231.786	-110.862	0.083	-0.017
-230.771	-59.942	0.521	-0.223
-229.757	-200.000	-0.019	-0.221
-228.742	39.479	0.211	-0.189
-227.727	800.000	-0.050	0.201
-226.713	-43.917	-0.441	0.222
-225.698	800.000	0.051	-0.155
-224.684	800.000	0.076	-0.246
-223.669	37.714	0.152	0.135
-222.655	29.242	0.133	-0.113
-221.640	-76.536	-0.132	-0.046
-220.625	-154.400	-0.437	0.029
-219.611	416.275	0.128	0.274
-218.596	-43.360	-0.282	-0.143
-217.582	78.314	0.164	-0.176
-216.567	238.239	-0.092	0.153
-215.552	86.580	0.183	-0.202
-214.538	69.274	0.206	0.212
-213.523	-53.242	-0.195	-0.089
-212.509	-200.000	0.007	-0.184
-211.494	444.152	-0.176	0.386
-210.479	347.780	0.107	0.211
-209.465	-3.873	-0.100	0.070
-208.450	352.169	-0.051	-0.101
-207.436	449.733	-0.115	0.253
-206.421	-149.044	-0.100	0.008
-205.406	92.057	0.039	-0.044
-204.392	418.271	-0.049	0.105
-203.377	800.000	0.045	0.150
-202.363	-75.555	-0.302	-0.108
-201.348	-35.661	0.217	0.118
-200.333	20.940	0.300	0.243
-199.319	-35.038	0.260	0.142
-198.304	484.032	-0.028	-0.063
-197.290	-109.105	0.080	0.017
-196.275	-172.247	0.231	0.007
-195.260	302.762	-0.113	-0.209
-194.246	582.278	-0.039	-0.096
-193.231	-41.531	-0.156	-0.080
-192.217	295.636	0.099	-0.181
-191.202	800.000	0.035	-0.150
-190.187	-200.000	-0.007	0.156
-189.173	800.000	0.054	0.157
-188.158	-24.205	0.219	-0.131
-187.144	-164.212	-0.308	0.014
-186.129	254.014	0.062	0.105
-185.114	16.125	0.340	-0.268
-184.100	49.081	-0.221	0.207
-183.085	800.000	0.147	0.452
-182.071	-104.902	-0.065	-0.015
-181.056	-200.000	0.021	0.611
-180.042	-200.000	0.004	0.079
-179.027	-67.598	-0.240	-0.094
-178.012	46.758	0.101	-0.093
-176.998	-133.879	0.330	-0.041
-175.983	23.755	-0.202	-0.166
-174.969	229.067	-0.089	-0.145
-173.954	67.619	0.054	-0.055
-172.939	-98.037	0.154	-0.040
-171.925	-145.080	-0.320	0.029
-170.910	675.179	0.102	-0.264
-169.896	-51.405	0.291	-0.136
-168.881	-189.856	-0.255	0.003
-167.866	39.995	0.104	0.093
-166.852	-51.790	-0.112	-0.052
-165.837	65.742	0.079	0.080
-164.823	-122.042	0.174	0.029
-163.808	-200.000	-0.066	0.313
-162.793	546.217	0.055	0.131
-161.779	206.129	0.076	-0.118
-160.764	53.425	0.153	0.147
-159.750	5.020	0.092	0.067
-158.735	152.339	0.148	-0.202
-157.720	101.660	-0.140	0.163
-156.706	-200.000	0.027	0.184
-155.691	209.857	-0.026	-0.041
-154.677	40.549	-0.190	-0.171
-153.662	-93.326	-0.093	-0.026
-152.647	-123.836	-0.335	-0.053
-151.633	335.626	0.091	-0.176
-150.618	393.841	0.106	0.220
-149.604	168.044	-0.108	0.153
-148.589	276.093	-0.168	-0.297
-147.574	-87.632	-0.050	0.015
-146.560	48.194	-0.101	0.094
-145.545	-149.590	-0.117	0.009
-144.531	-158.739	0.271	0.016
-143.516	-47.609	0.133	0.064
-142.502	453.445	0.093	0.205
-141.487	-12.684	0.290	0.189
-140.472	196.625	-0.083	-0.127
-139.458	-200.000	0.032	0.176
-138.443	800.000	0.085	0.327
-137.429	198.304	-0.164	0.250
-136.414	-111.301	0.120	0.025
-135.399	-86.124	0.012	-0.004
-134.385	-106.354	-0.200	-0.045
-133.370	88.545	0.031	0.034
-132.356	800.000	-0.034	0.122
-131.341	-29.514	-0.195	-0.111
-130.326	-143.103	0.152	-0.015
-129.312	-200.000	0.018	0.266
-128.297	-200.000	-0.020	0.136
-127.283	800.000	0.109	-0.322
-126.268	149.804	-0.077	0.104
-125.253	-45.605	0.235	0.116
-124.239	39.180	0.111	-0.099
-123.224	143.850	-0.032	-0.043
-122.210	114.441	0.261	0.317
-121.195	-39.064	0.202	-0.106
-120.180	18.624	-0.042	0.033
