DTS Sentinel unit serial number:	SN413079Multiplexer serial number:	ORYXHardware model number:	OX4-SRSoftware version number:	ORYX F/W v4.00 Oryx Data Collector v3.7.2.0data status	okinstallation	princeton_trtdifferential loss correction	single-endedforward channel	channel 4reverse channel	N/Adate	2019/09/18time	06:53:35forward acquisition time	60.00reverse acquisition time	0.00gamma	496.2192k internal	0.2333k external	0.2333temperature offset calibration	1.0000default loss term (dB/km)	0.3790temperature slope calibration	1.0000multiplexer offset coefficient	1.0000multiplexer slope coefficient	1.0000fibre end	0.00T internal ref (°C)	23.23T ext. ref 1 (°C)	0.19T ext. ref 2 (°C)	16.99length (m)	temperature (°C)	Stokes	anti-Stokes-747.200	-56.617	0.231	-0.103
-746.185	323.212	0.038	0.072
-745.171	-170.396	-0.611	0.022
-744.156	357.880	-0.035	-0.071
-743.142	239.270	0.103	0.172
-742.127	800.000	0.085	0.355
-741.112	-200.000	0.014	0.211
-740.098	800.000	0.057	-0.233
-739.083	-125.489	-0.195	-0.030
-738.069	-95.432	-0.312	-0.084
-737.054	145.344	0.239	-0.322
-736.039	-28.088	-0.018	0.010
-735.025	55.548	0.254	-0.248
-734.010	26.734	0.148	0.124
-732.996	-30.017	-0.103	0.059
-731.981	354.620	-0.192	-0.384
-730.966	20.435	-0.069	-0.056
-729.952	-83.947	-0.200	0.064
-728.937	-109.063	-0.141	0.030
-727.923	-83.497	-0.197	-0.063
-726.908	-57.434	-0.098	0.043
-725.894	115.476	-0.088	0.108
-724.879	-21.853	-0.086	0.053
-723.864	-124.236	0.274	0.043
-722.850	-200.000	-0.031	-0.212
-721.835	-150.420	0.099	0.008
-720.821	45.852	-0.180	-0.167
-719.806	45.793	-0.228	-0.212
-718.791	363.413	0.165	-0.333
-717.777	-57.254	-0.107	0.047
-716.762	-200.000	-0.036	0.164
-715.748	-169.999	0.131	0.005
-714.733	7.754	-0.177	-0.133
-713.718	51.442	-0.383	-0.366
-712.704	-200.000	0.002	0.223
-711.689	364.598	0.042	-0.085
-710.675	78.699	-0.061	0.065
-709.660	-17.189	0.284	0.180
-708.645	-53.210	0.207	0.095
-707.631	-80.440	0.099	-0.033
-706.616	18.508	-0.276	-0.221
-705.602	-102.495	0.156	-0.037
-704.587	89.114	-0.109	0.122
-703.572	324.017	0.084	-0.160
-702.558	109.442	-0.261	-0.314
-701.543	-53.799	-0.131	0.060
-700.529	-103.456	0.148	0.035
-699.514	-200.000	-0.009	0.073
-698.499	95.466	-0.236	-0.270
-697.485	-12.471	0.186	0.122
-696.470	800.000	-0.101	0.398
-695.456	-200.000	-0.044	-0.249
-694.441	538.663	-0.194	0.464
-693.426	345.238	-0.183	0.360
-692.412	-83.905	-0.225	0.072
-691.397	625.423	-0.127	-0.321
-690.383	-200.000	0.032	-0.377
-689.368	-43.254	-0.082	0.042
-688.354	-78.096	-0.185	0.064
-687.339	-151.455	0.100	-0.007
-686.324	279.735	-0.174	0.311
-685.310	-49.480	0.087	0.042
-684.295	4.570	-0.102	0.075
-683.281	800.000	0.087	-0.269
-682.266	284.603	0.128	0.232
-681.251	-136.892	0.057	-0.007
-680.237	-75.833	-0.094	0.033
-679.222	-143.067	-0.154	-0.015
-678.208	10.746	0.334	0.256
-677.193	271.256	-0.121	-0.214
-676.178	-107.015	0.287	0.064
-675.164	63.295	-0.213	-0.215
-674.149	224.492	-0.173	-0.280
-673.135	-115.720	-0.244	-0.046
-672.120	-108.845	0.140	-0.030
-671.105	-118.449	-0.130	-0.023
-670.091	-149.739	-0.284	0.022
-669.076	-200.000	0.004	0.121
-668.062	-114.912	0.197	0.038
-667.047	52.880	0.175	-0.168
-666.032	337.461	0.184	0.359
-665.018	778.617	-0.041	-0.112
-664.003	10.029	-0.164	-0.125
-662.989	-22.589	-0.171	-0.104
-661.974	-107.462	-0.034	0.008
-660.959	-84.338	0.120	0.038
-659.945	-159.197	0.066	0.004
-658.930	15.780	0.051	0.040
-657.916	280.664	0.105	-0.189
-656.901	800.000	-0.040	-0.112
-655.886	17.533	-0.132	-0.106
-654.872	-115.087	-0.240	-0.046
-653.857	-42.501	-0.269	0.137
-652.843	734.493	-0.087	0.235
-651.828	800.000	0.072	-0.230
-650.814	-200.000	0.024	-0.380
-649.799	-103.057	-0.171	0.041
-648.784	800.000	-0.042	-0.153
-647.770	800.000	0.075	0.239
-646.755	200.480	-0.056	-0.086
-645.741	800.000	-0.023	0.081
-644.726	-200.000	-0.005	0.139
-643.711	142.660	-0.189	-0.252
-642.697	-200.000	0.034	0.170
-641.682	800.000	0.023	-0.095
-640.668	-200.000	0.035	-0.162
-639.653	-75.951	0.234	-0.083
-638.638	692.632	-0.087	-0.228
-637.624	158.832	-0.110	-0.153
-636.609	161.502	-0.254	0.356
-635.595	-200.000	0.019	-0.232
-634.580	8.975	-0.186	0.141
-633.565	-38.777	0.043	0.023
-632.551	13.842	0.309	-0.241
-631.536	132.418	0.216	-0.278
-630.522	773.583	-0.141	-0.385
-629.507	706.661	-0.017	0.046
-628.492	144.201	0.093	0.124
-627.478	-100.345	0.062	0.015
-626.463	-105.368	0.291	0.066
-625.449	-200.000	-0.035	-0.166
-624.434	-131.678	0.306	-0.040
-623.419	-35.574	0.125	-0.068
-622.405	-57.826	-0.171	0.075
-621.390	-74.535	-0.263	0.095
-620.376	-200.000	-0.044	0.229
-619.361	258.382	0.139	-0.239
-618.346	49.358	-0.043	0.040
-617.332	208.988	-0.068	-0.107
-616.317	-141.670	0.200	0.020
-615.303	-107.610	-0.138	-0.030
-614.288	322.324	-0.121	-0.231
-613.273	-46.204	-0.122	-0.060
-612.259	479.971	-0.036	0.083
-611.244	800.000	-0.102	-0.303
-610.230	-12.724	-0.196	-0.128
-609.215	-200.000	0.016	-0.077
-608.201	18.783	-0.201	-0.161
-607.186	-64.307	-0.168	-0.068
-606.171	401.957	0.146	-0.307
-605.157	422.758	-0.099	-0.213
-604.142	-161.158	0.221	0.012
-603.128	-42.571	0.152	0.077
-602.113	1.006	-0.383	0.274
-601.098	-112.072	-0.341	-0.069
-600.084	-134.612	0.654	0.080
-599.069	86.901	0.106	0.117
-598.055	-101.107	0.124	-0.030
-597.040	800.000	-0.090	0.306
-596.025	-60.753	0.056	0.024
-595.011	-130.924	0.123	-0.016
-593.996	-200.000	-0.016	0.382
-592.982	-103.657	0.258	-0.061
-591.967	-69.838	0.492	0.188
-590.952	800.000	0.064	0.224
-589.938	-200.000	-0.054	-0.494
-588.923	800.000	-0.082	-0.237
-587.909	-82.897	0.299	-0.096
-586.894	349.071	-0.078	0.155
-585.879	162.130	0.087	0.122
-584.865	94.978	0.251	0.285
-583.850	100.625	-0.189	-0.219
-582.836	73.833	0.079	0.083
-581.821	-28.201	0.126	0.073
-580.806	356.150	0.121	0.241
-579.792	737.552	0.115	-0.309
-578.777	123.803	0.154	-0.194
-577.763	-200.000	-0.021	-0.277
-576.748	-200.000	-0.045	0.334
-575.733	-4.128	0.383	0.265
-574.719	58.300	0.252	0.247
-573.704	11.650	-0.107	-0.082
-572.690	597.624	-0.095	-0.235
-571.675	-81.717	-0.014	0.005
-570.661	-200.000	-0.037	-0.193
-569.646	-150.568	0.333	-0.025
-568.631	-157.359	-0.158	-0.010
-567.617	-122.499	-0.121	-0.020
-566.602	-115.417	-0.366	0.069
-565.588	-12.649	0.138	0.090
-564.573	-160.820	-0.368	0.019
-563.558	75.920	0.108	-0.114
-562.544	71.577	0.158	-0.164
-561.529	507.880	-0.159	-0.368
-560.515	-30.618	-0.065	0.037
-559.500	-117.658	-0.049	-0.009
-558.485	-3.502	-0.307	0.213
-557.471	-48.118	0.096	-0.046
-556.456	163.965	0.176	0.248
-555.442	-102.921	0.292	0.069
-554.427	-23.542	0.095	0.057
-553.412	138.463	0.142	-0.186
-552.398	448.657	-0.064	-0.141
-551.383	-20.526	-0.176	0.108
-550.369	-200.000	0.000	0.088
-549.354	-145.794	-0.300	-0.027
-548.339	-200.000	-0.027	0.172
-547.325	-200.000	0.005	-0.149
-546.310	-19.631	0.135	0.084
-545.296	-28.375	-0.141	0.081
-544.281	-88.116	0.150	-0.045
-543.266	-200.000	0.038	0.211
-542.252	254.045	0.053	-0.091
-541.237	176.682	0.021	-0.031
-540.223	226.469	0.212	-0.343
-539.208	576.829	-0.082	-0.200
-538.193	-30.797	-0.199	0.112
-537.179	476.683	-0.094	-0.212
-536.164	256.802	-0.209	0.358
-535.150	-8.449	0.195	0.131
-534.135	65.492	-0.081	0.082
-533.121	-80.797	-0.136	0.045
-532.106	-200.000	0.021	-0.402
-531.091	-78.092	-0.220	0.075
-530.077	-200.000	0.030	-0.399
-529.062	50.246	-0.515	-0.485
-528.048	214.402	0.121	0.192
-527.033	93.893	-0.289	0.327
-526.018	382.784	-0.108	-0.222
-525.004	-145.843	-0.101	0.009
-523.989	-59.671	-0.357	0.153
-522.975	-3.661	-0.028	-0.019
-521.960	-200.000	0.022	0.147
-520.945	800.000	0.054	-0.198
-519.931	-116.122	0.131	-0.024
-518.916	170.331	-0.017	0.024
-517.902	-40.627	-0.090	-0.046
-516.887	5.158	-0.144	-0.105
-515.872	-65.311	0.164	0.066
-514.858	-122.868	0.274	-0.044
-513.843	245.862	0.027	0.046
-512.829	800.000	-0.020	0.086
-511.814	-156.316	0.278	-0.017
-510.799	162.026	-0.099	0.139
-509.785	280.262	0.117	-0.208
-508.770	-97.020	-0.258	-0.067
-507.756	-53.524	-0.039	-0.018
-506.741	597.281	-0.059	0.145
-505.726	359.001	0.191	0.380
-504.712	800.000	-0.092	0.295
-503.697	-164.700	0.146	-0.007
-502.683	62.688	-0.186	0.186
-501.668	-16.357	-0.192	-0.121
-500.653	-115.628	-0.200	-0.037
-499.639	82.730	-0.085	-0.092
-498.624	10.531	0.128	0.097
-497.610	-100.678	0.243	-0.060
-496.595	-5.702	-0.243	0.166
-495.581	800.000	0.057	-0.241
-494.566	-65.077	0.114	0.046
-493.551	-129.516	-0.187	-0.026
-492.537	54.609	0.071	0.068
-491.522	619.620	0.102	-0.256
-490.508	-200.000	-0.039	0.471
-489.493	-88.951	0.120	0.035
-488.478	-200.000	-0.003	0.074
-487.464	487.557	-0.123	-0.278
-486.449	98.769	0.209	0.240
-485.435	800.000	0.018	0.059
-484.420	-13.631	-0.106	0.068
-483.405	18.670	-0.190	-0.151
-482.391	-67.816	0.113	-0.044
-481.376	-77.726	0.092	0.032
-480.362	-97.016	-0.107	0.028
-479.347	-200.000	0.053	-0.246
-478.332	0.451	0.232	-0.165
-477.318	-142.234	-0.503	0.050
-476.303	-143.782	0.278	0.026
-475.289	94.505	0.095	-0.107
-474.274	-137.683	-0.487	-0.055
-473.259	67.798	0.323	-0.328
-472.245	366.579	-0.117	0.234
-471.230	251.358	0.054	0.092
-470.216	-78.103	0.155	-0.053
-469.201	177.539	-0.208	0.302
-468.186	41.646	-0.156	0.141
-467.172	702.652	-0.109	0.286
-466.157	-12.516	-0.257	-0.167
-465.143	184.716	0.150	-0.222
-464.128	-200.000	0.022	-0.121
-463.113	470.503	-0.091	-0.203
-462.099	-6.569	0.050	-0.034
-461.084	-135.629	-0.121	-0.014
-460.070	126.791	0.106	-0.134
-459.055	489.083	-0.122	-0.277
-458.040	46.846	-0.088	-0.081
-457.026	-113.701	-0.256	0.050
-456.011	-93.179	0.103	0.028
-454.997	-200.000	-0.065	-0.284
-453.982	-59.376	0.238	0.102
-452.968	-141.075	0.066	0.007
-451.953	51.400	0.008	0.008
-450.938	207.186	-0.081	0.125
-449.924	-200.000	-0.014	-0.186
-448.909	88.521	-0.282	0.312
-447.895	241.286	-0.094	0.155
-446.880	800.000	-0.061	-0.176
-445.865	-200.000	0.004	-0.174
-444.851	-4.129	0.287	-0.198
-443.836	89.193	-0.063	0.069
-442.822	-58.415	0.233	0.101
-441.807	-158.393	-0.423	-0.024
-440.792	54.891	0.195	-0.187
-439.778	-163.478	0.096	-0.005
-438.763	788.977	-0.106	-0.290
-437.749	-200.000	0.023	0.184
-436.734	-35.560	-0.269	-0.145
-435.719	41.959	-0.107	-0.096
-434.705	800.000	0.138	0.384
-433.690	-56.317	0.118	0.052
-432.676	177.211	-0.102	-0.148
-431.661	-104.735	0.390	-0.089
-430.646	59.661	-0.288	-0.282
-429.632	-25.832	-0.173	0.101
-428.617	63.764	-0.187	-0.187
-427.603	35.515	0.208	-0.181
-426.588	149.004	0.192	-0.258
-425.573	-168.540	-0.128	0.005
-424.559	93.150	0.050	0.056
-423.544	107.319	0.079	0.093
-422.530	-169.007	0.280	0.010
-421.515	-90.501	-0.467	-0.134
-420.500	77.432	0.198	0.209
-419.486	80.640	0.137	0.147
-418.471	-31.450	-0.087	0.048
-417.457	-200.000	-0.070	-0.352
-416.442	72.506	-0.131	0.136
-415.428	-200.000	0.042	0.208
-414.413	87.910	-0.133	-0.147
-413.398	181.260	0.063	-0.092
-412.384	90.730	0.129	0.143
-411.369	-200.000	0.007	0.128
-410.355	-12.935	0.233	0.151
-409.340	-200.000	0.058	-0.286
-408.325	800.000	-0.039	0.154
-407.311	-200.000	-0.050	0.331
-406.296	198.282	0.163	0.248
-405.282	-20.058	-0.163	0.100
-404.267	185.329	-0.184	0.271
-403.252	-185.519	-0.281	0.004
-402.238	800.000	-0.019	0.058
-401.223	-128.773	0.160	-0.022
-400.209	-96.132	0.265	-0.070
-399.194	413.183	-0.054	-0.113
-398.179	800.000	0.092	-0.278
-397.165	49.176	-0.196	-0.182
-396.150	800.000	0.106	0.348
-395.136	-200.000	-0.066	0.436
-394.121	-92.443	0.109	0.030
-393.106	-61.825	-0.005	-0.002
-392.092	-200.000	-0.011	-0.209
-391.077	800.000	0.035	-0.124
-390.063	123.142	0.008	-0.010
-389.048	-98.176	0.180	-0.046
-388.033	-11.068	-0.323	0.211
-387.019	59.547	0.251	-0.245
-386.004	800.000	-0.151	0.494
-384.990	-164.286	0.210	0.010
-383.975	-74.127	0.186	-0.067
-382.960	-200.000	0.034	-0.170
-381.946	-200.000	0.035	-0.199
-380.931	152.936	-0.153	0.207
-379.917	-8.547	-0.117	0.078
-378.902	35.067	-0.314	-0.272
-377.888	672.419	0.129	0.332
-376.873	145.670	-0.128	0.171
-375.858	100.317	-0.162	0.187
-374.844	72.070	-0.290	0.299
-373.829	131.308	-0.185	0.236
-372.815	-200.000	-0.009	0.249
-371.800	113.559	-0.095	0.114
-370.785	-134.409	0.328	-0.040
-369.771	-68.168	0.337	-0.130
-368.756	-200.000	0.071	-0.317
-367.742	-129.926	-0.076	0.010
-366.727	13.966	-0.220	-0.170
-365.712	-35.666	-0.248	-0.133
-364.698	-143.653	-0.231	-0.022
-363.683	151.098	-0.074	-0.099
-362.669	-24.293	0.120	-0.071
-361.654	-200.000	-0.009	-0.076
-360.639	-68.164	0.344	-0.133
-359.625	30.458	0.265	-0.224
-358.610	-125.833	0.414	-0.062
-357.596	-200.000	-0.015	-0.159
-356.581	800.000	0.147	0.504
-355.566	-114.026	0.254	0.049
-354.552	-200.000	-0.006	-0.106
-353.537	-93.314	0.036	0.010
-352.523	-57.043	-0.330	0.144
-351.508	0.625	0.050	0.035
-350.493	800.000	0.031	0.094
-349.479	170.682	-0.142	-0.201
-348.464	88.336	0.238	0.262
-347.450	-76.393	0.104	-0.036
-346.435	-180.396	-0.393	0.008
-345.420	-200.000	-0.013	0.295
-344.406	-200.000	-0.001	0.126
-343.391	-11.113	-0.298	0.195
-342.377	800.000	0.081	-0.250
-341.362	206.172	0.159	-0.245
-340.348	800.000	-0.077	0.245
-339.333	-9.767	0.387	0.255
-338.318	-17.899	0.150	0.093
-337.304	99.147	-0.227	-0.260
-336.289	13.349	-0.092	0.071
-335.275	62.471	0.215	-0.213
-334.260	-200.000	0.010	-0.303
-333.245	-106.617	-0.184	0.041
-332.231	-200.000	0.011	-0.269
-331.216	140.407	0.230	0.300
-330.202	-88.277	-0.185	-0.055
-329.187	11.089	-0.064	-0.049
-328.172	-27.281	0.135	0.078
-327.158	102.787	-0.223	-0.258
-326.143	514.936	-0.022	0.052
-325.129	-200.000	-0.032	0.308
-324.114	380.842	0.170	0.345
-323.099	-74.709	0.114	0.041
-322.085	-36.926	0.390	-0.207
-321.070	424.272	-0.123	0.261
-320.056	39.108	-0.038	-0.034
-319.041	-131.660	-0.175	0.023
-318.026	-200.000	-0.019	0.260
-317.012	512.094	0.007	0.016
-315.997	567.714	0.164	-0.394
-314.983	99.915	-0.268	-0.307
-313.968	11.957	-0.147	-0.112
-312.953	-45.673	0.152	-0.074
-311.939	-200.000	-0.059	-0.263
-310.924	-200.000	0.002	-0.060
-309.910	390.725	-0.111	-0.228
-308.895	800.000	-0.028	-0.091
-307.880	800.000	0.051	0.192
-306.866	-51.294	0.250	0.116
-305.851	-76.800	-0.101	-0.035
-304.837	186.484	-0.141	-0.207
-303.822	78.147	0.078	0.082
-302.807	69.455	-0.180	-0.183
-301.793	239.638	-0.092	0.152
-300.778	-47.371	-0.130	-0.063
-299.764	-64.090	-0.099	-0.040
-298.749	222.591	0.296	0.471
-297.735	-91.446	0.194	0.055
-296.720	-108.180	0.081	-0.017
-295.705	800.000	-0.024	0.087
-294.691	47.196	0.043	-0.040
-293.676	130.570	0.105	-0.133
-292.662	23.632	-0.203	0.165
-291.647	800.000	-0.062	0.225
-290.632	-165.499	0.110	-0.005
-289.618	-75.715	0.231	0.081
-288.603	-60.072	-0.452	-0.190
-287.589	74.782	0.398	0.413
-286.574	-200.000	0.023	0.230
-285.559	-55.748	-0.303	-0.134
-284.545	-175.524	0.105	0.003
-283.530	336.369	0.036	0.068
-282.516	-161.964	-0.339	-0.017
-281.501	-200.000	0.002	-0.101
-280.486	254.636	0.087	-0.146
-279.472	464.974	-0.010	0.022
-278.457	313.381	-0.173	0.320
-277.443	-4.782	-0.150	-0.102
-276.428	-200.000	0.003	0.165
-275.413	-200.000	0.005	0.041
-274.399	-41.368	0.159	0.081
-273.384	-99.753	-0.266	0.066
-272.370	133.662	0.118	0.151
-271.355	-90.625	0.274	0.078
-270.340	-24.348	-0.219	0.129
-269.326	-7.376	-0.025	0.017
-268.311	-95.906	-0.138	-0.036
-267.297	-93.273	0.252	0.069
-266.282	-82.829	0.136	0.043
-265.267	-141.713	0.287	0.028
-264.253	-47.706	0.093	0.044
-263.238	11.790	-0.259	-0.197
-262.224	-5.819	-0.323	0.218
-261.209	800.000	-0.052	0.199
-260.195	143.289	0.056	-0.073
-259.180	0.933	0.251	0.178
-258.165	64.522	-0.186	0.185
-257.151	-106.783	0.168	-0.037
-256.136	-107.748	-0.282	-0.061
-255.122	288.721	-0.074	-0.133
-254.107	69.171	0.087	0.088
-253.092	-27.757	-0.322	0.184
-252.078	-200.000	0.031	0.197
-251.063	222.220	-0.161	-0.256
-250.049	-200.000	0.009	-0.103
-249.034	-46.156	0.227	-0.110
-248.019	281.309	-0.111	-0.195
-247.005	-90.585	-0.321	-0.092
-245.990	-65.918	-0.230	-0.091
-244.976	-109.399	-0.071	-0.015
-243.961	139.994	0.102	-0.133
-242.946	-200.000	0.025	0.126
-241.932	-200.000	0.008	0.144
-240.917	-96.913	-0.113	-0.029
-239.903	156.940	-0.131	0.178
-238.888	397.747	0.139	-0.286
-237.873	-16.084	-0.123	-0.077
-236.859	-103.991	0.229	-0.053
-235.844	82.400	-0.192	-0.205
-234.830	16.896	0.142	-0.111
-233.815	652.818	-0.058	0.148
-232.800	-61.830	0.249	0.103
-231.786	-96.941	-0.166	0.043
-230.771	-117.264	-0.306	-0.055
-229.757	244.198	-0.115	-0.190
-228.742	471.901	0.190	-0.421
-227.727	87.750	-0.336	0.367
-226.713	229.290	-0.146	0.235
-225.698	272.599	0.115	0.200
-224.684	15.880	0.166	-0.128
-223.669	-200.000	-0.005	-0.374
-222.655	-76.736	0.132	-0.045
-221.640	295.091	-0.059	-0.106
-220.625	270.202	-0.119	-0.206
-219.611	733.856	0.043	-0.113
-218.596	350.213	0.045	0.087
-217.582	163.766	0.100	0.139
-216.567	37.215	-0.154	0.134
-215.552	800.000	-0.010	-0.027
-214.538	800.000	-0.030	-0.101
-213.523	-10.514	0.077	0.050
-212.509	189.094	-0.079	-0.116
-211.494	-122.866	-0.156	-0.025
-210.479	800.000	-0.091	0.314
-209.465	12.187	0.246	0.186
-208.450	-200.000	0.002	0.111
-207.436	800.000	0.039	-0.123
-206.421	-141.735	-0.332	-0.033
-205.406	-200.000	-0.029	-0.374
-204.392	-60.892	-0.279	-0.116
-203.377	-76.131	-0.296	-0.103
-202.363	-200.000	-0.029	0.462
-201.348	460.862	0.063	0.139
-200.333	-200.000	-0.003	0.143
-199.319	-29.652	0.211	0.118
-198.304	65.951	-0.274	0.273
-197.290	-63.753	0.184	0.074
-196.275	399.643	0.019	0.040
-195.260	-200.000	-0.085	0.429
-194.246	-99.844	0.102	0.025
-193.231	800.000	-0.064	0.264
-192.217	446.819	-0.056	0.121
-191.202	-142.784	0.285	0.027
-190.187	-200.000	-0.026	0.174
-189.173	129.287	0.043	0.053
-188.158	-131.263	0.429	-0.056
-187.144	160.502	-0.170	-0.233
-186.129	123.265	0.081	-0.100
-185.114	172.134	0.171	-0.241
-184.100	15.363	0.170	0.131
-183.085	-200.000	-0.068	0.340
-182.071	627.308	-0.052	-0.130
-181.056	-200.000	0.029	-0.295
-180.042	333.399	0.065	-0.124
-179.027	-157.985	0.174	-0.010
-178.012	-200.000	-0.002	-0.083
-176.998	-85.965	0.104	-0.032
-175.983	-117.830	-0.021	-0.004
-174.969	-200.000	0.063	0.311
-173.954	-16.637	0.024	-0.015
-172.939	50.373	0.282	0.262
-171.925	-130.341	0.157	-0.021
-170.910	-11.189	0.250	0.162
-169.896	6.922	0.121	-0.088
-168.881	-121.094	0.367	0.061
-167.866	-136.245	-0.278	-0.032
-166.852	-125.018	0.303	-0.046
-165.837	-39.912	0.141	-0.072
-164.823	-116.937	0.323	-0.058
-163.808	-120.429	-0.246	0.041
-162.793	-110.238	0.337	-0.069
-161.779	167.598	0.193	-0.270
-160.764	4.367	0.214	-0.154
-159.750	235.593	-0.078	0.126
-158.735	-76.594	0.150	0.052
-157.720	207.981	-0.142	-0.218
-156.706	-111.833	-0.280	0.056
-155.691	800.000	0.082	0.232
-154.677	616.879	-0.039	-0.096
-153.662	800.000	0.056	-0.199
-152.647	101.925	0.243	-0.279
-151.633	-200.000	-0.028	0.122
-150.618	340.802	0.111	-0.213
-149.604	800.000	-0.089	-0.263
-148.589	64.480	-0.193	0.191
-147.574	-200.000	-0.040	-0.298
-146.560	800.000	0.066	-0.252
-145.545	-96.605	0.207	-0.053
-144.531	-111.084	0.104	0.021
-143.516	800.000	-0.062	-0.188
-142.502	57.750	-0.028	-0.027
-141.487	-33.111	0.177	0.096
-140.472	133.277	0.083	0.105
-139.458	55.870	-0.509	0.485
-138.443	-131.717	-0.101	-0.013
-137.429	800.000	0.078	-0.237
-136.414	-36.948	0.278	0.146
-135.399	-200.000	-0.071	0.390
-134.385	-195.188	0.239	0.002
-133.370	-200.000	0.019	0.280
-132.356	20.711	0.180	0.143
-131.341	-200.000	0.046	0.240
-130.326	-30.948	0.216	-0.120
-129.312	-73.240	-0.246	-0.088
-128.297	-24.944	0.258	-0.151
-127.283	40.814	-0.147	-0.130
-126.268	14.763	0.148	0.114
-125.253	605.151	-0.054	-0.131
-124.239	-16.698	0.063	0.039
-123.224	42.627	-0.315	0.281
-122.210	424.592	0.109	0.230
-121.195	-200.000	-0.021	-0.123
