DTS Sentinel unit serial number:	SN413079Multiplexer serial number:	ORYXHardware model number:	OX4-SRSoftware version number:	ORYX F/W v4.00 Oryx Data Collector v3.7.2.0data status	okinstallation	princeton_trtdifferential loss correction	single-endedforward channel	channel 4reverse channel	N/Adate	2019/09/12time	11:11:11forward acquisition time	60.00reverse acquisition time	0.00gamma	496.2192k internal	0.2293k external	0.2293temperature offset calibration	1.0070default loss term (dB/km)	0.3790temperature slope calibration	1.0000multiplexer offset coefficient	1.0000multiplexer slope coefficient	1.0000fibre end	0.00T internal ref (°C)	38.77T ext. ref 1 (°C)	1.95T ext. ref 2 (°C)	35.93length (m)	temperature (°C)	Stokes	anti-Stokes-747.200	348.838	-0.036	0.072
-746.185	327.738	-0.151	0.296
-745.171	800.000	-0.098	0.343
-744.156	81.508	-0.235	0.260
-743.142	800.000	-0.049	-0.168
-742.127	-200.000	0.009	0.172
-741.112	251.257	-0.262	0.456
-740.098	303.214	-0.121	0.229
-739.083	132.155	0.189	0.249
-738.069	110.203	0.006	0.008
-737.054	-200.000	0.036	-0.197
-736.039	127.174	-0.109	0.142
-735.025	-200.000	-0.015	-0.174
-734.010	769.619	-0.063	0.175
-732.996	-102.125	-0.280	0.069
-731.981	-126.131	0.251	0.038
-730.966	-200.000	-0.033	-0.190
-729.952	-119.878	-0.271	0.048
-728.937	-51.034	-0.226	-0.109
-727.923	-200.000	-0.006	-0.037
-726.908	-200.000	0.020	0.093
-725.894	-87.578	-0.154	0.048
-724.879	66.768	-0.201	-0.209
-723.864	-110.799	-0.443	-0.093
-722.850	-5.285	-0.194	-0.136
-721.835	-200.000	-0.013	0.114
-720.821	-123.704	-0.214	0.035
-719.806	310.090	-0.066	-0.127
-718.791	800.000	-0.088	-0.317
-717.777	-37.143	0.319	-0.175
-716.762	-134.116	-0.512	-0.065
-715.748	227.989	-0.099	0.165
-714.733	-40.361	0.314	0.167
-713.718	-81.089	-0.212	0.072
-712.704	800.000	0.122	0.346
-711.689	-99.731	-0.335	-0.086
-710.675	151.953	-0.066	-0.092
-709.660	-33.858	-0.173	-0.097
-708.645	67.629	0.346	-0.361
-707.631	-200.000	0.009	-0.110
-706.616	-123.490	-0.267	-0.043
-705.602	134.566	0.229	-0.303
-704.587	-200.000	-0.002	0.031
-703.572	-200.000	-0.047	-0.261
-702.558	800.000	-0.035	-0.099
-701.543	250.462	0.084	-0.145
-700.529	192.189	-0.110	0.170
-699.514	-67.248	0.224	0.090
-698.499	276.400	-0.062	0.112
-697.485	-151.706	-0.068	-0.005
-696.470	65.325	-0.180	-0.186
-695.456	362.315	0.073	-0.149
-694.441	-141.326	-0.172	0.018
-693.426	-200.000	0.031	0.185
-692.412	-200.000	0.016	0.103
-691.397	620.396	0.109	-0.281
-690.383	6.979	0.150	-0.114
-689.368	214.740	0.039	-0.063
-688.354	-141.392	-0.441	-0.046
-687.339	-200.000	0.026	0.154
-686.324	-200.000	-0.024	0.174
-685.310	-119.997	-0.162	0.028
-684.295	50.231	-0.153	0.148
-683.281	117.317	0.165	0.207
-682.266	428.334	0.187	0.413
-681.251	362.774	0.015	0.030
-680.237	-105.677	0.269	0.062
-679.222	500.227	0.032	0.076
-678.208	-200.000	0.026	-0.165
-677.193	800.000	0.084	-0.350
-676.178	4.637	-0.229	0.172
-675.164	-200.000	-0.014	-0.150
-674.149	-109.872	-0.211	0.045
-673.135	-108.861	0.140	-0.030
-672.120	445.470	0.030	-0.067
-671.105	-98.640	0.109	0.028
-670.091	-200.000	0.016	-0.237
-669.076	139.847	0.268	-0.361
-668.062	138.109	0.098	0.131
-667.047	-146.802	-0.247	-0.022
-666.032	-200.000	-0.020	0.115
-665.018	51.533	-0.232	-0.225
-664.003	549.967	-0.033	0.081
-662.989	-109.389	-0.151	-0.033
-661.974	800.000	0.048	0.138
-660.959	227.260	0.047	0.078
-659.945	20.582	-0.042	-0.035
-658.930	51.069	0.028	0.027
-657.916	-11.244	-0.186	-0.125
-656.901	459.337	0.140	-0.318
-655.886	264.668	0.147	-0.261
-654.872	115.602	0.076	-0.095
-653.857	-127.274	-0.188	-0.028
-652.843	-200.000	-0.095	-0.490
-651.828	-62.066	-0.292	-0.124
-650.814	154.293	-0.296	-0.414
-649.799	241.392	0.082	-0.139
-648.784	107.520	0.035	-0.042
-647.770	-200.000	-0.037	0.204
-646.755	-14.591	0.234	0.153
-645.741	50.407	-0.085	-0.082
-644.726	-67.737	0.052	0.021
-643.711	-200.000	-0.016	-0.089
-642.697	215.337	0.105	0.170
-641.682	186.814	0.189	-0.287
-640.668	-118.549	0.116	0.021
-639.653	82.957	-0.228	-0.252
-638.638	124.683	0.028	-0.037
-637.624	31.857	-0.037	-0.033
-636.609	-136.778	-0.116	0.014
-635.595	-200.000	0.001	0.029
-634.580	800.000	0.015	-0.058
-633.565	-71.357	0.323	-0.123
-632.551	-185.337	0.343	-0.005
-631.536	800.000	0.053	-0.157
-630.522	193.356	-0.125	0.192
-629.507	114.578	-0.123	0.153
-628.492	1.715	0.234	-0.172
-627.478	-0.807	0.213	-0.154
-626.463	-81.921	-0.104	-0.035
-625.449	-2.690	-0.221	0.157
-624.434	12.088	-0.054	-0.042
-623.419	6.036	0.144	-0.109
-622.405	-200.000	-0.036	0.244
-621.390	461.361	0.100	0.226
-620.376	40.593	0.233	-0.214
-619.361	254.018	-0.161	-0.280
-618.346	53.101	-0.208	0.202
-617.332	107.957	-0.171	0.208
-616.317	-90.659	-0.130	0.038
-615.303	-120.077	-0.184	-0.032
-614.288	258.891	0.079	-0.138
-613.273	64.079	-0.037	0.038
-612.259	-99.714	0.151	-0.038
-611.244	50.636	-0.222	0.214
-610.230	-83.221	-0.225	-0.073
-609.215	30.295	-0.070	-0.061
-608.201	-47.824	-0.230	-0.113
-607.186	800.000	-0.005	-0.020
-606.171	-56.383	0.095	-0.043
-605.157	-107.894	0.154	0.034
-604.142	72.019	-0.037	0.039
-603.128	643.587	0.104	-0.270
-602.113	106.035	-0.128	-0.154
-601.098	800.000	0.008	-0.026
-600.084	90.707	0.146	0.167
-599.069	-16.426	-0.059	0.038
-598.055	14.706	-0.222	-0.176
-597.040	87.046	0.227	0.255
-596.025	159.197	-0.103	0.146
-595.011	323.511	0.181	-0.351
-593.996	-170.505	0.355	0.013
-592.982	800.000	0.077	0.216
-591.967	-52.372	0.047	0.022
-590.952	140.636	-0.142	-0.191
-589.938	-47.847	0.274	0.135
-588.923	81.130	0.198	0.217
-587.909	-44.675	-0.176	0.089
-586.894	-25.322	-0.199	0.120
-585.879	-147.331	-0.251	-0.022
-584.865	420.249	-0.052	-0.114
-583.850	800.000	-0.134	0.396
-582.836	-56.836	0.178	0.080
-581.821	-200.000	-0.052	-0.301
-580.806	61.628	-0.076	0.077
-579.792	-169.053	0.340	0.013
-578.777	69.577	0.277	-0.290
-577.763	-62.779	0.134	-0.056
-576.748	285.588	0.134	0.246
-575.733	-107.627	-0.214	0.047
-574.719	-200.000	-0.023	0.229
-573.704	19.274	-0.155	-0.126
-572.690	-167.881	0.381	0.015
-571.675	-200.000	-0.046	-0.344
-570.661	-200.000	-0.004	0.122
-569.646	5.816	0.041	-0.030
-568.631	800.000	-0.011	0.035
-567.617	162.386	-0.075	-0.107
-566.602	-130.513	-0.183	-0.025
-565.588	-3.772	0.054	-0.038
-564.573	-115.382	-0.296	0.057
-563.558	-200.000	-0.044	-0.213
-562.544	320.538	0.041	-0.080
-561.529	731.816	0.061	-0.166
-560.515	-93.549	-0.262	0.074
-559.500	720.643	-0.055	0.150
-558.485	-91.089	0.117	-0.034
-557.471	211.773	-0.252	-0.403
-556.456	223.495	0.137	0.224
-555.442	-179.637	-0.264	-0.006
-554.427	184.539	0.080	-0.120
-553.412	-141.330	0.311	-0.032
-552.398	-109.966	0.157	0.033
-551.383	-47.583	-0.232	-0.114
-550.369	-123.431	0.089	-0.014
-549.354	-133.595	-0.257	-0.033
-548.339	-23.340	0.157	-0.096
-547.325	-193.619	-0.236	0.002
-546.310	-25.078	0.327	-0.197
-545.296	-200.000	-0.005	0.073
-544.281	-200.000	-0.011	0.173
-543.266	-91.161	0.203	0.059
-542.252	165.590	-0.211	0.302
-541.237	-22.199	0.261	-0.160
-540.223	-147.264	-0.290	0.025
-539.208	-200.000	-0.023	0.137
-538.193	-166.009	-0.152	-0.007
-537.179	-35.773	0.518	-0.285
-536.164	-125.915	-0.459	-0.070
-535.150	-79.679	-0.105	-0.036
-534.135	-200.000	0.008	0.284
-533.121	-200.000	-0.039	0.216
-532.106	-98.309	0.168	-0.044
-531.091	168.405	0.033	0.048
-530.077	121.058	-0.076	-0.096
-529.062	99.839	-0.108	-0.128
-528.048	-142.444	0.112	-0.011
-527.033	53.226	0.178	-0.173
-526.018	41.584	-0.104	0.096
-525.004	22.522	0.251	0.209
-523.989	177.155	0.107	-0.158
-522.975	-200.000	0.010	-0.213
-521.960	-116.496	0.374	0.070
-520.945	117.512	0.117	0.146
-519.931	407.147	0.036	-0.077
-518.916	-104.119	0.097	0.023
-517.902	122.432	-0.151	0.192
-516.887	-33.568	0.308	-0.173
-515.872	98.036	0.103	-0.120
-514.858	-200.000	-0.043	0.193
-513.843	-116.115	-0.196	0.037
-512.829	768.964	0.024	-0.066
-511.814	800.000	-0.142	0.406
-510.799	173.996	0.097	0.142
-509.785	-165.300	-0.245	0.011
-508.770	25.904	0.156	0.131
-507.756	6.530	0.144	-0.109
-506.741	68.570	-0.094	-0.098
-505.726	-200.000	-0.042	-0.283
-504.712	143.906	0.114	-0.154
-503.697	224.377	0.093	-0.152
-502.683	-193.357	0.205	-0.002
-501.668	285.476	-0.171	-0.312
-500.653	-8.990	-0.279	-0.189
-499.639	229.530	0.088	-0.146
-498.624	152.360	-0.086	-0.120
-497.610	792.192	0.114	0.319
-496.595	-128.382	-0.322	0.046
-495.581	116.916	0.120	-0.150
-494.566	-82.395	0.238	-0.078
-493.551	-29.473	0.439	-0.254
-492.537	60.943	-0.331	0.333
-491.522	25.292	-0.388	-0.327
-490.508	-160.735	0.240	0.013
-489.493	257.067	-0.075	-0.131
-488.478	511.319	0.154	-0.364
-487.464	489.759	0.134	0.309
-486.449	-34.718	-0.126	-0.070
-485.435	-146.863	-0.198	-0.017
-484.420	213.035	0.077	0.124
-483.405	-132.917	-0.360	0.046
-482.391	-145.924	-0.311	-0.028
-481.376	-106.975	0.205	0.046
-480.362	-49.792	-0.235	-0.113
-479.347	-200.000	0.014	0.232
-478.332	290.553	-0.004	-0.007
-477.318	800.000	0.096	0.302
-476.303	-99.130	-0.048	0.012
-475.289	155.520	-0.170	0.237
-474.274	-186.475	0.182	0.003
-473.259	800.000	-0.014	-0.050
-472.245	-91.032	-0.221	0.064
-471.230	-116.323	0.090	0.017
-470.216	-108.870	-0.269	-0.058
-469.201	272.207	0.118	0.211
-468.186	192.554	0.036	-0.055
-467.172	-22.282	0.168	-0.103
-466.157	62.385	0.123	0.124
-465.143	-126.339	0.206	-0.031
-464.128	-54.156	-0.070	-0.032
-463.113	-119.103	0.299	0.053
-462.099	14.766	-0.136	-0.107
-461.084	71.290	-0.095	-0.100
-460.070	-37.885	-0.386	-0.208
-459.055	760.599	-0.077	-0.212
-458.040	148.465	0.115	-0.157
-457.026	43.594	-0.209	0.193
-456.011	800.000	0.037	0.122
-454.997	187.093	0.085	0.128
-453.982	42.889	0.284	0.262
-452.968	-200.000	-0.029	0.196
-451.953	244.430	0.157	0.267
-450.938	-200.000	0.023	-0.146
-449.924	-183.857	0.245	-0.004
-448.909	-57.755	-0.140	-0.062
-447.895	135.548	0.129	-0.170
-446.880	-76.898	-0.348	-0.123
-445.865	98.076	-0.137	-0.159
-444.851	260.337	-0.060	0.104
-443.836	305.027	0.038	0.071
-442.822	-200.000	-0.017	-0.321
-441.807	27.350	0.099	-0.084
-440.792	254.187	-0.108	-0.186
-439.778	241.021	-0.248	-0.419
-438.763	-62.936	-0.024	0.010
-437.749	-137.300	0.062	-0.007
-436.734	-200.000	0.081	0.418
-435.719	-83.584	0.439	0.142
-434.705	-200.000	0.011	-0.246
-433.690	-42.661	-0.388	-0.199
-432.676	-192.902	-0.187	-0.002
-431.661	800.000	-0.054	0.162
-430.646	-19.710	-0.158	-0.098
-429.632	-200.000	-0.002	-0.079
-428.617	88.633	-0.230	-0.258
-427.603	-200.000	-0.016	0.077
-426.588	800.000	-0.059	0.253
-425.573	-152.859	-0.151	0.011
-424.559	150.029	-0.288	0.394
-423.544	-55.672	-0.157	0.071
-422.530	-101.271	-0.293	-0.072
-421.515	68.952	0.328	0.340
-420.500	328.931	0.169	0.329
-419.486	-200.000	-0.009	0.224
-418.471	2.369	-0.121	-0.089
-417.457	-171.921	0.060	-0.002
-416.442	-62.829	0.156	-0.065
-415.428	800.000	-0.105	-0.298
-414.413	-64.048	0.196	0.081
-413.398	-174.221	0.252	0.007
-412.384	-114.580	0.408	-0.079
-411.369	256.022	-0.017	0.030
-410.355	-41.989	-0.149	0.077
-409.340	11.517	0.138	0.107
-408.325	-68.021	-0.190	0.075
-407.311	-98.593	-0.247	-0.064
-406.296	-75.160	0.221	-0.080
-405.282	800.000	-0.003	0.014
-404.267	335.376	0.149	-0.291
-403.252	-69.538	-0.157	0.061
-402.238	202.883	-0.090	-0.141
-401.223	-58.849	-0.108	-0.047
-400.209	-68.126	0.125	0.049
-399.194	276.518	0.170	0.304
-398.179	-77.262	0.166	-0.058
-397.165	23.940	-0.014	0.011
-396.150	-200.000	0.008	-0.084
-395.136	63.927	-0.194	-0.197
-394.121	22.100	0.107	0.088
-393.106	-50.043	-0.101	-0.048
-392.092	-171.876	-0.295	0.010
-391.077	-55.491	-0.041	0.019
-390.063	800.000	-0.103	0.335
-389.048	-139.400	-0.303	0.033
-388.033	-38.588	-0.311	-0.166
-387.019	-65.042	-0.209	0.085
-386.004	-200.000	0.014	-0.157
-384.990	161.961	0.169	0.238
-383.975	196.050	-0.147	0.225
-382.960	-11.174	-0.225	-0.150
-381.946	191.775	0.159	0.241
-380.931	-22.731	-0.228	0.139
-379.917	-200.000	-0.060	0.336
-378.902	339.504	-0.180	-0.353
-377.888	-102.307	-0.199	0.048
-376.873	-121.751	-0.222	-0.037
-375.858	800.000	0.042	-0.125
-374.844	-129.812	-0.128	-0.018
-373.829	485.595	0.019	0.043
-372.815	-200.000	0.049	0.222
-371.800	-33.340	0.120	0.067
-370.785	-28.772	-0.167	-0.097
-369.771	122.337	-0.123	-0.155
-368.756	-97.487	-0.182	0.048
-367.742	-200.000	-0.040	-0.277
-366.727	-44.718	0.380	0.191
-365.712	142.661	0.150	-0.201
-364.698	-200.000	-0.012	-0.137
-363.683	45.213	0.366	-0.340
-362.669	103.409	0.203	-0.241
-361.654	-21.131	-0.183	-0.113
-360.639	49.599	-0.343	0.325
-359.625	-200.000	0.010	-0.145
-358.610	-117.742	-0.190	-0.034
-357.596	154.049	0.116	-0.160
-356.581	-135.880	-0.198	-0.023
-355.566	165.069	-0.123	0.175
-354.552	-38.269	0.238	0.127
-353.537	97.923	0.134	-0.155
-352.523	153.355	-0.059	0.082
-351.508	-110.315	-0.197	0.041
-350.493	-49.632	0.211	-0.101
-349.479	-83.064	0.330	0.107
-348.464	189.035	0.107	-0.162
-347.450	403.522	0.096	0.203
-346.435	-147.044	-0.430	-0.037
-345.420	-148.382	0.268	-0.022
-344.406	-116.451	0.182	-0.034
-343.391	128.812	0.112	0.143
-342.377	110.272	-0.266	-0.322
-341.362	217.670	0.124	-0.199
-340.348	-144.898	0.369	-0.034
-339.333	66.325	-0.110	0.112
-338.318	-133.597	0.124	-0.016
-337.304	136.057	-0.062	-0.081
-336.289	-200.000	-0.001	-0.545
-335.275	-79.555	-0.075	-0.025
-334.260	9.518	-0.287	-0.219
-333.245	50.351	-0.190	-0.181
-332.231	103.021	0.171	0.202
-331.216	78.443	-0.126	0.135
-330.202	-110.546	0.322	0.067
-329.187	-188.912	-0.250	-0.003
-328.172	-123.444	-0.081	-0.013
-327.158	-43.570	0.219	0.111
-326.143	1.945	0.224	-0.163
-325.129	34.383	-0.209	-0.183
-324.114	-138.192	-0.378	-0.042
-323.099	-200.000	0.069	-0.407
-322.085	-97.293	0.140	-0.037
-321.070	583.578	0.135	0.334
-320.056	-181.223	0.054	-0.001
-319.041	-50.145	-0.083	0.040
-318.026	-200.000	-0.013	0.140
-317.012	103.193	0.248	0.292
-315.997	52.126	-0.149	0.143
-314.983	616.602	0.084	-0.212
-313.968	-63.208	0.298	-0.124
-312.953	272.983	-0.070	0.125
-311.939	800.000	-0.023	0.085
-310.924	-88.374	-0.258	-0.078
-309.910	192.357	0.135	0.204
-308.895	-22.077	-0.108	-0.066
-307.880	-84.667	0.049	-0.015
-306.866	-111.435	-0.158	0.032
-305.851	25.142	0.230	-0.192
-304.837	185.787	-0.103	-0.153
-303.822	53.438	-0.043	0.041
-302.807	707.780	-0.077	-0.206
-301.793	-83.794	0.209	0.067
-300.778	-122.855	0.020	-0.003
-299.764	103.646	0.112	0.132
-298.749	-151.291	0.218	0.016
-297.735	-126.798	-0.257	0.038
-296.720	110.625	0.115	-0.139
-295.705	-20.484	-0.154	-0.095
-294.691	-117.559	-0.313	-0.057
-293.676	314.244	-0.090	0.171
-292.662	-111.563	-0.111	0.023
-291.647	441.322	0.113	0.249
-290.632	-33.688	0.071	0.040
-289.618	67.860	0.044	-0.045
-288.603	52.034	0.147	-0.141
-287.589	-39.715	-0.202	0.106
-286.574	-39.139	0.229	-0.121
-285.559	800.000	0.074	-0.247
-284.545	-85.517	-0.154	0.048
-283.530	45.794	-0.192	-0.179
-282.516	800.000	0.032	0.127
-281.501	4.525	0.210	-0.155
-280.486	-76.749	-0.266	-0.094
-279.472	-200.000	0.004	0.050
-278.457	-21.196	0.272	-0.167
-277.443	-114.040	-0.188	-0.037
-276.428	540.265	0.037	0.088
-275.413	-91.013	0.240	-0.069
-274.399	-200.000	0.003	-0.052
-273.384	-5.341	0.003	0.002
-272.370	57.510	0.096	-0.094
-271.355	-115.683	0.533	0.100
-270.340	-200.000	-0.010	0.115
-269.326	-69.254	0.331	0.128
-268.311	101.713	0.132	0.154
-267.297	800.000	-0.079	-0.317
-266.282	-200.000	0.017	-0.318
-265.267	193.200	0.079	-0.121
-264.253	-200.000	0.096	-0.670
-263.238	-200.000	0.015	-0.121
-262.224	-200.000	0.025	-0.257
-261.209	24.728	0.103	0.086
-260.195	800.000	-0.079	0.258
-259.180	-93.146	-0.295	0.082
-258.165	-4.232	0.203	0.141
-257.151	-118.458	0.057	0.010
-256.136	-30.269	-0.038	-0.021
-255.122	-109.930	-0.178	-0.037
-254.107	-23.666	0.062	0.037
-253.092	-61.282	0.078	0.033
-252.078	360.034	0.110	0.222
-251.063	407.411	-0.040	0.085
-250.049	-200.000	0.036	0.218
-249.034	-48.719	0.399	0.192
-248.019	-119.500	0.371	0.065
-247.005	174.111	0.243	0.352
-245.990	-200.000	0.010	0.466
-244.976	90.930	-0.135	0.152
-243.961	-200.000	-0.057	0.255
-242.946	-11.151	-0.103	0.068
-241.932	800.000	0.074	-0.207
-240.917	-6.627	-0.077	-0.053
-239.903	-129.560	0.191	0.026
-238.888	-31.709	-0.258	-0.145
-237.873	-126.046	0.336	0.051
-236.859	506.682	-0.095	0.222
-235.844	-65.256	-0.050	-0.020
-234.830	50.432	-0.101	0.096
-233.815	800.000	0.082	-0.286
-232.800	-10.060	-0.099	-0.066
-231.786	51.657	-0.160	0.153
-230.771	-200.000	0.008	0.105
-229.757	277.412	-0.141	-0.252
-228.742	182.201	0.144	0.213
-227.727	-200.000	-0.012	0.142
-226.713	318.981	0.095	-0.181
-225.698	14.886	-0.077	-0.060
-224.684	-178.397	0.300	-0.007
-223.669	364.169	-0.131	0.264
-222.655	96.054	-0.132	0.152
-221.640	62.837	0.243	-0.243
-220.625	-200.000	-0.055	0.348
-219.611	-128.239	0.308	-0.044
-218.596	112.973	0.236	-0.286
-217.582	50.352	0.051	-0.048
-216.567	11.822	-0.198	-0.152
-215.552	-3.573	0.024	-0.016
-214.538	-88.561	-0.411	0.123
-213.523	-129.109	-0.269	-0.038
-212.509	-78.567	0.248	0.085
-211.494	30.294	0.091	0.078
-210.479	800.000	0.014	-0.059
-209.465	-200.000	-0.026	-0.209
-208.450	-73.413	0.288	0.105
-207.436	-200.000	-0.032	0.212
-206.421	-88.557	-0.090	-0.027
-205.406	800.000	-0.075	0.217
-204.392	98.967	0.160	0.185
-203.377	117.362	0.092	-0.113
-202.363	-90.451	-0.192	-0.056
-201.348	-97.528	0.151	0.039
-200.333	-9.803	0.110	0.073
-199.319	60.771	-0.212	0.210
-198.304	143.770	0.082	0.109
-197.290	73.793	-0.167	-0.175
-196.275	-106.141	-0.087	-0.020
-195.260	259.006	-0.180	0.310
-194.246	126.789	-0.163	0.207
-193.231	-71.662	-0.036	-0.013
-192.217	-55.616	-0.111	0.050
-191.202	-200.000	-0.053	-0.260
-190.187	-31.974	0.221	-0.124
-189.173	-200.000	0.098	-0.000
-188.158	-200.000	0.030	0.266
-187.144	40.176	-0.074	0.067
-186.129	-100.590	-0.071	-0.018
-185.114	-59.002	-0.281	0.121
-184.100	-200.000	-0.011	0.168
-183.085	-200.000	0.010	0.096
-182.071	-63.425	-0.117	0.048
-181.056	-69.536	0.133	0.051
-180.042	-104.636	-0.226	-0.052
-179.027	49.901	-0.143	-0.135
-178.012	-200.000	0.011	0.220
-176.998	-200.000	0.029	0.285
-175.983	-7.808	0.166	0.112
-174.969	-200.000	-0.035	0.224
-173.954	-200.000	-0.002	0.273
-172.939	-72.633	0.043	-0.016
-171.925	633.671	0.010	0.024
-170.910	-200.000	-0.045	0.406
-169.896	-131.447	-0.262	-0.035
-168.881	-200.000	-0.010	-0.147
-167.866	-77.788	-0.271	-0.094
-166.852	-169.899	-0.122	0.004
-165.837	800.000	0.083	-0.241
-164.823	-60.240	0.176	-0.075
-163.808	-83.592	0.305	0.098
-162.793	-200.000	-0.031	0.319
-161.779	595.151	-0.107	0.265
-160.764	80.847	-0.219	-0.236
-159.750	-30.461	0.198	-0.113
-158.735	-170.636	-0.045	-0.002
-157.720	-200.000	-0.035	0.284
-156.706	-158.432	0.242	0.014
-155.691	-200.000	0.023	-0.195
-154.677	195.191	-0.071	-0.107
-153.662	29.626	-0.109	0.092
-152.647	83.890	-0.137	-0.149
-151.633	532.886	0.167	-0.395
-150.618	-57.495	0.054	-0.024
-149.604	291.368	0.036	-0.065
-148.589	33.484	0.091	0.079
-147.574	661.190	-0.185	-0.476
-146.560	152.963	0.242	-0.330
-145.545	800.000	-0.113	-0.373
-144.531	60.677	-0.077	-0.076
-143.516	-82.100	-0.163	0.053
-142.502	280.109	-0.054	0.096
-141.487	800.000	0.059	0.211
-140.472	-193.685	0.620	-0.005
-139.458	-67.253	0.141	0.055
-138.443	35.439	0.168	-0.147
-137.429	-15.893	-0.280	0.178
-136.414	-130.843	0.086	0.012
-135.399	-118.524	0.206	0.036
-134.385	-109.653	0.182	0.038
-133.370	-156.001	0.494	0.031
-132.356	-61.780	0.134	-0.056
-131.341	-174.759	-0.230	0.006
-130.326	162.499	0.115	0.161
-129.312	-69.542	-0.298	-0.114
-128.297	140.542	0.133	0.175
-127.283	-86.853	-0.120	0.037
-126.268	-15.769	0.342	0.218
-125.253	-200.000	-0.048	-0.261
-124.239	-105.765	0.223	0.050
-123.224	-200.000	0.322	-0.001
-122.210	-200.000	-0.098	0.000
