DTS Sentinel unit serial number:	SN413079Multiplexer serial number:	ORYXHardware model number:	OX4-SRSoftware version number:	ORYX F/W v4.00 Oryx Data Collector v3.7.2.0data status	okinstallation	princeton_trtdifferential loss correction	single-endedforward channel	channel 4reverse channel	N/Adate	2019/09/14time	16:05:35forward acquisition time	60.00reverse acquisition time	0.00gamma	496.2192k internal	0.2293k external	0.2293temperature offset calibration	1.0134default loss term (dB/km)	0.3790temperature slope calibration	1.0000multiplexer offset coefficient	1.0000multiplexer slope coefficient	1.0000fibre end	0.00T internal ref (°C)	38.44T ext. ref 1 (°C)	5.09T ext. ref 2 (°C)	33.01length (m)	temperature (°C)	Stokes	anti-Stokes-747.200	572.604	0.050	0.124
-746.185	-74.222	-0.251	-0.093
-745.171	295.998	0.104	0.195
-744.156	-26.223	-0.175	0.105
-743.142	32.121	0.176	0.155
-742.127	-200.000	-0.040	0.481
-741.112	18.505	0.092	0.075
-740.098	47.469	-0.013	0.012
-739.083	184.185	-0.278	-0.421
-738.069	-132.963	-0.419	0.054
-737.054	42.539	-0.244	0.227
-736.039	168.427	-0.113	-0.165
-735.025	-200.000	-0.004	-0.161
-734.010	446.143	-0.164	0.369
-732.996	800.000	0.113	0.408
-731.981	-40.778	-0.169	-0.090
-730.966	-200.000	0.026	0.124
-729.952	-103.738	-0.310	-0.074
-728.937	-200.000	0.022	-0.447
-727.923	-200.000	0.036	-0.170
-726.908	-200.000	-0.050	-0.285
-725.894	73.738	0.203	-0.218
-724.879	561.431	-0.134	0.330
-723.864	-200.000	0.009	-0.070
-722.850	291.272	-0.282	-0.525
-721.835	205.132	0.091	-0.145
-720.821	-95.788	0.034	0.009
-719.806	135.628	-0.131	0.174
-718.791	695.248	-0.142	-0.380
-717.777	164.928	-0.144	-0.207
-716.762	-3.038	0.038	-0.027
-715.748	-46.975	-0.122	-0.061
-714.733	-85.306	0.240	0.076
-713.718	-200.000	-0.039	-0.236
-712.704	-104.403	0.278	0.066
-711.689	-200.000	-0.028	-0.135
-710.675	800.000	0.070	-0.209
-709.660	-92.695	-0.066	0.019
-708.645	-200.000	0.013	-0.084
-707.631	800.000	-0.081	-0.292
-706.616	194.945	-0.170	-0.263
-705.602	800.000	-0.078	-0.316
-704.587	-200.000	0.010	0.089
-703.572	-4.734	-0.201	0.142
-702.558	-46.985	0.137	0.068
-701.543	-12.564	0.204	-0.136
-700.529	679.413	0.091	0.241
-699.514	-116.576	-0.286	0.054
-698.499	76.050	0.083	0.090
-697.485	-83.716	0.061	0.020
-696.470	-78.816	0.316	-0.110
-695.456	158.590	-0.104	0.147
-694.441	-187.239	-0.528	-0.007
-693.426	201.576	-0.110	-0.174
-692.412	146.318	0.079	0.108
-691.397	800.000	0.128	-0.410
-690.383	49.551	-0.081	-0.078
-689.368	797.762	0.067	-0.189
-688.354	-23.410	0.359	0.220
-687.339	332.421	0.111	0.219
-686.324	-40.724	0.079	0.042
-685.310	-143.079	0.223	0.022
-684.295	-200.000	-0.017	-0.112
-683.281	18.332	0.147	-0.120
-682.266	507.728	0.077	-0.182
-681.251	-16.958	-0.258	0.166
-680.237	518.083	-0.141	0.338
-679.222	800.000	0.120	-0.432
-678.208	150.660	-0.072	0.099
-677.193	-200.000	0.005	0.296
-676.178	37.171	-0.073	-0.066
-675.164	-4.610	-0.137	-0.096
-674.149	800.000	0.027	-0.089
-673.135	221.693	0.099	-0.162
-672.120	-11.053	-0.157	0.106
-671.105	800.000	0.041	0.132
-670.091	-200.000	0.030	0.153
-669.076	11.731	-0.102	0.080
-668.062	-87.037	-0.218	0.068
-667.047	43.252	-0.220	-0.205
-666.032	330.619	0.138	0.272
-665.018	-172.866	0.301	0.010
-664.003	116.515	-0.066	0.083
-662.989	29.789	-0.022	-0.019
-661.974	-200.000	0.039	0.289
-660.959	59.443	-0.091	0.092
-659.945	9.422	0.235	-0.181
-658.930	265.662	0.037	-0.066
-657.916	800.000	0.076	0.222
-656.901	800.000	-0.034	0.119
-655.886	-48.451	-0.093	0.046
-654.872	-72.029	-0.257	-0.097
-653.857	-8.822	-0.153	-0.104
-652.843	800.000	0.010	-0.042
-651.828	800.000	0.054	0.155
-650.814	-47.300	0.132	0.066
-649.799	47.882	0.061	0.058
-648.784	170.437	-0.068	-0.099
-647.770	215.819	-0.117	0.189
-646.755	83.311	-0.254	-0.281
-645.741	-52.854	0.217	-0.102
-644.726	14.743	-0.260	-0.207
-643.711	800.000	-0.033	-0.111
-642.697	24.853	-0.213	0.180
-641.682	170.131	0.045	0.066
-640.668	-166.761	0.224	0.009
-639.653	-200.000	-0.005	-0.153
-638.638	-116.381	-0.460	0.087
-637.624	-101.636	-0.290	-0.072
-636.609	-45.943	-0.131	0.066
-635.595	-99.089	0.297	0.077
-634.580	-172.694	0.104	-0.003
-633.565	-104.732	-0.172	0.040
-632.551	81.690	-0.060	0.066
-631.536	-200.000	-0.001	0.037
-630.522	44.685	0.124	0.116
-629.507	-127.405	-0.213	-0.032
-628.492	800.000	-0.067	-0.293
-627.478	263.730	0.219	-0.387
-626.463	-119.115	-0.498	-0.089
-625.449	-0.866	0.080	-0.058
-624.434	800.000	0.098	0.402
-623.419	-56.158	0.075	-0.034
-622.405	-200.000	0.035	-0.156
-621.390	396.213	0.070	-0.150
-620.376	22.002	-0.093	-0.077
-619.361	800.000	0.079	-0.266
-618.346	-160.024	0.140	0.008
-617.332	95.777	-0.124	0.144
-616.317	800.000	0.028	-0.125
-615.303	-13.244	0.042	0.028
-614.288	-45.077	0.415	0.210
-613.273	68.930	0.013	-0.014
-612.259	249.390	0.039	0.068
-611.244	-9.942	-0.128	0.087
-610.230	66.839	0.328	-0.340
-609.215	316.232	0.168	-0.323
-608.201	-132.597	0.074	-0.010
-607.186	-130.821	0.409	0.056
-606.171	-73.210	-0.234	-0.087
-605.157	-200.000	-0.026	0.302
-604.142	38.376	0.229	0.207
-603.128	-113.148	-0.282	0.057
-602.113	-182.341	0.098	-0.002
-601.098	-200.000	0.029	0.143
-600.084	-200.000	-0.001	0.174
-599.069	23.552	-0.028	-0.023
-598.055	553.598	-0.089	0.217
-597.040	-20.931	-0.242	-0.151
-596.025	-200.000	-0.004	0.043
-595.011	-56.341	-0.135	0.061
-593.996	-200.000	0.024	-0.108
-592.982	-13.205	-0.155	-0.102
-591.967	-53.391	-0.175	-0.081
-590.952	138.478	0.088	0.117
-589.938	154.658	-0.081	0.114
-588.923	-50.676	-0.142	0.068
-587.909	163.743	0.215	-0.308
-586.894	227.392	-0.085	-0.140
-585.879	-134.213	-0.127	-0.016
-584.865	-200.000	-0.017	-0.075
-583.850	156.636	0.164	0.230
-582.836	-104.356	0.351	0.083
-581.821	-200.000	0.003	0.050
-580.806	518.853	0.059	0.141
-579.792	800.000	0.092	0.369
-578.777	-31.828	0.237	-0.135
-577.763	49.806	-0.265	-0.254
-576.748	477.715	0.104	0.239
-575.733	29.202	-0.135	-0.116
-574.719	800.000	-0.061	0.201
-573.704	145.278	0.076	0.103
-572.690	638.024	0.046	-0.118
-571.675	800.000	-0.097	0.345
-570.661	194.136	0.118	-0.181
-569.646	497.023	-0.042	-0.099
-568.631	-133.086	0.394	-0.051
-567.617	-200.000	-0.011	0.143
-566.602	301.104	0.112	-0.209
-565.588	-200.000	0.029	0.132
-564.573	-200.000	0.039	0.184
-563.558	-129.286	-0.293	0.041
-562.544	90.605	-0.156	-0.177
-561.529	16.575	0.257	-0.206
-560.515	-74.977	0.175	-0.064
-559.500	62.337	-0.107	0.108
-558.485	-200.000	0.033	-0.150
-557.471	-113.817	0.199	-0.039
-556.456	-42.251	-0.213	-0.111
-555.442	-200.000	0.015	-0.365
-554.427	187.807	-0.178	0.270
-553.412	-48.321	-0.053	0.026
-552.398	-113.809	0.177	0.035
-551.383	592.893	-0.095	-0.238
-550.369	-9.853	-0.096	0.065
-549.354	-157.662	0.185	0.011
-548.339	37.764	0.232	0.209
-547.325	-9.635	-0.398	-0.270
-546.310	-0.122	-0.030	0.022
-545.296	-90.228	0.185	-0.055
-544.281	87.890	-0.107	-0.121
-543.266	-49.367	-0.224	0.108
-542.252	-168.511	-0.358	0.014
-541.237	105.996	0.021	0.025
-540.223	800.000	0.050	0.195
-539.208	-52.509	0.362	-0.170
-538.193	-20.051	0.235	-0.147
-537.179	-200.000	-0.056	-0.256
-536.164	-200.000	0.002	0.196
-535.150	150.292	0.162	0.223
-534.135	-131.794	-0.258	-0.034
-533.121	93.943	-0.272	-0.313
-532.106	-200.000	0.008	0.094
-531.091	-31.805	-0.099	-0.056
-530.077	-194.040	0.237	-0.002
-529.062	-105.277	0.326	0.075
-528.048	15.804	0.238	-0.190
-527.033	155.825	0.162	-0.226
-526.018	800.000	0.009	-0.027
-525.004	1.671	-0.318	-0.233
-523.989	-200.000	0.061	-0.298
-522.975	60.261	-0.322	0.324
-521.960	618.719	-0.109	0.277
-520.945	-116.261	-0.069	0.013
-519.931	239.076	0.015	0.026
-518.916	-13.673	0.047	0.031
-517.902	-9.886	0.151	-0.102
-516.887	-65.357	0.076	0.031
-515.872	-200.000	0.025	-0.140
-514.858	-10.950	0.253	0.169
-513.843	-20.165	-0.178	0.111
-512.829	52.758	0.068	0.065
-511.814	29.163	0.088	-0.076
-510.799	15.576	0.183	-0.146
-509.785	151.308	-0.172	-0.237
-508.770	-200.000	0.040	-0.261
-507.756	98.719	-0.112	-0.131
-506.741	-113.885	-0.164	-0.032
-505.726	-200.000	-0.076	-0.360
-504.712	-10.031	-0.133	-0.089
-503.697	98.239	0.168	0.196
-502.683	-134.223	0.141	-0.018
-501.668	607.232	0.014	-0.035
-500.653	-75.324	0.200	-0.072
-499.639	-91.292	0.390	0.113
-498.624	685.641	-0.069	-0.183
-497.610	-89.608	0.285	-0.085
-496.595	-119.819	-0.181	-0.032
-495.581	-200.000	0.066	-0.365
-494.566	-7.901	-0.124	0.085
-493.551	87.018	-0.155	0.174
-492.537	800.000	-0.082	-0.286
-491.522	-107.891	0.282	0.062
-490.508	528.238	0.038	0.091
-489.493	-52.018	0.115	-0.054
-488.478	-200.000	0.021	0.106
-487.464	-142.489	-0.464	-0.046
-486.449	-58.543	0.170	0.075
-485.435	-159.157	-0.235	0.013
-484.420	-5.893	0.205	0.142
-483.405	-174.301	-0.493	-0.014
-482.391	198.127	0.048	0.074
-481.376	-72.503	0.068	0.026
-480.362	800.000	-0.038	-0.112
-479.347	-148.777	0.131	0.011
-478.332	-116.122	0.191	-0.036
-477.318	-200.000	0.027	-0.142
-476.303	-122.973	-0.293	-0.048
-475.289	-200.000	0.017	0.123
-474.274	-200.000	-0.023	0.318
-473.259	800.000	0.004	-0.014
-472.245	-200.000	0.018	-0.148
-471.230	3.696	0.222	0.164
-470.216	53.374	0.125	-0.121
-469.201	606.587	-0.110	0.277
-468.186	3.753	-0.271	-0.200
-467.172	446.667	0.183	-0.406
-466.157	221.760	-0.103	-0.167
-465.143	-200.000	-0.066	-0.311
-464.128	-86.762	0.265	-0.082
-463.113	-149.571	0.283	0.023
-462.099	-200.000	-0.067	0.411
-461.084	-117.123	-0.164	-0.030
-460.070	249.580	-0.052	0.089
-459.055	70.924	-0.095	-0.100
-458.040	-148.716	0.372	0.031
-457.026	58.246	-0.182	-0.181
-456.011	197.561	0.172	-0.265
-454.997	-106.777	0.196	0.044
-453.982	413.209	0.134	-0.288
-452.968	132.591	0.130	-0.170
-451.953	89.585	-0.073	-0.082
-450.938	-76.884	0.289	0.102
-449.924	-8.263	0.054	0.037
-448.909	225.710	-0.137	-0.224
-447.895	28.360	-0.321	0.274
-446.880	-113.994	0.184	-0.036
-445.865	769.798	-0.074	0.205
-444.851	35.997	0.015	-0.013
-443.836	-200.000	0.043	0.291
-442.822	-82.341	0.122	-0.040
-441.807	383.937	-0.043	0.089
-440.792	-200.000	0.012	-0.265
-439.778	51.857	-0.141	0.136
-438.763	-200.000	0.008	0.237
-437.749	-60.939	-0.171	-0.073
-436.734	-200.000	0.066	0.323
-435.719	31.132	0.201	-0.174
-434.705	-200.000	-0.017	-0.151
-433.690	737.250	-0.096	-0.260
-432.676	117.774	0.168	0.209
-431.661	495.651	-0.100	0.232
-430.646	-75.809	0.211	0.076
-429.632	-200.000	0.016	0.157
-428.617	49.526	-0.125	0.119
-427.603	800.000	-0.092	0.381
-426.588	90.136	0.198	-0.224
-425.573	-42.367	0.201	0.104
-424.559	335.761	0.170	-0.333
-423.544	3.823	-0.136	-0.100
-422.530	39.872	0.172	0.156
-421.515	-4.263	-0.281	-0.196
-420.500	-138.123	0.125	-0.014
-419.486	89.978	-0.022	-0.025
-418.471	-13.849	0.303	0.198
-417.457	43.096	0.233	0.214
-416.442	-153.447	0.213	0.015
-415.428	1.653	-0.275	0.200
-414.413	-114.042	-0.569	-0.111
-413.398	-132.219	0.400	0.052
-412.384	-48.151	-0.305	-0.149
-411.369	-57.044	0.021	0.009
-410.355	-2.118	-0.116	0.082
-409.340	12.663	-0.203	-0.158
-408.325	228.528	0.059	-0.097
-407.311	-151.940	0.087	0.006
-406.296	-64.224	0.164	0.068
-405.282	335.128	0.105	0.205
-404.267	-44.510	-0.229	-0.116
-403.252	800.000	-0.017	-0.059
-402.238	414.793	-0.155	0.334
-401.223	800.000	-0.027	0.113
-400.209	800.000	-0.033	-0.115
-399.194	800.000	0.061	-0.174
-398.179	-82.574	-0.169	0.055
-397.165	-17.440	-0.234	-0.149
-396.150	-200.000	-0.006	0.183
-395.136	-1.859	0.085	-0.060
-394.121	263.430	-0.127	0.223
-393.106	185.331	0.141	-0.212
-392.092	47.175	-0.205	0.193
-391.077	39.086	0.176	-0.159
-390.063	-48.482	-0.190	-0.092
-389.048	-92.689	-0.240	-0.068
-388.033	53.922	0.107	-0.104
-387.019	110.090	-0.216	0.261
-386.004	-113.489	-0.154	0.030
-384.990	5.684	0.220	-0.164
-383.975	350.549	-0.082	-0.164
-382.960	-8.345	0.155	0.105
-381.946	-200.000	0.018	-0.085
-380.931	29.352	-0.206	-0.177
-379.917	-31.004	0.157	-0.089
-378.902	549.597	0.051	0.124
-377.888	23.827	0.177	0.147
-376.873	-47.457	0.491	-0.241
-375.858	-200.000	-0.052	-0.286
-374.844	800.000	-0.029	0.123
-373.829	623.673	-0.084	0.213
-372.815	-109.868	-0.190	0.040
-371.800	-200.000	-0.093	-0.480
-370.785	-200.000	-0.002	0.030
-369.771	800.000	-0.092	0.326
-368.756	342.100	-0.181	0.357
-367.742	-200.000	-0.064	-0.312
-366.727	-200.000	0.034	-0.153
-365.712	-1.057	-0.212	0.151
-364.698	-200.000	-0.009	0.118
-363.683	-200.000	-0.048	0.455
-362.669	-58.440	0.045	0.020
-361.654	59.567	0.066	0.066
-360.639	800.000	0.101	-0.292
-359.625	-139.997	0.173	-0.018
-358.610	77.325	-0.240	-0.257
-357.596	12.803	0.138	0.107
-356.581	800.000	-0.107	0.305
-355.566	-67.464	0.137	-0.054
-354.552	-27.873	0.217	0.127
-353.537	9.992	-0.075	-0.057
-352.523	-200.000	0.010	0.069
-351.508	-108.023	-0.028	0.006
-350.493	-86.779	-0.236	-0.073
-349.479	-70.686	-0.190	0.072
-348.464	100.130	0.240	0.280
-347.450	-102.319	0.352	-0.085
-346.435	-200.000	-0.009	0.070
-345.420	541.218	-0.062	0.149
-344.406	800.000	-0.080	0.276
-343.391	-70.383	-0.219	-0.084
-342.377	-137.829	-0.490	0.055
-341.362	-59.015	0.147	0.064
-340.348	-127.864	-0.308	-0.045
-339.333	-61.604	-0.106	0.045
-338.318	800.000	0.035	-0.143
-337.304	-120.003	0.098	0.017
-336.289	16.852	0.349	-0.278
-335.275	-200.000	-0.018	0.440
-334.260	83.565	0.155	0.170
-333.245	-138.346	0.019	0.002
-332.231	-18.153	-0.007	-0.005
-331.216	4.025	0.168	0.124
-330.202	-200.000	-0.085	0.460
-329.187	415.702	-0.156	0.334
-328.172	-43.631	0.365	0.185
-327.158	-118.701	-0.121	-0.021
-326.143	49.049	-0.105	-0.100
-325.129	-30.840	-0.272	0.155
-324.114	-71.821	0.279	-0.105
-323.099	-173.134	0.093	-0.003
-322.085	22.749	0.141	-0.116
-321.070	16.996	-0.083	0.066
-320.056	134.086	0.031	-0.041
-319.041	-200.000	-0.029	0.181
-318.026	369.722	-0.062	-0.127
-317.012	-200.000	0.007	0.155
-315.997	53.127	-0.190	0.183
-314.983	-86.795	-0.588	0.181
-313.968	498.994	0.073	-0.169
-312.953	800.000	-0.012	-0.047
-311.939	417.465	0.059	-0.127
-310.924	158.236	0.202	0.282
-309.910	-55.382	-0.054	0.024
-308.895	111.647	-0.205	-0.248
-307.880	477.014	0.290	-0.659
-306.866	-18.272	-0.383	0.241
-305.851	-102.293	0.322	0.078
-304.837	181.173	-0.054	0.079
-303.822	311.499	0.165	-0.312
-302.807	-27.775	-0.109	-0.064
-301.793	-80.925	-0.143	0.048
-300.778	-200.000	0.021	0.452
-299.764	800.000	-0.094	0.271
-298.749	240.620	0.136	0.228
-297.735	-151.916	-0.273	-0.020
-296.720	-98.860	-0.119	0.030
-295.705	-75.506	-0.148	-0.053
-294.691	68.369	0.025	-0.026
-293.676	360.545	-0.008	-0.016
-292.662	265.499	-0.137	-0.240
-291.647	183.077	-0.076	-0.113
-290.632	97.602	0.153	0.177
-289.618	800.000	0.078	-0.302
-288.603	-200.000	-0.015	-0.578
-287.589	800.000	-0.025	0.099
-286.574	-115.168	-0.172	0.033
-285.559	-121.001	-0.136	-0.023
-284.545	97.654	0.195	0.225
-283.530	-111.618	-0.396	-0.081
-282.516	-26.030	0.122	-0.072
-281.501	-69.426	0.090	-0.035
-280.486	-200.000	0.038	0.239
-279.472	10.554	0.195	0.149
-278.457	80.133	0.061	0.066
-277.443	-123.389	0.231	0.037
-276.428	-89.028	0.303	-0.090
-275.413	-9.442	-0.323	0.217
-274.399	219.645	-0.101	0.163
-273.384	72.197	-0.091	-0.095
-272.370	-150.110	0.278	-0.022
-271.355	-107.179	0.233	-0.052
-270.340	-26.235	-0.218	0.128
-269.326	-45.924	-0.287	-0.142
-268.311	-154.686	0.119	-0.008
-267.297	-129.645	-0.139	0.019
-266.282	-36.036	0.197	-0.107
-265.267	402.841	-0.059	0.125
-264.253	-200.000	0.045	-0.236
-263.238	16.446	-0.030	0.024
-262.224	-55.999	0.088	0.039
-261.209	-103.165	0.173	-0.041
-260.195	54.109	0.063	0.061
-259.180	-200.000	0.014	-0.096
-258.165	147.199	-0.103	-0.140
-257.151	60.506	0.198	0.197
-256.136	493.103	0.108	0.248
-255.122	55.812	-0.153	0.149
-254.107	-174.098	-0.194	-0.006
-253.092	-137.210	-0.137	-0.016
-252.078	-126.204	-0.168	-0.025
-251.063	187.588	-0.135	0.203
-250.049	800.000	0.102	-0.303
-249.034	-200.000	-0.045	-0.266
-248.019	15.287	-0.190	-0.150
-247.005	-20.943	0.182	0.112
-245.990	-200.000	0.008	0.303
-244.976	257.660	0.040	0.070
-243.961	800.000	-0.041	0.168
-242.946	-91.965	0.273	0.077
-241.932	-40.556	-0.153	0.080
-240.917	800.000	-0.039	0.151
-239.903	9.943	-0.130	-0.099
-238.888	-81.992	0.179	0.059
-237.873	-200.000	-0.012	0.095
-236.859	-200.000	-0.029	0.283
-235.844	-200.000	0.016	-0.251
-234.830	175.234	-0.137	0.200
-233.815	250.749	0.140	0.238
-232.800	-200.000	-0.049	0.330
-231.786	-60.691	0.237	0.101
-230.771	-154.240	-0.255	-0.017
-229.757	-200.000	0.025	0.318
-228.742	111.585	0.195	-0.236
-227.727	-99.589	0.209	-0.053
-226.713	111.990	-0.275	-0.333
-225.698	265.977	0.147	-0.257
-224.684	87.707	0.256	-0.285
-223.669	-54.955	0.071	0.032
-222.655	-18.652	0.078	0.049
-221.640	-48.566	-0.082	-0.039
-220.625	68.434	-0.098	-0.101
-219.611	-200.000	0.010	0.345
-218.596	-168.041	0.313	-0.012
-217.582	-200.000	0.051	-0.242
-216.567	-200.000	-0.032	-0.271
-215.552	152.754	0.169	-0.232
-214.538	-115.146	0.236	0.045
-213.523	98.631	-0.086	-0.100
-212.509	30.794	-0.231	0.198
-211.494	-200.000	-0.010	-0.319
-210.479	26.359	-0.218	0.182
-209.465	-59.949	-0.065	-0.028
-208.450	-114.550	0.317	0.061
-207.436	69.658	0.111	-0.114
-206.421	-143.321	0.223	-0.021
-205.406	-200.000	-0.033	0.206
-204.392	-98.790	-0.246	-0.063
-203.377	33.994	0.145	0.126
-202.363	-200.000	0.155	-0.000
-201.348	-200.000	-0.225	0.000
-200.333	21.287	-0.241	0.196
-199.319	-31.812	-0.093	-0.052
-198.304	90.339	-0.052	0.058
-197.290	20.748	-0.123	-0.100
-196.275	800.000	-0.040	-0.170
-195.260	227.879	-0.180	-0.293
-194.246	13.819	-0.114	0.089
-193.231	-158.973	-0.077	0.004
-192.217	800.000	-0.023	-0.084
-191.202	92.708	-0.163	-0.184
-190.187	-35.286	-0.252	0.137
-189.173	93.907	-0.119	-0.136
-188.158	140.155	0.120	-0.159
-187.144	-32.228	0.116	0.065
-186.129	-182.772	0.143	-0.003
-185.114	61.216	-0.059	-0.058
-184.100	-17.521	0.108	-0.068
-183.085	800.000	-0.083	-0.235
-182.071	800.000	-0.042	0.160
-181.056	-127.454	-0.154	-0.022
-180.042	128.559	-0.141	-0.180
-179.027	-143.915	0.221	-0.021
-178.012	-200.000	0.060	0.443
-176.998	-152.314	-0.196	-0.014
-175.983	-146.257	0.200	-0.018
-174.969	-200.000	-0.006	-0.164
-173.954	273.413	-0.039	0.068
-172.939	122.232	0.098	-0.122
-171.925	800.000	-0.074	-0.206
-170.910	-79.620	-0.269	-0.091
-169.896	-71.458	0.196	0.073
-168.881	-200.000	-0.019	0.103
-167.866	800.000	-0.060	-0.191
-166.852	-200.000	0.048	-0.224
-165.837	-65.715	0.100	0.040
-164.823	-200.000	0.018	0.208
-163.808	-1.265	0.272	0.192
-162.793	-110.967	0.256	-0.053
-161.779	-97.109	0.195	0.051
-160.764	31.422	-0.138	-0.119
-159.750	478.424	0.231	-0.523
-158.735	111.682	0.182	0.220
-157.720	800.000	0.041	0.159
-156.706	66.044	0.196	-0.199
-155.691	800.000	-0.026	0.083
-154.677	800.000	-0.155	0.509
-153.662	150.819	-0.131	0.178
-152.647	-32.899	-0.413	0.229
-151.633	-200.000	0.001	0.126
-150.618	-25.045	-0.252	-0.149
-149.604	362.271	0.138	-0.277
-148.589	-29.827	-0.216	0.123
-147.574	-141.701	-0.122	-0.012
-146.560	-200.000	0.050	0.505
-145.545	334.576	0.098	0.189
-144.531	-200.000	0.004	0.420
-143.516	640.462	0.106	0.269
-142.502	-137.722	-0.195	-0.022
-141.487	11.672	0.076	0.058
-140.472	20.946	0.164	0.133
-139.458	-147.347	-0.237	0.020
-138.443	-152.830	-0.139	-0.010
-137.429	-45.517	0.167	-0.083
-136.414	-4.515	0.064	-0.044
-135.399	-137.491	0.148	0.017
-134.385	74.818	0.150	-0.157
-133.370	-160.287	-0.318	-0.017
-132.356	-200.000	-0.082	-0.361
-131.341	-200.000	-0.048	-0.383
-130.326	-67.011	0.231	-0.091
-129.312	-200.000	-0.041	0.187
-128.297	-85.308	0.309	-0.096
-127.283	701.798	0.167	-0.440
-126.268	-71.717	0.232	-0.086
-125.253	-200.000	-0.029	0.159
-124.239	-132.138	0.175	-0.023
-123.224	0.434	0.202	0.144
-122.210	800.000	-0.049	0.206
-121.195	181.652	0.098	-0.144
