DTS Sentinel unit serial number:	SN413079Multiplexer serial number:	ORYXHardware model number:	OX4-SRSoftware version number:	ORYX F/W v4.00 Oryx Data Collector v3.7.2.0data status	okinstallation	princeton_trtdifferential loss correction	single-endedforward channel	channel 4reverse channel	N/Adate	2019/09/12time	23:49:34forward acquisition time	60.00reverse acquisition time	0.00gamma	496.2192k internal	0.2317k external	0.2317temperature offset calibration	1.0176default loss term (dB/km)	0.3790temperature slope calibration	1.0000multiplexer offset coefficient	1.0000multiplexer slope coefficient	1.0000fibre end	0.00T internal ref (°C)	28.80T ext. ref 1 (°C)	3.79T ext. ref 2 (°C)	23.53length (m)	temperature (°C)	Stokes	anti-Stokes-747.200	41.131	0.283	-0.259
-746.185	-137.301	-0.383	-0.044
-745.171	-200.000	0.016	-0.100
-744.156	800.000	-0.055	0.229
-743.142	791.413	0.075	-0.210
-742.127	72.539	-0.078	-0.082
-741.112	-148.066	0.163	0.014
-740.098	-101.818	-0.362	-0.089
-739.083	36.356	0.140	-0.125
-738.069	800.000	0.092	0.286
-737.054	74.586	0.244	-0.260
-736.039	-200.000	0.002	0.152
-735.025	-125.114	0.317	-0.049
-734.010	125.775	-0.124	0.158
-732.996	-51.279	-0.232	0.110
-731.981	2.472	0.137	0.101
-730.966	-56.498	-0.048	0.022
-729.952	800.000	0.024	-0.090
-728.937	-200.000	0.007	0.068
-727.923	60.260	-0.257	0.257
-726.908	800.000	0.004	-0.015
-725.894	-200.000	-0.044	-0.201
-724.879	800.000	0.106	0.309
-723.864	-134.464	-0.038	0.005
-722.850	-45.054	0.024	-0.012
-721.835	-200.000	0.060	-0.411
-720.821	-105.846	-0.262	0.060
-719.806	-200.000	-0.053	0.370
-718.791	-118.377	0.063	-0.011
-717.777	320.727	-0.158	0.304
-716.762	59.498	-0.143	-0.143
-715.748	-123.289	0.128	0.021
-714.733	-109.158	-0.247	-0.053
-713.718	-200.000	0.000	0.047
-712.704	-200.000	0.035	0.242
-711.689	-32.667	0.174	-0.098
-710.675	-106.165	-0.137	0.031
-709.660	292.741	0.133	-0.245
-708.645	-104.709	0.562	-0.131
-707.631	28.335	-0.186	-0.159
-706.616	616.955	-0.128	-0.324
-705.602	-7.700	0.154	-0.105
-704.587	27.036	-0.300	0.255
-703.572	-86.817	0.108	-0.033
-702.558	-200.000	-0.025	0.160
-701.543	35.722	-0.160	0.142
-700.529	684.802	0.106	-0.280
-699.514	-127.489	0.197	-0.029
-698.499	370.538	-0.128	-0.262
-697.485	254.409	-0.074	-0.128
-696.470	-2.257	-0.212	0.150
-695.456	-118.838	0.140	-0.025
-694.441	-200.000	0.036	-0.424
-693.426	77.577	-0.128	-0.137
-692.412	-59.556	-0.017	0.007
-691.397	-25.442	0.286	0.171
-690.383	800.000	-0.067	0.290
-689.368	-200.000	-0.011	0.135
-688.354	-123.108	-0.054	0.009
-687.339	135.178	-0.115	-0.151
-686.324	-200.000	0.040	0.276
-685.310	-200.000	-0.014	-0.072
-684.295	-200.000	0.005	-0.138
-683.281	-31.239	-0.311	0.177
-682.266	-200.000	-0.015	-0.105
-681.251	-169.704	0.161	0.006
-680.237	-29.716	0.108	0.062
-679.222	68.206	-0.098	0.102
-678.208	-74.466	0.189	0.069
-677.193	-108.159	-0.128	0.028
-676.178	28.316	-0.162	-0.139
-675.164	800.000	0.013	-0.049
-674.149	187.755	0.262	-0.395
-673.135	-18.291	0.231	0.146
-672.120	-54.042	-0.086	0.040
-671.105	-142.634	0.076	0.008
-670.091	157.079	0.024	0.033
-669.076	-26.833	0.469	-0.276
-668.062	41.104	-0.308	-0.281
-667.047	800.000	0.058	0.166
-666.032	284.264	0.220	-0.400
-665.018	155.883	-0.184	-0.256
-664.003	46.706	0.257	-0.241
-662.989	143.539	0.132	0.177
-661.974	-200.000	0.054	-0.524
-660.959	717.634	0.044	-0.117
-659.945	-57.245	-0.210	0.093
-658.930	-88.900	-0.223	-0.067
-657.916	71.908	-0.034	0.036
-656.901	-29.504	0.370	-0.213
-655.886	-200.000	-0.022	0.177
-654.872	679.164	0.120	0.315
-653.857	165.414	0.093	0.132
-652.843	-57.892	-0.252	0.111
-651.828	28.100	0.224	0.191
-650.814	22.772	0.260	-0.215
-649.799	131.170	0.063	0.081
-648.784	-76.189	-0.263	-0.094
-647.770	-200.000	-0.034	-0.327
-646.755	25.281	-0.265	-0.222
-645.741	-17.372	-0.223	-0.141
-644.726	-89.641	-0.101	-0.030
-643.711	-10.316	0.265	-0.177
-642.697	73.459	0.133	-0.141
-641.682	-200.000	-0.103	0.000
-640.668	800.000	-0.057	-0.238
-639.653	473.021	0.080	-0.182
-638.638	-7.025	-0.162	-0.111
-637.624	39.903	-0.313	-0.284
-636.609	141.661	-0.109	-0.145
-635.595	-29.742	-0.075	-0.043
-634.580	306.267	-0.034	0.063
-633.565	-200.000	-0.030	0.245
-632.551	-190.039	0.188	-0.002
-631.536	577.299	0.118	0.291
-630.522	-77.724	-0.161	-0.056
-629.507	-84.372	-0.217	-0.069
-628.492	-200.000	-0.017	0.262
-627.478	479.988	0.033	0.076
-626.463	-200.000	0.026	0.217
-625.449	-200.000	-0.005	-0.148
-624.434	800.000	-0.036	0.128
-623.419	-200.000	0.015	-0.151
-622.405	-13.120	-0.054	-0.036
-621.390	800.000	0.095	-0.284
-620.376	236.971	0.157	-0.262
-619.361	-174.733	-0.159	0.005
-618.346	8.129	-0.258	0.195
-617.332	202.157	0.083	-0.128
-616.317	-87.931	-0.091	0.028
-615.303	-77.799	0.396	-0.138
-614.288	-20.772	0.088	-0.054
-613.273	-200.000	-0.023	0.199
-612.259	308.661	0.129	0.243
-611.244	-123.128	-0.479	0.077
-610.230	-103.509	-0.393	-0.093
-609.215	-87.077	0.228	-0.070
-608.201	-91.889	-0.265	-0.076
-607.186	800.000	-0.044	0.124
-606.171	137.159	0.038	-0.049
-605.157	800.000	0.104	0.308
-604.142	425.626	0.098	-0.213
-603.128	109.857	-0.084	-0.101
-602.113	274.482	0.156	-0.279
-601.098	-158.666	0.283	-0.016
-600.084	-69.674	-0.145	-0.056
-599.069	92.697	-0.199	0.226
-598.055	-113.636	-0.161	0.032
-597.040	-14.507	-0.416	0.270
-596.025	194.967	-0.135	0.207
-595.011	139.739	-0.230	0.305
-593.996	-200.000	-0.027	0.235
-592.982	-12.049	0.308	-0.203
-591.967	-52.028	0.232	-0.109
-590.952	-121.671	-0.016	0.003
-589.938	-70.737	0.160	-0.061
-588.923	19.533	0.039	0.032
-587.909	1.550	-0.135	-0.098
-586.894	-25.728	0.268	0.159
-585.879	-25.828	-0.115	-0.068
-584.865	27.538	-0.252	0.213
-583.850	-96.139	0.152	0.041
-582.836	72.526	-0.310	0.326
-581.821	186.652	-0.253	0.379
-580.806	-200.000	0.008	-0.183
-579.792	-85.525	-0.024	-0.008
-578.777	-56.533	0.145	0.065
-577.763	-29.723	0.134	-0.077
-576.748	-200.000	-0.027	0.312
-575.733	116.202	0.116	-0.143
-574.719	35.193	0.242	-0.214
-573.704	-200.000	0.054	0.262
-572.690	800.000	-0.030	-0.107
-571.675	40.410	-0.266	-0.241
-570.661	-82.381	0.057	-0.019
-569.646	283.370	0.121	-0.219
-568.631	-164.929	-0.387	-0.017
-567.617	-71.310	0.283	0.107
-566.602	-160.045	-0.212	0.012
-565.588	88.790	0.130	-0.146
-564.573	239.479	0.066	-0.111
-563.558	121.347	0.156	0.195
-562.544	179.039	-0.176	0.259
-561.529	-61.235	0.109	-0.046
-560.515	22.590	0.108	-0.089
-559.500	66.147	0.113	0.115
-558.485	51.581	-0.133	-0.127
-557.471	5.339	-0.177	0.131
-556.456	-137.912	0.061	-0.007
-555.442	6.249	0.087	-0.065
-554.427	40.750	-0.079	-0.071
-553.412	207.900	0.211	0.331
-552.398	-140.570	0.154	-0.016
-551.383	-101.662	-0.230	0.056
-550.369	148.486	0.221	0.300
-549.354	-29.508	-0.026	-0.015
-548.339	284.487	0.092	0.167
-547.325	132.494	-0.060	0.077
-546.310	297.483	0.175	0.324
-545.296	-200.000	-0.002	-0.100
-544.281	0.640	-0.287	-0.206
-543.266	28.146	0.113	-0.096
-542.252	268.393	-0.057	-0.100
-541.237	770.812	-0.022	0.060
-540.223	205.503	-0.255	-0.397
-539.208	72.533	-0.227	0.238
-538.193	84.703	0.121	-0.133
-537.179	522.130	0.050	-0.117
-536.164	-118.221	0.172	-0.031
-535.150	-40.312	0.048	-0.025
-534.135	13.994	-0.202	0.158
-533.121	-115.925	-0.201	-0.038
-532.106	118.249	-0.116	-0.143
-531.091	-49.091	0.154	0.074
-530.077	-35.783	0.135	0.074
-529.062	72.563	0.048	-0.050
-528.048	-1.208	-0.125	0.089
-527.033	-88.621	0.030	-0.009
-526.018	-88.815	-0.204	-0.061
-525.004	-200.000	-0.000	-0.352
-523.989	800.000	0.086	0.348
-522.975	-200.000	-0.062	0.332
-521.960	235.827	-0.196	-0.325
-520.945	-53.011	0.090	0.042
-519.931	234.313	0.134	0.221
-518.916	89.223	0.027	-0.030
-517.902	168.660	-0.232	-0.332
-516.887	354.368	-0.222	-0.444
-515.872	-23.297	0.143	-0.086
-514.858	260.246	-0.089	0.155
-513.843	46.097	0.057	0.053
-512.829	-92.975	0.178	0.050
-511.814	800.000	-0.118	-0.369
-510.799	800.000	-0.026	0.103
-509.785	-81.644	0.411	0.135
-508.770	-110.584	-0.137	0.028
-507.756	-72.690	-0.152	0.056
-506.741	576.315	0.038	0.094
-505.726	-115.587	-0.074	0.014
-504.712	-110.790	0.144	0.030
-503.697	-61.689	-0.220	0.093
-502.683	12.989	-0.194	-0.150
-501.668	59.068	0.185	0.182
-500.653	-200.000	-0.008	0.170
-499.639	-72.204	-0.172	0.064
-498.624	738.220	-0.037	0.100
-497.610	-79.449	-0.115	0.039
-496.595	-11.194	0.168	0.111
-495.581	800.000	0.039	-0.141
-494.566	-3.169	0.314	0.219
-493.551	354.322	0.061	0.122
-492.537	402.440	0.077	-0.163
-491.522	800.000	-0.067	0.207
-490.508	-11.538	-0.190	0.125
-489.493	99.780	-0.081	0.094
-488.478	174.288	0.168	0.243
-487.464	155.596	0.118	0.163
-486.449	254.016	0.168	-0.287
-485.435	-90.311	0.315	0.092
-484.420	-200.000	0.018	-0.271
-483.405	-200.000	-0.071	0.405
-482.391	329.190	-0.202	-0.389
-481.376	-200.000	0.016	-0.175
-480.362	124.080	0.122	0.153
-479.347	-163.660	-0.080	-0.004
-478.332	-200.000	-0.086	-0.392
-477.318	-58.892	0.399	0.173
-476.303	-200.000	-0.019	0.193
-475.289	0.583	-0.107	-0.077
-474.274	421.515	0.075	-0.160
-473.259	-134.276	-0.093	0.011
-472.245	-171.324	0.046	-0.002
-471.230	146.676	-0.156	0.210
-470.216	289.308	-0.131	-0.237
-469.201	-54.881	-0.171	0.077
-468.186	-54.731	-0.091	-0.041
-467.172	100.633	-0.194	-0.226
-466.157	-10.150	0.346	0.230
-465.143	-200.000	0.007	-0.099
-464.128	-94.442	-0.271	-0.074
-463.113	-63.919	-0.196	0.080
-462.099	800.000	-0.116	0.408
-461.084	-200.000	-0.006	-0.098
-460.070	-123.880	0.460	-0.073
-459.055	-86.349	-0.423	-0.130
-458.040	800.000	-0.038	-0.142
-457.026	-113.932	0.064	0.013
-456.011	207.666	0.045	0.070
-454.997	-200.000	0.039	0.247
-453.982	273.267	-0.165	-0.291
-452.968	190.613	0.117	-0.177
-451.953	252.197	-0.108	0.185
-450.938	-75.502	-0.268	0.096
-449.924	18.562	0.063	0.050
-448.909	800.000	0.041	-0.131
-447.895	52.777	-0.129	-0.124
-446.880	-200.000	0.032	-0.154
-445.865	-200.000	-0.041	-0.275
-444.851	10.575	-0.205	-0.157
-443.836	-200.000	0.032	-0.263
-442.822	405.374	-0.095	-0.202
-441.807	78.589	-0.289	0.309
-440.792	800.000	-0.057	-0.228
-439.778	-87.411	0.257	-0.078
-438.763	-6.110	-0.154	-0.105
-437.749	-97.456	-0.096	-0.025
-436.734	179.973	0.233	-0.342
-435.719	-200.000	-0.004	-0.027
-434.705	478.274	0.147	0.332
-433.690	346.345	-0.039	-0.076
-432.676	23.338	-0.134	0.110
-431.661	800.000	0.072	0.219
-430.646	591.842	-0.144	-0.355
-429.632	60.982	-0.192	-0.190
-428.617	-200.000	-0.021	-0.309
-427.603	654.066	-0.130	0.333
-426.588	-25.676	0.033	-0.019
-425.573	-200.000	0.022	0.144
-424.559	37.790	0.300	0.267
-423.544	-200.000	-0.030	-0.227
-422.530	16.367	0.194	0.153
-421.515	369.471	-0.022	-0.044
-420.500	565.582	0.031	-0.074
-419.486	-160.850	-0.150	-0.008
-418.471	-200.000	-0.042	0.396
-417.457	-45.605	0.326	0.161
-416.442	-154.642	0.349	-0.023
-415.428	-49.191	0.320	0.153
-414.413	320.424	0.127	0.242
-413.398	800.000	0.032	-0.109
-412.384	-33.643	0.061	0.033
-411.369	800.000	-0.115	0.408
-410.355	175.439	-0.067	-0.098
-409.340	191.584	-0.080	-0.121
-408.325	34.627	-0.180	0.157
-407.311	-103.207	-0.137	0.032
-406.296	446.448	0.028	-0.062
-405.282	-8.864	0.075	-0.050
-404.267	194.049	-0.068	0.102
-403.252	145.928	0.065	0.087
-402.238	-200.000	0.037	-0.248
-401.223	800.000	0.066	-0.244
-400.209	-21.870	-0.090	0.055
-399.194	-89.710	-0.097	0.028
-398.179	-200.000	-0.019	0.495
-397.165	-134.665	0.020	-0.002
-396.150	-107.793	-0.096	-0.021
-395.136	-200.000	0.003	0.093
-394.121	-103.369	0.201	-0.047
-393.106	-184.744	-0.285	0.005
-392.092	442.761	0.037	-0.081
-391.077	-80.843	0.162	0.054
-390.063	-200.000	-0.014	0.108
-389.048	30.234	-0.136	0.116
-388.033	203.784	0.182	-0.281
-387.019	-136.185	0.172	-0.020
-386.004	628.317	-0.125	0.316
-384.990	-191.925	0.310	-0.003
-383.975	-129.291	0.319	-0.044
-382.960	-200.000	0.033	0.201
-381.946	-172.132	-0.173	0.006
-380.931	115.414	-0.093	0.113
-379.917	-53.106	-0.246	0.113
-378.902	-103.089	-0.276	0.065
-377.888	182.422	-0.127	0.187
-376.873	-200.000	0.007	-0.124
-375.858	-148.667	0.271	0.022
-374.844	-54.596	0.143	-0.065
-373.829	-138.117	-0.352	-0.039
-372.815	-143.783	-0.118	-0.011
-371.800	800.000	0.059	0.187
-370.785	-26.403	-0.137	-0.080
-369.771	409.648	0.216	0.456
-368.756	-46.047	-0.056	-0.028
-367.742	-152.445	0.080	-0.006
-366.727	80.675	-0.089	-0.096
-365.712	-162.975	-0.286	-0.014
-364.698	-200.000	0.024	0.163
-363.683	80.593	-0.050	-0.054
-362.669	-200.000	0.008	-0.137
-361.654	24.463	0.387	0.320
-360.639	-132.311	0.185	0.024
-359.625	107.081	-0.319	0.378
-358.610	-29.420	0.148	0.085
-357.596	-61.188	-0.098	-0.041
-356.581	226.371	0.222	0.359
-355.566	122.859	0.151	-0.189
-354.552	-200.000	-0.022	-0.129
-353.537	-63.210	-0.134	-0.055
-352.523	-71.087	-0.200	-0.075
-351.508	-8.359	-0.197	0.132
-350.493	144.135	-0.188	0.250
-349.479	194.722	-0.119	0.180
-348.464	407.941	0.038	0.079
-347.450	32.594	-0.264	-0.227
-346.435	-1.632	-0.108	-0.076
-345.420	-200.000	0.030	0.214
-344.406	617.260	0.118	-0.294
-343.391	80.657	0.053	0.057
-342.377	70.917	-0.366	-0.378
-341.362	355.462	-0.151	-0.300
-340.348	-55.622	0.053	0.024
-339.333	-180.313	-0.089	0.002
-338.318	-132.610	-0.146	0.019
-337.304	800.000	-0.040	0.143
-336.289	142.849	0.261	-0.345
-335.275	-200.000	-0.024	-0.279
-334.260	-15.143	0.069	0.044
-333.245	-86.992	-0.386	0.117
-332.231	-200.000	-0.002	-0.015
-331.216	1.811	0.122	-0.088
-330.202	-135.435	-0.062	0.007
-329.187	21.080	0.399	0.322
-328.172	-82.584	0.100	0.032
-327.158	61.220	-0.153	0.151
-326.143	-53.409	-0.108	0.049
-325.129	-144.652	0.256	0.023
-324.114	64.856	0.113	-0.114
-323.099	-151.592	0.492	0.036
-322.085	-200.000	-0.016	0.361
-321.070	-200.000	0.015	-0.220
-320.056	-14.767	-0.114	0.073
-319.041	-94.103	0.154	-0.042
-318.026	438.210	0.041	-0.090
-317.012	800.000	-0.091	0.314
-315.997	297.369	-0.104	0.190
-314.983	800.000	-0.083	0.323
-313.968	267.828	0.058	0.100
-312.953	-10.614	0.084	0.056
-311.939	587.257	0.044	0.108
-310.924	800.000	0.025	0.081
-309.910	-200.000	-0.014	0.243
-308.895	-159.906	-0.368	0.020
-307.880	-118.163	0.383	0.068
-306.866	-102.856	0.336	0.080
-305.851	20.103	0.172	0.138
-304.837	96.071	0.052	-0.060
-303.822	800.000	-0.110	-0.384
-302.807	800.000	0.049	-0.135
-301.793	150.415	0.097	0.131
-300.778	77.468	-0.071	-0.075
-299.764	-32.508	-0.356	0.198
-298.749	-200.000	0.066	-0.485
-297.735	-200.000	-0.004	0.315
-296.720	575.544	-0.065	0.159
-295.705	11.297	0.097	-0.074
-294.691	48.904	0.238	0.223
-293.676	202.141	-0.183	0.281
-292.662	297.473	-0.031	0.056
-291.647	-46.393	-0.069	0.034
-290.632	-169.984	0.098	-0.003
-289.618	800.000	-0.024	0.093
-288.603	-200.000	0.012	0.189
-287.589	-139.644	-0.172	0.018
-286.574	800.000	0.050	0.194
-285.559	-26.697	-0.307	0.179
-284.545	800.000	-0.047	-0.163
-283.530	-74.359	0.437	-0.157
-282.516	800.000	-0.067	-0.202
-281.501	-160.283	-0.297	0.016
-280.486	557.810	0.019	0.045
-279.472	-59.241	-0.329	-0.141
-278.457	-98.880	-0.110	0.028
-277.443	-200.000	0.036	0.225
-276.428	800.000	-0.049	-0.194
-275.413	-200.000	0.011	0.297
-274.399	37.782	0.042	0.037
-273.384	800.000	0.056	-0.222
-272.370	-22.835	0.187	-0.112
-271.355	104.495	0.120	-0.141
-270.340	-200.000	0.039	0.202
-269.326	-23.620	0.201	0.120
-268.311	-58.133	0.316	-0.137
-267.297	15.878	-0.134	-0.105
-266.282	-200.000	-0.027	0.118
-265.267	-113.205	-0.181	-0.035
-264.253	13.437	0.113	-0.087
-263.238	-24.100	0.313	-0.186
-262.224	30.447	0.047	0.040
-261.209	-115.735	-0.360	0.067
-260.195	619.353	0.025	0.063
-259.180	-131.567	0.214	0.028
-258.165	800.000	-0.004	0.015
-257.151	-200.000	0.090	0.000
-256.136	361.705	-0.074	-0.148
-255.122	-62.914	-0.285	-0.117
-254.107	-142.031	0.136	-0.013
-253.092	-65.404	-0.253	-0.101
-252.078	87.632	0.152	0.167
-251.063	287.787	-0.081	0.146
-250.049	231.922	-0.138	-0.225
-249.034	49.690	0.083	-0.077
-248.019	512.238	-0.027	0.061
-247.005	-10.044	0.150	0.099
-245.990	791.751	-0.044	-0.120
-244.976	-91.012	0.375	-0.107
-243.961	-52.042	-0.308	-0.142
-242.946	112.910	-0.221	-0.266
-241.932	-98.413	-0.190	-0.048
-240.917	800.000	0.041	-0.116
-239.903	-200.000	0.031	0.178
-238.888	-52.740	-0.114	0.052
-237.873	50.469	0.095	-0.089
-236.859	-97.322	-0.255	0.066
-235.844	180.904	-0.106	0.154
-234.830	-66.897	0.282	-0.111
-233.815	174.344	0.067	-0.096
-232.800	-168.011	0.171	0.007
-231.786	203.861	-0.031	0.048
-230.771	-200.000	-0.036	0.180
-229.757	228.939	-0.123	-0.199
-228.742	20.289	0.231	0.185
-227.727	342.831	0.034	0.066
-226.713	-200.000	-0.018	0.083
-225.698	-32.222	0.646	0.358
-224.684	106.632	-0.123	0.145
-223.669	-72.395	0.269	-0.099
-222.655	-9.249	0.314	-0.208
-221.640	30.440	-0.252	-0.214
-220.625	800.000	-0.118	0.375
-219.611	-148.006	0.112	-0.009
-218.596	-177.795	0.281	-0.007
-217.582	2.602	0.248	-0.178
-216.567	-88.701	0.231	0.068
-215.552	-148.307	-0.222	-0.018
-214.538	37.953	0.203	-0.179
-213.523	-84.462	0.169	-0.053
-212.509	56.269	0.152	0.147
-211.494	-147.814	0.249	0.021
-210.479	132.514	0.116	0.149
-209.465	109.931	0.129	-0.153
-208.450	190.433	-0.094	-0.140
-207.436	-68.356	-0.266	-0.102
-206.421	800.000	-0.131	-0.407
-205.406	-81.722	0.062	0.020
-204.392	375.053	0.102	-0.206
-203.377	-188.021	-0.169	0.002
-202.363	68.837	0.178	0.181
-201.348	-200.000	-0.012	-0.091
-200.333	91.612	0.083	-0.093
-199.319	79.044	0.161	0.171
-198.304	-82.326	-0.082	-0.026
-197.290	357.813	-0.135	-0.266
-196.275	-93.239	0.224	0.062
-195.260	101.717	-0.096	-0.111
-194.246	467.675	0.040	0.088
-193.231	800.000	0.066	0.260
-192.217	-29.128	0.232	-0.132
-191.202	231.209	-0.035	0.056
-190.187	493.655	-0.103	-0.234
-189.173	-200.000	-0.015	0.116
-188.158	-86.132	-0.222	-0.068
-187.144	800.000	0.060	0.208
-186.129	137.230	0.062	-0.081
-185.114	-200.000	0.003	-0.432
-184.100	119.238	0.133	-0.163
-183.085	-107.163	-0.297	-0.065
-182.071	-93.882	0.246	0.067
-181.056	800.000	0.167	-0.642
-180.042	-40.059	-0.360	0.186
-179.027	81.736	0.287	-0.308
-178.012	800.000	-0.013	-0.052
-176.998	-200.000	-0.052	0.227
-175.983	-131.930	-0.313	0.040
-174.969	-18.274	0.127	-0.079
-173.954	-42.337	-0.199	-0.100
-172.939	-46.958	0.118	-0.057
-171.925	-110.343	0.123	-0.025
-170.910	-200.000	0.019	-0.225
-169.896	-104.135	-0.158	0.036
-168.881	-74.494	0.254	0.090
-167.866	268.814	0.119	-0.207
-166.852	-23.535	0.036	-0.022
-165.837	-200.000	-0.012	-0.170
-164.823	-200.000	-0.039	-0.387
-163.808	-56.452	0.262	0.115
-162.793	-36.131	0.232	0.124
-161.779	86.969	0.235	-0.257
-160.764	374.837	0.196	-0.395
-159.750	-16.355	0.148	0.093
-158.735	413.713	0.213	-0.448
-157.720	88.021	0.206	0.226
-156.706	-11.441	-0.295	0.192
-155.691	-125.025	-0.377	0.057
-154.677	-200.000	0.013	-0.246
-153.662	238.562	0.113	-0.185
-152.647	32.333	-0.163	0.140
-151.633	-6.910	-0.072	0.049
-150.618	800.000	0.105	0.451
-149.604	381.316	-0.084	-0.171
-148.589	283.474	0.162	-0.288
-147.574	360.052	0.065	-0.129
-146.560	800.000	0.104	-0.429
-145.545	800.000	0.029	-0.103
-144.531	-131.058	-0.148	0.019
-143.516	-143.938	0.216	0.020
-142.502	143.893	0.043	0.056
-141.487	347.545	-0.159	-0.310
-140.472	-121.020	0.388	0.064
-139.458	-35.791	0.146	0.078
-138.443	800.000	0.096	-0.342
-137.429	36.591	-0.137	0.119
-136.414	54.768	-0.128	-0.122
-135.399	-86.409	0.121	-0.037
-134.385	-4.913	0.423	0.288
-133.370	404.010	-0.076	0.158
-132.356	107.335	0.164	-0.193
-131.341	118.630	-0.092	0.112
-130.326	-147.469	-0.349	0.029
-129.312	-65.661	0.230	0.091
-128.297	-200.000	0.047	0.385
-127.283	-104.085	-0.385	-0.089
-126.268	146.409	0.103	0.136
-125.253	31.258	0.138	-0.117
-124.239	11.460	0.161	-0.122
-123.224	-16.623	-0.138	-0.086
-122.210	-200.000	0.037	-0.229
-121.195	-7.996	-0.141	0.094
