DTS Sentinel unit serial number:	SN413079Multiplexer serial number:	ORYXHardware model number:	OX4-SRSoftware version number:	ORYX F/W v4.00 Oryx Data Collector v3.7.2.0data status	okinstallation	princeton_trtdifferential loss correction	single-endedforward channel	channel 4reverse channel	N/Adate	2019/09/14time	22:45:34forward acquisition time	60.00reverse acquisition time	0.00gamma	496.2192k internal	0.2306k external	0.2306temperature offset calibration	1.0062default loss term (dB/km)	0.3790temperature slope calibration	1.0000multiplexer offset coefficient	1.0000multiplexer slope coefficient	1.0000fibre end	0.00T internal ref (°C)	32.50T ext. ref 1 (°C)	4.67T ext. ref 2 (°C)	27.51length (m)	temperature (°C)	Stokes	anti-Stokes-747.200	30.040	-0.266	0.231
-746.185	800.000	0.072	0.275
-745.171	-59.310	-0.336	0.147
-744.156	-10.290	-0.318	-0.215
-743.142	-122.120	-0.240	-0.040
-742.127	-44.806	0.315	0.160
-741.112	-133.927	-0.401	-0.051
-740.098	800.000	0.103	0.308
-739.083	-81.299	-0.252	-0.084
-738.069	-200.000	-0.060	0.357
-737.054	-150.169	-0.265	-0.021
-736.039	-38.017	-0.263	-0.142
-735.025	-154.520	0.522	0.035
-734.010	800.000	-0.072	0.287
-732.996	-21.047	-0.238	0.148
-731.981	-108.494	-0.198	-0.043
-730.966	247.468	-0.257	0.441
-729.952	-33.248	-0.170	0.096
-728.937	-73.647	-0.184	-0.068
-727.923	114.052	0.133	-0.165
-726.908	-89.177	-0.245	0.073
-725.894	-200.000	0.060	-0.353
-724.879	-200.000	0.042	-0.198
-723.864	-200.000	0.016	-0.145
-722.850	97.753	-0.293	-0.343
-721.835	184.353	0.118	-0.177
-720.821	80.438	-0.172	-0.189
-719.806	800.000	0.007	0.026
-718.791	-200.000	0.023	0.334
-717.777	-34.090	-0.221	-0.124
-716.762	-91.491	-0.113	0.033
-715.748	-200.000	-0.036	0.214
-714.733	65.165	-0.014	0.014
-713.718	487.901	-0.107	-0.249
-712.704	-200.000	-0.038	-0.242
-711.689	-88.802	0.048	0.015
-710.675	-200.000	0.023	0.223
-709.660	-85.481	-0.346	0.110
-708.645	-29.574	0.161	0.094
-707.631	-200.000	0.094	0.667
-706.616	800.000	0.054	0.155
-705.602	-6.455	-0.286	-0.198
-704.587	222.296	-0.112	-0.182
-703.572	800.000	-0.084	0.292
-702.558	209.214	-0.150	-0.239
-701.543	176.541	0.068	0.101
-700.529	157.927	0.061	-0.085
-699.514	-200.000	-0.067	-0.421
-698.499	101.830	-0.196	-0.232
-697.485	-41.153	-0.287	-0.151
-696.470	-21.026	-0.226	-0.140
-695.456	117.009	0.170	-0.212
-694.441	-166.747	-0.200	-0.008
-693.426	47.473	-0.049	0.047
-692.412	16.788	0.155	-0.125
-691.397	-12.555	0.171	-0.113
-690.383	-125.036	-0.190	-0.030
-689.368	196.707	-0.066	-0.101
-688.354	-133.897	-0.306	0.039
-687.339	-132.661	-0.216	-0.028
-686.324	188.802	0.083	-0.126
-685.310	-25.527	-0.207	-0.124
-684.295	80.371	0.196	-0.214
-683.281	211.746	-0.206	0.329
-682.266	-91.824	-0.160	-0.046
-681.251	-82.305	-0.318	0.105
-680.237	29.349	-0.113	-0.097
-679.222	-54.154	-0.114	-0.053
-678.208	-145.220	0.449	0.041
-677.193	-200.000	0.010	0.128
-676.178	-9.796	-0.335	-0.227
-675.164	490.308	0.097	0.224
-674.149	-66.755	-0.400	-0.161
-673.135	250.802	0.042	0.073
-672.120	-58.642	0.160	-0.070
-671.105	800.000	-0.072	-0.224
-670.091	800.000	-0.111	0.334
-669.076	800.000	-0.071	-0.291
-668.062	29.775	0.169	0.146
-667.047	-86.362	-0.474	-0.148
-666.032	748.723	0.043	0.118
-665.018	-50.268	-0.379	0.182
-664.003	638.755	0.108	-0.278
-662.989	19.290	0.185	0.151
-661.974	-27.451	-0.129	0.076
-660.959	-155.831	-0.452	-0.029
-659.945	-52.261	-0.171	0.080
-658.930	-200.000	-0.035	-0.377
-657.916	-36.622	-0.339	0.185
-656.901	667.705	-0.114	-0.300
-655.886	800.000	0.080	-0.298
-654.872	-106.217	0.199	0.045
-653.857	800.000	0.019	0.068
-652.843	-21.311	0.073	-0.045
-651.828	41.531	-0.105	0.097
-650.814	106.462	0.147	-0.177
-649.799	-52.988	-0.232	-0.108
-648.784	232.513	-0.192	-0.320
-647.770	738.642	-0.021	0.056
-646.755	-170.498	-0.233	0.008
-645.741	141.744	-0.211	0.283
-644.726	209.180	0.175	-0.278
-643.711	-125.968	-0.205	0.031
-642.697	-200.000	0.006	0.369
-641.682	90.023	-0.266	-0.302
-640.668	-73.212	-0.037	0.014
-639.653	-109.931	-0.124	0.026
-638.638	78.009	0.121	-0.131
-637.624	-131.995	0.336	0.044
-636.609	547.390	-0.092	-0.222
-635.595	606.065	-0.032	-0.081
-634.580	-173.628	-0.286	0.009
-633.565	84.099	-0.304	-0.337
-632.551	-200.000	-0.032	0.152
-631.536	-38.876	-0.246	0.131
-630.522	50.365	0.063	-0.061
-629.507	-22.163	0.087	-0.053
-628.492	95.307	0.185	0.214
-627.478	392.223	-0.028	0.059
-626.463	20.575	-0.362	-0.296
-625.449	-2.774	-0.068	-0.048
-624.434	-181.644	0.427	-0.008
-623.419	796.443	-0.068	-0.190
-622.405	331.540	0.031	0.060
-621.390	5.143	0.317	-0.237
-620.376	-171.524	-0.359	-0.012
-619.361	286.350	-0.101	-0.185
-618.346	-111.639	-0.114	-0.023
-617.332	51.723	0.255	-0.246
-616.317	49.127	-0.097	0.092
-615.303	-200.000	0.010	-0.100
-614.288	800.000	0.081	0.262
-613.273	122.508	0.045	0.057
-612.259	-145.527	0.143	-0.013
-611.244	800.000	0.026	-0.096
-610.230	-136.966	-0.148	-0.017
-609.215	-200.000	-0.050	0.312
-608.201	-200.000	-0.008	0.110
-607.186	72.583	0.076	-0.080
-606.171	125.608	0.172	-0.220
-605.157	-7.652	0.322	0.220
-604.142	262.201	-0.118	-0.207
-603.128	-151.085	0.220	-0.017
-602.113	250.063	-0.222	-0.381
-601.098	-200.000	0.001	0.070
-600.084	87.268	-0.075	0.084
-599.069	152.877	0.268	-0.371
-598.055	333.017	-0.063	0.124
-597.040	-188.568	-0.433	-0.005
-596.025	267.339	-0.010	-0.017
-595.011	88.312	0.086	-0.097
-593.996	-65.434	0.213	-0.087
-592.982	-60.392	0.226	0.097
-591.967	800.000	0.046	-0.135
-590.952	79.572	0.099	0.108
-589.938	121.513	0.178	-0.224
-588.923	114.005	-0.144	-0.177
-587.909	747.483	0.102	-0.278
-586.894	108.210	0.189	-0.228
-585.879	-75.782	0.254	-0.091
-584.865	-71.866	0.167	-0.063
-583.850	153.574	-0.106	-0.147
-582.836	-100.038	-0.162	-0.041
-581.821	-86.828	0.188	-0.058
-580.806	-85.139	-0.199	-0.063
-579.792	10.563	-0.275	0.212
-578.777	800.000	0.059	0.195
-577.763	-44.935	-0.222	-0.112
-576.748	-74.419	-0.100	-0.036
-575.733	-200.000	-0.041	-0.361
-574.719	-89.864	-0.118	-0.035
-573.704	-200.000	0.025	-0.210
-572.690	-46.735	0.297	-0.147
-571.675	-200.000	-0.000	0.246
-570.661	-59.834	0.204	0.088
-569.646	97.462	-0.151	-0.176
-568.631	320.060	0.071	0.136
-567.617	-200.000	0.010	0.064
-566.602	-0.680	-0.340	-0.243
-565.588	138.683	0.107	0.141
-564.573	51.565	0.161	0.154
-563.558	137.420	-0.108	-0.143
-562.544	-57.394	-0.156	-0.069
-561.529	159.832	-0.109	0.154
-560.515	-101.360	-0.117	0.029
-559.500	53.349	-0.125	0.121
-558.485	-200.000	0.164	-0.000
-557.471	288.887	0.145	-0.265
-556.456	-200.000	0.010	0.000
-555.442	159.802	-0.241	0.340
-554.427	112.105	-0.119	0.145
-553.412	800.000	0.144	-0.403
-552.398	-76.652	0.158	0.056
-551.383	-70.752	0.209	-0.080
-550.369	-126.248	-0.093	0.014
-549.354	305.552	0.114	0.214
-548.339	87.198	0.128	0.142
-547.325	11.118	0.136	0.105
-546.310	-0.942	-0.068	-0.048
-545.296	-78.849	0.316	-0.109
-544.281	-54.483	-0.222	0.102
-543.266	151.380	-0.161	-0.222
-542.252	305.769	-0.097	-0.183
-541.237	-200.000	0.002	0.060
-540.223	341.574	-0.127	0.250
-539.208	-35.810	0.261	-0.143
-538.193	-49.382	0.183	0.088
-537.179	454.737	-0.064	-0.144
-536.164	800.000	-0.080	-0.349
-535.150	53.374	-0.163	0.158
-534.135	-200.000	-0.011	-0.109
-533.121	-200.000	-0.067	0.327
-532.106	-200.000	0.008	0.430
-531.091	180.658	-0.167	0.247
-530.077	-54.159	-0.389	-0.178
-529.062	304.582	-0.099	0.186
-528.048	-85.337	-0.122	0.038
-527.033	-68.068	-0.125	-0.049
-526.018	202.676	0.116	-0.181
-525.004	-65.954	-0.094	-0.038
-523.989	-34.750	0.266	0.147
-522.975	79.151	0.160	0.173
-521.960	-114.188	0.159	0.031
-520.945	-111.168	0.142	0.029
-519.931	800.000	-0.024	-0.099
-518.916	-67.296	0.268	-0.106
-517.902	1.719	0.318	-0.231
-516.887	212.001	0.077	-0.122
-515.872	565.817	-0.067	-0.164
-514.858	-94.702	0.289	0.079
-513.843	148.103	0.106	0.144
-512.829	800.000	0.068	-0.230
-511.814	800.000	-0.049	0.173
-510.799	-21.456	0.133	0.082
-509.785	130.594	-0.056	0.072
-508.770	494.257	-0.149	0.345
-507.756	-110.219	0.270	0.057
-506.741	100.426	-0.147	0.171
-505.726	-109.747	0.164	-0.035
-504.712	-72.461	-0.184	0.069
-503.697	115.187	0.171	-0.211
-502.683	271.042	-0.120	0.212
-501.668	156.279	0.073	0.102
-500.653	67.764	-0.365	0.376
-499.639	800.000	-0.041	0.155
-498.624	-200.000	0.048	0.320
-497.610	-91.307	-0.142	-0.041
-496.595	-10.042	-0.097	0.065
-495.581	-96.417	-0.202	0.054
-494.566	228.893	0.142	-0.233
-493.551	-200.000	-0.043	0.236
-492.537	-12.968	0.102	-0.067
-491.522	628.206	0.062	-0.158
-490.508	-114.160	-0.334	0.065
-489.493	73.993	-0.054	0.057
-488.478	-79.131	-0.297	0.102
-487.464	-2.782	-0.323	0.227
-486.449	-200.000	0.007	0.214
-485.435	536.548	0.056	0.133
-484.420	240.218	-0.056	-0.094
-483.405	-133.623	0.318	0.040
-482.391	-91.858	-0.248	-0.071
-481.376	92.442	0.030	-0.034
-480.362	800.000	0.013	-0.044
-479.347	-2.084	0.160	-0.113
-478.332	-127.219	0.374	-0.055
-477.318	-55.292	-0.115	0.052
-476.303	37.957	0.144	0.129
-475.289	800.000	-0.078	0.318
-474.274	92.413	-0.222	-0.252
-473.259	279.143	-0.078	-0.141
-472.245	-200.000	-0.048	0.222
-471.230	-200.000	-0.004	0.266
-470.216	-83.642	-0.042	-0.014
-469.201	-64.145	-0.387	-0.159
-468.186	-200.000	0.079	-0.439
-467.172	-117.038	0.199	-0.037
-466.157	472.425	0.106	0.240
-465.143	-60.396	0.038	-0.016
-464.128	124.663	-0.174	0.220
-463.113	-134.005	-0.452	-0.056
-462.099	252.895	-0.122	-0.210
-461.084	-36.932	-0.072	-0.039
-460.070	-64.456	0.355	0.145
-459.055	90.987	-0.091	0.102
-458.040	-200.000	-0.022	0.219
-457.026	28.852	-0.223	0.191
-456.011	175.219	0.154	-0.224
-454.997	644.211	-0.117	0.301
-453.982	-200.000	0.019	-0.094
-452.968	-200.000	0.006	-0.155
-451.953	800.000	-0.057	-0.247
-450.938	-200.000	-0.043	0.324
-449.924	268.688	0.071	-0.126
-448.909	-139.618	-0.311	-0.033
-447.895	-149.317	-0.130	0.010
-446.880	-50.733	0.167	-0.079
-445.865	54.097	-0.049	-0.048
-444.851	-127.153	-0.049	-0.007
-443.836	61.051	-0.156	-0.156
-442.822	800.000	-0.089	-0.325
-441.807	-93.937	0.030	-0.008
-440.792	-73.286	-0.292	0.107
-439.778	800.000	-0.054	-0.157
-438.763	800.000	-0.047	-0.157
-437.749	65.983	0.096	-0.098
-436.734	-55.753	0.217	-0.097
-435.719	800.000	0.034	-0.138
-434.705	-200.000	-0.037	-0.220
-433.690	-200.000	-0.035	0.201
-432.676	-200.000	0.040	0.205
-431.661	519.857	-0.031	-0.072
-430.646	-85.814	-0.348	-0.108
-429.632	-31.926	-0.117	-0.066
-428.617	-35.644	0.134	0.073
-427.603	541.290	0.061	0.146
-426.588	48.235	0.091	-0.085
-425.573	-200.000	-0.022	0.214
-424.559	-65.690	-0.189	-0.076
-423.544	250.286	0.105	0.179
-422.530	-68.260	0.262	0.102
-421.515	-186.251	-0.371	-0.005
-420.500	-81.216	0.296	0.098
-419.486	21.164	0.247	-0.201
-418.471	-105.998	-0.126	-0.028
-417.457	156.049	0.217	0.300
-416.442	-200.000	-0.003	-0.121
-415.428	800.000	0.055	-0.197
-414.413	-1.266	-0.107	0.076
-413.398	-102.846	-0.251	-0.060
-412.384	325.923	-0.135	0.260
-411.369	-200.000	-0.110	-0.495
-410.355	-18.109	0.109	-0.068
-409.340	400.549	-0.105	0.222
-408.325	25.107	-0.199	0.166
-407.311	-36.484	-0.325	0.176
-406.296	661.198	0.043	-0.111
-405.282	310.506	-0.078	-0.147
-404.267	23.566	-0.071	-0.059
-403.252	-200.000	-0.001	0.021
-402.238	210.204	0.078	-0.123
-401.223	-114.038	0.158	-0.031
-400.209	65.910	0.149	0.152
-399.194	800.000	0.018	0.056
-398.179	-79.004	-0.136	0.046
-397.165	316.154	0.118	-0.224
-396.150	800.000	-0.088	0.363
-395.136	-200.000	-0.023	-0.258
-394.121	-163.230	-0.300	0.014
-393.106	390.681	0.076	0.159
-392.092	-82.386	0.037	0.012
-391.077	43.011	-0.384	0.352
-390.063	680.304	-0.044	-0.115
-389.048	14.835	0.394	-0.309
-388.033	-200.000	-0.040	-0.431
-387.019	126.950	0.113	-0.143
-386.004	-200.000	-0.001	-0.098
-384.990	800.000	-0.019	0.076
-383.975	-59.624	-0.217	-0.093
-382.960	-114.790	0.235	-0.045
-381.946	298.035	-0.064	-0.119
-380.931	215.173	0.100	0.158
-379.917	-164.602	-0.099	0.004
-378.902	-7.053	-0.240	0.163
-377.888	-168.041	-0.279	-0.011
-376.873	-200.000	0.007	-0.093
-375.858	47.365	-0.115	-0.108
-374.844	-26.873	0.144	-0.085
-373.829	18.403	-0.094	-0.075
-372.815	-200.000	-0.010	0.087
-371.800	-78.863	0.324	0.111
-370.785	76.493	0.205	-0.218
-369.771	-174.514	-0.174	-0.005
-368.756	622.883	0.029	-0.073
-367.742	637.425	-0.137	-0.350
-366.727	800.000	0.012	0.044
-365.712	713.131	-0.045	-0.120
-364.698	282.488	-0.094	0.169
-363.683	372.688	-0.035	0.072
-362.669	-24.218	0.092	0.055
-361.654	-158.888	-0.229	0.013
-360.639	-165.820	0.335	-0.014
-359.625	0.513	0.437	0.313
-358.610	800.000	0.040	0.163
-357.596	-131.954	-0.324	-0.042
-356.581	800.000	-0.013	0.040
-355.566	800.000	0.041	-0.136
-354.552	311.875	-0.041	-0.077
-353.537	-104.766	0.285	0.066
-352.523	-55.846	-0.068	-0.031
-351.508	-98.755	-0.083	0.021
-350.493	218.336	0.226	-0.362
-349.479	467.732	-0.114	-0.257
-348.464	-136.338	-0.265	0.031
-347.450	234.670	0.113	-0.186
-346.435	114.840	0.149	0.182
-345.420	24.970	0.141	0.117
-344.406	67.629	-0.135	0.138
-343.391	53.478	-0.369	-0.355
-342.377	-3.637	-0.132	-0.092
-341.362	800.000	0.157	-0.644
-340.348	-34.506	-0.463	-0.254
-339.333	52.822	-0.087	-0.084
-338.318	0.907	-0.215	0.154
-337.304	712.735	0.108	-0.286
-336.289	-68.067	0.219	0.085
-335.275	284.767	0.131	0.236
-334.260	-200.000	0.008	-0.236
-333.245	800.000	-0.173	-0.496
-332.231	-2.121	0.101	0.071
-331.216	100.738	-0.094	0.109
-330.202	-28.007	-0.334	-0.194
-329.187	155.500	0.233	0.321
-328.172	800.000	0.053	0.221
-327.158	-23.708	0.211	-0.126
-326.143	279.870	-0.129	0.231
-325.129	-200.000	-0.030	0.241
-324.114	168.311	-0.107	-0.153
-323.099	-107.548	0.157	0.034
-322.085	-30.771	0.304	-0.172
-321.070	800.000	0.023	-0.073
-320.056	-200.000	-0.012	-0.354
-319.041	-75.934	-0.305	-0.108
-318.026	-86.640	-0.042	0.013
-317.012	-81.396	0.296	-0.098
-315.997	-38.522	0.121	-0.064
-314.983	-157.675	-0.269	0.016
-313.968	254.462	-0.081	0.139
-312.953	-38.982	-0.160	-0.084
-311.939	-35.509	0.160	-0.087
-310.924	-200.000	-0.068	0.458
-309.910	126.676	-0.207	-0.262
-308.895	24.113	0.172	0.142
-307.880	-95.157	-0.183	-0.049
-306.866	257.554	0.041	0.070
-305.851	-86.542	-0.300	-0.092
-304.837	-200.000	0.051	-0.371
-303.822	-134.123	-0.094	-0.012
-302.807	24.319	0.105	0.087
-301.793	-175.842	0.192	0.005
-300.778	119.893	0.090	0.112
-299.764	-200.000	0.019	0.170
-298.749	-119.422	-0.152	0.026
-297.735	200.862	-0.043	0.066
-296.720	800.000	0.045	-0.127
-295.705	144.520	-0.101	-0.135
-294.691	-62.561	0.069	0.029
-293.676	23.186	-0.155	0.128
-292.662	-25.400	0.243	0.144
-291.647	-170.485	-0.104	-0.004
-290.632	-113.322	0.407	-0.080
-289.618	-200.000	0.002	-0.267
-288.603	-196.067	0.099	-0.001
-287.589	7.591	-0.329	0.246
-286.574	799.349	0.017	0.048
-285.559	24.299	0.270	0.223
-284.545	477.554	-0.187	0.423
-283.530	26.522	0.067	0.056
-282.516	-102.714	0.332	0.079
-281.501	164.817	0.230	-0.324
-280.486	-163.042	0.094	-0.005
-279.472	-129.177	0.440	0.061
-278.457	15.863	0.220	-0.173
-277.443	800.000	0.088	0.319
-276.428	-200.000	0.018	0.191
-275.413	-147.688	-0.121	-0.010
-274.399	203.882	0.074	0.115
-273.384	521.055	0.167	0.391
-272.370	453.423	-0.054	0.120
-271.355	-16.641	-0.140	-0.089
-270.340	-110.233	-0.404	-0.084
-269.326	379.287	0.040	0.082
-268.311	-200.000	0.017	-0.212
-267.297	18.675	0.118	0.094
-266.282	-200.000	-0.060	-0.295
-265.267	800.000	-0.036	0.155
-264.253	-200.000	-0.022	0.295
-263.238	-2.860	0.057	-0.040
-262.224	-64.322	0.138	0.056
-261.209	800.000	-0.084	0.276
-260.195	-131.676	0.134	-0.018
-259.180	-57.170	0.232	-0.102
-258.165	-200.000	0.029	0.169
-257.151	82.713	-0.130	0.141
-256.136	-200.000	-0.022	-0.177
-255.122	-67.861	-0.083	0.032
-254.107	-200.000	0.032	-0.289
-253.092	-41.009	-0.012	-0.006
-252.078	-200.000	0.012	0.314
-251.063	-49.356	0.033	-0.016
-250.049	361.743	0.129	-0.258
-249.034	35.365	0.177	0.155
-248.019	131.744	0.130	0.166
-247.005	45.396	0.302	-0.278
-245.990	348.036	-0.081	0.159
-244.976	54.436	0.215	-0.206
-243.961	-200.000	-0.002	-0.169
-242.946	100.158	-0.041	-0.047
-241.932	-103.092	0.385	0.091
-240.917	202.934	0.074	0.113
-239.903	-50.106	-0.043	0.021
-238.888	-200.000	-0.226	0.001
-237.873	800.000	0.044	0.155
-236.859	-82.087	-0.057	-0.019
-235.844	115.538	-0.142	0.174
-234.830	140.325	0.163	0.215
-233.815	89.236	0.196	0.218
-232.800	-1.946	-0.223	0.156
-231.786	-103.898	0.108	0.025
-230.771	-200.000	0.060	-0.367
-229.757	61.299	-0.050	-0.049
-228.742	-129.492	0.196	0.027
-227.727	0.403	0.144	-0.103
-226.713	-1.440	0.139	0.098
-225.698	125.499	0.108	0.136
-224.684	151.792	-0.084	0.113
-223.669	-200.000	0.036	0.171
-222.655	24.702	-0.218	0.180
-221.640	-145.949	0.088	0.008
-220.625	-200.000	-0.003	0.350
-219.611	-200.000	0.002	0.216
-218.596	-92.633	0.117	0.033
-217.582	-145.895	-0.127	-0.011
-216.567	163.053	-0.216	0.302
-215.552	800.000	0.086	-0.246
-214.538	-97.352	-0.088	0.023
-213.523	-142.066	-0.177	0.018
-212.509	-67.192	0.262	-0.103
-211.494	800.000	-0.043	0.146
-210.479	-64.899	0.236	0.095
-209.465	-200.000	0.000	0.050
-208.450	570.340	-0.116	0.281
-207.436	-200.000	0.055	0.312
-206.421	-200.000	0.009	0.154
-205.406	558.166	0.062	0.148
-204.392	800.000	0.053	0.171
-203.377	65.737	-0.079	-0.079
-202.363	6.062	-0.171	0.126
-201.348	-23.677	-0.132	-0.079
-200.333	40.786	-0.070	-0.063
-199.319	-8.242	0.122	0.082
-198.304	-200.000	0.029	-0.154
-197.290	-200.000	-0.026	0.212
-196.275	-178.014	-0.284	-0.007
-195.260	-75.784	-0.243	0.086
-194.246	181.167	0.042	0.062
-193.231	-97.093	0.211	-0.055
-192.217	50.391	0.129	-0.121
-191.202	508.804	0.074	-0.172
-190.187	696.748	-0.118	-0.309
-189.173	215.410	-0.183	-0.289
-188.158	800.000	0.054	-0.214
-187.144	28.829	0.250	-0.210
-186.129	43.339	0.172	-0.156
-185.114	523.361	0.116	0.272
-184.100	-200.000	0.031	0.237
-183.085	-156.237	-0.032	0.002
-182.071	-174.338	0.250	0.007
-181.056	45.288	0.128	-0.117
-180.042	-100.147	0.071	0.018
-179.027	211.254	0.090	-0.141
-178.012	-200.000	0.072	-0.418
-176.998	85.975	0.092	0.101
-175.983	-134.514	-0.137	0.017
-174.969	-200.000	0.002	-0.029
-173.954	22.641	0.240	0.195
-172.939	-200.000	-0.022	0.134
-171.925	-200.000	0.005	-0.118
-170.910	61.483	-0.330	0.326
-169.896	164.037	0.177	0.249
-168.881	800.000	0.012	0.035
-167.866	-62.577	0.174	-0.072
-166.852	71.986	0.153	0.158
-165.837	-115.553	0.269	0.050
-164.823	74.584	0.098	-0.102
-163.808	121.766	-0.092	0.114
-162.793	225.660	-0.195	0.314
-161.779	151.593	-0.161	-0.218
-160.764	-8.929	0.050	-0.033
-159.750	800.000	-0.022	-0.092
-158.735	-200.000	-0.002	0.309
-157.720	-10.196	-0.169	-0.112
-156.706	725.416	0.167	-0.442
-155.691	403.219	-0.066	-0.137
-154.677	-64.209	0.186	-0.075
-153.662	162.013	0.110	0.153
-152.647	655.929	-0.025	0.063
-151.633	800.000	0.128	0.394
-150.618	81.362	0.171	0.184
-149.604	-200.000	0.022	-0.278
-148.589	-88.889	-0.159	0.047
-147.574	217.437	0.029	-0.046
-146.560	617.251	0.062	0.155
-145.545	189.359	-0.070	0.105
-144.531	-124.686	-0.165	0.025
-143.516	239.918	-0.027	0.045
-142.502	280.260	0.105	0.186
-141.487	-200.000	-0.026	0.251
-140.472	-42.517	0.094	-0.048
-139.458	-171.606	-0.318	0.010
-138.443	336.533	-0.057	0.110
-137.429	-106.243	-0.121	-0.027
-136.414	57.756	0.157	0.153
-135.399	-200.000	-0.042	0.285
-134.385	-33.350	-0.154	0.084
-133.370	49.566	-0.323	-0.302
-132.356	37.048	-0.116	0.102
-131.341	187.360	0.105	0.155
-130.326	-23.310	-0.125	0.075
-129.312	-87.539	0.231	-0.069
-128.297	800.000	0.078	0.256
-127.283	-200.000	0.007	0.217
-126.268	-84.407	0.291	0.092
-125.253	800.000	0.137	-0.503
-124.239	5.189	-0.071	0.052
-123.224	216.148	0.037	0.059
-122.210	-5.473	0.241	0.164
-121.195	652.967	-0.110	0.280
