DTS Sentinel unit serial number:	SN413079Multiplexer serial number:	ORYXHardware model number:	OX4-SRSoftware version number:	ORYX F/W v4.00 Oryx Data Collector v3.7.2.0data status	okinstallation	princeton_trtdifferential loss correction	single-endedforward channel	channel 4reverse channel	N/Adate	2019/09/12time	08:55:11forward acquisition time	60.00reverse acquisition time	0.00gamma	496.2192k internal	0.2299k external	0.2299temperature offset calibration	1.0067default loss term (dB/km)	0.3790temperature slope calibration	1.0000multiplexer offset coefficient	1.0000multiplexer slope coefficient	1.0000fibre end	0.00T internal ref (°C)	34.11T ext. ref 1 (°C)	1.76T ext. ref 2 (°C)	30.92length (m)	temperature (°C)	Stokes	anti-Stokes-747.200	-4.215	-0.165	-0.117
-746.185	-200.000	0.052	0.362
-745.171	800.000	-0.030	0.091
-744.156	-117.104	-0.143	-0.027
-743.142	800.000	-0.045	0.172
-742.127	800.000	0.095	0.382
-741.112	-200.000	-0.011	0.112
-740.098	-63.846	-0.247	-0.103
-739.083	-200.000	-0.035	0.187
-738.069	-200.000	-0.019	0.143
-737.054	-72.744	0.193	0.073
-736.039	103.840	0.275	0.329
-735.025	800.000	-0.045	0.173
-734.010	-200.000	0.053	-0.254
-732.996	36.502	0.101	-0.091
-731.981	729.817	0.038	-0.104
-730.966	-200.000	-0.039	-0.352
-729.952	556.957	-0.081	-0.198
-728.937	216.032	-0.157	0.254
-727.923	83.078	0.193	-0.215
-726.908	-9.679	-0.331	-0.225
-725.894	217.341	-0.059	-0.097
-724.879	242.473	0.056	-0.096
-723.864	-109.020	0.263	0.057
-722.850	53.768	-0.058	-0.056
-721.835	-72.476	-0.185	0.070
-720.821	-168.354	0.059	0.002
-719.806	261.740	0.079	-0.139
-718.791	-111.095	-0.331	-0.069
-717.777	-4.754	0.163	-0.114
-716.762	-200.000	0.003	0.370
-715.748	-172.804	-0.410	0.013
-714.733	76.478	-0.310	0.335
-713.718	-7.150	-0.221	-0.153
-712.704	-30.014	-0.095	0.055
-711.689	-27.276	-0.159	-0.094
-710.675	118.861	-0.123	-0.154
-709.660	172.109	0.155	-0.227
-708.645	-200.000	-0.007	-0.085
-707.631	-200.000	-0.005	-0.123
-706.616	-56.197	-0.140	-0.063
-705.602	-94.316	-0.219	0.061
-704.587	-170.556	0.082	0.003
-703.572	27.311	-0.170	-0.146
-702.558	108.897	-0.068	-0.083
-701.543	258.387	0.146	-0.257
-700.529	133.739	0.023	-0.031
-699.514	338.664	-0.039	-0.077
-698.499	230.049	-0.105	0.176
-697.485	-54.323	0.224	0.103
-696.470	223.496	0.127	0.208
-695.456	-73.773	0.179	-0.066
-694.441	422.986	-0.132	-0.288
-693.426	-73.645	-0.305	-0.113
-692.412	31.606	0.027	-0.023
-691.397	-15.811	-0.272	-0.176
-690.383	411.036	0.040	0.087
-689.368	-200.000	0.025	-0.122
-688.354	86.145	0.076	0.085
-687.339	156.690	-0.039	-0.055
-686.324	42.218	-0.233	-0.216
-685.310	-21.261	0.141	0.088
-684.295	120.381	0.072	0.091
-683.281	-200.000	0.007	-0.119
-682.266	-120.418	-0.202	-0.035
-681.251	80.944	0.061	-0.067
-680.237	111.826	-0.195	-0.239
-679.222	-6.305	-0.049	0.034
-678.208	-46.383	0.177	0.088
-677.193	-200.000	-0.028	0.135
-676.178	196.721	-0.061	0.095
-675.164	-200.000	0.016	0.174
-674.149	-200.000	-0.008	0.430
-673.135	8.734	-0.155	0.119
-672.120	-200.000	-0.051	-0.241
-671.105	96.244	0.150	-0.174
-670.091	48.135	0.294	-0.279
-669.076	792.335	-0.045	-0.125
-668.062	135.578	0.042	0.055
-667.047	190.687	-0.072	0.111
-666.032	-75.904	-0.317	-0.114
-665.018	43.822	0.152	-0.142
-664.003	-49.775	-0.137	-0.066
-662.989	47.522	0.337	-0.320
-661.974	-77.371	0.137	-0.048
-660.959	794.891	0.079	0.221
-659.945	-200.000	-0.002	0.085
-658.930	-90.110	0.466	-0.138
-657.916	-200.000	-0.039	-0.264
-656.901	-75.606	0.220	0.079
-655.886	800.000	-0.059	-0.236
-654.872	-109.196	0.312	0.067
-653.857	-200.000	0.024	-0.203
-652.843	267.154	-0.170	0.302
-651.828	-141.325	-0.241	0.025
-650.814	-69.325	0.154	-0.060
-649.799	-75.247	-0.232	-0.084
-648.784	-149.357	-0.111	-0.009
-647.770	800.000	-0.065	0.206
-646.755	204.959	-0.071	0.112
-645.741	800.000	-0.072	0.281
-644.726	713.389	-0.038	-0.102
-643.711	496.847	-0.077	-0.179
-642.697	-33.848	-0.420	0.235
-641.682	293.413	0.112	-0.208
-640.668	-59.557	-0.137	-0.060
-639.653	178.889	0.215	0.319
-638.638	-200.000	-0.013	-0.101
-637.624	135.206	0.197	-0.260
-636.609	800.000	0.128	-0.394
-635.595	236.317	-0.174	-0.292
-634.580	371.929	-0.108	-0.223
-633.565	-99.138	-0.190	0.049
-632.551	-99.558	-0.118	-0.030
-631.536	-200.000	-0.053	-0.257
-630.522	-15.378	0.279	-0.181
-629.507	130.732	-0.185	-0.241
-628.492	62.086	-0.115	-0.116
-627.478	360.455	0.046	-0.093
-626.463	-200.000	-0.001	0.164
-625.449	-106.911	0.105	0.024
-624.434	306.379	-0.206	-0.389
-623.419	-143.370	-0.122	0.012
-622.405	179.732	-0.110	0.163
-621.390	-200.000	0.043	-0.553
-620.376	-84.857	-0.208	-0.066
-619.361	125.273	0.060	0.077
-618.346	-88.221	0.138	0.042
-617.332	800.000	0.103	0.293
-616.317	33.804	0.191	-0.169
-615.303	144.702	-0.045	0.061
-614.288	252.977	0.160	0.278
-613.273	106.671	-0.245	-0.295
-612.259	9.688	0.135	0.104
-611.244	-25.630	-0.094	0.056
-610.230	-105.372	-0.133	-0.031
-609.215	-40.119	0.170	0.090
-608.201	526.122	-0.122	0.291
-607.186	438.491	0.062	0.138
-606.171	59.256	0.081	-0.081
-605.157	153.505	-0.309	0.429
-604.142	-200.000	0.014	-0.069
-603.128	-29.524	-0.199	0.115
-602.113	-88.477	0.404	0.122
-601.098	-19.255	-0.249	0.157
-600.084	11.708	0.278	0.216
-599.069	-86.984	0.274	-0.085
-598.055	-48.964	-0.025	-0.012
-597.040	298.278	0.031	0.058
-596.025	-78.900	0.233	-0.081
-595.011	-157.960	0.147	-0.009
-593.996	401.787	0.059	-0.126
-592.982	31.507	-0.207	-0.181
-591.967	175.848	0.135	0.199
-590.952	-44.293	-0.259	0.132
-589.938	800.000	0.044	-0.135
-588.923	800.000	-0.036	0.156
-587.909	-103.210	0.089	0.021
-586.894	-182.338	0.171	0.003
-585.879	393.870	-0.198	-0.418
-584.865	800.000	0.065	-0.250
-583.850	-200.000	-0.036	-0.309
-582.836	44.473	-0.129	0.120
-581.821	175.887	0.105	0.154
-580.806	19.480	-0.335	-0.273
-579.792	-84.092	0.192	0.062
-578.777	181.052	0.195	0.290
-577.763	61.442	-0.212	0.214
-576.748	31.984	0.150	0.131
-575.733	321.622	-0.139	0.267
-574.719	800.000	0.028	0.114
-573.704	800.000	-0.041	-0.142
-572.690	-137.278	-0.294	-0.034
-571.675	21.869	0.285	0.235
-570.661	-48.716	-0.267	0.130
-569.646	-200.000	0.028	0.425
-568.631	45.958	0.235	0.221
-567.617	-116.071	0.068	-0.013
-566.602	-200.000	0.012	0.148
-565.588	-35.735	0.157	0.086
-564.573	-91.004	-0.285	-0.083
-563.558	22.217	-0.300	-0.248
-562.544	78.171	0.203	-0.219
-561.529	-142.730	0.411	0.041
-560.515	-115.814	0.440	0.083
-559.500	41.711	-0.361	0.331
-558.485	142.316	0.166	0.224
-557.471	-200.000	-0.077	-0.491
-556.456	196.121	0.043	0.066
-555.442	-148.841	0.108	0.009
-554.427	-91.725	-0.304	0.087
-553.412	-200.000	-0.011	-0.258
-552.398	201.870	-0.037	-0.057
-551.383	-45.501	0.129	-0.064
-550.369	-121.988	0.229	-0.038
-549.354	325.336	0.061	-0.117
-548.339	-115.511	-0.176	0.034
-547.325	8.665	-0.173	0.132
-546.310	303.049	0.067	-0.126
-545.296	88.406	-0.087	-0.098
-544.281	313.259	0.111	-0.212
-543.266	-200.000	-0.104	-0.478
-542.252	-120.098	0.072	-0.013
-541.237	242.089	-0.042	-0.071
-540.223	800.000	-0.062	-0.252
-539.208	-200.000	0.015	-0.116
-538.193	-113.062	-0.213	0.043
-537.179	-200.000	0.033	0.322
-536.164	232.080	-0.102	0.169
-535.150	1.932	-0.120	0.087
-534.135	64.319	-0.103	0.105
-533.121	800.000	-0.021	0.081
-532.106	60.298	-0.119	-0.119
-531.091	800.000	-0.077	0.239
-530.077	-51.960	0.022	-0.010
-529.062	175.140	0.111	-0.162
-528.048	-44.413	0.504	0.255
-527.033	-44.932	-0.360	0.181
-526.018	-65.064	-0.205	0.084
-525.004	-95.185	0.110	0.030
-523.989	113.682	-0.079	0.097
-522.975	85.778	-0.031	0.034
-521.960	-18.464	0.042	-0.027
-520.945	-200.000	-0.006	-0.241
-519.931	-200.000	0.003	-0.197
-518.916	-54.153	0.198	0.091
-517.902	71.020	0.142	-0.149
-516.887	800.000	-0.096	-0.322
-515.872	767.591	-0.080	-0.221
-514.858	540.464	0.111	-0.267
-513.843	-174.367	0.171	0.005
-512.829	149.809	0.051	-0.070
-511.814	800.000	0.077	0.332
-510.799	-8.578	0.176	0.120
-509.785	11.697	-0.295	-0.229
-508.770	-200.000	-0.049	-0.281
-507.756	-200.000	-0.058	-0.269
-506.741	-200.000	0.026	-0.181
-505.726	48.899	-0.206	-0.195
-504.712	800.000	-0.106	0.307
-503.697	-105.754	0.207	-0.047
-502.683	-43.302	-0.126	0.064
-501.668	123.989	-0.207	0.263
-500.653	254.512	-0.141	0.243
-499.639	-71.069	0.253	-0.096
-498.624	571.563	0.115	0.283
-497.610	-200.000	-0.024	-0.138
-496.595	-79.318	0.286	0.098
-495.581	800.000	-0.087	-0.312
-494.566	79.655	0.084	0.091
-493.551	40.501	0.022	-0.020
-492.537	136.383	-0.119	0.157
-491.522	800.000	0.081	0.235
-490.508	-33.178	-0.290	-0.162
-489.493	198.854	-0.229	0.355
-488.478	110.425	0.038	0.046
-487.464	-62.896	0.182	0.076
-486.449	-200.000	0.061	-0.336
-485.435	434.559	-0.034	-0.074
-484.420	138.944	0.057	-0.075
-483.405	-200.000	0.052	-0.305
-482.391	679.489	-0.096	0.253
-481.376	631.806	0.104	0.265
-480.362	150.098	-0.254	0.348
-479.347	-200.000	0.019	-0.164
-478.332	-200.000	0.007	0.206
-477.318	-30.665	-0.301	-0.172
-476.303	-168.765	-0.118	-0.004
-475.289	382.662	0.115	0.238
-474.274	171.615	-0.142	0.206
-473.259	-70.047	-0.064	0.024
-472.245	84.895	0.126	0.139
-471.230	-10.206	-0.304	0.204
-470.216	271.362	0.139	0.248
-469.201	-200.000	-0.009	0.108
-468.186	173.778	0.099	-0.145
-467.172	649.767	0.085	-0.219
-466.157	-70.031	-0.067	-0.026
-465.143	32.094	0.263	0.229
-464.128	151.265	-0.129	-0.177
-463.113	686.259	0.080	-0.210
-462.099	53.613	0.147	-0.143
-461.084	44.324	-0.320	-0.297
-460.070	-146.068	0.043	0.004
-459.055	-29.463	-0.129	0.074
-458.040	68.004	0.219	-0.226
-457.026	800.000	0.063	0.187
-456.011	-99.704	0.236	-0.060
-454.997	-89.794	0.120	0.035
-453.982	-136.582	0.289	0.034
-452.968	44.316	-0.104	0.096
-451.953	240.715	-0.159	0.267
-450.938	219.404	0.106	-0.172
-449.924	199.079	-0.245	-0.379
-448.909	800.000	0.073	0.257
-447.895	336.386	-0.044	-0.085
-446.880	-200.000	0.000	-0.034
-445.865	-28.028	0.508	0.296
-444.851	-190.780	-0.232	0.002
-443.836	37.493	0.082	-0.073
-442.822	149.495	0.165	-0.226
-441.807	-200.000	-0.033	0.176
-440.792	107.276	-0.082	0.098
-439.778	538.335	-0.050	-0.121
-438.763	6.389	-0.029	-0.022
-437.749	-85.805	-0.383	0.120
-436.734	-164.360	-0.065	-0.003
-435.719	61.711	-0.223	0.224
-434.705	-131.496	0.272	0.036
-433.690	116.819	0.071	0.088
-432.676	-200.000	-0.015	0.109
-431.661	-200.000	-0.049	0.400
-430.646	-200.000	0.036	0.433
-429.632	-200.000	0.000	0.110
-428.617	-0.185	-0.142	-0.102
-427.603	-39.539	0.098	0.052
-426.588	94.491	-0.169	-0.193
-425.573	-22.263	0.205	-0.125
-424.559	-147.817	-0.117	-0.010
-423.544	435.065	0.078	-0.170
-422.530	154.994	0.104	0.144
-421.515	-146.327	-0.202	-0.018
-420.500	-29.838	-0.202	-0.116
-419.486	-135.386	-0.139	0.017
-418.471	-47.181	0.234	0.115
-417.457	171.652	-0.106	0.154
-416.442	71.587	0.112	-0.117
-415.428	800.000	0.038	0.160
-414.413	599.945	-0.036	0.090
-413.398	-60.299	0.090	-0.038
-412.384	-200.000	-0.242	0.000
-411.369	31.850	-0.179	-0.155
-410.355	24.684	-0.246	-0.205
-409.340	-103.053	0.169	0.040
-408.325	-2.631	-0.152	0.107
-407.311	-91.793	-0.028	-0.008
-406.296	3.526	0.162	0.119
-405.282	-200.000	-0.010	-0.443
-404.267	-114.413	-0.209	-0.040
-403.252	-197.413	-0.195	-0.001
-402.238	-53.231	0.318	-0.147
-401.223	-190.132	0.163	-0.002
-400.209	36.146	0.024	-0.021
-399.194	752.901	-0.116	0.315
-398.179	-51.259	-0.060	0.028
-397.165	-94.077	0.157	0.043
-396.150	-200.000	-0.009	-0.222
-395.136	330.917	0.174	-0.338
-394.121	-58.683	0.160	-0.070
-393.106	658.870	0.067	-0.173
-392.092	297.870	-0.201	-0.372
-391.077	-200.000	-0.018	-0.118
-390.063	-100.846	-0.227	-0.056
-389.048	-54.868	-0.069	0.031
-388.033	-110.702	-0.174	0.036
-387.019	-17.427	0.097	-0.061
-386.004	-200.000	-0.002	-0.112
-384.990	-154.285	0.250	-0.017
-383.975	-200.000	0.006	-0.055
-382.960	363.737	0.049	0.099
-381.946	-33.197	0.307	0.171
-380.931	-200.000	0.049	0.282
-379.917	-136.962	-0.279	0.032
-378.902	-41.738	0.223	-0.115
-377.888	-44.804	-0.132	0.066
-376.873	41.781	0.103	-0.094
-375.858	135.830	0.088	-0.115
-374.844	105.070	-0.258	-0.306
-373.829	171.426	0.128	0.185
-372.815	800.000	-0.096	0.315
-371.800	-200.000	-0.027	0.173
-370.785	-132.133	-0.407	-0.053
-369.771	-200.000	-0.014	0.090
-368.756	8.559	-0.152	0.115
-367.742	-96.417	0.222	-0.059
-366.727	-32.429	-0.028	0.016
-365.712	-14.686	-0.135	-0.087
-364.698	-200.000	-0.052	0.262
-363.683	144.303	-0.036	-0.048
-362.669	-106.654	-0.209	0.047
-361.654	216.265	0.188	0.300
-360.639	800.000	-0.061	-0.174
-359.625	88.135	0.155	0.173
-358.610	-28.670	-0.280	0.162
-357.596	93.417	-0.155	-0.177
-356.581	-102.847	0.158	0.038
-355.566	-44.792	0.008	-0.004
-354.552	-48.488	0.092	0.044
-353.537	2.247	-0.115	-0.084
-352.523	-97.785	0.249	-0.065
-351.508	-200.000	0.009	0.103
-350.493	-29.380	-0.283	-0.162
-349.479	-59.217	0.141	0.061
-348.464	638.480	0.122	-0.313
-347.450	-71.736	0.242	0.091
-346.435	-33.123	-0.196	0.109
-345.420	-126.485	-0.389	0.058
-344.406	33.430	0.230	-0.201
-343.391	433.809	-0.027	0.058
-342.377	-200.000	0.015	0.159
-341.362	800.000	0.109	-0.383
-340.348	543.933	-0.169	-0.404
-339.333	106.024	0.126	-0.150
-338.318	223.464	0.235	-0.380
-337.304	61.565	-0.289	0.289
-336.289	-200.000	0.029	-0.193
-335.275	-154.860	0.096	0.006
-334.260	367.182	-0.108	-0.219
-333.245	-99.410	-0.074	-0.019
-332.231	19.068	0.183	-0.147
-331.216	800.000	-0.055	-0.165
-330.202	-56.449	-0.145	-0.065
-329.187	-79.696	-0.204	-0.069
-328.172	-77.292	0.126	-0.044
-327.158	-156.399	-0.262	0.016
-326.143	800.000	-0.060	0.233
-325.129	45.027	0.227	-0.210
-324.114	800.000	0.163	-0.520
-323.099	-23.969	-0.347	-0.208
-322.085	138.494	0.183	0.241
-321.070	-83.178	-0.281	-0.091
-320.056	-200.000	0.053	0.269
-319.041	-17.216	0.171	0.108
-318.026	95.406	0.257	0.294
-317.012	-200.000	0.003	0.034
-315.997	-119.006	-0.141	0.025
-314.983	-200.000	0.022	-0.100
-313.968	165.404	-0.019	0.026
-312.953	800.000	0.057	0.240
-311.939	331.490	0.226	0.438
-310.924	-175.572	-0.129	0.004
-309.910	38.971	-0.150	0.134
-308.895	-35.249	0.141	-0.077
-307.880	-200.000	-0.012	0.138
-306.866	-200.000	0.069	0.303
-305.851	-145.625	0.422	-0.038
-304.837	-102.558	0.270	-0.065
-303.822	-200.000	-0.017	-0.109
-302.807	500.936	-0.056	0.130
-301.793	379.474	-0.159	0.327
-300.778	-63.052	-0.155	0.064
-299.764	487.316	0.094	-0.216
-298.749	-88.452	0.207	0.062
-297.735	-145.204	-0.178	0.016
-296.720	-169.386	0.179	-0.007
-295.705	60.745	-0.207	0.206
-294.691	-32.371	0.254	0.142
-293.676	21.140	-0.253	-0.206
-292.662	-120.661	0.071	-0.012
-291.647	64.736	-0.171	-0.173
-290.632	149.493	0.124	-0.169
-289.618	-70.699	0.028	-0.010
-288.603	-200.000	0.009	0.261
-287.589	800.000	0.059	0.210
-286.574	86.390	0.104	0.115
-285.559	29.248	-0.055	-0.047
-284.545	357.463	-0.041	0.082
-283.530	-81.287	-0.317	-0.105
-282.516	800.000	0.021	0.071
-281.501	-103.393	0.257	-0.061
-280.486	88.712	-0.319	0.355
-279.472	-19.046	-0.230	0.143
-278.457	198.926	-0.140	0.215
-277.443	104.491	-0.161	0.190
-276.428	157.252	-0.198	-0.275
-275.413	-7.346	0.263	-0.178
-274.399	88.717	0.094	-0.104
-273.384	-200.000	0.071	0.431
-272.370	800.000	0.050	0.192
-271.355	800.000	0.006	0.020
-270.340	107.600	-0.229	-0.273
-269.326	472.089	0.193	-0.436
-268.311	125.079	0.131	0.166
-267.297	-97.924	-0.103	0.027
-266.282	748.936	0.051	0.139
-265.267	-54.792	0.085	-0.039
-264.253	317.449	0.072	-0.137
-263.238	283.376	-0.212	0.381
-262.224	-10.033	-0.286	-0.190
-261.209	-200.000	-0.066	-0.384
-260.195	145.302	0.095	-0.127
-259.180	12.427	0.253	-0.195
-258.165	-200.000	-0.056	-0.330
-257.151	-107.798	0.345	0.075
-256.136	-134.501	-0.257	0.031
-255.122	-94.517	0.041	0.011
-254.107	33.629	0.399	-0.347
-253.092	97.786	0.057	0.066
-252.078	800.000	-0.018	-0.062
-251.063	36.693	-0.240	0.212
-250.049	272.876	0.203	0.359
-249.034	559.104	-0.085	-0.206
-248.019	-18.310	0.057	0.035
-247.005	-3.172	-0.035	-0.025
-245.990	-81.120	-0.009	0.003
-244.976	-182.752	-0.281	-0.005
-243.961	-107.656	-0.219	-0.048
-242.946	-200.000	-0.007	0.050
-241.932	-160.419	0.335	-0.018
-240.917	11.666	0.147	0.113
-239.903	800.000	0.153	-0.436
-238.888	-200.000	-0.041	-0.201
-237.873	-167.059	0.150	-0.006
-236.859	-200.000	0.052	-0.336
-235.844	-137.522	0.095	-0.011
-234.830	-139.912	0.311	-0.033
-233.815	-20.080	-0.090	0.056
-232.800	171.438	-0.248	0.357
-231.786	32.611	0.258	-0.223
-230.771	800.000	0.057	0.243
-229.757	-21.209	0.165	0.101
-228.742	-200.000	-0.013	0.129
-227.727	800.000	0.092	0.275
-226.713	-121.370	0.185	0.031
-225.698	1.271	-0.029	0.021
-224.684	-97.425	-0.116	0.030
-223.669	213.916	0.296	0.468
-222.655	-9.447	0.137	-0.091
-221.640	-146.367	0.237	-0.021
-220.625	181.890	-0.093	-0.138
-219.611	14.215	-0.150	-0.117
-218.596	118.492	-0.101	0.125
-217.582	-78.307	-0.186	0.064
-216.567	-200.000	0.005	-0.199
-215.552	-200.000	0.378	-0.001
-214.538	286.893	0.036	-0.065
-213.523	-16.393	-0.228	0.144
-212.509	-200.000	0.033	-0.375
-211.494	630.167	-0.084	-0.211
-210.479	587.421	-0.151	0.372
-209.465	-72.465	-0.298	-0.110
-208.450	-62.287	-0.287	-0.119
-207.436	330.168	0.075	-0.144
-206.421	89.377	0.196	0.218
-205.406	800.000	0.090	0.308
-204.392	-113.048	0.122	0.024
-203.377	249.932	-0.155	-0.262
-202.363	0.556	0.212	-0.151
-201.348	18.474	0.042	-0.034
-200.333	52.371	0.067	-0.064
-199.319	-200.000	-0.027	0.172
-198.304	4.876	-0.206	0.151
-197.290	29.205	0.238	0.202
-196.275	-31.205	0.153	0.086
-195.260	-76.009	0.212	-0.075
-194.246	-92.038	-0.213	-0.060
-193.231	323.216	0.146	0.277
-192.217	-200.000	-0.010	-0.089
-191.202	-186.861	-0.100	-0.001
-190.187	800.000	-0.096	-0.350
-189.173	0.129	-0.258	0.184
-188.158	-109.365	0.140	-0.030
-187.144	44.260	0.081	0.074
-186.129	-200.000	0.056	-0.405
-185.114	-137.203	0.093	-0.011
-184.100	136.179	-0.057	0.075
-183.085	-163.150	0.171	-0.008
-182.071	-137.682	-0.368	-0.041
-181.056	-3.574	0.362	0.251
-180.042	99.478	0.117	-0.135
-179.027	126.215	0.102	-0.129
-178.012	118.031	0.068	-0.084
-176.998	102.604	0.237	-0.276
-175.983	-200.000	0.000	-0.032
-174.969	-88.614	-0.178	-0.053
-173.954	800.000	0.069	0.216
-172.939	-88.042	0.090	0.027
-171.925	23.287	-0.374	0.307
-170.910	-34.345	0.154	-0.084
-169.896	-200.000	-0.039	0.243
-168.881	100.668	0.241	0.279
-167.866	40.082	0.260	0.233
-166.852	-112.375	0.207	-0.041
-165.837	-98.092	-0.297	-0.076
-164.823	-200.000	0.015	0.248
-163.808	-41.344	0.111	0.057
-162.793	253.270	-0.056	0.095
-161.779	-105.899	-0.229	-0.052
-160.764	265.226	-0.289	-0.502
-159.750	29.973	0.163	-0.138
-158.735	-200.000	-0.029	-0.419
-157.720	-200.000	0.032	-0.311
-156.706	574.364	0.078	-0.191
-155.691	-87.600	-0.216	0.065
-154.677	164.699	-0.051	-0.072
-153.662	373.253	0.170	0.345
-152.647	99.637	-0.104	0.120
-151.633	70.318	0.317	0.326
-150.618	-200.000	0.022	-0.121
-149.604	-75.522	0.057	0.020
-148.589	-200.000	-0.006	-0.132
-147.574	-200.000	0.066	0.389
-146.560	3.834	0.230	0.167
-145.545	580.639	-0.086	0.211
-144.531	-152.901	-0.220	-0.015
-143.516	171.839	-0.146	-0.209
-142.502	-62.352	0.290	0.120
-141.487	800.000	0.077	0.301
-140.472	-66.084	0.362	-0.144
-139.458	63.039	-0.180	0.179
-138.443	87.511	-0.202	0.223
-137.429	-159.526	-0.074	0.004
-136.414	636.262	-0.115	0.291
-135.399	202.472	0.185	0.285
-134.385	-93.989	0.138	-0.038
-133.370	-200.000	-0.026	0.134
-132.356	630.810	0.095	0.239
-131.341	800.000	-0.080	-0.291
-130.326	21.718	-0.125	-0.101
-129.312	-123.146	0.230	-0.037
-128.297	-75.078	-0.184	-0.066
-127.283	99.631	0.233	-0.268
-126.268	-200.000	0.107	0.000
-125.253	-157.817	-0.102	0.006
-124.239	89.946	-0.205	0.228
-123.224	-200.000	0.028	0.151
-122.210	800.000	-0.054	-0.178
-121.195	-110.131	0.384	-0.080
