DTS Sentinel unit serial number:	SN413079Multiplexer serial number:	ORYXHardware model number:	OX4-SRSoftware version number:	ORYX F/W v4.00 Oryx Data Collector v3.7.2.0data status	okinstallation	princeton_trtdifferential loss correction	single-endedforward channel	channel 4reverse channel	N/Adate	2019/09/16time	19:01:35forward acquisition time	60.00reverse acquisition time	0.00gamma	496.2192k internal	0.2305k external	0.2305temperature offset calibration	0.9966default loss term (dB/km)	0.3790temperature slope calibration	1.0000multiplexer offset coefficient	1.0000multiplexer slope coefficient	1.0000fibre end	0.00T internal ref (°C)	35.55T ext. ref 1 (°C)	0.07T ext. ref 2 (°C)	28.75length (m)	temperature (°C)	Stokes	anti-Stokes-747.200	158.159	-0.122	-0.173
-746.185	-154.630	-0.469	0.032
-745.171	719.473	-0.019	0.052
-744.156	-150.571	-0.199	0.015
-743.142	-88.878	-0.179	-0.054
-742.127	30.684	-0.023	-0.020
-741.112	269.051	0.073	0.131
-740.098	208.897	0.198	0.315
-739.083	-138.853	-0.220	0.024
-738.069	800.000	0.099	0.354
-737.054	-200.000	0.048	0.337
-736.039	147.950	-0.298	0.409
-735.025	513.741	0.050	0.119
-734.010	397.836	-0.040	0.085
-732.996	83.792	-0.172	-0.191
-731.981	499.276	0.186	-0.437
-730.966	-200.000	0.006	-0.232
-729.952	-87.468	-0.212	-0.065
-728.937	-200.000	-0.032	-0.203
-727.923	800.000	-0.113	-0.386
-726.908	-101.572	-0.334	0.082
-725.894	377.538	0.046	-0.096
-724.879	674.917	0.027	-0.072
-723.864	-75.615	-0.304	0.110
-722.850	166.714	-0.106	-0.153
-721.835	800.000	-0.065	-0.224
-720.821	-20.760	0.103	0.064
-719.806	800.000	-0.072	0.251
-718.791	-21.900	0.169	-0.105
-717.777	-15.090	-0.080	-0.052
-716.762	221.223	0.056	-0.091
-715.748	180.104	-0.146	0.218
-714.733	351.547	0.060	-0.120
-713.718	169.758	-0.111	0.161
-712.704	135.239	-0.061	0.080
-711.689	58.285	0.065	-0.064
-710.675	-139.745	-0.216	0.023
-709.660	-128.820	0.185	0.026
-708.645	11.730	0.154	0.120
-707.631	-34.774	-0.296	0.164
-706.616	-45.256	0.074	0.037
-705.602	4.585	-0.264	-0.197
-704.587	-95.993	-0.089	-0.024
-703.572	-170.040	0.218	0.008
-702.558	54.896	0.131	0.129
-701.543	183.151	-0.071	0.107
-700.529	76.344	-0.133	-0.143
-699.514	-31.813	0.363	-0.207
-698.499	800.000	-0.099	-0.374
-697.485	-91.920	0.283	0.081
-696.470	-200.000	0.040	0.196
-695.456	-110.247	0.060	0.013
-694.441	-92.753	-0.331	0.094
-693.426	-200.000	-0.037	0.196
-692.412	138.986	0.153	-0.204
-691.397	356.323	0.070	0.142
-690.383	800.000	0.027	-0.101
-689.368	406.865	-0.041	-0.087
-688.354	-21.417	0.230	-0.143
-687.339	466.988	-0.058	-0.133
-686.324	63.795	0.075	0.076
-685.310	90.450	0.295	-0.336
-684.295	800.000	-0.074	0.307
-683.281	185.843	-0.162	-0.244
-682.266	40.508	0.116	0.106
-681.251	-200.000	0.005	-0.030
-680.237	-22.568	0.106	-0.065
-679.222	193.795	0.197	-0.303
-678.208	-132.723	-0.309	0.040
-677.193	-46.801	-0.212	0.105
-676.178	-20.827	-0.257	-0.160
-675.164	188.923	0.016	0.025
-674.149	92.759	-0.234	-0.268
-673.135	-200.000	0.042	-0.296
-672.120	-200.000	-0.007	-0.159
-671.105	-135.363	-0.384	0.047
-670.091	800.000	-0.051	-0.166
-669.076	-40.645	0.145	0.077
-668.062	85.602	-0.056	0.062
-667.047	-113.404	0.144	0.029
-666.032	34.814	0.167	0.148
-665.018	105.713	0.034	0.040
-664.003	-108.610	-0.270	0.059
-662.989	-200.000	-0.076	-0.420
-661.974	49.299	0.035	0.033
-660.959	-107.996	-0.131	0.029
-659.945	-62.423	0.203	0.085
-658.930	84.355	-0.061	-0.067
-657.916	-46.122	-0.156	-0.078
-656.901	-31.462	-0.193	-0.110
-655.886	-200.000	-0.009	-0.097
-654.872	403.559	0.151	0.322
-653.857	-200.000	0.037	0.198
-652.843	-200.000	0.030	0.152
-651.828	-59.101	0.106	-0.046
-650.814	129.939	-0.125	-0.163
-649.799	-200.000	-0.028	-0.255
-648.784	-49.609	-0.457	-0.221
-647.770	-200.000	0.030	0.302
-646.755	-31.580	0.258	-0.147
-645.741	-200.000	0.060	0.346
-644.726	-200.000	-0.006	0.121
-643.711	800.000	-0.051	0.192
-642.697	-44.416	0.202	0.102
-641.682	-73.676	-0.231	0.085
-640.668	47.080	-0.347	0.327
-639.653	-130.321	0.127	-0.017
-638.638	-95.478	0.133	0.036
-637.624	-200.000	-0.020	-0.100
-636.609	190.277	0.200	0.305
-635.595	-200.000	-0.022	-0.143
-634.580	387.559	-0.130	-0.272
-633.565	375.231	0.095	0.196
-632.551	130.895	-0.243	-0.316
-631.536	800.000	-0.056	-0.192
-630.522	213.073	0.158	0.253
-629.507	151.471	-0.028	0.039
-628.492	800.000	0.029	-0.123
-627.478	368.317	-0.222	0.455
-626.463	-81.262	-0.188	-0.063
-625.449	323.717	-0.194	-0.375
-624.434	-200.000	0.009	0.051
-623.419	-200.000	-0.022	0.101
-622.405	456.643	-0.061	-0.136
-621.390	84.649	0.240	-0.266
-620.376	-165.936	-0.346	0.015
-619.361	403.832	-0.113	-0.240
-618.346	-121.906	-0.407	-0.068
-617.332	-173.967	0.246	0.007
-616.317	101.997	-0.119	-0.141
-615.303	-200.000	-0.010	0.253
-614.288	800.000	-0.035	0.118
-613.273	35.567	-0.168	0.149
-612.259	-110.649	-0.087	-0.018
-611.244	40.124	0.148	0.135
-610.230	167.471	-0.113	-0.163
-609.215	-48.844	-0.241	-0.117
-608.201	-200.000	-0.062	-0.411
-607.186	106.198	-0.099	0.119
-606.171	768.683	-0.039	-0.109
-605.157	-106.151	-0.024	-0.005
-604.142	-69.964	-0.157	-0.061
-603.128	-5.209	0.218	0.152
-602.113	-51.783	-0.395	0.186
-601.098	226.121	-0.105	0.173
-600.084	-97.136	0.244	0.065
-599.069	-13.942	0.223	-0.146
-598.055	-55.313	0.089	-0.041
-597.040	-78.837	-0.087	0.030
-596.025	36.978	0.093	0.083
-595.011	37.665	0.332	-0.298
-593.996	800.000	-0.022	-0.096
-592.982	-200.000	-0.035	-0.472
-591.967	12.880	-0.112	0.088
-590.952	55.342	0.362	0.355
-589.938	-137.578	-0.240	0.027
-588.923	800.000	-0.073	0.272
-587.909	800.000	-0.037	0.125
-586.894	-90.254	-0.090	-0.026
-585.879	-134.983	0.095	0.012
-584.865	372.638	-0.071	0.146
-583.850	-200.000	-0.056	0.319
-582.836	800.000	0.091	-0.259
-581.821	-200.000	-0.044	-0.405
-580.806	-11.282	0.184	-0.123
-579.792	-200.000	-0.005	-0.283
-578.777	800.000	-0.047	-0.172
-577.763	-4.031	-0.135	0.095
-576.748	-200.000	-0.015	-0.251
-575.733	-79.356	0.060	-0.021
-574.719	-200.000	0.032	-0.205
-573.704	-200.000	-0.051	-0.285
-572.690	184.576	-0.120	-0.180
-571.675	-63.716	0.346	0.143
-570.661	-100.659	-0.155	0.039
-569.646	48.369	0.264	-0.250
-568.631	122.560	0.107	-0.135
-567.617	146.105	-0.022	-0.030
-566.602	-78.776	-0.130	0.045
-565.588	-192.683	0.314	-0.003
-564.573	-28.968	0.154	-0.089
-563.558	-200.000	0.021	-0.140
-562.544	-200.000	0.009	-0.228
-561.529	22.228	0.139	0.115
-560.515	-200.000	0.038	0.330
-559.500	3.932	0.307	-0.226
-558.485	-57.289	0.231	-0.103
-557.471	-200.000	-0.008	-0.127
-556.456	-61.888	0.125	0.053
-555.442	226.206	-0.060	-0.098
-554.427	-166.134	-0.240	-0.010
-553.412	-94.716	0.180	-0.049
-552.398	85.598	-0.174	-0.194
-551.383	-87.521	0.062	-0.019
-550.369	-200.000	0.021	0.223
-549.354	-101.603	-0.309	0.076
-548.339	-9.507	-0.431	0.290
-547.325	-152.155	0.175	-0.013
-546.310	-159.906	0.197	0.011
-545.296	-37.321	-0.395	0.213
-544.281	800.000	0.026	-0.078
-543.266	-37.414	-0.347	-0.187
-542.252	576.000	-0.033	0.080
-541.237	800.000	-0.118	-0.392
-540.223	200.988	0.034	0.053
-539.208	-105.348	0.262	0.060
-538.193	800.000	-0.058	-0.223
-537.179	286.227	-0.175	0.320
-536.164	-200.000	-0.019	0.146
-535.150	347.021	-0.245	0.487
-534.135	494.766	-0.090	-0.209
-533.121	800.000	0.163	0.473
-532.106	-200.000	-0.029	0.168
-531.091	279.951	-0.137	-0.246
-530.077	2.745	-0.131	0.096
-529.062	-33.715	0.121	-0.067
-528.048	-200.000	0.041	-0.251
-527.033	419.599	-0.057	-0.123
-526.018	-200.000	-0.009	0.191
-525.004	-86.507	-0.218	-0.067
-523.989	329.171	-0.033	0.064
-522.975	104.378	0.174	0.206
-521.960	-50.536	-0.230	-0.109
-520.945	-122.285	0.260	-0.043
-519.931	-134.137	0.226	-0.028
-518.916	-45.896	-0.170	-0.084
-517.902	-54.833	0.321	-0.146
-516.887	189.129	-0.184	0.278
-515.872	-72.277	-0.406	-0.152
-514.858	330.216	-0.152	-0.295
-513.843	-29.305	0.307	-0.178
-512.829	800.000	-0.019	-0.057
-511.814	-159.549	-0.163	-0.009
-510.799	-200.000	0.009	-0.173
-509.785	-85.445	0.203	-0.064
-508.770	-200.000	0.001	0.101
-507.756	-200.000	0.014	-0.076
-506.741	30.345	-0.285	0.246
-505.726	42.054	0.034	-0.031
-504.712	52.620	0.406	-0.391
-503.697	450.745	-0.033	0.074
-502.683	214.842	-0.204	-0.326
-501.668	222.494	0.037	0.060
-500.653	-131.856	-0.273	-0.036
-499.639	158.297	0.127	0.177
-498.624	175.985	0.135	0.198
-497.610	-87.613	0.291	-0.089
-496.595	-200.000	-0.007	0.094
-495.581	-135.016	0.075	0.009
-494.566	351.611	0.057	-0.114
-493.551	59.035	-0.150	0.149
-492.537	-52.596	-0.132	0.061
-491.522	171.468	0.069	0.100
-490.508	316.191	-0.179	-0.340
-489.493	431.545	-0.013	-0.028
-488.478	-92.718	-0.193	0.055
-487.464	800.000	-0.066	0.256
-486.449	-160.397	-0.240	-0.013
-485.435	-200.000	0.000	-0.213
-484.420	62.605	-0.099	-0.099
-483.405	62.132	0.190	-0.191
-482.391	538.464	-0.076	-0.182
-481.376	-43.182	0.289	-0.147
-480.362	800.000	-0.037	0.123
-479.347	-200.000	0.033	0.193
-478.332	800.000	0.092	-0.262
-477.318	-200.000	-0.036	0.204
-476.303	-86.957	-0.106	-0.032
-475.289	-67.230	0.165	-0.065
-474.274	-17.570	0.144	-0.091
-473.259	800.000	0.067	0.261
-472.245	-15.169	0.372	-0.240
-471.230	274.142	0.011	0.020
-470.216	-116.865	0.261	0.048
-469.201	800.000	0.046	0.192
-468.186	17.466	0.090	0.072
-467.172	-57.303	0.129	0.057
-466.157	800.000	0.059	0.217
-465.143	-144.426	0.290	-0.027
-464.128	-138.900	-0.048	-0.005
-463.113	-200.000	0.012	0.263
-462.099	-13.745	-0.093	-0.060
-461.084	-200.000	0.009	-0.125
-460.070	-165.403	0.100	-0.004
-459.055	637.832	-0.092	-0.236
-458.040	-130.405	0.191	-0.026
-457.026	-80.878	0.181	0.061
-456.011	-200.000	-0.021	-0.183
-454.997	-141.240	-0.390	-0.040
-453.982	749.579	0.030	0.082
-452.968	75.478	0.184	-0.196
-451.953	83.326	-0.177	-0.194
-450.938	378.620	0.158	0.325
-449.924	-54.201	0.133	-0.061
-448.909	-200.000	-0.070	-0.319
-447.895	283.050	-0.108	0.196
-446.880	302.946	0.130	0.242
-445.865	-85.463	-0.129	-0.040
-444.851	800.000	-0.043	0.156
-443.836	-138.669	0.113	-0.012
-442.822	-14.016	0.193	0.125
-441.807	50.835	-0.168	-0.160
-440.792	-57.314	0.213	-0.094
-439.778	662.488	-0.087	0.224
-438.763	82.203	0.134	0.147
-437.749	800.000	-0.070	0.244
-436.734	-153.084	-0.098	-0.007
-435.719	800.000	0.022	-0.092
-434.705	291.233	0.138	-0.252
-433.690	471.461	-0.120	0.272
-432.676	211.953	-0.131	-0.207
-431.661	376.007	0.111	-0.227
-430.646	153.705	0.102	0.141
-429.632	68.862	-0.088	0.091
-428.617	-0.522	-0.285	-0.204
-427.603	-200.000	-0.015	-0.303
-426.588	-40.998	0.192	0.100
-425.573	-54.953	0.411	0.186
-424.559	-52.492	0.179	-0.083
-423.544	-66.670	-0.126	0.050
-422.530	-200.000	0.004	-0.185
-421.515	41.880	0.052	0.047
-420.500	-94.428	-0.102	0.028
-419.486	1.247	-0.230	0.166
-418.471	0.208	-0.221	-0.159
-417.457	-22.801	-0.302	-0.183
-416.442	-26.896	-0.162	-0.095
-415.428	290.656	0.090	0.165
-414.413	-53.815	0.152	0.070
-413.398	-127.597	-0.061	-0.009
-412.384	120.968	0.124	0.155
-411.369	-120.890	-0.071	-0.012
-410.355	-165.080	-0.124	0.006
-409.340	36.685	-0.309	0.274
-408.325	-34.344	-0.154	0.085
-407.311	-200.000	0.021	0.189
-406.296	131.514	-0.052	-0.067
-405.282	-157.641	-0.354	0.021
-404.267	89.308	-0.093	-0.104
-403.252	44.021	-0.240	-0.221
-402.238	18.237	0.195	0.156
-401.223	23.810	0.296	-0.245
-400.209	-153.821	-0.100	-0.007
-399.194	-200.000	0.038	0.219
-398.179	229.281	-0.098	0.161
-397.165	-93.404	-0.089	-0.025
-396.150	-200.000	0.041	-0.194
-395.136	134.777	-0.088	0.114
-394.121	-9.538	0.072	-0.048
-393.106	124.123	0.157	-0.198
-392.092	800.000	0.114	-0.397
-391.077	3.350	0.205	-0.150
-390.063	800.000	-0.043	0.148
-389.048	-100.677	0.273	-0.068
-388.033	53.059	0.192	-0.184
-387.019	-26.188	-0.087	0.051
-386.004	62.743	-0.216	-0.216
-384.990	-126.046	-0.113	0.017
-383.975	-81.498	-0.272	-0.090
-382.960	116.433	0.150	0.185
-381.946	-200.000	-0.023	0.300
-380.931	306.058	0.089	0.166
-379.917	241.450	-0.166	0.278
-378.902	328.221	0.082	-0.158
-377.888	-109.716	0.141	0.030
-376.873	-50.205	-0.190	-0.090
-375.858	-112.393	-0.097	0.019
-374.844	16.894	-0.205	0.163
-373.829	-16.602	0.099	0.063
-372.815	0.077	-0.064	-0.045
-371.800	680.375	-0.186	0.487
-370.785	-200.000	-0.008	0.149
-369.771	-200.000	-0.002	-0.086
-368.756	87.658	0.086	-0.096
-367.742	-83.620	-0.091	0.029
-366.727	84.779	0.187	0.205
-365.712	35.981	0.103	-0.091
-364.698	800.000	0.042	-0.162
-363.683	78.474	0.173	-0.185
-362.669	791.932	0.054	0.150
-361.654	-25.617	-0.080	-0.047
-360.639	111.137	-0.190	0.229
-359.625	475.235	-0.039	0.089
-358.610	280.153	0.141	-0.253
-357.596	228.902	-0.106	-0.174
-356.581	19.848	0.330	-0.267
-355.566	800.000	0.049	0.176
-354.552	284.941	-0.087	-0.157
-353.537	-118.333	0.080	-0.014
-352.523	-57.944	-0.121	-0.053
-351.508	227.632	-0.131	-0.214
-350.493	55.437	-0.195	-0.189
-349.479	15.527	-0.257	0.203
-348.464	-66.115	0.173	-0.069
-347.450	-36.459	0.155	-0.084
-346.435	-57.033	0.103	-0.046
-345.420	362.750	0.040	-0.081
-344.406	236.405	0.132	0.219
-343.391	800.000	-0.080	0.252
-342.377	-124.118	-0.183	-0.029
-341.362	-50.713	0.136	-0.064
-340.348	-200.000	-0.038	0.276
-339.333	3.570	-0.185	-0.135
-338.318	-63.048	0.165	0.068
-337.304	149.365	-0.132	0.179
-336.289	-200.000	0.078	0.436
-335.275	415.621	-0.131	-0.280
-334.260	-200.000	0.005	0.302
-333.245	-43.077	0.171	-0.087
-332.231	800.000	-0.066	-0.197
-331.216	146.011	-0.165	0.222
-330.202	-200.000	0.033	0.350
-329.187	-46.076	0.275	0.136
-328.172	385.087	0.188	-0.389
-327.158	37.747	0.190	-0.169
-326.143	775.371	-0.049	0.134
-325.129	22.249	-0.240	-0.197
-324.114	413.173	0.144	0.306
-323.099	196.400	0.139	-0.212
-322.085	-139.408	-0.321	0.034
-321.070	269.454	0.158	0.278
-320.056	-22.594	0.078	-0.047
-319.041	-155.885	0.194	-0.012
-318.026	20.574	0.132	-0.107
-317.012	16.856	-0.181	-0.143
-315.997	-200.000	-0.000	-0.102
-314.983	-200.000	0.014	0.159
-313.968	509.517	-0.062	0.143
-312.953	29.878	0.309	-0.263
-311.939	55.484	-0.139	-0.135
-310.924	149.476	0.013	0.018
-309.910	88.009	-0.072	0.080
-308.895	-21.158	0.042	0.025
-307.880	-22.170	-0.124	0.075
-306.866	-200.000	-0.027	-0.131
-305.851	-200.000	0.011	0.185
-304.837	604.492	-0.143	0.356
-303.822	-95.775	-0.197	-0.053
-302.807	20.954	0.137	0.111
-301.793	63.670	0.272	-0.273
-300.778	-200.000	-0.000	-0.113
-299.764	106.075	-0.088	-0.104
-298.749	-140.223	0.255	-0.027
-297.735	-11.861	-0.112	-0.073
-296.720	-34.572	-0.146	0.080
-295.705	-82.377	0.146	0.047
-294.691	262.366	-0.184	0.320
-293.676	513.077	0.090	-0.209
-292.662	-200.000	-0.002	0.376
-291.647	174.893	0.156	-0.226
-290.632	-137.765	-0.237	-0.027
-289.618	721.500	-0.060	0.160
-288.603	-5.007	0.193	-0.133
-287.589	115.425	0.153	-0.187
-286.574	-200.000	-0.005	-0.070
-285.559	-200.000	0.007	0.117
-284.545	-200.000	-0.007	-0.472
-283.530	-70.198	0.306	0.116
-282.516	375.337	0.169	0.344
-281.501	299.987	0.021	0.038
-280.486	-73.846	-0.046	-0.017
-279.472	244.424	0.097	-0.163
-278.457	-49.649	0.249	-0.118
-277.443	800.000	-0.101	0.382
-276.428	-62.688	0.406	0.168
-275.413	94.989	0.218	0.248
-274.399	55.802	0.060	0.058
-273.384	247.048	-0.091	-0.154
-272.370	-200.000	0.005	-0.144
-271.355	-200.000	-0.026	0.251
-270.340	74.412	-0.081	0.085
-269.326	425.389	-0.031	-0.067
-268.311	-69.709	-0.085	-0.033
-267.297	-46.693	-0.197	0.096
-266.282	-15.268	-0.288	0.184
-265.267	681.419	-0.057	0.148
-264.253	800.000	-0.094	0.359
-263.238	-145.984	0.219	-0.019
-262.224	128.250	-0.184	0.234
-261.209	322.457	0.198	-0.378
-260.195	136.763	0.077	0.101
-259.180	201.927	0.149	0.230
-258.165	6.592	-0.361	-0.268
-257.151	104.429	0.031	0.036
-256.136	71.903	-0.182	-0.189
-255.122	83.668	0.267	-0.291
-254.107	-200.000	0.009	0.169
-253.092	-25.797	0.072	0.042
-252.078	53.013	-0.095	-0.090
-251.063	188.731	-0.155	0.231
-250.049	-138.803	-0.146	0.016
-249.034	96.416	-0.026	-0.029
-248.019	800.000	-0.017	0.069
-247.005	-3.012	0.235	0.164
-245.990	800.000	-0.038	0.107
-244.976	-83.219	-0.079	0.025
-243.961	166.451	-0.050	-0.071
-242.946	-200.000	-0.055	0.469
-241.932	-79.877	0.144	-0.048
-240.917	-200.000	0.075	-0.478
-239.903	-200.000	0.007	-0.119
-238.888	39.132	-0.182	0.162
-237.873	-200.000	-0.017	-0.164
-236.859	-130.196	-0.186	-0.025
-235.844	94.381	-0.138	0.157
-234.830	185.004	0.232	-0.344
-233.815	106.091	-0.079	0.093
-232.800	-96.800	0.249	0.065
-231.786	465.776	0.132	0.295
-230.771	438.710	0.117	-0.254
-229.757	-200.000	-0.018	-0.243
-228.742	155.176	-0.174	0.238
-227.727	-113.730	0.112	0.022
-226.713	181.212	-0.215	0.315
-225.698	-135.797	-0.092	-0.011
-224.684	-114.526	0.244	-0.047
-223.669	-44.951	-0.155	-0.077
-222.655	-196.224	-0.337	-0.002
-221.640	-80.793	0.090	0.030
-220.625	-127.353	0.237	-0.034
-219.611	211.027	-0.148	0.233
-218.596	-16.207	-0.050	0.032
-217.582	28.579	-0.084	0.071
-216.567	12.717	0.067	-0.052
-215.552	218.820	0.136	-0.217
-214.538	-105.587	0.188	-0.042
-213.523	-49.956	-0.262	-0.124
-212.509	-200.000	0.019	0.152
-211.494	489.349	-0.106	-0.242
-210.479	-65.813	-0.035	0.014
-209.465	-9.429	-0.181	0.120
-208.450	-200.000	0.013	0.133
-207.436	131.742	-0.068	0.087
-206.421	-200.000	0.054	-0.249
-205.406	-200.000	0.042	-0.315
-204.392	-167.819	0.157	-0.006
-203.377	51.427	0.088	-0.083
-202.363	29.911	0.180	-0.153
-201.348	800.000	0.041	0.143
-200.333	-10.728	0.351	0.231
-199.319	-22.956	-0.124	0.075
-198.304	-200.000	-0.443	-0.001
-197.290	-41.673	0.214	-0.110
-196.275	39.351	0.244	-0.218
-195.260	321.688	-0.061	-0.116
-194.246	-175.543	-0.261	-0.007
-193.231	167.933	-0.236	-0.334
-192.217	800.000	0.066	-0.187
-191.202	-200.000	-0.003	-0.339
-190.187	245.967	0.201	0.338
-189.173	800.000	0.085	-0.326
-188.158	-200.000	0.002	-0.458
-187.144	-85.454	0.114	-0.036
-186.129	-66.274	-0.120	-0.048
-185.114	146.087	0.106	0.142
-184.100	-153.237	-0.090	0.006
-183.085	28.150	-0.197	-0.166
-182.071	-45.970	0.221	0.109
-181.056	800.000	0.021	0.062
-180.042	-200.000	0.014	0.363
-179.027	-34.662	0.084	0.046
-178.012	-147.406	0.240	-0.020
-176.998	102.467	-0.093	0.108
-175.983	-200.000	-0.004	0.205
-174.969	-200.000	0.017	0.128
-173.954	652.659	0.049	0.124
-172.939	77.511	0.101	-0.107
-171.925	192.123	0.137	0.206
-170.910	492.485	0.110	0.252
-169.896	-50.796	-0.136	-0.064
-168.881	-60.584	-0.372	0.157
-167.866	-27.850	0.190	-0.110
-166.852	1.971	-0.079	-0.056
-165.837	-101.698	0.347	-0.084
-164.823	-21.963	0.228	-0.138
-163.808	-66.911	0.120	0.047
-162.793	301.075	-0.196	0.361
-161.779	800.000	0.022	0.062
-160.764	20.110	-0.284	0.228
-159.750	-83.078	0.172	0.055
-158.735	-75.138	0.018	0.006
-157.720	574.932	-0.022	0.053
-156.706	-113.828	0.514	-0.100
-155.691	139.313	-0.356	0.466
-154.677	-41.146	-0.221	0.113
-153.662	624.558	0.077	-0.192
-152.647	-200.000	0.015	-0.087
-151.633	-35.971	-0.025	0.013
-150.618	139.512	-0.037	-0.048
-149.604	-115.139	0.239	0.045
-148.589	15.743	-0.242	-0.189
-147.574	-48.071	-0.216	-0.104
-146.560	-13.205	-0.312	-0.202
-145.545	240.697	0.041	0.068
-144.531	173.365	0.172	0.247
-143.516	-131.719	0.437	-0.057
-142.502	-36.475	0.346	0.185
-141.487	-112.448	0.188	0.037
-140.472	-88.255	-0.067	-0.020
-139.458	-91.926	0.326	-0.092
-138.443	72.000	0.140	-0.145
-137.429	53.516	0.202	-0.193
-136.414	28.610	0.186	0.157
-135.399	-200.000	-0.031	-0.305
-134.385	-149.092	-0.183	0.015
-133.370	-37.736	-0.169	-0.089
-132.356	735.570	0.116	-0.309
-131.341	-187.406	0.459	0.006
-130.326	-35.833	-0.076	0.041
-129.312	-200.000	0.057	-0.327
-128.297	-157.006	-0.287	-0.017
-127.283	800.000	0.064	0.248
-126.268	-91.339	0.152	-0.043
-125.253	-200.000	0.060	0.365
-124.239	-12.634	-0.402	0.261
-123.224	31.232	0.111	0.095
-122.210	-169.719	0.109	0.004
-121.195	165.447	0.090	-0.127
