DTS Sentinel unit serial number:	SN413079Multiplexer serial number:	ORYXHardware model number:	OX4-SRSoftware version number:	ORYX F/W v4.00 Oryx Data Collector v3.7.2.0data status	okinstallation	princeton_trtdifferential loss correction	single-endedforward channel	channel 4reverse channel	N/Adate	2019/09/15time	23:37:35forward acquisition time	60.00reverse acquisition time	0.00gamma	496.2192k internal	0.2321k external	0.2321temperature offset calibration	0.9961default loss term (dB/km)	0.3790temperature slope calibration	1.0000multiplexer offset coefficient	1.0000multiplexer slope coefficient	1.0000fibre end	0.00T internal ref (°C)	28.09T ext. ref 1 (°C)	9.23T ext. ref 2 (°C)	21.98length (m)	temperature (°C)	Stokes	anti-Stokes-747.200	-62.647	-0.240	-0.101
-746.185	-22.683	-0.288	0.176
-745.171	-200.000	0.039	-0.227
-744.156	309.551	-0.184	0.348
-743.142	-200.000	-0.005	0.037
-742.127	-168.433	0.188	-0.007
-741.112	178.517	0.161	-0.238
-740.098	-51.800	0.157	0.074
-739.083	800.000	-0.040	0.118
-738.069	193.876	-0.126	0.193
-737.054	481.119	-0.057	-0.130
-736.039	-200.000	-0.093	-0.525
-735.025	21.397	0.313	0.257
-734.010	-107.297	0.318	0.071
-732.996	-31.451	0.090	0.051
-731.981	-200.000	-0.083	-0.374
-730.966	169.842	-0.132	0.191
-729.952	-130.158	0.120	0.017
-728.937	49.447	-0.125	0.119
-727.923	-37.958	-0.181	0.097
-726.908	-116.662	0.262	0.049
-725.894	-200.000	0.003	0.230
-724.879	-117.863	0.116	-0.021
-723.864	44.849	0.052	-0.048
-722.850	-58.120	0.027	0.012
-721.835	125.780	0.009	-0.012
-720.821	799.679	0.036	0.100
-719.806	-79.396	-0.215	0.074
-718.791	93.233	0.270	0.308
-717.777	50.429	-0.382	-0.365
-716.762	-58.542	-0.373	0.164
-715.748	242.268	-0.251	-0.423
-714.733	132.970	0.216	-0.282
-713.718	90.187	0.226	-0.255
-712.704	85.341	0.070	-0.077
-711.689	56.680	-0.186	-0.183
-710.675	800.000	-0.081	-0.305
-709.660	58.028	-0.102	-0.101
-708.645	-58.223	-0.101	-0.044
-707.631	48.678	-0.298	-0.282
-706.616	40.089	-0.129	-0.117
-705.602	-112.340	-0.329	-0.067
-704.587	71.103	0.250	-0.262
-703.572	-75.445	-0.031	0.011
-702.558	-19.135	0.133	-0.083
-701.543	352.068	0.106	-0.213
-700.529	800.000	-0.076	-0.238
-699.514	728.458	-0.076	-0.205
-698.499	-47.622	0.402	-0.197
-697.485	-175.281	-0.220	-0.006
-696.470	-4.277	0.105	-0.074
-695.456	164.915	0.213	0.303
-694.441	-59.968	0.075	0.032
-693.426	-200.000	0.057	0.255
-692.412	-36.973	0.127	0.068
-691.397	-200.000	0.005	0.161
-690.383	-32.586	-0.244	0.137
-689.368	466.182	0.091	0.205
-688.354	122.155	-0.206	-0.259
-687.339	-132.293	-0.538	0.070
-686.324	-200.000	0.025	-0.178
-685.310	-124.512	0.324	0.051
-684.295	131.692	0.094	-0.122
-683.281	-149.884	0.248	0.020
-682.266	-200.000	0.001	0.059
-681.251	800.000	0.090	0.393
-680.237	23.461	-0.153	-0.127
-679.222	-81.010	-0.236	-0.079
-678.208	-80.183	0.035	0.012
-677.193	800.000	0.108	-0.336
-676.178	-22.364	-0.171	-0.104
-675.164	340.575	0.133	0.262
-674.149	-70.163	0.155	0.059
-673.135	-121.092	-0.436	0.074
-672.120	-200.000	-0.052	-0.451
-671.105	115.368	0.179	-0.221
-670.091	800.000	-0.052	-0.172
-669.076	-200.000	-0.004	0.243
-668.062	-200.000	-0.151	0.000
-667.047	-131.903	0.210	0.028
-666.032	-200.000	-0.035	-0.245
-665.018	-45.634	0.231	-0.115
-664.003	-200.000	-0.010	-0.186
-662.989	32.532	0.120	-0.105
-661.974	250.554	0.052	-0.089
-660.959	-200.000	0.036	-0.350
-659.945	-132.021	0.075	-0.010
-658.930	-200.000	-0.057	0.313
-657.916	-112.158	0.157	-0.032
-656.901	445.657	-0.047	-0.105
-655.886	-1.853	-0.257	-0.182
-654.872	595.820	-0.035	-0.086
-653.857	-28.972	-0.418	-0.242
-652.843	267.855	0.088	0.155
-651.828	-139.773	-0.123	0.013
-650.814	-0.202	-0.090	-0.064
-649.799	40.265	0.137	0.124
-648.784	145.524	-0.139	-0.187
-647.770	172.229	-0.153	-0.221
-646.755	-200.000	-0.016	0.099
-645.741	210.294	-0.292	-0.461
-644.726	148.097	-0.182	0.247
-643.711	-110.685	0.222	0.046
-642.697	131.825	0.076	-0.098
-641.682	-126.301	-0.099	-0.015
-640.668	-200.000	0.005	-0.296
-639.653	-62.740	0.161	-0.067
-638.638	-32.557	-0.196	0.110
-637.624	-27.467	0.019	0.011
-636.609	63.388	-0.026	0.027
-635.595	800.000	-0.079	0.249
-634.580	-142.224	-0.327	-0.033
-633.565	117.945	0.117	0.146
-632.551	-178.067	0.254	0.006
-631.536	800.000	0.019	0.079
-630.522	-32.008	-0.237	0.133
-629.507	-130.963	0.219	-0.029
-628.492	90.406	0.218	-0.246
-627.478	-53.645	0.152	0.070
-626.463	-4.781	-0.125	-0.086
-625.449	-146.151	-0.281	0.025
-624.434	-135.572	-0.381	-0.046
-623.419	-179.767	0.318	0.007
-622.405	92.283	-0.247	0.280
-621.390	69.783	-0.165	-0.171
-620.376	17.630	-0.145	-0.116
-619.361	43.261	-0.089	0.082
-618.346	38.976	0.313	0.281
-617.332	-200.000	0.023	-0.275
-616.317	57.695	-0.226	0.222
-615.303	-163.026	-0.084	-0.004
-614.288	-117.214	0.159	0.029
-613.273	800.000	0.070	-0.219
-612.259	203.805	0.204	0.318
-611.244	-26.629	-0.183	0.108
-610.230	55.493	0.240	0.233
-609.215	-79.626	-0.496	0.168
-608.201	123.952	-0.083	-0.105
-607.186	233.863	0.079	-0.130
-606.171	-118.795	-0.180	0.032
-605.157	-69.615	0.285	-0.110
-604.142	360.527	-0.127	-0.255
-603.128	800.000	-0.002	-0.010
-602.113	-200.000	0.077	0.441
-601.098	86.002	0.088	-0.097
-600.084	26.946	-0.227	-0.192
-599.069	-169.349	-0.315	0.012
-598.055	800.000	-0.092	0.289
-597.040	-153.247	0.343	-0.024
-596.025	-115.440	-0.081	0.015
-595.011	-59.171	-0.139	0.060
-593.996	417.836	0.097	-0.209
-592.982	-177.326	0.086	-0.002
-591.967	-200.000	0.047	-0.337
-590.952	800.000	-0.131	-0.474
-589.938	-77.096	-0.206	-0.072
-588.923	-200.000	0.061	0.305
-587.909	-200.000	0.035	-0.190
-586.894	-200.000	0.007	-0.135
-585.879	-173.128	0.169	-0.005
-584.865	124.040	0.166	0.209
-583.850	-144.757	-0.204	0.019
-582.836	52.402	0.033	0.031
-581.821	-137.758	0.458	0.052
-580.806	800.000	0.047	0.151
-579.792	655.336	-0.094	0.241
-578.777	70.305	0.098	0.102
-577.763	800.000	-0.045	0.136
-576.748	-200.000	-0.024	0.146
-575.733	40.393	-0.278	0.252
-574.719	-200.000	0.012	-0.228
-573.704	800.000	0.069	-0.244
-572.690	4.036	0.086	-0.063
-571.675	12.145	0.221	0.170
-570.661	-38.893	-0.104	-0.055
-569.646	37.383	0.285	-0.254
-568.631	800.000	-0.034	-0.108
-567.617	16.774	0.075	-0.059
-566.602	-143.649	-0.401	-0.038
-565.588	518.919	0.085	-0.199
-564.573	122.982	0.121	-0.152
-563.558	113.630	-0.116	0.141
-562.544	-200.000	-0.002	0.074
-561.529	85.897	0.196	-0.216
-560.515	-28.581	0.187	-0.108
-559.500	-87.192	-0.130	0.040
-558.485	556.131	-0.069	-0.168
-557.471	67.407	-0.087	-0.089
-556.456	261.426	-0.256	-0.444
-555.442	-200.000	-0.011	0.202
-554.427	68.022	0.100	0.102
-553.412	-116.652	-0.264	0.049
-552.398	-152.091	0.418	0.031
-551.383	-200.000	-0.026	-0.136
-550.369	-112.179	-0.251	0.051
-549.354	683.013	-0.031	-0.082
-548.339	-94.758	-0.053	0.014
-547.325	-114.301	-0.267	0.052
-546.310	24.976	-0.107	0.089
-545.296	-67.206	0.376	0.148
-544.281	-83.141	0.565	-0.182
-543.266	800.000	-0.044	0.154
-542.252	-104.352	0.260	-0.060
-541.237	137.149	0.166	0.218
-540.223	85.799	-0.055	0.061
-539.208	-82.946	0.306	-0.099
-538.193	800.000	0.139	-0.501
-537.179	110.516	-0.156	-0.188
-536.164	153.214	-0.117	0.161
-535.150	201.069	0.111	-0.171
-534.135	-77.836	0.372	-0.129
-533.121	339.818	0.105	0.205
-532.106	800.000	-0.070	-0.278
-531.091	-134.452	0.172	-0.021
-530.077	56.524	-0.140	0.137
-529.062	90.343	-0.212	0.238
-528.048	262.646	-0.103	-0.178
-527.033	-200.000	0.066	0.319
-526.018	-28.059	-0.385	-0.223
-525.004	72.636	0.076	-0.080
-523.989	-200.000	-0.057	-0.252
-522.975	36.305	-0.172	-0.152
-521.960	-200.000	0.006	-0.181
-520.945	148.299	0.310	-0.419
-519.931	800.000	-0.045	-0.169
-518.916	800.000	-0.068	-0.263
-517.902	16.198	0.193	0.152
-516.887	315.390	0.124	0.235
-515.872	62.663	-0.112	-0.112
-514.858	-56.647	-0.205	-0.091
-513.843	-131.374	-0.241	0.032
-512.829	-94.698	0.125	0.034
-511.814	-51.619	-0.153	-0.071
-510.799	171.229	0.065	-0.093
-509.785	-164.831	-0.124	-0.006
-508.770	134.679	-0.025	-0.032
-507.756	139.407	-0.070	0.092
-506.741	800.000	0.043	-0.133
-505.726	-20.182	-0.196	-0.121
-504.712	-122.168	-0.226	0.037
-503.697	-171.191	-0.209	-0.007
-502.683	103.581	-0.177	-0.208
-501.668	-0.328	-0.154	-0.109
-500.653	800.000	0.116	0.328
-499.639	-95.606	0.024	0.006
-498.624	641.657	-0.186	0.474
-497.610	-143.712	0.117	0.011
-496.595	800.000	-0.046	0.154
-495.581	49.784	-0.146	0.138
-494.566	-121.949	-0.094	0.015
-493.551	555.914	0.056	0.136
-492.537	-49.810	-0.337	-0.160
-491.522	182.132	0.145	0.214
-490.508	-100.538	-0.352	-0.087
-489.493	-200.000	-0.054	0.317
-488.478	558.982	-0.033	-0.079
-487.464	-200.000	-0.049	-0.379
-486.449	-61.824	0.354	-0.148
-485.435	-200.000	-0.002	0.270
-484.420	414.110	-0.091	0.194
-483.405	-12.096	0.043	-0.028
-482.391	-200.000	-0.025	0.145
-481.376	40.182	0.111	-0.100
-480.362	-121.827	0.187	0.031
-479.347	-6.592	-0.244	0.166
-478.332	69.306	0.185	-0.191
-477.318	-200.000	-0.016	0.169
-476.303	-22.848	-0.370	-0.223
-475.289	33.237	0.192	0.166
-474.274	800.000	0.027	0.076
-473.259	-136.126	0.274	0.032
-472.245	67.409	0.197	-0.201
-471.230	-200.000	0.005	-0.145
-470.216	143.392	-0.113	-0.151
-469.201	-20.901	-0.359	0.220
-468.186	46.587	0.295	0.274
-467.172	-9.188	-0.332	-0.222
-466.157	-200.000	0.004	-0.188
-465.143	19.447	0.135	0.108
-464.128	-65.485	-0.224	-0.090
-463.113	-200.000	-0.036	-0.174
-462.099	-26.889	0.210	-0.123
-461.084	31.505	-0.154	0.132
-460.070	-86.751	-0.033	-0.010
-459.055	-130.452	0.106	0.014
-458.040	45.762	-0.054	-0.050
-457.026	104.214	0.079	-0.093
-456.011	304.822	-0.163	0.302
-454.997	258.930	0.072	-0.124
-453.982	-37.378	-0.434	-0.232
-452.968	108.296	0.108	0.129
-451.953	-90.557	-0.321	0.093
-450.938	103.574	0.142	0.167
-449.924	-142.067	-0.331	0.033
-448.909	560.883	-0.102	-0.245
-447.895	-200.000	-0.037	-0.303
-446.880	53.477	-0.244	-0.234
-445.865	2.330	-0.198	0.143
-444.851	-26.250	-0.205	-0.120
-443.836	-129.179	-0.330	-0.046
-442.822	-200.000	-0.023	0.160
-441.807	-75.693	0.297	0.105
-440.792	-200.000	-0.048	0.257
-439.778	223.874	0.047	-0.076
-438.763	-200.000	0.025	0.414
-437.749	-36.301	-0.174	0.094
-436.734	-200.000	0.022	0.342
-435.719	139.053	-0.162	0.213
-434.705	800.000	-0.088	-0.245
-433.690	800.000	0.049	0.137
-432.676	-200.000	-0.040	-0.238
-431.661	-102.434	-0.130	-0.031
-430.646	-52.688	-0.027	0.012
-429.632	681.350	-0.040	0.105
-428.617	-111.905	-0.266	-0.054
-427.603	-160.460	0.106	-0.006
-426.588	-70.944	0.274	-0.103
-425.573	-110.704	0.207	-0.043
-424.559	-135.891	0.239	-0.028
-423.544	195.103	-0.143	-0.216
-422.530	63.728	0.046	-0.047
-421.515	32.148	0.268	0.230
-420.500	167.412	0.111	-0.158
-419.486	-109.216	0.222	0.047
-418.471	-200.000	-0.040	0.175
-417.457	-114.604	-0.108	-0.021
-416.442	-200.000	-0.446	-0.002
-415.428	541.652	0.029	0.069
-414.413	48.593	0.181	-0.169
-413.398	-158.442	0.174	0.010
-412.384	504.158	0.101	0.233
-411.369	68.645	-0.045	-0.046
-410.355	-76.093	0.181	-0.064
-409.340	119.690	-0.067	0.083
-408.325	-149.797	-0.143	0.011
-407.311	152.851	0.213	0.290
-406.296	40.675	0.059	-0.053
-405.282	-46.615	0.289	0.141
-404.267	-92.644	0.285	0.080
-403.252	391.238	-0.033	0.068
-402.238	-200.000	-0.004	-0.088
-401.223	-200.000	0.005	0.059
-400.209	-200.000	-0.023	0.141
-399.194	-146.601	0.238	0.021
-398.179	-81.783	-0.247	0.081
-397.165	212.854	-0.002	0.004
-396.150	-107.189	-0.173	-0.038
-395.136	-176.076	0.129	0.003
-394.121	800.000	-0.044	-0.150
-393.106	800.000	0.150	-0.598
-392.092	-200.000	-0.012	0.103
-391.077	22.205	-0.061	-0.049
-390.063	-76.496	0.117	0.041
-389.048	800.000	0.050	0.175
-388.033	-200.000	0.034	0.166
-387.019	63.622	-0.150	0.150
-386.004	-84.504	0.191	-0.060
-384.990	-200.000	-0.004	-0.045
-383.975	800.000	0.020	0.082
-382.960	763.291	-0.039	-0.106
-381.946	445.880	0.073	-0.159
-380.931	315.529	0.093	0.176
-379.917	-200.000	-0.029	0.228
-378.902	558.351	-0.084	-0.202
-377.888	-200.000	-0.027	0.193
-376.873	-200.000	-0.006	-0.029
-375.858	43.554	0.090	0.082
-374.844	-118.120	-0.199	0.035
-373.829	-143.664	-0.332	0.031
-372.815	-200.000	0.010	-0.075
-371.800	39.865	-0.112	-0.100
-370.785	143.499	-0.152	0.201
-369.771	-87.151	0.137	-0.041
-368.756	-26.432	0.252	0.147
-367.742	-200.000	-0.011	0.166
-366.727	-70.174	0.134	0.051
-365.712	-57.454	-0.035	-0.015
-364.698	-200.000	-0.080	-0.376
-363.683	-105.914	-0.045	0.010
-362.669	-13.790	-0.235	0.151
-361.654	-200.000	0.040	-0.295
-360.639	-200.000	-0.023	0.138
-359.625	800.000	0.035	0.145
-358.610	96.862	0.065	-0.074
-357.596	223.211	-0.040	0.065
-356.581	-200.000	-0.026	0.219
-355.566	800.000	-0.046	-0.129
-354.552	800.000	0.113	-0.380
-353.537	800.000	-0.015	-0.059
-352.523	-26.342	0.040	-0.023
-351.508	-200.000	-0.049	0.221
-350.493	-125.711	-0.487	0.073
-349.479	-200.000	0.013	0.060
-348.464	24.517	0.277	-0.228
-347.450	312.096	-0.135	-0.252
-346.435	582.051	0.090	0.219
-345.420	-162.841	-0.105	-0.005
-344.406	-31.802	-0.227	-0.127
-343.391	94.703	-0.187	0.211
-342.377	-76.812	-0.164	0.057
-341.362	-25.961	0.103	-0.060
-340.348	40.744	0.134	-0.120
-339.333	-53.354	0.219	-0.100
-338.318	-200.000	0.067	-0.300
-337.304	-200.000	0.004	0.018
-336.289	800.000	-0.038	-0.130
-335.275	57.221	-0.200	0.194
-334.260	800.000	-0.056	0.206
-333.245	800.000	-0.084	0.330
-332.231	800.000	0.047	0.184
-331.216	-54.981	-0.184	-0.082
-330.202	-100.464	0.078	-0.019
-329.187	-129.223	-0.136	-0.019
-328.172	-154.643	-0.287	0.019
-327.158	800.000	-0.027	-0.101
-326.143	64.791	0.190	-0.190
-325.129	800.000	0.054	0.191
-324.114	387.835	0.188	-0.387
-323.099	-168.996	0.090	0.003
-322.085	-192.734	-0.111	0.001
-321.070	-5.050	-0.510	0.349
-320.056	268.945	-0.085	-0.149
-319.041	224.190	-0.145	0.233
-318.026	-79.451	0.314	0.106
-317.012	50.532	0.067	0.063
-315.997	-200.000	-0.007	0.060
-314.983	105.052	-0.219	0.257
-313.968	-200.000	-0.004	-0.141
-312.953	-11.581	0.172	0.112
-311.939	360.075	-0.072	0.144
-310.924	800.000	0.150	0.415
-309.910	67.563	-0.187	0.190
-308.895	-63.953	0.165	0.067
-307.880	-125.562	0.184	0.028
-306.866	-191.337	0.155	0.002
-305.851	147.494	0.184	0.246
-304.837	-200.000	0.003	-0.059
-303.822	-144.947	-0.316	-0.029
-302.807	-126.212	0.066	0.010
-301.793	-25.091	0.201	0.118
-300.778	665.368	0.014	0.037
-299.764	-25.521	0.299	0.176
-298.749	375.773	0.059	0.119
-297.735	713.847	0.081	-0.214
-296.720	330.156	0.039	-0.074
-295.705	256.047	0.152	0.259
-294.691	800.000	-0.110	0.347
-293.676	41.801	0.241	-0.217
-292.662	-162.644	0.090	-0.004
-291.647	-150.013	0.065	0.005
-290.632	-200.000	0.027	-0.255
-289.618	23.174	-0.104	-0.085
-288.603	9.838	-0.201	0.152
-287.589	-200.000	-0.017	0.261
-286.574	800.000	-0.034	-0.104
-285.559	585.196	0.082	-0.199
-284.545	-49.282	0.168	-0.080
-283.530	-143.888	0.185	0.017
-282.516	93.069	0.202	-0.226
-281.501	-200.000	0.051	-0.285
-280.486	-200.000	-0.012	-0.403
-279.472	120.193	0.142	0.175
-278.457	-147.230	-0.285	0.024
-277.443	-146.936	-0.110	-0.009
-276.428	-58.556	0.326	-0.140
-275.413	320.060	0.141	-0.266
-274.399	-101.884	0.498	-0.119
-273.384	-102.305	-0.460	0.110
-272.370	-200.000	0.000	0.205
-271.355	-76.683	0.348	-0.121
-270.340	-132.102	0.173	0.022
-269.326	-200.000	0.013	-0.435
-268.311	800.000	0.098	-0.284
-267.297	109.107	-0.223	0.265
-266.282	800.000	0.054	-0.161
-265.267	710.824	0.049	0.130
-264.253	356.958	0.058	-0.116
-263.238	231.978	-0.112	0.182
-262.224	425.848	0.049	-0.105
-261.209	-23.205	0.381	-0.227
-260.195	-34.596	0.134	0.073
-259.180	-200.000	0.017	-0.113
-258.165	81.020	-0.165	-0.176
-257.151	176.334	0.109	0.157
-256.136	67.749	0.274	0.278
-255.122	90.253	-0.182	0.202
-254.107	-163.885	-0.316	-0.015
-253.092	-200.000	-0.046	-0.279
-252.078	-97.951	-0.068	-0.017
-251.063	32.187	-0.273	-0.233
-250.049	39.241	0.041	-0.036
-249.034	-112.006	0.105	-0.021
-248.019	-132.667	0.204	-0.026
-247.005	-129.237	-0.336	0.046
-245.990	-200.000	-0.011	0.424
-244.976	147.533	-0.138	0.184
-243.961	-3.016	-0.190	-0.132
-242.946	-11.542	0.073	-0.047
-241.932	-48.050	-0.284	0.136
-240.917	210.384	-0.078	0.122
-239.903	800.000	-0.054	0.171
-238.888	101.715	-0.109	0.126
-237.873	-56.758	0.222	0.097
-236.859	-167.655	0.154	0.006
-235.844	-55.519	0.186	0.083
-234.830	185.183	-0.054	0.080
-233.815	-155.887	0.338	-0.021
-232.800	-38.107	0.176	0.092
-231.786	264.145	0.190	0.328
-230.771	800.000	0.033	0.123
-229.757	-183.721	0.531	-0.009
-228.742	-33.857	0.267	-0.146
-227.727	-94.403	0.268	0.072
-226.713	-23.018	0.093	0.056
-225.698	-11.108	0.102	0.067
-224.684	456.676	-0.097	0.213
-223.669	-25.790	-0.325	0.190
-222.655	-165.840	0.362	0.015
-221.640	69.204	0.467	-0.475
-220.625	-115.151	0.212	0.040
-219.611	-117.266	-0.203	0.036
-218.596	1.153	-0.190	0.135
-217.582	142.420	0.258	-0.339
-216.567	-24.396	0.026	-0.015
-215.552	469.830	0.105	0.233
-214.538	-21.075	-0.274	-0.166
-213.523	-200.000	-0.006	0.131
-212.509	-97.600	0.168	-0.043
-211.494	331.876	-0.109	-0.208
-210.479	94.943	-0.113	0.128
-209.465	-77.151	-0.147	0.051
-208.450	-200.000	0.067	-0.419
-207.436	-163.940	-0.182	-0.008
-206.421	-200.000	0.046	0.211
-205.406	-200.000	-0.002	0.277
-204.392	-200.000	-0.003	0.107
-203.377	-50.671	0.299	-0.139
-202.363	69.523	0.128	-0.130
-201.348	-63.503	-0.135	-0.055
-200.333	7.797	-0.189	-0.140
-199.319	-102.106	-0.081	-0.019
-198.304	-200.000	-0.039	0.187
-197.290	102.106	0.286	0.330
-196.275	-191.409	0.175	0.002
-195.260	609.009	-0.129	0.318
-194.246	800.000	0.021	-0.087
-193.231	-181.342	0.186	-0.004
-192.217	-200.000	0.023	0.202
-191.202	800.000	-0.043	0.158
-190.187	-200.000	0.005	0.181
-189.173	125.614	-0.217	0.272
-188.158	800.000	0.038	-0.105
-187.144	800.000	0.079	0.310
-186.129	-98.469	-0.346	-0.087
-185.114	184.242	-0.156	-0.228
-184.100	220.406	-0.151	-0.240
-183.085	133.965	0.056	-0.072
-182.071	672.873	0.047	0.119
-181.056	800.000	-0.068	0.230
-180.042	32.558	-0.241	-0.206
-179.027	-6.074	0.142	-0.096
-178.012	-200.000	0.038	0.166
-176.998	-10.958	-0.266	-0.174
-175.983	-111.144	0.252	0.051
-174.969	800.000	-0.074	-0.307
-173.954	-200.000	-0.035	-0.231
-172.939	-45.412	-0.047	0.023
-171.925	-92.267	0.240	0.067
-170.910	257.392	-0.161	-0.273
-169.896	34.337	0.141	-0.121
-168.881	284.791	-0.042	-0.076
-167.866	29.215	0.359	-0.301
-166.852	-111.103	0.308	-0.062
-165.837	-200.000	0.026	-0.372
-164.823	-200.000	0.088	-0.451
-163.808	30.757	0.187	-0.159
-162.793	129.243	-0.275	-0.347
-161.779	55.696	-0.074	0.071
-160.764	-1.096	-0.250	0.174
-159.750	-158.389	-0.192	-0.011
-158.735	-200.000	-0.042	0.220
-157.720	-200.000	-0.025	0.140
-156.706	-200.000	-0.005	0.076
-155.691	130.881	-0.013	-0.017
-154.677	-43.592	-0.233	-0.116
-153.662	-200.000	0.041	0.474
-152.647	-124.231	0.252	0.039
-151.633	-67.001	0.191	-0.074
-150.618	-20.411	-0.201	-0.122
-149.604	37.603	-0.178	-0.156
-148.589	-48.466	0.117	-0.055
-147.574	800.000	0.069	0.209
-146.560	40.893	-0.128	-0.114
-145.545	41.258	-0.115	-0.102
-144.531	8.840	-0.032	0.024
-143.516	-7.075	0.358	0.240
-142.502	-200.000	-0.002	0.114
-141.487	-94.824	0.364	-0.097
-140.472	-127.393	0.227	0.033
-139.458	-3.765	-0.203	-0.139
-138.443	17.220	-0.314	-0.246
-137.429	-99.927	0.033	-0.008
-136.414	261.941	-0.132	-0.226
-135.399	-61.021	0.414	0.172
-134.385	-112.078	0.042	0.008
-133.370	-8.456	0.094	0.063
-132.356	152.155	0.219	-0.295
-131.341	-200.000	-0.011	0.181
-130.326	-71.054	0.149	-0.055
-129.312	177.838	-0.128	-0.185
-128.297	-148.683	-0.195	0.016
-127.283	-31.306	-0.185	0.103
-126.268	-60.152	0.229	-0.096
-125.253	-200.000	-0.026	-0.117
-124.239	-200.000	-0.006	0.082
-123.224	-95.524	0.117	-0.031
-122.210	800.000	0.086	0.297
