DTS Sentinel unit serial number:	SN413079Multiplexer serial number:	ORYXHardware model number:	OX4-SRSoftware version number:	ORYX F/W v4.00 Oryx Data Collector v3.7.2.0data status	okinstallation	princeton_trtdifferential loss correction	single-endedforward channel	channel 4reverse channel	N/Adate	2019/09/14time	16:17:34forward acquisition time	60.00reverse acquisition time	0.00gamma	496.2192k internal	0.2294k external	0.2294temperature offset calibration	1.0133default loss term (dB/km)	0.3790temperature slope calibration	1.0000multiplexer offset coefficient	1.0000multiplexer slope coefficient	1.0000fibre end	0.00T internal ref (°C)	38.19T ext. ref 1 (°C)	5.09T ext. ref 2 (°C)	32.79length (m)	temperature (°C)	Stokes	anti-Stokes-747.200	800.000	-0.019	0.063
-746.185	33.260	0.119	0.105
-745.171	-200.000	-0.007	0.283
-744.156	-68.820	0.342	0.135
-743.142	-200.000	-0.002	0.065
-742.127	48.708	-0.139	0.134
-741.112	800.000	-0.069	0.247
-740.098	255.785	-0.198	0.347
-739.083	-135.993	-0.333	-0.040
-738.069	-200.000	0.005	-0.106
-737.054	65.755	-0.163	0.169
-736.039	-182.895	-0.370	0.007
-735.025	-108.355	0.234	0.052
-734.010	175.073	0.112	-0.165
-732.996	-35.515	0.245	-0.136
-731.981	-200.000	0.001	-0.097
-730.966	93.679	-0.269	-0.312
-729.952	117.141	0.047	-0.059
-728.937	-79.095	-0.222	-0.077
-727.923	-146.354	-0.141	-0.013
-726.908	-123.336	-0.357	0.058
-725.894	-200.000	0.002	-0.125
-724.879	-4.405	0.014	0.010
-723.864	-117.808	0.093	-0.017
-722.850	-135.550	-0.276	0.034
-721.835	-28.025	0.236	-0.140
-720.821	135.017	-0.165	-0.219
-719.806	114.922	-0.085	-0.106
-718.791	-200.000	-0.052	-0.324
-717.777	10.210	-0.263	-0.205
-716.762	62.588	0.183	-0.187
-715.748	-7.596	-0.320	-0.221
-714.733	125.623	-0.052	-0.067
-713.718	-66.228	0.188	-0.077
-712.704	800.000	-0.101	-0.373
-711.689	98.066	0.213	0.251
-710.675	331.228	0.145	-0.285
-709.660	15.952	-0.116	0.093
-708.645	-131.329	-0.284	-0.038
-707.631	205.997	0.217	0.345
-706.616	-200.000	0.006	0.106
-705.602	98.827	-0.033	-0.039
-704.587	-33.717	-0.348	-0.196
-703.572	-200.000	0.019	-0.389
-702.558	-200.000	0.020	-0.152
-701.543	118.012	-0.196	-0.247
-700.529	39.768	-0.278	0.255
-699.514	-200.000	0.000	-0.164
-698.499	-11.242	-0.323	-0.217
-697.485	-1.028	0.076	-0.055
-696.470	81.697	0.026	-0.028
-695.456	800.000	-0.031	-0.124
-694.441	95.352	0.178	-0.207
-693.426	-150.464	-0.132	0.010
-692.412	-39.199	0.232	0.124
-691.397	234.998	0.014	0.024
-690.383	-200.000	-0.023	-0.274
-689.368	-200.000	0.007	-0.255
-688.354	200.467	-0.145	0.227
-687.339	800.000	0.046	0.186
-686.324	-67.963	0.172	-0.069
-685.310	-152.654	-0.255	-0.019
-684.295	800.000	0.053	0.162
-683.281	800.000	-0.030	0.108
-682.266	-93.310	0.107	0.030
-681.251	-200.000	0.013	0.156
-680.237	706.466	0.061	0.165
-679.222	-31.103	-0.158	-0.091
-678.208	-50.273	-0.330	0.159
-677.193	-200.000	-0.040	0.217
-676.178	-105.941	0.241	0.055
-675.164	-200.000	-0.037	-0.222
-674.149	-48.004	0.193	0.095
-673.135	-50.965	0.170	0.082
-672.120	205.780	0.095	-0.151
-671.105	340.027	0.177	-0.351
-670.091	-4.637	-0.139	0.098
-669.076	-145.583	-0.047	-0.004
-668.062	-53.976	-0.228	0.106
-667.047	-200.000	-0.009	0.144
-666.032	-94.512	-0.058	0.016
-665.018	-27.824	0.191	-0.113
-664.003	-115.356	0.170	0.033
-662.989	-200.000	0.011	-0.161
-661.974	9.637	-0.079	0.061
-660.959	389.809	-0.196	-0.414
-659.945	-200.000	0.034	-0.521
-658.930	800.000	-0.049	-0.174
-657.916	151.108	0.105	0.146
-656.901	-172.702	0.061	-0.002
-655.886	-95.041	-0.059	0.016
-654.872	-200.000	0.049	-0.239
-653.857	-105.248	0.277	0.064
-652.843	759.972	-0.118	0.327
-651.828	-15.245	-0.012	0.008
-650.814	-200.000	-0.025	-0.155
-649.799	-72.491	-0.576	0.217
-648.784	800.000	0.014	0.041
-647.770	232.745	-0.123	-0.206
-646.755	-8.274	0.306	0.210
-645.741	31.465	-0.079	0.069
-644.726	-200.000	-0.049	-0.300
-643.711	-63.380	0.168	-0.071
-642.697	800.000	-0.098	0.322
-641.682	685.167	0.109	0.289
-640.668	-200.000	0.034	0.260
-639.653	351.999	0.038	0.076
-638.638	800.000	-0.015	-0.054
-637.624	75.803	0.122	-0.132
-636.609	179.682	0.027	0.041
-635.595	325.104	-0.054	0.104
-634.580	-99.422	-0.323	0.083
-633.565	419.507	-0.130	-0.284
-632.551	51.222	-0.322	-0.311
-631.536	778.634	0.055	-0.153
-630.522	89.796	-0.055	0.062
-629.507	-112.146	0.115	-0.024
-628.492	-55.900	0.238	0.108
-627.478	74.110	-0.181	0.193
-626.463	800.000	-0.008	-0.033
-625.449	-79.808	-0.412	0.141
-624.434	-26.125	0.091	0.054
-623.419	527.854	0.081	-0.195
-622.405	-37.677	-0.192	0.104
-621.390	800.000	-0.083	0.264
-620.376	-200.000	0.041	0.270
-619.361	800.000	-0.035	0.137
-618.346	-59.935	0.184	0.080
-617.332	422.970	-0.057	-0.124
-616.317	-111.658	0.342	-0.071
-615.303	-53.962	-0.123	-0.057
-614.288	208.058	0.067	-0.106
-613.273	280.102	0.093	0.170
-612.259	762.814	-0.151	0.417
-611.244	57.012	-0.123	-0.122
-610.230	-129.452	0.060	-0.008
-609.215	485.245	0.103	0.239
-608.201	-56.730	0.234	0.105
-607.186	467.886	-0.138	-0.316
-606.171	800.000	-0.102	-0.437
-605.157	55.150	-0.090	0.088
-604.142	-200.000	-0.073	-0.373
-603.128	-200.000	0.033	0.208
-602.113	800.000	-0.060	0.249
-601.098	166.780	-0.121	-0.174
-600.084	-200.000	0.042	0.440
-599.069	-200.000	-0.038	-0.326
-598.055	364.664	0.177	0.363
-597.040	-24.019	-0.145	-0.088
-596.025	-81.036	-0.143	-0.048
-595.011	19.839	-0.335	0.275
-593.996	186.021	0.092	0.139
-592.982	142.579	-0.045	0.060
-591.967	358.073	0.142	-0.288
-590.952	525.058	-0.060	-0.144
-589.938	-13.227	-0.229	-0.151
-588.923	-35.949	-0.130	-0.071
-587.909	82.631	-0.161	0.178
-586.894	46.075	-0.143	-0.135
-585.879	-200.000	0.008	0.073
-584.865	-56.548	0.213	-0.096
-583.850	800.000	0.049	0.182
-582.836	-55.133	-0.197	-0.090
-581.821	-200.000	-0.030	-0.227
-580.806	-200.000	0.015	0.277
-579.792	-200.000	0.026	0.256
-578.777	-200.000	-0.006	-0.387
-577.763	-200.000	-0.051	-0.308
-576.748	-80.179	-0.069	-0.024
-575.733	-17.458	-0.390	-0.250
-574.719	774.250	-0.063	-0.174
-573.704	393.292	-0.047	0.100
-572.690	-200.000	-0.042	0.282
-571.675	697.728	-0.088	-0.234
-570.661	-91.189	0.202	0.059
-569.646	470.619	0.089	0.204
-568.631	571.271	-0.106	0.261
-567.617	-45.447	0.412	0.208
-566.602	-96.486	0.223	0.060
-565.588	-200.000	0.008	-0.275
-564.573	12.186	-0.211	0.165
-563.558	97.443	-0.220	0.257
-562.544	800.000	-0.014	0.043
-561.529	800.000	-0.081	-0.263
-560.515	134.827	0.216	-0.285
-559.500	-70.840	0.233	-0.089
-558.485	7.099	0.239	-0.181
-557.471	-20.971	-0.279	-0.173
-556.456	-10.795	-0.344	0.231
-555.442	416.816	0.153	0.331
-554.427	-86.046	-0.121	-0.038
-553.412	800.000	-0.052	-0.225
-552.398	245.762	0.129	0.220
-551.383	-67.880	-0.450	-0.178
-550.369	-186.020	0.275	0.004
-549.354	238.822	-0.210	-0.354
-548.339	511.248	-0.127	-0.300
-547.325	130.819	0.146	-0.191
-546.310	-200.000	-0.046	-0.336
-545.296	18.587	-0.160	0.130
-544.281	-163.437	-0.434	-0.021
-543.266	25.512	-0.121	0.102
-542.252	-38.488	-0.256	0.138
-541.237	-115.895	0.155	0.029
-540.223	53.171	0.138	0.134
-539.208	224.719	-0.067	0.110
-538.193	-56.660	0.132	-0.059
-537.179	-64.044	-0.189	0.078
-536.164	-200.000	0.008	0.086
-535.150	161.450	0.284	0.403
-534.135	628.852	-0.069	-0.177
-533.121	-200.000	0.038	-0.319
-532.106	581.373	0.084	-0.210
-531.091	-68.764	0.230	0.090
-530.077	-138.297	-0.354	0.040
-529.062	-200.000	0.024	0.219
-528.048	-123.043	-0.158	-0.026
-527.033	213.382	-0.090	-0.145
-526.018	21.979	0.192	0.159
-525.004	-120.149	-0.237	0.041
-523.989	-57.147	-0.133	0.059
-522.975	-97.124	0.111	-0.029
-521.960	-75.670	0.189	0.068
-520.945	160.347	0.227	-0.322
-519.931	-61.519	0.047	0.020
-518.916	13.589	0.106	-0.084
-517.902	-62.607	-0.280	-0.118
-516.887	-76.294	0.165	0.059
-515.872	800.000	-0.008	-0.029
-514.858	-136.345	0.333	-0.039
-513.843	90.918	-0.135	-0.153
-512.829	159.591	-0.107	0.150
-511.814	182.197	-0.096	-0.144
-510.799	800.000	-0.174	-0.532
-509.785	-19.503	0.264	-0.166
-508.770	141.189	-0.047	-0.064
-507.756	-200.000	0.022	-0.112
-506.741	-125.274	-0.271	0.042
-505.726	112.260	-0.121	0.148
-504.712	56.557	-0.295	0.291
-503.697	98.985	-0.043	0.050
-502.683	53.224	0.129	-0.125
-501.668	168.911	0.221	0.320
-500.653	-1.804	0.142	-0.101
-499.639	14.885	-0.100	-0.079
-498.624	23.440	0.063	0.053
-497.610	22.489	0.010	-0.008
-496.595	342.978	0.108	0.215
-495.581	-200.000	-0.016	-0.334
-494.566	-156.106	0.347	0.022
-493.551	34.726	-0.117	0.103
-492.537	295.039	0.050	0.093
-491.522	-45.742	0.057	0.029
-490.508	83.403	0.132	0.145
-489.493	-0.717	0.100	-0.072
-488.478	-48.274	-0.318	-0.155
-487.464	-200.000	-0.014	0.077
-486.449	-88.431	0.318	-0.096
-485.435	747.607	0.076	-0.207
-484.420	311.329	-0.094	0.178
-483.405	47.279	0.115	0.108
-482.391	128.637	-0.046	0.060
-481.376	-50.314	-0.381	0.182
-480.362	-81.637	-0.295	-0.098
-479.347	800.000	0.036	-0.146
-478.332	342.836	-0.074	-0.148
-477.318	347.720	-0.136	0.271
-476.303	349.795	-0.036	-0.072
-475.289	53.372	0.131	0.127
-474.274	-200.000	0.037	0.277
-473.259	-127.887	-0.140	0.020
-472.245	117.424	0.261	-0.325
-471.230	-197.849	-0.067	0.000
-470.216	-58.049	0.391	-0.172
-469.201	-66.889	-0.245	-0.098
-468.186	-125.500	-0.092	0.014
-467.172	31.542	-0.244	0.212
-466.157	55.691	-0.113	-0.110
-465.143	-200.000	-0.014	0.138
-464.128	-20.073	-0.032	-0.020
-463.113	-75.366	0.175	-0.063
-462.099	13.055	-0.072	-0.056
-461.084	-62.456	0.366	0.154
-460.070	707.577	0.071	-0.189
-459.055	-57.208	0.192	-0.085
-458.040	-75.562	-0.090	0.032
-457.026	116.636	0.122	0.151
-456.011	-200.000	0.038	0.231
-454.997	-178.403	0.417	-0.010
-453.982	-200.000	0.059	0.279
-452.968	-101.818	-0.162	-0.040
-451.953	-41.352	-0.175	0.091
-450.938	-93.991	0.171	-0.047
-449.924	107.401	-0.058	-0.070
-448.909	-42.128	-0.115	-0.059
-447.895	-200.000	-0.015	-0.086
-446.880	800.000	0.099	0.280
-445.865	-200.000	-0.059	-0.271
-444.851	-199.307	-0.160	0.001
-443.836	249.402	0.047	-0.080
-442.822	-40.605	0.166	0.087
-441.807	-74.481	-0.186	0.068
-440.792	20.792	-0.051	-0.042
-439.778	-200.000	-0.008	-0.249
-438.763	-34.440	-0.193	0.107
-437.749	800.000	-0.080	0.335
-436.734	391.910	0.091	0.192
-435.719	593.098	-0.162	0.405
-434.705	101.532	0.184	0.217
-433.690	148.139	-0.054	-0.074
-432.676	-77.837	0.157	-0.055
-431.661	86.274	-0.181	-0.201
-430.646	-72.789	0.206	-0.077
-429.632	-12.695	-0.314	-0.207
-428.617	18.990	0.203	0.164
-427.603	328.237	-0.089	-0.172
-426.588	49.918	0.299	0.285
-425.573	-138.116	0.027	0.003
-424.559	376.174	-0.055	0.114
-423.544	-76.366	0.220	-0.078
-422.530	84.323	0.075	-0.083
-421.515	-173.830	0.066	-0.002
-420.500	-136.363	-0.299	-0.035
-419.486	122.825	0.024	0.030
-418.471	103.994	-0.137	-0.163
-417.457	-200.000	-0.011	0.205
-416.442	-68.000	-0.194	-0.076
-415.428	-200.000	-0.022	-0.248
-414.413	800.000	0.010	-0.030
-413.398	-96.748	0.279	0.074
-412.384	167.210	0.251	-0.360
-411.369	800.000	0.045	-0.195
-410.355	800.000	0.071	-0.241
-409.340	-14.852	0.205	0.133
-408.325	-128.661	0.164	0.023
-407.311	800.000	-0.101	0.431
-406.296	-200.000	-0.019	-0.109
-405.282	434.432	0.118	-0.258
-404.267	-88.823	0.107	-0.032
-403.252	-85.267	0.216	-0.068
-402.238	-200.000	0.020	-0.100
-401.223	255.371	0.059	-0.102
-400.209	-155.658	0.239	-0.015
-399.194	734.087	0.112	0.303
-398.179	388.068	0.149	-0.311
-397.165	37.390	0.368	0.329
-396.150	317.275	0.097	0.185
-395.136	-200.000	-0.007	0.038
-394.121	-115.040	0.192	0.037
-393.106	-58.653	-0.208	0.091
-392.092	-200.000	-0.067	-0.376
-391.077	67.803	-0.124	-0.127
-390.063	402.193	-0.054	0.115
-389.048	91.191	0.106	0.120
-388.033	790.691	-0.040	0.110
-387.019	-70.267	-0.331	-0.127
-386.004	800.000	0.107	-0.330
-384.990	800.000	0.046	-0.129
-383.975	-9.520	0.077	-0.052
-382.960	331.563	0.102	0.199
-381.946	-200.000	0.034	-0.164
-380.931	-154.587	0.229	0.015
-379.917	630.102	0.117	0.298
-378.902	-200.000	-0.063	0.431
-377.888	170.082	-0.226	-0.326
-376.873	-91.640	0.073	0.021
-375.858	293.965	0.012	0.021
-374.844	-45.355	-0.520	0.260
-373.829	-163.939	-0.107	0.005
-372.815	-200.000	-0.037	-0.210
-371.800	800.000	0.105	0.324
-370.785	-164.924	0.455	-0.020
-369.771	619.590	-0.066	0.168
-368.756	24.376	-0.059	-0.050
-367.742	126.528	-0.116	0.148
-366.727	-200.000	0.023	-0.119
-365.712	-200.000	-0.004	0.054
-364.698	-143.759	0.143	0.014
-363.683	202.865	0.133	0.207
-362.669	49.992	-0.078	-0.074
-361.654	-66.717	-0.306	0.122
-360.639	89.889	0.106	-0.119
-359.625	18.551	-0.187	-0.150
-358.610	31.494	-0.047	-0.041
-357.596	126.848	-0.121	-0.154
-356.581	-109.574	0.109	0.023
-355.566	800.000	0.058	-0.215
-354.552	-147.609	-0.136	0.012
-353.537	-92.493	0.440	-0.125
-352.523	-200.000	0.007	-0.086
-351.508	-200.000	-0.019	-0.296
-350.493	738.386	0.114	-0.308
-349.479	-16.379	-0.303	-0.194
-348.464	-200.000	-0.008	0.035
-347.450	600.755	-0.059	-0.147
-346.435	-160.759	0.302	0.016
-345.420	-11.475	0.218	0.144
-344.406	-135.303	-0.303	-0.037
-343.391	-174.227	0.280	-0.008
-342.377	-94.600	0.341	0.093
-341.362	-122.786	0.260	-0.042
-340.348	148.480	0.187	0.254
-339.333	-26.656	-0.272	-0.160
-338.318	-112.598	-0.057	-0.011
-337.304	101.977	0.132	-0.155
-336.289	-200.000	0.045	-0.243
-335.275	299.498	-0.131	0.244
-334.260	178.209	0.220	0.324
-333.245	729.135	-0.085	0.228
-332.231	-177.426	-0.187	-0.005
-331.216	68.769	0.385	-0.398
-330.202	-57.904	-0.237	-0.104
-329.187	-200.000	-0.002	0.216
-328.172	-37.560	0.348	0.187
-327.158	-200.000	0.005	0.112
-326.143	470.779	0.128	-0.289
-325.129	-18.072	0.170	0.107
-324.114	-55.156	-0.103	0.047
-323.099	800.000	-0.044	-0.168
-322.085	422.505	0.093	-0.201
-321.070	-65.752	-0.209	-0.084
-320.056	-200.000	-0.007	-0.268
-319.041	203.924	-0.021	0.033
-318.026	45.796	-0.050	0.046
-317.012	-11.295	0.375	-0.249
-315.997	800.000	-0.082	-0.233
-314.983	72.533	-0.090	0.095
-313.968	-116.284	0.253	-0.047
-312.953	-200.000	0.018	-0.079
-311.939	-200.000	0.059	0.283
-310.924	-200.000	-0.028	-0.166
-309.910	58.210	-0.334	0.329
-308.895	-109.206	-0.089	0.019
-307.880	-200.000	-0.012	-0.326
-306.866	726.587	-0.097	-0.261
-305.851	-149.239	-0.095	-0.008
-304.837	-165.446	0.308	-0.014
-303.822	-200.000	-0.051	-0.288
-302.807	-149.729	0.129	0.010
-301.793	-200.000	0.001	-0.246
-300.778	-156.100	-0.173	-0.011
-299.764	155.097	-0.020	-0.028
-298.749	-88.135	0.208	-0.063
-297.735	-109.192	0.186	0.040
-296.720	-82.212	-0.255	-0.084
-295.705	-122.114	0.483	-0.080
-294.691	491.282	-0.037	0.085
-293.676	-164.208	0.196	-0.009
-292.662	800.000	0.022	-0.074
-291.647	800.000	0.134	-0.450
-290.632	800.000	0.046	0.192
-289.618	-115.763	0.111	-0.021
-288.603	-52.440	0.258	0.120
-287.589	-200.000	-0.003	0.432
-286.574	-63.806	-0.193	0.079
-285.559	2.814	-0.206	0.150
-284.545	-92.976	-0.436	0.122
-283.530	-135.317	-0.161	-0.019
-282.516	-200.000	0.054	0.261
-281.501	-200.000	0.019	-0.129
-280.486	-113.504	0.178	0.035
-279.472	200.830	0.144	-0.222
-278.457	-14.796	0.124	0.080
-277.443	-200.000	0.012	-0.091
-276.428	108.021	0.241	0.289
-275.413	276.100	-0.180	0.321
-274.399	516.215	-0.071	-0.166
-273.384	386.705	-0.018	-0.037
-272.370	-90.109	-0.216	-0.063
-271.355	-200.000	-0.000	0.157
-270.340	-200.000	0.019	0.094
-269.326	279.520	-0.099	-0.178
-268.311	-200.000	-0.004	-0.212
-267.297	-200.000	-0.032	-0.210
-266.282	-200.000	0.022	0.178
-265.267	-132.600	0.224	-0.029
-264.253	-26.669	0.043	-0.025
-263.238	-152.222	-0.143	-0.010
-262.224	-14.657	0.238	-0.154
-261.209	-19.129	0.080	0.050
-260.195	17.875	-0.160	-0.128
-259.180	-132.712	-0.117	0.015
-258.165	46.031	-0.175	-0.162
-257.151	55.739	-0.016	-0.015
-256.136	-200.000	-0.016	0.236
-255.122	-43.125	0.119	0.061
-254.107	-24.518	0.076	0.046
-253.092	-109.339	-0.137	-0.029
-252.078	132.104	-0.184	0.238
-251.063	101.634	0.087	0.102
-250.049	-6.808	0.131	0.089
-249.034	399.104	0.024	0.049
-248.019	175.830	-0.099	0.144
-247.005	206.057	0.210	-0.328
-245.990	-59.507	0.163	0.070
-244.976	-13.558	-0.382	0.248
-243.961	-200.000	0.003	-0.102
-242.946	-200.000	-0.019	0.286
-241.932	232.579	-0.102	-0.169
-240.917	-100.784	-0.112	0.028
-239.903	438.120	-0.154	-0.337
-238.888	66.076	-0.274	0.279
-237.873	-106.089	-0.069	-0.016
-236.859	-128.313	-0.165	0.024
-235.844	17.961	0.091	-0.072
-234.830	-15.798	0.135	-0.086
-233.815	659.380	0.050	0.129
-232.800	-199.590	0.266	-0.001
-231.786	-25.393	-0.119	0.071
-230.771	84.322	0.134	0.147
-229.757	-179.452	-0.019	0.000
-228.742	-11.191	-0.051	0.034
-227.727	800.000	-0.043	0.158
-226.713	-8.216	-0.192	0.129
-225.698	20.598	-0.355	-0.288
-224.684	-31.635	0.202	-0.113
-223.669	-40.380	0.161	0.084
-222.655	167.433	-0.047	0.067
-221.640	-200.000	-0.114	-0.517
-220.625	511.966	0.091	-0.212
-219.611	800.000	-0.026	0.075
-218.596	-90.444	-0.148	0.043
-217.582	-68.167	-0.140	-0.055
-216.567	-104.236	-0.115	-0.027
-215.552	-200.000	-0.002	0.039
-214.538	-48.492	-0.265	0.128
-213.523	-200.000	-0.002	0.119
-212.509	332.186	0.077	-0.149
-211.494	-200.000	-0.089	0.392
-210.479	-168.190	-0.100	-0.004
-209.465	-100.924	-0.112	0.028
-208.450	-165.853	0.087	-0.004
-207.436	12.113	0.089	0.069
-206.421	-36.606	0.128	-0.069
-205.406	-200.000	0.015	0.091
-204.392	45.422	-0.118	0.109
-203.377	177.463	-0.136	-0.198
-202.363	-200.000	-0.007	-0.220
-201.348	800.000	0.035	0.108
-200.333	28.912	-0.110	0.093
-199.319	-62.770	-0.267	0.111
-198.304	-59.807	-0.270	-0.116
-197.290	332.310	0.044	-0.085
-196.275	158.870	-0.116	0.162
-195.260	800.000	0.028	0.083
-194.246	-104.454	0.263	-0.061
-193.231	592.523	0.102	0.253
-192.217	-77.876	-0.331	-0.114
-191.202	-117.818	0.206	-0.037
-190.187	81.787	-0.082	-0.089
-189.173	29.139	0.243	-0.206
-188.158	800.000	0.056	-0.224
-187.144	800.000	-0.040	-0.166
-186.129	800.000	0.094	0.385
-185.114	-171.995	0.602	0.020
-184.100	379.705	-0.054	0.111
-183.085	-10.102	0.047	0.031
-182.071	454.193	0.103	-0.227
-181.056	-79.224	0.307	0.104
-180.042	39.372	-0.262	-0.235
-179.027	295.637	-0.077	0.141
-178.012	590.420	-0.010	0.025
-176.998	290.421	-0.078	0.142
-175.983	-83.664	0.231	0.074
-174.969	-24.568	0.393	0.234
-173.954	-97.951	-0.110	0.028
-172.939	-100.311	0.106	0.026
-171.925	94.968	-0.235	0.268
-170.910	73.932	-0.274	0.288
-169.896	-2.635	0.074	0.052
-168.881	-3.169	-0.105	0.073
-167.866	-90.364	-0.208	0.060
-166.852	-32.519	0.142	-0.079
-165.837	-41.593	-0.336	-0.173
-164.823	800.000	-0.060	0.194
-163.808	-83.498	0.256	0.082
-162.793	800.000	-0.096	0.323
-161.779	800.000	0.138	0.384
-160.764	-4.160	0.223	0.154
-159.750	-16.747	-0.134	0.085
-158.735	800.000	0.082	-0.252
-157.720	-65.878	0.154	-0.062
-156.706	-200.000	0.048	-0.446
-155.691	-130.909	-0.034	-0.004
-154.677	20.096	-0.094	0.075
-153.662	-200.000	-0.024	-0.121
-152.647	71.659	0.166	-0.173
-151.633	-153.278	0.166	-0.012
-150.618	326.443	-0.092	-0.177
-149.604	430.097	0.069	-0.149
-148.589	-56.447	0.256	-0.114
-147.574	-138.671	-0.139	-0.015
-146.560	138.079	-0.037	0.048
-145.545	679.059	0.051	0.132
-144.531	74.187	-0.321	-0.337
-143.516	-38.842	-0.218	0.115
-142.502	-200.000	-0.059	0.310
-141.487	800.000	-0.058	0.201
-140.472	-18.252	0.198	0.124
-139.458	543.445	0.093	-0.221
-138.443	118.396	0.074	0.092
-137.429	273.068	-0.179	-0.317
-136.414	7.228	-0.174	0.130
-135.399	3.443	0.152	-0.111
-134.385	-8.178	-0.172	-0.116
-133.370	48.191	-0.021	0.020
-132.356	-53.624	0.215	-0.098
-131.341	-200.000	-0.010	-0.157
-130.326	259.142	0.050	0.087
-129.312	-76.455	0.220	-0.077
-128.297	-47.847	-0.169	-0.082
-127.283	-30.123	-0.229	-0.130
-126.268	-116.122	0.251	0.047
-125.253	278.961	-0.130	-0.231
-124.239	-53.304	-0.099	0.045
-123.224	-161.836	-0.072	0.004
-122.210	139.919	0.218	-0.287
