DTS Sentinel unit serial number:	SN413079Multiplexer serial number:	ORYXHardware model number:	OX4-SRSoftware version number:	ORYX F/W v4.00 Oryx Data Collector v3.7.2.0data status	okinstallation	princeton_trtdifferential loss correction	single-endedforward channel	channel 4reverse channel	N/Adate	2019/09/14time	23:21:35forward acquisition time	60.00reverse acquisition time	0.00gamma	496.2192k internal	0.2306k external	0.2306temperature offset calibration	1.0055default loss term (dB/km)	0.3790temperature slope calibration	1.0000multiplexer offset coefficient	1.0000multiplexer slope coefficient	1.0000fibre end	0.00T internal ref (°C)	32.37T ext. ref 1 (°C)	4.64T ext. ref 2 (°C)	27.41length (m)	temperature (°C)	Stokes	anti-Stokes-747.200	33.577	0.251	0.222
-746.185	-78.248	-0.147	0.051
-745.171	491.430	0.112	0.261
-744.156	-59.985	-0.391	0.170
-743.142	-148.812	0.373	0.031
-742.127	-127.754	-0.254	0.037
-741.112	478.256	-0.104	-0.239
-740.098	-200.000	-0.056	0.414
-739.083	135.690	-0.170	0.225
-738.069	-200.000	0.042	-0.323
-737.054	270.993	0.038	0.069
-736.039	800.000	0.115	-0.448
-735.025	125.802	-0.086	-0.111
-734.010	626.224	-0.080	-0.205
-732.996	199.994	-0.009	0.014
-731.981	-200.000	0.017	0.127
-730.966	-89.815	0.178	-0.053
-729.952	-107.904	0.308	0.068
-728.937	-27.565	-0.196	-0.116
-727.923	800.000	-0.098	0.315
-726.908	-33.563	-0.297	0.167
-725.894	151.835	-0.277	-0.384
-724.879	-200.000	-0.015	-0.137
-723.864	-104.523	-0.038	0.009
-722.850	-126.913	0.030	0.004
-721.835	-52.040	0.132	0.062
-720.821	-200.000	-0.079	-0.448
-719.806	-103.762	0.111	-0.026
-718.791	554.521	0.031	-0.075
-717.777	-7.059	0.416	-0.287
-716.762	800.000	0.056	-0.218
-715.748	-200.000	0.014	-0.152
-714.733	295.469	-0.090	0.167
-713.718	11.532	0.080	-0.062
-712.704	800.000	0.012	-0.050
-711.689	132.406	-0.102	-0.133
-710.675	153.489	-0.054	0.074
-709.660	-54.539	0.219	-0.101
-708.645	13.736	0.083	0.066
-707.631	800.000	0.066	0.225
-706.616	-200.000	-0.047	-0.308
-705.602	-38.493	-0.166	-0.089
-704.587	-54.389	-0.208	-0.096
-703.572	-200.000	0.001	0.322
-702.558	441.171	0.092	0.205
-701.543	-61.694	-0.334	0.142
-700.529	-153.122	0.285	-0.020
-699.514	-14.213	0.222	0.145
-698.499	-187.387	0.033	-0.000
-697.485	-20.606	0.127	0.079
-696.470	467.092	0.206	-0.469
-695.456	-68.761	0.107	0.042
-694.441	220.012	0.178	-0.289
-693.426	159.570	-0.112	0.158
-692.412	246.788	-0.145	-0.248
-691.397	-25.357	0.071	-0.043
-690.383	-46.342	-0.047	-0.024
-689.368	16.729	-0.066	0.053
-688.354	-38.967	0.148	0.079
-687.339	93.940	-0.060	-0.069
-686.324	800.000	0.168	-0.489
-685.310	203.387	0.045	-0.071
-684.295	-153.799	0.249	0.017
-683.281	793.243	-0.110	0.308
-682.266	-39.429	-0.068	-0.036
-681.251	-82.068	0.221	0.073
-680.237	-200.000	0.036	0.299
-679.222	100.333	0.079	-0.092
-678.208	-49.356	-0.233	0.113
-677.193	-123.056	0.383	-0.062
-676.178	-142.458	-0.143	-0.014
-675.164	800.000	0.053	-0.223
-674.149	-200.000	0.008	-0.201
-673.135	3.250	0.278	-0.205
-672.120	-200.000	0.015	0.100
-671.105	-200.000	0.006	-0.152
-670.091	-191.710	-0.132	0.001
-669.076	2.228	0.167	0.123
-668.062	195.455	-0.056	0.087
-667.047	95.458	0.115	-0.133
-666.032	-86.523	0.275	0.086
-665.018	-140.458	0.390	0.041
-664.003	-28.663	0.393	-0.229
-662.989	-62.574	-0.098	0.041
-661.974	800.000	0.040	-0.147
-660.959	-68.014	-0.037	0.014
-659.945	98.206	-0.128	0.149
-658.930	-48.990	-0.100	0.049
-657.916	-70.078	0.179	0.069
-656.901	-70.962	-0.092	-0.035
-655.886	-1.569	0.066	0.047
-654.872	157.735	0.172	-0.242
-653.857	23.940	0.181	-0.151
-652.843	-200.000	0.022	-0.307
-651.828	21.943	-0.066	0.054
-650.814	53.413	-0.125	-0.122
-649.799	132.555	0.190	-0.249
-648.784	243.779	-0.199	0.338
-647.770	301.452	0.107	0.201
-646.755	-23.219	-0.288	-0.176
-645.741	117.813	-0.161	0.201
-644.726	62.835	0.192	0.194
-643.711	-182.280	0.283	0.005
-642.697	-102.010	0.191	0.047
-641.682	251.271	0.026	-0.046
-640.668	-66.471	-0.076	-0.031
-639.653	-152.988	-0.175	-0.012
-638.638	14.949	0.261	0.207
-637.624	800.000	0.045	0.192
-636.609	517.081	-0.095	-0.225
-635.595	-22.220	0.145	-0.089
-634.580	-200.000	0.079	-0.428
-633.565	800.000	0.025	-0.087
-632.551	-129.098	0.389	-0.055
-631.536	-138.632	-0.511	-0.057
-630.522	-69.503	-0.293	-0.114
-629.507	-83.104	-0.214	0.070
-628.492	41.527	-0.171	0.157
-627.478	-51.593	0.100	0.047
-626.463	-168.534	-0.225	-0.009
-625.449	20.968	0.404	0.331
-624.434	-17.525	0.247	-0.157
-623.419	-142.679	0.119	-0.012
-622.405	202.703	0.119	-0.187
-621.390	654.003	0.122	-0.317
-620.376	105.233	0.051	0.061
-619.361	800.000	-0.024	0.081
-618.346	190.265	-0.342	0.519
-617.332	-123.228	0.060	0.010
-616.317	-110.121	0.237	0.050
-615.303	-66.983	-0.255	0.102
-614.288	-87.779	0.279	-0.085
-613.273	-200.000	-0.054	0.246
-612.259	178.581	0.068	0.100
-611.244	-2.104	0.371	0.264
-610.230	-200.000	0.013	0.076
-609.215	705.902	0.113	0.303
-608.201	97.541	0.252	-0.293
-607.186	702.193	-0.060	-0.161
-606.171	288.445	0.085	0.155
-605.157	-200.000	-0.009	-0.096
-604.142	-200.000	0.027	0.152
-603.128	-89.015	0.206	0.062
-602.113	-142.545	0.344	0.034
-601.098	0.651	-0.224	-0.162
-600.084	281.946	-0.148	-0.268
-599.069	33.819	0.069	-0.061
-598.055	-90.776	0.173	-0.051
-597.040	88.047	-0.047	-0.052
-596.025	321.294	-0.112	-0.216
-595.011	104.271	-0.126	-0.150
-593.996	23.680	0.061	-0.051
-592.982	-8.493	-0.139	0.095
-591.967	104.314	-0.144	-0.171
-590.952	28.014	-0.135	0.115
-589.938	315.882	-0.145	-0.277
-588.923	104.496	-0.283	-0.337
-587.909	92.967	0.026	0.030
-586.894	22.088	-0.046	0.038
-585.879	-200.000	-0.001	0.178
-584.865	-121.191	0.350	0.059
-583.850	624.786	0.045	0.116
-582.836	491.430	0.061	0.141
-581.821	-167.776	0.325	0.013
-580.806	389.802	-0.082	0.171
-579.792	-200.000	-0.027	-0.208
-578.777	24.917	0.130	-0.109
-577.763	-98.527	-0.196	-0.051
-576.748	19.561	0.137	0.112
-575.733	-64.578	0.166	0.068
-574.719	149.374	-0.126	-0.173
-573.704	25.588	-0.122	0.103
-572.690	-84.661	-0.437	0.139
-571.675	114.850	-0.131	-0.161
-570.661	-200.000	-0.041	0.209
-569.646	-200.000	-0.031	0.180
-568.631	-78.715	0.047	-0.016
-567.617	487.846	-0.087	-0.201
-566.602	314.240	-0.110	0.209
-565.588	-200.000	0.036	-0.246
-564.573	-67.956	0.250	0.098
-563.558	364.232	0.029	0.059
-562.544	112.635	-0.185	-0.226
-561.529	-24.504	-0.290	-0.174
-560.515	-76.055	-0.277	0.099
-559.500	67.111	-0.067	-0.068
-558.485	-200.000	-0.058	-0.386
-557.471	800.000	0.088	-0.270
-556.456	-55.444	0.180	0.081
-555.442	-107.720	0.527	0.116
-554.427	235.494	0.088	0.147
-553.412	-200.000	-0.001	-0.149
-552.398	-2.612	-0.177	-0.125
-551.383	154.697	0.174	-0.242
-550.369	181.823	-0.115	-0.171
-549.354	-123.989	0.253	0.040
-548.339	346.671	0.090	0.180
-547.325	-42.122	-0.085	-0.044
-546.310	-68.208	-0.310	-0.122
-545.296	-200.000	0.040	0.234
-544.281	16.947	0.048	0.039
-543.266	800.000	-0.048	0.156
-542.252	97.105	-0.192	0.222
-541.237	278.821	0.114	-0.206
-540.223	30.249	-0.362	-0.312
-539.208	-82.838	0.275	-0.090
-538.193	712.062	-0.069	0.184
-537.179	15.201	-0.350	0.277
-536.164	237.021	-0.226	-0.378
-535.150	293.023	-0.044	0.081
-534.135	261.473	0.048	0.083
-533.121	-200.000	-0.037	-0.275
-532.106	-199.565	0.115	-0.001
-531.091	-200.000	0.030	-0.137
-530.077	-59.326	0.131	-0.057
-529.062	-82.468	0.206	0.067
-528.048	-200.000	-0.038	-0.209
-527.033	-114.365	0.119	0.023
-526.018	-90.782	0.141	-0.041
-525.004	59.329	0.160	-0.158
-523.989	213.319	-0.078	-0.124
-522.975	-43.539	-0.358	0.182
-521.960	507.967	-0.055	-0.128
-520.945	-49.305	0.361	-0.174
-519.931	4.040	-0.097	0.072
-518.916	800.000	-0.072	-0.295
-517.902	11.438	0.251	-0.194
-516.887	-200.000	0.008	-0.192
-515.872	31.676	-0.144	-0.125
-514.858	-16.139	0.192	0.123
-513.843	228.555	0.080	-0.132
-512.829	-200.000	-0.024	0.190
-511.814	691.306	-0.039	0.103
-510.799	-21.746	-0.082	-0.050
-509.785	-200.000	-0.022	-0.106
-508.770	-47.955	-0.193	-0.094
-507.756	800.000	-0.118	-0.401
-506.741	523.564	-0.027	0.064
-505.726	159.744	0.146	0.204
-504.712	-200.000	0.008	0.249
-503.697	28.229	0.316	0.269
-502.683	800.000	0.084	0.280
-501.668	-200.000	-0.047	0.265
-500.653	-200.000	0.060	0.407
-499.639	800.000	0.084	0.284
-498.624	-12.771	-0.279	0.183
-497.610	-125.678	0.470	-0.072
-496.595	78.861	-0.217	0.234
-495.581	-2.281	0.152	-0.107
-494.566	104.184	0.059	-0.069
-493.551	-63.033	0.247	-0.103
-492.537	-75.533	-0.272	-0.097
-491.522	800.000	0.010	-0.040
-490.508	-37.198	-0.072	0.039
-489.493	513.017	-0.091	0.214
-488.478	-56.678	0.305	-0.136
-487.464	-151.367	0.273	0.020
-486.449	-103.718	0.130	-0.031
-485.435	-99.164	0.095	-0.024
-484.420	133.791	-0.183	-0.238
-483.405	800.000	-0.097	0.342
-482.391	335.747	0.024	0.048
-481.376	-118.860	-0.421	0.074
-480.362	137.604	0.205	-0.270
-479.347	67.197	0.134	-0.137
-478.332	-94.541	0.090	-0.025
-477.318	-42.885	-0.259	-0.133
-476.303	319.484	0.058	-0.111
-475.289	-39.226	0.196	-0.104
-474.274	237.579	-0.162	0.270
-473.259	72.627	0.139	-0.146
-472.245	-107.981	-0.131	-0.029
-471.230	-115.376	0.032	-0.006
-470.216	7.031	-0.132	-0.099
-469.201	-103.682	-0.167	-0.039
-468.186	-79.104	-0.262	0.090
-467.172	299.747	-0.277	-0.514
-466.157	800.000	-0.101	-0.355
-465.143	109.270	0.162	-0.196
-464.128	-200.000	-0.039	0.184
-463.113	800.000	-0.143	0.401
-462.099	4.484	-0.216	-0.159
-461.084	-77.386	0.112	0.039
-460.070	-200.000	-0.006	0.250
-459.055	365.095	0.132	-0.267
-458.040	800.000	-0.049	-0.166
-457.026	10.189	-0.296	-0.227
-456.011	516.142	0.129	0.303
-454.997	240.092	0.114	-0.191
-453.982	67.432	-0.039	0.040
-452.968	-101.371	-0.175	-0.043
-451.953	666.577	0.151	0.392
-450.938	120.350	-0.075	-0.094
-449.924	-197.815	0.133	0.001
-448.909	432.232	0.193	0.421
-447.895	73.090	0.192	-0.202
-446.880	-16.981	-0.156	0.099
-445.865	-114.492	-0.532	-0.103
-444.851	-107.986	-0.052	0.011
-443.836	-99.385	-0.252	-0.064
-442.822	107.721	-0.057	-0.069
-441.807	800.000	0.074	-0.265
-440.792	-160.961	-0.115	-0.006
-439.778	800.000	-0.077	0.238
-438.763	-147.573	0.068	-0.006
-437.749	-59.968	0.236	-0.101
-436.734	88.043	-0.195	-0.218
-435.719	-200.000	-0.025	0.265
-434.705	41.049	-0.191	0.173
-433.690	-73.713	0.296	-0.108
-432.676	-64.397	-0.482	-0.197
-431.661	-200.000	-0.043	0.280
-430.646	-58.377	-0.077	0.034
-429.632	-131.561	0.116	-0.015
-428.617	176.041	-0.085	-0.124
-427.603	40.375	0.062	0.056
-426.588	209.016	-0.161	-0.254
-425.573	-39.768	0.279	0.146
-424.559	270.758	0.149	-0.263
-423.544	-24.243	-0.145	-0.087
-422.530	700.475	0.076	-0.202
-421.515	273.111	-0.130	-0.230
-420.500	800.000	0.088	0.362
-419.486	-96.908	-0.199	0.052
-418.471	-116.618	0.283	-0.052
-417.457	67.051	-0.121	0.124
-416.442	288.440	-0.122	0.221
-415.428	-82.933	-0.268	-0.087
-414.413	800.000	0.044	-0.164
-413.398	75.557	0.221	-0.235
-412.384	-63.372	-0.188	-0.078
-411.369	10.395	0.297	0.227
-410.355	-200.000	0.025	0.294
-409.340	-86.333	0.056	-0.017
-408.325	-47.823	-0.107	-0.052
-407.311	-71.200	-0.298	0.112
-406.296	345.702	0.012	-0.025
-405.282	7.454	0.187	0.141
-404.267	523.254	-0.107	0.253
-403.252	191.971	0.268	0.406
-402.238	196.803	-0.145	0.221
-401.223	-200.000	-0.002	0.056
-400.209	119.150	0.130	-0.162
-399.194	557.089	0.047	-0.112
-398.179	-200.000	0.005	0.064
-397.165	800.000	-0.095	-0.328
-396.150	-27.273	0.116	-0.068
-395.136	800.000	-0.088	-0.278
-394.121	318.248	-0.149	-0.283
-393.106	-178.817	0.276	0.006
-392.092	101.007	0.222	0.259
-391.077	343.665	0.109	-0.214
-390.063	800.000	-0.096	-0.290
-389.048	-131.405	0.121	0.016
-388.033	-200.000	0.003	-0.067
-387.019	256.388	-0.172	-0.297
-386.004	-96.924	-0.290	-0.076
-384.990	-49.209	-0.188	0.090
-383.975	-43.151	0.155	-0.079
-382.960	-109.684	-0.125	0.026
-381.946	-11.293	0.155	-0.102
-380.931	13.031	-0.035	0.027
-379.917	-95.055	0.486	-0.132
-378.902	-200.000	0.039	0.285
-377.888	-65.891	-0.216	-0.087
-376.873	-57.183	-0.460	0.203
-375.858	384.450	0.065	0.133
-374.844	-149.826	0.280	-0.022
-373.829	223.748	-0.243	0.394
-372.815	313.795	-0.089	-0.168
-371.800	91.213	0.068	0.077
-370.785	800.000	0.014	0.053
-369.771	-14.143	-0.155	0.100
-368.756	-98.791	-0.338	0.086
-367.742	95.251	-0.085	-0.097
-366.727	-60.413	-0.351	0.150
-365.712	-200.000	0.035	-0.166
-364.698	-51.037	0.119	0.056
-363.683	-200.000	-0.006	-0.243
-362.669	-98.039	0.242	0.062
-361.654	55.441	0.065	-0.063
-360.639	-113.673	0.056	0.011
-359.625	-102.992	-0.213	-0.051
-358.610	404.122	-0.125	0.263
-357.596	109.592	0.054	-0.065
-356.581	-154.491	-0.193	0.013
-355.566	744.392	-0.040	-0.108
-354.552	-90.228	-0.020	0.006
-353.537	-200.000	-0.058	0.000
-352.523	286.260	0.136	0.245
-351.508	299.488	0.185	0.342
-350.493	169.201	-0.207	-0.296
-349.479	191.243	0.084	-0.126
-348.464	800.000	0.048	-0.163
-347.450	-3.246	-0.077	-0.053
-346.435	-131.664	0.166	-0.022
-345.420	-200.000	-0.032	-0.395
-344.406	-48.810	0.242	0.116
-343.391	135.970	-0.092	0.120
-342.377	-200.000	-0.038	-0.422
-341.362	-59.639	0.250	-0.107
-340.348	-200.000	0.034	-0.405
-339.333	94.701	0.085	0.097
-338.318	-200.000	-0.095	-0.611
-337.304	266.002	0.216	0.377
-336.289	-107.361	-0.269	0.059
-335.275	-76.014	0.256	0.091
-334.260	-66.551	-0.101	0.040
-333.245	53.092	0.161	0.154
-332.231	72.270	0.142	0.148
-331.216	376.408	0.061	-0.125
-330.202	-85.392	-0.232	-0.072
-329.187	246.185	0.084	0.142
-328.172	-92.389	-0.173	-0.049
-327.158	-122.962	-0.063	0.010
-326.143	-75.913	-0.383	-0.136
-325.129	800.000	0.037	-0.143
-324.114	-69.503	-0.064	-0.025
-323.099	-47.825	0.103	0.050
-322.085	-55.045	0.469	0.212
-321.070	-22.843	-0.182	0.110
-320.056	136.909	0.117	0.153
-319.041	56.730	0.120	-0.117
-318.026	800.000	-0.040	-0.128
-317.012	-9.997	-0.300	0.200
-315.997	-0.190	-0.136	0.097
-314.983	-120.917	0.203	0.034
-313.968	-200.000	-0.068	0.400
-312.953	132.130	0.224	0.289
-311.939	247.417	-0.025	-0.043
-310.924	-77.360	0.289	-0.100
-309.910	-200.000	-0.028	0.392
-308.895	-160.423	-0.149	0.008
-307.880	194.847	-0.091	0.139
-306.866	122.237	-0.164	0.205
-305.851	86.638	-0.081	0.089
-304.837	-14.804	0.114	0.073
-303.822	-200.000	-0.024	-0.357
-302.807	395.957	-0.248	0.518
-301.793	-50.163	0.351	-0.166
-300.778	-30.032	0.164	0.093
-299.764	1.023	0.176	-0.126
-298.749	-200.000	0.016	0.149
-297.735	170.652	-0.125	-0.179
-296.720	27.314	-0.129	-0.109
-295.705	59.030	0.134	0.132
-294.691	-104.787	0.050	0.012
-293.676	29.440	-0.295	-0.250
-292.662	-200.000	-0.008	-0.041
-291.647	4.035	0.136	0.100
-290.632	-74.198	0.110	0.040
-289.618	2.689	-0.157	-0.114
-288.603	800.000	0.069	-0.215
-287.589	-81.831	0.238	0.078
-286.574	-128.231	-0.230	-0.033
-285.559	479.030	-0.016	-0.035
-284.545	-200.000	-0.023	-0.233
-283.530	-98.477	0.021	0.005
-282.516	-66.997	0.232	0.092
-281.501	-97.069	0.267	0.070
-280.486	750.390	0.084	-0.226
-279.472	81.497	-0.076	-0.082
-278.457	800.000	-0.045	0.136
-277.443	-35.756	0.015	0.008
-276.428	472.872	-0.053	0.119
-275.413	-200.000	-0.045	-0.474
-274.399	24.396	-0.038	-0.031
-273.384	504.421	-0.084	-0.195
-272.370	-56.882	-0.400	0.177
-271.355	-44.791	-0.368	0.183
-270.340	-40.528	-0.305	-0.158
-269.326	278.191	0.095	0.169
-268.311	284.517	-0.064	0.115
-267.297	-200.000	-0.017	0.277
-266.282	333.806	-0.058	-0.111
-265.267	-34.753	0.158	-0.086
-264.253	-65.433	-0.170	0.068
-263.238	-2.065	0.256	-0.180
-262.224	91.202	-0.138	-0.155
-261.209	541.587	-0.151	0.359
-260.195	-200.000	0.023	0.175
-259.180	11.544	0.155	0.119
-258.165	-83.491	0.254	-0.081
-257.151	800.000	0.051	-0.212
-256.136	-61.728	0.286	-0.120
-255.122	-74.576	-0.273	-0.098
-254.107	-200.000	-0.073	0.471
-253.092	-54.109	-0.174	-0.079
-252.078	800.000	-0.074	-0.282
-251.063	-29.223	0.120	0.069
-250.049	17.788	0.120	-0.095
-249.034	23.771	-0.148	0.122
-248.019	-127.684	0.139	-0.020
-247.005	-56.870	0.140	0.062
-245.990	-33.416	0.073	-0.040
-244.976	-200.000	0.008	-0.202
-243.961	-87.188	0.253	0.077
-242.946	486.985	-0.102	0.231
-241.932	207.370	-0.089	-0.139
-240.917	25.195	0.318	0.263
-239.903	31.413	0.310	-0.265
-238.888	-130.115	-0.323	0.044
-237.873	780.155	0.061	0.166
-236.859	-200.000	0.036	0.333
-235.844	296.523	-0.075	0.137
-234.830	-155.944	-0.413	0.026
-233.815	398.031	0.136	0.283
-232.800	62.888	0.078	0.078
-231.786	800.000	0.064	-0.185
-230.771	11.666	0.319	-0.244
-229.757	409.731	0.163	0.345
-228.742	-200.000	-0.018	-0.291
-227.727	-200.000	-0.003	-0.146
-226.713	-200.000	0.008	-0.240
-225.698	-200.000	-0.061	0.331
-224.684	-54.932	-0.177	0.079
-223.669	-149.512	0.442	0.035
-222.655	-200.000	0.032	-0.139
-221.640	-67.962	0.133	0.052
-220.625	-112.404	-0.235	-0.047
-219.611	800.000	-0.115	-0.350
-218.596	-109.818	0.263	-0.055
-217.582	58.524	0.244	0.239
-216.567	-200.000	0.002	0.017
-215.552	-120.165	0.434	-0.074
-214.538	161.215	-0.273	0.380
-213.523	23.958	0.151	-0.124
-212.509	-133.450	0.257	0.032
-211.494	83.144	-0.203	0.220
-210.479	-200.000	-0.020	-0.204
-209.465	171.426	-0.204	-0.291
-208.450	366.354	0.204	0.410
-207.436	-200.000	-0.046	0.286
-206.421	187.437	0.169	0.251
-205.406	-59.145	0.319	-0.137
-204.392	-116.189	0.141	-0.026
-203.377	-149.886	0.204	-0.016
-202.363	-118.980	-0.091	0.016
-201.348	-59.189	-0.227	0.097
-200.333	-15.437	-0.127	-0.081
-199.319	82.001	0.137	0.148
-198.304	-200.000	-0.018	-0.196
-197.290	800.000	-0.083	-0.333
-196.275	-111.826	0.328	0.066
-195.260	800.000	-0.023	0.066
-194.246	-200.000	-0.014	0.185
-193.231	800.000	-0.025	-0.106
-192.217	279.237	-0.100	0.177
-191.202	-82.927	-0.228	0.073
-190.187	-17.927	0.196	-0.122
-189.173	800.000	-0.055	0.227
-188.158	-27.804	0.179	-0.103
-187.144	-48.636	0.168	-0.080
-186.129	-39.460	-0.282	0.147
-185.114	-44.774	-0.184	-0.092
-184.100	273.334	-0.145	0.255
-183.085	-10.090	0.261	-0.172
-182.071	122.558	0.104	0.129
-181.056	615.540	0.134	0.334
-180.042	-76.479	0.124	-0.043
-179.027	600.256	-0.112	-0.275
-178.012	-133.310	0.220	0.028
-176.998	-105.209	-0.504	-0.115
-175.983	-200.000	-0.009	0.087
-174.969	800.000	0.048	0.188
-173.954	-131.339	-0.119	0.016
-172.939	359.674	-0.081	-0.161
-171.925	-5.854	0.303	0.206
-170.910	-200.000	-0.069	0.385
-169.896	-69.078	-0.295	0.113
-168.881	-200.000	0.059	0.317
-167.866	303.778	0.054	-0.099
-166.852	748.407	-0.116	-0.312
-165.837	44.243	-0.268	0.244
-164.823	148.388	-0.082	0.110
-163.808	-8.543	0.081	0.054
-162.793	-169.765	-0.195	-0.007
-161.779	-200.000	0.009	-0.156
-160.764	98.739	-0.136	0.156
-159.750	566.745	0.112	-0.271
-158.735	-200.000	-0.054	-0.476
-157.720	-47.335	-0.181	-0.087
-156.706	800.000	0.019	0.071
-155.691	-200.000	-0.215	-0.001
-154.677	-73.369	-0.083	-0.030
-153.662	60.657	0.297	0.293
-152.647	-103.951	0.152	-0.035
-151.633	-9.595	-0.323	-0.214
-150.618	-198.160	-0.253	0.001
-149.604	-200.000	0.068	0.309
-148.589	-154.176	-0.165	0.011
-147.574	247.007	-0.143	-0.240
-146.560	22.382	-0.174	-0.142
-145.545	-43.161	-0.144	0.073
-144.531	800.000	0.066	-0.245
-143.516	-198.794	0.258	-0.001
-142.502	-200.000	-0.022	0.107
-141.487	-121.106	0.445	0.074
-140.472	-90.237	-0.356	0.103
-139.458	-24.390	0.247	-0.146
-138.443	-104.793	-0.101	-0.023
-137.429	82.348	0.244	0.263
-136.414	485.997	0.042	-0.095
-135.399	-200.000	-0.049	-0.224
-134.385	-141.825	0.213	-0.021
-133.370	184.939	-0.072	-0.106
-132.356	-102.239	-0.326	0.078
-131.341	443.984	0.072	0.156
-130.326	186.150	0.151	0.223
-129.312	22.710	-0.170	0.138
-128.297	-103.115	0.067	-0.016
-127.283	-150.198	-0.182	0.014
-126.268	-1.733	0.045	-0.032
-125.253	-200.000	-0.034	-0.173
-124.239	70.223	-0.176	-0.181
-123.224	-200.000	0.223	-0.000
-122.210	-200.000	-0.024	0.143
-121.195	32.447	0.319	-0.273
