DTS Sentinel unit serial number:	SN413079Multiplexer serial number:	ORYXHardware model number:	OX4-SRSoftware version number:	ORYX F/W v4.00 Oryx Data Collector v3.7.2.0data status	okinstallation	princeton_trtdifferential loss correction	single-endedforward channel	channel 4reverse channel	N/Adate	2019/09/17time	00:57:35forward acquisition time	60.00reverse acquisition time	0.00gamma	496.2192k internal	0.2313k external	0.2313temperature offset calibration	0.9975default loss term (dB/km)	0.3790temperature slope calibration	1.0000multiplexer offset coefficient	1.0000multiplexer slope coefficient	1.0000fibre end	0.00T internal ref (°C)	29.44T ext. ref 1 (°C)	0.10T ext. ref 2 (°C)	24.11length (m)	temperature (°C)	Stokes	anti-Stokes-747.200	230.409	-0.093	-0.154
-746.185	511.497	0.102	0.240
-745.171	286.369	0.051	0.093
-744.156	255.065	0.067	0.117
-743.142	38.624	0.079	0.072
-742.127	800.000	0.039	0.136
-741.112	-12.706	0.240	-0.159
-740.098	-200.000	-0.003	0.368
-739.083	-68.552	0.249	-0.098
-738.069	800.000	0.043	0.183
-737.054	592.283	0.088	0.221
-736.039	193.175	-0.080	0.122
-735.025	-45.018	0.111	-0.056
-734.010	-29.586	0.200	-0.116
-732.996	-166.132	-0.318	0.014
-731.981	-54.421	-0.384	-0.176
-730.966	40.817	-0.185	0.169
-729.952	-86.676	-0.152	-0.047
-728.937	-68.096	-0.386	0.152
-727.923	-13.491	-0.292	-0.192
-726.908	-165.645	-0.282	-0.012
-725.894	-200.000	-0.037	0.272
-724.879	-200.000	-0.031	-0.182
-723.864	-2.389	0.079	0.056
-722.850	206.629	0.202	0.319
-721.835	-87.563	-0.210	0.064
-720.821	151.067	-0.104	0.144
-719.806	182.153	0.148	0.222
-718.791	61.976	-0.274	-0.277
-717.777	-149.643	-0.305	-0.024
-716.762	183.175	-0.056	-0.084
-715.748	-114.770	0.111	0.022
-714.733	-170.800	-0.262	-0.009
-713.718	-171.914	-0.344	-0.011
-712.704	-93.379	-0.180	0.050
-711.689	-21.547	0.112	-0.069
-710.675	-16.795	0.081	-0.052
-709.660	251.632	0.059	0.102
-708.645	188.826	0.112	0.170
-707.631	1.873	-0.197	-0.144
-706.616	800.000	0.083	-0.287
-705.602	-99.355	0.069	0.018
-704.587	-64.448	-0.160	0.066
-703.572	9.153	0.174	0.133
-702.558	19.239	0.243	0.198
-701.543	-61.788	-0.187	0.079
-700.529	-47.523	-0.195	0.096
-699.514	-200.000	-0.030	-0.268
-698.499	155.251	0.113	-0.158
-697.485	-200.000	0.033	-0.160
-696.470	51.332	0.156	0.150
-695.456	-42.047	-0.260	-0.135
-694.441	93.010	-0.086	-0.099
-693.426	82.207	-0.204	0.223
-692.412	274.419	0.118	0.212
-691.397	127.973	0.214	0.275
-690.383	94.245	-0.166	-0.190
-689.368	3.627	-0.119	-0.088
-688.354	82.577	0.158	-0.173
-687.339	-141.137	-0.263	-0.027
-686.324	138.720	-0.183	-0.243
-685.310	35.278	0.085	0.075
-684.295	107.336	0.037	-0.044
-683.281	117.307	-0.259	0.323
-682.266	253.263	-0.087	-0.151
-681.251	37.936	-0.203	-0.183
-680.237	292.692	0.036	-0.066
-679.222	800.000	-0.095	-0.363
-678.208	800.000	0.071	-0.249
-677.193	-58.274	-0.060	-0.026
-676.178	-0.020	-0.096	0.069
-675.164	-136.619	0.213	0.025
-674.149	-93.440	0.370	-0.104
-673.135	-47.778	-0.123	0.060
-672.120	294.878	-0.169	0.312
-671.105	60.697	-0.198	0.199
-670.091	-106.798	-0.111	0.025
-669.076	122.144	0.230	-0.291
-668.062	-147.608	-0.231	0.020
-667.047	-85.370	-0.151	-0.048
-666.032	-92.644	0.363	-0.103
-665.018	100.404	0.048	-0.057
-664.003	-200.000	0.071	-0.316
-662.989	108.522	0.247	-0.298
-661.974	-133.779	0.070	-0.009
-660.959	800.000	0.064	0.207
-659.945	-14.207	-0.354	-0.231
-658.930	-20.818	-0.178	0.111
-657.916	96.955	0.040	-0.046
-656.901	-67.929	-0.032	0.013
-655.886	232.263	0.070	0.116
-654.872	-68.406	0.240	0.094
-653.857	-1.190	-0.280	-0.200
-652.843	28.272	0.193	0.165
-651.828	38.874	-0.079	0.071
-650.814	-137.905	-0.192	0.022
-649.799	-106.930	0.251	-0.056
-648.784	-98.199	-0.118	-0.031
-647.770	-85.930	0.224	-0.070
-646.755	800.000	0.105	-0.325
-645.741	-84.248	0.389	0.125
-644.726	236.559	0.172	-0.287
-643.711	224.113	-0.082	0.134
-642.697	-200.000	0.016	0.606
-641.682	46.678	0.251	-0.235
-640.668	-200.000	-0.004	-0.146
-639.653	-154.337	-0.121	-0.008
-638.638	500.300	-0.108	0.252
-637.624	94.693	-0.242	-0.278
-636.609	774.880	-0.030	0.084
-635.595	-200.000	0.001	-0.100
-634.580	120.455	0.187	-0.234
-633.565	-77.304	-0.323	-0.113
-632.551	-123.041	-0.130	-0.021
-631.536	-0.131	-0.252	0.181
-630.522	-119.332	-0.312	0.055
-629.507	-91.723	-0.227	0.065
-628.492	43.154	-0.153	0.141
-627.478	-129.047	-0.211	-0.030
-626.463	-102.506	0.183	0.044
-625.449	195.416	-0.239	-0.366
-624.434	-178.164	0.159	0.004
-623.419	-45.763	-0.216	0.108
-622.405	800.000	-0.004	-0.013
-621.390	-52.505	0.090	0.042
-620.376	-64.497	-0.162	0.066
-619.361	384.872	-0.181	0.377
-618.346	93.727	0.092	-0.106
-617.332	171.407	-0.139	-0.201
-616.317	-126.993	-0.245	0.036
-615.303	-91.122	-0.292	0.085
-614.288	-200.000	0.065	-0.328
-613.273	21.538	-0.326	-0.267
-612.259	-200.000	-0.053	0.275
-611.244	124.588	0.095	-0.120
-610.230	-40.807	-0.274	-0.143
-609.215	161.024	0.117	-0.165
-608.201	-200.000	0.037	0.173
-607.186	-135.304	0.318	0.038
-606.171	-200.000	-0.060	-0.458
-605.157	10.607	0.101	0.078
-604.142	518.598	-0.089	-0.210
-603.128	61.689	0.156	-0.157
-602.113	254.223	0.055	0.095
-601.098	92.834	0.296	-0.337
-600.084	-33.833	-0.145	-0.080
-599.069	208.386	-0.189	-0.298
-598.055	800.000	-0.043	-0.153
-597.040	589.963	0.044	0.108
-596.025	-58.642	-0.302	-0.132
-595.011	86.127	-0.064	-0.071
-593.996	-74.644	-0.158	-0.057
-592.982	-200.000	-0.040	0.270
-591.967	800.000	0.060	0.264
-590.952	5.981	0.249	0.186
-589.938	-200.000	0.006	0.389
-588.923	11.398	0.235	-0.181
-587.909	-39.398	-0.198	0.105
-586.894	167.317	0.248	0.354
-585.879	-9.254	0.068	-0.046
-584.865	24.414	-0.142	-0.118
-583.850	-129.240	0.290	0.041
-582.836	-141.096	-0.106	-0.011
-581.821	-28.975	0.300	-0.174
-580.806	172.277	0.105	-0.152
-579.792	-88.711	-0.183	-0.055
-578.777	283.369	0.141	0.256
-577.763	258.901	-0.081	0.141
-576.748	-2.849	-0.143	0.100
-575.733	-134.670	-0.096	-0.012
-574.719	407.867	0.177	0.377
-573.704	73.689	0.110	0.117
-572.690	800.000	0.110	0.315
-571.675	-168.103	-0.078	-0.003
-570.661	749.708	-0.169	0.460
-569.646	-9.591	0.211	0.142
-568.631	163.622	-0.208	-0.295
-567.617	111.333	-0.274	0.333
-566.602	-200.000	-0.003	0.253
-565.588	-200.000	-0.021	-0.153
-564.573	-200.000	0.014	0.064
-563.558	66.548	-0.131	-0.134
-562.544	-200.000	0.004	0.145
-561.529	-91.307	-0.183	0.053
-560.515	-112.281	-0.363	-0.073
-559.500	-95.012	-0.138	0.038
-558.485	84.106	-0.094	0.103
-557.471	725.182	-0.103	0.276
-556.456	24.952	0.140	0.117
-555.442	42.609	-0.136	0.125
-554.427	800.000	-0.111	0.345
-553.412	-79.315	-0.188	0.064
-552.398	-200.000	-0.002	-0.370
-551.383	372.078	-0.134	0.274
-550.369	-113.050	0.306	0.061
-549.354	-41.483	0.240	0.124
-548.339	135.858	0.050	-0.066
-547.325	-103.600	-0.106	-0.025
-546.310	91.171	0.132	0.149
-545.296	-200.000	0.025	0.197
-544.281	606.180	-0.042	-0.105
-543.266	-150.647	0.283	0.022
-542.252	628.981	0.094	-0.238
-541.237	272.302	0.115	-0.204
-540.223	56.038	0.232	-0.226
-539.208	-200.000	0.044	0.252
-538.193	-68.329	-0.253	0.099
-537.179	64.827	-0.185	0.187
-536.164	22.346	-0.205	-0.169
-535.150	-46.076	-0.089	-0.044
-534.135	-200.000	0.032	0.222
-533.121	106.970	0.229	-0.274
-532.106	800.000	0.101	0.346
-531.091	-200.000	0.033	0.179
-530.077	-88.465	-0.218	-0.065
-529.062	800.000	0.011	0.032
-528.048	403.280	-0.083	-0.175
-527.033	-200.000	0.076	-0.399
-526.018	290.646	0.077	-0.141
-525.004	-84.852	-0.113	0.036
-523.989	-152.832	0.066	-0.005
-522.975	55.346	0.281	-0.273
-521.960	-101.792	-0.366	-0.089
-520.945	-129.462	0.295	-0.041
-519.931	-97.609	0.248	0.065
-518.916	-80.458	0.086	-0.029
-517.902	-200.000	0.025	-0.405
-516.887	210.621	0.123	-0.195
-515.872	151.391	0.103	-0.142
-514.858	-136.295	-0.111	-0.013
-513.843	46.711	-0.097	-0.090
-512.829	-88.973	0.116	0.034
-511.814	-199.014	-0.120	0.001
-510.799	-85.698	0.024	-0.007
-509.785	-107.192	0.185	0.041
-508.770	-200.000	-0.002	-0.260
-507.756	105.910	-0.048	0.057
-506.741	193.580	-0.109	0.165
-505.726	800.000	0.083	0.331
-504.712	-3.915	-0.132	0.092
-503.697	-82.808	0.195	0.063
-502.683	391.017	-0.180	-0.376
-501.668	229.524	-0.055	-0.089
-500.653	339.437	-0.028	0.054
-499.639	-130.620	-0.293	-0.040
-498.624	203.844	-0.129	-0.201
-497.610	-136.329	-0.463	-0.054
-496.595	-39.981	0.317	-0.166
-495.581	-73.647	0.223	0.082
-494.566	-200.000	0.008	0.144
-493.551	270.248	-0.104	-0.184
-492.537	-37.368	0.132	0.071
-491.522	210.462	0.085	-0.134
-490.508	800.000	0.045	-0.155
-489.493	120.551	-0.231	0.289
-488.478	-53.236	0.320	-0.147
-487.464	571.833	0.066	-0.162
-486.449	100.408	-0.245	0.285
-485.435	19.822	0.190	0.153
-484.420	-200.000	-0.037	0.170
-483.405	-67.939	0.333	-0.131
-482.391	267.200	-0.055	-0.096
-481.376	-20.735	0.288	0.177
-480.362	-56.396	0.124	-0.055
-479.347	111.801	-0.093	0.112
-478.332	-200.000	0.059	0.459
-477.318	454.639	0.033	-0.073
-476.303	62.191	-0.235	-0.235
-475.289	800.000	0.110	-0.383
-474.274	800.000	0.093	0.261
-473.259	800.000	0.044	0.139
-472.245	34.274	-0.092	-0.081
-471.230	-22.699	0.189	-0.115
-470.216	59.187	-0.180	-0.178
-469.201	162.633	-0.275	-0.387
-468.186	155.641	-0.220	-0.305
-467.172	800.000	-0.124	-0.352
-466.157	800.000	-0.051	-0.188
-465.143	-82.354	-0.183	-0.060
-464.128	197.040	-0.036	-0.055
-463.113	-105.603	-0.028	0.006
-462.099	800.000	0.027	-0.095
-461.084	119.861	0.141	-0.175
-460.070	-101.418	0.271	-0.066
-459.055	-200.000	-0.019	0.157
-458.040	111.667	-0.095	-0.115
-457.026	-200.000	0.007	0.117
-456.011	800.000	0.018	-0.061
-454.997	-32.845	-0.176	0.098
-453.982	-158.183	-0.219	0.013
-452.968	58.885	-0.088	-0.087
-451.953	-200.000	0.019	-0.201
-450.938	800.000	-0.042	0.183
-449.924	-56.180	0.136	-0.061
-448.909	87.588	0.183	0.203
-447.895	-69.323	0.183	0.070
-446.880	416.955	0.051	0.109
-445.865	-35.574	-0.131	-0.071
-444.851	26.049	-0.354	-0.296
-443.836	-200.000	-0.002	0.031
-442.822	374.802	-0.115	-0.234
-441.807	76.404	0.171	0.181
-440.792	-42.826	-0.055	0.028
-439.778	82.066	-0.236	-0.256
-438.763	-170.878	-0.149	-0.005
-437.749	-124.277	-0.317	-0.050
-436.734	-200.000	-0.002	0.021
-435.719	716.116	0.030	0.080
-434.705	-174.793	0.259	0.007
-433.690	113.396	0.084	-0.102
-432.676	451.549	0.139	0.309
-431.661	-17.088	-0.062	0.039
-430.646	7.984	-0.189	0.142
-429.632	-103.813	-0.159	0.037
-428.617	229.520	-0.054	-0.089
-427.603	87.668	-0.182	-0.202
-426.588	-150.835	0.315	0.024
-425.573	-35.825	-0.105	-0.057
-424.559	-44.989	0.293	-0.146
-423.544	-28.016	-0.142	-0.082
-422.530	-200.000	-0.011	-0.104
-421.515	-59.634	-0.042	0.018
-420.500	-200.000	-0.024	-0.259
-419.486	422.686	-0.086	-0.184
-418.471	-82.688	0.262	-0.085
-417.457	-200.000	0.003	0.021
-416.442	800.000	-0.070	0.255
-415.428	-112.665	0.334	-0.066
-414.413	30.745	-0.112	0.096
-413.398	800.000	0.040	0.131
-412.384	-130.349	0.082	0.011
-411.369	739.586	0.102	0.273
-410.355	221.934	0.087	-0.141
-409.340	27.524	-0.129	-0.109
-408.325	-99.818	-0.177	-0.044
-407.311	225.541	-0.073	0.118
-406.296	800.000	-0.039	-0.170
-405.282	-103.343	-0.380	-0.090
-404.267	412.666	0.028	0.060
-403.252	-200.000	-0.007	0.265
-402.238	38.125	0.154	-0.137
-401.223	361.342	0.019	-0.037
-400.209	-158.599	0.089	0.005
-399.194	234.357	-0.067	0.110
-398.179	-200.000	-0.033	0.273
-397.165	40.574	0.112	-0.101
-396.150	-122.593	0.090	-0.015
-395.136	107.815	-0.140	0.167
-394.121	-200.000	-0.035	0.267
-393.106	134.508	-0.252	0.328
-392.092	365.259	0.053	-0.106
-391.077	-25.644	0.099	0.059
-390.063	-57.087	0.074	0.033
-389.048	186.908	0.187	-0.279
-388.033	-142.761	-0.402	0.039
-387.019	658.496	0.084	0.215
-386.004	-103.431	0.153	-0.036
-384.990	800.000	-0.039	0.140
-383.975	-132.067	0.290	-0.038
-382.960	-129.810	-0.168	-0.023
-381.946	25.416	0.306	0.254
-380.931	180.388	-0.121	0.178
-379.917	-87.790	-0.125	-0.038
-378.902	-129.516	-0.157	0.022
-377.888	156.524	0.094	-0.130
-376.873	800.000	0.075	-0.278
-375.858	501.109	0.045	-0.104
-374.844	-179.921	0.128	-0.003
-373.829	800.000	0.059	0.218
-372.815	-58.231	-0.318	-0.138
-371.800	-93.308	-0.241	-0.067
-370.785	-101.890	0.137	-0.033
-369.771	800.000	0.036	0.101
-368.756	104.355	-0.110	0.130
-367.742	-0.192	-0.057	0.041
-366.727	-151.794	-0.043	-0.003
-365.712	-174.784	-0.186	0.005
-364.698	-170.893	0.210	-0.007
-363.683	-10.557	-0.177	0.117
-362.669	21.224	-0.217	-0.176
-361.654	25.155	0.082	0.068
-360.639	800.000	-0.061	0.213
-359.625	-35.031	0.094	-0.051
-358.610	-73.301	0.147	0.054
-357.596	30.219	0.299	0.255
-356.581	206.297	0.148	-0.231
-355.566	800.000	0.038	0.124
-354.552	-200.000	-0.023	-0.147
-353.537	-41.803	0.194	0.100
-352.523	0.324	0.251	-0.179
-351.508	-86.482	-0.271	-0.083
-350.493	-200.000	0.027	-0.220
-349.479	113.967	0.132	-0.161
-348.464	-151.610	-0.079	0.006
-347.450	-200.000	0.009	0.369
-346.435	125.327	0.232	0.292
-345.420	189.099	0.061	0.091
-344.406	-200.000	0.002	-0.249
-343.391	46.750	-0.162	-0.151
-342.377	-199.438	0.525	0.003
-341.362	189.433	-0.101	-0.151
-340.348	-63.192	0.149	-0.061
-339.333	-98.252	-0.231	-0.059
-338.318	-20.702	-0.288	-0.177
-337.304	-194.290	-0.230	-0.002
-336.289	-0.384	-0.159	0.113
-335.275	800.000	-0.035	-0.116
-334.260	-200.000	0.005	-0.044
-333.245	-11.761	0.285	0.187
-332.231	-102.697	-0.114	-0.027
-331.216	-190.636	-0.089	0.001
-330.202	-126.062	0.471	-0.071
-329.187	-200.000	0.081	-0.462
-328.172	-200.000	-0.051	0.237
-327.158	238.756	-0.036	-0.059
-326.143	-139.196	0.148	-0.016
-325.129	306.031	0.180	0.335
-324.114	39.239	-0.094	0.084
-323.099	-200.000	0.035	0.265
-322.085	-126.555	-0.288	-0.043
-321.070	-19.904	0.233	0.143
-320.056	-200.000	-0.047	0.231
-319.041	641.573	0.073	0.185
-318.026	53.490	0.111	-0.106
-317.012	-71.984	-0.037	-0.014
-315.997	375.210	-0.077	-0.156
-314.983	93.185	0.131	-0.148
-313.968	-200.000	0.010	-0.517
-312.953	-93.501	0.173	-0.048
-311.939	-75.760	0.043	0.015
-310.924	-61.599	-0.298	-0.125
-309.910	-117.460	0.090	0.016
-308.895	294.438	-0.096	0.175
-307.880	-17.766	-0.078	0.049
-306.866	-170.536	0.335	0.012
-305.851	-200.000	0.019	-0.104
-304.837	-170.052	0.040	-0.001
-303.822	7.093	0.220	0.164
-302.807	-84.290	0.140	0.044
-301.793	-99.992	0.415	0.103
-300.778	-79.873	0.441	-0.148
-299.764	258.777	-0.114	0.196
-298.749	114.325	0.188	0.228
-297.735	-33.737	-0.285	0.156
-296.720	262.167	-0.049	0.085
-295.705	800.000	0.110	-0.322
-294.691	800.000	0.059	-0.213
-293.676	30.391	0.056	0.048
-292.662	-119.621	0.248	0.043
-291.647	190.564	0.116	0.174
-290.632	185.015	0.079	-0.117
-289.618	305.705	-0.079	0.147
-288.603	-110.908	0.152	-0.031
-287.589	-76.342	0.222	0.078
-286.574	-104.428	-0.171	-0.039
-285.559	654.098	0.043	0.109
-284.545	-4.931	-0.144	0.099
-283.530	800.000	0.075	0.281
-282.516	-18.282	0.323	-0.201
-281.501	-200.000	-0.010	0.234
-280.486	645.630	0.107	-0.272
-279.472	213.790	0.139	0.219
-278.457	-45.268	0.154	0.076
-277.443	119.367	-0.163	-0.200
-276.428	82.946	-0.158	-0.171
-275.413	-200.000	0.009	-0.055
-274.399	203.317	-0.112	-0.172
-273.384	-23.342	-0.345	-0.206
-272.370	-119.871	0.055	-0.009
-271.355	207.992	-0.150	-0.233
-270.340	-200.000	-0.003	0.169
-269.326	63.430	-0.208	-0.208
-268.311	508.205	-0.048	0.112
-267.297	140.334	-0.071	-0.093
-266.282	-53.011	-0.301	-0.138
-265.267	208.531	-0.170	0.264
-264.253	113.839	-0.257	-0.311
-263.238	-18.959	0.188	-0.116
-262.224	3.877	0.153	0.111
-261.209	209.001	0.166	-0.258
-260.195	124.391	-0.212	0.265
-259.180	144.704	-0.209	-0.279
-258.165	-79.835	-0.045	0.015
-257.151	321.250	-0.118	0.224
-256.136	-78.075	-0.172	0.059
-255.122	143.029	0.156	0.206
-254.107	157.589	0.159	-0.219
-253.092	-10.011	0.127	0.084
-252.078	785.042	0.115	0.313
-251.063	-57.164	-0.178	0.078
-250.049	-200.000	0.006	0.108
-249.034	159.881	0.120	0.166
-248.019	-13.914	0.106	0.068
-247.005	-137.830	-0.626	-0.070
-245.990	647.711	-0.138	0.352
-244.976	-5.059	0.342	-0.234
-243.961	170.420	0.245	0.349
-242.946	-33.652	-0.286	0.157
-241.932	-13.120	-0.379	-0.245
-240.917	-200.000	0.042	-0.286
-239.903	11.168	0.334	-0.254
-238.888	364.796	-0.019	-0.039
-237.873	68.661	-0.076	0.078
-236.859	-200.000	0.159	-0.000
-235.844	-88.126	-0.283	-0.084
-234.830	-200.000	-0.034	0.155
-233.815	191.254	0.048	-0.071
-232.800	222.282	0.073	0.116
-231.786	800.000	-0.087	0.273
-230.771	92.516	0.181	0.203
-229.757	78.441	-0.021	-0.022
-228.742	800.000	-0.048	0.144
-227.727	77.234	0.199	0.210
-226.713	-60.407	-0.203	-0.086
-225.698	351.437	-0.131	0.258
-224.684	800.000	-0.035	-0.109
-223.669	27.178	-0.249	0.208
-222.655	-50.807	0.195	-0.091
-221.640	32.253	-0.185	-0.158
-220.625	109.427	-0.056	-0.066
-219.611	29.634	0.056	-0.048
-218.596	-111.764	0.367	0.074
-217.582	-145.332	-0.128	0.011
-216.567	-57.830	0.347	0.151
-215.552	58.822	0.175	0.171
-214.538	17.597	0.119	0.094
-213.523	-200.000	-0.015	-0.114
-212.509	351.183	0.172	-0.339
-211.494	162.879	0.091	0.127
-210.479	-108.485	-0.138	-0.030
-209.465	-45.016	0.480	-0.237
-208.450	-33.822	0.150	-0.082
-207.436	530.228	-0.108	-0.254
-206.421	-195.292	0.229	0.002
-205.406	-83.587	-0.353	0.112
-204.392	9.524	0.129	-0.097
-203.377	98.641	0.128	-0.146
-202.363	462.785	-0.165	0.367
-201.348	-18.692	0.275	-0.170
-200.333	-200.000	0.026	0.363
-199.319	-132.391	0.240	0.031
-198.304	800.000	0.093	-0.329
-197.290	102.890	-0.092	-0.107
-196.275	-200.000	-0.007	0.298
-195.260	46.376	-0.322	-0.296
-194.246	-36.287	0.191	-0.102
-193.231	637.410	0.154	-0.390
-192.217	-1.072	0.175	0.123
-191.202	-200.000	-0.033	-0.352
-190.187	-200.000	-0.012	-0.079
-189.173	-60.344	-0.315	0.133
-188.158	-116.685	0.336	-0.061
-187.144	137.513	-0.204	-0.265
-186.129	-172.398	0.176	-0.006
-185.114	800.000	0.056	0.195
-184.100	-200.000	0.012	0.186
-183.085	-82.632	0.066	0.021
-182.071	-126.884	0.150	0.022
-181.056	-22.668	-0.239	0.143
-180.042	-132.026	-0.239	-0.031
-179.027	-200.000	0.002	0.171
-178.012	-200.000	-0.010	0.166
-176.998	-154.955	-0.171	0.011
-175.983	800.000	-0.090	-0.264
-174.969	-110.529	-0.203	0.042
-173.954	800.000	-0.075	-0.245
-172.939	478.107	-0.059	0.132
-171.925	120.269	0.127	0.157
-170.910	163.969	0.130	0.182
-169.896	93.259	0.070	0.079
-168.881	-174.232	-0.193	-0.006
-167.866	800.000	0.060	-0.166
-166.852	132.068	-0.106	0.135
-165.837	341.157	0.074	0.143
-164.823	-200.000	-0.017	-0.194
-163.808	705.849	0.053	-0.140
-162.793	-107.622	-0.323	-0.070
-161.779	800.000	0.033	-0.126
-160.764	129.562	-0.129	0.163
-159.750	-200.000	-0.013	0.342
-158.735	-108.202	0.315	-0.068
-157.720	26.872	0.078	0.064
-156.706	-28.168	-0.188	0.108
-155.691	800.000	-0.073	0.205
-154.677	-16.050	0.233	0.147
-153.662	800.000	-0.101	0.288
-152.647	-200.000	-0.021	-0.234
-151.633	-200.000	-0.010	-0.079
-150.618	327.582	0.074	-0.141
-149.604	-63.639	0.297	0.121
-148.589	400.799	-0.098	-0.205
-147.574	292.551	-0.069	0.124
-146.560	92.814	-0.189	-0.211
-145.545	26.208	-0.198	-0.164
-144.531	-23.946	-0.347	0.206
-143.516	0.080	-0.144	0.102
-142.502	-102.313	-0.322	0.077
-141.487	800.000	-0.060	0.174
-140.472	449.933	-0.065	-0.143
-139.458	-200.000	0.026	0.205
-138.443	194.694	-0.038	-0.057
-137.429	-200.000	0.001	0.100
-136.414	93.364	0.298	-0.333
-135.399	137.298	-0.149	0.193
-134.385	800.000	-0.061	-0.168
-133.370	800.000	0.098	-0.419
-132.356	-200.000	0.017	0.240
-131.341	143.452	0.115	0.151
-130.326	-200.000	-0.042	0.220
-129.312	212.547	-0.113	0.176
-128.297	-62.342	-0.095	-0.039
-127.283	-61.908	-0.111	-0.046
-126.268	134.409	-0.116	0.148
-125.253	215.473	0.079	0.125
-124.239	-200.000	0.001	0.231
-123.224	-104.085	-0.228	0.053
-122.210	-115.185	0.069	-0.013
-121.195	-66.090	0.216	-0.085
