DTS Sentinel unit serial number:	SN413079Multiplexer serial number:	ORYXHardware model number:	OX4-SRSoftware version number:	ORYX F/W v4.00 Oryx Data Collector v3.7.2.0data status	okinstallation	princeton_trtdifferential loss correction	single-endedforward channel	channel 4reverse channel	N/Adate	2019/09/19time	10:05:35forward acquisition time	60.00reverse acquisition time	0.00gamma	496.2192k internal	0.2330k external	0.2330temperature offset calibration	1.0015default loss term (dB/km)	0.3790temperature slope calibration	1.0000multiplexer offset coefficient	1.0000multiplexer slope coefficient	1.0000fibre end	0.00T internal ref (°C)	23.87T ext. ref 1 (°C)	0.68T ext. ref 2 (°C)	19.65length (m)	temperature (°C)	Stokes	anti-Stokes-747.200	-200.000	-0.004	0.042
-746.185	-19.939	-0.366	0.228
-745.171	29.515	0.074	0.064
-744.156	147.092	-0.218	-0.296
-743.142	50.218	-0.205	-0.195
-742.127	800.000	0.018	-0.069
-741.112	333.116	0.033	0.064
-740.098	-123.351	-0.073	0.012
-739.083	164.775	-0.026	0.037
-738.069	-200.000	0.078	0.435
-737.054	-140.956	-0.113	0.012
-736.039	-64.995	-0.316	-0.129
-735.025	-61.335	0.139	0.059
-734.010	-55.467	-0.262	0.118
-732.996	39.490	0.020	0.018
-731.981	-200.000	0.053	-0.281
-730.966	133.716	-0.193	-0.251
-729.952	-4.409	-0.319	-0.222
-728.937	62.935	-0.145	0.146
-727.923	17.196	0.180	0.143
-726.908	-200.000	0.021	-0.291
-725.894	-200.000	0.014	-0.264
-724.879	-35.502	-0.180	-0.098
-723.864	120.380	-0.083	0.104
-722.850	-176.296	0.197	0.005
-721.835	177.718	0.063	-0.092
-720.821	800.000	0.071	-0.271
-719.806	-108.782	-0.216	-0.046
-718.791	-200.000	0.046	-0.240
-717.777	432.147	-0.077	-0.169
-716.762	45.273	0.096	0.089
-715.748	-200.000	0.031	-0.164
-714.733	-155.799	-0.286	-0.018
-713.718	20.533	-0.290	-0.236
-712.704	-200.000	0.053	-0.288
-711.689	-200.000	0.021	0.228
-710.675	-120.354	-0.106	0.018
-709.660	311.985	0.167	-0.315
-708.645	28.358	-0.099	0.084
-707.631	-200.000	0.004	-0.191
-706.616	141.358	-0.071	0.095
-705.602	325.569	0.065	-0.124
-704.587	-13.393	-0.319	-0.208
-703.572	42.128	0.076	0.069
-702.558	-65.167	0.152	0.062
-701.543	178.893	0.127	-0.187
-700.529	74.189	-0.075	-0.079
-699.514	-93.221	-0.243	-0.068
-698.499	108.901	0.219	0.263
-697.485	85.726	-0.256	-0.283
-696.470	-37.895	-0.128	-0.069
-695.456	-46.654	-0.085	-0.042
-694.441	-72.589	-0.386	0.143
-693.426	-33.077	-0.140	0.078
-692.412	-44.461	0.160	0.080
-691.397	-200.000	0.008	-0.277
-690.383	-116.325	-0.213	-0.040
-689.368	322.287	-0.183	-0.351
-688.354	92.758	-0.175	-0.198
-687.339	800.000	-0.054	-0.171
-686.324	-200.000	0.008	0.054
-685.310	-29.754	0.144	0.083
-684.295	-200.000	0.040	0.209
-683.281	-200.000	-0.022	-0.324
-682.266	-200.000	0.041	0.219
-681.251	-118.773	-0.065	-0.011
-680.237	49.288	-0.200	0.189
-679.222	-200.000	-0.076	-0.407
-678.208	800.000	-0.034	0.125
-677.193	180.750	-0.185	-0.273
-676.178	309.474	-0.183	-0.344
-675.164	-200.000	-0.039	0.211
-674.149	-108.113	-0.100	-0.022
-673.135	-52.234	-0.080	0.037
-672.120	183.733	-0.107	0.159
-671.105	-200.000	-0.015	0.248
-670.091	-113.559	-0.423	-0.083
-669.076	240.007	0.092	0.155
-668.062	-200.000	0.002	0.062
-667.047	-66.019	0.208	-0.083
-666.032	-63.024	0.369	0.153
-665.018	80.157	0.022	-0.024
-664.003	-152.962	-0.308	0.022
-662.989	-58.731	0.315	0.137
-661.974	282.974	0.022	-0.040
-660.959	154.472	0.187	0.257
-659.945	-82.709	-0.322	0.105
-658.930	209.828	-0.151	-0.238
-657.916	-1.428	0.128	-0.091
-656.901	-200.000	0.058	-0.351
-655.886	38.946	0.129	-0.116
-654.872	-187.142	0.191	0.003
-653.857	-115.372	-0.258	0.049
-652.843	800.000	-0.025	-0.071
-651.828	-181.264	-0.134	0.003
-650.814	800.000	0.130	-0.388
-649.799	576.557	0.115	0.282
-648.784	211.932	-0.122	-0.193
-647.770	-200.000	0.013	-0.329
-646.755	-11.338	0.117	0.077
-645.741	800.000	0.018	0.057
-644.726	419.619	-0.182	-0.391
-643.711	800.000	-0.025	0.083
-642.697	-61.452	-0.395	0.167
-641.682	-36.649	0.226	-0.122
-640.668	-59.286	0.243	-0.105
-639.653	-4.234	-0.081	0.056
-638.638	158.543	-0.091	0.127
-637.624	-200.000	0.010	-0.111
-636.609	800.000	0.034	0.129
-635.595	-98.906	0.234	-0.060
-634.580	-200.000	0.015	-0.142
-633.565	-177.229	0.316	-0.008
-632.551	416.445	0.104	0.223
-631.536	-116.831	-0.200	0.037
-630.522	-174.065	0.059	0.002
-629.507	-27.816	0.101	0.058
-628.492	280.809	0.081	-0.146
-627.478	-38.100	0.303	0.161
-626.463	800.000	-0.026	0.090
-625.449	-200.000	0.058	0.460
-624.434	-98.454	-0.116	0.030
-623.419	-85.298	-0.089	-0.028
-622.405	-103.196	0.090	0.021
-621.390	-167.322	-0.485	-0.020
-620.376	-25.701	-0.041	0.024
-619.361	-200.000	-0.007	-0.069
-618.346	-73.583	0.198	0.072
-617.332	-200.000	0.037	0.237
-616.317	39.520	-0.325	-0.292
-615.303	116.006	0.250	-0.306
-614.288	-200.000	0.018	0.084
-613.273	-81.257	-0.398	0.131
-612.259	8.452	0.240	-0.181
-611.244	785.053	0.110	-0.301
-610.230	-108.465	0.155	0.033
-609.215	31.070	-0.190	-0.163
-608.201	-33.633	-0.089	-0.049
-607.186	47.354	-0.174	-0.163
-606.171	-200.000	-0.004	0.156
-605.157	446.447	-0.112	-0.246
-604.142	-129.979	-0.051	-0.007
-603.128	-200.000	0.009	-0.141
-602.113	-139.388	-0.192	-0.021
-601.098	-200.000	0.019	0.110
-600.084	-200.000	-0.036	-0.416
-599.069	-22.934	0.131	-0.079
-598.055	140.830	-0.113	-0.149
-597.040	-200.000	0.030	0.227
-596.025	91.144	0.160	-0.180
-595.011	95.503	-0.256	-0.292
-593.996	-108.063	0.333	0.072
-592.982	-200.000	-0.004	-0.056
-591.967	75.097	0.024	-0.025
-590.952	800.000	-0.016	-0.058
-589.938	531.797	-0.045	-0.105
-588.923	396.068	-0.044	-0.091
-587.909	800.000	-0.076	0.279
-586.894	-160.983	-0.305	0.016
-585.879	266.055	-0.251	0.439
-584.865	239.212	0.186	-0.310
-583.850	-133.903	-0.181	-0.022
-582.836	-141.644	-0.517	-0.052
-581.821	-200.000	0.014	-0.233
-580.806	213.558	-0.088	-0.139
-579.792	-200.000	0.002	0.113
-578.777	626.794	0.171	0.431
-577.763	800.000	-0.081	0.302
-576.748	800.000	0.057	0.159
-575.733	800.000	-0.057	-0.218
-574.719	61.435	-0.134	0.134
-573.704	-200.000	-0.065	-0.358
-572.690	800.000	0.039	-0.130
-571.675	-200.000	-0.002	0.032
-570.661	800.000	0.013	-0.038
-569.646	-40.431	0.201	0.104
-568.631	153.550	0.098	-0.134
-567.617	10.944	-0.220	-0.168
-566.602	-138.991	0.207	-0.022
-565.588	-200.000	0.054	0.514
-564.573	-56.926	-0.186	0.082
-563.558	171.871	-0.097	-0.140
-562.544	-27.118	-0.235	0.137
-561.529	-36.829	0.123	-0.066
-560.515	-150.546	-0.432	0.033
-559.500	90.537	-0.246	-0.276
-558.485	562.892	-0.131	-0.316
-557.471	219.068	-0.157	0.251
-556.456	-21.570	-0.296	0.180
-555.442	-128.386	0.231	-0.033
-554.427	28.709	-0.073	0.062
-553.412	31.960	0.048	-0.041
-552.398	-43.918	-0.062	-0.031
-551.383	-11.335	0.354	-0.233
-550.369	-3.489	-0.323	-0.224
-549.354	-90.280	0.287	-0.083
-548.339	-168.612	0.164	-0.006
-547.325	49.484	0.064	0.060
-546.310	-194.124	0.306	0.003
-545.296	-200.000	-0.037	-0.301
-544.281	86.452	-0.069	0.076
-543.266	-88.107	-0.532	-0.159
-542.252	-123.036	-0.515	0.083
-541.237	164.620	0.083	-0.117
-540.223	55.686	-0.174	-0.168
-539.208	18.059	0.205	-0.163
-538.193	384.255	0.047	0.096
-537.179	44.487	-0.106	-0.097
-536.164	800.000	-0.027	0.111
-535.150	800.000	0.068	-0.233
-534.135	263.240	0.027	0.048
-533.121	-200.000	0.056	-0.349
-532.106	353.821	0.077	0.153
-531.091	-100.049	-0.133	-0.033
-530.077	-200.000	0.022	0.116
-529.062	800.000	-0.130	0.448
-528.048	-50.176	0.259	0.122
-527.033	4.621	0.097	0.071
-526.018	-41.193	0.075	-0.039
-525.004	242.353	-0.128	0.214
-523.989	-13.731	-0.156	-0.101
-522.975	-153.207	-0.103	-0.007
-521.960	800.000	-0.121	-0.373
-520.945	-200.000	-0.014	-0.084
-519.931	25.248	0.292	-0.242
-518.916	-87.908	0.089	0.027
-517.902	653.619	-0.036	-0.093
-516.887	-60.261	0.184	0.078
-515.872	100.980	-0.260	-0.301
-514.858	-57.160	-0.177	-0.078
-513.843	-200.000	-0.009	0.086
-512.829	197.261	0.114	-0.174
-511.814	-59.538	0.199	-0.085
-510.799	-97.136	-0.297	0.077
-509.785	-200.000	0.010	0.486
-508.770	58.338	-0.340	0.332
-507.756	-200.000	0.000	-0.138
-506.741	464.019	-0.053	-0.117
-505.726	42.907	0.271	-0.246
-504.712	225.937	0.101	0.163
-503.697	-170.888	-0.118	-0.004
-502.683	0.418	0.129	-0.092
-501.668	-11.546	0.140	0.091
-500.653	-200.000	-0.010	0.382
-499.639	102.038	-0.139	0.162
-498.624	-19.809	0.230	0.142
-497.610	70.547	-0.200	-0.206
-496.595	-114.449	0.211	-0.040
-495.581	102.620	-0.113	-0.132
-494.566	-10.210	0.031	0.020
-493.551	-101.952	-0.164	0.040
-492.537	-200.000	-0.002	-0.258
-491.522	-56.275	0.189	0.084
-490.508	-200.000	0.013	-0.313
-489.493	-200.000	-0.025	-0.295
-488.478	349.432	-0.123	0.242
-487.464	-200.000	0.044	-0.293
-486.449	800.000	-0.042	-0.129
-485.435	133.277	0.161	-0.208
-484.420	-200.000	0.076	0.418
-483.405	726.138	-0.081	0.214
-482.391	-200.000	0.002	0.114
-481.376	34.683	0.155	0.135
-480.362	-62.942	0.287	-0.118
-479.347	22.332	-0.256	-0.208
-478.332	-200.000	-0.014	-0.130
-477.318	-200.000	0.026	-0.137
-476.303	-62.493	0.207	-0.086
-475.289	800.000	-0.123	0.348
-474.274	-13.211	-0.299	0.194
-473.259	-200.000	0.039	0.219
-472.245	-105.175	0.110	-0.025
-471.230	151.361	0.130	0.177
-470.216	-45.204	-0.205	0.102
-469.201	-200.000	-0.011	-0.063
-468.186	81.208	-0.054	-0.059
-467.172	-95.301	-0.323	0.087
-466.157	235.637	-0.143	0.236
-465.143	440.898	0.157	-0.342
-464.128	-186.599	0.182	-0.003
-463.113	-164.530	-0.305	-0.014
-462.099	800.000	0.095	-0.415
-461.084	-109.940	-0.080	-0.017
-460.070	-65.450	0.097	0.039
-459.055	-56.448	-0.127	-0.056
-458.040	557.229	-0.017	0.040
-457.026	-200.000	-0.036	-0.183
-456.011	436.329	0.076	0.165
-454.997	505.439	0.128	-0.295
-453.982	-43.929	-0.362	0.181
-452.968	-50.182	-0.226	0.106
-451.953	289.570	0.093	-0.169
-450.938	-6.901	-0.016	-0.011
-449.924	-92.048	0.191	0.054
-448.909	800.000	-0.102	0.363
-447.895	15.144	0.394	-0.307
-446.880	-75.148	-0.280	0.100
-445.865	72.044	0.133	-0.138
-444.851	-59.478	-0.346	0.148
-443.836	-92.100	0.346	0.097
-442.822	-200.000	0.001	-0.155
-441.807	61.696	-0.169	0.167
-440.792	1.275	-0.256	-0.183
-439.778	-72.519	-0.199	-0.073
-438.763	-107.505	-0.318	-0.069
-437.749	-200.000	-0.035	0.252
-436.734	109.651	0.074	0.088
-435.719	-200.000	-0.034	-0.173
-434.705	-12.565	0.047	-0.031
-433.690	800.000	0.051	0.190
-432.676	101.467	0.123	0.143
-431.661	-200.000	0.040	-0.199
-430.646	-30.257	0.180	0.102
-429.632	-99.115	0.174	0.044
-428.617	-200.000	-0.003	0.210
-427.603	-191.361	-0.244	0.002
-426.588	-26.656	0.237	0.138
-425.573	-91.552	-0.207	-0.059
-424.559	-200.000	0.005	0.044
-423.544	448.423	-0.114	0.251
-422.530	-30.588	-0.044	0.025
-421.515	-46.855	0.188	0.091
-420.500	58.396	-0.232	0.227
-419.486	-117.564	-0.062	0.011
-418.471	-200.000	-0.016	0.253
-417.457	-70.537	0.187	0.071
-416.442	-200.000	-0.048	0.325
-415.428	-85.816	0.083	0.026
-414.413	-25.937	0.122	0.071
-413.398	-92.813	-0.167	0.047
-412.384	196.842	0.173	0.263
-411.369	-101.311	-0.224	-0.054
-410.355	-11.390	0.419	0.274
-409.340	800.000	0.119	0.436
-408.325	90.664	0.282	0.314
-407.311	342.369	-0.208	0.404
-406.296	96.596	0.169	0.192
-405.282	-79.484	0.315	0.106
-404.267	-200.000	0.003	0.022
-403.252	435.089	-0.083	0.179
-402.238	27.174	-0.203	-0.169
-401.223	-200.000	0.002	0.161
-400.209	-29.836	0.268	-0.152
-399.194	69.921	0.054	-0.055
-398.179	-27.442	-0.434	-0.251
-397.165	39.676	-0.270	0.240
-396.150	606.791	0.123	-0.304
-395.136	-53.728	0.365	-0.166
-394.121	-118.404	0.399	0.070
-393.106	-200.000	0.034	0.153
-392.092	-200.000	0.025	-0.302
-391.077	800.000	0.010	-0.044
-390.063	611.456	-0.077	0.191
-389.048	4.982	0.013	0.010
-388.033	-84.733	0.114	0.036
-387.019	-139.731	-0.197	-0.021
-386.004	398.381	0.044	-0.091
-384.990	800.000	0.095	-0.359
-383.975	471.934	-0.196	-0.438
-382.960	305.710	-0.145	-0.267
-381.946	27.496	-0.129	0.108
-380.931	-200.000	0.003	-0.021
-379.917	171.190	0.066	-0.094
-378.902	-200.000	0.002	0.108
-377.888	59.293	0.158	0.154
-376.873	-66.568	0.192	-0.076
-375.858	64.228	0.147	0.146
-374.844	62.980	0.160	-0.159
-373.829	-131.918	0.501	0.065
-372.815	-45.268	0.224	0.111
-371.800	-58.873	0.070	0.030
-370.785	-4.847	0.198	0.135
-369.771	-27.873	-0.281	0.162
-368.756	-34.690	0.170	0.092
-367.742	549.505	-0.108	-0.257
-366.727	47.026	0.126	0.116
-365.712	-200.000	0.003	-0.254
-364.698	-200.000	0.033	-0.200
-363.683	-60.177	0.199	-0.084
-362.669	-101.493	-0.269	0.065
-361.654	183.342	-0.077	-0.113
-360.639	-200.000	-0.004	0.101
-359.625	-84.601	0.256	0.080
-358.610	66.172	0.226	0.227
-357.596	30.447	-0.135	-0.114
-356.581	-153.905	0.215	-0.015
-355.566	-200.000	0.021	0.221
-354.552	-77.332	-0.115	0.040
-353.537	-200.000	-0.011	-0.202
-352.523	176.111	0.207	0.298
-351.508	431.124	0.064	0.138
-350.493	-122.051	0.316	0.051
-349.479	-27.315	-0.285	0.164
-348.464	-112.367	-0.134	0.026
-347.450	45.205	-0.062	-0.056
-346.435	-103.473	-0.220	0.051
-345.420	-200.000	-0.003	0.272
-344.406	28.536	-0.233	0.195
-343.391	-99.657	0.227	0.056
-342.377	-69.850	-0.095	-0.036
-341.362	195.668	0.100	-0.151
-340.348	231.743	-0.088	-0.144
-339.333	-115.868	0.408	0.075
-338.318	-200.000	0.023	-0.218
-337.304	-48.271	-0.225	0.107
-336.289	575.755	0.127	0.308
-335.275	3.008	0.136	0.098
-334.260	99.773	0.144	0.165
-333.245	800.000	0.046	0.131
-332.231	-5.947	-0.049	0.033
-331.216	-200.000	-0.000	0.289
-330.202	-132.847	-0.217	0.027
-329.187	23.840	0.246	0.201
-328.172	98.604	-0.145	0.166
-327.158	6.623	0.056	0.041
-326.143	106.816	0.186	0.218
-325.129	-200.000	0.039	0.205
-324.114	-121.427	-0.345	0.057
-323.099	164.996	0.106	-0.148
-322.085	-140.310	-0.290	-0.030
-321.070	-60.818	0.475	0.199
-320.056	-115.486	0.053	0.010
-319.041	-200.000	0.037	-0.186
-318.026	-30.316	-0.040	0.023
-317.012	-200.000	-0.002	0.011
-315.997	-158.636	0.335	0.019
-314.983	-59.902	-0.340	0.144
-313.968	309.387	0.178	-0.330
-312.953	-59.903	-0.519	-0.220
-311.939	800.000	-0.121	-0.401
-310.924	-200.000	0.002	-0.235
-309.910	-185.949	-0.310	0.005
-308.895	47.312	-0.171	-0.157
-307.880	133.869	-0.253	0.324
-306.866	104.475	-0.099	-0.115
-305.851	800.000	-0.035	-0.105
-304.837	36.500	0.411	0.358
-303.822	182.104	0.081	0.118
-302.807	-200.000	0.044	0.241
-301.793	-85.028	-0.216	0.067
-300.778	-4.171	0.464	-0.318
-299.764	-130.452	-0.357	0.048
-298.749	-160.484	-0.112	-0.006
-297.735	148.933	-0.087	0.116
-296.720	57.117	0.185	-0.179
-295.705	210.747	-0.210	-0.326
-294.691	56.488	-0.168	0.161
-293.676	25.418	0.329	-0.271
-292.662	557.289	-0.055	0.131
-291.647	-11.654	0.038	0.025
-290.632	-200.000	0.009	0.045
-289.618	-67.975	-0.329	-0.127
-288.603	800.000	0.033	-0.141
-287.589	59.920	-0.058	-0.057
-286.574	-103.506	0.119	0.028
-285.559	-68.712	-0.365	-0.139
-284.545	6.028	0.073	0.053
-283.530	-27.802	-0.269	0.154
-282.516	-62.667	0.185	0.076
-281.501	-10.664	-0.304	0.199
-280.486	800.000	0.043	0.130
-279.472	234.536	-0.148	0.241
-278.457	800.000	-0.129	0.394
-277.443	233.989	-0.050	0.081
-276.428	-107.221	0.230	-0.050
-275.413	659.451	0.090	-0.229
-274.399	-15.160	0.123	0.078
-273.384	-166.157	0.206	-0.009
-272.370	-183.088	-0.067	0.001
-271.355	105.333	-0.077	-0.090
-270.340	390.189	0.063	-0.129
-269.326	-9.701	0.309	-0.203
-268.311	-200.000	-0.025	-0.329
-267.297	198.476	0.112	0.169
-266.282	-62.049	0.130	-0.054
-265.267	159.224	0.210	-0.289
-264.253	-200.000	0.050	-0.400
-263.238	262.538	0.258	-0.443
-262.224	800.000	0.055	0.161
-261.209	113.336	-0.009	-0.011
-260.195	-27.549	-0.115	0.066
-259.180	800.000	0.082	-0.319
-258.165	12.973	0.228	-0.174
-257.151	-35.311	0.307	-0.165
-256.136	-53.318	0.258	0.117
-255.122	-143.258	0.179	-0.017
-254.107	117.598	-0.051	-0.062
-253.092	-105.303	-0.244	0.055
-252.078	367.696	0.142	-0.284
-251.063	-200.000	-0.014	-0.144
-250.049	55.656	0.150	-0.144
-249.034	-88.747	0.236	-0.069
-248.019	204.121	-0.102	0.157
-247.005	223.312	0.106	0.169
-245.990	254.219	0.019	-0.031
-244.976	800.000	0.045	-0.161
-243.961	-89.506	0.224	-0.065
-242.946	381.401	0.074	-0.151
-241.932	104.801	-0.111	-0.129
-240.917	385.553	0.120	-0.245
-239.903	-44.475	-0.226	-0.112
-238.888	-200.000	-0.017	-0.241
-237.873	-200.000	0.053	-0.305
-236.859	172.152	-0.095	0.134
-235.844	800.000	-0.060	-0.255
-234.830	15.843	0.200	0.155
-233.815	-136.747	-0.309	-0.035
-232.800	800.000	0.032	-0.127
-231.786	-140.316	0.247	-0.026
-230.771	-180.859	-0.336	-0.007
-229.757	-200.000	-0.027	0.252
-228.742	-200.000	-0.006	0.146
-227.727	428.151	-0.134	-0.286
-226.713	119.201	-0.169	0.206
-225.698	178.330	-0.043	-0.062
-224.684	800.000	0.087	-0.293
-223.669	114.452	-0.179	0.215
-222.655	427.873	-0.075	0.160
-221.640	-200.000	0.020	-0.294
-220.625	49.194	-0.171	-0.159
-219.611	298.211	-0.031	0.056
-218.596	-200.000	0.016	-0.101
-217.582	14.371	0.252	-0.194
-216.567	-1.254	0.130	0.091
-215.552	-200.000	0.063	-0.304
-214.538	57.152	0.167	-0.161
-213.523	-200.000	-0.061	0.349
-212.509	-90.877	-0.206	-0.059
-211.494	-134.274	0.181	0.022
-210.479	57.589	-0.118	0.113
-209.465	14.062	-0.115	0.089
-208.450	-200.000	-0.046	-0.219
-207.436	-25.030	-0.166	0.097
-206.421	-75.878	-0.055	-0.019
-205.406	-200.000	0.068	0.425
-204.392	-188.723	-0.253	0.003
-203.377	77.202	0.187	-0.195
-202.363	-53.742	0.170	-0.076
-201.348	336.206	0.172	0.329
-200.333	800.000	-0.061	0.252
-199.319	414.457	-0.101	0.212
-198.304	48.274	0.135	-0.125
-197.290	55.111	0.109	-0.103
-196.275	5.646	0.134	0.098
-195.260	-37.799	-0.156	0.082
-194.246	-131.898	0.290	0.037
-193.231	-200.000	0.020	-0.257
-192.217	-200.000	0.084	0.463
-191.202	-65.893	-0.185	0.073
-190.187	-6.569	-0.114	-0.077
-189.173	673.715	0.006	0.016
-188.158	1.290	-0.113	0.080
-187.144	800.000	0.091	0.282
-186.129	-137.968	-0.189	-0.021
-185.114	800.000	0.033	-0.099
-184.100	114.252	0.100	-0.120
-183.085	-200.000	-0.026	-0.319
-182.071	8.965	-0.169	0.126
-181.056	-200.000	0.015	0.082
-180.042	418.395	-0.116	0.245
-179.027	800.000	-0.041	-0.159
-178.012	-101.830	-0.230	0.055
-176.998	-90.126	-0.116	-0.033
-175.983	-31.775	-0.335	0.185
-174.969	449.010	0.196	0.426
-173.954	27.012	0.216	0.178
-172.939	289.383	0.123	0.220
-171.925	-200.000	-0.001	-0.255
-170.910	-200.000	-0.017	0.212
-169.896	-90.876	0.257	0.073
-168.881	-132.583	-0.250	0.032
-167.866	-94.559	0.297	0.080
-166.852	-200.000	0.021	-0.224
-165.837	800.000	0.134	-0.371
-164.823	302.012	-0.059	-0.108
-163.808	-14.645	0.290	0.184
-162.793	312.488	-0.049	0.090
-161.779	88.414	0.060	-0.066
-160.764	195.855	-0.205	0.307
-159.750	141.704	0.108	0.141
-158.735	241.853	0.100	-0.164
-157.720	-158.977	-0.248	-0.014
-156.706	176.426	-0.036	0.051
-155.691	26.526	0.044	-0.036
-154.677	-40.442	0.175	-0.090
-153.662	-200.000	0.010	0.058
-152.647	-61.298	-0.103	-0.043
-151.633	-200.000	0.016	-0.071
-150.618	-75.458	0.161	-0.056
-149.604	-66.898	0.031	0.012
-148.589	-46.693	0.105	-0.051
-147.574	-57.420	0.512	-0.221
-146.560	441.596	0.119	0.256
-145.545	-147.584	0.400	0.033
-144.531	800.000	0.120	0.359
-143.516	-200.000	-0.002	0.359
-142.502	45.924	0.233	0.212
-141.487	-200.000	0.003	-0.204
-140.472	-75.897	0.457	0.159
-139.458	-29.927	-0.171	-0.096
-138.443	-200.000	-0.004	-0.120
-137.429	800.000	0.051	0.183
-136.414	101.433	0.110	0.126
-135.399	-94.650	-0.092	-0.025
-134.385	-200.000	-0.011	0.186
-133.370	86.182	0.202	0.218
-132.356	-161.770	-0.160	0.008
-131.341	-112.843	0.225	-0.044
-130.326	284.036	-0.056	-0.099
-129.312	-122.761	0.128	-0.020
-128.297	190.865	-0.034	0.050
-127.283	37.661	0.179	-0.156
-126.268	47.968	0.105	0.097
-125.253	113.973	0.147	-0.175
-124.239	-200.000	-0.077	-0.347
-123.224	310.379	0.215	-0.395
-122.210	690.862	-0.136	-0.351
-121.195	11.592	0.418	0.315
