DTS Sentinel unit serial number:	SN413079Multiplexer serial number:	ORYXHardware model number:	OX4-SRSoftware version number:	ORYX F/W v4.00 Oryx Data Collector v3.7.2.0data status	okinstallation	princeton_trtdifferential loss correction	single-endedforward channel	channel 4reverse channel	N/Adate	2019/09/11time	01:35:11forward acquisition time	60.00reverse acquisition time	0.00gamma	496.2192k internal	0.2318k external	0.2318temperature offset calibration	0.9949default loss term (dB/km)	0.3790temperature slope calibration	1.0000multiplexer offset coefficient	1.0000multiplexer slope coefficient	1.0000fibre end	0.00T internal ref (°C)	29.17T ext. ref 1 (°C)	-0.31T ext. ref 2 (°C)	23.45length (m)	temperature (°C)	Stokes	anti-Stokes-747.200	-74.049	-0.189	-0.069
-746.185	-106.372	0.156	-0.035
-745.171	371.729	-0.115	0.237
-744.156	-200.000	0.013	0.066
-743.142	-12.882	0.207	-0.136
-742.127	-14.973	-0.358	0.232
-741.112	-97.901	0.376	-0.098
-740.098	73.243	-0.169	-0.179
-739.083	681.256	-0.055	0.144
-738.069	-12.307	0.216	0.143
-737.054	800.000	0.032	0.099
-736.039	-31.700	-0.304	-0.172
-735.025	-29.225	0.207	0.120
-734.010	-122.587	0.244	0.040
-732.996	-104.048	-0.314	-0.074
-731.981	574.962	-0.048	-0.119
-730.966	-200.000	0.012	-0.376
-729.952	-200.000	-0.038	-0.283
-728.937	800.000	-0.022	0.065
-727.923	800.000	-0.041	-0.117
-726.908	-104.313	-0.315	-0.074
-725.894	-135.858	-0.305	0.036
-724.879	74.280	-0.041	0.043
-723.864	-0.329	0.101	-0.073
-722.850	-15.482	0.260	-0.168
-721.835	-200.000	0.012	0.493
-720.821	240.895	-0.224	0.378
-719.806	-200.000	0.021	0.198
-718.791	800.000	-0.049	0.195
-717.777	165.060	0.042	0.060
-716.762	-87.145	-0.271	0.083
-715.748	-200.000	-0.017	0.237
-714.733	180.687	-0.067	-0.099
-713.718	-200.000	0.011	-0.391
-712.704	-143.006	-0.107	0.010
-711.689	-7.967	0.213	-0.145
-710.675	-95.716	-0.237	-0.064
-709.660	-200.000	-0.096	0.517
-708.645	74.093	-0.284	-0.301
-707.631	800.000	0.067	-0.223
-706.616	80.128	-0.131	0.143
-705.602	13.848	-0.081	-0.064
-704.587	-157.744	0.206	0.012
-703.572	-194.314	0.150	-0.001
-702.558	-200.000	-0.013	-0.079
-701.543	-200.000	-0.046	0.240
-700.529	-33.212	0.089	0.050
-699.514	-77.797	-0.429	-0.150
-698.499	-92.520	0.375	0.106
-697.485	123.802	-0.244	0.309
-696.470	332.752	0.180	-0.352
-695.456	-79.334	0.245	0.084
-694.441	-60.856	-0.198	0.084
-693.426	-200.000	0.011	-0.168
-692.412	5.412	-0.052	-0.039
-691.397	237.469	0.051	0.085
-690.383	77.903	-0.052	0.056
-689.368	-123.824	0.270	-0.043
-688.354	292.957	-0.209	-0.385
-687.339	143.560	-0.105	0.142
-686.324	800.000	0.068	0.222
-685.310	418.660	0.140	-0.303
-684.295	-21.015	0.174	0.107
-683.281	-200.000	-0.046	-0.238
-682.266	-12.548	-0.156	0.103
-681.251	250.681	0.107	0.184
-680.237	-76.482	-0.084	0.030
-679.222	-10.248	0.112	-0.075
-678.208	-191.929	-0.291	-0.003
-677.193	235.829	-0.037	-0.061
-676.178	-200.000	0.019	-0.092
-675.164	-112.271	0.194	-0.039
-674.149	315.026	0.144	-0.274
-673.135	-63.912	0.186	0.077
-672.120	577.487	0.104	0.258
-671.105	356.697	-0.158	-0.318
-670.091	4.662	0.068	-0.051
-669.076	499.027	-0.071	0.166
-668.062	316.505	-0.105	0.200
-667.047	-23.795	-0.444	-0.269
-666.032	165.099	-0.200	-0.285
-665.018	-200.000	0.081	-0.395
-664.003	-165.188	-0.139	0.006
-662.989	56.417	0.197	-0.193
-661.974	-20.391	-0.088	-0.055
-660.959	489.198	0.058	-0.133
-659.945	-143.840	0.421	-0.040
-658.930	-62.403	0.240	-0.101
-657.916	531.913	0.124	-0.296
-656.901	-200.000	0.002	0.157
-655.886	-117.651	0.103	0.019
-654.872	193.227	0.170	0.259
-653.857	-69.062	0.219	0.085
-652.843	6.485	-0.020	-0.015
-651.828	140.980	0.079	0.105
-650.814	276.672	0.100	0.180
-649.799	70.908	-0.245	-0.256
-648.784	-169.408	-0.135	0.005
-647.770	185.067	0.073	-0.109
-646.755	452.324	-0.151	-0.336
-645.741	233.400	0.027	0.045
-644.726	39.830	0.139	0.126
-643.711	-87.809	-0.181	-0.055
-642.697	187.121	0.068	-0.102
-641.682	-74.638	-0.236	-0.086
-640.668	-114.776	0.171	-0.033
-639.653	345.466	-0.049	0.096
-638.638	-54.759	0.057	0.026
-637.624	-29.909	-0.103	-0.059
-636.609	-2.709	-0.345	0.243
-635.595	32.403	0.115	0.100
-634.580	459.031	0.069	0.156
-633.565	-64.961	0.234	-0.095
-632.551	-43.887	-0.064	-0.032
-631.536	82.951	-0.162	-0.177
-630.522	-156.408	0.257	-0.016
-629.507	-128.917	-0.483	-0.068
-628.492	-137.262	0.072	0.008
-627.478	-200.000	0.026	-0.118
-626.463	-162.786	-0.245	-0.012
-625.449	6.678	0.201	0.151
-624.434	-10.190	-0.285	-0.191
-623.419	-107.083	-0.174	0.039
-622.405	-200.000	-0.015	0.563
-621.390	1.975	-0.255	0.185
-620.376	-63.376	0.191	-0.079
-619.361	-200.000	0.001	-0.236
-618.346	-153.980	-0.297	-0.020
-617.332	800.000	0.100	-0.292
-616.317	-200.000	-0.009	0.261
-615.303	192.437	-0.070	-0.106
-614.288	-148.683	0.315	-0.026
-613.273	-70.078	-0.056	0.021
-612.259	351.976	0.131	0.260
-611.244	26.494	0.335	0.283
-610.230	241.107	-0.068	0.115
-609.215	-30.706	-0.293	-0.167
-608.201	424.287	0.142	0.307
-607.186	301.174	-0.121	0.224
-606.171	24.581	-0.400	-0.333
-605.157	-200.000	0.047	0.304
-604.142	-70.335	0.108	-0.041
-603.128	207.962	0.070	0.111
-602.113	226.888	0.082	0.134
-601.098	57.432	-0.081	-0.080
-600.084	-55.968	-0.193	0.087
-599.069	68.976	0.357	0.370
-598.055	800.000	-0.017	-0.067
-597.040	725.547	0.088	-0.235
-596.025	321.914	0.124	-0.238
-595.011	-56.395	-0.158	0.071
-593.996	-150.955	0.346	-0.026
-592.982	-200.000	0.025	0.224
-591.967	-200.000	0.004	0.138
-590.952	-83.326	-0.385	0.124
-589.938	2.579	0.240	0.175
-588.923	135.805	-0.224	0.294
-587.909	510.639	-0.035	0.081
-586.894	-67.860	-0.213	-0.084
-585.879	17.663	-0.221	-0.176
-584.865	132.900	-0.207	-0.269
-583.850	-9.056	-0.347	0.233
-582.836	-161.337	-0.372	0.019
-581.821	800.000	-0.093	-0.286
-580.806	-200.000	0.024	-0.169
-579.792	-141.169	0.152	-0.016
-578.777	-200.000	-0.119	-0.000
-577.763	-139.512	-0.384	0.041
-576.748	-62.210	0.311	-0.130
-575.733	61.716	-0.162	0.162
-574.719	261.475	-0.009	0.015
-573.704	87.233	0.071	0.078
-572.690	-154.251	-0.141	0.010
-571.675	481.585	-0.079	0.181
-570.661	-200.000	0.002	0.300
-569.646	-200.000	-0.023	0.112
-568.631	-200.000	0.021	0.362
-567.617	-133.790	0.459	-0.057
-566.602	277.501	0.173	-0.310
-565.588	800.000	0.048	0.160
-564.573	800.000	0.128	0.450
-563.558	-136.446	-0.159	-0.019
-562.544	131.300	0.087	0.112
-561.529	639.730	-0.004	0.011
-560.515	-169.392	-0.348	0.013
-559.500	96.857	-0.084	-0.097
-558.485	800.000	0.080	0.297
-557.471	17.275	-0.077	-0.061
-556.456	-200.000	-0.028	-0.188
-555.442	147.577	0.049	0.066
-554.427	-125.410	-0.158	-0.024
-553.412	-185.703	0.307	-0.005
-552.398	-200.000	0.024	0.224
-551.383	-3.671	0.163	0.114
-550.369	-200.000	-0.045	0.321
-549.354	-149.613	-0.093	0.007
-548.339	800.000	-0.058	0.171
-547.325	-200.000	-0.015	0.505
-546.310	-102.907	0.138	-0.033
-545.296	-200.000	0.071	-0.462
-544.281	11.094	-0.200	0.154
-543.266	-72.825	0.422	0.156
-542.252	233.653	0.096	-0.158
-541.237	11.208	0.194	-0.149
-540.223	481.890	0.040	0.090
-539.208	800.000	-0.093	-0.279
-538.193	-61.705	-0.032	-0.013
-537.179	-200.000	0.060	0.299
-536.164	-97.908	-0.299	0.077
-535.150	-200.000	0.002	0.122
-534.135	147.771	0.115	0.155
-533.121	-112.155	0.116	-0.023
-532.106	-68.627	0.174	-0.068
-531.091	401.662	0.097	0.204
-530.077	-133.662	0.139	0.017
-529.062	6.183	-0.120	-0.089
-528.048	100.040	0.144	0.168
-527.033	47.159	-0.182	0.170
-526.018	-77.125	-0.151	-0.053
-525.004	-117.906	-0.209	0.038
-523.989	-123.758	0.052	-0.008
-522.975	-78.264	-0.196	0.067
-521.960	582.863	0.043	-0.106
-520.945	125.735	0.206	0.262
-519.931	-71.249	-0.349	-0.131
-518.916	-24.121	-0.282	0.169
-517.902	604.090	-0.052	-0.129
-516.887	-75.064	-0.242	0.087
-515.872	-106.745	0.249	0.056
-514.858	212.181	-0.144	-0.228
-513.843	-74.828	0.152	-0.055
-512.829	-200.000	-0.395	0.000
-511.814	-200.000	-0.004	0.021
-510.799	-200.000	-0.001	-0.398
-509.785	51.258	-0.083	0.079
-508.770	345.804	-0.070	-0.139
-507.756	-200.000	-0.028	-0.126
-506.741	-43.241	-0.156	-0.079
-505.726	-102.847	0.094	-0.022
-504.712	88.288	-0.155	-0.173
-503.697	-115.636	-0.081	-0.015
-502.683	-101.303	-0.124	0.030
-501.668	-164.625	0.152	0.007
-500.653	800.000	0.065	0.265
-499.639	-81.925	-0.133	0.044
-498.624	190.252	0.303	-0.455
-497.610	800.000	-0.085	-0.318
-496.595	55.771	-0.224	0.217
-495.581	800.000	0.103	-0.286
-494.566	62.867	-0.206	0.207
-493.551	124.944	-0.106	-0.134
-492.537	720.550	-0.079	-0.212
-491.522	-69.027	-0.280	0.108
-490.508	142.885	0.459	0.612
-489.493	-53.870	-0.337	0.154
-488.478	532.674	-0.070	0.166
-487.464	-20.485	-0.142	0.087
-486.449	-80.273	-0.349	0.117
-485.435	-87.205	0.088	-0.027
-484.420	202.061	-0.051	0.079
-483.405	709.594	-0.094	0.250
-482.391	165.429	-0.139	0.196
-481.376	47.036	0.095	0.089
-480.362	-54.317	-0.252	-0.114
-479.347	175.448	-0.088	-0.128
-478.332	-154.294	0.151	0.010
-477.318	800.000	-0.045	-0.173
-476.303	800.000	0.103	-0.400
-475.289	-135.658	0.343	0.041
-474.274	-18.689	0.195	-0.122
-473.259	122.114	-0.134	0.167
-472.245	-34.209	0.150	0.082
-471.230	687.465	0.055	0.145
-470.216	-200.000	-0.005	-0.066
-469.201	90.325	-0.153	0.171
-468.186	-117.989	-0.107	0.019
-467.172	-148.358	-0.050	0.004
-466.157	800.000	0.009	-0.026
-465.143	-46.046	0.080	0.040
-464.128	139.225	-0.024	-0.032
-463.113	73.080	0.169	-0.176
-462.099	-58.967	0.149	0.065
-461.084	266.849	0.084	-0.147
-460.070	401.632	0.125	-0.262
-459.055	-200.000	0.062	-0.321
-458.040	32.998	-0.187	-0.162
-457.026	800.000	-0.051	-0.186
-456.011	-57.435	0.232	-0.102
-454.997	-118.989	0.210	-0.037
-453.982	389.102	0.122	-0.253
-452.968	-165.682	-0.228	0.010
-451.953	682.694	0.126	-0.329
-450.938	38.370	0.116	-0.104
-449.924	341.970	-0.068	-0.132
-448.909	613.556	0.042	0.106
-447.895	-167.546	0.300	0.012
-446.880	-113.098	0.310	-0.061
-445.865	286.160	-0.090	-0.163
-444.851	800.000	-0.040	-0.136
-443.836	157.699	0.134	0.186
-442.822	686.353	-0.083	-0.217
-441.807	31.299	0.252	0.216
-440.792	-69.326	-0.130	-0.050
-439.778	330.703	-0.202	-0.390
-438.763	-84.636	-0.056	-0.018
-437.749	-200.000	0.033	-0.166
-436.734	-38.413	-0.185	0.098
-435.719	317.409	-0.081	0.153
-434.705	-1.853	0.362	0.254
-433.690	311.883	0.174	-0.326
-432.676	602.422	-0.053	-0.133
-431.661	-129.024	-0.116	0.016
-430.646	-56.412	0.327	0.145
-429.632	-103.274	0.142	-0.034
-428.617	-31.819	-0.153	-0.086
-427.603	-200.000	-0.027	0.284
-426.588	-200.000	0.391	-0.001
-425.573	-38.005	-0.055	0.029
-424.559	426.633	-0.077	-0.167
-423.544	-73.579	-0.073	0.027
-422.530	34.995	0.218	0.191
-421.515	257.904	-0.225	-0.387
-420.500	-156.362	0.335	-0.021
-419.486	-200.000	-0.024	-0.214
-418.471	259.594	0.150	-0.259
-417.457	-200.000	0.063	0.414
-416.442	66.238	-0.178	-0.181
-415.428	-119.099	-0.284	-0.050
-414.413	-143.911	0.308	0.029
-413.398	-68.472	0.230	-0.089
-412.384	-200.000	-0.001	0.075
-411.369	-200.000	-0.007	0.193
-410.355	-200.000	0.005	-0.033
-409.340	-119.243	0.164	0.029
-408.325	800.000	-0.004	0.013
-407.311	-53.047	-0.206	-0.094
-406.296	800.000	0.040	-0.116
-405.282	-200.000	-0.030	0.155
-404.267	-69.419	0.119	-0.045
-403.252	-200.000	-0.028	0.144
-402.238	-116.570	0.495	0.091
-401.223	800.000	-0.039	-0.129
-400.209	-97.452	0.192	0.050
-399.194	284.655	0.048	-0.087
-398.179	75.475	-0.183	-0.193
-397.165	-33.888	-0.172	0.095
-396.150	-171.961	-0.264	0.009
-395.136	-71.862	0.269	0.100
-394.121	-21.089	0.035	0.022
-393.106	-127.843	-0.051	-0.007
-392.092	-87.684	0.190	0.057
-391.077	-200.000	-0.003	-0.090
-390.063	52.907	0.369	-0.352
-389.048	240.574	0.029	-0.048
-388.033	259.806	0.029	0.050
-387.019	-74.296	0.265	0.096
-386.004	-146.129	0.228	-0.020
-384.990	0.652	0.158	0.112
-383.975	18.407	-0.312	0.248
-382.960	51.686	0.232	-0.220
-381.946	-126.305	0.188	-0.028
-380.931	-200.000	-0.022	0.200
-379.917	252.052	0.104	0.177
-378.902	-38.649	0.248	0.131
-377.888	205.768	0.029	0.045
-376.873	118.996	-0.097	-0.120
-375.858	-144.427	0.163	0.015
-374.844	47.213	-0.159	-0.148
-373.829	-136.805	-0.201	-0.023
-372.815	49.773	-0.173	0.163
-371.800	-200.000	0.016	-0.353
-370.785	800.000	0.014	0.053
-369.771	-200.000	-0.038	0.208
-368.756	9.809	-0.141	0.107
-367.742	-200.000	-0.010	-0.158
-366.727	-74.230	-0.046	-0.016
-365.712	-143.504	-0.089	-0.008
-364.698	197.420	-0.180	-0.273
-363.683	800.000	-0.075	-0.319
-362.669	-145.789	-0.345	0.031
-361.654	-200.000	-0.021	-0.129
-360.639	256.494	0.211	-0.361
-359.625	107.758	-0.215	-0.255
-358.610	-42.536	0.249	-0.126
-357.596	564.547	0.054	-0.129
-356.581	332.055	0.067	0.129
-355.566	-107.265	0.277	0.061
-354.552	234.939	-0.075	0.124
-353.537	-200.000	0.042	0.192
-352.523	-6.684	-0.123	0.083
-351.508	429.654	-0.124	-0.267
-350.493	-91.831	0.213	0.060
-349.479	-122.808	-0.145	0.023
-348.464	-200.000	0.004	0.077
-347.450	18.815	0.400	-0.320
-346.435	-26.502	0.143	0.083
-345.420	-79.361	-0.313	0.106
-344.406	246.335	-0.019	0.031
-343.391	-65.316	0.043	0.017
-342.377	-38.475	-0.135	-0.071
-341.362	213.508	0.140	-0.220
-340.348	-72.565	-0.167	0.061
-339.333	-95.547	-0.267	0.071
-338.318	-200.000	0.066	0.476
-337.304	-200.000	-0.001	-0.191
-336.289	20.815	-0.063	0.051
-335.275	354.611	-0.058	-0.115
-334.260	-171.283	0.090	-0.003
-333.245	64.747	0.055	-0.055
-332.231	-200.000	-0.013	-0.281
-331.216	-28.307	0.237	0.136
-330.202	2.142	-0.119	-0.085
-329.187	800.000	-0.036	-0.123
-328.172	-200.000	-0.017	-0.114
-327.158	-136.711	-0.162	-0.019
-326.143	-19.627	0.117	0.072
-325.129	-151.779	-0.228	0.017
-324.114	32.002	-0.073	0.063
-323.099	-38.143	0.176	0.093
-322.085	800.000	-0.089	0.291
-321.070	62.390	-0.083	-0.082
-320.056	-34.269	0.150	-0.082
-319.041	-73.186	-0.103	0.038
-318.026	-28.174	-0.013	0.007
-317.012	94.984	-0.022	-0.025
-315.997	-36.827	0.457	-0.244
-314.983	20.327	0.055	-0.045
-313.968	800.000	-0.009	0.036
-312.953	22.737	-0.083	0.067
-311.939	-158.231	0.138	-0.008
-310.924	800.000	0.046	-0.159
-309.910	760.326	-0.046	-0.125
-308.895	46.706	0.272	-0.252
-307.880	-68.319	-0.186	0.072
-306.866	800.000	0.103	0.310
-305.851	-191.325	0.223	-0.002
-304.837	-134.249	0.065	0.008
-303.822	-200.000	-0.009	-0.426
-302.807	199.033	-0.088	0.135
-301.793	66.682	-0.052	0.053
-300.778	704.350	0.111	0.292
-299.764	178.558	-0.101	0.147
-298.749	76.100	-0.199	-0.210
-297.735	-66.150	0.186	-0.074
-296.720	678.477	-0.020	0.052
-295.705	149.761	0.020	0.027
-294.691	49.337	-0.110	0.103
-293.676	232.816	-0.127	0.208
-292.662	-22.623	0.168	0.101
-291.647	203.438	0.044	0.068
-290.632	-200.000	-0.018	-0.082
-289.618	329.729	-0.214	-0.410
-288.603	-126.185	0.245	-0.037
-287.589	-200.000	-0.028	0.167
-286.574	38.553	-0.279	0.247
-285.559	-82.018	0.091	-0.030
-284.545	19.558	0.023	-0.018
-283.530	-105.656	0.330	0.074
-282.516	-182.255	0.258	-0.005
-281.501	-29.347	-0.093	0.053
-280.486	-174.519	0.150	0.004
-279.472	-146.584	-0.292	-0.025
-278.457	89.998	-0.240	-0.266
-277.443	-44.401	0.158	0.078
-276.428	-200.000	0.046	0.272
-275.413	-44.596	-0.331	-0.164
-274.399	228.502	-0.025	0.040
-273.384	-200.000	-0.052	-0.337
-272.370	103.247	-0.109	-0.127
-271.355	622.915	-0.064	-0.161
-270.340	125.148	0.155	-0.195
-269.326	-58.020	0.260	-0.113
-268.311	-100.601	-0.168	0.041
-267.297	-30.426	-0.058	0.033
-266.282	800.000	-0.052	0.154
-265.267	-71.759	-0.225	0.083
-264.253	374.745	-0.114	-0.231
-263.238	-42.641	-0.368	0.186
-262.224	29.932	0.117	0.099
-261.209	800.000	0.061	-0.230
-260.195	-149.007	0.119	-0.010
-259.180	-200.000	0.016	0.399
-258.165	800.000	0.022	0.061
-257.151	-32.190	0.508	0.282
-256.136	-200.000	-0.034	-0.324
-255.122	-200.000	-0.017	0.307
-254.107	-136.408	-0.020	-0.002
-253.092	-84.846	0.460	-0.144
-252.078	-82.858	-0.143	-0.046
-251.063	-97.615	-0.317	-0.082
-250.049	29.042	0.103	0.087
-249.034	-127.148	-0.332	-0.048
-248.019	52.450	-0.048	0.045
-247.005	345.826	0.211	0.412
-245.990	199.613	0.238	0.362
-244.976	-82.973	0.288	0.092
-243.961	-200.000	0.007	0.207
-242.946	800.000	-0.072	-0.218
-241.932	800.000	0.067	0.287
-240.917	800.000	0.051	-0.204
-239.903	143.333	-0.121	0.160
-238.888	800.000	0.051	0.161
-237.873	-73.530	0.128	0.047
-236.859	264.401	-0.166	-0.287
-235.844	-42.523	0.025	0.013
-234.830	-40.813	0.059	-0.030
-233.815	113.290	0.058	0.070
-232.800	435.302	-0.044	-0.094
-231.786	-10.465	0.219	-0.144
-230.771	-66.528	0.338	0.133
-229.757	-39.464	0.104	-0.054
-228.742	-57.863	0.164	0.071
-227.727	512.597	0.233	0.539
-226.713	2.304	-0.220	-0.158
-225.698	-78.862	-0.133	0.045
-224.684	784.458	-0.138	0.375
-223.669	372.667	-0.111	0.223
-222.655	-176.848	0.116	0.003
-221.640	-50.402	-0.286	0.134
-220.625	-200.000	0.014	0.064
-219.611	-88.619	-0.204	0.060
-218.596	354.111	0.189	0.372
-217.582	800.000	0.029	-0.095
-216.567	125.298	0.150	-0.188
-215.552	-106.141	-0.194	-0.043
-214.538	13.385	-0.299	0.230
-213.523	-200.000	-0.083	-0.387
-212.509	267.201	0.032	-0.056
-211.494	290.657	-0.088	0.159
-210.479	-143.312	-0.150	-0.014
-209.465	424.879	0.060	0.127
-208.450	-56.987	-0.253	-0.111
-207.436	410.984	0.069	0.145
-206.421	800.000	0.057	-0.196
-205.406	339.894	-0.145	0.280
-204.392	33.219	0.104	-0.089
-203.377	223.932	0.183	-0.294
-202.363	-29.201	-0.214	-0.121
-201.348	-61.584	0.213	-0.088
-200.333	-176.685	-0.165	-0.004
-199.319	42.473	0.202	-0.182
-198.304	99.249	0.231	0.264
-197.290	32.976	0.019	0.016
-196.275	-200.000	-0.015	-0.138
-195.260	75.013	0.094	-0.098
-194.246	31.062	0.056	0.048
-193.231	-22.608	0.085	0.051
-192.217	103.692	-0.084	-0.098
-191.202	-200.000	0.038	-0.357
-190.187	119.690	0.092	-0.113
-189.173	800.000	-0.050	0.218
-188.158	-30.590	0.103	-0.058
-187.144	-200.000	0.032	0.329
-186.129	-200.000	-0.046	-0.304
-185.114	116.051	0.133	0.162
-184.100	-175.943	-0.086	-0.002
-183.085	167.396	-0.082	0.115
-182.071	5.315	0.318	-0.233
-181.056	-157.858	0.102	-0.006
-180.042	254.271	-0.043	0.072
-179.027	12.840	-0.166	0.127
-178.012	359.176	-0.040	-0.080
-176.998	-200.000	-0.042	0.201
-175.983	-127.712	0.240	-0.034
-174.969	-200.000	-0.025	-0.234
-173.954	129.511	0.230	0.291
-172.939	703.971	-0.016	0.042
-171.925	459.687	-0.142	-0.313
-170.910	95.341	-0.075	-0.085
-169.896	177.982	-0.120	-0.173
-168.881	-200.000	-0.018	-0.269
-167.866	311.176	-0.038	-0.071
-166.852	98.300	-0.132	-0.151
-165.837	695.688	0.079	-0.206
-164.823	-168.228	-0.427	-0.016
-163.808	-110.474	0.373	0.076
-162.793	626.868	-0.080	-0.199
-161.779	213.264	-0.061	-0.096
-160.764	286.326	0.145	-0.259
-159.750	-200.000	-0.008	0.176
-158.735	-138.284	-0.201	-0.022
-157.720	-12.657	-0.026	-0.016
-156.706	-200.000	0.011	0.221
-155.691	-64.725	-0.193	-0.077
-154.677	140.061	0.120	0.157
-153.662	321.518	-0.070	-0.131
-152.647	-6.040	0.228	-0.154
-151.633	-174.900	-0.159	0.004
-150.618	-47.455	-0.174	-0.084
-149.604	-87.572	-0.038	-0.011
-148.589	44.609	0.169	0.154
-147.574	-107.840	-0.181	-0.039
-146.560	-200.000	-0.012	0.147
-145.545	-200.000	-0.028	-0.210
-144.531	-41.360	-0.333	0.169
-143.516	-51.207	-0.211	0.098
-142.502	800.000	-0.038	-0.119
-141.487	800.000	-0.031	0.091
-140.472	-115.473	0.178	-0.033
-139.458	-40.458	-0.369	0.189
-138.443	-94.822	0.123	-0.033
-137.429	-87.960	0.314	0.093
-136.414	121.205	0.115	-0.141
-135.399	-82.142	-0.050	0.016
-134.385	-144.924	0.312	-0.028
-133.370	181.958	0.189	-0.275
-132.356	800.000	-0.015	-0.057
-131.341	-19.991	-0.226	0.138
-130.326	-144.792	-0.256	-0.023
-129.312	45.456	0.116	0.106
-128.297	-190.317	0.311	0.003
-127.283	351.391	-0.159	0.311
-126.268	158.175	0.154	-0.211
-125.253	-64.931	-0.110	0.044
-124.239	50.054	-0.134	0.124
-123.224	-185.355	-0.276	-0.004
-122.210	-53.181	0.222	-0.101
