DTS Sentinel unit serial number:	SN413079Multiplexer serial number:	ORYXHardware model number:	OX4-SRSoftware version number:	ORYX F/W v4.00 Oryx Data Collector v3.7.2.0data status	okinstallation	princeton_trtdifferential loss correction	single-endedforward channel	channel 4reverse channel	N/Adate	2019/09/17time	20:21:35forward acquisition time	60.00reverse acquisition time	0.00gamma	496.2192k internal	0.2318k external	0.2318temperature offset calibration	0.9989default loss term (dB/km)	0.3790temperature slope calibration	1.0000multiplexer offset coefficient	1.0000multiplexer slope coefficient	1.0000fibre end	0.00T internal ref (°C)	31.34T ext. ref 1 (°C)	0.20T ext. ref 2 (°C)	21.78length (m)	temperature (°C)	Stokes	anti-Stokes-747.200	206.280	-0.220	0.346
-746.185	145.032	0.053	-0.071
-745.171	-7.565	0.251	-0.172
-744.156	-44.341	0.181	-0.092
-743.142	53.098	0.229	0.222
-742.127	-52.844	-0.208	0.097
-741.112	-200.000	0.032	0.271
-740.098	55.203	0.293	0.287
-739.083	-26.913	0.236	-0.140
-738.069	395.079	0.040	0.085
-737.054	196.488	0.100	0.154
-736.039	-163.213	-0.253	-0.012
-735.025	-200.000	-0.004	0.373
-734.010	-200.000	-0.041	0.388
-732.996	-84.769	-0.309	0.098
-731.981	-200.000	-0.038	-0.203
-730.966	800.000	-0.048	-0.173
-729.952	-95.333	-0.155	0.042
-728.937	88.353	-0.237	-0.267
-727.923	652.323	-0.146	-0.380
-726.908	60.029	-0.176	-0.176
-725.894	800.000	-0.125	0.414
-724.879	-200.000	0.045	0.285
-723.864	800.000	-0.021	0.089
-722.850	297.652	-0.262	-0.486
-721.835	649.546	-0.164	-0.424
-720.821	242.377	0.154	0.261
-719.806	-3.884	0.272	-0.191
-718.791	-78.450	-0.193	0.067
-717.777	25.363	0.225	0.189
-716.762	-79.176	0.248	0.085
-715.748	-38.013	-0.079	-0.042
-714.733	800.000	0.030	0.120
-713.718	-87.941	-0.260	-0.079
-712.704	291.959	-0.059	-0.109
-711.689	-200.000	-0.028	0.186
-710.675	-200.000	0.065	-0.312
-709.660	258.919	-0.093	-0.161
-708.645	-56.431	0.168	0.075
-707.631	67.192	0.287	0.296
-706.616	405.345	0.191	0.407
-705.602	-143.923	0.489	0.047
-704.587	-83.152	0.192	0.062
-703.572	488.715	-0.105	-0.242
-702.558	-30.698	0.146	-0.084
-701.543	-149.177	-0.119	-0.010
-700.529	370.082	-0.103	0.210
-699.514	-200.000	-0.007	0.239
-698.499	-29.158	0.043	-0.025
-697.485	-164.700	0.130	0.006
-696.470	-200.000	-0.056	0.501
-695.456	72.020	-0.012	-0.012
-694.441	-113.356	-0.307	-0.061
-693.426	-162.843	-0.021	0.001
-692.412	-181.913	-0.062	-0.001
-691.397	282.062	-0.084	0.153
-690.383	-157.090	-0.181	-0.011
-689.368	-3.421	-0.057	0.040
-688.354	800.000	0.041	-0.166
-687.339	-200.000	0.033	0.229
-686.324	-44.035	-0.184	0.093
-685.310	690.883	-0.073	0.194
-684.295	-45.571	-0.416	-0.208
-683.281	-18.160	0.293	-0.185
-682.266	-174.929	-0.440	-0.012
-681.251	23.113	0.059	-0.049
-680.237	15.234	-0.152	0.120
-679.222	0.869	0.277	0.200
-678.208	-36.726	0.094	0.051
-677.193	-200.000	0.011	-0.216
-676.178	-106.745	-0.183	-0.041
-675.164	5.045	0.128	-0.095
-674.149	-104.719	-0.193	0.045
-673.135	87.578	-0.013	-0.014
-672.120	-121.561	-0.270	0.045
-671.105	-94.157	-0.248	-0.069
-670.091	49.401	0.261	0.248
-669.076	-108.981	0.169	0.036
-668.062	-35.440	-0.194	-0.106
-667.047	272.773	0.214	-0.382
-666.032	70.674	0.185	-0.193
-665.018	-118.334	-0.194	0.035
-664.003	800.000	-0.040	-0.129
-662.989	147.356	-0.120	-0.163
-661.974	271.178	0.135	0.239
-660.959	182.929	0.055	-0.082
-659.945	253.963	0.170	0.294
-658.930	-200.000	-0.017	0.144
-657.916	-200.000	0.058	-0.410
-656.901	73.752	-0.224	-0.236
-655.886	-115.757	0.188	-0.036
-654.872	525.191	0.071	-0.169
-653.857	314.929	0.276	0.524
-652.843	-78.568	-0.064	0.022
-651.828	800.000	-0.014	0.054
-650.814	-200.000	-0.046	0.214
-649.799	-200.000	0.003	-0.085
-648.784	-200.000	0.026	-0.138
-647.770	-100.820	0.204	0.051
-646.755	13.922	-0.029	-0.023
-645.741	-64.830	0.109	0.044
-644.726	-21.345	0.127	0.078
-643.711	686.551	-0.099	0.260
-642.697	87.623	-0.153	0.171
-641.682	-200.000	0.008	-0.262
-640.668	-132.499	-0.384	0.050
-639.653	6.629	0.205	0.154
-638.638	278.604	-0.082	0.146
-637.624	-200.000	-0.018	0.322
-636.609	132.899	0.094	0.122
-635.595	-14.941	0.140	-0.091
-634.580	257.763	0.029	0.050
-633.565	-200.000	-0.015	0.179
-632.551	659.418	-0.096	0.250
-631.536	-200.000	-0.004	0.200
-630.522	2.296	0.222	0.162
-629.507	-87.099	-0.193	-0.059
-628.492	-145.344	-0.209	-0.019
-627.478	-105.790	-0.333	-0.076
-626.463	254.597	-0.125	0.215
-625.449	-71.550	0.168	0.063
-624.434	14.935	-0.275	0.216
-623.419	87.299	-0.103	-0.115
-622.405	152.566	-0.200	-0.275
-621.390	103.567	-0.103	0.122
-620.376	-200.000	0.027	-0.255
-619.361	424.075	0.095	0.206
-618.346	-146.005	-0.218	-0.019
-617.332	800.000	-0.123	-0.401
-616.317	-45.756	-0.157	0.078
-615.303	-138.541	-0.071	0.008
-614.288	135.177	-0.096	-0.125
-613.273	-200.000	-0.021	0.101
-612.259	247.210	-0.158	-0.269
-611.244	11.942	0.049	0.038
-610.230	56.718	-0.140	-0.138
-609.215	-139.251	-0.288	0.031
-608.201	577.822	-0.075	0.185
-607.186	-69.965	0.348	0.133
-606.171	58.722	0.213	0.211
-605.157	-9.137	-0.168	-0.113
-604.142	-131.176	0.115	0.015
-603.128	610.425	0.030	0.076
-602.113	405.943	-0.063	0.133
-601.098	707.316	-0.081	0.215
-600.084	308.930	0.166	-0.311
-599.069	-27.448	-0.294	-0.172
-598.055	-60.666	0.171	-0.073
-597.040	-115.389	0.351	-0.067
-596.025	399.984	-0.090	-0.189
-595.011	800.000	0.063	-0.211
-593.996	64.336	-0.091	-0.092
-592.982	-55.478	-0.148	-0.067
-591.967	575.796	0.047	-0.115
-590.952	-158.747	-0.229	-0.013
-589.938	230.584	0.205	-0.337
-588.923	169.366	0.185	-0.265
-587.909	-200.000	-0.056	-0.302
-586.894	800.000	0.032	-0.116
-585.879	-7.112	-0.219	0.150
-584.865	-200.000	0.039	-0.249
-583.850	87.582	0.119	0.132
-582.836	11.827	0.227	0.175
-581.821	-200.000	0.038	-0.172
-580.806	327.924	-0.067	0.129
-579.792	-34.853	0.204	0.112
-578.777	-200.000	-0.011	0.308
-577.763	-200.000	0.026	-0.358
-576.748	369.194	-0.194	-0.396
-575.733	-200.000	-0.040	-0.250
-574.719	-200.000	-0.062	-0.492
-573.704	-102.461	-0.304	-0.073
-572.690	-200.000	-0.023	-0.106
-571.675	467.554	-0.043	0.098
-570.661	800.000	0.051	0.168
-569.646	339.935	-0.100	-0.197
-568.631	-200.000	-0.010	-0.157
-567.617	152.350	-0.241	0.330
-566.602	-71.288	0.246	0.093
-565.588	-167.317	-0.267	0.011
-564.573	-125.597	-0.261	-0.040
-563.558	-112.318	-0.233	-0.047
-562.544	-83.575	-0.165	0.053
-561.529	-200.000	0.041	-0.212
-560.515	-200.000	0.012	-0.307
-559.500	800.000	-0.056	-0.201
-558.485	507.572	-0.027	0.062
-557.471	-77.642	0.255	0.089
-556.456	3.659	-0.297	-0.218
-555.442	-37.635	0.105	-0.056
-554.427	-123.541	0.154	-0.025
-553.412	39.550	0.188	0.169
-552.398	-85.840	-0.252	-0.078
-551.383	383.056	0.022	0.046
-550.369	-39.794	0.167	-0.088
-549.354	-43.771	-0.077	0.039
-548.339	800.000	-0.128	0.378
-547.325	-111.798	-0.066	0.013
-546.310	-46.557	-0.128	0.063
-545.296	-4.577	0.031	0.021
-544.281	-200.000	-0.005	-0.135
-543.266	5.997	0.013	-0.009
-542.252	101.702	-0.155	0.181
-541.237	-155.383	0.089	0.006
-540.223	-110.386	0.355	-0.074
-539.208	-115.466	-0.184	-0.035
-538.193	129.695	-0.212	-0.272
-537.179	464.191	-0.139	-0.311
-536.164	616.977	0.057	-0.142
-535.150	252.129	-0.021	0.036
-534.135	4.647	-0.256	0.189
-533.121	-134.261	-0.059	-0.007
-532.106	5.149	0.185	-0.137
-531.091	445.083	0.097	0.215
-530.077	191.093	0.085	0.128
-529.062	-200.000	-0.033	0.156
-528.048	129.118	-0.100	-0.129
-527.033	-150.324	0.155	-0.012
-526.018	587.894	-0.046	-0.113
-525.004	-85.252	0.261	-0.082
-523.989	399.886	-0.153	0.321
-522.975	-200.000	-0.019	0.152
-521.960	-61.787	0.175	-0.073
-520.945	450.746	-0.070	0.155
-519.931	800.000	0.031	0.122
-518.916	26.499	0.334	-0.281
-517.902	-45.899	-0.161	-0.080
-516.887	96.603	-0.176	-0.202
-515.872	-200.000	-0.011	-0.364
-514.858	-120.388	0.159	0.027
-513.843	-114.544	0.350	-0.067
-512.829	68.915	-0.197	-0.203
-511.814	-200.000	-0.032	-0.214
-510.799	800.000	0.101	-0.406
-509.785	17.055	0.416	-0.331
-508.770	185.132	-0.072	-0.107
-507.756	54.904	-0.111	0.107
-506.741	146.947	0.114	-0.154
-505.726	-88.796	-0.369	0.110
-504.712	-54.005	0.179	-0.082
-503.697	800.000	-0.088	0.320
-502.683	26.174	0.184	0.154
-501.668	242.750	0.108	-0.181
-500.653	800.000	0.028	-0.077
-499.639	185.386	-0.034	-0.051
-498.624	-132.251	-0.039	0.005
-497.610	264.674	-0.059	0.102
-496.595	-200.000	0.006	-0.158
-495.581	56.787	0.167	-0.163
-494.566	465.697	0.077	0.172
-493.551	-119.355	-0.276	-0.048
-492.537	-200.000	0.025	-0.378
-491.522	-104.585	-0.190	0.044
-490.508	-183.450	-0.537	-0.009
-489.493	-200.000	0.032	-0.533
-488.478	-200.000	0.010	-0.126
-487.464	249.549	-0.182	-0.310
-486.449	-105.250	0.288	-0.066
-485.435	172.319	0.169	-0.243
-484.420	800.000	0.057	0.159
-483.405	-200.000	0.043	0.263
-482.391	544.001	0.030	-0.072
-481.376	-23.185	0.309	-0.186
-480.362	499.057	0.146	0.337
-479.347	-200.000	0.003	-0.163
-478.332	800.000	0.033	-0.139
-477.318	67.592	-0.111	0.113
-476.303	21.727	-0.092	-0.075
-475.289	21.448	0.162	-0.132
-474.274	-73.238	0.071	-0.026
-473.259	71.622	-0.126	0.131
-472.245	521.258	-0.026	0.062
-471.230	-200.000	0.019	-0.174
-470.216	38.517	-0.084	0.075
-469.201	-200.000	-0.015	-0.082
-468.186	-100.649	-0.304	0.075
-467.172	443.206	-0.048	0.106
-466.157	14.444	0.185	0.145
-465.143	-51.653	-0.321	0.150
-464.128	-65.798	0.226	0.091
-463.113	-78.459	-0.036	0.012
-462.099	23.865	0.058	0.048
-461.084	-200.000	0.057	0.268
-460.070	619.097	0.095	0.238
-459.055	-97.968	0.265	-0.068
-458.040	-126.282	-0.154	-0.023
-457.026	278.444	0.152	-0.271
-456.011	-42.165	-0.192	-0.098
-454.997	-200.000	-0.003	0.112
-453.982	-17.357	-0.056	-0.036
-452.968	80.169	-0.160	-0.172
-451.953	-162.039	0.253	-0.013
-450.938	27.199	0.311	0.261
-449.924	-200.000	-0.030	0.201
-448.909	18.287	0.074	-0.059
-447.895	536.824	0.030	0.071
-446.880	27.425	-0.178	-0.150
-445.865	-28.285	-0.308	-0.178
-444.851	800.000	-0.077	0.219
-443.836	-119.950	0.206	0.035
-442.822	272.085	-0.173	-0.305
-441.807	56.330	0.232	-0.226
-440.792	-200.000	-0.056	0.284
-439.778	-64.081	-0.218	-0.089
-438.763	263.132	-0.149	-0.259
-437.749	2.689	0.217	-0.157
-436.734	386.422	-0.031	-0.063
-435.719	143.441	0.177	0.236
-434.705	-127.586	-0.174	0.025
-433.690	-25.745	-0.262	-0.154
-432.676	641.754	0.073	0.186
-431.661	-100.358	0.074	0.018
-430.646	-200.000	0.007	0.127
-429.632	98.084	0.163	-0.188
-428.617	-26.849	-0.157	-0.092
-427.603	252.852	-0.053	0.091
-426.588	161.775	0.154	0.216
-425.573	800.000	-0.041	-0.143
-424.559	-200.000	0.000	0.155
-423.544	-200.000	-0.001	-0.111
-422.530	-58.034	-0.184	0.080
-421.515	548.976	0.085	-0.202
-420.500	14.089	-0.078	0.061
-419.486	210.416	0.115	-0.180
-418.471	-45.923	0.216	0.106
-417.457	543.695	0.077	-0.185
-416.442	800.000	-0.072	-0.269
-415.428	-200.000	-0.017	-0.314
-414.413	-200.000	0.120	-0.000
-413.398	800.000	0.049	-0.169
-412.384	-180.186	-0.429	0.009
-411.369	470.536	0.023	-0.053
-410.355	308.061	-0.038	-0.070
-409.340	446.397	0.079	-0.174
-408.325	-30.727	-0.272	-0.154
-407.311	-94.826	-0.066	-0.018
-406.296	-70.165	0.314	0.119
-405.282	-159.542	-0.016	0.001
-404.267	147.028	-0.242	0.325
-403.252	800.000	0.178	0.511
-402.238	227.183	0.076	-0.124
-401.223	243.099	-0.086	0.143
-400.209	-200.000	-0.039	0.463
-399.194	112.963	-0.163	-0.197
-398.179	151.709	0.043	-0.058
-397.165	-38.994	-0.163	-0.086
-396.150	-20.888	0.357	0.218
-395.136	-200.000	-0.012	0.234
-394.121	-200.000	-0.030	0.155
-393.106	277.659	-0.116	0.206
-392.092	532.866	0.146	-0.346
-391.077	-200.000	0.022	-0.221
-390.063	47.663	0.054	-0.050
-389.048	47.140	0.308	0.287
-388.033	35.363	0.254	0.222
-387.019	-134.350	-0.332	-0.041
-386.004	113.056	-0.093	0.112
-384.990	531.181	0.031	0.074
-383.975	-59.186	-0.497	0.214
-382.960	-119.162	0.419	0.073
-381.946	-200.000	0.000	-0.244
-380.931	-11.222	0.060	-0.039
-379.917	-140.913	-0.422	0.043
-378.902	-75.578	-0.273	-0.097
-377.888	-200.000	0.022	0.428
-376.873	-122.424	0.355	0.058
-375.858	11.181	0.047	-0.036
-374.844	87.717	0.078	0.086
-373.829	-200.000	0.045	0.396
-372.815	-200.000	0.008	-0.127
-371.800	800.000	-0.089	0.312
-370.785	-27.844	0.233	0.134
-369.771	63.680	-0.022	-0.022
-368.756	125.233	0.157	0.198
-367.742	-122.542	0.326	0.053
-366.727	800.000	0.062	0.181
-365.712	4.461	0.120	0.088
-364.698	-115.460	0.204	-0.038
-363.683	-94.374	0.133	0.036
-362.669	-20.802	0.228	-0.139
-361.654	-200.000	-0.015	0.146
-360.639	-76.019	-0.130	-0.046
-359.625	-200.000	0.028	0.201
-358.610	-68.528	-0.310	-0.120
-357.596	800.000	0.059	0.196
-356.581	118.056	-0.304	-0.373
-355.566	800.000	0.044	0.143
-354.552	39.746	-0.063	0.056
-353.537	153.484	-0.244	-0.332
-352.523	-129.418	-0.237	0.033
-351.508	-200.000	-0.007	-0.222
-350.493	-200.000	-0.003	0.031
-349.479	-92.691	0.048	0.013
-348.464	-160.199	-0.157	0.008
-347.450	-14.897	0.330	0.211
-346.435	13.395	0.040	0.031
-345.420	363.922	0.031	-0.063
-344.406	800.000	-0.037	0.144
-343.391	77.908	0.215	-0.228
-342.377	161.207	0.111	0.155
-341.362	358.008	-0.022	0.044
-340.348	127.824	-0.209	0.264
-339.333	-29.736	-0.082	-0.046
-338.318	-72.570	0.207	0.076
-337.304	237.910	0.131	-0.216
-336.289	-70.669	-0.253	0.095
-335.275	-38.424	-0.122	-0.064
-334.260	-45.329	-0.038	0.019
-333.245	92.413	-0.104	-0.117
-332.231	-45.750	-0.160	-0.079
-331.216	342.976	-0.111	-0.217
-330.202	-200.000	-0.023	0.299
-329.187	-104.412	0.270	0.062
-328.172	256.333	0.059	-0.101
-327.158	259.967	0.120	0.206
-326.143	104.243	0.060	0.071
-325.129	-200.000	-0.002	0.138
-324.114	-200.000	0.005	0.076
-323.099	-14.261	0.231	0.148
-322.085	-26.109	0.177	-0.103
-321.070	800.000	-0.056	-0.233
-320.056	-69.975	-0.245	-0.093
-319.041	-81.582	0.134	-0.044
-318.026	-49.496	0.343	0.163
-317.012	19.493	0.160	-0.128
-315.997	284.518	0.111	0.200
-314.983	88.211	-0.094	-0.104
-313.968	800.000	-0.031	-0.115
-312.953	-197.333	0.188	0.001
-311.939	233.623	-0.199	0.326
-310.924	-92.368	0.181	0.051
-309.910	800.000	0.067	-0.190
-308.895	47.000	0.094	0.087
-307.880	800.000	-0.049	-0.137
-306.866	191.212	0.038	-0.057
-305.851	136.681	-0.095	-0.124
-304.837	800.000	0.059	-0.162
-303.822	-200.000	0.025	0.161
-302.807	-94.183	0.644	0.175
-301.793	-74.740	-0.265	0.095
-300.778	263.164	-0.096	-0.165
-299.764	30.923	-0.405	0.345
-298.749	-79.254	0.533	-0.180
-297.735	-102.754	-0.192	-0.045
-296.720	176.431	-0.107	-0.155
-295.705	-128.783	0.324	0.045
-294.691	-40.942	-0.147	0.075
-293.676	-200.000	-0.014	0.126
-292.662	57.774	-0.102	-0.099
-291.647	-20.655	-0.095	-0.058
-290.632	-41.206	0.229	0.118
-289.618	-12.485	0.294	-0.191
-288.603	-55.088	-0.269	-0.121
-287.589	800.000	-0.041	0.167
-286.574	-200.000	-0.057	-0.356
-285.559	800.000	-0.049	-0.156
-284.545	160.070	-0.197	-0.273
-283.530	741.817	0.051	-0.137
-282.516	511.031	-0.007	0.017
-281.501	-141.837	-0.200	-0.020
-280.486	-102.599	0.044	-0.010
-279.472	-193.589	0.348	0.003
-278.457	12.890	0.269	0.206
-277.443	102.133	-0.034	0.040
-276.428	398.409	0.104	0.216
-275.413	-200.000	-0.009	0.095
-274.399	-200.000	0.017	0.190
-273.384	-35.077	0.094	0.051
-272.370	2.001	0.247	0.177
-271.355	-107.395	0.141	0.031
-270.340	-50.793	0.402	0.188
-269.326	800.000	-0.026	0.071
-268.311	75.341	0.114	0.119
-267.297	81.557	0.022	-0.023
-266.282	231.558	0.042	-0.068
-265.267	-109.930	-0.135	-0.028
-264.253	738.987	-0.125	-0.333
-263.238	-105.328	-0.343	0.078
-262.224	322.347	0.126	0.238
-261.209	78.424	-0.107	-0.114
-260.195	438.213	0.167	-0.361
-259.180	607.568	-0.050	-0.123
-258.165	-64.217	-0.172	0.070
-257.151	132.229	0.083	0.107
-256.136	-200.000	0.024	0.360
-255.122	-23.881	-0.210	0.125
-254.107	-20.758	-0.258	-0.157
-253.092	-35.694	0.013	-0.007
-252.078	123.806	-0.095	-0.119
-251.063	103.596	0.221	0.257
-250.049	800.000	-0.164	0.525
-249.034	-200.000	-0.027	0.148
-248.019	293.028	0.075	0.136
-247.005	-200.000	0.072	0.420
-245.990	-147.996	0.248	0.020
-244.976	-200.000	-0.047	0.403
-243.961	-181.431	0.205	0.004
-242.946	-90.469	-0.048	0.014
-241.932	-49.524	-0.149	-0.070
-240.917	-200.000	-0.025	0.130
-239.903	-113.483	-0.131	0.025
-238.888	-17.957	-0.198	-0.123
-237.873	-166.121	-0.215	-0.009
-236.859	-200.000	-0.077	0.425
-235.844	-168.100	-0.219	0.008
-234.830	527.521	0.058	-0.136
-233.815	87.199	-0.193	-0.212
-232.800	800.000	-0.062	-0.174
-231.786	516.202	-0.108	-0.250
-230.771	-63.679	0.454	-0.185
-229.757	147.621	0.107	-0.144
-228.742	-19.548	0.144	-0.088
-227.727	226.171	-0.226	-0.364
-226.713	701.489	-0.066	0.172
-225.698	800.000	0.107	0.448
-224.684	422.850	0.087	-0.184
-223.669	-69.766	-0.157	-0.059
-222.655	-47.422	0.421	0.203
-221.640	-57.510	-0.385	0.167
-220.625	52.488	0.161	0.152
-219.611	-33.550	-0.347	0.190
-218.596	309.545	-0.057	0.105
-217.582	-200.000	-0.055	0.331
-216.567	-200.000	0.015	-0.104
-215.552	52.671	0.034	-0.032
-214.538	-71.011	-0.045	0.017
-213.523	41.175	-0.244	-0.219
-212.509	422.646	0.041	0.088
-211.494	800.000	-0.014	-0.051
-210.479	157.341	0.054	-0.074
-209.465	163.280	0.046	-0.064
-208.450	295.780	0.110	-0.200
-207.436	-20.752	0.255	0.155
-206.421	-163.741	0.191	-0.009
-205.406	787.355	0.112	0.305
-204.392	49.494	-0.138	-0.129
-203.377	-36.964	-0.407	0.216
-202.363	-200.000	-0.016	0.135
-201.348	-149.937	-0.485	-0.038
-200.333	158.587	-0.187	0.257
-199.319	495.665	-0.153	-0.347
-198.304	172.291	-0.035	0.050
-197.290	-75.854	0.274	0.096
-196.275	495.893	-0.136	-0.310
-195.260	-108.259	0.177	-0.038
-194.246	306.530	-0.174	0.322
-193.231	84.411	0.176	-0.191
-192.217	800.000	-0.076	-0.272
-191.202	-49.051	0.320	0.152
-190.187	189.952	0.081	0.121
-189.173	60.932	-0.226	-0.223
-188.158	-200.000	0.014	-0.118
-187.144	-86.337	0.384	0.117
-186.129	10.465	0.218	0.165
-185.114	-18.872	0.148	0.091
-184.100	40.972	0.071	0.064
-183.085	253.564	-0.136	0.229
-182.071	134.680	-0.034	0.044
-181.056	-26.840	-0.094	0.054
-180.042	-68.196	0.204	0.078
-179.027	15.029	-0.065	0.051
-178.012	197.298	0.034	0.051
-176.998	-153.631	0.254	-0.017
-175.983	-132.313	0.207	0.027
-174.969	-200.000	0.002	-0.287
-173.954	-200.000	0.023	-0.188
-172.939	-159.682	0.087	-0.005
-171.925	-56.367	-0.200	-0.088
-170.910	-56.380	0.212	-0.093
-169.896	-200.000	0.090	0.476
-168.881	-55.860	0.487	-0.215
-167.866	129.129	-0.065	0.082
-166.852	-42.263	-0.086	-0.044
-165.837	-200.000	-0.007	-0.184
-164.823	-67.970	-0.325	0.126
-163.808	-200.000	0.193	0.000
-162.793	93.825	-0.181	0.203
-161.779	118.606	0.261	-0.319
-160.764	-102.717	-0.380	0.090
-159.750	-200.000	0.178	-0.000
-158.735	608.895	-0.029	0.073
-157.720	-6.098	-0.140	0.095
-156.706	-47.489	0.446	0.214
-155.691	800.000	-0.080	-0.274
-154.677	-175.968	-0.192	-0.005
-153.662	-116.633	-0.034	-0.006
-152.647	-49.912	0.140	-0.066
-151.633	-137.690	-0.149	-0.017
-150.618	471.640	0.098	0.219
-149.604	-100.726	-0.141	0.034
-148.589	245.653	0.064	-0.106
-147.574	800.000	0.049	-0.174
-146.560	74.566	-0.109	-0.114
-145.545	800.000	0.041	0.139
-144.531	-200.000	0.022	-0.190
-143.516	338.043	0.151	0.290
-142.502	-200.000	0.003	0.244
-141.487	-101.931	0.273	-0.065
-140.472	-33.127	-0.068	0.037
-139.458	191.408	-0.061	-0.091
-138.443	1.358	-0.219	-0.156
-137.429	31.260	0.222	-0.188
-136.414	-200.000	-0.001	-0.277
-135.399	-104.995	-0.457	0.103
-134.385	144.115	-0.155	0.205
-133.370	656.788	-0.035	0.088
-132.356	-200.000	-0.040	0.273
-131.341	26.299	0.413	0.341
-130.326	99.337	-0.051	0.058
-129.312	-35.897	-0.298	0.159
-128.297	800.000	0.013	-0.042
-127.283	800.000	-0.062	-0.197
-126.268	77.946	0.105	0.111
-125.253	-5.163	-0.330	-0.224
-124.239	-200.000	-0.064	0.389
-123.224	-123.394	0.103	0.016
-122.210	99.118	-0.117	-0.133
-121.195	650.057	0.089	-0.224
