DTS Sentinel unit serial number:	SN413079Multiplexer serial number:	ORYXHardware model number:	OX4-SRSoftware version number:	ORYX F/W v4.00 Oryx Data Collector v3.7.2.0data status	okinstallation	princeton_trtdifferential loss correction	single-endedforward channel	channel 4reverse channel	N/Adate	2019/09/13time	06:17:34forward acquisition time	60.00reverse acquisition time	0.00gamma	496.2192k internal	0.2323k external	0.2323temperature offset calibration	1.0199default loss term (dB/km)	0.3790temperature slope calibration	1.0000multiplexer offset coefficient	1.0000multiplexer slope coefficient	1.0000fibre end	0.00T internal ref (°C)	26.12T ext. ref 1 (°C)	4.09T ext. ref 2 (°C)	20.82length (m)	temperature (°C)	Stokes	anti-Stokes-747.200	-28.746	-0.206	0.120
-746.185	663.135	0.038	-0.098
-745.171	563.729	-0.103	0.252
-744.156	-200.000	-0.066	0.506
-743.142	105.686	0.158	-0.189
-742.127	94.933	-0.108	-0.124
-741.112	253.077	-0.025	-0.044
-740.098	-200.000	-0.002	-0.148
-739.083	742.232	-0.194	-0.527
-738.069	74.985	0.176	-0.187
-737.054	127.554	0.175	0.224
-736.039	-118.587	-0.461	-0.082
-735.025	20.634	-0.079	-0.064
-734.010	-105.869	-0.108	-0.025
-732.996	-140.316	-0.331	0.035
-731.981	150.762	0.190	-0.261
-730.966	-19.465	0.216	-0.135
-729.952	217.734	-0.122	0.197
-728.937	-176.069	-0.167	0.004
-727.923	165.014	0.029	-0.042
-726.908	-115.480	0.104	0.020
-725.894	18.111	0.108	-0.087
-724.879	800.000	-0.080	-0.276
-723.864	-125.812	0.044	-0.007
-722.850	14.810	0.075	-0.059
-721.835	153.846	-0.045	0.063
-720.821	-200.000	-0.021	-0.252
-719.806	-78.183	0.089	-0.031
-718.791	-127.526	-0.040	-0.006
-717.777	-166.125	-0.605	-0.026
-716.762	-56.790	-0.081	0.036
-715.748	84.966	0.123	-0.136
-714.733	-57.382	-0.152	0.067
-713.718	800.000	0.042	0.138
-712.704	-200.000	-0.047	0.295
-711.689	-200.000	0.016	0.147
-710.675	-99.328	0.336	-0.085
-709.660	265.484	0.113	0.198
-708.645	396.650	0.123	0.258
-707.631	100.030	-0.093	-0.108
-706.616	-200.000	-0.029	-0.216
-705.602	43.659	0.157	0.145
-704.587	-14.900	0.331	-0.214
-703.572	34.409	0.026	0.023
-702.558	-31.372	0.341	0.193
-701.543	800.000	-0.031	0.131
-700.529	198.408	0.085	-0.131
-699.514	-106.043	0.213	0.048
-698.499	-187.603	0.111	0.001
-697.485	387.575	0.141	0.293
-696.470	-200.000	0.050	0.474
-695.456	-50.998	0.098	-0.046
-694.441	50.927	0.145	-0.139
-693.426	-121.174	0.255	-0.043
-692.412	153.670	-0.069	0.095
-691.397	32.442	-0.373	0.325
-690.383	-10.217	-0.184	-0.123
-689.368	-200.000	-0.010	0.259
-688.354	0.351	-0.109	0.078
-687.339	5.792	-0.106	0.079
-686.324	15.552	0.082	0.065
-685.310	-22.952	0.218	-0.132
-684.295	-127.804	0.071	-0.010
-683.281	-68.539	0.258	0.101
-682.266	17.095	-0.111	-0.089
-681.251	-89.806	0.176	0.052
-680.237	-200.000	0.036	-0.211
-679.222	219.290	-0.125	0.201
-678.208	800.000	0.047	-0.155
-677.193	42.545	-0.044	0.040
-676.178	138.663	-0.017	-0.023
-675.164	-125.668	-0.296	0.045
-674.149	239.910	0.031	0.051
-673.135	-165.056	-0.241	-0.011
-672.120	-115.850	0.133	-0.025
-671.105	-101.319	0.086	-0.021
-670.091	494.559	-0.065	-0.151
-669.076	-0.777	-0.110	0.079
-668.062	-200.000	-0.024	0.204
-667.047	-199.632	-0.350	0.002
-666.032	64.617	0.031	-0.031
-665.018	-200.000	-0.003	-0.055
-664.003	212.233	0.148	0.236
-662.989	401.869	-0.078	0.164
-661.974	-27.282	0.306	-0.179
-660.959	-200.000	-0.022	0.268
-659.945	800.000	-0.201	0.609
-658.930	34.443	0.113	-0.099
-657.916	-31.902	0.091	-0.051
-656.901	800.000	0.085	-0.261
-655.886	619.317	-0.119	-0.302
-654.872	-89.112	-0.140	-0.042
-653.857	53.742	0.220	-0.213
-652.843	89.614	0.114	0.127
-651.828	-172.867	-0.332	-0.010
-650.814	-121.964	-0.291	-0.048
-649.799	-101.326	0.314	-0.077
-648.784	1.008	0.189	0.137
-647.770	35.322	-0.406	-0.359
-646.755	31.596	0.100	-0.087
-645.741	-200.000	0.000	0.053
-644.726	-200.000	-0.013	-0.378
-643.711	-200.000	0.024	-0.276
-642.697	-131.608	-0.077	-0.010
-641.682	-138.599	-0.286	0.032
-640.668	-167.935	0.354	0.014
-639.653	800.000	0.056	-0.201
-638.638	95.095	0.265	-0.303
-637.624	-105.159	0.177	-0.041
-636.609	800.000	-0.057	-0.173
-635.595	-42.770	-0.235	0.120
-634.580	-200.000	-0.083	-0.403
-633.565	-60.113	-0.114	-0.049
-632.551	-167.200	-0.143	0.006
-631.536	-200.000	-0.025	-0.140
-630.522	530.528	-0.227	0.540
-629.507	-200.000	0.019	-0.088
-628.492	728.846	0.014	-0.037
-627.478	145.234	-0.054	-0.073
-626.463	-105.493	-0.076	-0.017
-625.449	800.000	0.098	-0.430
-624.434	-114.750	0.269	0.052
-623.419	-200.000	0.013	-0.090
-622.405	-54.558	-0.152	-0.069
-621.390	259.821	-0.098	-0.170
-620.376	800.000	0.049	0.138
-619.361	800.000	-0.031	0.089
-618.346	11.612	-0.171	0.132
-617.332	-73.174	-0.243	-0.090
-616.317	1.649	-0.168	0.121
-615.303	74.798	0.075	-0.079
-614.288	230.441	0.161	-0.264
-613.273	-86.967	-0.204	-0.062
-612.259	294.456	0.068	-0.126
-611.244	224.789	0.035	-0.056
-610.230	421.809	-0.073	-0.158
-609.215	-79.949	0.146	0.049
-608.201	-200.000	0.043	0.226
-607.186	-200.000	-0.045	0.255
-606.171	41.414	0.026	0.023
-605.157	266.852	0.057	0.101
-604.142	800.000	0.062	-0.239
-603.128	-200.000	-0.093	-0.522
-602.113	19.742	-0.107	0.086
-601.098	800.000	0.038	0.159
-600.084	-53.544	0.280	0.129
-599.069	382.152	-0.118	-0.244
-598.055	-200.000	0.016	0.367
-597.040	-200.000	-0.043	-0.225
-596.025	800.000	-0.028	0.111
-595.011	113.674	-0.201	-0.246
-593.996	-152.529	0.147	0.011
-592.982	-200.000	0.013	-0.076
-591.967	549.333	0.044	0.106
-590.952	44.648	-0.114	-0.105
-589.938	-200.000	-0.053	-0.277
-588.923	800.000	0.031	-0.114
-587.909	800.000	0.058	0.174
-586.894	722.351	0.062	0.165
-585.879	-98.437	0.197	0.051
-584.865	800.000	0.035	0.111
-583.850	46.554	0.229	0.213
-582.836	-111.787	0.184	0.037
-581.821	-82.637	0.184	-0.060
-580.806	-200.000	-0.037	0.383
-579.792	-200.000	-0.074	-0.348
-578.777	36.949	0.142	0.126
-577.763	-20.666	0.220	0.135
-576.748	-108.651	0.151	0.033
-575.733	-82.760	0.221	-0.072
-574.719	29.759	-0.309	0.264
-573.704	57.458	0.202	-0.198
-572.690	-78.324	-0.144	-0.050
-571.675	-22.802	-0.122	0.074
-570.661	-200.000	-0.035	0.217
-569.646	-185.808	0.180	0.003
-568.631	-125.217	-0.376	0.058
-567.617	-200.000	0.002	-0.164
-566.602	-66.060	0.316	-0.126
-565.588	-46.408	-0.033	-0.016
-564.573	241.281	-0.061	-0.102
-563.558	-200.000	-0.009	-0.217
-562.544	-157.437	-0.145	-0.009
-561.529	80.196	-0.186	-0.201
-560.515	-22.703	-0.332	0.201
-559.500	-161.863	-0.138	0.007
-558.485	793.046	0.095	0.263
-557.471	99.122	-0.096	-0.111
-556.456	565.081	0.060	-0.145
-555.442	140.141	-0.032	0.043
-554.427	800.000	0.069	-0.297
-553.412	300.841	0.047	-0.087
-552.398	-122.544	-0.240	-0.039
-551.383	-6.927	0.067	0.046
-550.369	103.788	-0.220	0.258
-549.354	-52.579	0.101	-0.047
-548.339	297.436	-0.207	-0.380
-547.325	-200.000	0.008	-0.095
-546.310	-185.629	0.186	-0.003
-545.296	800.000	-0.036	0.103
-544.281	-70.426	-0.228	-0.086
-543.266	-58.126	0.155	-0.068
-542.252	-108.468	0.179	0.039
-541.237	-98.440	-0.085	0.022
-540.223	286.272	0.052	0.095
-539.208	13.497	-0.140	0.109
-538.193	800.000	0.016	0.063
-537.179	34.859	0.123	-0.108
-536.164	-135.367	-0.287	-0.034
-535.150	-82.773	0.071	0.023
-534.135	387.758	0.063	-0.130
-533.121	-102.484	-0.272	-0.065
-532.106	-27.783	0.083	-0.048
-531.091	9.660	-0.113	0.086
-530.077	-62.659	0.331	0.138
-529.062	-6.180	-0.132	-0.091
-528.048	-57.368	-0.201	0.088
-527.033	-200.000	0.004	-0.092
-526.018	112.280	-0.303	-0.367
-525.004	156.510	-0.052	-0.072
-523.989	800.000	-0.053	0.173
-522.975	-135.771	0.007	-0.001
-521.960	-181.922	-0.086	0.002
-520.945	-99.933	-0.209	-0.052
-519.931	-136.495	0.069	-0.008
-518.916	800.000	0.078	0.284
-517.902	282.731	0.020	-0.036
-516.887	-192.276	-0.268	0.003
-515.872	236.853	0.045	-0.074
-514.858	-88.389	0.074	-0.022
-513.843	-200.000	0.007	-0.157
-512.829	800.000	0.011	0.036
-511.814	-200.000	0.011	-0.225
-510.799	-200.000	-0.009	-0.069
-509.785	-200.000	0.000	-0.065
-508.770	-68.371	-0.084	0.032
-507.756	205.846	-0.079	0.122
-506.741	-82.959	-0.403	-0.130
-505.726	695.926	0.076	-0.200
-504.712	275.650	-0.153	0.271
-503.697	800.000	0.028	0.123
-502.683	31.246	0.174	-0.150
-501.668	800.000	-0.080	-0.327
-500.653	12.834	-0.332	-0.257
-499.639	543.523	0.093	-0.223
-498.624	-200.000	-0.029	0.187
-497.610	-41.602	0.232	0.119
-496.595	140.920	-0.099	-0.131
-495.581	-54.707	0.130	-0.059
-494.566	-104.052	-0.118	0.027
-493.551	104.485	-0.112	-0.131
-492.537	-83.423	-0.129	-0.041
-491.522	745.624	0.074	0.199
-490.508	-114.953	0.327	0.062
-489.493	-53.330	-0.146	0.067
-488.478	226.674	0.087	0.141
-487.464	52.495	0.117	0.112
-486.449	106.277	0.171	-0.202
-485.435	-5.350	-0.240	-0.165
-484.420	-200.000	0.018	-0.308
-483.405	-124.066	-0.013	-0.002
-482.391	633.370	0.047	-0.119
-481.376	-200.000	-0.001	0.353
-480.362	-38.045	-0.339	0.180
-479.347	-125.954	-0.488	0.073
-478.332	3.753	-0.323	-0.236
-477.318	-44.476	0.306	-0.153
-476.303	342.420	-0.138	-0.269
-475.289	-181.387	-0.423	-0.008
-474.274	-200.000	0.049	0.261
-473.259	117.686	0.204	-0.250
-472.245	-42.840	-0.218	-0.111
-471.230	-200.000	0.008	0.345
-470.216	-200.000	-0.006	-0.256
-469.201	45.775	0.151	0.140
-468.186	-161.515	-0.248	-0.013
-467.172	-200.000	0.022	-0.247
-466.157	-200.000	0.013	-0.190
-465.143	-83.965	0.171	0.054
-464.128	221.037	0.086	-0.138
-463.113	-137.908	-0.357	0.040
-462.099	-200.000	0.012	-0.226
-461.084	-5.967	-0.264	0.181
-460.070	800.000	-0.045	0.178
-459.055	-56.743	-0.087	-0.038
-458.040	7.535	0.343	-0.256
-457.026	294.513	0.069	0.125
-456.011	-74.548	0.134	0.048
-454.997	121.272	0.081	0.101
-453.982	22.603	-0.066	0.054
-452.968	-114.069	0.271	-0.052
-451.953	-200.000	-0.002	0.184
-450.938	-200.000	-0.002	0.189
-449.924	-98.300	0.065	0.017
-448.909	-200.000	-0.026	0.245
-447.895	-61.434	0.061	-0.026
-446.880	-69.499	-0.210	-0.080
-445.865	-98.711	-0.261	0.066
-444.851	30.560	-0.276	0.235
-443.836	-47.632	-0.136	0.066
-442.822	104.556	-0.308	-0.362
-441.807	-90.893	0.042	0.012
-440.792	280.801	-0.149	0.266
-439.778	527.385	0.143	0.336
-438.763	-84.476	0.062	-0.020
-437.749	-200.000	-0.007	0.223
-436.734	-30.693	0.119	0.067
-435.719	-85.336	0.206	0.064
-434.705	127.078	0.134	0.170
-433.690	800.000	-0.033	0.120
-432.676	-200.000	-0.004	-0.050
-431.661	132.207	0.189	-0.243
-430.646	254.368	0.149	-0.254
-429.632	126.132	0.078	-0.098
-428.617	71.425	-0.137	0.142
-427.603	-102.661	0.254	0.060
-426.588	-76.727	0.236	0.083
-425.573	800.000	0.024	-0.098
-424.559	-141.072	-0.293	-0.030
-423.544	-200.000	0.014	0.180
-422.530	461.939	-0.183	0.407
-421.515	-129.407	-0.161	0.022
-420.500	-200.000	-0.005	-0.025
-419.486	-11.695	0.343	0.224
-418.471	-36.740	0.354	-0.190
-417.457	-75.182	0.259	0.092
-416.442	577.430	0.122	0.297
-415.428	9.953	0.218	0.165
-414.413	125.107	-0.084	-0.105
-413.398	510.028	-0.067	-0.154
-412.384	-63.123	0.170	-0.070
-411.369	-200.000	-0.018	0.114
-410.355	544.400	0.140	0.334
-409.340	158.280	0.157	-0.217
-408.325	75.405	-0.111	0.117
-407.311	800.000	0.031	0.103
-406.296	-146.413	0.017	0.001
-405.282	800.000	-0.041	0.152
-404.267	800.000	-0.031	0.134
-403.252	-87.110	0.127	0.039
-402.238	-58.136	-0.345	0.150
-401.223	56.013	-0.176	-0.170
-400.209	-200.000	0.008	-0.244
-399.194	8.173	0.147	-0.110
-398.179	112.732	-0.256	0.309
-397.165	-200.000	0.156	0.000
-396.150	18.305	0.127	0.101
-395.136	-27.156	-0.184	-0.107
-394.121	-111.384	-0.121	-0.025
-393.106	-200.000	0.034	0.195
-392.092	-114.436	0.268	0.051
-391.077	-200.000	-0.003	0.160
-390.063	-12.780	-0.077	-0.050
-389.048	-102.853	-0.369	0.087
-388.033	-60.603	-0.188	-0.079
-387.019	800.000	-0.035	0.124
-386.004	-128.825	0.125	-0.017
-384.990	301.957	0.032	-0.059
-383.975	216.248	0.226	0.358
-382.960	265.514	-0.112	0.194
-381.946	-15.304	0.157	0.100
-380.931	-200.000	0.037	-0.260
-379.917	59.222	-0.213	0.208
-378.902	44.319	0.229	0.209
-377.888	-1.971	0.258	0.180
-376.873	-200.000	0.013	0.063
-375.858	25.148	-0.145	0.119
-374.844	44.716	-0.125	-0.114
-373.829	-200.000	-0.034	-0.196
-372.815	592.817	0.090	0.222
-371.800	-90.166	0.237	0.069
-370.785	-59.408	-0.300	-0.128
-369.771	65.011	-0.106	0.107
-368.756	-200.000	0.185	-0.000
-367.742	-74.317	0.138	0.050
-366.727	3.880	0.055	-0.040
-365.712	249.584	0.137	-0.231
-364.698	-95.974	-0.224	-0.059
-363.683	-103.105	-0.221	-0.052
-362.669	292.803	-0.055	-0.100
-361.654	-2.602	0.360	-0.251
-360.639	-200.000	-0.055	0.353
-359.625	192.573	0.091	-0.137
-358.610	-46.814	-0.438	0.213
-357.596	72.413	-0.059	0.062
-356.581	-62.778	-0.074	0.030
-355.566	-138.740	0.019	0.002
-354.552	4.339	-0.099	0.072
-353.537	-200.000	-0.016	-0.247
-352.523	-70.753	0.144	0.054
-351.508	-107.253	-0.116	-0.025
-350.493	-52.319	-0.198	-0.091
-349.479	-200.000	0.013	-0.071
-348.464	-101.209	0.264	-0.064
-347.450	-200.000	-0.054	-0.448
-346.435	-158.511	0.171	0.010
-345.420	109.944	-0.250	-0.299
-344.406	-93.027	-0.177	0.049
-343.391	382.134	0.077	-0.157
-342.377	-2.938	-0.349	-0.242
-341.362	-101.273	0.164	0.040
-340.348	-127.329	0.175	0.025
-339.333	312.688	0.047	-0.087
-338.318	20.316	0.205	0.165
-337.304	800.000	-0.010	0.042
-336.289	45.047	-0.182	0.167
-335.275	-134.888	-0.100	0.012
-334.260	-16.405	-0.133	-0.084
-333.245	-77.698	-0.098	-0.034
-332.231	299.086	0.062	0.113
-331.216	181.966	0.091	0.133
-330.202	449.259	-0.063	0.138
-329.187	24.624	-0.154	0.127
-328.172	-200.000	-0.052	0.236
-327.158	-83.251	-0.182	-0.058
-326.143	-159.901	-0.188	0.010
-325.129	-117.846	0.068	0.012
-324.114	-60.957	0.169	0.071
-323.099	-33.292	-0.191	0.105
-322.085	153.192	-0.125	-0.170
-321.070	309.766	-0.084	-0.156
-320.056	-173.210	-0.450	0.014
-319.041	-28.494	-0.215	-0.123
-318.026	-69.886	0.385	0.146
-317.012	-126.741	-0.294	-0.043
-315.997	-23.273	-0.178	0.107
-314.983	-95.198	0.017	-0.005
-313.968	-77.822	0.292	-0.100
-312.953	800.000	0.054	0.195
-311.939	-97.629	-0.329	0.085
-310.924	-17.717	-0.078	0.049
-309.910	146.923	0.084	-0.113
-308.895	-135.717	0.223	0.026
-307.880	-200.000	-0.009	-0.104
-306.866	639.229	-0.094	-0.237
-305.851	-38.994	0.251	-0.131
-304.837	-98.689	-0.216	0.055
-303.822	-40.519	0.220	-0.114
-302.807	274.376	0.148	-0.259
-301.793	158.740	-0.233	0.321
-300.778	-200.000	-0.001	-0.185
-299.764	528.869	-0.063	0.148
-298.749	-53.167	0.132	-0.060
-297.735	158.410	-0.149	-0.206
-296.720	54.589	0.188	0.180
-295.705	-131.875	0.188	0.024
-294.691	-37.756	-0.120	-0.064
-293.676	447.507	0.170	0.371
-292.662	-200.000	0.007	-0.376
-291.647	-74.843	0.164	0.058
-290.632	522.209	0.104	-0.243
-289.618	-200.000	0.005	0.145
-288.603	800.000	-0.022	-0.080
-287.589	-200.000	0.004	0.144
-286.574	528.936	-0.119	-0.279
-285.559	-200.000	0.010	-0.107
-284.545	-124.652	0.297	-0.046
-283.530	165.030	-0.120	-0.168
-282.516	-74.349	-0.135	0.048
-281.501	-200.000	0.019	-0.102
-280.486	114.794	0.111	0.134
-279.472	499.022	0.105	0.240
-278.457	56.683	0.166	-0.160
-277.443	800.000	0.034	0.127
-276.428	-200.000	-0.014	0.000
-275.413	289.392	0.045	-0.081
-274.399	-200.000	-0.026	0.210
-273.384	33.453	0.240	-0.207
-272.370	-30.014	0.238	-0.135
-271.355	-16.055	-0.255	-0.161
-270.340	84.049	-0.010	0.011
-269.326	-69.496	-0.387	0.147
-268.311	-24.255	-0.164	0.097
-267.297	212.733	-0.202	0.316
-266.282	-200.000	-0.022	0.179
-265.267	800.000	0.042	-0.128
-264.253	-93.119	-0.091	-0.025
-263.238	233.440	0.100	-0.163
-262.224	-200.000	-0.027	0.129
-261.209	59.433	0.021	-0.020
-260.195	103.046	0.333	0.387
-259.180	800.000	0.030	-0.110
-258.165	-18.964	0.315	0.194
-257.151	-24.368	0.023	0.014
-256.136	0.937	0.157	-0.111
-255.122	-200.000	-0.006	-0.365
-254.107	62.707	-0.276	0.273
-253.092	800.000	-0.063	-0.225
-252.078	-57.950	0.111	-0.048
-251.063	800.000	-0.118	-0.323
-250.049	-44.564	0.306	-0.152
-249.034	753.798	0.024	0.065
-248.019	-143.655	0.069	0.007
-247.005	22.503	-0.070	0.057
-245.990	-82.628	-0.096	0.031
-244.976	-66.022	-0.121	-0.048
-243.961	652.850	0.060	0.152
-242.946	-63.379	-0.206	0.084
-241.932	-92.228	0.214	-0.060
-240.917	-55.503	0.305	-0.136
-239.903	-139.688	0.037	-0.004
-238.888	269.818	0.094	-0.163
-237.873	399.324	0.059	-0.121
-236.859	-12.715	-0.439	-0.283
-235.844	800.000	0.101	0.414
-234.830	-200.000	0.064	-0.280
-233.815	44.935	0.263	0.240
-232.800	-54.206	0.245	-0.110
-231.786	-200.000	0.018	-0.344
-230.771	151.194	-0.089	-0.120
-229.757	-131.988	0.279	0.036
-228.742	-170.950	-0.434	-0.015
-227.727	156.672	0.014	0.019
-226.713	83.039	-0.075	-0.081
-225.698	63.431	-0.127	0.127
-224.684	-26.029	0.227	0.132
-223.669	54.301	-0.066	-0.063
-222.655	-116.503	0.150	0.027
-221.640	35.688	0.229	0.199
-220.625	-200.000	-0.017	0.115
-219.611	6.474	-0.257	0.189
-218.596	800.000	-0.016	0.045
-217.582	558.650	-0.043	0.102
-216.567	756.939	0.116	-0.310
-215.552	-103.482	0.197	0.046
-214.538	122.642	0.121	0.149
-213.523	-200.000	-0.036	-0.309
-212.509	800.000	0.072	0.305
-211.494	306.083	-0.080	-0.147
-210.479	-200.000	0.007	0.207
-209.465	-39.806	-0.467	0.241
-208.450	-82.021	-0.118	0.038
-207.436	-200.000	-0.052	0.423
-206.421	-53.021	-0.219	-0.099
-205.406	-12.826	0.080	0.052
-204.392	-1.013	-0.118	0.082
-203.377	147.585	0.179	-0.238
-202.363	2.414	0.366	-0.262
-201.348	97.555	0.135	0.154
-200.333	-29.169	0.135	-0.076
-199.319	-133.315	0.088	0.011
-198.304	20.566	-0.096	-0.076
-197.290	800.000	0.089	-0.293
-196.275	-200.000	-0.066	-0.312
-195.260	215.194	-0.030	-0.047
-194.246	-200.000	0.000	0.184
-193.231	311.115	-0.204	0.378
-192.217	39.492	-0.276	0.244
-191.202	-87.037	0.292	-0.088
-190.187	169.213	0.157	0.222
-189.173	277.011	-0.102	0.179
-188.158	-2.199	0.307	0.213
-187.144	-30.369	0.224	-0.126
-186.129	772.489	0.155	0.417
-185.114	-107.256	0.397	-0.086
-184.100	753.677	-0.065	-0.173
-183.085	-200.000	-0.064	0.426
-182.071	-40.475	0.037	-0.019
-181.056	-200.000	-0.015	0.109
-180.042	-200.000	0.001	0.262
-179.027	-200.000	-0.015	0.143
-178.012	118.482	-0.203	0.248
-176.998	-128.767	0.489	-0.068
-175.983	102.364	-0.136	-0.157
-174.969	800.000	0.102	0.310
-173.954	-200.000	-0.027	-0.144
-172.939	800.000	-0.041	-0.175
-171.925	21.639	0.198	0.159
-170.910	-182.126	-0.287	0.005
-169.896	-181.853	0.462	-0.009
-168.881	-200.000	-0.030	0.292
-167.866	800.000	-0.076	0.270
-166.852	-17.745	0.140	0.087
-165.837	-71.458	0.043	-0.016
-164.823	32.967	-0.150	0.128
-163.808	-56.009	0.179	0.079
-162.793	-26.902	0.250	0.144
-161.779	-200.000	-0.002	0.155
-160.764	-91.498	0.143	-0.040
-159.750	69.136	0.047	-0.048
-158.735	-176.944	0.262	0.007
-157.720	-200.000	-0.029	0.350
-156.706	70.153	0.156	-0.159
-155.691	183.428	0.168	-0.245
-154.677	-200.000	-0.011	-0.112
-153.662	-200.000	-0.182	0.001
-152.647	800.000	-0.098	-0.356
-151.633	-200.000	-0.023	-0.195
-150.618	800.000	0.102	0.286
-149.604	-65.316	0.280	-0.111
-148.589	-63.021	-0.057	-0.023
-147.574	41.471	0.126	0.112
-146.560	-200.000	-0.012	0.166
-145.545	-5.646	0.222	0.150
-144.531	-200.000	-0.063	-0.391
-143.516	121.322	0.077	0.095
-142.502	800.000	-0.152	-0.470
-141.487	136.822	0.062	0.080
-140.472	58.982	0.123	0.120
-139.458	-200.000	0.024	-0.302
-138.443	-26.723	0.102	0.059
-137.429	-21.581	0.276	-0.166
-136.414	-200.000	0.033	0.341
-135.399	135.639	0.111	0.142
-134.385	263.790	-0.067	-0.114
-133.370	800.000	0.075	0.248
-132.356	533.078	-0.090	0.209
-131.341	5.114	0.318	-0.231
-130.326	800.000	0.009	0.025
-129.312	-136.768	-0.235	-0.027
-128.297	-80.724	-0.072	-0.024
-127.283	150.182	0.191	0.255
-126.268	-128.088	0.279	-0.039
-125.253	-130.597	-0.045	-0.006
-124.239	101.399	-0.100	0.115
-123.224	-63.005	0.203	-0.083
-122.210	698.262	-0.036	0.093
-121.195	-43.615	-0.243	-0.121
