DTS Sentinel unit serial number:	SN413079Multiplexer serial number:	ORYXHardware model number:	OX4-SRSoftware version number:	ORYX F/W v4.00 Oryx Data Collector v3.7.2.0data status	okinstallation	princeton_trtdifferential loss correction	single-endedforward channel	channel 4reverse channel	N/Adate	2019/09/18time	07:01:35forward acquisition time	60.00reverse acquisition time	0.00gamma	496.2192k internal	0.2333k external	0.2333temperature offset calibration	0.9999default loss term (dB/km)	0.3790temperature slope calibration	1.0000multiplexer offset coefficient	1.0000multiplexer slope coefficient	1.0000fibre end	0.00T internal ref (°C)	23.19T ext. ref 1 (°C)	0.19T ext. ref 2 (°C)	17.12length (m)	temperature (°C)	Stokes	anti-Stokes-747.200	-200.000	0.072	0.372
-746.185	-90.405	-0.167	0.049
-745.171	-200.000	-0.000	0.162
-744.156	800.000	-0.071	0.249
-743.142	800.000	0.022	0.095
-742.127	124.486	-0.157	-0.199
-741.112	-200.000	-0.021	0.177
-740.098	-70.874	0.183	0.069
-739.083	138.189	0.188	0.248
-738.069	83.755	-0.414	0.454
-737.054	66.985	0.095	0.097
-736.039	-18.238	-0.155	0.097
-735.025	800.000	0.067	0.224
-734.010	800.000	-0.091	0.299
-732.996	74.573	-0.054	0.057
-731.981	-166.839	-0.311	-0.013
-730.966	800.000	-0.087	-0.271
-729.952	-35.404	-0.400	-0.219
-728.937	-32.131	-0.304	-0.171
-727.923	125.038	0.093	0.118
-726.908	-159.337	-0.250	-0.014
-725.894	255.324	-0.107	-0.185
-724.879	-117.556	-0.080	0.015
-723.864	-41.209	-0.032	0.017
-722.850	-200.000	0.025	-0.182
-721.835	369.698	-0.096	-0.196
-720.821	-200.000	0.017	0.369
-719.806	-200.000	-0.004	-0.136
-718.791	119.735	-0.203	0.252
-717.777	-24.999	-0.156	-0.093
-716.762	-200.000	-0.027	-0.351
-715.748	312.285	-0.092	0.174
-714.733	31.651	0.125	-0.108
-713.718	800.000	0.073	0.226
-712.704	-13.103	-0.046	-0.030
-711.689	-106.509	0.234	-0.052
-710.675	-200.000	-0.033	0.189
-709.660	-200.000	0.221	-0.000
-708.645	43.692	0.072	0.067
-707.631	12.351	-0.079	-0.061
-706.616	-101.223	-0.323	-0.079
-705.602	2.266	0.162	0.118
-704.587	-200.000	0.019	0.128
-703.572	159.021	-0.059	-0.083
-702.558	21.383	0.275	-0.224
-701.543	800.000	-0.159	-0.465
-700.529	35.459	0.103	0.091
-699.514	-7.153	0.094	0.064
-698.499	-200.000	-0.043	-0.500
-697.485	-135.897	0.364	-0.043
-696.470	800.000	-0.103	0.360
-695.456	-92.503	0.171	0.048
-694.441	800.000	-0.065	0.200
-693.426	-8.140	-0.333	-0.225
-692.412	234.977	-0.173	0.286
-691.397	-200.000	0.044	0.370
-690.383	-118.940	0.168	-0.030
-689.368	349.472	-0.110	-0.218
-688.354	161.215	-0.210	-0.295
-687.339	542.666	-0.122	0.292
-686.324	-78.992	-0.116	0.040
-685.310	-200.000	0.005	-0.132
-684.295	-87.607	0.323	-0.098
-683.281	206.261	-0.132	-0.206
-682.266	800.000	0.045	-0.150
-681.251	0.371	0.125	0.089
-680.237	-82.557	0.122	-0.040
-679.222	-121.946	-0.501	0.083
-678.208	-83.185	-0.249	-0.080
-677.193	50.581	0.182	-0.173
-676.178	-11.590	0.100	0.066
-675.164	-57.504	-0.110	0.049
-674.149	192.084	0.191	-0.289
-673.135	133.387	0.144	-0.187
-672.120	-200.000	-0.036	0.197
-671.105	30.763	0.289	-0.248
-670.091	-54.676	-0.463	0.210
-669.076	800.000	-0.089	-0.260
-668.062	306.786	0.078	0.146
-667.047	-139.561	-0.281	-0.030
-666.032	180.054	0.130	-0.191
-665.018	-200.000	0.005	0.111
-664.003	800.000	-0.122	0.376
-662.989	453.951	0.144	0.320
-661.974	-87.491	-0.352	-0.107
-660.959	-200.000	0.021	0.153
-659.945	-87.360	0.189	-0.058
-658.930	800.000	0.076	-0.276
-657.916	-200.000	-0.018	-0.534
-656.901	152.122	0.104	-0.143
-655.886	-56.662	-0.261	0.116
-654.872	-25.179	0.105	-0.062
-653.857	100.722	-0.252	-0.294
-652.843	800.000	-0.069	0.230
-651.828	-200.000	0.055	-0.344
-650.814	81.709	0.131	-0.142
-649.799	527.615	0.086	-0.203
-648.784	-134.148	0.338	0.042
-647.770	-96.742	-0.296	0.078
-646.755	83.291	0.207	0.226
-645.741	-200.000	0.008	-0.391
-644.726	-30.512	0.103	0.058
-643.711	22.980	0.095	-0.078
-642.697	-157.587	-0.475	-0.028
-641.682	-17.513	0.116	0.073
-640.668	53.633	0.184	0.177
-639.653	2.668	-0.165	-0.120
-638.638	-78.156	0.092	-0.032
-637.624	-118.331	0.212	0.038
-636.609	800.000	-0.119	-0.509
-635.595	53.163	0.263	-0.252
-634.580	14.011	-0.081	-0.063
-633.565	-28.066	0.180	0.104
-632.551	-129.031	0.311	-0.044
-631.536	-77.561	0.127	-0.044
-630.522	-114.076	0.153	-0.030
-629.507	-200.000	0.011	0.255
-628.492	-158.145	-0.126	-0.007
-627.478	134.464	0.210	0.273
-626.463	784.149	0.050	-0.139
-625.449	23.168	0.190	-0.156
-624.434	-200.000	-0.022	-0.125
-623.419	-159.209	0.153	0.009
-622.405	-132.286	-0.161	0.021
-621.390	-200.000	0.009	-0.234
-620.376	56.788	0.097	-0.095
-619.361	-111.867	-0.281	0.057
-618.346	84.750	-0.212	-0.232
-617.332	22.203	-0.101	-0.082
-616.317	-84.724	-0.138	-0.044
-615.303	32.537	-0.293	0.254
-614.288	558.057	0.056	-0.135
-613.273	-89.462	-0.125	-0.037
-612.259	-23.538	0.148	0.089
-611.244	-61.336	0.137	-0.058
-610.230	-200.000	0.040	-0.183
-609.215	-42.620	0.146	-0.074
-608.201	-170.591	-0.194	0.007
-607.186	310.348	-0.077	-0.143
-606.171	-200.000	-0.028	-0.385
-605.157	-76.716	-0.198	-0.069
-604.142	-21.750	-0.170	-0.104
-603.128	-131.935	-0.280	0.036
-602.113	-22.285	-0.193	0.117
-601.098	198.384	0.192	-0.294
-600.084	191.775	0.047	0.071
-599.069	118.307	0.128	-0.158
-598.055	-69.417	0.081	-0.031
-597.040	79.958	-0.152	0.164
-596.025	116.240	0.163	-0.200
-595.011	-168.422	-0.012	0.000
-593.996	-9.314	0.134	-0.089
-592.982	323.443	0.217	-0.413
-591.967	-136.120	-0.043	0.005
-590.952	27.831	-0.214	-0.180
-589.938	-200.000	0.034	0.304
-588.923	60.393	-0.145	-0.144
-587.909	14.721	-0.118	0.092
-586.894	-82.613	-0.331	0.107
-585.879	-139.120	0.101	-0.011
-584.865	-33.867	-0.308	0.170
-583.850	-136.681	0.135	0.016
-582.836	-200.000	-0.026	-0.194
-581.821	800.000	0.044	-0.154
-580.806	-68.383	-0.319	0.124
-579.792	-83.072	0.428	-0.138
-578.777	-200.000	0.004	-0.242
-577.763	678.516	-0.119	0.308
-576.748	-94.350	-0.126	-0.034
-575.733	-3.393	0.187	0.130
-574.719	242.624	0.224	-0.375
-573.704	-36.941	0.119	0.064
-572.690	-92.732	0.291	-0.081
-571.675	-200.000	0.016	-0.265
-570.661	114.404	-0.110	0.134
-569.646	800.000	-0.117	0.362
-568.631	-200.000	0.032	0.318
-567.617	-93.537	-0.219	-0.061
-566.602	-129.436	-0.015	0.002
-565.588	-118.816	0.513	-0.090
-564.573	29.585	-0.119	-0.101
-563.558	11.739	0.241	-0.184
-562.544	-124.034	0.342	0.054
-561.529	-10.653	-0.095	0.062
-560.515	-155.937	0.178	0.011
-559.500	-12.283	0.088	-0.058
-558.485	-200.000	0.015	-0.336
-557.471	800.000	-0.068	-0.297
-556.456	396.379	0.136	0.284
-555.442	28.468	0.101	0.085
-554.427	235.025	0.170	-0.279
-553.412	35.774	-0.320	-0.280
-552.398	800.000	-0.010	-0.044
-551.383	23.529	0.048	-0.039
-550.369	337.167	0.042	-0.082
-549.354	-45.448	0.083	-0.041
-548.339	-200.000	-0.007	0.056
-547.325	-90.017	-0.197	-0.057
-546.310	-77.596	0.310	0.107
-545.296	505.728	0.060	0.139
-544.281	-200.000	-0.033	-0.279
-543.266	-200.000	0.023	-0.339
-542.252	-55.882	-0.085	-0.038
-541.237	-68.226	-0.480	-0.186
-540.223	495.180	0.081	0.185
-539.208	-11.502	-0.469	0.308
-538.193	60.173	0.137	0.135
-537.179	259.733	0.099	-0.171
-536.164	-200.000	0.011	0.054
-535.150	-200.000	0.058	-0.302
-534.135	-133.205	-0.226	0.028
-533.121	83.203	-0.166	-0.180
-532.106	30.616	0.209	-0.178
-531.091	-196.079	-0.334	-0.002
-530.077	72.438	0.132	-0.138
-529.062	298.087	0.116	0.212
-528.048	-152.097	0.221	-0.016
-527.033	-112.102	0.422	0.085
-526.018	38.493	0.231	-0.205
-525.004	93.868	-0.095	-0.107
-523.989	-134.920	-0.290	0.035
-522.975	171.532	-0.029	0.042
-521.960	-20.298	-0.319	0.196
-520.945	126.978	0.094	-0.118
-519.931	-30.601	-0.193	-0.109
-518.916	72.335	-0.156	0.162
-517.902	-133.829	0.153	0.019
-516.887	243.586	-0.058	-0.096
-515.872	-123.144	0.075	-0.012
-514.858	107.642	0.039	0.046
-513.843	-126.804	-0.521	-0.077
-512.829	-127.431	0.288	-0.042
-511.814	165.549	-0.127	0.179
-510.799	-200.000	-0.074	-0.532
-509.785	718.311	0.080	0.211
-508.770	800.000	-0.093	0.361
-507.756	-76.704	-0.151	-0.053
-506.741	139.707	0.377	-0.494
-505.726	80.537	-0.044	0.047
-504.712	-179.372	-0.076	0.002
-503.697	615.931	0.118	0.295
-502.683	139.140	-0.177	-0.232
-501.668	-147.219	0.105	0.009
-500.653	800.000	-0.077	-0.222
-499.639	194.753	0.033	-0.050
-498.624	-135.167	-0.152	0.018
-497.610	742.859	0.045	0.121
-496.595	109.295	0.103	-0.123
-495.581	603.198	-0.065	-0.161
-494.566	658.423	0.060	-0.153
-493.551	-94.572	-0.239	-0.065
-492.537	190.141	0.115	-0.172
-491.522	297.498	0.062	0.113
-490.508	331.463	0.049	0.094
-489.493	28.987	0.162	-0.136
-488.478	61.474	-0.256	-0.254
-487.464	78.776	-0.230	0.244
-486.449	-154.737	0.073	-0.005
-485.435	800.000	0.075	-0.255
-484.420	100.173	0.116	0.134
-483.405	-23.271	0.163	-0.098
-482.391	755.687	-0.053	0.142
-481.376	-150.527	0.150	0.011
-480.362	-132.356	-0.062	0.008
-479.347	-124.502	-0.454	-0.070
-478.332	-145.997	0.116	-0.010
-477.318	-200.000	-0.029	-0.247
-476.303	289.585	-0.059	0.106
-475.289	-40.613	-0.132	0.068
-474.274	-41.934	0.324	-0.165
-473.259	213.602	0.103	-0.161
-472.245	-116.205	0.307	0.057
-471.230	-169.922	0.083	0.003
-470.216	-200.000	-0.013	-0.362
-469.201	149.521	0.106	-0.142
-468.186	-125.633	-0.378	0.057
-467.172	474.107	0.064	-0.144
-466.157	800.000	0.102	-0.303
-465.143	571.556	0.054	0.132
-464.128	104.570	-0.275	0.323
-463.113	-200.000	-0.047	0.233
-462.099	800.000	-0.071	-0.219
-461.084	28.425	-0.190	0.160
-460.070	800.000	0.095	0.353
-459.055	24.305	-0.169	-0.139
-458.040	-102.965	-0.285	0.067
-457.026	-172.808	-0.325	-0.010
-456.011	360.840	0.100	0.200
-454.997	-150.963	0.338	0.025
-453.982	-13.425	-0.112	0.072
-452.968	-92.761	0.162	0.045
-451.953	25.782	-0.151	0.125
-450.938	-12.175	0.312	0.203
-449.924	72.034	0.160	-0.166
-448.909	-91.484	-0.425	-0.120
-447.895	-115.318	0.276	-0.052
-446.880	199.895	0.076	0.116
-445.865	658.717	0.103	0.265
-444.851	99.931	-0.167	0.192
-443.836	320.614	0.224	-0.423
-442.822	-20.862	0.143	0.087
-441.807	509.350	0.089	-0.205
-440.792	129.463	0.130	-0.165
-439.778	-7.497	-0.109	-0.073
-438.763	11.852	0.025	-0.019
-437.749	686.995	0.058	0.151
-436.734	-62.773	-0.231	0.095
-435.719	111.524	0.089	-0.107
-434.705	-200.000	0.054	-0.348
-433.690	23.012	0.184	-0.150
-432.676	21.854	-0.249	0.201
-431.661	-200.000	-0.010	0.357
-430.646	800.000	-0.028	0.096
-429.632	106.798	-0.240	-0.283
-428.617	334.006	0.120	0.231
-427.603	100.090	-0.176	0.202
-426.588	637.788	0.046	0.116
-425.573	400.359	-0.113	0.234
-424.559	-42.417	-0.186	-0.094
-423.544	-138.365	-0.239	0.026
-422.530	-148.535	0.181	0.015
-421.515	-179.450	-0.277	-0.006
-420.500	800.000	0.083	0.270
-419.486	122.574	-0.053	0.066
-418.471	800.000	0.043	0.142
-417.457	184.800	-0.073	0.107
-416.442	-44.526	0.268	-0.133
-415.428	127.527	-0.223	0.281
-414.413	60.824	0.139	0.137
-413.398	-146.065	0.044	-0.004
-412.384	-110.002	-0.116	-0.024
-411.369	800.000	-0.028	0.096
-410.355	217.509	0.332	0.526
-409.340	-200.000	0.081	0.375
-408.325	468.771	-0.056	0.125
-407.311	-200.000	0.046	0.310
-406.296	-3.119	-0.290	-0.201
-405.282	-36.813	-0.145	-0.077
-404.267	-117.027	-0.063	0.011
-403.252	74.671	0.057	0.060
-402.238	269.353	-0.099	0.173
-401.223	-200.000	0.043	0.243
-400.209	30.544	-0.307	-0.260
-399.194	64.196	0.071	-0.071
-398.179	-141.412	-0.139	0.014
-397.165	-200.000	-0.016	-0.231
-396.150	-200.000	0.018	-0.119
-395.136	-52.294	0.358	0.164
-394.121	275.437	0.079	-0.139
-393.106	-58.963	0.050	-0.021
-392.092	292.800	-0.076	0.137
-391.077	-52.588	0.184	0.084
-390.063	139.656	0.063	-0.082
-389.048	749.637	0.048	-0.128
-388.033	-168.165	-0.405	0.016
-387.019	319.843	0.037	0.070
-386.004	-94.769	0.279	0.075
-384.990	192.992	-0.127	-0.190
-383.975	-82.642	0.201	0.065
-382.960	124.135	0.061	0.077
-381.946	-85.098	-0.197	0.061
-380.931	800.000	0.061	0.199
-379.917	800.000	0.126	0.397
-378.902	-78.244	-0.268	0.091
-377.888	289.058	-0.121	0.218
-376.873	16.012	-0.140	0.109
-375.858	435.984	0.184	0.396
-374.844	800.000	0.036	0.103
-373.829	100.262	-0.114	0.132
-372.815	-110.574	-0.324	-0.066
-371.800	-200.000	0.031	0.334
-370.785	1.971	-0.202	-0.144
-369.771	-30.161	0.238	-0.134
-368.756	-200.000	0.035	-0.201
-367.742	-107.849	0.262	-0.057
-366.727	142.092	0.227	-0.298
-365.712	-56.678	-0.157	-0.069
-364.698	-60.472	-0.322	-0.135
-363.683	251.700	-0.195	-0.330
-362.669	-69.872	-0.055	-0.021
-361.654	-200.000	0.039	-0.187
-360.639	57.859	-0.370	0.359
-359.625	135.857	0.076	-0.098
-358.610	-122.265	0.336	0.054
-357.596	-107.954	-0.143	-0.031
-356.581	179.542	0.163	0.237
-355.566	-200.000	0.006	-0.391
-354.552	74.976	0.066	-0.069
-353.537	-12.760	-0.079	-0.051
-352.523	-64.620	-0.122	-0.049
-351.508	-200.000	0.007	0.268
-350.493	-44.053	0.369	0.183
-349.479	-96.106	-0.304	-0.080
-348.464	800.000	-0.023	-0.067
-347.450	-122.262	0.140	0.023
-346.435	186.449	0.095	0.140
-345.420	42.198	0.067	-0.061
-344.406	800.000	0.026	-0.076
-343.391	-73.089	0.165	-0.060
-342.377	-200.000	0.025	-0.188
-341.362	-200.000	0.016	-0.204
-340.348	-69.954	-0.044	0.017
-339.333	-200.000	0.009	0.052
-338.318	154.526	-0.167	0.227
-337.304	-200.000	0.002	0.181
-336.289	99.211	0.138	0.158
-335.275	100.260	-0.217	-0.249
-334.260	-28.855	-0.126	0.072
-333.245	-69.269	-0.114	-0.043
-332.231	-73.002	0.296	-0.107
-331.216	-200.000	0.043	-0.206
-330.202	-200.000	0.056	-0.311
-329.187	-49.110	-0.254	0.120
-328.172	-37.522	-0.302	0.159
-327.158	22.824	-0.246	-0.200
-326.143	-27.338	0.128	-0.074
-325.129	-22.010	-0.230	-0.138
-324.114	36.756	0.226	-0.197
-323.099	-76.085	0.097	0.034
-322.085	432.462	-0.055	-0.117
-321.070	-154.406	0.101	0.007
-320.056	-108.264	-0.350	-0.075
-319.041	-200.000	-0.293	-0.000
-318.026	-68.357	-0.210	-0.081
-317.012	-101.338	-0.156	-0.038
-315.997	-65.925	0.145	0.057
-314.983	-100.523	-0.147	-0.036
-313.968	800.000	0.114	-0.359
-312.953	-175.135	0.276	0.008
-311.939	-200.000	0.034	-0.355
-310.924	-85.336	0.194	0.060
-309.910	-200.000	-0.022	-0.117
-308.895	-200.000	0.004	0.115
-307.880	-35.946	0.107	0.057
-306.866	800.000	-0.047	0.188
-305.851	4.222	-0.136	0.099
-304.837	86.911	0.140	-0.152
-303.822	-183.131	-0.345	-0.006
-302.807	-121.569	-0.243	0.040
-301.793	209.831	0.042	-0.065
-300.778	8.423	-0.039	0.029
-299.764	-96.248	-0.264	0.069
-298.749	-57.721	0.240	0.104
-297.735	-126.742	0.374	0.055
-296.720	-95.484	-0.269	0.071
-295.705	472.917	-0.089	0.198
-294.691	-167.152	-0.273	-0.011
-293.676	243.405	-0.099	-0.164
-292.662	-41.205	-0.205	0.104
-291.647	-200.000	-0.007	-0.097
-290.632	173.935	-0.078	0.111
-289.618	44.262	-0.171	-0.155
-288.603	-150.996	0.683	-0.051
-287.589	-99.991	-0.237	0.058
-286.574	-40.558	0.197	0.101
-285.559	800.000	-0.083	0.257
-284.545	-57.040	0.207	0.090
-283.530	130.450	-0.159	0.201
-282.516	72.164	0.279	0.287
-281.501	-200.000	0.037	-0.242
-280.486	-200.000	0.002	-0.152
-279.472	-110.135	0.170	-0.035
-278.457	-44.097	-0.200	0.099
-277.443	23.979	0.142	0.115
-276.428	14.222	-0.098	-0.075
-275.413	-114.933	0.027	-0.005
-274.399	145.961	-0.057	-0.075
-273.384	-200.000	0.006	-0.054
-272.370	300.436	-0.138	-0.251
-271.355	396.777	0.059	-0.122
-270.340	-200.000	-0.023	-0.121
-269.326	-200.000	-0.032	0.198
-268.311	1.050	0.185	-0.131
-267.297	-200.000	0.003	0.026
-266.282	128.836	0.174	0.219
-265.267	-113.410	0.327	-0.063
-264.253	466.850	-0.061	0.135
-263.238	-115.622	-0.145	-0.027
-262.224	-164.365	-0.345	0.016
-261.209	36.160	0.349	-0.303
-260.195	-47.919	0.425	0.203
-259.180	-85.391	-0.103	-0.032
-258.165	-39.416	0.070	0.036
-257.151	800.000	-0.071	0.204
-256.136	122.676	-0.168	-0.208
-255.122	235.457	0.076	0.124
-254.107	467.302	0.051	-0.113
-253.092	-132.035	-0.240	-0.031
-252.078	1.793	-0.331	-0.235
-251.063	-93.144	-0.249	0.068
-250.049	-61.257	-0.118	-0.049
-249.034	333.189	0.040	0.077
-248.019	-41.498	0.315	0.160
-247.005	-200.000	-0.044	0.286
-245.990	-200.000	0.021	-0.144
-244.976	62.571	0.186	0.183
-243.961	61.765	-0.267	0.262
-242.946	43.689	0.135	-0.122
-241.932	-50.744	0.189	0.088
-240.917	68.371	-0.086	-0.087
-239.903	176.656	-0.046	-0.066
-238.888	800.000	0.047	0.133
-237.873	-19.356	-0.265	0.162
-236.859	119.820	0.103	0.126
-235.844	-108.388	0.230	-0.049
-234.830	-200.000	0.279	-0.001
-233.815	443.330	0.190	-0.410
-232.800	210.903	0.200	0.310
-231.786	-16.175	0.243	-0.152
-230.771	74.596	-0.261	0.271
-229.757	800.000	-0.174	0.515
-228.742	-200.000	-0.040	0.311
-227.727	400.632	-0.091	0.187
-226.713	18.447	0.382	0.301
-225.698	110.875	-0.107	0.126
-224.684	-200.000	0.022	0.370
-223.669	180.580	0.116	-0.168
-222.655	203.617	-0.061	-0.094
-221.640	21.438	0.177	-0.142
-220.625	77.507	-0.070	-0.074
-219.611	-200.000	0.003	0.184
-218.596	-71.599	-0.349	0.128
-217.582	424.486	0.172	0.365
-216.567	161.869	-0.116	0.160
-215.552	157.880	0.162	0.221
-214.538	53.882	-0.195	0.185
-213.523	-129.165	-0.262	0.036
-212.509	-137.025	-0.330	-0.037
-211.494	416.105	-0.068	-0.143
-210.479	800.000	-0.066	-0.265
-209.465	-182.109	0.224	-0.004
-208.450	800.000	0.020	-0.068
-207.436	608.063	0.010	0.025
-206.421	206.273	0.117	0.179
-205.406	212.512	-0.046	-0.071
-204.392	-118.176	0.185	0.033
-203.377	-4.655	0.312	-0.212
-202.363	-200.000	0.005	0.087
-201.348	40.945	0.042	0.037
-200.333	122.170	-0.042	-0.052
-199.319	-71.958	0.175	0.064
-198.304	23.231	0.157	0.127
-197.290	-200.000	0.015	-0.310
-196.275	-200.000	0.029	0.173
-195.260	-92.399	0.232	-0.064
-194.246	-168.949	-0.297	-0.011
-193.231	-200.000	-0.028	0.178
-192.217	-71.836	-0.069	-0.025
-191.202	606.680	0.078	0.191
-190.187	4.087	-0.229	0.165
-189.173	-56.038	-0.141	-0.062
-188.158	-189.537	-0.290	0.003
-187.144	496.106	0.148	0.335
-186.129	800.000	0.041	-0.144
-185.114	258.883	-0.256	-0.434
-184.100	-200.000	0.019	0.145
-183.085	177.278	0.062	-0.088
-182.071	85.869	-0.305	0.330
-181.056	-22.218	-0.083	-0.049
-180.042	97.302	0.219	-0.247
-179.027	-59.495	0.075	0.032
-178.012	-83.771	0.223	0.070
-176.998	-51.780	-0.132	-0.060
-175.983	-120.169	0.221	0.037
-174.969	-200.000	0.015	-0.140
-173.954	367.334	-0.068	-0.136
-172.939	-1.033	-0.222	-0.154
-171.925	-200.000	0.076	0.351
-170.910	32.738	-0.377	0.321
-169.896	-200.000	0.009	0.238
-168.881	-120.637	0.217	-0.036
-167.866	-149.057	-0.212	-0.017
-166.852	-68.804	-0.061	0.023
-165.837	-134.823	0.236	-0.028
-164.823	-57.648	0.228	0.098
-163.808	-200.000	0.062	-0.321
-162.793	-200.000	-0.017	0.136
-161.779	800.000	-0.016	-0.052
-160.764	165.128	-0.191	0.264
-159.750	-39.517	0.259	-0.133
-158.735	-68.279	0.289	0.111
-157.720	-200.000	-0.011	0.234
-156.706	-180.363	0.195	-0.004
-155.691	329.861	0.084	-0.160
-154.677	800.000	-0.062	0.197
-153.662	-123.751	0.515	0.080
-152.647	295.666	0.124	-0.223
-151.633	-200.000	-0.026	0.207
-150.618	276.897	0.035	0.061
-149.604	-59.362	-0.082	-0.035
-148.589	14.347	-0.113	-0.087
-147.574	361.758	0.125	-0.246
-146.560	94.326	0.120	0.134
-145.545	742.146	0.090	0.238
-144.531	-106.121	-0.253	0.056
-143.516	-200.000	-0.048	0.212
-142.502	79.921	-0.143	0.151
-141.487	800.000	0.019	-0.076
-140.472	-147.176	0.080	-0.007
-139.458	-161.180	-0.389	0.020
-138.443	-129.717	0.203	0.027
-137.429	-26.574	0.071	-0.041
-136.414	-200.000	0.007	0.246
-135.399	-200.000	0.034	-0.242
-134.385	433.569	0.045	0.095
-133.370	-156.616	0.165	-0.010
-132.356	394.274	-0.076	-0.155
-131.341	800.000	0.082	-0.238
-130.326	-30.110	-0.177	-0.099
-129.312	800.000	-0.037	0.121
-128.297	-96.859	-0.199	-0.051
-127.283	-59.776	-0.400	0.168
-126.268	-50.612	0.108	0.050
-125.253	-200.000	-0.050	-0.301
-124.239	-52.551	0.105	0.047
-123.224	-83.499	-0.410	0.129
-122.210	-138.208	0.226	0.025
-121.195	-161.231	0.290	-0.015
