DTS Sentinel unit serial number:	SN413079Multiplexer serial number:	ORYXHardware model number:	OX4-SRSoftware version number:	ORYX F/W v4.00 Oryx Data Collector v3.7.2.0data status	okinstallation	princeton_trtdifferential loss correction	single-endedforward channel	channel 4reverse channel	N/Adate	2019/09/18time	17:13:35forward acquisition time	60.00reverse acquisition time	0.00gamma	496.2192k internal	0.2290k external	0.2290temperature offset calibration	1.0007default loss term (dB/km)	0.3790temperature slope calibration	1.0000multiplexer offset coefficient	1.0000multiplexer slope coefficient	1.0000fibre end	0.00T internal ref (°C)	39.86T ext. ref 1 (°C)	0.88T ext. ref 2 (°C)	35.34length (m)	temperature (°C)	Stokes	anti-Stokes-747.200	163.499	-0.133	0.191
-746.185	-200.000	-0.006	0.280
-745.171	-200.000	0.015	0.173
-744.156	-124.782	0.543	0.086
-743.142	800.000	-0.017	-0.070
-742.127	3.486	-0.113	0.085
-741.112	-97.952	-0.317	-0.084
-740.098	-200.000	-0.013	0.230
-739.083	-59.704	-0.134	-0.059
-738.069	458.911	0.027	0.062
-737.054	151.836	0.100	-0.139
-736.039	-138.322	-0.200	-0.023
-735.025	-162.394	0.349	-0.018
-734.010	800.000	0.035	0.132
-732.996	28.414	0.247	0.214
-731.981	314.534	0.101	0.194
-730.966	177.304	0.249	0.371
-729.952	-200.000	-0.019	-0.172
-728.937	-9.966	-0.254	0.173
-727.923	80.138	-0.163	-0.180
-726.908	-9.525	-0.083	0.057
-725.894	82.135	-0.063	0.069
-724.879	-200.000	0.024	-0.107
-723.864	-16.723	-0.093	0.061
-722.850	10.096	0.255	-0.198
-721.835	8.308	-0.289	0.222
-720.821	498.138	-0.051	0.120
-719.806	-200.000	-0.037	-0.306
-718.791	168.122	-0.097	0.141
-717.777	-156.620	-0.284	-0.018
-716.762	352.919	-0.056	-0.113
-715.748	-125.327	0.488	-0.076
-714.733	800.000	-0.037	-0.150
-713.718	-25.593	0.219	-0.132
-712.704	444.661	0.113	-0.254
-711.689	99.572	0.075	-0.089
-710.675	-143.649	-0.274	-0.027
-709.660	158.580	0.147	0.209
-708.645	-200.000	-0.003	-0.062
-707.631	74.519	-0.067	0.072
-706.616	385.275	0.148	0.312
-705.602	11.863	-0.218	-0.171
-704.587	15.389	0.081	-0.065
-703.572	-27.115	-0.090	0.054
-702.558	165.939	-0.086	0.124
-701.543	25.915	-0.104	0.088
-700.529	61.187	0.230	0.233
-699.514	-3.795	-0.175	0.124
-698.499	-200.000	0.006	-0.212
-697.485	73.721	0.120	-0.129
-696.470	-200.000	-0.036	0.210
-695.456	800.000	0.060	-0.175
-694.441	117.807	0.210	-0.264
-693.426	800.000	0.064	0.243
-692.412	-122.374	-0.312	-0.052
-691.397	79.532	0.095	-0.104
-690.383	-150.985	0.113	-0.009
-689.368	-200.000	-0.024	0.167
-688.354	-200.000	-0.017	-0.247
-687.339	-148.291	-0.040	-0.003
-686.324	800.000	0.007	0.029
-685.310	53.666	-0.381	0.373
-684.295	-90.987	0.215	-0.063
-683.281	-89.139	-0.363	0.110
-682.266	14.934	0.323	-0.258
-681.251	473.289	0.142	-0.326
-680.237	-200.000	0.084	-0.429
-679.222	-200.000	-0.035	-0.239
-678.208	211.740	-0.162	-0.260
-677.193	-168.845	0.229	-0.009
-676.178	-51.376	0.134	0.064
-675.164	-46.944	-0.267	0.133
-674.149	-25.150	0.501	0.303
-673.135	155.546	-0.037	0.052
-672.120	800.000	-0.047	-0.155
-671.105	122.226	-0.109	-0.139
-670.091	222.613	0.068	0.111
-669.076	-91.228	-0.094	0.028
-668.062	-21.407	0.253	-0.157
-667.047	-82.421	0.123	0.041
-666.032	266.610	-0.111	-0.199
-665.018	-200.000	0.043	0.300
-664.003	114.940	0.252	0.314
-662.989	-46.243	0.073	-0.037
-661.974	102.101	0.033	-0.039
-660.959	776.900	-0.126	0.350
-659.945	-61.943	0.069	-0.030
-658.930	46.166	0.112	-0.106
-657.916	335.929	0.107	0.212
-656.901	177.546	-0.149	-0.221
-655.886	-200.000	0.074	0.395
-654.872	273.792	-0.055	-0.100
-653.857	57.344	0.119	-0.118
-652.843	-200.000	0.003	-0.177
-651.828	800.000	0.044	0.147
-650.814	800.000	-0.050	-0.171
-649.799	-102.334	-0.263	-0.064
-648.784	237.654	0.170	-0.288
-647.770	331.697	-0.164	-0.323
-646.755	-200.000	-0.043	-0.230
-645.741	-71.493	0.291	-0.111
-644.726	251.900	0.139	0.242
-643.711	263.196	0.153	0.271
-642.697	51.583	0.271	0.263
-641.682	87.795	-0.031	0.035
-640.668	-112.375	0.103	0.021
-639.653	74.711	-0.149	0.160
-638.638	-76.490	-0.193	-0.069
-637.624	-146.571	0.157	-0.014
-636.609	-163.238	-0.178	0.009
-635.595	1.417	0.172	-0.126
-634.580	-200.000	-0.020	-0.278
-633.565	284.429	-0.155	0.284
-632.551	800.000	-0.078	0.323
-631.536	448.619	0.057	-0.128
-630.522	-200.000	-0.013	0.113
-629.507	-10.808	-0.191	0.129
-628.492	-200.000	-0.007	-0.189
-627.478	-68.693	-0.247	0.097
-626.463	-200.000	-0.001	-0.059
-625.449	800.000	0.032	0.131
-624.434	-200.000	-0.003	-0.100
-623.419	800.000	0.036	-0.110
-622.405	-200.000	-0.016	-0.444
-621.390	-47.164	0.130	0.065
-620.376	-200.000	-0.002	0.061
-619.361	-200.000	-0.061	0.000
-618.346	42.688	-0.159	-0.147
-617.332	-200.000	-0.035	0.158
-616.317	-32.328	0.171	-0.097
-615.303	-35.777	-0.197	0.109
-614.288	-118.149	0.159	-0.029
-613.273	-200.000	-0.022	-0.134
-612.259	-62.085	-0.128	-0.054
-611.244	-200.000	-0.022	0.191
-610.230	-24.594	0.051	0.031
-609.215	-83.178	-0.383	-0.126
-608.201	72.500	0.185	-0.197
-607.186	-200.000	0.010	-0.183
-606.171	-56.169	-0.031	0.014
-605.157	15.733	-0.207	0.166
-604.142	-9.253	0.354	0.241
-603.128	210.818	-0.161	0.258
-602.113	-146.508	0.222	0.020
-601.098	-127.904	0.176	0.026
-600.084	-146.809	0.232	0.020
-599.069	107.202	-0.113	-0.136
-598.055	-200.000	0.064	0.285
-597.040	-111.022	-0.352	-0.074
-596.025	58.917	0.206	-0.207
-595.011	-30.145	-0.162	0.094
-593.996	-200.000	-0.093	0.528
-592.982	-79.686	-0.324	-0.111
-591.967	800.000	-0.010	0.038
-590.952	58.983	0.230	-0.231
-589.938	-123.515	-0.056	0.009
-588.923	91.890	0.202	-0.231
-587.909	-64.105	0.142	0.059
-586.894	79.395	0.190	0.207
-585.879	-95.775	-0.236	-0.064
-584.865	-150.082	0.217	0.017
-583.850	783.991	-0.034	0.095
-582.836	5.389	-0.262	-0.197
-581.821	-125.405	-0.293	0.046
-580.806	-39.659	-0.405	-0.216
-579.792	-32.662	0.214	0.121
-578.777	18.963	-0.208	-0.170
-577.763	800.000	-0.052	0.186
-576.748	383.761	0.051	-0.108
-575.733	11.147	0.378	0.294
-574.719	168.220	-0.087	-0.126
-573.704	-2.980	-0.158	-0.112
-572.690	66.013	0.190	-0.196
-571.675	-26.573	-0.251	-0.150
-570.661	-200.000	0.050	-0.414
-569.646	260.876	0.012	-0.022
-568.631	12.253	-0.143	0.112
-567.617	-14.581	-0.251	0.164
-566.602	-78.308	0.048	0.017
-565.588	-79.806	-0.350	0.120
-564.573	285.377	-0.131	-0.241
-563.558	-200.000	0.027	-0.168
-562.544	47.452	0.193	-0.183
-561.529	-74.427	0.067	0.024
-560.515	-200.000	-0.011	-0.202
-559.500	-125.905	0.107	-0.016
-558.485	213.967	-0.186	-0.298
-557.471	2.721	-0.231	-0.170
-556.456	-200.000	0.004	-0.089
-555.442	-149.249	-0.228	0.018
-554.427	-200.000	0.029	0.191
-553.412	19.538	0.371	-0.304
-552.398	324.369	0.135	-0.262
-551.383	649.450	0.045	-0.118
-550.369	33.691	0.447	0.396
-549.354	800.000	0.059	0.227
-548.339	-73.330	-0.172	-0.064
-547.325	38.448	-0.314	-0.285
-546.310	93.027	0.062	-0.071
-545.296	-154.230	0.051	0.004
-544.281	-72.501	0.468	-0.176
-543.266	15.960	0.288	-0.230
-542.252	-200.000	-0.026	0.172
-541.237	536.081	-0.137	0.330
-540.223	192.372	-0.020	-0.030
-539.208	128.773	-0.313	-0.406
-538.193	-117.756	0.117	-0.021
-537.179	100.574	0.095	-0.112
-536.164	-200.000	-0.051	-0.292
-535.150	530.816	-0.033	-0.080
-534.135	-4.420	0.197	0.138
-533.121	-200.000	0.032	-0.332
-532.106	800.000	-0.008	-0.033
-531.091	421.041	-0.012	0.027
-530.077	-80.379	-0.418	-0.142
-529.062	800.000	-0.023	-0.070
-528.048	70.984	0.259	0.272
-527.033	-84.024	-0.080	-0.026
-526.018	-200.000	0.055	0.356
-525.004	-200.000	-0.005	0.108
-523.989	-154.375	0.195	0.013
-522.975	-200.000	0.032	-0.198
-521.960	426.852	-0.067	0.147
-520.945	-70.386	0.143	0.055
-519.931	343.684	-0.149	-0.296
-518.916	-92.395	-0.110	-0.032
-517.902	669.340	-0.066	-0.173
-516.887	-113.660	-0.376	0.074
-515.872	-86.282	-0.332	-0.104
-514.858	-30.006	-0.074	0.043
-513.843	-59.691	-0.296	0.129
-512.829	-25.387	0.279	-0.167
-511.814	-200.000	-0.003	0.330
-510.799	201.530	0.125	-0.196
-509.785	800.000	-0.034	-0.119
-508.770	58.820	0.244	-0.243
-507.756	-4.035	-0.132	-0.093
-506.741	434.069	-0.144	0.318
-505.726	299.065	0.186	0.347
-504.712	29.474	0.161	0.139
-503.697	21.870	0.057	-0.047
-502.683	-182.410	-0.122	-0.002
-501.668	776.856	-0.053	0.147
-500.653	164.189	-0.107	0.153
-499.639	107.963	-0.241	0.292
-498.624	4.744	-0.327	-0.244
-497.610	-35.900	0.062	0.034
-496.595	-200.000	0.031	0.245
-495.581	309.921	0.021	-0.039
-494.566	800.000	0.033	0.100
-493.551	150.474	0.187	0.257
-492.537	537.845	0.057	-0.138
-491.522	491.421	-0.198	-0.459
-490.508	74.241	0.061	-0.065
-489.493	285.939	0.129	0.236
-488.478	-158.681	0.213	0.012
-487.464	-200.000	-0.047	0.213
-486.449	-63.221	-0.272	0.114
-485.435	736.294	-0.069	0.188
-484.420	-96.496	-0.186	0.050
-483.405	89.167	-0.168	-0.190
-482.391	192.815	-0.084	-0.129
-481.376	-132.960	-0.257	0.033
-480.362	57.681	0.136	0.135
-479.347	308.351	0.103	0.196
-478.332	-144.982	-0.257	-0.024
-477.318	-134.523	-0.277	-0.034
-476.303	-68.040	-0.159	-0.063
-475.289	33.180	0.121	0.107
-474.274	-200.000	-0.011	0.067
-473.259	-200.000	0.057	0.379
-472.245	-114.249	0.223	-0.044
-471.230	-200.000	-0.015	0.080
-470.216	648.349	0.128	-0.332
-469.201	95.172	0.046	-0.054
-468.186	-15.060	-0.316	-0.205
-467.172	-200.000	-0.004	-0.252
-466.157	-70.911	0.077	0.029
-465.143	96.358	-0.149	-0.173
-464.128	1.027	-0.148	-0.108
-463.113	270.221	0.085	0.151
-462.099	-70.608	0.048	0.018
-461.084	-50.043	0.232	0.111
-460.070	800.000	0.054	-0.175
-459.055	79.824	-0.054	-0.058
-458.040	164.244	0.131	-0.186
-457.026	-125.961	-0.170	-0.026
-456.011	104.977	-0.167	-0.200
-454.997	-98.223	0.310	-0.081
-453.982	-84.557	-0.029	-0.009
-452.968	-56.879	0.085	-0.038
-451.953	-104.547	-0.038	-0.009
-450.938	5.790	0.370	0.277
-449.924	-28.352	0.076	0.044
-448.909	34.340	-0.162	-0.143
-447.895	136.732	-0.089	-0.118
-446.880	345.878	0.077	-0.153
-445.865	95.637	-0.150	0.174
-444.851	800.000	-0.100	0.376
-443.836	308.866	-0.177	-0.336
-442.822	-200.000	0.003	-0.078
-441.807	-200.000	0.047	0.448
-440.792	37.185	-0.166	0.149
-439.778	441.212	0.028	-0.062
-438.763	800.000	0.081	0.277
-437.749	32.496	-0.168	-0.147
-436.734	575.653	0.087	-0.215
-435.719	-200.000	0.015	0.238
-434.705	-200.000	-0.052	-0.285
-433.690	-10.747	0.131	0.088
-432.676	-18.772	-0.168	-0.106
-431.661	-10.687	-0.046	-0.031
-430.646	-108.267	-0.226	-0.049
-429.632	204.687	0.029	-0.045
-428.617	-200.000	0.038	-0.338
-427.603	-4.546	0.354	-0.247
-426.588	800.000	0.017	-0.068
-425.573	39.824	-0.246	0.224
-424.559	316.305	-0.163	-0.312
-423.544	-140.580	0.390	0.041
-422.530	-200.000	-0.009	-0.257
-421.515	58.092	-0.126	0.124
-420.500	365.004	-0.139	0.284
-419.486	-9.444	-0.367	0.248
-418.471	-1.015	-0.039	0.028
-417.457	166.554	0.095	0.135
-416.442	-88.287	0.091	0.028
-415.428	132.390	0.172	-0.224
-414.413	-89.254	0.297	-0.089
-413.398	-200.000	0.022	-0.299
-412.384	489.840	-0.114	0.263
-411.369	391.392	0.033	0.070
-410.355	100.246	0.051	-0.060
-409.340	205.185	-0.104	0.164
-408.325	-200.000	-0.011	0.169
-407.311	-17.241	0.163	0.104
-406.296	-200.000	0.033	0.332
-405.282	25.393	0.253	-0.213
-404.267	800.000	0.157	0.474
-403.252	18.246	0.215	0.173
-402.238	800.000	0.082	0.299
-401.223	-75.323	0.264	-0.095
-400.209	106.504	0.218	0.261
-399.194	9.520	-0.323	-0.247
-398.179	418.677	-0.157	-0.339
-397.165	-200.000	0.013	0.200
-396.150	-200.000	0.096	-0.471
-395.136	455.280	-0.080	0.178
-394.121	709.855	0.044	-0.117
-393.106	77.960	-0.113	-0.122
-392.092	800.000	0.070	-0.217
-391.077	-30.044	-0.095	0.055
-390.063	-18.220	0.108	0.069
-389.048	800.000	0.061	-0.183
-388.033	800.000	-0.056	-0.214
-387.019	-131.233	-0.045	-0.006
-386.004	-79.118	0.164	-0.056
-384.990	800.000	-0.040	0.129
-383.975	23.482	0.239	-0.199
-382.960	717.047	0.079	0.212
-381.946	-10.748	-0.099	0.066
-380.931	136.764	-0.121	0.160
-379.917	-24.904	-0.078	0.047
-378.902	-63.567	-0.406	-0.168
-377.888	-29.621	-0.104	-0.060
-376.873	97.611	0.116	0.134
-375.858	218.193	-0.110	0.177
-374.844	49.241	0.120	0.114
-373.829	484.913	0.141	-0.324
-372.815	50.062	0.136	-0.129
-371.800	725.276	-0.041	0.111
-370.785	-133.540	0.319	-0.040
-369.771	133.355	0.237	0.310
-368.756	-157.903	-0.297	-0.018
-367.742	-54.564	-0.075	-0.034
-366.727	-89.115	-0.400	-0.119
-365.712	800.000	0.014	0.044
-364.698	94.192	-0.184	-0.211
-363.683	256.347	-0.172	0.298
-362.669	-120.928	-0.193	-0.033
-361.654	-111.182	0.110	0.023
-360.639	800.000	-0.118	-0.394
-359.625	-25.231	0.178	-0.106
-358.610	-126.063	-0.334	0.051
-357.596	41.100	0.105	-0.096
-356.581	-85.547	0.355	0.112
-355.566	297.736	0.086	0.160
-354.552	800.000	-0.075	-0.294
-353.537	-200.000	0.004	0.036
-352.523	-200.000	-0.021	0.229
-351.508	-200.000	-0.016	-0.143
-350.493	449.703	-0.069	0.153
-349.479	16.560	-0.185	-0.148
-348.464	-119.365	-0.193	-0.034
-347.450	-68.904	-0.344	-0.134
-346.435	21.657	-0.158	0.130
-345.420	-78.217	0.278	-0.096
-344.406	-84.576	0.264	0.084
-343.391	-200.000	0.049	0.430
-342.377	800.000	0.072	-0.262
-341.362	-136.360	0.265	0.031
-340.348	134.157	0.131	-0.171
-339.333	-3.410	-0.100	0.070
-338.318	392.570	-0.072	0.151
-337.304	-200.000	-0.047	-0.335
-336.289	-188.541	0.220	0.003
-335.275	-79.673	-0.258	0.088
-334.260	186.474	0.165	-0.247
-333.245	-164.470	0.212	-0.010
-332.231	-15.856	0.285	0.183
-331.216	800.000	0.049	0.193
-330.202	213.751	0.061	-0.097
-329.187	-116.038	0.166	-0.031
-328.172	-63.853	0.224	0.092
-327.158	382.310	-0.174	-0.360
-326.143	3.071	0.311	-0.228
-325.129	-200.000	0.015	-0.358
-324.114	-60.720	-0.166	-0.071
-323.099	-200.000	-0.030	-0.148
-322.085	73.803	-0.206	-0.218
-321.070	-129.810	-0.189	0.026
-320.056	587.601	0.075	0.185
-319.041	-91.825	-0.156	-0.045
-318.026	-34.359	-0.179	-0.099
-317.012	-77.521	-0.163	-0.057
-315.997	354.426	0.031	0.062
-314.983	141.835	-0.057	0.076
-313.968	-200.000	0.005	-0.421
-312.953	-39.131	-0.389	0.206
-311.939	57.645	-0.056	0.055
-310.924	-40.945	-0.148	0.077
-309.910	124.208	0.114	0.144
-308.895	-155.353	-0.058	0.004
-307.880	-22.916	0.143	-0.087
-306.866	800.000	0.057	-0.179
-305.851	155.687	-0.118	0.164
-304.837	-100.861	0.251	0.062
-303.822	1.440	0.135	0.098
-302.807	-38.405	0.074	-0.039
-301.793	-200.000	0.026	-0.143
-300.778	-6.548	0.075	0.051
-299.764	-200.000	0.001	0.196
-298.749	34.003	0.071	-0.062
-297.735	-200.000	-0.024	0.144
-296.720	-7.660	0.061	-0.041
-295.705	16.944	0.078	-0.062
-294.691	33.908	0.202	-0.177
-293.676	-200.000	-0.023	-0.150
-292.662	-200.000	-0.020	0.139
-291.647	-80.923	-0.390	0.130
-290.632	-133.768	0.273	-0.034
-289.618	-200.000	0.001	-0.329
-288.603	-175.208	0.158	0.004
-287.589	235.361	0.080	0.133
-286.574	-200.000	0.055	0.279
-285.559	-36.294	-0.256	0.139
-284.545	-33.435	0.217	-0.121
-283.530	51.049	-0.054	0.052
-282.516	800.000	0.055	0.236
-281.501	-200.000	0.051	-0.277
-280.486	272.312	-0.138	-0.244
-279.472	-200.000	0.054	-0.365
-278.457	331.241	0.037	-0.071
-277.443	-84.762	0.371	-0.117
-276.428	-104.043	-0.334	0.078
-275.413	800.000	-0.107	0.303
-274.399	800.000	0.117	0.484
-273.384	-137.152	0.158	-0.018
-272.370	-154.794	-0.246	-0.016
-271.355	-200.000	-0.003	0.339
-270.340	-13.378	0.289	-0.188
-269.326	21.970	0.266	0.218
-268.311	-60.071	0.182	0.078
-267.297	4.432	-0.272	0.201
-266.282	-200.000	-0.002	0.037
-265.267	800.000	-0.043	-0.139
-264.253	-130.155	0.199	0.027
-263.238	287.854	-0.144	0.262
-262.224	800.000	-0.006	0.025
-261.209	649.918	0.101	0.260
-260.195	-73.746	-0.034	0.012
-259.180	-105.919	0.252	0.057
-258.165	-89.071	-0.162	-0.048
-257.151	-64.890	-0.209	-0.085
-256.136	800.000	0.015	-0.045
-255.122	-89.121	-0.153	0.046
-254.107	462.290	0.023	0.051
-253.092	-153.966	0.307	0.021
-252.078	800.000	-0.030	-0.083
-251.063	-30.674	-0.507	0.289
-250.049	-158.107	0.502	-0.030
-249.034	-108.490	0.096	0.021
-248.019	7.254	-0.065	0.049
-247.005	34.176	-0.147	0.129
-245.990	-167.242	-0.144	-0.006
-244.976	630.311	0.079	0.202
-243.961	284.314	0.146	0.264
-242.946	22.893	-0.023	0.019
-241.932	697.789	0.086	0.228
-240.917	-94.975	-0.143	-0.039
-239.903	82.155	0.141	0.153
-238.888	-59.139	0.173	0.075
-237.873	-200.000	0.033	0.321
-236.859	-166.868	0.509	0.021
-235.844	-168.331	0.052	-0.002
-234.830	-154.547	-0.061	0.004
-233.815	113.172	0.149	0.181
-232.800	221.531	0.102	0.165
-231.786	178.346	-0.221	-0.324
-230.771	69.773	-0.132	-0.137
-229.757	-160.008	-0.224	0.012
-228.742	-200.000	0.014	-0.181
-227.727	656.804	0.089	0.230
-226.713	-200.000	0.026	0.127
-225.698	800.000	0.079	0.268
-224.684	-200.000	-0.006	0.029
-223.669	117.439	0.066	-0.081
-222.655	-123.998	-0.095	-0.015
-221.640	-200.000	0.000	0.177
-220.625	315.239	0.119	0.225
-219.611	31.198	-0.324	0.279
-218.596	59.971	-0.048	0.047
-217.582	356.483	0.183	0.366
-216.567	-34.217	0.111	0.061
-215.552	-95.153	0.250	0.068
-214.538	800.000	-0.055	0.175
-213.523	367.647	-0.029	0.059
-212.509	-200.000	0.027	0.495
-211.494	-38.685	-0.265	0.140
-210.479	21.617	0.224	0.183
-209.465	800.000	0.189	-0.576
-208.450	3.624	-0.243	0.178
-207.436	-109.804	0.296	0.062
-206.421	-80.812	0.213	-0.071
-205.406	173.914	-0.168	-0.244
-204.392	-88.614	0.168	0.050
-203.377	-73.576	0.101	-0.037
-202.363	-13.536	-0.294	-0.191
-201.348	48.669	0.183	0.172
-200.333	98.804	0.031	0.036
-199.319	-19.290	-0.231	-0.144
-198.304	800.000	0.091	-0.364
-197.290	-200.000	-0.008	-0.102
-196.275	-166.743	-0.178	0.007
-195.260	111.663	-0.186	-0.225
-194.246	800.000	-0.028	-0.115
-193.231	800.000	0.037	-0.103
-192.217	-47.842	0.214	-0.104
-191.202	44.744	0.268	-0.247
-190.187	310.422	0.234	0.439
-189.173	-65.317	-0.134	0.054
-188.158	-170.813	-0.325	-0.011
-187.144	-51.874	-0.103	-0.048
-186.129	800.000	0.104	0.376
-185.114	-29.442	-0.263	-0.151
-184.100	19.389	0.096	-0.077
-183.085	-34.629	0.256	0.141
-182.071	800.000	0.118	-0.350
-181.056	-190.620	-0.214	-0.002
-180.042	-22.593	-0.061	-0.037
-179.027	800.000	-0.087	0.349
-178.012	-200.000	0.005	-0.189
-176.998	-119.973	-0.107	-0.018
-175.983	2.716	0.289	0.210
-174.969	-131.069	0.216	-0.029
-173.954	6.282	0.238	-0.177
-172.939	-19.333	-0.246	0.153
-171.925	800.000	0.044	-0.157
-170.910	76.319	0.183	-0.195
-169.896	-0.683	-0.262	0.186
-168.881	41.511	0.275	0.249
-167.866	582.692	0.160	0.393
-166.852	-80.772	-0.249	-0.083
-165.837	39.342	-0.229	0.206
-164.823	-91.394	-0.126	0.036
-163.808	108.858	0.159	-0.190
-162.793	646.615	0.066	-0.169
-161.779	-109.093	-0.310	0.066
-160.764	314.490	0.156	0.293
-159.750	-200.000	0.087	0.389
-158.735	-68.477	0.125	-0.049
-157.720	57.605	-0.282	-0.276
-156.706	-200.000	0.003	-0.690
-155.691	504.798	0.051	-0.117
-154.677	-64.517	0.209	0.085
-153.662	-51.123	0.096	-0.045
-152.647	31.633	-0.150	-0.129
-151.633	164.758	-0.131	-0.185
-150.618	-16.164	0.057	-0.036
-149.604	800.000	0.057	0.217
-148.589	375.031	0.185	-0.377
-147.574	-105.139	0.369	-0.084
-146.560	800.000	-0.059	-0.213
-145.545	-144.897	-0.156	-0.014
-144.531	-25.657	-0.252	-0.149
-143.516	735.756	-0.050	-0.134
-142.502	-15.568	0.389	0.248
-141.487	-200.000	-0.006	0.050
-140.472	-26.727	-0.099	0.058
-139.458	-200.000	0.051	-0.274
-138.443	138.172	0.125	-0.164
-137.429	82.514	0.098	-0.107
-136.414	-87.582	-0.223	0.067
-135.399	-20.060	-0.072	0.044
-134.385	204.105	0.166	0.257
-133.370	-200.000	-0.021	0.273
-132.356	-82.654	0.108	0.035
-131.341	-200.000	-0.014	-0.146
-130.326	-104.736	0.218	-0.050
-129.312	-134.808	-0.070	-0.009
-128.297	-127.478	-0.364	-0.053
-127.283	-69.870	-0.160	0.061
-126.268	-104.887	0.082	0.019
-125.253	236.539	0.061	-0.102
-124.239	55.097	-0.084	-0.081
-123.224	575.154	-0.031	-0.076
-122.210	-200.000	-0.001	0.175
-121.195	-27.173	0.250	0.146
-120.180	-170.363	0.171	-0.006
