DTS Sentinel unit serial number:	SN413079Multiplexer serial number:	ORYXHardware model number:	OX4-SRSoftware version number:	ORYX F/W v4.00 Oryx Data Collector v3.7.2.0data status	okinstallation	princeton_trtdifferential loss correction	single-endedforward channel	channel 4reverse channel	N/Adate	2019/09/13time	10:45:35forward acquisition time	60.00reverse acquisition time	0.00gamma	496.2192k internal	0.2305k external	0.2305temperature offset calibration	1.0191default loss term (dB/km)	0.3790temperature slope calibration	1.0000multiplexer offset coefficient	1.0000multiplexer slope coefficient	1.0000fibre end	0.00T internal ref (°C)	31.56T ext. ref 1 (°C)	4.59T ext. ref 2 (°C)	28.38length (m)	temperature (°C)	Stokes	anti-Stokes-747.200	108.887	0.142	0.172
-746.185	-105.941	0.221	0.051
-745.171	-47.575	0.222	0.110
-744.156	737.017	-0.069	0.187
-743.142	800.000	-0.094	0.269
-742.127	800.000	0.030	-0.098
-741.112	-136.199	0.183	0.022
-740.098	135.619	-0.077	-0.102
-739.083	13.944	-0.324	-0.257
-738.069	-69.278	-0.232	0.091
-737.054	-139.007	0.251	0.028
-736.039	-135.224	-0.280	0.034
-735.025	-55.006	0.207	-0.095
-734.010	470.384	-0.123	-0.280
-732.996	-62.389	-0.244	-0.103
-731.981	800.000	-0.064	-0.194
-730.966	298.594	0.120	-0.224
-729.952	306.835	-0.061	-0.116
-728.937	-8.863	-0.067	-0.046
-727.923	52.356	0.089	0.087
-726.908	82.598	-0.165	0.183
-725.894	85.306	-0.113	-0.127
-724.879	-200.000	-0.000	0.080
-723.864	317.881	0.096	-0.185
-722.850	-161.185	-0.225	-0.012
-721.835	198.316	-0.199	0.309
-720.821	43.041	-0.095	0.088
-719.806	356.079	0.198	0.400
-718.791	582.353	0.055	0.136
-717.777	-133.344	-0.250	0.032
-716.762	159.362	0.140	-0.198
-715.748	-38.437	-0.067	0.036
-714.733	-64.751	-0.242	-0.100
-713.718	14.718	-0.347	-0.276
-712.704	99.561	-0.093	-0.109
-711.689	-200.000	0.004	-0.023
-710.675	-92.490	-0.135	-0.039
-709.660	71.030	0.148	-0.156
-708.645	33.471	-0.158	-0.139
-707.631	4.425	-0.022	-0.017
-706.616	-157.481	-0.105	-0.006
-705.602	-86.282	0.315	-0.099
-704.587	101.449	-0.337	-0.399
-703.572	-9.989	0.266	0.180
-702.558	-200.000	-0.085	0.394
-701.543	-55.331	-0.225	0.103
-700.529	177.934	-0.147	-0.217
-699.514	127.798	0.258	-0.333
-698.499	-45.399	-0.378	-0.191
-697.485	80.320	0.078	0.085
-696.470	-66.951	-0.235	0.094
-695.456	-51.350	-0.261	-0.124
-694.441	733.749	-0.062	-0.170
-693.426	78.503	-0.172	-0.186
-692.412	-115.321	-0.145	-0.028
-691.397	280.093	0.091	0.166
-690.383	-200.000	-0.047	-0.340
-689.368	301.986	-0.097	-0.182
-688.354	-47.101	0.294	0.146
-687.339	5.602	-0.130	0.097
-686.324	-200.000	0.036	-0.195
-685.310	1.866	-0.306	-0.224
-684.295	3.477	0.119	0.088
-683.281	800.000	-0.024	-0.087
-682.266	66.489	0.188	-0.194
-681.251	85.678	-0.188	-0.210
-680.237	-200.000	-0.070	-0.429
-679.222	-37.331	0.056	-0.030
-678.208	353.244	-0.118	0.237
-677.193	0.346	-0.274	0.199
-676.178	194.010	0.008	0.013
-675.164	-200.000	0.004	0.069
-674.149	-200.000	-0.001	-0.095
-673.135	-200.000	-0.005	-0.329
-672.120	-200.000	0.009	-0.123
-671.105	195.000	0.061	-0.094
-670.091	304.540	-0.225	0.423
-669.076	-26.307	-0.233	0.139
-668.062	-200.000	0.040	-0.259
-667.047	-126.897	-0.195	0.029
-666.032	199.520	-0.176	0.274
-665.018	-146.694	-0.232	0.020
-664.003	231.613	-0.058	0.096
-662.989	-200.000	-0.044	-0.200
-661.974	322.829	-0.038	-0.074
-660.959	-179.360	-0.089	0.002
-659.945	-200.000	0.089	-0.434
-658.930	-135.766	0.233	-0.028
-657.916	485.000	-0.062	-0.144
-656.901	272.592	-0.081	0.145
-655.886	143.477	0.141	-0.190
-654.872	557.956	-0.087	-0.212
-653.857	800.000	0.049	0.170
-652.843	-48.488	-0.115	-0.056
-651.828	524.092	-0.081	-0.192
-650.814	-200.000	0.047	-0.258
-649.799	-170.827	0.182	0.006
-648.784	438.307	-0.155	-0.343
-647.770	-3.554	0.170	-0.120
-646.755	800.000	-0.091	-0.398
-645.741	191.611	-0.139	-0.212
-644.726	717.939	-0.104	-0.281
-643.711	800.000	0.133	0.432
-642.697	-70.388	-0.236	-0.091
-641.682	-4.902	0.172	0.120
-640.668	89.782	-0.006	0.007
-639.653	-84.174	0.045	-0.015
-638.638	74.292	-0.270	-0.288
-637.624	113.783	-0.124	0.153
-636.609	-200.000	-0.004	-0.054
-635.595	-33.363	-0.063	-0.035
-634.580	-63.978	-0.255	-0.106
-633.565	27.179	0.251	-0.213
-632.551	-200.000	-0.013	-0.074
-631.536	-126.488	-0.277	-0.042
-630.522	-102.926	-0.219	-0.053
-629.507	-200.000	0.056	-0.510
-628.492	71.719	-0.173	-0.182
-627.478	-97.782	-0.283	-0.074
-626.463	-113.097	0.148	-0.030
-625.449	84.382	-0.317	0.351
-624.434	-47.588	-0.295	-0.145
-623.419	70.727	0.101	0.106
-622.405	800.000	0.028	-0.096
-621.390	-22.913	-0.353	-0.216
-620.376	-200.000	-0.048	-0.432
-619.361	-11.296	-0.194	-0.129
-618.346	71.521	-0.152	0.159
-617.332	-173.538	0.074	-0.002
-616.317	-69.004	-0.212	0.083
-615.303	-29.970	0.308	-0.177
-614.288	-138.827	0.300	-0.033
-613.273	147.801	-0.050	-0.068
-612.259	222.552	0.233	-0.381
-611.244	800.000	-0.069	-0.205
-610.230	800.000	-0.026	-0.112
-609.215	-81.577	-0.312	0.104
-608.201	-200.000	-0.004	0.075
-607.186	30.832	-0.062	0.054
-606.171	-88.972	0.029	-0.009
-605.157	-200.000	0.005	-0.036
-604.142	731.991	0.057	-0.154
-603.128	-52.216	-0.101	-0.047
-602.113	800.000	-0.067	-0.266
-601.098	-140.081	0.069	-0.007
-600.084	-26.055	-0.150	-0.089
-599.069	176.253	-0.121	-0.177
-598.055	-32.991	0.241	0.136
-597.040	-8.032	-0.148	-0.101
-596.025	-174.424	-0.181	-0.005
-595.011	-200.000	-0.067	0.307
-593.996	39.264	0.064	0.058
-592.982	-86.956	0.093	-0.029
-591.967	445.741	-0.124	-0.275
-590.952	800.000	0.128	-0.464
-589.938	642.975	0.087	0.225
-588.923	8.422	0.099	0.075
-587.909	-200.000	-0.003	-0.033
-586.894	-151.308	-0.253	0.019
-585.879	-18.189	0.120	-0.076
-584.865	-87.735	0.137	0.042
-583.850	299.001	0.011	0.020
-582.836	-200.000	0.000	0.165
-581.821	-16.927	-0.055	-0.035
-580.806	-58.526	-0.210	-0.092
-579.792	30.268	0.175	0.151
-578.777	664.469	-0.147	0.385
-577.763	282.572	-0.195	0.354
-576.748	-200.000	-0.033	0.307
-575.733	58.968	-0.317	0.315
-574.719	-69.598	0.166	-0.064
-573.704	-200.000	-0.032	-0.234
-572.690	-25.954	-0.299	0.178
-571.675	-200.000	-0.006	0.056
-570.661	-24.351	0.123	0.074
-569.646	-101.684	0.111	0.027
-568.631	44.443	0.278	-0.258
-567.617	-19.790	-0.111	0.069
-566.602	126.528	0.340	0.434
-565.588	-61.265	-0.312	0.133
-564.573	-163.024	0.211	0.010
-563.558	-200.000	0.055	0.324
-562.544	-125.095	-0.393	0.061
-561.529	52.963	-0.014	0.014
-560.515	152.084	-0.034	0.047
-559.500	60.699	-0.200	-0.200
-558.485	-200.000	-0.048	0.224
-557.471	-41.478	0.264	0.137
-556.456	-72.067	-0.176	-0.066
-555.442	-123.298	-0.268	0.043
-554.427	-67.862	-0.189	0.075
-553.412	-21.428	-0.201	-0.124
-552.398	-21.282	0.378	0.234
-551.383	800.000	0.024	-0.072
-550.369	-200.000	-0.001	-0.058
-549.354	-200.000	-0.030	-0.305
-548.339	109.863	0.230	-0.278
-547.325	-45.098	-0.211	-0.106
-546.310	-200.000	0.008	-0.217
-545.296	541.075	0.085	0.205
-544.281	800.000	-0.057	0.199
-543.266	-124.978	0.269	0.042
-542.252	-37.407	-0.268	-0.144
-541.237	-200.000	-0.010	-0.341
-540.223	699.699	0.052	0.137
-539.208	125.299	0.047	0.060
-538.193	645.591	0.065	-0.167
-537.179	-18.074	-0.123	-0.078
-536.164	-200.000	-0.061	0.398
-535.150	-30.581	-0.107	-0.061
-534.135	22.341	-0.089	-0.073
-533.121	800.000	-0.049	0.147
-532.106	-200.000	0.024	-0.162
-531.091	-164.168	-0.253	0.012
-530.077	106.747	0.091	-0.109
-529.062	800.000	-0.060	-0.255
-528.048	190.396	-0.152	0.231
-527.033	-200.000	-0.020	0.177
-526.018	-61.231	0.147	0.063
-525.004	277.631	0.123	0.221
-523.989	115.967	0.121	0.150
-522.975	246.725	-0.264	0.450
-521.960	-200.000	-0.022	0.155
-520.945	800.000	0.146	-0.517
-519.931	800.000	0.077	0.267
-518.916	800.000	0.041	-0.121
-517.902	2.653	0.361	-0.264
-516.887	800.000	0.036	-0.140
-515.872	800.000	-0.019	0.080
-514.858	168.619	-0.103	0.148
-513.843	-51.941	0.158	0.074
-512.829	-9.642	0.195	0.131
-511.814	800.000	0.095	-0.277
-510.799	800.000	-0.080	0.280
-509.785	-200.000	0.051	-0.324
-508.770	127.032	-0.180	-0.230
-507.756	401.537	0.049	0.105
-506.741	-32.275	0.129	0.073
-505.726	484.680	-0.092	0.210
-504.712	800.000	-0.025	0.100
-503.697	257.965	-0.144	0.251
-502.683	695.060	-0.081	-0.213
-501.668	290.698	0.104	-0.191
-500.653	343.183	0.035	-0.069
-499.639	195.966	-0.061	-0.094
-498.624	195.870	-0.136	-0.209
-497.610	392.687	-0.030	0.062
-496.595	264.764	0.138	0.243
-495.581	400.885	0.146	0.309
-494.566	800.000	-0.062	0.190
-493.551	80.637	-0.019	-0.021
-492.537	-16.849	0.250	-0.159
-491.522	-200.000	0.037	-0.212
-490.508	800.000	-0.045	0.156
-489.493	-121.593	-0.308	-0.051
-488.478	-148.999	-0.312	-0.025
-487.464	-123.729	-0.129	-0.021
-486.449	509.672	0.101	-0.236
-485.435	-90.082	-0.226	0.066
-484.420	-48.894	-0.150	-0.072
-483.405	-138.920	-0.209	-0.023
-482.391	800.000	0.021	0.088
-481.376	156.259	0.143	0.199
-480.362	-170.483	-0.255	0.009
-479.347	-188.213	0.142	-0.002
-478.332	437.798	-0.079	-0.173
-477.318	-175.023	-0.144	-0.004
-476.303	72.498	-0.147	0.155
-475.289	27.680	0.124	-0.105
-474.274	708.882	-0.160	-0.426
-473.259	-90.601	-0.404	-0.117
-472.245	714.065	0.049	-0.132
-471.230	-13.136	-0.159	-0.104
-470.216	-200.000	-0.018	0.262
-469.201	-11.285	0.244	0.162
-468.186	-200.000	-0.019	-0.110
-467.172	-200.000	-0.022	0.215
-466.157	-200.000	-0.014	0.348
-465.143	-200.000	0.052	0.310
-464.128	707.053	-0.048	-0.128
-463.113	-29.564	0.224	-0.129
-462.099	124.032	0.184	0.233
-461.084	-74.991	0.194	0.070
-460.070	-200.000	0.026	0.242
-459.055	89.996	0.079	0.088
-458.040	-20.372	0.112	-0.070
-457.026	123.083	0.066	-0.083
-456.011	203.445	-0.131	0.204
-454.997	-76.016	-0.231	-0.082
-453.982	-50.278	-0.308	0.147
-452.968	-194.114	0.210	0.002
-451.953	-200.000	0.044	-0.219
-450.938	-28.513	0.193	0.112
-449.924	-200.000	-0.039	0.206
-448.909	153.467	-0.128	0.176
-447.895	182.551	-0.222	0.329
-446.880	251.599	0.029	0.049
-445.865	-82.406	0.366	0.120
-444.851	211.093	0.061	-0.097
-443.836	-200.000	0.018	0.177
-442.822	800.000	-0.037	-0.140
-441.807	72.775	0.116	0.122
-440.792	-48.039	-0.079	0.039
-439.778	-158.313	0.204	0.012
-438.763	579.668	0.083	-0.205
-437.749	-148.197	0.260	0.022
-436.734	-2.024	-0.144	-0.102
-435.719	-90.565	0.288	-0.084
-434.705	-146.916	0.193	0.017
-433.690	800.000	-0.028	-0.102
-432.676	-156.380	0.451	-0.028
-431.661	-135.759	-0.553	-0.066
-430.646	800.000	0.142	-0.435
-429.632	-5.985	0.082	0.057
-428.617	141.432	-0.077	-0.103
-427.603	291.522	0.113	0.206
-426.588	234.558	-0.070	-0.116
-425.573	79.195	0.210	-0.227
-424.559	-200.000	-0.019	-0.114
-423.544	26.392	-0.110	0.092
-422.530	-51.441	0.113	-0.053
-421.515	-25.895	0.053	0.031
-420.500	31.026	0.366	0.316
-419.486	431.461	-0.131	0.286
-418.471	-200.000	-0.010	-0.320
-417.457	151.696	-0.203	-0.278
-416.442	361.788	0.077	-0.155
-415.428	-125.614	0.186	0.028
-414.413	-18.276	0.141	-0.089
-413.398	730.210	0.135	-0.361
-412.384	-200.000	0.032	0.273
-411.369	-179.246	0.256	-0.006
-410.355	-9.034	0.037	-0.025
-409.340	-200.000	0.013	-0.108
-408.325	-39.552	0.176	0.092
-407.311	-76.124	-0.229	0.081
-406.296	15.454	-0.074	-0.058
-405.282	-38.543	-0.328	0.174
-404.267	58.931	-0.236	-0.233
-403.252	-200.000	-0.050	0.359
-402.238	268.413	-0.194	0.341
-401.223	-23.124	-0.155	0.093
-400.209	-20.053	0.007	0.004
-399.194	164.374	-0.142	-0.201
-398.179	800.000	-0.066	0.210
-397.165	-151.993	0.044	-0.003
-396.150	-115.720	0.258	0.048
-395.136	800.000	0.089	0.264
-394.121	454.170	-0.206	-0.457
-393.106	669.694	0.061	-0.158
-392.092	-200.000	0.071	-0.448
-391.077	-29.946	0.178	0.101
-390.063	-18.284	-0.101	-0.063
-389.048	-51.147	-0.167	-0.079
-388.033	215.426	0.019	-0.030
-387.019	-76.703	0.389	-0.137
-386.004	-200.000	-0.007	0.057
-384.990	-200.000	-0.020	0.260
-383.975	19.917	0.213	-0.172
-382.960	412.964	0.088	0.187
-381.946	-200.000	0.016	0.299
-380.931	-200.000	-0.076	-0.388
-379.917	-21.775	-0.122	-0.075
-378.902	68.068	0.090	-0.092
-377.888	800.000	-0.060	-0.253
-376.873	800.000	-0.083	0.306
-375.858	-75.581	-0.107	-0.038
-374.844	211.514	0.030	-0.048
-373.829	-200.000	-0.015	0.170
-372.815	-200.000	-0.018	-0.101
-371.800	-200.000	-0.009	0.289
-370.785	-200.000	0.102	0.479
-369.771	237.271	-0.210	0.349
-368.756	-200.000	-0.008	-0.153
-367.742	-50.148	0.298	0.141
-366.727	-34.143	0.049	0.027
-365.712	62.328	0.143	0.143
-364.698	-107.310	-0.154	-0.034
-363.683	11.502	0.143	-0.110
-362.669	-200.000	0.006	0.332
-361.654	7.174	0.102	-0.076
-360.639	-38.107	0.227	-0.121
-359.625	647.281	-0.084	0.215
-358.610	-28.108	0.246	-0.143
-357.596	800.000	-0.052	-0.179
-356.581	-200.000	-0.058	0.537
-355.566	800.000	-0.082	0.319
-354.552	65.207	-0.109	0.111
-353.537	0.967	0.161	-0.116
-352.523	514.507	0.041	-0.096
-351.508	414.041	-0.095	0.203
-350.493	-73.703	-0.014	0.005
-349.479	-43.556	0.385	0.195
-348.464	-151.134	-0.271	-0.020
-347.450	93.951	-0.153	0.174
-346.435	-200.000	-0.060	-0.374
-345.420	800.000	0.097	-0.306
-344.406	-183.209	0.198	-0.003
-343.391	484.838	-0.053	0.122
-342.377	-158.493	0.106	-0.006
-341.362	305.453	-0.170	-0.316
-340.348	-110.384	-0.253	0.053
-339.333	-91.073	-0.221	0.063
-338.318	800.000	-0.091	0.362
-337.304	-121.936	0.181	-0.030
-336.289	-66.689	0.204	0.081
-335.275	-42.063	0.341	0.175
-334.260	196.105	-0.177	0.270
-333.245	95.836	-0.142	-0.162
-332.231	-123.345	-0.186	-0.030
-331.216	547.606	0.083	0.199
-330.202	800.000	0.058	0.201
-329.187	-160.406	-0.137	0.007
-328.172	450.655	0.058	0.128
-327.158	-159.441	-0.492	-0.027
-326.143	800.000	-0.010	-0.042
-325.129	-118.183	0.218	0.039
-324.114	148.930	0.016	-0.021
-323.099	500.360	0.048	-0.112
-322.085	6.176	0.412	0.306
-321.070	-54.779	0.350	0.158
-320.056	800.000	-0.060	0.238
-319.041	10.314	0.098	-0.075
-318.026	-70.111	-0.096	0.036
-317.012	-117.929	0.271	-0.049
-315.997	-13.640	-0.156	0.101
-314.983	348.520	-0.151	0.299
-313.968	195.611	0.189	-0.287
-312.953	-200.000	-0.012	0.154
-311.939	118.340	0.042	0.052
-310.924	71.155	-0.202	-0.210
-309.910	53.318	0.230	0.221
-308.895	-21.660	0.135	-0.082
-307.880	100.948	0.186	-0.217
-306.866	800.000	-0.086	-0.295
-305.851	-124.530	0.100	-0.016
-304.837	-28.687	0.161	-0.093
-303.822	210.562	-0.095	-0.149
-302.807	558.525	0.076	0.185
-301.793	-2.297	0.116	-0.081
-300.778	32.480	-0.104	0.090
-299.764	-54.633	0.249	-0.113
-298.749	-8.803	0.173	0.116
-297.735	-107.525	0.174	-0.038
-296.720	-7.927	0.144	-0.097
-295.705	-60.357	0.384	-0.163
-294.691	197.107	-0.149	0.227
-293.676	-103.167	-0.087	0.021
-292.662	-200.000	-0.012	0.183
-291.647	-89.173	-0.186	0.055
-290.632	209.212	0.067	0.104
-289.618	800.000	0.192	-0.613
-288.603	120.387	0.230	-0.286
-287.589	324.690	0.076	-0.145
-286.574	-178.195	-0.175	0.004
-285.559	-18.933	0.019	-0.012
-284.545	150.021	0.244	-0.331
-283.530	-200.000	-0.083	0.384
-282.516	-20.844	-0.232	-0.142
-281.501	246.266	-0.111	-0.187
-280.486	502.630	-0.109	-0.252
-279.472	-126.067	0.390	0.058
-278.457	800.000	0.020	0.079
-277.443	-121.623	0.225	0.037
-276.428	-200.000	-0.066	-0.445
-275.413	-200.000	0.052	-0.348
-274.399	641.965	-0.036	0.092
-273.384	-73.518	0.132	0.048
-272.370	8.676	0.141	-0.106
-271.355	800.000	-0.032	-0.112
-270.340	350.183	0.121	0.239
-269.326	18.544	0.179	0.143
-268.311	5.017	-0.218	0.160
-267.297	164.419	0.044	0.062
-266.282	475.757	-0.096	-0.217
-265.267	400.266	-0.044	-0.092
-264.253	-107.110	0.243	0.053
-263.238	50.563	0.177	0.167
-262.224	151.480	0.076	-0.103
-261.209	78.210	0.140	-0.149
-260.195	-21.315	0.072	-0.044
-259.180	104.723	0.075	0.088
-258.165	-200.000	-0.321	0.000
-257.151	130.093	-0.097	0.124
-256.136	81.975	0.210	-0.227
-255.122	800.000	0.018	-0.075
-254.107	102.534	-0.341	0.398
-253.092	101.376	0.304	-0.353
-252.078	-200.000	0.020	0.137
-251.063	372.409	0.154	-0.312
-250.049	156.282	-0.292	-0.403
-249.034	432.894	-0.037	0.080
-248.019	-147.273	0.071	0.006
-247.005	-93.189	0.138	0.038
-245.990	191.620	0.176	-0.265
-244.976	-200.000	0.008	0.134
-243.961	-200.000	-0.004	0.107
-242.946	359.931	-0.043	0.086
-241.932	215.067	0.009	0.014
-240.917	-123.487	-0.289	-0.046
-239.903	-105.024	-0.226	-0.052
-238.888	24.770	-0.067	-0.055
-237.873	230.764	0.066	-0.108
-236.859	-200.000	0.033	-0.247
-235.844	-200.000	0.028	-0.295
-234.830	-13.312	0.140	0.090
-233.815	800.000	0.019	0.073
-232.800	-19.842	-0.390	-0.241
-231.786	-49.606	-0.173	0.082
-230.771	-200.000	-0.026	0.191
-229.757	29.918	-0.180	-0.153
-228.742	2.289	0.363	-0.262
-227.727	619.380	-0.052	-0.130
-226.713	-200.000	-0.006	-0.148
-225.698	-125.520	-0.208	0.032
-224.684	420.411	-0.243	0.520
-223.669	-103.373	-0.210	-0.049
-222.655	800.000	-0.035	0.145
-221.640	56.604	-0.347	-0.337
-220.625	-19.213	0.077	0.048
-219.611	-200.000	0.009	-0.143
-218.596	193.052	-0.054	-0.082
-217.582	779.190	0.116	-0.316
-216.567	252.749	-0.123	-0.208
-215.552	-200.000	0.012	-0.111
-214.538	146.318	0.147	0.196
-213.523	309.592	0.023	0.042
-212.509	800.000	-0.080	0.344
-211.494	26.581	-0.239	0.199
-210.479	62.002	0.109	-0.108
-209.465	212.595	0.074	-0.117
-208.450	-59.270	0.284	-0.122
-207.436	-200.000	-0.001	0.205
-206.421	73.481	-0.136	0.142
-205.406	800.000	0.080	0.242
-204.392	800.000	-0.033	-0.139
-203.377	-111.539	-0.198	-0.040
-202.363	5.449	-0.262	0.193
-201.348	800.000	0.039	-0.139
-200.333	-8.067	-0.195	0.131
-199.319	297.727	-0.073	0.134
-198.304	-174.391	0.354	0.010
-197.290	800.000	0.030	0.115
-196.275	-200.000	0.040	0.223
-195.260	-200.000	-0.007	0.157
-194.246	200.111	0.126	0.192
-193.231	-110.691	-0.222	-0.046
-192.217	800.000	-0.036	-0.143
-191.202	283.813	0.035	-0.062
-190.187	-200.000	0.056	0.289
-189.173	212.081	0.081	-0.127
-188.158	-200.000	-0.037	-0.179
-187.144	343.430	0.079	-0.155
-186.129	-135.918	0.362	-0.042
-185.114	662.741	-0.059	0.150
-184.100	-200.000	-0.031	0.213
-183.085	-96.465	0.302	0.079
-182.071	800.000	0.116	0.318
-181.056	-75.238	0.287	0.102
-180.042	271.929	0.100	0.175
-179.027	9.980	-0.406	0.307
-178.012	-90.226	0.208	-0.060
-176.998	23.999	-0.108	-0.088
-175.983	276.912	-0.119	-0.211
-174.969	-200.000	-0.022	-0.227
-173.954	200.153	0.194	-0.296
-172.939	-62.527	0.219	0.091
-171.925	800.000	-0.010	0.040
-170.910	-200.000	-0.069	0.320
-169.896	-112.670	-0.395	-0.078
-168.881	-169.158	0.355	-0.013
-167.866	-3.314	-0.022	0.015
-166.852	800.000	0.019	0.058
-165.837	-135.199	0.277	-0.033
-164.823	68.589	0.116	0.118
-163.808	186.362	-0.125	-0.185
-162.793	191.403	0.094	-0.140
-161.779	570.152	-0.130	-0.315
-160.764	-96.581	-0.152	0.040
-159.750	-53.535	0.240	0.109
-158.735	-42.398	-0.293	-0.148
-157.720	37.001	0.247	0.217
-156.706	-8.529	0.111	-0.074
-155.691	0.272	-0.206	-0.146
-154.677	763.897	-0.143	0.385
-153.662	341.895	-0.107	0.208
-152.647	-200.000	-0.043	0.367
-151.633	-102.117	-0.224	0.054
-150.618	183.207	0.139	-0.204
-149.604	45.296	-0.057	-0.053
-148.589	-123.934	0.308	-0.048
-147.574	-137.109	0.205	-0.023
-146.560	800.000	0.033	-0.097
-145.545	93.985	-0.055	-0.061
-144.531	-19.777	0.043	-0.027
-143.516	800.000	-0.060	-0.192
-142.502	-200.000	0.088	-0.528
-141.487	410.117	-0.106	-0.223
-140.472	-73.317	-0.163	0.059
-139.458	65.105	-0.236	-0.237
-138.443	-85.532	-0.202	-0.062
-137.429	800.000	-0.100	0.301
-136.414	-200.000	0.012	0.231
-135.399	169.612	0.102	-0.145
-134.385	283.796	-0.174	0.311
-133.370	-200.000	0.004	0.193
-132.356	-5.855	0.277	0.189
-131.341	-67.553	-0.056	-0.022
-130.326	46.713	-0.140	-0.129
-129.312	93.793	0.142	0.159
-128.297	-72.106	-0.246	-0.091
-127.283	-20.657	0.232	0.141
-126.268	123.831	0.011	0.014
-125.253	-133.540	0.204	0.025
-124.239	-73.315	-0.385	-0.140
-123.224	297.897	-0.092	-0.169
-122.210	-142.771	0.200	0.019
