DTS Sentinel unit serial number:	SN413079Multiplexer serial number:	ORYXHardware model number:	OX4-SRSoftware version number:	ORYX F/W v4.00 Oryx Data Collector v3.7.2.0data status	okinstallation	princeton_trtdifferential loss correction	single-endedforward channel	channel 4reverse channel	N/Adate	2019/09/19time	07:09:35forward acquisition time	60.00reverse acquisition time	0.00gamma	496.2192k internal	0.2339k external	0.2339temperature offset calibration	1.0027default loss term (dB/km)	0.3790temperature slope calibration	1.0000multiplexer offset coefficient	1.0000multiplexer slope coefficient	1.0000fibre end	0.00T internal ref (°C)	19.02T ext. ref 1 (°C)	0.56T ext. ref 2 (°C)	13.26length (m)	temperature (°C)	Stokes	anti-Stokes-747.200	-110.493	0.271	0.056
-746.185	-111.056	-0.152	-0.031
-745.171	-112.984	-0.128	-0.025
-744.156	-63.464	-0.187	-0.077
-743.142	72.120	0.075	0.078
-742.127	-109.737	0.062	-0.013
-741.112	-3.717	0.189	0.132
-740.098	-0.567	-0.365	0.260
-739.083	-116.839	0.360	0.066
-738.069	21.292	0.150	0.122
-737.054	-200.000	-0.038	-0.195
-736.039	-200.000	0.015	0.080
-735.025	93.869	-0.122	0.138
-734.010	195.316	0.141	0.215
-732.996	108.309	-0.176	-0.210
-731.981	91.379	-0.118	-0.133
-730.966	-112.358	0.096	0.019
-729.952	16.782	-0.243	0.193
-728.937	-200.000	0.041	-0.259
-727.923	-174.759	-0.075	-0.002
-726.908	-200.000	-0.034	-0.267
-725.894	800.000	0.072	-0.282
-724.879	16.122	-0.224	-0.177
-723.864	48.419	-0.287	-0.270
-722.850	3.881	0.108	0.079
-721.835	-200.000	-0.007	0.062
-720.821	800.000	-0.029	-0.121
-719.806	-200.000	0.074	-0.405
-718.791	167.566	-0.084	0.120
-717.777	-47.700	-0.322	0.157
-716.762	-200.000	0.423	0.001
-715.748	-200.000	0.014	0.128
-714.733	800.000	-0.096	0.302
-713.718	74.954	-0.166	-0.175
-712.704	-50.726	0.341	-0.161
-711.689	-137.663	-0.391	-0.044
-710.675	-59.326	-0.168	-0.072
-709.660	-123.276	0.363	0.058
-708.645	800.000	0.093	-0.388
-707.631	204.968	-0.133	-0.207
-706.616	-103.549	-0.118	0.028
-705.602	539.553	-0.017	-0.041
-704.587	-93.879	-0.355	0.098
-703.572	-19.004	0.281	0.175
-702.558	-200.000	-0.000	0.030
-701.543	-200.000	-0.034	-0.208
-700.529	94.603	0.089	0.102
-699.514	-72.023	0.068	0.025
-698.499	-81.132	-0.178	0.059
-697.485	-200.000	0.002	-0.219
-696.470	-41.670	-0.068	-0.035
-695.456	66.996	0.252	-0.257
-694.441	-200.000	-0.009	-0.088
-693.426	-179.784	0.074	0.002
-692.412	-77.000	-0.256	0.090
-691.397	316.291	-0.147	0.278
-690.383	800.000	0.071	-0.295
-689.368	-161.450	0.147	-0.008
-688.354	-94.316	0.114	0.031
-687.339	-89.137	0.051	-0.015
-686.324	-86.247	-0.245	0.076
-685.310	57.642	-0.104	-0.102
-684.295	-200.000	0.033	0.148
-683.281	368.820	0.150	-0.304
-682.266	-66.935	-0.351	-0.139
-681.251	-123.294	-0.211	-0.034
-680.237	-200.000	0.018	0.270
-679.222	-125.669	-0.208	-0.031
-678.208	-23.485	-0.039	-0.023
-677.193	653.211	-0.154	-0.395
-676.178	289.820	-0.085	0.153
-675.164	-23.698	-0.208	0.125
-674.149	-28.256	0.167	-0.096
-673.135	800.000	0.074	-0.300
-672.120	515.215	0.065	0.151
-671.105	34.200	-0.084	-0.073
-670.091	-200.000	0.012	0.263
-669.076	800.000	-0.036	-0.114
-668.062	502.332	0.176	-0.407
-667.047	-200.000	-0.004	-0.300
-666.032	64.201	0.028	0.028
-665.018	-147.313	0.181	0.015
-664.003	-113.179	-0.195	0.038
-662.989	-84.865	-0.336	0.106
-661.974	-136.752	0.416	-0.048
-660.959	-20.107	0.185	0.114
-659.945	800.000	0.024	0.084
-658.930	247.981	0.158	-0.267
-657.916	800.000	-0.038	0.121
-656.901	-72.382	-0.136	0.050
-655.886	-30.798	-0.157	0.089
-654.872	464.976	0.030	-0.066
-653.857	98.920	-0.093	-0.107
-652.843	-200.000	-0.008	0.085
-651.828	46.840	-0.086	-0.080
-650.814	100.000	0.100	0.116
-649.799	35.251	0.064	-0.056
-648.784	-200.000	0.029	0.251
-647.770	-25.832	-0.335	-0.197
-646.755	-32.329	0.177	0.099
-645.741	-44.122	0.093	0.047
-644.726	47.516	-0.307	0.286
-643.711	55.377	0.199	0.192
-642.697	46.750	0.076	0.070
-641.682	94.908	-0.154	-0.175
-640.668	554.082	-0.100	0.239
-639.653	96.538	0.072	0.082
-638.638	-45.465	-0.104	-0.052
-637.624	361.333	-0.092	-0.185
-636.609	-145.694	-0.067	-0.006
-635.595	183.910	-0.137	0.202
-634.580	466.751	-0.141	-0.316
-633.565	5.980	-0.229	-0.170
-632.551	-57.483	-0.340	0.149
-631.536	-105.726	-0.233	0.053
-630.522	413.283	-0.087	0.185
-629.507	26.541	0.133	-0.111
-628.492	526.725	0.073	-0.171
-627.478	800.000	-0.087	0.252
-626.463	-143.229	-0.259	0.025
-625.449	-200.000	-0.023	-0.119
-624.434	-66.641	0.160	0.063
-623.419	-200.000	-0.022	0.188
-622.405	-180.320	-0.144	-0.003
-621.390	205.389	-0.069	-0.107
-620.376	-200.000	0.023	0.136
-619.361	185.957	-0.143	0.213
-618.346	-200.000	0.041	0.224
-617.332	800.000	-0.102	-0.366
-616.317	-200.000	-0.016	0.074
-615.303	175.026	-0.023	0.033
-614.288	-200.000	-0.044	-0.221
-613.273	-163.583	0.301	0.014
-612.259	-200.000	0.085	0.431
-611.244	148.654	-0.077	0.103
-610.230	-159.259	-0.166	0.009
-609.215	800.000	0.049	0.213
-608.201	-76.358	0.102	0.036
-607.186	129.045	-0.177	-0.226
-606.171	19.834	-0.068	-0.055
-605.157	-200.000	0.057	-0.278
-604.142	88.623	0.249	-0.276
-603.128	-106.364	-0.400	0.089
-602.113	74.450	0.178	0.187
-601.098	-85.353	0.246	-0.077
-600.084	18.761	-0.164	-0.131
-599.069	94.429	-0.053	-0.060
-598.055	-18.737	0.307	-0.191
-597.040	59.322	0.048	0.048
-596.025	800.000	-0.046	-0.184
-595.011	175.591	-0.151	-0.218
-593.996	-86.553	-0.405	0.124
-592.982	-137.761	-0.179	0.020
-591.967	231.883	0.041	-0.066
-590.952	-70.346	-0.394	-0.149
-589.938	800.000	0.038	-0.132
-588.923	7.632	0.110	0.082
-587.909	-74.807	-0.200	-0.071
-586.894	285.525	-0.133	0.239
-585.879	-200.000	-0.026	0.293
-584.865	800.000	0.097	-0.279
-583.850	-90.251	0.175	-0.051
-582.836	-32.263	-0.215	-0.119
-581.821	-51.377	0.186	0.087
-580.806	-48.926	-0.218	0.104
-579.792	-105.087	0.260	-0.059
-578.777	-200.000	-0.068	-0.297
-577.763	166.741	-0.219	-0.310
-576.748	-47.584	-0.110	-0.053
-575.733	-200.000	-0.010	-0.422
-574.719	-10.221	0.187	-0.124
-573.704	471.973	0.071	0.158
-572.690	800.000	0.108	0.377
-571.675	-118.530	-0.244	-0.043
-570.661	-43.308	0.096	-0.048
-569.646	136.104	-0.013	0.016
-568.631	-0.880	-0.061	-0.043
-567.617	95.390	0.031	0.035
-566.602	59.425	-0.175	0.172
-565.588	800.000	0.117	-0.431
-564.573	-200.000	-0.071	0.490
-563.558	122.210	0.239	-0.297
-562.544	214.950	-0.090	0.142
-561.529	235.212	0.121	-0.200
-560.515	800.000	0.101	-0.310
-559.500	-6.262	-0.230	-0.156
-558.485	375.158	0.200	0.406
-557.471	-58.164	0.362	-0.157
-556.456	-102.817	-0.067	0.016
-555.442	-121.522	-0.017	-0.003
-554.427	503.527	-0.121	-0.278
-553.412	-200.000	-0.009	0.146
-552.398	-200.000	-0.042	0.322
-551.383	-87.159	0.201	-0.061
-550.369	470.918	0.097	-0.217
-549.354	20.105	-0.273	-0.219
-548.339	8.522	0.054	-0.040
-547.325	275.411	0.063	0.112
-546.310	800.000	-0.104	0.294
-545.296	-47.403	-0.275	-0.133
-544.281	-59.636	-0.233	-0.099
-543.266	257.256	-0.158	-0.270
-542.252	257.924	0.086	0.148
-541.237	-128.476	-0.406	0.057
-540.223	-17.056	0.088	0.055
-539.208	-124.414	-0.375	0.058
-538.193	-129.356	-0.256	-0.035
-537.179	-136.681	-0.349	0.040
-536.164	-55.286	0.356	-0.159
-535.150	-87.047	0.071	-0.022
-534.135	-113.841	0.209	-0.041
-533.121	276.181	-0.161	-0.284
-532.106	-161.572	0.171	0.009
-531.091	218.645	0.194	0.308
-530.077	355.158	0.053	-0.105
-529.062	10.293	0.265	0.200
-528.048	-200.000	-0.006	-0.215
-527.033	800.000	-0.104	-0.369
-526.018	391.715	0.067	0.138
-525.004	800.000	0.018	0.055
-523.989	201.098	-0.088	0.134
-522.975	33.916	-0.218	-0.188
-521.960	61.829	-0.229	0.227
-520.945	-125.073	0.279	-0.043
-519.931	57.373	-0.192	0.186
-518.916	-103.022	-0.276	0.065
-517.902	-72.771	-0.229	0.084
-516.887	13.320	0.327	0.252
-515.872	-131.552	-0.250	0.033
-514.858	-9.402	0.046	0.030
-513.843	-108.759	0.196	0.042
-512.829	-161.140	0.275	-0.014
-511.814	-200.000	0.017	0.115
-510.799	222.040	0.129	-0.206
-509.785	555.402	0.070	-0.166
-508.770	800.000	0.035	-0.110
-507.756	-73.367	0.251	-0.091
-506.741	-49.639	-0.175	0.083
-505.726	800.000	-0.031	-0.107
-504.712	-200.000	0.008	0.038
-503.697	-34.696	-0.277	-0.150
-502.683	-110.204	0.223	-0.046
-501.668	-200.000	-0.054	0.383
-500.653	-128.352	-0.269	0.038
-499.639	-200.000	-0.003	0.140
-498.624	43.108	-0.271	-0.246
-497.610	261.729	0.046	0.079
-496.595	20.235	0.069	0.056
-495.581	-51.483	-0.300	-0.139
-494.566	-200.000	0.005	-0.046
-493.551	800.000	-0.065	0.274
-492.537	-2.255	-0.201	-0.140
-491.522	1.505	-0.243	0.174
-490.508	800.000	-0.052	0.176
-489.493	-172.891	0.323	-0.010
-488.478	800.000	0.076	0.311
-487.464	488.792	0.059	0.134
-486.449	-134.686	0.207	0.025
-485.435	17.522	0.045	-0.036
-484.420	-200.000	0.014	0.165
-483.405	800.000	0.122	0.429
-482.391	-62.470	0.139	-0.057
-481.376	331.258	-0.063	-0.121
-480.362	-200.000	0.010	-0.066
-479.347	91.144	0.084	-0.094
-478.332	116.873	0.105	0.127
-477.318	-200.000	0.049	0.406
-476.303	122.695	0.010	-0.013
-475.289	-151.968	-0.379	-0.027
-474.274	-69.272	-0.147	0.056
-473.259	-18.091	0.168	-0.105
-472.245	800.000	-0.015	-0.060
-471.230	62.004	0.134	0.133
-470.216	-200.000	-0.003	0.024
-469.201	58.970	0.155	-0.151
-468.186	-200.000	0.006	-0.261
-467.172	-66.059	0.155	0.061
-466.157	-126.674	0.150	-0.022
-465.143	-103.654	-0.091	-0.021
-464.128	-158.286	-0.061	0.004
-463.113	-200.000	-0.032	0.178
-462.099	-200.000	-0.015	0.223
-461.084	53.659	0.214	-0.204
-460.070	-117.021	-0.019	-0.003
-459.055	-61.614	-0.284	-0.118
-458.040	800.000	0.086	-0.367
-457.026	168.074	0.209	-0.295
-456.011	-38.800	0.184	-0.096
-454.997	-124.202	-0.115	-0.018
-453.982	-75.958	-0.178	-0.063
-452.968	-200.000	-0.054	-0.422
-451.953	1.671	-0.140	-0.100
-450.938	-200.000	0.059	0.269
-449.924	-86.740	-0.100	-0.030
-448.909	4.697	-0.270	-0.197
-447.895	655.014	-0.118	0.300
-446.880	33.009	0.252	-0.217
-445.865	-200.000	-0.048	-0.368
-444.851	282.166	0.174	0.309
-443.836	161.194	-0.263	0.365
-442.822	132.750	-0.088	-0.112
-441.807	-27.798	-0.283	-0.162
-440.792	436.227	0.061	0.131
-439.778	100.455	0.084	-0.097
-438.763	139.740	0.265	0.346
-437.749	183.595	0.175	-0.256
-436.734	218.507	0.278	-0.440
-435.719	585.883	0.148	-0.360
-434.705	-54.921	0.435	0.194
-433.690	-59.758	-0.316	0.134
-432.676	195.000	-0.034	0.051
-431.661	-122.587	-0.068	0.011
-430.646	-13.125	0.330	0.212
-429.632	-200.000	0.032	0.163
-428.617	7.272	-0.203	-0.150
-427.603	-159.103	0.034	0.002
-426.588	80.708	0.145	0.154
-425.573	-200.000	-0.011	0.280
-424.559	-200.000	-0.002	-0.073
-423.544	800.000	-0.011	-0.035
-422.530	-200.000	-0.043	-0.346
-421.515	-86.660	0.175	0.053
-420.500	72.875	0.237	-0.245
-419.486	65.542	-0.352	0.353
-418.471	-24.341	0.235	0.139
-417.457	476.049	0.060	-0.133
-416.442	-151.358	-0.048	0.004
-415.428	196.548	-0.026	-0.039
-414.413	-16.502	-0.148	0.093
-413.398	800.000	-0.059	0.231
-412.384	154.115	0.146	-0.198
-411.369	-200.000	0.072	0.328
-410.355	-125.979	0.260	0.039
-409.340	-20.934	-0.180	0.109
-408.325	-200.000	0.008	0.083
-407.311	-200.000	-0.028	-0.237
-406.296	42.300	-0.124	-0.112
-405.282	37.624	-0.280	-0.246
-404.267	365.348	-0.063	-0.126
-403.252	800.000	-0.024	-0.097
-402.238	-96.706	0.183	-0.048
-401.223	-200.000	-0.021	0.185
-400.209	85.472	-0.119	-0.129
-399.194	212.579	0.220	-0.343
-398.179	81.661	0.065	0.070
-397.165	-36.138	-0.173	0.092
-396.150	-200.000	0.005	0.024
-395.136	23.240	-0.153	-0.124
-394.121	10.443	-0.208	-0.157
-393.106	1.231	-0.054	-0.038
-392.092	47.379	0.185	0.171
-391.077	164.765	-0.199	-0.278
-390.063	-45.722	0.081	-0.039
-389.048	-200.000	0.017	0.145
-388.033	455.004	0.121	0.265
-387.019	-45.276	0.233	0.114
-386.004	126.758	-0.203	-0.254
-384.990	-6.927	0.226	0.152
-383.975	-58.122	-0.096	0.041
-382.960	-125.711	0.070	-0.010
-381.946	275.167	-0.082	0.143
-380.931	-65.273	0.350	-0.139
-379.917	302.551	-0.056	-0.102
-378.902	55.660	-0.147	0.141
-377.888	-20.104	-0.147	-0.090
-376.873	474.670	-0.019	0.042
-375.858	244.839	0.110	0.182
-374.844	-35.681	-0.171	-0.092
-373.829	-80.239	0.436	-0.144
-372.815	-23.609	0.184	0.109
-371.800	-200.000	0.023	-0.365
-370.785	-200.000	-0.005	0.153
-369.771	2.256	-0.289	0.206
-368.756	219.428	-0.105	0.165
-367.742	-62.956	0.226	-0.092
-366.727	499.716	-0.073	0.166
-365.712	134.970	0.100	-0.128
-364.698	-14.611	-0.128	-0.081
-363.683	62.192	0.149	-0.147
-362.669	133.104	0.041	0.053
-361.654	322.953	0.009	-0.016
-360.639	-94.771	-0.214	-0.057
-359.625	37.102	0.094	-0.082
-358.610	-200.000	-0.040	0.279
-357.596	-13.418	-0.242	-0.155
-356.581	-37.678	0.189	0.100
-355.566	-46.281	-0.109	-0.053
-354.552	-96.614	-0.155	0.040
-353.537	357.494	0.087	0.171
-352.523	-200.000	-0.017	0.254
-351.508	139.195	0.210	0.273
-350.493	14.497	0.186	0.144
-349.479	-61.498	-0.167	0.069
-348.464	107.839	0.051	0.060
-347.450	18.610	-0.113	-0.089
-346.435	51.178	-0.172	-0.161
-345.420	-115.043	-0.171	0.032
-344.406	106.705	-0.158	-0.185
-343.391	-79.324	-0.245	-0.082
-342.377	-140.928	-0.121	0.012
-341.362	-111.216	0.104	-0.021
-340.348	60.769	-0.169	-0.166
-339.333	168.040	-0.063	0.089
-338.318	-200.000	0.096	0.441
-337.304	127.474	0.137	-0.171
-336.289	800.000	0.062	0.209
-335.275	-196.165	0.092	-0.001
-334.260	122.733	0.067	-0.082
-333.245	-200.000	0.031	-0.220
-332.231	668.782	0.046	0.117
-331.216	380.684	0.147	-0.297
-330.202	66.378	-0.150	-0.150
-329.187	-98.580	-0.160	-0.040
-328.172	138.853	0.237	-0.307
-327.158	236.391	-0.211	-0.344
-326.143	65.832	-0.154	0.154
-325.129	-60.709	0.312	-0.130
-324.114	107.032	0.105	0.123
-323.099	65.693	0.226	0.226
-322.085	-129.456	0.333	-0.046
-321.070	-103.805	0.273	0.063
-320.056	263.810	0.196	-0.336
-319.041	-91.921	0.327	-0.091
-318.026	-97.557	0.039	0.010
-317.012	-200.000	-0.027	0.123
-315.997	800.000	0.050	0.194
-314.983	212.356	0.172	0.267
-313.968	-200.000	-0.063	0.340
-312.953	-200.000	-0.030	0.264
-311.939	-200.000	-0.004	-0.129
-310.924	-1.888	-0.173	0.120
-309.910	374.332	0.090	0.182
-308.895	-200.000	0.007	0.192
-307.880	-43.881	0.094	-0.046
-306.866	106.318	0.245	-0.287
-305.851	-50.781	0.182	-0.085
-304.837	142.854	-0.277	-0.363
-303.822	-94.271	0.281	0.076
-302.807	-133.456	-0.051	-0.006
-301.793	230.382	-0.045	0.072
-300.778	335.595	0.057	0.110
-299.764	23.167	0.057	0.046
-298.749	25.441	0.364	-0.299
-297.735	70.723	-0.289	0.295
-296.720	-72.695	0.311	0.113
-295.705	-109.293	0.334	0.070
-294.691	-200.000	0.008	0.038
-293.676	800.000	-0.062	0.230
-292.662	-47.258	0.170	-0.082
-291.647	-22.421	0.277	-0.165
-290.632	-38.705	-0.222	0.115
-289.618	-83.683	-0.073	-0.023
-288.603	420.388	-0.076	0.160
-287.589	-200.000	0.015	-0.130
-286.574	194.965	0.133	0.199
-285.559	-200.000	0.024	-0.152
-284.545	90.220	0.269	-0.297
-283.530	-78.122	0.165	0.056
-282.516	-200.000	-0.006	-0.036
-281.501	-6.583	0.081	-0.054
-280.486	-200.000	0.071	-0.632
-279.472	559.343	0.166	-0.395
-278.457	-69.968	-0.425	-0.160
-277.443	35.497	-0.091	-0.079
-276.428	800.000	-0.054	-0.232
-275.413	521.219	0.120	-0.276
-274.399	-200.000	-0.071	0.369
-273.384	-67.932	0.463	-0.178
-272.370	-200.000	0.036	0.214
-271.355	11.913	0.286	-0.217
-270.340	-200.000	0.013	-0.107
-269.326	266.084	-0.060	-0.103
-268.311	-200.000	-0.029	-0.275
-267.297	800.000	-0.011	-0.030
-266.282	60.236	-0.246	0.240
-265.267	38.271	0.134	0.118
-264.253	85.619	-0.089	0.097
-263.238	538.358	-0.154	0.361
-262.224	739.333	-0.026	0.068
-261.209	-200.000	0.026	0.268
-260.195	12.300	0.148	0.112
-259.180	-200.000	-0.024	0.221
-258.165	-14.668	0.118	-0.075
-257.151	698.810	0.083	-0.214
-256.136	-3.863	-0.109	-0.074
-255.122	210.775	-0.192	0.297
-254.107	-76.670	-0.249	0.086
-253.092	-200.000	-0.010	0.090
-252.078	-200.000	-0.005	0.184
-251.063	156.166	0.236	0.321
-250.049	-200.000	0.006	0.053
-249.034	-56.788	-0.245	-0.107
-248.019	-200.000	0.004	-0.174
-247.005	-116.999	-0.050	-0.009
-245.990	70.198	-0.420	-0.426
-244.976	148.622	-0.144	0.192
-243.961	-144.133	0.251	0.023
-242.946	292.672	0.137	-0.246
-241.932	268.421	-0.147	-0.254
-240.917	800.000	-0.109	-0.317
-239.903	4.861	-0.155	-0.112
-238.888	-54.740	0.145	-0.064
-237.873	251.340	-0.102	0.170
-236.859	-112.797	0.245	-0.048
-235.844	203.264	0.131	-0.200
-234.830	62.474	-0.181	0.178
-233.815	-105.688	0.245	0.054
-232.800	-64.295	-0.123	-0.049
-231.786	25.795	-0.092	0.076
-230.771	387.482	-0.175	-0.356
-229.757	125.305	0.114	-0.141
-228.742	-200.000	0.026	0.215
-227.727	-200.000	-0.009	0.176
-226.713	-200.000	-0.021	-0.419
-225.698	658.536	-0.081	-0.206
-224.684	-25.617	0.305	-0.177
-223.669	-10.735	0.227	-0.148
-222.655	241.208	-0.028	-0.047
-221.640	59.514	-0.101	-0.098
-220.625	-78.329	0.145	-0.049
-219.611	131.071	0.146	0.185
-218.596	7.786	0.068	0.050
-217.582	-200.000	-0.020	0.286
-216.567	-176.443	-0.229	-0.006
-215.552	-200.000	-0.036	0.234
-214.538	221.996	0.004	-0.006
-213.523	-125.985	-0.288	0.042
-212.509	800.000	0.060	-0.169
-211.494	-50.462	0.081	-0.038
-210.479	157.348	0.079	0.107
-209.465	245.776	-0.014	-0.024
-208.450	59.585	-0.124	-0.120
-207.436	567.292	-0.026	0.061
-206.421	-52.987	-0.224	-0.101
-205.406	31.502	-0.174	0.147
-204.392	-200.000	0.015	0.065
-203.377	-17.183	-0.232	0.144
-202.363	-101.043	0.295	0.071
-201.348	80.639	-0.085	0.089
-200.333	61.540	0.350	0.341
-199.319	-178.935	0.242	-0.005
-198.304	800.000	-0.126	0.501
-197.290	-162.976	-0.136	0.006
-196.275	188.531	-0.153	0.224
-195.260	-138.771	-0.223	-0.024
-194.246	246.903	-0.184	-0.305
-193.231	-200.000	0.000	0.219
-192.217	800.000	-0.086	-0.298
-191.202	-167.463	0.465	-0.018
-190.187	-170.982	0.174	-0.006
-189.173	-37.804	-0.338	-0.176
-188.158	-200.000	-0.042	0.404
-187.144	-200.000	0.027	0.182
-186.129	-102.268	0.128	-0.030
-185.114	140.036	0.127	0.165
-184.100	-80.227	0.066	-0.022
-183.085	384.829	0.110	0.223
-182.071	431.927	0.046	0.099
-181.056	230.144	0.171	-0.273
-180.042	-200.000	-0.061	0.282
-179.027	284.039	-0.064	-0.113
-178.012	-108.380	-0.206	0.044
-176.998	333.144	0.159	0.301
-175.983	534.603	-0.070	0.164
-174.969	-126.835	0.496	-0.072
-173.954	-146.811	-0.035	-0.003
-172.939	102.800	0.048	0.055
-171.925	84.186	-0.229	0.246
-170.910	55.318	-0.126	0.120
-169.896	-33.551	0.174	-0.094
-168.881	95.059	-0.237	-0.265
-167.866	-200.000	0.052	-0.368
-166.852	-135.469	-0.451	0.053
-165.837	40.179	-0.068	-0.060
-164.823	800.000	-0.065	0.193
-163.808	-106.001	0.079	0.017
-162.793	351.368	-0.103	0.201
-161.779	333.229	0.224	-0.425
-160.764	-77.030	-0.266	-0.091
-159.750	800.000	0.063	-0.196
-158.735	-92.816	0.112	-0.031
-157.720	-200.000	0.024	0.312
-156.706	59.771	0.056	-0.054
-155.691	-3.368	0.396	0.270
-154.677	742.364	-0.064	0.170
-153.662	-76.883	0.189	0.065
-152.647	-86.299	0.353	0.107
-151.633	-63.470	-0.396	-0.159
-150.618	-58.339	0.281	0.120
-149.604	71.767	0.288	0.293
-148.589	-128.076	-0.065	-0.009
-147.574	-200.000	0.019	0.099
-146.560	-106.517	0.211	-0.046
-145.545	-200.000	0.024	-0.103
-144.531	-200.000	0.187	0.001
-143.516	-131.552	0.081	-0.010
-142.502	-167.010	0.117	0.005
-141.487	-200.000	-0.011	-0.197
-140.472	-104.697	0.187	-0.042
-139.458	-112.635	0.132	-0.026
-138.443	-200.000	-0.014	0.253
-137.429	-200.000	-0.007	-0.049
-136.414	71.264	-0.039	0.040
-135.399	-200.000	-0.007	-0.337
-134.385	130.517	0.219	-0.275
-133.370	-71.894	-0.163	0.059
-132.356	36.267	0.200	0.173
-131.341	482.198	-0.137	0.305
-130.326	208.839	0.018	0.028
-129.312	-85.354	0.221	-0.067
-128.297	-3.290	0.243	0.166
-127.283	48.097	-0.038	0.035
-126.268	-200.000	0.003	0.328
-125.253	539.062	-0.139	0.323
-124.239	-51.718	-0.255	-0.117
-123.224	21.685	0.219	0.174
-122.210	-200.000	-0.051	0.287
-121.195	99.675	-0.165	0.187
