DTS Sentinel unit serial number:	SN413079Multiplexer serial number:	ORYXHardware model number:	OX4-SRSoftware version number:	ORYX F/W v4.00 Oryx Data Collector v3.7.2.0data status	okinstallation	princeton_trtdifferential loss correction	single-endedforward channel	channel 4reverse channel	N/Adate	2019/09/17time	11:25:34forward acquisition time	60.00reverse acquisition time	0.00gamma	496.2192k internal	0.2309k external	0.2309temperature offset calibration	0.9985default loss term (dB/km)	0.3790temperature slope calibration	1.0000multiplexer offset coefficient	1.0000multiplexer slope coefficient	1.0000fibre end	0.00T internal ref (°C)	30.62T ext. ref 1 (°C)	0.33T ext. ref 2 (°C)	26.34length (m)	temperature (°C)	Stokes	anti-Stokes-747.200	413.080	-0.095	0.206
-746.185	-18.484	-0.091	-0.058
-745.171	272.972	0.177	-0.317
-744.156	50.449	-0.223	0.214
-743.142	-49.953	-0.141	-0.068
-742.127	-149.566	-0.249	0.020
-741.112	-153.179	-0.344	0.024
-740.098	800.000	-0.100	0.442
-739.083	19.070	0.116	-0.095
-738.069	800.000	0.108	0.419
-737.054	-21.392	0.202	-0.125
-736.039	54.871	-0.366	-0.359
-735.025	-71.294	0.170	0.065
-734.010	34.180	0.238	-0.211
-732.996	-62.848	-0.355	-0.149
-731.981	-46.599	0.537	0.267
-730.966	-174.595	0.153	0.004
-729.952	-145.223	-0.300	-0.028
-728.937	-66.572	0.212	-0.086
-727.923	-200.000	0.027	-0.183
-726.908	800.000	0.044	-0.126
-725.894	3.162	-0.330	0.244
-724.879	36.687	0.097	0.087
-723.864	800.000	-0.152	-0.479
-722.850	220.286	0.152	-0.247
-721.835	65.529	-0.304	-0.312
-720.821	14.352	-0.156	0.124
-719.806	-46.674	0.294	-0.146
-718.791	-200.000	0.003	-0.119
-717.777	-133.143	-0.065	-0.008
-716.762	-102.216	0.152	0.037
-715.748	-15.038	0.191	0.125
-714.733	-21.854	0.274	0.169
-713.718	123.737	0.258	0.329
-712.704	553.909	0.091	-0.222
-711.689	-167.378	-0.269	0.011
-710.675	800.000	-0.086	0.309
-709.660	31.801	0.147	0.129
-708.645	800.000	0.097	-0.313
-707.631	-200.000	0.010	0.116
-706.616	-166.598	0.267	0.011
-705.602	290.065	0.148	0.272
-704.587	-186.989	0.265	-0.004
-703.572	-85.228	-0.390	0.124
-702.558	800.000	-0.082	0.254
-701.543	32.707	0.301	-0.264
-700.529	97.045	-0.202	-0.235
-699.514	785.009	-0.095	-0.264
-698.499	164.982	0.008	0.011
-697.485	44.988	-0.205	0.191
-696.470	-27.740	0.199	-0.117
-695.456	800.000	-0.148	-0.431
-694.441	376.655	-0.015	-0.032
-693.426	800.000	0.083	0.275
-692.412	-200.000	-0.041	-0.256
-691.397	214.690	-0.126	-0.202
-690.383	9.729	-0.125	-0.096
-689.368	800.000	-0.078	-0.252
-688.354	353.916	0.119	-0.240
-687.339	-92.633	-0.280	0.080
-686.324	-200.000	-0.005	0.299
-685.310	-53.466	-0.516	-0.240
-684.295	594.484	0.060	0.151
-683.281	-200.000	0.043	0.191
-682.266	-200.000	-0.019	-0.123
-681.251	-42.557	0.414	-0.214
-680.237	-200.000	0.004	0.298
-679.222	-157.228	0.039	0.002
-678.208	-73.271	-0.251	-0.093
-677.193	-200.000	0.022	-0.132
-676.178	-130.113	0.120	0.017
-675.164	-54.542	0.068	-0.031
-674.149	-72.954	0.201	0.075
-673.135	-200.000	-0.019	0.123
-672.120	203.657	-0.126	-0.198
-671.105	-168.914	-0.503	-0.019
-670.091	800.000	0.057	0.222
-669.076	204.820	0.051	-0.080
-668.062	153.147	0.107	0.148
-667.047	800.000	-0.066	-0.257
-666.032	150.098	-0.193	-0.265
-665.018	241.288	-0.089	-0.150
-664.003	-200.000	0.001	-0.336
-662.989	800.000	-0.043	0.158
-661.974	-51.092	-0.164	-0.078
-660.959	800.000	-0.029	-0.089
-659.945	-200.000	-0.015	0.114
-658.930	800.000	0.040	-0.149
-657.916	-124.676	0.461	-0.072
-656.901	-20.096	-0.111	-0.069
-655.886	-93.181	-0.339	-0.095
-654.872	800.000	0.024	0.102
-653.857	21.874	-0.250	-0.206
-652.843	113.720	0.079	-0.097
-651.828	537.721	0.078	-0.187
-650.814	-85.069	-0.062	-0.020
-649.799	-200.000	0.009	-0.170
-648.784	224.900	-0.198	-0.325
-647.770	-38.850	-0.316	-0.169
-646.755	150.037	-0.098	-0.135
-645.741	800.000	0.037	0.109
-644.726	-200.000	-0.027	-0.367
-643.711	-200.000	-0.038	-0.180
-642.697	-10.246	0.328	0.220
-641.682	-61.269	-0.118	-0.050
-640.668	-144.436	0.220	0.021
-639.653	-200.000	-0.347	0.001
-638.638	-200.000	0.008	0.134
-637.624	800.000	0.061	-0.264
-636.609	-200.000	0.012	-0.131
-635.595	41.359	0.038	0.035
-634.580	-200.000	-0.054	0.273
-633.565	108.173	-0.182	0.220
-632.551	25.672	0.123	-0.104
-631.536	-29.122	-0.149	0.087
-630.522	-134.503	0.243	-0.030
-629.507	-81.067	-0.281	-0.094
-628.492	138.608	-0.075	-0.100
-627.478	-200.000	0.086	-0.438
-626.463	93.289	-0.033	0.038
-625.449	-88.227	-0.172	0.052
-624.434	385.246	-0.081	-0.168
-623.419	-32.846	0.125	0.070
-622.405	118.283	-0.179	0.224
-621.390	247.257	-0.170	-0.290
-620.376	800.000	0.210	-0.598
-619.361	-98.434	-0.246	0.064
-618.346	-131.696	-0.185	-0.025
-617.332	149.100	-0.059	0.081
-616.317	-138.676	-0.377	0.042
-615.303	-88.705	0.192	-0.058
-614.288	-53.826	-0.195	-0.090
-613.273	22.549	-0.208	0.172
-612.259	230.839	-0.075	-0.125
-611.244	-161.643	0.476	-0.025
-610.230	-200.000	-0.038	0.224
-609.215	22.954	-0.139	-0.115
-608.201	377.880	0.119	-0.246
-607.186	167.822	-0.109	0.156
-606.171	56.626	-0.163	-0.160
-605.157	-119.125	0.297	-0.052
-604.142	-200.000	-0.025	-0.185
-603.128	-200.000	-0.002	0.173
-602.113	-45.948	-0.255	-0.127
-601.098	-80.698	-0.140	0.047
-600.084	800.000	0.128	-0.362
-599.069	378.841	-0.029	-0.060
-598.055	331.584	0.019	0.036
-597.040	124.255	0.074	0.094
-596.025	-70.022	-0.164	-0.063
-595.011	-200.000	0.015	0.150
-593.996	-15.482	-0.200	0.129
-592.982	-133.300	-0.205	-0.026
-591.967	-106.456	0.351	-0.079
-590.952	-120.343	-0.273	0.047
-589.938	-148.976	-0.177	-0.014
-588.923	-81.785	0.161	0.053
-587.909	-200.000	-0.003	0.071
-586.894	347.040	-0.119	0.237
-585.879	538.450	0.147	0.352
-584.865	-89.036	-0.067	-0.020
-583.850	-40.328	-0.293	0.154
-582.836	24.292	-0.198	0.165
-581.821	-82.191	0.167	0.055
-580.806	19.565	-0.049	-0.040
-579.792	218.809	0.081	-0.131
-578.777	356.162	-0.089	0.179
-577.763	461.886	-0.160	-0.361
-576.748	27.296	-0.361	0.306
-575.733	6.893	-0.100	-0.075
-574.719	-139.913	-0.157	-0.017
-573.704	114.863	-0.099	0.122
-572.690	339.713	0.085	0.166
-571.675	-161.550	0.246	-0.013
-570.661	-26.568	-0.162	-0.096
-569.646	-9.637	-0.082	0.055
-568.631	490.349	0.159	-0.367
-567.617	-200.000	0.002	-0.176
-566.602	-200.000	-0.009	-0.395
-565.588	336.635	-0.122	-0.239
-564.573	800.000	-0.083	-0.246
-563.558	613.085	0.109	0.276
-562.544	-200.000	-0.019	0.108
-561.529	505.681	0.100	-0.234
-560.515	-61.052	0.183	-0.078
-559.500	-109.961	-0.166	0.035
-558.485	26.559	0.284	0.240
-557.471	84.512	-0.334	0.369
-556.456	95.269	0.008	0.009
-555.442	800.000	-0.021	0.069
-554.427	-200.000	0.025	0.171
-553.412	-100.565	-0.221	-0.055
-552.398	-200.000	-0.023	-0.473
-551.383	-44.682	-0.252	0.127
-550.369	-0.600	0.248	-0.178
-549.354	266.862	-0.105	0.185
-548.339	298.701	0.151	0.280
-547.325	560.995	-0.128	-0.313
-546.310	16.703	-0.208	-0.166
-545.296	-129.225	0.415	0.058
-544.281	800.000	0.091	-0.352
-543.266	-141.407	-0.298	0.030
-542.252	151.385	0.125	0.172
-541.237	-200.000	-0.020	-0.099
-540.223	-200.000	-0.000	0.192
-539.208	739.617	0.057	0.154
-538.193	78.753	-0.035	0.038
-537.179	233.910	0.209	0.347
-536.164	426.316	-0.010	0.021
-535.150	-92.216	-0.080	-0.023
-534.135	233.565	0.102	-0.169
-533.121	-15.481	0.345	0.222
-532.106	-200.000	-0.000	-0.044
-531.091	-127.237	-0.161	-0.024
-530.077	-123.900	-0.244	-0.039
-529.062	-200.000	-0.006	0.061
-528.048	-48.582	-0.192	0.093
-527.033	343.913	-0.027	-0.053
-526.018	492.521	-0.172	0.397
-525.004	135.545	0.111	0.146
-523.989	-200.000	-0.009	0.256
-522.975	800.000	-0.058	-0.220
-521.960	-200.000	-0.009	-0.337
-520.945	-104.412	-0.050	0.012
-519.931	-101.007	-0.248	0.061
-518.916	-34.641	0.049	-0.027
-517.902	142.175	0.046	-0.062
-516.887	290.000	0.194	0.355
-515.872	170.772	0.201	-0.289
-514.858	-105.982	0.057	-0.013
-513.843	-200.000	0.012	0.299
-512.829	-40.256	0.158	-0.083
-511.814	-200.000	0.001	-0.151
-510.799	-93.309	0.108	-0.030
-509.785	52.717	0.096	-0.093
-508.770	-81.976	-0.104	0.034
-507.756	-156.168	-0.063	-0.004
-506.741	-30.137	0.463	-0.265
-505.726	-70.336	-0.424	-0.162
-504.712	265.341	0.126	0.220
-503.697	-47.791	-0.184	0.090
-502.683	8.839	0.099	0.075
-501.668	-73.809	0.168	-0.061
-500.653	-52.289	0.070	-0.033
-499.639	50.737	-0.253	0.241
-498.624	-167.132	0.413	-0.017
-497.610	-72.385	0.178	-0.066
-496.595	277.626	-0.102	0.183
-495.581	800.000	-0.095	-0.308
-494.566	-200.000	0.036	-0.228
-493.551	800.000	0.013	-0.052
-492.537	320.898	0.035	0.066
-491.522	-200.000	-0.010	-0.260
-490.508	-200.000	0.051	0.330
-489.493	-73.584	-0.066	0.024
-488.478	66.783	0.200	-0.205
-487.464	-9.078	-0.323	0.217
-486.449	0.480	-0.153	-0.110
-485.435	-200.000	-0.008	-0.059
-484.420	123.564	-0.198	-0.249
-483.405	-86.807	-0.122	-0.038
-482.391	330.156	0.128	0.248
-481.376	76.561	-0.176	0.188
-480.362	-125.468	0.136	-0.021
-479.347	-200.000	0.023	-0.172
-478.332	43.716	-0.157	-0.144
-477.318	28.917	-0.023	0.020
-476.303	-200.000	0.026	-0.184
-475.289	-40.425	-0.353	0.185
-474.274	-15.413	-0.304	0.195
-473.259	-52.192	-0.311	0.145
-472.245	682.109	0.064	0.167
-471.230	800.000	-0.115	0.427
-470.216	-65.706	-0.086	0.035
-469.201	-82.582	0.170	0.055
-468.186	-41.903	-0.218	-0.112
-467.172	91.237	-0.267	-0.301
-466.157	55.673	-0.086	-0.084
-465.143	6.099	-0.071	-0.053
-464.128	-145.228	-0.209	0.019
-463.113	-134.798	0.412	-0.050
-462.099	-159.939	-0.224	0.012
-461.084	-200.000	0.002	-0.315
-460.070	-148.334	0.048	-0.004
-459.055	-13.150	0.205	-0.134
-458.040	10.249	-0.132	0.101
-457.026	-200.000	0.057	0.393
-456.011	-43.779	-0.083	-0.042
-454.997	-118.194	-0.212	-0.038
-453.982	-139.600	0.087	0.009
-452.968	-200.000	0.037	0.172
-451.953	800.000	-0.027	0.085
-450.938	-85.110	0.182	-0.057
-449.924	-200.000	0.111	-0.497
-448.909	64.067	-0.168	-0.170
-447.895	118.891	-0.189	-0.235
-446.880	-56.330	0.165	-0.074
-445.865	341.971	-0.142	-0.279
-444.851	-52.820	0.455	-0.210
-443.836	225.049	0.058	-0.095
-442.822	-135.161	-0.179	0.022
-441.807	-70.298	-0.511	0.195
-440.792	800.000	0.040	0.141
-439.778	-200.000	0.015	0.124
-438.763	291.540	0.123	-0.224
-437.749	279.509	0.116	-0.208
-436.734	-200.000	0.005	0.426
-435.719	-157.763	0.206	0.012
-434.705	118.064	0.297	-0.368
-433.690	31.942	0.136	0.117
-432.676	800.000	-0.079	0.261
-431.661	24.799	-0.213	0.177
-430.646	64.002	0.355	0.359
-429.632	-200.000	0.018	-0.113
-428.617	160.281	-0.099	0.138
-427.603	800.000	0.068	-0.255
-426.588	800.000	-0.088	0.295
-425.573	4.226	0.087	-0.064
-424.559	311.990	-0.001	0.002
-423.544	-116.855	0.205	-0.038
-422.530	93.176	0.178	0.202
-421.515	-121.306	-0.075	-0.013
-420.500	-70.592	-0.132	0.050
-419.486	173.302	0.297	-0.430
-418.471	-200.000	-0.048	-0.334
-417.457	-91.886	0.157	0.045
-416.442	-193.923	-0.125	-0.001
-415.428	-57.793	0.141	0.062
-414.413	-200.000	-0.003	-0.289
-413.398	800.000	-0.082	0.263
-412.384	-106.503	0.198	-0.044
-411.369	-61.262	0.055	-0.023
-410.355	-200.000	-0.088	-0.531
-409.340	309.264	-0.269	0.505
-408.325	800.000	-0.083	0.330
-407.311	235.342	0.101	-0.167
-406.296	-42.242	0.310	-0.159
-405.282	-200.000	0.012	-0.172
-404.267	-200.000	0.009	0.148
-403.252	534.138	0.145	0.345
-402.238	-73.958	-0.107	-0.039
-401.223	-162.683	-0.117	-0.006
-400.209	-64.201	0.141	-0.058
-399.194	355.881	-0.018	-0.035
-398.179	-200.000	0.031	0.351
-397.165	-116.541	-0.361	0.067
-396.150	547.003	0.032	0.076
-395.136	-147.565	0.235	-0.020
-394.121	-200.000	-0.002	-0.398
-393.106	-99.368	-0.316	-0.080
-392.092	-149.454	0.190	-0.015
-391.077	-94.623	0.167	0.046
-390.063	-122.582	-0.225	0.037
-389.048	124.037	-0.007	-0.008
-388.033	309.822	0.051	0.096
-387.019	23.591	-0.137	-0.113
-386.004	-200.000	-0.014	-0.352
-384.990	106.041	0.104	-0.124
-383.975	-94.550	0.216	-0.059
-382.960	800.000	-0.068	-0.223
-381.946	-61.738	0.203	0.085
-380.931	-91.232	0.249	0.071
-379.917	242.754	0.211	0.353
-378.902	65.019	-0.137	0.139
-377.888	36.914	0.123	-0.109
-376.873	-200.000	0.009	-0.203
-375.858	180.812	-0.127	0.187
-374.844	-160.581	0.211	0.011
-373.829	-200.000	-0.031	-0.244
-372.815	-200.000	0.023	-0.147
-371.800	3.029	0.090	0.065
-370.785	533.738	-0.034	0.081
-369.771	-38.497	-0.224	-0.118
-368.756	19.187	-0.015	-0.012
-367.742	18.179	0.186	0.149
-366.727	-200.000	-0.353	-0.000
-365.712	239.214	0.152	-0.254
-364.698	193.547	-0.046	-0.070
-363.683	217.073	0.139	0.221
-362.669	8.840	0.157	-0.119
-361.654	800.000	-0.080	0.344
-360.639	-59.808	0.118	0.050
-359.625	746.271	0.136	0.366
-358.610	326.782	0.049	0.095
-357.596	800.000	0.029	0.087
-356.581	-48.239	0.046	0.022
-355.566	184.592	-0.096	-0.142
-354.552	-101.350	0.115	0.028
-353.537	91.953	0.070	0.078
-352.523	14.814	0.317	-0.248
-351.508	54.025	-0.048	0.047
-350.493	-1.840	0.099	0.070
-349.479	-200.000	0.007	-0.270
-348.464	-56.328	-0.191	0.085
-347.450	28.902	-0.403	0.341
-346.435	-200.000	-0.010	0.138
-345.420	326.196	0.140	-0.268
-344.406	-200.000	0.030	-0.454
-343.391	144.005	-0.064	-0.085
-342.377	411.034	-0.111	-0.236
-341.362	286.640	-0.079	-0.143
-340.348	-200.000	0.013	-0.090
-339.333	-200.000	-0.048	-0.218
-338.318	-29.935	-0.180	-0.102
-337.304	422.596	-0.118	0.253
-336.289	291.579	-0.101	0.185
-335.275	800.000	0.058	-0.170
-334.260	-55.900	0.266	0.119
-333.245	-35.642	-0.133	-0.072
-332.231	44.464	0.103	0.095
-331.216	120.728	0.118	-0.147
-330.202	-114.962	-0.352	-0.067
-329.187	301.642	0.026	0.047
-328.172	-115.005	-0.243	0.046
-327.158	-94.449	0.232	-0.063
-326.143	-155.967	0.545	0.035
-325.129	800.000	-0.081	-0.246
-324.114	10.196	-0.165	0.125
-323.099	-87.600	0.117	-0.035
-322.085	-45.731	0.206	0.102
-321.070	181.435	-0.111	-0.163
-320.056	-123.080	0.461	0.074
-319.041	-18.641	0.213	0.133
-318.026	24.009	0.222	0.183
-317.012	-78.204	0.331	-0.114
-315.997	113.052	0.086	0.104
-314.983	79.191	-0.314	0.336
-313.968	196.874	-0.207	0.315
-312.953	-200.000	-0.003	0.079
-311.939	20.108	-0.166	0.134
-310.924	62.236	-0.295	-0.294
-309.910	107.894	0.121	0.144
-308.895	800.000	0.026	-0.097
-307.880	44.551	0.054	-0.049
-306.866	-43.269	0.198	-0.100
-305.851	80.882	-0.216	0.233
-304.837	-200.000	0.033	0.227
-303.822	-200.000	0.009	0.276
-302.807	-200.000	-0.007	-0.216
-301.793	-133.298	-0.226	-0.028
-300.778	-43.170	0.237	-0.120
-299.764	106.420	-0.228	-0.270
-298.749	32.460	0.165	-0.142
-297.735	431.629	0.118	-0.256
-296.720	460.953	0.062	-0.139
-295.705	34.883	-0.107	-0.094
-294.691	5.027	0.047	0.034
-293.676	196.474	0.103	-0.156
-292.662	-115.456	0.098	-0.018
-291.647	253.069	-0.168	-0.286
-290.632	11.842	0.193	-0.148
-289.618	-18.760	-0.057	-0.035
-288.603	-112.290	0.124	0.025
-287.589	153.432	-0.143	-0.195
-286.574	6.833	-0.087	0.065
-285.559	-200.000	0.005	0.048
-284.545	57.954	-0.098	-0.096
-283.530	35.293	0.097	0.085
-282.516	70.082	-0.251	-0.258
-281.501	109.073	0.149	-0.177
-280.486	-200.000	0.046	-0.311
-279.472	-200.000	0.003	0.219
-278.457	-2.881	-0.239	0.167
-277.443	26.564	-0.126	0.105
-276.428	-200.000	0.288	-0.001
-275.413	800.000	0.108	0.309
-274.399	-158.864	0.154	0.009
-273.384	-74.883	0.191	0.068
-272.370	-50.840	0.085	0.040
-271.355	298.936	-0.291	-0.534
-270.340	-200.000	0.019	-0.192
-269.326	-150.773	-0.061	0.005
-268.311	-100.433	0.209	0.052
-267.297	-101.157	0.187	-0.046
-266.282	85.776	0.045	-0.050
-265.267	-138.956	-0.234	0.025
-264.253	783.225	0.066	-0.179
-263.238	-176.713	-0.181	0.005
-262.224	-200.000	0.086	0.526
-261.209	-137.171	0.157	0.018
-260.195	80.051	-0.280	-0.300
-259.180	-200.000	0.092	-0.444
-258.165	-14.887	-0.163	0.104
-257.151	-72.019	0.292	0.108
-256.136	12.014	-0.126	-0.096
-255.122	96.408	0.114	-0.130
-254.107	-2.673	0.275	-0.192
-253.092	-200.000	0.024	-0.138
-252.078	-117.129	-0.369	-0.067
-251.063	-200.000	-0.001	0.083
-250.049	475.563	0.054	0.122
-249.034	-200.000	0.164	0.001
-248.019	-200.000	0.025	-0.373
-247.005	-32.789	-0.282	-0.156
-245.990	285.318	0.146	0.262
-244.976	-105.614	-0.151	-0.034
-243.961	800.000	-0.052	0.187
-242.946	321.305	-0.152	0.288
-241.932	-78.275	-0.076	0.026
-240.917	54.104	-0.264	-0.253
-239.903	-114.936	-0.199	0.038
-238.888	800.000	0.119	0.442
-237.873	-200.000	-0.014	0.087
-236.859	-22.136	-0.124	0.075
-235.844	137.106	-0.305	0.397
-234.830	142.765	-0.097	-0.128
-233.815	268.791	-0.108	0.188
-232.800	800.000	-0.114	0.314
-231.786	465.755	0.107	-0.239
-230.771	165.962	-0.129	-0.182
-229.757	36.042	0.093	0.082
-228.742	60.370	0.049	-0.049
-227.727	36.961	0.088	0.077
-226.713	-200.000	0.021	0.213
-225.698	-43.564	0.290	-0.146
-224.684	800.000	0.032	-0.099
-223.669	38.500	0.072	-0.064
-222.655	44.602	0.122	0.111
-221.640	-2.088	0.195	-0.137
-220.625	5.589	0.149	0.110
-219.611	588.931	-0.131	-0.321
-218.596	-89.487	0.269	0.079
-217.582	765.429	0.130	-0.353
-216.567	-83.839	-0.492	-0.156
-215.552	-33.257	0.478	0.263
-214.538	73.921	-0.277	0.289
-213.523	24.792	0.114	0.094
-212.509	-100.893	0.161	0.039
-211.494	243.565	0.081	0.135
-210.479	16.391	0.173	-0.136
-209.465	-200.000	-0.042	-0.240
-208.450	-121.103	-0.075	0.012
-207.436	-136.118	0.191	-0.022
-206.421	-200.000	0.055	0.250
-205.406	-33.116	0.322	0.178
-204.392	-200.000	0.023	-0.229
-203.377	276.816	0.113	0.200
-202.363	-200.000	-0.024	0.290
-201.348	-59.864	-0.144	-0.061
-200.333	-158.419	0.381	0.022
-199.319	190.034	0.176	0.263
-198.304	65.853	0.149	0.151
-197.290	25.197	0.197	0.163
-196.275	-58.884	0.244	0.105
-195.260	262.662	-0.262	0.452
-194.246	38.005	0.285	0.252
-193.231	71.482	0.304	-0.313
-192.217	636.108	0.123	0.309
-191.202	-200.000	0.057	-0.324
-190.187	436.667	-0.097	-0.211
-189.173	-200.000	0.040	0.261
-188.158	135.817	-0.201	0.260
-187.144	85.110	-0.058	0.064
-186.129	228.748	0.141	0.229
-185.114	201.760	0.047	-0.071
-184.100	800.000	-0.051	0.154
-183.085	134.700	0.140	0.181
-182.071	500.212	-0.059	0.134
-181.056	-200.000	0.029	0.317
-180.042	800.000	0.052	-0.191
-179.027	800.000	-0.133	0.457
-178.012	-146.062	-0.400	-0.035
-176.998	-200.000	-0.019	0.296
-175.983	-200.000	0.021	-0.114
-174.969	-97.167	-0.146	-0.038
-173.954	800.000	-0.011	-0.037
-172.939	-200.000	-0.017	-0.214
-171.925	-6.776	0.083	-0.056
-170.910	636.373	-0.034	-0.085
-169.896	-9.868	-0.077	-0.051
-168.881	800.000	-0.089	0.261
-167.866	-41.406	0.164	0.084
-166.852	48.794	-0.097	0.090
-165.837	-6.041	0.234	0.159
-164.823	-200.000	0.005	0.121
-163.808	55.442	0.144	0.139
-162.793	-200.000	0.019	0.191
-161.779	-16.673	0.280	0.176
-160.764	370.717	-0.058	0.117
-159.750	15.168	-0.115	-0.090
-158.735	67.567	0.025	-0.026
-157.720	-4.641	0.173	0.118
-156.706	-69.853	-0.235	-0.089
-155.691	107.355	0.108	0.128
-154.677	730.922	0.074	-0.197
-153.662	6.583	-0.146	-0.108
-152.647	-200.000	-0.018	0.160
-151.633	-11.417	-0.145	0.094
-150.618	800.000	0.052	0.182
-149.604	422.801	-0.013	0.028
-148.589	76.575	-0.084	0.088
-147.574	65.495	0.163	-0.163
-146.560	800.000	0.059	-0.235
-145.545	179.462	0.084	-0.122
-144.531	-28.306	0.076	-0.043
-143.516	-91.472	0.153	0.043
-142.502	-200.000	-0.007	0.149
-141.487	-200.000	0.075	0.399
-140.472	-186.951	0.238	-0.003
-139.458	84.872	-0.057	-0.062
-138.443	-110.496	0.184	-0.038
-137.429	154.826	-0.060	-0.082
-136.414	-200.000	0.005	0.150
-135.399	-200.000	0.040	-0.223
-134.385	-200.000	-0.011	-0.239
-133.370	-200.000	0.031	0.150
-132.356	204.615	0.152	0.234
-131.341	72.235	0.018	-0.019
-130.326	-131.809	0.054	0.007
-129.312	19.165	-0.197	-0.157
-128.297	84.587	0.193	-0.209
-127.283	-200.000	-0.034	-0.229
-126.268	-91.060	-0.253	0.072
-125.253	101.477	-0.164	0.189
-124.239	-43.359	0.014	0.007
-123.224	-172.111	0.463	-0.015
-122.210	341.746	0.131	0.254
-121.195	-33.937	0.149	0.082
