DTS Sentinel unit serial number:	SN413079Multiplexer serial number:	ORYXHardware model number:	OX4-SRSoftware version number:	ORYX F/W v4.00 Oryx Data Collector v3.7.2.0data status	okinstallation	princeton_trtdifferential loss correction	single-endedforward channel	channel 4reverse channel	N/Adate	2019/09/12time	09:15:11forward acquisition time	60.00reverse acquisition time	0.00gamma	496.2192k internal	0.2297k external	0.2297temperature offset calibration	1.0064default loss term (dB/km)	0.3790temperature slope calibration	1.0000multiplexer offset coefficient	1.0000multiplexer slope coefficient	1.0000fibre end	0.00T internal ref (°C)	34.80T ext. ref 1 (°C)	1.77T ext. ref 2 (°C)	33.25length (m)	temperature (°C)	Stokes	anti-Stokes-747.200	-35.929	-0.162	0.090
-746.185	-200.000	0.027	-0.191
-745.171	-200.000	-0.044	0.313
-744.156	-109.467	-0.469	0.101
-743.142	-200.000	0.017	0.173
-742.127	-5.852	0.241	0.169
-741.112	-170.345	0.128	0.005
-740.098	-200.000	-0.048	0.238
-739.083	127.510	-0.108	-0.140
-738.069	520.865	-0.120	0.287
-737.054	-18.011	0.338	-0.216
-736.039	800.000	0.027	0.101
-735.025	-104.979	0.205	0.048
-734.010	9.319	-0.270	0.209
-732.996	281.036	-0.167	-0.305
-731.981	258.267	0.151	-0.266
-730.966	-200.000	-0.024	-0.175
-729.952	800.000	0.156	-0.439
-728.937	74.154	0.216	-0.231
-727.923	-165.467	-0.236	-0.011
-726.908	343.583	0.066	0.132
-725.894	398.703	-0.139	0.296
-724.879	104.913	0.162	-0.195
-723.864	39.651	-0.321	-0.293
-722.850	-67.441	0.186	0.074
-721.835	-87.136	-0.230	-0.071
-720.821	-101.474	-0.185	-0.046
-719.806	166.896	0.152	-0.220
-718.791	382.435	-0.111	-0.234
-717.777	140.391	0.291	-0.391
-716.762	657.753	0.025	0.065
-715.748	-147.842	0.049	0.004
-714.733	83.955	-0.200	0.222
-713.718	-1.831	-0.198	-0.142
-712.704	-117.619	-0.195	0.036
-711.689	49.777	0.259	0.249
-710.675	-166.645	0.238	0.010
-709.660	241.119	-0.131	-0.222
-708.645	111.986	-0.040	-0.049
-707.631	800.000	-0.087	-0.248
-706.616	-156.105	0.060	-0.004
-705.602	94.063	-0.313	-0.362
-704.587	-102.729	-0.110	0.027
-703.572	800.000	0.127	0.407
-702.558	-200.000	0.016	0.240
-701.543	-33.946	0.035	0.019
-700.529	-21.615	0.141	-0.087
-699.514	-200.000	-0.009	-0.224
-698.499	-93.001	0.172	0.049
-697.485	-21.603	0.135	0.084
-696.470	-200.000	-0.005	0.060
-695.456	-54.405	0.249	0.115
-694.441	-38.770	0.152	0.082
-693.426	17.434	-0.101	0.082
-692.412	42.313	0.167	-0.155
-691.397	288.809	0.122	-0.225
-690.383	151.778	-0.133	-0.185
-689.368	28.434	-0.255	0.220
-688.354	48.133	-0.164	-0.156
-687.339	-200.000	-0.010	0.079
-686.324	-162.720	-0.178	-0.009
-685.310	47.953	0.034	-0.032
-684.295	787.950	-0.077	-0.217
-683.281	-200.000	-0.034	-0.185
-682.266	-200.000	-0.005	-0.105
-681.251	-200.000	-0.009	0.235
-680.237	-30.646	-0.135	0.078
-679.222	84.672	0.175	-0.195
-678.208	-63.717	0.494	0.206
-677.193	227.556	-0.073	-0.121
-676.178	158.821	-0.153	0.217
-675.164	-200.000	0.005	0.133
-674.149	-71.161	0.392	0.150
-673.135	160.767	0.218	-0.309
-672.120	800.000	-0.095	-0.360
-671.105	-200.000	0.009	0.492
-670.091	-92.615	0.086	-0.025
-669.076	-200.000	-0.035	0.250
-668.062	45.860	0.079	-0.074
-667.047	-41.193	-0.227	-0.119
-666.032	10.827	-0.212	0.165
-665.018	642.846	-0.039	0.101
-664.003	800.000	-0.101	0.410
-662.989	541.148	0.094	-0.229
-661.974	145.157	0.107	0.146
-660.959	-74.798	0.159	-0.058
-659.945	129.735	0.174	0.226
-658.930	-200.000	0.059	-0.283
-657.916	-4.074	0.118	0.083
-656.901	61.685	0.073	0.073
-655.886	-200.000	0.042	0.216
-654.872	-53.467	-0.171	-0.080
-653.857	-200.000	0.001	-0.084
-652.843	268.315	-0.061	-0.108
-651.828	-132.891	0.267	-0.035
-650.814	800.000	0.065	-0.240
-649.799	-200.000	-0.010	-0.190
-648.784	-40.405	0.188	-0.100
-647.770	51.790	-0.107	0.103
-646.755	399.459	-0.139	0.297
-645.741	62.505	0.136	0.138
-644.726	11.019	0.194	-0.151
-643.711	-32.806	-0.023	-0.013
-642.697	615.157	-0.104	0.264
-641.682	-64.680	-0.082	0.034
-640.668	355.375	0.008	-0.017
-639.653	147.432	0.143	-0.196
-638.638	4.441	0.178	-0.133
-637.624	-144.851	-0.409	-0.038
-636.609	800.000	0.015	0.064
-635.595	760.743	0.107	0.295
-634.580	-200.000	-0.002	0.112
-633.565	22.296	-0.252	-0.210
-632.551	30.171	0.109	0.095
-631.536	-103.023	-0.266	-0.064
-630.522	62.661	0.091	-0.092
-629.507	-3.189	-0.157	-0.111
-628.492	482.560	0.083	0.191
-627.478	-200.000	-0.016	0.150
-626.463	-26.924	-0.056	0.033
-625.449	-90.329	0.117	-0.034
-624.434	17.148	-0.161	-0.130
-623.419	-28.291	0.080	-0.047
-622.405	236.446	-0.179	0.301
-621.390	175.325	0.191	0.281
-620.376	426.486	0.081	0.176
-619.361	628.538	0.122	0.312
-618.346	561.430	-0.097	0.237
-617.332	242.708	-0.095	0.162
-616.317	-92.381	0.299	0.086
-615.303	-200.000	-0.006	-0.103
-614.288	-67.077	0.149	0.060
-613.273	-200.000	-0.031	0.198
-612.259	-148.939	0.076	0.006
-611.244	-136.919	0.384	0.045
-610.230	71.312	0.240	0.253
-609.215	448.183	-0.137	0.306
-608.201	-200.000	-0.009	-0.144
-607.186	114.642	-0.108	0.134
-606.171	-103.851	-0.074	-0.017
-605.157	-140.973	-0.240	-0.025
-604.142	-200.000	-0.008	-0.047
-603.128	-157.546	-0.105	-0.006
-602.113	-200.000	0.037	-0.244
-601.098	-57.584	-0.266	0.118
-600.084	800.000	-0.071	0.280
-599.069	70.330	-0.075	0.079
-598.055	800.000	-0.057	0.203
-597.040	17.971	0.194	-0.157
-596.025	-200.000	0.046	-0.237
-595.011	-10.760	0.148	-0.099
-593.996	-200.000	-0.018	0.236
-592.982	-140.723	0.321	0.034
-591.967	2.815	0.281	-0.207
-590.952	-58.513	0.155	-0.068
-589.938	318.170	0.163	-0.312
-588.923	4.634	-0.284	0.211
-587.909	-86.824	0.220	-0.068
-586.894	800.000	0.080	-0.237
-585.879	-65.152	0.094	0.039
-584.865	39.849	-0.295	-0.269
-583.850	91.095	0.088	-0.100
-582.836	49.973	0.178	-0.170
-581.821	96.933	0.336	-0.391
-580.806	156.476	0.149	0.208
-579.792	391.818	0.137	0.288
-578.777	-8.055	0.057	-0.039
-577.763	403.776	0.118	-0.252
-576.748	-63.418	-0.113	-0.047
-575.733	501.577	0.054	0.125
-574.719	-178.592	-0.368	-0.009
-573.704	800.000	0.120	-0.376
-572.690	742.836	0.163	-0.444
-571.675	118.662	-0.169	-0.212
-570.661	-37.364	0.186	0.101
-569.646	-44.464	0.075	0.038
-568.631	199.410	0.085	-0.132
-567.617	800.000	-0.097	-0.406
-566.602	22.007	-0.124	0.103
-565.588	-200.000	0.073	0.472
-564.573	-200.000	-0.020	0.165
-563.558	-180.604	0.215	0.004
-562.544	-98.282	0.277	0.072
-561.529	488.523	0.136	-0.316
-560.515	199.365	-0.025	0.038
-559.500	274.484	0.197	-0.353
-558.485	732.812	-0.018	-0.049
-557.471	-68.470	-0.113	0.045
-556.456	-103.730	0.317	-0.075
-555.442	-182.986	-0.097	-0.002
-554.427	472.987	0.172	0.392
-553.412	-152.431	-0.144	-0.011
-552.398	800.000	0.145	-0.551
-551.383	800.000	-0.089	-0.252
-550.369	163.533	-0.170	-0.243
-549.354	414.878	-0.052	0.112
-548.339	172.146	0.145	0.211
-547.325	176.721	-0.150	0.222
-546.310	260.223	0.051	-0.089
-545.296	146.241	-0.216	-0.293
-544.281	-200.000	-0.025	-0.473
-543.266	-2.059	0.057	0.041
-542.252	-200.000	-0.015	-0.167
-541.237	-200.000	-0.043	0.277
-540.223	541.987	0.097	0.234
-539.208	800.000	0.050	-0.184
-538.193	-34.900	0.167	0.092
-537.179	381.167	0.194	0.404
-536.164	-8.490	-0.148	0.101
-535.150	800.000	-0.059	-0.234
-534.135	343.254	-0.038	-0.076
-533.121	8.542	0.147	-0.112
-532.106	486.666	-0.125	0.289
-531.091	85.225	-0.121	0.135
-530.077	-129.914	-0.073	0.010
-529.062	-98.174	-0.320	-0.083
-528.048	77.166	0.097	0.105
-527.033	-88.905	0.257	0.077
-526.018	-90.821	0.126	0.037
-525.004	800.000	0.038	-0.161
-523.989	-177.847	0.262	-0.006
-522.975	254.553	0.193	-0.335
-521.960	-56.978	-0.088	0.039
-520.945	-18.424	-0.258	-0.163
-519.931	-200.000	-0.006	-0.088
-518.916	736.356	0.055	0.149
-517.902	-60.473	-0.310	0.133
-516.887	69.028	-0.312	-0.325
-515.872	-20.778	0.422	0.262
-514.858	800.000	-0.134	0.412
-513.843	57.563	0.040	0.040
-512.829	-23.835	0.108	0.065
-511.814	-97.134	0.187	0.049
-510.799	35.455	-0.038	-0.033
-509.785	800.000	-0.084	-0.236
-508.770	-157.022	-0.189	-0.012
-507.756	231.779	-0.047	0.078
-506.741	-100.441	-0.128	-0.032
-505.726	-200.000	0.013	0.102
-504.712	11.799	-0.107	0.083
-503.697	79.415	-0.047	0.051
-502.683	-51.300	-0.159	0.075
-501.668	331.238	0.128	-0.250
-500.653	-127.139	-0.160	0.024
-499.639	-132.315	-0.166	0.022
-498.624	-19.113	-0.172	0.108
-497.610	-37.548	0.045	0.024
-496.595	800.000	0.072	0.312
-495.581	-200.000	0.016	0.282
-494.566	561.584	0.051	0.124
-493.551	-28.213	-0.258	-0.151
-492.537	423.318	-0.026	0.057
-491.522	800.000	-0.092	-0.270
-490.508	-188.612	-0.199	-0.002
-489.493	-141.895	-0.231	0.023
-488.478	707.118	-0.111	0.295
-487.464	119.510	-0.111	-0.139
-486.449	800.000	0.095	-0.272
-485.435	-126.298	0.160	0.024
-484.420	201.290	-0.114	0.177
-483.405	-5.173	0.168	0.117
-482.391	417.771	-0.106	0.228
-481.376	36.068	0.220	0.196
-480.362	-66.606	-0.136	-0.054
-479.347	-10.619	0.132	0.088
-478.332	-200.000	0.002	0.371
-477.318	-9.294	0.127	0.086
-476.303	-72.086	0.070	0.026
-475.289	-33.946	-0.311	0.173
-474.274	-86.259	-0.228	-0.071
-473.259	-200.000	0.007	-0.082
-472.245	-200.000	0.012	0.054
-471.230	800.000	-0.009	0.030
-470.216	-66.628	-0.262	-0.105
-469.201	53.978	-0.103	-0.100
-468.186	172.650	-0.079	0.114
-467.172	638.987	0.181	0.465
-466.157	-119.921	-0.212	-0.037
-465.143	109.140	-0.136	-0.164
-464.128	-200.000	0.037	-0.170
-463.113	-102.697	-0.153	0.037
-462.099	-106.704	0.114	-0.026
-461.084	46.175	0.154	-0.144
-460.070	58.401	0.137	0.136
-459.055	-22.608	-0.083	-0.051
-458.040	384.138	0.101	-0.210
-457.026	73.165	0.157	-0.165
-456.011	98.485	0.090	-0.105
-454.997	-48.237	-0.267	-0.130
-453.982	73.971	-0.122	-0.129
-452.968	220.709	-0.179	-0.291
-451.953	-200.000	-0.025	-0.226
-450.938	104.145	0.090	-0.107
-449.924	-39.330	-0.220	-0.117
-448.909	285.951	0.094	0.170
-447.895	2.219	-0.285	0.208
-446.880	7.619	-0.263	0.198
-445.865	98.648	-0.158	-0.183
-444.851	27.803	-0.136	-0.116
-443.836	800.000	-0.029	-0.095
-442.822	-34.797	-0.131	0.072
-441.807	800.000	-0.139	0.412
-440.792	-167.971	0.387	-0.015
-439.778	63.790	-0.170	0.172
-438.763	800.000	0.077	-0.294
-437.749	-34.463	-0.297	-0.164
-436.734	-27.986	0.143	-0.083
-435.719	114.051	0.085	0.104
-434.705	-110.355	-0.125	0.026
-433.690	-103.654	0.067	0.016
-432.676	800.000	-0.059	-0.258
-431.661	-3.405	0.209	-0.147
-430.646	-39.664	0.240	-0.127
-429.632	136.860	-0.106	0.140
-428.617	-200.000	0.042	0.301
-427.603	-42.089	-0.346	0.179
-426.588	127.349	0.006	0.008
-425.573	380.944	-0.205	-0.425
-424.559	800.000	-0.052	0.159
-423.544	-145.540	0.495	-0.045
-422.530	310.500	0.159	0.301
-421.515	208.417	-0.104	0.164
-420.500	132.519	-0.169	0.220
-419.486	142.677	-0.035	0.047
-418.471	-166.295	-0.338	-0.014
-417.457	-200.000	0.008	0.355
-416.442	-65.180	0.177	0.072
-415.428	10.544	-0.266	-0.204
-414.413	-27.700	-0.201	-0.117
-413.398	-60.639	-0.236	0.101
-412.384	-87.353	0.103	0.032
-411.369	-200.000	-0.005	-0.117
-410.355	-130.735	0.054	0.007
-409.340	-200.000	-0.038	0.230
-408.325	605.642	-0.080	-0.202
-407.311	-24.394	0.370	-0.222
-406.296	-53.308	0.337	-0.156
-405.282	786.122	-0.124	-0.342
-404.267	-200.000	0.025	-0.114
-403.252	228.230	0.119	0.195
-402.238	95.300	-0.107	-0.123
-401.223	2.147	-0.091	0.066
-400.209	606.504	-0.019	-0.047
-399.194	613.775	-0.072	-0.181
-398.179	-200.000	0.027	0.123
-397.165	-124.850	0.292	-0.045
-396.150	800.000	0.081	0.298
-395.136	-72.359	-0.168	-0.063
-394.121	126.777	0.136	-0.174
-393.106	26.499	-0.167	-0.141
-392.092	260.859	0.229	0.399
-391.077	-200.000	-0.024	0.345
-390.063	-119.254	-0.286	-0.050
-389.048	-200.000	-0.002	-0.183
-388.033	-200.000	0.017	-0.084
-387.019	800.000	0.110	-0.332
-386.004	190.721	-0.047	-0.072
-384.990	-78.719	0.387	-0.133
-383.975	39.876	-0.192	-0.173
-382.960	36.753	0.089	-0.079
-381.946	-200.000	-0.012	0.335
-380.931	-115.169	-0.345	0.066
-379.917	259.618	-0.112	0.195
-378.902	-135.560	0.453	-0.054
-377.888	29.842	0.297	-0.255
-376.873	0.626	0.167	0.120
-375.858	105.302	0.064	-0.076
-374.844	486.254	0.143	0.328
-373.829	-69.418	-0.189	0.073
-372.815	-49.717	0.198	-0.095
-371.800	759.016	0.137	0.375
-370.785	119.877	-0.048	-0.060
-369.771	53.910	-0.113	0.109
-368.756	160.567	-0.148	-0.207
-367.742	-30.535	-0.052	0.030
-366.727	-75.903	-0.304	0.108
-365.712	-200.000	0.028	-0.157
-364.698	95.206	0.160	-0.184
-363.683	-200.000	-0.007	0.228
-362.669	82.020	-0.124	-0.135
-361.654	119.084	-0.181	0.225
-360.639	-200.000	-0.034	0.234
-359.625	-176.864	-0.174	-0.004
-358.610	280.758	-0.088	0.158
-357.596	800.000	-0.029	-0.104
-356.581	-138.050	0.194	0.022
-355.566	490.246	0.088	-0.203
-354.552	-40.447	-0.166	-0.087
-353.537	-21.582	0.300	-0.184
-352.523	98.165	0.217	-0.251
-351.508	-92.738	0.065	0.018
-350.493	-200.000	0.002	-0.086
-349.479	-200.000	0.075	-0.356
-348.464	-200.000	-0.041	-0.236
-347.450	-85.864	-0.072	0.022
-346.435	-11.527	-0.278	-0.184
-345.420	231.406	-0.240	-0.396
-344.406	-106.386	-0.220	-0.050
-343.391	12.289	-0.232	-0.180
-342.377	-91.612	-0.205	0.059
-341.362	-90.084	0.348	0.102
-340.348	-96.109	-0.181	0.048
-339.333	800.000	-0.081	-0.291
-338.318	-85.302	-0.278	-0.087
-337.304	-39.493	-0.303	-0.159
-336.289	800.000	-0.012	-0.044
-335.275	-97.641	0.176	0.046
-334.260	-44.615	0.125	0.063
-333.245	218.907	-0.138	0.221
-332.231	137.178	0.279	0.367
-331.216	-46.965	0.228	-0.112
-330.202	-200.000	0.125	-0.000
-329.187	138.598	0.087	0.115
-328.172	783.074	0.077	0.213
-327.158	-200.000	0.051	-0.258
-326.143	-100.064	0.344	-0.086
-325.129	800.000	-0.121	-0.402
-324.114	-67.909	0.071	-0.028
-323.099	535.102	-0.042	-0.101
-322.085	-191.929	0.291	0.003
-321.070	-85.228	-0.153	-0.048
-320.056	355.758	-0.082	0.164
-319.041	-200.000	-0.034	0.250
-318.026	110.637	0.055	0.066
-317.012	-128.298	0.175	0.025
-315.997	-72.651	0.164	0.061
-314.983	-148.922	0.148	0.012
-313.968	-118.162	-0.482	-0.086
-312.953	216.482	-0.138	0.220
-311.939	-49.901	0.089	-0.042
-310.924	-54.609	0.211	-0.096
-309.910	-122.764	0.216	-0.035
-308.895	61.935	-0.252	-0.252
-307.880	133.051	-0.080	-0.104
-306.866	160.789	0.246	-0.345
-305.851	800.000	-0.007	0.027
-304.837	97.952	0.093	0.107
-303.822	-72.277	0.197	-0.073
-302.807	38.610	0.279	-0.250
-301.793	461.023	0.089	-0.199
-300.778	79.290	0.139	0.149
-299.764	-115.252	-0.187	-0.036
-298.749	-94.697	0.213	-0.058
-297.735	-2.890	-0.121	0.085
-296.720	745.343	-0.027	-0.073
-295.705	-200.000	-0.044	0.196
-294.691	-27.605	-0.220	0.128
-293.676	-166.792	0.187	0.008
-292.662	-88.973	-0.181	-0.054
-291.647	391.862	0.088	-0.184
-290.632	-200.000	-0.038	0.325
-289.618	45.903	0.190	-0.176
-288.603	446.580	0.117	-0.259
-287.589	159.847	0.193	-0.270
-286.574	695.599	-0.022	0.059
-285.559	104.961	-0.069	-0.082
-284.545	-164.545	0.117	0.005
-283.530	-200.000	0.000	-0.077
-282.516	74.772	-0.133	0.141
-281.501	800.000	0.048	0.162
-280.486	-200.000	0.013	0.195
-279.472	76.666	0.162	0.172
-278.457	-65.290	-0.261	-0.105
-277.443	-200.000	0.027	-0.155
-276.428	490.861	-0.071	-0.163
-275.413	-200.000	0.122	-0.610
-274.399	800.000	0.088	0.356
-273.384	-74.272	0.119	-0.043
-272.370	105.939	0.111	-0.131
-271.355	-200.000	0.025	-0.174
-270.340	-200.000	-0.035	-0.267
-269.326	7.091	-0.246	-0.184
-268.311	-175.342	-0.485	-0.013
-267.297	240.795	-0.095	-0.160
-266.282	-107.594	-0.215	0.047
-265.267	-55.980	-0.202	-0.090
-264.253	-200.000	-0.002	-0.144
-263.238	-25.674	-0.159	0.094
-262.224	62.171	-0.032	-0.032
-261.209	800.000	0.025	-0.070
-260.195	-149.949	-0.347	0.027
-259.180	-152.530	-0.165	-0.012
-258.165	80.602	0.063	0.068
-257.151	-176.528	-0.058	0.002
-256.136	-131.824	-0.038	-0.005
-255.122	-17.980	-0.160	0.100
-254.107	41.218	0.206	0.186
-253.092	149.241	0.049	-0.067
-252.078	-131.871	-0.211	0.028
-251.063	299.917	0.062	-0.114
-250.049	183.347	-0.198	-0.293
-249.034	-200.000	-0.020	0.166
-248.019	-200.000	0.025	-0.199
-247.005	24.813	-0.112	0.093
-245.990	124.084	-0.061	-0.077
-244.976	-150.619	-0.194	-0.015
-243.961	106.185	0.192	-0.228
-242.946	83.437	0.235	0.256
-241.932	-162.112	-0.286	0.014
-240.917	180.864	-0.178	-0.262
-239.903	10.087	0.072	0.055
-238.888	316.661	-0.026	-0.048
-237.873	-116.896	0.139	0.026
-236.859	81.105	0.121	-0.131
-235.844	169.171	-0.082	0.117
-234.830	800.000	0.061	0.206
-233.815	-56.482	-0.353	0.157
-232.800	182.706	0.166	0.246
-231.786	-126.693	-0.224	-0.033
-230.771	-200.000	0.009	-0.246
-229.757	30.977	0.151	0.130
-228.742	-71.776	-0.071	-0.027
-227.727	-77.844	0.157	-0.054
-226.713	90.241	0.095	0.106
-225.698	800.000	-0.035	-0.150
-224.684	438.133	0.109	0.239
-223.669	-168.331	0.289	0.011
-222.655	277.642	0.087	0.155
-221.640	282.231	0.131	0.235
-220.625	-130.690	-0.178	0.024
-219.611	-15.654	-0.250	-0.160
-218.596	800.000	-0.013	-0.045
-217.582	-7.909	-0.076	-0.051
-216.567	-97.516	-0.174	0.045
-215.552	-105.959	0.205	-0.046
-214.538	579.982	-0.080	0.196
-213.523	-4.192	-0.158	-0.109
-212.509	-200.000	-0.004	-0.167
-211.494	-200.000	0.005	0.202
-210.479	-200.000	0.061	-0.481
-209.465	61.687	0.233	0.232
-208.450	-71.254	0.204	0.077
-207.436	719.446	-0.039	0.104
-206.421	-48.203	-0.281	0.136
-205.406	-122.789	0.484	0.078
-204.392	-95.373	-0.361	0.097
-203.377	140.783	-0.131	-0.173
-202.363	-37.879	0.149	0.079
-201.348	-120.176	0.036	0.006
-200.333	47.620	0.152	-0.141
-199.319	-72.425	0.079	-0.029
-198.304	40.089	0.116	0.104
-197.290	142.323	0.016	-0.021
-196.275	-200.000	0.029	-0.173
-195.260	527.344	-0.124	-0.293
-194.246	670.753	0.077	-0.198
-193.231	800.000	0.123	0.396
-192.217	-200.000	-0.058	0.331
-191.202	205.681	0.132	-0.204
-190.187	-17.483	0.254	-0.160
-189.173	800.000	0.089	0.274
-188.158	-124.137	0.421	0.066
-187.144	-56.947	-0.087	0.038
-186.129	184.075	0.221	-0.327
-185.114	-45.289	0.132	-0.066
-184.100	653.050	0.205	0.526
-183.085	-43.552	-0.441	0.222
-182.071	-170.791	-0.241	-0.008
-181.056	47.661	-0.125	-0.116
-180.042	800.000	-0.067	0.288
-179.027	800.000	0.016	0.045
-178.012	228.170	0.183	0.297
-176.998	-136.339	0.033	-0.004
-175.983	-200.000	-0.000	0.241
-174.969	-200.000	0.007	0.039
-173.954	-200.000	0.022	0.258
-172.939	-135.937	-0.077	0.009
-171.925	619.543	-0.023	0.059
-170.910	-167.515	0.413	-0.016
-169.896	45.316	-0.166	-0.153
-168.881	152.332	0.031	-0.043
-167.866	-130.136	0.190	-0.026
-166.852	-200.000	0.007	-0.108
-165.837	-59.005	-0.033	-0.014
-164.823	723.107	-0.073	-0.193
-163.808	3.745	0.017	-0.013
-162.793	-200.000	-0.023	0.218
-161.779	-92.115	-0.387	0.109
-160.764	42.281	0.179	0.162
-159.750	-67.862	0.023	0.009
-158.735	800.000	0.109	0.339
-157.720	-91.247	0.254	-0.073
-156.706	-35.672	-0.096	0.052
-155.691	-200.000	-0.053	0.270
-154.677	-80.030	0.201	0.067
-153.662	-200.000	-0.005	0.231
-152.647	-60.071	-0.238	0.101
-151.633	800.000	-0.065	0.234
-150.618	1.259	0.142	0.102
-149.604	-135.166	0.456	-0.055
-148.589	-136.626	0.261	-0.030
-147.574	404.704	0.050	0.106
-146.560	800.000	-0.088	0.328
-145.545	-140.884	-0.065	0.007
-144.531	-75.524	0.243	0.086
-143.516	7.532	0.090	0.067
-142.502	-114.375	0.169	0.032
-141.487	800.000	-0.053	0.145
-140.472	-53.489	0.239	-0.109
-139.458	-192.212	-0.362	0.003
-138.443	-200.000	-0.001	-0.168
-137.429	-200.000	0.001	0.069
-136.414	-144.896	0.398	-0.036
-135.399	-45.440	-0.077	0.038
-134.385	-38.592	-0.094	0.050
-133.370	146.571	-0.132	0.177
-132.356	28.123	0.117	-0.098
-131.341	-39.707	0.317	0.165
-130.326	-42.587	-0.076	-0.038
-129.312	238.798	-0.124	0.205
-128.297	142.499	0.202	0.267
-127.283	-67.290	-0.100	0.039
-126.268	-137.592	0.194	0.022
-125.253	-25.409	0.042	-0.025
-124.239	-121.553	0.209	-0.035
-123.224	-200.000	-0.003	-0.029
-122.210	800.000	0.111	0.395
-121.195	800.000	-0.053	0.228
