DTS Sentinel unit serial number:	SN413079Multiplexer serial number:	ORYXHardware model number:	OX4-SRSoftware version number:	ORYX F/W v4.00 Oryx Data Collector v3.7.2.0data status	okinstallation	princeton_trtdifferential loss correction	single-endedforward channel	channel 4reverse channel	N/Adate	2019/09/19time	13:29:35forward acquisition time	60.00reverse acquisition time	0.00gamma	496.2192k internal	0.2312k external	0.2312temperature offset calibration	1.0015default loss term (dB/km)	0.3790temperature slope calibration	1.0000multiplexer offset coefficient	1.0000multiplexer slope coefficient	1.0000fibre end	0.00T internal ref (°C)	29.98T ext. ref 1 (°C)	0.97T ext. ref 2 (°C)	27.07length (m)	temperature (°C)	Stokes	anti-Stokes-747.200	311.946	-0.030	0.058
-746.185	-200.000	0.009	0.308
-745.171	-200.000	-0.018	-0.207
-744.156	176.284	-0.187	-0.276
-743.142	279.642	-0.047	0.085
-742.127	800.000	0.169	0.511
-741.112	174.723	-0.213	0.313
-740.098	-200.000	-0.099	0.528
-739.083	646.948	0.072	0.186
-738.069	159.626	-0.049	0.069
-737.054	-45.504	-0.282	0.142
-736.039	-200.000	-0.014	-0.273
-735.025	-200.000	-0.072	0.405
-734.010	-150.522	-0.319	0.025
-732.996	800.000	-0.085	-0.295
-731.981	-14.942	-0.186	-0.121
-730.966	308.636	-0.089	-0.168
-729.952	535.284	0.171	-0.412
-728.937	-52.002	-0.391	0.184
-727.923	4.254	-0.146	-0.108
-726.908	800.000	-0.115	-0.392
-725.894	-200.000	0.003	-0.014
-724.879	-114.461	-0.205	0.040
-723.864	-136.371	-0.424	-0.050
-722.850	-57.639	0.108	-0.048
-721.835	-79.779	-0.227	0.077
-720.821	-200.000	-0.006	0.112
-719.806	-200.000	0.005	-0.072
-718.791	800.000	0.141	-0.406
-717.777	356.821	-0.112	0.227
-716.762	239.293	0.141	-0.238
-715.748	-200.000	-0.013	0.118
-714.733	800.000	0.080	-0.256
-713.718	21.720	0.300	0.248
-712.704	378.167	0.097	0.200
-711.689	-200.000	0.031	0.175
-710.675	-15.412	-0.079	-0.051
-709.660	88.674	0.129	0.145
-708.645	-200.000	-0.002	0.021
-707.631	800.000	0.026	-0.094
-706.616	800.000	-0.076	-0.335
-705.602	186.176	-0.037	-0.056
-704.587	-29.407	0.167	-0.097
-703.572	-200.000	0.054	-0.255
-702.558	800.000	-0.088	0.280
-701.543	-200.000	-0.030	-0.185
-700.529	70.432	-0.184	0.192
-699.514	-70.736	0.164	0.063
-698.499	-157.306	-0.413	0.025
-697.485	-61.633	0.171	0.073
-696.470	198.037	-0.080	0.123
-695.456	79.065	0.169	-0.183
-694.441	-200.000	-0.001	-0.482
-693.426	52.956	-0.154	-0.149
-692.412	-200.000	-0.061	0.330
-691.397	-111.594	-0.186	0.038
-690.383	167.149	-0.135	-0.193
-689.368	24.330	0.165	-0.138
-688.354	-74.190	0.179	-0.066
-687.339	349.520	-0.171	0.342
-686.324	7.383	-0.311	0.235
-685.310	-200.000	-0.003	0.021
-684.295	-134.285	-0.202	-0.025
-683.281	800.000	0.098	0.395
-682.266	-200.000	0.011	-0.149
-681.251	441.197	-0.186	-0.412
-680.237	-130.166	-0.157	-0.022
-679.222	800.000	0.063	-0.253
-678.208	-104.728	0.088	0.020
-677.193	-200.000	-0.080	-0.405
-676.178	800.000	-0.037	-0.119
-675.164	-109.907	-0.465	0.099
-674.149	800.000	0.023	-0.071
-673.135	-200.000	-0.007	0.054
-672.120	110.633	0.061	0.074
-671.105	720.083	-0.035	-0.095
-670.091	-69.872	-0.122	-0.047
-669.076	-80.824	-0.300	0.101
-668.062	-67.730	0.272	-0.108
-667.047	-4.761	-0.283	-0.197
-666.032	232.681	0.048	0.079
-665.018	26.027	-0.259	-0.219
-664.003	-74.042	0.478	0.175
-662.989	-200.000	0.039	0.251
-661.974	-70.097	0.297	0.114
-660.959	-61.655	-0.010	-0.004
-659.945	319.878	-0.126	-0.243
-658.930	800.000	-0.101	-0.340
-657.916	149.588	-0.107	-0.146
-656.901	800.000	0.090	0.367
-655.886	-59.980	-0.228	-0.099
-654.872	55.998	-0.032	-0.032
-653.857	-18.154	-0.134	-0.085
-652.843	365.813	-0.058	-0.117
-651.828	-44.357	0.082	-0.042
-650.814	-0.464	-0.084	-0.060
-649.799	-200.000	0.047	-0.244
-648.784	482.101	0.058	-0.134
-647.770	-200.000	0.003	-0.464
-646.755	17.528	-0.228	-0.183
-645.741	-60.377	-0.141	-0.061
-644.726	-135.028	-0.336	0.041
-643.711	800.000	-0.063	-0.260
-642.697	-181.661	0.267	-0.005
-641.682	-102.364	-0.125	-0.030
-640.668	800.000	-0.034	0.142
-639.653	264.395	-0.168	-0.296
-638.638	800.000	0.058	0.184
-637.624	-38.050	-0.145	-0.078
-636.609	-200.000	-0.020	0.224
-635.595	34.759	-0.139	0.122
-634.580	208.103	0.135	-0.214
-633.565	108.663	-0.282	-0.341
-632.551	628.153	-0.103	-0.263
-631.536	-107.498	0.075	0.017
-630.522	-8.154	0.265	0.180
-629.507	-66.456	0.136	-0.055
-628.492	-92.490	-0.068	-0.019
-627.478	323.897	-0.096	-0.185
-626.463	332.403	-0.010	-0.019
-625.449	-132.289	0.364	0.048
-624.434	151.531	0.227	-0.312
-623.419	157.885	-0.168	-0.235
-622.405	56.484	0.165	0.162
-621.390	490.470	-0.136	0.315
-620.376	-88.683	0.053	-0.016
-619.361	12.306	-0.198	0.154
-618.346	-191.881	0.149	0.001
-617.332	-156.238	-0.137	0.009
-616.317	-200.000	-0.033	0.158
-615.303	-200.000	0.030	0.152
-614.288	-84.088	0.126	-0.041
-613.273	-200.000	0.011	-0.133
-612.259	-114.793	-0.089	-0.017
-611.244	43.246	-0.083	-0.076
-610.230	-200.000	0.013	-0.337
-609.215	-172.060	-0.330	0.011
-608.201	-74.309	-0.228	0.083
-607.186	-172.490	-0.350	0.011
-606.171	-117.781	-0.290	0.053
-605.157	-170.225	0.173	-0.006
-604.142	-65.385	0.110	-0.045
-603.128	393.494	0.078	-0.163
-602.113	18.636	0.294	-0.237
-601.098	800.000	0.082	0.339
-600.084	682.315	-0.041	-0.108
-599.069	-200.000	0.032	0.222
-598.055	-21.203	0.058	0.036
-597.040	43.135	0.136	-0.125
-596.025	-118.933	-0.094	0.017
-595.011	33.473	-0.382	0.335
-593.996	-25.013	-0.180	0.108
-592.982	-144.259	-0.196	0.018
-591.967	191.923	0.056	-0.086
-590.952	156.316	0.264	-0.368
-589.938	246.439	-0.057	-0.097
-588.923	73.186	0.156	0.165
-587.909	800.000	0.074	-0.230
-586.894	-105.414	-0.051	0.012
-585.879	313.272	0.108	0.205
-584.865	-3.857	0.032	0.022
-583.850	-70.034	0.247	-0.095
-582.836	332.937	-0.082	-0.160
-581.821	-8.124	0.330	-0.224
-580.806	150.255	0.043	0.059
-579.792	-200.000	-0.022	0.102
-578.777	303.516	-0.109	-0.204
-577.763	-72.552	0.178	0.066
-576.748	-85.093	0.256	-0.081
-575.733	38.095	-0.185	0.166
-574.719	137.213	-0.325	-0.428
-573.704	228.612	-0.147	-0.242
-572.690	90.688	-0.133	0.150
-571.675	118.590	0.095	0.119
-570.661	273.893	-0.050	0.090
-569.646	209.271	-0.160	0.252
-568.631	-17.385	0.086	0.054
-567.617	-200.000	-0.014	-0.158
-566.602	-181.001	-0.069	0.001
-565.588	-200.000	-0.005	-0.257
-564.573	572.008	-0.074	0.182
-563.558	800.000	-0.078	-0.256
-562.544	800.000	0.043	-0.161
-561.529	57.466	0.234	0.230
-560.515	-4.476	0.124	0.087
-559.500	-8.110	0.297	0.202
-558.485	-60.474	0.141	-0.061
-557.471	-200.000	0.004	0.087
-556.456	197.501	0.092	0.142
-555.442	-200.000	0.030	0.265
-554.427	-46.861	-0.189	-0.093
-553.412	-4.664	-0.085	-0.059
-552.398	800.000	0.131	0.423
-551.383	-25.527	-0.191	0.114
-550.369	800.000	-0.022	0.084
-549.354	173.776	0.146	0.212
-548.339	-81.733	-0.328	-0.108
-547.325	-200.000	-0.046	0.218
-546.310	-67.240	-0.173	-0.068
-545.296	800.000	0.184	0.536
-544.281	-120.813	-0.147	0.025
-543.266	530.638	-0.066	0.157
-542.252	368.830	-0.063	0.127
-541.237	471.216	0.149	-0.338
-540.223	247.947	0.057	-0.097
-539.208	27.583	0.256	-0.217
-538.193	224.474	0.158	-0.258
-537.179	800.000	-0.089	0.390
-536.164	-57.412	-0.372	0.165
-535.150	-73.557	-0.148	0.054
-534.135	-1.512	-0.256	0.181
-533.121	7.213	-0.158	0.119
-532.106	-11.443	0.222	-0.147
-531.091	-113.302	0.100	-0.020
-530.077	263.801	-0.049	-0.086
-529.062	-8.933	-0.072	-0.049
-528.048	185.335	0.144	0.215
-527.033	-90.326	0.165	-0.048
-526.018	178.091	-0.213	-0.313
-525.004	81.658	-0.134	0.145
-523.989	739.532	-0.107	-0.289
-522.975	-137.970	-0.421	0.047
-521.960	-131.868	0.422	-0.055
-520.945	-4.254	-0.169	-0.117
-519.931	52.188	0.298	0.286
-518.916	-200.000	-0.006	0.208
-517.902	-1.663	-0.181	0.128
-516.887	385.434	-0.163	-0.338
-515.872	-110.925	-0.208	0.043
-514.858	25.432	-0.064	-0.053
-513.843	800.000	0.097	0.286
-512.829	800.000	-0.094	-0.296
-511.814	-72.139	-0.389	0.145
-510.799	800.000	0.126	-0.384
-509.785	333.578	0.049	-0.096
-508.770	-54.486	-0.263	-0.120
-507.756	48.875	-0.272	-0.257
-506.741	-200.000	0.018	0.085
-505.726	-87.484	0.379	0.115
-504.712	-200.000	0.058	-0.347
-503.697	561.660	-0.023	0.056
-502.683	8.367	0.173	-0.130
-501.668	-153.700	-0.235	0.016
-500.653	-200.000	-0.029	0.187
-499.639	-77.674	-0.049	0.017
-498.624	37.130	0.241	-0.214
-497.610	-161.280	0.095	-0.005
-496.595	-74.141	0.253	0.092
-495.581	-70.462	-0.195	0.074
-494.566	58.160	0.240	-0.237
-493.551	132.729	-0.112	-0.146
-492.537	780.612	-0.036	-0.098
-491.522	-200.000	-0.062	-0.467
-490.508	310.047	-0.109	-0.206
-489.493	-2.254	-0.244	-0.172
-488.478	445.439	-0.042	0.093
-487.464	-26.134	0.267	0.158
-486.449	390.417	-0.109	-0.228
-485.435	24.652	-0.233	0.193
-484.420	-84.864	-0.135	0.042
-483.405	-20.374	0.121	-0.075
-482.391	261.959	-0.191	0.332
-481.376	-60.032	-0.140	0.060
-480.362	800.000	-0.086	0.376
-479.347	21.773	0.339	0.277
-478.332	126.589	-0.030	0.039
-477.318	5.395	0.275	0.204
-476.303	-57.563	0.061	0.027
-475.289	93.133	-0.107	-0.122
-474.274	366.664	-0.084	0.170
-473.259	-89.139	-0.229	0.068
-472.245	800.000	-0.100	-0.286
-471.230	44.292	0.041	0.037
-470.216	14.843	-0.282	0.221
-469.201	349.121	-0.102	0.202
-468.186	327.366	-0.076	0.147
-467.172	26.290	-0.171	-0.143
-466.157	-147.175	0.082	-0.007
-465.143	-133.719	-0.198	-0.025
-464.128	-20.591	0.083	0.051
-463.113	53.546	-0.267	0.257
-462.099	800.000	0.080	0.231
-461.084	156.022	0.138	0.191
-460.070	404.548	-0.040	0.084
-459.055	-68.058	0.068	-0.027
-458.040	11.015	-0.079	0.061
-457.026	12.938	0.182	-0.141
-456.011	-51.689	0.197	-0.092
-454.997	-200.000	-0.057	-0.266
-453.982	116.959	-0.127	0.157
-452.968	-84.914	0.361	-0.114
-451.953	-200.000	-0.014	-0.094
-450.938	-7.246	0.287	-0.195
-449.924	38.005	-0.313	0.279
-448.909	91.504	0.134	0.151
-447.895	86.009	-0.102	0.113
-446.880	120.600	-0.235	-0.293
-445.865	-200.000	0.013	0.155
-444.851	-200.000	0.017	0.357
-443.836	-121.658	-0.333	-0.055
-442.822	-150.599	-0.348	-0.027
-441.807	-131.033	-0.142	-0.019
-440.792	192.526	-0.139	0.210
-439.778	635.615	-0.005	-0.014
-438.763	800.000	0.046	0.140
-437.749	741.539	-0.099	-0.266
-436.734	-22.118	-0.202	0.123
-435.719	800.000	-0.021	0.089
-434.705	-150.613	0.222	-0.017
-433.690	-141.243	-0.150	0.015
-432.676	800.000	0.049	-0.147
-431.661	-77.359	-0.129	-0.045
-430.646	-175.494	0.264	0.007
-429.632	3.539	-0.151	-0.110
-428.617	800.000	-0.043	0.164
-427.603	62.586	0.096	0.096
-426.588	26.749	-0.133	-0.111
-425.573	-110.263	0.129	0.027
-424.559	29.829	-0.259	-0.221
-423.544	-156.038	0.328	-0.021
-422.530	-157.414	0.127	0.008
-421.515	139.179	0.210	0.276
-420.500	-86.812	0.090	0.028
-419.486	-79.467	-0.470	-0.159
-418.471	-200.000	0.008	-0.369
-417.457	-200.000	0.023	0.308
-416.442	800.000	0.103	0.383
-415.428	800.000	0.035	0.108
-414.413	14.822	0.213	-0.167
-413.398	31.148	-0.090	-0.077
-412.384	-145.754	0.124	-0.011
-411.369	-189.683	0.117	-0.001
-410.355	800.000	0.118	-0.359
-409.340	800.000	-0.060	0.211
-408.325	800.000	0.029	0.091
-407.311	-100.343	-0.342	0.085
-406.296	5.789	-0.217	-0.161
-405.282	-200.000	-0.015	0.355
-404.267	21.925	0.155	0.126
-403.252	-126.868	0.422	-0.062
-402.238	-86.496	0.264	0.081
-401.223	-200.000	-0.027	0.158
-400.209	-63.630	0.307	0.126
-399.194	-58.753	0.371	-0.161
-398.179	47.852	0.122	-0.114
-397.165	-14.685	0.161	-0.104
-396.150	-61.483	0.303	0.128
-395.136	-200.000	-0.007	0.043
-394.121	223.188	-0.074	-0.119
-393.106	-104.292	-0.430	0.100
-392.092	11.594	-0.099	-0.076
-391.077	-36.203	-0.265	-0.143
-390.063	-78.227	-0.006	0.002
-389.048	141.331	0.084	-0.111
-388.033	-6.919	-0.049	0.034
-387.019	800.000	0.086	-0.292
-386.004	73.060	0.203	-0.212
-384.990	800.000	-0.082	0.254
-383.975	-200.000	0.064	0.540
-382.960	-132.303	0.016	-0.002
-381.946	-112.234	-0.068	-0.014
-380.931	-45.744	0.135	0.067
-379.917	800.000	-0.064	0.211
-378.902	-96.234	-0.195	-0.052
-377.888	-90.125	0.011	-0.003
-376.873	58.821	-0.335	-0.329
-375.858	-141.293	-0.446	-0.045
-374.844	304.805	-0.080	-0.149
-373.829	-200.000	0.049	-0.268
-372.815	-102.299	-0.325	-0.078
-371.800	-41.011	-0.282	0.146
-370.785	-200.000	0.023	0.285
-369.771	-200.000	-0.026	0.230
-368.756	86.426	-0.167	-0.184
-367.742	-69.075	-0.176	-0.068
-366.727	16.441	-0.333	0.263
-365.712	225.467	0.063	0.103
-364.698	35.519	0.099	-0.087
-363.683	-200.000	-0.008	0.250
-362.669	-200.000	-0.009	-0.157
-361.654	-44.994	-0.063	-0.031
-360.639	-24.829	-0.100	0.060
-359.625	-200.000	0.015	-0.152
-358.610	-114.850	0.087	-0.016
-357.596	-200.000	-0.034	-0.308
-356.581	157.332	-0.181	-0.250
-355.566	648.341	-0.013	0.033
-354.552	-200.000	-0.012	0.096
-353.537	-200.000	0.002	0.027
-352.523	-175.574	0.290	0.008
-351.508	-138.064	-0.268	0.030
-350.493	-20.077	0.227	0.140
-349.479	-82.232	0.336	-0.109
-348.464	-143.044	0.198	0.019
-347.450	-43.287	-0.187	0.095
-346.435	800.000	0.015	0.059
-345.420	489.863	0.057	0.131
-344.406	-200.000	-0.004	-0.093
-343.391	-53.551	0.064	-0.029
-342.377	-147.978	-0.005	0.000
-341.362	-81.461	0.279	0.092
-340.348	93.251	0.099	-0.112
-339.333	-200.000	-0.065	-0.356
-338.318	-71.309	0.142	0.053
-337.304	-156.968	0.349	0.021
-336.289	79.281	0.085	-0.091
-335.275	800.000	0.148	0.443
-334.260	631.950	0.118	-0.298
-333.245	94.078	-0.104	0.118
-332.231	-131.958	-0.144	-0.019
-331.216	-20.492	-0.149	0.091
-330.202	-12.738	-0.100	-0.065
-329.187	-14.171	0.230	0.148
-328.172	383.782	-0.155	-0.318
-327.158	-200.000	0.001	0.234
-326.143	-77.972	0.279	0.096
-325.129	800.000	-0.096	-0.275
-324.114	212.630	-0.182	0.286
-323.099	-23.048	-0.158	-0.095
-322.085	-57.940	0.095	-0.041
-321.070	-45.738	0.279	-0.138
-320.056	-72.798	0.191	-0.070
-319.041	-86.641	0.103	-0.031
-318.026	-52.725	-0.184	-0.085
-317.012	334.506	0.153	0.295
-315.997	800.000	-0.069	-0.238
-314.983	800.000	-0.160	-0.468
-313.968	116.954	-0.080	0.098
-312.953	-164.539	0.175	0.008
-311.939	207.164	0.303	0.472
-310.924	-63.204	-0.258	0.106
-309.910	-12.742	-0.271	-0.176
-308.895	-200.000	-0.018	0.289
-307.880	-200.000	-0.011	-0.072
-306.866	29.888	-0.102	-0.087
-305.851	49.699	0.061	0.058
-304.837	87.940	0.253	0.280
-303.822	-200.000	-0.027	-0.179
-302.807	103.949	-0.214	0.251
-301.793	-38.167	-0.225	0.119
-300.778	52.653	0.174	-0.166
-299.764	151.935	-0.151	0.206
-298.749	68.955	-0.161	-0.165
-297.735	-69.932	-0.205	0.078
-296.720	-28.840	0.394	-0.226
-295.705	-106.030	0.265	0.059
-294.691	85.424	0.209	-0.229
-293.676	4.455	0.255	0.186
-292.662	136.769	-0.059	-0.077
-291.647	90.148	0.021	-0.023
-290.632	266.698	-0.179	0.312
-289.618	97.115	-0.156	-0.179
-288.603	-160.919	-0.313	-0.016
-287.589	-6.203	-0.111	0.075
-286.574	800.000	0.066	0.214
-285.559	-200.000	0.037	0.280
-284.545	-64.760	0.400	-0.161
-283.530	191.703	0.118	-0.177
-282.516	800.000	0.018	0.056
-281.501	-178.765	0.111	-0.003
-280.486	800.000	0.073	0.272
-279.472	-61.694	0.252	0.105
-278.457	800.000	-0.055	0.158
-277.443	-200.000	0.019	0.127
-276.428	-41.141	0.161	0.083
-275.413	-96.419	0.071	-0.019
-274.399	-122.103	0.104	-0.017
-273.384	-139.266	0.339	0.036
-272.370	800.000	0.020	-0.073
-271.355	-200.000	-0.007	0.111
-270.340	-16.627	0.115	-0.072
-269.326	-25.998	0.276	-0.162
-268.311	800.000	-0.018	0.057
-267.297	-89.349	-0.217	-0.064
-266.282	-129.078	-0.031	-0.004
-265.267	-200.000	0.016	-0.254
-264.253	-112.530	-0.074	-0.015
-263.238	-63.750	-0.305	0.124
-262.224	554.672	-0.110	-0.264
-261.209	-200.000	-0.034	-0.162
-260.195	-200.000	-0.018	0.195
-259.180	22.004	0.110	-0.090
-258.165	154.692	-0.278	0.381
-257.151	-94.517	-0.120	0.033
-256.136	-44.063	-0.099	-0.050
-255.122	-122.102	0.384	-0.063
-254.107	20.772	0.102	0.082
-253.092	-54.759	0.127	0.057
-252.078	-200.000	0.042	0.313
-251.063	177.754	-0.113	-0.164
-250.049	248.507	0.011	-0.018
-249.034	313.048	-0.138	0.258
-248.019	-101.316	0.323	-0.078
-247.005	-65.179	-0.077	-0.031
-245.990	203.588	-0.094	0.145
-244.976	304.666	-0.135	-0.249
-243.961	-200.000	0.080	-0.434
-242.946	142.444	-0.154	0.203
-241.932	687.645	-0.020	0.051
-240.917	199.357	0.245	-0.374
-239.903	-108.155	0.304	-0.065
-238.888	359.264	0.078	0.155
-237.873	-149.726	0.466	-0.036
-236.859	104.223	0.132	-0.154
-235.844	-43.060	0.135	0.068
-234.830	-68.110	-0.352	0.136
-233.815	13.016	0.169	0.130
-232.800	-39.071	-0.074	-0.038
-231.786	-59.670	0.525	0.224
-230.771	-111.223	-0.296	-0.060
-229.757	79.699	0.288	0.307
-228.742	121.165	0.200	-0.248
-227.727	-200.000	0.003	0.169
-226.713	-200.000	-0.009	-0.244
-225.698	800.000	0.041	-0.169
-224.684	-200.000	-0.010	-0.139
-223.669	-130.019	0.235	-0.032
-222.655	-101.966	0.370	-0.089
-221.640	800.000	-0.065	-0.274
-220.625	171.687	0.072	0.102
-219.611	-40.510	0.208	-0.107
-218.596	505.942	0.056	-0.130
-217.582	-200.000	-0.050	-0.433
-216.567	291.213	0.052	-0.094
-215.552	134.065	-0.059	-0.076
-214.538	339.876	0.031	0.060
-213.523	523.788	-0.083	-0.193
-212.509	10.906	0.118	-0.089
-211.494	317.074	0.063	0.118
-210.479	-134.217	-0.056	0.007
-209.465	495.669	-0.057	-0.131
-208.450	-99.275	-0.257	-0.064
-207.436	123.112	0.281	-0.350
-206.421	4.239	0.099	-0.072
-205.406	24.249	-0.061	-0.050
-204.392	233.009	-0.135	-0.220
-203.377	590.654	-0.158	0.387
-202.363	692.073	-0.038	0.099
-201.348	-120.098	0.189	-0.032
-200.333	800.000	-0.030	-0.122
-199.319	-85.962	-0.153	-0.047
-198.304	218.898	0.053	0.084
-197.290	800.000	0.069	-0.235
-196.275	16.749	0.202	0.159
-195.260	-41.322	-0.188	0.096
-194.246	-31.423	0.465	0.260
-193.231	-21.173	-0.082	0.050
-192.217	42.259	-0.096	-0.087
-191.202	60.068	-0.068	-0.067
-190.187	165.604	-0.044	-0.061
-189.173	800.000	0.020	0.068
-188.158	-185.013	-0.199	0.003
-187.144	140.034	-0.214	0.280
-186.129	-141.404	0.289	0.029
-185.114	-42.139	-0.354	0.180
-184.100	268.276	0.208	0.362
-183.085	-135.335	0.118	-0.014
-182.071	-200.000	-0.020	-0.276
-181.056	410.436	0.055	-0.115
-180.042	211.294	0.170	-0.265
-179.027	-200.000	0.007	0.206
-178.012	-200.000	0.012	0.195
-176.998	-99.337	-0.130	-0.033
-175.983	470.606	-0.043	-0.095
-174.969	-200.000	-0.022	-0.326
-173.954	180.373	-0.111	0.161
-172.939	-88.054	-0.234	-0.070
-171.925	80.512	0.106	0.113
-170.910	261.232	-0.117	0.201
-169.896	-200.000	0.039	0.287
-168.881	152.330	0.084	0.113
-167.866	409.534	0.024	-0.051
-166.852	-20.960	0.188	0.114
-165.837	800.000	0.041	0.136
-164.823	31.687	-0.041	0.035
-163.808	-147.642	0.301	0.025
-162.793	-97.413	-0.119	-0.031
-161.779	214.564	-0.059	0.092
-160.764	-153.909	0.179	-0.012
-159.750	-6.163	0.234	0.158
-158.735	-149.747	0.035	-0.003
-157.720	-5.182	-0.167	-0.114
-156.706	-200.000	0.019	-0.088
-155.691	461.436	0.085	-0.189
-154.677	555.250	0.084	-0.200
-153.662	-58.141	-0.282	0.122
-152.647	-113.822	-0.169	-0.033
-151.633	46.859	-0.082	0.075
-150.618	-61.225	-0.066	-0.028
-149.604	800.000	0.052	0.217
-148.589	800.000	-0.047	-0.157
-147.574	-26.413	0.212	0.123
-146.560	-86.895	-0.118	-0.036
-145.545	-96.691	0.066	-0.017
-144.531	-200.000	-0.024	0.263
-143.516	386.447	-0.142	-0.290
-142.502	-200.000	0.004	-0.208
-141.487	11.298	0.281	-0.213
-140.472	-66.098	0.128	-0.050
-139.458	399.584	-0.065	-0.135
-138.443	-200.000	0.060	0.295
-137.429	-200.000	0.002	0.092
-136.414	493.841	-0.132	0.299
-135.399	-200.000	-0.002	-0.045
-134.385	39.653	0.260	-0.231
-133.370	-96.581	0.215	-0.056
-132.356	72.044	-0.212	-0.219
-131.341	704.441	-0.064	0.168
-130.326	223.790	0.173	0.276
-129.312	-200.000	-0.006	-0.055
-128.297	-200.000	-0.014	0.213
-127.283	-200.000	-0.039	-0.175
-126.268	-84.855	0.162	-0.050
-125.253	-200.000	0.016	-0.369
-124.239	736.562	0.088	-0.235
-123.224	65.031	0.079	-0.079
-122.210	212.131	0.186	-0.290
