DTS Sentinel unit serial number:	SN413079Multiplexer serial number:	ORYXHardware model number:	OX4-SRSoftware version number:	ORYX F/W v4.00 Oryx Data Collector v3.7.2.0data status	okinstallation	princeton_trtdifferential loss correction	single-endedforward channel	channel 4reverse channel	N/Adate	2019/09/15time	10:41:35forward acquisition time	60.00reverse acquisition time	0.00gamma	496.2192k internal	0.2299k external	0.2299temperature offset calibration	1.0015default loss term (dB/km)	0.3790temperature slope calibration	1.0000multiplexer offset coefficient	1.0000multiplexer slope coefficient	1.0000fibre end	0.00T internal ref (°C)	34.25T ext. ref 1 (°C)	5.03T ext. ref 2 (°C)	29.52length (m)	temperature (°C)	Stokes	anti-Stokes-747.200	153.097	0.247	0.345
-746.185	131.268	0.316	0.414
-745.171	-200.000	-0.017	-0.176
-744.156	800.000	0.067	0.270
-743.142	-200.000	0.010	-0.295
-742.127	-47.120	0.363	0.180
-741.112	189.551	0.141	0.216
-740.098	-200.000	0.155	0.771
-739.083	11.065	0.200	-0.156
-738.069	-200.000	0.022	0.158
-737.054	701.735	0.097	0.259
-736.039	132.504	-0.209	-0.275
-735.025	-200.000	0.112	-0.000
-734.010	800.000	-0.107	-0.369
-732.996	-42.994	-0.122	-0.063
-731.981	-200.000	-0.021	0.226
-730.966	-115.016	-0.261	-0.051
-729.952	415.796	0.050	-0.109
-728.937	-40.958	0.196	-0.103
-727.923	258.277	-0.162	-0.285
-726.908	-200.000	-0.038	-0.172
-725.894	222.556	0.055	0.090
-724.879	47.829	-0.118	-0.112
-723.864	800.000	-0.019	-0.060
-722.850	800.000	0.118	0.401
-721.835	157.105	0.159	0.224
-720.821	139.927	-0.203	-0.273
-719.806	122.279	-0.087	-0.110
-718.791	-200.000	0.005	0.057
-717.777	-180.916	-0.333	-0.007
-716.762	162.348	0.197	-0.281
-715.748	800.000	-0.040	-0.134
-714.733	94.870	0.061	0.071
-713.718	-200.000	0.004	-0.181
-712.704	-167.684	-0.291	0.012
-711.689	793.050	-0.064	-0.180
-710.675	161.820	0.092	-0.131
-709.660	21.146	-0.166	-0.137
-708.645	5.898	0.140	0.106
-707.631	-200.000	0.005	-0.023
-706.616	-136.682	0.237	-0.028
-705.602	526.070	-0.069	-0.165
-704.587	-152.557	-0.217	-0.016
-703.572	257.220	0.300	-0.526
-702.558	394.755	-0.127	-0.271
-701.543	-200.000	0.032	0.294
-700.529	800.000	0.030	-0.111
-699.514	-159.540	-0.399	-0.023
-698.499	800.000	0.080	-0.352
-697.485	-79.140	-0.257	0.089
-696.470	-128.923	-0.152	0.022
-695.456	-200.000	0.024	-0.126
-694.441	-200.000	0.005	0.135
-693.426	-12.772	0.049	0.033
-692.412	735.417	-0.084	0.230
-691.397	372.009	0.126	0.260
-690.383	-22.766	-0.165	0.102
-689.368	800.000	-0.054	-0.224
-688.354	800.000	-0.036	-0.148
-687.339	-128.368	0.134	-0.019
-686.324	-132.036	-0.084	-0.011
-685.310	49.137	-0.105	0.100
-684.295	-141.653	0.148	0.015
-683.281	-64.160	-0.311	0.129
-682.266	-43.989	-0.290	-0.149
-681.251	37.839	-0.135	0.122
-680.237	-78.060	-0.288	0.101
-679.222	-3.143	0.223	0.158
-678.208	60.093	-0.072	-0.073
-677.193	-127.464	0.129	-0.019
-676.178	800.000	-0.095	0.331
-675.164	-120.834	-0.174	0.030
-674.149	-159.308	-0.564	-0.032
-673.135	-23.959	-0.380	0.232
-672.120	215.885	0.199	0.322
-671.105	-69.340	0.202	-0.079
-670.091	-54.181	0.136	0.063
-669.076	698.496	0.058	-0.154
-668.062	-200.000	-0.006	0.137
-667.047	302.488	0.068	0.128
-666.032	800.000	0.073	0.292
-665.018	-151.337	0.080	0.006
-664.003	-75.323	0.118	0.043
-662.989	-41.700	0.112	0.059
-661.974	106.497	0.053	-0.064
-660.959	800.000	-0.028	0.090
-659.945	-61.819	0.022	-0.009
-658.930	800.000	0.092	-0.324
-657.916	800.000	-0.024	-0.077
-656.901	-135.872	-0.148	0.018
-655.886	-200.000	0.024	-0.197
-654.872	75.400	0.079	0.085
-653.857	568.130	-0.043	-0.107
-652.843	229.987	-0.175	0.292
-651.828	439.975	0.090	-0.200
-650.814	449.664	-0.137	-0.308
-649.799	-29.228	0.120	0.070
-648.784	-84.518	0.466	-0.149
-647.770	-86.082	0.121	0.038
-646.755	-200.000	0.035	0.359
-645.741	-112.548	0.307	-0.062
-644.726	-200.000	-0.015	0.407
-643.711	2.550	0.144	-0.106
-642.697	-200.000	0.049	-0.280
-641.682	-3.736	-0.202	0.142
-640.668	-200.000	-0.025	0.182
-639.653	-59.584	0.076	-0.033
-638.638	404.313	0.126	-0.271
-637.624	-8.369	0.312	0.213
-636.609	-200.000	0.008	0.299
-635.595	10.202	0.292	-0.225
-634.580	-97.261	-0.149	-0.040
-633.565	216.746	0.087	0.140
-632.551	-200.000	-0.007	0.053
-631.536	-200.000	-0.009	-0.142
-630.522	15.568	-0.134	-0.107
-629.507	-200.000	0.020	0.166
-628.492	74.463	-0.113	-0.121
-627.478	-98.654	-0.033	-0.009
-626.463	-69.467	0.161	0.063
-625.449	-200.000	-0.012	-0.069
-624.434	9.644	-0.202	-0.156
-623.419	283.022	0.024	-0.044
-622.405	117.829	-0.389	0.487
-621.390	115.402	-0.118	-0.146
-620.376	62.890	-0.104	0.106
-619.361	-131.276	0.154	-0.021
-618.346	3.270	0.329	0.243
-617.332	244.604	-0.155	-0.265
-616.317	-200.000	-0.024	-0.179
-615.303	-125.461	0.349	-0.054
-614.288	-29.818	0.082	-0.047
-613.273	35.475	-0.121	0.108
-612.259	71.737	0.087	-0.092
-611.244	-200.000	-0.002	-0.080
-610.230	-80.281	-0.491	0.167
-609.215	-113.797	-0.176	-0.035
-608.201	339.091	-0.063	-0.124
-607.186	70.814	-0.092	0.097
-606.171	76.847	0.076	-0.082
-605.157	-79.473	-0.062	0.021
-604.142	-200.000	-0.002	-0.178
-603.128	47.838	0.197	-0.187
-602.113	-62.715	-0.490	0.206
-601.098	436.624	-0.125	-0.277
-600.084	-105.956	0.279	-0.064
-599.069	-114.812	0.097	0.019
-598.055	18.271	-0.094	0.076
-597.040	-137.406	0.222	-0.025
-596.025	-50.554	0.386	-0.185
-595.011	800.000	-0.076	-0.268
-593.996	-163.788	0.031	0.001
-592.982	-23.860	-0.135	-0.082
-591.967	17.624	-0.101	-0.081
-590.952	101.661	0.112	-0.132
-589.938	251.829	-0.072	-0.124
-588.923	-147.166	-0.061	0.005
-587.909	-115.552	0.178	-0.034
-586.894	-200.000	-0.013	0.167
-585.879	98.270	0.145	-0.170
-584.865	51.984	-0.128	0.124
-583.850	41.823	-0.183	-0.168
-582.836	-74.369	0.115	-0.042
-581.821	-111.966	0.181	-0.037
-580.806	-200.000	0.033	-0.249
-579.792	-69.538	-0.193	0.075
-578.777	-200.000	-0.070	-0.392
-577.763	800.000	-0.026	0.076
-576.748	-76.420	-0.092	-0.033
-575.733	-139.732	0.261	0.028
-574.719	-200.000	-0.007	0.184
-573.704	-161.134	-0.626	-0.033
-572.690	-79.829	-0.292	-0.100
-571.675	140.634	0.144	-0.193
-570.661	-200.000	-0.024	-0.287
-569.646	-200.000	0.017	-0.092
-568.631	-101.843	0.300	0.074
-567.617	-1.390	-0.130	0.093
-566.602	800.000	0.048	-0.203
-565.588	-200.000	0.021	-0.126
-564.573	-78.373	-0.049	0.017
-563.558	708.899	0.054	-0.143
-562.544	-115.118	0.158	-0.030
-561.529	800.000	-0.051	-0.158
-560.515	149.492	-0.243	0.333
-559.500	-101.257	-0.107	0.027
-558.485	-15.041	-0.374	-0.243
-557.471	2.238	0.240	-0.176
-556.456	217.952	0.177	-0.286
-555.442	800.000	-0.100	-0.369
-554.427	800.000	-0.019	0.079
-553.412	-45.173	0.103	-0.052
-552.398	235.548	-0.093	-0.156
-551.383	-40.180	-0.258	-0.136
-550.369	-200.000	0.035	-0.353
-549.354	-0.840	0.247	-0.177
-548.339	4.928	-0.067	0.050
-547.325	86.475	0.156	-0.174
-546.310	-61.978	-0.279	-0.118
-545.296	-140.086	0.371	-0.040
-544.281	218.518	-0.086	0.139
-543.266	-99.480	0.134	-0.034
-542.252	-152.932	0.207	-0.015
-541.237	-184.103	0.069	0.001
-540.223	-164.430	-0.094	0.004
-539.208	116.106	0.100	-0.124
-538.193	70.399	-0.111	0.116
-537.179	0.217	-0.143	0.104
-536.164	-83.286	0.346	0.113
-535.150	-165.500	0.145	-0.006
-534.135	-167.424	-0.079	-0.003
-533.121	-200.000	0.029	-0.204
-532.106	-131.818	-0.046	0.006
-531.091	-200.000	0.024	0.166
-530.077	-8.839	-0.142	-0.096
-529.062	-200.000	-0.012	-0.202
-528.048	-133.284	-0.168	-0.021
-527.033	800.000	0.050	-0.195
-526.018	-200.000	-0.022	-0.270
-525.004	-126.188	-0.286	0.043
-523.989	-124.808	0.276	0.043
-522.975	186.901	-0.084	-0.126
-521.960	494.365	0.128	0.298
-520.945	163.217	0.044	-0.063
-519.931	-144.406	-0.292	-0.027
-518.916	7.004	-0.094	0.071
-517.902	764.601	0.091	-0.249
-516.887	-3.578	0.077	-0.054
-515.872	31.733	-0.239	0.208
-514.858	-200.000	0.058	-0.263
-513.843	155.852	-0.056	0.079
-512.829	35.789	-0.112	0.099
-511.814	313.268	-0.062	0.118
-510.799	-159.141	0.261	-0.015
-509.785	75.663	0.287	0.307
-508.770	-143.877	0.335	-0.032
-507.756	374.246	-0.096	0.197
-506.741	40.465	-0.181	-0.165
-505.726	-83.591	-0.317	-0.102
-504.712	-123.680	-0.072	-0.012
-503.697	-153.688	0.178	0.012
-502.683	-99.820	-0.234	-0.059
-501.668	-36.979	0.080	-0.043
-500.653	361.653	0.054	-0.110
-499.639	-200.000	0.029	0.154
-498.624	-28.579	0.236	-0.137
-497.610	-200.000	-0.014	-0.425
-496.595	-62.076	-0.222	0.094
-495.581	-93.669	-0.092	-0.026
-494.566	168.180	0.063	0.091
-493.551	-200.000	0.013	0.211
-492.537	-106.385	-0.293	-0.066
-491.522	324.571	-0.149	0.288
-490.508	46.195	-0.054	-0.050
-489.493	-123.748	-0.226	-0.036
-488.478	-72.275	0.438	-0.164
-487.464	800.000	0.094	0.389
-486.449	-200.000	0.030	0.178
-485.435	196.096	0.100	-0.154
-484.420	394.079	-0.035	-0.074
-483.405	-48.058	-0.160	-0.078
-482.391	-68.158	0.330	0.130
-481.376	53.903	0.106	0.103
-480.362	156.990	0.085	-0.118
-479.347	-127.261	-0.312	0.046
-478.332	-89.510	-0.155	-0.046
-477.318	157.202	-0.215	-0.300
-476.303	-70.378	0.237	0.091
-475.289	-200.000	-0.020	-0.127
-474.274	-45.831	0.129	-0.064
-473.259	-200.000	0.046	-0.323
-472.245	12.582	-0.143	-0.111
-471.230	-27.931	0.100	0.059
-470.216	126.057	0.131	0.167
-469.201	-76.389	-0.238	-0.085
-468.186	57.728	-0.392	0.387
-467.172	-200.000	0.008	0.080
-466.157	750.203	0.126	-0.343
-465.143	-119.311	0.285	0.050
-464.128	-69.353	0.169	-0.065
-463.113	-200.000	-0.005	-0.411
-462.099	314.114	0.055	-0.105
-461.084	-200.000	0.025	0.110
-460.070	-98.562	-0.393	-0.101
-459.055	-162.471	0.476	0.024
-458.040	-200.000	0.031	0.200
-457.026	-13.193	-0.145	0.095
-456.011	13.703	-0.194	-0.152
-454.997	347.951	-0.089	-0.177
-453.982	-200.000	0.024	-0.253
-452.968	800.000	-0.059	-0.209
-451.953	-37.546	0.363	-0.195
-450.938	702.884	-0.100	0.267
-449.924	-200.000	0.016	-0.221
-448.909	-15.933	0.173	0.111
-447.895	-200.000	-0.019	0.335
-446.880	-99.996	0.125	-0.031
-445.865	-146.982	-0.269	0.023
-444.851	-35.874	-0.110	0.060
-443.836	-200.000	-0.031	0.226
-442.822	-200.000	0.045	0.385
-441.807	11.840	-0.226	0.175
-440.792	187.112	0.083	0.125
-439.778	41.273	0.043	-0.039
-438.763	-200.000	0.033	-0.200
-437.749	-200.000	-0.014	-0.080
-436.734	-200.000	0.082	0.481
-435.719	-200.000	0.000	0.168
-434.705	-131.602	0.215	-0.028
-433.690	-200.000	-0.009	0.296
-432.676	800.000	-0.018	0.056
-431.661	-36.272	-0.245	-0.133
-430.646	800.000	-0.033	0.136
-429.632	800.000	-0.022	0.075
-428.617	-36.069	-0.157	-0.086
-427.603	-200.000	0.023	-0.117
-426.588	35.078	0.182	-0.161
-425.573	-131.732	0.129	-0.017
-424.559	389.869	-0.169	0.354
-423.544	-111.893	0.130	-0.026
-422.530	168.517	-0.217	-0.311
-421.515	-94.363	0.112	-0.031
-420.500	1.758	-0.241	0.175
-419.486	-176.722	-0.074	0.002
-418.471	-78.378	-0.155	0.053
-417.457	-200.000	0.014	-0.202
-416.442	800.000	0.061	-0.175
-415.428	123.764	-0.037	0.047
-414.413	128.041	-0.107	0.137
-413.398	121.531	-0.065	0.081
-412.384	-104.794	-0.325	-0.075
-411.369	-98.692	0.094	-0.024
-410.355	117.486	0.130	0.161
-409.340	229.451	0.146	0.241
-408.325	531.181	-0.110	-0.263
-407.311	-200.000	-0.029	0.247
-406.296	-99.247	-0.187	-0.048
-405.282	34.903	0.066	0.058
-404.267	-200.000	-0.027	-0.186
-403.252	-200.000	-0.038	-0.276
-402.238	26.859	-0.227	-0.192
-401.223	800.000	0.059	-0.194
-400.209	634.172	0.039	-0.100
-399.194	-200.000	0.002	-0.230
-398.179	-138.978	-0.169	0.018
-397.165	-153.877	-0.461	0.032
-396.150	24.003	0.171	-0.142
-395.136	2.333	-0.297	0.217
-394.121	-200.000	-0.001	-0.315
-393.106	-200.000	0.012	-0.374
-392.092	118.819	0.035	0.044
-391.077	-149.239	0.059	-0.005
-390.063	-12.031	-0.084	-0.055
-389.048	-200.000	-0.014	0.381
-388.033	138.231	-0.229	0.302
-387.019	-200.000	-0.049	0.250
-386.004	332.920	-0.098	-0.191
-384.990	-157.266	0.293	-0.018
-383.975	28.266	-0.153	-0.130
-382.960	-51.643	-0.038	-0.018
-381.946	388.348	0.116	-0.241
-380.931	-159.122	-0.348	-0.020
-379.917	-83.374	0.445	0.144
-378.902	800.000	-0.051	0.182
-377.888	795.366	0.125	-0.348
-376.873	160.663	0.238	0.335
-375.858	-200.000	-0.062	0.371
-374.844	7.591	0.127	-0.095
-373.829	-200.000	0.052	-0.287
-372.815	-200.000	-0.036	0.179
-371.800	-5.285	0.098	0.067
-370.785	106.510	-0.063	-0.075
-369.771	43.457	-0.175	0.161
-368.756	-200.000	-0.025	0.140
-367.742	-200.000	-0.028	0.143
-366.727	85.506	0.142	0.157
-365.712	-110.150	-0.086	0.018
-364.698	565.266	0.182	-0.444
-363.683	-200.000	0.008	-0.105
-362.669	370.098	-0.045	0.092
-361.654	47.901	0.110	0.103
-360.639	97.801	-0.038	0.044
-359.625	15.973	0.105	0.083
-358.610	-102.262	0.121	-0.029
-357.596	1.477	0.295	-0.213
-356.581	-200.000	0.037	-0.239
-355.566	-200.000	-0.011	-0.150
-354.552	430.798	0.096	0.208
-353.537	567.089	-0.111	-0.271
-352.523	-200.000	-0.003	-0.096
-351.508	85.100	0.217	0.239
-350.493	800.000	0.060	0.187
-349.479	-114.077	-0.056	0.011
-348.464	-60.069	0.158	0.068
-347.450	-5.594	0.255	0.176
-346.435	-69.055	-0.254	0.098
-345.420	1.217	0.067	0.048
-344.406	-100.028	-0.059	0.015
-343.391	36.336	0.129	0.114
-342.377	-94.537	-0.325	-0.089
-341.362	-200.000	0.007	-0.201
-340.348	-200.000	0.009	0.141
-339.333	-44.792	0.084	-0.042
-338.318	684.260	-0.074	-0.193
-337.304	-108.743	-0.303	-0.065
-336.289	-76.584	-0.255	0.090
-335.275	800.000	-0.026	0.101
-334.260	408.551	0.082	-0.174
-333.245	-200.000	-0.029	-0.380
-332.231	-132.291	-0.228	0.030
-331.216	119.428	0.136	-0.169
-330.202	99.214	0.069	0.081
-329.187	-88.580	-0.378	0.113
-328.172	-64.111	-0.231	0.095
-327.158	600.287	-0.071	0.176
-326.143	10.646	-0.198	-0.151
-325.129	356.826	0.114	0.228
-324.114	-86.035	0.182	0.057
-323.099	0.910	-0.101	-0.073
-322.085	141.623	-0.231	-0.307
-321.070	47.453	0.189	0.177
-320.056	800.000	0.038	0.129
-319.041	55.691	-0.100	0.097
-318.026	-35.432	0.154	0.084
-317.012	800.000	-0.039	-0.133
-315.997	-180.743	0.096	-0.002
-314.983	92.183	-0.106	0.120
-313.968	-72.702	-0.316	0.117
-312.953	22.021	0.227	-0.186
-311.939	-18.851	-0.227	-0.142
-310.924	27.338	0.181	-0.153
-309.910	-200.000	-0.047	-0.216
-308.895	380.692	0.080	-0.164
-307.880	732.128	-0.084	-0.225
-306.866	117.082	0.045	0.055
-305.851	800.000	0.021	-0.061
-304.837	800.000	-0.043	0.162
-303.822	269.918	0.044	-0.078
-302.807	133.686	0.065	-0.085
-301.793	-132.440	0.280	-0.036
-300.778	-128.954	-0.386	0.054
-299.764	-28.026	0.285	0.165
-298.749	800.000	-0.063	-0.256
-297.735	32.819	0.330	-0.286
-296.720	-79.729	0.198	-0.067
-295.705	-53.359	0.402	0.185
-294.691	776.050	-0.139	-0.381
-293.676	27.012	-0.176	0.148
-292.662	-164.999	0.227	0.010
-291.647	388.739	0.071	0.148
-290.632	-150.857	-0.312	-0.024
-289.618	-23.431	0.176	-0.106
-288.603	800.000	0.031	0.107
-287.589	-200.000	-0.077	-0.352
-286.574	-68.504	0.176	-0.068
-285.559	-95.125	-0.175	0.047
-284.545	-200.000	0.050	-0.497
-283.530	230.354	-0.029	0.048
-282.516	-200.000	0.124	-0.001
-281.501	800.000	0.074	0.245
-280.486	-42.451	0.244	-0.124
-279.472	-76.607	-0.028	-0.010
-278.457	-33.933	-0.241	0.133
-277.443	-200.000	-0.042	0.285
-276.428	345.415	0.025	0.048
-275.413	-200.000	0.009	-0.152
-274.399	-200.000	0.020	0.178
-273.384	-200.000	-0.003	0.270
-272.370	389.587	0.010	-0.021
-271.355	-200.000	0.065	0.317
-270.340	181.622	-0.217	-0.320
-269.326	-11.819	0.330	-0.217
-268.311	162.681	0.081	0.114
-267.297	-65.854	-0.161	-0.065
-266.282	-7.755	-0.152	0.103
-265.267	-14.857	-0.140	-0.090
-264.253	157.996	-0.115	0.160
-263.238	-67.224	0.166	-0.066
-262.224	-36.068	-0.082	-0.045
-261.209	114.336	0.168	0.205
-260.195	68.686	0.189	0.194
-259.180	-90.419	0.139	-0.040
-258.165	284.942	-0.063	-0.114
-257.151	-111.334	-0.181	0.037
-256.136	-21.193	0.305	0.187
-255.122	671.608	-0.043	0.112
-254.107	-114.547	0.398	0.076
-253.092	419.496	-0.048	-0.104
-252.078	137.731	-0.075	-0.098
-251.063	-22.220	-0.202	-0.122
-250.049	-65.610	0.277	0.111
-249.034	-144.760	-0.118	-0.011
-248.019	24.227	-0.245	0.203
-247.005	-200.000	-0.002	0.092
-245.990	800.000	-0.092	0.285
-244.976	-200.000	0.013	-0.110
-243.961	-5.467	0.156	-0.107
-242.946	-200.000	0.016	0.202
-241.932	30.293	-0.286	0.244
-240.917	-200.000	0.004	0.169
-239.903	-82.123	0.245	0.080
-238.888	24.209	0.211	-0.175
-237.873	776.928	0.140	0.383
-236.859	0.417	-0.378	0.270
-235.844	-200.000	-0.003	0.022
-234.830	-17.586	-0.240	0.151
-233.815	-152.299	-0.154	-0.011
-232.800	558.480	-0.067	0.161
-231.786	-47.995	-0.216	-0.104
-230.771	-200.000	-0.061	0.308
-229.757	56.935	-0.014	0.014
-228.742	-93.610	0.085	0.024
-227.727	37.264	-0.218	0.193
-226.713	82.943	0.219	-0.239
-225.698	-78.321	0.261	-0.089
-224.684	-5.717	-0.374	-0.257
-223.669	180.703	-0.121	-0.177
-222.655	124.790	-0.290	0.365
-221.640	192.192	-0.119	-0.180
-220.625	264.623	0.150	-0.261
-219.611	800.000	-0.045	0.149
-218.596	-168.215	-0.557	-0.022
-217.582	-200.000	-0.037	0.188
-216.567	143.352	-0.110	0.146
-215.552	100.400	0.039	0.045
-214.538	-94.955	0.215	0.058
-213.523	-27.583	0.176	0.102
-212.509	50.984	-0.246	-0.233
-211.494	-35.285	-0.164	-0.089
-210.479	-102.215	-0.313	-0.075
-209.465	256.412	0.063	-0.107
-208.450	-185.807	-0.197	0.003
-207.436	800.000	-0.046	0.164
-206.421	-200.000	0.006	0.028
-205.406	-107.402	0.303	-0.066
-204.392	149.106	0.251	0.339
-203.377	-38.667	-0.061	-0.032
-202.363	405.338	0.160	0.338
-201.348	800.000	0.052	0.186
-200.333	-51.334	0.146	-0.068
-199.319	47.972	0.216	0.202
-198.304	71.471	0.082	-0.085
-197.290	800.000	0.064	-0.253
-196.275	651.766	0.056	0.144
-195.260	-187.355	-0.102	0.001
-194.246	-97.649	0.113	-0.029
-193.231	-81.107	-0.321	-0.106
-192.217	-200.000	0.036	0.331
-191.202	-135.975	0.272	0.032
-190.187	29.310	-0.180	-0.153
-189.173	63.264	-0.146	-0.146
-188.158	99.788	-0.135	0.156
-187.144	-200.000	0.035	-0.259
-186.129	-62.078	0.144	0.060
-185.114	35.024	-0.066	-0.058
-184.100	424.714	0.084	-0.180
-183.085	-54.862	-0.283	0.128
-182.071	-109.267	0.298	0.063
-181.056	51.992	-0.327	0.311
-180.042	7.739	0.291	-0.218
-179.027	-200.000	0.014	0.237
-178.012	-200.000	0.006	0.044
-176.998	142.855	-0.106	0.140
-175.983	162.171	0.022	0.030
-174.969	-147.937	0.158	0.013
-173.954	800.000	0.068	-0.212
-172.939	-198.057	0.133	0.001
-171.925	71.386	-0.025	-0.025
-170.910	63.454	0.139	0.139
-169.896	124.882	0.086	0.108
-168.881	-102.928	0.248	-0.059
-167.866	-79.099	0.292	-0.099
-166.852	787.535	0.188	0.515
-165.837	157.822	0.097	0.134
-164.823	39.864	0.337	0.302
-163.808	800.000	0.020	-0.070
-162.793	555.566	0.057	0.137
-161.779	564.558	0.091	0.221
-160.764	800.000	0.147	0.428
-159.750	162.210	0.074	0.103
-158.735	-200.000	-0.001	0.306
-157.720	326.724	-0.165	0.315
-156.706	25.639	-0.112	0.093
-155.691	800.000	0.030	0.120
-154.677	-68.035	-0.216	0.084
-153.662	19.115	-0.160	0.128
-152.647	800.000	-0.041	-0.122
-151.633	-69.944	0.272	0.103
-150.618	-147.322	0.497	0.042
-149.604	-158.478	0.214	-0.012
-148.589	-200.000	-0.027	0.210
-147.574	-103.748	0.226	-0.053
-146.560	191.151	-0.072	-0.107
-145.545	-29.106	-0.200	0.114
-144.531	800.000	-0.079	0.248
-143.516	800.000	-0.079	-0.219
-142.502	-200.000	0.036	0.187
-141.487	-96.296	-0.163	0.043
-140.472	-36.315	0.267	0.143
-139.458	48.108	-0.195	0.182
-138.443	800.000	-0.156	0.552
-137.429	-5.167	0.140	0.096
-136.414	-20.818	0.120	-0.074
-135.399	-200.000	0.008	-0.104
-134.385	168.166	-0.112	0.159
-133.370	-49.271	0.286	0.136
-132.356	800.000	0.067	0.217
-131.341	-151.581	0.072	0.005
-130.326	96.082	-0.069	0.079
-129.312	-103.042	0.354	0.084
-128.297	-40.269	0.050	0.026
-127.283	130.129	0.204	-0.260
-126.268	582.544	-0.156	-0.380
-125.253	-11.154	0.228	-0.149
-124.239	284.034	0.158	-0.282
-123.224	-157.036	-0.125	-0.008
-122.210	139.986	0.105	0.138
-121.195	-120.487	0.060	0.010
