DTS Sentinel unit serial number:	SN413079Multiplexer serial number:	ORYXHardware model number:	OX4-SRSoftware version number:	ORYX F/W v4.00 Oryx Data Collector v3.7.2.0data status	okinstallation	princeton_trtdifferential loss correction	single-endedforward channel	channel 4reverse channel	N/Adate	2019/09/12time	15:19:11forward acquisition time	60.00reverse acquisition time	0.00gamma	496.2192k internal	0.2288k external	0.2288temperature offset calibration	1.0090default loss term (dB/km)	0.3790temperature slope calibration	1.0000multiplexer offset coefficient	1.0000multiplexer slope coefficient	1.0000fibre end	0.00T internal ref (°C)	40.78T ext. ref 1 (°C)	2.38T ext. ref 2 (°C)	37.13length (m)	temperature (°C)	Stokes	anti-Stokes-747.200	-99.259	-0.200	-0.052
-746.185	92.841	-0.266	0.308
-745.171	2.847	0.184	0.137
-744.156	-200.000	0.054	0.418
-743.142	-109.675	0.352	-0.076
-742.127	-174.307	0.142	-0.004
-741.112	-200.000	0.027	-0.392
-740.098	-144.214	0.205	-0.020
-739.083	320.265	-0.039	-0.075
-738.069	183.257	-0.151	0.229
-737.054	256.869	0.029	0.050
-736.039	27.832	-0.398	0.344
-735.025	-34.828	-0.227	0.127
-734.010	-36.197	-0.318	-0.176
-732.996	-200.000	-0.007	0.233
-731.981	680.224	-0.150	-0.399
-730.966	-152.183	-0.021	0.002
-729.952	-200.000	-0.029	0.154
-728.937	545.494	-0.043	-0.104
-727.923	-3.503	-0.183	-0.130
-726.908	181.039	-0.279	-0.420
-725.894	7.518	0.143	-0.109
-724.879	-95.454	-0.185	0.051
-723.864	371.969	0.070	-0.145
-722.850	205.691	0.023	0.037
-721.835	-200.000	0.025	-0.120
-720.821	342.253	0.046	-0.092
-719.806	-40.070	-0.217	-0.116
-718.791	162.516	0.035	-0.050
-717.777	-3.029	0.071	0.051
-716.762	150.130	0.296	0.411
-715.748	800.000	0.054	0.219
-714.733	800.000	0.077	-0.291
-713.718	101.367	0.104	-0.124
-712.704	165.154	-0.265	-0.384
-711.689	472.142	0.046	0.107
-710.675	280.997	0.134	0.245
-709.660	55.869	0.143	0.142
-708.645	800.000	0.051	-0.195
-707.631	-30.370	0.065	0.038
-706.616	800.000	0.051	-0.202
-705.602	-127.785	0.371	0.055
-704.587	317.452	0.188	0.365
-703.572	-54.045	-0.230	-0.107
-702.558	-46.048	-0.197	-0.100
-701.543	-48.672	0.272	0.134
-700.529	-110.634	0.206	0.044
-699.514	-200.000	-0.016	-0.235
-698.499	124.568	-0.124	-0.160
-697.485	800.000	-0.018	0.075
-696.470	-67.269	0.332	-0.134
-695.456	-200.000	0.010	0.109
-694.441	96.953	-0.237	-0.278
-693.426	-63.143	0.142	-0.060
-692.412	-93.179	-0.041	0.012
-691.397	-183.189	0.143	-0.003
-690.383	-103.009	0.333	-0.081
-689.368	21.110	0.133	0.110
-688.354	-200.000	0.059	0.476
-687.339	-146.263	0.202	0.018
-686.324	-200.000	-0.024	-0.328
-685.310	-115.738	0.034	0.006
-684.295	-71.594	0.183	-0.070
-683.281	-200.000	0.007	0.095
-682.266	320.015	0.111	-0.215
-681.251	-200.000	0.046	-0.259
-680.237	578.635	-0.030	0.076
-679.222	-99.435	-0.308	0.079
-678.208	-32.149	-0.172	-0.098
-677.193	-48.568	-0.266	0.131
-676.178	34.555	0.130	0.116
-675.164	-134.614	-0.113	0.014
-674.149	-15.513	-0.135	-0.088
-673.135	51.657	0.117	0.114
-672.120	55.700	0.113	-0.111
-671.105	143.613	0.091	-0.124
-670.091	5.302	-0.157	0.118
-669.076	-42.213	0.085	0.044
-668.062	-3.551	-0.091	0.065
-667.047	109.789	0.094	-0.115
-666.032	493.056	-0.169	-0.396
-665.018	-114.653	0.167	0.033
-664.003	-101.210	0.027	-0.007
-662.989	800.000	-0.123	-0.445
-661.974	52.647	-0.099	-0.096
-660.959	800.000	0.052	0.214
-659.945	17.997	0.091	-0.074
-658.930	320.735	-0.096	-0.187
-657.916	221.639	0.025	0.042
-656.901	-3.343	-0.204	-0.145
-655.886	173.750	-0.312	0.460
-654.872	-200.000	-0.018	0.205
-653.857	176.257	-0.119	-0.177
-652.843	-129.897	0.261	0.037
-651.828	-156.872	0.183	0.011
-650.814	-200.000	0.009	-0.324
-649.799	97.206	-0.322	-0.378
-648.784	-200.000	0.062	0.416
-647.770	15.567	0.279	-0.224
-646.755	-200.000	0.022	-0.159
-645.741	191.667	0.021	-0.033
-644.726	-92.297	-0.105	0.030
-643.711	18.574	-0.098	-0.080
-642.697	475.979	0.036	0.083
-641.682	-93.493	-0.111	-0.031
-640.668	-200.000	0.019	-0.324
-639.653	-60.484	0.165	-0.072
-638.638	237.843	0.041	0.069
-637.624	-200.000	0.005	0.231
-636.609	-5.799	-0.169	-0.118
-635.595	55.549	0.248	-0.245
-634.580	-200.000	-0.022	-0.204
-633.565	154.026	-0.056	-0.079
-632.551	-49.760	-0.189	-0.092
-631.536	52.579	-0.176	-0.171
-630.522	-200.000	0.123	0.000
-629.507	-5.814	-0.080	0.056
-628.492	-124.796	0.232	-0.037
-627.478	-166.320	-0.250	0.011
-626.463	-141.934	0.222	0.023
-625.449	-200.000	-0.053	-0.551
-624.434	106.855	-0.188	-0.227
-623.419	-93.643	-0.070	-0.020
-622.405	-53.609	-0.485	0.226
-621.390	-26.964	-0.387	-0.230
-620.376	93.117	-0.197	0.227
-619.361	-94.151	0.263	-0.074
-618.346	-200.000	-0.022	0.135
-617.332	174.487	-0.105	-0.154
-616.317	99.408	0.085	-0.100
-615.303	131.401	0.146	0.191
-614.288	-200.000	-0.020	-0.267
-613.273	133.562	-0.108	-0.143
-612.259	-149.949	-0.299	0.024
-611.244	-200.000	-0.017	0.184
-610.230	198.612	-0.229	0.357
-609.215	-93.479	0.144	0.041
-608.201	-66.453	-0.034	-0.014
-607.186	-89.533	0.162	0.049
-606.171	50.238	-0.215	-0.207
-605.157	-200.000	0.055	0.283
-604.142	270.722	0.147	-0.263
-603.128	-200.000	0.020	0.144
-602.113	-102.962	-0.201	0.049
-601.098	-200.000	0.005	0.076
-600.084	78.325	0.147	-0.160
-599.069	-99.787	-0.191	0.049
-598.055	-40.543	-0.080	0.043
-597.040	183.609	-0.018	0.027
-596.025	65.282	-0.144	0.148
-595.011	599.334	0.076	-0.192
-593.996	-77.736	-0.239	-0.084
-592.982	-54.914	-0.082	0.038
-591.967	800.000	-0.039	0.154
-590.952	390.168	-0.041	0.088
-589.938	69.703	-0.082	0.087
-588.923	247.101	0.359	0.618
-587.909	-47.911	-0.192	0.095
-586.894	134.771	-0.020	-0.027
-585.879	800.000	0.065	-0.271
-584.865	361.211	0.158	0.323
-583.850	235.459	-0.035	0.060
-582.836	-156.257	0.328	0.021
-581.821	78.002	-0.144	-0.156
-580.806	42.617	-0.061	-0.056
-579.792	54.539	0.131	-0.128
-578.777	58.708	0.202	-0.202
-577.763	-62.815	-0.053	0.022
-576.748	-93.305	-0.329	0.093
-575.733	-138.647	0.289	-0.032
-574.719	-200.000	-0.023	-0.172
-573.704	-200.000	-0.021	-0.387
-572.690	0.638	-0.132	-0.096
-571.675	389.196	-0.175	0.369
-570.661	-67.303	0.075	0.030
-569.646	-1.390	0.125	0.090
-568.631	800.000	-0.007	0.024
-567.617	-35.676	-0.034	-0.019
-566.602	691.510	-0.101	0.270
-565.588	-27.151	0.079	0.047
-564.573	-60.032	-0.026	-0.011
-563.558	800.000	0.088	-0.315
-562.544	800.000	0.071	0.295
-561.529	-39.760	0.313	0.167
-560.515	185.849	0.122	0.185
-559.500	-29.687	-0.045	0.026
-558.485	22.489	-0.207	-0.172
-557.471	800.000	-0.093	-0.333
-556.456	-37.835	0.100	0.054
-555.442	135.477	-0.063	0.083
-554.427	-200.000	-0.042	-0.234
-553.412	-85.571	-0.598	-0.189
-552.398	-60.637	-0.248	0.107
-551.383	-100.070	0.206	0.052
-550.369	-131.640	-0.283	-0.038
-549.354	297.251	0.107	0.200
-548.339	-200.000	0.018	0.262
-547.325	-32.351	-0.313	-0.178
-546.310	273.494	-0.091	-0.163
-545.296	-150.255	-0.254	0.020
-544.281	-112.922	-0.332	-0.067
-543.266	593.215	-0.032	0.082
-542.252	-200.000	-0.314	0.001
-541.237	-77.079	0.165	0.058
-540.223	800.000	-0.032	0.091
-539.208	105.674	0.173	0.208
-538.193	-200.000	-0.030	-0.189
-537.179	63.242	-0.174	-0.178
-536.164	-2.949	-0.298	-0.211
-535.150	142.043	0.279	-0.377
-534.135	-90.995	0.152	-0.044
-533.121	273.527	0.132	-0.238
-532.106	800.000	-0.115	-0.389
-531.091	-148.213	0.137	-0.011
-530.077	-200.000	-0.023	-0.173
-529.062	100.681	-0.132	0.156
-528.048	79.998	0.216	0.237
-527.033	39.224	-0.207	0.188
-526.018	103.402	-0.170	-0.203
-525.004	324.593	-0.104	-0.203
-523.989	36.011	-0.156	0.140
-522.975	457.941	-0.100	-0.226
-521.960	446.537	0.111	-0.247
-520.945	49.578	-0.201	0.192
-519.931	204.520	-0.080	0.126
-518.916	35.868	-0.185	0.165
-517.902	-110.516	0.105	-0.022
-516.887	-18.354	0.155	0.099
-515.872	311.976	-0.169	0.323
-514.858	552.829	0.063	0.155
-513.843	267.193	-0.111	-0.196
-512.829	446.457	-0.098	0.220
-511.814	-200.000	-0.021	0.207
-510.799	-200.000	-0.003	-0.220
-509.785	-62.351	0.254	-0.107
-508.770	155.112	0.140	-0.195
-507.756	-122.922	0.228	0.037
-506.741	290.573	-0.230	-0.424
-505.726	-58.282	-0.461	-0.204
-504.712	56.559	-0.100	0.099
-503.697	-43.137	0.193	0.099
-502.683	800.000	-0.127	-0.399
-501.668	344.541	0.142	-0.282
-500.653	-22.361	-0.138	0.085
-499.639	37.829	0.008	0.007
-498.624	-116.116	0.136	0.026
-497.610	194.698	-0.076	0.118
-496.595	-85.732	-0.222	0.070
-495.581	-200.000	-0.009	-0.150
-494.566	-200.000	-0.032	-0.145
-493.551	-56.387	-0.120	0.054
-492.537	-94.968	-0.245	-0.067
-491.522	-200.000	-0.023	0.216
-490.508	83.033	0.089	-0.099
-489.493	-56.284	-0.202	0.091
-488.478	-18.510	-0.018	-0.011
-487.464	61.430	0.264	0.267
-486.449	14.597	-0.134	-0.106
-485.435	-200.000	0.026	0.251
-484.420	-200.000	-0.042	0.273
-483.405	-88.529	-0.033	-0.010
-482.391	-101.442	0.427	-0.106
-481.376	169.913	-0.185	-0.269
-480.362	13.774	-0.301	-0.238
-479.347	800.000	0.062	-0.187
-478.332	-122.754	0.287	0.047
-477.318	-60.275	0.282	0.122
-476.303	204.908	-0.170	-0.268
-475.289	-9.155	-0.279	0.189
-474.274	-159.371	-0.033	0.002
-473.259	315.782	-0.064	0.123
-472.245	403.408	0.055	-0.117
-471.230	-67.136	0.326	0.130
-470.216	237.699	-0.118	-0.199
-469.201	-75.163	0.183	0.066
-468.186	-45.465	-0.061	-0.031
-467.172	-200.000	-0.008	-0.246
-466.157	-43.052	-0.179	0.092
-465.143	800.000	-0.046	-0.183
-464.128	21.731	0.178	0.147
-463.113	800.000	0.102	0.344
-462.099	-26.512	0.113	-0.067
-461.084	-5.581	0.246	-0.171
-460.070	204.173	0.073	-0.114
-459.055	76.025	0.154	0.166
-458.040	-109.462	0.440	-0.094
-457.026	800.000	0.108	-0.325
-456.011	-12.431	0.174	-0.115
-454.997	800.000	-0.109	-0.309
-453.982	124.401	0.208	-0.265
-452.968	-200.000	0.038	0.336
-451.953	-200.000	-0.210	0.001
-450.938	-91.608	-0.334	-0.096
-449.924	140.842	0.213	-0.286
-448.909	800.000	0.076	-0.219
-447.895	-43.719	0.315	-0.161
-446.880	800.000	0.078	-0.272
-445.865	-62.323	0.192	0.081
-444.851	-200.000	-0.012	0.126
-443.836	-200.000	-0.056	-0.291
-442.822	-25.695	-0.133	0.080
-441.807	-147.641	-0.022	0.002
-440.792	-8.605	-0.211	-0.144
-439.778	-200.000	-0.060	0.275
-438.763	-94.016	-0.258	0.072
-437.749	-114.345	0.270	0.053
-436.734	-13.277	0.184	-0.121
-435.719	121.105	-0.196	0.247
-434.705	71.064	-0.078	-0.082
-433.690	73.741	-0.084	-0.089
-432.676	27.840	0.251	0.215
-431.661	326.949	-0.183	0.356
-430.646	800.000	-0.034	-0.127
-429.632	-200.000	-0.059	0.301
-428.617	645.754	-0.071	-0.185
-427.603	323.214	0.084	0.162
-426.588	93.585	0.055	-0.063
-425.573	-77.802	0.183	0.064
-424.559	-95.259	-0.458	0.125
-423.544	-200.000	0.007	0.033
-422.530	-103.652	0.205	0.049
-421.515	-70.236	0.343	-0.132
-420.500	-185.716	0.150	0.002
-419.486	-200.000	-0.017	0.118
-418.471	-89.008	-0.299	0.089
-417.457	127.241	-0.042	0.054
-416.442	203.814	0.054	-0.085
-415.428	-122.611	0.308	-0.051
-414.413	-200.000	-0.006	0.090
-413.398	167.369	0.091	0.130
-412.384	33.469	-0.369	-0.324
-411.369	595.104	0.090	-0.224
-410.355	-85.037	-0.221	-0.070
-409.340	-183.825	0.195	0.003
-408.325	-26.553	-0.169	0.100
-407.311	647.905	-0.080	-0.207
-406.296	202.045	-0.139	-0.217
-405.282	-19.743	-0.074	0.046
-404.267	97.102	-0.045	0.053
-403.252	-49.399	0.058	-0.028
-402.238	-200.000	0.001	0.115
-401.223	211.423	0.182	-0.290
-400.209	241.370	0.025	-0.042
-399.194	247.114	-0.098	0.168
-398.179	84.030	0.046	0.051
-397.165	390.077	0.073	-0.152
-396.150	74.563	-0.243	-0.258
-395.136	-183.191	0.254	0.005
-394.121	53.212	0.168	0.163
-393.106	25.498	0.229	0.192
-392.092	-200.000	0.001	-0.220
-391.077	-114.097	-0.136	0.027
-390.063	-8.206	-0.224	0.152
-389.048	-3.787	0.293	0.205
-388.033	161.089	-0.087	0.123
-387.019	-115.951	-0.017	-0.003
-386.004	90.985	0.211	-0.240
-384.990	-135.068	-0.042	-0.005
-383.975	622.957	-0.061	-0.154
-382.960	800.000	-0.080	0.304
-381.946	-174.593	0.192	0.006
-380.931	542.487	0.051	0.123
-379.917	57.296	-0.310	0.306
-378.902	-27.847	-0.052	0.031
-377.888	-200.000	-0.309	0.000
-376.873	345.290	0.212	0.421
-375.858	-97.429	0.344	-0.090
-374.844	248.645	0.085	-0.146
-373.829	-90.095	-0.324	-0.095
-372.815	336.705	0.013	-0.026
-371.800	-8.390	0.375	0.255
-370.785	-67.983	0.216	0.085
-369.771	-109.628	0.148	-0.032
-368.756	405.658	0.088	0.187
-367.742	528.556	-0.075	-0.179
-366.727	97.342	-0.146	0.169
-365.712	-200.000	-0.009	0.070
-364.698	-34.316	0.166	0.092
-363.683	-95.516	0.447	-0.121
-362.669	-7.110	0.133	-0.091
-361.654	-20.356	0.200	0.124
-360.639	770.264	-0.097	-0.266
-359.625	-200.000	-0.021	-0.119
-358.610	209.623	-0.234	-0.371
-357.596	-20.285	-0.108	-0.067
-356.581	-2.640	0.210	-0.149
-355.566	201.722	-0.178	0.276
-354.552	144.635	0.112	-0.151
-353.537	800.000	0.083	0.280
-352.523	104.990	-0.205	-0.244
-351.508	-200.000	-0.057	-0.309
-350.493	-43.601	-0.187	0.095
-349.479	-200.000	0.010	-0.101
-348.464	-200.000	-0.002	0.043
-347.450	687.779	0.073	-0.194
-346.435	247.646	-0.132	0.225
-345.420	484.177	0.052	-0.118
-344.406	800.000	-0.071	0.226
-343.391	740.443	0.115	-0.312
-342.377	367.279	0.172	0.349
-341.362	1.078	-0.084	0.061
-340.348	121.185	-0.168	0.211
-339.333	-103.122	0.218	0.052
-338.318	-13.505	0.149	0.098
-337.304	22.039	0.205	-0.169
-336.289	221.938	-0.110	-0.179
-335.275	136.923	0.190	0.251
-334.260	293.075	-0.126	0.232
-333.245	-54.774	0.110	0.050
-332.231	-93.437	-0.279	-0.078
-331.216	244.644	-0.150	-0.254
-330.202	-200.000	-0.008	-0.080
-329.187	98.767	-0.130	-0.152
-328.172	-127.197	0.333	0.049
-327.158	257.416	-0.014	0.025
-326.143	-60.363	0.136	-0.058
-325.129	54.694	-0.273	0.266
-324.114	-122.587	0.182	-0.030
-323.099	43.104	-0.156	0.144
-322.085	257.672	0.061	0.106
-321.070	-200.000	-0.012	0.205
-320.056	126.793	0.311	0.398
-319.041	-4.454	0.255	0.178
-318.026	-13.537	-0.175	-0.114
-317.012	-88.271	0.332	0.100
-315.997	800.000	-0.035	-0.112
-314.983	800.000	0.047	0.144
-313.968	180.663	0.132	-0.196
-312.953	-78.480	0.142	-0.049
-311.939	704.337	-0.077	0.205
-310.924	-25.753	0.323	0.192
-309.910	-2.984	-0.162	0.114
-308.895	800.000	-0.055	0.241
-307.880	-140.672	0.254	-0.026
-306.866	-200.000	-0.025	0.295
-305.851	-200.000	-0.013	0.236
-304.837	159.300	0.167	-0.234
-303.822	21.015	-0.188	0.154
-302.807	-63.293	0.179	-0.074
-301.793	76.984	-0.112	0.120
-300.778	304.484	-0.137	-0.256
-299.764	-64.114	-0.180	0.074
-298.749	171.600	-0.037	0.053
-297.735	-148.259	0.235	-0.019
-296.720	177.803	0.077	0.114
-295.705	-90.766	0.209	-0.061
-294.691	800.000	-0.047	0.176
-293.676	-3.354	-0.252	-0.177
-292.662	72.473	-0.143	-0.150
-291.647	-55.564	-0.147	-0.066
-290.632	-6.291	-0.317	0.218
-289.618	103.998	-0.236	0.279
-288.603	282.965	0.324	0.586
-287.589	-200.000	-0.095	-0.443
-286.574	-115.687	0.078	-0.015
-285.559	-200.000	-0.053	0.457
-284.545	284.069	0.150	-0.271
-283.530	-118.947	-0.205	-0.036
-282.516	800.000	0.099	0.282
-281.501	217.488	-0.137	0.220
-280.486	178.671	0.073	0.107
-279.472	24.073	-0.137	-0.114
-278.457	-2.771	-0.140	0.098
-277.443	-25.584	0.281	-0.167
-276.428	464.271	0.023	-0.052
-275.413	800.000	-0.035	0.152
-274.399	450.415	0.058	-0.130
-273.384	-37.271	0.108	0.058
-272.370	198.079	-0.349	-0.537
-271.355	-200.000	0.015	0.461
-270.340	445.772	-0.011	0.024
-269.326	-168.707	0.200	-0.008
-268.311	800.000	-0.038	0.133
-267.297	-164.052	0.182	-0.009
-266.282	-28.729	0.245	0.142
-265.267	135.751	0.137	-0.180
-264.253	57.836	0.087	-0.086
-263.238	-9.077	0.287	0.193
-262.224	-200.000	-0.033	-0.176
-261.209	-79.655	-0.172	-0.058
-260.195	-165.200	0.286	-0.013
-259.180	800.000	0.063	0.227
-258.165	-200.000	0.059	0.300
-257.151	374.389	0.149	-0.305
-256.136	800.000	-0.012	0.053
-255.122	134.800	0.186	0.243
-254.107	-194.171	0.174	-0.001
-253.092	-7.584	0.378	0.257
-252.078	-176.126	0.144	-0.004
-251.063	-200.000	-0.026	0.278
-250.049	459.118	-0.213	0.477
-249.034	-34.742	-0.008	0.005
-248.019	-135.945	-0.128	0.015
-247.005	299.319	0.104	-0.193
-245.990	-200.000	0.007	-0.294
-244.976	28.871	0.089	-0.076
-243.961	800.000	0.085	-0.305
-242.946	800.000	-0.029	-0.118
-241.932	52.695	-0.083	0.080
-240.917	279.078	0.052	-0.093
-239.903	-37.208	0.066	-0.036
-238.888	440.820	-0.169	0.371
-237.873	-200.000	-0.065	-0.313
-236.859	333.983	0.098	-0.191
-235.844	388.838	-0.129	0.269
-234.830	250.282	0.054	0.092
-233.815	-143.343	-0.452	-0.044
-232.800	-200.000	0.036	0.532
-231.786	-200.000	0.002	-0.137
-230.771	-15.133	0.391	-0.252
-229.757	197.425	-0.118	0.180
-228.742	212.246	-0.073	0.115
-227.727	244.335	0.060	0.102
-226.713	116.441	0.174	-0.214
-225.698	82.646	-0.156	0.170
-224.684	-160.981	-0.342	0.018
-223.669	417.873	0.102	0.219
-222.655	390.695	-0.120	-0.249
-221.640	62.353	0.332	0.333
-220.625	-200.000	0.006	0.039
-219.611	697.677	0.040	0.105
-218.596	800.000	0.122	0.398
-217.582	800.000	-0.059	-0.192
-216.567	-51.427	-0.096	-0.045
-215.552	63.929	-0.021	-0.021
-214.538	-29.764	-0.272	-0.156
-213.523	800.000	-0.013	-0.037
-212.509	-140.779	-0.144	0.015
-211.494	-154.208	0.477	0.032
-210.479	-59.742	0.484	-0.208
-209.465	-4.490	0.068	0.048
-208.450	95.539	-0.190	-0.217
-207.436	-200.000	0.023	-0.124
-206.421	-113.199	0.189	0.037
-205.406	97.261	-0.232	0.267
-204.392	-200.000	0.030	0.236
-203.377	800.000	0.072	-0.225
-202.363	800.000	0.073	-0.277
-201.348	-162.225	-0.196	0.010
-200.333	-157.722	-0.130	-0.008
-199.319	-200.000	0.015	-0.130
-198.304	1.236	0.130	-0.094
-197.290	800.000	0.048	0.146
-196.275	-177.312	-0.051	0.001
-195.260	741.705	-0.049	-0.131
-194.246	800.000	0.053	-0.186
-193.231	104.662	-0.030	-0.035
-192.217	-62.185	-0.212	-0.089
-191.202	2.105	-0.097	-0.071
-190.187	-77.624	-0.338	-0.118
-189.173	556.368	0.079	0.192
-188.158	-200.000	0.018	0.103
-187.144	0.624	0.155	-0.111
-186.129	451.278	-0.034	0.075
-185.114	-200.000	-0.044	0.202
-184.100	800.000	0.145	0.481
-183.085	-200.000	-0.024	-0.225
-182.071	-31.206	-0.381	0.216
-181.056	407.801	0.137	-0.290
-180.042	-125.772	0.128	0.019
-179.027	162.395	0.129	0.182
-178.012	-53.913	-0.161	0.074
-176.998	800.000	0.032	0.091
-175.983	91.983	-0.062	-0.070
-174.969	-200.000	0.010	0.068
-173.954	97.013	-0.180	0.207
-172.939	337.223	-0.049	-0.095
-171.925	99.400	-0.231	-0.268
-170.910	197.977	0.100	0.154
-169.896	46.883	0.019	0.018
-168.881	131.228	-0.074	-0.095
-167.866	41.424	-0.197	-0.178
-166.852	-100.195	0.106	-0.026
-165.837	800.000	0.123	-0.341
-164.823	619.257	-0.047	-0.117
-163.808	-67.721	0.221	-0.087
-162.793	-200.000	0.006	0.289
-161.779	93.607	0.133	0.151
-160.764	670.842	-0.035	-0.092
-159.750	-200.000	0.003	-0.122
-158.735	-91.087	0.439	-0.126
-157.720	800.000	-0.043	-0.131
-156.706	200.500	-0.038	-0.058
-155.691	356.174	-0.022	0.044
-154.677	571.672	0.053	-0.130
-153.662	800.000	0.011	-0.035
-152.647	596.632	0.098	0.244
-151.633	-36.369	-0.114	0.062
-150.618	-101.174	-0.323	0.079
-149.604	-126.739	0.153	0.023
-148.589	-142.358	0.319	-0.032
-147.574	800.000	0.086	0.328
-146.560	297.391	0.171	0.314
-145.545	49.633	0.099	-0.094
-144.531	800.000	-0.080	-0.225
-143.516	365.039	0.122	-0.246
-142.502	-200.000	-0.061	-0.303
-141.487	35.435	0.144	-0.127
-140.472	-47.589	0.097	0.047
-139.458	66.492	-0.222	-0.226
-138.443	-200.000	0.001	-0.033
-137.429	621.216	0.075	0.188
-136.414	114.573	-0.085	-0.104
-135.399	-46.176	-0.273	0.135
-134.385	800.000	0.091	0.273
-133.370	14.288	0.159	0.124
-132.356	800.000	-0.036	0.146
-131.341	168.850	0.134	-0.191
-130.326	203.899	0.209	0.323
-129.312	-78.705	0.239	-0.082
-128.297	-28.896	0.079	0.045
-127.283	-69.952	0.219	-0.083
-126.268	800.000	-0.034	-0.128
-125.253	-200.000	-0.019	-0.173
-124.239	26.169	-0.015	-0.013
-123.224	74.626	0.116	-0.122
-122.210	-61.651	-0.265	-0.111
-121.195	-70.693	-0.285	0.108
-120.180	800.000	0.050	-0.165
