DTS Sentinel unit serial number:	SN413079Multiplexer serial number:	ORYXHardware model number:	OX4-SRSoftware version number:	ORYX F/W v4.00 Oryx Data Collector v3.7.2.0data status	okinstallation	princeton_trtdifferential loss correction	single-endedforward channel	channel 4reverse channel	N/Adate	2019/09/13time	07:29:35forward acquisition time	60.00reverse acquisition time	0.00gamma	496.2192k internal	0.2322k external	0.2322temperature offset calibration	1.0200default loss term (dB/km)	0.3790temperature slope calibration	1.0000multiplexer offset coefficient	1.0000multiplexer slope coefficient	1.0000fibre end	0.00T internal ref (°C)	26.19T ext. ref 1 (°C)	4.20T ext. ref 2 (°C)	22.00length (m)	temperature (°C)	Stokes	anti-Stokes-747.200	-40.190	-0.188	0.099
-746.185	200.469	0.119	-0.185
-745.171	-146.491	-0.280	-0.025
-744.156	-179.380	-0.300	0.007
-743.142	-200.000	0.023	-0.132
-742.127	-49.205	-0.168	0.081
-741.112	311.351	0.050	-0.095
-740.098	102.177	-0.087	-0.103
-739.083	800.000	-0.069	-0.299
-738.069	-5.981	-0.171	-0.118
-737.054	415.561	-0.071	0.152
-736.039	-200.000	0.056	-0.323
-735.025	391.697	0.058	-0.121
-734.010	-200.000	-0.004	-0.041
-732.996	577.876	0.256	-0.632
-731.981	-33.576	-0.239	-0.133
-730.966	800.000	0.120	-0.366
-729.952	-200.000	-0.032	-0.213
-728.937	-200.000	-0.023	-0.126
-727.923	311.240	-0.075	-0.143
-726.908	-1.219	-0.327	-0.233
-725.894	-79.515	-0.251	0.085
-724.879	-95.106	-0.196	0.053
-723.864	-71.349	-0.200	-0.075
-722.850	-148.175	-0.247	0.021
-721.835	227.837	-0.070	0.115
-720.821	-68.774	0.097	0.038
-719.806	-34.736	-0.287	0.158
-718.791	96.539	-0.207	-0.239
-717.777	-48.369	-0.230	-0.112
-716.762	-80.510	0.234	0.079
-715.748	-173.059	-0.272	-0.008
-714.733	-0.295	-0.039	-0.028
-713.718	548.189	-0.076	0.185
-712.704	23.741	0.361	-0.300
-711.689	110.439	0.216	-0.262
-710.675	-69.757	-0.142	-0.055
-709.660	-39.195	0.128	-0.068
-708.645	-97.105	0.038	-0.010
-707.631	-66.181	0.228	0.092
-706.616	446.190	0.072	0.160
-705.602	800.000	-0.042	-0.124
-704.587	-125.281	-0.154	0.024
-703.572	800.000	0.057	-0.244
-702.558	169.269	-0.055	0.079
-701.543	-200.000	-0.007	0.140
-700.529	-200.000	0.001	0.390
-699.514	-114.122	0.169	0.033
-698.499	137.287	-0.144	-0.189
-697.485	-95.046	0.158	-0.043
-696.470	-30.560	0.208	-0.119
-695.456	716.652	0.094	-0.252
-694.441	-45.524	-0.360	0.180
-693.426	491.903	-0.064	0.147
-692.412	-47.888	0.287	-0.140
-691.397	181.027	-0.084	-0.124
-690.383	-164.458	-0.101	-0.005
-689.368	-84.528	0.192	-0.061
-688.354	-81.253	0.239	-0.079
-687.339	132.538	0.092	0.120
-686.324	-117.212	-0.184	0.034
-685.310	117.902	-0.083	0.104
-684.295	16.649	-0.169	0.135
-683.281	-77.517	0.262	0.092
-682.266	-128.437	-0.435	-0.062
-681.251	-132.704	-0.180	0.023
-680.237	-147.425	-0.199	-0.017
-679.222	57.047	-0.198	-0.194
-678.208	-113.207	0.195	-0.039
-677.193	67.375	0.138	-0.142
-676.178	800.000	0.026	-0.082
-675.164	-72.650	-0.124	0.046
-674.149	-8.001	0.242	0.164
-673.135	220.802	0.091	-0.148
-672.120	-200.000	0.015	-0.332
-671.105	81.896	-0.194	0.211
-670.091	300.805	-0.109	-0.203
-669.076	45.901	-0.245	-0.228
-668.062	67.079	-0.053	0.054
-667.047	99.990	0.084	-0.098
-666.032	-37.622	0.192	-0.103
-665.018	92.688	0.057	-0.064
-664.003	-25.559	-0.084	-0.050
-662.989	-200.000	-0.022	-0.137
-661.974	39.855	-0.122	-0.111
-660.959	-58.898	0.177	-0.077
-659.945	-200.000	-0.027	-0.139
-658.930	189.515	-0.152	0.229
-657.916	-4.683	-0.180	0.125
-656.901	189.098	0.086	0.129
-655.886	-77.603	0.262	0.092
-654.872	-200.000	-0.021	0.404
-653.857	-108.523	-0.256	0.055
-652.843	-93.896	-0.193	0.054
-651.828	109.754	0.195	-0.236
-650.814	-200.000	0.031	0.257
-649.799	74.853	-0.193	-0.205
-648.784	100.717	-0.226	-0.265
-647.770	140.539	0.146	0.194
-646.755	-49.649	-0.082	-0.039
-645.741	22.855	0.037	-0.030
-644.726	-9.481	-0.329	-0.221
-643.711	-16.435	-0.234	-0.149
-642.697	-175.496	0.185	0.005
-641.682	-200.000	-0.083	-0.395
-640.668	91.465	0.053	0.060
-639.653	176.909	-0.063	0.092
-638.638	127.631	-0.274	0.350
-637.624	709.864	0.070	-0.186
-636.609	383.111	-0.142	-0.293
-635.595	708.574	-0.047	-0.125
-634.580	-123.199	-0.153	0.025
-633.565	-162.360	-0.088	0.004
-632.551	390.348	0.077	-0.160
-631.536	-59.361	-0.248	-0.107
-630.522	-200.000	0.012	0.343
-629.507	195.530	-0.162	0.247
-628.492	-155.237	0.487	0.032
-627.478	178.571	-0.057	-0.083
-626.463	224.071	0.054	0.087
-625.449	-139.428	-0.159	0.017
-624.434	11.344	-0.147	0.113
-623.419	45.801	0.179	0.166
-622.405	148.241	0.274	-0.371
-621.390	-85.712	-0.263	0.082
-620.376	800.000	0.041	-0.124
-619.361	11.952	0.406	0.314
-618.346	-104.774	-0.197	-0.046
-617.332	800.000	0.051	0.161
-616.317	39.331	0.120	0.108
-615.303	-37.274	-0.217	-0.116
-614.288	21.150	0.058	0.047
-613.273	-169.825	0.073	0.003
-612.259	161.207	0.147	0.206
-611.244	-10.834	-0.235	-0.156
-610.230	-61.021	-0.141	0.060
-609.215	-104.382	-0.181	0.042
-608.201	-100.128	0.442	-0.111
-607.186	800.000	0.075	-0.232
-606.171	28.212	0.074	0.063
-605.157	-74.234	-0.176	0.064
-604.142	-114.109	-0.443	-0.086
-603.128	-200.000	-0.022	-0.256
-602.113	-98.664	0.268	0.069
-601.098	-200.000	-0.067	-0.350
-600.084	83.871	0.187	0.205
-599.069	274.539	0.125	-0.222
-598.055	173.012	0.086	0.124
-597.040	-148.007	-0.277	0.023
-596.025	-200.000	0.033	0.171
-595.011	27.524	0.104	-0.088
-593.996	456.732	-0.062	-0.139
-592.982	-125.425	-0.118	-0.018
-591.967	135.457	-0.096	-0.126
-590.952	-44.325	0.163	-0.082
-589.938	283.459	0.123	-0.222
-588.923	112.831	0.033	-0.041
-587.909	-45.098	-0.124	0.062
-586.894	125.706	0.334	-0.423
-585.879	-57.422	0.193	-0.085
-584.865	800.000	0.070	-0.306
-583.850	181.686	-0.035	0.052
-582.836	127.547	0.091	0.116
-581.821	-200.000	-0.001	0.312
-580.806	99.221	-0.185	0.214
-579.792	118.704	-0.168	-0.208
-578.777	-200.000	0.022	-0.185
-577.763	-88.819	-0.272	-0.081
-576.748	-12.094	0.128	-0.084
-575.733	124.488	0.027	-0.034
-574.719	-48.514	0.148	-0.071
-573.704	-200.000	-0.009	-0.098
-572.690	-66.309	0.095	0.038
-571.675	22.824	0.096	0.079
-570.661	-99.578	0.400	-0.101
-569.646	214.900	0.116	0.184
-568.631	-19.065	-0.157	0.098
-567.617	39.042	0.117	0.105
-566.602	97.286	-0.157	0.181
-565.588	-88.560	-0.269	0.080
-564.573	-81.125	-0.032	0.011
-563.558	69.239	0.208	0.214
-562.544	-200.000	0.006	-0.075
-561.529	561.511	0.092	0.222
-560.515	501.859	-0.089	-0.207
-559.500	252.064	0.202	0.345
-558.485	800.000	-0.067	-0.223
-557.471	-200.000	0.003	0.016
-556.456	2.055	0.057	0.041
-555.442	-159.388	0.244	0.014
-554.427	210.522	-0.055	0.086
-553.412	118.221	-0.022	0.027
-552.398	800.000	0.044	-0.150
-551.383	752.778	0.072	0.194
-550.369	130.411	0.002	0.003
-549.354	350.559	-0.131	0.261
-548.339	147.112	-0.073	0.098
-547.325	-11.971	0.206	0.135
-546.310	3.844	-0.157	0.115
-545.296	-32.595	-0.078	0.043
-544.281	-53.828	-0.313	-0.143
-543.266	21.718	0.153	-0.125
-542.252	-37.498	-0.133	0.071
-541.237	296.884	0.114	-0.209
-540.223	-78.416	0.156	-0.054
-539.208	-97.383	0.183	-0.048
-538.193	-37.003	-0.231	-0.124
-537.179	-116.311	-0.053	0.010
-536.164	-14.735	-0.114	0.074
-535.150	-91.698	0.372	0.106
-534.135	545.518	-0.066	0.158
-533.121	-146.242	0.154	0.014
-532.106	-65.953	0.178	0.071
-531.091	260.342	-0.076	-0.132
-530.077	12.442	0.123	-0.095
-529.062	-51.285	0.101	0.047
-528.048	-125.737	0.291	0.044
-527.033	-50.189	-0.080	0.038
-526.018	800.000	0.041	0.136
-525.004	666.409	0.084	-0.216
-523.989	-130.690	-0.296	0.040
-522.975	-160.622	-0.128	0.007
-521.960	800.000	-0.079	0.278
-520.945	58.243	0.168	-0.165
-519.931	-0.328	0.274	0.195
-518.916	398.503	0.202	0.424
-517.902	-38.998	0.230	0.121
-516.887	62.818	-0.157	0.157
-515.872	800.000	-0.017	-0.058
-514.858	-117.616	-0.146	-0.026
-513.843	-85.796	0.372	-0.116
-512.829	-16.380	-0.130	-0.082
-511.814	-119.363	0.099	-0.017
-510.799	206.882	-0.054	-0.085
-509.785	39.431	0.182	0.163
-508.770	26.227	-0.122	0.102
-507.756	-200.000	0.058	-0.412
-506.741	-78.564	-0.346	-0.119
-505.726	-56.459	0.356	0.158
-504.712	-98.548	-0.125	0.032
-503.697	779.120	-0.085	0.232
-502.683	800.000	-0.091	0.259
-501.668	-189.393	-0.187	0.002
-500.653	62.297	0.349	-0.348
-499.639	-41.607	-0.459	0.236
-498.624	136.581	0.062	-0.081
-497.610	-152.001	0.122	-0.009
-496.595	-141.917	-0.297	-0.030
-495.581	155.520	-0.172	-0.238
-494.566	-200.000	0.016	0.175
-493.551	2.736	-0.129	0.094
-492.537	-200.000	-0.020	0.200
-491.522	705.398	-0.115	0.302
-490.508	34.544	0.143	0.125
-489.493	-157.532	-0.091	0.005
-488.478	17.612	-0.219	0.174
-487.464	479.916	0.093	0.211
-486.449	185.149	-0.084	-0.125
-485.435	-37.591	-0.216	0.115
-484.420	-68.577	-0.182	-0.071
-483.405	-187.259	0.221	-0.003
-482.391	-200.000	0.005	0.209
-481.376	-45.871	0.072	-0.035
-480.362	-121.494	-0.430	0.071
-479.347	119.700	-0.040	-0.049
-478.332	-48.551	0.353	-0.170
-477.318	203.892	-0.032	0.049
-476.303	800.000	-0.116	-0.428
-475.289	-79.522	0.213	0.072
-474.274	401.821	-0.125	-0.263
-473.259	-200.000	-0.013	-0.238
-472.245	-200.000	0.019	-0.132
-471.230	-129.297	-0.214	0.030
-470.216	14.206	0.407	-0.317
-469.201	-47.420	-0.483	0.235
-468.186	-200.000	0.016	-0.107
-467.172	-200.000	0.023	0.104
-466.157	-200.000	-0.074	0.375
-465.143	-124.500	0.234	-0.036
-464.128	137.322	0.211	-0.275
-463.113	56.818	-0.042	0.041
-462.099	-84.462	0.046	0.014
-461.084	243.559	-0.085	0.143
-460.070	-200.000	0.012	0.144
-459.055	-144.788	-0.054	-0.005
-458.040	-200.000	-0.013	-0.159
-457.026	-17.088	0.067	0.042
-456.011	-200.000	0.039	-0.225
-454.997	118.262	-0.167	0.206
-453.982	-42.874	0.153	-0.078
-452.968	-200.000	0.000	-0.054
-451.953	-61.837	0.104	0.043
-450.938	228.046	-0.120	-0.196
-449.924	800.000	-0.120	-0.386
-448.909	-200.000	-0.008	0.206
-447.895	800.000	-0.089	-0.371
-446.880	102.642	-0.120	-0.140
-445.865	-62.645	0.153	0.063
-444.851	150.277	-0.081	0.109
-443.836	277.374	-0.145	-0.258
-442.822	-200.000	-0.013	0.102
-441.807	-86.505	0.215	-0.066
-440.792	800.000	-0.111	-0.318
-439.778	457.237	0.078	-0.173
-438.763	-176.088	-0.348	0.009
-437.749	-76.530	-0.084	-0.030
-436.734	800.000	0.037	0.129
-435.719	-168.679	-0.270	-0.010
-434.705	-75.496	0.275	0.098
-433.690	220.536	0.110	0.176
-432.676	-40.847	-0.369	-0.191
-431.661	-144.249	0.403	-0.038
-430.646	-67.821	0.196	0.076
-429.632	-185.557	0.217	0.003
-428.617	-3.896	-0.229	-0.159
-427.603	33.988	-0.142	-0.123
-426.588	-200.000	-0.056	0.287
-425.573	-200.000	-0.033	-0.271
-424.559	-134.985	-0.313	-0.038
-423.544	-125.006	-0.139	0.021
-422.530	-200.000	-0.029	0.277
-421.515	-200.000	0.003	-0.073
-420.500	-200.000	-0.036	-0.324
-419.486	-136.750	0.181	-0.021
-418.471	-141.040	-0.181	0.019
-417.457	-106.378	-0.030	-0.007
-416.442	-161.862	-0.180	-0.009
-415.428	-200.000	-0.003	0.014
-414.413	800.000	-0.037	-0.156
-413.398	-200.000	-0.019	0.085
-412.384	57.222	0.114	0.111
-411.369	-103.052	-0.138	0.033
-410.355	-57.875	-0.206	-0.090
-409.340	63.575	-0.147	0.147
-408.325	15.977	0.312	0.245
-407.311	-84.889	-0.063	-0.020
-406.296	-200.000	-0.073	0.334
-405.282	-78.978	-0.071	-0.024
-404.267	800.000	0.072	-0.251
-403.252	147.841	0.224	-0.301
-402.238	-34.054	0.074	-0.040
-401.223	800.000	-0.032	-0.133
-400.209	403.274	0.093	0.194
-399.194	127.904	-0.151	0.191
-398.179	800.000	0.032	-0.117
-397.165	-52.300	-0.197	-0.091
-396.150	117.909	0.148	-0.181
-395.136	800.000	-0.067	0.195
-394.121	-31.799	-0.047	0.026
-393.106	-200.000	0.055	-0.315
-392.092	58.041	-0.111	-0.109
-391.077	1.239	-0.187	0.134
-390.063	384.626	0.094	0.192
-389.048	101.551	-0.182	-0.211
-388.033	-103.843	-0.313	0.073
-387.019	-63.150	-0.157	-0.065
-386.004	-123.185	-0.030	0.005
-384.990	-200.000	-0.007	0.092
-383.975	61.226	-0.065	0.065
-382.960	1.208	0.145	0.103
-381.946	467.700	0.132	0.296
-380.931	471.260	-0.100	-0.224
-379.917	83.298	-0.257	-0.279
-378.902	-34.916	-0.218	0.118
-377.888	73.318	0.110	0.115
-376.873	350.818	0.149	0.294
-375.858	105.571	0.135	-0.158
-374.844	6.424	-0.012	0.009
-373.829	-200.000	0.011	0.077
-372.815	358.489	0.086	-0.170
-371.800	-22.183	-0.213	0.129
-370.785	-122.961	0.347	0.056
-369.771	107.175	0.229	-0.271
-368.756	-107.224	0.172	-0.038
-367.742	-200.000	-0.043	0.243
-366.727	-200.000	-0.401	0.002
-365.712	-200.000	0.023	0.300
-364.698	11.514	0.049	0.038
-363.683	53.756	0.206	-0.197
-362.669	143.596	-0.036	-0.047
-361.654	-163.744	-0.029	-0.001
-360.639	800.000	0.053	-0.146
-359.625	-200.000	-0.005	-0.081
-358.610	-101.198	-0.049	-0.012
-357.596	277.034	-0.078	0.138
-356.581	-62.391	-0.395	-0.164
-355.566	-12.457	0.216	-0.140
-354.552	144.559	-0.243	-0.323
-353.537	800.000	0.084	-0.294
-352.523	-80.324	-0.155	-0.052
-351.508	800.000	0.089	0.260
-350.493	536.803	-0.011	0.026
-349.479	541.923	-0.077	0.182
-348.464	-54.528	0.178	-0.080
-347.450	-80.332	0.332	0.110
-346.435	-57.647	0.105	0.046
-345.420	70.322	0.052	-0.053
-344.406	751.342	-0.087	0.235
-343.391	63.575	0.203	-0.203
-342.377	-90.899	-0.140	-0.040
-341.362	485.498	-0.059	0.134
-340.348	-95.399	0.522	0.139
-339.333	125.568	-0.225	-0.282
-338.318	7.806	-0.193	0.144
-337.304	-136.711	0.463	-0.053
-336.289	-129.609	0.121	-0.017
-335.275	800.000	-0.025	0.097
-334.260	-126.505	0.161	0.024
-333.245	-200.000	0.024	0.153
-332.231	-21.946	-0.289	0.175
-331.216	11.548	-0.242	-0.185
-330.202	-56.564	-0.073	-0.032
-329.187	224.141	0.147	0.236
-328.172	194.488	-0.051	-0.077
-327.158	-107.661	-0.411	0.089
-326.143	-200.000	-0.021	-0.143
-325.129	-73.634	0.215	-0.078
-324.114	-148.752	-0.458	0.037
-323.099	-168.980	-0.151	0.006
-322.085	-200.000	-0.034	-0.293
-321.070	-200.000	-0.003	-0.241
-320.056	567.822	-0.092	0.223
-319.041	800.000	0.142	0.390
-318.026	741.336	-0.026	-0.069
-317.012	-2.748	0.158	-0.110
-315.997	-0.906	0.093	0.065
-314.983	19.755	-0.140	0.112
-313.968	-114.631	0.171	-0.032
-312.953	-200.000	-0.061	-0.330
-311.939	-182.227	0.241	0.004
-310.924	-145.758	-0.056	-0.005
-309.910	84.235	-0.228	-0.248
-308.895	-200.000	-0.022	-0.286
-307.880	-78.496	-0.325	0.111
-306.866	49.629	0.122	-0.115
-305.851	216.294	-0.145	0.228
-304.837	270.278	0.038	0.067
-303.822	5.297	0.155	0.114
-302.807	0.547	0.281	0.199
-301.793	-60.144	-0.286	0.121
-300.778	800.000	-0.030	0.123
-299.764	-98.803	-0.175	-0.044
-298.749	800.000	-0.040	-0.170
-297.735	244.816	0.025	-0.042
-296.720	-19.793	0.105	0.065
-295.705	-120.247	0.303	0.051
-294.691	-64.377	0.272	-0.110
-293.676	-103.122	-0.073	-0.017
-292.662	296.728	0.166	-0.303
-291.647	-163.102	0.047	0.002
-290.632	44.809	0.224	0.204
-289.618	242.861	0.077	-0.128
-288.603	-75.624	-0.091	-0.032
-287.589	-200.000	-0.002	0.450
-286.574	-44.666	-0.182	-0.090
-285.559	472.043	0.090	0.201
-284.545	43.505	0.088	0.079
-283.530	47.087	0.150	0.138
-282.516	-56.410	0.238	0.105
-281.501	86.552	-0.231	-0.253
-280.486	159.810	-0.143	0.197
-279.472	800.000	0.039	-0.150
-278.457	328.024	0.171	0.325
-277.443	151.753	-0.227	0.307
-276.428	-200.000	0.010	0.211
-275.413	22.656	0.167	-0.136
-274.399	-94.229	0.155	0.042
-273.384	510.286	0.031	0.071
-272.370	800.000	-0.077	0.302
-271.355	-185.083	-0.171	-0.003
-270.340	16.217	-0.196	-0.153
-269.326	-200.000	0.035	0.509
-268.311	-74.890	-0.182	0.065
-267.297	27.597	0.131	-0.109
-266.282	118.247	0.108	-0.132
-265.267	-62.995	-0.223	-0.091
-264.253	-85.482	0.228	0.070
-263.238	175.523	0.238	0.342
-262.224	-200.000	0.027	0.322
-261.209	-162.777	0.456	-0.022
-260.195	-200.000	0.052	-0.368
-259.180	-20.868	0.241	0.146
-258.165	800.000	0.024	-0.095
-257.151	-200.000	0.003	0.080
-256.136	-23.785	0.022	-0.013
-255.122	188.104	0.207	-0.307
-254.107	-200.000	0.063	0.432
-253.092	-171.146	-0.156	0.005
-252.078	-114.279	-0.330	-0.063
-251.063	153.474	0.035	0.047
-250.049	42.537	-0.214	-0.193
-249.034	-200.000	-0.006	0.324
-248.019	800.000	-0.020	-0.070
-247.005	800.000	0.079	0.257
-245.990	-86.376	0.232	-0.071
-244.976	82.845	0.086	0.092
-243.961	-200.000	0.005	-0.084
-242.946	63.535	-0.264	-0.263
-241.932	-168.206	0.167	-0.006
-240.917	113.625	-0.121	0.146
-239.903	-93.183	0.123	-0.034
-238.888	-138.700	-0.066	0.007
-237.873	125.643	0.160	-0.200
-236.859	552.836	0.092	-0.220
-235.844	-61.665	-0.072	0.030
-234.830	416.503	-0.096	0.204
-233.815	124.255	0.144	-0.179
-232.800	388.090	0.102	-0.209
-231.786	-200.000	-0.004	-0.318
-230.771	-99.389	-0.140	0.035
-229.757	511.668	-0.026	-0.061
-228.742	-117.795	0.384	0.068
-227.727	342.050	0.161	-0.311
-226.713	-200.000	0.031	-0.526
-225.698	-200.000	0.013	0.232
-224.684	71.940	-0.134	0.138
-223.669	87.321	-0.081	-0.089
-222.655	800.000	0.071	0.199
-221.640	400.356	-0.080	0.166
-220.625	800.000	0.028	-0.087
-219.611	156.932	-0.185	-0.253
-218.596	-200.000	-0.031	0.235
-217.582	-9.046	0.099	-0.066
-216.567	-92.594	-0.258	0.072
-215.552	-131.852	0.290	0.038
-214.538	157.191	0.029	0.039
-213.523	-200.000	0.006	0.043
-212.509	454.823	-0.100	0.220
-211.494	-200.000	0.047	-0.206
-210.479	378.398	-0.193	-0.390
-209.465	34.842	0.239	-0.207
-208.450	-82.675	-0.222	-0.071
-207.436	370.329	-0.032	0.065
-206.421	-200.000	-0.014	0.375
-205.406	365.109	-0.064	-0.128
-204.392	66.592	-0.140	-0.141
-203.377	469.725	0.231	0.513
-202.363	12.697	0.258	0.197
-201.348	-200.000	-0.037	-0.197
-200.333	-144.684	0.192	-0.017
-199.319	-152.953	-0.108	0.008
-198.304	800.000	-0.095	0.290
-197.290	54.012	-0.167	0.159
-196.275	800.000	-0.036	-0.147
-195.260	-134.015	0.221	-0.027
-194.246	150.434	-0.072	-0.097
-193.231	423.349	0.030	-0.063
-192.217	-66.289	-0.078	-0.031
-191.202	171.807	0.147	-0.209
-190.187	-96.192	-0.350	0.092
-189.173	-107.780	-0.183	-0.039
-188.158	-200.000	0.007	0.111
-187.144	-65.022	0.285	-0.114
-186.129	113.811	-0.087	0.104
-185.114	800.000	-0.096	0.306
-184.100	-53.032	0.275	-0.125
-183.085	96.452	-0.126	-0.142
-182.071	-96.317	0.202	-0.053
-181.056	58.827	0.136	-0.132
-180.042	419.710	0.164	-0.346
-179.027	-22.348	-0.274	0.164
-178.012	178.843	-0.069	-0.100
-176.998	-49.594	-0.423	-0.199
-175.983	-68.360	0.205	0.078
-174.969	-52.069	0.247	-0.113
-173.954	-30.371	0.114	0.064
-172.939	800.000	0.085	0.349
-171.925	-200.000	0.017	0.080
-170.910	-58.503	-0.105	-0.045
-169.896	-4.075	0.192	-0.131
-168.881	117.859	-0.076	0.093
-167.866	-163.396	0.258	-0.012
-166.852	-200.000	-0.021	0.283
-165.837	-131.077	0.222	-0.029
-164.823	-200.000	-0.008	-0.049
-163.808	153.526	-0.063	0.085
-162.793	439.913	0.109	0.235
-161.779	-100.474	0.333	-0.081
-160.764	-160.539	-0.161	-0.008
-159.750	177.245	-0.043	-0.062
-158.735	-20.955	0.125	0.075
-157.720	-67.943	-0.250	-0.096
-156.706	109.603	0.242	-0.286
-155.691	12.430	-0.062	0.047
-154.677	340.550	0.159	0.307
-153.662	-56.953	-0.487	-0.212
-152.647	257.442	-0.074	0.126
-151.633	-200.000	-0.013	0.149
-150.618	-119.544	0.046	0.008
-149.604	-80.747	0.121	-0.040
-148.589	-66.384	-0.421	-0.165
-147.574	-82.556	-0.327	0.105
-146.560	204.580	0.099	-0.152
-145.545	81.215	-0.060	-0.064
-144.531	480.523	-0.107	-0.239
-143.516	266.428	-0.098	0.169
-142.502	-200.000	-0.023	-0.171
-141.487	41.865	-0.126	0.112
-140.472	522.431	-0.042	-0.098
-139.458	800.000	0.060	0.241
-138.443	-200.000	0.015	0.269
-137.429	-76.180	-0.326	0.114
-136.414	800.000	-0.062	-0.261
-135.399	12.042	-0.276	-0.210
-134.385	190.679	-0.089	-0.132
-133.370	-200.000	0.065	0.359
-132.356	-102.297	-0.146	0.035
-131.341	800.000	-0.075	-0.264
-130.326	-200.000	-0.015	-0.254
-129.312	-67.496	0.508	0.197
-128.297	8.816	-0.115	0.085
-127.283	-18.776	0.221	0.136
-126.268	-200.000	-0.012	0.154
-125.253	800.000	0.036	0.112
-124.239	167.169	-0.138	-0.193
-123.224	75.062	0.180	0.187
-122.210	15.141	-0.146	0.113
