DTS Sentinel unit serial number:	SN413079Multiplexer serial number:	ORYXHardware model number:	OX4-SRSoftware version number:	ORYX F/W v4.00 Oryx Data Collector v3.7.2.0data status	okinstallation	princeton_trtdifferential loss correction	single-endedforward channel	channel 4reverse channel	N/Adate	2019/09/16time	10:17:35forward acquisition time	60.00reverse acquisition time	0.00gamma	496.2192k internal	0.2300k external	0.2300temperature offset calibration	0.9959default loss term (dB/km)	0.3790temperature slope calibration	1.0000multiplexer offset coefficient	1.0000multiplexer slope coefficient	1.0000fibre end	0.00T internal ref (°C)	34.52T ext. ref 1 (°C)	12.49T ext. ref 2 (°C)	33.22length (m)	temperature (°C)	Stokes	anti-Stokes-747.200	675.982	0.071	-0.189
-746.185	-37.648	-0.221	0.120
-745.171	215.410	0.064	-0.103
-744.156	-200.000	-0.029	0.177
-743.142	-149.498	-0.210	0.017
-742.127	-200.000	0.065	0.300
-741.112	-200.000	-0.054	0.399
-740.098	283.006	-0.164	0.300
-739.083	12.309	0.192	0.151
-738.069	-200.000	-0.091	0.496
-737.054	-148.436	-0.297	0.025
-736.039	574.901	0.024	0.059
-735.025	-199.874	0.298	0.002
-734.010	5.163	-0.188	0.141
-732.996	37.649	-0.188	0.170
-731.981	-93.710	-0.102	0.029
-730.966	-88.552	-0.199	0.060
-729.952	107.023	0.195	-0.236
-728.937	-166.345	-0.348	-0.015
-727.923	-129.305	-0.176	0.025
-726.908	-190.713	-0.400	0.004
-725.894	-200.000	-0.005	-0.107
-724.879	-188.721	0.127	-0.002
-723.864	67.905	-0.081	0.084
-722.850	-200.000	-0.058	0.347
-721.835	-29.515	0.283	-0.165
-720.821	67.566	0.072	-0.075
-719.806	-50.555	-0.078	0.038
-718.791	276.786	-0.097	-0.176
-717.777	-200.000	0.053	0.261
-716.762	197.615	0.225	0.350
-715.748	-200.000	0.051	-0.284
-714.733	-84.426	0.257	0.083
-713.718	-92.033	0.364	0.105
-712.704	-126.175	0.446	0.068
-711.689	-177.633	-0.298	-0.007
-710.675	-145.986	-0.161	-0.014
-709.660	-133.072	0.396	0.051
-708.645	-200.000	0.245	-0.001
-707.631	800.000	-0.034	-0.138
-706.616	-16.041	0.344	-0.222
-705.602	39.367	0.175	-0.160
-704.587	167.998	0.153	-0.222
-703.572	-176.811	0.259	0.007
-702.558	-38.147	-0.214	-0.115
-701.543	-163.109	0.190	-0.009
-700.529	313.585	0.176	0.336
-699.514	179.792	-0.183	-0.272
-698.499	-91.644	-0.396	-0.115
-697.485	-49.123	-0.174	0.085
-696.470	61.011	-0.026	-0.026
-695.456	313.981	-0.149	0.286
-694.441	-82.562	-0.163	-0.054
-693.426	355.241	-0.093	-0.188
-692.412	257.734	-0.072	-0.126
-691.397	42.020	0.206	-0.190
-690.383	-88.870	-0.042	-0.013
-689.368	13.717	0.196	-0.155
-688.354	800.000	0.061	0.181
-687.339	-127.167	-0.413	-0.061
-686.324	132.347	-0.042	0.055
-685.310	230.032	0.047	0.079
-684.295	-156.021	-0.404	-0.026
-683.281	212.358	-0.090	0.144
-682.266	-3.242	0.200	0.142
-681.251	282.745	-0.138	0.252
-680.237	-53.340	0.197	-0.092
-679.222	204.815	0.134	-0.211
-678.208	430.552	-0.146	-0.322
-677.193	-22.610	-0.181	-0.111
-676.178	370.066	-0.055	0.114
-675.164	-41.524	-0.556	0.291
-674.149	800.000	0.073	-0.220
-673.135	-155.502	0.088	-0.006
-672.120	-132.232	-0.216	0.029
-671.105	-125.544	0.392	-0.061
-670.091	-200.000	-0.002	-0.086
-669.076	113.285	-0.077	0.096
-668.062	-200.000	-0.012	-0.069
-667.047	168.562	0.156	-0.226
-666.032	-96.002	-0.171	-0.046
-665.018	-179.972	-0.108	-0.002
-664.003	-54.134	-0.059	0.027
-662.989	-1.857	-0.200	-0.143
-661.974	-106.938	-0.271	0.061
-660.959	248.799	-0.184	-0.316
-659.945	74.313	-0.133	-0.142
-658.930	-118.587	-0.191	-0.034
-657.916	-16.570	-0.145	-0.093
-656.901	-200.000	-0.026	0.303
-655.886	78.101	0.080	-0.087
-654.872	-200.000	-0.106	-0.575
-653.857	18.662	0.184	0.149
-652.843	800.000	0.043	0.138
-651.828	800.000	0.057	-0.210
-650.814	-113.410	-0.219	-0.044
-649.799	800.000	-0.118	-0.418
-648.784	78.931	0.115	-0.125
-647.770	-200.000	-0.038	0.342
-646.755	-200.000	-0.058	-0.352
-645.741	-200.000	0.016	0.188
-644.726	-6.474	-0.179	-0.124
-643.711	-86.930	-0.299	-0.093
-642.697	57.471	-0.440	0.437
-641.682	-64.352	-0.248	0.103
-640.668	-200.000	-0.049	-0.305
-639.653	-66.698	-0.293	0.118
-638.638	135.877	0.286	0.378
-637.624	75.613	0.288	0.309
-636.609	800.000	0.040	0.124
-635.595	128.883	0.082	0.106
-634.580	88.819	-0.247	-0.279
-633.565	-51.095	0.170	0.081
-632.551	-84.428	-0.301	-0.097
-631.536	-144.056	0.432	0.041
-630.522	-200.000	-0.010	0.204
-629.507	800.000	0.014	0.040
-628.492	-155.516	0.355	-0.023
-627.478	282.304	-0.027	-0.048
-626.463	-115.647	-0.194	0.037
-625.449	-200.000	-0.046	-0.360
-624.434	-5.424	-0.118	-0.082
-623.419	-200.000	0.029	0.234
-622.405	51.437	0.222	0.214
-621.390	-85.414	0.431	0.136
-620.376	-200.000	0.012	0.064
-619.361	-200.000	0.015	0.080
-618.346	-28.284	0.167	0.098
-617.332	-173.390	-0.225	-0.007
-616.317	-60.273	0.235	-0.102
-615.303	-108.732	0.301	-0.065
-614.288	800.000	0.049	-0.209
-613.273	-138.736	-0.186	0.021
-612.259	-102.108	0.279	-0.068
-611.244	-76.787	-0.186	-0.066
-610.230	800.000	0.041	0.161
-609.215	-128.128	-0.147	-0.021
-608.201	-200.000	0.013	-0.091
-607.186	-21.247	-0.288	0.179
-606.171	450.218	0.014	-0.031
-605.157	38.379	-0.134	-0.121
-604.142	-200.000	0.016	-0.119
-603.128	-4.441	0.221	-0.155
-602.113	-33.102	0.228	-0.128
-601.098	182.773	-0.090	-0.134
-600.084	5.775	0.220	0.165
-599.069	-10.259	0.276	-0.186
-598.055	127.820	0.145	-0.186
-597.040	72.586	-0.138	-0.146
-596.025	35.427	-0.033	-0.029
-595.011	-200.000	-0.038	-0.238
-593.996	-70.260	-0.196	-0.076
-592.982	575.146	-0.121	-0.300
-591.967	-82.280	-0.309	-0.102
-590.952	-99.078	0.108	-0.028
-589.938	-142.874	-0.107	0.011
-588.923	-200.000	0.002	-0.272
-587.909	629.378	0.114	-0.291
-586.894	800.000	-0.104	0.317
-585.879	24.327	-0.367	0.307
-584.865	-200.000	-0.033	-0.191
-583.850	-22.906	0.038	-0.023
-582.836	-155.104	0.298	0.020
-581.821	41.687	0.284	-0.261
-580.806	242.439	0.039	0.067
-579.792	-200.000	0.012	0.218
-578.777	-200.000	-0.054	-0.421
-577.763	25.885	0.048	0.041
-576.748	-200.000	-0.002	-0.105
-575.733	-28.304	-0.084	-0.049
-574.719	800.000	0.031	0.135
-573.704	-191.369	-0.075	0.001
-572.690	14.752	-0.126	-0.100
-571.675	-55.880	0.213	-0.096
-570.661	-13.750	-0.368	-0.241
-569.646	-143.297	0.300	-0.029
-568.631	-104.123	-0.194	-0.046
-567.617	61.244	0.104	0.105
-566.602	559.663	0.049	0.120
-565.588	-95.938	0.184	-0.050
-564.573	199.687	0.087	-0.135
-563.558	345.487	0.063	0.125
-562.544	800.000	-0.067	0.273
-561.529	-153.824	0.233	0.016
-560.515	-96.696	-0.359	-0.096
-559.500	-49.902	-0.276	-0.133
-558.485	316.576	0.037	0.071
-557.471	-200.000	0.016	0.321
-556.456	122.178	-0.048	0.061
-555.442	786.863	-0.160	0.445
-554.427	235.856	-0.079	-0.133
-553.412	-30.447	-0.125	0.072
-552.398	-5.239	-0.295	0.205
-551.383	-200.000	0.020	0.205
-550.369	-6.598	-0.049	-0.034
-549.354	641.503	0.121	-0.313
-548.339	-200.000	0.043	0.362
-547.325	-200.000	0.037	0.340
-546.310	-50.646	0.435	-0.208
-545.296	-200.000	-0.005	-0.077
-544.281	-61.547	0.188	0.080
-543.266	117.826	-0.038	0.047
-542.252	251.600	-0.031	0.053
-541.237	-83.082	-0.247	-0.080
-540.223	38.750	0.080	-0.072
-539.208	-23.770	0.066	-0.040
-538.193	-88.911	0.044	-0.013
-537.179	23.937	0.161	-0.134
-536.164	-12.834	0.210	0.139
-535.150	626.918	-0.177	-0.453
-534.135	401.431	0.225	-0.479
-533.121	-80.120	0.048	-0.016
-532.106	-200.000	0.022	-0.149
-531.091	-91.275	0.105	-0.031
-530.077	-74.379	-0.106	-0.039
-529.062	800.000	-0.063	-0.250
-528.048	-33.969	0.477	0.265
-527.033	-42.803	0.216	0.111
-526.018	94.672	0.116	0.133
-525.004	800.000	-0.050	-0.151
-523.989	-102.230	-0.384	0.093
-522.975	-135.124	-0.350	0.043
-521.960	-135.875	-0.163	0.019
-520.945	-53.944	0.145	-0.067
-519.931	-43.741	-0.187	-0.095
-518.916	-97.718	-0.286	0.075
-517.902	-200.000	-0.009	-0.101
-516.887	800.000	-0.030	-0.104
-515.872	317.120	0.120	-0.230
-514.858	69.607	0.156	0.163
-513.843	19.546	0.267	0.217
-512.829	-52.099	0.104	0.049
-511.814	-200.000	0.022	0.376
-510.799	-65.650	-0.205	0.083
-509.785	-200.000	0.011	0.132
-508.770	134.191	-0.210	0.275
-507.756	259.804	0.137	0.239
-506.741	36.666	-0.078	0.070
-505.726	193.857	0.132	-0.201
-504.712	338.645	0.065	0.129
-503.697	421.266	0.055	0.120
-502.683	-46.818	0.107	0.053
-501.668	-121.776	-0.154	-0.026
-500.653	-68.045	-0.204	-0.080
-499.639	5.565	0.119	-0.089
-498.624	447.670	-0.063	-0.141
-497.610	71.041	-0.069	-0.072
-496.595	-200.000	-0.063	0.386
-495.581	746.556	0.015	0.040
-494.566	60.619	0.237	-0.237
-493.551	59.932	-0.189	-0.189
-492.537	193.978	-0.081	-0.123
-491.522	12.424	0.120	0.093
-490.508	-152.496	-0.162	0.012
-489.493	17.647	-0.278	-0.223
-488.478	-18.771	-0.009	0.006
-487.464	-73.162	-0.171	-0.063
-486.449	343.420	0.105	0.208
-485.435	-200.000	0.002	-0.159
-484.420	-200.000	-0.008	-0.050
-483.405	385.138	-0.052	0.108
-482.391	501.357	0.077	0.179
-481.376	75.539	0.089	-0.095
-480.362	-97.093	-0.221	0.058
-479.347	-200.000	-0.097	0.456
-478.332	-200.000	-0.087	0.458
-477.318	500.643	0.096	0.224
-476.303	-200.000	0.022	-0.360
-475.289	508.736	-0.086	-0.202
-474.274	-71.616	0.309	0.117
-473.259	-200.000	-0.034	0.241
-472.245	-200.000	-0.011	-0.218
-471.230	160.214	-0.221	-0.312
-470.216	31.803	-0.119	-0.103
-469.201	-200.000	-0.070	-0.428
-468.186	107.978	0.238	0.286
-467.172	36.478	0.118	0.105
-466.157	-200.000	-0.008	0.246
-465.143	-200.000	-0.030	-0.418
-464.128	-100.152	-0.181	-0.045
-463.113	9.881	0.108	-0.083
-462.099	-27.945	0.232	0.136
-461.084	-18.933	-0.189	0.119
-460.070	-18.618	0.095	0.059
-459.055	-200.000	-0.003	-0.053
-458.040	-75.093	0.158	-0.057
-457.026	7.561	0.373	0.281
-456.011	800.000	0.043	0.168
-454.997	140.850	0.179	0.239
-453.982	512.944	0.131	-0.308
-452.968	51.642	0.147	0.141
-451.953	233.682	-0.171	-0.284
-450.938	800.000	-0.022	0.077
-449.924	151.631	0.132	0.181
-448.909	92.455	0.148	-0.168
-447.895	15.573	0.291	-0.230
-446.880	-146.817	0.117	-0.010
-445.865	-200.000	-0.048	-0.574
-444.851	-178.441	-0.413	0.010
-443.836	-123.014	0.228	0.037
-442.822	-200.000	0.008	-0.274
-441.807	-200.000	0.042	-0.239
-440.792	63.033	-0.232	0.234
-439.778	-200.000	-0.003	0.668
-438.763	800.000	0.044	-0.151
-437.749	-164.480	-0.233	0.011
-436.734	-97.942	-0.354	0.092
-435.719	287.793	0.153	0.278
-434.705	48.144	0.371	-0.349
-433.690	76.561	0.140	0.149
-432.676	-200.000	0.036	0.214
-431.661	-200.000	-0.010	-0.056
-430.646	75.435	-0.025	-0.027
-429.632	28.729	-0.141	-0.120
-428.617	-151.537	-0.146	-0.011
-427.603	800.000	0.084	-0.275
-426.588	-200.000	-0.185	0.000
-425.573	-200.000	-0.016	-0.233
-424.559	800.000	0.031	0.136
-423.544	-200.000	-0.050	0.237
-422.530	-73.600	-0.428	-0.157
-421.515	174.902	-0.074	-0.107
-420.500	89.442	-0.212	-0.238
-419.486	152.618	0.063	-0.087
-418.471	345.075	-0.157	-0.310
-417.457	-79.408	-0.112	0.038
-416.442	-14.643	-0.237	0.153
-415.428	-200.000	0.022	0.365
-414.413	800.000	0.043	-0.135
-413.398	45.171	-0.077	-0.071
-412.384	-108.513	0.203	-0.044
-411.369	-200.000	0.013	-0.247
-410.355	-200.000	0.003	0.070
-409.340	130.260	0.038	-0.049
-408.325	-117.760	0.166	-0.030
-407.311	-24.653	-0.265	-0.158
-406.296	800.000	0.109	0.355
-405.282	-85.310	0.080	0.025
-404.267	-200.000	0.037	-0.239
-403.252	2.418	-0.239	0.174
-402.238	683.186	0.097	-0.253
-401.223	-37.073	-0.251	-0.135
-400.209	556.008	-0.163	0.396
-399.194	-116.891	0.207	0.038
-398.179	-74.620	-0.205	-0.074
-397.165	-84.719	0.359	0.114
-396.150	84.058	-0.132	-0.145
-395.136	-200.000	-0.051	-0.292
-394.121	-200.000	-0.054	0.250
-393.106	-47.678	0.224	-0.109
-392.092	-100.447	0.077	0.019
-391.077	-30.823	0.367	0.208
-390.063	219.201	0.058	0.093
-389.048	-118.508	-0.276	0.049
-388.033	-200.000	-0.258	0.000
-387.019	-88.231	0.154	-0.046
-386.004	-150.930	0.372	-0.028
-384.990	800.000	0.057	-0.236
-383.975	37.550	0.348	0.310
-382.960	523.790	-0.069	0.163
-381.946	-141.136	0.148	0.015
-380.931	-192.257	0.221	0.002
-379.917	63.411	-0.234	0.236
-378.902	47.127	-0.113	0.105
-377.888	-11.822	-0.215	-0.142
-376.873	353.164	0.067	0.133
-375.858	-169.060	0.232	-0.009
-374.844	-200.000	0.029	0.286
-373.829	-130.506	-0.324	-0.044
-372.815	155.719	0.184	0.255
-371.800	45.857	-0.146	-0.135
-370.785	444.180	0.112	-0.247
-369.771	313.060	-0.099	0.188
-368.756	525.313	-0.127	0.301
-367.742	69.091	0.192	-0.198
-366.727	-200.000	0.003	0.117
-365.712	219.289	-0.050	0.080
-364.698	-80.446	-0.038	0.013
-363.683	-129.191	0.271	-0.038
-362.669	-200.000	-0.047	0.329
-361.654	-42.199	0.073	-0.037
-360.639	78.963	-0.058	-0.063
-359.625	258.659	0.074	-0.128
-358.610	-112.283	-0.238	0.048
-357.596	-102.305	0.026	-0.006
-356.581	144.556	-0.317	-0.425
-355.566	-200.000	0.042	-0.638
-354.552	186.136	0.244	-0.364
-353.537	157.361	-0.325	-0.452
-352.523	-20.108	0.284	0.176
-351.508	-3.663	0.335	-0.234
-350.493	-14.272	0.305	-0.197
-349.479	-76.119	-0.433	0.153
-348.464	326.084	-0.061	0.118
-347.450	-123.754	0.075	-0.012
-346.435	-20.006	0.061	-0.038
-345.420	-170.273	-0.112	-0.004
-344.406	648.542	-0.149	-0.384
-343.391	-54.371	-0.049	0.022
-342.377	-200.000	0.018	-0.144
-341.362	-110.466	-0.185	-0.038
-340.348	-3.464	-0.166	0.116
-339.333	800.000	-0.107	0.384
-338.318	-138.525	0.193	-0.021
-337.304	354.882	0.137	0.274
-336.289	32.339	-0.084	0.073
-335.275	636.501	0.079	-0.201
-334.260	267.397	0.033	-0.057
-333.245	-176.392	-0.141	-0.004
-332.231	91.262	-0.248	0.280
-331.216	372.747	-0.111	0.226
-330.202	55.968	0.037	0.036
-329.187	226.517	0.128	0.209
-328.172	-89.888	-0.261	-0.076
-327.158	-58.393	-0.088	-0.038
-326.143	194.831	-0.154	0.235
-325.129	-95.415	0.298	-0.080
-324.114	-122.689	-0.507	-0.082
-323.099	-200.000	0.027	0.277
-322.085	800.000	0.076	0.230
-321.070	800.000	-0.044	0.168
-320.056	800.000	-0.089	-0.268
-319.041	716.090	0.108	-0.288
-318.026	18.735	-0.174	0.139
-317.012	-200.000	0.036	0.167
-315.997	-96.727	0.155	0.041
-314.983	65.742	0.115	-0.117
-313.968	-68.297	-0.024	0.009
-312.953	-126.265	0.169	-0.025
-311.939	-200.000	-0.029	0.149
-310.924	729.075	-0.048	-0.129
-309.910	-139.333	-0.381	0.041
-308.895	-121.915	0.181	0.030
-307.880	-161.696	-0.234	-0.012
-306.866	27.114	-0.300	0.252
-305.851	-62.952	-0.332	-0.137
-304.837	800.000	0.073	-0.279
-303.822	145.109	0.339	-0.455
-302.807	16.787	0.213	0.169
-301.793	27.999	0.308	0.261
-300.778	800.000	-0.063	0.223
-299.764	800.000	-0.036	0.102
-298.749	800.000	-0.074	0.317
-297.735	-113.545	-0.120	0.024
-296.720	242.518	0.268	-0.450
-295.705	-146.584	0.386	-0.034
-294.691	257.094	-0.067	0.115
-293.676	-200.000	-0.030	-0.224
-292.662	100.085	-0.247	0.287
-291.647	442.119	0.196	-0.430
-290.632	-200.000	-0.016	-0.140
-289.618	-81.407	0.274	-0.091
-288.603	341.001	-0.052	-0.101
-287.589	800.000	0.070	-0.259
-286.574	196.756	0.103	-0.157
-285.559	-131.386	-0.226	0.030
-284.545	-75.360	0.202	-0.072
-283.530	-122.720	0.157	-0.025
-282.516	82.637	0.158	-0.172
-281.501	-95.295	0.237	0.064
-280.486	44.182	0.178	-0.163
-279.472	435.299	0.126	0.275
-278.457	-88.870	0.502	-0.149
-277.443	-3.828	-0.313	0.218
-276.428	-200.000	0.036	0.230
-275.413	-200.000	0.009	-0.052
-274.399	800.000	-0.043	0.147
-273.384	774.166	-0.122	0.334
-272.370	70.208	0.219	0.226
-271.355	-200.000	0.068	0.307
-270.340	-161.439	0.266	-0.014
-269.326	8.770	-0.095	-0.072
-268.311	-167.039	-0.369	-0.015
-267.297	-200.000	0.006	0.113
-266.282	-200.000	-0.041	0.252
-265.267	-89.633	-0.089	-0.026
-264.253	-200.000	0.030	0.333
-263.238	-104.203	0.150	-0.035
-262.224	-147.426	-0.113	-0.010
-261.209	535.888	-0.116	0.274
-260.195	315.945	-0.134	-0.254
-259.180	800.000	0.043	-0.133
-258.165	216.912	0.145	-0.232
-257.151	-111.992	-0.316	0.064
-256.136	130.434	-0.040	0.051
-255.122	202.619	-0.155	0.240
-254.107	19.096	-0.202	0.162
-253.092	-117.014	-0.215	0.039
-252.078	-140.389	-0.140	0.015
-251.063	65.672	0.238	0.241
-250.049	-54.736	-0.072	-0.032
-249.034	-39.741	-0.218	-0.114
-248.019	33.022	-0.243	0.211
-247.005	800.000	0.012	-0.038
-245.990	-200.000	0.041	0.377
-244.976	462.808	-0.083	-0.185
-243.961	84.516	-0.177	0.193
-242.946	800.000	-0.060	-0.209
-241.932	278.689	-0.087	-0.156
-240.917	-172.748	0.051	-0.002
-239.903	110.492	0.077	0.092
-238.888	102.645	-0.059	-0.069
-237.873	-129.710	0.259	-0.036
-236.859	261.272	0.096	0.165
-235.844	308.819	0.080	0.150
-234.830	58.456	-0.171	0.167
-233.815	-200.000	0.042	-0.232
-232.800	-74.162	-0.273	-0.099
-231.786	18.536	0.104	-0.083
-230.771	-47.884	0.075	-0.036
-229.757	260.154	-0.049	-0.085
-228.742	36.201	-0.130	-0.114
-227.727	711.086	-0.019	0.050
-226.713	7.081	0.029	0.022
-225.698	800.000	0.055	-0.162
-224.684	77.453	0.037	-0.040
-223.669	800.000	0.034	0.108
-222.655	-81.878	0.287	-0.094
-221.640	112.239	-0.205	0.248
-220.625	25.075	0.163	-0.135
-219.611	-86.222	-0.206	0.063
-218.596	-200.000	0.051	-0.358
-217.582	-68.749	-0.210	-0.081
-216.567	-66.909	-0.231	0.091
-215.552	156.456	-0.166	0.229
-214.538	573.778	-0.057	-0.139
-213.523	32.208	0.274	-0.236
-212.509	-29.841	-0.157	0.090
-211.494	5.565	-0.104	0.077
-210.479	-88.915	0.155	0.046
-209.465	710.640	-0.056	-0.147
-208.450	-64.971	0.129	0.052
-207.436	-162.226	0.271	0.014
-206.421	-49.218	0.089	0.042
-205.406	-72.197	-0.152	0.056
-204.392	88.227	0.264	-0.293
-203.377	-60.496	0.272	0.116
-202.363	-167.915	0.251	0.010
-201.348	176.970	-0.146	0.212
-200.333	-200.000	-0.024	0.159
-199.319	213.374	-0.144	0.228
-198.304	46.454	-0.140	0.130
-197.290	-61.031	0.230	-0.097
-196.275	-89.114	0.177	0.052
-195.260	100.394	0.255	-0.295
-194.246	73.409	0.134	0.140
-193.231	41.004	0.112	0.101
-192.217	-136.799	-0.365	0.042
-191.202	-200.000	0.025	0.163
-190.187	172.342	-0.170	-0.244
-189.173	308.170	0.124	-0.231
-188.158	68.151	0.267	-0.273
-187.144	-200.000	-0.007	0.067
-186.129	4.643	0.194	0.142
-185.114	-200.000	-0.013	-0.287
-184.100	77.897	0.135	-0.144
-183.085	495.740	-0.077	-0.176
-182.071	-200.000	-0.062	-0.288
-181.056	146.830	0.074	-0.099
-180.042	681.393	-0.134	-0.348
-179.027	91.086	-0.085	0.095
-178.012	-200.000	-0.015	-0.176
-176.998	185.941	-0.088	-0.131
-175.983	149.998	0.043	-0.059
-174.969	800.000	0.063	0.194
-173.954	250.654	0.033	0.055
-172.939	142.703	0.193	-0.256
-171.925	10.993	-0.259	-0.198
-170.910	284.396	0.060	0.107
-169.896	134.233	-0.116	-0.150
-168.881	-65.589	0.153	-0.061
-167.866	-26.967	0.153	-0.089
-166.852	92.459	-0.113	0.126
-165.837	231.485	0.016	0.026
-164.823	21.966	-0.246	0.200
-163.808	8.275	-0.192	0.144
-162.793	-139.296	0.084	-0.009
-161.779	409.042	-0.079	0.167
-160.764	706.651	-0.033	-0.087
-159.750	-200.000	-0.051	0.343
-158.735	-68.530	0.073	0.028
-157.720	150.994	-0.067	0.090
-156.706	63.806	0.331	0.331
-155.691	98.248	0.204	0.234
-154.677	-159.590	-0.262	-0.014
-153.662	800.000	-0.049	0.197
-152.647	-112.853	0.153	0.030
-151.633	-120.484	-0.175	0.030
-150.618	-55.892	-0.226	-0.101
-149.604	34.743	-0.235	-0.205
-148.589	-200.000	0.019	-0.101
-147.574	12.863	-0.144	0.111
-146.560	128.088	-0.033	-0.041
-145.545	-20.384	-0.237	-0.145
-144.531	800.000	-0.070	-0.252
-143.516	-90.662	0.040	-0.011
-142.502	715.759	0.139	-0.367
-141.487	-95.616	-0.323	0.086
-140.472	51.408	0.276	-0.261
-139.458	800.000	-0.022	-0.062
-138.443	-54.273	-0.158	0.072
-137.429	-113.491	-0.262	0.051
-136.414	-32.832	0.025	-0.014
-135.399	-181.768	0.316	-0.006
-134.385	-94.715	-0.155	0.042
-133.370	48.428	0.174	-0.162
-132.356	-98.311	-0.126	0.032
-131.341	800.000	0.069	0.217
-130.326	-52.401	-0.203	0.093
-129.312	-71.523	0.310	-0.115
-128.297	-200.000	0.032	0.272
-127.283	123.036	0.333	0.415
-126.268	-103.875	0.174	0.041
-125.253	-105.908	-0.335	-0.075
-124.239	240.926	0.160	0.265
-123.224	-96.800	0.212	-0.056
-122.210	-22.206	-0.311	-0.187
-121.195	31.798	-0.032	0.027
