DTS Sentinel unit serial number:	SN413079Multiplexer serial number:	ORYXHardware model number:	OX4-SRSoftware version number:	ORYX F/W v4.00 Oryx Data Collector v3.7.2.0data status	okinstallation	princeton_trtdifferential loss correction	single-endedforward channel	channel 4reverse channel	N/Adate	2019/09/18time	01:13:35forward acquisition time	60.00reverse acquisition time	0.00gamma	496.2192k internal	0.2334k external	0.2334temperature offset calibration	0.9997default loss term (dB/km)	0.3790temperature slope calibration	1.0000multiplexer offset coefficient	1.0000multiplexer slope coefficient	1.0000fibre end	0.00T internal ref (°C)	23.19T ext. ref 1 (°C)	0.17T ext. ref 2 (°C)	16.90length (m)	temperature (°C)	Stokes	anti-Stokes-747.200	-61.454	-0.217	0.092
-746.185	-200.000	0.130	0.703
-745.171	-110.394	0.307	0.064
-744.156	607.305	0.043	-0.109
-743.142	-117.542	-0.225	-0.041
-742.127	800.000	0.069	0.267
-741.112	234.225	-0.121	0.201
-740.098	634.495	0.127	0.323
-739.083	800.000	0.129	0.370
-738.069	-200.000	0.024	0.155
-737.054	-200.000	0.002	0.162
-736.039	25.102	-0.143	0.119
-735.025	-59.005	0.220	0.096
-734.010	289.751	-0.189	-0.344
-732.996	-56.434	-0.151	-0.067
-731.981	-30.353	-0.176	0.100
-730.966	-116.597	0.206	0.038
-729.952	800.000	-0.113	-0.434
-728.937	800.000	-0.082	-0.292
-727.923	-200.000	-0.020	0.086
-726.908	-167.069	-0.087	-0.004
-725.894	72.228	0.103	-0.108
-724.879	112.931	-0.222	0.271
-723.864	-14.604	0.161	0.104
-722.850	-84.955	-0.081	0.026
-721.835	800.000	0.012	-0.047
-720.821	-12.505	-0.182	-0.119
-719.806	800.000	0.153	-0.468
-718.791	306.043	0.191	-0.357
-717.777	-31.531	-0.088	0.050
-716.762	-15.892	-0.077	-0.049
-715.748	163.427	-0.020	-0.029
-714.733	-200.000	-0.005	-0.259
-713.718	-74.403	-0.334	-0.121
-712.704	-112.932	-0.140	0.028
-711.689	179.012	-0.158	0.233
-710.675	248.493	0.106	-0.180
-709.660	-200.000	-0.026	-0.293
-708.645	-117.843	-0.429	-0.077
-707.631	-200.000	0.002	-0.161
-706.616	-45.940	-0.171	0.084
-705.602	67.669	-0.127	-0.130
-704.587	399.314	0.080	-0.169
-703.572	800.000	0.037	0.150
-702.558	-140.879	-0.215	0.022
-701.543	800.000	0.060	0.201
-700.529	92.907	-0.116	0.132
-699.514	-200.000	-0.004	-0.128
-698.499	-200.000	0.016	0.154
-697.485	-200.000	-0.053	0.359
-696.470	-6.241	-0.207	-0.142
-695.456	-83.384	-0.252	0.081
-694.441	207.481	-0.107	-0.167
-693.426	4.176	0.079	0.058
-692.412	-9.633	-0.142	0.095
-691.397	228.464	0.097	-0.159
-690.383	-31.224	-0.110	0.062
-689.368	-120.660	-0.231	0.039
-688.354	-79.469	-0.207	0.070
-687.339	-181.192	-0.054	-0.001
-686.324	-24.833	0.140	-0.084
-685.310	800.000	0.078	0.245
-684.295	-160.789	-0.617	-0.033
-683.281	-188.618	0.044	0.001
-682.266	83.208	-0.163	-0.178
-681.251	-161.372	-0.055	-0.003
-680.237	800.000	0.100	-0.290
-679.222	599.203	0.095	0.237
-678.208	-200.000	-0.005	0.119
-677.193	-26.861	-0.207	0.121
-676.178	27.417	-0.271	-0.228
-675.164	115.231	0.224	-0.274
-674.149	-92.033	-0.302	0.086
-673.135	-30.720	0.214	-0.122
-672.120	248.019	-0.106	-0.180
-671.105	-200.000	0.023	-0.277
-670.091	360.806	-0.030	0.060
-669.076	-200.000	0.005	0.386
-668.062	28.694	-0.272	0.231
-667.047	-112.102	0.252	-0.051
-666.032	-57.649	-0.359	0.158
-665.018	-200.000	0.023	-0.144
-664.003	-200.000	-0.051	0.599
-662.989	-123.230	0.212	-0.034
-661.974	636.528	0.081	-0.205
-660.959	-133.793	0.215	0.027
-659.945	-74.212	0.154	0.056
-658.930	61.131	0.143	-0.142
-657.916	-30.053	0.140	-0.080
-656.901	5.809	-0.059	0.044
-655.886	291.658	0.071	-0.129
-654.872	-52.265	-0.350	-0.162
-653.857	0.539	-0.325	-0.233
-652.843	-200.000	0.017	-0.202
-651.828	161.975	0.089	-0.124
-650.814	217.304	0.085	-0.136
-649.799	630.552	-0.080	-0.203
-648.784	-61.976	0.206	-0.086
-647.770	662.228	0.044	-0.114
-646.755	-60.130	-0.191	0.082
-645.741	382.135	-0.177	0.364
-644.726	-152.131	-0.211	-0.015
-643.711	-101.622	-0.097	0.024
-642.697	97.731	-0.243	0.280
-641.682	-200.000	0.013	0.534
-640.668	143.582	0.301	-0.402
-639.653	-101.477	0.050	0.012
-638.638	-63.064	0.227	-0.094
-637.624	-58.732	-0.228	-0.099
-636.609	-200.000	0.016	0.215
-635.595	1.984	-0.318	0.230
-634.580	133.933	-0.125	0.162
-633.565	-125.232	0.239	-0.037
-632.551	192.031	-0.096	-0.145
-631.536	-8.881	-0.397	0.266
-630.522	-188.035	0.153	-0.002
-629.507	298.358	-0.114	-0.209
-628.492	311.646	0.070	0.131
-627.478	800.000	0.018	0.069
-626.463	-200.000	0.035	-0.201
-625.449	-114.500	0.211	0.041
-624.434	280.106	-0.143	-0.256
-623.419	3.602	-0.224	-0.163
-622.405	-200.000	0.005	0.195
-621.390	-200.000	-0.054	0.279
-620.376	-85.232	-0.256	-0.080
-619.361	12.779	0.188	-0.146
-618.346	351.934	0.114	-0.226
-617.332	-102.691	0.270	-0.064
-616.317	-200.000	0.025	-0.246
-615.303	-57.741	0.380	-0.166
-614.288	139.900	0.034	-0.044
-613.273	-46.096	0.189	-0.093
-612.259	232.749	-0.134	-0.220
-611.244	9.672	0.108	0.082
-610.230	-136.353	0.580	0.068
-609.215	74.342	0.306	0.322
-608.201	-108.876	-0.237	-0.051
-607.186	102.175	0.208	0.243
-606.171	-200.000	0.027	-0.159
-605.157	-127.408	-0.121	0.018
-604.142	66.625	-0.372	0.378
-603.128	-118.297	0.258	0.046
-602.113	12.071	0.060	0.046
-601.098	-198.354	-0.130	0.001
-600.084	-114.752	0.507	0.097
-599.069	1.768	-0.177	0.127
-598.055	607.493	-0.077	-0.191
-597.040	356.730	0.133	0.264
-596.025	230.595	0.040	0.066
-595.011	38.803	-0.157	0.140
-593.996	569.531	0.083	0.201
-592.982	-3.995	-0.227	-0.158
-591.967	213.209	0.070	-0.110
-590.952	-106.363	0.326	-0.073
-589.938	800.000	-0.072	-0.224
-588.923	-114.488	-0.458	0.088
-587.909	154.328	-0.232	0.318
-586.894	-43.416	-0.105	0.053
-585.879	-10.422	-0.283	-0.188
-584.865	536.076	0.097	-0.229
-583.850	442.133	0.240	-0.525
-582.836	-156.924	0.160	0.010
-581.821	-85.553	0.138	0.043
-580.806	-32.075	0.445	-0.249
-579.792	457.084	-0.112	-0.247
-578.777	362.720	0.043	-0.086
-577.763	680.522	-0.129	-0.334
-576.748	646.221	-0.085	0.217
-575.733	289.175	-0.022	0.039
-574.719	-111.816	-0.168	0.034
-573.704	-2.871	0.092	0.064
-572.690	-68.793	0.280	-0.108
-571.675	584.921	-0.051	0.125
-570.661	-56.663	0.064	-0.028
-569.646	-12.223	-0.026	0.017
-568.631	165.206	0.079	0.112
-567.617	-24.827	0.041	0.024
-566.602	75.180	-0.342	0.360
-565.588	14.133	0.221	0.172
-564.573	-60.206	-0.169	0.072
-563.558	33.048	-0.201	0.174
-562.544	-200.000	0.011	-0.480
-561.529	-148.302	0.067	-0.006
-560.515	-200.000	-0.002	0.167
-559.500	511.625	-0.126	0.293
-558.485	-112.115	0.137	-0.028
-557.471	800.000	0.040	-0.111
-556.456	261.037	-0.127	0.220
-555.442	70.016	-0.058	-0.060
-554.427	-96.842	0.202	0.053
-553.412	800.000	-0.111	-0.428
-552.398	-99.352	0.074	-0.019
-551.383	7.992	-0.077	-0.058
-550.369	-155.217	0.207	0.013
-549.354	-200.000	0.054	0.430
-548.339	462.239	-0.089	0.198
-547.325	-121.504	-0.177	-0.029
-546.310	38.485	0.169	0.151
-545.296	-12.569	-0.154	0.100
-544.281	317.779	0.113	-0.214
-543.266	472.468	-0.070	-0.158
-542.252	-90.240	0.402	-0.117
-541.237	-200.000	-0.051	-0.357
-540.223	70.393	-0.280	0.288
-539.208	-38.717	-0.312	-0.164
-538.193	-200.000	-0.009	-0.191
-537.179	-49.394	-0.258	-0.123
-536.164	800.000	0.042	-0.124
-535.150	-66.644	0.298	-0.118
-534.135	-200.000	0.009	-0.218
-533.121	-87.153	-0.106	-0.032
-532.106	-101.482	-0.087	-0.021
-531.091	-175.080	0.421	0.012
-530.077	52.438	-0.260	-0.247
-529.062	156.386	0.215	-0.295
-528.048	-25.406	0.402	-0.237
-527.033	-97.450	0.175	0.045
-526.018	-143.987	0.120	-0.011
-525.004	-68.524	0.166	0.064
-523.989	169.521	0.052	0.074
-522.975	27.775	-0.166	-0.140
-521.960	800.000	0.204	-0.658
-520.945	127.255	-0.210	-0.266
-519.931	-200.000	0.042	0.234
-518.916	-200.000	0.005	0.111
-517.902	73.767	0.108	0.113
-516.887	-200.000	0.000	-0.083
-515.872	-98.057	0.116	0.030
-514.858	-43.857	0.246	-0.123
-513.843	-80.635	-0.031	0.010
-512.829	46.638	-0.274	-0.254
-511.814	27.659	0.216	-0.181
-510.799	-110.471	-0.376	-0.078
-509.785	-200.000	-0.019	-0.398
-508.770	-200.000	-0.022	0.154
-507.756	800.000	-0.105	-0.401
-506.741	-200.000	-0.041	-0.323
-505.726	-119.608	0.253	0.044
-504.712	-67.602	-0.088	0.034
-503.697	800.000	-0.038	-0.148
-502.683	166.714	-0.186	-0.263
-501.668	526.445	0.195	-0.457
-500.653	251.648	-0.088	-0.149
-499.639	-2.108	-0.079	-0.056
-498.624	800.000	-0.085	0.304
-497.610	704.936	0.061	-0.161
-496.595	-200.000	-0.011	0.213
-495.581	554.311	-0.123	-0.295
-494.566	-200.000	-0.029	-0.210
-493.551	-200.000	-0.090	0.423
-492.537	16.941	-0.173	0.136
-491.522	-147.388	0.146	-0.012
-490.508	301.868	0.062	0.114
-489.493	7.621	0.175	0.130
-488.478	41.041	-0.142	-0.128
-487.464	19.400	0.080	-0.064
-486.449	-121.189	-0.193	0.032
-485.435	-200.000	0.030	0.166
-484.420	26.418	0.149	-0.124
-483.405	249.351	0.078	-0.131
-482.391	-146.046	0.075	0.007
-481.376	-48.551	0.078	0.037
-480.362	-200.000	-0.079	0.365
-479.347	-137.595	0.234	-0.026
-478.332	-60.287	0.295	-0.125
-477.318	748.211	0.144	0.385
-476.303	-72.765	-0.075	-0.028
-475.289	800.000	-0.158	0.436
-474.274	-199.380	-0.350	-0.002
-473.259	-64.563	0.054	0.022
-472.245	-200.000	-0.004	0.161
-471.230	-29.476	0.382	0.217
-470.216	71.235	0.217	-0.224
-469.201	-137.463	-0.311	0.035
-468.186	5.751	0.060	-0.044
-467.172	368.554	0.036	0.072
-466.157	-97.265	-0.179	0.046
-465.143	-150.322	0.315	0.024
-464.128	214.850	0.117	0.184
-463.113	117.448	0.066	0.081
-462.099	344.284	0.065	0.127
-461.084	-192.891	0.149	0.001
-460.070	-200.000	-0.063	-0.539
-459.055	-200.000	-0.009	-0.147
-458.040	-105.912	-0.266	0.060
-457.026	-114.823	-0.258	-0.049
-456.011	508.355	0.104	0.239
-454.997	9.608	0.198	0.149
-453.982	621.905	0.157	0.392
-452.968	-200.000	-0.008	-0.110
-451.953	189.372	-0.038	0.057
-450.938	-200.000	0.027	-0.259
-449.924	800.000	0.064	-0.217
-448.909	-82.476	-0.497	-0.160
-447.895	-64.858	0.221	0.089
-446.880	-163.674	-0.288	-0.013
-445.865	301.338	0.057	-0.105
-444.851	-59.732	-0.160	0.068
-443.836	-84.960	-0.088	0.027
-442.822	84.545	-0.282	0.307
-441.807	-200.000	0.013	-0.253
-440.792	-200.000	-0.083	-0.523
-439.778	-24.630	-0.406	-0.240
-438.763	-3.393	0.167	0.115
-437.749	-200.000	-0.049	0.236
-436.734	-61.266	0.086	-0.036
-435.719	-67.947	0.180	-0.070
-434.705	-106.039	-0.331	0.074
-433.690	-200.000	-0.010	0.307
-432.676	-90.729	0.476	0.136
-431.661	239.874	-0.047	-0.078
-430.646	-157.765	-0.100	-0.006
-429.632	-120.763	0.405	-0.068
-428.617	-200.000	-0.010	0.291
-427.603	453.907	-0.080	0.175
-426.588	9.520	-0.115	0.086
-425.573	-24.480	0.247	-0.146
-424.559	-101.066	-0.118	-0.029
-423.544	-200.000	-0.026	0.226
-422.530	-39.138	0.246	0.129
-421.515	800.000	0.096	0.313
-420.500	-63.271	-0.115	-0.047
-419.486	-86.494	0.357	0.109
-418.471	4.271	0.186	-0.135
-417.457	800.000	0.025	0.082
-416.442	-90.895	-0.335	-0.096
-415.428	800.000	0.046	0.127
-414.413	-68.720	-0.200	0.077
-413.398	800.000	0.046	0.196
-412.384	-140.651	-0.174	-0.018
-411.369	704.640	-0.132	0.347
-410.355	-200.000	0.012	0.462
-409.340	-21.246	0.343	-0.208
-408.325	-200.000	-0.028	0.454
-407.311	-101.213	-0.274	-0.066
-406.296	19.788	-0.107	-0.086
-405.282	-118.540	0.472	-0.083
-404.267	-3.060	-0.226	0.157
-403.252	70.838	0.073	0.075
-402.238	40.896	-0.281	-0.252
-401.223	329.749	0.197	-0.376
-400.209	312.363	-0.152	0.283
-399.194	309.957	-0.077	0.144
-398.179	-80.082	-0.123	0.041
-397.165	172.300	-0.051	0.072
-396.150	-200.000	-0.003	0.042
-395.136	-200.000	-0.017	-0.163
-394.121	-58.794	0.388	-0.166
-393.106	-7.647	-0.303	-0.203
-392.092	-200.000	0.016	0.182
-391.077	169.799	0.123	0.174
-390.063	-200.000	-0.010	0.156
-389.048	130.367	0.073	0.092
-388.033	266.121	0.163	-0.281
-387.019	-200.000	0.018	0.230
-386.004	-200.000	0.021	0.247
-384.990	-200.000	0.000	0.006
-383.975	-95.963	0.297	0.078
-382.960	-72.545	-0.155	0.057
-381.946	38.876	-0.190	0.168
-380.931	-160.032	0.410	-0.022
-379.917	-157.713	0.206	0.012
-378.902	22.877	0.010	-0.008
-377.888	-200.000	0.014	0.181
-376.873	-174.189	-0.171	-0.005
-375.858	800.000	-0.039	0.122
-374.844	63.490	0.051	-0.050
-373.829	-200.000	0.079	0.375
-372.815	-70.677	-0.009	-0.003
-371.800	-103.525	-0.428	-0.100
-370.785	151.048	0.115	-0.155
-369.771	-200.000	-0.020	-0.476
-368.756	-41.505	-0.083	0.042
-367.742	40.853	-0.236	-0.211
-366.727	24.734	0.116	-0.095
-365.712	46.671	0.086	0.079
-364.698	445.972	-0.121	-0.263
-363.683	0.429	0.031	-0.022
-362.669	338.203	0.065	0.125
-361.654	-52.112	-0.213	-0.098
-360.639	-168.520	-0.460	-0.017
-359.625	104.572	0.138	-0.161
-358.610	110.909	-0.087	-0.104
-357.596	29.118	-0.217	-0.182
-356.581	189.066	0.228	-0.337
-355.566	-200.000	-0.081	0.000
-354.552	71.865	0.070	-0.072
-353.537	501.947	0.146	-0.334
-352.523	-34.818	0.127	0.069
-351.508	201.485	-0.140	0.213
-350.493	-141.670	0.020	0.002
-349.479	-88.630	-0.127	-0.037
-348.464	-200.000	0.008	0.176
-347.450	507.400	-0.057	-0.131
-346.435	-46.248	0.122	-0.059
-345.420	145.886	-0.135	0.179
-344.406	-200.000	-0.022	-0.393
-343.391	-200.000	-0.012	-0.154
-342.377	191.347	-0.095	-0.141
-341.362	800.000	0.081	-0.246
-340.348	241.450	0.088	-0.146
-339.333	248.217	-0.206	-0.345
-338.318	800.000	0.136	-0.414
-337.304	-61.223	-0.106	0.044
-336.289	124.658	0.131	-0.163
-335.275	-200.000	0.015	-0.140
-334.260	-31.086	-0.073	-0.041
-333.245	-150.458	0.082	0.006
-332.231	409.751	0.081	0.169
-331.216	141.637	0.140	-0.184
-330.202	-82.344	-0.104	-0.034
-329.187	521.407	-0.169	-0.392
-328.172	-200.000	-0.049	0.405
-327.158	15.235	-0.164	0.127
-326.143	800.000	-0.039	0.136
-325.129	-134.961	-0.176	-0.021
-324.114	-200.000	0.002	0.066
-323.099	3.380	-0.235	-0.169
-322.085	-33.530	0.047	-0.026
-321.070	155.382	-0.248	-0.338
-320.056	-25.231	-0.419	-0.245
-319.041	160.189	0.164	-0.226
-318.026	-149.904	0.158	-0.012
-317.012	50.877	0.158	-0.148
-315.997	6.127	0.168	0.123
-314.983	36.076	0.189	-0.165
-313.968	-120.711	-0.085	-0.014
-312.953	800.000	0.076	-0.320
-311.939	88.030	-0.200	-0.219
-310.924	-168.032	-0.235	0.009
-309.910	-143.591	-0.065	-0.006
-308.895	22.259	-0.169	-0.137
-307.880	-72.926	0.319	-0.116
-306.866	-200.000	0.018	-0.167
-305.851	-26.471	-0.123	-0.071
-304.837	800.000	-0.036	-0.133
-303.822	-145.388	-0.318	-0.028
-302.807	-200.000	-0.002	0.379
-301.793	98.725	-0.117	-0.134
-300.778	-38.511	-0.089	0.047
-299.764	-126.555	0.213	-0.031
-298.749	-101.326	0.152	-0.037
-297.735	-116.960	0.105	-0.019
-296.720	-200.000	0.033	-0.185
-295.705	421.035	0.178	-0.376
-294.691	-137.142	-0.205	0.023
-293.676	-115.570	0.142	-0.026
-292.662	800.000	0.047	-0.128
-291.647	429.754	0.089	0.191
-290.632	236.766	0.068	0.111
-289.618	-124.713	0.087	-0.013
-288.603	270.282	0.005	0.009
-287.589	-176.130	0.133	-0.003
-286.574	-116.213	-0.019	0.004
-285.559	-94.050	0.106	-0.029
-284.545	-200.000	-0.020	0.129
-283.530	-200.000	-0.009	-0.058
-282.516	194.652	0.066	-0.098
-281.501	213.856	-0.172	0.269
-280.486	-139.282	0.276	0.029
-279.472	-169.523	-0.100	-0.004
-278.457	167.480	0.189	0.265
-277.443	800.000	0.019	-0.062
-276.428	-200.000	0.007	-0.037
-275.413	-200.000	-0.063	-0.353
-274.399	14.315	0.182	-0.140
-273.384	-154.226	-0.186	0.012
-272.370	-13.264	0.200	0.128
-271.355	47.012	-0.140	0.129
-270.340	-131.168	0.131	-0.017
-269.326	178.922	-0.115	0.166
-268.311	125.413	-0.185	-0.230
-267.297	-36.978	0.264	-0.139
-266.282	70.364	-0.066	-0.067
-265.267	38.324	-0.105	0.092
-264.253	-103.581	0.177	0.041
-263.238	-65.302	-0.268	-0.106
-262.224	-103.742	-0.271	0.063
-261.209	-200.000	0.000	-0.005
-260.195	-3.384	0.139	-0.095
-259.180	80.059	-0.162	0.172
-258.165	-200.000	-0.053	0.351
-257.151	323.357	0.089	0.168
-256.136	-27.673	-0.061	-0.035
-255.122	-4.761	-0.087	0.059
-254.107	658.748	-0.092	0.234
-253.092	-44.919	0.219	0.108
-252.078	228.446	-0.061	0.098
-251.063	180.651	-0.081	-0.117
-250.049	-34.956	-0.109	0.059
-249.034	180.745	0.179	-0.259
-248.019	-130.493	-0.229	-0.031
-247.005	-200.000	0.038	0.168
-245.990	251.613	0.158	0.266
-244.976	-200.000	0.024	0.318
-243.961	81.845	-0.140	-0.150
-242.946	653.585	0.091	0.231
-241.932	332.375	-0.164	0.312
-240.917	-100.481	-0.316	0.077
-239.903	499.990	0.069	0.158
-238.888	-0.156	0.198	0.139
-237.873	-200.000	-0.057	-0.337
-236.859	-200.000	0.075	-0.395
-235.844	800.000	0.001	-0.005
-234.830	-153.506	0.155	-0.011
-233.815	-200.000	0.014	0.078
-232.800	605.013	-0.045	-0.112
-231.786	-59.858	-0.167	-0.071
-230.771	101.710	-0.240	-0.275
-229.757	-200.000	-0.015	0.234
-228.742	-200.000	0.052	0.398
-227.727	-78.139	-0.044	0.015
-226.713	29.947	0.156	0.131
-225.698	-200.000	0.010	0.101
-224.684	-200.000	0.040	0.216
-223.669	-63.359	-0.057	-0.023
-222.655	157.467	0.261	0.356
-221.640	58.135	-0.246	-0.237
-220.625	-36.157	-0.084	-0.045
-219.611	60.903	0.235	-0.230
-218.596	38.708	0.058	0.051
-217.582	-200.000	-0.007	0.153
-216.567	218.948	-0.216	0.340
-215.552	-19.434	0.131	0.080
-214.538	-200.000	-0.038	0.345
-213.523	341.496	0.161	0.310
-212.509	145.821	-0.107	0.141
-211.494	414.209	0.144	0.301
-210.479	-200.000	0.355	0.001
-209.465	313.375	-0.035	-0.065
-208.450	-154.948	-0.130	0.008
-207.436	463.830	-0.061	-0.135
-206.421	18.603	-0.185	0.146
-205.406	206.084	-0.174	-0.266
-204.392	-76.545	-0.252	0.087
-203.377	177.690	-0.132	-0.189
-202.363	32.285	-0.118	-0.101
-201.348	57.814	-0.081	-0.078
-200.333	602.663	-0.163	0.400
-199.319	-66.446	0.255	-0.100
-198.304	104.769	-0.200	-0.232
-197.290	183.046	-0.098	0.143
-196.275	119.065	-0.140	0.170
-195.260	-2.772	-0.139	0.096
-194.246	-69.340	0.322	-0.121
-193.231	-7.150	0.128	0.086
-192.217	24.628	-0.191	0.155
-191.202	-41.376	-0.030	-0.015
-190.187	-200.000	-0.010	0.094
-189.173	150.629	0.222	0.296
-188.158	-75.765	0.069	-0.024
-187.144	174.083	-0.225	-0.320
-186.129	93.519	0.120	-0.134
-185.114	-97.695	0.157	-0.040
-184.100	-200.000	0.014	0.314
-183.085	-200.000	-0.009	-0.170
-182.071	394.627	-0.122	0.249
-181.056	90.962	0.036	-0.040
-180.042	-59.165	0.068	0.029
-179.027	-200.000	0.032	-0.158
-178.012	-30.435	-0.125	-0.070
-176.998	148.490	-0.166	0.221
-175.983	-32.239	-0.105	0.058
-174.969	-62.278	0.170	-0.070
-173.954	-31.675	-0.356	0.197
-172.939	172.985	-0.177	0.251
-171.925	-200.000	0.095	0.526
-170.910	-200.000	-0.071	0.453
-169.896	-70.472	0.190	-0.071
-168.881	-16.831	0.188	0.117
-167.866	-95.908	-0.028	0.007
-166.852	53.109	0.318	-0.299
-165.837	79.273	0.267	-0.281
-164.823	800.000	-0.030	0.129
-163.808	-8.217	0.190	0.126
-162.793	312.272	-0.148	0.273
-161.779	-144.261	0.252	0.023
-160.764	-200.000	-0.007	0.135
-159.750	48.671	-0.096	0.088
-158.735	45.626	-0.236	0.214
-157.720	-125.685	0.183	-0.027
-156.706	-112.019	0.224	-0.044
-155.691	800.000	0.055	0.207
-154.677	-200.000	-0.051	-0.284
-153.662	-43.001	0.212	0.105
-152.647	61.228	0.078	-0.076
-151.633	-156.616	-0.194	0.012
-150.618	-64.693	0.296	0.118
-149.604	-117.110	0.414	-0.074
-148.589	72.203	-0.064	0.066
-147.574	-68.987	0.353	0.134
-146.560	-171.313	0.270	0.009
-145.545	6.668	-0.089	0.065
-144.531	32.562	0.143	0.121
-143.516	-50.675	0.114	-0.053
-142.502	-117.715	0.044	-0.008
-141.487	-65.078	-0.054	0.021
-140.472	-96.644	-0.119	-0.031
-139.458	564.520	-0.224	0.534
-138.443	170.862	0.203	0.286
-137.429	-200.000	0.038	-0.239
-136.414	-18.781	0.112	0.068
-135.399	-105.126	0.166	0.037
-134.385	117.868	-0.189	-0.229
-133.370	800.000	-0.091	-0.348
-132.356	-37.932	-0.343	-0.179
-131.341	-94.205	-0.028	0.008
-130.326	69.496	-0.097	0.098
-129.312	165.384	-0.136	0.189
-128.297	-20.024	-0.069	0.042
-127.283	-47.696	0.237	0.113
-126.268	-200.000	-0.005	0.136
-125.253	757.977	0.192	-0.510
-124.239	56.957	-0.109	-0.104
-123.224	-148.488	0.454	0.036
-122.210	34.376	-0.037	-0.032
