DTS Sentinel unit serial number:	SN413079Multiplexer serial number:	ORYXHardware model number:	OX4-SRSoftware version number:	ORYX F/W v4.00 Oryx Data Collector v3.7.2.0data status	okinstallation	princeton_trtdifferential loss correction	single-endedforward channel	channel 4reverse channel	N/Adate	2019/09/14time	06:29:34forward acquisition time	60.00reverse acquisition time	0.00gamma	496.2192k internal	0.2323k external	0.2323temperature offset calibration	1.0139default loss term (dB/km)	0.3790temperature slope calibration	1.0000multiplexer offset coefficient	1.0000multiplexer slope coefficient	1.0000fibre end	0.00T internal ref (°C)	26.50T ext. ref 1 (°C)	3.42T ext. ref 2 (°C)	20.42length (m)	temperature (°C)	Stokes	anti-Stokes-747.200	23.526	0.289	-0.240
-746.185	800.000	0.034	-0.106
-745.171	49.394	0.086	0.082
-744.156	1.985	-0.174	0.127
-743.142	59.883	-0.245	0.244
-742.127	-154.018	0.160	0.011
-741.112	115.431	0.179	-0.220
-740.098	290.798	0.146	0.268
-739.083	-119.907	0.081	-0.014
-738.069	-81.320	-0.107	0.036
-737.054	-200.000	0.002	0.518
-736.039	-200.000	0.011	-0.141
-735.025	302.247	-0.104	0.195
-734.010	-200.000	-0.343	-0.000
-732.996	-14.069	0.162	0.106
-731.981	376.514	0.071	0.145
-730.966	64.602	-0.079	0.080
-729.952	-51.474	0.063	-0.029
-728.937	84.286	-0.145	0.160
-727.923	-200.000	-0.012	-0.215
-726.908	-200.000	-0.010	-0.093
-725.894	-31.660	-0.156	-0.089
-724.879	-54.575	-0.289	-0.132
-723.864	244.293	-0.111	-0.188
-722.850	-164.453	-0.158	0.007
-721.835	-71.117	-0.167	-0.063
-720.821	800.000	0.020	-0.061
-719.806	58.450	-0.139	-0.138
-718.791	368.133	-0.075	0.152
-717.777	800.000	-0.108	-0.379
-716.762	-200.000	0.008	-0.079
-715.748	800.000	0.093	0.385
-714.733	147.624	0.057	0.077
-713.718	94.019	0.199	-0.227
-712.704	-6.920	0.032	0.022
-711.689	800.000	-0.065	0.185
-710.675	-62.267	0.205	0.086
-709.660	-151.478	0.223	-0.017
-708.645	282.900	-0.179	-0.325
-707.631	-57.116	0.044	0.020
-706.616	-200.000	-0.007	0.072
-705.602	-161.476	-0.080	0.004
-704.587	591.203	0.130	-0.324
-703.572	-22.150	-0.143	-0.088
-702.558	-84.620	0.272	-0.087
-701.543	800.000	0.056	-0.195
-700.529	4.803	0.146	-0.108
-699.514	-200.000	0.019	-0.114
-698.499	2.632	-0.188	-0.137
-697.485	-48.066	0.273	0.133
-696.470	-32.792	-0.190	0.106
-695.456	51.523	-0.074	0.071
-694.441	-17.564	0.195	-0.123
-693.426	-200.000	-0.018	0.099
-692.412	-24.639	-0.099	0.059
-691.397	105.390	-0.065	0.078
-690.383	108.859	0.125	0.151
-689.368	800.000	0.020	0.061
-688.354	-4.844	0.313	-0.217
-687.339	711.059	0.030	0.081
-686.324	800.000	-0.140	0.471
-685.310	-96.804	0.182	-0.048
-684.295	201.403	0.036	-0.056
-683.281	179.753	-0.213	-0.314
-682.266	6.402	-0.197	-0.147
-681.251	-135.330	0.131	0.016
-680.237	213.930	-0.019	-0.031
-679.222	-139.771	0.327	-0.035
-678.208	-80.053	-0.183	0.062
-677.193	-124.723	-0.196	-0.031
-676.178	800.000	-0.068	0.265
-675.164	-101.848	0.429	0.105
-674.149	-34.270	0.308	0.170
-673.135	438.138	-0.047	0.104
-672.120	-200.000	-0.073	-0.336
-671.105	131.770	-0.285	-0.369
-670.091	800.000	0.037	0.156
-669.076	-200.000	0.017	0.124
-668.062	-119.095	-0.051	0.009
-667.047	-75.493	0.108	-0.039
-666.032	800.000	-0.122	-0.353
-665.018	-35.942	0.060	-0.033
-664.003	506.713	0.036	-0.085
-662.989	38.462	-0.301	-0.270
-661.974	-54.233	-0.205	-0.094
-660.959	-101.716	-0.254	-0.062
-659.945	-74.552	0.449	-0.163
-658.930	800.000	0.058	-0.181
-657.916	619.341	-0.058	-0.146
-656.901	-63.440	-0.356	-0.147
-655.886	-40.691	-0.305	-0.159
-654.872	-50.314	0.384	-0.182
-653.857	221.317	-0.119	-0.193
-652.843	-14.102	-0.177	0.115
-651.828	-138.052	-0.237	-0.027
-650.814	-4.825	-0.049	-0.034
-649.799	-132.260	-0.141	-0.018
-648.784	800.000	-0.073	0.242
-647.770	344.982	0.091	0.181
-646.755	247.610	-0.155	-0.263
-645.741	293.111	0.147	-0.270
-644.726	-110.413	0.038	-0.008
-643.711	-131.339	0.256	-0.034
-642.697	800.000	-0.016	0.050
-641.682	8.675	0.143	-0.108
-640.668	-120.270	0.317	0.054
-639.653	-200.000	-0.006	0.205
-638.638	-200.000	0.031	-0.195
-637.624	85.683	-0.007	-0.008
-636.609	800.000	-0.027	-0.075
-635.595	-61.864	-0.288	-0.121
-634.580	800.000	0.065	-0.256
-633.565	654.023	-0.011	0.027
-632.551	-99.227	-0.229	-0.058
-631.536	-44.128	-0.172	-0.087
-630.522	-200.000	-0.015	0.307
-629.507	-200.000	0.046	0.339
-628.492	63.698	0.079	-0.080
-627.478	800.000	-0.038	-0.167
-626.463	800.000	0.081	-0.287
-625.449	117.330	-0.202	-0.249
-624.434	-136.969	-0.268	0.031
-623.419	-147.411	0.258	0.022
-622.405	800.000	-0.045	0.185
-621.390	800.000	0.046	-0.178
-620.376	-77.854	0.307	0.106
-619.361	-161.407	-0.315	0.016
-618.346	338.442	-0.155	-0.303
-617.332	-134.833	0.336	-0.041
-616.317	-68.334	0.140	-0.055
-615.303	-8.375	-0.098	0.066
-614.288	124.585	0.181	0.229
-613.273	-8.578	-0.098	0.066
-612.259	-28.641	-0.275	-0.159
-611.244	475.907	-0.101	-0.229
-610.230	5.207	-0.332	-0.246
-609.215	-62.633	0.306	0.128
-608.201	-200.000	-0.015	-0.195
-607.186	86.013	-0.104	-0.115
-606.171	-200.000	-0.005	-0.163
-605.157	-200.000	-0.065	-0.295
-604.142	501.228	0.112	-0.259
-603.128	-134.321	-0.298	-0.037
-602.113	-134.198	0.183	0.023
-601.098	-98.222	0.570	-0.147
-600.084	-164.413	-0.258	-0.012
-599.069	54.485	0.105	0.102
-598.055	800.000	0.039	-0.125
-597.040	-82.847	-0.254	-0.082
-596.025	-200.000	-0.008	-0.466
-595.011	-75.644	-0.203	-0.072
-593.996	-112.380	0.349	0.070
-592.982	-109.099	0.037	-0.008
-591.967	-128.328	-0.095	-0.014
-590.952	-50.383	0.096	-0.046
-589.938	25.094	-0.067	0.056
-588.923	-1.632	-0.302	0.214
-587.909	-200.000	0.033	0.170
-586.894	-66.331	-0.533	0.213
-585.879	0.290	-0.228	0.163
-584.865	800.000	-0.062	0.185
-583.850	-74.015	-0.343	0.125
-582.836	-20.635	0.174	0.107
-581.821	-62.136	0.159	-0.066
-580.806	800.000	0.123	0.382
-579.792	38.256	0.206	-0.184
-578.777	800.000	-0.016	-0.053
-577.763	-200.000	-0.028	-0.316
-576.748	16.974	-0.120	-0.095
-575.733	-200.000	0.007	0.096
-574.719	800.000	-0.121	-0.476
-573.704	800.000	0.137	-0.392
-572.690	523.480	0.073	-0.172
-571.675	-154.869	0.137	0.009
-570.661	-200.000	0.027	-0.199
-569.646	-35.948	0.212	0.115
-568.631	-81.687	-0.518	0.171
-567.617	-200.000	-0.014	-0.074
-566.602	307.945	-0.027	-0.051
-565.588	-161.296	-0.148	-0.008
-564.573	-83.546	0.401	0.129
-563.558	17.986	0.166	0.132
-562.544	-188.538	0.157	0.002
-561.529	-200.000	0.002	0.288
-560.515	-200.000	-0.004	-0.176
-559.500	-153.594	-0.187	0.013
-558.485	12.637	0.200	-0.154
-557.471	-200.000	-0.004	-0.074
-556.456	-200.000	0.075	0.360
-555.442	313.313	0.113	0.214
-554.427	-165.823	-0.231	0.010
-553.412	56.953	0.191	-0.187
-552.398	-18.591	-0.039	0.025
-551.383	-200.000	0.007	-0.292
-550.369	-91.946	0.212	0.060
-549.354	14.911	0.268	0.210
-548.339	-157.296	-0.212	-0.013
-547.325	-77.003	0.203	0.071
-546.310	421.429	-0.045	0.097
-545.296	-3.385	0.316	0.220
-544.281	205.516	0.026	-0.040
-543.266	4.228	0.138	0.101
-542.252	309.665	0.217	0.408
-541.237	-1.767	0.149	0.105
-540.223	800.000	-0.053	0.206
-539.208	-49.029	0.349	-0.167
-538.193	30.159	-0.388	-0.332
-537.179	-200.000	-0.013	0.075
-536.164	-101.036	-0.271	0.067
-535.150	-38.039	0.205	-0.109
-534.135	27.176	-0.309	0.260
-533.121	-200.000	-0.007	0.037
-532.106	-200.000	-0.006	0.073
-531.091	-102.453	-0.152	-0.036
-530.077	-4.046	-0.173	-0.120
-529.062	800.000	-0.069	-0.226
-528.048	-172.923	0.101	0.003
-527.033	133.211	-0.240	0.311
-526.018	-168.843	-0.275	-0.010
-525.004	3.938	0.108	-0.079
-523.989	-49.546	-0.164	-0.078
-522.975	-200.000	0.053	-0.454
-521.960	-171.737	0.244	0.008
-520.945	-200.000	0.042	0.210
-519.931	514.762	-0.077	0.181
-518.916	296.225	-0.026	-0.047
-517.902	-127.640	0.141	-0.020
-516.887	-200.000	0.018	-0.364
-515.872	-74.758	-0.314	0.113
-514.858	-154.268	0.213	0.014
-513.843	466.054	-0.115	-0.258
-512.829	539.724	-0.233	0.555
-511.814	-200.000	-0.059	0.293
-510.799	140.466	-0.148	0.195
-509.785	-79.077	-0.183	-0.062
-508.770	-200.000	-0.002	0.070
-507.756	-79.500	0.388	0.131
-506.741	147.681	0.155	0.209
-505.726	800.000	-0.142	0.436
-504.712	-200.000	-0.006	-0.043
-503.697	-12.533	-0.105	0.069
-502.683	800.000	-0.052	0.187
-501.668	1.117	-0.222	0.159
-500.653	-5.702	-0.291	-0.200
-499.639	92.162	0.280	-0.316
-498.624	-200.000	-0.013	-0.142
-497.610	-77.115	0.236	0.082
-496.595	44.041	0.208	0.190
-495.581	-54.527	0.317	-0.143
-494.566	160.132	0.103	-0.144
-493.551	-200.000	-0.003	-0.142
-492.537	279.305	0.122	0.218
-491.522	-200.000	-0.021	0.212
-490.508	56.130	0.185	0.180
-489.493	800.000	-0.025	0.096
-488.478	-200.000	-0.006	0.125
-487.464	-3.133	0.118	-0.082
-486.449	-200.000	0.003	0.031
-485.435	-153.359	0.159	-0.011
-484.420	-200.000	0.049	-0.244
-483.405	-200.000	0.003	0.154
-482.391	-200.000	0.021	-0.300
-481.376	-51.769	0.236	-0.110
-480.362	800.000	-0.079	-0.311
-479.347	6.227	-0.146	-0.108
-478.332	119.368	-0.148	0.182
-477.318	-81.782	0.099	0.032
-476.303	26.843	-0.079	0.067
-475.289	237.509	0.069	0.115
-474.274	-200.000	-0.029	0.273
-473.259	182.393	0.256	-0.377
-472.245	-200.000	0.013	0.122
-471.230	800.000	-0.048	0.211
-470.216	-200.000	-0.031	-0.339
-469.201	85.025	-0.187	-0.204
-468.186	13.404	-0.188	0.146
-467.172	800.000	-0.042	0.167
-466.157	-29.218	0.151	-0.087
-465.143	-97.283	-0.263	-0.069
-464.128	800.000	-0.062	-0.266
-463.113	197.287	0.094	0.144
-462.099	-200.000	0.055	0.283
-461.084	52.475	0.109	-0.104
-460.070	-127.018	-0.360	0.053
-459.055	-152.286	-0.242	-0.017
-458.040	-39.058	-0.051	-0.027
-457.026	74.749	0.069	-0.072
-456.011	9.487	-0.171	0.129
-454.997	-19.308	0.039	-0.024
-453.982	-200.000	-0.026	-0.153
-452.968	-200.000	0.024	0.156
-451.953	800.000	-0.092	-0.315
-450.938	276.860	0.084	-0.149
-449.924	428.813	0.010	0.022
-448.909	-95.771	0.108	0.029
-447.895	70.505	-0.262	0.270
-446.880	35.361	-0.147	0.129
-445.865	-200.000	-0.043	-0.350
-444.851	524.489	0.076	0.178
-443.836	-17.371	-0.297	-0.187
-442.822	-106.311	-0.113	0.025
-441.807	345.599	-0.082	0.160
-440.792	-104.834	0.133	0.031
-439.778	41.617	0.094	-0.085
-438.763	103.587	0.171	-0.200
-437.749	183.531	-0.370	0.546
-436.734	-200.000	0.036	-0.167
-435.719	800.000	0.049	0.146
-434.705	800.000	0.059	0.223
-433.690	800.000	-0.062	0.188
-432.676	-200.000	-0.022	0.103
-431.661	254.955	0.031	0.053
-430.646	239.872	-0.033	-0.055
-429.632	-159.064	-0.202	-0.011
-428.617	121.955	0.053	0.066
-427.603	-125.134	-0.087	-0.013
-426.588	204.900	-0.126	-0.195
-425.573	-200.000	-0.007	0.156
-424.559	-200.000	-0.002	0.151
-423.544	119.717	-0.011	-0.014
-422.530	-110.466	-0.104	-0.022
-421.515	489.620	-0.086	-0.197
-420.500	-200.000	-0.017	0.199
-419.486	95.743	-0.169	-0.192
-418.471	188.529	0.166	0.247
-417.457	130.166	0.101	0.129
-416.442	-3.420	-0.184	-0.128
-415.428	800.000	-0.079	0.250
-414.413	67.443	0.059	0.060
-413.398	-83.030	-0.138	0.044
-412.384	-48.015	0.325	0.156
-411.369	-74.079	-0.252	0.091
-410.355	-200.000	-0.012	0.203
-409.340	308.437	0.072	-0.134
-408.325	-113.312	0.222	-0.044
-407.311	-113.096	-0.200	0.039
-406.296	-60.264	-0.340	-0.144
-405.282	800.000	-0.082	0.246
-404.267	-39.409	-0.197	-0.103
-403.252	344.169	0.309	0.605
-402.238	-200.000	0.027	-0.163
-401.223	800.000	-0.113	-0.343
-400.209	-156.388	0.526	0.033
-399.194	800.000	0.025	-0.093
-398.179	-200.000	-0.037	0.227
-397.165	-119.825	-0.396	0.068
-396.150	61.842	-0.077	-0.076
-395.136	-36.385	0.305	-0.163
-394.121	-97.876	0.163	-0.042
-393.106	156.642	-0.192	-0.264
-392.092	-170.778	-0.094	-0.003
-391.077	60.334	0.139	0.137
-390.063	-99.532	0.235	0.059
-389.048	-200.000	-0.021	-0.136
-388.033	-100.843	0.177	-0.043
-387.019	-76.313	0.124	0.044
-386.004	800.000	-0.056	-0.180
-384.990	180.702	0.179	0.262
-383.975	-39.011	0.263	-0.138
-382.960	228.240	0.146	0.236
-381.946	-200.000	0.012	-0.054
-380.931	-8.174	0.053	-0.035
-379.917	-59.883	0.023	-0.010
-378.902	-132.678	-0.170	0.022
-377.888	249.015	-0.051	-0.087
-376.873	193.735	0.186	0.280
-375.858	130.439	0.019	-0.024
-374.844	-18.500	-0.159	0.099
-373.829	-153.815	0.117	-0.008
-372.815	73.131	-0.086	-0.090
-371.800	248.562	-0.084	0.142
-370.785	81.841	0.115	0.124
-369.771	-200.000	0.056	0.485
-368.756	800.000	-0.017	0.065
-367.742	62.359	-0.151	0.150
-366.727	-107.571	0.173	-0.038
-365.712	17.167	-0.178	0.141
-364.698	49.210	0.302	-0.282
-363.683	-47.681	-0.164	0.079
-362.669	-77.530	-0.103	0.035
-361.654	-112.041	0.509	-0.102
-360.639	-56.295	-0.123	-0.054
-359.625	-7.863	-0.072	0.048
-358.610	-138.477	-0.126	-0.014
-357.596	-200.000	0.011	0.247
-356.581	800.000	-0.021	-0.066
-355.566	62.332	0.177	-0.175
-354.552	-58.152	-0.091	-0.039
-353.537	800.000	0.062	0.244
-352.523	-133.638	0.164	-0.020
-351.508	-45.345	-0.069	-0.034
-350.493	111.254	0.035	-0.042
-349.479	297.444	0.167	0.305
-348.464	190.781	-0.200	-0.298
-347.450	-65.595	0.202	0.081
-346.435	-200.000	0.127	-0.000
-345.420	-73.274	0.310	-0.113
-344.406	488.406	0.092	-0.210
-343.391	-108.703	0.120	-0.025
-342.377	58.158	-0.100	-0.098
-341.362	-38.372	0.239	-0.126
-340.348	-92.432	0.196	-0.055
-339.333	-49.256	-0.160	0.076
-338.318	-200.000	0.000	-0.159
-337.304	-153.278	0.329	-0.023
-336.289	-123.028	0.156	0.025
-335.275	-43.250	-0.120	-0.060
-334.260	721.456	-0.142	0.375
-333.245	-200.000	-0.025	-0.142
-332.231	-121.537	0.144	-0.024
-331.216	-138.662	0.165	0.018
-330.202	-186.188	-0.275	-0.004
-329.187	-178.673	-0.109	-0.002
-328.172	387.598	0.108	-0.221
-327.158	-50.640	-0.205	-0.096
-326.143	578.353	0.076	-0.184
-325.129	800.000	-0.084	0.346
-324.114	-10.253	0.391	0.258
-323.099	189.853	0.195	0.291
-322.085	-149.318	0.247	-0.020
-321.070	-200.000	0.056	0.250
-320.056	631.988	0.033	0.084
-319.041	-74.819	0.113	-0.040
-318.026	-64.941	0.140	-0.056
-317.012	-200.000	-0.017	-0.370
-315.997	119.476	-0.130	0.160
-314.983	12.986	-0.101	0.077
-313.968	800.000	-0.142	-0.421
-312.953	-200.000	-0.048	0.286
-311.939	-54.546	-0.063	-0.028
-310.924	1.738	-0.339	0.243
-309.910	-200.000	0.015	0.232
-308.895	-200.000	-0.040	0.375
-307.880	800.000	0.027	0.116
-306.866	72.781	-0.171	-0.178
-305.851	-172.893	-0.087	0.003
-304.837	76.361	0.390	-0.410
-303.822	632.021	0.032	0.080
-302.807	380.850	0.105	0.213
-301.793	-62.720	0.161	-0.066
-300.778	68.225	-0.118	-0.119
-299.764	581.033	-0.026	0.062
-298.749	-96.119	-0.238	-0.063
-297.735	-14.603	0.341	-0.217
-296.720	723.032	-0.072	0.191
-295.705	-68.149	-0.246	0.095
-294.691	-47.860	0.150	-0.072
-293.676	-162.556	-0.558	0.027
-292.662	800.000	-0.030	0.111
-291.647	-200.000	-0.057	0.289
-290.632	-17.055	-0.135	0.085
-289.618	503.577	0.107	0.244
-288.603	-68.544	0.047	-0.018
-287.589	-200.000	-0.024	0.285
-286.574	-125.800	0.128	0.019
-285.559	383.140	-0.030	-0.061
-284.545	7.822	-0.079	0.059
-283.530	659.283	-0.163	-0.415
-282.516	292.783	0.108	-0.195
-281.501	270.536	-0.013	-0.022
-280.486	-57.652	-0.323	-0.140
-279.472	-200.000	0.018	0.130
-278.457	102.272	0.220	0.255
-277.443	-193.497	-0.124	0.001
-276.428	128.492	0.032	-0.040
-275.413	-38.758	-0.464	0.243
-274.399	-35.240	0.086	0.047
-273.384	-136.756	-0.216	0.025
-272.370	-51.523	-0.296	-0.137
-271.355	800.000	-0.110	0.366
-270.340	57.755	-0.322	-0.312
-269.326	-90.418	-0.107	0.031
-268.311	-53.787	0.119	0.054
-267.297	105.845	0.071	0.083
-266.282	-5.135	0.202	0.138
-265.267	85.677	0.243	0.265
-264.253	-77.440	-0.184	0.063
-263.238	-200.000	0.026	-0.172
-262.224	-200.000	-0.019	0.232
-261.209	-51.751	0.170	-0.079
-260.195	-200.000	-0.047	-0.262
-259.180	-8.607	-0.115	0.076
-258.165	-174.753	0.260	0.007
-257.151	-189.246	-0.112	-0.001
-256.136	467.919	-0.119	-0.264
-255.122	800.000	-0.076	0.265
-254.107	-67.482	0.094	-0.036
-253.092	-200.000	-0.028	0.228
-252.078	94.810	0.106	-0.119
-251.063	-20.109	0.149	-0.091
-250.049	-123.486	-0.024	0.004
-249.034	-115.321	-0.052	0.010
-248.019	28.063	0.118	0.099
-247.005	-89.724	0.293	0.085
-245.990	-200.000	0.069	-0.313
-244.976	-122.987	-0.152	-0.024
-243.961	800.000	-0.057	-0.178
-242.946	800.000	-0.011	-0.038
-241.932	-27.114	0.219	0.126
-240.917	-50.029	0.032	0.015
-239.903	76.008	-0.178	-0.187
-238.888	41.288	0.186	0.167
-237.873	-111.770	0.270	0.054
-236.859	371.865	-0.123	-0.247
-235.844	-200.000	0.036	-0.384
-234.830	-180.263	-0.299	-0.006
-233.815	-200.000	-0.037	-0.241
-232.800	-47.450	0.084	0.041
-231.786	30.726	0.044	-0.037
-230.771	-43.343	0.240	0.120
-229.757	157.454	0.083	-0.114
-228.742	29.743	-0.234	-0.197
-227.727	220.770	0.112	0.178
-226.713	800.000	0.115	0.454
-225.698	199.911	-0.107	-0.162
-224.684	-158.810	-0.149	-0.008
-223.669	386.002	-0.062	0.126
-222.655	159.732	0.051	0.070
-221.640	-200.000	-0.030	-0.215
-220.625	-93.323	-0.200	0.055
-219.611	144.104	0.166	-0.219
-218.596	222.740	-0.146	-0.233
-217.582	-106.657	0.362	-0.080
-216.567	-200.000	-0.019	0.263
-215.552	-62.922	-0.128	0.053
-214.538	483.998	0.091	-0.204
-213.523	51.091	0.250	-0.234
-212.509	-107.146	0.264	0.058
-211.494	-159.434	-0.205	0.011
-210.479	69.878	0.402	-0.410
-209.465	-76.536	-0.155	0.054
-208.450	-183.241	-0.272	-0.005
-207.436	-84.487	-0.106	-0.033
-206.421	413.094	-0.102	0.215
-205.406	-64.367	-0.301	0.121
-204.392	-5.027	0.099	-0.067
-203.377	642.288	-0.018	-0.045
-202.363	-36.567	0.186	-0.099
-201.348	-200.000	0.046	-0.470
-200.333	-11.816	0.115	0.075
-199.319	164.827	-0.202	0.282
-198.304	451.177	0.070	0.153
-197.290	285.203	0.037	0.067
-196.275	-167.857	-0.145	0.006
-195.260	-117.714	0.101	-0.018
-194.246	-49.537	-0.292	0.137
-193.231	122.307	0.063	-0.078
-192.217	-77.139	0.338	0.117
-191.202	-112.639	-0.444	0.087
-190.187	281.468	-0.137	0.243
-189.173	-135.405	-0.505	0.060
-188.158	-158.607	0.237	-0.013
-187.144	800.000	-0.079	0.275
-186.129	-18.677	0.113	0.070
-185.114	3.469	0.502	-0.362
-184.100	-37.907	0.283	-0.149
-183.085	800.000	-0.035	0.099
-182.071	-89.444	-0.153	-0.045
-181.056	703.444	-0.150	-0.391
-180.042	-1.549	-0.271	-0.189
-179.027	95.114	-0.077	-0.087
-178.012	242.075	0.040	0.066
-176.998	-100.223	0.189	-0.046
-175.983	-153.463	-0.104	-0.007
-174.969	-106.346	-0.233	-0.051
-173.954	135.638	-0.195	-0.250
-172.939	-34.692	0.133	0.072
-171.925	-200.000	0.011	-0.047
-170.910	-107.853	-0.092	-0.020
-169.896	-171.547	0.665	-0.022
-168.881	63.925	-0.100	-0.099
-167.866	139.118	0.075	-0.098
-166.852	18.530	0.291	-0.230
-165.837	97.054	0.103	-0.117
-164.823	-97.556	-0.073	-0.019
-163.808	88.037	-0.173	-0.189
-162.793	-200.000	0.005	-0.114
-161.779	368.962	-0.074	0.147
-160.764	-126.866	-0.214	0.031
-159.750	-5.002	-0.353	0.240
-158.735	288.292	0.034	-0.060
-157.720	437.357	0.122	-0.263
-156.706	-126.762	-0.068	0.010
-155.691	94.933	0.152	-0.171
-154.677	118.947	-0.158	0.193
-153.662	-8.171	0.287	-0.191
-152.647	-200.000	-0.015	0.244
-151.633	-200.000	0.113	-0.502
-150.618	4.675	-0.089	0.064
-149.604	800.000	0.025	0.085
-148.589	-38.421	-0.104	-0.054
-147.574	-200.000	0.004	0.187
-146.560	292.860	0.028	0.051
-145.545	-49.231	-0.237	-0.112
-144.531	74.807	0.131	0.136
-143.516	211.770	0.092	0.143
-142.502	-154.114	-0.405	-0.027
-141.487	-200.000	-0.063	-0.335
-140.472	609.597	0.100	0.247
-139.458	-57.176	0.199	-0.086
-138.443	-200.000	-0.009	0.208
-137.429	-85.418	-0.386	0.119
-136.414	173.995	0.068	-0.096
-135.399	800.000	-0.062	0.266
-134.385	572.439	-0.131	0.315
-133.370	-200.000	0.035	0.181
-132.356	-74.525	0.326	0.116
-131.341	320.052	0.179	-0.336
-130.326	332.267	0.237	-0.451
-129.312	-62.316	0.059	-0.024
-128.297	142.326	0.157	-0.206
-127.283	261.250	0.090	-0.154
-126.268	13.944	-0.156	0.120
-125.253	-91.467	-0.026	0.007
-124.239	-200.000	0.031	0.279
-123.224	-200.000	-0.000	-0.202
-122.210	-39.563	0.278	-0.143
