DTS Sentinel unit serial number:	SN413079Multiplexer serial number:	ORYXHardware model number:	OX4-SRSoftware version number:	ORYX F/W v4.00 Oryx Data Collector v3.7.2.0data status	okinstallation	princeton_trtdifferential loss correction	single-endedforward channel	channel 4reverse channel	N/Adate	2019/09/12time	21:49:34forward acquisition time	60.00reverse acquisition time	0.00gamma	496.2192k internal	0.2314k external	0.2314temperature offset calibration	1.0175default loss term (dB/km)	0.3790temperature slope calibration	1.0000multiplexer offset coefficient	1.0000multiplexer slope coefficient	1.0000fibre end	0.00T internal ref (°C)	30.19T ext. ref 1 (°C)	3.73T ext. ref 2 (°C)	24.81length (m)	temperature (°C)	Stokes	anti-Stokes-747.200	655.319	-0.029	0.076
-746.185	181.684	0.096	0.143
-745.171	83.859	-0.305	-0.338
-744.156	194.114	-0.143	-0.219
-743.142	-10.326	-0.122	-0.082
-742.127	618.625	0.072	0.182
-741.112	-21.768	0.025	0.015
-740.098	-54.282	0.038	-0.017
-739.083	-200.000	-0.074	-0.444
-738.069	651.545	-0.060	0.157
-737.054	-200.000	0.016	0.133
-736.039	-70.910	-0.158	-0.060
-735.025	800.000	0.024	-0.095
-734.010	-200.000	0.055	0.325
-732.996	-78.288	-0.275	0.096
-731.981	700.332	-0.119	-0.318
-730.966	111.989	0.053	-0.065
-729.952	85.753	-0.107	0.119
-728.937	-64.186	-0.105	-0.043
-727.923	800.000	-0.090	-0.299
-726.908	-200.000	0.008	0.171
-725.894	303.942	-0.149	0.280
-724.879	800.000	-0.045	-0.191
-723.864	66.190	-0.107	0.110
-722.850	315.109	0.050	0.096
-721.835	-200.000	-0.090	-0.409
-720.821	-200.000	0.022	-0.458
-719.806	-108.620	-0.187	0.041
-718.791	-200.000	-0.018	-0.143
-717.777	-48.713	-0.248	0.120
-716.762	-74.844	-0.123	-0.045
-715.748	-85.118	-0.220	0.070
-714.733	800.000	0.041	-0.154
-713.718	153.886	0.144	0.201
-712.704	134.504	0.062	-0.082
-711.689	172.601	-0.066	-0.096
-710.675	292.218	-0.065	-0.120
-709.660	800.000	-0.073	0.211
-708.645	-82.199	-0.119	-0.039
-707.631	-25.539	0.057	-0.034
-706.616	-200.000	-0.025	0.185
-705.602	59.873	-0.073	-0.073
-704.587	783.186	-0.093	0.257
-703.572	800.000	0.011	0.036
-702.558	-123.379	-0.393	0.063
-701.543	-200.000	0.004	0.229
-700.529	-7.444	-0.038	0.026
-699.514	-200.000	-0.030	0.174
-698.499	-72.041	-0.146	-0.055
-697.485	-200.000	-0.002	0.015
-696.470	12.018	-0.304	-0.236
-695.456	195.423	-0.098	0.150
-694.441	-200.000	0.065	-0.338
-693.426	72.828	0.135	-0.143
-692.412	-44.533	0.382	0.193
-691.397	124.418	-0.128	0.163
-690.383	519.209	-0.101	-0.238
-689.368	-68.982	-0.122	-0.048
-688.354	-18.148	0.363	0.230
-687.339	45.004	-0.193	-0.180
-686.324	632.241	-0.030	-0.077
-685.310	-75.976	0.362	0.129
-684.295	71.294	-0.103	0.108
-683.281	-127.351	-0.278	0.041
-682.266	-152.531	-0.231	0.017
-681.251	22.862	-0.066	-0.055
-680.237	-200.000	0.005	0.257
-679.222	702.040	0.076	-0.202
-678.208	-106.621	-0.262	0.059
-677.193	144.477	-0.210	0.284
-676.178	126.968	-0.154	0.198
-675.164	24.622	-0.248	-0.208
-674.149	-200.000	-0.044	0.205
-673.135	-134.463	-0.156	0.019
-672.120	172.475	-0.189	-0.275
-671.105	265.656	0.100	-0.176
-670.091	-87.238	-0.201	0.062
-669.076	7.951	-0.174	-0.132
-668.062	800.000	0.062	0.200
-667.047	-200.000	0.022	0.134
-666.032	-32.651	-0.167	-0.094
-665.018	-9.746	-0.113	-0.076
-664.003	658.312	-0.065	-0.169
-662.989	-200.000	-0.001	-0.241
-661.974	-52.949	-0.207	-0.096
-660.959	335.950	-0.071	0.139
-659.945	-134.129	0.168	-0.021
-658.930	-141.516	0.318	0.032
-657.916	800.000	-0.043	0.120
-656.901	-200.000	-0.008	-0.212
-655.886	-34.406	0.167	0.092
-654.872	-31.266	-0.161	-0.092
-653.857	-94.770	-0.170	-0.047
-652.843	-58.615	0.090	-0.039
-651.828	-200.000	0.040	-0.332
-650.814	30.429	0.068	-0.058
-649.799	216.567	0.181	-0.292
-648.784	-72.391	-0.372	0.139
-647.770	89.611	-0.063	0.071
-646.755	-120.146	-0.157	0.027
-645.741	-200.000	0.018	-0.136
-644.726	101.304	-0.215	-0.252
-643.711	184.000	0.097	0.145
-642.697	315.575	0.238	-0.453
-641.682	-42.848	-0.529	-0.272
-640.668	-37.775	-0.268	-0.144
-639.653	-121.084	0.122	0.021
-638.638	-7.291	0.325	-0.222
-637.624	-73.471	-0.184	0.068
-636.609	800.000	0.072	-0.273
-635.595	-121.343	0.178	0.030
-634.580	-200.000	-0.019	0.527
-633.565	244.399	0.287	0.487
-632.551	-87.780	-0.293	-0.089
-631.536	-200.000	-0.036	-0.204
-630.522	156.343	-0.094	-0.131
-629.507	40.254	0.097	0.088
-628.492	-112.688	0.272	0.055
-627.478	-200.000	0.006	0.067
-626.463	-200.000	0.015	0.382
-625.449	18.743	0.203	0.164
-624.434	-97.044	0.215	-0.057
-623.419	317.924	-0.045	0.086
-622.405	-165.595	-0.216	0.009
-621.390	-62.655	-0.563	0.236
-620.376	-27.849	0.085	-0.050
-619.361	-85.259	-0.155	0.049
-618.346	32.156	0.061	-0.053
-617.332	-200.000	-0.001	0.034
-616.317	19.443	-0.111	-0.090
-615.303	43.923	0.310	0.286
-614.288	-58.525	0.099	-0.043
-613.273	76.278	0.219	0.234
-612.259	353.055	0.117	0.233
-611.244	190.177	0.063	-0.095
-610.230	-155.675	0.101	-0.007
-609.215	800.000	0.041	-0.152
-608.201	60.079	0.168	0.168
-607.186	-164.021	-0.126	0.006
-606.171	-90.041	0.294	0.086
-605.157	800.000	0.062	0.223
-604.142	-136.509	-0.268	-0.031
-603.128	800.000	-0.084	-0.305
-602.113	287.015	0.124	-0.226
-601.098	-50.555	0.266	0.127
-600.084	709.627	0.102	-0.273
-599.069	-200.000	-0.016	-0.154
-598.055	-200.000	0.021	0.118
-597.040	-50.670	-0.243	0.115
-596.025	-200.000	-0.057	0.262
-595.011	225.103	0.048	0.078
-593.996	92.765	0.269	-0.307
-592.982	-160.473	-0.220	-0.012
-591.967	64.984	-0.054	0.055
-590.952	-43.089	-0.186	0.095
-589.938	557.547	0.073	-0.178
-588.923	-90.465	-0.153	0.045
-587.909	-144.150	-0.235	-0.022
-586.894	90.269	0.062	0.070
-585.879	800.000	-0.105	-0.428
-584.865	62.615	0.053	0.053
-583.850	89.233	0.202	0.227
-582.836	-31.539	-0.233	-0.132
-581.821	222.247	-0.126	-0.205
-580.806	800.000	0.051	-0.145
-579.792	282.091	0.027	-0.048
-578.777	214.164	-0.201	-0.320
-577.763	800.000	0.100	0.323
-576.748	505.610	-0.076	0.177
-575.733	226.520	0.137	-0.224
-574.719	-3.036	-0.056	-0.039
-573.704	-200.000	-0.027	-0.335
-572.690	189.385	0.122	-0.184
-571.675	172.673	0.039	-0.057
-570.661	313.370	0.109	-0.207
-569.646	340.605	0.013	-0.026
-568.631	-200.000	-0.014	0.117
-567.617	1.961	0.269	-0.195
-566.602	-200.000	0.015	-0.162
-565.588	95.141	0.234	0.268
-564.573	-22.203	-0.142	-0.087
-563.558	193.181	0.083	-0.126
-562.544	-91.222	-0.264	0.076
-561.529	109.630	0.175	0.211
-560.515	-106.008	0.326	0.074
-559.500	-34.921	-0.136	0.075
-558.485	-28.691	-0.175	0.101
-557.471	370.750	-0.066	0.135
-556.456	-90.985	0.067	0.019
-555.442	-50.204	0.102	0.049
-554.427	15.523	0.202	-0.160
-553.412	-200.000	-0.028	-0.272
-552.398	-134.026	-0.227	-0.028
-551.383	-200.000	0.036	0.194
-550.369	800.000	0.071	0.241
-549.354	157.204	-0.100	0.139
-548.339	800.000	0.032	-0.130
-547.325	-200.000	0.054	-0.410
-546.310	122.843	0.144	-0.181
-545.296	-109.479	0.174	0.037
-544.281	-200.000	-0.020	0.430
-543.266	-94.806	0.115	0.031
-542.252	11.086	0.283	0.217
-541.237	-16.306	0.143	-0.091
-540.223	-200.000	-0.047	-0.277
-539.208	154.118	0.163	-0.224
-538.193	132.825	0.069	-0.089
-537.179	-57.977	0.150	0.066
-536.164	525.536	0.087	-0.207
-535.150	41.335	0.083	0.076
-534.135	-109.402	0.322	0.069
-533.121	-44.859	-0.206	0.103
-532.106	152.538	0.103	-0.141
-531.091	-118.904	0.292	-0.051
-530.077	-89.018	-0.152	0.045
-529.062	800.000	-0.122	-0.367
-528.048	-145.807	0.293	0.026
-527.033	28.710	0.211	-0.180
-526.018	-181.510	0.341	-0.007
-525.004	0.826	0.309	-0.223
-523.989	-67.664	0.168	-0.066
-522.975	130.821	-0.057	-0.074
-521.960	477.066	0.119	-0.271
-520.945	-24.714	0.257	0.154
-519.931	-43.326	-0.397	0.202
-518.916	-35.333	-0.151	-0.083
-517.902	687.721	-0.037	0.096
-516.887	90.738	-0.146	-0.164
-515.872	132.555	-0.196	0.253
-514.858	800.000	-0.069	-0.223
-513.843	194.602	0.118	-0.181
-512.829	-89.301	-0.235	-0.070
-511.814	87.241	0.116	0.128
-510.799	-142.619	-0.053	0.005
-509.785	-42.952	-0.352	-0.179
-508.770	-97.428	-0.034	-0.009
-507.756	97.640	0.020	-0.023
-506.741	9.801	-0.237	0.181
-505.726	-85.158	0.332	0.104
-504.712	800.000	-0.071	0.298
-503.697	-21.297	-0.155	0.095
-502.683	-135.137	0.313	-0.038
-501.668	-28.805	0.249	-0.144
-500.653	-34.290	-0.237	0.131
-499.639	98.506	0.047	0.055
-498.624	76.293	0.276	0.294
-497.610	-85.838	-0.366	0.114
-496.595	-5.037	-0.024	-0.016
-495.581	7.607	0.253	-0.190
-494.566	38.688	-0.017	-0.016
-493.551	214.097	0.082	-0.130
-492.537	-7.863	0.214	0.145
-491.522	-200.000	-0.004	-0.026
-490.508	800.000	-0.155	0.440
-489.493	-200.000	-0.072	0.433
-488.478	191.455	-0.114	0.172
-487.464	-200.000	0.004	-0.043
-486.449	560.169	-0.056	-0.137
-485.435	-158.039	-0.143	0.008
-484.420	-200.000	-0.012	-0.346
-483.405	-24.684	-0.213	-0.127
-482.391	-200.000	-0.020	0.225
-481.376	-200.000	0.016	0.126
-480.362	6.648	-0.136	0.101
-479.347	800.000	-0.070	-0.221
-478.332	-200.000	-0.019	0.171
-477.318	800.000	-0.152	0.479
-476.303	488.865	-0.077	0.176
-475.289	-48.277	-0.112	-0.054
-474.274	800.000	-0.097	0.293
-473.259	-103.661	-0.050	-0.012
-472.245	49.125	-0.104	0.098
-471.230	-200.000	-0.013	0.095
-470.216	-168.769	0.228	-0.009
-469.201	-12.948	0.164	-0.107
-468.186	-63.723	-0.440	0.181
-467.172	-90.551	0.086	-0.025
-466.157	250.276	-0.260	-0.443
-465.143	-200.000	-0.040	0.199
-464.128	-19.491	0.251	0.156
-463.113	-198.150	0.280	-0.002
-462.099	-73.193	-0.278	0.102
-461.084	-200.000	-0.035	0.271
-460.070	146.943	0.090	-0.121
-459.055	-129.534	-0.071	-0.010
-458.040	-106.530	-0.224	-0.050
-457.026	83.860	-0.218	-0.239
-456.011	71.477	0.230	0.239
-454.997	-60.116	-0.106	0.045
-453.982	313.887	0.108	0.205
-452.968	267.584	0.043	0.075
-451.953	-75.358	-0.231	0.083
-450.938	-54.481	-0.113	0.051
-449.924	-200.000	0.009	0.124
-448.909	-36.317	0.168	0.091
-447.895	-200.000	-0.069	0.309
-446.880	-92.320	0.198	0.056
-445.865	366.617	0.066	0.134
-444.851	-16.536	0.145	0.092
-443.836	650.009	0.004	0.011
-442.822	-200.000	0.019	-0.166
-441.807	96.316	-0.130	0.150
-440.792	64.763	0.106	-0.107
-439.778	-200.000	-0.040	-0.201
-438.763	150.025	0.078	-0.105
-437.749	26.535	0.031	-0.026
-436.734	-87.017	-0.123	0.037
-435.719	-27.951	0.214	-0.124
-434.705	-200.000	-0.001	-0.172
-433.690	-74.749	0.188	0.068
-432.676	800.000	0.051	-0.221
-431.661	800.000	-0.064	-0.229
-430.646	800.000	0.068	0.201
-429.632	-65.783	0.275	0.110
-428.617	-101.879	0.411	-0.099
-427.603	-36.559	-0.016	0.009
-426.588	34.628	-0.150	0.131
-425.573	517.625	-0.049	-0.114
-424.559	-153.204	-0.277	-0.019
-423.544	367.876	-0.046	0.093
-422.530	-32.732	0.130	-0.073
-421.515	199.009	-0.074	0.114
-420.500	446.220	-0.107	0.235
-419.486	745.244	0.103	0.277
-418.471	-57.462	-0.175	-0.077
-417.457	-72.166	-0.217	-0.081
-416.442	28.274	-0.227	-0.192
-415.428	497.107	-0.056	0.130
-414.413	-103.241	0.253	-0.060
-413.398	-200.000	0.002	0.343
-412.384	-200.000	-0.047	0.240
-411.369	-61.820	0.145	-0.061
-410.355	35.941	-0.280	-0.246
-409.340	-103.037	-0.055	0.013
-408.325	317.460	0.095	0.179
-407.311	75.822	-0.228	0.241
-406.296	800.000	-0.004	-0.014
-405.282	-24.494	0.115	-0.069
-404.267	-200.000	-0.045	0.228
-403.252	-99.761	-0.135	0.034
-402.238	-82.040	0.163	-0.053
-401.223	17.644	-0.031	-0.025
-400.209	374.795	0.049	-0.099
-399.194	800.000	-0.070	-0.305
-398.179	-128.070	0.257	-0.037
-397.165	-115.393	-0.214	0.040
-396.150	-200.000	-0.011	0.147
-395.136	302.299	-0.064	-0.118
-394.121	-75.972	-0.155	0.055
-393.106	635.600	-0.085	-0.216
-392.092	-110.600	-0.620	0.128
-391.077	-200.000	-0.025	-0.146
-390.063	-47.658	-0.263	0.128
-389.048	-72.122	-0.050	0.019
-388.033	231.361	-0.095	-0.156
-387.019	136.006	-0.055	0.071
-386.004	8.850	-0.400	-0.301
-384.990	-140.727	-0.090	0.009
-383.975	-80.199	0.276	0.092
-382.960	398.395	-0.157	-0.329
-381.946	-70.854	-0.155	0.058
-380.931	-134.248	-0.205	-0.025
-379.917	800.000	-0.127	0.470
-378.902	-200.000	0.016	-0.148
-377.888	215.367	0.055	0.087
-376.873	800.000	0.046	-0.172
-375.858	-95.206	0.208	-0.056
-374.844	46.368	-0.334	0.309
-373.829	225.473	-0.062	-0.101
-372.815	271.113	-0.048	-0.085
-371.800	214.929	-0.061	-0.097
-370.785	-20.612	0.196	-0.120
-369.771	-200.000	-0.011	0.162
-368.756	800.000	-0.074	-0.275
-367.742	487.883	-0.036	-0.083
-366.727	-200.000	-0.020	-0.353
-365.712	72.479	0.088	0.091
-364.698	-200.000	-0.010	-0.174
-363.683	70.715	-0.121	-0.125
-362.669	785.632	0.100	-0.273
-361.654	-200.000	-0.023	0.134
-360.639	632.321	0.021	0.054
-359.625	-1.838	-0.122	-0.086
-358.610	-35.953	-0.107	-0.058
-357.596	42.390	0.340	0.309
-356.581	-122.055	-0.158	-0.026
-355.566	-200.000	-0.068	-0.331
-354.552	-200.000	-0.007	-0.062
-353.537	-43.513	0.253	-0.128
-352.523	-46.942	0.403	-0.196
-351.508	-172.299	-0.237	-0.008
-350.493	-200.000	0.043	-0.207
-349.479	-108.687	0.262	0.056
-348.464	-19.460	-0.256	0.158
-347.450	-134.285	0.117	-0.014
-346.435	108.989	-0.201	0.240
-345.420	-99.389	-0.071	0.018
-344.406	-200.000	0.022	0.100
-343.391	-200.000	-0.024	0.494
-342.377	-72.562	-0.080	0.030
-341.362	-200.000	0.019	0.149
-340.348	-52.726	-0.349	-0.161
-339.333	736.750	0.106	0.283
-338.318	-94.348	-0.192	0.052
-337.304	-70.067	0.121	0.046
-336.289	-173.080	0.030	-0.001
-335.275	-200.000	0.004	-0.326
-334.260	-200.000	0.013	-0.341
-333.245	50.292	0.208	0.196
-332.231	800.000	0.049	0.149
-331.216	800.000	0.068	0.241
-330.202	-21.801	-0.401	0.244
-329.187	-0.966	-0.437	-0.308
-328.172	-97.763	-0.211	0.054
-327.158	800.000	0.108	0.360
-326.143	-200.000	0.044	0.296
-325.129	-4.156	0.072	0.049
-324.114	-90.111	-0.215	0.063
-323.099	-200.000	-0.015	0.430
-322.085	-102.183	-0.181	-0.043
-321.070	97.400	-0.139	0.159
-320.056	346.505	0.104	-0.205
-319.041	-105.575	-0.261	0.059
-318.026	277.895	-0.075	-0.133
-317.012	-57.106	-0.283	-0.124
-315.997	-3.150	0.239	-0.166
-314.983	114.982	-0.352	0.428
-313.968	123.137	0.192	0.240
-312.953	172.872	-0.140	-0.201
-311.939	31.209	-0.297	0.254
-310.924	800.000	-0.079	-0.341
-309.910	275.214	-0.119	-0.210
-308.895	-200.000	-0.006	-0.243
-307.880	800.000	0.015	0.056
-306.866	-200.000	-0.012	-0.129
-305.851	-106.034	-0.311	0.070
-304.837	22.972	-0.206	-0.169
-303.822	-143.154	0.361	0.035
-302.807	195.420	-0.265	-0.401
-301.793	-63.323	-0.140	-0.057
-300.778	-81.865	0.317	-0.103
-299.764	-200.000	-0.009	-0.066
-298.749	800.000	-0.047	0.166
-297.735	-71.335	-0.211	0.079
-296.720	800.000	-0.023	-0.083
-295.705	182.964	-0.026	0.039
-294.691	174.086	0.168	-0.241
-293.676	-200.000	0.005	-0.152
-292.662	37.496	-0.199	-0.176
-291.647	778.716	0.006	-0.016
-290.632	97.760	0.216	0.247
-289.618	87.367	-0.120	0.132
-288.603	800.000	0.087	0.325
-287.589	-170.713	0.215	0.007
-286.574	-135.167	-0.068	-0.008
-285.559	-57.243	0.276	0.121
-284.545	-128.239	-0.182	0.026
-283.530	-26.807	0.331	-0.193
-282.516	-200.000	0.017	0.078
-281.501	-45.756	-0.062	0.031
-280.486	-91.533	-0.153	-0.043
-279.472	-75.650	-0.317	0.112
-278.457	-57.014	-0.175	0.077
-277.443	53.335	0.224	-0.214
-276.428	-97.460	-0.327	0.085
-275.413	62.545	0.068	-0.067
-274.399	12.691	-0.255	-0.196
-273.384	-175.937	0.212	0.006
-272.370	-51.860	0.346	-0.160
-271.355	478.043	0.030	-0.069
-270.340	216.143	0.060	-0.095
-269.326	100.852	0.178	0.206
-268.311	-64.904	-0.276	0.111
-267.297	121.143	0.287	0.356
-266.282	-200.000	0.026	-0.279
-265.267	-112.291	0.268	0.053
-264.253	-200.000	0.076	-0.359
-263.238	-127.494	0.071	-0.010
-262.224	-99.702	0.368	0.092
-261.209	6.075	0.099	-0.073
-260.195	-12.686	0.149	-0.096
-259.180	181.394	0.051	-0.075
-258.165	37.107	-0.141	-0.124
-257.151	-95.955	0.235	0.062
-256.136	680.642	0.077	-0.199
-255.122	-13.339	0.382	0.246
-254.107	-143.916	0.311	0.029
-253.092	-121.402	0.156	-0.026
-252.078	-114.355	-0.115	-0.022
-251.063	53.029	-0.198	0.189
-250.049	-200.000	-0.056	0.367
-249.034	-200.000	-0.004	-0.081
-248.019	22.276	-0.107	-0.087
-247.005	163.301	0.259	-0.362
-245.990	-62.638	0.313	0.129
-244.976	126.390	0.139	0.174
-243.961	-138.678	0.135	-0.015
-242.946	201.471	0.109	0.167
-241.932	-61.964	0.231	-0.096
-240.917	205.769	-0.222	-0.343
-239.903	18.442	-0.196	0.155
-238.888	526.238	-0.128	0.299
-237.873	92.806	-0.240	0.270
-236.859	-111.150	0.080	0.016
-235.844	156.317	-0.014	0.020
-234.830	-13.650	-0.370	-0.238
-233.815	800.000	-0.055	0.239
-232.800	-200.000	0.006	-0.073
-231.786	-35.915	-0.251	-0.135
-230.771	-81.818	0.089	-0.029
-229.757	-34.228	0.173	0.094
-228.742	55.805	-0.219	0.211
-227.727	57.680	-0.246	-0.239
-226.713	247.286	-0.052	0.088
-225.698	-149.170	0.110	-0.009
-224.684	-27.016	0.224	0.130
-223.669	53.381	0.210	0.199
-222.655	-40.645	-0.227	-0.117
-221.640	10.152	0.126	-0.095
-220.625	800.000	-0.106	0.336
-219.611	143.924	0.169	-0.223
-218.596	-200.000	-0.029	-0.133
-217.582	109.625	-0.137	0.163
-216.567	-200.000	0.012	0.259
-215.552	-9.840	-0.162	-0.107
-214.538	-135.847	0.280	-0.033
-213.523	-200.000	-0.005	0.108
-212.509	-195.495	-0.206	-0.002
-211.494	7.327	0.157	-0.117
-210.479	800.000	-0.053	0.191
-209.465	-100.150	0.275	0.068
-208.450	800.000	0.076	0.252
-207.436	-76.290	0.200	0.070
-206.421	33.592	-0.208	-0.179
-205.406	582.103	-0.094	-0.229
-204.392	-200.000	0.058	-0.321
-203.377	-107.731	0.265	0.057
-202.363	-200.000	-0.011	-0.050
-201.348	-77.015	0.283	-0.098
-200.333	-120.392	0.239	0.040
-199.319	-30.049	-0.030	-0.017
-198.304	800.000	-0.023	-0.072
-197.290	102.352	-0.083	0.096
-196.275	274.162	-0.074	-0.131
-195.260	-44.301	0.097	0.048
-194.246	-134.885	0.005	-0.001
-193.231	-200.000	0.069	-0.469
-192.217	-200.000	0.039	0.243
-191.202	-200.000	-0.076	-0.565
-190.187	800.000	0.111	-0.316
-189.173	81.756	0.182	-0.196
-188.158	800.000	-0.058	0.233
-187.144	-32.912	0.094	-0.052
-186.129	-16.347	0.157	-0.099
-185.114	45.105	-0.130	-0.119
-184.100	291.239	-0.168	-0.304
-183.085	800.000	0.031	0.101
-182.071	44.362	0.038	0.034
-181.056	-155.048	-0.201	-0.013
-180.042	59.448	0.110	0.107
-179.027	800.000	-0.089	-0.321
-178.012	-200.000	0.003	0.215
-176.998	-64.770	0.112	-0.045
-175.983	-186.465	0.096	-0.001
-174.969	-7.108	-0.084	0.057
-173.954	-54.930	-0.140	-0.063
-172.939	556.313	-0.062	-0.149
-171.925	713.437	-0.056	-0.148
-170.910	-200.000	-0.008	0.088
-169.896	-200.000	0.005	-0.087
-168.881	228.425	0.198	0.319
-167.866	277.962	-0.170	0.299
-166.852	114.808	0.143	-0.172
-165.837	139.792	-0.027	0.035
-164.823	-86.769	0.357	0.108
-163.808	-77.050	-0.032	-0.011
-162.793	-70.230	0.102	-0.038
-161.779	21.509	0.226	-0.182
-160.764	-92.803	-0.288	-0.080
-159.750	800.000	0.077	0.304
-158.735	-161.578	-0.250	0.013
-157.720	37.151	0.270	0.237
-156.706	-200.000	-0.002	-0.086
-155.691	-5.052	-0.310	-0.211
-154.677	-108.778	0.394	-0.083
-153.662	37.293	-0.035	0.030
-152.647	13.892	0.062	0.048
-151.633	95.944	0.136	0.153
-150.618	-200.000	0.015	0.287
-149.604	-137.091	-0.098	-0.011
-148.589	226.962	-0.091	-0.147
-147.574	411.453	-0.018	0.037
-146.560	-162.013	-0.318	-0.016
-145.545	-200.000	-0.015	0.313
-144.531	243.423	0.182	0.303
-143.516	-200.000	0.075	0.330
-142.502	59.699	0.119	0.116
-141.487	-0.973	0.264	0.185
-140.472	227.797	0.038	0.062
-139.458	-138.155	0.348	0.038
-138.443	62.187	0.211	0.209
-137.429	-200.000	-0.030	0.371
-136.414	407.916	0.129	-0.271
-135.399	246.088	-0.174	0.290
-134.385	-169.222	0.130	-0.005
-133.370	800.000	-0.028	0.111
-132.356	180.859	-0.302	0.439
-131.341	-91.870	0.202	-0.057
-130.326	-2.956	-0.154	-0.106
-129.312	-124.155	-0.142	0.022
-128.297	39.332	-0.075	-0.066
-127.283	312.974	0.121	-0.226
-126.268	-155.356	0.199	-0.013
-125.253	800.000	0.115	0.363
-124.239	-51.610	0.314	0.145
-123.224	-65.948	0.111	-0.044
-122.210	22.059	0.021	-0.017
-121.195	262.291	-0.055	0.094
