DTS Sentinel unit serial number:	SN413079Multiplexer serial number:	ORYXHardware model number:	OX4-SRSoftware version number:	ORYX F/W v4.00 Oryx Data Collector v3.7.2.0data status	okinstallation	princeton_trtdifferential loss correction	single-endedforward channel	channel 4reverse channel	N/Adate	2019/09/18time	13:05:35forward acquisition time	60.00reverse acquisition time	0.00gamma	496.2192k internal	0.2303k external	0.2303temperature offset calibration	0.9992default loss term (dB/km)	0.3790temperature slope calibration	1.0000multiplexer offset coefficient	1.0000multiplexer slope coefficient	1.0000fibre end	0.00T internal ref (°C)	33.64T ext. ref 1 (°C)	0.58T ext. ref 2 (°C)	31.94length (m)	temperature (°C)	Stokes	anti-Stokes-747.200	-35.420	0.180	-0.100
-746.185	-118.752	-0.435	-0.078
-745.171	564.670	-0.134	0.330
-744.156	102.580	0.197	0.235
-743.142	139.358	0.098	0.132
-742.127	-200.000	-0.016	0.309
-741.112	-185.249	0.072	0.001
-740.098	200.208	-0.242	0.379
-739.083	-200.000	0.029	0.256
-738.069	-120.770	-0.182	-0.031
-737.054	800.000	0.089	0.364
-736.039	153.916	-0.133	0.185
-735.025	-131.553	0.097	0.013
-734.010	-115.217	-0.135	0.026
-732.996	-163.031	-0.062	0.003
-731.981	9.511	-0.222	0.171
-730.966	-136.634	0.158	0.019
-729.952	-200.000	0.007	0.140
-728.937	83.555	-0.185	0.206
-727.923	-190.334	0.244	-0.003
-726.908	20.715	-0.215	-0.177
-725.894	-47.204	0.336	-0.166
-724.879	-200.000	0.009	-0.052
-723.864	49.802	0.202	-0.193
-722.850	-143.970	-0.159	0.015
-721.835	800.000	0.049	0.168
-720.821	-78.376	-0.242	-0.084
-719.806	800.000	-0.025	0.096
-718.791	194.470	0.164	-0.253
-717.777	-18.834	-0.215	-0.136
-716.762	-81.894	0.075	0.025
-715.748	-182.172	0.104	-0.002
-714.733	164.617	0.075	-0.108
-713.718	601.481	0.105	-0.265
-712.704	148.821	-0.165	0.227
-711.689	800.000	-0.087	-0.293
-710.675	3.638	-0.226	-0.167
-709.660	-97.411	-0.212	0.056
-708.645	-15.318	0.159	0.103
-707.631	262.465	-0.183	0.323
-706.616	127.990	0.173	-0.223
-705.602	-72.266	-0.191	-0.072
-704.587	-200.000	-0.014	-0.187
-703.572	-132.553	0.259	-0.034
-702.558	-59.125	-0.120	0.052
-701.543	-56.066	0.133	0.060
-700.529	235.375	0.158	0.266
-699.514	25.117	-0.163	0.138
-698.499	-200.000	0.018	-0.102
-697.485	800.000	-0.092	0.403
-696.470	674.813	-0.099	0.260
-695.456	-200.000	0.021	0.315
-694.441	-15.429	0.237	-0.154
-693.426	-113.137	0.080	-0.016
-692.412	112.590	0.136	-0.167
-691.397	-1.802	-0.254	-0.182
-690.383	-193.972	-0.205	0.002
-689.368	800.000	-0.013	0.055
-688.354	-200.000	-0.014	-0.249
-687.339	-175.915	-0.265	-0.007
-686.324	-42.992	0.048	-0.025
-685.310	-18.656	0.088	-0.056
-684.295	-200.000	0.027	-0.147
-683.281	-200.000	0.027	0.135
-682.266	-104.904	-0.485	0.113
-681.251	-200.000	0.080	-0.393
-680.237	-153.452	-0.138	0.010
-679.222	800.000	-0.023	0.066
-678.208	619.789	0.033	-0.084
-677.193	254.617	0.122	0.212
-676.178	-115.333	-0.126	-0.024
-675.164	800.000	0.065	-0.236
-674.149	-200.000	0.013	-0.076
-673.135	260.225	0.121	-0.212
-672.120	340.415	0.046	0.091
-671.105	0.180	-0.173	0.125
-670.091	-200.000	0.006	-0.267
-669.076	-59.654	0.092	-0.040
-668.062	800.000	0.123	0.479
-667.047	800.000	-0.067	0.284
-666.032	-89.190	-0.272	0.082
-665.018	124.762	0.139	-0.178
-664.003	-200.000	-0.027	0.196
-662.989	376.408	-0.064	-0.133
-661.974	559.172	0.043	0.105
-660.959	61.860	0.157	0.159
-659.945	-17.012	-0.094	0.060
-658.930	12.408	0.223	-0.175
-657.916	-200.000	0.004	-0.044
-656.901	-120.404	0.351	-0.061
-655.886	-40.690	-0.325	-0.171
-654.872	800.000	-0.006	-0.019
-653.857	-200.000	0.054	-0.364
-652.843	-200.000	-0.004	-0.080
-651.828	-22.952	0.407	-0.249
-650.814	31.396	-0.171	-0.149
-649.799	63.346	-0.120	0.122
-648.784	-119.947	-0.189	-0.033
-647.770	31.547	-0.092	0.080
-646.755	-81.750	0.348	0.116
-645.741	114.660	-0.178	-0.220
-644.726	-176.089	-0.220	0.006
-643.711	175.988	-0.099	-0.146
-642.697	-90.895	-0.409	-0.119
-641.682	92.708	-0.245	0.280
-640.668	-147.331	0.283	-0.024
-639.653	-200.000	0.006	-0.219
-638.638	-143.298	0.078	-0.008
-637.624	-115.659	-0.206	0.039
-636.609	-89.020	-0.302	-0.091
-635.595	-95.974	-0.076	0.021
-634.580	-200.000	0.019	-0.272
-633.565	9.876	-0.196	-0.151
-632.551	-21.114	0.353	0.219
-631.536	76.139	0.144	0.154
-630.522	-33.399	-0.370	0.208
-629.507	-200.000	-0.050	0.268
-628.492	-54.487	0.337	-0.155
-627.478	34.453	-0.196	0.174
-626.463	-200.000	-0.019	-0.310
-625.449	-173.150	-0.151	0.005
-624.434	-52.644	-0.316	0.148
-623.419	-113.380	-0.201	0.040
-622.405	-200.000	0.014	-0.305
-621.390	-200.000	-0.127	0.001
-620.376	-200.000	0.007	0.220
-619.361	713.210	-0.096	-0.257
-618.346	800.000	0.087	-0.267
-617.332	674.409	0.070	-0.185
-616.317	40.158	0.238	-0.216
-615.303	-136.866	0.397	-0.046
-614.288	-200.000	0.053	0.246
-613.273	-200.000	-0.000	-0.214
-612.259	800.000	0.045	-0.144
-611.244	-200.000	-0.007	0.397
-610.230	800.000	0.104	0.394
-609.215	-200.000	0.014	-0.078
-608.201	-52.118	0.255	0.120
-607.186	-92.129	-0.064	0.018
-606.171	132.947	0.156	-0.205
-605.157	-31.266	0.295	0.168
-604.142	180.389	0.109	0.162
-603.128	-55.679	-0.376	0.170
-602.113	237.948	-0.213	0.357
-601.098	411.271	-0.099	-0.212
-600.084	800.000	-0.038	0.111
-599.069	-55.353	-0.237	0.108
-598.055	-200.000	0.056	-0.300
-597.040	-110.452	-0.157	0.033
-596.025	800.000	0.022	0.085
-595.011	-200.000	0.073	-0.387
-593.996	-9.321	0.323	0.218
-592.982	800.000	-0.051	0.195
-591.967	57.108	0.227	-0.224
-590.952	-200.000	0.033	-0.214
-589.938	-57.817	-0.250	0.111
-588.923	-200.000	-0.030	0.234
-587.909	-64.578	-0.318	-0.131
-586.894	-113.514	-0.306	0.061
-585.879	303.405	0.236	-0.443
-584.865	154.204	-0.029	0.040
-583.850	-200.000	-0.044	-0.277
-582.836	-200.000	0.003	0.055
-581.821	-156.510	-0.114	-0.007
-580.806	-119.488	-0.269	-0.047
-579.792	-200.000	-0.027	0.169
-578.777	-99.985	0.246	-0.062
-577.763	-200.000	-0.014	-0.201
-576.748	-167.950	0.324	0.013
-575.733	183.191	-0.216	-0.323
-574.719	749.948	-0.103	-0.282
-573.704	-158.713	0.155	0.009
-572.690	-6.081	0.133	0.092
-571.675	131.673	-0.041	0.054
-570.661	-52.351	-0.284	-0.133
-569.646	800.000	0.109	-0.315
-568.631	-35.524	-0.122	-0.067
-567.617	-200.000	-0.027	-0.162
-566.602	15.649	-0.273	0.217
-565.588	787.877	-0.107	-0.297
-564.573	-200.000	0.040	-0.324
-563.558	101.409	0.037	-0.044
-562.544	-72.463	0.153	0.057
-561.529	-29.481	-0.384	-0.222
-560.515	-185.047	-0.287	0.005
-559.500	565.059	-0.074	-0.182
-558.485	-111.656	-0.178	0.037
-557.471	-200.000	0.078	-0.375
-556.456	-149.504	-0.199	-0.016
-555.442	800.000	0.046	-0.204
-554.427	800.000	-0.048	-0.179
-553.412	-200.000	-0.020	-0.145
-552.398	-143.881	0.354	-0.034
-551.383	-200.000	0.010	-0.075
-550.369	556.476	0.095	-0.232
-549.354	463.226	-0.044	-0.099
-548.339	17.694	-0.364	-0.292
-547.325	800.000	0.067	-0.245
-546.310	85.572	-0.062	-0.068
-545.296	168.636	0.134	0.194
-544.281	623.482	0.070	0.178
-543.266	104.768	0.016	0.020
-542.252	-200.000	0.005	0.066
-541.237	800.000	0.074	0.249
-540.223	62.696	0.201	0.203
-539.208	-59.261	0.078	0.034
-538.193	-117.109	0.030	0.006
-537.179	-105.850	0.304	-0.069
-536.164	-20.805	0.213	0.132
-535.150	26.958	-0.395	0.335
-534.135	118.971	-0.114	-0.142
-533.121	225.721	-0.154	0.252
-532.106	800.000	0.041	0.152
-531.091	192.482	0.140	0.214
-530.077	6.697	-0.177	-0.133
-529.062	108.242	0.163	-0.196
-528.048	570.546	0.114	-0.281
-527.033	-200.000	-0.001	0.165
-526.018	-39.679	-0.225	0.119
-525.004	800.000	0.022	0.065
-523.989	-200.000	-0.015	0.299
-522.975	800.000	0.075	0.260
-521.960	-180.711	0.369	-0.008
-520.945	-15.724	-0.258	-0.166
-519.931	25.699	0.136	0.114
-518.916	-45.618	0.252	0.126
-517.902	72.466	-0.042	-0.044
-516.887	165.919	0.159	-0.227
-515.872	800.000	-0.029	0.115
-514.858	62.758	0.197	-0.199
-513.843	-0.787	0.099	-0.071
-512.829	-44.072	0.426	0.216
-511.814	523.240	0.141	0.335
-510.799	154.372	-0.097	-0.134
-509.785	-200.000	0.091	0.414
-508.770	-1.488	-0.110	-0.078
-507.756	-1.437	0.085	0.060
-506.741	-200.000	-0.001	0.140
-505.726	-26.319	0.108	0.064
-504.712	6.735	-0.132	0.099
-503.697	800.000	-0.097	0.279
-502.683	-33.813	0.426	-0.237
-501.668	-200.000	-0.060	-0.000
-500.653	285.973	-0.174	0.317
-499.639	-70.835	-0.100	-0.038
-498.624	96.416	-0.033	-0.038
-497.610	596.666	0.073	0.183
-496.595	247.123	-0.072	-0.122
-495.581	6.332	-0.143	-0.107
-494.566	-200.000	-0.060	0.289
-493.551	238.780	-0.039	-0.066
-492.537	-200.000	-0.045	-0.478
-491.522	-125.099	0.272	-0.042
-490.508	16.943	-0.286	0.228
-489.493	140.853	0.202	-0.269
-488.478	157.211	0.031	0.044
-487.464	328.157	-0.137	0.265
-486.449	800.000	0.102	-0.367
-485.435	530.347	-0.070	-0.168
-484.420	61.180	0.083	-0.083
-483.405	-171.660	-0.217	0.007
-482.391	574.109	-0.088	0.216
-481.376	-200.000	-0.228	0.001
-480.362	195.838	-0.262	0.402
-479.347	331.253	-0.187	0.363
-478.332	417.722	-0.115	0.247
-477.318	800.000	-0.050	0.215
-476.303	-45.219	0.428	-0.215
-475.289	-78.754	-0.255	-0.088
-474.274	26.529	-0.072	0.060
-473.259	-3.061	-0.319	-0.224
-472.245	19.560	-0.107	-0.086
-471.230	698.266	0.004	0.011
-470.216	-93.397	0.078	-0.022
-469.201	83.770	0.118	0.130
-468.186	-200.000	0.006	0.100
-467.172	800.000	0.045	0.138
-466.157	-21.394	-0.104	0.064
-465.143	800.000	-0.118	0.479
-464.128	104.297	0.121	0.143
-463.113	78.018	-0.086	-0.092
-462.099	164.523	0.249	0.354
-461.084	454.472	0.123	0.274
-460.070	-51.197	-0.279	-0.132
-459.055	-109.963	0.208	0.044
-458.040	-97.765	-0.209	-0.054
-457.026	153.778	-0.096	0.133
-456.011	453.249	0.100	0.222
-454.997	379.615	0.088	0.181
-453.982	-200.000	0.012	-0.256
-452.968	145.972	0.083	-0.112
-451.953	800.000	-0.047	-0.184
-450.938	-67.165	-0.326	0.129
-449.924	600.300	-0.014	0.035
-448.909	800.000	-0.123	0.501
-447.895	311.792	0.129	0.243
-446.880	180.041	0.146	0.215
-445.865	-133.214	-0.141	0.018
-444.851	-74.465	-0.299	0.109
-443.836	-200.000	-0.006	0.207
-442.822	-167.304	0.239	-0.010
-441.807	-69.719	0.104	0.040
-440.792	-77.230	-0.167	0.059
-439.778	-126.405	-0.234	0.035
-438.763	-200.000	0.014	-0.405
-437.749	161.799	0.188	-0.266
-436.734	60.345	0.320	0.319
-435.719	59.334	-0.254	0.252
-434.705	-200.000	-0.011	-0.248
-433.690	-111.395	0.278	-0.057
-432.676	789.545	0.072	-0.199
-431.661	-49.624	-0.399	-0.191
-430.646	-80.493	0.260	-0.087
-429.632	-200.000	0.029	0.273
-428.617	-25.050	0.327	-0.195
-427.603	21.391	-0.190	0.156
-426.588	800.000	-0.069	-0.292
-425.573	-72.468	-0.259	0.096
-424.559	800.000	-0.032	0.098
-423.544	-200.000	-0.025	-0.123
-422.530	-147.939	0.190	-0.016
-421.515	-200.000	0.018	0.274
-420.500	115.332	0.234	-0.288
-419.486	-44.066	0.205	-0.104
-418.471	-200.000	0.001	-0.152
-417.457	-200.000	-0.013	0.099
-416.442	-200.000	0.001	-0.183
-415.428	-97.944	0.168	-0.044
-414.413	121.300	0.197	0.247
-413.398	-138.093	0.134	0.015
-412.384	-55.141	0.166	-0.075
-411.369	-174.884	-0.392	0.011
-410.355	504.078	0.028	0.065
-409.340	800.000	-0.071	-0.229
-408.325	-200.000	0.015	-0.166
-407.311	-130.385	0.151	0.021
-406.296	578.625	-0.134	0.330
-405.282	-137.830	0.156	-0.018
-404.267	800.000	0.024	0.088
-403.252	-200.000	0.093	-0.423
-402.238	-181.886	0.098	0.002
-401.223	554.869	-0.142	-0.342
-400.209	-160.249	0.078	0.004
-399.194	-200.000	0.321	0.001
-398.179	-75.519	0.234	0.084
-397.165	343.045	-0.132	-0.260
-396.150	-200.000	-0.020	-0.095
-395.136	402.788	0.185	0.390
-394.121	371.734	0.080	-0.163
-393.106	154.134	-0.126	-0.173
-392.092	-159.736	-0.082	0.005
-391.077	-99.185	0.195	0.050
-390.063	-200.000	0.016	0.184
-389.048	234.006	-0.042	0.070
-388.033	730.744	-0.094	0.252
-387.019	-200.000	-0.014	0.071
-386.004	-52.014	0.125	0.058
-384.990	739.806	-0.124	-0.333
-383.975	800.000	-0.040	-0.111
-382.960	15.769	0.179	0.142
-381.946	-99.359	0.184	-0.046
-380.931	171.012	-0.080	-0.115
-379.917	-200.000	-0.010	-0.135
-378.902	-57.463	-0.218	-0.096
-377.888	-47.151	0.070	-0.034
-376.873	40.733	0.149	-0.135
-375.858	109.223	0.090	0.108
-374.844	768.898	0.040	0.110
-373.829	-52.675	-0.320	0.148
-372.815	-59.402	-0.439	0.190
-371.800	-95.314	-0.163	0.044
-370.785	-44.844	-0.539	-0.270
-369.771	320.170	0.146	-0.278
-368.756	800.000	0.129	0.472
-367.742	13.566	0.163	-0.127
-366.727	-200.000	0.035	0.221
-365.712	-120.789	0.273	-0.046
-364.698	126.092	0.248	0.315
-363.683	13.207	0.240	0.187
-362.669	-196.787	0.164	-0.001
-361.654	-200.000	-0.002	-0.047
-360.639	-74.539	0.187	-0.068
-359.625	-58.106	0.149	-0.065
-358.610	93.396	-0.078	-0.088
-357.596	42.437	0.090	-0.082
-356.581	-200.000	-0.012	-0.282
-355.566	-136.219	0.124	-0.015
-354.552	-118.438	0.178	-0.032
-353.537	49.914	0.160	-0.151
-352.523	632.014	0.079	-0.201
-351.508	-143.337	0.399	-0.038
-350.493	-162.256	-0.277	0.014
-349.479	-108.414	0.323	0.070
-348.464	-200.000	-0.028	-0.207
-347.450	-200.000	0.050	-0.293
-346.435	323.645	0.158	-0.303
-345.420	-47.550	-0.309	-0.150
-344.406	-200.000	-0.013	-0.164
-343.391	199.222	0.137	0.210
-342.377	179.352	-0.090	-0.133
-341.362	800.000	-0.096	-0.329
-340.348	3.949	0.022	0.016
-339.333	-200.000	0.032	0.156
-338.318	-200.000	0.010	0.221
-337.304	51.729	-0.320	-0.305
-336.289	62.130	0.194	-0.194
-335.275	-200.000	-0.011	-0.139
-334.260	-102.122	-0.213	0.051
-333.245	-200.000	0.012	0.075
-332.231	-200.000	0.018	-0.082
-331.216	-200.000	0.026	-0.147
-330.202	-111.581	-0.398	-0.081
-329.187	361.352	-0.148	0.297
-328.172	34.969	0.203	-0.178
-327.158	-200.000	-0.003	0.172
-326.143	-84.993	0.110	0.035
-325.129	314.506	-0.077	-0.145
-324.114	-200.000	0.032	-0.312
-323.099	238.047	-0.180	-0.300
-322.085	-132.867	-0.132	-0.017
-321.070	206.844	0.149	-0.233
-320.056	465.820	0.059	-0.132
-319.041	34.874	0.179	-0.157
-318.026	-200.000	0.031	-0.190
-317.012	-129.462	-0.106	-0.015
-315.997	-150.048	-0.248	-0.019
-314.983	344.931	-0.086	-0.170
-313.968	-14.458	-0.087	0.056
-312.953	576.068	-0.177	-0.432
-311.939	-150.640	-0.204	-0.016
-310.924	-89.294	0.112	-0.033
-309.910	83.244	-0.253	0.276
-308.895	-70.055	0.200	0.076
-307.880	-92.884	0.391	0.109
-306.866	-150.000	-0.197	0.015
-305.851	-40.232	0.130	-0.068
-304.837	800.000	0.039	-0.127
-303.822	-79.659	-0.111	-0.038
-302.807	427.792	-0.235	0.509
-301.793	-146.993	-0.348	-0.030
-300.778	-200.000	0.023	-0.270
-299.764	800.000	-0.046	-0.168
-298.749	-200.000	-0.043	-0.197
-297.735	-121.070	-0.132	0.022
-296.720	800.000	-0.006	-0.019
-295.705	-145.506	0.286	-0.026
-294.691	-200.000	-0.009	0.117
-293.676	226.096	0.070	0.113
-292.662	19.557	0.291	-0.234
-291.647	-200.000	-0.001	-0.114
-290.632	-200.000	-0.022	0.139
-289.618	800.000	-0.099	0.325
-288.603	-200.000	0.017	0.460
-287.589	-101.228	0.307	-0.075
-286.574	186.807	0.132	-0.197
-285.559	51.585	-0.157	0.149
-284.545	-27.814	-0.225	-0.130
-283.530	47.977	-0.084	0.078
-282.516	-108.349	0.384	-0.083
-281.501	-62.789	0.097	-0.040
-280.486	-15.814	-0.186	0.119
-279.472	-105.942	-0.106	-0.024
-278.457	64.015	0.255	0.256
-277.443	-6.853	0.228	0.155
-276.428	163.511	-0.083	0.116
-275.413	40.374	0.330	-0.297
-274.399	377.466	-0.063	-0.128
-273.384	-0.764	-0.154	0.109
-272.370	-112.602	0.293	-0.058
-271.355	-155.340	0.211	-0.014
-270.340	40.031	-0.178	0.160
-269.326	120.951	0.095	0.118
-268.311	287.621	0.186	0.336
-267.297	374.819	-0.164	0.335
-266.282	-200.000	-0.032	-0.259
-265.267	265.289	-0.174	0.303
-264.253	710.313	-0.044	0.115
-263.238	-69.701	0.284	-0.109
-262.224	-57.278	-0.248	-0.109
-261.209	-1.246	-0.216	0.152
-260.195	-57.083	-0.156	-0.069
-259.180	-77.970	0.169	0.058
-258.165	-114.970	-0.387	0.074
-257.151	800.000	0.048	-0.158
-256.136	-79.581	0.268	-0.090
-255.122	-70.092	-0.272	-0.103
-254.107	-200.000	0.023	0.235
-253.092	800.000	0.038	-0.109
-252.078	569.113	0.140	-0.340
-251.063	-182.683	0.093	-0.002
-250.049	-89.227	-0.085	-0.025
-249.034	370.721	-0.049	-0.099
-248.019	-200.000	-0.024	0.150
-247.005	800.000	0.049	-0.144
-245.990	-50.935	-0.128	0.060
-244.976	258.615	0.113	-0.195
-243.961	800.000	0.024	0.085
-242.946	-82.060	-0.099	0.032
-241.932	-126.438	-0.069	-0.010
-240.917	800.000	-0.157	0.474
-239.903	254.544	-0.010	0.018
-238.888	76.576	0.331	0.350
-237.873	800.000	-0.037	0.121
-236.859	277.939	-0.123	0.219
-235.844	-200.000	0.019	0.335
-234.830	-128.572	-0.156	0.022
-233.815	-96.087	0.307	0.081
-232.800	404.182	0.080	0.169
-231.786	800.000	-0.041	0.168
-230.771	-28.402	-0.111	0.064
-229.757	218.129	-0.174	-0.277
-228.742	-200.000	0.042	0.258
-227.727	117.482	-0.027	-0.033
-226.713	-87.147	-0.092	-0.028
-225.698	-85.729	-0.313	-0.097
-224.684	-173.714	0.206	-0.006
-223.669	800.000	0.077	-0.216
-222.655	285.049	0.174	-0.313
-221.640	-96.826	-0.190	0.050
-220.625	82.383	-0.063	0.068
-219.611	-17.651	-0.095	0.059
-218.596	-137.430	-0.040	0.005
-217.582	-100.055	0.140	0.035
-216.567	695.543	-0.160	0.418
-215.552	23.344	0.340	0.279
-214.538	-96.312	0.226	-0.060
-213.523	-200.000	0.025	-0.159
-212.509	-89.207	0.094	0.028
-211.494	568.164	-0.057	0.138
-210.479	16.785	0.093	-0.073
-209.465	800.000	-0.091	-0.287
-208.450	-15.195	-0.222	-0.142
-207.436	-39.830	0.105	0.055
-206.421	-79.782	0.112	0.037
-205.406	-52.174	0.158	-0.073
-204.392	153.011	-0.135	0.184
-203.377	31.484	-0.014	0.012
-202.363	-190.440	-0.091	0.001
-201.348	-95.583	-0.151	-0.040
-200.333	-84.846	-0.085	0.027
-199.319	-25.820	-0.307	0.181
-198.304	65.906	0.056	0.056
-197.290	267.146	0.086	-0.149
-196.275	242.540	0.143	-0.239
-195.260	-86.917	0.259	-0.079
-194.246	-4.449	-0.133	0.091
-193.231	118.324	0.154	-0.189
-192.217	800.000	0.104	0.402
-191.202	315.480	0.166	-0.313
-190.187	-156.139	0.075	0.005
-189.173	772.278	0.051	0.138
-188.158	-102.740	-0.188	0.045
-187.144	800.000	-0.027	0.090
-186.129	173.732	0.041	0.059
-185.114	800.000	0.088	0.304
-184.100	25.496	0.059	-0.049
-183.085	-200.000	0.037	-0.402
-182.071	-141.866	-0.218	0.022
-181.056	-200.000	-0.003	-0.076
-180.042	-112.572	0.196	0.039
-179.027	165.640	-0.054	0.076
-178.012	-72.556	-0.148	0.055
-176.998	-200.000	0.020	0.125
-175.983	35.229	-0.064	0.056
-174.969	185.988	-0.118	0.175
-173.954	-198.029	0.218	0.001
-172.939	285.193	0.069	0.124
-171.925	-200.000	0.013	-0.324
-170.910	-0.297	-0.183	-0.130
-169.896	241.135	-0.169	-0.281
-168.881	12.776	-0.224	-0.172
-167.866	94.419	0.190	0.215
-166.852	-54.864	-0.031	0.014
-165.837	-158.513	0.131	0.008
-164.823	-40.312	0.150	-0.078
-163.808	-160.327	0.129	0.007
-162.793	-36.592	0.181	0.097
-161.779	-41.459	-0.335	0.171
-160.764	-58.513	-0.153	-0.066
-159.750	-200.000	0.023	0.271
-158.735	-100.620	0.229	0.056
-157.720	223.841	0.046	0.074
-156.706	-28.611	0.027	0.016
-155.691	423.216	-0.183	0.390
-154.677	800.000	0.039	-0.147
-153.662	-120.432	-0.111	0.019
-152.647	-14.002	0.233	-0.150
-151.633	78.407	0.109	0.115
-150.618	-200.000	-0.015	0.286
-149.604	800.000	-0.039	-0.126
-148.589	-35.714	-0.249	0.134
-147.574	231.639	0.102	0.166
-146.560	78.370	-0.045	-0.048
-145.545	62.719	-0.083	0.083
-144.531	11.809	0.222	-0.170
-143.516	98.838	-0.106	-0.122
-142.502	-170.533	-0.169	-0.006
-141.487	55.723	0.206	0.198
-140.472	-49.953	-0.245	-0.115
-139.458	-65.810	0.197	0.079
-138.443	-23.441	0.227	0.135
-137.429	-142.140	-0.070	-0.007
-136.414	-200.000	0.061	-0.293
-135.399	-57.983	0.094	0.041
-134.385	-200.000	-0.008	0.057
-133.370	-39.355	-0.038	-0.020
-132.356	-71.978	0.211	-0.078
-131.341	210.022	0.069	0.107
-130.326	-141.537	0.181	0.018
-129.312	115.747	0.216	-0.263
-128.297	-50.609	-0.337	-0.158
-127.283	352.541	-0.024	-0.047
-126.268	580.280	0.090	0.220
-125.253	800.000	-0.130	0.407
-124.239	800.000	0.039	0.159
-123.224	-85.166	0.173	-0.054
-122.210	63.930	0.051	-0.051
