DTS Sentinel unit serial number:	SN413079Multiplexer serial number:	ORYXHardware model number:	OX4-SRSoftware version number:	ORYX F/W v4.00 Oryx Data Collector v3.7.2.0data status	okinstallation	princeton_trtdifferential loss correction	single-endedforward channel	channel 4reverse channel	N/Adate	2019/09/14time	03:53:35forward acquisition time	60.00reverse acquisition time	0.00gamma	496.2192k internal	0.2322k external	0.2322temperature offset calibration	1.0134default loss term (dB/km)	0.3790temperature slope calibration	1.0000multiplexer offset coefficient	1.0000multiplexer slope coefficient	1.0000fibre end	0.00T internal ref (°C)	26.67T ext. ref 1 (°C)	3.31T ext. ref 2 (°C)	21.69length (m)	temperature (°C)	Stokes	anti-Stokes-747.200	29.729	-0.112	0.097
-746.185	-52.440	-0.317	0.148
-745.171	-200.000	-0.039	-0.300
-744.156	287.589	-0.091	0.167
-743.142	-16.954	-0.136	0.087
-742.127	-40.082	0.283	0.149
-741.112	800.000	0.143	0.588
-740.098	427.195	-0.090	0.196
-739.083	-140.083	-0.407	-0.043
-738.069	-63.589	-0.182	0.075
-737.054	318.376	0.131	0.251
-736.039	24.059	0.114	0.095
-735.025	800.000	0.016	-0.063
-734.010	-66.733	-0.540	-0.216
-732.996	-133.551	-0.124	-0.016
-731.981	800.000	0.042	0.169
-730.966	-200.000	-0.024	-0.375
-729.952	-75.407	-0.292	-0.105
-728.937	-101.148	-0.251	-0.062
-727.923	-44.830	-0.108	-0.054
-726.908	-36.345	-0.108	0.059
-725.894	496.139	0.007	-0.016
-724.879	-200.000	0.087	0.479
-723.864	-200.000	-0.002	0.053
-722.850	-92.219	-0.042	-0.012
-721.835	145.758	-0.194	-0.262
-720.821	800.000	0.030	-0.089
-719.806	-200.000	0.338	0.001
-718.791	97.901	-0.160	-0.186
-717.777	242.130	0.126	0.212
-716.762	-157.731	0.182	-0.011
-715.748	-200.000	-0.016	0.080
-714.733	123.280	-0.040	-0.051
-713.718	420.187	0.183	0.396
-712.704	-183.707	-0.089	0.002
-711.689	140.945	0.166	-0.221
-710.675	-200.000	0.008	0.053
-709.660	-200.000	-0.025	-0.208
-708.645	-116.184	-0.135	-0.025
-707.631	-200.000	0.050	0.320
-706.616	-99.225	0.261	0.067
-705.602	-200.000	-0.046	-0.359
-704.587	67.920	-0.194	-0.200
-703.572	-200.000	-0.024	0.176
-702.558	597.894	0.059	-0.148
-701.543	-15.702	0.228	-0.147
-700.529	-3.771	-0.209	-0.147
-699.514	-107.680	0.315	0.069
-698.499	-36.126	-0.060	-0.033
-697.485	-92.242	-0.185	-0.053
-696.470	-51.983	0.345	-0.162
-695.456	178.298	0.139	-0.204
-694.441	199.258	0.189	-0.292
-693.426	-142.108	-0.148	-0.015
-692.412	-117.376	-0.385	0.070
-691.397	69.448	-0.254	0.263
-690.383	282.103	-0.084	-0.151
-689.368	25.478	-0.066	0.056
-688.354	-113.954	-0.243	-0.048
-687.339	-86.216	0.348	-0.108
-686.324	-144.858	0.167	-0.015
-685.310	-48.932	-0.345	-0.167
-684.295	376.299	0.083	-0.171
-683.281	378.335	-0.023	-0.048
-682.266	-200.000	-0.013	-0.330
-681.251	-200.000	-0.027	-0.145
-680.237	-31.902	0.216	0.122
-679.222	-17.083	-0.064	-0.041
-678.208	-200.000	-0.014	-0.223
-677.193	52.481	0.198	-0.190
-676.178	-200.000	-0.034	0.364
-675.164	-200.000	0.031	-0.215
-674.149	118.083	0.099	0.123
-673.135	800.000	0.113	0.335
-672.120	-97.564	0.047	0.012
-671.105	-200.000	0.006	-0.061
-670.091	13.401	-0.274	-0.214
-669.076	-200.000	0.005	-0.209
-668.062	800.000	-0.093	-0.260
-667.047	-96.882	-0.348	0.092
-666.032	133.085	0.242	-0.315
-665.018	125.941	0.068	0.086
-664.003	800.000	0.063	-0.202
-662.989	800.000	-0.094	-0.325
-661.974	216.191	0.123	-0.197
-660.959	-200.000	0.013	0.121
-659.945	71.946	0.142	0.149
-658.930	-1.035	0.149	0.106
-657.916	-200.000	-0.005	-0.023
-656.901	-200.000	-0.007	0.167
-655.886	24.220	0.044	0.036
-654.872	-200.000	-0.036	-0.239
-653.857	-91.518	-0.091	0.026
-652.843	139.693	-0.170	-0.226
-651.828	-200.000	0.001	-0.078
-650.814	-63.529	0.262	0.108
-649.799	-39.429	0.007	-0.004
-648.784	-200.000	-0.057	-0.370
-647.770	800.000	0.078	-0.242
-646.755	485.418	0.073	-0.167
-645.741	-90.445	0.167	-0.049
-644.726	371.935	-0.123	-0.251
-643.711	-77.556	0.304	0.106
-642.697	324.725	0.220	0.424
-641.682	163.543	-0.117	-0.165
-640.668	244.677	0.206	0.348
-639.653	44.232	-0.036	0.034
-638.638	298.622	-0.117	0.216
-637.624	-131.297	0.322	-0.043
-636.609	-86.253	-0.395	0.122
-635.595	-14.965	-0.129	-0.083
-634.580	-95.776	-0.281	0.076
-633.565	-18.650	0.154	0.097
-632.551	-22.035	-0.347	-0.212
-631.536	296.258	0.149	-0.275
-630.522	414.974	-0.169	0.362
-629.507	800.000	-0.044	-0.143
-628.492	-200.000	-0.026	-0.236
-627.478	369.581	-0.164	0.335
-626.463	599.811	-0.064	-0.160
-625.449	671.756	-0.061	0.158
-624.434	655.915	0.034	0.087
-623.419	-93.513	0.421	-0.117
-622.405	800.000	0.061	-0.179
-621.390	-187.321	0.441	0.006
-620.376	191.308	-0.145	0.220
-619.361	-200.000	0.009	-0.191
-618.346	-200.000	0.002	0.229
-617.332	108.821	-0.084	-0.100
-616.317	585.244	0.129	0.318
-615.303	-168.458	0.152	0.006
-614.288	490.940	-0.062	-0.142
-613.273	473.347	-0.067	-0.152
-612.259	-178.982	0.314	0.007
-611.244	-120.155	-0.312	0.054
-610.230	800.000	-0.043	0.137
-609.215	648.413	0.089	0.230
-608.201	179.832	0.023	-0.033
-607.186	-200.000	-0.003	-0.057
-606.171	-200.000	0.051	-0.228
-605.157	58.649	0.185	0.183
-604.142	46.031	0.131	-0.122
-603.128	-87.473	-0.166	-0.051
-602.113	511.976	0.115	-0.270
-601.098	48.069	0.164	-0.154
-600.084	-157.086	0.063	-0.004
-599.069	-75.357	-0.261	0.093
-598.055	12.192	-0.071	-0.055
-597.040	88.832	0.136	-0.152
-596.025	800.000	-0.090	-0.341
-595.011	669.170	-0.118	-0.306
-593.996	800.000	-0.084	-0.287
-592.982	-83.615	-0.181	-0.058
-591.967	-56.684	-0.407	-0.181
-590.952	-19.234	-0.052	-0.032
-589.938	-142.535	-0.125	-0.012
-588.923	-200.000	0.015	0.074
-587.909	800.000	-0.061	-0.201
-586.894	-200.000	-0.003	0.084
-585.879	-112.719	0.084	0.017
-584.865	333.764	-0.139	0.269
-583.850	800.000	0.046	0.172
-582.836	86.802	-0.269	-0.299
-581.821	-7.611	-0.159	-0.108
-580.806	-82.808	-0.234	-0.076
-579.792	-200.000	0.029	-0.244
-578.777	380.563	0.166	0.341
-577.763	-115.971	-0.113	-0.021
-576.748	-2.744	-0.441	0.309
-575.733	-113.034	-0.187	-0.037
-574.719	234.635	0.069	-0.114
-573.704	279.123	-0.300	-0.537
-572.690	800.000	-0.019	-0.059
-571.675	105.938	0.142	0.169
-570.661	62.784	0.138	0.139
-569.646	10.175	0.190	0.145
-568.631	-140.106	-0.318	0.034
-567.617	-149.887	-0.543	0.043
-566.602	-41.475	-0.295	0.152
-565.588	-44.171	-0.066	-0.033
-564.573	75.102	-0.189	0.200
-563.558	530.264	-0.139	0.330
-562.544	-200.000	-0.018	-0.111
-561.529	-31.588	-0.183	0.103
-560.515	-150.606	0.162	-0.012
-559.500	-200.000	-0.044	0.294
-558.485	367.462	0.029	-0.059
-557.471	167.263	0.128	0.182
-556.456	22.663	-0.165	0.135
-555.442	800.000	0.153	0.527
-554.427	-32.873	-0.138	0.077
-553.412	22.573	-0.237	-0.194
-552.398	800.000	0.097	0.348
-551.383	-187.589	-0.369	-0.005
-550.369	83.186	-0.331	0.362
-549.354	247.008	-0.008	0.013
-548.339	373.273	0.071	0.146
-547.325	-62.608	0.168	0.070
-546.310	106.221	0.076	-0.090
-545.296	-200.000	0.047	-0.338
-544.281	-200.000	-0.039	-0.374
-543.266	4.644	-0.042	0.031
-542.252	-122.870	0.168	-0.027
-541.237	78.074	-0.219	-0.234
-540.223	-109.747	-0.243	-0.051
-539.208	-200.000	-0.081	0.362
-538.193	81.807	0.043	-0.047
-537.179	-200.000	-0.014	0.313
-536.164	-200.000	0.009	-0.073
-535.150	-200.000	0.048	0.221
-534.135	-3.296	-0.498	0.348
-533.121	-200.000	-0.037	0.295
-532.106	-96.241	0.101	-0.027
-531.091	151.674	-0.209	-0.286
-530.077	-4.659	-0.015	0.011
-529.062	-200.000	-0.005	-0.158
-528.048	56.327	-0.076	-0.074
-527.033	67.409	-0.385	-0.393
-526.018	800.000	-0.063	-0.239
-525.004	-107.172	-0.216	0.048
-523.989	-70.702	0.192	0.072
-522.975	27.975	-0.146	-0.124
-521.960	-51.886	-0.333	-0.155
-520.945	70.260	0.108	-0.112
-519.931	800.000	0.048	0.136
-518.916	-167.919	-0.192	0.008
-517.902	-200.000	0.010	-0.079
-516.887	11.490	0.052	-0.040
-515.872	-15.167	-0.207	-0.133
-514.858	-59.182	0.186	-0.080
-513.843	29.725	-0.177	0.151
-512.829	-33.961	0.305	0.168
-511.814	-123.045	0.306	0.049
-510.799	627.030	0.120	0.302
-509.785	-13.912	0.304	0.196
-508.770	-34.396	0.337	0.185
-507.756	-200.000	-0.033	-0.196
-506.741	-102.128	0.220	-0.053
-505.726	800.000	-0.072	-0.269
-504.712	-22.506	0.051	-0.031
-503.697	587.326	-0.084	-0.208
-502.683	55.415	0.168	-0.163
-501.668	90.789	0.015	0.017
-500.653	133.756	0.107	0.139
-499.639	-75.150	0.390	0.140
-498.624	-200.000	0.001	-0.155
-497.610	-137.872	0.232	-0.026
-496.595	-200.000	0.009	0.324
-495.581	188.659	0.248	-0.371
-494.566	540.603	0.101	0.240
-493.551	-16.600	-0.126	-0.080
-492.537	397.515	-0.058	0.121
-491.522	800.000	-0.047	0.171
-490.508	43.077	0.248	0.226
-489.493	800.000	0.087	0.284
-488.478	-87.238	0.121	0.037
-487.464	-128.256	-0.066	-0.009
-486.449	-52.913	-0.221	-0.102
-485.435	-30.660	-0.135	0.076
-484.420	-38.436	0.241	-0.127
-483.405	-20.437	-0.241	-0.148
-482.391	531.556	0.103	-0.245
-481.376	-5.365	-0.404	-0.278
-480.362	-39.942	0.187	0.098
-479.347	800.000	-0.069	-0.200
-478.332	-200.000	0.025	0.272
-477.318	47.226	0.103	-0.096
-476.303	-200.000	0.050	0.276
-475.289	36.701	-0.134	0.119
-474.274	-200.000	-0.030	0.249
-473.259	-48.837	0.038	-0.018
-472.245	85.172	-0.023	0.025
-471.230	83.284	-0.103	0.112
-470.216	-200.000	-0.045	-0.363
-469.201	101.203	-0.024	0.028
-468.186	177.528	0.107	-0.156
-467.172	800.000	-0.021	-0.061
-466.157	292.809	-0.064	-0.117
-465.143	36.801	-0.148	0.131
-464.128	-135.154	-0.105	-0.013
-463.113	-88.319	-0.229	-0.069
-462.099	-189.418	0.191	-0.002
-461.084	-110.376	0.111	-0.023
-460.070	-95.225	0.140	-0.038
-459.055	-123.431	0.395	-0.063
-458.040	227.756	-0.061	-0.099
-457.026	-144.306	0.203	0.019
-456.011	-185.200	0.028	0.000
-454.997	52.730	-0.170	0.162
-453.982	273.303	-0.172	-0.304
-452.968	113.621	-0.167	-0.202
-451.953	101.774	-0.274	-0.320
-450.938	-38.399	0.165	-0.087
-449.924	-109.220	-0.212	-0.045
-448.909	-200.000	-0.057	0.339
-447.895	800.000	0.105	-0.316
-446.880	331.494	0.090	-0.173
-445.865	-47.404	0.026	0.013
-444.851	428.476	0.094	0.203
-443.836	218.999	0.051	-0.082
-442.822	800.000	-0.062	-0.268
-441.807	11.542	0.246	0.188
-440.792	-66.181	0.259	0.103
-439.778	-200.000	0.012	0.197
-438.763	-65.580	0.087	-0.035
-437.749	800.000	-0.058	0.249
-436.734	428.025	-0.070	-0.151
-435.719	-200.000	-0.005	-0.045
-434.705	800.000	-0.087	0.291
-433.690	2.667	0.204	-0.148
-432.676	-21.931	0.099	0.060
-431.661	155.128	0.138	-0.189
-430.646	800.000	0.045	0.159
-429.632	37.149	-0.335	-0.296
-428.617	-42.985	0.206	-0.104
-427.603	-117.779	0.193	0.035
-426.588	385.184	-0.085	0.175
-425.573	-200.000	-0.025	0.290
-424.559	177.371	-0.066	0.096
-423.544	345.058	0.057	-0.111
-422.530	-200.000	0.078	-0.353
-421.515	105.162	0.084	0.099
-420.500	-4.171	0.434	0.300
-419.486	119.752	-0.019	0.023
-418.471	89.961	-0.186	0.207
-417.457	-39.344	-0.178	-0.093
-416.442	319.948	0.087	0.164
-415.428	205.447	-0.230	-0.357
-414.413	100.502	0.008	-0.010
-413.398	476.839	-0.064	0.145
-412.384	-200.000	0.006	0.131
-411.369	274.991	0.097	0.171
-410.355	120.214	0.253	0.313
-409.340	-200.000	0.179	0.000
-408.325	-200.000	-0.020	-0.149
-407.311	800.000	0.057	-0.185
-406.296	800.000	-0.061	0.192
-405.282	-200.000	-0.013	0.204
-404.267	-114.885	0.204	0.039
-403.252	800.000	0.090	0.372
-402.238	129.781	0.163	-0.207
-401.223	-100.683	-0.202	0.050
-400.209	49.420	-0.336	-0.315
-399.194	-200.000	-0.007	-0.197
-398.179	-200.000	-0.024	-0.171
-397.165	-148.818	-0.316	-0.026
-396.150	24.869	0.145	0.120
-395.136	72.596	0.290	-0.301
-394.121	-74.926	0.125	-0.044
-393.106	-200.000	0.060	0.330
-392.092	-73.977	-0.397	0.143
-391.077	25.776	-0.103	-0.086
-390.063	-57.987	-0.400	-0.174
-389.048	107.826	-0.338	0.401
-388.033	-200.000	0.045	0.252
-387.019	166.254	0.116	-0.163
-386.004	-176.753	0.185	-0.005
-384.990	-200.000	0.018	0.247
-383.975	800.000	0.049	0.165
-382.960	-47.382	0.241	0.117
-381.946	79.795	0.085	-0.090
-380.931	72.473	0.163	-0.169
-379.917	446.432	-0.136	-0.297
-378.902	2.302	0.047	-0.034
-377.888	-146.890	0.209	-0.018
-376.873	64.846	0.202	0.203
-375.858	219.014	0.199	-0.317
-374.844	800.000	0.040	-0.138
-373.829	72.151	-0.034	-0.036
-372.815	156.452	0.101	-0.138
-371.800	8.893	0.040	-0.030
-370.785	-128.718	-0.383	-0.054
-369.771	-6.516	0.039	-0.027
-368.756	93.886	-0.144	-0.163
-367.742	236.274	-0.209	-0.344
-366.727	-79.774	0.217	0.073
-365.712	-200.000	-0.009	0.121
-364.698	-103.505	-0.089	0.021
-363.683	-152.832	0.230	0.016
-362.669	103.485	0.145	-0.170
-361.654	-38.374	0.156	-0.082
-360.639	-172.636	0.180	0.006
-359.625	-114.589	0.322	-0.061
-358.610	800.000	-0.073	-0.251
-357.596	10.473	0.240	0.182
-356.581	-4.322	0.129	-0.088
-355.566	-38.436	-0.175	-0.092
-354.552	-130.517	0.278	-0.037
-353.537	173.316	-0.232	0.332
-352.523	-200.000	-0.036	-0.249
-351.508	-200.000	-0.013	-0.328
-350.493	-115.150	-0.320	0.060
-349.479	-48.984	0.071	-0.034
-348.464	201.280	-0.164	-0.251
-347.450	16.488	0.110	0.086
-346.435	-186.332	-0.030	0.000
-345.420	-80.553	-0.107	0.035
-344.406	-200.000	-0.024	0.408
-343.391	525.593	0.056	0.132
-342.377	-54.623	-0.151	0.068
-341.362	-52.255	0.447	0.206
-340.348	-200.000	-0.026	0.262
-339.333	800.000	-0.080	-0.278
-338.318	-200.000	-0.052	-0.404
-337.304	387.784	0.145	-0.298
-336.289	-100.193	-0.303	0.075
-335.275	-69.839	0.253	-0.096
-334.260	-200.000	-0.010	0.057
-333.245	-162.183	0.204	0.010
-332.231	800.000	0.102	0.392
-331.216	-114.262	-0.057	-0.011
-330.202	-15.594	0.181	-0.115
-329.187	-93.718	0.134	0.037
-328.172	369.125	0.070	-0.141
-327.158	-38.799	-0.222	-0.116
-326.143	28.983	-0.096	-0.081
-325.129	-120.907	0.168	-0.028
-324.114	110.247	0.059	-0.071
-323.099	800.000	0.140	-0.420
-322.085	175.594	-0.239	0.344
-321.070	-154.396	-0.442	-0.029
-320.056	-151.618	0.103	-0.008
-319.041	269.170	-0.123	0.215
-318.026	566.811	0.146	0.353
-317.012	-62.152	-0.316	-0.131
-315.997	-68.859	0.350	0.134
-314.983	91.036	0.018	-0.020
-313.968	-65.535	0.059	-0.024
-312.953	-200.000	0.027	0.175
-311.939	-200.000	-0.012	0.118
-310.924	32.782	0.195	-0.167
-309.910	114.302	0.047	0.057
-308.895	305.837	-0.224	0.414
-307.880	-32.687	-0.179	0.099
-306.866	416.721	0.072	0.152
-305.851	-100.550	-0.251	0.062
-304.837	-80.675	0.510	0.169
-303.822	-93.774	-0.123	-0.034
-302.807	5.347	-0.141	-0.103
-301.793	289.818	0.188	0.339
-300.778	-99.472	0.055	-0.014
-299.764	-200.000	0.035	-0.362
-298.749	270.235	0.224	-0.391
-297.735	39.378	-0.020	0.018
-296.720	-33.772	-0.269	-0.147
-295.705	19.686	-0.408	0.326
-294.691	-100.997	0.234	0.057
-293.676	-111.941	-0.165	0.033
-292.662	15.812	0.027	-0.021
-291.647	-101.035	0.250	-0.061
-290.632	103.521	0.103	0.120
-289.618	-200.000	-0.045	-0.353
-288.603	17.095	0.101	-0.080
-287.589	13.358	-0.192	0.148
-286.574	-192.183	-0.444	0.004
-285.559	24.802	0.047	-0.038
-284.545	-200.000	0.037	0.246
-283.530	-25.442	0.117	-0.069
-282.516	463.858	0.141	0.313
-281.501	42.821	-0.155	0.140
-280.486	694.198	0.031	0.080
-279.472	-200.000	-0.039	0.322
-278.457	-139.407	-0.275	0.029
-277.443	244.946	-0.204	-0.339
-276.428	-65.581	0.284	0.113
-275.413	33.535	-0.057	0.049
-274.399	369.394	-0.058	0.116
-273.384	800.000	0.093	0.323
-272.370	430.888	0.124	-0.265
-271.355	-70.418	0.190	-0.071
-270.340	-118.817	-0.200	-0.035
-269.326	246.462	0.095	0.159
-268.311	235.443	-0.132	-0.216
-267.297	401.470	0.118	0.245
-266.282	-200.000	-0.018	0.144
-265.267	-200.000	0.016	0.250
-264.253	-140.527	0.190	-0.020
-263.238	-200.000	0.018	0.081
-262.224	323.166	-0.107	0.202
-261.209	4.396	0.312	-0.227
-260.195	-200.000	-0.052	0.295
-259.180	-9.160	-0.122	-0.081
-258.165	-177.553	-0.280	-0.007
-257.151	-96.312	-0.435	0.114
-256.136	-12.665	-0.485	-0.314
-255.122	-200.000	0.098	-0.481
-254.107	369.352	-0.156	-0.312
-253.092	520.769	0.065	-0.150
-252.078	-43.150	-0.079	-0.039
-251.063	-123.635	-0.189	0.030
-250.049	-118.384	-0.190	0.033
-249.034	90.138	-0.109	-0.120
-248.019	-34.727	0.122	-0.066
-247.005	-121.972	-0.185	0.030
-245.990	-200.000	0.027	0.136
-244.976	-200.000	0.013	-0.084
-243.961	490.223	0.199	-0.450
-242.946	715.063	0.072	0.188
-241.932	339.431	0.049	-0.095
-240.917	662.981	-0.081	-0.206
-239.903	124.082	0.229	0.284
-238.888	96.624	-0.298	0.338
-237.873	418.065	-0.216	0.457
-236.859	-82.893	0.196	0.063
-235.844	-136.194	0.338	-0.039
-234.830	-77.991	-0.167	-0.057
-233.815	-184.024	-0.343	0.006
-232.800	-52.648	-0.171	-0.078
-231.786	-182.607	0.142	0.003
-230.771	-200.000	-0.003	0.067
-229.757	449.531	0.013	0.029
-228.742	-138.769	0.428	0.046
-227.727	-200.000	0.002	0.255
-226.713	28.929	0.328	-0.275
-225.698	-80.796	-0.307	-0.101
-224.684	-8.757	0.065	-0.043
-223.669	-123.695	-0.126	-0.020
-222.655	194.552	0.155	-0.233
-221.640	800.000	0.146	0.518
-220.625	-45.981	0.181	0.088
-219.611	444.522	-0.063	0.137
-218.596	-200.000	-0.023	-0.173
-217.582	126.052	-0.118	0.148
-216.567	-150.959	0.097	0.007
-215.552	-121.639	-0.111	0.018
-214.538	221.332	0.210	0.334
-213.523	-42.658	-0.278	0.140
-212.509	-143.453	0.463	0.044
-211.494	-140.543	0.298	-0.031
-210.479	-200.000	-0.063	-0.326
-209.465	-156.402	0.179	-0.011
-208.450	-200.000	0.000	0.051
-207.436	319.231	-0.074	-0.138
-206.421	264.640	0.151	-0.260
-205.406	-16.462	-0.311	0.195
-204.392	-49.984	0.280	-0.131
-203.377	-8.123	-0.267	0.178
-202.363	-3.201	0.180	0.124
-201.348	174.525	0.048	-0.069
-200.333	-90.222	-0.219	0.063
-199.319	96.388	0.168	-0.190
-198.304	-166.393	0.100	0.004
-197.290	-200.000	-0.028	-0.134
-196.275	800.000	-0.037	0.114
-195.260	-118.076	0.450	0.079
-194.246	8.080	0.160	-0.119
-193.231	-123.741	0.075	-0.012
-192.217	-41.545	-0.227	0.115
-191.202	-1.578	0.279	-0.195
-190.187	46.546	-0.101	-0.092
-189.173	-35.879	0.245	-0.131
-188.158	98.228	0.164	-0.187
-187.144	-125.987	-0.311	0.046
-186.129	-200.000	-0.013	-0.059
-185.114	-59.735	-0.079	0.033
-184.100	-200.000	0.083	-0.481
-183.085	-200.000	-0.008	0.081
-182.071	-46.699	-0.085	0.041
-181.056	544.520	0.103	0.244
-180.042	-123.156	0.425	0.067
-179.027	-54.610	0.571	-0.255
-178.012	-78.865	0.043	0.015
-176.998	800.000	0.104	0.307
-175.983	41.210	0.179	0.160
-174.969	234.061	0.101	0.165
-173.954	83.119	0.196	-0.210
-172.939	-105.126	-0.232	0.052
-171.925	146.646	0.097	0.129
-170.910	8.106	-0.047	-0.035
-169.896	281.321	-0.052	-0.092
-168.881	11.273	-0.290	-0.219
-167.866	148.945	0.179	-0.239
-166.852	29.140	0.282	-0.236
-165.837	800.000	-0.113	0.339
-164.823	60.514	-0.344	0.336
-163.808	-12.452	-0.126	-0.081
-162.793	-26.043	0.166	0.096
-161.779	-200.000	-0.002	0.114
-160.764	-18.218	-0.322	-0.199
-159.750	363.534	-0.089	-0.176
-158.735	800.000	-0.054	-0.226
-157.720	210.450	0.105	0.162
-156.706	67.869	-0.162	-0.164
-155.691	188.748	-0.133	-0.196
-154.677	80.999	0.171	0.182
-153.662	206.674	0.095	0.146
-152.647	-200.000	-0.069	-0.436
-151.633	539.574	-0.082	0.194
-150.618	83.687	-0.111	0.119
-149.604	-113.013	0.106	-0.021
-148.589	-200.000	-0.032	0.276
-147.574	59.092	-0.166	0.161
-146.560	-200.000	-0.010	0.133
-145.545	-158.195	-0.242	-0.014
-144.531	157.559	0.016	0.022
-143.516	-200.000	0.025	-0.391
-142.502	-200.000	0.003	0.041
-141.487	-116.235	-0.102	0.019
-140.472	358.550	0.092	-0.181
-139.458	-79.007	-0.090	-0.030
-138.443	3.449	-0.099	0.071
-137.429	25.349	0.239	-0.196
-136.414	-18.320	-0.096	0.059
-135.399	177.453	-0.112	-0.161
-134.385	-115.434	-0.199	0.037
-133.370	-86.995	0.190	-0.057
-132.356	-115.189	-0.015	0.003
-131.341	-200.000	-0.003	-0.064
-130.326	800.000	-0.027	0.080
-129.312	-79.766	-0.132	0.044
-128.297	223.864	0.085	0.135
-127.283	530.622	-0.015	-0.034
-126.268	716.523	0.116	0.303
-125.253	165.219	0.304	0.423
-124.239	-135.293	-0.280	-0.033
-123.224	800.000	-0.013	-0.042
-122.210	-52.619	0.417	0.190
