DTS Sentinel unit serial number:	SN413079Multiplexer serial number:	ORYXHardware model number:	OX4-SRSoftware version number:	ORYX F/W v4.00 Oryx Data Collector v3.7.2.0data status	okinstallation	princeton_trtdifferential loss correction	single-endedforward channel	channel 4reverse channel	N/Adate	2019/09/13time	02:17:34forward acquisition time	60.00reverse acquisition time	0.00gamma	496.2192k internal	0.2320k external	0.2320temperature offset calibration	1.0181default loss term (dB/km)	0.3790temperature slope calibration	1.0000multiplexer offset coefficient	1.0000multiplexer slope coefficient	1.0000fibre end	0.00T internal ref (°C)	27.56T ext. ref 1 (°C)	3.90T ext. ref 2 (°C)	22.33length (m)	temperature (°C)	Stokes	anti-Stokes-747.200	625.688	0.076	-0.195
-746.185	233.559	-0.142	-0.236
-745.171	-181.535	-0.046	-0.001
-744.156	478.929	-0.030	0.069
-743.142	26.923	-0.100	0.085
-742.127	-150.472	-0.143	-0.011
-741.112	22.840	0.078	0.064
-740.098	602.922	0.070	-0.177
-739.083	130.845	0.070	0.091
-738.069	-169.316	-0.406	0.015
-737.054	596.239	0.146	0.364
-736.039	-79.148	-0.253	0.087
-735.025	-43.056	0.299	0.153
-734.010	194.956	-0.106	-0.163
-732.996	286.369	0.164	-0.299
-731.981	-66.953	-0.109	-0.044
-730.966	-200.000	0.043	-0.249
-729.952	-128.393	0.104	-0.015
-728.937	118.675	-0.185	0.232
-727.923	-68.196	-0.205	-0.081
-726.908	458.009	-0.053	-0.120
-725.894	-115.133	-0.182	0.035
-724.879	104.559	0.209	-0.249
-723.864	-169.753	-0.289	-0.011
-722.850	700.286	-0.103	-0.274
-721.835	-35.495	-0.320	0.176
-720.821	477.863	0.018	-0.041
-719.806	-58.572	0.223	-0.098
-718.791	-101.148	-0.285	-0.070
-717.777	-114.766	-0.322	-0.062
-716.762	-84.924	-0.069	0.022
-715.748	4.018	-0.180	0.133
-714.733	73.414	-0.059	-0.062
-713.718	31.570	0.067	-0.058
-712.704	-43.424	-0.121	-0.062
-711.689	-63.197	0.295	-0.123
-710.675	-32.227	-0.241	-0.136
-709.660	57.403	-0.059	0.058
-708.645	-200.000	-0.054	-0.314
-707.631	13.394	-0.156	0.122
-706.616	-200.000	0.014	0.117
-705.602	78.191	0.022	-0.023
-704.587	9.747	-0.180	-0.138
-703.572	24.931	0.148	-0.124
-702.558	800.000	-0.077	-0.224
-701.543	-172.965	0.275	0.009
-700.529	-44.019	0.187	-0.095
-699.514	-200.000	0.030	0.277
-698.499	-46.740	0.180	0.089
-697.485	-55.979	-0.263	0.118
-696.470	232.452	-0.120	0.199
-695.456	202.546	0.094	0.147
-694.441	292.048	0.027	-0.050
-693.426	202.303	0.138	-0.215
-692.412	702.566	0.109	-0.291
-691.397	-87.274	-0.250	-0.077
-690.383	-159.154	-0.284	-0.016
-689.368	-31.022	0.062	0.035
-688.354	-121.440	-0.139	0.023
-687.339	-113.136	0.307	0.061
-686.324	416.465	-0.097	0.209
-685.310	46.441	0.105	0.099
-684.295	-103.501	-0.189	-0.045
-683.281	42.941	0.275	-0.253
-682.266	90.562	-0.161	-0.182
-681.251	-181.040	0.117	0.002
-680.237	-200.000	0.002	0.149
-679.222	-39.246	0.339	-0.180
-678.208	-200.000	-0.357	0.000
-677.193	-99.393	0.190	0.048
-676.178	800.000	-0.060	-0.176
-675.164	800.000	0.028	-0.107
-674.149	-200.000	0.010	-0.240
-673.135	-158.360	-0.336	0.020
-672.120	-106.463	0.391	-0.088
-671.105	-94.625	-0.261	0.071
-670.091	136.351	-0.205	-0.270
-669.076	-3.053	0.102	-0.072
-668.062	-200.000	-0.019	0.167
-667.047	115.879	0.055	-0.068
-666.032	-1.025	0.147	0.105
-665.018	-16.751	0.127	0.081
-664.003	516.907	0.084	-0.199
-662.989	199.163	0.055	-0.085
-661.974	-79.431	-0.216	0.074
-660.959	778.140	-0.024	-0.067
-659.945	800.000	-0.046	0.182
-658.930	-122.709	0.124	-0.020
-657.916	79.572	-0.372	-0.402
-656.901	169.917	-0.129	0.185
-655.886	-25.866	0.211	-0.125
-654.872	543.732	0.099	-0.238
-653.857	-14.157	-0.339	-0.221
-652.843	-145.451	-0.234	0.021
-651.828	155.360	-0.033	-0.045
-650.814	-84.771	0.065	0.021
-649.799	96.446	-0.102	-0.118
-648.784	-96.215	-0.203	0.054
-647.770	298.929	-0.049	0.090
-646.755	-46.818	-0.088	-0.043
-645.741	-200.000	0.034	0.191
-644.726	274.177	0.120	0.214
-643.711	-36.606	0.330	0.179
-642.697	-90.069	0.309	0.091
-641.682	-200.000	0.014	-0.393
-640.668	41.439	-0.182	-0.166
-639.653	170.300	-0.069	-0.100
-638.638	230.377	-0.084	0.139
-637.624	85.423	0.101	0.112
-636.609	-112.947	-0.192	-0.038
-635.595	276.967	0.029	-0.051
-634.580	-37.496	0.204	0.109
-633.565	-200.000	-0.033	0.222
-632.551	-25.581	0.178	-0.106
-631.536	-157.115	0.333	0.020
-630.522	-39.969	0.197	0.104
-629.507	-200.000	0.016	0.192
-628.492	5.997	-0.289	0.215
-627.478	-200.000	0.038	-0.250
-626.463	645.323	0.039	-0.101
-625.449	572.596	0.121	-0.297
-624.434	32.136	0.188	-0.164
-623.419	-105.037	-0.083	0.019
-622.405	290.135	0.020	-0.036
-621.390	-200.000	-0.013	-0.335
-620.376	227.550	0.010	0.016
-619.361	85.699	0.179	0.198
-618.346	-38.369	-0.110	-0.059
-617.332	-93.354	0.149	0.041
-616.317	-16.558	0.350	0.223
-615.303	-30.249	0.021	0.012
-614.288	-165.475	0.169	-0.007
-613.273	96.832	0.131	0.151
-612.259	-102.609	-0.302	0.072
-611.244	800.000	-0.071	-0.261
-610.230	207.953	0.156	-0.246
-609.215	19.229	0.216	0.175
-608.201	-200.000	-0.017	0.098
-607.186	-123.867	-0.124	0.020
-606.171	-176.094	-0.464	0.012
-605.157	-107.545	0.145	-0.032
-604.142	9.414	-0.055	0.042
-603.128	-122.980	0.205	-0.033
-602.113	-76.509	0.282	0.100
-601.098	72.530	-0.091	-0.095
-600.084	-120.022	0.218	0.038
-599.069	-35.649	0.157	0.086
-598.055	490.846	0.185	-0.425
-597.040	-200.000	-0.037	-0.272
-596.025	-113.015	0.294	0.058
-595.011	200.781	-0.042	-0.065
-593.996	-110.976	-0.204	0.042
-592.982	71.721	0.067	-0.070
-591.967	800.000	-0.039	0.122
-590.952	-53.671	-0.257	-0.118
-589.938	-113.901	0.231	-0.045
-588.923	-73.858	0.407	-0.149
-587.909	-200.000	-0.000	0.277
-586.894	-114.440	-0.117	-0.023
-585.879	-17.107	0.081	-0.051
-584.865	57.528	0.138	-0.135
-583.850	800.000	0.103	-0.334
-582.836	800.000	-0.094	-0.288
-581.821	354.853	-0.152	0.304
-580.806	800.000	0.158	0.537
-579.792	-46.554	-0.139	-0.069
-578.777	-61.371	0.136	0.058
-577.763	103.019	0.075	-0.088
-576.748	-168.887	-0.319	-0.012
-575.733	-118.986	0.140	0.025
-574.719	623.698	-0.104	0.264
-573.704	314.961	-0.180	-0.342
-572.690	-111.508	-0.287	-0.059
-571.675	487.414	-0.011	-0.025
-570.661	-200.000	0.014	0.310
-569.646	239.919	0.105	-0.176
-568.631	264.643	0.040	-0.070
-567.617	16.353	-0.159	0.126
-566.602	-64.670	-0.155	0.063
-565.588	-76.585	-0.231	0.081
-564.573	-68.574	0.131	-0.051
-563.558	1.540	0.043	0.031
-562.544	-108.220	0.038	-0.008
-561.529	800.000	-0.069	-0.280
-560.515	-117.979	0.308	0.055
-559.500	585.834	-0.084	0.208
-558.485	800.000	0.063	-0.218
-557.471	126.937	-0.067	-0.085
-556.456	-76.126	-0.513	0.182
-555.442	-74.948	-0.171	-0.062
-554.427	333.613	0.100	-0.194
-553.412	48.554	-0.298	0.281
-552.398	800.000	-0.021	0.084
-551.383	-200.000	0.008	0.202
-550.369	-200.000	0.034	-0.261
-549.354	-17.900	-0.179	0.113
-548.339	-112.734	-0.145	-0.029
-547.325	-95.392	0.306	-0.082
-546.310	84.447	0.126	-0.139
-545.296	-57.592	-0.076	0.033
-544.281	-24.276	0.066	0.040
-543.266	-46.549	-0.080	-0.039
-542.252	134.879	-0.052	-0.067
-541.237	90.241	-0.105	-0.118
-540.223	272.496	0.174	0.309
-539.208	170.632	0.158	-0.226
-538.193	-200.000	0.015	-0.190
-537.179	800.000	0.081	0.327
-536.164	-10.161	0.115	-0.077
-535.150	67.201	0.152	-0.155
-534.135	91.786	-0.157	0.177
-533.121	-200.000	-0.018	-0.226
-532.106	-200.000	-0.004	-0.054
-531.091	12.218	-0.083	0.064
-530.077	625.122	-0.060	-0.153
-529.062	-200.000	-0.003	-0.115
-528.048	800.000	-0.062	0.201
-527.033	52.855	-0.247	-0.237
-526.018	-45.326	-0.141	0.070
-525.004	129.423	-0.201	0.258
-523.989	-20.429	-0.209	-0.129
-522.975	-30.811	-0.059	0.034
-521.960	74.538	0.257	0.271
-520.945	31.289	0.159	-0.137
-519.931	221.162	0.218	0.351
-518.916	800.000	0.024	-0.089
-517.902	-118.400	-0.131	-0.023
-516.887	74.072	-0.170	0.178
-515.872	-31.280	-0.036	0.020
-514.858	83.982	0.096	0.105
-513.843	190.337	-0.067	0.101
-512.829	-130.647	-0.195	-0.026
-511.814	-163.380	0.143	-0.007
-510.799	-87.104	-0.170	0.052
-509.785	12.013	0.169	-0.130
-508.770	-20.814	-0.263	-0.162
-507.756	-200.000	0.005	-0.066
-506.741	-22.211	0.169	-0.103
-505.726	-22.556	0.084	0.051
-504.712	-123.084	0.100	-0.016
-503.697	127.236	-0.044	0.056
-502.683	295.540	-0.118	-0.217
-501.668	-122.439	-0.202	0.033
-500.653	-200.000	0.056	0.344
-499.639	-200.000	0.024	-0.279
-498.624	-200.000	-0.024	-0.205
-497.610	-130.462	0.194	-0.026
-496.595	-79.500	0.110	-0.037
-495.581	-200.000	0.048	-0.468
-494.566	-40.767	0.235	-0.122
-493.551	-75.638	0.286	0.102
-492.537	99.861	0.081	0.094
-491.522	399.462	0.137	-0.287
-490.508	-200.000	0.003	0.062
-489.493	-85.957	-0.253	-0.078
-488.478	202.138	0.090	-0.139
-487.464	155.085	0.053	0.073
-486.449	60.819	0.033	-0.033
-485.435	-60.020	0.096	-0.041
-484.420	800.000	0.066	-0.286
-483.405	-200.000	-0.013	0.202
-482.391	-200.000	0.021	-0.164
-481.376	-67.323	0.372	0.146
-480.362	-26.815	-0.176	0.103
-479.347	180.088	0.142	-0.208
-478.332	-148.238	0.136	0.011
-477.318	-73.895	-0.572	-0.208
-476.303	412.771	-0.048	-0.102
-475.289	241.565	-0.045	-0.074
-474.274	-48.214	0.198	-0.096
-473.259	800.000	0.049	0.200
-472.245	-200.000	-0.015	-0.210
-471.230	-200.000	-0.007	0.185
-470.216	524.273	0.089	0.210
-469.201	-200.000	0.040	-0.185
-468.186	-17.305	-0.231	0.145
-467.172	194.171	-0.030	-0.045
-466.157	-130.433	-0.150	0.020
-465.143	156.763	-0.375	0.519
-464.128	156.197	-0.158	-0.218
-463.113	-103.022	0.194	-0.046
-462.099	42.327	0.140	0.127
-461.084	-167.174	-0.259	0.011
-460.070	-29.617	0.048	-0.028
-459.055	486.317	-0.092	-0.211
-458.040	13.864	0.067	0.052
-457.026	-79.976	-0.242	-0.081
-456.011	-109.300	-0.115	-0.024
-454.997	-79.449	0.428	-0.145
-453.982	119.281	0.058	-0.072
-452.968	61.229	-0.071	-0.070
-451.953	-56.611	-0.073	0.032
-450.938	589.823	0.027	-0.066
-449.924	129.477	0.095	-0.121
-448.909	45.135	0.141	0.130
-447.895	800.000	0.122	-0.357
-446.880	-24.983	-0.151	-0.090
-445.865	-200.000	0.012	0.162
-444.851	800.000	-0.063	-0.215
-443.836	4.454	-0.066	-0.049
-442.822	27.872	-0.190	0.160
-441.807	800.000	0.025	-0.073
-440.792	43.175	0.222	-0.203
-439.778	682.300	0.002	0.006
-438.763	-159.307	0.198	0.011
-437.749	800.000	-0.089	-0.322
-436.734	109.211	-0.169	-0.203
-435.719	6.086	-0.158	-0.117
-434.705	246.757	0.146	-0.247
-433.690	33.833	-0.419	0.364
-432.676	-154.887	-0.184	0.012
-431.661	-200.000	-0.013	-0.562
-430.646	-70.914	-0.149	-0.056
-429.632	-24.094	-0.263	0.157
-428.617	72.905	0.121	-0.126
-427.603	-127.389	-0.217	-0.032
-426.588	5.631	0.249	0.184
-425.573	-111.703	0.199	0.040
-424.559	-90.316	-0.239	0.069
-423.544	-170.805	0.160	0.005
-422.530	800.000	0.038	0.127
-421.515	-200.000	-0.004	0.044
-420.500	290.047	0.090	0.163
-419.486	-64.766	-0.387	-0.156
-418.471	-19.765	0.055	-0.034
-417.457	407.895	-0.014	0.029
-416.442	62.517	-0.274	0.274
-415.428	258.347	0.090	0.155
-414.413	-200.000	-0.029	-0.239
-413.398	337.276	0.100	0.194
-412.384	-200.000	-0.382	0.002
-411.369	9.209	-0.195	0.147
-410.355	534.999	0.045	-0.108
-409.340	142.353	-0.034	-0.044
-408.325	-141.985	-0.304	-0.030
-407.311	-116.230	0.247	-0.046
-406.296	111.073	0.213	0.256
-405.282	-79.284	0.177	0.060
-404.267	616.083	-0.039	0.097
-403.252	62.130	-0.111	-0.110
-402.238	800.000	0.088	-0.322
-401.223	-89.997	0.167	-0.049
-400.209	-200.000	-0.025	0.128
-399.194	-40.014	0.125	-0.065
-398.179	0.185	0.116	0.082
-397.165	-13.498	-0.170	0.110
-396.150	-200.000	0.032	0.145
-395.136	-104.672	-0.168	0.039
-394.121	-126.979	-0.271	-0.040
-393.106	-85.765	0.183	-0.057
-392.092	-179.192	-0.274	-0.006
-391.077	374.313	-0.087	-0.176
-390.063	2.092	0.294	-0.212
-389.048	-71.297	-0.233	-0.087
-388.033	120.177	-0.153	0.189
-387.019	442.490	0.034	-0.073
-386.004	-30.703	0.276	-0.156
-384.990	102.738	0.141	0.165
-383.975	800.000	-0.030	-0.117
-382.960	48.381	0.093	0.087
-381.946	58.981	-0.249	0.244
-380.931	-54.251	0.246	-0.111
-379.917	-10.305	-0.077	-0.051
-378.902	388.590	0.016	-0.033
-377.888	-93.352	0.091	0.025
-376.873	367.184	-0.025	-0.051
-375.858	-167.766	0.087	-0.003
-374.844	186.238	0.157	0.233
-373.829	-53.784	-0.288	0.131
-372.815	184.385	0.012	-0.018
-371.800	49.180	-0.329	0.308
-370.785	-16.721	-0.085	0.054
-369.771	-200.000	0.034	0.231
-368.756	800.000	0.017	-0.054
-367.742	146.562	0.170	0.227
-366.727	-122.393	0.283	0.046
-365.712	-200.000	0.025	0.132
-364.698	-88.449	0.072	0.021
-363.683	-150.450	0.204	-0.016
-362.669	270.790	0.118	0.207
-361.654	107.729	0.061	0.073
-360.639	50.428	0.030	0.028
-359.625	-72.191	0.146	0.054
-358.610	-93.478	-0.206	0.057
-357.596	153.160	0.086	0.118
-356.581	-79.758	0.125	-0.042
-355.566	415.661	-0.050	-0.106
-354.552	8.773	-0.444	-0.333
-353.537	-157.830	0.244	-0.014
-352.523	-42.979	0.074	-0.038
-351.508	800.000	0.036	0.135
-350.493	-49.526	-0.239	-0.113
-349.479	800.000	0.074	0.261
-348.464	-88.218	-0.241	0.072
-347.450	-59.602	-0.150	0.064
-346.435	-200.000	0.003	0.427
-345.420	800.000	0.083	-0.250
-344.406	-2.094	0.167	0.117
-343.391	-186.060	-0.224	-0.003
-342.377	94.371	0.235	0.266
-341.362	138.997	-0.128	-0.167
-340.348	-113.030	0.266	-0.052
-339.333	-136.913	0.122	-0.014
-338.318	206.197	0.113	-0.176
-337.304	291.052	-0.036	-0.066
-336.289	-85.011	0.191	-0.060
-335.275	-155.153	-0.269	0.017
-334.260	-56.732	0.313	-0.138
-333.245	-167.318	-0.237	-0.010
-332.231	-119.199	-0.157	-0.027
-331.216	176.083	-0.220	0.319
-330.202	-90.027	-0.232	-0.067
-329.187	-70.258	0.083	0.031
-328.172	-5.630	-0.375	-0.256
-327.158	351.571	-0.112	-0.220
-326.143	-200.000	-0.040	0.187
-325.129	-22.968	0.145	-0.087
-324.114	396.488	-0.063	-0.131
-323.099	800.000	-0.101	-0.347
-322.085	314.210	-0.069	-0.128
-321.070	-125.227	0.050	-0.008
-320.056	800.000	-0.047	0.175
-319.041	-71.433	0.229	-0.085
-318.026	-38.348	-0.194	-0.102
-317.012	84.275	-0.152	0.165
-315.997	-172.102	0.152	-0.005
-314.983	18.813	0.169	-0.135
-313.968	62.651	0.143	0.143
-312.953	172.189	0.012	0.017
-311.939	-165.778	-0.239	-0.010
-310.924	-38.760	-0.165	0.086
-309.910	-83.113	0.039	-0.013
-308.895	-115.848	0.151	0.028
-307.880	443.551	0.091	-0.199
-306.866	15.652	0.092	-0.072
-305.851	-34.870	0.028	0.015
-304.837	800.000	-0.114	-0.367
-303.822	-36.154	-0.284	-0.152
-302.807	38.785	-0.199	-0.177
-301.793	-48.639	-0.350	0.167
-300.778	-200.000	-0.027	-0.130
-299.764	2.436	-0.037	0.026
-298.749	-200.000	0.001	-0.166
-297.735	-200.000	-0.015	-0.078
-296.720	-49.295	0.160	0.076
-295.705	129.684	0.056	-0.071
-294.691	800.000	-0.064	-0.239
-293.676	-177.072	0.197	0.005
-292.662	643.679	-0.090	0.228
-291.647	79.660	-0.119	0.127
-290.632	800.000	-0.054	0.173
-289.618	55.066	-0.157	0.151
-288.603	-64.309	-0.066	0.027
-287.589	-165.174	0.145	0.006
-286.574	-45.900	-0.256	0.126
-285.559	-200.000	-0.029	-0.265
-284.545	-143.065	0.499	0.048
-283.530	-200.000	-0.013	0.250
-282.516	-42.206	0.165	0.084
-281.501	-37.719	-0.228	0.120
-280.486	47.160	0.054	-0.050
-279.472	218.126	-0.034	0.054
-278.457	142.048	-0.162	0.213
-277.443	110.721	-0.218	0.260
-276.428	-75.272	-0.191	0.068
-275.413	-200.000	0.004	0.122
-274.399	800.000	-0.007	0.021
-273.384	800.000	-0.064	0.232
-272.370	800.000	-0.025	-0.070
-271.355	-82.549	0.160	-0.051
-270.340	-200.000	0.029	0.254
-269.326	800.000	-0.096	0.378
-268.311	742.222	0.113	0.301
-267.297	268.703	0.105	0.182
-266.282	790.602	-0.148	-0.402
-265.267	84.004	-0.326	-0.353
-264.253	-131.440	0.343	-0.045
-263.238	-200.000	-0.044	0.218
-262.224	800.000	-0.062	0.173
-261.209	84.855	0.119	0.130
-260.195	-162.947	0.173	-0.008
-259.180	-70.118	0.115	0.043
-258.165	338.789	-0.062	-0.121
-257.151	59.521	0.291	-0.285
-256.136	79.670	-0.133	0.142
-255.122	377.286	-0.098	-0.200
-254.107	-35.123	-0.117	-0.063
-253.092	191.096	-0.127	-0.189
-252.078	681.388	-0.105	0.272
-251.063	138.953	-0.135	-0.177
-250.049	410.159	-0.031	-0.066
-249.034	92.312	0.183	0.204
-248.019	-55.895	-0.139	-0.061
-247.005	-91.156	0.250	0.071
-245.990	-47.573	-0.139	0.067
-244.976	800.000	0.063	-0.179
-243.961	-132.386	-0.230	0.029
-242.946	-68.515	-0.149	-0.057
-241.932	-145.654	0.144	0.013
-240.917	149.384	0.167	-0.224
-239.903	-23.101	-0.302	-0.180
-238.888	16.742	0.327	0.257
-237.873	64.480	0.168	0.167
-236.859	-200.000	0.037	0.192
-235.844	-200.000	-0.022	0.460
-234.830	709.356	-0.074	0.193
-233.815	425.729	-0.159	-0.340
-232.800	638.587	-0.097	-0.244
-231.786	-198.898	0.085	-0.000
-230.771	597.522	0.218	0.536
-229.757	72.484	0.148	-0.153
-228.742	150.646	-0.097	-0.130
-227.727	97.943	-0.119	0.136
-226.713	417.087	-0.118	-0.249
-225.698	38.693	-0.187	0.165
-224.684	-47.741	-0.085	-0.041
-223.669	424.103	0.122	0.261
-222.655	-59.410	0.307	-0.131
-221.640	800.000	-0.117	0.376
-220.625	-37.702	0.237	0.125
-219.611	20.315	0.195	-0.156
-218.596	-116.419	0.115	-0.021
-217.582	-162.749	-0.159	0.008
-216.567	-200.000	0.007	-0.048
-215.552	80.314	0.269	0.286
-214.538	24.488	-0.220	0.181
-213.523	120.591	-0.128	-0.157
-212.509	-163.073	-0.208	-0.010
-211.494	-45.426	0.129	-0.063
-210.479	800.000	0.090	0.296
-209.465	-112.587	-0.200	-0.039
-208.450	-105.763	0.368	-0.082
-207.436	800.000	0.040	0.161
-206.421	800.000	-0.053	0.215
-205.406	-55.934	-0.185	-0.082
-204.392	-200.000	-0.026	0.157
-203.377	800.000	0.081	-0.335
-202.363	-176.738	-0.276	0.007
-201.348	-159.313	-0.160	0.009
-200.333	350.895	-0.021	-0.041
-199.319	-200.000	0.090	-0.425
-198.304	-175.981	0.327	-0.009
-197.290	-68.488	0.179	-0.069
-196.275	233.692	-0.093	0.152
-195.260	-176.993	0.150	-0.004
-194.246	83.515	-0.133	0.143
-193.231	-200.000	0.006	0.470
-192.217	59.257	0.103	0.100
-191.202	-124.519	-0.210	-0.032
-190.187	200.858	-0.155	0.237
-189.173	-200.000	-0.019	0.084
-188.158	-200.000	0.008	-0.193
-187.144	-80.929	0.226	0.074
-186.129	-36.928	0.258	-0.137
-185.114	-48.585	0.064	0.031
-184.100	-28.409	-0.234	-0.134
-183.085	491.996	0.100	-0.226
-182.071	200.402	-0.072	0.110
-181.056	-200.000	0.019	-0.446
-180.042	-43.770	0.455	-0.226
-179.027	198.584	0.061	0.093
-178.012	-129.715	0.293	-0.040
-176.998	800.000	0.013	0.046
-175.983	9.688	-0.274	0.205
-174.969	-67.583	-0.070	0.027
-173.954	-127.818	0.121	-0.017
-172.939	305.329	-0.046	0.085
-171.925	-200.000	0.008	-0.532
-170.910	-200.000	-0.020	-0.162
-169.896	-75.867	0.249	0.087
-168.881	15.072	0.110	-0.085
-167.866	173.871	-0.116	0.166
-166.852	800.000	0.095	0.262
-165.837	195.307	0.149	0.224
-164.823	-138.269	0.141	-0.015
-163.808	-100.697	-0.176	-0.043
-162.793	249.057	-0.038	0.064
-161.779	3.924	0.197	-0.142
-160.764	-55.035	-0.202	-0.090
-159.750	-53.273	0.243	-0.110
-158.735	117.951	0.166	-0.203
-157.720	-103.362	0.341	0.079
-156.706	-110.518	-0.251	0.051
-155.691	15.669	-0.259	0.202
-154.677	1.241	0.140	0.099
-153.662	-63.497	-0.113	0.046
-152.647	-86.904	0.072	0.022
-151.633	-89.192	-0.106	0.031
-150.618	558.946	0.078	0.186
-149.604	-77.486	-0.112	-0.039
-148.589	-78.168	0.337	0.115
-147.574	28.385	-0.070	0.059
-146.560	50.325	-0.115	0.107
-145.545	800.000	0.061	-0.256
-144.531	-200.000	-0.078	0.409
-143.516	-17.581	0.112	0.069
-142.502	-102.228	0.248	0.059
-141.487	350.657	-0.143	0.280
-140.472	-200.000	-0.034	0.231
-139.458	-158.973	-0.336	-0.019
-138.443	-200.000	0.032	0.361
-137.429	221.837	-0.058	0.092
-136.414	19.154	0.288	-0.228
-135.399	299.690	-0.057	-0.105
-134.385	-130.747	0.585	-0.078
-133.370	-145.604	-0.035	-0.003
-132.356	181.239	-0.067	-0.097
-131.341	-179.157	0.282	-0.006
-130.326	430.667	-0.012	-0.027
-129.312	800.000	0.044	-0.174
-128.297	20.720	-0.223	0.179
-127.283	-112.270	0.312	-0.062
-126.268	-66.282	0.314	-0.123
-125.253	-200.000	-0.037	0.158
-124.239	-133.351	0.017	0.002
-123.224	-100.502	-0.361	0.088
-122.210	-200.000	0.101	0.492
-121.195	-72.221	0.235	-0.086
