DTS Sentinel unit serial number:	SN413079Multiplexer serial number:	ORYXHardware model number:	OX4-SRSoftware version number:	ORYX F/W v4.00 Oryx Data Collector v3.7.2.0data status	okinstallation	princeton_trtdifferential loss correction	single-endedforward channel	channel 4reverse channel	N/Adate	2019/09/13time	00:17:34forward acquisition time	60.00reverse acquisition time	0.00gamma	496.2192k internal	0.2317k external	0.2317temperature offset calibration	1.0174default loss term (dB/km)	0.3790temperature slope calibration	1.0000multiplexer offset coefficient	1.0000multiplexer slope coefficient	1.0000fibre end	0.00T internal ref (°C)	28.50T ext. ref 1 (°C)	3.76T ext. ref 2 (°C)	23.17length (m)	temperature (°C)	Stokes	anti-Stokes-747.200	105.430	0.175	0.210
-746.185	-48.258	-0.108	0.053
-745.171	-101.276	-0.239	-0.059
-744.156	-85.896	-0.270	0.085
-743.142	554.978	0.030	0.073
-742.127	-115.218	-0.315	-0.060
-741.112	226.741	0.105	-0.172
-740.098	-200.000	-0.099	0.540
-739.083	-17.890	0.308	-0.196
-738.069	-35.820	-0.262	-0.144
-737.054	-200.000	-0.001	0.018
-736.039	-147.153	-0.263	0.023
-735.025	540.460	0.064	0.154
-734.010	800.000	-0.081	0.340
-732.996	449.634	-0.128	0.287
-731.981	329.433	0.065	0.127
-730.966	-70.403	-0.106	-0.041
-729.952	117.258	-0.045	0.056
-728.937	-200.000	0.024	-0.370
-727.923	26.910	-0.072	0.061
-726.908	555.021	-0.105	0.255
-725.894	800.000	-0.048	0.168
-724.879	-5.110	-0.218	0.152
-723.864	-45.374	-0.205	0.103
-722.850	511.503	0.135	-0.318
-721.835	11.841	0.231	-0.180
-720.821	-110.713	-0.256	-0.053
-719.806	20.579	-0.263	0.215
-718.791	-35.268	0.038	0.021
-717.777	-65.502	-0.211	-0.086
-716.762	-90.252	-0.246	0.072
-715.748	-49.775	-0.163	-0.078
-714.733	-200.000	-0.009	-0.117
-713.718	343.068	0.103	-0.204
-712.704	-200.000	-0.026	0.177
-711.689	-117.738	0.190	-0.034
-710.675	160.075	-0.123	0.173
-709.660	-113.737	0.206	0.041
-708.645	195.433	0.139	-0.213
-707.631	24.966	-0.198	0.166
-706.616	-113.715	-0.253	0.050
-705.602	-89.194	-0.326	-0.097
-704.587	54.188	0.195	0.190
-703.572	-164.752	0.103	-0.005
-702.558	337.931	0.099	-0.195
-701.543	73.965	0.201	-0.213
-700.529	232.459	0.028	0.046
-699.514	-18.887	-0.136	0.085
-698.499	243.055	0.167	-0.282
-697.485	62.430	-0.169	0.170
-696.470	-200.000	-0.000	0.072
-695.456	18.320	-0.204	-0.165
-694.441	-47.536	0.219	-0.108
-693.426	32.530	-0.090	0.079
-692.412	79.534	0.126	-0.137
-691.397	314.213	0.055	0.105
-690.383	305.003	-0.212	-0.398
-689.368	-200.000	-0.019	-0.157
-688.354	-200.000	-0.001	0.068
-687.339	315.982	-0.154	-0.293
-686.324	8.452	-0.131	-0.099
-685.310	119.046	0.128	-0.160
-684.295	-200.000	-0.009	-0.061
-683.281	181.353	-0.082	0.121
-682.266	-200.000	0.037	0.233
-681.251	-88.641	-0.200	0.060
-680.237	-63.174	0.223	0.093
-679.222	92.252	-0.103	0.117
-678.208	11.506	0.187	0.145
-677.193	-88.835	-0.223	-0.067
-676.178	800.000	0.086	-0.361
-675.164	800.000	-0.063	0.197
-674.149	-32.698	-0.240	0.135
-673.135	67.933	-0.143	0.148
-672.120	800.000	-0.046	-0.180
-671.105	800.000	-0.051	-0.153
-670.091	782.787	-0.111	-0.307
-669.076	581.119	0.081	0.200
-668.062	-107.204	-0.136	0.030
-667.047	-160.525	-0.186	-0.010
-666.032	251.021	0.073	0.125
-665.018	-144.390	0.557	0.052
-664.003	558.501	-0.081	-0.198
-662.989	-200.000	0.014	-0.247
-661.974	-200.000	-0.079	-0.394
-660.959	7.945	-0.162	0.122
-659.945	266.258	0.100	-0.176
-658.930	493.346	-0.109	-0.253
-657.916	800.000	-0.081	-0.252
-656.901	-200.000	-0.103	0.000
-655.886	-200.000	0.006	0.119
-654.872	-200.000	0.046	-0.218
-653.857	336.511	-0.076	-0.149
-652.843	207.228	-0.035	-0.054
-651.828	73.287	-0.275	0.290
-650.814	-167.312	0.388	0.016
-649.799	-83.803	-0.231	-0.074
-648.784	-106.714	-0.221	0.050
-647.770	217.125	0.075	0.120
-646.755	-9.471	-0.133	-0.089
-645.741	-200.000	-0.045	-0.248
-644.726	800.000	0.044	-0.145
-643.711	173.543	-0.057	-0.083
-642.697	-32.432	0.187	0.105
-641.682	800.000	-0.070	-0.254
-640.668	-68.129	0.181	0.071
-639.653	26.117	0.024	0.020
-638.638	-123.688	-0.321	0.051
-637.624	-58.582	0.154	-0.067
-636.609	140.058	-0.181	-0.241
-635.595	115.486	-0.313	0.385
-634.580	0.670	0.165	-0.119
-633.565	800.000	-0.129	-0.375
-632.551	47.103	0.319	0.299
-631.536	126.312	0.193	0.246
-630.522	-55.936	0.178	0.080
-629.507	-1.742	-0.079	0.056
-628.492	32.821	0.135	0.118
-627.478	-95.433	0.065	0.018
-626.463	-32.486	-0.242	0.136
-625.449	-165.448	-0.176	-0.008
-624.434	121.081	-0.021	-0.026
-623.419	-123.052	-0.071	-0.011
-622.405	289.827	-0.197	0.360
-621.390	14.601	0.287	0.226
-620.376	209.371	0.200	-0.315
-619.361	16.933	-0.117	0.093
-618.346	27.643	0.274	-0.233
-617.332	-119.088	-0.205	-0.036
-616.317	-200.000	0.135	-0.755
-615.303	800.000	-0.050	-0.138
-614.288	-131.750	-0.382	0.050
-613.273	-98.630	-0.208	-0.054
-612.259	270.014	-0.127	-0.225
-611.244	-92.799	-0.275	-0.077
-610.230	-97.342	-0.322	0.085
-609.215	-84.641	0.299	0.095
-608.201	302.716	-0.171	0.320
-607.186	-78.086	0.028	-0.010
-606.171	68.460	0.073	0.075
-605.157	-69.253	-0.158	-0.061
-604.142	334.614	-0.184	-0.359
-603.128	-136.221	0.176	0.021
-602.113	-77.637	-0.183	0.064
-601.098	198.652	-0.143	-0.220
-600.084	243.028	0.226	-0.381
-599.069	-33.971	-0.063	0.035
-598.055	577.631	-0.097	-0.240
-597.040	-114.182	-0.097	-0.019
-596.025	800.000	-0.102	-0.307
-595.011	-192.539	-0.327	0.003
-593.996	-200.000	0.010	-0.192
-592.982	1.879	-0.143	0.104
-591.967	240.236	-0.305	-0.512
-590.952	-200.000	-0.068	-0.323
-589.938	10.586	-0.306	-0.235
-588.923	-85.071	0.249	-0.079
-587.909	-200.000	-0.049	-0.411
-586.894	-165.583	-0.171	-0.007
-585.879	90.040	0.234	0.263
-584.865	266.507	0.101	0.178
-583.850	-56.394	-0.123	-0.055
-582.836	9.189	-0.051	-0.039
-581.821	496.228	0.128	0.296
-580.806	238.467	0.126	0.210
-579.792	-200.000	-0.014	0.096
-578.777	-123.912	-0.256	0.041
-577.763	-83.967	-0.122	-0.039
-576.748	168.420	-0.082	-0.118
-575.733	402.309	0.088	0.185
-574.719	79.911	0.008	0.009
-573.704	682.376	-0.055	-0.145
-572.690	-68.548	-0.190	0.074
-571.675	-5.137	0.216	0.149
-570.661	800.000	-0.080	0.301
-569.646	383.608	-0.119	-0.247
-568.631	-51.620	0.380	0.178
-567.617	-200.000	0.058	-0.287
-566.602	-200.000	0.004	-0.170
-565.588	-109.684	0.275	0.058
-564.573	-91.264	0.126	0.036
-563.558	67.877	-0.046	0.048
-562.544	-67.460	0.396	0.156
-561.529	-2.931	-0.075	0.053
-560.515	69.907	0.200	-0.208
-559.500	-200.000	-0.005	0.158
-558.485	800.000	0.029	0.114
-557.471	-98.709	0.438	-0.112
-556.456	68.034	-0.098	0.101
-555.442	-172.099	0.093	0.003
-554.427	-200.000	-0.007	-0.194
-553.412	-145.646	-0.148	-0.013
-552.398	99.038	-0.094	-0.109
-551.383	-200.000	-0.039	-0.411
-550.369	-200.000	-0.017	-0.470
-549.354	269.084	0.103	-0.182
-548.339	178.514	-0.138	-0.203
-547.325	-62.992	0.070	0.029
-546.310	-36.777	-0.116	0.062
-545.296	-79.594	-0.109	0.037
-544.281	-114.074	0.320	0.062
-543.266	412.475	0.134	-0.286
-542.252	-105.951	-0.179	0.040
-541.237	31.172	-0.190	0.164
-540.223	-200.000	0.029	-0.450
-539.208	-84.642	0.218	0.069
-538.193	-47.918	-0.184	0.089
-537.179	-119.277	-0.116	0.020
-536.164	-162.090	0.377	-0.019
-535.150	800.000	0.059	-0.251
-534.135	59.680	-0.131	0.130
-533.121	-200.000	0.048	0.227
-532.106	733.576	-0.087	-0.235
-531.091	58.495	0.132	-0.130
-530.077	-157.382	-0.113	-0.007
-529.062	-15.967	-0.308	-0.197
-528.048	-31.592	-0.114	0.064
-527.033	-23.573	-0.110	-0.066
-526.018	-200.000	-0.037	0.291
-525.004	-200.000	0.033	-0.342
-523.989	294.402	-0.025	-0.046
-522.975	-198.293	0.138	0.001
-521.960	309.030	0.061	0.114
-520.945	-200.000	-0.033	-0.223
-519.931	62.654	-0.280	-0.281
-518.916	-26.847	0.172	0.101
-517.902	-28.436	0.320	-0.185
-516.887	-33.465	0.277	-0.154
-515.872	-22.230	-0.054	-0.033
-514.858	-65.569	-0.302	0.122
-513.843	-20.604	0.370	-0.228
-512.829	31.654	-0.165	-0.142
-511.814	61.317	-0.166	0.165
-510.799	800.000	-0.038	-0.165
-509.785	-200.000	-0.020	0.148
-508.770	93.971	0.053	-0.060
-507.756	-77.029	-0.027	0.010
-506.741	-30.203	-0.107	-0.061
-505.726	10.118	-0.290	-0.222
-504.712	-79.904	-0.190	0.064
-503.697	-144.377	0.312	-0.029
-502.683	204.487	-0.183	0.284
-501.668	-159.600	-0.034	0.002
-500.653	-69.878	-0.065	0.025
-499.639	-111.388	0.190	0.039
-498.624	35.087	-0.112	-0.099
-497.610	800.000	-0.059	-0.195
-496.595	83.421	0.163	-0.178
-495.581	456.988	0.128	0.285
-494.566	511.151	-0.147	-0.342
-493.551	-48.849	-0.194	-0.093
-492.537	-169.000	0.231	0.009
-491.522	800.000	-0.045	0.194
-490.508	-132.975	0.317	-0.040
-489.493	-137.724	0.108	0.012
-488.478	29.000	-0.422	0.358
-487.464	6.405	0.029	0.022
-486.449	-7.207	-0.239	-0.163
-485.435	800.000	0.157	0.493
-484.420	-87.970	-0.095	-0.029
-483.405	-200.000	-0.005	0.167
-482.391	-14.961	-0.260	-0.167
-481.376	-23.260	-0.054	0.033
-480.362	-174.141	-0.104	-0.003
-479.347	800.000	0.100	-0.296
-478.332	-84.628	-0.139	0.044
-477.318	-18.744	-0.082	-0.051
-476.303	537.655	0.034	0.082
-475.289	-1.799	0.094	0.066
-474.274	223.559	-0.128	-0.207
-473.259	423.874	-0.110	0.237
-472.245	-85.764	0.244	-0.076
-471.230	-75.459	0.050	-0.018
-470.216	287.258	-0.120	0.217
-469.201	103.801	-0.066	0.078
-468.186	4.346	-0.187	0.138
-467.172	95.019	0.114	-0.130
-466.157	-200.000	0.059	-0.306
-465.143	800.000	-0.074	0.257
-464.128	271.086	0.149	-0.263
-463.113	-154.376	-0.195	0.013
-462.099	80.897	-0.213	0.231
-461.084	-46.611	-0.130	-0.064
-460.070	-1.666	0.020	0.014
-459.055	-40.675	0.428	-0.222
-458.040	137.769	0.200	-0.262
-457.026	-124.779	-0.062	-0.010
-456.011	44.431	-0.190	0.175
-454.997	15.619	0.226	0.178
-453.982	-125.058	0.322	0.050
-452.968	-39.586	-0.037	-0.019
-451.953	-200.000	-0.024	0.228
-450.938	190.971	-0.311	-0.469
-449.924	-200.000	0.045	0.301
-448.909	293.657	-0.010	0.018
-447.895	-87.054	0.140	-0.043
-446.880	-200.000	-0.007	-0.068
-445.865	-156.894	-0.098	-0.006
-444.851	83.849	-0.083	-0.091
-443.836	800.000	0.104	0.298
-442.822	73.173	-0.220	0.230
-441.807	214.174	-0.083	-0.131
-440.792	-144.781	0.280	0.026
-439.778	193.050	-0.091	0.137
-438.763	66.710	0.060	0.061
-437.749	-200.000	0.063	-0.450
-436.734	529.423	-0.084	-0.198
-435.719	-170.904	0.483	-0.017
-434.705	48.403	-0.045	-0.042
-433.690	-79.646	-0.221	-0.075
-432.676	23.815	0.222	-0.183
-431.661	-35.311	-0.041	-0.022
-430.646	800.000	-0.092	-0.384
-429.632	516.195	-0.106	-0.247
-428.617	-32.792	0.352	0.195
-427.603	71.434	0.147	0.153
-426.588	-89.478	0.336	0.099
-425.573	-200.000	0.003	0.087
-424.559	-33.928	-0.361	0.199
-423.544	-93.547	-0.342	-0.095
-422.530	-171.106	0.134	0.005
-421.515	-200.000	-0.016	-0.135
-420.500	-159.436	0.179	-0.010
-419.486	-9.688	-0.259	-0.173
-418.471	-104.701	-0.233	0.054
-417.457	-78.906	-0.116	0.039
-416.442	800.000	0.014	0.040
-415.428	101.953	-0.095	-0.111
-414.413	-102.742	0.188	-0.045
-413.398	-124.723	-0.292	0.045
-412.384	36.791	0.236	0.209
-411.369	294.054	-0.046	-0.085
-410.355	800.000	0.042	0.133
-409.340	47.388	0.168	0.157
-408.325	-92.111	0.278	-0.079
-407.311	-53.597	0.133	-0.061
-406.296	-200.000	0.018	0.081
-405.282	-200.000	0.047	0.269
-404.267	-39.005	-0.126	-0.066
-403.252	-75.590	-0.217	-0.077
-402.238	153.935	-0.225	-0.308
-401.223	-35.185	-0.133	0.073
-400.209	800.000	0.049	-0.158
-399.194	-200.000	-0.002	0.136
-398.179	221.293	0.145	0.233
-397.165	-123.547	0.339	0.054
-396.150	800.000	0.033	0.134
-395.136	800.000	-0.057	-0.230
-394.121	-52.230	0.269	0.125
-393.106	-181.970	0.277	0.005
-392.092	729.812	0.066	-0.177
-391.077	628.474	0.042	0.107
-390.063	226.037	0.096	-0.155
-389.048	418.256	0.009	0.020
-388.033	-27.397	-0.075	-0.044
-387.019	800.000	0.036	-0.135
-386.004	-134.594	-0.419	0.051
-384.990	148.315	0.171	0.230
-383.975	800.000	0.050	-0.144
-382.960	-127.828	-0.112	0.016
-381.946	-74.588	0.162	-0.058
-380.931	-48.445	0.183	0.088
-379.917	15.675	0.065	0.051
-378.902	-139.119	-0.163	0.018
-377.888	52.910	-0.077	-0.073
-376.873	-200.000	-0.026	0.125
-375.858	281.947	-0.253	0.452
-374.844	274.345	-0.283	0.500
-373.829	-64.084	0.299	0.122
-372.815	-125.117	0.175	0.027
-371.800	140.283	-0.124	-0.164
-370.785	-200.000	0.013	0.315
-369.771	-42.716	0.088	0.044
-368.756	-49.906	0.071	-0.034
-367.742	117.249	0.255	0.312
-366.727	-172.915	-0.376	-0.012
-365.712	219.829	-0.116	-0.185
-364.698	208.649	-0.103	0.160
-363.683	-40.577	-0.289	0.149
-362.669	81.721	0.156	-0.169
-361.654	81.159	0.100	0.108
-360.639	-82.896	-0.148	-0.048
-359.625	467.668	0.109	0.245
-358.610	-86.574	-0.146	0.045
-357.596	450.378	0.091	-0.200
-356.581	-200.000	0.014	-0.156
-355.566	-123.203	0.423	0.068
-354.552	-37.512	0.300	0.159
-353.537	-200.000	0.008	-0.208
-352.523	-54.349	-0.138	0.062
-351.508	-200.000	0.003	-0.137
-350.493	352.085	0.204	0.404
-349.479	-41.521	-0.200	0.102
-348.464	-104.225	-0.174	0.040
-347.450	118.974	-0.107	0.132
-346.435	-37.590	-0.058	-0.031
-345.420	-68.187	-0.143	-0.055
-344.406	-58.343	0.088	0.038
-343.391	209.784	-0.067	0.105
-342.377	-200.000	-0.025	0.127
-341.362	-79.181	-0.235	0.079
-340.348	-104.403	-0.180	-0.041
-339.333	-54.392	0.236	0.107
-338.318	77.039	0.134	0.141
-337.304	-20.551	-0.171	-0.105
-336.289	305.711	-0.176	-0.326
-335.275	43.632	0.169	0.154
-334.260	-50.837	0.213	-0.100
-333.245	-163.495	-0.062	0.003
-332.231	800.000	0.106	0.362
-331.216	-200.000	0.461	0.001
-330.202	-17.038	0.193	0.122
-329.187	-200.000	-0.009	0.294
-328.172	-106.551	-0.549	0.122
-327.158	-10.815	-0.128	0.085
-326.143	-160.511	0.251	0.013
-325.129	800.000	0.042	-0.128
-324.114	-97.233	0.104	-0.027
-323.099	-102.794	-0.219	-0.052
-322.085	73.595	-0.157	0.164
-321.070	487.699	0.060	0.136
-320.056	800.000	0.086	-0.306
-319.041	-71.060	0.291	-0.109
-318.026	159.328	-0.210	0.291
-317.012	-200.000	0.016	-0.154
-315.997	316.520	-0.069	0.130
-314.983	-186.856	-0.025	-0.000
-313.968	-102.009	0.205	-0.049
-312.953	244.132	0.062	-0.104
-311.939	20.453	-0.240	0.193
-310.924	800.000	-0.064	-0.266
-309.910	-200.000	0.002	-0.040
-308.895	-23.833	-0.154	-0.092
-307.880	1.992	0.224	0.161
-306.866	173.595	-0.075	-0.108
-305.851	588.957	-0.151	0.370
-304.837	-200.000	-0.021	0.113
-303.822	-200.000	-0.010	0.319
-302.807	-200.000	0.015	0.372
-301.793	-29.852	0.173	0.098
-300.778	-41.333	-0.180	-0.092
-299.764	-144.109	0.443	-0.041
-298.749	-200.000	-0.061	-0.283
-297.735	800.000	-0.036	-0.111
-296.720	100.617	-0.141	-0.163
-295.705	-16.163	0.134	-0.085
-294.691	252.793	-0.154	-0.261
-293.676	29.233	0.324	-0.273
-292.662	-200.000	-0.058	0.325
-291.647	-32.564	-0.386	0.214
-290.632	-200.000	-0.017	-0.083
-289.618	-200.000	0.026	-0.156
-288.603	-69.661	-0.235	0.089
-287.589	-20.575	-0.274	0.167
-286.574	-33.079	0.133	0.074
-285.559	800.000	0.025	-0.091
-284.545	800.000	0.035	-0.116
-283.530	-35.687	0.133	0.072
-282.516	-200.000	0.010	-0.422
-281.501	-78.209	0.265	-0.091
-280.486	-200.000	-0.002	0.102
-279.472	-156.021	0.250	0.016
-278.457	475.991	-0.082	-0.184
-277.443	-59.979	0.166	-0.070
-276.428	-176.378	-0.078	0.002
-275.413	-200.000	0.010	0.072
-274.399	303.003	-0.059	0.109
-273.384	-118.263	0.263	0.047
-272.370	-98.751	0.098	0.025
-271.355	673.914	-0.079	0.205
-270.340	-111.934	-0.184	0.037
-269.326	733.534	0.073	0.195
-268.311	-178.314	0.295	-0.007
-267.297	256.556	-0.036	-0.061
-266.282	-93.528	-0.192	0.053
-265.267	-200.000	0.027	0.289
-264.253	-16.227	0.128	0.081
-263.238	-200.000	-0.014	0.061
-262.224	-13.991	0.055	0.035
-261.209	-107.365	0.294	-0.064
-260.195	-140.755	0.115	-0.012
-259.180	48.591	0.274	0.255
-258.165	-14.797	0.092	0.059
-257.151	783.279	-0.119	-0.323
-256.136	3.364	-0.227	-0.165
-255.122	181.016	0.166	-0.242
-254.107	-200.000	0.003	0.037
-253.092	800.000	0.037	0.120
-252.078	-200.000	-0.045	0.416
-251.063	432.158	-0.072	0.154
-250.049	800.000	-0.046	0.167
-249.034	-129.404	-0.257	0.035
-248.019	41.098	0.098	0.088
-247.005	25.182	-0.135	-0.112
-245.990	-200.000	0.014	0.190
-244.976	203.961	0.085	0.131
-243.961	-191.352	-0.152	-0.002
-242.946	-46.306	0.058	-0.028
-241.932	84.532	-0.092	0.100
-240.917	-82.100	0.599	0.194
-239.903	-126.158	-0.107	-0.016
-238.888	-200.000	-0.023	-0.409
-237.873	-200.000	0.062	-0.309
-236.859	-160.365	0.184	0.010
-235.844	79.642	-0.226	0.241
-234.830	-146.638	0.106	0.009
-233.815	114.839	0.168	-0.203
-232.800	-61.900	-0.144	-0.060
-231.786	165.623	-0.116	-0.163
-230.771	-182.252	0.429	-0.008
-229.757	409.511	0.110	-0.231
-228.742	11.656	-0.297	0.226
-227.727	-59.284	0.168	-0.072
-226.713	-123.721	0.193	0.030
-225.698	-200.000	0.023	0.403
-224.684	-98.399	0.056	0.014
-223.669	158.723	-0.101	-0.139
-222.655	-200.000	-0.009	-0.111
-221.640	181.683	0.177	-0.259
-220.625	-80.111	-0.140	0.046
-219.611	-46.621	0.269	0.131
-218.596	63.864	-0.351	-0.350
-217.582	800.000	0.128	0.371
-216.567	-21.001	-0.251	0.152
-215.552	-138.132	0.196	0.022
-214.538	-24.924	0.112	-0.066
-213.523	26.710	-0.212	0.176
-212.509	403.013	0.022	-0.046
-211.494	362.444	-0.095	-0.188
-210.479	-200.000	0.038	0.293
-209.465	800.000	-0.059	0.173
-208.450	-200.000	0.001	-0.012
-207.436	-185.620	0.082	-0.001
-206.421	-52.380	0.270	-0.124
-205.406	-53.238	0.112	0.051
-204.392	-200.000	-0.018	0.242
-203.377	17.360	-0.250	-0.197
-202.363	-56.449	0.455	0.200
-201.348	346.364	-0.083	-0.161
-200.333	682.311	-0.075	0.194
-199.319	-200.000	0.026	-0.251
-198.304	736.310	-0.068	-0.181
-197.290	-200.000	-0.016	0.147
-196.275	-36.916	0.352	-0.187
-195.260	73.793	0.323	-0.336
-194.246	289.455	0.114	-0.206
-193.231	-200.000	0.016	0.119
-192.217	-200.000	-0.035	-0.237
-191.202	-123.546	0.229	0.036
-190.187	-68.271	-0.124	-0.048
-189.173	-108.271	-0.185	-0.040
-188.158	-200.000	0.038	0.274
-187.144	-117.191	0.245	-0.044
-186.129	152.235	0.038	0.052
-185.114	205.718	0.205	0.316
-184.100	-37.507	-0.051	-0.027
-183.085	-130.111	0.049	0.007
-182.071	40.130	0.027	-0.024
-181.056	-200.000	-0.026	-0.146
-180.042	116.432	0.098	0.119
-179.027	-52.346	-0.204	-0.094
-178.012	-100.984	-0.155	0.038
-176.998	-137.280	-0.050	-0.006
-175.983	98.414	-0.186	0.213
-174.969	438.854	0.255	0.552
-173.954	-200.000	0.007	0.238
-172.939	-200.000	-0.018	0.108
-171.925	800.000	0.078	0.276
-170.910	408.338	0.072	0.151
-169.896	137.199	0.132	0.171
-168.881	261.204	-0.121	0.207
-167.866	-18.423	-0.274	0.170
-166.852	-179.471	-0.216	0.005
-165.837	109.011	0.092	0.109
-164.823	800.000	0.107	-0.422
-163.808	637.453	0.053	-0.134
-162.793	-122.904	-0.182	-0.029
-161.779	-200.000	-0.025	0.189
-160.764	347.975	0.092	-0.179
-159.750	441.017	-0.036	0.078
-158.735	-90.422	-0.301	0.086
-157.720	-64.888	0.029	0.011
-156.706	99.844	-0.036	-0.041
-155.691	-43.941	0.164	-0.082
-154.677	-156.451	0.318	-0.020
-153.662	-160.599	-0.622	0.033
-152.647	-4.379	-0.223	0.153
-151.633	615.978	-0.089	-0.221
-150.618	-200.000	-0.003	-0.229
-149.604	-91.744	0.159	-0.045
-148.589	273.672	-0.072	-0.125
-147.574	-83.571	-0.020	-0.006
-146.560	62.209	0.076	0.075
-145.545	-51.343	0.074	-0.034
-144.531	-33.094	-0.176	-0.096
-143.516	-2.928	-0.176	0.122
-142.502	-31.383	0.156	-0.087
-141.487	479.237	-0.120	0.269
-140.472	-200.000	-0.008	0.205
-139.458	-36.074	-0.357	-0.191
-138.443	192.098	-0.210	-0.313
-137.429	-66.122	-0.199	-0.079
-136.414	-114.697	0.199	0.038
-135.399	-101.337	0.287	0.069
-134.385	-200.000	0.046	0.462
-133.370	26.478	-0.105	0.087
-132.356	800.000	-0.022	0.092
-131.341	20.276	0.277	0.221
-130.326	-54.612	-0.102	0.045
-129.312	-50.653	0.301	-0.140
-128.297	59.850	-0.169	-0.165
-127.283	114.388	0.074	-0.089
-126.268	107.105	-0.045	0.053
-125.253	29.820	-0.180	-0.152
-124.239	137.791	-0.163	0.211
-123.224	-132.459	0.260	-0.033
-122.210	-68.035	0.226	0.087
