DTS Sentinel unit serial number:	SN413079Multiplexer serial number:	ORYXHardware model number:	OX4-SRSoftware version number:	ORYX F/W v4.00 Oryx Data Collector v3.7.2.0data status	okinstallation	princeton_trtdifferential loss correction	single-endedforward channel	channel 4reverse channel	N/Adate	2019/09/14time	08:01:35forward acquisition time	60.00reverse acquisition time	0.00gamma	496.2192k internal	0.2320k external	0.2320temperature offset calibration	1.0129default loss term (dB/km)	0.3790temperature slope calibration	1.0000multiplexer offset coefficient	1.0000multiplexer slope coefficient	1.0000fibre end	0.00T internal ref (°C)	26.91T ext. ref 1 (°C)	3.54T ext. ref 2 (°C)	24.62length (m)	temperature (°C)	Stokes	anti-Stokes-747.200	184.701	-0.124	-0.186
-746.185	-200.000	-0.021	0.105
-745.171	-200.000	-0.031	-0.426
-744.156	-69.436	-0.028	-0.011
-743.142	250.588	-0.104	0.178
-742.127	149.861	-0.118	0.162
-741.112	-200.000	0.022	0.108
-740.098	-2.169	-0.135	0.096
-739.083	-140.309	0.254	-0.027
-738.069	384.338	-0.119	0.249
-737.054	800.000	-0.036	-0.141
-736.039	-200.000	0.026	0.242
-735.025	-94.778	0.342	0.094
-734.010	211.894	-0.092	0.146
-732.996	-52.871	0.064	0.030
-731.981	240.095	-0.248	-0.417
-730.966	285.148	0.060	-0.109
-729.952	800.000	-0.070	0.208
-728.937	800.000	0.051	0.183
-727.923	216.655	-0.132	0.213
-726.908	-144.513	-0.508	0.047
-725.894	-177.059	-0.295	-0.007
-724.879	27.037	0.129	-0.109
-723.864	-200.000	-0.010	-0.058
-722.850	35.988	-0.272	0.242
-721.835	14.140	0.262	-0.206
-720.821	-200.000	0.013	-0.339
-719.806	-115.212	-0.223	0.043
-718.791	35.965	-0.427	0.380
-717.777	-200.000	-0.000	0.204
-716.762	-155.105	-0.392	0.026
-715.748	270.119	-0.048	-0.085
-714.733	-200.000	-0.030	-0.338
-713.718	-55.431	0.238	0.108
-712.704	183.346	-0.070	-0.105
-711.689	-200.000	0.030	0.158
-710.675	468.038	-0.034	-0.078
-709.660	-189.879	-0.139	0.002
-708.645	234.176	0.146	-0.243
-707.631	131.579	0.097	0.126
-706.616	323.363	0.077	0.149
-705.602	244.293	-0.053	0.090
-704.587	-200.000	0.003	0.259
-703.572	800.000	-0.057	0.167
-702.558	140.265	-0.157	-0.209
-701.543	72.121	0.117	-0.123
-700.529	23.560	-0.065	0.054
-699.514	-200.000	0.002	0.009
-698.499	71.988	0.047	-0.049
-697.485	-19.283	-0.193	0.121
-696.470	218.628	0.126	0.203
-695.456	77.653	-0.114	0.123
-694.441	-141.967	0.184	0.019
-693.426	5.468	0.100	0.075
-692.412	111.361	0.111	0.136
-691.397	-38.965	0.117	-0.062
-690.383	21.448	-0.128	-0.105
-689.368	-200.000	-0.009	0.105
-688.354	353.054	0.050	-0.100
-687.339	-200.000	-0.033	0.166
-686.324	800.000	-0.028	0.116
-685.310	-32.135	0.152	0.086
-684.295	-106.086	-0.398	-0.090
-683.281	-40.132	-0.410	0.215
-682.266	-200.000	0.007	-0.047
-681.251	800.000	-0.062	0.186
-680.237	198.587	0.041	0.063
-679.222	-59.240	0.082	-0.036
-678.208	393.843	-0.070	0.147
-677.193	-1.705	-0.206	0.146
-676.178	800.000	-0.110	-0.398
-675.164	-114.942	-0.153	-0.029
-674.149	-113.999	0.213	0.042
-673.135	155.302	0.169	0.234
-672.120	-200.000	-0.005	-0.056
-671.105	652.960	-0.084	-0.218
-670.091	181.538	0.120	-0.178
-669.076	109.067	-0.069	-0.084
-668.062	685.726	0.033	0.087
-667.047	800.000	0.023	-0.095
-666.032	-70.211	0.228	-0.087
-665.018	173.957	0.148	-0.216
-664.003	800.000	-0.041	-0.127
-662.989	6.745	-0.300	-0.225
-661.974	-84.312	0.163	-0.052
-660.959	190.185	0.078	0.118
-659.945	-72.069	0.353	-0.132
-658.930	105.175	0.334	0.397
-657.916	-113.572	-0.157	0.031
-656.901	187.820	0.065	-0.098
-655.886	-96.533	-0.222	0.059
-654.872	-45.271	-0.287	-0.143
-653.857	-138.254	-0.208	-0.023
-652.843	252.867	-0.129	0.221
-651.828	800.000	-0.024	-0.075
-650.814	57.545	-0.119	0.117
-649.799	744.861	-0.039	-0.105
-648.784	167.610	0.087	-0.125
-647.770	-133.062	-0.253	-0.032
-646.755	-200.000	-0.043	-0.287
-645.741	800.000	0.017	0.062
-644.726	-200.000	-0.008	-0.188
-643.711	140.967	-0.114	0.152
-642.697	-200.000	0.016	-0.290
-641.682	314.162	-0.066	-0.126
-640.668	467.682	0.170	-0.385
-639.653	800.000	0.145	-0.501
-638.638	113.967	0.168	-0.206
-637.624	-200.000	-0.012	-0.263
-636.609	236.819	-0.013	0.021
-635.595	16.808	-0.114	-0.091
-634.580	47.816	-0.133	-0.125
-633.565	-105.961	0.121	-0.027
-632.551	-200.000	-0.008	-0.135
-631.536	52.234	-0.337	-0.324
-630.522	-147.291	0.146	-0.013
-629.507	656.971	0.103	0.266
-628.492	-83.103	0.225	-0.073
-627.478	-200.000	-0.023	-0.355
-626.463	35.403	0.242	0.214
-625.449	142.277	0.051	0.068
-624.434	76.609	-0.227	-0.243
-623.419	551.728	-0.042	-0.100
-622.405	44.656	-0.172	0.159
-621.390	-140.421	0.218	-0.023
-620.376	-200.000	0.075	0.405
-619.361	-43.160	-0.310	0.158
-618.346	-78.591	-0.161	0.055
-617.332	73.335	0.170	0.179
-616.317	141.354	0.103	0.137
-615.303	-6.173	0.172	-0.118
-614.288	-117.610	-0.382	-0.069
-613.273	-200.000	0.003	0.162
-612.259	88.571	0.169	0.189
-611.244	800.000	0.052	0.206
-610.230	39.097	0.069	-0.062
-609.215	-48.924	0.282	-0.136
-608.201	2.309	-0.209	0.152
-607.186	-163.057	0.232	-0.011
-606.171	-136.396	0.087	0.010
-605.157	350.928	0.039	0.078
-604.142	-122.318	0.320	0.053
-603.128	663.566	0.134	0.347
-602.113	-200.000	0.046	-0.373
-601.098	-200.000	0.015	0.406
-600.084	75.841	0.298	0.317
-599.069	-138.152	-0.309	-0.034
-598.055	800.000	0.065	-0.217
-597.040	-150.907	0.066	0.005
-596.025	-200.000	0.020	-0.119
-595.011	128.871	-0.072	-0.093
-593.996	-118.271	0.254	0.045
-592.982	224.063	0.049	-0.080
-591.967	62.911	-0.175	-0.176
-590.952	64.917	0.105	0.106
-589.938	57.335	-0.141	-0.138
-588.923	39.251	-0.109	-0.098
-587.909	800.000	0.041	-0.116
-586.894	-200.000	0.046	-0.543
-585.879	-200.000	-0.023	0.231
-584.865	-4.700	-0.259	-0.180
-583.850	198.631	0.055	-0.085
-582.836	-80.821	0.027	-0.009
-581.821	-200.000	-0.027	0.210
-580.806	157.660	-0.095	-0.133
-579.792	800.000	-0.130	0.392
-578.777	800.000	-0.018	0.072
-577.763	800.000	-0.014	0.042
-576.748	-44.980	-0.401	-0.201
-575.733	-101.368	0.224	0.055
-574.719	800.000	0.108	0.404
-573.704	16.355	0.096	-0.076
-572.690	-200.000	0.017	-0.356
-571.675	-52.637	-0.081	-0.037
-570.661	800.000	-0.057	0.247
-569.646	800.000	0.051	0.164
-568.631	-200.000	0.034	-0.247
-567.617	296.455	0.083	0.153
-566.602	-57.210	-0.137	0.061
-565.588	-200.000	-0.035	-0.231
-564.573	258.622	-0.119	-0.207
-563.558	-17.757	-0.233	0.147
-562.544	-188.354	0.198	0.003
-561.529	-200.000	0.005	-0.089
-560.515	-147.182	-0.285	-0.024
-559.500	11.152	0.041	0.031
-558.485	451.064	-0.086	0.190
-557.471	-110.758	0.296	0.061
-556.456	-69.668	0.092	-0.035
-555.442	-24.983	-0.233	-0.139
-554.427	221.490	0.084	-0.135
-553.412	288.276	-0.199	-0.362
-552.398	-200.000	-0.039	-0.268
-551.383	37.216	-0.190	0.169
-550.369	132.591	-0.173	-0.224
-549.354	-200.000	-0.035	-0.181
-548.339	-20.071	-0.157	-0.097
-547.325	-112.719	0.207	-0.041
-546.310	-131.168	-0.184	0.025
-545.296	-6.942	0.140	-0.096
-544.281	47.361	0.035	0.033
-543.266	-62.335	-0.160	-0.067
-542.252	-31.880	-0.157	-0.088
-541.237	251.317	-0.159	0.272
-540.223	800.000	0.016	0.045
-539.208	11.653	-0.382	0.294
-538.193	-200.000	0.018	-0.360
-537.179	418.557	-0.057	0.122
-536.164	112.729	-0.104	-0.126
-535.150	800.000	0.043	0.148
-534.135	138.468	0.080	0.106
-533.121	1.443	0.297	-0.214
-532.106	-76.722	-0.524	-0.184
-531.091	248.773	-0.067	-0.114
-530.077	-44.186	-0.329	0.166
-529.062	84.540	-0.211	0.232
-528.048	-200.000	-0.006	0.239
-527.033	-200.000	-0.060	0.306
-526.018	318.088	0.074	0.140
-525.004	190.729	0.163	-0.246
-523.989	-114.177	0.230	-0.045
-522.975	3.533	0.109	-0.080
-521.960	-13.501	0.132	-0.086
-520.945	-200.000	-0.020	-0.181
-519.931	281.606	-0.054	0.098
-518.916	-144.736	0.121	-0.011
-517.902	54.274	0.142	0.137
-516.887	-3.279	0.051	-0.036
-515.872	361.296	0.109	-0.219
-514.858	111.434	0.225	0.271
-513.843	-170.301	0.281	0.010
-512.829	-1.026	-0.158	0.112
-511.814	-158.911	-0.460	0.026
-510.799	358.564	0.050	0.100
-509.785	9.133	0.362	-0.274
-508.770	-82.020	-0.183	-0.060
-507.756	800.000	0.069	0.296
-506.741	800.000	-0.071	0.242
-505.726	-58.613	-0.167	-0.073
-504.712	-69.703	-0.128	-0.049
-503.697	279.150	0.085	-0.152
-502.683	-200.000	0.008	0.213
-501.668	-135.384	0.335	0.040
-500.653	800.000	-0.036	-0.116
-499.639	-46.767	-0.065	-0.032
-498.624	190.204	0.099	-0.149
-497.610	800.000	-0.042	-0.158
-496.595	800.000	-0.119	0.488
-495.581	800.000	0.041	-0.152
-494.566	361.310	-0.107	-0.215
-493.551	-126.208	0.105	-0.016
-492.537	-32.214	0.218	-0.122
-491.522	128.914	-0.232	-0.296
-490.508	204.987	0.188	-0.292
-489.493	-200.000	-0.019	0.146
-488.478	519.058	0.078	-0.183
-487.464	-68.284	0.146	-0.057
-486.449	-178.312	0.148	-0.003
-485.435	405.525	0.057	-0.120
-484.420	-33.487	0.143	0.079
-483.405	-109.434	-0.159	-0.034
-482.391	345.380	0.105	-0.207
-481.376	-10.308	0.095	-0.063
-480.362	-53.198	-0.182	0.084
-479.347	-105.196	0.096	-0.022
-478.332	168.878	-0.185	-0.264
-477.318	-69.865	-0.037	-0.014
-476.303	-10.933	0.070	-0.047
-475.289	60.930	0.217	0.216
-474.274	-38.134	0.215	0.114
-473.259	-122.985	0.057	0.009
-472.245	-200.000	0.013	-0.442
-471.230	-124.669	0.097	-0.015
-470.216	-37.726	0.047	-0.025
-469.201	-150.766	0.345	0.026
-468.186	-105.520	0.123	-0.028
-467.172	68.872	-0.038	0.039
-466.157	638.535	-0.071	-0.181
-465.143	344.513	0.227	0.445
-464.128	-85.837	-0.309	-0.096
-463.113	-200.000	0.010	-0.330
-462.099	50.709	-0.223	-0.211
-461.084	800.000	0.123	0.406
-460.070	22.022	-0.149	-0.121
-459.055	100.731	-0.158	0.184
-458.040	11.828	0.134	0.103
-457.026	640.448	0.100	0.255
-456.011	-35.042	-0.035	-0.019
-454.997	-114.571	0.131	-0.025
-453.982	800.000	0.042	-0.125
-452.968	-200.000	0.065	-0.316
-451.953	38.335	-0.171	0.153
-450.938	143.157	0.165	-0.219
-449.924	491.342	0.073	-0.167
-448.909	398.005	-0.217	-0.454
-447.895	-145.062	0.028	-0.003
-446.880	-78.040	-0.097	-0.034
-445.865	-21.387	0.349	-0.213
-444.851	-200.000	-0.059	-0.395
-443.836	800.000	0.015	-0.050
-442.822	-81.598	0.226	0.074
-441.807	200.707	-0.078	0.119
-440.792	138.381	-0.148	-0.194
-439.778	800.000	-0.116	0.331
-438.763	-50.235	-0.276	-0.131
-437.749	-106.887	0.234	0.052
-436.734	349.276	-0.058	0.115
-435.719	-40.459	-0.224	0.116
-434.705	-59.258	-0.095	-0.041
-433.690	-181.002	-0.264	0.005
-432.676	800.000	-0.038	0.134
-431.661	-169.112	0.111	0.004
-430.646	21.968	0.245	0.200
-429.632	-100.572	-0.274	0.068
-428.617	-200.000	-0.004	0.357
-427.603	-200.000	0.051	0.277
-426.588	-22.069	0.144	0.087
-425.573	105.159	-0.106	0.125
-424.559	800.000	-0.045	-0.136
-423.544	-192.480	-0.218	0.002
-422.530	-36.872	0.161	0.086
-421.515	-69.879	-0.266	-0.101
-420.500	457.364	0.148	0.328
-419.486	7.880	0.081	0.061
-418.471	-33.842	-0.215	-0.118
-417.457	99.793	-0.196	0.227
-416.442	-128.341	-0.267	-0.038
-415.428	-135.928	-0.290	0.034
-414.413	38.866	0.253	-0.225
-413.398	-200.000	0.008	-0.292
-412.384	744.738	0.146	-0.391
-411.369	267.244	-0.104	-0.182
-410.355	257.554	0.090	-0.155
-409.340	-8.882	-0.217	-0.145
-408.325	713.630	0.047	-0.125
-407.311	-122.917	-0.255	-0.041
-406.296	295.434	-0.102	0.186
-405.282	180.179	0.080	-0.118
-404.267	507.483	-0.101	0.234
-403.252	-200.000	0.090	0.639
-402.238	216.360	-0.030	-0.048
-401.223	104.844	0.088	0.104
-400.209	-9.073	-0.047	0.031
-399.194	-57.464	-0.110	0.048
-398.179	106.213	-0.055	0.065
-397.165	39.314	0.123	-0.110
-396.150	-8.067	-0.136	-0.091
-395.136	80.919	0.153	0.165
-394.121	110.864	0.042	0.050
-393.106	-72.035	-0.214	-0.079
-392.092	-109.749	-0.017	0.004
-391.077	26.183	0.171	0.142
-390.063	136.827	-0.194	0.252
-389.048	75.581	0.021	0.023
-388.033	-28.063	0.269	-0.155
-387.019	-75.237	0.189	0.067
-386.004	-165.689	-0.178	0.008
-384.990	667.535	-0.029	0.075
-383.975	465.474	0.042	-0.094
-382.960	147.384	0.165	0.221
-381.946	153.661	-0.111	-0.151
-380.931	-167.052	0.191	-0.008
-379.917	-113.022	0.195	-0.038
-378.902	-89.837	0.246	0.072
-377.888	-179.856	0.216	-0.005
-376.873	-0.388	0.146	-0.103
-375.858	114.332	-0.232	-0.281
-374.844	190.633	-0.155	0.232
-373.829	-122.329	0.382	-0.062
-372.815	214.071	0.031	-0.049
-371.800	-143.093	-0.279	-0.027
-370.785	635.162	0.091	-0.229
-369.771	-71.837	0.183	0.068
-368.756	-104.528	0.170	-0.039
-367.742	-17.014	0.066	-0.042
-366.727	-28.355	-0.143	0.082
-365.712	553.161	0.145	-0.347
-364.698	-124.752	-0.196	-0.030
-363.683	-63.924	0.095	0.039
-362.669	-80.744	-0.538	0.178
-361.654	-50.623	0.142	0.067
-360.639	178.025	-0.061	-0.089
-359.625	-200.000	-0.017	0.154
-358.610	19.039	0.141	-0.113
-357.596	-200.000	0.007	0.242
-356.581	189.732	0.148	0.221
-355.566	510.983	-0.074	-0.172
-354.552	-80.211	-0.110	0.037
-353.537	24.003	-0.194	0.159
-352.523	116.887	0.087	-0.107
-351.508	779.882	-0.087	-0.238
-350.493	-200.000	-0.026	-0.347
-349.479	-172.307	0.122	-0.004
-348.464	-119.963	-0.161	0.028
-347.450	-81.721	-0.194	-0.063
-346.435	-69.440	-0.264	-0.101
-345.420	33.435	0.094	-0.082
-344.406	-70.015	0.255	0.097
-343.391	-51.054	-0.282	0.132
-342.377	-168.792	-0.487	-0.018
-341.362	-200.000	0.075	0.529
-340.348	-30.211	0.079	-0.044
-339.333	43.931	-0.118	0.108
-338.318	-15.558	-0.160	-0.102
-337.304	-200.000	-0.013	0.252
-336.289	-159.002	0.177	-0.010
-335.275	15.519	-0.102	0.080
-334.260	800.000	0.014	0.053
-333.245	583.698	0.082	0.201
-332.231	-88.358	0.292	0.087
-331.216	-186.511	-0.190	-0.003
-330.202	-59.479	0.141	0.060
-329.187	-141.680	0.081	0.008
-328.172	800.000	-0.006	0.020
-327.158	11.384	-0.065	-0.049
-326.143	800.000	0.034	-0.146
-325.129	-50.718	0.243	0.114
-324.114	39.222	-0.120	-0.107
-323.099	438.606	-0.025	0.055
-322.085	800.000	-0.062	-0.229
-321.070	46.240	0.145	0.134
-320.056	-162.703	-0.252	0.012
-319.041	194.987	0.097	0.146
-318.026	7.902	-0.281	0.210
-317.012	-9.957	-0.077	-0.051
-315.997	565.145	0.038	0.092
-314.983	-67.489	0.040	0.016
-313.968	-21.575	0.218	0.132
-312.953	-32.723	0.345	0.191
-311.939	800.000	-0.047	-0.140
-310.924	-200.000	0.027	0.123
-309.910	-36.426	0.189	0.101
-308.895	147.128	-0.160	-0.214
-307.880	800.000	0.050	0.214
-306.866	-15.785	-0.237	0.150
-305.851	-200.000	-0.035	0.154
-304.837	-93.110	0.127	0.035
-303.822	136.163	0.081	-0.105
-302.807	86.230	-0.135	-0.148
-301.793	218.308	0.099	0.156
-300.778	-63.184	-0.159	0.065
-299.764	450.228	0.196	0.431
-298.749	35.219	-0.194	0.169
-297.735	-76.239	-0.200	-0.070
-296.720	-99.342	0.194	-0.049
-295.705	800.000	-0.046	0.152
-294.691	167.633	-0.046	-0.065
-293.676	-24.584	-0.091	0.054
-292.662	800.000	0.154	0.463
-291.647	800.000	0.136	0.430
-290.632	-99.965	0.462	-0.114
-289.618	800.000	-0.072	0.258
-288.603	800.000	0.023	0.092
-287.589	309.440	0.071	0.132
-286.574	800.000	0.030	-0.099
-285.559	-95.985	0.315	0.083
-284.545	-94.884	-0.187	-0.050
-283.530	-95.093	-0.076	-0.020
-282.516	-200.000	0.013	-0.172
-281.501	-29.364	-0.099	0.056
-280.486	8.530	-0.321	0.240
-279.472	-200.000	-0.031	0.199
-278.457	-31.148	0.199	0.111
-277.443	8.590	0.174	-0.130
-276.428	800.000	0.070	0.262
-275.413	241.579	0.187	0.310
-274.399	-163.363	-0.235	-0.011
-273.384	800.000	-0.094	-0.338
-272.370	-200.000	-0.014	0.078
-271.355	6.172	0.237	0.175
-270.340	-200.000	0.005	0.280
-269.326	-89.165	-0.151	-0.044
-268.311	-200.000	0.005	-0.261
-267.297	-136.200	0.034	0.004
-266.282	-90.122	-0.123	-0.036
-265.267	-52.671	-0.073	-0.034
-264.253	412.949	-0.089	0.189
-263.238	608.521	-0.014	-0.034
-262.224	-91.512	-0.278	-0.079
-261.209	-117.331	-0.267	-0.048
-260.195	-38.166	0.253	0.133
-259.180	-152.053	0.479	-0.035
-258.165	147.143	0.151	0.201
-257.151	8.128	0.199	0.148
-256.136	800.000	0.088	-0.268
-255.122	-200.000	-0.002	0.289
-254.107	-200.000	0.037	-0.170
-253.092	-27.221	0.136	-0.078
-252.078	-87.175	0.338	0.102
-251.063	-200.000	-0.018	0.188
-250.049	611.351	0.168	0.416
-249.034	-86.822	-0.111	-0.034
-248.019	583.876	0.055	0.134
-247.005	131.105	-0.222	0.283
-245.990	-70.972	-0.074	0.028
-244.976	800.000	0.134	-0.478
-243.961	-173.300	-0.271	-0.008
-242.946	-98.015	-0.075	-0.019
-241.932	41.915	0.148	-0.133
-240.917	-49.813	0.204	-0.096
-239.903	54.772	0.104	0.100
-238.888	-9.213	-0.093	-0.062
-237.873	-133.539	-0.167	-0.021
-236.859	323.157	0.036	-0.068
-235.844	-30.036	-0.065	-0.037
-234.830	800.000	0.039	-0.136
-233.815	377.408	-0.128	0.259
-232.800	800.000	0.027	-0.113
-231.786	-200.000	-0.015	0.136
-230.771	104.892	-0.140	0.163
-229.757	-100.804	-0.212	0.052
-228.742	-134.655	0.114	0.014
-227.727	150.063	0.144	-0.193
-226.713	-32.750	0.139	-0.076
-225.698	-200.000	-0.012	-0.177
-224.684	512.856	0.077	0.179
-223.669	350.541	0.159	-0.312
-222.655	307.479	0.185	-0.343
-221.640	-64.157	0.139	-0.056
-220.625	43.713	-0.183	-0.166
-219.611	-73.161	0.168	0.061
-218.596	220.899	0.110	-0.175
-217.582	-87.958	-0.336	-0.100
-216.567	-3.034	-0.206	0.142
-215.552	176.144	-0.112	0.161
-214.538	800.000	-0.047	0.131
-213.523	349.588	0.155	-0.302
-212.509	242.221	0.198	0.327
-211.494	-14.657	-0.113	-0.072
-210.479	34.496	-0.349	-0.302
-209.465	50.257	-0.018	0.017
-208.450	244.360	0.051	-0.085
-207.436	-200.000	-0.068	-0.297
-206.421	800.000	0.055	-0.197
-205.406	-129.644	-0.236	-0.032
-204.392	-200.000	-0.019	-0.092
-203.377	-200.000	-0.027	0.133
-202.363	-200.000	0.001	-0.383
-201.348	-200.000	0.014	0.294
-200.333	-158.598	0.286	0.016
-199.319	5.521	-0.115	-0.084
-198.304	-200.000	-0.049	0.300
-197.290	800.000	-0.022	0.065
-196.275	-69.569	-0.182	-0.069
-195.260	-200.000	0.044	0.238
-194.246	296.035	0.119	0.216
-193.231	-30.753	-0.238	0.133
-192.217	516.447	-0.061	0.141
-191.202	203.599	0.067	-0.103
-190.187	71.123	-0.152	0.156
-189.173	-5.629	-0.305	-0.207
-188.158	-159.327	0.288	0.016
-187.144	-169.053	0.466	0.017
-186.129	-36.364	-0.189	-0.101
-185.114	137.471	-0.054	-0.069
-184.100	165.061	-0.044	0.062
-183.085	-153.859	0.133	0.009
-182.071	-59.495	-0.286	-0.122
-181.056	-49.669	0.213	0.100
-180.042	708.794	0.061	-0.159
-179.027	-48.946	0.287	0.136
-178.012	-152.745	0.356	0.025
-176.998	572.210	-0.116	-0.281
-175.983	-200.000	0.007	-0.160
-174.969	69.496	0.110	0.112
-173.954	-200.000	0.017	-0.497
-172.939	-74.048	0.022	-0.008
-171.925	-186.746	-0.221	0.003
-170.910	76.378	-0.156	0.163
-169.896	68.436	-0.188	-0.191
-168.881	-200.000	0.011	0.210
-167.866	-200.000	-0.025	-0.185
-166.852	-180.448	0.334	-0.007
-165.837	-40.171	0.111	0.057
-164.823	451.405	-0.042	-0.093
-163.808	800.000	0.028	0.090
-162.793	-200.000	-0.039	0.173
-161.779	-115.459	0.570	0.106
-160.764	-162.225	-0.202	-0.010
-159.750	-81.034	-0.236	-0.077
-158.735	-200.000	-0.040	0.266
-157.720	-200.000	-0.012	-0.249
-156.706	-134.487	-0.021	-0.003
-155.691	75.097	-0.063	0.066
-154.677	65.555	0.150	0.150
-153.662	-200.000	-0.013	0.225
-152.647	-164.910	-0.275	0.012
-151.633	-17.613	-0.232	0.144
-150.618	263.045	0.117	-0.201
-149.604	770.445	0.080	0.217
-148.589	-93.996	0.353	-0.096
-147.574	-166.818	-0.291	0.012
-146.560	45.267	0.119	-0.108
-145.545	800.000	-0.044	0.157
-144.531	-200.000	-0.011	0.327
-143.516	-200.000	-0.019	0.248
-142.502	43.809	0.038	0.034
-141.487	-129.178	0.200	-0.028
-140.472	-117.767	0.127	0.023
-139.458	-92.072	-0.183	0.051
-138.443	0.236	0.150	0.106
-137.429	-97.079	-0.359	-0.093
-136.414	-32.566	-0.225	0.124
-135.399	-200.000	0.001	-0.097
-134.385	-197.722	0.102	-0.001
-133.370	-14.989	0.260	-0.165
-132.356	-123.427	0.278	0.044
-131.341	-152.338	-0.254	0.018
-130.326	-90.602	-0.142	-0.041
-129.312	134.724	-0.075	0.096
-128.297	-200.000	0.174	0.000
-127.283	27.606	0.158	0.131
-126.268	-200.000	0.023	0.203
-125.253	-106.573	0.133	-0.029
-124.239	252.288	0.100	0.169
-123.224	-200.000	-0.047	0.553
-122.210	-98.517	-0.220	0.055
-121.195	-117.867	0.261	-0.046
