DTS Sentinel unit serial number:	SN413079Multiplexer serial number:	ORYXHardware model number:	OX4-SRSoftware version number:	ORYX F/W v4.00 Oryx Data Collector v3.7.2.0data status	okinstallation	princeton_trtdifferential loss correction	single-endedforward channel	channel 4reverse channel	N/Adate	2019/09/14time	12:45:35forward acquisition time	60.00reverse acquisition time	0.00gamma	496.2192k internal	0.2292k external	0.2292temperature offset calibration	1.0157default loss term (dB/km)	0.3790temperature slope calibration	1.0000multiplexer offset coefficient	1.0000multiplexer slope coefficient	1.0000fibre end	0.00T internal ref (°C)	37.98T ext. ref 1 (°C)	4.82T ext. ref 2 (°C)	33.01length (m)	temperature (°C)	Stokes	anti-Stokes-747.200	-82.717	0.378	0.125
-746.185	56.849	-0.123	0.123
-745.171	-176.355	-0.168	0.004
-744.156	-200.000	-0.011	0.266
-743.142	-123.242	-0.263	0.043
-742.127	36.099	-0.155	0.140
-741.112	-43.510	0.146	0.075
-740.098	272.154	-0.130	0.234
-739.083	-200.000	-0.016	0.201
-738.069	372.012	0.142	0.295
-737.054	-92.470	-0.209	-0.060
-736.039	-200.000	-0.015	0.281
-735.025	138.791	-0.010	-0.013
-734.010	73.434	0.118	-0.126
-732.996	36.898	-0.244	-0.221
-731.981	-200.000	0.016	-0.132
-730.966	169.306	-0.118	-0.172
-729.952	-37.061	0.206	0.113
-728.937	117.887	-0.294	0.370
-727.923	48.153	-0.175	-0.167
-726.908	359.298	-0.071	-0.146
-725.894	107.217	-0.124	-0.151
-724.879	56.275	0.079	-0.079
-723.864	-46.540	0.390	-0.195
-722.850	-81.340	-0.124	0.042
-721.835	-200.000	0.073	0.362
-720.821	16.556	-0.084	-0.068
-719.806	800.000	0.037	-0.153
-718.791	554.812	-0.175	0.430
-717.777	-138.535	-0.349	-0.039
-716.762	-81.979	-0.210	0.070
-715.748	-41.363	0.258	-0.136
-714.733	177.251	0.066	-0.098
-713.718	800.000	-0.075	0.281
-712.704	131.858	0.259	0.340
-711.689	-33.652	-0.230	0.129
-710.675	-200.000	0.029	0.196
-709.660	291.998	0.023	0.043
-708.645	-25.813	-0.084	-0.051
-707.631	-5.272	0.160	-0.113
-706.616	-73.368	0.245	-0.092
-705.602	-135.981	0.419	0.050
-704.587	366.627	0.141	0.290
-703.572	-59.183	0.324	-0.143
-702.558	-97.289	-0.038	-0.010
-701.543	-60.533	-0.100	-0.043
-700.529	800.000	-0.066	0.242
-699.514	-5.864	-0.295	0.206
-698.499	-30.875	-0.088	-0.051
-697.485	176.972	-0.047	-0.070
-696.470	-4.785	-0.304	-0.214
-695.456	-63.498	0.034	-0.014
-694.441	304.642	0.062	0.118
-693.426	143.643	-0.098	0.133
-692.412	-13.176	0.410	0.272
-691.397	-94.483	-0.343	-0.095
-690.383	-115.402	-0.273	-0.053
-689.368	668.857	-0.032	0.086
-688.354	-75.047	-0.207	0.076
-687.339	289.524	0.135	0.251
-686.324	230.431	0.122	-0.204
-685.310	11.009	0.152	-0.118
-684.295	800.000	-0.107	-0.398
-683.281	-200.000	0.060	-0.276
-682.266	800.000	0.118	-0.372
-681.251	195.063	-0.082	-0.127
-680.237	-200.000	-0.018	-0.206
-679.222	96.126	-0.100	0.117
-678.208	-22.231	0.180	-0.111
-677.193	-173.533	0.184	-0.006
-676.178	-70.239	0.160	-0.062
-675.164	55.061	-0.076	-0.075
-674.149	-200.000	-0.011	-0.085
-673.135	547.878	-0.017	-0.042
-672.120	272.985	-0.097	-0.174
-671.105	-200.000	-0.017	-0.173
-670.091	-86.868	0.128	0.040
-669.076	-144.906	-0.356	0.033
-668.062	-140.186	0.159	-0.017
-667.047	-184.909	0.247	0.004
-666.032	800.000	0.121	0.393
-665.018	222.658	-0.036	-0.059
-664.003	311.585	0.126	0.241
-662.989	204.368	-0.055	-0.087
-661.974	-72.145	-0.079	-0.030
-660.959	800.000	-0.068	-0.269
-659.945	-7.246	-0.218	0.151
-658.930	-119.405	-0.444	0.079
-657.916	-105.863	0.039	-0.009
-656.901	15.107	-0.389	0.311
-655.886	16.030	0.261	0.210
-654.872	64.652	0.272	-0.280
-653.857	-76.220	-0.033	0.012
-652.843	134.126	-0.102	-0.135
-651.828	-200.000	0.023	-0.426
-650.814	83.465	0.102	-0.113
-649.799	-1.239	-0.344	-0.248
-648.784	80.650	-0.289	-0.318
-647.770	104.053	-0.220	-0.264
-646.755	-200.000	-0.057	-0.283
-645.741	447.134	-0.025	0.057
-644.726	-200.000	-0.043	-0.385
-643.711	689.276	0.063	-0.168
-642.697	-6.325	0.146	-0.101
-641.682	109.932	0.341	-0.417
-640.668	63.121	-0.235	0.240
-639.653	120.249	-0.059	-0.075
-638.638	-125.763	-0.215	-0.033
-637.624	-60.579	0.154	-0.066
-636.609	800.000	0.026	-0.083
-635.595	-200.000	-0.041	-0.361
-634.580	-200.000	0.010	-0.502
-633.565	26.874	-0.320	0.273
-632.551	340.103	-0.055	-0.109
-631.536	621.031	-0.106	0.273
-630.522	-101.088	-0.302	0.075
-629.507	-200.000	0.082	-0.435
-628.492	800.000	0.067	0.202
-627.478	-122.679	-0.168	0.028
-626.463	800.000	-0.140	-0.396
-625.449	263.904	0.065	-0.115
-624.434	-127.174	-0.293	-0.044
-623.419	343.620	-0.181	0.361
-622.405	-179.168	0.123	0.003
-621.390	-200.000	0.009	-0.219
-620.376	15.182	0.324	0.258
-619.361	800.000	-0.049	-0.191
-618.346	-125.943	-0.188	-0.029
-617.332	-122.290	-0.261	0.043
-616.317	-3.803	-0.291	-0.206
-615.303	244.823	-0.159	-0.272
-614.288	800.000	0.051	-0.149
-613.273	-200.000	0.004	-0.137
-612.259	800.000	0.012	0.043
-611.244	-16.282	-0.198	0.128
-610.230	-142.470	-0.243	-0.024
-609.215	399.849	0.001	-0.003
-608.201	800.000	0.062	-0.178
-607.186	-80.366	-0.041	0.014
-606.171	231.743	0.090	0.150
-605.157	113.289	0.163	0.201
-604.142	800.000	0.146	-0.427
-603.128	-30.832	-0.126	-0.073
-602.113	-72.388	-0.160	0.060
-601.098	4.959	-0.142	-0.107
-600.084	172.221	0.200	0.293
-599.069	-99.270	0.149	0.038
-598.055	441.983	0.128	0.285
-597.040	32.069	-0.093	-0.081
-596.025	391.392	-0.149	0.314
-595.011	-54.853	-0.092	0.042
-593.996	-7.237	-0.045	0.031
-592.982	-70.166	-0.040	-0.015
-591.967	179.152	-0.007	0.011
-590.952	-67.293	0.118	0.047
-589.938	80.952	-0.206	0.226
-588.923	221.678	-0.109	0.178
-587.909	-200.000	0.015	-0.190
-586.894	-98.366	-0.184	-0.048
-585.879	800.000	0.052	0.190
-584.865	-85.220	-0.035	-0.011
-583.850	14.198	0.072	-0.057
-582.836	114.842	0.121	0.150
-581.821	800.000	0.068	0.210
-580.806	454.791	0.062	0.140
-579.792	-12.855	-0.057	-0.038
-578.777	-5.515	-0.155	-0.108
-577.763	253.394	0.093	-0.161
-576.748	-105.412	-0.391	0.090
-575.733	361.671	-0.040	-0.082
-574.719	106.417	0.137	0.165
-573.704	22.522	-0.204	0.170
-572.690	-200.000	0.049	-0.380
-571.675	-167.470	0.241	-0.010
-570.661	4.393	0.240	0.179
-569.646	800.000	0.044	-0.158
-568.631	-200.000	0.012	-0.094
-567.617	117.976	-0.080	-0.101
-566.602	-171.288	-0.361	0.012
-565.588	-109.642	0.169	0.036
-564.573	-200.000	0.024	0.190
-563.558	-200.000	-0.043	0.213
-562.544	-6.083	-0.182	-0.126
-561.529	31.947	-0.283	-0.247
-560.515	48.575	-0.323	-0.307
-559.500	12.077	0.107	-0.084
-558.485	442.461	-0.072	0.161
-557.471	-200.000	0.031	0.209
-556.456	-200.000	0.033	0.325
-555.442	800.000	0.074	-0.214
-554.427	-51.111	-0.194	-0.092
-553.412	-107.690	0.339	-0.075
-552.398	-64.779	-0.298	0.122
-551.383	-200.000	0.004	-0.108
-550.369	-200.000	-0.022	0.131
-549.354	-6.105	0.431	-0.299
-548.339	270.039	-0.067	-0.119
-547.325	-14.336	-0.052	-0.034
-546.310	-200.000	-0.009	0.145
-545.296	125.987	0.162	-0.208
-544.281	800.000	-0.075	-0.290
-543.266	-0.226	-0.057	0.041
-542.252	102.065	-0.121	0.143
-541.237	559.690	0.089	-0.217
-540.223	-109.202	0.175	-0.038
-539.208	-156.858	0.280	0.017
-538.193	-125.304	0.141	0.022
-537.179	63.259	0.219	0.223
-536.164	-200.000	-0.053	0.248
-535.150	-80.474	0.251	-0.085
-534.135	-70.111	0.247	0.095
-533.121	-200.000	0.026	0.184
-532.106	126.705	0.156	0.201
-531.091	135.224	0.040	0.053
-530.077	-26.689	-0.143	0.085
-529.062	373.421	-0.072	0.149
-528.048	-200.000	0.049	0.224
-527.033	-133.381	0.454	0.058
-526.018	-72.559	0.203	0.076
-525.004	100.963	-0.131	0.155
-523.989	274.086	0.240	-0.431
-522.975	-200.000	0.048	0.224
-521.960	31.592	-0.136	0.118
-520.945	-11.981	-0.203	-0.135
-519.931	-200.000	0.040	0.231
-518.916	-59.741	0.098	0.042
-517.902	-26.649	-0.117	0.070
-516.887	-59.479	0.172	0.075
-515.872	248.559	0.167	0.286
-514.858	-145.529	-0.269	-0.025
-513.843	-154.490	-0.232	-0.016
-512.829	346.557	0.107	-0.214
-511.814	-200.000	0.017	0.361
-510.799	-40.737	0.108	0.057
-509.785	-200.000	-0.074	-0.496
-508.770	-200.000	0.027	0.251
-507.756	800.000	-0.074	0.264
-506.741	55.321	-0.055	-0.054
-505.726	-77.701	-0.247	-0.086
-504.712	45.320	-0.047	0.044
-503.697	-21.028	0.173	0.107
-502.683	-200.000	-0.033	-0.168
-501.668	277.783	-0.002	0.004
-500.653	800.000	-0.092	-0.360
-499.639	-69.318	0.367	-0.143
-498.624	800.000	-0.026	-0.115
-497.610	-200.000	-0.031	-0.258
-496.595	8.616	-0.117	-0.089
-495.581	-53.655	0.131	0.061
-494.566	-71.735	-0.082	-0.031
-493.551	-93.756	-0.063	-0.018
-492.537	-56.188	0.163	-0.073
-491.522	472.269	0.139	0.317
-490.508	-200.000	0.054	-0.296
-489.493	156.800	0.268	-0.375
-488.478	258.675	-0.102	0.179
-487.464	-84.435	0.166	0.053
-486.449	-138.098	0.052	0.006
-485.435	55.526	-0.153	0.150
-484.420	800.000	0.022	-0.064
-483.405	117.994	0.158	-0.197
-482.391	-25.538	0.024	-0.014
-481.376	-50.553	0.148	-0.071
-480.362	10.365	0.096	-0.074
-479.347	7.152	0.047	0.035
-478.332	-121.041	-0.154	-0.026
-477.318	-34.127	-0.253	-0.141
-476.303	425.022	-0.197	0.429
-475.289	-84.199	0.257	-0.082
-474.274	313.651	0.119	-0.227
-473.259	-112.477	0.375	-0.076
-472.245	-200.000	0.021	0.247
-471.230	108.737	0.215	0.261
-470.216	-200.000	0.045	-0.243
-469.201	217.305	-0.100	-0.162
-468.186	91.322	-0.026	-0.029
-467.172	-114.091	-0.228	-0.045
-466.157	800.000	-0.048	0.148
-465.143	-76.411	0.144	-0.051
-464.128	-11.424	-0.104	-0.069
-463.113	41.204	-0.148	-0.135
-462.099	800.000	0.044	0.166
-461.084	-124.409	-0.173	0.027
-460.070	104.443	-0.139	-0.166
-459.055	78.858	0.178	-0.193
-458.040	54.852	-0.215	0.210
-457.026	-200.000	-0.000	0.166
-456.011	-200.000	-0.030	-0.344
-454.997	-73.305	-0.195	0.072
-453.982	800.000	-0.033	0.102
-452.968	19.720	-0.272	0.221
-451.953	-140.822	0.391	-0.041
-450.938	372.543	0.115	0.237
-449.924	103.353	-0.153	0.182
-448.909	-6.842	-0.235	-0.161
-447.895	-200.000	0.009	0.225
-446.880	294.607	-0.089	-0.165
-445.865	-115.031	0.089	0.017
-444.851	800.000	0.025	-0.085
-443.836	-200.000	-0.041	-0.245
-442.822	378.760	0.043	0.089
-441.807	-21.848	-0.164	-0.101
-440.792	800.000	0.039	0.128
-439.778	-189.249	-0.238	-0.003
-438.763	151.109	-0.124	-0.171
-437.749	-5.406	-0.142	-0.099
-436.734	800.000	-0.045	0.143
-435.719	569.995	-0.027	0.067
-434.705	-200.000	0.023	-0.423
-433.690	800.000	0.077	0.222
-432.676	-112.903	0.230	0.046
-431.661	358.958	0.077	-0.156
-430.646	-18.375	0.360	-0.227
-429.632	103.948	-0.065	-0.078
-428.617	-106.524	0.218	-0.049
-427.603	155.799	0.059	0.082
-426.588	800.000	0.119	0.508
-425.573	-200.000	0.021	0.290
-424.559	-146.379	-0.084	0.007
-423.544	-147.612	0.220	0.019
-422.530	-171.875	0.270	0.009
-421.515	-200.000	0.027	-0.216
-420.500	-200.000	0.018	-0.240
-419.486	-192.842	-0.180	-0.002
-418.471	156.191	0.049	0.068
-417.457	-200.000	-0.272	-0.001
-416.442	-139.156	0.115	-0.013
-415.428	87.386	0.183	0.204
-414.413	71.948	0.176	0.185
-413.398	-108.729	0.474	-0.103
-412.384	-97.324	-0.267	0.070
-411.369	64.239	-0.231	0.235
-410.355	-44.244	0.191	0.097
-409.340	-200.000	-0.024	-0.139
-408.325	-200.000	0.080	0.365
-407.311	800.000	0.119	-0.409
-406.296	0.277	-0.159	-0.115
-405.282	-200.000	0.055	0.389
-404.267	248.724	0.098	-0.168
-403.252	147.762	0.233	-0.317
-402.238	90.971	0.277	-0.314
-401.223	-200.000	0.020	-0.400
-400.209	-200.000	0.085	0.381
-399.194	-106.265	-0.288	0.065
-398.179	-200.000	-0.051	0.424
-397.165	-143.476	-0.306	0.030
-396.150	589.109	0.068	-0.170
-395.136	32.648	0.164	-0.143
-394.121	-111.237	0.074	0.015
-393.106	-102.356	-0.012	-0.003
-392.092	49.238	0.208	-0.197
-391.077	149.987	0.063	0.086
-390.063	-108.120	0.307	-0.067
-389.048	-177.857	-0.185	-0.004
-388.033	-62.854	-0.134	-0.056
-387.019	-168.438	0.514	-0.020
-386.004	-172.033	0.090	-0.003
-384.990	800.000	-0.069	-0.267
-383.975	-200.000	-0.002	-0.077
-382.960	455.641	0.207	0.463
-381.946	-200.000	0.017	0.266
-380.931	800.000	0.038	0.136
-379.917	153.740	-0.140	-0.194
-378.902	-22.860	0.232	0.141
-377.888	390.172	-0.114	0.238
-376.873	-200.000	0.051	0.535
-375.858	-58.486	-0.106	0.046
-374.844	-62.984	-0.373	0.155
-373.829	-200.000	0.196	0.000
-372.815	-200.000	-0.012	0.057
-371.800	-200.000	0.006	0.347
-370.785	12.551	-0.264	0.205
-369.771	-46.924	0.106	0.052
-368.756	76.921	0.040	0.043
-367.742	-192.452	-0.392	-0.004
-366.727	591.695	-0.084	0.209
-365.712	-49.413	0.296	0.143
-364.698	17.515	-0.189	0.151
-363.683	170.155	-0.244	0.352
-362.669	628.527	-0.097	0.248
-361.654	254.202	-0.008	0.013
-360.639	191.634	-0.074	0.112
-359.625	23.844	-0.133	-0.111
-358.610	707.294	0.166	0.442
-357.596	97.302	0.047	-0.054
-356.581	14.730	0.075	-0.059
-355.566	182.517	0.084	-0.124
-354.552	-82.135	0.219	0.072
-353.537	-121.154	-0.152	-0.026
-352.523	-107.825	-0.142	0.031
-351.508	-172.194	-0.210	-0.007
-350.493	-99.079	0.314	0.080
-349.479	64.796	0.155	0.157
-348.464	-65.963	0.314	-0.126
-347.450	-92.528	-0.238	-0.067
-346.435	800.000	-0.050	-0.147
-345.420	-200.000	-0.012	-0.342
-344.406	-1.583	-0.081	0.057
-343.391	800.000	-0.093	0.362
-342.377	-125.137	0.131	0.020
-341.362	6.178	-0.310	-0.232
-340.348	-83.807	0.220	0.071
-339.333	-117.550	0.466	0.085
-338.318	357.349	-0.026	-0.051
-337.304	800.000	-0.080	0.303
-336.289	-122.780	0.087	0.014
-335.275	156.445	-0.219	-0.305
-334.260	-119.980	0.306	-0.053
-333.245	24.273	-0.177	-0.147
-332.231	-27.910	-0.155	0.090
-331.216	-200.000	0.036	0.204
-330.202	30.322	-0.315	-0.271
-329.187	-86.421	0.404	0.125
-328.172	-159.393	0.259	-0.015
-327.158	-25.493	0.114	-0.068
-326.143	-200.000	-0.013	-0.111
-325.129	409.501	0.051	0.108
-324.114	-40.476	0.195	0.102
-323.099	45.387	0.266	-0.247
-322.085	-106.923	-0.192	-0.043
-321.070	228.253	0.054	0.088
-320.056	-157.068	0.191	-0.012
-319.041	-200.000	-0.027	-0.181
-318.026	127.623	0.123	0.157
-317.012	-116.635	-0.196	-0.036
-315.997	-97.801	-0.308	-0.080
-314.983	-162.909	-0.176	-0.009
-313.968	-8.608	0.284	0.192
-312.953	55.733	-0.107	-0.104
-311.939	-137.074	0.305	-0.035
-310.924	-116.486	0.308	-0.057
-309.910	-60.788	0.148	-0.063
-308.895	-67.927	-0.091	0.036
-307.880	-200.000	-0.027	0.140
-306.866	-123.676	-0.212	-0.034
-305.851	-53.138	-0.180	-0.083
-304.837	-189.663	-0.448	-0.005
-303.822	316.703	0.121	-0.231
-302.807	438.347	0.179	-0.394
-301.793	800.000	0.054	-0.172
-300.778	-200.000	0.011	0.058
-299.764	486.064	-0.122	-0.280
-298.749	-83.382	-0.137	-0.044
-297.735	29.723	-0.069	0.059
-296.720	-200.000	0.008	0.138
-295.705	128.708	0.144	-0.185
-294.691	-31.606	-0.275	0.155
-293.676	69.225	0.148	0.153
-292.662	-200.000	-0.062	-0.340
-291.647	239.266	-0.095	-0.160
-290.632	-200.000	-0.059	-0.000
-289.618	30.661	0.039	-0.033
-288.603	603.835	-0.061	-0.154
-287.589	-32.705	0.112	-0.063
-286.574	-153.731	-0.288	-0.020
-285.559	-127.449	-0.166	-0.024
-284.545	51.913	0.188	-0.180
-283.530	-200.000	-0.063	0.300
-282.516	80.345	-0.131	-0.141
-281.501	-200.000	-0.001	-0.062
-280.486	159.076	-0.204	0.285
-279.472	-200.000	-0.042	-0.286
-278.457	-158.552	-0.166	-0.010
-277.443	-85.790	-0.252	-0.079
-276.428	2.900	0.087	0.063
-275.413	-78.443	0.202	-0.069
-274.399	-158.949	0.283	-0.016
-273.384	-47.466	-0.257	-0.126
-272.370	-29.824	0.090	-0.052
-271.355	-96.548	0.268	-0.071
-270.340	-200.000	0.001	-0.063
-269.326	800.000	0.027	-0.117
-268.311	-200.000	0.028	0.158
-267.297	99.723	0.079	0.092
-266.282	-100.298	0.297	0.074
-265.267	311.562	-0.149	0.281
-264.253	-69.436	0.219	0.084
-263.238	-108.351	-0.260	-0.056
-262.224	43.273	0.140	0.129
-261.209	-87.310	0.092	0.028
-260.195	1.628	-0.098	-0.071
-259.180	-56.475	-0.066	0.030
-258.165	125.427	-0.181	0.229
-257.151	800.000	-0.083	0.244
-256.136	-15.777	-0.101	-0.065
-255.122	-197.785	-0.297	-0.002
-254.107	176.946	0.170	0.249
-253.092	13.648	-0.235	-0.183
-252.078	-200.000	0.005	-0.070
-251.063	-200.000	-0.005	-0.111
-250.049	-125.630	0.315	-0.048
-249.034	59.823	-0.068	-0.068
-248.019	350.308	0.063	0.125
-247.005	800.000	0.083	0.271
-245.990	-170.260	0.223	0.008
-244.976	206.522	-0.025	-0.039
-243.961	-122.618	-0.058	-0.009
-242.946	-139.047	0.111	-0.012
-241.932	-200.000	0.045	0.243
-240.917	278.690	0.012	0.021
-239.903	777.551	-0.104	-0.285
-238.888	-200.000	0.031	0.164
-237.873	800.000	-0.053	-0.158
-236.859	-200.000	-0.023	0.161
-235.844	115.970	0.028	0.034
-234.830	22.946	0.160	0.131
-233.815	-154.544	-0.195	0.013
-232.800	-200.000	-0.042	-0.211
-231.786	-200.000	0.032	0.216
-230.771	-200.000	-0.063	0.491
-229.757	800.000	0.057	0.186
-228.742	-61.341	-0.338	-0.143
-227.727	-88.467	-0.146	0.044
-226.713	800.000	-0.091	-0.336
-225.698	-19.451	-0.164	0.102
-224.684	-86.093	-0.160	-0.050
-223.669	-102.589	-0.259	-0.062
-222.655	594.733	-0.072	0.178
-221.640	442.055	-0.052	0.115
-220.625	-200.000	-0.036	0.184
-219.611	-200.000	-0.014	-0.208
-218.596	339.344	-0.121	-0.236
-217.582	491.745	-0.155	-0.356
-216.567	12.077	0.044	-0.034
-215.552	47.359	-0.062	-0.058
-214.538	-17.660	-0.434	0.273
-213.523	-92.443	0.186	-0.053
-212.509	-124.863	-0.268	0.042
-211.494	-188.775	0.146	0.002
-210.479	-71.115	-0.147	-0.056
-209.465	-42.986	0.224	0.114
-208.450	194.359	-0.063	-0.096
-207.436	48.009	0.149	-0.139
-206.421	-125.869	-0.104	0.016
-205.406	-96.109	0.176	0.047
-204.392	-200.000	-0.041	-0.317
-203.377	800.000	0.030	-0.111
-202.363	-200.000	-0.010	-0.225
-201.348	-84.138	-0.245	0.078
-200.333	-200.000	-0.446	0.002
-199.319	2.843	-0.186	0.135
-198.304	800.000	-0.106	0.414
-197.290	162.583	-0.142	0.200
-196.275	-200.000	-0.018	0.228
-195.260	-16.317	-0.108	-0.069
-194.246	217.147	0.105	0.167
-193.231	-55.855	0.227	0.101
-192.217	-199.466	-0.204	-0.001
-191.202	800.000	-0.088	-0.351
-190.187	-3.704	0.237	0.165
-189.173	684.365	0.077	0.201
-188.158	-200.000	-0.106	-0.465
-187.144	-20.827	0.048	-0.029
-186.129	-20.701	0.360	0.221
-185.114	-42.303	0.241	0.123
-184.100	130.642	-0.039	-0.050
-183.085	-111.782	0.170	0.034
-182.071	-75.071	0.388	0.139
-181.056	-58.416	-0.184	-0.080
-180.042	-70.551	0.473	0.179
-179.027	378.949	-0.173	0.355
-178.012	471.376	-0.057	0.129
-176.998	-82.633	0.222	-0.072
-175.983	-200.000	-0.021	0.217
-174.969	151.932	0.090	-0.123
-173.954	-200.000	0.001	0.206
-172.939	-14.907	0.194	-0.125
-171.925	0.237	-0.115	-0.082
-170.910	217.101	-0.060	-0.096
-169.896	-53.774	-0.211	-0.096
-168.881	-179.331	0.161	0.004
-167.866	42.684	-0.223	0.203
-166.852	307.150	-0.049	-0.091
-165.837	787.532	-0.053	-0.146
-164.823	243.627	-0.202	-0.339
-163.808	-55.249	0.107	-0.048
-162.793	-200.000	0.020	0.103
-161.779	-200.000	0.015	0.296
-160.764	186.330	-0.176	0.261
-159.750	-112.336	0.199	-0.040
-158.735	-77.446	0.165	-0.057
-157.720	84.141	0.213	-0.233
-156.706	-149.811	0.490	0.038
-155.691	-200.000	-0.025	-0.131
-154.677	5.784	0.061	0.045
-153.662	136.083	-0.013	-0.016
-152.647	65.330	0.213	-0.215
-151.633	-41.793	0.423	-0.217
-150.618	93.447	0.291	0.330
-149.604	-9.489	-0.084	0.056
-148.589	-26.613	-0.084	-0.049
-147.574	-200.000	0.005	0.056
-146.560	194.647	-0.088	-0.134
-145.545	800.000	0.043	0.162
-144.531	-200.000	-0.004	0.069
-143.516	-200.000	0.008	0.102
-142.502	-45.767	0.176	0.087
-141.487	-111.022	0.371	0.076
-140.472	183.415	0.029	0.043
-139.458	-100.575	-0.206	-0.051
-138.443	57.428	0.182	0.178
-137.429	76.043	-0.231	0.244
-136.414	32.123	0.118	-0.101
-135.399	-57.531	0.221	0.097
-134.385	-11.712	0.135	0.088
-133.370	452.929	-0.094	0.207
-132.356	-200.000	-0.100	-0.513
-131.341	800.000	-0.071	0.231
-130.326	-167.369	-0.469	-0.019
-129.312	632.518	0.026	0.067
-128.297	-78.554	0.191	0.065
-127.283	-114.201	0.082	0.016
-126.268	-200.000	0.007	-0.038
-125.253	-174.148	0.147	0.004
-124.239	-90.595	-0.337	0.097
-123.224	-200.000	-0.037	-0.283
-122.210	800.000	-0.129	0.408
