DTS Sentinel unit serial number:	SN413079Multiplexer serial number:	ORYXHardware model number:	OX4-SRSoftware version number:	ORYX F/W v4.00 Oryx Data Collector v3.7.2.0data status	okinstallation	princeton_trtdifferential loss correction	single-endedforward channel	channel 4reverse channel	N/Adate	2019/09/12time	06:51:11forward acquisition time	60.00reverse acquisition time	0.00gamma	496.2192k internal	0.2307k external	0.2307temperature offset calibration	1.0065default loss term (dB/km)	0.3790temperature slope calibration	1.0000multiplexer offset coefficient	1.0000multiplexer slope coefficient	1.0000fibre end	0.00T internal ref (°C)	32.12T ext. ref 1 (°C)	1.59T ext. ref 2 (°C)	27.30length (m)	temperature (°C)	Stokes	anti-Stokes-747.200	-23.658	-0.250	-0.152
-746.185	43.029	-0.214	-0.199
-745.171	-200.000	-0.086	-0.400
-744.156	405.336	-0.255	0.547
-743.142	-44.396	-0.109	0.055
-742.127	800.000	-0.066	0.255
-741.112	338.341	0.065	-0.128
-740.098	-120.565	-0.306	0.053
-739.083	800.000	0.118	0.355
-738.069	15.011	-0.282	0.224
-737.054	-200.000	-0.001	-0.078
-736.039	-102.050	0.155	-0.038
-735.025	800.000	0.046	0.190
-734.010	-28.822	-0.242	0.142
-732.996	-184.942	-0.320	-0.005
-731.981	-70.386	-0.272	0.105
-730.966	-65.612	0.072	0.029
-729.952	-72.858	-0.267	0.100
-728.937	-47.143	0.237	-0.118
-727.923	-62.388	0.199	0.084
-726.908	-111.455	-0.443	-0.092
-725.894	549.499	0.047	0.116
-724.879	92.127	0.155	0.178
-723.864	98.411	-0.263	-0.309
-722.850	-40.799	0.118	0.062
-721.835	718.963	0.082	-0.223
-720.821	429.234	0.012	-0.026
-719.806	800.000	-0.028	0.123
-718.791	-200.000	-0.019	-0.311
-717.777	-61.556	0.359	-0.153
-716.762	-88.936	-0.026	-0.008
-715.748	-73.755	-0.124	0.046
-714.733	100.620	0.158	-0.186
-713.718	-101.905	-0.094	-0.023
-712.704	294.728	0.200	-0.371
-711.689	-200.000	-0.011	0.061
-710.675	-173.333	0.113	-0.003
-709.660	716.092	-0.089	-0.240
-708.645	37.921	0.151	-0.136
-707.631	108.376	-0.175	-0.212
-706.616	-20.380	-0.091	-0.057
-705.602	-200.000	0.016	0.111
-704.587	-136.603	0.261	0.031
-703.572	-200.000	-0.001	-0.309
-702.558	669.223	0.046	-0.120
-701.543	147.498	0.194	0.265
-700.529	800.000	-0.070	-0.273
-699.514	100.046	-0.199	-0.234
-698.499	-125.937	0.357	0.055
-697.485	573.875	-0.047	0.116
-696.470	-36.462	0.413	0.226
-695.456	308.715	0.202	0.384
-694.441	-158.382	0.288	0.017
-693.426	800.000	-0.127	0.448
-692.412	161.159	0.203	0.288
-691.397	451.839	-0.128	-0.287
-690.383	-146.509	0.214	0.019
-689.368	-87.499	-0.093	-0.028
-688.354	464.446	-0.197	0.447
-687.339	-40.951	-0.185	0.097
-686.324	-155.690	0.517	-0.034
-685.310	333.857	-0.021	-0.040
-684.295	-198.678	-0.142	0.001
-683.281	-185.676	-0.081	0.001
-682.266	-119.639	-0.705	0.124
-681.251	45.017	-0.276	0.258
-680.237	-54.642	-0.407	-0.187
-679.222	-39.971	-0.113	0.060
-678.208	323.433	-0.099	0.191
-677.193	-69.459	-0.141	0.055
-676.178	4.762	0.169	-0.126
-675.164	107.829	0.087	0.105
-674.149	800.000	-0.063	0.215
-673.135	-200.000	0.013	-0.120
-672.120	52.566	-0.253	-0.245
-671.105	-200.000	-0.032	0.163
-670.091	-116.777	-0.126	0.023
-669.076	-173.091	-0.322	-0.010
-668.062	-12.974	-0.139	0.092
-667.047	-77.561	-0.387	-0.136
-666.032	-200.000	-0.017	0.229
-665.018	337.447	0.085	0.167
-664.003	-1.709	-0.050	-0.036
-662.989	-43.213	0.299	0.154
-661.974	-178.093	-0.047	-0.001
-660.959	-61.099	0.021	-0.009
-659.945	-108.814	-0.326	0.071
-658.930	-200.000	0.007	-0.035
-657.916	-51.331	-0.039	0.019
-656.901	-79.657	0.128	-0.044
-655.886	557.783	-0.024	-0.058
-654.872	349.655	0.129	0.258
-653.857	74.426	0.090	-0.095
-652.843	-39.592	-0.020	0.011
-651.828	-38.956	0.372	0.198
-650.814	-200.000	-0.025	-0.211
-649.799	-113.938	0.484	-0.095
-648.784	71.031	-0.110	0.115
-647.770	117.570	-0.237	-0.296
-646.755	169.646	-0.010	-0.014
-645.741	-64.752	-0.489	-0.201
-644.726	-124.352	-0.295	-0.047
-643.711	-90.718	0.065	0.019
-642.697	-21.230	0.131	0.081
-641.682	69.762	0.369	-0.385
-640.668	-62.628	-0.311	0.131
-639.653	101.603	0.126	0.149
-638.638	-75.489	-0.021	-0.008
-637.624	300.005	0.074	0.138
-636.609	-146.069	0.317	-0.028
-635.595	-21.813	0.380	0.234
-634.580	-200.000	-0.026	0.253
-633.565	-104.483	-0.548	0.128
-632.551	-65.568	0.249	0.101
-631.536	-200.000	0.031	0.138
-630.522	-200.000	-0.017	0.379
-629.507	79.205	-0.245	-0.266
-628.492	4.431	0.162	-0.120
-627.478	-106.089	-0.359	0.082
-626.463	107.203	-0.088	0.105
-625.449	-147.754	-0.241	-0.020
-624.434	-98.398	0.059	0.015
-623.419	-69.224	0.235	0.092
-622.405	-170.493	0.293	-0.010
-621.390	-13.603	-0.170	0.111
-620.376	650.344	-0.209	0.542
-619.361	-160.213	0.205	-0.011
-618.346	800.000	-0.083	0.310
-617.332	-62.975	0.259	0.108
-616.317	278.842	0.110	0.198
-615.303	-123.832	-0.371	0.059
-614.288	-55.210	0.194	-0.088
-613.273	491.491	-0.069	-0.159
-612.259	440.633	0.052	0.115
-611.244	-123.612	-0.236	0.038
-610.230	6.849	0.121	0.091
-609.215	-43.164	0.154	0.079
-608.201	671.448	0.015	0.038
-607.186	800.000	0.039	0.139
-606.171	-35.512	0.192	0.105
-605.157	4.479	0.151	0.112
-604.142	72.690	0.162	-0.171
-603.128	-200.000	0.002	0.060
-602.113	-119.949	0.149	0.026
-601.098	18.221	0.238	-0.192
-600.084	736.985	-0.113	-0.307
-599.069	-106.565	0.217	-0.049
-598.055	244.552	0.107	0.181
-597.040	-26.804	0.223	0.132
-596.025	-73.630	-0.386	-0.142
-595.011	-75.535	0.119	0.043
-593.996	800.000	-0.096	-0.374
-592.982	-19.447	0.153	0.096
-591.967	-200.000	0.015	-0.169
-590.952	108.185	0.115	0.139
-589.938	800.000	0.055	0.170
-588.923	417.181	-0.052	0.112
-587.909	-137.875	-0.220	0.025
-586.894	-85.494	-0.215	0.068
-585.879	-200.000	0.050	-0.255
-584.865	-46.435	-0.071	0.035
-583.850	402.211	0.219	0.465
-582.836	800.000	-0.092	0.283
-581.821	-186.375	-0.289	0.004
-580.806	60.323	-0.065	0.065
-579.792	-104.073	0.250	0.059
-578.777	353.351	0.082	0.165
-577.763	105.840	0.273	-0.326
-576.748	388.387	0.040	0.085
-575.733	800.000	0.088	0.249
-574.719	189.369	-0.292	0.443
-573.704	-200.000	-0.013	-0.086
-572.690	-77.408	0.103	-0.036
-571.675	233.149	0.047	-0.079
-570.661	-200.000	-0.006	0.198
-569.646	-151.354	-0.276	-0.021
-568.631	-68.519	0.290	-0.114
-567.617	-153.123	0.127	-0.009
-566.602	-48.059	0.214	0.104
-565.588	-146.803	-0.228	-0.020
-564.573	-61.255	-0.124	0.053
-563.558	-200.000	-0.012	-0.157
-562.544	-92.414	-0.158	-0.045
-561.529	-31.843	0.133	0.075
-560.515	-172.602	-0.329	-0.010
-559.500	-134.601	-0.098	0.012
-558.485	-118.317	0.464	-0.083
-557.471	-108.569	-0.202	0.044
-556.456	-106.084	0.140	-0.032
-555.442	-144.154	-0.038	0.004
-554.427	-200.000	-0.013	-0.159
-553.412	-121.886	0.191	0.032
-552.398	48.349	-0.223	0.211
-551.383	731.811	0.114	-0.307
-550.369	96.549	0.165	-0.190
-549.354	-200.000	0.001	0.058
-548.339	-53.073	-0.129	0.060
-547.325	800.000	0.027	-0.076
-546.310	800.000	0.074	-0.294
-545.296	209.123	-0.136	0.215
-544.281	-200.000	0.008	0.246
-543.266	-49.118	0.183	-0.088
-542.252	-31.973	-0.141	0.080
-541.237	73.702	-0.089	-0.094
-540.223	-94.501	-0.237	-0.065
-539.208	-200.000	0.106	-0.506
-538.193	800.000	-0.048	0.203
-537.179	-42.881	-0.165	0.085
-536.164	-121.959	-0.201	0.033
-535.150	93.944	0.049	0.056
-534.135	-91.453	0.188	0.054
-533.121	-186.664	0.132	-0.002
-532.106	-200.000	-0.009	0.119
-531.091	-16.642	0.303	-0.193
-530.077	-20.179	-0.307	-0.191
-529.062	-64.763	-0.109	-0.044
-528.048	-32.792	0.083	-0.047
-527.033	-114.592	0.166	0.032
-526.018	111.200	0.210	0.255
-525.004	-12.499	0.240	0.158
-523.989	609.095	-0.102	-0.256
-522.975	371.945	0.126	-0.258
-521.960	-121.718	0.154	0.026
-520.945	271.179	0.120	0.213
-519.931	72.053	0.273	0.286
-518.916	-200.000	0.001	-0.285
-517.902	-200.000	0.001	0.157
-516.887	71.276	0.226	-0.236
-515.872	-106.765	0.186	-0.042
-514.858	23.568	0.054	0.045
-513.843	-26.276	-0.053	-0.031
-512.829	-71.096	0.300	0.114
-511.814	113.814	0.032	-0.039
-510.799	-121.122	0.158	-0.027
-509.785	-144.578	0.130	-0.012
-508.770	255.176	-0.033	0.058
-507.756	-101.007	-0.109	-0.027
-506.741	-200.000	-0.002	-0.080
-505.726	-107.310	0.173	0.038
-504.712	-200.000	-0.003	-0.131
-503.697	-200.000	-0.027	-0.477
-502.683	-200.000	-0.020	-0.196
-501.668	-69.729	-0.335	-0.129
-500.653	-20.508	-0.258	0.160
-499.639	-2.520	-0.385	-0.271
-498.624	363.848	-0.041	-0.083
-497.610	99.438	0.033	-0.039
-496.595	147.164	-0.111	-0.150
-495.581	800.000	-0.024	0.071
-494.566	-129.618	-0.248	-0.035
-493.551	-100.491	-0.233	-0.058
-492.537	-200.000	0.032	-0.372
-491.522	63.771	-0.285	-0.288
-490.508	-77.890	-0.255	-0.089
-489.493	539.347	-0.068	-0.162
-488.478	800.000	0.035	-0.123
-487.464	-66.368	0.122	-0.049
-486.449	85.092	0.164	0.181
-485.435	-36.877	0.571	0.308
-484.420	415.221	-0.070	-0.149
-483.405	-175.055	0.109	-0.003
-482.391	800.000	-0.127	0.434
-481.376	-177.870	-0.083	-0.002
-480.362	449.228	0.115	-0.254
-479.347	-94.272	-0.117	-0.032
-478.332	800.000	-0.064	0.238
-477.318	-128.857	-0.122	-0.017
-476.303	800.000	-0.087	-0.281
-475.289	453.438	0.025	0.056
-474.274	-200.000	-0.037	0.173
-473.259	-59.123	-0.554	0.240
-472.245	34.482	-0.309	0.272
-471.230	24.100	-0.084	0.070
-470.216	-170.581	0.188	0.007
-469.201	160.315	0.025	0.036
-468.186	-101.731	-0.502	0.122
-467.172	37.184	-0.349	0.311
-466.157	-62.912	0.536	0.223
-465.143	800.000	0.039	-0.164
-464.128	800.000	-0.077	-0.244
-463.113	-200.000	-0.029	-0.321
-462.099	77.582	0.291	-0.311
-461.084	-63.843	-0.162	0.067
-460.070	375.822	0.044	0.091
-459.055	800.000	-0.126	-0.402
-458.040	-200.000	-0.010	-0.151
-457.026	-99.751	-0.243	0.061
-456.011	-143.898	0.174	0.017
-454.997	546.953	-0.151	0.362
-453.982	-101.730	0.142	0.035
-452.968	256.672	0.094	-0.162
-451.953	-52.475	-0.118	0.055
-450.938	-200.000	-0.002	0.171
-449.924	-34.534	0.113	0.062
-448.909	0.244	-0.216	-0.155
-447.895	-200.000	0.046	-0.423
-446.880	-167.949	-0.315	-0.012
-445.865	-68.754	-0.229	-0.089
-444.851	800.000	-0.088	-0.245
-443.836	134.207	-0.217	-0.282
-442.822	800.000	-0.084	-0.361
-441.807	-200.000	0.040	0.226
-440.792	800.000	0.050	-0.214
-439.778	-200.000	-0.045	0.381
-438.763	308.043	-0.017	0.033
-437.749	-70.001	-0.189	-0.072
-436.734	800.000	-0.008	0.028
-435.719	94.433	0.092	0.105
-434.705	-14.053	0.099	0.064
-433.690	-37.693	-0.170	-0.091
-432.676	6.938	0.047	-0.035
-431.661	-36.309	0.359	-0.194
-430.646	-14.934	0.067	0.043
-429.632	-200.000	0.032	0.370
-428.617	-133.994	0.213	0.026
-427.603	109.210	-0.139	-0.167
-426.588	13.894	0.041	0.032
-425.573	35.645	-0.141	-0.124
-424.559	460.161	-0.005	0.010
-423.544	4.966	-0.050	0.037
-422.530	-94.443	0.280	-0.077
-421.515	-200.000	0.051	0.258
-420.500	236.181	0.132	-0.219
-419.486	-124.182	-0.199	0.031
-418.471	88.183	-0.044	-0.049
-417.457	-200.000	0.001	0.202
-416.442	-30.824	-0.312	-0.177
-415.428	800.000	0.113	-0.356
-414.413	800.000	-0.034	-0.115
-413.398	373.001	-0.020	0.041
-412.384	-200.000	-0.038	-0.201
-411.369	-169.629	0.274	0.010
-410.355	-52.652	-0.206	0.095
-409.340	-40.562	0.082	0.043
-408.325	44.239	0.238	-0.219
-407.311	621.944	-0.032	-0.082
-406.296	-8.022	0.280	-0.190
-405.282	259.626	-0.098	0.170
-404.267	31.263	0.249	0.215
-403.252	59.134	0.069	-0.069
-402.238	400.370	-0.042	0.088
-401.223	-120.427	0.212	-0.036
-400.209	-200.000	0.082	-0.397
-399.194	-99.969	-0.268	0.067
-398.179	-93.689	-0.224	-0.062
-397.165	187.073	0.113	-0.170
-396.150	-20.353	-0.207	0.128
-395.136	-37.524	0.248	-0.133
-394.121	-200.000	-0.018	0.243
-393.106	-93.507	0.367	-0.102
-392.092	-65.751	0.129	-0.052
-391.077	41.919	-0.271	0.247
-390.063	-200.000	0.030	-0.363
-389.048	-200.000	0.036	0.210
-388.033	-86.305	-0.194	-0.060
-387.019	-87.291	-0.224	-0.068
-386.004	524.692	-0.102	-0.242
-384.990	-67.291	-0.361	-0.142
-383.975	17.510	0.275	0.219
-382.960	-122.815	0.196	0.032
-381.946	-63.191	-0.080	0.033
-380.931	-200.000	0.021	-0.220
-379.917	-137.607	0.189	-0.021
-378.902	-121.014	-0.146	-0.025
-377.888	-134.412	0.394	-0.048
-376.873	-79.130	-0.287	0.098
-375.858	-91.426	-0.162	0.046
-374.844	800.000	-0.091	0.253
-373.829	-44.654	-0.183	0.092
-372.815	800.000	-0.020	0.085
-371.800	74.542	0.172	0.181
-370.785	12.106	-0.050	-0.039
-369.771	309.514	0.030	-0.055
-368.756	-23.672	-0.178	0.107
-367.742	-2.121	-0.364	-0.256
-366.727	427.345	-0.089	0.193
-365.712	568.911	0.129	0.315
-364.698	-111.247	0.228	-0.047
-363.683	43.398	0.151	-0.138
-362.669	33.009	0.111	-0.096
-361.654	24.889	0.241	-0.201
-360.639	800.000	0.008	0.023
-359.625	253.624	0.035	0.060
-358.610	158.821	-0.139	-0.193
-357.596	-132.170	-0.332	0.043
-356.581	94.134	0.273	0.310
-355.566	226.610	0.117	0.190
-354.552	343.532	-0.046	0.090
-353.537	7.919	-0.319	-0.240
-352.523	298.092	-0.036	-0.065
-351.508	-1.074	-0.032	-0.022
-350.493	-96.901	-0.349	-0.092
-349.479	504.017	-0.153	-0.355
-348.464	74.097	0.290	-0.304
-347.450	-200.000	-0.010	0.144
-346.435	622.055	0.043	-0.109
-345.420	103.301	-0.114	-0.133
-344.406	-144.978	-0.213	0.019
-343.391	-63.458	0.092	0.038
-342.377	340.797	-0.137	-0.269
-341.362	55.149	0.200	0.193
-340.348	800.000	0.077	-0.261
-339.333	183.875	-0.245	0.363
-338.318	38.332	0.288	-0.257
-337.304	-200.000	0.030	0.257
-336.289	765.484	0.036	0.098
-335.275	-200.000	0.019	0.164
-334.260	-42.457	-0.256	0.131
-333.245	55.377	-0.098	0.095
-332.231	27.199	0.124	0.104
-331.216	-147.177	0.229	0.020
-330.202	-112.255	-0.377	0.076
-329.187	453.771	-0.090	-0.199
-328.172	66.427	0.176	0.179
-327.158	-200.000	0.088	0.598
-326.143	59.844	0.063	0.062
-325.129	651.174	0.141	-0.362
-324.114	-132.671	-0.208	-0.027
-323.099	-62.798	0.092	-0.038
-322.085	-149.394	-0.332	-0.026
-321.070	262.365	-0.112	-0.195
-320.056	293.669	-0.099	0.180
-319.041	-54.176	0.141	0.064
-318.026	-21.578	0.040	-0.024
-317.012	-77.650	-0.250	0.086
-315.997	112.909	0.105	0.127
-314.983	34.979	0.208	-0.182
-313.968	-88.165	-0.322	-0.096
-312.953	126.717	0.187	0.236
-311.939	292.734	0.062	-0.114
-310.924	-54.740	-0.093	-0.042
-309.910	800.000	-0.031	-0.130
-308.895	184.805	-0.033	0.049
-307.880	6.571	-0.174	-0.129
-306.866	49.031	0.123	0.116
-305.851	154.583	-0.199	0.273
-304.837	-200.000	-0.036	0.197
-303.822	-200.000	0.085	-0.000
-302.807	34.726	0.107	0.093
-301.793	1.187	0.209	0.150
-300.778	237.249	0.074	0.122
-299.764	29.701	0.143	0.122
-298.749	406.861	0.090	0.189
-297.735	-200.000	-0.001	-0.289
-296.720	-110.317	0.241	0.050
-295.705	-164.179	0.125	-0.006
-294.691	-148.178	0.093	-0.008
-293.676	-55.866	0.373	0.166
-292.662	-14.749	-0.375	0.241
-291.647	-200.000	-0.016	-0.098
-290.632	10.256	0.282	-0.214
-289.618	440.391	0.046	-0.100
-288.603	-105.228	0.279	-0.064
-287.589	-86.911	-0.186	0.057
-286.574	-49.138	-0.058	-0.028
-285.559	48.599	0.233	0.218
-284.545	-200.000	0.004	0.121
-283.530	46.430	-0.106	-0.098
-282.516	-38.790	0.130	-0.069
-281.501	368.727	-0.163	0.328
-280.486	-56.572	0.202	0.089
-279.472	49.097	-0.138	-0.130
-278.457	-22.715	0.076	0.046
-277.443	-81.744	0.128	-0.042
-276.428	192.236	-0.040	-0.061
-275.413	-70.706	-0.249	-0.094
-274.399	203.796	-0.070	0.109
-273.384	800.000	-0.090	0.383
-272.370	438.939	-0.135	0.294
-271.355	-200.000	0.055	-0.307
-270.340	579.707	-0.019	-0.045
-269.326	312.628	-0.129	0.241
-268.311	23.406	0.141	0.116
-267.297	800.000	0.085	0.296
-266.282	-200.000	-0.096	-0.615
-265.267	-173.977	-0.535	-0.016
-264.253	-25.939	-0.095	-0.056
-263.238	-83.578	-0.470	-0.150
-262.224	-200.000	-0.052	0.233
-261.209	800.000	-0.120	-0.476
-260.195	800.000	0.050	-0.156
-259.180	125.609	-0.126	0.158
-258.165	36.050	-0.211	-0.185
-257.151	40.502	0.156	-0.140
-256.136	369.268	0.030	-0.060
-255.122	-71.544	-0.114	0.043
-254.107	-200.000	-0.016	-0.113
-253.092	-3.257	-0.112	-0.078
-252.078	324.097	-0.074	0.141
-251.063	-133.419	0.094	0.012
-250.049	-200.000	0.035	-0.536
-249.034	800.000	0.164	-0.461
-248.019	-200.000	0.040	0.417
-247.005	265.659	0.213	0.371
-245.990	-200.000	0.007	0.051
-244.976	-200.000	0.050	0.355
-243.961	94.102	-0.095	-0.107
-242.946	194.884	-0.131	0.198
-241.932	82.236	0.243	0.263
-240.917	-200.000	-0.031	0.195
-239.903	-197.670	-0.208	-0.001
-238.888	-33.118	-0.065	0.036
-237.873	453.282	-0.108	0.237
-236.859	66.087	-0.119	-0.121
-235.844	42.606	-0.123	-0.112
-234.830	-200.000	0.048	0.335
-233.815	336.898	-0.118	0.228
-232.800	-112.949	-0.085	0.017
-231.786	91.557	0.068	0.076
-230.771	-93.433	0.227	-0.063
-229.757	45.211	0.173	-0.159
-228.742	-87.771	-0.215	0.065
-227.727	-121.909	0.056	0.009
-226.713	-93.172	0.243	-0.067
-225.698	800.000	-0.079	0.225
-224.684	110.950	-0.156	0.187
-223.669	59.242	0.508	0.498
-222.655	3.189	0.155	-0.113
-221.640	77.886	-0.300	-0.318
-220.625	800.000	-0.142	0.415
-219.611	800.000	0.159	0.482
-218.596	-164.200	-0.057	-0.003
-217.582	-16.150	0.260	-0.165
-216.567	-110.592	0.125	-0.026
-215.552	-103.723	0.027	-0.006
-214.538	-65.291	0.266	0.107
-213.523	-200.000	-0.003	0.055
-212.509	245.618	-0.044	0.074
-211.494	113.825	-0.066	-0.080
-210.479	-87.915	0.134	0.040
-209.465	299.266	-0.189	-0.346
-208.450	177.318	0.089	-0.130
-207.436	376.165	-0.077	-0.156
-206.421	-200.000	0.011	-0.174
-205.406	63.702	-0.182	0.182
-204.392	-200.000	0.035	-0.173
-203.377	-129.285	0.373	0.052
-202.363	435.387	0.139	-0.301
-201.348	-133.083	-0.245	-0.031
-200.333	-200.000	0.074	0.537
-199.319	115.810	-0.112	-0.137
-198.304	-64.512	0.385	0.156
-197.290	800.000	0.073	0.301
-196.275	-15.292	-0.126	0.080
-195.260	-35.896	0.448	-0.242
-194.246	-200.000	-0.046	0.334
-193.231	-16.527	0.055	0.035
-192.217	-200.000	-0.016	-0.470
-191.202	191.894	0.049	-0.074
-190.187	-200.000	0.016	-0.115
-189.173	-121.244	-0.311	-0.052
-188.158	-200.000	-0.020	-0.158
-187.144	-21.651	0.128	0.077
-186.129	800.000	-0.018	-0.073
-185.114	-18.311	0.283	-0.176
-184.100	55.307	-0.148	-0.142
-183.085	-42.447	0.079	-0.040
-182.071	800.000	-0.063	0.242
-181.056	278.838	0.045	0.081
-180.042	104.671	-0.133	-0.156
-179.027	145.174	-0.091	-0.121
-178.012	-16.458	0.275	-0.174
-176.998	-200.000	-0.080	-0.396
-175.983	-79.349	-0.170	0.057
-174.969	-61.567	-0.293	-0.122
-173.954	497.637	-0.044	0.102
-172.939	-26.262	-0.317	0.185
-171.925	93.749	0.260	0.293
-170.910	217.386	-0.124	-0.196
-169.896	800.000	0.079	0.314
-168.881	-200.000	-0.052	0.378
-167.866	-70.241	0.311	-0.117
-166.852	-9.618	0.026	-0.017
-165.837	-160.267	0.222	0.012
-164.823	488.576	0.079	-0.180
-163.808	732.269	0.126	-0.334
-162.793	-200.000	0.023	0.277
-161.779	-45.924	-0.341	-0.167
-160.764	397.500	0.141	0.292
-159.750	2.022	-0.134	-0.096
-158.735	-200.000	0.089	-0.471
-157.720	-200.000	-0.049	-0.226
-156.706	-5.080	0.368	-0.252
-155.691	-145.819	-0.236	0.021
-154.677	-88.384	0.138	0.041
-153.662	-79.210	-0.130	-0.044
-152.647	-200.000	-0.060	-0.297
-151.633	417.715	0.159	-0.338
-150.618	-23.486	0.189	-0.113
-149.604	-200.000	-0.025	0.131
-148.589	800.000	0.016	0.058
-147.574	-200.000	0.006	0.115
-146.560	389.621	0.136	0.280
-145.545	-61.313	-0.107	-0.045
-144.531	64.727	-0.140	0.140
-143.516	-200.000	-0.039	-0.197
-142.502	800.000	-0.074	-0.214
-141.487	-65.568	-0.328	0.131
-140.472	249.763	-0.101	0.169
-139.458	-12.192	0.114	-0.074
-138.443	-18.429	-0.040	0.025
-137.429	800.000	0.026	0.099
-136.414	4.829	-0.148	0.108
-135.399	368.195	-0.084	-0.168
-134.385	761.773	-0.026	-0.069
-133.370	237.372	0.160	0.264
-132.356	143.676	0.150	0.198
-131.341	-107.467	-0.150	-0.033
-130.326	-0.015	-0.367	0.259
-129.312	-200.000	-0.023	-0.170
-128.297	-162.726	0.356	-0.017
-127.283	-123.745	-0.037	-0.006
-126.268	-200.000	-0.007	-0.178
-125.253	-115.286	-0.060	0.011
-124.239	-188.160	-0.380	0.005
-123.224	17.560	0.447	0.353
-122.210	189.541	0.194	-0.289
