DTS Sentinel unit serial number:	SN413079Multiplexer serial number:	ORYXHardware model number:	OX4-SRSoftware version number:	ORYX F/W v4.00 Oryx Data Collector v3.7.2.0data status	okinstallation	princeton_trtdifferential loss correction	single-endedforward channel	channel 4reverse channel	N/Adate	2019/09/13time	14:25:35forward acquisition time	60.00reverse acquisition time	0.00gamma	496.2192k internal	0.2295k external	0.2295temperature offset calibration	1.0212default loss term (dB/km)	0.3790temperature slope calibration	1.0000multiplexer offset coefficient	1.0000multiplexer slope coefficient	1.0000fibre end	0.00T internal ref (°C)	35.27T ext. ref 1 (°C)	4.62T ext. ref 2 (°C)	30.79length (m)	temperature (°C)	Stokes	anti-Stokes-747.200	-40.400	-0.175	0.093
-746.185	81.463	0.198	-0.219
-745.171	-151.103	-0.108	0.008
-744.156	-3.226	-0.270	0.192
-743.142	-131.226	0.059	0.008
-742.127	220.091	-0.192	0.314
-741.112	-135.911	0.053	0.006
-740.098	-200.000	0.007	0.420
-739.083	-103.091	0.264	-0.064
-738.069	800.000	-0.064	0.242
-737.054	-174.903	-0.273	0.008
-736.039	-67.373	-0.584	-0.234
-735.025	54.753	0.123	0.122
-734.010	-200.000	-0.094	-0.458
-732.996	193.078	0.148	-0.228
-731.981	133.575	-0.179	-0.236
-730.966	-5.070	0.136	-0.095
-729.952	-200.000	0.034	0.226
-728.937	179.524	-0.054	-0.081
-727.923	800.000	0.037	0.117
-726.908	-141.389	-0.329	-0.034
-725.894	526.571	0.144	-0.346
-724.879	800.000	0.157	-0.559
-723.864	-200.000	0.001	-0.095
-722.850	224.312	0.091	0.150
-721.835	-163.241	-0.303	0.015
-720.821	800.000	0.065	-0.186
-719.806	-37.540	-0.057	-0.031
-718.791	-183.077	0.130	0.002
-717.777	-126.861	-0.110	-0.017
-716.762	81.218	0.100	-0.110
-715.748	-4.800	-0.141	-0.100
-714.733	535.616	0.073	0.177
-713.718	-25.559	0.285	0.172
-712.704	-101.173	-0.380	0.095
-711.689	-107.357	-0.164	-0.037
-710.675	800.000	-0.049	-0.176
-709.660	219.155	-0.094	-0.153
-708.645	-166.671	-0.171	0.007
-707.631	60.066	-0.231	-0.233
-706.616	-57.507	0.143	-0.064
-705.602	-42.923	0.216	0.112
-704.587	-44.005	-0.105	-0.054
-703.572	485.044	0.094	-0.218
-702.558	-77.949	-0.161	0.057
-701.543	800.000	-0.012	-0.044
-700.529	-94.630	0.140	0.039
-699.514	192.723	-0.129	0.198
-698.499	205.857	-0.080	0.127
-697.485	106.480	-0.210	-0.254
-696.470	403.025	0.127	-0.272
-695.456	-8.370	0.429	-0.294
-694.441	227.376	-0.088	-0.146
-693.426	-200.000	-0.025	0.118
-692.412	-23.092	-0.062	-0.038
-691.397	-147.376	0.190	-0.016
-690.383	122.444	-0.158	-0.201
-689.368	210.260	0.126	-0.201
-688.354	-172.467	0.210	0.007
-687.339	-83.879	-0.120	-0.039
-686.324	-136.313	0.242	-0.029
-685.310	-200.000	0.002	-0.208
-684.295	172.945	-0.118	-0.173
-683.281	-200.000	-0.032	0.276
-682.266	126.684	-0.171	0.221
-681.251	-200.000	-0.013	-0.311
-680.237	-67.677	0.104	-0.042
-679.222	-42.056	0.152	0.079
-678.208	-67.192	0.117	0.047
-677.193	-61.992	0.232	-0.099
-676.178	257.643	0.121	0.213
-675.164	-200.000	0.004	0.383
-674.149	800.000	-0.109	-0.324
-673.135	77.096	-0.094	-0.102
-672.120	-200.000	0.008	-0.385
-671.105	-200.000	0.014	0.069
-670.091	-62.839	-0.200	-0.084
-669.076	-162.649	-0.441	-0.022
-668.062	753.041	0.112	-0.308
-667.047	359.972	-0.187	-0.380
-666.032	43.332	0.140	-0.131
-665.018	90.808	-0.197	0.225
-664.003	-70.130	0.284	-0.110
-662.989	-61.689	-0.218	0.093
-661.974	-37.395	0.300	0.163
-660.959	-80.854	-0.219	0.074
-659.945	-172.601	-0.301	-0.010
-658.930	223.989	-0.143	0.235
-657.916	-106.792	0.240	-0.054
-656.901	7.002	-0.117	0.089
-655.886	-171.023	-0.260	0.009
-654.872	60.536	-0.217	0.219
-653.857	-138.300	-0.282	-0.032
-652.843	-80.209	0.117	0.040
-651.828	633.382	0.020	-0.050
-650.814	84.721	-0.109	-0.121
-649.799	800.000	-0.018	0.071
-648.784	223.468	-0.055	0.090
-647.770	54.198	0.131	0.129
-646.755	68.700	0.090	-0.094
-645.741	800.000	-0.049	0.180
-644.726	-107.187	0.218	0.049
-643.711	762.487	0.109	0.301
-642.697	-3.549	-0.280	0.198
-641.682	-200.000	0.005	0.037
-640.668	800.000	-0.166	0.467
-639.653	-10.737	-0.031	-0.021
-638.638	30.908	0.182	0.159
-637.624	-5.569	0.348	0.243
-636.609	5.259	-0.029	-0.022
-635.595	-161.296	-0.174	-0.009
-634.580	-51.356	0.106	0.050
-633.565	71.705	-0.190	0.201
-632.551	1.267	0.212	0.155
-631.536	-200.000	-0.004	-0.055
-630.522	-119.864	-0.033	0.006
-629.507	310.389	-0.088	0.168
-628.492	23.329	-0.121	0.102
-627.478	-122.411	-0.219	0.036
-626.463	-124.371	-0.463	-0.074
-625.449	-117.431	-0.257	-0.047
-624.434	126.124	-0.158	0.203
-623.419	308.547	-0.123	0.233
-622.405	562.149	0.066	-0.162
-621.390	800.000	-0.133	-0.406
-620.376	800.000	0.093	-0.311
-619.361	-66.913	0.060	0.024
-618.346	762.867	-0.024	0.067
-617.332	-74.877	0.132	0.048
-616.317	247.230	-0.132	0.227
-615.303	215.296	-0.105	-0.170
-614.288	800.000	-0.039	-0.118
-613.273	91.721	0.121	-0.139
-612.259	-24.918	0.426	-0.257
-611.244	-200.000	-0.039	-0.255
-610.230	-120.257	-0.166	-0.029
-609.215	282.396	0.084	0.153
-608.201	130.552	-0.037	0.048
-607.186	-28.035	-0.124	-0.073
-606.171	-2.993	0.224	0.159
-605.157	800.000	-0.091	0.317
-604.142	697.762	0.131	0.349
-603.128	276.311	0.236	0.425
-602.113	-131.977	-0.244	0.032
-601.098	23.596	-0.151	0.126
-600.084	285.121	0.158	0.289
-599.069	9.261	-0.103	-0.079
-598.055	-160.358	-0.035	-0.002
-597.040	222.841	0.051	0.083
-596.025	-200.000	0.062	-0.381
-595.011	-26.278	-0.442	-0.263
-593.996	-200.000	0.000	-0.123
-592.982	123.996	0.049	0.062
-591.967	-200.000	0.025	0.197
-590.952	20.639	0.016	-0.013
-589.938	67.903	-0.070	-0.073
-588.923	-131.374	-0.284	-0.038
-587.909	223.570	-0.110	-0.180
-586.894	-56.823	-0.348	0.156
-585.879	16.633	0.170	0.136
-584.865	290.506	-0.130	0.240
-583.850	-94.692	-0.292	0.081
-582.836	800.000	0.012	-0.035
-581.821	-200.000	-0.005	0.175
-580.806	-200.000	0.002	-0.048
-579.792	244.732	0.092	-0.157
-578.777	-200.000	0.028	0.133
-577.763	-1.462	-0.183	-0.131
-576.748	800.000	0.061	-0.217
-575.733	107.268	0.326	-0.393
-574.719	532.983	-0.088	-0.212
-573.704	-200.000	0.016	-0.189
-572.690	800.000	0.095	-0.321
-571.675	-94.177	-0.222	0.062
-570.661	-5.120	0.263	0.184
-569.646	267.149	0.087	-0.155
-568.631	74.561	-0.096	0.102
-567.617	466.291	0.123	0.280
-566.602	-200.000	0.011	-0.161
-565.588	-145.847	0.156	0.014
-564.573	-137.766	0.173	-0.020
-563.558	-200.000	-0.027	-0.191
-562.544	164.820	0.074	-0.106
-561.529	-200.000	-0.011	0.174
-560.515	264.786	-0.053	0.093
-559.500	-11.322	-0.181	0.121
-558.485	274.180	-0.068	-0.123
-557.471	-6.710	-0.199	-0.138
-556.456	122.784	-0.105	0.134
-555.442	560.047	0.032	-0.077
-554.427	-59.575	0.167	0.073
-553.412	-150.616	0.312	-0.024
-552.398	226.166	-0.105	-0.173
-551.383	-20.146	0.098	-0.061
-550.369	24.187	0.192	-0.161
-549.354	19.399	0.133	0.109
-548.339	221.543	-0.167	-0.272
-547.325	-171.000	0.261	-0.009
-546.310	800.000	-0.037	0.158
-545.296	418.845	0.147	-0.319
-544.281	-92.830	0.256	0.073
-543.266	-22.636	-0.076	-0.046
-542.252	-34.774	-0.240	-0.133
-541.237	-5.650	0.068	0.047
-540.223	800.000	0.042	-0.169
-539.208	244.246	-0.072	-0.123
-538.193	47.775	0.126	-0.119
-537.179	-123.294	-0.147	0.024
-536.164	-48.563	-0.225	-0.110
-535.150	21.529	-0.352	-0.290
-534.135	-104.152	0.294	0.069
-533.121	-200.000	-0.014	0.176
-532.106	-15.614	0.341	0.221
-531.091	655.829	0.104	-0.271
-530.077	34.825	-0.280	-0.248
-529.062	-200.000	-0.027	-0.259
-528.048	347.258	-0.110	-0.219
-527.033	-69.891	-0.183	0.071
-526.018	148.275	0.155	-0.212
-525.004	-40.775	0.207	-0.109
-523.989	-137.236	-0.523	0.060
-522.975	323.120	0.106	0.205
-521.960	-99.788	-0.309	-0.078
-520.945	800.000	0.108	-0.405
-519.931	-88.833	-0.109	-0.033
-518.916	800.000	-0.081	0.314
-517.902	-200.000	-0.015	-0.303
-516.887	800.000	-0.042	-0.134
-515.872	-196.472	-0.472	0.003
-514.858	240.960	-0.071	-0.121
-513.843	-144.948	0.369	-0.034
-512.829	-128.430	-0.035	-0.005
-511.814	800.000	-0.051	0.178
-510.799	101.650	-0.335	0.396
-509.785	-91.286	-0.204	-0.059
-508.770	45.715	0.228	-0.214
-507.756	323.903	0.116	0.224
-506.741	-200.000	0.023	0.110
-505.726	-7.814	-0.131	-0.089
-504.712	101.653	-0.042	0.050
-503.697	-68.720	0.100	0.039
-502.683	-14.565	-0.166	0.108
-501.668	240.881	0.260	0.439
-500.653	25.682	-0.197	0.166
-499.639	184.875	0.247	-0.371
-498.624	71.559	-0.288	0.303
-497.610	-154.911	0.164	0.011
-496.595	800.000	0.036	-0.135
-495.581	256.118	-0.031	0.053
-494.566	-61.671	-0.334	-0.142
-493.551	800.000	0.048	-0.169
-492.537	-33.343	0.330	0.185
-491.522	800.000	-0.030	-0.092
-490.508	-123.440	0.130	0.021
-489.493	623.131	-0.095	0.243
-488.478	331.563	0.098	0.191
-487.464	800.000	0.022	-0.066
-486.449	67.296	-0.188	0.194
-485.435	-44.839	0.126	-0.064
-484.420	-35.142	-0.375	-0.206
-483.405	-149.627	0.234	-0.019
-482.391	-92.242	0.061	-0.017
-481.376	-80.738	0.200	-0.067
-480.362	-166.715	-0.113	-0.005
-479.347	-176.943	-0.330	0.008
-478.332	275.743	-0.162	-0.290
-477.318	194.382	0.061	0.093
-476.303	-200.000	-0.002	0.288
-475.289	800.000	-0.028	0.107
-474.274	-146.621	-0.474	-0.042
-473.259	-2.640	0.214	0.152
-472.245	126.922	0.077	0.098
-471.230	-53.733	-0.370	0.171
-470.216	-45.786	0.230	0.115
-469.201	-200.000	0.008	0.186
-468.186	-200.000	0.067	-0.341
-467.172	497.820	-0.142	-0.330
-466.157	-44.871	-0.054	0.027
-465.143	-86.606	0.278	-0.086
-464.128	-104.991	0.476	-0.110
-463.113	651.527	-0.135	0.350
-462.099	258.884	0.121	-0.210
-461.084	800.000	-0.079	-0.348
-460.070	-18.782	-0.202	-0.127
-459.055	-200.000	0.032	-0.176
-458.040	800.000	0.038	0.107
-457.026	192.782	0.182	-0.277
-456.011	-200.000	-0.057	-0.461
-454.997	88.283	-0.198	-0.222
-453.982	800.000	-0.016	0.050
-452.968	-114.511	-0.076	-0.015
-451.953	-200.000	0.064	0.298
-450.938	-161.651	0.284	0.015
-449.924	-28.168	-0.228	-0.133
-448.909	-95.199	-0.135	0.037
-447.895	19.636	0.068	0.055
-446.880	37.613	-0.191	0.171
-445.865	-200.000	0.009	0.093
-444.851	-116.664	0.104	-0.019
-443.836	-119.574	0.026	-0.005
-442.822	92.343	0.173	0.197
-441.807	-75.405	0.232	0.084
-440.792	-32.975	0.159	0.089
-439.778	106.542	-0.054	-0.065
-438.763	-138.284	0.198	0.022
-437.749	-200.000	0.014	0.113
-436.734	-200.000	-0.027	-0.120
-435.719	-16.170	-0.113	-0.072
-434.705	191.444	-0.067	-0.103
-433.690	110.772	0.164	-0.200
-432.676	-158.368	-0.242	0.014
-431.661	447.627	-0.059	-0.132
-430.646	499.468	0.017	-0.039
-429.632	-48.565	-0.292	0.142
-428.617	157.564	0.235	-0.328
-427.603	-101.179	-0.192	-0.047
-426.588	800.000	0.057	-0.184
-425.573	-200.000	-0.008	-0.065
-424.559	-86.939	0.200	0.062
-423.544	-200.000	0.006	-0.106
-422.530	-97.657	-0.339	0.089
-421.515	800.000	-0.060	0.208
-420.500	-59.367	0.091	0.040
-419.486	522.790	-0.147	0.348
-418.471	800.000	0.041	0.160
-417.457	-200.000	0.037	0.192
-416.442	-133.913	0.223	0.028
-415.428	245.774	-0.176	-0.299
-414.413	457.344	0.041	0.091
-413.398	-200.000	-0.056	-0.267
-412.384	135.873	0.070	0.092
-411.369	-200.000	-0.013	-0.186
-410.355	71.549	0.193	0.202
-409.340	-165.008	0.376	0.017
-408.325	-117.589	-0.095	-0.017
-407.311	667.178	-0.116	-0.304
-406.296	283.474	0.186	0.337
-405.282	-200.000	0.008	0.455
-404.267	267.978	0.102	-0.181
-403.252	-47.171	0.287	0.141
-402.238	-164.684	0.189	-0.009
-401.223	113.891	-0.098	-0.120
-400.209	-50.906	0.146	-0.069
-399.194	-28.674	0.205	-0.119
-398.179	-60.570	-0.332	0.142
-397.165	800.000	0.089	0.301
-396.150	107.983	0.123	0.148
-395.136	-70.795	0.351	0.133
-394.121	-25.748	-0.291	-0.173
-393.106	190.155	0.129	0.196
-392.092	-135.095	0.199	0.024
-391.077	768.198	-0.120	0.330
-390.063	-200.000	-0.043	-0.350
-389.048	-200.000	0.024	-0.301
-388.033	150.904	-0.244	0.334
-387.019	631.768	-0.098	-0.249
-386.004	-200.000	0.006	0.058
-384.990	-46.809	-0.268	0.132
-383.975	-200.000	-0.003	0.199
-382.960	2.357	0.251	0.183
-381.946	355.192	0.010	0.019
-380.931	-66.465	0.212	-0.085
-379.917	204.217	-0.150	0.234
-378.902	266.735	0.251	-0.442
-377.888	53.778	0.164	0.159
-376.873	451.575	0.025	-0.057
-375.858	563.388	0.106	0.259
-374.844	-56.779	-0.245	0.109
-373.829	27.646	0.247	-0.210
-372.815	110.627	-0.149	-0.181
-371.800	48.562	-0.170	0.160
-370.785	800.000	0.057	-0.173
-369.771	336.535	0.058	-0.114
-368.756	-200.000	-0.007	0.101
-367.742	692.937	-0.036	0.094
-366.727	-200.000	-0.018	0.147
-365.712	-148.486	-0.166	-0.014
-364.698	-79.840	-0.268	-0.091
-363.683	48.816	0.064	0.061
-362.669	402.192	-0.060	0.128
-361.654	26.250	-0.350	-0.294
-360.639	21.877	0.121	-0.099
-359.625	-82.536	0.155	0.051
-358.610	760.719	0.020	0.053
-357.596	75.053	-0.199	0.211
-356.581	34.485	-0.134	0.118
-355.566	-200.000	-0.029	0.161
-354.552	-55.225	-0.243	-0.110
-353.537	53.315	0.063	0.060
-352.523	170.050	0.239	-0.343
-351.508	800.000	-0.212	-0.737
-350.493	-106.771	0.160	-0.036
-349.479	-82.310	-0.409	0.134
-348.464	-2.634	-0.044	-0.031
-347.450	205.378	0.138	0.215
-346.435	-200.000	0.030	0.379
-345.420	-200.000	-0.011	-0.355
-344.406	265.285	0.077	0.134
-343.391	800.000	-0.114	-0.431
-342.377	294.495	-0.087	-0.159
-341.362	165.395	-0.123	-0.174
-340.348	103.673	0.131	-0.155
-339.333	-200.000	-0.017	-0.147
-338.318	-151.259	-0.395	0.030
-337.304	383.734	0.139	0.288
-336.289	85.993	-0.162	0.179
-335.275	83.661	-0.100	0.110
-334.260	547.048	-0.102	0.246
-333.245	-55.983	-0.233	-0.105
-332.231	-161.459	0.100	0.005
-331.216	106.950	-0.073	0.087
-330.202	-200.000	-0.015	-0.163
-329.187	-200.000	-0.046	-0.243
-328.172	-86.178	-0.246	-0.076
-327.158	-200.000	-0.005	-0.060
-326.143	-99.943	-0.210	0.053
-325.129	67.121	-0.035	-0.036
-324.114	169.506	-0.142	-0.203
-323.099	119.643	-0.029	0.037
-322.085	73.998	0.177	-0.187
-321.070	800.000	-0.170	0.481
-320.056	-157.606	0.121	0.007
-319.041	598.458	-0.106	-0.263
-318.026	57.968	0.097	0.095
-317.012	-47.231	0.183	-0.090
-315.997	800.000	0.077	0.312
-314.983	15.685	0.140	0.111
-313.968	416.117	0.147	-0.316
-312.953	629.201	-0.088	-0.223
-311.939	584.949	-0.058	0.144
-310.924	124.134	0.171	0.216
-309.910	-200.000	0.053	-0.243
-308.895	19.249	-0.219	-0.176
-307.880	17.180	0.217	0.173
-306.866	-29.405	0.256	0.147
-305.851	366.510	0.111	-0.224
-304.837	-200.000	-0.020	0.155
-303.822	-200.000	-0.062	0.356
-302.807	-104.823	-0.197	-0.045
-301.793	-106.955	0.336	0.075
-300.778	69.811	0.181	-0.187
-299.764	-200.000	0.026	-0.226
-298.749	-16.808	0.213	0.135
-297.735	499.292	0.116	-0.268
-296.720	-200.000	0.000	-0.164
-295.705	-176.557	-0.125	-0.003
-294.691	-129.258	0.412	0.058
-293.676	25.855	-0.267	-0.223
-292.662	223.394	-0.095	-0.154
-291.647	-47.994	0.200	-0.097
-290.632	-200.000	-0.018	0.104
-289.618	177.654	-0.138	-0.202
-288.603	277.095	0.088	0.157
-287.589	-168.766	0.195	-0.007
-286.574	360.535	0.120	0.242
-285.559	800.000	0.043	0.187
-284.545	223.622	-0.164	-0.266
-283.530	52.252	-0.210	-0.201
-282.516	154.414	-0.202	-0.279
-281.501	230.572	-0.123	0.201
-280.486	-82.008	-0.325	0.107
-279.472	800.000	0.109	-0.340
-278.457	-96.829	0.490	-0.129
-277.443	-200.000	0.048	0.223
-276.428	-22.709	0.106	-0.065
-275.413	110.077	-0.158	-0.191
-274.399	-200.000	-0.006	-0.167
-273.384	-29.903	0.139	0.080
-272.370	514.188	0.112	-0.262
-271.355	372.229	-0.060	0.122
-270.340	-97.367	0.144	-0.038
-269.326	-200.000	0.007	-0.184
-268.311	-111.689	-0.101	-0.021
-267.297	-80.427	-0.065	0.022
-266.282	-129.792	0.150	0.021
-265.267	-135.275	0.157	0.019
-264.253	-200.000	-0.051	0.252
-263.238	13.518	0.093	0.072
-262.224	30.273	0.128	-0.109
-261.209	2.431	-0.147	-0.107
-260.195	64.241	0.099	-0.100
-259.180	145.028	0.125	0.168
-258.165	-200.000	0.031	0.310
-257.151	800.000	0.038	0.128
-256.136	71.109	-0.059	0.061
-255.122	800.000	-0.039	0.146
-254.107	506.304	-0.093	0.215
-253.092	-200.000	-0.003	-0.038
-252.078	-152.897	0.113	-0.008
-251.063	-75.602	-0.144	0.051
-250.049	166.678	0.180	-0.256
-249.034	-156.083	-0.114	-0.007
-248.019	-191.046	0.297	0.003
-247.005	-66.478	-0.187	-0.075
-245.990	143.771	0.148	-0.197
-244.976	-37.190	0.231	0.124
-243.961	-200.000	0.002	-0.036
-242.946	-126.778	0.186	0.028
-241.932	-98.342	-0.163	-0.042
-240.917	-200.000	0.005	-0.231
-239.903	164.626	0.058	-0.082
-238.888	-158.427	-0.076	-0.004
-237.873	800.000	0.030	0.092
-236.859	-200.000	0.017	-0.078
-235.844	64.196	0.195	0.197
-234.830	20.065	-0.069	0.056
-233.815	800.000	-0.044	-0.143
-232.800	-106.435	0.203	-0.045
-231.786	-100.527	-0.242	0.060
-230.771	-116.210	-0.178	0.033
-229.757	53.078	0.212	0.204
-228.742	-19.925	0.242	-0.150
-227.727	7.781	-0.138	-0.104
-226.713	-200.000	-0.031	0.195
-225.698	122.538	0.233	0.292
-224.684	-92.744	0.301	0.085
-223.669	-61.045	0.225	0.095
-222.655	3.175	0.124	0.090
-221.640	-12.837	-0.207	0.135
-220.625	375.782	0.151	0.308
-219.611	27.742	-0.124	-0.105
-218.596	388.377	0.128	0.264
-217.582	-153.741	0.334	0.023
-216.567	-30.916	0.054	-0.031
-215.552	323.899	0.029	-0.055
-214.538	-136.243	0.126	0.015
-213.523	-200.000	-0.007	0.300
-212.509	800.000	0.033	0.104
-211.494	86.436	0.139	0.154
-210.479	-141.710	-0.204	0.020
-209.465	10.514	0.192	-0.146
-208.450	-200.000	-0.017	-0.215
-207.436	-143.520	-0.170	-0.016
-206.421	800.000	-0.117	-0.369
-205.406	-29.545	-0.155	-0.089
-204.392	-71.226	-0.125	-0.047
-203.377	800.000	0.053	0.182
-202.363	800.000	0.054	-0.207
-201.348	-181.665	0.382	0.007
-200.333	-173.251	0.418	0.013
-199.319	-200.000	-0.101	0.464
-198.304	800.000	0.014	0.053
-197.290	509.002	0.174	-0.403
-196.275	328.198	-0.037	0.071
-195.260	-200.000	0.022	-0.103
-194.246	-80.181	-0.191	-0.064
-193.231	800.000	0.127	-0.353
-192.217	-56.055	0.142	0.063
-191.202	-164.888	-0.086	0.004
-190.187	186.342	0.069	-0.103
-189.173	800.000	-0.058	-0.172
-188.158	-117.994	-0.094	-0.017
-187.144	100.591	-0.141	-0.164
-186.129	-40.250	-0.121	-0.063
-185.114	-75.276	0.361	-0.129
-184.100	420.338	0.059	-0.127
-183.085	-144.588	-0.202	0.019
-182.071	-90.143	-0.140	-0.041
-181.056	800.000	-0.007	-0.028
-180.042	-34.454	0.106	0.058
-179.027	800.000	-0.048	-0.146
-178.012	-87.563	0.146	0.044
-176.998	578.299	-0.082	0.201
-175.983	-13.869	-0.164	0.106
-174.969	624.979	-0.158	0.399
-173.954	-44.530	0.105	0.052
-172.939	-200.000	-0.018	-0.123
-171.925	67.972	0.163	0.166
-170.910	-200.000	-0.023	0.101
-169.896	-200.000	0.024	-0.328
-168.881	-33.345	0.103	-0.057
-167.866	-109.946	-0.630	0.132
-166.852	-110.712	-0.182	0.038
-165.837	-39.460	0.119	-0.063
-164.823	-11.208	-0.150	0.099
-163.808	118.555	0.216	0.266
-162.793	-200.000	-0.023	-0.165
-161.779	-38.631	0.160	0.085
-160.764	213.439	-0.154	0.242
-159.750	268.834	-0.063	0.110
-158.735	470.237	0.011	-0.025
-157.720	800.000	-0.171	0.534
-156.706	-65.058	0.104	-0.042
-155.691	-46.634	0.230	-0.113
-154.677	-200.000	-0.016	0.328
-153.662	27.193	-0.140	0.117
-152.647	163.304	-0.090	-0.126
-151.633	-20.970	-0.198	0.121
-150.618	-200.000	0.002	-0.453
-149.604	-74.787	-0.248	0.089
-148.589	-200.000	0.018	-0.099
-147.574	-41.448	-0.178	-0.091
-146.560	215.575	-0.055	-0.087
-145.545	-140.466	-0.184	0.019
-144.531	-176.463	0.127	-0.003
-143.516	61.456	0.014	-0.014
-142.502	105.539	-0.086	-0.101
-141.487	-46.182	0.280	-0.138
-140.472	-142.827	0.078	-0.008
-139.458	-176.216	0.171	0.004
-138.443	80.325	0.079	-0.084
-137.429	114.300	0.222	-0.269
-136.414	-200.000	0.005	0.483
-135.399	-200.000	0.006	0.338
-134.385	-62.262	0.083	-0.035
-133.370	27.027	0.247	0.207
-132.356	44.737	-0.250	0.229
-131.341	800.000	0.010	0.031
-130.326	-14.415	-0.211	-0.136
-129.312	-200.000	0.058	0.451
-128.297	-118.337	-0.053	0.009
-127.283	46.320	-0.141	-0.130
-126.268	-169.726	0.332	0.012
-125.253	800.000	-0.094	0.293
-124.239	-200.000	0.043	0.503
-123.224	59.078	0.124	0.121
-122.210	-200.000	0.017	-0.209
