DTS Sentinel unit serial number:	SN413079Multiplexer serial number:	ORYXHardware model number:	OX4-SRSoftware version number:	ORYX F/W v4.00 Oryx Data Collector v3.7.2.0data status	okinstallation	princeton_trtdifferential loss correction	single-endedforward channel	channel 4reverse channel	N/Adate	2019/09/18time	13:17:34forward acquisition time	60.00reverse acquisition time	0.00gamma	496.2192k internal	0.2302k external	0.2302temperature offset calibration	0.9995default loss term (dB/km)	0.3790temperature slope calibration	1.0000multiplexer offset coefficient	1.0000multiplexer slope coefficient	1.0000fibre end	0.00T internal ref (°C)	34.06T ext. ref 1 (°C)	0.59T ext. ref 2 (°C)	30.12length (m)	temperature (°C)	Stokes	anti-Stokes-747.200	-190.219	-0.049	-0.001
-746.185	-200.000	0.030	0.154
-745.171	-150.907	0.501	0.039
-744.156	4.562	0.253	0.189
-743.142	800.000	0.042	-0.168
-742.127	-30.766	-0.217	0.125
-741.112	182.990	0.190	0.286
-740.098	800.000	-0.061	0.259
-739.083	141.712	-0.206	0.278
-738.069	-200.000	0.017	0.163
-737.054	-33.785	0.213	-0.120
-736.039	-200.000	-0.037	-0.203
-735.025	-93.039	0.260	0.074
-734.010	-200.000	0.010	-0.226
-732.996	207.363	-0.288	-0.458
-731.981	-200.000	0.006	0.059
-730.966	-11.573	0.106	0.071
-729.952	200.011	0.058	-0.091
-728.937	-200.000	0.024	-0.373
-727.923	215.885	-0.115	-0.186
-726.908	71.552	0.127	-0.134
-725.894	5.630	-0.213	0.160
-724.879	800.000	0.110	0.316
-723.864	27.432	0.253	-0.217
-722.850	-200.000	0.045	-0.342
-721.835	-68.430	0.144	0.057
-720.821	-159.904	0.090	-0.005
-719.806	-14.083	-0.147	0.096
-718.791	4.688	-0.125	0.093
-717.777	-87.784	-0.067	-0.021
-716.762	29.377	0.141	0.122
-715.748	-64.102	-0.249	-0.104
-714.733	-107.950	-0.274	0.061
-713.718	-181.892	-0.261	0.005
-712.704	-95.648	0.295	-0.080
-711.689	-58.300	0.236	-0.104
-710.675	-83.134	-0.268	-0.088
-709.660	-200.000	0.006	-0.061
-708.645	116.186	0.037	0.046
-707.631	338.261	0.059	-0.116
-706.616	-74.507	-0.207	0.076
-705.602	458.639	-0.030	-0.068
-704.587	24.833	-0.153	-0.129
-703.572	142.626	-0.074	-0.100
-702.558	-119.467	0.163	0.029
-701.543	-200.000	-0.010	-0.151
-700.529	-27.282	-0.208	0.123
-699.514	800.000	-0.087	-0.352
-698.499	-183.267	-0.352	0.006
-697.485	-43.978	0.166	-0.085
-696.470	-30.650	0.235	-0.136
-695.456	-136.763	-0.203	0.024
-694.441	-90.149	-0.127	0.038
-693.426	-76.255	0.429	0.154
-692.412	-36.701	-0.220	0.120
-691.397	-101.123	-0.289	0.072
-690.383	-12.328	0.207	-0.138
-689.368	-66.518	0.057	-0.023
-688.354	-200.000	0.007	-0.138
-687.339	-35.977	-0.260	-0.143
-686.324	-171.635	0.231	0.008
-685.310	202.560	-0.054	0.085
-684.295	48.278	0.268	-0.255
-683.281	800.000	0.053	-0.154
-682.266	79.901	0.275	-0.300
-681.251	-86.116	0.167	0.052
-680.237	143.501	0.170	0.230
-679.222	-91.070	0.161	0.047
-678.208	-135.619	-0.080	0.010
-677.193	-76.088	-0.142	-0.051
-676.178	-49.986	0.251	-0.121
-675.164	-82.703	-0.080	-0.026
-674.149	150.221	-0.055	0.075
-673.135	800.000	0.071	-0.292
-672.120	-200.000	0.007	-0.176
-671.105	191.307	0.057	-0.087
-670.091	-200.000	0.017	-0.345
-669.076	-18.669	-0.089	0.056
-668.062	164.122	-0.149	0.213
-667.047	-78.385	-0.252	-0.088
-666.032	551.652	-0.203	0.495
-665.018	-31.981	0.135	0.077
-664.003	-113.484	0.172	0.034
-662.989	-119.174	-0.163	0.029
-661.974	45.518	0.055	0.052
-660.959	-200.000	0.004	-0.107
-659.945	-61.251	-0.126	0.054
-658.930	318.748	0.078	0.150
-657.916	126.040	0.204	-0.262
-656.901	-200.000	-0.005	-0.206
-655.886	-47.381	0.202	-0.100
-654.872	119.808	0.185	-0.233
-653.857	168.700	-0.124	0.180
-652.843	-200.000	-0.008	0.297
-651.828	-96.858	-0.230	0.061
-650.814	-69.716	0.195	-0.076
-649.799	-128.685	0.028	-0.004
-648.784	232.673	-0.095	-0.159
-647.770	686.579	0.065	-0.172
-646.755	104.390	0.200	-0.239
-645.741	55.487	0.308	-0.303
-644.726	113.133	-0.226	0.278
-643.711	-200.000	0.055	0.285
-642.697	-160.207	0.110	-0.006
-641.682	800.000	0.060	0.228
-640.668	-200.000	-0.069	-0.313
-639.653	253.323	-0.055	-0.096
-638.638	6.469	-0.149	-0.112
-637.624	-160.449	0.329	-0.018
-636.609	156.733	-0.298	-0.418
-635.595	-40.881	0.228	0.120
-634.580	-77.868	0.273	0.096
-633.565	103.492	-0.231	-0.275
-632.551	800.000	0.074	-0.214
-631.536	-165.528	0.152	0.007
-630.522	493.161	0.077	-0.179
-629.507	-46.582	-0.333	0.166
-628.492	-200.000	0.014	0.299
-627.478	-197.285	0.109	-0.001
-626.463	-149.334	0.382	-0.031
-625.449	-200.000	0.016	-0.203
-624.434	651.282	0.043	-0.112
-623.419	-100.533	0.126	0.032
-622.405	-55.093	-0.008	-0.004
-621.390	800.000	0.098	-0.303
-620.376	800.000	0.030	-0.115
-619.361	311.219	-0.102	-0.193
-618.346	-56.674	-0.197	0.089
-617.332	92.938	0.079	0.091
-616.317	451.738	0.057	-0.127
-615.303	487.816	-0.099	-0.230
-614.288	-200.000	0.008	0.086
-613.273	74.320	0.078	-0.083
-612.259	-200.000	0.014	-0.422
-611.244	-13.269	-0.191	-0.126
-610.230	-53.092	-0.273	0.127
-609.215	139.897	-0.054	-0.072
-608.201	14.046	0.354	0.279
-607.186	-200.000	0.036	-0.265
-606.171	494.990	0.034	0.080
-605.157	-200.000	-0.026	0.204
-604.142	219.866	0.136	0.221
-603.128	121.797	-0.141	0.178
-602.113	-23.595	0.161	-0.098
-601.098	-200.000	-0.006	0.086
-600.084	48.927	0.306	0.291
-599.069	-84.250	0.267	-0.086
-598.055	633.292	-0.065	0.168
-597.040	-136.865	-0.338	-0.039
-596.025	-95.701	-0.157	0.042
-595.011	213.989	-0.188	-0.302
-593.996	-70.493	0.235	0.090
-592.982	-18.683	-0.083	0.052
-591.967	-200.000	0.053	-0.242
-590.952	412.737	-0.125	0.268
-589.938	292.964	0.089	0.165
-588.923	-200.000	0.005	-0.053
-587.909	-110.593	-0.263	-0.055
-586.894	-114.499	0.144	0.028
-585.879	-19.288	-0.171	-0.107
-584.865	33.764	-0.080	-0.070
-583.850	-200.000	0.036	0.229
-582.836	60.750	-0.020	0.020
-581.821	800.000	0.090	0.295
-580.806	-10.107	-0.286	0.193
-579.792	-139.840	0.317	0.034
-578.777	183.654	0.097	-0.145
-577.763	-70.475	0.140	-0.054
-576.748	-149.453	-0.157	0.013
-575.733	202.789	0.076	0.118
-574.719	-84.033	-0.391	-0.126
-573.704	116.106	-0.184	-0.229
-572.690	26.828	-0.016	-0.013
-571.675	-126.469	-0.366	-0.055
-570.661	-200.000	0.007	0.098
-569.646	466.828	0.093	0.210
-568.631	-200.000	0.043	-0.244
-567.617	-53.246	0.215	0.100
-566.602	-109.608	0.233	0.050
-565.588	463.680	-0.073	-0.166
-564.573	-54.010	-0.218	-0.100
-563.558	-107.098	0.153	-0.034
-562.544	-183.878	-0.284	-0.005
-561.529	143.638	-0.228	-0.308
-560.515	800.000	-0.091	0.353
-559.500	314.149	-0.052	0.099
-558.485	-200.000	0.039	0.269
-557.471	279.833	0.102	-0.185
-556.456	-200.000	0.050	0.236
-555.442	-200.000	0.050	-0.327
-554.427	-148.825	-0.115	0.009
-553.412	-83.277	0.446	-0.145
-552.398	173.583	0.203	-0.296
-551.383	800.000	-0.026	-0.091
-550.369	-10.800	-0.493	-0.330
-549.354	81.967	0.092	-0.101
-548.339	-23.365	0.059	-0.036
-547.325	-167.260	-0.276	0.011
-546.310	-116.897	-0.404	0.075
-545.296	-61.377	0.107	-0.046
-544.281	-100.970	0.073	-0.018
-543.266	56.361	0.098	-0.097
-542.252	-62.043	-0.290	-0.122
-541.237	-131.657	0.101	-0.013
-540.223	19.990	0.135	0.110
-539.208	81.126	-0.136	0.149
-538.193	-166.270	-0.223	0.010
-537.179	-1.391	-0.037	-0.027
-536.164	-36.804	0.264	-0.143
-535.150	-168.702	-0.236	-0.009
-534.135	-200.000	0.017	-0.253
-533.121	188.131	0.035	-0.053
-532.106	-64.332	0.228	-0.094
-531.091	-37.512	-0.109	0.059
-530.077	-140.415	0.071	0.007
-529.062	-62.379	-0.065	0.027
-528.048	-1.865	0.176	-0.125
-527.033	131.601	0.183	0.237
-526.018	-200.000	-0.016	0.172
-525.004	44.212	-0.107	0.099
-523.989	-200.000	-0.011	0.089
-522.975	-115.628	0.129	0.024
-521.960	84.739	-0.255	0.283
-520.945	-200.000	0.028	-0.398
-519.931	9.959	-0.222	0.170
-518.916	-133.635	0.092	0.012
-517.902	-33.371	0.324	0.181
-516.887	-200.000	-0.012	-0.367
-515.872	-37.995	-0.363	-0.195
-514.858	-53.315	0.172	-0.080
-513.843	-200.000	-0.055	-0.349
-512.829	106.228	0.113	-0.135
-511.814	800.000	-0.064	-0.211
-510.799	-200.000	-0.009	0.139
-509.785	20.586	-0.192	0.157
-508.770	74.180	0.100	0.106
-507.756	322.947	0.075	0.145
-506.741	-200.000	0.012	-0.275
-505.726	-200.000	0.042	0.397
-504.712	248.213	0.056	0.096
-503.697	-109.035	-0.172	-0.037
-502.683	-77.022	-0.174	-0.061
-501.668	226.087	0.086	-0.141
-500.653	-200.000	-0.016	-0.075
-499.639	-148.085	0.152	-0.013
-498.624	-62.048	-0.294	-0.124
-497.610	141.160	0.128	-0.170
-496.595	-140.922	-0.239	0.025
-495.581	-154.274	-0.363	-0.025
-494.566	118.353	0.158	-0.197
-493.551	-200.000	-0.065	0.332
-492.537	60.804	-0.224	-0.224
-491.522	-119.822	0.124	-0.022
-490.508	180.219	0.121	0.179
-489.493	78.469	-0.066	0.071
-488.478	-200.000	-0.020	0.288
-487.464	-200.000	-0.016	0.216
-486.449	239.526	-0.085	-0.142
-485.435	-58.931	0.350	0.153
-484.420	-87.414	-0.083	0.025
-483.405	429.222	-0.053	-0.115
-482.391	-1.418	0.060	-0.043
-481.376	-34.299	0.150	0.083
-480.362	117.125	0.046	0.057
-479.347	0.678	0.081	0.058
-478.332	14.839	-0.123	-0.097
-477.318	366.936	-0.034	-0.070
-476.303	127.088	0.197	-0.253
-475.289	-127.031	-0.143	-0.021
-474.274	-34.268	0.088	0.049
-473.259	-200.000	0.023	-0.108
-472.245	-117.775	0.255	0.046
-471.230	-200.000	-0.002	0.038
-470.216	-200.000	0.005	-0.061
-469.201	-17.331	0.145	0.092
-468.186	406.303	0.037	-0.080
-467.172	-143.916	-0.236	0.022
-466.157	-200.000	-0.013	0.147
-465.143	-200.000	-0.031	0.197
-464.128	-11.285	0.231	0.154
-463.113	165.861	-0.135	-0.192
-462.099	-138.636	-0.188	0.021
-461.084	655.887	0.138	-0.358
-460.070	665.592	-0.097	-0.252
-459.055	107.430	0.094	0.113
-458.040	141.498	-0.195	-0.260
-457.026	1.649	-0.199	0.145
-456.011	368.574	-0.123	-0.250
-454.997	277.143	0.042	0.075
-453.982	5.879	-0.258	0.193
-452.968	-200.000	0.007	-0.147
-451.953	224.361	0.058	-0.094
-450.938	-77.008	0.157	0.055
-449.924	212.431	-0.052	-0.083
-448.909	613.023	-0.145	0.367
-447.895	-179.228	0.193	0.004
-446.880	-124.735	-0.291	0.045
-445.865	473.987	0.202	0.459
-444.851	-142.729	-0.031	-0.003
-443.836	233.478	-0.145	-0.241
-442.822	-200.000	-0.030	0.143
-441.807	800.000	0.076	-0.276
-440.792	-29.916	0.017	-0.010
-439.778	-38.763	-0.084	0.045
-438.763	-65.167	-0.261	-0.106
-437.749	-200.000	0.008	-0.314
-436.734	17.424	0.225	0.180
-435.719	18.432	-0.170	0.137
-434.705	-200.000	0.063	-0.344
-433.690	-75.640	0.230	-0.082
-432.676	118.135	0.291	-0.361
-431.661	181.227	-0.140	-0.208
-430.646	-130.481	0.118	0.016
-429.632	-10.752	0.041	-0.027
-428.617	-96.807	-0.527	0.139
-427.603	165.477	-0.346	0.493
-426.588	-35.963	0.189	0.103
-425.573	80.688	-0.208	-0.225
-424.559	800.000	-0.091	0.338
-423.544	74.466	-0.154	0.163
-422.530	-200.000	-0.012	0.089
-421.515	219.988	0.045	0.072
-420.500	338.675	-0.041	0.081
-419.486	-47.340	0.117	0.057
-418.471	566.213	0.121	-0.296
-417.457	-69.694	-0.260	0.100
-416.442	-200.000	-0.052	0.261
-415.428	330.159	-0.069	0.134
-414.413	-200.000	0.043	-0.348
-413.398	35.694	0.208	-0.184
-412.384	22.068	0.145	-0.119
-411.369	-129.227	-0.074	0.010
-410.355	24.229	0.083	-0.069
-409.340	185.639	-0.177	0.265
-408.325	-200.000	0.018	-0.094
-407.311	58.470	-0.182	-0.179
-406.296	293.804	0.151	-0.277
-405.282	-101.446	-0.164	0.040
-404.267	361.464	-0.062	0.125
-403.252	-48.813	-0.333	0.161
-402.238	-40.892	0.370	0.193
-401.223	270.926	0.132	0.233
-400.209	168.431	0.114	-0.164
-399.194	800.000	-0.065	0.188
-398.179	170.096	-0.121	-0.174
-397.165	10.209	-0.258	-0.198
-396.150	7.013	-0.112	-0.084
-395.136	-46.361	0.154	-0.076
-394.121	48.182	-0.065	-0.061
-393.106	-120.606	-0.080	0.014
-392.092	350.139	-0.059	0.117
-391.077	242.958	-0.072	0.122
-390.063	-200.000	-0.027	0.403
-389.048	92.177	-0.052	-0.059
-388.033	235.863	-0.024	-0.041
-387.019	-54.111	-0.113	0.052
-386.004	-200.000	-0.017	0.224
-384.990	-200.000	0.068	0.421
-383.975	-97.105	-0.374	0.098
-382.960	5.460	-0.352	0.261
-381.946	46.164	0.186	0.174
-380.931	-44.768	0.197	-0.099
-379.917	-68.884	0.216	-0.084
-378.902	-79.352	0.068	-0.023
-377.888	13.113	0.315	0.245
-376.873	-44.872	0.379	0.190
-375.858	-70.814	0.219	0.083
-374.844	549.074	0.138	0.332
-373.829	106.294	0.222	0.264
-372.815	-95.450	-0.201	0.054
-371.800	35.443	0.031	-0.027
-370.785	-114.573	-0.057	0.011
-369.771	-18.248	0.057	0.036
-368.756	-54.814	-0.263	-0.119
-367.742	64.143	0.118	-0.119
-366.727	639.949	-0.024	-0.062
-365.712	-74.030	-0.246	0.090
-364.698	-200.000	-0.063	-0.000
-363.683	615.520	-0.075	-0.190
-362.669	800.000	-0.102	-0.287
-361.654	159.019	-0.200	-0.279
-360.639	-92.643	0.147	-0.042
-359.625	219.309	-0.090	-0.145
-358.610	800.000	-0.012	-0.033
-357.596	800.000	-0.065	-0.211
-356.581	38.510	-0.205	0.183
-355.566	800.000	-0.033	-0.098
-354.552	83.753	0.190	-0.208
-353.537	-71.122	0.232	0.087
-352.523	-65.683	-0.144	-0.058
-351.508	-18.435	0.358	-0.225
-350.493	453.783	-0.020	0.045
-349.479	-93.908	-0.411	-0.113
-348.464	800.000	0.039	0.154
-347.450	66.512	0.125	0.127
-346.435	140.193	-0.083	-0.110
-345.420	-41.500	0.092	-0.048
-344.406	-200.000	0.011	0.347
-343.391	358.030	0.137	0.274
-342.377	-19.841	0.345	0.214
-341.362	-124.276	0.243	0.038
-340.348	459.025	0.120	0.269
-339.333	-200.000	-0.017	0.174
-338.318	757.689	0.060	-0.162
-337.304	53.046	-0.142	-0.136
-336.289	-124.865	0.054	-0.008
-335.275	-51.943	0.090	0.042
-334.260	-200.000	-0.007	0.095
-333.245	-11.667	0.168	0.111
-332.231	128.775	-0.052	-0.066
-331.216	72.680	-0.048	-0.050
-330.202	-200.000	-0.011	-0.282
-329.187	444.253	-0.046	-0.101
-328.172	800.000	0.062	0.253
-327.158	-200.000	0.065	0.303
-326.143	800.000	0.053	-0.204
-325.129	77.051	0.131	-0.139
-324.114	-200.000	0.017	0.285
-323.099	195.032	-0.098	0.149
-322.085	-43.486	0.066	-0.033
-321.070	-76.147	-0.440	-0.156
-320.056	35.727	-0.080	-0.070
-319.041	-67.884	-0.158	-0.062
-318.026	-200.000	0.021	0.211
-317.012	-69.577	0.186	-0.071
-315.997	-149.407	0.231	0.018
-314.983	114.439	0.134	0.164
-313.968	51.852	0.140	-0.133
-312.953	89.837	-0.207	-0.231
-311.939	-9.481	-0.222	-0.148
-310.924	-200.000	-0.009	-0.061
-309.910	260.952	-0.116	0.201
-308.895	375.362	0.124	0.253
-307.880	-124.266	-0.142	-0.022
-306.866	118.814	-0.330	-0.409
-305.851	-146.857	-0.096	-0.008
-304.837	788.687	-0.059	-0.161
-303.822	227.292	0.142	0.231
-302.807	329.018	0.110	0.212
-301.793	737.902	-0.091	0.245
-300.778	800.000	-0.075	0.217
-299.764	-87.980	0.186	-0.056
-298.749	34.700	-0.074	-0.065
-297.735	-46.527	0.181	0.089
-296.720	-14.185	0.517	0.334
-295.705	289.458	-0.075	-0.136
-294.691	15.378	0.010	0.008
-293.676	-0.461	-0.315	-0.224
-292.662	-21.556	-0.224	-0.137
-291.647	120.030	-0.135	-0.168
-290.632	40.078	0.041	-0.037
-289.618	-200.000	-0.057	-0.256
-288.603	168.574	-0.069	0.099
-287.589	250.557	0.066	-0.112
-286.574	-0.430	-0.165	-0.118
-285.559	-149.311	0.091	0.007
-284.545	670.669	0.020	-0.052
-283.530	-29.159	-0.166	-0.095
-282.516	-65.037	-0.156	0.063
-281.501	271.746	-0.194	-0.341
-280.486	-158.582	-0.250	0.014
-279.472	-200.000	0.014	0.167
-278.457	-200.000	-0.024	0.232
-277.443	800.000	0.057	0.235
-276.428	377.637	-0.074	0.152
-275.413	721.898	-0.195	-0.519
-274.399	14.699	0.220	0.172
-273.384	200.095	0.162	-0.250
-272.370	800.000	0.034	-0.109
-271.355	213.899	0.152	-0.241
-270.340	108.978	-0.050	-0.060
-269.326	396.333	0.066	0.138
-268.311	-106.809	-0.305	0.068
-267.297	12.468	-0.180	0.139
-266.282	577.371	-0.052	0.128
-265.267	-44.386	-0.453	0.227
-264.253	-200.000	-0.036	-0.172
-263.238	297.343	0.051	-0.094
-262.224	-145.014	0.297	0.027
-261.209	146.540	-0.172	0.231
-260.195	47.058	-0.070	-0.066
-259.180	800.000	0.038	0.107
-258.165	-78.765	0.200	-0.068
-257.151	-71.069	-0.225	0.085
-256.136	-58.839	0.044	0.019
-255.122	-46.783	-0.164	0.080
-254.107	-0.189	-0.113	0.081
-253.092	-6.078	0.066	-0.045
-252.078	-118.197	0.229	0.041
-251.063	280.339	-0.108	0.192
-250.049	-104.413	0.190	-0.044
-249.034	388.299	-0.109	-0.225
-248.019	800.000	0.126	-0.350
-247.005	156.906	-0.114	-0.157
-245.990	261.911	0.259	-0.450
-244.976	-78.291	0.116	0.040
-243.961	213.488	-0.156	0.246
-242.946	-47.143	0.308	-0.150
-241.932	86.370	-0.164	-0.180
-240.917	68.127	0.263	0.269
-239.903	-153.737	0.356	-0.024
-238.888	-200.000	-0.040	0.221
-237.873	800.000	-0.019	-0.059
-236.859	563.052	-0.093	-0.225
-235.844	-70.414	-0.097	-0.037
-234.830	-200.000	0.077	0.374
-233.815	182.415	0.110	0.163
-232.800	-200.000	-0.025	-0.343
-231.786	531.664	-0.038	0.090
-230.771	-57.415	-0.081	-0.036
-229.757	-87.058	0.584	-0.178
-228.742	-4.421	0.134	0.092
-227.727	50.872	0.209	-0.198
-226.713	81.964	-0.118	-0.127
-225.698	-200.000	0.063	0.295
-224.684	-159.464	0.118	0.007
-223.669	68.360	0.079	-0.081
-222.655	84.608	0.119	0.130
-221.640	-160.539	-0.323	0.017
-220.625	561.866	-0.036	0.088
-219.611	800.000	-0.047	0.161
-218.596	748.107	0.119	0.319
-217.582	593.437	-0.124	0.307
-216.567	305.698	-0.008	-0.015
-215.552	9.442	0.268	-0.203
-214.538	173.859	-0.020	-0.028
-213.523	-200.000	-0.049	-0.256
-212.509	-101.864	0.241	0.058
-211.494	-87.077	-0.309	0.094
-210.479	-42.075	-0.379	-0.194
-209.465	-200.000	0.015	0.103
-208.450	800.000	0.059	-0.258
-207.436	-55.777	0.270	0.121
-206.421	-200.000	0.040	0.198
-205.406	-85.867	0.154	0.048
-204.392	-40.357	-0.242	0.126
-203.377	96.810	-0.177	0.203
-202.363	-149.358	0.303	0.024
-201.348	-133.206	-0.216	-0.027
-200.333	-117.473	0.332	-0.060
-199.319	579.181	-0.187	-0.457
-198.304	259.410	0.175	-0.302
-197.290	-200.000	0.029	0.189
-196.275	421.911	-0.114	0.245
-195.260	79.013	0.036	-0.038
-194.246	-200.000	-0.020	0.199
-193.231	-200.000	0.022	-0.171
-192.217	20.549	0.150	-0.121
-191.202	-200.000	-0.014	0.074
-190.187	220.131	-0.106	0.170
-189.173	188.794	0.083	0.124
-188.158	-54.280	0.360	-0.163
-187.144	276.768	-0.152	0.269
-186.129	800.000	0.066	0.229
-185.114	-76.760	0.327	-0.114
-184.100	94.863	-0.141	-0.160
-183.085	-200.000	0.065	-0.327
-182.071	-177.825	-0.112	0.003
-181.056	-63.013	-0.214	0.088
-180.042	96.974	-0.124	-0.141
-179.027	-200.000	-0.040	0.290
-178.012	83.448	-0.038	-0.041
-176.998	352.620	0.100	-0.197
-175.983	-114.779	0.245	0.047
-174.969	219.809	-0.050	0.080
-173.954	-200.000	-0.013	0.065
-172.939	-110.414	-0.169	-0.035
-171.925	-63.117	-0.013	-0.005
-170.910	-0.025	0.077	0.055
-169.896	-200.000	-0.049	0.224
-168.881	-112.096	0.145	-0.029
-167.866	-65.371	0.107	0.043
-166.852	800.000	-0.051	0.163
-165.837	160.187	0.092	-0.127
-164.823	437.291	0.075	0.163
-163.808	455.618	0.199	0.440
-162.793	675.229	-0.048	-0.125
-161.779	206.193	0.092	0.142
-160.764	-49.521	0.137	-0.065
-159.750	0.175	0.186	0.132
-158.735	-79.680	0.233	0.078
-157.720	-110.126	0.220	-0.046
-156.706	-54.862	0.152	-0.068
-155.691	-200.000	-0.039	0.288
-154.677	-200.000	-0.017	0.115
-153.662	453.764	0.098	-0.216
-152.647	-138.811	-0.130	0.014
-151.633	45.175	-0.207	0.190
-150.618	330.486	-0.126	-0.242
-149.604	-200.000	0.070	0.336
-148.589	-108.545	0.297	0.064
-147.574	356.242	0.128	0.254
-146.560	214.209	0.028	0.044
-145.545	-43.555	0.256	-0.129
-144.531	800.000	0.048	-0.166
-143.516	0.768	0.184	-0.131
-142.502	480.447	-0.102	-0.231
-141.487	162.029	-0.104	-0.145
-140.472	58.622	-0.115	0.112
-139.458	-200.000	-0.020	0.103
-138.443	-200.000	0.036	0.156
-137.429	96.798	0.050	-0.057
-136.414	159.756	0.150	0.208
-135.399	-200.000	-0.006	0.052
-134.385	-200.000	-0.007	-0.515
-133.370	266.913	0.081	-0.140
-132.356	-100.830	0.145	0.035
-131.341	5.808	0.300	-0.221
-130.326	-82.301	0.323	-0.105
-129.312	-92.733	0.173	0.048
-128.297	-84.436	0.395	-0.124
-127.283	104.483	0.200	-0.235
-126.268	-200.000	-0.012	0.174
-125.253	-25.136	-0.132	0.078
-124.239	217.471	0.141	-0.224
-123.224	244.093	-0.023	0.038
-122.210	15.111	0.099	-0.077
-121.195	-200.000	-0.023	0.122
