DTS Sentinel unit serial number:	SN413079Multiplexer serial number:	ORYXHardware model number:	OX4-SRSoftware version number:	ORYX F/W v4.00 Oryx Data Collector v3.7.2.0data status	okinstallation	princeton_trtdifferential loss correction	single-endedforward channel	channel 4reverse channel	N/Adate	2019/09/12time	16:43:11forward acquisition time	60.00reverse acquisition time	0.00gamma	496.2192k internal	0.2304k external	0.2304temperature offset calibration	1.0120default loss term (dB/km)	0.3790temperature slope calibration	1.0000multiplexer offset coefficient	1.0000multiplexer slope coefficient	1.0000fibre end	0.00T internal ref (°C)	36.58T ext. ref 1 (°C)	2.76T ext. ref 2 (°C)	29.64length (m)	temperature (°C)	Stokes	anti-Stokes-747.200	415.164	0.121	-0.261
-746.185	-112.352	-0.310	-0.063
-745.171	-167.606	-0.112	-0.005
-744.156	-200.000	0.068	0.423
-743.142	800.000	0.017	-0.076
-742.127	-88.634	-0.194	-0.059
-741.112	-87.720	-0.316	-0.097
-740.098	-43.486	0.363	0.187
-739.083	-12.350	0.065	0.043
-738.069	-60.834	0.183	-0.079
-737.054	-115.739	-0.113	-0.022
-736.039	12.035	-0.185	-0.145
-735.025	-200.000	0.005	0.128
-734.010	-200.000	0.011	0.062
-732.996	255.278	-0.118	-0.205
-731.981	-2.948	-0.158	-0.112
-730.966	55.103	-0.252	-0.247
-729.952	69.350	0.130	-0.136
-728.937	-51.640	0.306	0.145
-727.923	-40.322	0.232	-0.123
-726.908	-132.618	-0.487	0.063
-725.894	-200.000	0.005	0.056
-724.879	800.000	-0.103	0.380
-723.864	-67.821	-0.059	-0.024
-722.850	-124.694	0.314	-0.049
-721.835	-36.253	-0.268	-0.147
-720.821	-31.232	0.126	0.072
-719.806	648.804	-0.075	-0.194
-718.791	28.729	-0.109	0.094
-717.777	-94.316	0.187	0.052
-716.762	-101.318	0.148	-0.037
-715.748	-200.000	0.041	-0.324
-714.733	-200.000	-0.082	-0.374
-713.718	568.070	-0.124	0.306
-712.704	-200.000	0.007	0.121
-711.689	170.596	0.351	0.510
-710.675	-172.234	-0.376	-0.012
-709.660	-48.976	-0.084	-0.041
-708.645	-184.221	0.041	-0.001
-707.631	-200.000	-0.027	0.196
-706.616	-18.594	-0.193	0.122
-705.602	-36.594	0.233	0.127
-704.587	-97.880	-0.194	-0.051
-703.572	260.687	-0.112	0.197
-702.558	144.960	-0.030	-0.041
-701.543	-43.295	-0.208	0.107
-700.529	41.035	-0.259	0.238
-699.514	-93.966	0.251	0.070
-698.499	65.176	-0.161	-0.166
-697.485	-200.000	0.033	-0.195
-696.470	800.000	-0.159	0.454
-695.456	-42.520	-0.151	-0.078
-694.441	738.062	0.045	0.123
-693.426	393.539	-0.092	0.194
-692.412	109.145	0.174	-0.211
-691.397	-80.320	-0.223	-0.076
-690.383	118.777	0.060	-0.076
-689.368	-9.179	0.248	-0.168
-688.354	-55.895	-0.122	-0.055
-687.339	142.507	0.036	0.048
-686.324	226.115	-0.129	0.212
-685.310	78.557	-0.135	0.146
-684.295	10.930	-0.135	0.105
-683.281	787.869	-0.084	-0.233
-682.266	-9.335	-0.227	-0.154
-681.251	-109.974	0.243	-0.052
-680.237	157.142	-0.041	0.057
-679.222	800.000	-0.067	-0.257
-678.208	-56.370	0.217	-0.098
-677.193	-53.069	0.164	-0.077
-676.178	-143.605	-0.152	-0.015
-675.164	-16.056	-0.248	-0.160
-674.149	-66.119	0.107	-0.043
-673.135	800.000	0.045	0.142
-672.120	1.023	0.330	0.240
-671.105	31.712	-0.119	-0.104
-670.091	-120.784	-0.101	-0.017
-669.076	-200.000	0.008	0.138
-668.062	699.284	-0.065	0.173
-667.047	-121.813	-0.333	-0.056
-666.032	77.552	-0.174	0.188
-665.018	-110.028	-0.251	0.053
-664.003	800.000	0.032	0.133
-662.989	800.000	0.033	0.133
-661.974	-200.000	-0.034	-0.213
-660.959	755.095	0.137	-0.375
-659.945	610.603	-0.038	0.096
-658.930	-147.403	0.206	0.018
-657.916	604.453	0.061	0.153
-656.901	-39.339	-0.332	-0.177
-655.886	310.741	-0.142	-0.270
-654.872	-20.203	-0.169	-0.106
-653.857	58.299	-0.161	0.160
-652.843	105.953	0.126	0.151
-651.828	-102.134	-0.276	-0.067
-650.814	-129.458	0.385	-0.054
-649.799	529.115	0.098	-0.234
-648.784	263.521	0.080	0.141
-647.770	341.958	-0.079	0.157
-646.755	-200.000	-0.043	-0.222
-645.741	-130.710	-0.122	-0.017
-644.726	-148.512	0.052	0.004
-643.711	-177.444	-0.171	-0.004
-642.697	-47.687	-0.509	-0.250
-641.682	461.902	0.128	-0.290
-640.668	-22.148	-0.532	0.327
-639.653	-200.000	0.033	-0.171
-638.638	-200.000	0.014	-0.275
-637.624	-188.553	-0.090	-0.001
-636.609	-8.104	-0.014	-0.009
-635.595	467.177	-0.018	0.040
-634.580	-70.972	0.349	0.133
-633.565	-6.660	-0.070	-0.048
-632.551	209.283	-0.277	-0.440
-631.536	-21.960	-0.331	-0.204
-630.522	112.360	0.166	0.204
-629.507	41.808	-0.236	-0.217
-628.492	-99.483	-0.112	0.029
-627.478	27.913	-0.270	0.231
-626.463	-24.237	-0.233	-0.141
-625.449	-66.912	-0.280	0.112
-624.434	800.000	-0.159	0.508
-623.419	800.000	-0.027	-0.080
-622.405	-116.618	-0.204	-0.038
-621.390	-46.545	-0.188	-0.093
-620.376	94.601	0.041	0.047
-619.361	58.711	0.193	-0.192
-618.346	-88.614	-0.157	-0.047
-617.332	759.873	0.062	-0.171
-616.317	800.000	0.077	0.231
-615.303	4.215	0.092	0.068
-614.288	81.614	0.126	-0.138
-613.273	9.805	-0.359	0.276
-612.259	489.464	-0.122	0.282
-611.244	-16.430	-0.229	-0.147
-610.230	-61.910	0.079	0.033
-609.215	800.000	-0.079	-0.253
-608.201	-15.624	-0.128	-0.083
-607.186	-200.000	0.027	0.157
-606.171	225.277	0.075	0.123
-605.157	191.625	0.072	-0.110
-604.142	280.881	0.100	0.181
-603.128	24.272	-0.100	-0.084
-602.113	12.779	-0.156	-0.122
-601.098	-58.021	0.216	-0.095
-600.084	63.753	0.084	0.086
-599.069	55.874	-0.117	-0.114
-598.055	-144.114	0.160	0.015
-597.040	-125.760	0.168	-0.026
-596.025	-90.328	-0.221	-0.065
-595.011	221.027	-0.036	0.058
-593.996	-84.411	-0.191	-0.061
-592.982	151.523	0.018	-0.025
-591.967	-45.994	0.063	-0.031
-590.952	800.000	-0.023	-0.073
-589.938	-36.009	-0.292	-0.160
-588.923	477.560	-0.165	0.377
-587.909	-163.785	0.321	-0.015
-586.894	77.734	-0.136	0.146
-585.879	740.261	0.114	0.311
-584.865	88.951	-0.047	-0.052
-583.850	-113.272	0.277	0.055
-582.836	223.331	0.056	0.091
-581.821	-19.541	-0.276	0.173
-580.806	146.908	0.150	-0.204
-579.792	141.117	0.156	0.209
-578.777	-68.731	-0.203	0.080
-577.763	800.000	0.046	-0.150
-576.748	-170.390	-0.073	0.003
-575.733	778.679	0.052	0.144
-574.719	-121.349	-0.368	0.062
-573.704	-138.103	-0.191	0.022
-572.690	373.416	0.147	0.303
-571.675	-51.254	0.171	0.081
-570.661	-50.803	-0.033	-0.016
-569.646	-200.000	-0.040	-0.304
-568.631	244.111	-0.039	-0.067
-567.617	111.480	0.206	-0.251
-566.602	57.546	-0.095	0.094
-565.588	-200.000	0.060	0.382
-564.573	-200.000	-0.001	0.079
-563.558	-176.674	0.240	-0.006
-562.544	-5.205	0.376	-0.261
-561.529	-2.533	-0.266	-0.188
-560.515	368.862	-0.064	0.130
-559.500	-68.245	0.172	-0.068
-558.485	800.000	-0.154	0.430
-557.471	-200.000	-0.013	-0.135
-556.456	-142.350	0.104	-0.010
-555.442	56.586	0.288	-0.283
-554.427	-200.000	0.027	0.261
-553.412	-139.456	0.352	0.038
-552.398	800.000	0.139	-0.466
-551.383	139.922	-0.197	-0.262
-550.369	800.000	0.069	0.289
-549.354	351.780	0.113	-0.226
-548.339	43.276	-0.133	-0.123
-547.325	-200.000	0.010	-0.475
-546.310	-120.691	-0.446	0.076
-545.296	800.000	0.029	-0.088
-544.281	106.532	0.153	0.183
-543.266	527.338	-0.109	-0.259
-542.252	-107.948	-0.185	0.041
-541.237	87.899	-0.200	0.224
-540.223	-53.542	-0.122	0.056
-539.208	-79.894	-0.170	-0.058
-538.193	-200.000	-0.048	-0.235
-537.179	-200.000	-0.036	-0.308
-536.164	-25.191	0.130	-0.077
-535.150	145.750	0.142	0.192
-534.135	-200.000	0.001	-0.120
-533.121	800.000	-0.048	-0.142
-532.106	-108.871	0.135	0.029
-531.091	-131.314	0.347	-0.046
-530.077	-200.000	-0.013	0.237
-529.062	35.779	-0.123	0.109
-528.048	-50.936	-0.073	0.035
-527.033	509.374	-0.052	0.121
-526.018	-200.000	0.024	0.300
-525.004	-48.648	0.143	-0.069
-523.989	-117.978	-0.125	-0.023
-522.975	-200.000	-0.005	0.039
-521.960	800.000	0.049	-0.205
-520.945	198.226	0.120	-0.185
-519.931	596.226	-0.062	-0.156
-518.916	75.525	-0.104	0.110
-517.902	-9.041	-0.078	-0.053
-516.887	-108.715	-0.357	-0.077
-515.872	800.000	-0.048	0.157
-514.858	-9.300	-0.096	0.065
-513.843	800.000	0.095	-0.311
-512.829	-200.000	0.040	-0.233
-511.814	311.248	-0.050	0.095
-510.799	30.349	-0.176	0.152
-509.785	-155.713	0.091	-0.006
-508.770	33.534	-0.064	0.056
-507.756	53.574	0.287	-0.278
-506.741	-200.000	0.017	0.207
-505.726	-29.170	0.075	-0.044
-504.712	382.956	-0.179	-0.372
-503.697	-200.000	-0.013	-0.207
-502.683	774.472	0.056	-0.154
-501.668	-31.410	0.082	-0.046
-500.653	-57.534	-0.282	0.125
-499.639	75.474	0.171	0.182
-498.624	-200.000	-0.009	0.279
-497.610	-48.840	-0.485	0.235
-496.595	-162.230	0.220	-0.011
-495.581	35.473	-0.103	0.091
-494.566	-200.000	-0.012	-0.137
-493.551	-200.000	-0.033	-0.213
-492.537	72.035	0.067	-0.071
-491.522	51.995	-0.094	-0.091
-490.508	94.824	0.142	-0.163
-489.493	-96.971	0.227	-0.060
-488.478	-11.047	-0.228	0.152
-487.464	215.861	0.150	0.240
-486.449	242.612	-0.103	0.174
-485.435	-143.350	-0.280	-0.027
-484.420	187.688	-0.049	0.074
-483.405	534.737	0.028	0.067
-482.391	-130.174	0.185	0.025
-481.376	-98.134	0.290	-0.075
-480.362	-84.213	-0.248	0.079
-479.347	-69.466	-0.437	0.169
-478.332	-58.545	-0.359	0.157
-477.318	-200.000	0.047	-0.225
-476.303	-200.000	-0.043	-0.249
-475.289	-34.363	-0.138	0.076
-474.274	256.705	-0.071	-0.123
-473.259	-157.253	-0.169	-0.010
-472.245	-24.526	0.119	0.071
-471.230	-200.000	0.082	-0.399
-470.216	291.007	-0.125	0.228
-469.201	222.452	-0.030	-0.049
-468.186	695.923	-0.096	-0.254
-467.172	-84.725	0.123	-0.039
-466.157	-163.814	0.339	-0.016
-465.143	800.000	0.035	0.154
-464.128	401.542	-0.059	-0.126
-463.113	330.208	0.105	0.203
-462.099	715.796	-0.084	0.225
-461.084	355.058	0.175	-0.350
-460.070	-48.452	-0.161	0.078
-459.055	-22.801	-0.040	0.024
-458.040	800.000	-0.059	-0.193
-457.026	-128.212	0.452	0.065
-456.011	-93.268	0.128	-0.036
-454.997	-200.000	-0.024	-0.162
-453.982	-123.075	0.198	-0.032
-452.968	-91.885	-0.164	0.047
-451.953	100.704	0.221	-0.258
-450.938	-161.498	0.300	-0.016
-449.924	-83.110	0.168	0.054
-448.909	-43.707	0.129	-0.065
-447.895	800.000	0.013	-0.044
-446.880	-167.578	0.121	-0.005
-445.865	182.808	-0.092	-0.136
-444.851	-32.073	0.195	-0.110
-443.836	95.355	-0.006	-0.007
-442.822	-200.000	-0.028	0.341
-441.807	462.747	0.030	0.068
-440.792	53.622	0.134	-0.130
-439.778	383.809	-0.082	0.169
-438.763	-170.186	0.622	0.022
-437.749	197.573	0.026	0.040
-436.734	89.051	0.156	0.175
-435.719	-200.000	-0.012	-0.068
-434.705	-61.028	-0.146	0.062
-433.690	-166.335	-0.368	0.016
-432.676	687.034	0.074	-0.194
-431.661	19.779	-0.061	-0.050
-430.646	-51.184	0.122	0.057
-429.632	1.983	-0.125	0.091
-428.617	-200.000	-0.022	0.195
-427.603	188.001	0.038	-0.057
-426.588	-200.000	-0.016	-0.164
-425.573	-200.000	-0.011	-0.087
-424.559	-135.256	0.180	0.022
-423.544	-49.702	0.089	0.042
-422.530	-139.843	0.135	0.014
-421.515	800.000	0.057	-0.228
-420.500	-23.868	0.164	-0.099
-419.486	-200.000	-0.016	-0.370
-418.471	369.290	-0.106	-0.215
-417.457	-5.274	0.044	-0.030
-416.442	-27.080	-0.041	-0.024
-415.428	89.146	-0.121	-0.135
-414.413	-115.120	0.393	-0.075
-413.398	160.520	0.070	-0.098
-412.384	103.260	-0.158	-0.187
-411.369	800.000	0.073	0.252
-410.355	143.279	-0.195	0.261
-409.340	-14.622	-0.279	0.180
-408.325	-135.522	0.249	0.030
-407.311	-10.010	0.420	-0.280
-406.296	-138.587	0.248	-0.027
-405.282	-163.700	0.195	0.009
-404.267	-167.337	-0.061	-0.002
-403.252	202.290	-0.104	-0.161
-402.238	784.656	0.122	0.337
-401.223	81.727	0.105	0.114
-400.209	105.859	0.235	0.279
-399.194	800.000	0.077	0.249
-398.179	153.596	0.217	0.299
-397.165	800.000	0.107	0.312
-396.150	-200.000	0.005	-0.374
-395.136	-1.189	0.303	-0.215
-394.121	800.000	-0.044	0.152
-393.106	8.641	-0.102	0.077
-392.092	-96.183	0.031	-0.008
-391.077	26.919	-0.188	0.158
-390.063	800.000	-0.043	0.189
-389.048	85.337	-0.151	0.166
-388.033	-200.000	-0.017	-0.153
-387.019	-200.000	-0.028	0.142
-386.004	89.179	0.073	0.082
-384.990	-143.302	-0.172	-0.017
-383.975	-166.503	-0.298	0.013
-382.960	102.285	-0.102	0.119
-381.946	98.547	-0.169	0.195
-380.931	800.000	-0.055	0.222
-379.917	143.906	0.148	0.199
-378.902	-28.124	0.225	-0.131
-377.888	-148.209	-0.081	0.007
-376.873	338.954	0.164	0.320
-375.858	539.111	-0.090	-0.214
-374.844	-101.066	-0.073	-0.018
-373.829	-50.185	0.294	-0.139
-372.815	-87.798	-0.137	-0.041
-371.800	116.195	0.036	0.044
-370.785	-47.518	0.155	0.076
-369.771	199.942	0.040	-0.062
-368.756	-93.867	0.138	0.038
-367.742	800.000	-0.064	0.278
-366.727	-70.005	0.111	-0.042
-365.712	95.026	-0.126	0.143
-364.698	-200.000	0.006	-0.072
-363.683	-132.228	-0.351	-0.046
-362.669	-200.000	0.026	-0.165
-361.654	166.019	0.136	0.193
-360.639	260.289	0.056	0.097
-359.625	148.837	-0.169	0.229
-358.610	4.080	-0.302	-0.222
-357.596	2.476	-0.165	0.120
-356.581	-83.256	0.373	0.120
-355.566	-200.000	0.044	-0.216
-354.552	144.922	0.104	-0.140
-353.537	278.623	-0.193	-0.344
-352.523	15.717	-0.161	0.127
-351.508	-132.928	-0.111	0.014
-350.493	481.879	-0.083	0.188
-349.479	-56.507	0.164	-0.073
-348.464	46.881	0.160	-0.149
-347.450	130.175	-0.081	-0.104
-346.435	-85.482	0.103	0.032
-345.420	-200.000	0.006	-0.240
-344.406	-138.474	-0.178	0.020
-343.391	39.634	0.164	-0.148
-342.377	800.000	-0.035	0.124
-341.362	-117.302	-0.281	-0.051
-340.348	11.566	0.294	-0.226
-339.333	-200.000	0.032	0.151
-338.318	305.080	0.062	0.115
-337.304	-80.800	-0.091	-0.030
-336.289	630.550	0.075	0.190
-335.275	-83.569	0.191	-0.061
-334.260	-200.000	0.078	-0.514
-333.245	143.939	-0.275	-0.368
-332.231	15.694	0.218	-0.171
-331.216	10.202	0.234	0.179
-330.202	-200.000	0.011	0.070
-329.187	-132.503	0.079	-0.010
-328.172	111.732	-0.153	-0.186
-327.158	-97.025	0.259	-0.068
-326.143	-42.110	-0.170	-0.087
-325.129	57.579	-0.096	0.094
-324.114	800.000	0.043	0.144
-323.099	395.552	0.145	0.304
-322.085	-85.934	-0.261	0.081
-321.070	800.000	-0.049	-0.180
-320.056	-19.245	0.214	0.133
-319.041	-151.951	0.104	0.008
-318.026	119.079	-0.034	-0.042
-317.012	-125.548	0.166	0.025
-315.997	-200.000	-0.015	-0.109
-314.983	-19.974	0.357	-0.221
-313.968	-200.000	-0.028	0.129
-312.953	-99.469	-0.262	-0.066
-311.939	-136.985	0.238	-0.027
-310.924	124.232	0.159	-0.201
-309.910	172.174	0.058	0.083
-308.895	-81.954	0.243	-0.079
-307.880	-200.000	-0.004	-0.080
-306.866	178.414	0.215	-0.315
-305.851	-126.610	0.398	0.059
-304.837	-200.000	0.004	0.115
-303.822	17.253	-0.125	0.099
-302.807	-3.955	0.152	-0.106
-301.793	110.583	-0.212	0.255
-300.778	-200.000	0.034	-0.178
-299.764	191.842	0.090	0.136
-298.749	265.147	-0.115	0.201
-297.735	-200.000	0.001	0.044
-296.720	678.904	-0.076	-0.197
-295.705	800.000	-0.084	-0.274
-294.691	800.000	-0.050	-0.165
-293.676	203.765	0.223	0.346
-292.662	-200.000	-0.059	-0.313
-291.647	-105.851	-0.444	0.100
-290.632	-127.269	0.172	-0.025
-289.618	-85.428	0.080	0.025
-288.603	-200.000	-0.000	-0.014
-287.589	-175.325	-0.269	-0.007
-286.574	240.570	-0.115	0.193
-285.559	106.679	0.221	-0.262
-284.545	295.746	0.130	0.238
-283.530	22.755	0.139	-0.114
-282.516	246.084	0.105	-0.178
-281.501	-200.000	-0.017	-0.398
-280.486	-200.000	-0.017	0.355
-279.472	59.488	0.239	0.235
-278.457	159.099	-0.128	-0.177
-277.443	5.900	-0.084	0.062
-276.428	27.499	0.298	0.251
-275.413	81.601	-0.187	0.202
-274.399	27.074	-0.035	0.029
-273.384	-37.155	0.185	-0.099
-272.370	-18.723	0.273	0.170
-271.355	113.031	0.146	0.176
-270.340	-114.996	-0.253	0.048
-269.326	-110.266	-0.270	-0.056
-268.311	-33.945	0.211	-0.116
-267.297	-72.973	0.085	0.031
-266.282	-189.720	0.216	-0.002
-265.267	-144.622	0.062	-0.006
-264.253	775.317	0.099	0.269
-263.238	-200.000	-0.017	0.353
-262.224	-200.000	-0.035	0.261
-261.209	-38.689	-0.241	0.127
-260.195	800.000	0.102	-0.356
-259.180	266.922	-0.152	-0.265
-258.165	-76.388	-0.256	-0.090
-257.151	47.425	-0.337	0.314
-256.136	-200.000	-0.001	0.146
-255.122	87.203	0.100	0.111
-254.107	-134.182	-0.260	0.032
-253.092	8.971	0.179	-0.135
-252.078	-37.189	-0.156	-0.084
-251.063	633.210	-0.159	0.402
-250.049	206.130	-0.082	-0.127
-249.034	-57.043	0.114	-0.050
-248.019	-9.421	0.348	0.232
-247.005	-26.985	0.350	-0.204
-245.990	-200.000	0.010	0.118
-244.976	-200.000	0.057	-0.299
-243.961	-200.000	-0.003	0.397
-242.946	169.123	0.103	-0.146
-241.932	-163.613	-0.331	0.016
-240.917	286.088	0.061	0.110
-239.903	-73.494	0.040	0.015
-238.888	42.843	0.204	-0.186
-237.873	-2.686	-0.159	-0.111
-236.859	-66.687	-0.206	0.081
-235.844	-68.250	0.051	0.020
-234.830	103.806	0.205	0.241
-233.815	757.618	0.044	0.120
-232.800	800.000	0.059	0.220
-231.786	-200.000	-0.011	-0.086
-230.771	207.402	0.229	-0.356
-229.757	-90.073	-0.168	0.049
-228.742	-64.222	-0.062	0.025
-227.727	80.053	0.046	-0.050
-226.713	30.348	-0.252	-0.215
-225.698	44.993	-0.123	-0.113
-224.684	-122.329	-0.395	0.064
-223.669	-96.587	-0.134	0.035
-222.655	800.000	0.057	0.188
-221.640	-182.642	-0.079	-0.001
-220.625	-70.435	0.262	0.099
-219.611	-200.000	-0.040	0.230
-218.596	199.505	-0.096	-0.147
-217.582	165.347	-0.111	-0.156
-216.567	-131.884	-0.260	-0.034
-215.552	-92.429	0.137	0.038
-214.538	-56.326	0.009	0.004
-213.523	-174.225	-0.239	-0.007
-212.509	-200.000	-0.039	-0.183
-211.494	78.131	-0.228	0.243
-210.479	221.756	0.255	0.409
-209.465	-54.839	-0.214	0.096
-208.450	588.363	0.067	0.165
-207.436	-79.527	0.074	-0.025
-206.421	800.000	-0.020	0.071
-205.406	-54.744	-0.103	-0.046
-204.392	-200.000	0.033	-0.363
-203.377	-112.043	0.144	-0.029
-202.363	-200.000	0.002	-0.228
-201.348	72.711	-0.213	-0.221
-200.333	-99.971	0.205	0.051
-199.319	-200.000	-0.013	0.224
-198.304	406.146	-0.155	-0.326
-197.290	-58.668	-0.299	-0.129
-196.275	-46.404	-0.075	-0.037
-195.260	29.358	-0.181	0.154
-194.246	47.087	0.056	-0.052
-193.231	359.048	-0.112	-0.224
-192.217	-101.054	0.039	-0.010
-191.202	-10.625	-0.143	-0.094
-190.187	-175.879	-0.319	0.008
-189.173	-200.000	0.007	0.138
-188.158	90.255	-0.141	-0.157
-187.144	45.916	-0.162	0.149
-186.129	101.644	-0.025	0.028
-185.114	48.082	-0.139	-0.129
-184.100	-105.945	0.184	0.041
-183.085	127.839	0.265	0.336
-182.071	37.204	-0.115	-0.102
-181.056	-138.103	0.412	-0.046
-180.042	91.344	0.130	0.145
-179.027	54.923	-0.330	0.317
-178.012	-173.962	0.289	0.008
-176.998	212.537	-0.204	-0.320
-175.983	-65.606	-0.202	0.081
-174.969	555.408	-0.053	-0.128
-173.954	-130.622	0.118	0.016
-172.939	-3.657	0.335	-0.232
-171.925	-200.000	-0.022	0.192
-170.910	-19.537	0.268	0.165
-169.896	179.886	0.068	-0.099
-168.881	-151.663	0.057	0.004
-167.866	-200.000	0.013	0.137
-166.852	548.868	0.142	0.339
-165.837	74.745	0.174	0.182
-164.823	-200.000	0.022	0.253
-163.808	357.119	-0.112	0.222
-162.793	275.550	-0.043	0.077
-161.779	-135.233	0.253	-0.030
-160.764	-200.000	0.007	-0.361
-159.750	227.594	-0.233	0.377
-158.735	-18.705	0.180	-0.112
-157.720	-16.989	-0.338	0.212
-156.706	18.634	0.122	0.097
-155.691	-139.138	0.307	-0.033
-154.677	262.075	-0.112	-0.193
-153.662	38.563	0.170	-0.151
-152.647	125.645	0.198	0.249
-151.633	460.159	-0.087	-0.192
-150.618	323.396	-0.089	-0.168
-149.604	-200.000	-0.002	0.030
-148.589	800.000	-0.054	-0.173
-147.574	160.230	0.241	-0.334
-146.560	-107.769	0.181	0.039
-145.545	161.758	-0.161	-0.224
-144.531	-200.000	-0.001	0.146
-143.516	-53.538	-0.200	-0.091
-142.502	44.439	-0.140	0.128
-141.487	-149.573	-0.481	-0.038
-140.472	67.352	0.076	0.077
-139.458	-2.590	0.339	0.236
-138.443	30.307	0.176	0.150
-137.429	545.409	0.129	0.306
-136.414	800.000	0.013	0.042
-135.399	-37.053	0.197	-0.105
-134.385	-200.000	-0.112	-0.555
-133.370	36.816	-0.072	0.064
-132.356	-200.000	0.005	-0.035
-131.341	-5.052	0.216	0.148
-130.326	231.244	0.061	0.100
-129.312	-200.000	-0.032	0.145
-128.297	5.530	-0.140	0.103
-127.283	-104.119	0.253	-0.058
-126.268	800.000	0.099	0.341
-125.253	-90.647	-0.242	-0.069
-124.239	690.665	-0.118	-0.307
-123.224	240.663	0.134	-0.222
-122.210	-45.474	-0.066	-0.032
-121.195	-32.094	0.101	0.056
