DTS Sentinel unit serial number:	SN413079Multiplexer serial number:	ORYXHardware model number:	OX4-SRSoftware version number:	ORYX F/W v4.00 Oryx Data Collector v3.7.2.0data status	okinstallation	princeton_trtdifferential loss correction	single-endedforward channel	channel 4reverse channel	N/Adate	2019/09/17time	10:41:34forward acquisition time	60.00reverse acquisition time	0.00gamma	496.2192k internal	0.2310k external	0.2310temperature offset calibration	0.9974default loss term (dB/km)	0.3790temperature slope calibration	1.0000multiplexer offset coefficient	1.0000multiplexer slope coefficient	1.0000fibre end	0.00T internal ref (°C)	30.12T ext. ref 1 (°C)	0.17T ext. ref 2 (°C)	25.70length (m)	temperature (°C)	Stokes	anti-Stokes-747.200	-105.908	-0.141	0.032
-746.185	-200.000	0.020	0.161
-745.171	-49.929	0.152	0.073
-744.156	-86.344	0.288	0.090
-743.142	-34.166	-0.100	-0.056
-742.127	702.553	0.102	0.273
-741.112	-147.405	-0.162	-0.014
-740.098	609.976	-0.131	0.333
-739.083	223.618	-0.042	0.068
-738.069	800.000	0.057	0.170
-737.054	301.945	-0.074	-0.139
-736.039	236.770	0.104	0.174
-735.025	316.838	0.076	0.146
-734.010	301.983	-0.029	0.054
-732.996	-65.154	-0.054	-0.022
-731.981	800.000	-0.048	0.146
-730.966	-11.556	-0.053	0.035
-729.952	-49.104	-0.243	0.118
-728.937	109.062	0.166	-0.201
-727.923	-62.735	0.246	-0.103
-726.908	347.709	-0.147	-0.294
-725.894	-200.000	-0.022	-0.410
-724.879	28.309	-0.129	0.111
-723.864	-93.311	-0.224	0.063
-722.850	-20.646	-0.143	0.089
-721.835	375.171	0.088	0.181
-720.821	-111.203	-0.274	0.057
-719.806	-200.000	0.022	0.155
-718.791	-200.000	0.021	0.128
-717.777	-135.589	0.362	-0.044
-716.762	-39.728	-0.471	0.250
-715.748	-200.000	0.042	0.243
-714.733	-140.559	-0.109	-0.012
-713.718	800.000	0.036	-0.119
-712.704	-166.481	-0.277	0.012
-711.689	-36.461	0.106	0.058
-710.675	394.702	-0.150	-0.318
-709.660	-124.949	0.218	0.034
-708.645	-67.313	-0.026	-0.010
-707.631	131.542	-0.042	0.054
-706.616	-55.560	0.120	-0.055
-705.602	36.844	-0.125	0.112
-704.587	150.032	0.166	-0.229
-703.572	800.000	0.035	0.117
-702.558	-59.984	-0.273	-0.118
-701.543	-200.000	-0.001	-0.123
-700.529	800.000	-0.028	0.078
-699.514	-130.083	0.100	-0.014
-698.499	-166.665	-0.473	0.020
-697.485	216.346	0.129	0.207
-696.470	-16.858	0.172	-0.110
-695.456	616.898	-0.108	0.274
-694.441	-200.000	-0.021	0.250
-693.426	-23.150	-0.387	-0.236
-692.412	-200.000	0.030	-0.234
-691.397	327.947	0.056	0.109
-690.383	206.036	0.193	0.304
-689.368	-179.968	-0.081	-0.002
-688.354	473.333	0.037	-0.084
-687.339	268.082	-0.098	0.173
-686.324	-172.806	-0.372	0.012
-685.310	-200.000	-0.044	-0.281
-684.295	800.000	-0.063	-0.203
-683.281	-158.198	0.148	0.009
-682.266	209.441	0.132	-0.210
-681.251	-42.727	-0.232	-0.120
-680.237	-114.752	-0.282	0.055
-679.222	65.737	-0.040	-0.041
-678.208	-119.962	0.088	-0.015
-677.193	-27.727	0.075	0.044
-676.178	-153.994	0.248	0.017
-675.164	-131.325	-0.137	0.018
-674.149	63.485	-0.089	0.090
-673.135	-200.000	-0.009	-0.115
-672.120	-176.027	-0.211	0.006
-671.105	-200.000	0.001	-0.067
-670.091	48.032	-0.062	0.058
-669.076	-112.687	-0.072	0.014
-668.062	465.031	0.128	0.291
-667.047	-119.328	0.138	-0.024
-666.032	-200.000	0.003	0.073
-665.018	123.119	0.166	0.210
-664.003	-80.763	0.045	-0.015
-662.989	16.919	0.168	-0.135
-661.974	-24.119	-0.182	0.110
-660.959	-29.396	0.351	0.203
-659.945	408.457	0.131	-0.281
-658.930	-82.260	0.147	-0.048
-657.916	5.199	-0.176	-0.131
-656.901	-134.368	0.291	0.036
-655.886	-16.417	-0.139	-0.089
-654.872	173.553	0.160	0.234
-653.857	-91.601	0.258	0.074
-652.843	-126.840	-0.155	0.023
-651.828	12.370	-0.183	-0.143
-650.814	-200.000	0.039	-0.310
-649.799	132.008	0.133	-0.173
-648.784	-200.000	0.039	0.288
-647.770	-91.363	0.152	-0.044
-646.755	375.173	0.098	-0.201
-645.741	48.589	-0.089	0.085
-644.726	-24.361	0.116	-0.070
-643.711	-64.781	-0.065	0.027
-642.697	-66.356	-0.216	0.087
-641.682	321.859	-0.107	-0.206
-640.668	-200.000	0.023	0.141
-639.653	203.209	0.124	-0.194
-638.638	-121.710	-0.377	-0.063
-637.624	31.966	0.111	-0.096
-636.609	-44.644	0.230	-0.116
-635.595	464.010	0.099	-0.223
-634.580	-200.000	-0.018	0.136
-633.565	-166.873	-0.329	0.014
-632.551	88.551	-0.186	0.209
-631.536	248.151	-0.135	0.231
-630.522	-104.276	-0.101	0.024
-629.507	-48.821	0.218	-0.106
-628.492	-69.911	0.320	-0.123
-627.478	-99.299	0.391	-0.100
-626.463	-48.835	-0.217	0.105
-625.449	-126.691	-0.264	0.039
-624.434	636.418	0.110	-0.282
-623.419	-7.089	0.250	-0.172
-622.405	-7.887	-0.144	-0.098
-621.390	519.856	-0.093	-0.221
-620.376	-200.000	0.003	0.088
-619.361	10.240	-0.179	-0.137
-618.346	-153.500	0.374	-0.026
-617.332	590.611	0.089	-0.222
-616.317	-23.424	-0.167	-0.102
-615.303	-200.000	0.011	-0.088
-614.288	-92.826	-0.427	0.121
-613.273	800.000	0.035	-0.105
-612.259	98.479	0.089	0.103
-611.244	800.000	-0.019	0.064
-610.230	352.441	0.104	-0.209
-609.215	-200.000	0.012	0.139
-608.201	4.886	0.347	0.258
-607.186	255.288	-0.146	0.252
-606.171	785.491	-0.073	-0.202
-605.157	57.262	-0.290	-0.286
-604.142	-143.952	-0.074	0.007
-603.128	800.000	-0.066	-0.208
-602.113	-19.460	0.089	-0.056
-601.098	100.432	-0.060	0.070
-600.084	-115.586	-0.210	0.040
-599.069	-200.000	-0.021	0.258
-598.055	-10.033	-0.099	-0.067
-597.040	318.417	-0.149	-0.286
-596.025	-143.849	-0.265	0.025
-595.011	363.546	0.141	0.286
-593.996	-98.098	0.088	0.023
-592.982	12.245	-0.155	0.121
-591.967	-157.483	0.300	-0.018
-590.952	192.183	-0.120	-0.183
-589.938	800.000	-0.035	-0.139
-588.923	-200.000	-0.008	0.141
-587.909	-98.813	-0.161	-0.041
-586.894	-79.785	-0.068	-0.023
-585.879	81.042	0.329	0.358
-584.865	-68.960	0.206	-0.080
-583.850	-200.000	-0.026	-0.244
-582.836	800.000	0.115	-0.384
-581.821	-117.390	0.289	-0.053
-580.806	800.000	0.091	-0.293
-579.792	209.178	0.098	-0.155
-578.777	-121.203	-0.179	-0.030
-577.763	-26.249	-0.295	-0.175
-576.748	800.000	-0.045	-0.130
-575.733	-77.263	-0.201	0.070
-574.719	-200.000	0.019	0.125
-573.704	-43.920	-0.219	-0.111
-572.690	-200.000	-0.027	-0.252
-571.675	-143.069	0.228	0.022
-570.661	608.843	0.088	-0.222
-569.646	-4.586	-0.230	0.160
-568.631	85.063	-0.237	0.262
-567.617	-37.372	-0.358	-0.193
-566.602	-200.000	-0.005	-0.065
-565.588	38.350	0.097	0.087
-564.573	230.859	-0.054	-0.088
-563.558	-82.061	0.058	0.019
-562.544	81.835	0.036	-0.039
-561.529	136.228	-0.120	0.158
-560.515	38.510	0.196	0.176
-559.500	800.000	-0.038	-0.137
-558.485	-40.222	-0.084	-0.044
-557.471	352.226	-0.162	0.325
-556.456	22.725	-0.086	-0.071
-555.442	15.318	-0.194	0.153
-554.427	738.996	-0.068	-0.185
-553.412	7.652	0.192	0.145
-552.398	800.000	0.077	0.244
-551.383	800.000	-0.052	0.226
-550.369	-41.271	0.229	0.119
-549.354	-126.692	-0.164	0.024
-548.339	747.732	0.145	0.395
-547.325	-132.714	-0.261	0.034
-546.310	800.000	0.030	0.118
-545.296	-92.396	0.176	-0.050
-544.281	-88.536	-0.173	-0.052
-543.266	-17.216	0.265	0.168
-542.252	639.708	-0.190	-0.486
-541.237	-9.771	0.180	0.121
-540.223	-120.930	-0.346	0.059
-539.208	55.615	-0.362	-0.354
-538.193	800.000	-0.025	0.082
-537.179	-200.000	0.019	0.243
-536.164	65.812	-0.167	0.170
-535.150	800.000	-0.088	0.356
-534.135	-107.736	0.197	-0.043
-533.121	92.443	-0.105	-0.119
-532.106	-52.423	0.170	-0.079
-531.091	-74.578	-0.211	0.076
-530.077	800.000	0.018	0.055
-529.062	-76.062	-0.092	-0.033
-528.048	-7.623	-0.316	-0.215
-527.033	-200.000	-0.003	-0.187
-526.018	-200.000	-0.027	0.190
-525.004	8.954	0.108	-0.082
-523.989	646.603	0.069	-0.178
-522.975	518.771	0.117	0.275
-521.960	-177.296	0.079	0.002
-520.945	-109.141	-0.219	-0.047
-519.931	-74.099	-0.262	0.095
-518.916	-52.252	-0.211	-0.099
-517.902	-200.000	-0.169	0.001
-516.887	112.771	0.134	0.164
-515.872	154.972	-0.167	0.232
-514.858	-29.273	-0.277	-0.160
-513.843	-200.000	0.001	0.193
-512.829	78.900	0.163	0.175
-511.814	-200.000	-0.057	0.275
-510.799	-163.613	-0.168	-0.008
-509.785	-92.489	-0.232	0.066
-508.770	224.712	-0.070	0.114
-507.756	-200.000	-0.017	0.186
-506.741	-200.000	-0.038	0.187
-505.726	-189.187	0.109	-0.001
-504.712	304.975	0.046	0.086
-503.697	179.525	0.139	0.204
-502.683	221.403	0.103	-0.166
-501.668	-120.312	0.137	0.023
-500.653	-132.802	0.151	0.019
-499.639	-82.253	0.464	0.152
-498.624	160.425	0.175	-0.245
-497.610	-200.000	-0.006	-0.214
-496.595	-138.428	0.178	-0.020
-495.581	-28.888	-0.361	0.209
-494.566	-159.557	0.337	-0.019
-493.551	-200.000	0.006	0.070
-492.537	-3.729	0.040	0.028
-491.522	-200.000	0.008	0.064
-490.508	-29.524	-0.233	-0.134
-489.493	153.535	-0.309	-0.426
-488.478	295.044	0.123	-0.226
-487.464	-30.262	0.063	0.036
-486.449	-168.381	-0.181	0.007
-485.435	399.395	0.118	-0.248
-484.420	-200.000	-0.052	-0.441
-483.405	-175.695	0.258	0.007
-482.391	-200.000	-0.010	0.207
-481.376	-200.000	-0.042	0.280
-480.362	-200.000	0.008	-0.104
-479.347	75.951	-0.143	0.152
-478.332	-72.172	0.336	-0.125
-477.318	-186.723	-0.323	-0.005
-476.303	800.000	0.066	0.276
-475.289	-20.481	-0.175	-0.108
-474.274	800.000	-0.027	0.094
-473.259	171.564	-0.180	0.260
-472.245	81.632	-0.291	-0.316
-471.230	699.008	0.054	-0.144
-470.216	-200.000	-0.039	-0.309
-469.201	-8.709	-0.128	-0.086
-468.186	-112.933	0.117	0.023
-467.172	46.370	-0.109	0.101
-466.157	-200.000	-0.017	0.080
-465.143	100.895	-0.155	-0.181
-464.128	-139.907	-0.184	-0.020
-463.113	247.359	0.189	0.321
-462.099	-200.000	0.008	-0.247
-461.084	-20.828	0.053	0.033
-460.070	-200.000	-0.008	-0.123
-459.055	-25.355	-0.289	-0.172
-458.040	58.199	-0.121	-0.120
-457.026	423.103	0.097	0.209
-456.011	-200.000	0.020	0.124
-454.997	191.944	-0.117	-0.178
-453.982	64.030	0.021	-0.021
-452.968	-54.718	0.186	0.085
-451.953	800.000	0.057	-0.164
-450.938	279.502	0.195	0.350
-449.924	-200.000	-0.017	-0.363
-448.909	343.364	0.137	-0.269
-447.895	-86.307	-0.158	0.049
-446.880	800.000	0.060	0.175
-445.865	369.484	-0.119	0.242
-444.851	-30.405	-0.207	0.118
-443.836	193.545	-0.203	-0.308
-442.822	9.315	0.158	0.120
-441.807	76.730	-0.062	-0.066
-440.792	800.000	0.046	-0.178
-439.778	-30.468	0.250	-0.142
-438.763	-93.223	-0.223	-0.062
-437.749	-5.982	0.347	-0.238
-436.734	-60.456	0.231	0.099
-435.719	800.000	-0.060	0.169
-434.705	-86.724	0.143	0.044
-433.690	-200.000	0.045	0.400
-432.676	800.000	-0.080	0.283
-431.661	-61.432	-0.039	-0.016
-430.646	-167.427	-0.250	-0.010
-429.632	-18.465	0.384	-0.241
-428.617	90.820	0.044	0.049
-427.603	-200.000	0.009	0.305
-426.588	352.715	0.067	0.133
-425.573	-132.742	0.107	-0.014
-424.559	84.387	-0.184	0.202
-423.544	-147.076	-0.193	-0.017
-422.530	-200.000	-0.012	0.275
-421.515	-28.932	-0.209	-0.121
-420.500	-167.635	0.336	0.013
-419.486	233.483	0.151	-0.250
-418.471	73.459	-0.047	0.049
-417.457	104.587	-0.213	-0.251
-416.442	93.204	0.166	-0.189
-415.428	-31.285	0.305	0.172
-414.413	-200.000	0.013	-0.389
-413.398	-200.000	0.037	0.474
-412.384	800.000	-0.062	0.225
-411.369	-200.000	-0.028	0.202
-410.355	38.476	0.098	0.088
-409.340	-14.049	-0.159	-0.103
-408.325	-8.230	0.039	0.027
-407.311	-25.256	-0.192	-0.114
-406.296	181.057	0.118	-0.174
-405.282	-200.000	0.008	0.080
-404.267	-129.785	-0.360	-0.050
-403.252	-153.825	-0.223	0.015
-402.238	-88.514	0.132	0.039
-401.223	-126.092	0.260	-0.039
-400.209	-85.715	0.492	-0.153
-399.194	-112.984	0.070	0.014
-398.179	800.000	0.071	0.270
-397.165	-118.676	0.123	-0.022
-396.150	424.593	-0.175	-0.377
-395.136	-43.052	-0.137	0.069
-394.121	-84.686	0.061	-0.019
-393.106	-75.608	-0.067	-0.024
-392.092	452.515	-0.060	-0.132
-391.077	-103.051	0.104	-0.025
-390.063	-68.255	-0.544	-0.212
-389.048	545.009	-0.049	-0.117
-388.033	27.468	-0.097	-0.082
-387.019	21.084	0.090	-0.073
-386.004	-173.697	0.103	-0.003
-384.990	-19.220	0.215	-0.134
-383.975	-17.716	0.255	0.160
-382.960	-45.177	-0.545	-0.271
-381.946	399.897	0.109	-0.228
-380.931	-26.552	0.117	-0.069
-379.917	-160.933	-0.174	-0.009
-378.902	344.681	0.109	0.214
-377.888	269.396	-0.019	-0.033
-376.873	34.335	0.200	-0.175
-375.858	282.320	-0.060	-0.107
-374.844	125.166	-0.229	0.290
-373.829	-137.887	-0.218	-0.024
-372.815	800.000	-0.025	-0.089
-371.800	323.844	-0.046	0.087
-370.785	-52.576	-0.091	0.042
-369.771	-158.232	0.343	0.020
-368.756	239.140	-0.115	0.191
-367.742	-200.000	-0.028	0.413
-366.727	-109.022	-0.242	0.052
-365.712	800.000	0.064	-0.256
-364.698	-200.000	0.077	0.444
-363.683	-175.522	0.527	-0.014
-362.669	-126.205	0.175	0.026
-361.654	-143.308	-0.112	0.011
-360.639	-43.679	0.170	0.086
-359.625	-110.670	-0.344	0.071
-358.610	-103.343	0.156	-0.037
-357.596	-128.675	-0.247	0.035
-356.581	27.576	-0.113	-0.095
-355.566	-61.013	-0.428	0.181
-354.552	-116.593	-0.353	0.065
-353.537	159.383	0.120	0.167
-352.523	-51.753	0.241	-0.112
-351.508	-67.372	0.176	-0.069
-350.493	800.000	-0.048	0.150
-349.479	91.239	0.093	0.104
-348.464	-30.088	0.119	0.068
-347.450	-100.519	-0.260	0.064
-346.435	213.354	0.270	-0.426
-345.420	12.934	0.102	0.079
-344.406	21.199	0.151	0.123
-343.391	-79.340	-0.103	-0.035
-342.377	177.452	-0.079	0.115
-341.362	44.590	0.060	-0.055
-340.348	800.000	0.060	-0.250
-339.333	-200.000	0.004	0.154
-338.318	-153.929	-0.029	0.002
-337.304	-200.000	0.023	-0.118
-336.289	496.066	0.202	0.464
-335.275	122.904	0.034	0.043
-334.260	532.882	0.017	-0.041
-333.245	-127.726	0.041	-0.006
-332.231	-89.307	0.128	0.038
-331.216	-77.504	0.203	-0.071
-330.202	-200.000	0.035	-0.423
-329.187	346.664	-0.060	0.118
-328.172	-186.027	0.173	0.003
-327.158	-163.628	0.343	0.016
-326.143	-200.000	0.002	-0.048
-325.129	-200.000	0.019	-0.596
-324.114	155.601	-0.190	-0.261
-323.099	-200.000	-0.012	0.242
-322.085	-200.000	0.053	0.325
-321.070	-200.000	0.004	0.266
-320.056	24.759	0.127	0.105
-319.041	-200.000	0.003	0.109
-318.026	-59.250	0.214	-0.092
-317.012	352.295	0.075	-0.149
-315.997	-200.000	0.049	-0.248
-314.983	-64.704	-0.273	0.110
-313.968	335.330	0.023	-0.045
-312.953	-200.000	0.042	0.225
-311.939	-42.233	0.274	0.140
-310.924	55.260	0.193	-0.187
-309.910	35.619	-0.159	0.139
-308.895	76.649	-0.081	-0.086
-307.880	749.716	0.143	0.385
-306.866	-200.000	-0.015	0.245
-305.851	164.500	-0.174	0.245
-304.837	30.086	-0.182	-0.155
-303.822	160.241	-0.072	-0.101
-302.807	800.000	-0.057	-0.168
-301.793	162.874	-0.158	-0.221
-300.778	-200.000	-0.032	-0.248
-299.764	683.710	0.059	-0.153
-298.749	-41.340	-0.057	0.029
-297.735	-200.000	-0.037	0.301
-296.720	-12.341	-0.040	-0.026
-295.705	772.133	-0.144	0.393
-294.691	539.739	0.107	-0.255
-293.676	88.408	0.110	0.122
-292.662	-200.000	-0.003	-0.012
-291.647	-110.232	0.077	-0.016
-290.632	131.220	0.070	-0.089
-289.618	260.901	0.116	0.201
-288.603	-200.000	-0.002	0.014
-287.589	156.884	-0.140	0.193
-286.574	-43.179	-0.114	-0.058
-285.559	-59.103	0.148	0.064
-284.545	-151.763	0.170	0.012
-283.530	151.294	-0.056	-0.077
-282.516	-158.445	-0.124	0.007
-281.501	-180.909	-0.237	0.005
-280.486	-32.229	0.043	-0.024
-279.472	28.899	-0.112	0.094
-278.457	-105.938	-0.020	0.004
-277.443	-126.490	-0.277	0.041
-276.428	48.068	0.034	0.031
-275.413	266.370	0.138	-0.241
-274.399	-89.519	-0.045	-0.013
-273.384	7.325	0.329	-0.245
-272.370	-134.983	0.219	-0.026
-271.355	0.634	0.212	0.151
-270.340	-200.000	0.043	-0.198
-269.326	-17.640	0.185	0.116
-268.311	390.503	0.043	-0.088
-267.297	-127.449	-0.172	-0.025
-266.282	-200.000	-0.030	-0.297
-265.267	334.001	-0.154	0.298
-264.253	115.329	-0.221	-0.269
-263.238	73.296	0.164	-0.171
-262.224	67.746	0.180	0.183
-261.209	-200.000	0.027	-0.127
-260.195	-53.860	-0.057	-0.026
-259.180	218.107	-0.211	-0.335
-258.165	286.919	-0.071	-0.128
-257.151	89.900	-0.241	-0.269
-256.136	-200.000	-0.041	-0.186
-255.122	800.000	0.043	0.147
-254.107	-108.949	0.388	-0.083
-253.092	85.047	-0.140	-0.153
-252.078	470.561	0.068	0.152
-251.063	-157.987	-0.164	-0.010
-250.049	800.000	0.127	0.533
-249.034	-30.444	-0.069	0.039
-248.019	160.937	0.219	-0.305
-247.005	-0.586	0.349	-0.247
-245.990	-200.000	0.015	-0.069
-244.976	-61.880	-0.217	0.091
-243.961	432.779	0.096	-0.206
-242.946	14.307	0.064	-0.050
-241.932	-157.163	0.350	-0.021
-240.917	7.655	0.189	0.141
-239.903	-13.118	-0.171	0.111
-238.888	-136.406	0.179	0.021
-237.873	-46.044	0.218	0.107
-236.859	449.725	0.187	-0.412
-235.844	290.730	-0.043	-0.078
-234.830	-200.000	-0.083	-0.395
-233.815	28.103	0.170	-0.142
-232.800	94.307	-0.157	-0.178
-231.786	800.000	-0.056	0.213
-230.771	-50.563	0.068	0.032
-229.757	-81.620	0.185	0.061
-228.742	-200.000	0.030	-0.209
-227.727	128.456	-0.050	-0.063
-226.713	3.367	-0.143	0.104
-225.698	-200.000	-0.037	0.310
-224.684	486.558	0.079	0.179
-223.669	-44.747	-0.418	0.207
-222.655	-125.269	0.365	-0.056
-221.640	800.000	-0.039	-0.120
-220.625	-12.724	0.589	0.382
-219.611	-89.464	-0.377	-0.110
-218.596	-200.000	-0.041	-0.220
-217.582	-38.996	-0.191	0.100
-216.567	120.843	-0.088	0.109
-215.552	-8.587	-0.118	-0.079
-214.538	-200.000	0.005	0.356
-213.523	227.020	-0.179	0.290
-212.509	-49.437	0.484	-0.230
-211.494	-200.000	-0.039	-0.240
-210.479	-2.982	0.252	0.175
-209.465	-18.115	0.107	0.067
-208.450	-200.000	-0.027	0.347
-207.436	463.794	0.100	-0.222
-206.421	800.000	0.060	-0.210
-205.406	-200.000	0.030	0.214
-204.392	58.754	0.247	0.241
-203.377	125.579	0.207	-0.260
-202.363	1.943	0.057	-0.041
-201.348	-112.329	0.227	-0.045
-200.333	12.755	0.094	-0.072
-199.319	-44.547	-0.099	-0.049
-198.304	800.000	0.167	0.498
-197.290	21.920	0.101	0.082
-196.275	-28.467	-0.303	0.174
-195.260	176.087	-0.159	0.230
-194.246	-97.428	-0.205	-0.053
-193.231	-2.683	0.054	0.038
-192.217	-29.214	-0.080	-0.045
-191.202	-33.048	0.200	0.110
-190.187	37.310	0.164	-0.144
-189.173	3.813	0.164	-0.119
-188.158	276.085	0.150	0.265
-187.144	-200.000	0.061	0.382
-186.129	-82.825	-0.056	0.018
-185.114	457.342	-0.048	-0.106
-184.100	800.000	0.014	-0.057
-183.085	204.599	-0.096	0.148
-182.071	-200.000	-0.016	0.297
-181.056	308.720	-0.004	-0.008
-180.042	-86.058	-0.175	0.054
-179.027	102.868	0.023	-0.027
-178.012	-125.878	0.150	-0.023
-176.998	277.628	0.267	0.472
-175.983	357.297	0.063	-0.125
-174.969	441.976	0.050	0.109
-173.954	195.742	-0.083	-0.126
-172.939	-108.466	0.089	-0.019
-171.925	449.235	-0.047	-0.104
-170.910	-8.848	0.091	-0.060
-169.896	119.488	-0.318	-0.391
-168.881	-131.443	0.125	-0.016
-167.866	-23.773	-0.284	-0.169
-166.852	-81.925	-0.080	0.026
-165.837	-11.970	0.265	0.173
-164.823	-9.742	-0.273	-0.181
-163.808	800.000	-0.037	-0.134
-162.793	-126.693	0.156	-0.023
-161.779	-103.828	-0.332	0.077
-160.764	-101.663	0.176	-0.043
-159.750	19.027	-0.135	0.107
-158.735	-200.000	0.001	0.199
-157.720	-37.846	-0.106	-0.056
-156.706	91.909	0.108	0.121
-155.691	-66.582	-0.273	0.107
-154.677	-76.175	0.292	-0.102
-153.662	88.946	0.182	-0.201
-152.647	-54.942	-0.347	0.155
-151.633	-159.494	-0.214	-0.012
-150.618	-110.127	0.134	0.028
-149.604	93.638	0.320	0.360
-148.589	34.067	0.484	0.419
-147.574	63.664	0.066	-0.066
-146.560	-145.147	0.134	0.012
-145.545	361.604	-0.104	-0.206
-144.531	81.095	-0.116	0.124
-143.516	-200.000	-0.049	0.286
-142.502	-200.000	-0.049	-0.266
-141.487	-77.735	0.189	0.065
-140.472	-51.769	0.168	0.078
-139.458	57.130	0.039	-0.038
-138.443	322.731	-0.038	-0.072
-137.429	76.152	0.172	0.180
-136.414	800.000	-0.036	0.100
-135.399	142.975	-0.122	-0.161
-134.385	-92.711	0.226	0.063
-133.370	800.000	0.077	0.306
-132.356	-200.000	0.025	0.420
-131.341	618.434	0.028	0.069
-130.326	800.000	0.070	-0.210
-129.312	20.246	-0.122	0.098
-128.297	-200.000	0.057	0.309
-127.283	14.754	0.035	-0.027
-126.268	2.370	0.372	0.267
-125.253	-96.669	-0.161	0.042
-124.239	-200.000	0.019	-0.103
-123.224	45.812	-0.156	-0.143
-122.210	509.281	-0.074	0.170
-121.195	800.000	0.081	0.247
