DTS Sentinel unit serial number:	SN413079Multiplexer serial number:	ORYXHardware model number:	OX4-SRSoftware version number:	ORYX F/W v4.00 Oryx Data Collector v3.7.2.0data status	okinstallation	princeton_trtdifferential loss correction	single-endedforward channel	channel 4reverse channel	N/Adate	2019/09/19time	04:45:34forward acquisition time	60.00reverse acquisition time	0.00gamma	496.2192k internal	0.2340k external	0.2340temperature offset calibration	1.0031default loss term (dB/km)	0.3790temperature slope calibration	1.0000multiplexer offset coefficient	1.0000multiplexer slope coefficient	1.0000fibre end	0.00T internal ref (°C)	19.92T ext. ref 1 (°C)	0.62T ext. ref 2 (°C)	13.00length (m)	temperature (°C)	Stokes	anti-Stokes-747.200	62.761	-0.297	0.298
-746.185	58.269	-0.128	-0.126
-745.171	98.436	0.206	-0.238
-744.156	150.888	-0.029	0.040
-743.142	287.994	0.113	0.205
-742.127	98.819	-0.362	0.419
-741.112	-200.000	0.034	0.280
-740.098	800.000	0.090	0.276
-739.083	48.148	0.073	-0.069
-738.069	723.660	-0.184	0.491
-737.054	-122.236	-0.265	0.043
-736.039	325.961	-0.079	0.152
-735.025	-84.954	0.306	-0.096
-734.010	-87.837	-0.316	0.095
-732.996	-106.788	0.059	0.013
-731.981	57.748	0.092	0.091
-730.966	-200.000	0.009	-0.120
-729.952	-141.904	0.104	0.010
-728.937	800.000	-0.071	0.205
-727.923	-83.221	-0.440	0.142
-726.908	-200.000	-0.019	-0.268
-725.894	-134.489	-0.280	-0.034
-724.879	-200.000	0.023	-0.191
-723.864	-66.190	-0.174	0.070
-722.850	800.000	0.069	-0.240
-721.835	-200.000	0.002	-0.167
-720.821	-111.205	0.077	0.016
-719.806	264.072	0.215	0.374
-718.791	43.924	-0.183	-0.167
-717.777	304.630	-0.020	-0.038
-716.762	-38.395	0.060	0.032
-715.748	-200.000	0.005	0.379
-714.733	-3.307	-0.223	-0.156
-713.718	-89.976	0.252	0.074
-712.704	-182.526	0.171	0.003
-711.689	8.043	-0.206	0.154
-710.675	-82.202	-0.392	0.128
-709.660	123.214	0.075	0.095
-708.645	53.581	-0.073	-0.070
-707.631	-80.421	0.201	0.067
-706.616	209.559	-0.054	-0.084
-705.602	61.441	0.138	-0.138
-704.587	468.381	0.129	0.290
-703.572	-123.552	0.262	-0.042
-702.558	142.417	-0.150	0.200
-701.543	-139.890	0.171	0.018
-700.529	-200.000	0.016	0.287
-699.514	57.634	0.209	0.204
-698.499	-200.000	0.013	-0.160
-697.485	62.444	0.137	0.137
-696.470	-78.481	0.103	0.035
-695.456	0.661	-0.274	-0.196
-694.441	-105.581	-0.150	0.034
-693.426	-83.251	-0.396	-0.127
-692.412	422.632	0.027	0.057
-691.397	-165.431	-0.176	-0.008
-690.383	-200.000	-0.051	-0.264
-689.368	-102.787	0.086	0.021
-688.354	3.942	-0.240	0.176
-687.339	-51.943	-0.384	-0.179
-686.324	410.479	-0.084	0.178
-685.310	-182.446	-0.345	0.006
-684.295	40.420	0.286	-0.258
-683.281	-200.000	0.031	0.278
-682.266	-10.601	0.140	-0.093
-681.251	28.907	-0.123	-0.105
-680.237	-78.639	-0.217	0.074
-679.222	800.000	-0.045	0.188
-678.208	-115.611	-0.111	0.021
-677.193	800.000	-0.095	-0.302
-676.178	35.516	0.181	-0.159
-675.164	27.561	-0.352	0.296
-674.149	-85.220	-0.177	0.055
-673.135	-50.174	-0.180	0.085
-672.120	104.936	-0.098	0.115
-671.105	123.664	-0.133	0.167
-670.091	-124.573	-0.303	-0.047
-669.076	68.405	-0.195	-0.200
-668.062	-86.410	-0.189	-0.058
-667.047	316.668	0.100	-0.189
-666.032	708.617	-0.129	0.342
-665.018	115.189	-0.143	0.174
-664.003	-40.145	-0.176	0.092
-662.989	535.630	0.146	0.347
-661.974	-150.584	-0.117	0.009
-660.959	126.548	0.025	0.032
-659.945	-105.152	-0.176	-0.040
-658.930	-200.000	0.012	0.170
-657.916	56.701	-0.035	-0.034
-656.901	800.000	0.008	0.030
-655.886	-75.139	-0.129	0.046
-654.872	800.000	-0.131	-0.421
-653.857	-70.135	-0.181	0.069
-652.843	-0.649	-0.309	-0.219
-651.828	800.000	0.034	-0.101
-650.814	61.627	-0.149	0.148
-649.799	-91.275	0.412	-0.118
-648.784	38.167	-0.383	-0.340
-647.770	-48.140	0.292	0.141
-646.755	-200.000	0.040	-0.177
-645.741	800.000	0.028	0.093
-644.726	2.761	-0.076	0.055
-643.711	-18.178	0.075	-0.047
-642.697	302.499	-0.111	-0.204
-641.682	-62.426	-0.291	0.121
-640.668	-200.000	0.004	-0.320
-639.653	-30.177	-0.350	-0.199
-638.638	-49.927	-0.339	0.161
-637.624	-96.500	-0.362	0.095
-636.609	248.788	0.071	0.120
-635.595	30.347	0.072	0.062
-634.580	-200.000	0.018	-0.237
-633.565	800.000	-0.050	-0.191
-632.551	-66.136	0.103	0.041
-631.536	-94.666	-0.199	0.054
-630.522	-200.000	0.033	0.425
-629.507	-12.476	-0.236	-0.154
-628.492	-134.774	-0.104	0.013
-627.478	142.551	0.150	0.199
-626.463	-130.326	-0.210	-0.028
-625.449	-200.000	0.001	-0.085
-624.434	-136.314	-0.273	-0.032
-623.419	27.179	-0.148	-0.124
-622.405	13.321	-0.061	0.047
-621.390	190.170	0.067	-0.100
-620.376	-75.073	0.047	0.017
-619.361	62.719	0.062	-0.061
-618.346	-95.723	-0.090	-0.024
-617.332	-200.000	0.072	0.492
-616.317	-200.000	-0.013	0.082
-615.303	-50.018	0.099	-0.047
-614.288	99.306	0.146	-0.168
-613.273	686.115	-0.010	0.026
-612.259	-175.045	0.321	-0.009
-611.244	-36.669	-0.084	0.045
-610.230	-200.000	-0.002	-0.179
-609.215	584.910	0.037	-0.090
-608.201	-68.348	0.510	-0.198
-607.186	637.570	-0.069	-0.174
-606.171	177.789	-0.080	-0.117
-605.157	-81.613	0.208	0.068
-604.142	-155.596	-0.208	0.013
-603.128	-200.000	0.026	0.232
-602.113	800.000	-0.045	0.188
-601.098	582.161	0.034	-0.084
-600.084	-19.589	0.275	0.170
-599.069	-200.000	-0.014	-0.086
-598.055	530.849	-0.062	-0.147
-597.040	-200.000	0.032	-0.152
-596.025	-48.945	0.384	-0.184
-595.011	-97.804	-0.116	-0.030
-593.996	-77.415	0.280	0.097
-592.982	510.266	0.052	0.121
-591.967	800.000	0.074	0.249
-590.952	-173.594	-0.098	-0.003
-589.938	357.264	-0.052	-0.104
-588.923	-97.071	-0.339	0.088
-587.909	20.989	-0.137	-0.111
-586.894	-200.000	-0.067	-0.324
-585.879	56.690	-0.078	0.076
-584.865	-20.967	-0.244	-0.149
-583.850	194.882	-0.030	-0.046
-582.836	98.085	-0.085	0.097
-581.821	376.468	-0.122	-0.247
-580.806	10.010	0.033	-0.025
-579.792	-51.166	0.184	-0.086
-578.777	-200.000	0.010	-0.152
-577.763	-200.000	-0.011	0.320
-576.748	-200.000	0.040	0.384
-575.733	-200.000	-0.009	-0.264
-574.719	800.000	0.035	0.123
-573.704	-88.195	0.357	-0.107
-572.690	800.000	-0.077	-0.213
-571.675	-88.640	-0.137	-0.041
-570.661	756.681	-0.047	-0.126
-569.646	-56.960	-0.103	0.045
-568.631	-108.164	-0.076	-0.016
-567.617	381.148	-0.134	0.273
-566.602	800.000	0.052	0.211
-565.588	800.000	-0.068	0.238
-564.573	-34.036	0.200	0.110
-563.558	-57.554	0.101	0.044
-562.544	-150.937	-0.242	-0.018
-561.529	59.575	0.189	0.186
-560.515	75.913	0.080	0.084
-559.500	800.000	-0.067	0.198
-558.485	-156.171	0.324	0.020
-557.471	-39.619	0.158	0.082
-556.456	-200.000	-0.037	0.341
-555.442	800.000	-0.065	-0.246
-554.427	386.647	0.091	-0.188
-553.412	-87.126	0.159	0.048
-552.398	-200.000	-0.014	-0.127
-551.383	-5.448	0.079	0.054
-550.369	289.289	-0.181	0.326
-549.354	655.708	0.128	0.326
-548.339	82.657	0.118	0.127
-547.325	-48.947	-0.390	-0.186
-546.310	-103.393	0.179	-0.042
-545.296	800.000	0.076	-0.228
-544.281	-108.576	-0.352	0.075
-543.266	-200.000	0.033	-0.208
-542.252	26.624	0.073	0.061
-541.237	7.755	-0.073	-0.054
-540.223	36.565	0.131	-0.115
-539.208	-60.768	0.284	0.120
-538.193	-200.000	0.041	0.221
-537.179	-148.633	-0.249	0.020
-536.164	-200.000	0.029	-0.187
-535.150	-200.000	-0.003	0.183
-534.135	-200.000	0.046	0.399
-533.121	124.017	-0.163	0.203
-532.106	270.138	0.089	-0.155
-531.091	800.000	-0.126	-0.461
-530.077	-200.000	0.001	-0.178
-529.062	-27.614	-0.285	-0.165
-528.048	-200.000	0.011	-0.047
-527.033	5.288	0.213	-0.156
-526.018	460.184	-0.153	-0.338
-525.004	800.000	-0.057	-0.156
-523.989	800.000	-0.090	0.379
-522.975	-124.444	0.112	-0.017
-521.960	-78.917	0.093	0.032
-520.945	800.000	-0.103	-0.297
-519.931	-200.000	0.028	-0.226
-518.916	321.789	-0.122	0.231
-517.902	-200.000	-0.060	0.395
-516.887	-200.000	-0.002	0.092
-515.872	3.362	-0.187	0.136
-514.858	347.156	0.124	-0.243
-513.843	-57.392	-0.078	-0.034
-512.829	800.000	-0.083	-0.352
-511.814	26.171	-0.159	0.132
-510.799	-44.340	-0.308	-0.153
-509.785	-49.461	0.199	-0.094
-508.770	800.000	0.101	0.307
-507.756	-121.965	0.066	-0.011
-506.741	-73.386	-0.315	-0.114
-505.726	216.705	-0.188	-0.297
-504.712	800.000	-0.010	-0.041
-503.697	110.144	-0.170	-0.203
-502.683	-98.376	-0.121	-0.031
-501.668	-68.281	-0.126	0.048
-500.653	-24.250	0.094	0.056
-499.639	-53.631	-0.266	-0.121
-498.624	43.531	0.378	0.343
-497.610	-17.908	-0.120	0.075
-496.595	266.628	-0.007	-0.012
-495.581	468.764	0.108	0.240
-494.566	-28.684	0.107	0.061
-493.551	-167.721	-0.099	0.004
-492.537	159.693	0.081	0.112
-491.522	5.263	0.153	0.112
-490.508	-200.000	0.016	-0.127
-489.493	184.885	-0.237	-0.349
-488.478	-158.381	0.380	0.022
-487.464	-93.478	0.199	0.055
-486.449	-20.231	0.124	0.076
-485.435	-200.000	-0.075	0.380
-484.420	-200.000	0.019	-0.249
-483.405	314.982	0.048	-0.089
-482.391	-75.184	0.167	-0.059
-481.376	-69.808	0.069	-0.026
-480.362	125.122	0.177	-0.221
-479.347	326.166	-0.108	0.206
-478.332	257.253	-0.036	-0.061
-477.318	-200.000	0.060	-0.448
-476.303	-81.972	-0.115	0.037
-475.289	227.127	0.068	-0.109
-474.274	800.000	-0.003	-0.010
-473.259	38.859	0.086	-0.076
-472.245	-141.232	-0.227	-0.023
-471.230	383.313	0.085	0.174
-470.216	174.779	-0.007	-0.010
-469.201	-115.511	0.273	0.051
-468.186	-9.970	-0.081	0.054
-467.172	-121.159	0.377	-0.063
-466.157	-51.456	0.251	-0.117
-465.143	11.292	-0.112	0.085
-464.128	78.289	0.257	-0.272
-463.113	-115.467	-0.356	-0.067
-462.099	271.358	-0.098	-0.171
-461.084	-79.877	-0.333	-0.111
-460.070	1.869	0.166	-0.119
-459.055	-76.070	-0.274	0.096
-458.040	284.242	0.113	0.202
-457.026	-200.000	-0.024	0.185
-456.011	-200.000	-0.001	0.241
-454.997	-161.966	0.015	0.001
-453.982	-8.018	0.149	0.100
-452.968	171.639	0.220	-0.313
-451.953	536.523	-0.112	-0.264
-450.938	125.849	0.127	0.159
-449.924	242.472	-0.198	0.328
-448.909	135.345	-0.054	-0.069
-447.895	-200.000	-0.014	0.174
-446.880	-150.497	0.298	-0.023
-445.865	800.000	-0.087	0.327
-444.851	201.855	0.037	0.057
-443.836	67.912	-0.156	0.158
-442.822	-121.703	0.097	-0.016
-441.807	-27.366	-0.188	0.108
-440.792	-5.063	0.197	0.134
-439.778	134.605	-0.175	0.225
-438.763	-200.000	0.006	0.311
-437.749	88.513	0.247	0.271
-436.734	-21.101	-0.141	0.086
-435.719	136.365	-0.367	0.474
-434.705	-200.000	0.049	0.256
-433.690	-89.599	-0.209	0.061
-432.676	-70.692	0.179	0.067
-431.661	28.406	-0.286	-0.240
-430.646	800.000	0.137	-0.490
-429.632	-200.000	-0.022	-0.267
-428.617	-200.000	-0.063	-0.381
-427.603	-90.400	0.331	-0.095
-426.588	30.515	-0.489	-0.414
-425.573	-153.130	0.203	0.014
-424.559	304.062	0.066	-0.121
-423.544	370.936	0.045	0.089
-422.530	172.991	-0.125	0.179
-421.515	260.773	-0.108	-0.185
-420.500	-200.000	-0.066	0.291
-419.486	-161.085	-0.149	-0.008
-418.471	-75.583	0.079	-0.028
-417.457	-118.030	0.295	-0.052
-416.442	800.000	0.190	0.603
-415.428	152.719	-0.151	0.204
-414.413	-70.196	0.156	-0.059
-413.398	800.000	-0.140	0.594
-412.384	82.030	-0.155	-0.166
-411.369	655.670	-0.069	-0.174
-410.355	113.670	0.159	0.192
-409.340	-146.313	0.190	-0.016
-408.325	-13.979	-0.272	0.174
-407.311	-200.000	0.006	0.046
-406.296	-32.052	-0.104	-0.058
-405.282	-200.000	0.004	0.192
-404.267	4.695	0.148	-0.108
-403.252	-140.447	-0.148	0.015
-402.238	27.964	-0.112	-0.094
-401.223	-21.687	0.116	0.070
-400.209	-75.608	0.159	-0.056
-399.194	-134.738	0.483	0.058
-398.179	-200.000	0.028	0.151
-397.165	752.287	0.027	0.073
-396.150	-140.388	-0.155	-0.016
-395.136	39.365	0.120	-0.106
-394.121	-200.000	-0.001	-0.022
-393.106	-12.493	-0.282	0.182
-392.092	413.347	-0.161	-0.340
-391.077	-42.680	0.130	0.065
-390.063	415.856	0.157	-0.332
-389.048	-200.000	0.012	-0.168
-388.033	-88.001	-0.323	-0.096
-387.019	-66.920	0.262	0.102
-386.004	540.335	-0.082	-0.193
-384.990	-153.545	-0.412	0.028
-383.975	178.079	-0.278	0.401
-382.960	800.000	0.009	0.036
-381.946	-200.000	-0.084	0.416
-380.931	-156.458	-0.132	-0.008
-379.917	57.503	0.011	0.011
-378.902	-200.000	-0.065	-0.378
-377.888	-50.575	-0.059	0.027
-376.873	411.963	-0.176	0.370
-375.858	103.154	-0.121	0.140
-374.844	-71.903	-0.289	-0.106
-373.829	-73.179	-0.152	-0.055
-372.815	512.870	0.159	-0.367
-371.800	-150.587	0.145	-0.011
-370.785	50.715	0.070	0.065
-369.771	153.861	0.034	0.046
-368.756	-67.366	-0.261	0.101
-367.742	-158.300	-0.175	-0.010
-366.727	-86.754	-0.254	-0.077
-365.712	-185.300	0.174	-0.003
-364.698	79.279	-0.048	0.051
-363.683	800.000	0.151	-0.470
-362.669	-13.975	-0.200	-0.128
-361.654	-30.263	-0.112	-0.063
-360.639	17.561	-0.083	0.065
-359.625	83.086	-0.022	0.023
-358.610	-200.000	0.003	-0.234
-357.596	-72.208	-0.066	0.024
-356.581	90.316	0.117	-0.129
-355.566	800.000	0.094	-0.278
-354.552	-200.000	0.033	-0.173
-353.537	-200.000	-0.031	-0.269
-352.523	-200.000	-0.016	0.094
-351.508	-200.000	-0.025	-0.431
-350.493	-78.227	-0.172	-0.058
-349.479	-200.000	0.007	0.270
-348.464	800.000	0.086	0.360
-347.450	-73.569	-0.247	-0.089
-346.435	526.074	-0.025	0.059
-345.420	293.678	0.201	-0.363
-344.406	102.068	0.104	0.119
-343.391	447.646	0.074	-0.161
-342.377	128.059	-0.240	-0.302
-341.362	-6.853	0.254	0.170
-340.348	-200.000	0.055	0.294
-339.333	122.949	0.052	-0.065
-338.318	-68.086	0.056	-0.022
-337.304	-137.793	0.271	0.030
-336.289	-200.000	-0.011	-0.285
-335.275	-118.629	-0.181	0.032
-334.260	-9.563	0.053	-0.035
-333.245	481.638	-0.097	-0.216
-332.231	135.825	-0.238	-0.306
-331.216	512.513	-0.093	-0.213
-330.202	-200.000	0.015	-0.227
-329.187	12.212	0.231	0.175
-328.172	-51.770	0.306	-0.140
-327.158	-200.000	0.041	0.235
-326.143	-200.000	-0.001	0.080
-325.129	-138.214	0.293	0.032
-324.114	286.624	-0.095	0.169
-323.099	-166.259	0.291	-0.012
-322.085	-138.998	0.143	0.015
-321.070	-6.158	0.091	0.061
-320.056	800.000	0.067	-0.223
-319.041	364.973	-0.168	-0.334
-318.026	522.401	-0.119	-0.276
-317.012	-116.218	-0.266	-0.049
-315.997	95.625	0.027	0.030
-314.983	526.981	0.050	-0.116
-313.968	-200.000	0.067	0.354
-312.953	-200.000	-0.032	0.163
-311.939	41.946	0.177	-0.158
-310.924	-200.000	0.021	0.171
-309.910	-35.877	-0.213	0.113
-308.895	800.000	-0.075	-0.243
-307.880	35.620	0.043	0.038
-306.866	-51.156	-0.365	-0.169
-305.851	-200.000	-0.036	0.176
-304.837	14.830	0.084	0.065
-303.822	-200.000	0.051	-0.460
-302.807	800.000	-0.062	-0.244
-301.793	800.000	0.088	0.246
-300.778	800.000	-0.044	-0.149
-299.764	-81.472	-0.180	0.058
-298.749	120.469	-0.147	-0.180
-297.735	51.521	0.059	0.055
-296.720	-97.571	0.205	-0.052
-295.705	111.585	0.135	0.160
-294.691	94.425	0.212	0.237
-293.676	-51.716	-0.194	0.089
-292.662	-200.000	0.001	0.246
-291.647	-75.061	-0.282	-0.099
-290.632	-200.000	-0.007	0.203
-289.618	-200.000	0.032	-0.162
-288.603	203.684	-0.063	0.096
-287.589	187.683	0.148	-0.218
-286.574	-200.000	-0.018	-0.087
-285.559	-7.974	0.367	-0.244
-284.545	-124.757	0.218	-0.033
-283.530	-178.572	-0.353	-0.008
-282.516	540.266	-0.027	-0.064
-281.501	-52.169	0.095	0.043
-280.486	-200.000	-0.038	0.399
-279.472	161.209	0.151	0.208
-278.457	-200.000	-0.006	0.062
-277.443	-51.346	-0.051	0.023
-276.428	-39.927	0.198	-0.102
-275.413	79.786	0.201	-0.213
-274.399	-113.635	-0.276	0.053
-273.384	-85.470	-0.284	0.087
-272.370	-53.868	-0.233	-0.105
-271.355	-106.664	0.645	-0.141
-270.340	599.710	-0.107	0.261
-269.326	342.638	-0.132	0.254
-268.311	57.904	0.075	0.072
-267.297	-118.096	-0.169	0.030
-266.282	-4.246	0.191	-0.130
-265.267	70.367	0.025	-0.025
-264.253	800.000	-0.044	-0.154
-263.238	608.708	-0.111	0.273
-262.224	8.379	-0.160	0.118
-261.209	-200.000	0.020	0.128
-260.195	-200.000	-0.009	-0.127
-259.180	95.172	-0.037	-0.042
-258.165	-92.859	-0.117	0.032
-257.151	-200.000	-0.013	-0.076
-256.136	-77.106	0.137	0.047
-255.122	45.158	0.086	0.078
-254.107	99.868	0.230	0.262
-253.092	40.549	-0.067	0.060
-252.078	-54.823	0.061	0.027
-251.063	-114.184	-0.235	-0.045
-250.049	-147.176	0.044	0.004
-249.034	-39.440	-0.101	0.052
-248.019	714.847	0.040	-0.104
-247.005	-200.000	-0.008	-0.328
-245.990	43.297	-0.172	0.154
-244.976	223.737	0.123	0.195
-243.961	86.171	0.114	0.123
-242.946	-5.722	-0.226	-0.152
-241.932	-200.000	0.025	-0.186
-240.917	-200.000	-0.016	-0.146
-239.903	-104.085	0.351	0.080
-238.888	42.989	0.156	-0.140
-237.873	-96.254	-0.421	-0.110
-236.859	-84.176	0.223	0.070
-235.844	381.765	-0.140	0.282
-234.830	516.106	-0.046	0.106
-233.815	-18.901	0.187	0.114
-232.800	-200.000	0.013	0.097
-231.786	-45.810	0.331	-0.161
-230.771	-200.000	0.013	0.058
-229.757	-124.254	-0.109	-0.017
-228.742	35.137	0.089	-0.076
-227.727	-200.000	0.007	-0.211
-226.713	-74.985	0.168	0.059
-225.698	800.000	0.075	-0.220
-224.684	229.415	0.176	0.282
-223.669	180.829	-0.130	-0.187
-222.655	184.071	-0.050	-0.073
-221.640	487.663	0.045	-0.101
-220.625	-37.152	-0.306	0.161
-219.611	-200.000	-0.174	-0.000
-218.596	2.960	0.338	-0.241
-217.582	9.073	-0.054	0.040
-216.567	-67.130	-0.192	0.074
-215.552	206.747	-0.115	0.175
-214.538	-200.000	0.030	0.298
-213.523	-117.728	-0.285	0.050
-212.509	-150.199	0.208	0.016
-211.494	-29.779	-0.063	0.035
-210.479	-200.000	0.063	0.286
-209.465	132.512	0.059	0.075
-208.450	-59.909	-0.287	0.121
-207.436	163.094	-0.178	-0.246
-206.421	-76.061	0.488	-0.169
-205.406	398.524	-0.220	-0.452
-204.392	-158.175	-0.248	0.014
-203.377	-142.703	0.347	0.033
-202.363	690.232	0.078	0.201
-201.348	-200.000	-0.005	0.192
-200.333	800.000	0.063	-0.249
-199.319	630.063	0.110	0.273
-198.304	-38.179	0.152	-0.079
-197.290	-5.005	0.163	-0.110
-196.275	-168.551	0.325	-0.012
-195.260	-29.095	0.052	0.030
-194.246	708.602	0.075	0.196
-193.231	-136.168	-0.141	0.016
-192.217	-200.000	-0.064	0.453
-191.202	-121.324	0.164	0.027
-190.187	-200.000	0.057	-0.501
-189.173	22.098	-0.110	-0.088
-188.158	37.219	0.206	0.179
-187.144	227.482	-0.079	-0.127
-186.129	-116.356	0.147	-0.027
-185.114	800.000	0.042	0.117
-184.100	-200.000	-0.025	0.321
-183.085	-200.000	-0.041	0.292
-182.071	343.477	0.049	0.094
-181.056	-55.936	0.194	-0.085
-180.042	-200.000	0.016	0.137
-179.027	-161.555	0.341	-0.017
-178.012	84.746	-0.269	-0.289
-176.998	-200.000	-0.007	0.242
-175.983	-146.772	0.070	-0.006
-174.969	-36.034	0.085	0.045
-173.954	106.300	-0.219	0.254
-172.939	332.344	0.107	0.203
-171.925	-89.999	-0.146	-0.042
-170.910	651.185	0.121	0.303
-169.896	-69.170	-0.044	0.017
-168.881	-64.778	0.185	0.074
-167.866	31.147	0.246	-0.207
-166.852	59.467	0.241	-0.233
-165.837	-200.000	-0.043	-0.241
-164.823	-73.935	0.407	0.145
-163.808	-84.267	0.277	0.086
-162.793	-141.777	-0.205	-0.020
-161.779	-200.000	0.049	-0.329
-160.764	171.242	0.098	0.138
-159.750	-148.452	-0.242	-0.019
-158.735	-200.000	0.008	0.039
-157.720	-114.103	-0.095	0.018
-156.706	-123.055	0.277	0.044
-155.691	-58.425	-0.328	0.140
-154.677	567.890	0.052	0.124
-153.662	54.504	-0.023	-0.022
-152.647	800.000	-0.127	-0.364
-151.633	19.044	-0.054	-0.043
-150.618	-200.000	-0.037	0.354
-149.604	800.000	-0.047	0.127
-148.589	136.255	0.068	0.086
-147.574	-100.960	0.335	-0.081
-146.560	53.435	-0.132	0.124
-145.545	-9.917	0.089	-0.058
-144.531	114.312	0.234	-0.279
-143.516	-136.723	-0.218	0.025
-142.502	-107.734	-0.393	-0.084
-141.487	-102.922	-0.309	-0.072
-140.472	182.231	0.057	0.083
-139.458	-140.155	-0.244	0.025
-138.443	73.106	0.139	-0.142
-137.429	35.557	-0.147	-0.126
-136.414	800.000	-0.042	-0.176
-135.399	-93.029	-0.142	-0.039
-134.385	-19.533	0.155	-0.094
-133.370	327.624	-0.154	-0.288
-132.356	39.412	-0.385	0.338
-131.341	402.980	-0.102	0.210
-130.326	-172.371	0.153	0.005
-129.312	-27.554	-0.195	0.111
-128.297	800.000	0.032	0.129
-127.283	-200.000	0.007	0.168
-126.268	30.818	-0.174	0.146
-125.253	-45.925	-0.050	-0.024
-124.239	481.839	0.116	0.257
-123.224	-32.435	-0.241	-0.131
-122.210	-200.000	0.018	0.387
-121.195	-95.479	-0.097	0.025
