DTS Sentinel unit serial number:	SN413079Multiplexer serial number:	ORYXHardware model number:	OX4-SRSoftware version number:	ORYX F/W v4.00 Oryx Data Collector v3.7.2.0data status	okinstallation	princeton_trtdifferential loss correction	single-endedforward channel	channel 4reverse channel	N/Adate	2019/09/12time	16:03:11forward acquisition time	60.00reverse acquisition time	0.00gamma	496.2192k internal	0.2297k external	0.2297temperature offset calibration	1.0106default loss term (dB/km)	0.3790temperature slope calibration	1.0000multiplexer offset coefficient	1.0000multiplexer slope coefficient	1.0000fibre end	0.00T internal ref (°C)	38.86T ext. ref 1 (°C)	2.51T ext. ref 2 (°C)	31.81length (m)	temperature (°C)	Stokes	anti-Stokes-747.200	-134.385	-0.234	0.029
-746.185	-100.478	-0.194	0.049
-745.171	130.269	0.303	0.396
-744.156	403.696	-0.083	-0.178
-743.142	-200.000	-0.010	-0.209
-742.127	-98.374	-0.363	-0.095
-741.112	537.628	0.115	0.278
-740.098	-200.000	-0.049	0.221
-739.083	-73.607	0.166	0.062
-738.069	-200.000	0.039	0.357
-737.054	-36.238	-0.198	0.109
-736.039	422.806	0.115	0.251
-735.025	-163.951	-0.386	-0.018
-734.010	125.456	-0.326	-0.420
-732.996	-135.658	-0.133	-0.016
-731.981	-83.171	-0.235	0.077
-730.966	-200.000	0.026	-0.381
-729.952	646.015	0.055	-0.144
-728.937	-200.000	-0.053	-0.330
-727.923	210.183	0.076	-0.122
-726.908	-171.231	-0.139	0.005
-725.894	162.354	-0.107	0.153
-724.879	-69.562	-0.098	0.038
-723.864	-21.141	0.077	0.048
-722.850	-137.720	-0.280	-0.032
-721.835	8.457	-0.211	-0.162
-720.821	-200.000	0.028	0.190
-719.806	-7.848	0.063	-0.043
-718.791	555.302	0.096	-0.237
-717.777	-56.037	-0.332	-0.151
-716.762	-68.456	-0.068	0.027
-715.748	-41.766	-0.064	-0.033
-714.733	800.000	-0.040	-0.139
-713.718	-200.000	0.060	0.323
-712.704	497.275	0.102	0.239
-711.689	-200.000	0.006	-0.280
-710.675	390.979	-0.075	0.160
-709.660	-28.781	0.141	-0.083
-708.645	-60.186	-0.522	0.227
-707.631	-200.000	-0.058	0.282
-706.616	143.319	0.148	-0.201
-705.602	-177.874	-0.287	-0.007
-704.587	-62.401	0.063	0.027
-703.572	-48.924	0.189	0.092
-702.558	-136.072	-0.059	0.007
-701.543	800.000	0.001	-0.004
-700.529	-42.140	-0.193	-0.101
-699.514	-18.605	0.087	-0.055
-698.499	-121.156	-0.264	-0.045
-697.485	144.186	-0.143	-0.194
-696.470	800.000	-0.075	0.276
-695.456	373.841	0.087	-0.180
-694.441	-28.111	-0.245	0.145
-693.426	-200.000	-0.036	0.543
-692.412	467.114	-0.075	-0.172
-691.397	-200.000	-0.009	-0.188
-690.383	5.541	-0.103	0.078
-689.368	89.854	-0.120	-0.137
-688.354	278.252	-0.032	0.058
-687.339	-126.259	-0.404	-0.061
-686.324	71.838	0.049	-0.052
-685.310	-200.000	0.007	0.160
-684.295	-28.821	-0.267	0.156
-683.281	250.840	-0.171	-0.295
-682.266	-125.297	-0.228	-0.035
-681.251	-200.000	-0.021	0.269
-680.237	-200.000	-0.016	0.225
-679.222	144.027	-0.096	-0.131
-678.208	-29.426	-0.343	0.200
-677.193	38.208	-0.164	-0.149
-676.178	-43.370	-0.392	-0.202
-675.164	75.544	0.073	-0.078
-674.149	596.887	-0.088	0.221
-673.135	284.465	0.057	-0.105
-672.120	52.880	0.246	-0.239
-671.105	-200.000	0.002	0.176
-670.091	111.906	0.185	-0.227
-669.076	461.608	0.102	-0.231
-668.062	682.980	-0.124	-0.329
-667.047	-200.000	0.048	-0.332
-666.032	286.333	0.171	-0.314
-665.018	800.000	0.017	-0.057
-664.003	177.393	0.144	-0.213
-662.989	-115.050	-0.182	-0.035
-661.974	-200.000	0.024	0.144
-660.959	30.877	0.270	0.235
-659.945	-200.000	0.035	0.235
-658.930	-200.000	0.022	-0.188
-657.916	-200.000	-0.000	0.014
-656.901	54.362	0.281	0.275
-655.886	-200.000	0.047	-0.277
-654.872	-106.921	0.094	-0.021
-653.857	77.055	0.354	0.383
-652.843	-44.351	-0.153	0.078
-651.828	-200.000	0.006	0.104
-650.814	277.151	-0.102	-0.184
-649.799	-146.692	0.273	-0.024
-648.784	-200.000	0.007	0.303
-647.770	-125.465	-0.143	0.022
-646.755	-21.834	-0.008	0.005
-645.741	-38.066	0.129	-0.070
-644.726	9.181	0.184	-0.142
-643.711	-95.444	0.413	-0.113
-642.697	193.469	0.111	-0.171
-641.682	-200.000	-0.067	-0.440
-640.668	-106.203	0.195	-0.045
-639.653	42.651	-0.118	0.109
-638.638	283.706	-0.213	-0.389
-637.624	185.627	-0.143	0.216
-636.609	-113.339	0.212	-0.042
-635.595	-57.418	-0.170	0.076
-634.580	476.063	-0.121	0.278
-633.565	40.952	0.107	-0.098
-632.551	-80.731	-0.240	-0.081
-631.536	-143.397	0.138	0.013
-630.522	7.954	-0.100	0.077
-629.507	-200.000	-0.023	0.334
-628.492	-200.000	-0.002	0.165
-627.478	4.357	0.090	0.067
-626.463	800.000	-0.030	0.121
-625.449	-104.534	0.268	-0.063
-624.434	-97.676	0.107	-0.028
-623.419	800.000	0.028	-0.084
-622.405	20.743	-0.131	0.108
-621.390	54.894	-0.112	-0.110
-620.376	723.830	0.065	-0.176
-619.361	-73.760	0.250	-0.092
-618.346	451.299	0.019	0.042
-617.332	8.219	-0.107	-0.081
-616.317	-29.749	0.289	-0.167
-615.303	-57.717	0.069	-0.031
-614.288	800.000	0.046	-0.163
-613.273	-200.000	-0.028	0.187
-612.259	-139.671	0.227	0.025
-611.244	44.121	0.047	0.044
-610.230	-200.000	-0.012	-0.088
-609.215	800.000	-0.020	0.078
-608.201	78.590	0.179	0.194
-607.186	800.000	0.104	-0.352
-606.171	97.578	0.119	0.139
-605.157	-58.756	0.120	-0.053
-604.142	-200.000	-0.023	0.331
-603.128	-64.898	-0.138	-0.057
-602.113	-44.574	-0.500	0.254
-601.098	800.000	0.024	-0.096
-600.084	-9.878	0.120	-0.081
-599.069	-200.000	-0.034	-0.172
-598.055	800.000	0.030	-0.123
-597.040	-70.417	0.081	0.031
-596.025	-200.000	-0.000	0.063
-595.011	800.000	-0.092	0.294
-593.996	-172.143	-0.165	-0.005
-592.982	-166.017	0.196	0.008
-591.967	-23.331	-0.209	0.128
-590.952	-139.029	0.151	-0.017
-589.938	-92.072	-0.111	0.032
-588.923	-22.186	0.302	-0.186
-587.909	-139.758	-0.429	0.046
-586.894	94.890	0.066	-0.076
-585.879	-61.675	-0.131	-0.056
-584.865	-13.185	-0.301	0.198
-583.850	-200.000	0.038	-0.180
-582.836	-200.000	0.007	0.120
-581.821	-104.140	0.152	-0.036
-580.806	1.344	-0.114	-0.083
-579.792	516.225	0.035	-0.082
-578.777	50.286	-0.094	-0.090
-577.763	-61.684	-0.564	-0.240
-576.748	218.888	-0.143	0.233
-575.733	-135.880	-0.143	-0.017
-574.719	68.904	-0.207	0.215
-573.704	-34.821	-0.079	0.044
-572.690	665.073	0.101	0.264
-571.675	17.032	0.074	-0.059
-570.661	-50.897	0.081	-0.039
-569.646	115.496	-0.076	0.095
-568.631	-28.552	-0.292	0.170
-567.617	422.501	-0.096	-0.208
-566.602	319.141	-0.078	0.150
-565.588	-200.000	0.030	-0.144
-564.573	2.047	0.357	-0.261
-563.558	800.000	-0.056	0.227
-562.544	337.325	-0.047	-0.092
-561.529	685.268	-0.124	-0.328
-560.515	16.595	0.048	0.039
-559.500	-200.000	0.073	-0.386
-558.485	717.569	0.089	-0.239
-557.471	800.000	-0.040	-0.157
-556.456	-200.000	0.026	0.117
-555.442	307.585	0.048	-0.091
-554.427	118.342	0.214	0.267
-553.412	-46.414	-0.431	0.215
-552.398	-200.000	-0.025	-0.115
-551.383	800.000	-0.026	-0.115
-550.369	121.512	-0.233	0.294
-549.354	-200.000	-0.018	0.260
-548.339	-54.421	0.127	-0.058
-547.325	64.473	-0.191	0.195
-546.310	269.643	-0.213	-0.379
-545.296	356.451	0.117	0.236
-544.281	-10.339	0.274	-0.184
-543.266	-200.000	-0.021	0.133
-542.252	-17.876	0.256	0.162
-541.237	-137.902	0.016	-0.002
-540.223	-85.355	-0.175	0.055
-539.208	-61.080	-0.076	-0.032
-538.193	628.064	0.080	-0.204
-537.179	800.000	0.107	-0.430
-536.164	800.000	-0.041	-0.149
-535.150	-60.703	-0.072	-0.031
-534.135	99.227	0.258	0.302
-533.121	310.186	0.047	0.090
-532.106	444.037	-0.125	-0.277
-531.091	-200.000	0.101	-0.521
-530.077	-200.000	0.032	0.151
-529.062	126.797	0.084	-0.108
-528.048	-86.586	0.115	0.036
-527.033	800.000	0.057	0.240
-526.018	-43.589	0.196	0.100
-525.004	-154.779	-0.355	-0.024
-523.989	164.255	0.067	0.096
-522.975	676.436	0.074	-0.195
-521.960	494.764	-0.053	-0.124
-520.945	800.000	0.074	-0.219
-519.931	-170.742	-0.242	-0.008
-518.916	800.000	0.084	0.267
-517.902	800.000	-0.014	-0.043
-516.887	172.791	-0.145	-0.211
-515.872	-200.000	0.023	-0.220
-514.858	230.119	0.130	0.215
-513.843	800.000	0.033	0.136
-512.829	-158.079	-0.284	0.017
-511.814	-132.152	-0.065	0.008
-510.799	140.590	-0.135	-0.180
-509.785	-87.122	-0.166	-0.051
-508.770	92.943	0.103	-0.117
-507.756	-42.428	-0.308	-0.159
-506.741	723.746	-0.168	0.453
-505.726	-130.229	0.352	0.048
-504.712	-200.000	-0.004	-0.196
-503.697	-200.000	-0.005	-0.029
-502.683	-200.000	-0.328	-0.001
-501.668	-200.000	-0.030	-0.233
-500.653	800.000	0.055	-0.172
-499.639	96.830	-0.176	0.204
-498.624	-53.965	-0.015	-0.007
-497.610	-156.358	-0.093	-0.006
-496.595	-200.000	0.017	-0.095
-495.581	-200.000	-0.016	0.080
-494.566	121.470	0.138	0.174
-493.551	69.430	-0.019	0.020
-492.537	-200.000	-0.050	-0.232
-491.522	-75.967	0.087	0.031
-490.508	-70.448	0.358	0.137
-489.493	-45.599	-0.090	-0.045
-488.478	618.101	0.081	0.205
-487.464	-200.000	0.026	0.127
-486.449	800.000	0.032	-0.092
-485.435	-200.000	0.005	0.042
-484.420	-73.130	0.281	0.104
-483.405	466.357	0.143	0.324
-482.391	-119.922	0.246	-0.043
-481.376	118.654	0.114	0.142
-480.362	54.770	-0.162	-0.158
-479.347	-172.319	0.238	-0.008
-478.332	643.691	-0.092	-0.238
-477.318	506.427	-0.080	-0.186
-476.303	-14.619	0.358	-0.233
-475.289	147.509	-0.190	-0.259
-474.274	0.440	0.018	0.013
-473.259	800.000	-0.101	-0.401
-472.245	-200.000	0.031	0.244
-471.230	21.361	-0.105	0.086
-470.216	62.835	0.072	0.072
-469.201	800.000	0.007	0.025
-468.186	-31.222	-0.254	0.145
-467.172	800.000	0.108	-0.306
-466.157	-63.306	-0.132	0.055
-465.143	-60.947	0.293	-0.125
-464.128	-135.406	0.499	0.060
-463.113	-118.224	0.112	0.020
-462.099	-200.000	0.004	0.039
-461.084	-200.000	0.015	-0.422
-460.070	-168.270	-0.338	0.013
-459.055	-99.531	-0.221	0.056
-458.040	-200.000	-0.000	-0.157
-457.026	-200.000	-0.066	0.311
-456.011	-18.537	-0.050	-0.032
-454.997	12.445	0.389	-0.303
-453.982	-200.000	0.006	-0.472
-452.968	800.000	-0.094	-0.316
-451.953	-82.894	-0.168	0.055
-450.938	-11.593	0.366	-0.243
-449.924	-53.210	0.059	0.027
-448.909	-200.000	0.054	-0.307
-447.895	800.000	0.051	-0.220
-446.880	-48.175	0.219	0.106
-445.865	441.044	-0.143	0.315
-444.851	-22.581	-0.037	-0.022
-443.836	-200.000	0.028	0.292
-442.822	167.016	0.056	0.081
-441.807	55.225	0.255	0.249
-440.792	-102.347	-0.158	-0.038
-439.778	-13.671	-0.107	-0.070
-438.763	-32.053	0.279	-0.157
-437.749	62.537	0.094	0.095
-436.734	-82.753	0.157	0.051
-435.719	800.000	-0.131	0.505
-434.705	-200.000	0.076	0.347
-433.690	-200.000	0.008	-0.189
-432.676	-194.494	0.180	-0.001
-431.661	-31.024	-0.312	-0.177
-430.646	511.917	-0.047	0.110
-429.632	-178.912	-0.096	0.002
-428.617	-86.208	0.141	0.044
-427.603	2.728	0.099	0.073
-426.588	-194.798	-0.118	0.001
-425.573	-200.000	0.044	0.203
-424.559	-137.674	0.270	0.031
-423.544	-200.000	0.012	-0.062
-422.530	-122.216	0.361	-0.060
-421.515	800.000	-0.030	0.095
-420.500	-113.041	-0.261	-0.052
-419.486	800.000	0.117	-0.345
-418.471	800.000	-0.158	-0.622
-417.457	295.621	-0.037	-0.069
-416.442	48.070	-0.274	-0.258
-415.428	-23.261	0.209	-0.127
-414.413	-200.000	0.038	0.174
-413.398	-14.746	0.279	-0.181
-412.384	-200.000	-0.057	0.254
-411.369	-112.983	0.268	-0.053
-410.355	-118.546	-0.210	-0.037
-409.340	78.314	0.145	0.156
-408.325	-122.969	-0.423	0.069
-407.311	-182.476	0.362	-0.007
-406.296	800.000	0.053	0.213
-405.282	608.310	-0.122	-0.308
-404.267	-165.524	-0.195	-0.009
-403.252	10.248	0.233	-0.179
-402.238	800.000	-0.117	0.359
-401.223	-200.000	-0.010	0.267
-400.209	-11.420	-0.283	0.188
-399.194	-118.214	0.221	-0.040
-398.179	-187.137	-0.186	0.003
-397.165	-200.000	-0.076	0.433
-396.150	-126.253	0.358	-0.054
-395.136	1.194	-0.208	-0.151
-394.121	256.213	0.185	-0.320
-393.106	76.626	-0.027	0.028
-392.092	-108.743	-0.375	-0.081
-391.077	417.764	0.067	-0.144
-390.063	306.733	-0.273	0.513
-389.048	800.000	-0.128	0.473
-388.033	800.000	0.092	0.262
-387.019	78.395	-0.208	-0.224
-386.004	800.000	0.055	-0.210
-384.990	-31.553	-0.089	0.050
-383.975	-61.955	-0.169	0.071
-382.960	-200.000	-0.019	-0.144
-381.946	-62.127	-0.221	-0.093
-380.931	-3.184	-0.294	0.206
-379.917	800.000	0.099	0.333
-378.902	-100.987	0.218	-0.054
-377.888	-56.473	-0.080	0.036
-376.873	-12.459	-0.127	0.083
-375.858	11.936	-0.140	-0.108
-374.844	-200.000	0.038	0.194
-373.829	159.928	0.088	-0.124
-372.815	-1.377	0.217	0.154
-371.800	45.109	0.283	-0.262
-370.785	200.456	-0.273	-0.423
-369.771	-200.000	0.006	-0.089
-368.756	-69.383	0.427	0.165
-367.742	-9.745	0.025	0.017
-366.727	800.000	-0.054	-0.164
-365.712	188.746	-0.020	-0.030
-364.698	613.603	0.077	0.194
-363.683	-200.000	0.000	0.019
-362.669	-200.000	0.004	0.109
-361.654	-134.954	0.183	0.022
-360.639	389.250	0.085	-0.178
-359.625	26.910	0.135	0.114
-358.610	26.997	0.112	0.094
-357.596	-200.000	-0.051	-0.271
-356.581	-200.000	-0.045	-0.314
-355.566	10.401	-0.320	-0.245
-354.552	-125.246	-0.165	-0.025
-353.537	75.511	-0.119	0.126
-352.523	557.188	-0.084	0.203
-351.508	-1.617	-0.129	-0.091
-350.493	224.401	-0.106	-0.172
-349.479	-100.082	-0.295	-0.074
-348.464	-200.000	0.072	0.462
-347.450	289.038	0.072	0.131
-346.435	179.442	0.131	-0.193
-345.420	540.266	-0.201	-0.482
-344.406	-99.660	-0.394	0.099
-343.391	800.000	0.076	0.302
-342.377	800.000	0.055	0.156
-341.362	-94.845	-0.272	0.074
-340.348	-88.469	-0.078	-0.023
-339.333	-73.162	0.125	0.046
-338.318	800.000	-0.034	-0.128
-337.304	-72.857	-0.249	0.092
-336.289	449.546	-0.052	0.115
-335.275	-144.758	0.401	0.037
-334.260	-93.041	0.161	0.045
-333.245	-83.849	0.113	0.036
-332.231	-115.313	0.207	-0.039
-331.216	-200.000	-0.001	0.034
-330.202	63.931	-0.144	-0.146
-329.187	-190.636	-0.341	-0.004
-328.172	-200.000	-0.021	-0.360
-327.158	-86.246	-0.286	0.089
-326.143	-200.000	0.041	0.230
-325.129	800.000	-0.030	0.088
-324.114	13.008	-0.095	-0.074
-323.099	387.578	0.104	-0.216
-322.085	-197.599	0.367	-0.002
-321.070	-200.000	0.006	0.099
-320.056	-126.951	0.359	-0.053
-319.041	-54.711	0.204	0.092
-318.026	-179.101	0.246	-0.006
-317.012	-200.000	0.012	-0.174
-315.997	-89.010	-0.136	0.040
-314.983	-11.292	-0.170	0.112
-313.968	35.574	0.085	0.075
-312.953	-84.038	0.298	0.095
-311.939	-98.420	-0.149	0.038
-310.924	53.074	-0.277	0.266
-309.910	-47.663	-0.225	0.109
-308.895	-83.282	-0.053	-0.017
-307.880	-52.620	-0.059	0.027
-306.866	-8.768	-0.062	-0.042
-305.851	120.029	-0.056	0.070
-304.837	106.522	-0.148	0.177
-303.822	-4.429	0.240	0.167
-302.807	205.645	0.149	0.233
-301.793	365.515	0.117	-0.236
-300.778	-200.000	-0.030	0.185
-299.764	800.000	0.114	0.390
-298.749	528.449	0.091	-0.216
-297.735	-200.000	0.032	-0.284
-296.720	800.000	-0.057	0.249
-295.705	23.346	-0.145	0.120
-294.691	-91.255	0.084	-0.024
-293.676	-200.000	-0.009	0.190
-292.662	-200.000	0.007	-0.312
-291.647	710.803	0.088	-0.233
-290.632	-200.000	-0.038	-0.182
-289.618	800.000	-0.117	-0.413
-288.603	-200.000	-0.006	-0.280
-287.589	-179.006	0.048	-0.001
-286.574	-71.451	0.226	-0.085
-285.559	-147.413	0.423	0.036
-284.545	-95.044	-0.163	0.044
-283.530	101.482	0.232	0.271
-282.516	714.530	-0.048	-0.127
-281.501	220.544	0.182	0.293
-280.486	-122.804	0.077	-0.012
-279.472	-19.229	-0.254	0.158
-278.457	800.000	0.091	-0.270
-277.443	-192.349	-0.240	-0.002
-276.428	-200.000	0.033	0.322
-275.413	-135.511	-0.173	-0.021
-274.399	-155.185	0.258	-0.017
-273.384	-35.933	0.138	0.075
-272.370	-138.459	-0.374	0.041
-271.355	-64.619	0.301	0.122
-270.340	-66.064	0.209	-0.084
-269.326	44.722	0.162	-0.149
-268.311	-54.906	-0.265	0.120
-267.297	-7.809	-0.068	-0.046
-266.282	800.000	-0.081	0.233
-265.267	108.767	0.167	0.200
-264.253	-133.809	0.344	-0.043
-263.238	-168.635	-0.568	0.022
-262.224	99.182	0.206	0.238
-261.209	-120.005	-0.315	0.054
-260.195	236.461	0.040	-0.066
-259.180	-200.000	0.079	-0.361
-258.165	-76.861	0.235	-0.082
-257.151	43.642	0.189	-0.173
-256.136	-162.837	0.025	0.001
-255.122	3.995	0.048	0.035
-254.107	55.211	-0.258	0.250
-253.092	-200.000	0.130	0.001
-252.078	53.492	0.230	0.221
-251.063	800.000	-0.070	-0.211
-250.049	-200.000	-0.002	-0.157
-249.034	-16.489	-0.084	0.053
-248.019	108.710	-0.135	0.161
-247.005	-106.478	0.134	0.030
-245.990	-198.161	-0.322	-0.002
-244.976	-78.715	0.187	-0.064
-243.961	-200.000	0.022	-0.119
-242.946	-200.000	0.029	0.247
-241.932	261.127	0.027	0.046
-240.917	-136.544	-0.465	0.054
-239.903	59.965	0.153	-0.151
-238.888	800.000	0.058	-0.222
-237.873	-200.000	0.016	-0.246
-236.859	800.000	-0.110	-0.382
-235.844	-160.009	-0.225	-0.012
-234.830	-93.971	0.168	0.046
-233.815	191.141	0.089	-0.134
-232.800	-116.093	-0.118	0.022
-231.786	800.000	-0.071	0.255
-230.771	98.734	-0.256	0.296
-229.757	800.000	0.123	0.467
-228.742	-45.128	0.064	0.032
-227.727	21.937	-0.083	0.068
-226.713	97.519	0.189	-0.218
-225.698	43.377	-0.200	-0.182
-224.684	265.223	0.249	0.435
-223.669	90.008	0.075	-0.084
-222.655	-51.654	-0.149	0.069
-221.640	800.000	0.017	0.057
-220.625	162.812	-0.269	0.377
-219.611	52.789	-0.106	-0.102
-218.596	-10.762	0.384	0.254
-217.582	800.000	0.067	0.220
-216.567	-24.477	0.164	0.098
-215.552	-19.678	0.146	0.090
-214.538	800.000	-0.069	0.197
-213.523	-200.000	-0.005	0.100
-212.509	24.556	-0.373	0.309
-211.494	21.730	-0.229	0.187
-210.479	24.055	-0.181	-0.149
-209.465	58.021	-0.016	-0.016
-208.450	-42.661	0.150	0.076
-207.436	656.471	-0.113	-0.291
-206.421	16.801	-0.268	-0.212
-205.406	44.403	-0.149	-0.137
-204.392	-196.429	-0.278	0.002
-203.377	466.394	0.053	0.118
-202.363	-200.000	0.030	0.696
-201.348	-54.757	-0.082	0.037
-200.333	-113.428	-0.267	-0.052
-199.319	-200.000	0.008	-0.488
-198.304	559.051	0.062	0.150
-197.290	-175.573	0.152	-0.004
-196.275	-20.526	-0.102	-0.063
-195.260	109.173	-0.134	-0.160
-194.246	-103.714	0.378	0.089
-193.231	109.577	0.201	0.241
-192.217	433.131	-0.134	-0.291
-191.202	511.163	-0.130	0.303
-190.187	-200.000	0.048	-0.336
-189.173	-200.000	-0.002	-0.022
-188.158	343.274	-0.116	0.226
-187.144	128.023	0.062	-0.079
-186.129	285.915	-0.205	-0.370
-185.114	-200.000	-0.015	-0.311
-184.100	-200.000	0.005	0.092
-183.085	-163.841	0.091	-0.004
-182.071	-42.980	0.118	0.060
-181.056	284.043	0.100	-0.180
-180.042	288.751	0.180	-0.326
-179.027	-200.000	0.043	0.272
-178.012	-84.133	0.126	-0.040
-176.998	80.714	-0.131	-0.141
-175.983	-135.735	-0.187	-0.022
-174.969	182.075	0.150	0.221
-173.954	-42.613	0.168	-0.085
-172.939	-126.607	-0.293	0.043
-171.925	800.000	0.018	0.054
-170.910	-113.335	-0.086	-0.017
-169.896	-200.000	-0.001	-0.247
-168.881	249.224	-0.034	-0.057
-167.866	-95.543	0.293	0.078
-166.852	-200.000	0.010	0.145
-165.837	-200.000	-0.002	0.131
-164.823	-108.622	-0.230	-0.049
-163.808	-41.369	0.210	-0.108
-162.793	-46.057	0.261	0.128
-161.779	-200.000	-0.015	-0.218
-160.764	-81.065	0.295	0.098
-159.750	-200.000	-0.002	-0.113
-158.735	-200.000	-0.006	0.148
-157.720	-23.045	0.043	-0.026
-156.706	15.340	-0.265	-0.207
-155.691	800.000	-0.026	0.071
-154.677	-200.000	-0.083	0.457
-153.662	192.372	-0.169	-0.255
-152.647	491.693	-0.067	0.153
-151.633	131.269	0.108	0.139
-150.618	-26.746	0.312	0.182
-149.604	126.193	0.192	-0.242
-148.589	-95.666	-0.246	-0.066
-147.574	13.838	-0.200	0.155
-146.560	-166.266	-0.253	-0.011
-145.545	-200.000	-0.012	-0.176
-144.531	-102.672	0.325	0.077
-143.516	-148.024	0.048	0.004
-142.502	800.000	0.030	0.086
-141.487	268.532	0.125	-0.218
-140.472	1.296	0.245	0.176
-139.458	-81.280	-0.088	-0.029
-138.443	-39.171	0.436	-0.229
-137.429	-138.537	-0.206	-0.023
-136.414	184.259	-0.081	-0.119
-135.399	309.036	0.113	-0.211
-134.385	109.760	-0.090	0.107
-133.370	41.951	-0.292	0.264
-132.356	-43.581	0.159	-0.080
-131.341	505.151	0.062	0.143
-130.326	-102.021	-0.077	0.019
-129.312	342.850	0.081	0.158
-128.297	68.973	-0.115	-0.118
-127.283	800.000	0.028	-0.107
-126.268	-164.481	0.184	0.008
-125.253	-106.087	0.414	-0.093
-124.239	98.225	0.113	0.129
-123.224	800.000	-0.110	-0.323
-122.210	-162.723	0.227	-0.011
