DTS Sentinel unit serial number:	SN413079Multiplexer serial number:	ORYXHardware model number:	OX4-SRSoftware version number:	ORYX F/W v4.00 Oryx Data Collector v3.7.2.0data status	okinstallation	princeton_trtdifferential loss correction	single-endedforward channel	channel 4reverse channel	N/Adate	2019/09/13time	11:49:34forward acquisition time	60.00reverse acquisition time	0.00gamma	496.2192k internal	0.2300k external	0.2300temperature offset calibration	1.0207default loss term (dB/km)	0.3790temperature slope calibration	1.0000multiplexer offset coefficient	1.0000multiplexer slope coefficient	1.0000fibre end	0.00T internal ref (°C)	33.31T ext. ref 1 (°C)	4.55T ext. ref 2 (°C)	30.50length (m)	temperature (°C)	Stokes	anti-Stokes-747.200	-57.624	0.315	0.141
-746.185	-200.000	0.014	-0.286
-745.171	107.362	-0.082	-0.100
-744.156	175.096	0.231	0.341
-743.142	-97.609	-0.271	-0.072
-742.127	800.000	0.059	0.223
-741.112	-20.826	-0.098	0.061
-740.098	800.000	0.153	0.469
-739.083	-15.317	-0.104	0.068
-738.069	-124.518	-0.173	0.027
-737.054	-38.467	0.250	-0.135
-736.039	290.996	-0.167	-0.309
-735.025	193.068	0.154	0.238
-734.010	-51.544	-0.465	-0.221
-732.996	5.045	0.467	-0.350
-731.981	-200.000	-0.039	0.201
-730.966	800.000	-0.123	0.419
-729.952	-64.968	-0.074	0.030
-728.937	-198.104	-0.339	-0.002
-727.923	576.444	-0.055	0.137
-726.908	-200.000	-0.034	0.336
-725.894	4.044	-0.170	0.127
-724.879	-22.594	0.046	0.028
-723.864	800.000	-0.040	-0.125
-722.850	14.493	-0.223	-0.178
-721.835	-200.000	-0.010	-0.330
-720.821	103.740	-0.108	-0.130
-719.806	-5.773	0.074	-0.052
-718.791	-36.396	-0.288	-0.158
-717.777	800.000	0.137	0.399
-716.762	800.000	-0.055	-0.228
-715.748	284.771	0.167	-0.307
-714.733	175.393	0.072	-0.107
-713.718	7.965	-0.164	-0.125
-712.704	626.845	0.069	0.178
-711.689	366.966	-0.158	0.325
-710.675	180.709	-0.162	-0.242
-709.660	-200.000	-0.057	-0.283
-708.645	133.464	-0.110	0.144
-707.631	-108.172	-0.129	-0.029
-706.616	-200.000	0.053	-0.250
-705.602	-56.429	0.259	-0.117
-704.587	-200.000	0.018	-0.087
-703.572	414.406	0.031	0.066
-702.558	13.552	-0.271	0.214
-701.543	142.888	-0.101	-0.136
-700.529	117.333	-0.101	-0.126
-699.514	-200.000	-0.029	-0.274
-698.499	220.258	-0.208	-0.340
-697.485	109.644	0.053	-0.065
-696.470	800.000	-0.027	0.104
-695.456	-142.029	0.062	-0.006
-694.441	103.656	0.046	0.055
-693.426	53.572	-0.142	0.139
-692.412	-200.000	0.024	-0.299
-691.397	307.119	0.060	-0.115
-690.383	-122.259	-0.272	-0.045
-689.368	-106.099	-0.228	-0.052
-688.354	-40.045	-0.320	-0.170
-687.339	800.000	-0.035	0.118
-686.324	152.289	-0.157	0.217
-685.310	452.445	0.082	-0.184
-684.295	-200.000	0.068	0.460
-683.281	29.547	-0.188	0.162
-682.266	-132.806	0.084	0.011
-681.251	-193.587	0.110	-0.001
-680.237	-200.000	0.067	-0.488
-679.222	68.140	0.138	0.144
-678.208	69.175	0.046	0.048
-677.193	422.166	-0.144	-0.313
-676.178	270.462	-0.082	0.147
-675.164	-14.217	0.104	0.068
-674.149	-4.484	0.072	0.050
-673.135	-33.118	-0.249	0.140
-672.120	-200.000	0.016	0.072
-671.105	-120.942	0.377	0.064
-670.091	-60.730	0.151	-0.065
-669.076	156.175	-0.183	-0.256
-668.062	-200.000	0.019	-0.214
-667.047	147.183	0.262	0.359
-666.032	-131.460	-0.046	-0.006
-665.018	-200.000	-0.077	0.436
-664.003	754.899	-0.043	-0.118
-662.989	-200.000	-0.045	0.239
-661.974	0.757	-0.187	0.136
-660.959	-200.000	0.012	0.122
-659.945	32.937	-0.112	0.099
-658.930	-200.000	0.022	0.133
-657.916	-93.558	-0.260	0.073
-656.901	325.016	-0.147	-0.285
-655.886	167.012	-0.078	0.113
-654.872	-200.000	-0.035	0.221
-653.857	256.342	-0.194	-0.338
-652.843	91.776	-0.182	-0.208
-651.828	423.016	-0.118	-0.258
-650.814	-92.783	0.335	-0.095
-649.799	-89.392	0.285	0.085
-648.784	-200.000	0.016	-0.105
-647.770	800.000	-0.085	-0.291
-646.755	800.000	0.087	0.361
-645.741	-200.000	-0.019	-0.103
-644.726	156.385	-0.099	-0.138
-643.711	16.871	0.161	-0.129
-642.697	-200.000	-0.050	0.232
-641.682	-39.801	-0.383	0.203
-640.668	59.860	-0.332	0.333
-639.653	-84.516	-0.314	0.101
-638.638	-12.862	-0.192	-0.127
-637.624	108.014	-0.120	0.145
-636.609	-96.191	0.329	-0.089
-635.595	-200.000	-0.005	0.055
-634.580	800.000	-0.077	-0.268
-633.565	-200.000	-0.007	-0.254
-632.551	69.234	-0.360	0.375
-631.536	-42.801	0.117	-0.060
-630.522	-11.902	0.064	0.042
-629.507	24.863	0.080	-0.067
-628.492	-200.000	0.019	-0.097
-627.478	-79.786	0.118	-0.040
-626.463	317.810	-0.136	0.261
-625.449	60.519	0.101	-0.101
-624.434	29.887	-0.193	-0.167
-623.419	-107.852	0.064	-0.014
-622.405	800.000	-0.105	0.301
-621.390	-147.468	0.208	0.018
-620.376	73.545	-0.239	-0.254
-619.361	-66.806	-0.060	-0.024
-618.346	-91.824	0.152	0.044
-617.332	138.420	0.025	0.033
-616.317	19.448	0.274	-0.223
-615.303	-170.640	-0.159	-0.006
-614.288	-200.000	-0.025	-0.337
-613.273	53.594	-0.287	-0.279
-612.259	800.000	0.035	-0.120
-611.244	-93.986	0.106	-0.029
-610.230	-200.000	0.019	0.115
-609.215	-145.488	0.381	0.035
-608.201	-186.383	0.107	0.002
-607.186	-57.909	0.201	-0.089
-606.171	-200.000	-0.012	0.200
-605.157	33.711	-0.237	0.209
-604.142	-1.498	-0.125	-0.090
-603.128	484.328	0.071	0.164
-602.113	-164.025	-0.193	-0.009
-601.098	-58.249	-0.332	-0.147
-600.084	26.323	-0.310	-0.262
-599.069	-200.000	0.010	0.346
-598.055	111.216	-0.150	0.183
-597.040	800.000	0.089	-0.316
-596.025	236.677	-0.167	0.281
-595.011	12.173	-0.287	0.224
-593.996	18.046	0.336	0.271
-592.982	20.025	0.201	-0.164
-591.967	489.500	0.052	0.120
-590.952	123.396	-0.284	-0.361
-589.938	-79.614	-0.036	-0.012
-588.923	193.679	0.115	-0.176
-587.909	-61.592	-0.071	0.030
-586.894	-200.000	-0.038	-0.250
-585.879	-132.186	0.117	0.015
-584.865	-200.000	0.065	-0.499
-583.850	800.000	-0.129	-0.411
-582.836	104.938	0.137	-0.164
-581.821	447.361	0.049	-0.109
-580.806	800.000	-0.049	0.173
-579.792	534.164	0.112	-0.269
-578.777	-89.089	0.218	-0.065
-577.763	-111.012	-0.006	0.001
-576.748	43.427	-0.094	-0.087
-575.733	-200.000	0.048	0.245
-574.719	-200.000	-0.024	0.170
-573.704	800.000	0.102	0.385
-572.690	-9.308	0.200	-0.135
-571.675	363.830	0.173	-0.352
-570.661	402.570	-0.069	-0.146
-569.646	-127.833	0.063	-0.009
-568.631	54.677	0.233	-0.227
-567.617	-154.379	0.528	-0.036
-566.602	-128.233	0.010	0.001
-565.588	15.362	-0.147	0.117
-564.573	-141.450	-0.183	0.019
-563.558	282.869	0.119	0.216
-562.544	0.264	-0.159	-0.115
-561.529	800.000	0.146	-0.436
-560.515	-103.975	-0.395	0.093
-559.500	-132.186	-0.190	-0.025
-558.485	474.061	0.126	-0.287
-557.471	229.928	0.088	-0.146
-556.456	800.000	0.055	-0.240
-555.442	308.089	0.054	-0.102
-554.427	800.000	0.049	-0.194
-553.412	-70.272	0.302	0.116
-552.398	-23.299	-0.144	0.088
-551.383	800.000	0.035	0.119
-550.369	253.771	0.085	-0.146
-549.354	166.857	0.207	0.297
-548.339	96.961	-0.071	-0.083
-547.325	-140.169	-0.520	0.055
-546.310	183.126	0.093	0.139
-545.296	165.976	0.110	-0.158
-544.281	-200.000	0.020	0.455
-543.266	-0.328	-0.084	0.061
-542.252	-49.995	-0.064	-0.030
-541.237	6.707	-0.102	-0.077
-540.223	30.642	-0.141	0.122
-539.208	-200.000	0.001	0.039
-538.193	50.846	0.126	-0.121
-537.179	44.357	-0.199	-0.185
-536.164	-58.071	-0.395	-0.174
-535.150	754.991	-0.045	0.122
-534.135	800.000	-0.072	-0.315
-533.121	36.007	0.072	-0.064
-532.106	-142.196	0.220	-0.022
-531.091	-82.196	-0.190	0.063
-530.077	-50.259	-0.304	0.145
-529.062	-200.000	0.008	0.288
-528.048	-132.951	0.182	-0.023
-527.033	124.952	0.038	0.049
-526.018	-169.294	-0.363	0.014
-525.004	-50.886	0.257	-0.122
-523.989	111.974	0.119	-0.145
-522.975	783.658	-0.062	0.171
-521.960	800.000	-0.068	0.286
-520.945	-79.948	0.115	-0.039
-519.931	-87.627	-0.118	0.036
-518.916	800.000	0.032	0.132
-517.902	206.404	-0.112	-0.176
-516.887	425.929	0.117	-0.255
-515.872	800.000	0.084	-0.243
-514.858	-23.330	-0.420	0.255
-513.843	-114.464	0.150	-0.029
-512.829	25.217	0.268	-0.225
-511.814	-137.844	0.308	0.035
-510.799	254.890	-0.165	-0.286
-509.785	-107.485	0.370	0.082
-508.770	-9.110	0.156	-0.105
-507.756	382.458	-0.010	-0.020
-506.741	102.011	0.314	-0.370
-505.726	-107.199	0.326	-0.073
-504.712	-9.073	-0.294	-0.199
-503.697	-63.054	-0.198	0.083
-502.683	89.367	0.054	0.060
-501.668	800.000	-0.099	-0.283
-500.653	-200.000	0.002	-0.178
-499.639	-125.034	-0.259	-0.040
-498.624	-67.697	0.101	-0.040
-497.610	281.524	-0.194	0.352
-496.595	61.104	0.082	-0.082
-495.581	69.527	0.149	0.155
-494.566	-191.187	0.092	-0.001
-493.551	-110.043	-0.179	0.038
-492.537	-163.813	-0.190	0.009
-491.522	21.390	-0.088	-0.072
-490.508	-98.290	0.042	0.011
-489.493	800.000	-0.055	-0.175
-488.478	-20.903	0.102	-0.063
-487.464	61.577	0.279	-0.281
-486.449	4.170	-0.090	-0.066
-485.435	-64.569	0.246	-0.101
-484.420	109.698	0.110	-0.134
-483.405	75.416	0.190	-0.202
-482.391	-98.874	0.016	-0.004
-481.376	60.816	0.090	-0.090
-480.362	-6.621	-0.238	-0.164
-479.347	58.079	-0.268	0.265
-478.332	-50.182	-0.090	-0.043
-477.318	287.164	-0.093	0.169
-476.303	-73.072	0.086	-0.032
-475.289	145.468	-0.081	0.109
-474.274	-200.000	-0.018	0.176
-473.259	-200.000	-0.002	0.537
-472.245	168.843	0.147	-0.212
-471.230	-63.904	0.146	-0.060
-470.216	45.406	-0.068	-0.063
-469.201	-200.000	0.004	0.236
-468.186	45.313	0.031	0.029
-467.172	63.802	0.213	-0.216
-466.157	-200.000	-0.035	-0.271
-465.143	58.744	-0.217	-0.215
-464.128	-200.000	-0.054	-0.432
-463.113	96.001	-0.123	-0.142
-462.099	-100.178	-0.115	-0.029
-461.084	68.654	-0.157	-0.163
-460.070	13.913	0.200	-0.157
-459.055	-200.000	0.006	-0.234
-458.040	-14.177	0.070	0.046
-457.026	20.583	-0.105	0.086
-456.011	-16.967	0.211	0.134
-454.997	350.279	0.243	0.484
-453.982	800.000	0.014	0.056
-452.968	-154.075	-0.255	-0.017
-451.953	-153.261	-0.279	-0.020
-450.938	800.000	0.079	-0.230
-449.924	-87.695	0.401	-0.122
-448.909	-105.432	-0.122	0.028
-447.895	0.843	-0.222	-0.160
-446.880	3.255	0.294	0.215
-445.865	59.850	-0.175	-0.174
-444.851	93.480	0.180	-0.206
-443.836	99.765	-0.093	-0.108
-442.822	-151.879	0.130	-0.010
-441.807	-111.572	0.366	0.075
-440.792	-39.430	0.132	0.070
-439.778	-161.058	-0.139	-0.007
-438.763	182.631	0.054	0.081
-437.749	182.351	0.029	-0.044
-436.734	-39.299	0.273	0.144
-435.719	-83.564	0.117	0.038
-434.705	-63.193	-0.210	-0.087
-433.690	323.655	-0.072	0.138
-432.676	795.850	-0.037	0.103
-431.661	198.130	-0.164	0.253
-430.646	560.399	0.045	-0.110
-429.632	-200.000	-0.014	0.207
-428.617	-37.781	0.260	0.139
-427.603	178.810	0.050	-0.074
-426.588	-126.104	0.262	0.040
-425.573	456.284	0.099	0.222
-424.559	13.066	0.123	0.096
-423.544	106.408	-0.180	0.215
-422.530	195.483	-0.304	0.466
-421.515	177.109	0.150	0.221
-420.500	800.000	-0.032	0.096
-419.486	-155.367	-0.271	-0.018
-418.471	-29.402	-0.126	-0.073
-417.457	-200.000	0.013	-0.162
-416.442	-82.506	-0.194	0.063
-415.428	-16.459	-0.108	-0.069
-414.413	-200.000	-0.000	-0.047
-413.398	-200.000	0.016	-0.207
-412.384	-82.922	-0.155	-0.050
-411.369	-124.024	0.230	-0.036
-410.355	-110.162	0.069	0.014
-409.340	-159.054	-0.098	0.006
-408.325	-200.000	-0.011	0.097
-407.311	8.573	-0.143	-0.108
-406.296	384.876	-0.139	0.287
-405.282	484.616	-0.069	-0.158
-404.267	-7.949	0.503	-0.341
-403.252	-33.141	-0.421	0.235
-402.238	291.564	0.138	0.253
-401.223	-200.000	-0.046	0.249
-400.209	-108.582	-0.150	-0.032
-399.194	-66.727	-0.081	0.032
-398.179	-200.000	0.013	0.059
-397.165	-75.348	0.095	0.034
-396.150	-77.199	0.055	-0.019
-395.136	234.903	-0.151	-0.250
-394.121	-104.258	0.216	-0.050
-393.106	-5.342	-0.167	-0.115
-392.092	800.000	-0.063	-0.182
-391.077	-38.919	-0.202	0.107
-390.063	-99.593	-0.317	0.080
-389.048	223.501	-0.120	0.194
-388.033	-43.951	-0.271	-0.137
-387.019	71.702	0.193	0.201
-386.004	800.000	0.026	0.086
-384.990	-83.196	-0.174	0.056
-383.975	121.526	-0.177	0.221
-382.960	6.531	-0.182	-0.136
-381.946	377.993	-0.073	0.150
-380.931	78.058	0.149	0.159
-379.917	-200.000	-0.002	0.219
-378.902	-16.431	0.231	-0.147
-377.888	-155.374	-0.206	-0.013
-376.873	78.961	0.009	0.010
-375.858	-60.467	0.406	-0.173
-374.844	12.898	0.157	-0.122
-373.829	-180.150	-0.386	0.008
-372.815	159.900	0.050	0.070
-371.800	42.995	0.237	-0.217
-370.785	-132.026	0.173	0.023
-369.771	-69.570	0.331	0.127
-368.756	-149.687	0.464	0.037
-367.742	202.198	-0.167	0.259
-366.727	-101.603	0.175	-0.043
-365.712	610.794	-0.093	-0.233
-364.698	-60.184	0.224	-0.096
-363.683	-164.568	0.266	-0.012
-362.669	-42.029	-0.197	0.101
-361.654	-200.000	-0.002	-0.019
-360.639	-200.000	0.010	0.379
-359.625	91.418	-0.194	-0.219
-358.610	-87.616	0.293	0.089
-357.596	568.799	-0.156	0.381
-356.581	800.000	-0.038	0.117
-355.566	-200.000	0.005	-0.158
-354.552	-43.757	-0.126	0.064
-353.537	-200.000	-0.003	0.062
-352.523	392.555	-0.214	-0.447
-351.508	259.318	0.136	0.236
-350.493	-200.000	0.055	0.353
-349.479	-100.832	-0.199	0.049
-348.464	407.665	-0.057	0.121
-347.450	131.567	0.110	-0.142
-346.435	-145.507	0.325	0.029
-345.420	-199.545	-0.151	0.001
-344.406	-168.227	-0.242	-0.009
-343.391	-66.239	0.247	0.099
-342.377	193.806	-0.093	0.141
-341.362	109.517	0.138	0.166
-340.348	78.207	0.163	0.175
-339.333	123.945	-0.102	0.128
-338.318	-2.822	-0.258	-0.181
-337.304	-200.000	-0.005	0.064
-336.289	-25.700	0.107	0.064
-335.275	78.259	-0.113	0.121
-334.260	-20.252	-0.157	-0.097
-333.245	24.265	-0.216	0.179
-332.231	-27.952	-0.205	-0.119
-331.216	-159.228	0.227	0.013
-330.202	-200.000	-0.047	-0.392
-329.187	105.064	-0.133	0.158
-328.172	40.198	-0.156	0.140
-327.158	28.470	-0.330	-0.280
-326.143	106.336	-0.068	-0.081
-325.129	-43.460	0.411	0.208
-324.114	39.344	-0.177	-0.159
-323.099	-4.244	0.150	-0.104
-322.085	101.164	-0.342	-0.399
-321.070	-171.778	-0.240	0.008
-320.056	339.923	-0.060	0.117
-319.041	97.520	0.056	0.064
-318.026	683.073	-0.076	0.199
-317.012	24.009	-0.207	0.172
-315.997	-41.781	0.219	-0.113
-314.983	352.605	-0.106	0.210
-313.968	289.470	-0.101	-0.184
-312.953	-125.374	0.174	-0.027
-311.939	-36.210	0.215	-0.116
-310.924	-104.976	-0.341	-0.078
-309.910	800.000	0.064	-0.179
-308.895	-200.000	-0.002	-0.075
-307.880	3.411	-0.055	0.040
-306.866	-41.792	-0.246	-0.127
-305.851	-83.300	0.448	-0.144
-304.837	800.000	0.076	0.235
-303.822	-162.379	0.210	-0.010
-302.807	-136.031	-0.083	0.010
-301.793	-39.450	0.362	-0.190
-300.778	-63.471	-0.330	-0.136
-299.764	129.028	-0.111	0.142
-298.749	598.682	-0.090	-0.223
-297.735	-150.069	-0.161	0.013
-296.720	-53.609	-0.064	-0.029
-295.705	-200.000	-0.054	0.244
-294.691	-200.000	0.047	0.371
-293.676	-200.000	-0.037	0.256
-292.662	-123.169	-0.202	0.033
-291.647	-37.772	-0.071	-0.038
-290.632	-200.000	-0.015	0.312
-289.618	-2.891	0.235	0.164
-288.603	103.167	-0.120	-0.141
-287.589	-78.967	-0.017	0.006
-286.574	284.384	0.161	0.291
-285.559	258.553	0.251	0.433
-284.545	442.544	-0.038	0.083
-283.530	-80.624	-0.196	-0.065
-282.516	-200.000	0.001	0.109
-281.501	-89.259	-0.333	0.098
-280.486	-200.000	0.014	0.074
-279.472	-141.698	-0.213	0.021
-278.457	800.000	0.043	0.162
-277.443	1.439	0.333	0.240
-276.428	113.335	-0.202	0.245
-275.413	-151.800	0.140	-0.010
-274.399	-20.486	0.184	-0.113
-273.384	12.476	0.197	-0.152
-272.370	447.932	-0.071	0.156
-271.355	-200.000	-0.017	-0.209
-270.340	800.000	-0.050	0.162
-269.326	-19.636	0.378	0.234
-268.311	-200.000	-0.032	-0.238
-267.297	15.303	0.031	-0.024
-266.282	-200.000	-0.112	-0.000
-265.267	-2.390	-0.111	-0.078
-264.253	232.058	0.180	0.295
-263.238	90.089	-0.114	-0.128
-262.224	-200.000	-0.043	0.321
-261.209	124.500	0.092	-0.116
-260.195	-122.157	-0.529	-0.087
-259.180	-152.527	-0.280	-0.020
-258.165	-15.674	0.352	0.225
-257.151	-110.384	-0.104	0.022
-256.136	98.040	0.075	-0.086
-255.122	-68.519	0.165	-0.064
-254.107	-78.350	0.105	-0.036
-253.092	-3.670	0.123	0.085
-252.078	147.040	0.143	-0.193
-251.063	-21.769	0.323	0.197
-250.049	-154.122	-0.047	0.003
-249.034	-200.000	0.004	0.029
-248.019	-194.816	-0.243	-0.002
-247.005	-200.000	0.018	-0.198
-245.990	-163.705	-0.383	-0.018
-244.976	-131.412	0.401	-0.053
-243.961	-148.801	0.307	-0.025
-242.946	177.579	0.100	-0.146
-241.932	97.195	0.166	0.191
-240.917	19.695	0.142	0.115
-239.903	792.400	0.139	-0.383
-238.888	82.529	0.114	0.123
-237.873	-8.392	-0.141	0.095
-236.859	120.859	-0.125	-0.156
-235.844	416.938	-0.152	0.325
-234.830	-43.079	0.186	-0.094
-233.815	-180.872	0.236	0.005
-232.800	11.617	0.239	0.183
-231.786	-115.699	-0.323	0.061
-230.771	62.000	0.259	0.258
-229.757	-200.000	-0.021	-0.198
-228.742	76.105	-0.243	0.257
-227.727	-9.946	0.136	0.090
-226.713	-94.765	0.217	-0.059
-225.698	686.450	0.108	0.283
-224.684	800.000	-0.023	-0.099
-223.669	21.514	-0.107	0.087
-222.655	-43.991	-0.034	0.017
-221.640	-200.000	0.043	-0.294
-220.625	-200.000	0.001	-0.082
-219.611	18.993	-0.104	0.083
-218.596	-86.658	0.428	0.131
-217.582	-63.419	0.187	-0.077
-216.567	-155.924	0.150	-0.010
-215.552	-78.824	0.189	0.065
-214.538	-30.814	-0.252	-0.142
-213.523	800.000	-0.068	0.207
-212.509	-200.000	0.029	0.236
-211.494	800.000	-0.005	0.019
-210.479	121.458	-0.156	-0.194
-209.465	800.000	0.068	-0.296
-208.450	57.338	-0.181	-0.176
-207.436	-39.903	0.140	-0.073
-206.421	800.000	-0.041	-0.134
-205.406	215.171	0.243	-0.386
-204.392	-200.000	-0.026	0.181
-203.377	-167.481	0.129	-0.005
-202.363	408.512	-0.122	0.257
-201.348	40.670	-0.150	0.135
-200.333	121.024	-0.153	0.190
-199.319	9.641	0.070	-0.053
-198.304	-141.265	-0.182	-0.018
-197.290	800.000	0.098	-0.300
-196.275	-38.359	-0.151	-0.080
-195.260	800.000	-0.035	-0.142
-194.246	-31.262	-0.116	0.065
-193.231	25.736	-0.189	0.157
-192.217	36.507	0.169	0.149
-191.202	-200.000	-0.049	0.249
-190.187	-200.000	-0.014	-0.182
-189.173	-142.518	0.025	0.002
-188.158	57.618	-0.202	0.197
-187.144	-77.531	0.366	0.127
-186.129	232.770	-0.098	0.160
-185.114	285.695	0.170	-0.306
-184.100	-69.128	0.222	-0.085
-183.085	-127.467	0.218	-0.032
-182.071	353.040	0.214	-0.424
-181.056	-42.605	0.534	-0.271
-180.042	-151.959	-0.062	-0.005
-179.027	277.546	0.165	-0.293
-178.012	800.000	-0.097	-0.387
-176.998	606.350	0.122	0.304
-175.983	12.554	-0.101	0.077
-174.969	180.811	0.198	-0.289
-173.954	800.000	-0.074	0.276
-172.939	800.000	0.020	-0.082
-171.925	-200.000	-0.015	-0.090
-170.910	565.376	0.056	-0.136
-169.896	253.491	0.067	0.114
-168.881	800.000	-0.021	0.061
-167.866	578.608	0.052	-0.128
-166.852	800.000	-0.060	-0.235
-165.837	658.313	-0.064	0.165
-164.823	-108.618	-0.113	0.024
-163.808	258.991	-0.104	0.178
-162.793	-47.984	0.135	0.065
-161.779	-100.995	-0.301	0.074
-160.764	-11.703	-0.100	-0.065
-159.750	25.392	0.104	-0.086
-158.735	-34.989	-0.247	0.135
-157.720	203.456	-0.097	-0.149
-156.706	393.452	-0.110	-0.228
-155.691	129.849	-0.305	0.388
-154.677	-200.000	0.040	0.232
-153.662	-200.000	0.012	0.243
-152.647	228.732	-0.052	0.084
-151.633	-53.388	-0.031	-0.014
-150.618	-67.150	-0.101	0.040
-149.604	-174.880	0.140	-0.004
-148.589	-59.462	0.106	-0.045
-147.574	-200.000	0.012	-0.101
-146.560	-82.246	0.080	0.026
-145.545	-153.146	-0.056	0.004
-144.531	800.000	-0.106	-0.304
-143.516	410.681	-0.193	-0.407
-142.502	-66.288	-0.198	-0.079
-141.487	-64.545	-0.363	-0.147
-140.472	-110.651	-0.209	-0.043
-139.458	-200.000	0.008	0.062
-138.443	-101.843	0.164	-0.040
-137.429	116.402	0.079	0.096
-136.414	-116.394	0.519	-0.096
-135.399	-42.103	0.080	0.041
-134.385	54.799	0.236	-0.227
-133.370	39.696	0.131	-0.117
-132.356	800.000	-0.082	0.255
-131.341	261.451	0.093	-0.161
-130.326	43.834	0.212	-0.194
-129.312	800.000	-0.038	-0.126
-128.297	320.577	0.064	0.121
-127.283	-200.000	0.036	0.334
-126.268	24.391	-0.135	-0.111
-125.253	6.107	-0.085	0.063
-124.239	307.175	-0.057	-0.106
-123.224	-200.000	-0.039	0.261
-122.210	699.954	0.123	0.321
-121.195	-27.239	0.251	0.146
