DTS Sentinel unit serial number:	SN413079Multiplexer serial number:	ORYXHardware model number:	OX4-SRSoftware version number:	ORYX F/W v4.00 Oryx Data Collector v3.7.2.0data status	okinstallation	princeton_trtdifferential loss correction	single-endedforward channel	channel 4reverse channel	N/Adate	2019/09/19time	09:37:35forward acquisition time	60.00reverse acquisition time	0.00gamma	496.2192k internal	0.2334k external	0.2334temperature offset calibration	1.0012default loss term (dB/km)	0.3790temperature slope calibration	1.0000multiplexer offset coefficient	1.0000multiplexer slope coefficient	1.0000fibre end	0.00T internal ref (°C)	23.05T ext. ref 1 (°C)	0.62T ext. ref 2 (°C)	19.43length (m)	temperature (°C)	Stokes	anti-Stokes-747.200	62.334	0.133	-0.133
-746.185	-200.000	0.036	0.225
-745.171	123.955	-0.130	-0.165
-744.156	166.100	-0.168	-0.239
-743.142	-200.000	0.002	0.103
-742.127	-79.169	-0.325	-0.111
-741.112	299.642	0.057	-0.105
-740.098	-34.477	-0.046	-0.025
-739.083	18.275	0.143	-0.115
-738.069	-200.000	-0.001	0.110
-737.054	-142.157	0.366	0.037
-736.039	-118.427	-0.576	0.103
-735.025	800.000	0.069	0.262
-734.010	72.875	-0.148	-0.155
-732.996	268.558	-0.145	-0.255
-731.981	50.926	-0.267	0.254
-730.966	-36.841	0.283	0.152
-729.952	-200.000	-0.042	0.188
-728.937	-164.441	-0.272	0.012
-727.923	800.000	-0.056	-0.234
-726.908	51.519	-0.031	0.029
-725.894	-122.658	-0.265	-0.043
-724.879	800.000	-0.041	-0.171
-723.864	611.131	-0.121	0.304
-722.850	-200.000	-0.023	-0.240
-721.835	9.494	-0.212	-0.161
-720.821	-17.377	0.050	0.031
-719.806	-200.000	0.014	-0.066
-718.791	397.970	0.123	0.259
-717.777	-100.526	0.077	0.019
-716.762	-72.771	-0.104	-0.038
-715.748	-132.473	0.193	0.025
-714.733	227.367	-0.104	0.170
-713.718	-200.000	0.017	0.126
-712.704	800.000	0.022	-0.063
-711.689	285.139	-0.073	-0.133
-710.675	-75.641	0.204	0.073
-709.660	-36.047	0.076	-0.041
-708.645	-60.083	-0.170	0.073
-707.631	74.990	-0.176	-0.186
-706.616	27.047	0.169	-0.142
-705.602	800.000	0.033	-0.126
-704.587	80.364	-0.038	0.041
-703.572	-121.142	0.329	-0.055
-702.558	-79.661	0.276	-0.093
-701.543	691.647	-0.153	-0.404
-700.529	-69.392	-0.157	-0.060
-699.514	-55.234	0.339	-0.153
-698.499	225.702	0.103	-0.167
-697.485	-200.000	0.008	-0.174
-696.470	-64.871	0.174	0.071
-695.456	800.000	0.035	0.102
-694.441	-184.032	-0.203	-0.003
-693.426	-65.993	-0.210	-0.084
-692.412	13.040	-0.221	0.172
-691.397	131.234	0.061	0.079
-690.383	20.936	-0.335	0.272
-689.368	800.000	0.028	-0.099
-688.354	-34.932	-0.278	0.152
-687.339	-65.496	-0.152	-0.061
-686.324	-90.266	-0.414	0.121
-685.310	-200.000	-0.008	-0.188
-684.295	-8.151	-0.090	0.061
-683.281	22.465	0.302	0.247
-682.266	21.369	0.222	0.181
-681.251	201.541	0.096	-0.149
-680.237	-186.516	0.208	-0.003
-679.222	339.733	-0.148	-0.288
-678.208	641.448	-0.276	-0.705
-677.193	-104.597	0.339	0.078
-676.178	22.265	-0.146	0.120
-675.164	92.495	0.060	-0.068
-674.149	800.000	-0.037	0.114
-673.135	800.000	0.054	0.181
-672.120	2.299	-0.177	0.128
-671.105	758.112	-0.098	0.266
-670.091	-50.337	-0.074	-0.035
-669.076	800.000	-0.088	0.248
-668.062	58.313	-0.046	0.045
-667.047	-200.000	-0.009	-0.295
-666.032	-29.470	-0.172	0.099
-665.018	800.000	0.048	0.193
-664.003	800.000	-0.028	-0.094
-662.989	-27.587	-0.245	0.143
-661.974	-159.895	-0.289	-0.016
-660.959	28.121	0.066	-0.056
-659.945	127.890	-0.329	0.420
-658.930	-75.127	-0.151	0.054
-657.916	800.000	0.114	-0.390
-656.901	297.711	0.041	-0.076
-655.886	-182.832	0.033	-0.001
-654.872	800.000	0.018	-0.073
-653.857	4.415	0.261	0.192
-652.843	54.150	-0.142	-0.137
-651.828	800.000	0.068	0.237
-650.814	-69.919	-0.065	-0.025
-649.799	-136.641	0.344	-0.040
-648.784	-200.000	0.057	0.294
-647.770	-98.935	0.081	-0.021
-646.755	-9.566	0.269	-0.180
-645.741	-200.000	0.008	-0.130
-644.726	-49.233	-0.137	-0.065
-643.711	800.000	0.051	-0.217
-642.697	243.266	-0.115	0.193
-641.682	-49.751	-0.168	-0.080
-640.668	-90.562	0.398	0.115
-639.653	-75.194	-0.121	0.043
-638.638	99.488	-0.143	0.165
-637.624	14.218	0.187	-0.146
-636.609	109.946	-0.129	-0.155
-635.595	536.447	0.132	0.313
-634.580	-127.589	-0.126	0.018
-633.565	-200.000	0.007	-0.485
-632.551	121.502	0.115	-0.144
-631.536	-95.744	-0.144	-0.038
-630.522	381.102	0.122	-0.251
-629.507	-200.000	0.070	-0.328
-628.492	186.636	-0.184	-0.275
-627.478	-12.529	0.141	0.092
-626.463	16.966	0.119	0.094
-625.449	-77.640	0.152	0.053
-624.434	62.318	-0.221	-0.221
-623.419	65.753	-0.114	0.115
-622.405	225.662	-0.108	-0.176
-621.390	295.377	-0.168	-0.308
-620.376	235.194	0.221	0.366
-619.361	66.605	0.122	-0.124
-618.346	800.000	-0.031	-0.106
-617.332	97.899	-0.138	0.158
-616.317	800.000	0.062	-0.216
-615.303	-145.334	-0.207	0.019
-614.288	-200.000	0.017	0.137
-613.273	-200.000	-0.044	-0.321
-612.259	12.771	-0.142	0.110
-611.244	-106.694	-0.188	-0.042
-610.230	-77.328	0.176	-0.061
-609.215	-100.861	-0.149	-0.037
-608.201	-142.531	-0.079	0.008
-607.186	363.217	0.095	-0.190
-606.171	-156.013	0.227	-0.014
-605.157	-83.495	-0.573	-0.184
-604.142	10.410	0.191	0.145
-603.128	-200.000	0.011	0.440
-602.113	111.306	0.103	0.124
-601.098	532.581	0.096	-0.226
-600.084	-200.000	0.044	-0.263
-599.069	23.465	0.203	-0.167
-598.055	-26.803	-0.245	0.143
-597.040	-200.000	0.099	0.582
-596.025	246.188	-0.101	-0.171
-595.011	11.334	-0.215	-0.164
-593.996	-78.735	-0.180	-0.061
-592.982	73.576	0.160	-0.167
-591.967	14.639	0.040	-0.031
-590.952	484.969	-0.076	-0.172
-589.938	-76.266	-0.098	0.034
-588.923	-200.000	0.022	0.387
-587.909	-77.567	-0.085	0.029
-586.894	-89.466	-0.177	0.052
-585.879	193.890	0.052	0.079
-584.865	-45.812	0.156	0.077
-583.850	-200.000	0.049	-0.309
-582.836	458.411	-0.016	-0.035
-581.821	-69.564	0.134	0.051
-580.806	-200.000	-0.001	-0.062
-579.792	-50.910	-0.260	-0.122
-578.777	94.769	0.352	-0.400
-577.763	189.908	-0.128	0.192
-576.748	62.536	0.193	-0.193
-575.733	81.405	0.162	0.175
-574.719	-200.000	-0.006	0.220
-573.704	42.543	0.064	0.058
-572.690	-200.000	-0.014	-0.065
-571.675	-200.000	-0.002	0.216
-570.661	-148.850	0.230	0.019
-569.646	-200.000	0.003	-0.073
-568.631	176.613	0.020	-0.029
-567.617	0.197	0.255	-0.182
-566.602	523.246	-0.120	-0.281
-565.588	-61.268	0.179	-0.075
-564.573	134.594	0.133	0.173
-563.558	175.821	0.074	-0.108
-562.544	-131.783	0.253	0.033
-561.529	-200.000	-0.035	-0.178
-560.515	-200.000	0.000	0.137
-559.500	-112.460	-0.232	0.046
-558.485	-17.575	-0.147	-0.092
-557.471	59.319	0.099	0.097
-556.456	-5.144	-0.213	-0.146
-555.442	163.437	-0.149	-0.209
-554.427	91.221	-0.103	-0.116
-553.412	39.473	0.103	-0.092
-552.398	-16.134	-0.143	0.090
-551.383	-148.450	-0.156	0.013
-550.369	12.940	-0.120	0.093
-549.354	-46.193	-0.304	0.149
-548.339	123.256	-0.068	0.085
-547.325	800.000	0.033	-0.141
-546.310	63.454	-0.123	0.123
-545.296	-57.786	-0.210	0.092
-544.281	300.500	0.046	0.084
-543.266	37.528	-0.196	0.173
-542.252	-200.000	0.031	-0.179
-541.237	87.042	0.116	0.128
-540.223	-76.555	-0.196	-0.069
-539.208	-11.199	-0.093	0.061
-538.193	-200.000	0.009	0.122
-537.179	158.750	-0.152	-0.211
-536.164	800.000	0.057	-0.240
-535.150	220.857	-0.090	-0.145
-534.135	72.731	-0.145	0.151
-533.121	800.000	-0.129	-0.360
-532.106	-7.942	-0.070	-0.047
-531.091	222.267	-0.222	0.356
-530.077	240.757	-0.169	0.281
-529.062	-200.000	0.010	0.202
-528.048	168.070	-0.081	0.115
-527.033	190.550	0.214	0.320
-526.018	132.753	0.092	0.118
-525.004	800.000	0.067	0.243
-523.989	-117.345	0.388	-0.070
-522.975	-17.456	-0.188	-0.118
-521.960	113.044	0.300	0.363
-520.945	125.412	0.151	-0.190
-519.931	-66.494	-0.141	0.056
-518.916	247.502	-0.099	-0.166
-517.902	-200.000	0.000	0.022
-516.887	-98.840	0.175	-0.044
-515.872	-200.000	-0.036	0.193
-514.858	246.676	0.095	-0.159
-513.843	425.693	0.046	-0.100
-512.829	13.257	0.068	0.052
-511.814	47.026	-0.260	-0.241
-510.799	-33.766	0.051	0.028
-509.785	-78.822	-0.037	0.012
-508.770	-118.994	0.190	0.033
-507.756	154.219	-0.035	0.048
-506.741	323.936	-0.068	-0.129
-505.726	18.747	0.234	0.187
-504.712	-141.556	-0.146	0.015
-503.697	-120.510	-0.392	-0.066
-502.683	-36.998	0.216	-0.115
-501.668	-200.000	-0.039	-0.215
-500.653	-98.306	0.328	-0.084
-499.639	44.582	-0.314	0.287
-498.624	-200.000	0.116	0.574
-497.610	-200.000	0.020	-0.168
-496.595	-200.000	-0.010	0.324
-495.581	-200.000	0.033	0.338
-494.566	-200.000	-0.007	0.174
-493.551	-157.241	0.283	0.017
-492.537	197.857	-0.159	-0.242
-491.522	-171.473	0.063	-0.002
-490.508	-200.000	-0.000	0.259
-489.493	800.000	0.029	0.123
-488.478	-44.347	0.166	-0.083
-487.464	-71.357	-0.287	0.107
-486.449	-190.589	-0.333	-0.004
-485.435	-99.042	0.290	-0.073
-484.420	-200.000	0.007	-0.164
-483.405	67.808	0.295	0.300
-482.391	19.106	-0.095	-0.076
-481.376	-15.109	0.051	-0.033
-480.362	-143.393	0.176	-0.017
-479.347	-159.028	-0.219	-0.012
-478.332	800.000	0.016	-0.052
-477.318	138.033	0.060	-0.079
-476.303	511.907	-0.087	0.201
-475.289	481.782	-0.124	0.280
-474.274	231.560	0.155	0.252
-473.259	-200.000	0.051	0.317
-472.245	331.632	-0.081	-0.155
-471.230	-39.388	0.200	-0.104
-470.216	-84.407	0.204	-0.064
-469.201	89.833	-0.212	0.235
-468.186	188.356	0.045	0.067
-467.172	424.186	-0.151	-0.323
-466.157	800.000	0.031	0.110
-465.143	-2.191	-0.397	0.277
-464.128	285.272	-0.074	0.132
-463.113	-179.431	0.088	0.002
-462.099	28.260	-0.114	-0.095
-461.084	380.812	0.118	0.241
-460.070	-120.459	-0.081	-0.014
-459.055	-200.000	-0.073	-0.329
-458.040	587.886	-0.081	0.198
-457.026	21.042	-0.283	-0.228
-456.011	390.182	0.241	-0.496
-454.997	-102.831	-0.020	0.005
-453.982	-75.793	0.233	0.082
-452.968	-30.259	-0.172	0.097
-451.953	-200.000	-0.038	-0.167
-450.938	-132.648	-0.106	0.014
-449.924	-101.597	-0.060	0.014
-448.909	-200.000	-0.007	0.098
-447.895	19.730	0.270	-0.216
-446.880	-108.138	0.147	-0.032
-445.865	25.377	0.183	-0.151
-444.851	191.149	-0.124	-0.186
-443.836	-72.245	0.171	0.063
-442.822	556.442	0.147	-0.353
-441.807	-66.787	0.234	-0.092
-440.792	-144.021	-0.247	-0.023
-439.778	-173.127	-0.380	-0.012
-438.763	-93.154	0.286	0.079
-437.749	-122.227	0.239	0.039
-436.734	84.968	-0.192	0.209
-435.719	106.842	0.196	0.231
-434.705	95.598	-0.142	0.161
-433.690	-200.000	0.017	-0.075
-432.676	-116.879	0.269	0.049
-431.661	-58.643	0.180	-0.077
-430.646	178.477	0.189	-0.275
-429.632	213.088	0.083	-0.130
-428.617	35.109	-0.154	0.134
-427.603	800.000	-0.063	-0.226
-426.588	-79.868	-0.250	-0.083
-425.573	-95.753	0.276	-0.073
-424.559	-102.063	-0.219	0.052
-423.544	130.204	0.124	0.157
-422.530	-200.000	-0.023	-0.241
-421.515	-43.833	-0.401	0.200
-420.500	-140.637	0.342	-0.035
-419.486	149.561	0.148	0.199
-418.471	800.000	0.051	0.181
-417.457	-134.957	0.302	0.036
-416.442	-194.972	-0.292	-0.002
-415.428	-124.203	-0.094	-0.015
-414.413	800.000	-0.064	-0.248
-413.398	-200.000	0.022	-0.168
-412.384	-110.623	0.019	0.004
-411.369	-92.505	-0.263	0.073
-410.355	498.353	-0.068	0.156
-409.340	-200.000	-0.041	-0.315
-408.325	-200.000	0.020	-0.325
-407.311	142.284	-0.186	-0.245
-406.296	800.000	-0.033	0.097
-405.282	-200.000	-0.009	-0.100
-404.267	-69.252	0.104	-0.039
-403.252	-20.245	0.279	0.170
-402.238	-200.000	0.049	-0.592
-401.223	158.685	0.113	0.156
-400.209	209.842	-0.048	0.075
-399.194	-71.823	0.165	-0.061
-398.179	136.920	-0.166	0.216
-397.165	527.256	0.069	-0.161
-396.150	656.431	0.035	-0.090
-395.136	27.326	0.280	0.233
-394.121	-91.085	-0.094	-0.027
-393.106	-76.977	-0.223	0.077
-392.092	758.391	-0.077	-0.205
-391.077	21.535	-0.178	-0.143
-390.063	-70.730	0.085	-0.032
-389.048	53.145	0.118	-0.112
-388.033	5.537	0.287	-0.210
-387.019	159.530	-0.044	-0.061
-386.004	800.000	-0.018	0.075
-384.990	3.585	-0.129	-0.093
-383.975	361.860	0.092	0.182
-382.960	-200.000	0.013	0.300
-381.946	-183.448	-0.173	-0.003
-380.931	269.472	0.037	-0.065
-379.917	489.736	0.128	-0.289
-378.902	-71.328	-0.200	-0.074
-377.888	-200.000	0.017	0.243
-376.873	-48.181	0.145	-0.069
-375.858	-200.000	0.070	-0.365
-374.844	85.433	0.048	-0.053
-373.829	-59.226	-0.098	-0.042
-372.815	-16.821	0.239	-0.150
-371.800	6.946	-0.193	0.143
-370.785	-200.000	-0.061	-0.325
-369.771	466.697	0.158	-0.351
-368.756	-200.000	-0.008	-0.197
-367.742	-156.054	0.121	0.008
-366.727	-22.341	0.332	0.199
-365.712	800.000	-0.084	-0.243
-364.698	-40.817	-0.310	0.159
-363.683	-40.025	-0.048	0.025
-362.669	-25.309	-0.122	0.071
-361.654	-104.201	0.148	0.034
-360.639	130.653	0.033	0.042
-359.625	-200.000	-0.040	-0.362
-358.610	168.751	-0.049	-0.069
-357.596	-200.000	0.020	0.176
-356.581	95.899	0.144	0.163
-355.566	117.013	-0.092	-0.112
-354.552	132.605	0.162	-0.207
-353.537	144.006	0.117	0.154
-352.523	-81.391	0.036	-0.012
-351.508	119.334	0.174	-0.213
-350.493	100.284	-0.089	0.102
-349.479	-127.647	-0.298	0.043
-348.464	192.847	-0.036	0.053
-347.450	13.080	0.221	0.170
-346.435	-142.045	-0.182	-0.018
-345.420	-25.021	-0.258	0.152
-344.406	-4.040	-0.117	-0.080
-343.391	-29.657	-0.154	-0.087
-342.377	429.974	-0.148	0.317
-341.362	-200.000	0.000	0.343
-340.348	-138.591	0.115	-0.012
-339.333	-21.850	0.271	-0.163
-338.318	800.000	-0.040	-0.129
-337.304	-155.996	-0.104	-0.007
-336.289	85.874	0.274	0.298
-335.275	-40.198	-0.210	0.108
-334.260	800.000	0.058	0.185
-333.245	800.000	-0.033	0.098
-332.231	-125.732	-0.141	0.021
-331.216	-141.337	-0.183	0.018
-330.202	31.715	0.176	-0.150
-329.187	-127.043	0.433	-0.063
-328.172	-6.970	-0.245	0.165
-327.158	259.461	0.046	0.079
-326.143	-25.615	0.422	-0.246
-325.129	-127.972	-0.370	-0.053
-324.114	-73.007	0.087	0.032
-323.099	-200.000	0.021	0.089
-322.085	-200.000	0.011	0.386
-321.070	-200.000	0.012	0.139
-320.056	455.414	0.027	-0.060
-319.041	-200.000	-0.081	0.494
-318.026	174.098	0.074	-0.106
-317.012	-96.985	0.391	0.101
-315.997	-146.354	-0.086	0.007
-314.983	128.647	0.189	0.238
-313.968	800.000	0.038	0.164
-312.953	-49.243	-0.228	0.108
-311.939	800.000	-0.019	-0.073
-310.924	800.000	0.082	0.321
-309.910	532.197	0.121	0.282
-308.895	81.377	-0.091	0.097
-307.880	40.329	0.337	-0.300
-306.866	64.103	-0.035	-0.035
-305.851	-151.983	0.080	-0.006
-304.837	65.937	0.024	-0.024
-303.822	142.410	0.124	-0.163
-302.807	-125.790	-0.144	-0.022
-301.793	-128.337	-0.074	-0.010
-300.778	-200.000	-0.043	-0.345
-299.764	-23.399	0.259	-0.154
-298.749	-56.348	-0.292	-0.128
-297.735	-127.203	0.356	-0.051
-296.720	212.233	0.078	-0.121
-295.705	55.759	-0.212	-0.203
-294.691	-68.182	-0.164	-0.063
-293.676	-56.793	0.310	-0.135
-292.662	-183.230	0.197	-0.003
-291.647	-200.000	0.041	0.236
-290.632	-132.815	-0.099	-0.012
-289.618	-200.000	0.031	-0.232
-288.603	-6.064	-0.227	0.153
-287.589	800.000	-0.091	-0.380
-286.574	197.966	0.090	-0.135
-285.559	-92.840	0.216	0.060
-284.545	-200.000	-0.013	-0.063
-283.530	-200.000	0.009	0.129
-282.516	-200.000	-0.060	0.305
-281.501	-171.724	0.060	-0.002
-280.486	-200.000	-0.002	-0.229
-279.472	-185.863	-0.344	-0.005
-278.457	-63.235	0.326	-0.132
-277.443	-12.304	-0.176	0.113
-276.428	32.480	-0.277	0.236
-275.413	-73.337	0.285	-0.103
-274.399	148.031	0.214	0.285
-273.384	161.091	-0.092	-0.126
-272.370	-120.984	-0.337	0.056
-271.355	800.000	-0.043	0.146
-270.340	144.090	-0.226	0.298
-269.326	38.164	-0.268	-0.235
-268.311	97.429	0.108	-0.123
-267.297	800.000	0.059	0.243
-266.282	-76.668	0.131	0.045
-265.267	-200.000	0.006	-0.033
-264.253	88.430	0.041	0.045
-263.238	108.493	-0.026	0.031
-262.224	-200.000	0.026	-0.138
-261.209	339.752	-0.090	-0.174
-260.195	-131.761	0.206	0.027
-259.180	306.137	-0.092	0.169
-258.165	399.498	-0.112	-0.231
-257.151	-85.898	0.304	-0.093
-256.136	-200.000	-0.018	0.201
-255.122	-129.766	0.066	-0.009
-254.107	248.845	0.179	-0.299
-253.092	-200.000	0.026	-0.159
-252.078	140.554	-0.080	0.104
-251.063	-126.053	-0.386	0.057
-250.049	151.978	0.102	0.137
-249.034	4.506	-0.321	-0.232
-248.019	256.054	-0.052	0.088
-247.005	800.000	-0.028	0.113
-245.990	72.170	0.158	0.162
-244.976	-13.141	0.229	0.147
-243.961	-99.757	0.117	-0.029
-242.946	472.872	-0.071	-0.158
-241.932	-200.000	0.024	-0.157
-240.917	-200.000	-0.033	-0.167
-239.903	-200.000	-0.002	-0.022
-238.888	800.000	-0.079	-0.319
-237.873	-63.922	0.115	0.046
-236.859	-129.593	-0.402	-0.055
-235.844	-93.599	0.190	-0.052
-234.830	157.417	-0.240	0.327
-233.815	-25.534	-0.127	-0.074
-232.800	13.912	0.198	0.152
-231.786	-200.000	-0.066	-0.296
-230.771	800.000	0.064	0.249
-229.757	-44.798	0.222	0.109
-228.742	-200.000	0.015	0.102
-227.727	-85.775	0.329	-0.100
-226.713	-61.518	-0.232	0.096
-225.698	-38.714	0.297	-0.154
-224.684	25.646	-0.467	0.383
-223.669	-86.723	0.097	0.029
-222.655	41.962	0.016	0.014
-221.640	-89.899	-0.385	0.111
-220.625	-200.000	0.007	0.199
-219.611	-200.000	0.098	0.503
-218.596	418.328	-0.175	0.369
-217.582	90.448	-0.178	-0.196
-216.567	-98.431	-0.486	0.122
-215.552	-200.000	-0.056	0.297
-214.538	-200.000	0.003	0.062
-213.523	-5.087	0.125	0.085
-212.509	586.279	-0.136	-0.330
-211.494	190.097	-0.284	-0.419
-210.479	679.363	-0.154	-0.396
-209.465	-80.106	-0.168	0.055
-208.450	377.306	0.109	0.219
-207.436	46.355	0.265	0.242
-206.421	-18.797	-0.072	-0.044
-205.406	-36.152	-0.226	-0.120
-204.392	-200.000	0.033	-0.255
-203.377	34.577	0.148	-0.127
-202.363	-200.000	0.024	0.200
-201.348	312.576	-0.134	0.247
-200.333	-11.570	0.252	-0.163
-199.319	800.000	0.050	-0.193
-198.304	-140.230	-0.405	0.042
-197.290	719.882	-0.131	-0.344
-196.275	14.007	-0.137	0.105
-195.260	-200.000	-0.021	0.265
-194.246	800.000	-0.057	0.214
-193.231	-200.000	0.060	0.291
-192.217	-33.052	-0.065	0.036
-191.202	253.244	-0.067	-0.113
-190.187	-38.524	0.296	-0.154
-189.173	-200.000	-0.085	-0.388
-188.158	671.357	-0.171	0.436
-187.144	115.091	0.054	-0.064
-186.129	20.475	0.113	-0.090
-185.114	234.509	0.137	0.223
-184.100	-137.497	-0.202	0.022
-183.085	124.164	0.204	-0.252
-182.071	59.334	0.182	0.176
-181.056	203.077	0.141	-0.215
-180.042	257.531	-0.169	-0.285
-179.027	-10.372	0.126	0.082
-178.012	-156.347	0.154	0.009
-176.998	-59.749	0.057	-0.024
-175.983	-200.000	-0.015	-0.349
-174.969	-161.088	0.283	-0.015
-173.954	-34.591	-0.232	-0.125
-172.939	49.792	0.157	-0.146
-171.925	-39.726	0.141	0.073
-170.910	459.523	0.195	0.426
-169.896	-186.017	-0.011	-0.000
-168.881	130.910	-0.126	0.159
-167.866	800.000	-0.076	0.256
-166.852	-58.016	0.284	-0.122
-165.837	292.285	-0.149	0.267
-164.823	7.620	0.206	-0.152
-163.808	797.043	-0.114	0.309
-162.793	-79.693	-0.425	-0.141
-161.779	800.000	-0.007	-0.027
-160.764	98.056	0.065	0.073
-159.750	-63.296	0.117	0.047
-158.735	-182.697	0.499	-0.009
-157.720	209.949	-0.165	-0.255
-156.706	623.426	-0.178	0.440
-155.691	438.543	-0.041	-0.088
-154.677	618.108	0.099	0.244
-153.662	-168.411	0.150	0.006
-152.647	23.446	-0.056	0.045
-151.633	30.524	-0.296	0.249
-150.618	437.439	-0.155	0.333
-149.604	-8.105	0.170	0.113
-148.589	-48.985	-0.239	-0.112
-147.574	191.526	-0.172	0.254
-146.560	295.132	-0.142	0.255
-145.545	-200.000	0.047	0.326
-144.531	12.379	0.038	-0.029
-143.516	-101.687	-0.209	-0.050
-142.502	-200.000	0.026	-0.165
-141.487	619.150	-0.222	0.549
-140.472	214.015	-0.071	0.110
-139.458	-75.137	0.282	-0.099
-138.443	50.790	-0.328	-0.305
-137.429	-61.375	-0.024	0.010
-136.414	330.147	-0.083	0.157
-135.399	-121.814	-0.239	0.039
-134.385	-37.637	-0.134	0.070
-133.370	86.739	-0.250	0.271
-132.356	-200.000	0.050	-0.525
-131.341	800.000	-0.089	-0.267
-130.326	44.361	0.352	0.317
-129.312	-120.478	-0.095	0.016
-128.297	800.000	0.058	0.193
-127.283	-200.000	0.026	0.143
-126.268	-68.662	-0.220	0.084
-125.253	719.678	0.116	-0.303
-124.239	173.391	0.073	0.104
-123.224	235.011	0.155	-0.250
-122.210	800.000	0.094	-0.312
-121.195	-48.236	0.188	0.089
