DTS Sentinel unit serial number:	SN413079Multiplexer serial number:	ORYXHardware model number:	OX4-SRSoftware version number:	ORYX F/W v4.00 Oryx Data Collector v3.7.2.0data status	okinstallation	princeton_trtdifferential loss correction	single-endedforward channel	channel 4reverse channel	N/Adate	2019/09/19time	09:17:35forward acquisition time	60.00reverse acquisition time	0.00gamma	496.2192k internal	0.2337k external	0.2337temperature offset calibration	1.0015default loss term (dB/km)	0.3790temperature slope calibration	1.0000multiplexer offset coefficient	1.0000multiplexer slope coefficient	1.0000fibre end	0.00T internal ref (°C)	22.23T ext. ref 1 (°C)	0.60T ext. ref 2 (°C)	19.43length (m)	temperature (°C)	Stokes	anti-Stokes-747.200	794.861	-0.079	0.218
-746.185	51.354	-0.382	0.364
-745.171	-11.030	0.094	-0.062
-744.156	800.000	0.099	0.359
-743.142	800.000	-0.123	0.520
-742.127	581.315	-0.098	0.240
-741.112	-177.576	0.224	-0.005
-740.098	50.610	-0.349	0.331
-739.083	52.719	0.247	0.237
-738.069	-200.000	-0.005	-0.031
-737.054	689.571	0.068	0.178
-736.039	-11.281	-0.480	0.317
-735.025	212.798	0.228	-0.362
-734.010	-175.803	-0.398	-0.011
-732.996	-30.943	-0.234	-0.133
-731.981	-54.018	-0.127	0.058
-730.966	-106.817	-0.300	-0.067
-729.952	-53.583	0.156	0.071
-728.937	-200.000	-0.055	-0.287
-727.923	168.119	-0.115	-0.165
-726.908	-75.846	0.404	-0.144
-725.894	443.990	0.095	-0.208
-724.879	-142.762	0.027	-0.003
-723.864	800.000	0.040	0.157
-722.850	-16.904	-0.094	0.059
-721.835	-11.399	-0.252	0.166
-720.821	-200.000	0.014	0.389
-719.806	-12.421	0.328	0.215
-718.791	800.000	-0.057	0.225
-717.777	304.582	-0.068	0.127
-716.762	-22.482	-0.152	0.093
-715.748	-200.000	0.012	-0.141
-714.733	-200.000	0.066	-0.325
-713.718	-142.719	0.147	-0.014
-712.704	-147.087	-0.199	0.017
-711.689	561.902	0.082	0.200
-710.675	55.447	0.130	-0.126
-709.660	64.897	-0.451	0.456
-708.645	367.388	0.038	-0.076
-707.631	-200.000	0.002	-0.310
-706.616	223.884	-0.090	0.145
-705.602	-200.000	0.021	0.130
-704.587	82.539	-0.163	0.177
-703.572	130.686	0.114	0.146
-702.558	530.692	-0.077	-0.182
-701.543	33.286	0.188	-0.163
-700.529	-96.621	-0.449	0.119
-699.514	-93.910	0.115	-0.032
-698.499	-200.000	0.023	-0.378
-697.485	-200.000	0.045	-0.198
-696.470	-20.203	-0.153	-0.094
-695.456	-37.713	0.281	-0.150
-694.441	-93.442	-0.205	0.057
-693.426	354.100	-0.098	-0.195
-692.412	800.000	0.022	0.070
-691.397	-200.000	-0.188	0.000
-690.383	89.248	-0.047	-0.052
-689.368	471.134	0.099	0.222
-688.354	347.503	-0.118	-0.232
-687.339	553.348	-0.159	-0.383
-686.324	2.411	0.254	0.184
-685.310	-200.000	-0.006	-0.089
-684.295	-89.159	0.198	0.058
-683.281	87.165	-0.122	-0.135
-682.266	-200.000	0.034	0.222
-681.251	-200.000	-0.048	0.306
-680.237	41.946	0.026	-0.023
-679.222	447.556	-0.111	0.245
-678.208	-53.000	0.037	0.017
-677.193	-152.638	0.143	0.010
-676.178	-156.114	-0.249	0.016
-675.164	337.881	-0.094	-0.184
-674.149	-106.582	0.029	0.006
-673.135	216.502	0.171	0.273
-672.120	33.842	-0.172	-0.150
-671.105	-12.432	-0.210	0.137
-670.091	-130.398	-0.236	-0.032
-669.076	-89.760	-0.191	0.056
-668.062	495.214	0.051	-0.118
-667.047	-38.062	-0.236	-0.125
-666.032	122.562	0.037	-0.047
-665.018	55.196	0.050	-0.049
-664.003	95.277	0.071	-0.081
-662.989	391.813	-0.057	0.118
-661.974	108.882	-0.063	-0.075
-660.959	56.150	-0.071	-0.069
-659.945	99.127	0.143	-0.165
-658.930	593.675	-0.096	0.237
-657.916	84.331	-0.101	-0.110
-656.901	130.028	0.078	-0.100
-655.886	800.000	0.021	0.065
-654.872	-138.649	0.121	-0.013
-653.857	718.091	0.062	0.165
-652.843	43.824	-0.089	-0.082
-651.828	800.000	-0.059	0.185
-650.814	63.022	-0.184	0.184
-649.799	327.707	-0.151	0.289
-648.784	-118.096	0.081	-0.014
-647.770	-109.682	-0.039	-0.008
-646.755	75.874	-0.096	0.101
-645.741	-200.000	0.002	-0.231
-644.726	126.592	-0.205	0.260
-643.711	-160.208	-0.115	0.006
-642.697	51.625	0.371	-0.352
-641.682	-80.404	-0.082	-0.027
-640.668	-200.000	0.056	0.248
-639.653	-18.105	-0.238	-0.149
-638.638	-8.709	0.192	-0.129
-637.624	422.564	0.120	0.257
-636.609	-200.000	-0.019	-0.107
-635.595	7.462	0.248	-0.185
-634.580	-200.000	-0.077	0.346
-633.565	-103.551	-0.472	0.111
-632.551	-200.000	-0.056	-0.265
-631.536	-147.220	-0.258	-0.022
-630.522	-200.000	-0.011	-0.243
-629.507	4.791	-0.124	-0.091
-628.492	-3.601	0.121	0.084
-627.478	12.330	0.159	0.122
-626.463	99.887	-0.116	-0.134
-625.449	800.000	-0.016	0.064
-624.434	-127.708	0.445	0.064
-623.419	-41.043	0.133	-0.069
-622.405	210.206	-0.048	0.075
-621.390	-200.000	-0.028	0.194
-620.376	-200.000	-0.013	0.099
-619.361	-200.000	0.033	-0.319
-618.346	-82.905	-0.120	0.039
-617.332	-200.000	-0.092	-0.487
-616.317	800.000	0.047	0.182
-615.303	-24.939	-0.233	-0.138
-614.288	-129.495	0.117	-0.016
-613.273	91.304	-0.106	0.119
-612.259	-173.194	0.142	-0.004
-611.244	-112.734	-0.139	-0.028
-610.230	28.026	0.334	0.282
-609.215	171.311	-0.214	-0.307
-608.201	-104.531	0.322	0.074
-607.186	-200.000	-0.085	0.383
-606.171	669.760	0.078	-0.202
-605.157	151.452	-0.061	-0.083
-604.142	175.775	-0.062	-0.090
-603.128	87.373	0.068	-0.075
-602.113	683.056	-0.149	-0.387
-601.098	25.160	-0.275	0.228
-600.084	-24.739	0.026	-0.015
-599.069	298.169	-0.144	-0.265
-598.055	-115.253	-0.089	0.017
-597.040	-76.519	-0.217	0.076
-596.025	-150.616	-0.167	0.013
-595.011	338.340	0.048	0.094
-593.996	65.519	0.081	0.081
-592.982	-19.325	0.209	-0.129
-591.967	-200.000	0.012	0.096
-590.952	-89.082	0.244	-0.072
-589.938	800.000	0.116	0.343
-588.923	-200.000	-0.016	-0.176
-587.909	59.149	-0.265	0.261
-586.894	-200.000	0.028	0.137
-585.879	55.993	0.297	-0.288
-584.865	-133.381	0.250	0.031
-583.850	800.000	0.068	0.191
-582.836	-96.146	-0.326	0.086
-581.821	-200.000	-0.056	0.259
-580.806	636.540	-0.117	-0.296
-579.792	-77.094	-0.095	-0.033
-578.777	307.768	-0.053	0.099
-577.763	-200.000	0.030	0.198
-576.748	32.648	0.148	-0.127
-575.733	800.000	-0.072	-0.232
-574.719	800.000	-0.072	0.238
-573.704	800.000	0.023	-0.077
-572.690	-185.770	-0.378	0.006
-571.675	-46.588	0.064	0.031
-570.661	31.607	-0.128	0.110
-569.646	-121.754	-0.249	0.041
-568.631	200.329	0.078	-0.119
-567.617	30.176	0.283	0.241
-566.602	-72.220	-0.309	0.114
-565.588	-200.000	-0.041	-0.210
-564.573	125.118	0.036	-0.046
-563.558	-200.000	0.012	0.063
-562.544	-136.253	-0.061	-0.007
-561.529	800.000	0.031	0.102
-560.515	-200.000	0.052	0.322
-559.500	-30.837	0.181	-0.102
-558.485	800.000	-0.094	-0.272
-557.471	800.000	-0.034	0.093
-556.456	52.642	0.176	0.168
-555.442	-75.347	0.073	-0.026
-554.427	432.393	-0.078	-0.169
-553.412	704.073	0.078	0.204
-552.398	-108.528	0.158	-0.034
-551.383	502.881	-0.164	-0.377
-550.369	-43.440	-0.196	0.099
-549.354	48.666	0.206	0.192
-548.339	288.206	0.111	0.200
-547.325	-124.080	-0.198	0.031
-546.310	59.658	0.317	0.312
-545.296	161.585	-0.199	0.278
-544.281	800.000	0.056	-0.232
-543.266	-138.396	-0.334	-0.037
-542.252	14.257	0.149	-0.116
-541.237	723.544	-0.123	0.327
-540.223	800.000	0.064	-0.272
-539.208	-200.000	-0.029	-0.243
-538.193	-200.000	-0.010	-0.274
-537.179	-153.715	-0.297	-0.020
-536.164	-200.000	-0.012	0.316
-535.150	-200.000	-0.063	0.303
-534.135	19.175	-0.164	0.131
-533.121	99.413	0.142	0.164
-532.106	130.046	0.159	0.202
-531.091	93.253	-0.198	-0.223
-530.077	-200.000	-0.018	0.118
-529.062	313.012	-0.060	-0.113
-528.048	-73.824	-0.151	0.055
-527.033	-10.779	0.252	-0.166
-526.018	-57.949	-0.077	-0.034
-525.004	-82.696	0.371	0.120
-523.989	265.620	0.130	0.225
-522.975	71.856	-0.102	0.105
-521.960	-175.450	0.093	0.003
-520.945	-54.959	0.236	0.106
-519.931	0.095	0.289	-0.205
-518.916	642.547	-0.024	0.060
-517.902	-200.000	-0.028	-0.355
-516.887	230.979	-0.074	0.120
-515.872	800.000	-0.113	-0.323
-514.858	-139.007	0.132	0.014
-513.843	-182.842	0.348	-0.006
-512.829	-172.203	0.182	-0.006
-511.814	-33.876	-0.413	-0.226
-510.799	163.360	0.212	0.296
-509.785	290.626	-0.156	0.282
-508.770	70.466	0.149	0.153
-507.756	-200.000	-0.014	0.087
-506.741	95.295	0.032	-0.037
-505.726	166.258	-0.139	0.196
-504.712	277.512	0.062	0.109
-503.697	217.966	-0.141	-0.224
-502.683	800.000	0.049	0.176
-501.668	-189.155	0.213	0.003
-500.653	-40.520	-0.250	-0.129
-499.639	30.876	0.232	0.198
-498.624	369.285	0.188	-0.379
-497.610	-200.000	0.052	0.265
-496.595	154.940	-0.158	0.216
-495.581	-200.000	0.013	-0.105
-494.566	-72.947	-0.191	-0.070
-493.551	-106.247	-0.320	0.071
-492.537	-89.534	0.363	-0.106
-491.522	-94.882	-0.156	0.042
-490.508	-30.215	-0.113	-0.064
-489.493	-65.493	-0.120	0.048
-488.478	55.722	-0.148	-0.142
-487.464	-72.977	-0.283	-0.103
-486.449	-111.177	0.342	0.070
-485.435	142.603	-0.139	0.184
-484.420	185.881	0.099	-0.146
-483.405	216.638	-0.051	0.081
-482.391	-37.503	0.252	-0.133
-481.376	-74.217	0.250	-0.090
-480.362	-200.000	0.001	-0.171
-479.347	67.810	0.265	0.269
-478.332	800.000	0.040	0.146
-477.318	-53.707	-0.138	-0.063
-476.303	-200.000	-0.029	-0.264
-475.289	125.147	0.249	-0.311
-474.274	412.324	0.268	-0.566
-473.259	-200.000	-0.009	-0.175
-472.245	-200.000	-0.068	0.350
-471.230	-42.680	-0.272	-0.138
-470.216	-80.792	0.224	-0.074
-469.201	122.288	0.106	0.132
-468.186	-82.110	-0.134	-0.043
-467.172	259.575	0.043	-0.074
-466.157	54.778	0.129	0.124
-465.143	-200.000	0.015	0.074
-464.128	-102.533	-0.297	-0.071
-463.113	-200.000	-0.009	0.067
-462.099	207.046	-0.146	0.225
-461.084	-128.573	0.408	0.057
-460.070	800.000	-0.103	0.409
-459.055	-139.988	0.051	0.005
-458.040	103.169	-0.094	-0.109
-457.026	494.778	-0.087	0.198
-456.011	-81.153	0.414	0.136
-454.997	82.681	-0.021	0.022
-453.982	-200.000	-0.005	-0.045
-452.968	-68.103	-0.297	0.115
-451.953	507.679	-0.083	-0.191
-450.938	-30.752	-0.020	-0.011
-449.924	-24.926	0.278	-0.164
-448.909	185.984	0.190	0.280
-447.895	-68.246	-0.344	-0.133
-446.880	26.299	0.256	-0.212
-445.865	-29.088	0.203	0.116
-444.851	-200.000	0.053	0.331
-443.836	404.163	0.173	0.361
-442.822	330.648	0.083	-0.159
-441.807	501.060	-0.022	-0.050
-440.792	-48.878	0.213	0.101
-439.778	19.244	0.080	0.064
-438.763	-99.089	-0.243	0.061
-437.749	56.317	-0.082	0.079
-436.734	-62.492	0.300	0.124
-435.719	250.623	-0.185	-0.312
-434.705	133.192	0.062	-0.079
-433.690	-15.262	-0.075	-0.048
-432.676	115.478	0.021	-0.026
-431.661	800.000	-0.093	-0.257
-430.646	-131.000	-0.279	-0.037
-429.632	-42.664	0.066	-0.034
-428.617	-51.473	-0.232	-0.108
-427.603	-84.160	0.196	-0.062
-426.588	11.937	-0.228	-0.174
-425.573	287.387	-0.120	-0.216
-424.559	-116.812	0.100	0.018
-423.544	-94.419	-0.357	0.097
-422.530	175.628	0.119	0.171
-421.515	-59.232	-0.200	0.086
-420.500	293.061	-0.190	0.343
-419.486	-17.436	-0.151	-0.094
-418.471	-200.000	-0.022	-0.356
-417.457	218.281	-0.194	0.307
-416.442	800.000	-0.120	0.516
-415.428	800.000	0.078	-0.331
-414.413	-75.527	0.424	-0.149
-413.398	-63.318	0.221	0.090
-412.384	-117.391	0.262	0.047
-411.369	-44.770	-0.306	0.151
-410.355	-4.029	-0.139	0.095
-409.340	3.282	-0.090	-0.065
-408.325	-200.000	-0.029	0.241
-407.311	800.000	-0.074	0.293
-406.296	-200.000	0.004	-0.039
-405.282	66.237	0.172	-0.173
-404.267	-75.240	0.335	0.119
-403.252	-141.883	0.140	0.014
-402.238	-22.735	-0.274	-0.164
-401.223	154.279	-0.044	0.060
-400.209	800.000	-0.119	-0.401
-399.194	-112.147	0.102	-0.020
-398.179	-4.703	0.119	0.081
-397.165	-140.243	-0.191	0.020
-396.150	-200.000	-0.075	-0.454
-395.136	800.000	-0.029	0.081
-394.121	-200.000	-0.021	-0.103
-393.106	-16.055	0.273	0.172
-392.092	249.147	0.091	-0.152
-391.077	30.892	0.296	0.251
-390.063	-71.571	-0.271	-0.100
-389.048	114.966	-0.176	-0.212
-388.033	800.000	0.049	0.202
-387.019	-200.000	0.061	-0.329
-386.004	-82.355	0.320	0.103
-384.990	17.661	-0.130	0.102
-383.975	54.090	0.142	-0.135
-382.960	-200.000	0.054	0.291
-381.946	800.000	-0.117	-0.401
-380.931	-76.260	0.062	-0.022
-379.917	-61.201	-0.223	-0.093
-378.902	248.681	-0.092	-0.154
-377.888	-167.961	0.279	-0.011
-376.873	40.289	-0.204	0.182
-375.858	-108.357	-0.066	0.014
-374.844	92.861	0.335	0.374
-373.829	-200.000	0.021	-0.236
-372.815	-133.689	-0.256	0.032
-371.800	80.879	0.187	-0.200
-370.785	-200.000	0.001	0.011
-369.771	-68.368	0.401	-0.154
-368.756	800.000	-0.136	-0.426
-367.742	112.770	-0.095	-0.114
-366.727	-15.259	0.181	0.115
-365.712	225.354	0.095	-0.152
-364.698	195.073	0.110	-0.165
-363.683	119.014	0.262	-0.321
-362.669	-117.903	-0.569	0.101
-361.654	32.663	-0.211	-0.181
-360.639	-200.000	0.030	-0.184
-359.625	186.107	0.231	-0.339
-358.610	-23.051	0.274	-0.163
-357.596	-200.000	-0.077	0.400
-356.581	-200.000	0.050	0.340
-355.566	278.907	0.065	-0.115
-354.552	-120.745	-0.233	0.039
-353.537	-152.481	-0.071	-0.005
-352.523	800.000	-0.066	-0.268
-351.508	-200.000	0.085	0.386
-350.493	-74.823	-0.211	0.075
-349.479	25.530	0.283	-0.233
-348.464	373.961	-0.158	-0.317
-347.450	-200.000	0.024	0.496
-346.435	-185.165	-0.513	-0.008
-345.420	18.191	0.118	0.093
-344.406	573.561	0.043	0.104
-343.391	-73.416	-0.155	-0.056
-342.377	-18.769	-0.166	-0.102
-341.362	142.380	0.068	-0.089
-340.348	-200.000	0.016	-0.195
-339.333	-151.188	-0.128	-0.009
-338.318	29.124	0.053	-0.045
-337.304	-199.269	0.028	-0.000
-336.289	29.983	-0.120	0.101
-335.275	-8.909	0.051	-0.034
-334.260	-114.783	-0.528	0.100
-333.245	-148.027	-0.108	-0.009
-332.231	241.106	0.061	0.101
-331.216	416.815	0.056	0.119
-330.202	19.170	0.048	-0.038
-329.187	396.682	0.050	-0.102
-328.172	-150.960	-0.191	0.014
-327.158	-9.093	0.289	-0.191
-326.143	90.148	0.190	0.210
-325.129	236.251	0.082	-0.133
-324.114	-120.334	-0.098	-0.016
-323.099	-200.000	-0.024	-0.208
-322.085	-90.023	-0.203	-0.058
-321.070	-200.000	0.039	-0.205
-320.056	-200.000	0.027	0.155
-319.041	-115.357	-0.213	0.040
-318.026	-5.323	-0.249	-0.169
-317.012	17.131	-0.091	-0.071
-315.997	-42.217	-0.338	-0.170
-314.983	112.639	-0.239	0.285
-313.968	132.145	-0.034	-0.043
-312.953	-200.000	0.020	-0.279
-311.939	-2.028	-0.156	-0.108
-310.924	80.423	0.135	0.143
-309.910	-121.260	-0.394	-0.065
-308.895	-88.499	-0.159	-0.047
-307.880	-7.135	0.121	-0.081
-306.866	-51.704	-0.263	-0.121
-305.851	-17.415	-0.056	0.035
-304.837	-200.000	0.038	0.243
-303.822	327.176	-0.135	-0.255
-302.807	-19.400	-0.411	0.252
-301.793	-200.000	0.022	-0.159
-300.778	455.812	0.130	0.284
-299.764	119.892	0.105	0.128
-298.749	-59.687	0.284	0.120
-297.735	-200.000	0.004	-0.247
-296.720	637.469	0.073	-0.184
-295.705	-200.000	-0.030	-0.201
-294.691	-115.359	-0.176	0.033
-293.676	15.713	0.282	0.219
-292.662	51.932	-0.198	0.186
-291.647	-18.448	0.097	-0.060
-290.632	59.810	-0.068	-0.066
-289.618	123.251	-0.219	0.271
-288.603	-200.000	-0.041	-0.219
-287.589	381.488	0.056	0.114
-286.574	-105.250	-0.207	0.047
-285.559	13.570	-0.272	-0.208
-284.545	-175.681	-0.240	-0.006
-283.530	-162.441	0.249	-0.012
-282.516	-45.985	-0.055	-0.027
-281.501	565.404	-0.058	0.138
-280.486	800.000	-0.097	0.300
-279.472	307.203	-0.076	-0.139
-278.457	800.000	0.045	-0.173
-277.443	-42.914	-0.392	-0.196
-276.428	-200.000	0.034	-0.223
-275.413	16.685	-0.170	-0.132
-274.399	9.136	-0.244	-0.182
-273.384	-89.150	0.276	-0.080
-272.370	32.367	0.181	0.154
-271.355	-200.000	0.014	0.088
-270.340	-68.407	-0.176	0.067
-269.326	-26.892	0.188	-0.108
-268.311	-200.000	0.041	0.211
-267.297	-10.039	-0.391	-0.256
-266.282	121.045	0.078	0.096
-265.267	-84.788	-0.066	-0.020
-264.253	-50.670	-0.161	-0.075
-263.238	168.106	0.162	-0.228
-262.224	4.093	0.137	-0.099
-261.209	-200.000	0.003	0.140
-260.195	-0.719	0.058	-0.040
-259.180	491.081	0.092	-0.207
-258.165	41.427	0.185	0.165
-257.151	-57.286	0.275	-0.119
-256.136	420.275	0.177	0.374
-255.122	-145.870	-0.176	0.015
-254.107	52.152	-0.247	0.232
-253.092	800.000	0.018	-0.069
-252.078	-78.348	0.418	-0.141
-251.063	200.724	0.077	-0.117
-250.049	-56.930	0.120	-0.052
-249.034	0.380	-0.096	0.067
-248.019	-104.533	0.223	0.051
-247.005	11.961	-0.381	0.289
-245.990	-25.121	-0.151	0.088
-244.976	172.848	-0.159	-0.226
-243.961	-119.561	0.232	-0.040
-242.946	-45.259	-0.181	0.088
-241.932	-120.901	-0.134	-0.022
-240.917	-162.821	-0.106	-0.005
-239.903	174.400	-0.105	0.150
-238.888	730.887	0.032	-0.084
-237.873	-88.779	-0.118	0.035
-236.859	-45.841	0.210	0.102
-235.844	175.041	-0.077	-0.109
-234.830	-200.000	-0.001	0.038
-233.815	167.347	0.085	-0.118
-232.800	-21.703	0.443	0.266
-231.786	-64.448	-0.179	0.071
-230.771	-67.933	-0.010	0.004
-229.757	45.180	0.033	-0.030
-228.742	-144.337	0.127	-0.012
-227.727	95.742	-0.136	0.153
-226.713	-200.000	0.000	-0.257
-225.698	33.184	0.163	-0.139
-224.684	-86.536	0.362	0.109
-223.669	115.444	-0.047	-0.056
-222.655	379.113	-0.101	-0.203
-221.640	800.000	-0.034	0.145
-220.625	-124.004	0.292	0.045
-219.611	-31.069	0.215	-0.119
-218.596	252.539	0.120	0.201
-217.582	-140.330	0.530	-0.054
-216.567	-200.000	0.012	0.329
-215.552	800.000	0.090	0.332
-214.538	-134.401	-0.188	-0.023
-213.523	-55.907	0.194	-0.085
-212.509	539.014	0.169	-0.396
-211.494	800.000	0.114	-0.343
-210.479	-25.372	-0.102	-0.059
-209.465	17.762	0.202	-0.158
-208.450	-57.682	-0.135	-0.058
-207.436	800.000	0.114	0.444
-206.421	-34.411	0.228	0.123
-205.406	-200.000	-0.003	0.263
-204.392	-142.699	0.053	-0.005
-203.377	182.173	0.040	-0.058
-202.363	-27.283	0.070	0.040
-201.348	800.000	0.093	-0.390
-200.333	-90.377	0.166	0.047
-199.319	205.249	0.086	-0.131
-198.304	-93.787	-0.051	0.014
-197.290	256.393	0.026	0.044
-196.275	83.550	-0.213	0.228
-195.260	114.270	0.251	0.300
-194.246	-200.000	0.054	0.630
-193.231	410.814	-0.083	0.172
-192.217	-153.479	-0.427	-0.029
-191.202	800.000	0.067	-0.190
-190.187	-78.041	0.131	-0.044
-189.173	-156.660	-0.398	0.024
-188.158	104.216	0.092	-0.107
-187.144	-101.105	-0.272	0.065
-186.129	498.485	0.065	-0.148
-185.114	-160.408	-0.250	0.013
-184.100	800.000	-0.035	-0.151
-183.085	-200.000	0.038	0.345
-182.071	800.000	0.053	-0.224
-181.056	181.685	-0.213	-0.308
-180.042	-43.210	0.386	0.192
-179.027	-161.922	0.501	-0.025
-178.012	336.121	0.242	-0.461
-176.998	-60.578	-0.187	0.078
-175.983	-67.593	0.214	-0.082
-174.969	662.773	-0.060	0.151
-173.954	108.531	-0.142	0.167
-172.939	-200.000	0.031	-0.158
-171.925	-25.303	-0.229	0.133
-170.910	-200.000	0.024	-0.396
-169.896	-200.000	0.019	0.225
-168.881	-73.820	-0.208	-0.074
-167.866	-112.279	0.212	0.042
-166.852	130.425	0.218	0.274
-165.837	182.984	-0.135	0.195
-164.823	-119.194	0.307	0.053
-163.808	242.826	0.117	-0.192
-162.793	182.020	0.108	0.156
-161.779	800.000	0.174	0.489
-160.764	48.308	0.100	-0.092
-159.750	-200.000	-0.035	-0.296
-158.735	518.539	-0.110	0.253
-157.720	800.000	0.034	0.147
-156.706	-32.572	0.142	0.078
-155.691	-42.852	-0.147	0.073
-154.677	279.688	-0.142	0.249
-153.662	110.545	0.097	-0.114
-152.647	114.911	-0.050	-0.060
-151.633	68.338	0.292	-0.294
-150.618	330.257	-0.027	0.051
-149.604	30.395	0.152	-0.127
-148.589	21.042	0.193	-0.154
-147.574	63.450	0.133	0.131
-146.560	59.884	-0.047	0.046
-145.545	-12.418	-0.061	-0.039
-144.531	800.000	0.038	-0.141
-143.516	274.789	0.075	0.131
-142.502	-111.720	-0.112	0.022
-141.487	-120.568	0.244	0.041
-140.472	-152.221	0.171	0.012
-139.458	409.868	-0.034	-0.070
-138.443	328.458	0.058	0.109
-137.429	-47.498	-0.148	0.071
-136.414	-172.337	-0.294	-0.009
-135.399	190.313	-0.244	-0.359
-134.385	-90.274	0.085	0.024
-133.370	-21.899	-0.255	-0.152
-132.356	158.022	0.149	0.202
-131.341	116.040	-0.069	-0.083
-130.326	231.734	-0.054	0.088
-129.312	514.257	-0.099	-0.225
-128.297	381.425	0.174	-0.350
-127.283	108.930	-0.261	-0.306
-126.268	-67.239	-0.065	-0.025
-125.253	150.297	0.204	-0.272
-124.239	-62.368	-0.224	-0.092
-123.224	-35.300	0.165	0.088
-122.210	364.034	-0.107	-0.210
-121.195	49.725	-0.172	0.159
