DTS Sentinel unit serial number:	SN413079Multiplexer serial number:	ORYXHardware model number:	OX4-SRSoftware version number:	ORYX F/W v4.00 Oryx Data Collector v3.7.2.0data status	okinstallation	princeton_trtdifferential loss correction	single-endedforward channel	channel 4reverse channel	N/Adate	2019/09/10time	21:19:10forward acquisition time	60.00reverse acquisition time	0.00gamma	496.2192k internal	0.2313k external	0.2313temperature offset calibration	0.9948default loss term (dB/km)	0.3790temperature slope calibration	1.0000multiplexer offset coefficient	1.0000multiplexer slope coefficient	1.0000fibre end	0.00T internal ref (°C)	31.30T ext. ref 1 (°C)	-0.33T ext. ref 2 (°C)	24.44length (m)	temperature (°C)	Stokes	anti-Stokes-747.200	390.314	0.090	-0.190
-746.185	-141.815	0.272	-0.028
-745.171	634.681	-0.127	-0.326
-744.156	-4.634	-0.333	0.233
-743.142	-144.821	-0.301	-0.028
-742.127	-4.521	-0.193	0.135
-741.112	12.619	0.191	-0.150
-740.098	-84.688	-0.348	0.111
-739.083	-200.000	0.029	-0.174
-738.069	800.000	0.114	-0.323
-737.054	117.494	-0.232	-0.290
-736.039	75.239	0.099	0.106
-735.025	-177.535	0.377	0.009
-734.010	-200.000	-0.023	0.172
-732.996	-55.380	-0.233	-0.106
-731.981	17.046	-0.156	-0.125
-730.966	-147.850	0.025	-0.002
-729.952	-35.456	-0.209	-0.115
-728.937	-23.123	-0.230	0.140
-727.923	168.282	-0.156	0.225
-726.908	48.861	-0.308	-0.293
-725.894	262.374	-0.213	0.375
-724.879	-62.276	0.301	-0.127
-723.864	-200.000	0.002	-0.116
-722.850	233.837	-0.085	-0.142
-721.835	353.321	-0.152	0.306
-720.821	-200.000	-0.032	-0.436
-719.806	205.232	-0.281	0.443
-718.791	319.730	-0.052	-0.100
-717.777	-131.910	-0.057	0.008
-716.762	-44.340	-0.438	0.222
-715.748	800.000	0.071	-0.219
-714.733	-8.808	0.119	0.080
-713.718	50.746	0.043	-0.041
-712.704	10.715	-0.088	-0.068
-711.689	-200.000	0.451	0.002
-710.675	-68.183	-0.078	0.031
-709.660	216.827	0.109	-0.175
-708.645	-200.000	-0.040	0.179
-707.631	-200.000	0.009	-0.252
-706.616	20.865	-0.290	0.238
-705.602	16.053	0.181	0.144
-704.587	800.000	0.014	0.044
-703.572	49.001	0.132	-0.126
-702.558	226.979	0.176	-0.289
-701.543	-22.301	-0.220	-0.135
-700.529	83.487	0.134	0.148
-699.514	-163.026	0.204	-0.010
-698.499	-200.000	0.039	-0.393
-697.485	800.000	-0.035	-0.104
-696.470	410.090	-0.162	0.347
-695.456	-95.495	-0.329	0.089
-694.441	-200.000	0.040	-0.209
-693.426	-34.876	-0.207	-0.114
-692.412	45.150	-0.090	0.084
-691.397	-117.907	-0.150	-0.027
-690.383	17.307	0.038	-0.031
-689.368	800.000	0.056	0.219
-688.354	-200.000	-0.023	-0.161
-687.339	-92.172	-0.361	0.103
-686.324	514.772	0.059	0.138
-685.310	18.870	-0.121	0.098
-684.295	-84.074	0.298	0.096
-683.281	341.797	-0.130	-0.258
-682.266	-40.661	-0.155	0.082
-681.251	-96.279	0.304	0.081
-680.237	-93.019	-0.064	0.018
-679.222	-124.271	0.146	-0.023
-678.208	-66.544	-0.124	0.050
-677.193	-190.930	0.051	0.001
-676.178	-54.631	-0.160	0.073
-675.164	-200.000	0.048	0.227
-674.149	-91.689	-0.115	-0.033
-673.135	-127.789	0.058	-0.009
-672.120	-34.753	-0.267	0.148
-671.105	462.594	0.045	-0.102
-670.091	572.294	0.041	-0.102
-669.076	92.369	-0.128	-0.146
-668.062	-106.104	0.230	-0.052
-667.047	27.693	0.103	-0.087
-666.032	208.347	0.130	-0.206
-665.018	38.551	0.102	-0.092
-664.003	97.883	0.195	-0.227
-662.989	-48.932	0.155	-0.075
-661.974	-29.187	0.098	-0.057
-660.959	303.086	-0.101	0.189
-659.945	33.200	0.096	-0.084
-658.930	226.063	0.083	-0.136
-657.916	-141.219	-0.131	-0.013
-656.901	-58.562	-0.311	-0.136
-655.886	-200.000	0.021	-0.194
-654.872	16.814	0.057	-0.046
-653.857	-76.853	0.310	-0.110
-652.843	4.516	0.153	0.113
-651.828	-101.583	0.111	-0.027
-650.814	-200.000	-0.043	-0.342
-649.799	94.641	0.302	-0.346
-648.784	-184.335	0.104	0.002
-647.770	-200.000	0.014	0.129
-646.755	787.733	0.100	-0.278
-645.741	-136.361	0.125	-0.015
-644.726	77.783	-0.147	-0.158
-643.711	-200.000	-0.002	0.086
-642.697	-134.279	0.364	-0.045
-641.682	693.393	-0.090	0.239
-640.668	800.000	-0.083	0.275
-639.653	44.621	-0.221	-0.205
-638.638	-38.472	-0.223	-0.119
-637.624	-101.422	-0.052	0.013
-636.609	146.704	0.023	-0.031
-635.595	-194.319	-0.309	-0.003
-634.580	68.976	0.285	-0.295
-633.565	-200.000	-0.056	-0.322
-632.551	-200.000	0.030	0.164
-631.536	-153.403	-0.325	-0.023
-630.522	800.000	0.035	0.133
-629.507	147.691	0.140	-0.190
-628.492	-36.639	-0.233	0.127
-627.478	-83.504	-0.149	0.048
-626.463	37.091	-0.090	-0.080
-625.449	800.000	-0.055	0.239
-624.434	-137.816	0.219	-0.025
-623.419	150.637	-0.228	0.312
-622.405	-41.926	-0.179	0.092
-621.390	215.381	0.179	0.286
-620.376	-61.955	-0.168	-0.071
-619.361	-190.336	-0.188	0.002
-618.346	224.793	0.071	0.116
-617.332	-149.959	-0.115	0.009
-616.317	-126.434	0.521	-0.078
-615.303	-93.288	-0.447	0.125
-614.288	620.209	0.092	0.233
-613.273	-200.000	0.045	0.215
-612.259	-200.000	-0.002	0.021
-611.244	-200.000	-0.006	-0.306
-610.230	-130.493	-0.257	0.035
-609.215	-129.835	0.117	0.016
-608.201	-158.567	0.300	0.017
-607.186	-200.000	0.010	-0.199
-606.171	-34.693	-0.186	0.103
-605.157	800.000	-0.077	0.238
-604.142	372.337	0.063	-0.129
-603.128	0.301	0.229	0.165
-602.113	-200.000	-0.011	-0.444
-601.098	49.891	0.189	0.180
-600.084	-55.706	0.105	-0.047
-599.069	79.123	0.043	0.047
-598.055	-28.967	-0.060	0.034
-597.040	-19.615	0.148	-0.093
-596.025	-123.350	-0.185	0.030
-595.011	197.393	0.159	-0.245
-593.996	-62.878	-0.235	-0.098
-592.982	-133.515	-0.148	0.019
-591.967	-143.078	0.269	0.026
-590.952	-200.000	0.045	-0.273
-589.938	-152.802	0.324	-0.023
-588.923	-180.461	-0.206	0.004
-587.909	301.202	0.053	-0.098
-586.894	470.684	0.083	0.188
-585.879	-143.903	-0.193	-0.018
-584.865	-200.000	-0.024	0.111
-583.850	-200.000	-0.045	-0.346
-582.836	186.118	-0.259	-0.388
-581.821	114.318	0.191	-0.234
-580.806	-76.072	-0.378	-0.134
-579.792	174.247	0.244	0.355
-578.777	15.087	0.214	0.169
-577.763	-97.319	-0.220	-0.058
-576.748	-48.215	-0.186	-0.090
-575.733	800.000	0.117	-0.383
-574.719	674.505	-0.070	0.184
-573.704	303.706	-0.010	-0.019
-572.690	800.000	-0.046	-0.188
-571.675	350.535	-0.039	-0.078
-570.661	93.983	-0.166	0.190
-569.646	-55.377	-0.189	-0.085
-568.631	70.006	0.070	0.073
-567.617	-200.000	0.002	-0.195
-566.602	21.647	-0.312	0.256
-565.588	-65.475	0.172	0.069
-564.573	2.679	-0.373	-0.272
-563.558	800.000	0.085	0.298
-562.544	-200.000	0.025	0.367
-561.529	650.224	0.038	0.098
-560.515	-61.341	-0.052	-0.022
-559.500	800.000	0.051	0.196
-558.485	3.307	-0.326	-0.239
-557.471	-23.183	0.164	-0.099
-556.456	-200.000	0.008	0.107
-555.442	-105.787	0.419	0.095
-554.427	-46.271	-0.144	-0.071
-553.412	527.260	-0.237	-0.563
-552.398	-22.126	-0.255	0.156
-551.383	800.000	-0.006	-0.018
-550.369	561.549	-0.111	0.269
-549.354	-200.000	0.068	0.000
-548.339	793.986	0.032	0.088
-547.325	800.000	-0.112	-0.338
-546.310	-200.000	-0.035	-0.201
-545.296	619.950	-0.096	0.243
-544.281	-60.775	-0.150	0.064
-543.266	-200.000	-0.044	0.288
-542.252	210.498	-0.209	-0.330
-541.237	685.460	0.150	-0.395
-540.223	-29.533	-0.146	-0.084
-539.208	-200.000	-0.040	0.221
-538.193	167.317	0.177	0.254
-537.179	-46.156	-0.220	-0.109
-536.164	-34.145	0.019	0.011
-535.150	-86.257	0.282	-0.087
-534.135	-70.225	0.010	-0.004
-533.121	-200.000	0.009	-0.147
-532.106	630.758	0.014	-0.037
-531.091	-61.445	0.264	-0.112
-530.077	8.794	-0.155	0.118
-529.062	-200.000	0.012	0.063
-528.048	800.000	-0.065	0.233
-527.033	239.244	-0.152	-0.255
-526.018	800.000	-0.075	0.229
-525.004	800.000	0.079	-0.258
-523.989	651.796	-0.129	-0.332
-522.975	-200.000	0.007	-0.155
-521.960	800.000	0.060	-0.195
-520.945	-90.377	-0.149	0.044
-519.931	-108.118	0.206	-0.045
-518.916	-2.588	-0.099	0.070
-517.902	800.000	-0.027	0.096
-516.887	50.014	-0.211	-0.200
-515.872	6.885	-0.165	0.123
-514.858	-5.181	0.204	-0.141
-513.843	-73.963	-0.138	-0.050
-512.829	-22.581	-0.239	0.145
-511.814	-197.311	0.070	0.000
-510.799	-81.154	-0.364	-0.121
-509.785	-10.080	0.245	-0.163
-508.770	-200.000	-0.023	0.159
-507.756	683.376	0.059	-0.154
-506.741	211.269	-0.096	0.152
-505.726	-24.701	-0.289	0.172
-504.712	800.000	-0.075	-0.281
-503.697	800.000	-0.028	-0.097
-502.683	118.471	-0.216	-0.268
-501.668	222.976	-0.263	-0.427
-500.653	566.784	-0.209	0.509
-499.639	-136.855	-0.236	0.027
-498.624	-156.774	0.164	-0.010
-497.610	126.308	0.078	0.099
-496.595	-124.415	0.103	-0.016
-495.581	-200.000	-0.028	-0.253
-494.566	467.118	-0.126	0.285
-493.551	-154.983	0.148	0.010
-492.537	159.646	-0.132	-0.185
-491.522	615.928	0.093	0.235
-490.508	-59.622	0.194	0.083
-489.493	800.000	0.068	0.193
-488.478	-58.287	0.080	0.035
-487.464	-43.708	0.291	0.147
-486.449	0.221	-0.129	-0.093
-485.435	-200.000	-0.000	-0.145
-484.420	-200.000	-0.014	0.351
-483.405	209.277	0.291	0.457
-482.391	660.921	0.047	0.120
-481.376	43.700	-0.123	0.113
-480.362	83.476	0.066	-0.073
-479.347	90.897	0.106	0.119
-478.332	-170.385	-0.234	0.008
-477.318	-60.177	-0.115	-0.049
-476.303	800.000	0.041	-0.141
-475.289	-200.000	0.042	0.291
-474.274	236.836	-0.016	-0.027
-473.259	800.000	0.013	0.038
-472.245	275.417	-0.044	-0.079
-471.230	4.601	-0.223	0.164
-470.216	-200.000	-0.011	0.219
-469.201	416.168	-0.139	0.298
-468.186	154.343	0.116	-0.160
-467.172	-18.767	-0.220	0.137
-466.157	256.863	0.139	0.240
-465.143	88.210	-0.067	0.075
-464.128	-200.000	0.018	-0.152
-463.113	800.000	-0.060	-0.173
-462.099	-118.168	0.142	-0.025
-461.084	30.341	0.146	-0.125
-460.070	92.883	0.249	0.282
-459.055	145.638	0.101	-0.135
-458.040	128.193	-0.090	0.115
-457.026	800.000	-0.022	-0.067
-456.011	-200.000	0.013	-0.321
-454.997	92.716	0.046	0.052
-453.982	-20.994	-0.234	-0.144
-452.968	-40.096	0.298	0.156
-451.953	272.235	-0.058	0.103
-450.938	89.273	-0.242	-0.270
-449.924	160.175	-0.110	-0.153
-448.909	2.457	-0.188	0.136
-447.895	49.217	0.040	0.038
-446.880	-77.357	0.199	-0.069
-445.865	-200.000	0.052	-0.280
-444.851	-20.870	0.189	-0.116
-443.836	-76.322	0.118	-0.042
-442.822	-200.000	-0.069	0.364
-441.807	-48.561	-0.115	-0.056
-440.792	-90.531	-0.125	0.036
-439.778	-173.678	0.314	-0.009
-438.763	-85.277	-0.144	-0.045
-437.749	-200.000	-0.020	-0.209
-436.734	800.000	0.092	0.266
-435.719	69.509	0.117	-0.121
-434.705	-200.000	0.020	0.221
-433.690	-133.325	0.218	-0.027
-432.676	-134.944	-0.259	-0.031
-431.661	-67.284	0.108	0.042
-430.646	800.000	0.163	0.536
-429.632	-200.000	-0.000	0.146
-428.617	800.000	-0.078	-0.316
-427.603	69.805	-0.167	0.172
-426.588	-42.494	0.235	0.120
-425.573	-52.182	-0.136	-0.063
-424.559	-32.644	-0.043	-0.024
-423.544	-99.143	0.263	-0.067
-422.530	-82.748	-0.203	0.066
-421.515	-151.737	0.130	0.010
-420.500	6.805	0.327	-0.244
-419.486	-90.383	-0.387	-0.112
-418.471	-200.000	-0.009	0.256
-417.457	-132.433	-0.281	-0.036
-416.442	800.000	0.050	0.164
-415.428	95.773	-0.152	-0.174
-414.413	46.444	-0.091	0.084
-413.398	175.452	-0.147	0.214
-412.384	56.410	0.163	-0.158
-411.369	-36.949	-0.219	0.118
-410.355	-147.738	0.191	-0.016
-409.340	119.907	-0.075	-0.094
-408.325	-54.177	-0.214	-0.098
-407.311	-31.459	-0.230	-0.129
-406.296	800.000	0.048	-0.176
-405.282	-70.046	-0.252	0.096
-404.267	-98.641	-0.136	-0.035
-403.252	195.651	0.188	0.286
-402.238	25.371	-0.229	-0.190
-401.223	124.106	0.142	-0.179
-400.209	-200.000	-0.013	-0.231
-399.194	415.714	0.015	0.031
-398.179	-200.000	-0.113	-0.575
-397.165	-200.000	-0.024	0.181
-396.150	-24.318	-0.134	0.080
-395.136	61.887	-0.202	-0.201
-394.121	-200.000	-0.001	0.206
-393.106	346.708	0.175	-0.344
-392.092	303.597	-0.139	-0.258
-391.077	800.000	0.004	0.016
-390.063	571.093	-0.085	-0.207
-389.048	153.065	0.186	0.255
-388.033	-111.957	0.490	-0.099
-387.019	91.006	0.037	-0.041
-386.004	109.458	-0.048	0.058
-384.990	-71.092	-0.236	0.089
-383.975	2.436	0.400	0.290
-382.960	-200.000	0.039	-0.279
-381.946	-200.000	0.049	0.314
-380.931	-99.107	-0.068	0.017
-379.917	8.449	0.082	0.062
-378.902	-169.758	-0.655	-0.024
-377.888	44.702	-0.286	0.263
-376.873	-42.033	-0.095	-0.048
-375.858	-200.000	0.066	-0.500
-374.844	1.058	0.039	0.028
-373.829	-41.407	0.230	-0.118
-372.815	-125.051	-0.235	-0.036
-371.800	236.812	0.052	0.087
-370.785	-200.000	0.071	0.337
-369.771	-46.857	0.121	0.059
-368.756	-28.828	0.160	-0.092
-367.742	143.160	0.219	-0.292
-366.727	612.838	-0.156	-0.389
-365.712	-95.091	-0.366	0.099
-364.698	-200.000	-0.025	-0.135
-363.683	525.839	-0.071	0.168
-362.669	-1.086	-0.055	-0.039
-361.654	-73.457	-0.395	0.144
-360.639	105.402	0.162	0.192
-359.625	-77.626	0.335	0.116
-358.610	-58.206	0.154	0.067
-357.596	-67.480	0.127	-0.050
-356.581	-145.660	-0.290	0.026
-355.566	-27.696	0.188	0.109
-354.552	183.475	0.093	0.137
-353.537	-21.589	0.175	-0.106
-352.523	-98.124	0.092	-0.024
-351.508	-35.358	-0.030	0.016
-350.493	103.431	0.094	0.110
-349.479	248.718	0.075	0.127
-348.464	128.698	0.101	-0.129
-347.450	-200.000	-0.025	-0.292
-346.435	173.957	0.072	-0.104
-345.420	800.000	-0.084	0.239
-344.406	395.815	0.206	0.429
-343.391	110.315	-0.020	0.024
-342.377	-102.451	0.155	-0.037
-341.362	-66.431	-0.143	0.057
-340.348	-35.533	0.237	0.128
-339.333	800.000	-0.033	-0.121
-338.318	-200.000	-0.081	-0.504
-337.304	255.352	-0.197	-0.337
-336.289	-200.000	-0.037	0.269
-335.275	-200.000	0.038	0.338
-334.260	-39.929	-0.273	-0.142
-333.245	-200.000	-0.010	0.100
-332.231	-200.000	-0.034	0.247
-331.216	799.274	-0.035	0.097
-330.202	689.797	-0.054	-0.140
-329.187	-84.872	0.090	0.028
-328.172	800.000	0.058	0.214
-327.158	189.554	0.153	-0.228
-326.143	-98.188	0.331	0.085
-325.129	626.613	-0.081	0.204
-324.114	-82.240	0.195	-0.063
-323.099	-76.671	0.128	0.045
-322.085	-200.000	0.006	0.418
-321.070	-70.083	0.132	-0.050
-320.056	-166.917	-0.164	-0.007
-319.041	-7.044	0.132	0.090
-318.026	-161.747	0.156	0.008
-317.012	420.892	-0.071	-0.151
-315.997	266.517	0.090	0.156
-314.983	-21.911	0.074	0.045
-313.968	-90.656	0.071	-0.021
-312.953	175.944	0.162	-0.235
-311.939	800.000	0.094	-0.288
-310.924	-200.000	0.012	-0.371
-309.910	-18.504	-0.221	0.137
-308.895	-114.099	0.216	-0.042
-307.880	37.877	-0.124	0.110
-306.866	800.000	-0.100	-0.323
-305.851	40.879	-0.241	0.217
-304.837	-200.000	0.020	0.125
-303.822	-129.073	-0.220	-0.031
-302.807	-200.000	-0.034	-0.186
-301.793	437.484	0.049	-0.106
-300.778	694.987	-0.159	-0.417
-299.764	-200.000	-0.016	-0.103
-298.749	28.025	-0.084	0.071
-297.735	-36.827	-0.080	0.043
-296.720	-6.193	-0.092	0.062
-295.705	-181.155	0.145	-0.003
-294.691	611.038	-0.040	-0.100
-293.676	2.147	0.143	-0.103
-292.662	282.106	-0.111	0.198
-291.647	401.872	-0.118	-0.246
-290.632	-33.002	0.377	0.209
-289.618	68.174	0.069	0.070
-288.603	72.719	0.185	-0.192
-287.589	0.378	0.177	0.126
-286.574	-200.000	0.005	0.067
-285.559	125.388	-0.171	0.215
-284.545	194.639	0.322	0.486
-283.530	-43.079	0.195	0.098
-282.516	-73.038	0.215	0.079
-281.501	-143.812	-0.295	-0.028
-280.486	-71.823	-0.268	0.099
-279.472	-74.907	-0.369	-0.132
-278.457	-55.450	-0.280	-0.125
-277.443	42.620	-0.259	-0.235
-276.428	179.744	0.123	0.179
-275.413	606.628	-0.064	0.160
-274.399	34.267	0.318	-0.276
-273.384	33.099	0.192	-0.165
-272.370	-172.237	0.237	-0.008
-271.355	-35.857	0.221	0.119
-270.340	709.085	0.091	-0.239
-269.326	-107.681	0.268	-0.058
-268.311	800.000	-0.029	0.105
-267.297	-96.562	0.236	-0.062
-266.282	-107.701	0.177	-0.039
-265.267	-49.892	0.229	0.108
-264.253	-157.406	0.240	-0.014
-263.238	142.067	-0.018	-0.024
-262.224	-200.000	0.056	0.278
-261.209	124.914	-0.151	0.190
-260.195	24.852	-0.334	-0.275
-259.180	-50.873	0.156	0.073
-258.165	800.000	0.033	0.119
-257.151	709.827	0.116	-0.306
-256.136	31.231	-0.090	-0.077
-255.122	-101.158	-0.018	-0.005
-254.107	462.432	-0.239	-0.531
-253.092	-200.000	-0.002	-0.027
-252.078	-53.609	-0.135	0.062
-251.063	-150.732	-0.385	-0.029
-250.049	-43.586	0.140	0.070
-249.034	-92.154	0.318	0.089
-248.019	101.958	-0.116	-0.135
-247.005	-26.876	-0.087	-0.050
-245.990	536.738	0.028	-0.066
-244.976	16.209	0.210	0.165
-243.961	13.786	-0.267	-0.207
-242.946	-27.760	0.309	-0.178
-241.932	467.197	0.067	-0.150
-240.917	192.823	0.050	0.075
-239.903	460.633	-0.051	-0.113
-238.888	-200.000	-0.034	-0.291
-237.873	-20.063	-0.068	0.042
-236.859	23.636	-0.464	0.380
-235.844	783.505	-0.108	-0.293
-234.830	-181.201	0.305	0.006
-233.815	-114.096	0.052	0.010
-232.800	554.872	-0.110	0.262
-231.786	391.398	-0.044	0.090
-230.771	24.828	-0.189	0.155
-229.757	149.621	0.193	-0.260
-228.742	158.888	0.106	0.146
-227.727	-63.635	-0.111	-0.045
-226.713	120.761	-0.111	-0.137
-225.698	-136.418	-0.201	-0.023
-224.684	366.917	0.056	0.112
-223.669	198.128	0.145	0.220
-222.655	-97.691	0.360	0.093
-221.640	-93.862	-0.192	0.052
-220.625	-105.083	0.174	-0.040
-219.611	-200.000	0.020	-0.203
-218.596	-135.126	-0.175	-0.021
-217.582	617.729	0.040	-0.099
-216.567	172.849	0.083	-0.118
-215.552	-92.117	0.175	0.049
-214.538	629.564	-0.043	-0.109
-213.523	-143.511	0.254	0.024
-212.509	256.160	0.051	-0.086
-211.494	-26.342	0.073	-0.043
-210.479	34.805	0.228	-0.198
-209.465	-13.630	0.362	-0.233
-208.450	13.369	-0.241	0.186
-207.436	-131.264	0.043	-0.006
-206.421	-124.583	0.318	0.049
-205.406	800.000	-0.117	0.382
-204.392	800.000	-0.030	-0.088
-203.377	-79.482	-0.250	0.084
-202.363	-200.000	-0.042	0.405
-201.348	65.348	0.121	0.122
-200.333	-70.739	0.079	0.030
-199.319	-200.000	-0.009	0.236
-198.304	-116.796	-0.157	-0.029
-197.290	-143.020	0.573	0.055
-196.275	-129.493	-0.163	0.022
-195.260	218.808	0.180	-0.286
-194.246	-4.928	-0.160	-0.109
-193.231	438.706	0.064	0.138
-192.217	-60.946	0.246	0.103
-191.202	-1.829	0.164	0.114
-190.187	-159.513	-0.101	0.006
-189.173	-200.000	-0.004	0.025
-188.158	185.805	-0.049	-0.072
-187.144	25.252	-0.200	-0.165
-186.129	263.356	-0.084	0.145
-185.114	204.747	0.243	0.374
-184.100	18.904	0.100	0.079
-183.085	31.731	0.113	0.096
-182.071	-200.000	0.061	0.311
-181.056	800.000	-0.108	-0.319
-180.042	-116.766	0.093	0.017
-179.027	44.688	0.274	-0.250
-178.012	-78.923	-0.181	0.061
-176.998	-199.116	0.083	0.000
-175.983	241.765	0.014	0.023
-174.969	498.356	0.014	-0.032
-173.954	187.685	-0.166	-0.246
-172.939	-127.574	0.081	0.012
-171.925	-91.441	-0.025	0.007
-170.910	-200.000	-0.012	0.113
-169.896	-200.000	0.046	-0.300
-168.881	100.365	0.052	0.059
-167.866	83.147	0.120	0.130
-166.852	-200.000	-0.015	0.304
-165.837	353.636	0.140	0.276
-164.823	-25.094	0.301	-0.177
-163.808	-90.495	-0.363	0.104
-162.793	-120.872	0.202	-0.034
-161.779	210.709	0.195	0.303
-160.764	-200.000	0.049	-0.344
-159.750	800.000	-0.126	0.512
-158.735	-70.522	-0.031	-0.012
-157.720	-189.245	-0.374	0.004
-156.706	-100.826	-0.161	-0.039
-155.691	135.589	-0.087	0.113
-154.677	246.575	0.164	0.274
-153.662	800.000	-0.056	0.233
-152.647	224.107	0.102	-0.163
-151.633	-67.766	0.256	-0.099
-150.618	-87.600	-0.478	0.143
-149.604	-71.371	0.254	-0.094
-148.589	-45.699	-0.322	0.158
-147.574	-200.000	-0.022	-0.246
-146.560	-143.926	0.110	0.010
-145.545	10.373	0.376	-0.284
-144.531	30.472	-0.151	0.127
-143.516	129.174	-0.141	0.178
-142.502	110.183	0.283	0.336
-141.487	44.067	0.365	-0.331
-140.472	-200.000	0.029	-0.254
-139.458	256.307	0.180	-0.307
-138.443	-125.258	-0.225	0.034
-137.429	525.777	0.067	0.155
-136.414	64.190	0.066	-0.066
-135.399	733.361	-0.008	-0.022
-134.385	-135.784	-0.287	-0.034
-133.370	-112.073	-0.120	-0.024
-132.356	-34.104	-0.109	-0.060
-131.341	-200.000	0.011	0.100
-130.326	378.888	0.100	0.203
-129.312	-77.679	-0.123	0.042
-128.297	-200.000	-0.000	0.007
-127.283	62.909	-0.018	0.018
-126.268	-200.000	-0.013	0.161
-125.253	64.664	0.151	0.151
-124.239	-36.142	0.190	-0.102
-123.224	23.316	0.164	0.134
-122.210	-200.000	0.002	0.059
-121.195	-39.881	0.101	0.052
