DTS Sentinel unit serial number:	SN413079Multiplexer serial number:	ORYXHardware model number:	OX4-SRSoftware version number:	ORYX F/W v4.00 Oryx Data Collector v3.7.2.0data status	okinstallation	princeton_trtdifferential loss correction	single-endedforward channel	channel 4reverse channel	N/Adate	2019/09/16time	11:57:34forward acquisition time	60.00reverse acquisition time	0.00gamma	496.2192k internal	0.2294k external	0.2294temperature offset calibration	0.9950default loss term (dB/km)	0.3790temperature slope calibration	1.0000multiplexer offset coefficient	1.0000multiplexer slope coefficient	1.0000fibre end	0.00T internal ref (°C)	38.56T ext. ref 1 (°C)	13.14T ext. ref 2 (°C)	35.85length (m)	temperature (°C)	Stokes	anti-Stokes-747.200	800.000	-0.036	0.159
-746.185	-200.000	0.037	0.404
-745.171	-26.673	-0.094	-0.056
-744.156	251.135	0.099	-0.172
-743.142	-200.000	-0.049	-0.235
-742.127	-200.000	0.002	0.133
-741.112	-2.601	0.125	-0.089
-740.098	-200.000	0.012	0.155
-739.083	-182.426	0.262	-0.005
-738.069	800.000	-0.030	-0.086
-737.054	241.820	0.164	0.281
-736.039	-33.693	-0.191	0.108
-735.025	576.925	0.056	0.140
-734.010	800.000	0.075	0.218
-732.996	105.869	-0.138	-0.167
-731.981	185.533	-0.176	-0.267
-730.966	-14.047	-0.284	0.187
-729.952	-132.382	-0.113	0.015
-728.937	-15.139	-0.037	-0.024
-727.923	-99.518	-0.186	-0.048
-726.908	800.000	-0.033	-0.129
-725.894	59.519	-0.128	0.129
-724.879	-152.647	-0.266	0.019
-723.864	-200.000	0.055	0.000
-722.850	-61.683	-0.353	-0.151
-721.835	-200.000	-0.020	-0.123
-720.821	-200.000	-0.007	-0.228
-719.806	-123.058	-0.222	-0.036
-718.791	-200.000	-0.021	0.106
-717.777	-24.633	-0.193	0.117
-716.762	2.595	0.103	-0.077
-715.748	800.000	-0.074	0.321
-714.733	722.415	-0.157	-0.426
-713.718	-99.241	0.426	-0.110
-712.704	-120.571	-0.177	-0.031
-711.689	-200.000	0.031	-0.300
-710.675	368.674	-0.117	-0.241
-709.660	-79.280	-0.157	0.054
-708.645	425.382	0.091	0.201
-707.631	-2.179	-0.068	0.049
-706.616	-151.369	0.180	-0.014
-705.602	-107.921	-0.134	-0.030
-704.587	-123.006	-0.217	-0.036
-703.572	45.380	0.162	-0.153
-702.558	545.391	0.070	-0.171
-701.543	-45.050	0.206	-0.104
-700.529	-81.198	-0.376	-0.127
-699.514	161.515	-0.062	-0.089
-698.499	88.190	-0.162	-0.183
-697.485	800.000	0.057	0.182
-696.470	167.751	0.087	-0.126
-695.456	-5.505	0.231	-0.162
-694.441	18.053	0.086	0.070
-693.426	-99.632	-0.283	-0.072
-692.412	-64.206	-0.157	-0.065
-691.397	-78.670	0.167	-0.058
-690.383	-200.000	-0.054	-0.317
-689.368	-123.092	-0.189	0.031
-688.354	-27.649	0.144	-0.085
-687.339	218.750	0.056	-0.091
-686.324	-47.910	-0.239	-0.118
-685.310	-131.924	0.134	0.018
-684.295	-200.000	0.218	-0.001
-683.281	103.485	0.122	-0.146
-682.266	-1.401	-0.238	-0.171
-681.251	800.000	0.016	0.048
-680.237	-173.801	-0.136	0.004
-679.222	-200.000	0.242	-0.001
-678.208	-100.231	-0.189	-0.048
-677.193	-28.034	0.285	-0.168
-676.178	-82.689	-0.133	-0.044
-675.164	-100.915	0.457	-0.115
-674.149	-122.019	0.142	-0.024
-673.135	522.227	-0.137	-0.328
-672.120	-106.484	-0.181	0.041
-671.105	75.418	0.007	0.007
-670.091	22.517	0.091	0.076
-669.076	800.000	-0.035	-0.139
-668.062	-157.319	0.143	-0.009
-667.047	499.214	0.079	-0.185
-666.032	267.081	-0.132	-0.236
-665.018	-200.000	-0.018	-0.131
-664.003	-200.000	-0.026	-0.176
-662.989	674.983	-0.022	-0.059
-661.974	240.574	0.032	-0.054
-660.959	11.710	-0.246	-0.193
-659.945	800.000	0.089	-0.339
-658.930	-109.824	0.175	0.037
-657.916	-79.936	-0.111	-0.038
-656.901	83.682	-0.076	-0.085
-655.886	368.243	-0.089	0.183
-654.872	283.202	-0.179	0.327
-653.857	-58.638	-0.197	-0.087
-652.843	-83.818	0.089	0.029
-651.828	-78.890	-0.204	0.071
-650.814	-200.000	0.013	-0.228
-649.799	800.000	0.116	-0.356
-648.784	-200.000	0.115	-0.521
-647.770	87.452	-0.206	0.233
-646.755	800.000	0.041	-0.165
-645.741	-200.000	0.004	0.205
-644.726	800.000	0.078	0.318
-643.711	-102.310	0.056	-0.014
-642.697	-200.000	0.002	0.208
-641.682	68.487	0.113	-0.118
-640.668	187.947	0.158	0.240
-639.653	15.718	0.235	-0.189
-638.638	-200.000	0.015	-0.107
-637.624	-19.006	0.110	-0.069
-636.609	50.065	-0.223	-0.214
-635.595	-38.412	0.105	-0.057
-634.580	-200.000	-0.004	-0.143
-633.565	800.000	-0.076	-0.214
-632.551	800.000	-0.111	0.404
-631.536	800.000	0.045	0.174
-630.522	118.766	-0.067	0.084
-629.507	-60.269	0.290	-0.126
-628.492	-37.542	-0.171	0.093
-627.478	-200.000	-0.028	-0.154
-626.463	-200.000	-0.004	0.226
-625.449	-41.414	0.262	-0.138
-624.434	-128.804	-0.246	0.035
-623.419	-5.424	-0.211	-0.147
-622.405	559.851	0.087	-0.215
-621.390	103.548	-0.251	0.300
-620.376	-2.965	0.315	-0.224
-619.361	-68.189	-0.170	-0.067
-618.346	-117.138	-0.312	-0.058
-617.332	-200.000	-0.011	-0.139
-616.317	229.944	-0.109	0.181
-615.303	-24.144	0.166	0.101
-614.288	-34.991	-0.210	0.117
-613.273	-200.000	0.029	0.357
-612.259	-187.062	-0.164	0.002
-611.244	-99.674	0.276	0.070
-610.230	-200.000	-0.015	-0.084
-609.215	-72.936	0.234	0.087
-608.201	-176.318	0.159	-0.004
-607.186	-200.000	-0.016	0.151
-606.171	-200.000	-0.010	-0.197
-605.157	-106.756	0.470	-0.106
-604.142	42.927	0.302	-0.280
-603.128	362.570	-0.076	-0.156
-602.113	44.878	-0.101	-0.095
-601.098	89.951	-0.092	-0.105
-600.084	296.692	0.022	-0.042
-599.069	165.278	0.105	0.151
-598.055	397.987	0.031	-0.066
-597.040	94.755	0.167	-0.193
-596.025	800.000	0.080	0.249
-595.011	-100.123	0.031	-0.008
-593.996	205.967	-0.054	0.085
-592.982	-31.048	0.212	0.122
-591.967	-200.000	0.002	-0.436
-590.952	329.976	0.125	-0.244
-589.938	-200.000	-0.008	-0.156
-588.923	-44.169	-0.038	-0.019
-587.909	-200.000	-0.043	-0.244
-586.894	123.182	-0.164	0.208
-585.879	45.666	-0.048	-0.045
-584.865	650.115	0.100	0.260
-583.850	-151.498	0.345	-0.026
-582.836	44.920	-0.200	0.187
-581.821	-200.000	0.005	-0.103
-580.806	93.659	-0.287	0.331
-579.792	387.778	0.125	0.264
-578.777	-26.831	-0.214	0.127
-577.763	238.211	0.139	-0.235
-576.748	410.178	-0.036	-0.078
-575.733	-200.000	-0.034	-0.183
-574.719	-200.000	0.216	-0.000
-573.704	172.917	0.046	-0.067
-572.690	14.266	-0.236	0.187
-571.675	800.000	-0.039	-0.164
-570.661	800.000	-0.036	-0.119
-569.646	93.832	0.120	-0.138
-568.631	-200.000	-0.024	0.156
-567.617	-76.312	0.204	-0.073
-566.602	-104.670	-0.099	0.023
-565.588	-78.706	0.257	0.089
-564.573	-0.369	-0.260	-0.187
-563.558	1.579	0.271	0.198
-562.544	-55.716	0.302	0.137
-561.529	152.586	-0.113	0.157
-560.515	34.513	0.152	-0.135
-559.500	-20.634	0.227	-0.141
-558.485	800.000	-0.059	0.183
-557.471	-19.930	-0.049	-0.031
-556.456	175.764	0.165	0.244
-555.442	-102.041	-0.309	-0.076
-554.427	5.933	0.139	-0.105
-553.412	-34.409	0.259	-0.144
-552.398	-108.521	-0.438	0.096
-551.383	50.967	0.119	0.114
-550.369	146.920	-0.256	-0.349
-549.354	800.000	0.020	-0.068
-548.339	800.000	-0.028	-0.099
-547.325	-18.585	0.190	-0.120
-546.310	81.924	-0.267	0.293
-545.296	-3.438	-0.204	0.144
-544.281	101.017	0.109	-0.129
-543.266	-200.000	0.016	0.089
-542.252	-42.826	0.168	-0.086
-541.237	261.985	-0.062	-0.110
-540.223	800.000	0.075	-0.233
-539.208	-200.000	-0.000	0.180
-538.193	800.000	-0.047	-0.178
-537.179	-114.727	0.394	-0.076
-536.164	-68.108	-0.315	-0.125
-535.150	35.334	-0.308	0.274
-534.135	-127.372	-0.137	0.020
-533.121	-63.725	0.140	0.058
-532.106	800.000	0.128	-0.383
-531.091	545.141	-0.151	-0.365
-530.077	482.821	-0.022	-0.050
-529.062	305.696	-0.117	0.221
-528.048	-200.000	-0.157	0.001
-527.033	-93.524	-0.262	0.073
-526.018	126.147	-0.171	0.219
-525.004	233.379	0.163	-0.271
-523.989	298.271	-0.083	-0.154
-522.975	-200.000	0.047	0.272
-521.960	800.000	0.070	-0.254
-520.945	800.000	-0.055	-0.218
-519.931	800.000	0.055	0.237
-518.916	-200.000	-0.212	0.000
-517.902	78.571	-0.225	0.243
-516.887	283.928	0.088	0.160
-515.872	-200.000	0.028	-0.361
-514.858	-94.398	-0.085	-0.024
-513.843	-200.000	0.020	0.215
-512.829	-49.957	-0.104	-0.050
-511.814	-175.672	0.080	0.002
-510.799	668.592	-0.135	-0.355
-509.785	33.154	0.166	0.146
-508.770	136.604	0.316	-0.418
-507.756	-82.029	0.219	-0.072
-506.741	117.320	-0.350	-0.436
-505.726	264.394	0.114	-0.201
-504.712	800.000	-0.049	0.142
-503.697	-83.893	-0.382	-0.123
-502.683	-131.045	0.031	-0.004
-501.668	-95.039	-0.107	-0.029
-500.653	-200.000	-0.037	-0.263
-499.639	706.147	-0.056	-0.151
-498.624	6.003	0.044	0.033
-497.610	-200.000	-0.045	-0.249
-496.595	-117.870	0.211	0.038
-495.581	-54.924	-0.157	0.072
-494.566	-176.526	-0.151	-0.004
-493.551	-200.000	0.019	-0.229
-492.537	-163.422	-0.248	-0.012
-491.522	147.677	0.089	0.122
-490.508	800.000	0.034	0.119
-489.493	-67.861	0.266	-0.105
-488.478	800.000	-0.072	0.242
-487.464	800.000	0.066	-0.199
-486.449	356.140	-0.124	-0.249
-485.435	72.048	-0.193	-0.204
-484.420	-7.679	0.234	-0.160
-483.405	136.156	-0.132	-0.174
-482.391	53.542	-0.069	-0.067
-481.376	82.431	-0.100	0.110
-480.362	282.272	-0.105	0.191
-479.347	35.933	0.425	-0.379
-478.332	16.207	0.342	0.273
-477.318	-116.185	-0.509	-0.096
-476.303	148.006	0.073	-0.100
-475.289	-84.745	-0.275	0.088
-474.274	-200.000	0.012	0.171
-473.259	-15.808	-0.047	0.030
-472.245	568.303	-0.029	-0.071
-471.230	-12.432	0.266	-0.176
-470.216	-80.633	0.330	0.111
-469.201	800.000	0.091	-0.259
-468.186	-155.117	0.136	0.009
-467.172	-200.000	0.041	0.289
-466.157	800.000	-0.017	0.070
-465.143	91.664	-0.162	0.185
-464.128	405.709	-0.139	-0.297
-463.113	-200.000	-0.003	-0.206
-462.099	-115.305	-0.128	0.025
-461.084	-79.350	0.275	-0.094
-460.070	446.447	0.026	-0.057
-459.055	-81.062	-0.290	0.097
-458.040	-52.798	-0.068	0.032
-457.026	-18.712	-0.332	-0.209
-456.011	55.876	-0.141	-0.139
-454.997	231.533	0.131	-0.217
-453.982	34.727	0.047	-0.041
-452.968	289.739	0.215	0.395
-451.953	165.959	0.190	0.271
-450.938	781.992	-0.062	0.173
-449.924	7.250	-0.212	0.160
-448.909	441.336	0.105	-0.231
-447.895	800.000	0.034	0.141
-446.880	-200.000	0.069	-0.416
-445.865	-164.407	0.381	0.018
-444.851	-200.000	-0.120	-0.000
-443.836	-60.974	-0.082	0.035
-442.822	-82.742	0.149	0.049
-441.807	97.981	-0.068	-0.079
-440.792	139.016	0.188	0.250
-439.778	304.669	0.133	0.250
-438.763	-179.163	-0.465	0.010
-437.749	-200.000	-0.023	0.188
-436.734	10.124	-0.040	0.031
-435.719	324.756	-0.029	-0.056
-434.705	-41.038	0.139	-0.072
-433.690	651.185	-0.039	0.102
-432.676	-200.000	0.029	0.254
-431.661	-136.424	-0.506	0.059
-430.646	17.455	0.148	-0.119
-429.632	-20.650	0.156	0.096
-428.617	800.000	0.035	0.134
-427.603	-178.267	0.310	0.007
-426.588	507.584	-0.088	-0.207
-425.573	-127.497	-0.397	-0.058
-424.559	-144.626	-0.276	-0.026
-423.544	800.000	-0.072	0.257
-422.530	-75.855	0.256	-0.092
-421.515	-71.835	0.100	0.038
-420.500	2.514	-0.329	0.241
-419.486	-7.466	-0.364	0.249
-418.471	-140.173	0.070	-0.007
-417.457	-41.025	0.117	-0.061
-416.442	207.824	-0.219	-0.346
-415.428	-94.276	0.276	0.076
-414.413	294.007	0.046	-0.085
-413.398	-3.683	-0.154	-0.108
-412.384	-104.785	-0.206	-0.048
-411.369	-78.455	-0.129	0.045
-410.355	-22.701	-0.164	-0.100
-409.340	137.656	-0.111	0.147
-408.325	719.804	0.073	0.197
-407.311	-101.775	-0.298	0.073
-406.296	-104.071	0.559	0.131
-405.282	-200.000	0.002	-0.015
-404.267	800.000	-0.080	-0.243
-403.252	-85.267	-0.244	-0.077
-402.238	-200.000	0.019	-0.173
-401.223	44.397	-0.102	0.095
-400.209	-78.658	0.162	-0.056
-399.194	119.642	0.092	0.115
-398.179	800.000	0.038	0.137
-397.165	50.226	-0.131	0.125
-396.150	-25.723	-0.249	-0.148
-395.136	-103.663	-0.207	-0.049
-394.121	-122.108	-0.392	-0.065
-393.106	-162.753	0.227	0.011
-392.092	86.175	0.068	-0.076
-391.077	-136.558	-0.202	0.024
-390.063	800.000	-0.019	-0.060
-389.048	-200.000	0.047	0.349
-388.033	-2.341	-0.415	-0.294
-387.019	-37.767	0.243	-0.130
-386.004	800.000	0.063	0.249
-384.990	-148.684	-0.278	-0.023
-383.975	24.372	0.149	0.125
-382.960	-200.000	0.003	0.019
-381.946	-200.000	-0.028	-0.207
-380.931	-200.000	-0.059	-0.427
-379.917	33.947	0.130	-0.114
-378.902	800.000	-0.069	0.248
-377.888	-64.728	0.174	0.071
-376.873	-1.159	0.456	-0.325
-375.858	800.000	0.079	0.293
-374.844	52.079	0.155	0.149
-373.829	-99.704	0.255	0.064
-372.815	-131.757	-0.227	-0.030
-371.800	-79.952	-0.179	0.061
-370.785	-62.217	0.023	-0.010
-369.771	36.873	-0.055	-0.049
-368.756	-200.000	0.356	-0.001
-367.742	288.541	-0.199	0.362
-366.727	-200.000	0.015	0.316
-365.712	-200.000	0.035	-0.198
-364.698	163.082	-0.201	-0.284
-363.683	-106.952	-0.057	0.013
-362.669	-30.677	-0.194	-0.111
-361.654	121.102	0.193	-0.242
-360.639	-155.363	0.160	-0.010
-359.625	2.568	0.281	-0.205
-358.610	-200.000	-0.079	-0.519
-357.596	-83.860	0.007	-0.002
-356.581	317.993	0.164	0.312
-355.566	-139.995	0.342	0.036
-354.552	800.000	-0.097	0.322
-353.537	-200.000	0.001	0.148
-352.523	99.538	-0.026	0.031
-351.508	28.692	-0.118	-0.100
-350.493	274.875	-0.049	0.087
-349.479	-200.000	0.010	0.125
-348.464	800.000	0.070	-0.259
-347.450	-200.000	-0.000	-0.048
-346.435	-200.000	0.038	-0.296
-345.420	800.000	0.061	0.197
-344.406	46.156	0.238	-0.222
-343.391	-42.140	-0.086	-0.044
-342.377	-190.002	-0.138	0.002
-341.362	800.000	-0.028	0.097
-340.348	-101.225	-0.337	0.083
-339.333	307.075	-0.075	0.141
-338.318	305.897	0.139	0.261
-337.304	154.068	0.146	0.202
-336.289	25.459	-0.202	-0.169
-335.275	800.000	-0.036	0.151
-334.260	-47.180	0.329	0.161
-333.245	-53.720	-0.161	0.074
-332.231	-103.784	0.206	0.049
-331.216	-21.673	0.191	-0.117
-330.202	-34.055	-0.050	-0.028
-329.187	-11.908	-0.221	-0.146
-328.172	800.000	0.053	-0.184
-327.158	372.979	0.107	0.220
-326.143	-200.000	0.036	0.180
-325.129	190.356	0.115	-0.173
-324.114	401.258	-0.181	-0.382
-323.099	-156.785	0.107	0.007
-322.085	800.000	-0.025	-0.075
-321.070	800.000	-0.009	-0.026
-320.056	39.022	-0.088	-0.079
-319.041	-66.983	-0.123	0.049
-318.026	-155.123	-0.211	-0.014
-317.012	-92.478	-0.313	0.088
-315.997	-105.537	0.184	-0.042
-314.983	800.000	-0.046	-0.187
-313.968	800.000	-0.042	0.144
-312.953	32.234	-0.059	0.051
-311.939	-28.499	0.064	0.037
-310.924	800.000	0.074	0.291
-309.910	-200.000	0.031	0.160
-308.895	-129.899	0.190	0.026
-307.880	-67.320	-0.035	0.014
-306.866	-79.144	-0.352	-0.120
-305.851	183.086	0.018	-0.027
-304.837	-7.838	-0.067	0.046
-303.822	-196.211	-0.415	0.003
-302.807	-108.990	-0.214	0.046
-301.793	539.490	0.151	-0.361
-300.778	223.738	-0.094	0.152
-299.764	489.107	-0.174	0.400
-298.749	-25.439	0.296	0.176
-297.735	91.433	0.061	-0.068
-296.720	-185.222	-0.079	-0.001
-295.705	-200.000	0.036	0.315
-294.691	122.111	0.101	0.127
-293.676	-31.017	0.133	0.075
-292.662	-31.178	0.071	-0.040
-291.647	464.920	0.046	-0.103
-290.632	-18.929	-0.123	0.077
-289.618	-69.062	0.301	0.117
-288.603	800.000	0.049	-0.154
-287.589	800.000	-0.040	-0.128
-286.574	-123.497	0.053	-0.008
-285.559	59.819	-0.150	-0.149
-284.545	800.000	0.117	0.437
-283.530	-200.000	-0.054	0.506
-282.516	0.073	-0.173	-0.124
-281.501	-49.949	-0.032	0.015
-280.486	-72.139	-0.094	0.035
-279.472	-45.163	-0.088	-0.044
-278.457	-100.297	-0.169	-0.042
-277.443	12.308	-0.096	0.074
-276.428	344.438	-0.129	0.254
-275.413	0.873	0.079	0.057
-274.399	-124.174	0.298	-0.047
-273.384	-200.000	-0.023	-0.285
-272.370	-200.000	0.049	-0.242
-271.355	-155.824	0.054	0.003
-270.340	160.632	-0.082	-0.115
-269.326	26.302	-0.197	-0.165
-268.311	61.658	0.274	0.274
-267.297	369.593	0.077	0.156
-266.282	-84.507	-0.610	-0.193
-265.267	110.655	0.213	-0.257
-264.253	-89.948	0.320	0.094
-263.238	-146.778	0.249	-0.022
-262.224	654.884	-0.169	0.436
-261.209	-0.692	-0.307	0.219
-260.195	154.595	0.211	-0.290
-259.180	132.582	-0.161	-0.208
-258.165	297.146	0.087	-0.160
-257.151	800.000	-0.026	0.098
-256.136	-200.000	-0.026	0.431
-255.122	-131.935	-0.129	0.017
-254.107	506.807	0.098	0.227
-253.092	-200.000	-0.004	0.365
-252.078	729.980	-0.027	0.073
-251.063	-139.685	0.212	-0.023
-250.049	178.910	0.172	0.252
-249.034	800.000	-0.101	-0.363
-248.019	-2.666	0.114	-0.080
-247.005	358.927	0.058	0.117
-245.990	254.944	-0.025	0.043
-244.976	741.124	0.066	-0.177
-243.961	189.792	0.102	0.154
-242.946	-9.796	0.197	-0.132
-241.932	103.377	0.198	0.233
-240.917	-52.100	-0.193	0.090
-239.903	-49.045	0.273	0.131
-238.888	-8.537	0.171	0.115
-237.873	189.417	0.053	0.080
-236.859	800.000	-0.057	0.180
-235.844	-200.000	-0.052	-0.321
-234.830	-104.754	-0.230	-0.053
-233.815	-200.000	-0.020	0.229
-232.800	673.900	0.061	0.160
-231.786	-29.508	0.307	-0.176
-230.771	-10.621	-0.246	-0.163
-229.757	-200.000	0.024	0.131
-228.742	-10.526	-0.263	-0.174
-227.727	800.000	0.089	-0.369
-226.713	184.812	0.140	-0.208
-225.698	-134.772	-0.276	0.034
-224.684	-200.000	-0.020	0.158
-223.669	67.322	0.159	-0.162
-222.655	-79.174	-0.307	0.104
-221.640	3.049	0.381	0.277
-220.625	-91.433	0.380	0.109
-219.611	8.817	0.142	0.107
-218.596	79.090	-0.131	0.141
-217.582	30.668	-0.277	-0.238
-216.567	17.693	-0.084	-0.067
-215.552	800.000	-0.138	0.590
-214.538	-107.415	0.329	-0.072
-213.523	292.717	0.111	0.203
-212.509	19.519	0.122	-0.098
-211.494	-65.264	-0.427	-0.172
-210.479	-200.000	-0.017	0.332
-209.465	-140.981	0.264	0.027
-208.450	-136.777	0.322	-0.037
-207.436	-45.507	0.133	0.066
-206.421	-132.998	-0.276	0.035
-205.406	-200.000	-0.002	-0.193
-204.392	-115.455	-0.166	-0.031
-203.377	-129.826	0.230	0.032
-202.363	-200.000	-0.031	0.181
-201.348	-36.284	0.130	-0.070
-200.333	125.577	0.039	-0.049
-199.319	-200.000	0.035	0.388
-198.304	-7.141	-0.125	0.085
-197.290	444.491	-0.101	-0.223
-196.275	296.491	-0.028	0.052
-195.260	-87.729	-0.109	-0.033
-194.246	283.838	0.212	0.381
-193.231	-14.055	-0.136	0.088
-192.217	-175.147	-0.366	-0.010
-191.202	160.085	-0.135	0.188
-190.187	-200.000	-0.001	-0.134
-189.173	399.716	0.045	0.095
-188.158	-10.142	-0.037	-0.025
-187.144	-117.638	0.193	0.035
-186.129	147.871	0.164	-0.222
-185.114	-104.734	0.232	0.054
-184.100	-157.067	0.098	0.006
-183.085	-75.011	0.250	0.089
-182.071	592.383	0.115	-0.284
-181.056	50.533	0.254	-0.240
-180.042	-128.667	0.143	0.020
-179.027	-23.076	-0.296	-0.178
-178.012	-200.000	0.047	0.377
-176.998	-127.802	-0.321	0.046
-175.983	-200.000	0.071	0.372
-174.969	233.420	-0.071	-0.116
-173.954	-124.629	-0.103	-0.016
-172.939	-143.400	0.084	-0.008
-171.925	-99.885	0.488	-0.122
-170.910	-37.790	-0.215	0.114
-169.896	-51.780	0.108	0.050
-168.881	-132.205	-0.159	0.021
-167.866	-88.031	-0.380	-0.114
-166.852	800.000	0.094	-0.385
-165.837	-173.893	0.324	-0.010
-164.823	800.000	-0.072	0.218
-163.808	30.551	-0.145	-0.124
-162.793	107.258	-0.148	0.176
-161.779	-200.000	-0.024	-0.265
-160.764	800.000	-0.148	-0.539
-159.750	356.459	0.057	0.113
-158.735	-90.772	-0.211	0.061
-157.720	34.881	0.052	-0.046
-156.706	258.785	0.133	-0.228
-155.691	800.000	-0.092	0.399
-154.677	569.284	-0.100	0.242
-153.662	86.367	0.183	0.201
-152.647	421.415	0.055	0.117
-151.633	-6.381	0.123	-0.084
-150.618	216.708	0.143	-0.227
-149.604	-200.000	-0.034	0.245
-148.589	-103.386	0.283	-0.066
-147.574	-45.428	0.250	-0.124
-146.560	-200.000	0.021	0.151
-145.545	-87.382	0.061	-0.018
-144.531	9.477	0.277	0.210
-143.516	-56.176	-0.261	0.116
-142.502	-88.511	-0.491	-0.146
-141.487	-200.000	0.010	-0.131
-140.472	250.656	0.185	-0.315
-139.458	99.768	0.226	-0.261
-138.443	20.206	-0.249	0.201
-137.429	-29.169	0.141	-0.081
-136.414	-200.000	-0.044	-0.224
-135.399	-200.000	-0.024	0.248
-134.385	-200.000	0.025	0.126
-133.370	58.545	-0.138	0.135
-132.356	4.699	-0.021	-0.015
-131.341	-70.154	0.123	-0.047
-130.326	167.149	-0.134	-0.190
-129.312	-200.000	-0.019	-0.295
-128.297	172.171	0.069	0.099
-127.283	-200.000	0.403	0.000
-126.268	-200.000	-0.042	0.441
-125.253	333.115	0.124	0.239
-124.239	535.778	-0.075	0.178
-123.224	-44.781	-0.141	-0.070
-122.210	-105.924	-0.381	-0.086
