DTS Sentinel unit serial number:	SN413079Multiplexer serial number:	ORYXHardware model number:	OX4-SRSoftware version number:	ORYX F/W v4.00 Oryx Data Collector v3.7.2.0data status	okinstallation	princeton_trtdifferential loss correction	single-endedforward channel	channel 4reverse channel	N/Adate	2019/09/18time	22:41:34forward acquisition time	60.00reverse acquisition time	0.00gamma	496.2192k internal	0.2333k external	0.2333temperature offset calibration	1.0032default loss term (dB/km)	0.3790temperature slope calibration	1.0000multiplexer offset coefficient	1.0000multiplexer slope coefficient	1.0000fibre end	0.00T internal ref (°C)	24.12T ext. ref 1 (°C)	0.79T ext. ref 2 (°C)	17.97length (m)	temperature (°C)	Stokes	anti-Stokes-747.200	-72.571	-0.215	0.080
-746.185	-109.348	-0.216	0.046
-745.171	30.164	0.168	-0.144
-744.156	-139.193	-0.050	0.005
-743.142	800.000	-0.037	-0.142
-742.127	451.686	0.256	0.570
-741.112	-200.000	-0.002	-0.038
-740.098	48.691	-0.240	-0.226
-739.083	-111.421	-0.301	0.062
-738.069	-40.276	0.159	0.083
-737.054	233.503	0.136	-0.225
-736.039	128.301	0.237	-0.304
-735.025	-53.776	0.149	-0.069
-734.010	220.993	-0.087	-0.140
-732.996	-107.577	-0.337	0.074
-731.981	281.413	-0.099	0.177
-730.966	408.083	0.057	0.122
-729.952	800.000	-0.037	0.123
-728.937	-200.000	-0.066	-0.325
-727.923	-17.719	0.055	0.034
-726.908	687.895	-0.117	-0.307
-725.894	-200.000	-0.019	-0.118
-724.879	-19.975	-0.105	0.065
-723.864	-157.236	-0.554	-0.034
-722.850	-7.794	-0.063	-0.043
-721.835	494.435	-0.020	0.046
-720.821	-200.000	-0.030	0.226
-719.806	-145.233	0.289	0.026
-718.791	278.904	-0.045	-0.080
-717.777	-200.000	0.058	-0.259
-716.762	-25.377	-0.108	0.064
-715.748	-103.801	-0.223	0.052
-714.733	-200.000	-0.013	-0.076
-713.718	41.514	0.258	0.235
-712.704	-16.240	-0.418	0.267
-711.689	326.657	0.145	-0.280
-710.675	-15.262	0.236	0.152
-709.660	-153.646	0.410	0.028
-708.645	800.000	-0.026	0.104
-707.631	800.000	-0.034	0.147
-706.616	-80.572	-0.563	0.188
-705.602	-140.644	0.146	0.015
-704.587	478.143	0.026	-0.059
-703.572	800.000	-0.083	-0.248
-702.558	97.529	-0.156	-0.180
-701.543	191.126	-0.057	-0.086
-700.529	-35.847	-0.376	0.204
-699.514	-34.169	0.106	0.058
-698.499	202.845	-0.232	-0.360
-697.485	800.000	-0.037	-0.154
-696.470	314.527	-0.088	-0.166
-695.456	92.693	-0.239	-0.271
-694.441	-117.814	0.208	0.037
-693.426	-123.403	0.209	-0.033
-692.412	-135.957	-0.129	-0.015
-691.397	153.235	0.100	0.137
-690.383	52.598	0.070	0.067
-689.368	128.719	-0.082	-0.105
-688.354	800.000	-0.056	-0.231
-687.339	-124.122	-0.063	-0.010
-686.324	-111.575	-0.085	-0.017
-685.310	-200.000	-0.065	-0.297
-684.295	-139.369	0.164	-0.018
-683.281	54.481	-0.151	0.146
-682.266	-200.000	-0.068	-0.314
-681.251	-200.000	0.008	0.070
-680.237	-135.941	-0.131	0.015
-679.222	-200.000	0.010	0.151
-678.208	800.000	0.072	0.240
-677.193	-91.345	-0.067	0.019
-676.178	800.000	0.109	-0.337
-675.164	102.280	0.180	-0.211
-674.149	-200.000	-0.024	0.206
-673.135	-55.635	-0.162	0.073
-672.120	163.066	0.114	0.160
-671.105	14.472	-0.019	0.015
-670.091	-90.311	-0.077	-0.022
-669.076	50.238	-0.037	-0.035
-668.062	-89.374	-0.366	0.108
-667.047	-45.143	-0.221	-0.110
-666.032	280.510	0.092	0.165
-665.018	257.040	0.020	0.035
-664.003	-181.467	-0.125	0.002
-662.989	-175.016	0.412	-0.012
-661.974	-200.000	-0.018	-0.163
-660.959	545.969	-0.032	0.077
-659.945	98.194	0.145	-0.168
-658.930	-58.675	-0.297	0.129
-657.916	-147.325	-0.253	-0.022
-656.901	-105.655	0.346	0.079
-655.886	377.239	-0.085	-0.174
-654.872	-15.114	-0.256	0.164
-653.857	158.849	0.069	0.097
-652.843	281.231	-0.142	0.256
-651.828	-50.162	0.205	0.097
-650.814	800.000	-0.048	0.201
-649.799	107.959	-0.058	0.069
-648.784	30.169	0.003	-0.003
-647.770	-200.000	0.007	0.149
-646.755	195.805	0.058	0.089
-645.741	-47.874	-0.180	-0.087
-644.726	591.070	0.059	0.146
-643.711	-171.195	-0.177	-0.006
-642.697	-63.413	0.192	-0.079
-641.682	800.000	-0.114	0.401
-640.668	800.000	0.064	-0.242
-639.653	-200.000	0.021	-0.147
-638.638	800.000	-0.094	-0.269
-637.624	23.186	-0.162	0.133
-636.609	-150.560	0.154	-0.012
-635.595	-200.000	-0.046	0.240
-634.580	800.000	0.018	0.078
-633.565	-97.673	0.342	-0.089
-632.551	-14.703	-0.107	-0.069
-631.536	383.130	0.063	0.131
-630.522	-108.982	-0.308	-0.066
-629.507	147.715	-0.054	0.073
-628.492	800.000	0.041	-0.130
-627.478	238.173	-0.109	-0.181
-626.463	51.099	0.348	0.331
-625.449	29.654	0.167	0.142
-624.434	0.969	0.035	-0.025
-623.419	-79.312	-0.114	-0.039
-622.405	41.867	-0.219	-0.199
-621.390	-52.641	0.092	0.042
-620.376	51.799	-0.138	-0.131
-619.361	-52.576	0.164	-0.076
-618.346	84.319	-0.143	-0.156
-617.332	800.000	-0.061	0.232
-616.317	-49.957	-0.353	0.168
-615.303	-200.000	0.014	-0.163
-614.288	-113.533	0.160	0.031
-613.273	-106.179	0.159	-0.036
-612.259	529.614	0.114	0.270
-611.244	800.000	0.109	-0.356
-610.230	-200.000	-0.012	0.187
-609.215	-200.000	0.260	-0.001
-608.201	-75.066	0.146	0.052
-607.186	-200.000	0.042	0.396
-606.171	-200.000	-0.021	0.261
-605.157	-144.888	-0.241	0.022
-604.142	-200.000	-0.005	-0.099
-603.128	-107.459	0.261	-0.057
-602.113	196.760	-0.368	-0.561
-601.098	-123.321	0.102	0.016
-600.084	433.195	0.071	-0.154
-599.069	-200.000	-0.043	-0.191
-598.055	-30.297	-0.190	-0.108
-597.040	-200.000	0.033	-0.414
-596.025	-200.000	0.021	-0.187
-595.011	-178.178	0.066	0.002
-593.996	-29.320	0.321	-0.184
-592.982	189.127	0.204	0.306
-591.967	-72.834	0.367	0.135
-590.952	-200.000	-0.026	-0.150
-589.938	2.779	-0.200	0.145
-588.923	-12.328	-0.082	-0.053
-587.909	-35.635	-0.066	-0.036
-586.894	-200.000	0.005	-0.065
-585.879	-74.297	-0.315	-0.114
-584.865	-90.017	0.051	0.015
-583.850	80.638	0.096	-0.103
-582.836	-50.298	0.116	-0.055
-581.821	-148.110	-0.267	0.022
-580.806	-40.901	-0.197	0.102
-579.792	-200.000	-0.055	0.345
-578.777	226.955	0.077	-0.125
-577.763	-52.247	0.240	-0.111
-576.748	-4.752	0.213	-0.147
-575.733	394.572	0.101	-0.210
-574.719	800.000	0.067	0.233
-573.704	36.330	0.279	-0.246
-572.690	-200.000	0.006	0.120
-571.675	324.272	0.159	-0.303
-570.661	-62.773	0.028	-0.012
-569.646	-59.452	-0.328	0.141
-568.631	119.321	-0.241	-0.298
-567.617	-200.000	0.031	-0.211
-566.602	-200.000	0.011	0.070
-565.588	694.700	0.095	-0.249
-564.573	800.000	0.070	-0.238
-563.558	377.642	0.053	-0.109
-562.544	-71.303	-0.151	-0.056
-561.529	121.327	0.057	0.071
-560.515	17.837	-0.379	-0.301
-559.500	35.090	0.149	0.130
-558.485	-57.279	-0.227	0.100
-557.471	-141.434	0.155	-0.016
-556.456	68.002	-0.135	0.137
-555.442	-200.000	-0.003	-0.292
-554.427	800.000	0.008	-0.024
-553.412	-200.000	-0.002	-0.255
-552.398	-63.683	0.305	0.125
-551.383	-45.081	-0.226	0.112
-550.369	148.488	-0.145	-0.195
-549.354	322.781	0.051	0.097
-548.339	48.307	0.267	-0.249
-547.325	-200.000	0.037	-0.224
-546.310	-64.006	0.205	-0.084
-545.296	92.695	-0.112	0.126
-544.281	136.322	-0.083	0.108
-543.266	-98.199	-0.324	0.083
-542.252	331.379	-0.077	0.148
-541.237	32.468	-0.195	0.168
-540.223	-200.000	0.032	-0.194
-539.208	-145.839	0.203	0.018
-538.193	800.000	-0.054	-0.155
-537.179	186.241	-0.130	-0.193
-536.164	-19.591	0.150	0.093
-535.150	500.521	-0.030	-0.069
-534.135	-8.885	-0.007	-0.005
-533.121	-200.000	0.003	0.281
-532.106	476.773	0.103	-0.233
-531.091	-145.438	0.273	0.024
-530.077	-12.050	-0.168	0.110
-529.062	221.553	-0.136	-0.218
-528.048	-51.305	0.276	-0.129
-527.033	-102.627	0.356	-0.085
-526.018	-88.716	0.111	-0.033
-525.004	-200.000	0.046	-0.388
-523.989	11.599	-0.228	0.174
-522.975	11.139	0.182	0.139
-521.960	800.000	-0.039	0.130
-520.945	-200.000	-0.063	-0.000
-519.931	-200.000	-0.036	-0.211
-518.916	47.587	0.198	0.184
-517.902	54.739	0.288	0.277
-516.887	-128.547	0.095	0.013
-515.872	216.037	-0.197	0.312
-514.858	330.951	0.152	-0.292
-513.843	-200.000	-0.019	0.371
-512.829	-42.178	-0.471	-0.240
-511.814	-118.286	0.384	-0.068
-510.799	-200.000	-0.016	-0.080
-509.785	-105.487	0.144	0.033
-508.770	589.677	-0.084	-0.205
-507.756	-50.239	-0.176	-0.083
-506.741	-200.000	0.036	-0.197
-505.726	112.591	0.159	0.192
-504.712	-130.432	-0.241	0.032
-503.697	71.343	-0.164	-0.169
-502.683	275.127	-0.074	-0.130
-501.668	110.676	-0.050	-0.060
-500.653	800.000	-0.126	0.422
-499.639	44.676	-0.169	0.154
-498.624	-42.029	0.310	0.158
-497.610	441.433	-0.104	-0.227
-496.595	-200.000	0.022	-0.131
-495.581	202.694	0.116	-0.179
-494.566	46.692	0.097	-0.090
-493.551	-19.013	0.114	-0.071
-492.537	93.313	0.220	0.248
-491.522	-200.000	-0.040	-0.288
-490.508	-200.000	-0.039	0.259
-489.493	-21.728	-0.160	0.097
-488.478	-60.104	-0.242	0.103
-487.464	-167.195	-0.153	0.006
-486.449	-71.660	0.145	0.054
-485.435	-154.268	0.304	0.020
-484.420	-47.790	0.289	-0.139
-483.405	76.012	0.166	-0.175
-482.391	-100.544	-0.267	-0.066
-481.376	139.981	0.137	0.179
-480.362	249.059	0.090	0.152
-479.347	800.000	-0.086	0.291
-478.332	-48.314	-0.355	-0.170
-477.318	-200.000	0.003	0.015
-476.303	-63.401	0.098	-0.040
-475.289	400.791	-0.216	-0.450
-474.274	399.200	0.034	0.071
-473.259	-112.204	-0.240	-0.048
-472.245	800.000	0.082	0.273
-471.230	-156.094	0.275	0.017
-470.216	194.799	0.155	0.234
-469.201	-200.000	0.009	0.142
-468.186	-200.000	-0.004	0.215
-467.172	-200.000	0.027	-0.165
-466.157	-16.163	0.071	-0.045
-465.143	52.871	-0.456	-0.434
-464.128	33.298	-0.067	0.058
-463.113	-200.000	0.022	-0.147
-462.099	800.000	0.132	0.389
-461.084	92.569	-0.044	0.050
-460.070	167.497	0.161	-0.227
-459.055	-200.000	0.009	0.337
-458.040	217.074	-0.028	0.044
-457.026	104.386	-0.071	-0.083
-456.011	-86.481	0.172	-0.053
-454.997	756.750	0.076	0.205
-453.982	-58.147	-0.389	-0.169
-452.968	2.585	-0.222	0.160
-451.953	-17.077	-0.148	0.093
-450.938	-200.000	0.010	0.108
-449.924	170.804	-0.115	-0.163
-448.909	68.809	-0.039	-0.039
-447.895	800.000	0.107	0.309
-446.880	-153.569	0.144	0.010
-445.865	-2.138	0.129	0.090
-444.851	-200.000	0.006	-0.364
-443.836	-58.764	-0.330	0.142
-442.822	800.000	-0.072	0.244
-441.807	11.349	-0.191	-0.146
-440.792	-200.000	-0.011	0.408
-439.778	-70.507	-0.158	0.060
-438.763	-62.321	-0.253	0.105
-437.749	320.759	-0.058	-0.109
-436.734	89.776	-0.132	-0.146
-435.719	50.097	0.147	0.138
-434.705	362.974	-0.124	-0.248
-433.690	-200.000	0.008	0.244
-432.676	-83.439	-0.210	-0.067
-431.661	269.605	-0.104	-0.181
-430.646	-158.142	-0.093	-0.005
-429.632	711.228	-0.095	0.250
-428.617	800.000	-0.143	-0.426
-427.603	160.349	0.064	0.089
-426.588	-79.505	-0.295	0.099
-425.573	-45.582	0.138	0.068
-424.559	800.000	0.048	-0.136
-423.544	192.443	-0.291	0.436
-422.530	-47.758	0.231	0.111
-421.515	-79.143	0.224	-0.076
-420.500	800.000	-0.118	-0.363
-419.486	800.000	0.044	-0.142
-418.471	7.485	-0.198	-0.147
-417.457	52.690	0.147	0.139
-416.442	-77.517	0.169	0.058
-415.428	800.000	0.056	0.221
-414.413	800.000	-0.049	0.173
-413.398	-104.243	0.307	-0.071
-412.384	-41.986	-0.438	-0.223
-411.369	-200.000	-0.021	-0.164
-410.355	175.292	-0.092	-0.132
-409.340	-200.000	-0.030	0.165
-408.325	-21.916	-0.173	-0.105
-407.311	470.091	0.061	0.135
-406.296	-64.133	-0.049	-0.020
-405.282	82.981	0.122	0.131
-404.267	-86.547	0.200	0.061
-403.252	-43.098	-0.480	0.242
-402.238	737.875	0.190	0.507
-401.223	-80.317	-0.293	-0.097
-400.209	800.000	0.068	0.222
-399.194	-88.243	0.136	0.041
-398.179	779.736	-0.021	-0.057
-397.165	136.375	-0.198	0.256
-396.150	23.186	0.130	-0.106
-395.136	243.469	-0.139	0.231
-394.121	422.980	-0.121	-0.259
-393.106	331.290	-0.105	0.201
-392.092	-93.211	-0.314	0.087
-391.077	800.000	-0.088	0.326
-390.063	3.182	0.197	0.142
-389.048	56.638	0.127	0.122
-388.033	-79.616	-0.025	0.008
-387.019	-61.727	0.168	-0.070
-386.004	-67.140	0.187	0.073
-384.990	168.502	-0.082	-0.116
-383.975	-200.000	0.000	-0.043
-382.960	-99.009	-0.048	0.012
-381.946	800.000	-0.042	-0.170
-380.931	185.728	-0.116	-0.171
-379.917	-200.000	-0.252	-0.001
-378.902	40.582	-0.120	-0.107
-377.888	-174.214	-0.074	-0.002
-376.873	-200.000	-0.004	-0.077
-375.858	-154.919	-0.255	-0.017
-374.844	-131.264	0.182	-0.024
-373.829	-200.000	-0.011	-0.079
-372.815	-200.000	-0.020	-0.160
-371.800	-165.665	0.143	0.006
-370.785	-92.073	-0.235	-0.066
-369.771	-200.000	0.093	-0.421
-368.756	-108.960	-0.137	-0.029
-367.742	439.711	0.043	0.093
-366.727	-173.991	-0.312	0.009
-365.712	87.356	0.389	-0.426
-364.698	234.154	-0.231	-0.376
-363.683	-50.832	0.239	-0.112
-362.669	-55.459	-0.131	0.058
-361.654	-27.037	0.054	0.031
-360.639	199.892	0.099	-0.151
-359.625	339.989	0.007	0.014
-358.610	-9.537	0.434	-0.287
-357.596	-126.495	-0.212	-0.031
-356.581	-22.626	0.234	-0.140
-355.566	446.702	0.082	-0.178
-354.552	-107.590	0.395	0.086
-353.537	-98.659	-0.245	0.062
-352.523	5.281	-0.109	0.080
-351.508	356.959	0.176	0.348
-350.493	-84.652	0.236	-0.073
-349.479	-74.269	0.182	0.065
-348.464	-84.751	-0.287	0.089
-347.450	23.145	-0.035	-0.028
-346.435	-16.041	-0.290	0.183
-345.420	22.805	-0.173	-0.141
-344.406	335.718	0.134	-0.258
-343.391	128.367	-0.051	-0.064
-342.377	89.284	-0.170	-0.188
-341.362	-164.079	0.292	-0.013
-340.348	-28.812	0.106	0.060
-339.333	-75.463	-0.232	0.082
-338.318	219.922	0.166	0.263
-337.304	138.020	-0.120	0.156
-336.289	-135.267	0.414	0.049
-335.275	-120.895	-0.277	-0.046
-334.260	-152.237	0.244	-0.017
-333.245	75.576	0.219	0.229
-332.231	-40.048	-0.155	-0.080
-331.216	20.922	0.234	-0.188
-330.202	-5.580	0.077	0.053
-329.187	4.207	-0.090	0.065
-328.172	27.644	-0.104	-0.087
-327.158	80.629	-0.256	-0.273
-326.143	-127.151	0.092	0.013
-325.129	47.007	0.111	-0.102
-324.114	438.571	0.077	0.166
-323.099	-87.891	0.216	0.064
-322.085	-142.162	0.042	-0.004
-321.070	-200.000	-0.006	0.049
-320.056	-200.000	0.010	-0.223
-319.041	-200.000	0.016	0.285
-318.026	800.000	0.029	-0.081
-317.012	37.939	-0.014	-0.013
-315.997	-200.000	-0.026	-0.352
-314.983	-129.182	0.258	0.036
-313.968	384.014	-0.039	-0.080
-312.953	259.467	0.146	0.250
-311.939	86.795	0.162	0.177
-310.924	707.538	-0.076	0.198
-309.910	-14.663	-0.260	-0.165
-308.895	-54.331	0.115	0.052
-307.880	227.964	-0.012	0.019
-306.866	-27.225	-0.131	-0.075
-305.851	-113.914	0.297	-0.057
-304.837	-19.407	-0.300	-0.184
-303.822	456.812	-0.078	0.172
-302.807	-129.087	0.166	-0.023
-301.793	-55.688	0.124	-0.055
-300.778	800.000	-0.043	0.128
-299.764	667.621	0.040	-0.102
-298.749	-109.069	-0.287	-0.060
-297.735	-123.470	0.205	0.032
-296.720	-200.000	0.037	0.202
-295.705	245.432	0.085	0.141
-294.691	186.081	-0.059	0.086
-293.676	-200.000	-0.034	-0.591
-292.662	-79.053	-0.260	-0.087
-291.647	-102.239	-0.077	-0.018
-290.632	-102.929	0.202	0.047
-289.618	-200.000	0.007	-0.034
-288.603	-64.132	0.207	-0.084
-287.589	410.572	-0.041	0.085
-286.574	495.565	0.124	0.281
-285.559	-128.268	0.121	0.017
-284.545	-115.675	0.187	-0.035
-283.530	406.736	-0.197	-0.412
-282.516	484.444	0.188	0.423
-281.501	-103.753	0.338	-0.078
-280.486	-145.201	0.173	0.015
-279.472	-200.000	-0.012	0.064
-278.457	293.773	-0.172	0.311
-277.443	-200.000	0.004	0.131
-276.428	26.510	0.117	0.097
-275.413	512.436	-0.102	0.235
-274.399	-23.063	0.305	-0.181
-273.384	-152.687	-0.190	0.013
-272.370	-50.248	0.085	0.040
-271.355	800.000	0.054	0.153
-270.340	-65.361	0.411	-0.163
-269.326	800.000	-0.062	0.197
-268.311	37.630	-0.097	-0.085
-267.297	302.115	-0.106	-0.193
-266.282	-200.000	0.031	-0.277
-265.267	-200.000	0.011	0.106
-264.253	-126.849	-0.294	-0.043
-263.238	-27.419	0.032	0.018
-262.224	800.000	0.053	-0.227
-261.209	756.980	0.073	-0.194
-260.195	-200.000	-0.037	-0.339
-259.180	-185.792	0.364	0.005
-258.165	751.200	0.057	-0.152
-257.151	40.803	-0.130	-0.116
-256.136	-42.608	0.090	-0.045
-255.122	24.836	-0.117	0.096
-254.107	-61.637	0.293	0.121
-253.092	-200.000	-0.019	-0.278
-252.078	-62.018	-0.303	-0.125
-251.063	-67.212	-0.174	0.067
-250.049	-200.000	0.043	-0.275
-249.034	-154.453	-0.199	-0.013
-248.019	-72.964	-0.161	0.058
-247.005	-140.168	-0.153	-0.016
-245.990	800.000	0.078	0.318
-244.976	755.738	0.044	0.117
-243.961	-121.448	0.149	0.024
-242.946	202.153	0.166	-0.253
-241.932	80.417	0.171	0.182
-240.917	-78.489	0.180	0.061
-239.903	248.329	-0.100	0.167
-238.888	8.560	0.090	-0.067
-237.873	-200.000	-0.052	-0.321
-236.859	68.241	-0.274	0.277
-235.844	681.529	-0.184	0.472
-234.830	-81.561	-0.093	0.030
-233.815	-200.000	-0.043	0.411
-232.800	-52.956	-0.102	0.046
-231.786	198.866	0.102	0.154
-230.771	277.131	-0.181	0.318
-229.757	-200.000	0.045	0.381
-228.742	716.699	0.052	0.135
-227.727	-200.000	0.024	-0.238
-226.713	572.105	-0.068	-0.163
-225.698	-46.392	-0.187	-0.091
-224.684	-200.000	0.030	0.199
-223.669	-92.309	0.098	0.027
-222.655	-200.000	-0.067	0.346
-221.640	-200.000	-0.017	0.276
-220.625	-14.591	0.208	-0.132
-219.611	455.415	0.156	0.341
-218.596	54.583	0.150	0.142
-217.582	-200.000	0.096	0.772
-216.567	-124.259	0.250	0.039
-215.552	-100.707	0.272	-0.066
-214.538	-200.000	-0.022	0.340
-213.523	-200.000	-0.025	-0.151
-212.509	119.325	-0.096	-0.117
-211.494	-58.880	0.111	0.047
-210.479	95.886	-0.053	-0.060
-209.465	543.484	-0.065	0.153
-208.450	213.741	-0.135	0.210
-207.436	60.121	0.216	-0.210
-206.421	-97.498	0.132	0.034
-205.406	-43.004	0.142	0.071
-204.392	-115.472	-0.236	0.044
-203.377	72.721	-0.099	-0.101
-202.363	141.203	0.059	-0.076
-201.348	-200.000	0.066	0.365
-200.333	-200.000	0.064	0.291
-199.319	106.202	0.077	0.090
-198.304	-52.003	0.083	0.038
-197.290	161.272	-0.091	0.125
-196.275	-113.150	0.362	0.070
-195.260	253.928	0.109	0.184
-194.246	-200.000	0.062	-0.349
-193.231	6.937	-0.476	-0.349
-192.217	-20.192	-0.362	0.220
-191.202	-200.000	0.036	-0.365
-190.187	-70.393	0.136	0.051
-189.173	-130.332	0.066	-0.009
-188.158	-153.092	0.190	-0.013
-187.144	750.888	-0.122	0.324
-186.129	-28.123	-0.181	0.103
-185.114	-92.145	-0.186	-0.052
-184.100	-130.593	0.226	0.030
-183.085	134.083	-0.259	-0.330
-182.071	-200.000	-0.033	0.212
-181.056	-105.989	-0.204	-0.045
-180.042	594.721	0.084	-0.204
-179.027	-23.169	0.280	0.166
-178.012	-200.000	0.012	-0.249
-176.998	-18.135	-0.178	0.110
-175.983	-100.571	0.300	0.073
-174.969	164.080	-0.138	-0.191
-173.954	9.158	-0.076	-0.057
-172.939	39.106	-0.050	-0.044
-171.925	104.959	0.048	0.056
-170.910	151.695	0.050	0.067
-169.896	-200.000	0.016	-0.151
-168.881	-92.173	-0.288	0.080
-167.866	23.576	-0.111	-0.090
-166.852	212.629	-0.267	-0.414
-165.837	124.473	0.154	0.191
-164.823	-74.011	-0.265	0.095
-163.808	800.000	0.084	-0.285
-162.793	-200.000	-0.014	0.277
-161.779	-200.000	-0.023	-0.158
-160.764	-130.990	0.401	-0.053
-159.750	-145.815	-0.291	-0.025
-158.735	676.471	0.129	-0.329
-157.720	800.000	-0.049	0.185
-156.706	214.975	0.214	-0.333
-155.691	19.782	-0.216	0.171
-154.677	-92.181	-0.330	0.092
-153.662	233.635	-0.153	0.248
-152.647	-100.914	0.478	-0.116
-151.633	71.510	-0.295	-0.301
-150.618	587.917	0.123	-0.297
-149.604	-90.179	0.210	0.060
-148.589	-109.971	0.056	0.011
-147.574	97.851	-0.169	-0.191
-146.560	-136.156	0.243	-0.028
-145.545	-105.010	0.113	0.025
-144.531	800.000	-0.069	-0.291
-143.516	-200.000	0.054	-0.519
-142.502	800.000	-0.066	-0.183
-141.487	-70.523	0.285	0.106
-140.472	-200.000	-0.015	-0.243
-139.458	86.296	0.227	-0.246
-138.443	-77.521	0.093	0.032
-137.429	22.729	-0.078	-0.063
-136.414	-116.075	-0.327	0.060
-135.399	800.000	-0.056	-0.239
-134.385	800.000	-0.127	0.393
-133.370	28.423	0.194	0.161
-132.356	30.240	0.057	0.048
-131.341	800.000	0.058	-0.221
-130.326	-72.499	0.172	0.062
-129.312	-200.000	-0.041	0.253
-128.297	-42.911	-0.399	-0.199
-127.283	-200.000	0.003	-0.077
-126.268	367.286	-0.104	0.205
-125.253	-68.657	0.220	0.084
-124.239	-48.077	0.245	0.116
-123.224	-200.000	-0.035	0.206
-122.210	262.227	0.052	-0.089
