DTS Sentinel unit serial number:	SN413079Multiplexer serial number:	ORYXHardware model number:	OX4-SRSoftware version number:	ORYX F/W v4.00 Oryx Data Collector v3.7.2.0data status	okinstallation	princeton_trtdifferential loss correction	single-endedforward channel	channel 4reverse channel	N/Adate	2019/09/14time	00:13:35forward acquisition time	60.00reverse acquisition time	0.00gamma	496.2192k internal	0.2324k external	0.2324temperature offset calibration	1.0132default loss term (dB/km)	0.3790temperature slope calibration	1.0000multiplexer offset coefficient	1.0000multiplexer slope coefficient	1.0000fibre end	0.00T internal ref (°C)	26.50T ext. ref 1 (°C)	3.16T ext. ref 2 (°C)	21.44length (m)	temperature (°C)	Stokes	anti-Stokes-747.200	-126.236	-0.292	-0.044
-746.185	-94.101	-0.314	0.087
-745.171	-30.717	0.188	0.107
-744.156	-200.000	0.031	0.269
-743.142	-40.012	0.218	0.115
-742.127	250.582	0.051	0.088
-741.112	800.000	0.050	-0.168
-740.098	-200.000	0.009	-0.165
-739.083	197.912	0.071	0.110
-738.069	-107.133	0.209	0.047
-737.054	-200.000	0.001	-0.137
-736.039	359.193	-0.092	0.185
-735.025	-200.000	0.016	0.181
-734.010	-113.470	-0.143	-0.028
-732.996	-200.000	0.017	-0.224
-731.981	-88.046	0.302	-0.091
-730.966	800.000	0.018	-0.074
-729.952	800.000	-0.040	0.141
-728.937	-200.000	-0.001	0.020
-727.923	170.001	-0.204	0.294
-726.908	-31.201	-0.250	-0.142
-725.894	-172.830	-0.175	-0.005
-724.879	-73.859	0.128	0.047
-723.864	-100.525	0.304	0.076
-722.850	-200.000	0.052	-0.241
-721.835	-147.071	0.270	0.023
-720.821	104.048	-0.087	-0.103
-719.806	148.133	-0.106	-0.145
-718.791	108.569	0.062	-0.075
-717.777	107.170	-0.234	-0.281
-716.762	-107.638	-0.167	0.037
-715.748	-47.948	-0.131	-0.064
-714.733	-51.704	0.200	0.094
-713.718	-200.000	0.026	0.154
-712.704	-73.785	0.238	-0.087
-711.689	-129.968	0.070	0.010
-710.675	12.867	0.081	-0.063
-709.660	132.131	0.194	-0.251
-708.645	-137.219	-0.154	-0.018
-707.631	-84.584	-0.216	0.069
-706.616	333.184	-0.125	-0.244
-705.602	176.415	0.146	-0.214
-704.587	88.845	-0.245	-0.274
-703.572	800.000	-0.048	0.171
-702.558	442.292	-0.123	0.272
-701.543	144.806	0.139	0.187
-700.529	54.900	-0.201	-0.195
-699.514	-102.177	-0.257	0.062
-698.499	779.124	0.056	0.156
-697.485	800.000	-0.042	-0.158
-696.470	-200.000	-0.007	-0.152
-695.456	25.809	-0.113	-0.095
-694.441	43.735	-0.154	0.142
-693.426	266.454	0.180	-0.317
-692.412	314.202	-0.081	0.154
-691.397	-93.027	0.233	0.065
-690.383	-78.235	-0.060	-0.021
-689.368	-62.604	-0.055	0.023
-688.354	-41.680	-0.379	-0.196
-687.339	-7.821	0.079	-0.054
-686.324	-124.831	-0.271	-0.042
-685.310	-21.384	-0.380	0.234
-684.295	52.375	-0.076	0.073
-683.281	-109.170	0.207	-0.044
-682.266	159.030	-0.144	-0.201
-681.251	-63.653	0.419	-0.173
-680.237	800.000	-0.061	-0.186
-679.222	57.541	0.149	-0.147
-678.208	-200.000	-0.072	-0.414
-677.193	-90.326	0.279	-0.082
-676.178	-58.394	-0.255	0.112
-675.164	-200.000	0.003	0.210
-674.149	387.085	-0.015	0.031
-673.135	-64.519	0.312	0.127
-672.120	-21.244	0.185	0.114
-671.105	800.000	0.078	-0.269
-670.091	55.813	0.049	-0.048
-669.076	13.973	-0.175	-0.137
-668.062	27.310	0.244	0.206
-667.047	429.593	0.065	-0.141
-666.032	-200.000	0.030	-0.145
-665.018	-3.579	-0.191	-0.134
-664.003	98.688	0.136	0.158
-662.989	-1.727	-0.295	0.209
-661.974	153.776	-0.217	0.299
-660.959	3.231	0.126	-0.092
-659.945	-65.243	-0.100	0.041
-658.930	9.343	0.019	0.014
-657.916	-162.628	-0.359	0.018
-656.901	-200.000	-0.052	0.241
-655.886	800.000	-0.046	0.181
-654.872	-200.000	0.028	0.211
-653.857	-32.219	0.054	0.030
-652.843	155.987	-0.104	-0.145
-651.828	-200.000	0.049	-0.227
-650.814	-47.247	-0.239	-0.117
-649.799	-10.829	0.107	0.071
-648.784	152.478	0.029	0.040
-647.770	800.000	-0.018	0.054
-646.755	-12.402	-0.113	-0.074
-645.741	-32.836	-0.148	-0.083
-644.726	-79.099	0.480	-0.164
-643.711	378.104	0.123	-0.254
-642.697	52.913	0.219	0.210
-641.682	-60.314	0.166	-0.071
-640.668	103.447	-0.183	-0.216
-639.653	-52.250	0.125	0.058
-638.638	-100.242	-0.227	-0.057
-637.624	-145.615	-0.259	-0.023
-636.609	271.627	0.067	-0.119
-635.595	-91.276	0.164	-0.047
-634.580	-34.080	0.047	0.026
-633.565	-200.000	-0.043	-0.306
-632.551	92.315	-0.177	0.200
-631.536	235.774	0.083	0.137
-630.522	110.167	0.122	-0.147
-629.507	135.299	-0.170	0.222
-628.492	-57.763	0.238	0.105
-627.478	-200.000	0.143	0.001
-626.463	-200.000	0.033	-0.344
-625.449	240.814	0.019	-0.032
-624.434	-200.000	-0.017	-0.303
-623.419	-200.000	0.002	-0.074
-622.405	-38.298	-0.130	-0.069
-621.390	253.691	-0.128	0.220
-620.376	-150.357	0.140	-0.011
-619.361	800.000	0.066	0.192
-618.346	-200.000	-0.003	-0.161
-617.332	352.558	0.052	-0.105
-616.317	-181.907	-0.171	-0.003
-615.303	115.005	0.145	-0.178
-614.288	226.483	0.187	-0.304
-613.273	-147.084	0.240	0.021
-612.259	335.872	0.025	-0.048
-611.244	-74.722	0.287	-0.104
-610.230	-4.780	-0.231	0.160
-609.215	-14.896	0.177	-0.114
-608.201	800.000	0.047	0.168
-607.186	-84.010	0.107	-0.034
-606.171	-60.553	0.015	0.006
-605.157	744.479	0.134	-0.361
-604.142	320.538	0.084	0.160
-603.128	60.621	0.278	0.276
-602.113	-200.000	0.007	-0.119
-601.098	19.067	-0.327	0.263
-600.084	92.087	-0.343	0.387
-599.069	169.417	-0.044	-0.063
-598.055	-200.000	0.022	0.260
-597.040	5.465	0.132	0.098
-596.025	-13.631	0.060	-0.039
-595.011	-129.624	-0.377	-0.052
-593.996	-5.196	0.155	-0.107
-592.982	-7.027	0.184	0.126
-591.967	-200.000	-0.003	0.058
-590.952	-200.000	0.015	0.287
-589.938	-59.432	0.130	-0.056
-588.923	-137.365	0.241	-0.027
-587.909	99.432	-0.144	-0.167
-586.894	34.892	0.097	-0.085
-585.879	165.956	-0.038	0.054
-584.865	163.948	0.115	0.162
-583.850	-200.000	-0.040	-0.332
-582.836	123.515	0.176	-0.222
-581.821	61.817	-0.239	-0.239
-580.806	800.000	-0.058	-0.247
-579.792	184.217	-0.079	0.117
-578.777	-18.871	0.105	0.066
-577.763	-118.199	-0.296	0.053
-576.748	800.000	0.044	-0.164
-575.733	-58.703	-0.242	0.105
-574.719	-121.061	-0.138	-0.023
-573.704	14.556	-0.408	0.319
-572.690	800.000	-0.089	-0.320
-571.675	34.862	-0.194	-0.170
-570.661	-22.040	0.188	0.114
-569.646	31.815	-0.236	-0.203
-568.631	37.852	-0.099	-0.088
-567.617	-200.000	0.011	0.057
-566.602	-62.851	0.218	-0.090
-565.588	209.240	0.057	0.089
-564.573	-4.246	-0.382	0.265
-563.558	-200.000	-0.033	0.161
-562.544	800.000	0.070	0.228
-561.529	644.764	-0.126	0.322
-560.515	-41.085	-0.136	-0.071
-559.500	-158.038	-0.108	-0.006
-558.485	-18.171	-0.253	-0.159
-557.471	469.905	0.097	0.218
-556.456	104.760	0.086	0.101
-555.442	-27.703	-0.254	-0.148
-554.427	-100.172	0.266	0.066
-553.412	-107.361	-0.145	0.032
-552.398	-145.270	-0.373	-0.034
-551.383	800.000	0.087	-0.268
-550.369	-95.720	-0.145	-0.039
-549.354	-44.451	0.318	0.159
-548.339	60.242	-0.161	0.159
-547.325	134.142	-0.153	0.198
-546.310	-34.121	0.349	0.192
-545.296	29.036	0.207	0.176
-544.281	-200.000	-0.030	-0.274
-543.266	42.149	-0.383	0.348
-542.252	-73.361	0.260	-0.095
-541.237	36.998	0.176	-0.156
-540.223	-65.345	0.167	-0.067
-539.208	800.000	0.110	0.394
-538.193	-102.981	-0.395	-0.094
-537.179	-200.000	0.019	-0.122
-536.164	-104.925	-0.134	0.031
-535.150	45.569	0.209	-0.193
-534.135	-93.710	-0.182	-0.050
-533.121	14.805	0.201	0.157
-532.106	-200.000	0.022	-0.210
-531.091	800.000	0.064	-0.269
-530.077	38.904	-0.127	-0.114
-529.062	25.648	0.264	0.220
-528.048	-200.000	0.035	-0.408
-527.033	31.112	0.195	-0.168
-526.018	186.949	0.139	-0.208
-525.004	-91.773	-0.180	-0.051
-523.989	584.778	-0.088	0.217
-522.975	-112.160	0.251	-0.051
-521.960	-119.672	0.097	0.017
-520.945	-200.000	-0.050	-0.301
-519.931	800.000	-0.087	-0.288
-518.916	106.554	0.161	0.191
-517.902	315.276	0.140	-0.263
-516.887	11.047	-0.302	-0.231
-515.872	-140.681	0.100	-0.010
-514.858	110.305	-0.086	0.104
-513.843	125.761	0.237	-0.299
-512.829	-200.000	-0.046	-0.226
-511.814	-115.816	-0.162	-0.030
-510.799	-9.384	0.244	0.163
-509.785	-113.873	0.537	0.104
-508.770	-93.520	0.223	-0.062
-507.756	-200.000	-0.001	-0.136
-506.741	569.665	-0.036	-0.087
-505.726	293.786	0.077	0.141
-504.712	590.283	0.151	-0.373
-503.697	-155.984	0.184	0.012
-502.683	2.163	-0.094	-0.068
-501.668	-58.745	0.325	-0.141
-500.653	-59.705	-0.274	-0.117
-499.639	-200.000	0.063	0.432
-498.624	-200.000	-0.034	0.249
-497.610	-200.000	-0.021	0.235
-496.595	-85.563	0.442	0.138
-495.581	29.756	0.213	0.182
-494.566	80.914	-0.233	-0.252
-493.551	-126.993	-0.208	0.031
-492.537	-31.356	0.152	0.086
-491.522	391.870	-0.023	0.049
-490.508	37.260	0.191	0.169
-489.493	-144.827	-0.403	0.037
-488.478	53.168	-0.295	-0.283
-487.464	165.802	0.226	0.319
-486.449	-169.785	0.140	0.005
-485.435	27.789	-0.123	0.103
-484.420	-158.909	0.162	-0.009
-483.405	-48.972	-0.242	0.116
-482.391	338.116	0.076	-0.148
-481.376	-155.089	-0.045	-0.003
-480.362	184.805	-0.071	0.106
-479.347	-32.386	-0.211	0.117
-478.332	800.000	-0.050	0.143
-477.318	737.766	0.098	-0.261
-476.303	-76.810	0.345	0.121
-475.289	-38.054	0.221	-0.117
-474.274	-68.297	0.101	0.039
-473.259	-200.000	-0.032	0.236
-472.245	284.312	-0.073	0.131
-471.230	-200.000	0.044	-0.209
-470.216	-39.363	0.263	-0.138
-469.201	-90.875	0.244	0.070
-468.186	-161.638	-0.079	-0.004
-467.172	-75.345	0.109	-0.039
-466.157	-200.000	-0.022	0.106
-465.143	-177.748	0.308	-0.007
-464.128	-200.000	-0.018	-0.272
-463.113	-163.715	-0.341	-0.016
-462.099	800.000	-0.111	0.311
-461.084	800.000	-0.123	0.413
-460.070	367.902	0.150	0.303
-459.055	-200.000	-0.016	-0.187
-458.040	15.226	0.081	0.064
-457.026	-53.025	-0.083	0.038
-456.011	800.000	0.118	-0.378
-454.997	375.930	-0.199	-0.405
-453.982	-107.478	0.392	0.086
-452.968	-98.540	0.101	0.026
-451.953	800.000	0.088	0.286
-450.938	-5.288	-0.313	0.214
-449.924	141.322	0.088	0.116
-448.909	800.000	-0.106	0.446
-447.895	-200.000	-0.012	0.116
-446.880	-5.769	0.206	0.141
-445.865	-31.695	0.143	-0.080
-444.851	-91.511	-0.333	-0.095
-443.836	800.000	-0.087	-0.253
-442.822	-104.611	0.278	0.064
-441.807	-92.802	0.269	-0.075
-440.792	-15.344	0.074	0.047
-439.778	-53.296	0.199	0.091
-438.763	516.126	-0.183	-0.428
-437.749	800.000	-0.095	-0.269
-436.734	235.909	-0.038	0.063
-435.719	169.992	0.208	-0.296
-434.705	-144.888	0.234	0.021
-433.690	41.664	-0.131	-0.119
-432.676	252.162	0.009	-0.015
-431.661	85.996	-0.092	0.101
-430.646	800.000	-0.044	0.133
-429.632	212.587	0.153	-0.240
-428.617	-17.152	0.092	0.058
-427.603	319.905	0.108	0.205
-426.588	219.029	-0.067	-0.106
-425.573	-68.716	0.085	0.033
-424.559	-200.000	0.018	-0.088
-423.544	300.285	-0.097	0.178
-422.530	124.405	0.157	0.196
-421.515	-143.413	-0.114	-0.011
-420.500	-121.110	0.166	0.028
-419.486	-161.548	-0.032	0.002
-418.471	5.436	-0.156	0.115
-417.457	-76.544	-0.125	0.044
-416.442	-200.000	-0.064	-0.301
-415.428	-116.609	0.341	0.063
-414.413	2.819	0.335	-0.242
-413.398	800.000	0.076	-0.273
-412.384	-22.747	-0.299	0.180
-411.369	-97.478	-0.128	0.033
-410.355	-200.000	-0.017	-0.186
-409.340	-107.692	-0.104	-0.023
-408.325	-200.000	0.017	0.217
-407.311	-112.204	0.073	-0.015
-406.296	-200.000	-0.009	-0.094
-405.282	1.134	-0.225	0.161
-404.267	119.698	0.040	-0.049
-403.252	290.511	-0.146	0.264
-402.238	25.543	-0.187	0.155
-401.223	-136.635	-0.350	0.040
-400.209	9.804	-0.105	-0.080
-399.194	533.675	-0.070	0.165
-398.179	262.841	-0.023	-0.039
-397.165	-14.516	0.352	0.225
-396.150	-27.051	0.090	0.052
-395.136	800.000	-0.077	-0.276
-394.121	-111.069	-0.131	0.027
-393.106	169.340	-0.135	-0.191
-392.092	-54.810	0.155	-0.070
-391.077	-200.000	0.005	-0.122
-390.063	117.410	0.197	0.242
-389.048	-140.496	-0.129	0.013
-388.033	111.444	-0.173	-0.207
-387.019	37.753	0.219	-0.194
-386.004	-144.667	0.430	-0.039
-384.990	54.093	0.109	0.104
-383.975	-113.928	0.397	-0.077
-382.960	-27.421	0.251	0.146
-381.946	-33.364	-0.136	0.075
-380.931	44.329	0.151	-0.138
-379.917	-13.612	-0.180	0.116
-378.902	32.919	0.226	-0.194
-377.888	-14.127	0.057	0.036
-376.873	-110.487	-0.363	-0.075
-375.858	-130.476	0.311	-0.042
-374.844	130.685	-0.060	0.076
-373.829	177.619	-0.085	-0.123
-372.815	-185.193	0.421	0.007
-371.800	324.553	-0.083	-0.157
-370.785	-56.122	0.223	-0.099
-369.771	-200.000	-0.398	-0.001
-368.756	212.423	0.050	-0.078
-367.742	3.890	-0.068	-0.049
-366.727	-200.000	-0.244	-0.001
-365.712	164.881	0.167	0.234
-364.698	370.342	-0.065	0.130
-363.683	-94.298	-0.372	-0.101
-362.669	280.383	0.112	0.199
-361.654	-89.088	-0.427	0.126
-360.639	-200.000	-0.002	-0.057
-359.625	128.756	-0.160	-0.203
-358.610	229.601	-0.022	-0.035
-357.596	623.655	-0.062	0.155
-356.581	191.349	-0.086	-0.129
-355.566	-126.784	0.276	0.040
-354.552	-14.611	0.270	0.173
-353.537	-79.543	-0.455	0.153
-352.523	800.000	-0.080	-0.253
-351.508	-200.000	0.062	-0.283
-350.493	61.760	-0.081	-0.080
-349.479	-200.000	-0.017	-0.122
-348.464	-200.000	0.013	-0.067
-347.450	-200.000	0.017	-0.076
-346.435	129.103	-0.248	-0.315
-345.420	166.901	-0.039	0.056
-344.406	712.171	-0.223	0.587
-343.391	-129.673	0.166	0.023
-342.377	800.000	-0.016	-0.069
-341.362	195.512	-0.125	0.188
-340.348	13.499	0.148	0.114
-339.333	462.149	0.031	-0.068
-338.318	81.916	0.030	0.033
-337.304	22.292	0.072	-0.058
-336.289	-23.536	-0.159	0.095
-335.275	115.377	0.089	0.108
-334.260	593.489	0.038	-0.092
-333.245	67.892	-0.187	0.190
-332.231	-105.831	-0.370	-0.083
-331.216	-62.022	-0.053	0.022
-330.202	95.941	0.218	-0.247
-329.187	-149.951	-0.172	0.013
-328.172	-200.000	-0.082	-0.386
-327.158	557.890	-0.096	0.229
-326.143	25.820	0.074	-0.061
-325.129	739.286	0.032	0.084
-324.114	71.863	0.221	0.228
-323.099	-7.864	0.205	0.137
-322.085	-200.000	0.039	0.220
-321.070	-58.513	0.176	0.076
-320.056	554.090	0.101	0.241
-319.041	59.106	0.322	0.315
-318.026	800.000	-0.091	-0.339
-317.012	-200.000	-0.006	0.112
-315.997	800.000	0.006	0.024
-314.983	800.000	-0.116	-0.399
-313.968	-109.105	0.281	0.059
-312.953	-23.788	-0.034	-0.020
-311.939	-146.030	-0.181	-0.016
-310.924	800.000	-0.060	0.207
-309.910	-113.585	-0.105	-0.020
-308.895	30.308	-0.094	-0.080
-307.880	800.000	-0.047	-0.167
-306.866	-28.151	-0.254	0.146
-305.851	-33.327	0.098	-0.054
-304.837	-70.364	-0.254	0.096
-303.822	46.507	0.043	-0.040
-302.807	265.936	0.127	0.219
-301.793	-49.351	-0.139	0.066
-300.778	-200.000	-0.026	-0.124
-299.764	-67.736	-0.189	0.074
-298.749	332.049	0.083	-0.160
-297.735	23.946	0.139	0.114
-296.720	537.893	-0.157	0.369
-295.705	-27.048	-0.176	0.102
-294.691	800.000	-0.065	0.258
-293.676	800.000	-0.113	-0.327
-292.662	-174.697	-0.085	-0.002
-291.647	137.681	0.207	0.269
-290.632	237.824	-0.172	-0.282
-289.618	-155.556	0.193	-0.012
-288.603	800.000	0.127	0.389
-287.589	-192.070	0.296	-0.003
-286.574	-63.177	0.225	0.092
-285.559	384.870	-0.189	0.387
-284.545	202.028	-0.065	-0.100
-283.530	80.684	-0.184	0.197
-282.516	-9.141	0.144	0.096
-281.501	105.708	0.079	-0.093
-280.486	60.899	0.037	0.036
-279.472	-200.000	0.045	0.233
-278.457	73.850	-0.106	0.110
-277.443	-193.567	-0.228	-0.002
-276.428	-137.137	0.133	-0.015
-275.413	-86.188	-0.125	-0.038
-274.399	45.714	-0.185	-0.169
-273.384	29.806	0.130	-0.110
-272.370	196.310	-0.197	-0.298
-271.355	800.000	0.102	-0.367
-270.340	206.998	0.134	0.207
-269.326	750.346	-0.137	0.366
-268.311	-73.246	-0.290	-0.105
-267.297	11.564	-0.055	-0.042
-266.282	-200.000	0.044	0.231
-265.267	-71.475	-0.066	-0.024
-264.253	-200.000	-0.057	0.278
-263.238	322.102	-0.059	0.111
-262.224	-188.922	0.162	-0.002
-261.209	71.048	-0.148	-0.151
-260.195	22.387	0.105	-0.085
-259.180	39.320	0.153	-0.136
-258.165	-162.216	-0.096	-0.005
-257.151	-40.037	0.120	0.062
-256.136	800.000	0.078	0.291
-255.122	800.000	-0.086	-0.259
-254.107	-70.086	-0.182	0.068
-253.092	94.164	0.141	0.158
-252.078	431.026	0.158	-0.339
-251.063	800.000	0.063	0.185
-250.049	-200.000	0.033	-0.406
-249.034	-123.488	-0.138	-0.022
-248.019	800.000	-0.019	0.067
-247.005	-183.178	-0.254	0.004
-245.990	533.618	0.260	-0.611
-244.976	-149.707	-0.360	-0.028
-243.961	86.796	0.230	-0.252
-242.946	-200.000	0.036	0.218
-241.932	74.960	-0.137	-0.142
-240.917	17.315	-0.110	-0.086
-239.903	320.789	0.090	0.169
-238.888	800.000	-0.040	0.165
-237.873	-200.000	-0.006	0.059
-236.859	28.832	-0.163	-0.137
-235.844	19.015	0.297	-0.236
-234.830	378.402	-0.108	-0.220
-233.815	399.282	-0.039	-0.081
-232.800	-200.000	-0.018	-0.118
-231.786	800.000	0.040	0.132
-230.771	-124.377	0.082	0.013
-229.757	-98.466	-0.249	0.063
-228.742	367.927	-0.152	-0.303
-227.727	34.013	0.127	-0.110
-226.713	78.434	0.127	0.134
-225.698	-60.966	0.422	-0.177
-224.684	-117.305	-0.058	0.010
-223.669	-63.812	-0.387	-0.157
-222.655	-52.587	-0.138	-0.063
-221.640	142.081	0.082	-0.108
-220.625	22.167	0.237	-0.192
-219.611	-48.722	-0.314	-0.149
-218.596	-8.804	0.306	-0.203
-217.582	-82.379	-0.213	0.068
-216.567	-61.133	0.218	0.091
-215.552	-6.573	0.223	0.150
-214.538	233.325	-0.249	0.405
-213.523	392.080	-0.044	-0.091
-212.509	-60.528	0.058	-0.024
-211.494	-13.157	-0.383	-0.246
-210.479	557.849	0.044	0.105
-209.465	-120.637	-0.058	0.010
-208.450	197.980	0.153	-0.231
-207.436	-123.511	-0.301	0.047
-206.421	-200.000	-0.038	0.377
-205.406	-52.866	-0.303	0.138
-204.392	-200.000	-0.001	0.028
-203.377	4.683	-0.172	0.125
-202.363	800.000	0.015	0.043
-201.348	4.056	0.146	-0.106
-200.333	391.353	-0.091	-0.187
-199.319	-142.483	-0.377	-0.037
-198.304	14.381	-0.357	0.275
-197.290	-200.000	-0.020	-0.133
-196.275	52.542	-0.167	0.157
-195.260	18.699	0.230	-0.182
-194.246	376.498	0.144	0.291
-193.231	-200.000	0.024	0.407
-192.217	328.529	-0.237	0.450
-191.202	-200.000	0.002	-0.075
-190.187	-88.736	-0.268	0.079
-189.173	-200.000	-0.005	0.168
-188.158	-123.848	0.128	-0.020
-187.144	99.205	0.048	-0.055
-186.129	-85.306	0.178	-0.055
-185.114	-104.536	-0.203	0.046
-184.100	-200.000	-0.021	0.241
-183.085	-200.000	0.025	0.175
-182.071	-200.000	0.002	-0.127
-181.056	76.078	-0.159	-0.166
-180.042	184.379	-0.120	-0.176
-179.027	52.873	-0.202	0.191
-178.012	-200.000	-0.003	0.025
-176.998	-71.758	0.486	-0.179
-175.983	170.808	-0.108	0.153
-174.969	-35.051	0.216	-0.116
-173.954	-61.675	-0.111	-0.046
-172.939	-102.723	0.239	0.056
-171.925	-78.894	-0.148	-0.050
-170.910	-5.269	0.116	0.079
-169.896	506.773	0.036	-0.083
-168.881	-200.000	-0.002	-0.016
-167.866	157.700	0.070	0.095
-166.852	417.275	0.096	0.203
-165.837	-200.000	-0.027	-0.153
-164.823	-125.699	-0.291	-0.043
-163.808	-78.135	0.241	-0.082
-162.793	-12.873	-0.061	0.039
-161.779	84.451	-0.165	-0.178
-160.764	-114.136	0.246	-0.047
-159.750	11.026	0.260	0.196
-158.735	3.146	-0.141	0.101
-157.720	-200.000	0.027	-0.186
-156.706	-3.374	-0.040	-0.028
-155.691	104.954	-0.066	0.077
-154.677	105.299	-0.193	0.225
-153.662	356.210	-0.076	-0.149
-152.647	231.390	0.041	-0.067
-151.633	-107.037	-0.202	0.044
-150.618	-13.867	-0.167	-0.106
-149.604	-5.625	0.203	0.138
-148.589	-200.000	-0.031	-0.173
-147.574	229.422	-0.200	0.322
-146.560	49.572	0.104	-0.096
-145.545	-130.710	0.407	-0.054
-144.531	800.000	-0.015	-0.060
-143.516	-112.552	0.137	0.027
-142.502	329.264	-0.138	0.261
-141.487	99.452	0.199	-0.227
-140.472	0.807	0.266	0.188
-139.458	21.888	0.015	-0.012
-138.443	800.000	0.056	0.184
-137.429	381.265	-0.055	0.111
-136.414	-200.000	-0.020	-0.435
-135.399	-200.000	-0.013	0.173
-134.385	800.000	-0.029	-0.081
-133.370	249.095	-0.027	0.044
-132.356	-88.523	0.195	-0.057
-131.341	44.074	0.056	-0.050
-130.326	-200.000	0.058	0.397
-129.312	-21.786	0.159	-0.095
-128.297	188.682	-0.231	0.340
-127.283	-94.927	-0.135	-0.036
-126.268	-133.260	0.137	0.017
-125.253	-32.122	0.125	-0.069
-124.239	215.943	-0.206	0.323
-123.224	194.369	-0.020	-0.029
-122.210	-31.738	-0.061	-0.034
-121.195	800.000	0.057	0.218
