DTS Sentinel unit serial number:	SN413079Multiplexer serial number:	ORYXHardware model number:	OX4-SRSoftware version number:	ORYX F/W v4.00 Oryx Data Collector v3.7.2.0data status	okinstallation	princeton_trtdifferential loss correction	single-endedforward channel	channel 4reverse channel	N/Adate	2019/09/15time	05:17:35forward acquisition time	60.00reverse acquisition time	0.00gamma	496.2192k internal	0.2312k external	0.2312temperature offset calibration	1.0034default loss term (dB/km)	0.3790temperature slope calibration	1.0000multiplexer offset coefficient	1.0000multiplexer slope coefficient	1.0000fibre end	0.00T internal ref (°C)	30.62T ext. ref 1 (°C)	4.80T ext. ref 2 (°C)	25.51length (m)	temperature (°C)	Stokes	anti-Stokes-747.200	-200.000	-0.037	0.209
-746.185	131.996	-0.211	0.275
-745.171	-131.040	0.188	-0.025
-744.156	-24.438	-0.281	0.170
-743.142	-102.344	-0.180	0.044
-742.127	-145.515	-0.122	-0.011
-741.112	-200.000	0.022	-0.225
-740.098	71.724	0.111	0.117
-739.083	136.522	-0.058	-0.077
-738.069	72.950	-0.259	0.275
-737.054	-200.000	-0.023	-0.250
-736.039	141.552	-0.142	-0.191
-735.025	-9.365	0.107	-0.072
-734.010	-108.561	-0.305	-0.067
-732.996	640.888	0.100	-0.258
-731.981	-92.051	-0.349	-0.100
-730.966	40.914	0.255	0.234
-729.952	77.624	0.139	-0.150
-728.937	15.771	-0.371	-0.296
-727.923	-97.818	-0.181	-0.047
-726.908	18.226	0.158	-0.128
-725.894	164.995	0.035	0.051
-724.879	-115.770	-0.175	-0.033
-723.864	-126.098	-0.092	-0.014
-722.850	800.000	0.088	-0.259
-721.835	-149.457	0.435	0.035
-720.821	-140.405	0.355	0.038
-719.806	154.553	-0.118	-0.165
-718.791	225.215	0.146	0.240
-717.777	-59.579	0.228	-0.099
-716.762	122.764	-0.131	0.166
-715.748	800.000	0.084	0.348
-714.733	-200.000	0.012	0.113
-713.718	-65.302	-0.169	-0.069
-712.704	147.017	0.156	0.212
-711.689	-200.000	0.003	-0.269
-710.675	137.419	0.054	-0.071
-709.660	393.370	-0.095	-0.201
-708.645	800.000	-0.093	0.282
-707.631	-8.892	0.232	0.158
-706.616	93.772	0.085	-0.098
-705.602	800.000	0.063	0.267
-704.587	-200.000	-0.040	-0.250
-703.572	-200.000	-0.062	-0.319
-702.558	-100.784	-0.209	-0.052
-701.543	734.838	-0.106	-0.288
-700.529	-200.000	-0.006	-0.176
-699.514	-88.703	0.240	0.072
-698.499	280.562	0.116	-0.210
-697.485	2.875	-0.156	-0.114
-696.470	103.782	0.181	0.215
-695.456	11.853	0.087	0.068
-694.441	344.090	0.146	-0.291
-693.426	715.247	-0.104	-0.280
-692.412	394.038	-0.085	-0.180
-691.397	-170.005	-0.329	-0.012
-690.383	-74.329	0.240	0.088
-689.368	261.872	0.108	-0.190
-688.354	-77.396	-0.107	0.038
-687.339	186.407	-0.080	0.121
-686.324	90.184	-0.104	-0.117
-685.310	350.010	-0.182	-0.365
-684.295	-161.859	0.340	-0.017
-683.281	127.284	-0.014	-0.018
-682.266	-200.000	-0.063	0.409
-681.251	53.741	-0.185	-0.180
-680.237	23.120	-0.163	-0.135
-679.222	18.481	-0.117	-0.095
-678.208	101.457	-0.135	-0.159
-677.193	800.000	0.091	0.356
-676.178	101.902	-0.212	-0.251
-675.164	15.453	-0.282	0.224
-674.149	95.286	-0.069	-0.080
-673.135	114.592	0.043	-0.053
-672.120	-149.582	-0.389	-0.031
-671.105	214.282	0.131	-0.209
-670.091	-200.000	0.030	-0.217
-669.076	-48.747	0.033	0.016
-668.062	384.034	0.166	-0.345
-667.047	-184.930	-0.205	-0.003
-666.032	-200.000	0.068	0.417
-665.018	165.641	0.156	-0.224
-664.003	104.326	0.049	0.058
-662.989	-63.884	0.374	0.155
-661.974	-34.812	0.315	-0.174
-660.959	800.000	0.070	-0.265
-659.945	800.000	0.056	-0.232
-658.930	-50.950	0.112	-0.053
-657.916	-92.737	0.191	0.054
-656.901	-91.182	-0.248	-0.072
-655.886	422.471	-0.023	-0.049
-654.872	-58.241	-0.234	0.103
-653.857	-138.818	0.046	-0.005
-652.843	-66.999	0.244	0.097
-651.828	-139.696	-0.526	-0.057
-650.814	50.840	0.145	0.139
-649.799	433.516	0.092	-0.201
-648.784	800.000	0.030	0.122
-647.770	-70.177	0.455	0.175
-646.755	137.916	-0.165	-0.218
-645.741	-41.474	-0.234	0.122
-644.726	-83.364	0.166	0.054
-643.711	-150.393	0.257	-0.020
-642.697	-56.269	-0.143	-0.064
-641.682	61.852	0.027	-0.027
-640.668	-32.066	0.243	0.137
-639.653	-38.780	-0.217	0.116
-638.638	112.009	-0.256	0.313
-637.624	800.000	-0.077	-0.258
-636.609	-137.007	-0.455	0.053
-635.595	133.253	-0.064	0.083
-634.580	156.866	0.232	0.325
-633.565	-200.000	-0.016	-0.211
-632.551	-200.000	0.022	0.163
-631.536	-76.418	-0.139	0.049
-630.522	-200.000	0.032	-0.181
-629.507	232.321	0.140	-0.232
-628.492	-68.207	0.144	-0.057
-627.478	-200.000	0.002	0.133
-626.463	-50.680	-0.083	0.040
-625.449	98.482	0.070	-0.081
-624.434	186.142	-0.362	-0.544
-623.419	539.274	-0.097	-0.233
-622.405	-20.994	-0.295	0.182
-621.390	219.445	0.169	0.274
-620.376	-27.553	-0.182	-0.107
-619.361	-45.933	-0.112	-0.056
-618.346	-49.438	-0.340	-0.164
-617.332	-200.000	-0.005	0.217
-616.317	443.941	-0.153	-0.338
-615.303	-84.110	-0.377	-0.121
-614.288	160.542	-0.178	-0.251
-613.273	266.056	-0.052	-0.092
-612.259	-149.679	-0.440	0.035
-611.244	-86.949	-0.165	-0.051
-610.230	5.697	0.423	-0.316
-609.215	-70.761	0.237	-0.090
-608.201	800.000	-0.060	-0.194
-607.186	-159.970	-0.064	-0.004
-606.171	2.015	-0.071	0.051
-605.157	-53.883	-0.073	0.034
-604.142	-96.016	-0.257	-0.069
-603.128	-200.000	-0.049	-0.554
-602.113	222.305	0.128	-0.208
-601.098	42.852	0.269	-0.248
-600.084	-200.000	-0.037	-0.316
-599.069	253.117	0.116	-0.200
-598.055	-83.627	-0.039	0.012
-597.040	-73.534	-0.312	-0.115
-596.025	368.494	-0.119	-0.242
-595.011	58.108	-0.212	-0.210
-593.996	180.236	0.193	-0.286
-592.982	-109.136	-0.196	0.042
-591.967	-13.418	0.194	-0.127
-590.952	-103.497	0.192	-0.045
-589.938	-200.000	-0.005	-0.096
-588.923	800.000	-0.038	0.114
-587.909	86.767	0.087	0.097
-586.894	-178.612	-0.128	0.003
-585.879	56.520	-0.032	0.032
-584.865	163.091	0.255	-0.362
-583.850	103.263	0.133	-0.158
-582.836	-60.544	-0.317	-0.136
-581.821	-143.977	0.291	-0.028
-580.806	-6.422	-0.117	0.080
-579.792	572.125	0.080	-0.196
-578.777	-0.815	0.049	-0.035
-577.763	-200.000	0.048	0.221
-576.748	113.086	0.119	-0.146
-575.733	456.039	0.106	0.236
-574.719	90.427	-0.054	-0.061
-573.704	577.325	-0.097	0.240
-572.690	-176.293	0.259	-0.007
-571.675	800.000	0.036	-0.159
-570.661	-60.575	-0.183	-0.078
-569.646	242.615	-0.046	-0.078
-568.631	142.476	0.086	0.115
-567.617	-136.026	-0.210	-0.025
-566.602	-200.000	-0.008	0.341
-565.588	-116.794	-0.408	-0.075
-564.573	-55.057	-0.092	-0.042
-563.558	-128.749	0.332	-0.047
-562.544	-106.774	0.286	-0.064
-561.529	-200.000	-0.009	0.046
-560.515	-35.853	-0.279	-0.152
-559.500	226.547	-0.070	0.115
-558.485	-21.613	-0.138	0.085
-557.471	-98.182	-0.184	0.048
-556.456	-120.290	0.143	-0.025
-555.442	-94.833	-0.338	0.092
-554.427	-133.862	0.268	0.034
-553.412	-20.422	-0.341	0.211
-552.398	-39.544	-0.125	-0.066
-551.383	-160.491	-0.198	-0.011
-550.369	-93.268	-0.231	0.064
-549.354	-200.000	-0.080	-0.418
-548.339	-31.719	-0.160	0.091
-547.325	800.000	-0.086	-0.279
-546.310	-42.120	0.246	-0.127
-545.296	-200.000	-0.077	0.388
-544.281	-200.000	-0.015	-0.219
-543.266	800.000	0.105	-0.380
-542.252	-81.777	-0.255	0.084
-541.237	-11.579	0.036	-0.024
-540.223	174.231	-0.112	0.163
-539.208	-77.308	0.190	0.067
-538.193	113.400	-0.138	-0.169
-537.179	172.456	0.064	-0.093
-536.164	-141.732	-0.214	-0.022
-535.150	-140.848	-0.282	-0.029
-534.135	-157.522	-0.285	-0.017
-533.121	800.000	-0.106	-0.326
-532.106	480.364	-0.122	-0.279
-531.091	800.000	0.039	0.116
-530.077	46.778	-0.140	-0.131
-529.062	-196.628	0.180	-0.001
-528.048	800.000	-0.027	0.099
-527.033	48.276	0.152	-0.143
-526.018	-85.851	0.186	0.058
-525.004	-125.264	0.141	-0.022
-523.989	-170.870	-0.155	0.005
-522.975	318.797	0.126	0.240
-521.960	411.741	0.120	0.255
-520.945	383.233	0.158	0.328
-519.931	77.800	-0.090	-0.096
-518.916	800.000	0.107	-0.445
-517.902	-40.755	-0.112	0.058
-516.887	-48.964	0.142	-0.068
-515.872	27.148	-0.137	0.116
-514.858	-45.381	-0.223	0.111
-513.843	278.049	-0.075	-0.135
-512.829	-200.000	-0.043	0.319
-511.814	122.372	-0.150	0.188
-510.799	69.169	-0.065	0.067
-509.785	-147.705	-0.102	-0.009
-508.770	-200.000	0.003	-0.444
-507.756	-57.473	0.209	-0.092
-506.741	581.707	0.059	0.147
-505.726	-35.145	0.133	0.073
-504.712	-138.944	0.074	-0.008
-503.697	200.429	-0.166	-0.256
-502.683	31.955	0.114	-0.099
-501.668	-68.401	-0.488	-0.190
-500.653	105.428	0.238	0.282
-499.639	-149.601	0.071	-0.006
-498.624	587.318	-0.044	0.108
-497.610	-159.837	-0.304	0.017
-496.595	-39.151	0.116	-0.061
-495.581	-156.399	-0.064	0.004
-494.566	-200.000	0.089	0.394
-493.551	-85.471	-0.140	-0.044
-492.537	-200.000	-0.053	-0.296
-491.522	670.563	-0.050	-0.131
-490.508	-116.525	-0.155	-0.029
-489.493	176.697	0.316	-0.462
-488.478	296.999	0.034	-0.063
-487.464	15.732	0.223	0.176
-486.449	405.535	-0.181	-0.383
-485.435	-77.808	0.205	-0.071
-484.420	57.494	0.090	0.088
-483.405	5.296	0.194	-0.143
-482.391	-200.000	0.002	0.032
-481.376	800.000	0.107	0.449
-480.362	753.772	-0.162	-0.440
-479.347	-200.000	-0.044	-0.277
-478.332	-50.862	-0.317	0.150
-477.318	-18.777	0.385	0.241
-476.303	-200.000	0.065	0.344
-475.289	582.600	-0.097	-0.240
-474.274	100.660	0.238	0.278
-473.259	70.433	-0.030	0.031
-472.245	181.977	-0.125	-0.185
-471.230	800.000	0.033	-0.112
-470.216	-4.129	0.320	-0.223
-469.201	-94.746	-0.160	-0.044
-468.186	-200.000	0.010	-0.116
-467.172	-49.116	-0.132	0.063
-466.157	436.405	0.113	-0.246
-465.143	-80.037	-0.432	-0.146
-464.128	-101.358	0.356	0.087
-463.113	800.000	0.063	0.194
-462.099	800.000	-0.051	-0.165
-461.084	-115.038	0.172	-0.033
-460.070	212.652	-0.186	-0.294
-459.055	-21.510	-0.295	0.180
-458.040	485.677	-0.155	0.355
-457.026	262.658	-0.073	0.128
-456.011	119.178	0.263	0.327
-454.997	92.454	-0.128	-0.145
-453.982	-200.000	-0.015	0.177
-452.968	202.750	0.152	0.236
-451.953	-54.890	0.231	0.104
-450.938	235.974	-0.143	0.237
-449.924	-177.449	-0.180	0.004
-448.909	-134.192	-0.111	-0.014
-447.895	800.000	-0.053	-0.173
-446.880	552.843	-0.022	0.053
-445.865	-44.806	0.321	-0.161
-444.851	-161.891	0.382	0.019
-443.836	-200.000	-0.003	-0.058
-442.822	70.666	-0.226	0.234
-441.807	-55.018	-0.182	0.082
-440.792	-30.285	0.149	0.085
-439.778	160.410	-0.062	-0.087
-438.763	-62.534	0.212	0.088
-437.749	-38.154	-0.096	-0.051
-436.734	-48.651	0.067	0.032
-435.719	-56.958	-0.110	0.049
-434.705	277.026	0.192	0.342
-433.690	-200.000	-0.027	-0.206
-432.676	140.033	0.198	-0.262
-431.661	-14.027	-0.100	0.065
-430.646	-135.364	-0.195	-0.023
-429.632	-11.248	0.181	-0.120
-428.617	193.103	0.082	-0.124
-427.603	156.455	-0.188	-0.260
-426.588	-39.192	-0.191	0.101
-425.573	413.390	-0.083	-0.178
-424.559	335.560	0.174	0.338
-423.544	-63.757	-0.149	0.061
-422.530	492.305	0.107	-0.245
-421.515	67.625	0.138	-0.141
-420.500	-43.903	-0.105	0.053
-419.486	23.996	0.354	-0.292
-418.471	319.545	0.099	-0.188
-417.457	800.000	0.030	-0.130
-416.442	118.304	0.243	-0.300
-415.428	-36.102	0.141	-0.076
-414.413	210.510	-0.121	0.190
-413.398	-50.821	0.255	0.120
-412.384	-200.000	-0.066	0.325
-411.369	-80.542	-0.149	-0.050
-410.355	-113.275	0.247	-0.049
-409.340	-200.000	0.018	0.080
-408.325	-200.000	-0.053	-0.371
-407.311	459.530	0.103	0.230
-406.296	262.416	-0.108	0.188
-405.282	-200.000	-0.007	-0.272
-404.267	800.000	0.088	-0.312
-403.252	-118.663	0.228	-0.040
-402.238	-200.000	-0.017	-0.081
-401.223	-11.057	-0.218	0.144
-400.209	-57.431	-0.097	0.043
-399.194	-200.000	-0.053	0.397
-398.179	69.810	0.172	0.177
-397.165	-200.000	-0.014	0.208
-396.150	-91.782	0.058	0.016
-395.136	-105.918	-0.270	-0.061
-394.121	-147.271	-0.325	-0.028
-393.106	-200.000	0.098	-0.463
-392.092	800.000	0.036	0.104
-391.077	-115.984	-0.144	-0.027
-390.063	243.060	0.024	0.041
-389.048	800.000	-0.096	0.295
-388.033	-162.371	0.432	-0.021
-387.019	-127.211	0.349	-0.051
-386.004	-24.953	0.176	0.105
-384.990	572.033	-0.073	-0.178
-383.975	28.161	0.243	-0.205
-382.960	-200.000	0.038	-0.260
-381.946	161.362	-0.058	-0.081
-380.931	77.395	0.174	0.186
-379.917	-123.571	-0.082	0.013
-378.902	-200.000	-0.002	0.061
-377.888	-118.351	-0.209	0.037
-376.873	-118.776	-0.071	0.012
-375.858	800.000	-0.086	0.319
-374.844	800.000	0.034	-0.111
-373.829	-51.338	-0.364	0.170
-372.815	20.485	-0.155	-0.125
-371.800	-132.467	0.189	-0.024
-370.785	193.264	-0.128	-0.193
-369.771	-81.712	0.324	0.106
-368.756	-191.543	0.160	0.002
-367.742	-200.000	-0.042	0.222
-366.727	69.364	-0.213	0.219
-365.712	-115.076	-0.314	-0.060
-364.698	65.869	-0.127	0.129
-363.683	-200.000	0.001	-0.116
-362.669	4.628	-0.110	-0.081
-361.654	-132.823	0.154	-0.020
-360.639	354.901	-0.063	0.126
-359.625	-91.715	0.557	0.158
-358.610	57.049	-0.294	0.286
-357.596	125.967	0.250	-0.316
-356.581	-200.000	0.022	-0.289
-355.566	343.368	-0.013	0.026
-354.552	-95.098	0.481	-0.130
-353.537	-81.404	-0.093	-0.031
-352.523	19.449	-0.341	0.274
-351.508	-85.576	-0.391	0.121
-350.493	-161.786	0.257	-0.013
-349.479	-85.101	0.136	0.043
-348.464	-11.041	-0.180	0.119
-347.450	791.366	-0.063	0.174
-346.435	-142.591	0.261	-0.026
-345.420	9.207	0.248	-0.187
-344.406	-25.843	0.178	0.105
-343.391	-200.000	0.002	-0.187
-342.377	24.355	-0.134	0.110
-341.362	-110.721	-0.067	-0.014
-340.348	-178.202	0.222	-0.005
-339.333	-69.253	0.123	-0.047
-338.318	-14.927	0.242	-0.155
-337.304	800.000	-0.043	-0.133
-336.289	-14.627	-0.187	0.120
-335.275	-133.374	-0.116	0.015
-334.260	-200.000	-0.002	0.355
-333.245	150.955	0.315	-0.428
-332.231	-65.442	-0.136	0.055
-331.216	-200.000	0.013	0.062
-330.202	800.000	0.133	0.375
-329.187	-18.087	0.065	-0.041
-328.172	171.908	0.238	-0.342
-327.158	-157.698	-0.107	-0.006
-326.143	142.534	0.152	0.201
-325.129	1.373	0.109	0.079
-324.114	33.046	-0.190	-0.164
-323.099	800.000	0.065	0.224
-322.085	337.569	-0.040	0.079
-321.070	181.497	0.097	-0.142
-320.056	-114.428	-0.293	0.056
-319.041	-39.952	0.150	-0.078
-318.026	495.671	-0.046	0.106
-317.012	482.442	0.102	0.231
-315.997	-177.341	-0.103	-0.003
-314.983	57.444	-0.237	0.231
-313.968	384.095	-0.140	-0.288
-312.953	229.350	0.206	0.336
-311.939	387.297	-0.026	0.053
-310.924	267.284	0.050	0.088
-309.910	67.221	-0.210	0.214
-308.895	294.338	0.094	0.172
-307.880	-200.000	0.052	0.425
-306.866	-85.033	-0.103	0.032
-305.851	194.105	-0.099	-0.150
-304.837	252.613	-0.108	-0.183
-303.822	-138.230	-0.171	-0.019
-302.807	-25.305	0.138	0.082
-301.793	-69.330	-0.105	-0.040
-300.778	-15.982	-0.204	-0.129
-299.764	-136.355	-0.385	0.045
-298.749	16.429	-0.268	-0.211
-297.735	518.640	-0.103	0.240
-296.720	142.538	-0.055	-0.072
-295.705	-130.221	0.196	-0.027
-294.691	-143.726	0.364	-0.034
-293.676	-200.000	-0.012	-0.117
-292.662	187.065	-0.089	-0.132
-291.647	560.882	-0.149	0.359
-290.632	800.000	-0.028	-0.096
-289.618	-23.841	0.275	-0.164
-288.603	-98.748	-0.031	-0.008
-287.589	-200.000	-0.024	0.177
-286.574	800.000	0.036	-0.137
-285.559	-200.000	-0.001	0.122
-284.545	345.795	-0.105	-0.205
-283.530	570.384	0.102	0.247
-282.516	800.000	0.073	0.231
-281.501	-135.984	0.170	0.020
-280.486	-2.961	0.089	0.062
-279.472	30.874	0.115	0.098
-278.457	-44.934	0.196	0.097
-277.443	9.403	0.083	0.063
-276.428	-15.723	0.130	-0.083
-275.413	-14.388	0.108	0.069
-274.399	800.000	-0.074	0.245
-273.384	-63.120	-0.208	0.086
-272.370	800.000	-0.026	-0.106
-271.355	-200.000	-0.007	0.190
-270.340	-137.934	0.164	0.018
-269.326	800.000	-0.019	-0.067
-268.311	300.036	0.058	-0.107
-267.297	-200.000	0.024	-0.141
-266.282	-200.000	0.030	-0.404
-265.267	-200.000	0.214	-0.001
-264.253	-92.965	-0.179	0.050
-263.238	48.863	-0.052	-0.048
-262.224	-200.000	-0.040	0.274
-261.209	-200.000	0.000	0.219
-260.195	196.994	-0.167	0.253
-259.180	121.906	0.292	-0.363
-258.165	103.093	0.135	0.157
-257.151	-91.428	-0.123	-0.035
-256.136	800.000	-0.138	0.458
-255.122	149.122	-0.153	-0.205
-254.107	800.000	0.054	-0.172
-253.092	298.543	-0.045	0.082
-252.078	-78.306	-0.105	0.036
-251.063	120.048	0.276	0.340
-250.049	499.511	0.073	0.168
-249.034	308.046	-0.079	0.147
-248.019	78.775	-0.143	0.153
-247.005	251.281	-0.054	-0.091
-245.990	-4.067	0.310	0.214
-244.976	36.363	-0.053	-0.047
-243.961	-90.412	0.201	-0.058
-242.946	-110.423	0.227	-0.047
-241.932	-76.996	0.270	-0.094
-240.917	-17.888	-0.053	-0.033
-239.903	-200.000	0.005	0.259
-238.888	-147.173	-0.192	0.016
-237.873	-12.814	0.232	0.150
-236.859	-81.874	-0.255	-0.083
-235.844	-200.000	-0.018	-0.164
-234.830	-50.532	0.351	-0.165
-233.815	-24.661	-0.160	-0.095
-232.800	348.655	-0.162	0.319
-231.786	-123.645	-0.392	0.062
-230.771	192.948	-0.090	0.135
-229.757	-50.475	-0.177	0.083
-228.742	123.894	0.236	0.295
-227.727	-60.574	0.241	-0.102
-226.713	95.631	-0.049	-0.055
-225.698	800.000	-0.037	-0.135
-224.684	71.514	-0.113	0.116
-223.669	-200.000	0.082	-0.412
-222.655	-200.000	0.392	-0.002
-221.640	-115.334	0.289	-0.054
-220.625	800.000	-0.097	0.394
-219.611	-105.137	-0.181	0.041
-218.596	-120.205	-0.232	0.039
-217.582	39.913	-0.301	-0.268
-216.567	41.995	0.235	0.212
-215.552	-69.870	-0.059	0.022
-214.538	31.690	-0.146	-0.125
-213.523	-200.000	0.005	0.157
-212.509	21.470	0.218	0.176
-211.494	355.974	0.137	-0.272
-210.479	-97.169	0.235	0.061
-209.465	224.340	0.170	0.273
-208.450	-6.408	0.319	0.216
-207.436	-200.000	-0.091	0.564
-206.421	-200.000	0.011	0.175
-205.406	-73.272	0.121	-0.044
-204.392	-23.193	-0.041	0.025
-203.377	-200.000	-0.037	0.350
-202.363	81.837	0.268	-0.288
-201.348	-29.507	0.363	-0.206
-200.333	68.279	-0.091	0.092
-199.319	170.683	0.164	-0.233
-198.304	-51.616	0.101	-0.047
-197.290	124.661	0.049	-0.062
-196.275	150.569	0.115	-0.155
-195.260	16.424	0.171	0.134
-194.246	137.544	0.196	0.255
-193.231	68.608	-0.247	-0.252
-192.217	-200.000	0.041	-0.232
-191.202	-70.624	-0.043	-0.016
-190.187	-200.000	0.009	0.139
-189.173	-68.905	0.109	0.042
-188.158	800.000	0.022	0.063
-187.144	-104.604	-0.063	-0.015
-186.129	-200.000	0.053	-0.303
-185.114	225.929	-0.171	-0.276
-184.100	-94.485	-0.052	-0.014
-183.085	800.000	-0.045	0.134
-182.071	-200.000	-0.038	-0.167
-181.056	-107.176	0.126	-0.028
-180.042	-59.816	0.266	-0.113
-179.027	-133.081	-0.436	0.055
-178.012	800.000	-0.059	0.173
-176.998	609.421	0.136	0.338
-175.983	-116.484	-0.099	-0.018
-174.969	76.714	-0.222	-0.234
-173.954	-165.754	-0.276	0.012
-172.939	-200.000	-0.002	0.343
-171.925	81.087	0.197	-0.211
-170.910	-87.411	-0.066	-0.020
-169.896	-105.147	-0.216	0.049
-168.881	16.528	0.125	0.098
-167.866	38.688	0.082	0.072
-166.852	-15.540	-0.045	-0.028
-165.837	-200.000	-0.001	0.231
-164.823	-125.426	0.084	0.013
-163.808	-52.017	0.046	0.021
-162.793	800.000	0.112	0.329
-161.779	-25.092	0.272	0.160
-160.764	-200.000	0.004	0.247
-159.750	-101.809	0.164	0.039
-158.735	-109.007	0.129	0.027
-157.720	-200.000	-0.025	-0.355
-156.706	-16.379	-0.224	0.141
-155.691	-20.620	0.157	0.095
-154.677	30.332	-0.160	-0.136
-153.662	115.678	-0.070	0.085
-152.647	-200.000	0.052	0.247
-151.633	170.960	-0.080	0.114
-150.618	800.000	-0.059	-0.244
-149.604	64.710	-0.114	-0.114
-148.589	135.190	-0.220	0.284
-147.574	-200.000	0.034	0.158
-146.560	-200.000	0.043	0.234
-145.545	321.772	-0.082	0.155
-144.531	62.057	0.007	0.007
-143.516	-9.917	0.271	-0.178
-142.502	-38.924	0.108	-0.056
-141.487	-88.745	0.091	-0.027
-140.472	23.469	0.148	-0.121
-139.458	-58.683	0.163	-0.070
-138.443	-126.141	0.126	-0.019
-137.429	800.000	0.100	-0.328
-136.414	-76.954	0.400	-0.138
-135.399	-90.494	0.298	-0.086
-134.385	361.619	0.047	0.094
-133.370	2.917	0.032	-0.023
-132.356	220.093	0.078	0.124
-131.341	-47.456	0.135	0.065
-130.326	800.000	-0.092	0.260
-129.312	94.843	0.135	-0.153
-128.297	-132.803	0.169	-0.021
-127.283	142.955	0.131	0.173
-126.268	135.022	0.363	-0.467
-125.253	-136.626	0.093	0.011
-124.239	-200.000	0.046	0.234
-123.224	70.095	0.165	-0.169
-122.210	-200.000	0.041	-0.296
