DTS Sentinel unit serial number:	SN413079Multiplexer serial number:	ORYXHardware model number:	OX4-SRSoftware version number:	ORYX F/W v4.00 Oryx Data Collector v3.7.2.0data status	okinstallation	princeton_trtdifferential loss correction	single-endedforward channel	channel 4reverse channel	N/Adate	2019/09/18time	21:49:35forward acquisition time	60.00reverse acquisition time	0.00gamma	496.2192k internal	0.2332k external	0.2332temperature offset calibration	1.0032default loss term (dB/km)	0.3790temperature slope calibration	1.0000multiplexer offset coefficient	1.0000multiplexer slope coefficient	1.0000fibre end	0.00T internal ref (°C)	24.78T ext. ref 1 (°C)	0.82T ext. ref 2 (°C)	18.33length (m)	temperature (°C)	Stokes	anti-Stokes-747.200	433.523	0.071	-0.156
-746.185	313.160	0.097	-0.183
-745.171	-154.940	0.750	0.050
-744.156	800.000	0.138	0.427
-743.142	124.959	0.227	0.287
-742.127	-141.925	-0.392	0.039
-741.112	639.160	0.229	-0.586
-740.098	-90.969	-0.252	-0.073
-739.083	800.000	0.014	0.050
-738.069	83.180	-0.352	0.385
-737.054	7.011	0.299	0.224
-736.039	-182.832	-0.102	0.002
-735.025	-15.909	0.169	0.108
-734.010	-68.942	-0.125	-0.049
-732.996	-103.675	-0.160	0.038
-731.981	-99.187	0.117	-0.030
-730.966	362.946	-0.108	0.218
-729.952	367.996	0.033	-0.067
-728.937	-80.979	-0.295	-0.098
-727.923	-200.000	-0.060	-0.364
-726.908	-163.056	0.378	0.018
-725.894	564.540	-0.018	-0.043
-724.879	-90.627	-0.084	0.024
-723.864	193.951	0.233	-0.354
-722.850	84.841	0.192	-0.211
-721.835	-75.266	-0.355	0.128
-720.821	510.316	-0.077	0.180
-719.806	84.341	-0.041	0.045
-718.791	-17.945	-0.212	-0.134
-717.777	-100.065	-0.308	-0.077
-716.762	-137.580	0.190	0.021
-715.748	457.002	0.112	0.250
-714.733	-74.934	0.245	0.088
-713.718	203.868	-0.170	-0.265
-712.704	395.610	0.032	-0.067
-711.689	104.448	-0.156	-0.184
-710.675	-144.527	0.223	0.021
-709.660	-4.735	0.168	-0.117
-708.645	71.141	-0.055	-0.057
-707.631	-6.293	0.276	0.189
-706.616	121.860	-0.071	0.089
-705.602	193.282	-0.128	0.195
-704.587	339.227	-0.085	-0.166
-703.572	69.394	0.121	0.125
-702.558	34.636	0.169	0.149
-701.543	174.110	-0.147	0.214
-700.529	-127.304	0.116	-0.017
-699.514	492.364	-0.063	-0.144
-698.499	800.000	-0.024	-0.070
-697.485	-200.000	-0.022	0.098
-696.470	99.220	-0.127	0.148
-695.456	-80.899	0.191	-0.064
-694.441	190.569	-0.076	0.115
-693.426	110.388	0.131	0.158
-692.412	800.000	0.015	0.042
-691.397	-45.330	0.368	-0.183
-690.383	20.632	-0.135	-0.110
-689.368	300.933	-0.094	-0.174
-688.354	-25.373	-0.072	0.043
-687.339	800.000	-0.059	0.200
-686.324	800.000	-0.101	0.299
-685.310	-164.894	-0.213	0.010
-684.295	-70.116	0.048	-0.018
-683.281	-200.000	-0.004	0.158
-682.266	586.974	-0.055	0.135
-681.251	800.000	-0.029	0.112
-680.237	-200.000	-0.039	-0.223
-679.222	-179.896	0.149	-0.003
-678.208	-56.852	-0.204	-0.090
-677.193	161.301	0.024	-0.033
-676.178	-103.071	0.210	-0.050
-675.164	800.000	-0.095	-0.370
-674.149	450.799	-0.033	0.072
-673.135	-84.479	0.249	-0.079
-672.120	-200.000	-0.019	0.150
-671.105	353.126	0.109	0.217
-670.091	10.127	-0.211	-0.161
-669.076	800.000	-0.114	0.365
-668.062	141.645	-0.103	-0.137
-667.047	800.000	-0.077	-0.214
-666.032	-200.000	0.017	0.201
-665.018	-65.838	-0.182	0.073
-664.003	-153.752	-0.196	0.013
-662.989	-104.656	-0.151	0.035
-661.974	-200.000	0.001	0.211
-660.959	-200.000	0.003	0.369
-659.945	-97.980	-0.067	0.017
-658.930	25.274	-0.112	-0.093
-657.916	312.700	-0.050	-0.094
-656.901	84.956	-0.116	-0.127
-655.886	95.149	0.054	0.062
-654.872	245.930	-0.053	0.090
-653.857	-200.000	0.052	-0.304
-652.843	800.000	-0.086	-0.278
-651.828	-200.000	0.004	0.397
-650.814	306.399	-0.194	0.361
-649.799	59.370	-0.023	0.023
-648.784	-141.279	-0.258	0.026
-647.770	800.000	-0.017	0.052
-646.755	800.000	-0.040	-0.168
-645.741	800.000	0.050	-0.157
-644.726	11.964	0.221	-0.170
-643.711	-200.000	0.007	-0.382
-642.697	779.899	-0.090	-0.247
-641.682	-104.164	-0.127	0.030
-640.668	-94.900	-0.497	-0.135
-639.653	-200.000	0.022	0.230
-638.638	-93.719	-0.180	0.050
-637.624	-200.000	0.034	-0.221
-636.609	436.472	0.179	0.390
-635.595	150.644	0.240	-0.327
-634.580	-61.937	-0.162	-0.068
-633.565	6.204	0.377	0.280
-632.551	794.876	-0.065	-0.180
-631.536	-72.965	0.303	-0.111
-630.522	-200.000	0.030	-0.150
-629.507	-44.600	0.198	0.099
-628.492	-132.085	-0.314	-0.041
-627.478	137.460	-0.282	0.369
-626.463	800.000	0.029	-0.081
-625.449	-87.408	-0.354	-0.107
-624.434	-50.172	0.048	0.023
-623.419	-89.861	0.254	0.074
-622.405	31.296	0.118	-0.101
-621.390	-15.978	0.218	-0.139
-620.376	-97.675	0.269	-0.070
-619.361	800.000	-0.001	0.004
-618.346	-200.000	-0.002	-0.272
-617.332	-129.237	0.284	0.040
-616.317	33.808	-0.045	-0.039
-615.303	-15.274	0.184	0.118
-614.288	30.553	-0.104	0.089
-613.273	70.181	-0.222	-0.230
-612.259	176.349	0.104	-0.151
-611.244	-97.417	0.140	-0.037
-610.230	695.018	0.073	0.191
-609.215	-67.287	-0.144	-0.057
-608.201	-115.182	-0.182	0.034
-607.186	97.082	0.159	-0.182
-606.171	393.603	-0.112	0.234
-605.157	800.000	-0.106	0.305
-604.142	238.099	0.133	-0.221
-603.128	-67.322	0.464	-0.183
-602.113	-57.756	-0.153	0.067
-601.098	-200.000	-0.074	-0.358
-600.084	34.490	0.011	-0.009
-599.069	-30.856	0.112	-0.064
-598.055	-179.405	-0.179	-0.004
-597.040	153.439	-0.062	-0.085
-596.025	49.788	0.154	0.145
-595.011	-75.557	-0.196	0.070
-593.996	-114.739	-0.092	-0.018
-592.982	-200.000	-0.021	-0.153
-591.967	-113.203	-0.263	0.052
-590.952	-200.000	-0.010	-0.097
-589.938	-132.200	0.088	0.011
-588.923	-134.582	-0.039	0.005
-587.909	41.253	0.157	0.142
-586.894	-38.082	0.061	-0.032
-585.879	194.264	-0.088	-0.133
-584.865	-200.000	0.029	-0.218
-583.850	-42.762	0.190	-0.096
-582.836	-30.952	0.213	0.120
-581.821	-200.000	0.016	0.264
-580.806	-64.092	0.146	-0.060
-579.792	-111.918	-0.067	0.013
-578.777	-118.412	-0.302	0.054
-577.763	279.194	-0.107	0.191
-576.748	-40.514	-0.490	0.254
-575.733	-82.200	0.080	0.026
-574.719	75.942	-0.123	-0.130
-573.704	138.200	-0.165	0.217
-572.690	-117.501	-0.201	-0.036
-571.675	-95.953	0.268	0.071
-570.661	-154.210	-0.109	0.007
-569.646	-200.000	-0.040	0.194
-568.631	-69.464	-0.232	-0.089
-567.617	121.290	-0.086	-0.107
-566.602	-200.000	0.020	-0.462
-565.588	800.000	-0.093	0.273
-564.573	-200.000	0.013	0.387
-563.558	-200.000	-0.043	-0.209
-562.544	73.099	-0.166	-0.173
-561.529	626.990	0.125	-0.315
-560.515	81.041	-0.110	0.119
-559.500	800.000	-0.026	-0.076
-558.485	-0.113	-0.333	0.237
-557.471	800.000	0.022	-0.069
-556.456	-200.000	0.007	-0.211
-555.442	22.640	-0.155	-0.127
-554.427	-200.000	0.007	0.116
-553.412	388.067	0.070	-0.144
-552.398	60.359	0.031	0.030
-551.383	-71.517	0.292	0.109
-550.369	-92.997	-0.126	-0.035
-549.354	-29.377	-0.176	-0.101
-548.339	195.332	-0.198	-0.300
-547.325	80.118	0.404	-0.434
-546.310	800.000	0.031	-0.089
-545.296	-200.000	-0.229	0.000
-544.281	167.013	-0.138	0.195
-543.266	6.490	-0.183	0.136
-542.252	-200.000	0.003	-0.039
-541.237	22.223	0.105	-0.086
-540.223	202.476	-0.171	-0.264
-539.208	-21.637	-0.112	0.068
-538.193	-200.000	0.020	0.328
-537.179	-144.703	-0.054	0.005
-536.164	-81.016	0.133	-0.044
-535.150	62.434	0.148	0.147
-534.135	-103.576	-0.147	-0.034
-533.121	800.000	-0.041	-0.159
-532.106	274.993	0.149	-0.263
-531.091	0.470	0.169	0.120
-530.077	800.000	0.087	0.364
-529.062	800.000	-0.060	0.206
-528.048	800.000	-0.140	-0.470
-527.033	140.236	0.075	-0.099
-526.018	-114.733	0.134	0.025
-525.004	-72.856	-0.474	-0.174
-523.989	-7.332	-0.054	-0.037
-522.975	800.000	0.094	-0.289
-521.960	-31.495	0.196	0.110
-520.945	35.772	-0.244	-0.214
-519.931	800.000	0.052	0.148
-518.916	-180.801	0.107	-0.002
-517.902	190.130	-0.201	0.302
-516.887	24.714	0.228	-0.188
-515.872	-26.526	-0.517	-0.302
-514.858	-25.949	0.164	0.096
-513.843	-112.942	0.126	-0.025
-512.829	393.174	-0.123	-0.256
-511.814	48.090	-0.079	0.073
-510.799	72.016	0.205	-0.213
-509.785	-28.913	0.265	-0.152
-508.770	186.763	0.066	0.098
-507.756	-53.103	0.072	-0.033
-506.741	-200.000	0.009	-0.236
-505.726	14.333	-0.189	0.147
-504.712	422.535	-0.077	0.165
-503.697	-4.547	0.222	0.153
-502.683	-19.745	-0.360	-0.222
-501.668	429.700	-0.028	-0.061
-500.653	-114.617	-0.230	-0.044
-499.639	-40.851	-0.116	-0.060
-498.624	109.591	0.169	0.201
-497.610	-43.012	0.301	-0.152
-496.595	-163.839	-0.126	-0.006
-495.581	-200.000	-0.035	-0.177
-494.566	174.409	-0.246	-0.354
-493.551	-13.673	0.218	0.141
-492.537	-200.000	-0.022	-0.126
-491.522	-200.000	-0.004	-0.171
-490.508	800.000	0.059	-0.224
-489.493	-137.882	-0.224	0.025
-488.478	-175.337	-0.019	0.001
-487.464	-200.000	-0.026	-0.378
-486.449	800.000	-0.035	-0.142
-485.435	-6.376	-0.039	0.026
-484.420	-19.272	-0.063	0.039
-483.405	587.692	0.072	0.177
-482.391	-200.000	-0.012	0.147
-481.376	-200.000	0.009	-0.208
-480.362	800.000	0.081	-0.295
-479.347	-7.382	0.153	0.103
-478.332	477.250	-0.103	-0.232
-477.318	800.000	0.069	-0.232
-476.303	299.544	0.151	-0.277
-475.289	-66.591	0.135	-0.053
-474.274	213.149	0.136	0.214
-473.259	-83.657	-0.191	0.061
-472.245	800.000	-0.111	-0.393
-471.230	800.000	-0.051	0.175
-470.216	-60.037	-0.278	0.118
-469.201	-89.386	0.168	-0.049
-468.186	-13.557	0.108	-0.070
-467.172	186.344	-0.200	-0.296
-466.157	764.343	-0.056	0.152
-465.143	482.525	0.152	-0.344
-464.128	800.000	-0.049	-0.149
-463.113	-200.000	-0.029	0.484
-462.099	180.355	-0.265	-0.387
-461.084	189.948	-0.128	0.191
-460.070	800.000	-0.090	0.291
-459.055	74.931	0.259	0.271
-458.040	-78.092	-0.277	0.095
-457.026	591.903	0.041	-0.100
-456.011	81.462	-0.122	-0.131
-454.997	-200.000	0.016	-0.321
-453.982	-49.707	-0.309	-0.146
-452.968	800.000	-0.026	-0.094
-451.953	266.074	0.173	-0.300
-450.938	800.000	0.106	0.307
-449.924	-83.777	-0.040	0.013
-448.909	-82.152	0.410	-0.133
-447.895	164.985	-0.058	-0.081
-446.880	800.000	0.046	0.168
-445.865	535.339	0.022	-0.053
-444.851	-109.675	0.119	-0.025
-443.836	-117.980	0.216	-0.038
-442.822	183.924	-0.053	0.078
-441.807	-39.580	0.412	-0.214
-440.792	33.378	0.064	0.056
-439.778	-200.000	-0.025	0.216
-438.763	-1.527	0.457	-0.320
-437.749	52.217	-0.224	0.213
-436.734	800.000	-0.009	-0.037
-435.719	-142.520	-0.230	0.022
-434.705	-200.000	-0.043	0.498
-433.690	78.149	-0.130	0.138
-432.676	-82.783	0.069	0.022
-431.661	-194.605	-0.273	0.002
-430.646	-51.229	-0.041	0.019
-429.632	-125.312	-0.146	-0.022
-428.617	-156.839	-0.085	-0.005
-427.603	-200.000	-0.041	0.251
-426.588	-120.266	0.239	-0.041
-425.573	126.861	-0.119	-0.150
-424.559	-200.000	-0.033	0.177
-423.544	-200.000	-0.002	-0.159
-422.530	-2.335	0.122	-0.085
-421.515	789.243	0.081	0.221
-420.500	-96.273	0.090	0.024
-419.486	266.897	0.166	0.288
-418.471	22.851	-0.113	-0.092
-417.457	-2.409	0.295	-0.205
-416.442	800.000	-0.064	0.198
-415.428	10.263	-0.555	-0.420
-414.413	88.632	-0.125	-0.138
-413.398	114.708	0.227	0.274
-412.384	-9.316	0.170	-0.113
-411.369	33.855	0.164	0.142
-410.355	-200.000	0.029	-0.210
-409.340	-200.000	0.107	0.652
-408.325	20.460	-0.075	0.060
-407.311	-93.552	0.271	-0.074
-406.296	-137.853	-0.219	-0.024
-405.282	18.282	-0.272	0.216
-404.267	-200.000	0.532	0.002
-403.252	-82.816	0.207	0.066
-402.238	380.821	-0.039	-0.079
-401.223	44.169	-0.210	0.192
-400.209	-54.512	-0.183	-0.082
-399.194	-200.000	0.007	-0.100
-398.179	785.266	-0.069	0.188
-397.165	-200.000	0.060	0.298
-396.150	-42.746	-0.061	0.031
-395.136	-76.792	-0.430	-0.149
-394.121	398.802	0.089	-0.185
-393.106	-109.433	-0.129	0.027
-392.092	-73.553	-0.243	0.088
-391.077	40.536	-0.119	0.106
-390.063	75.831	0.233	-0.245
-389.048	-200.000	-0.033	0.157
-388.033	-43.624	0.203	-0.102
-387.019	540.083	0.065	0.153
-386.004	110.796	-0.145	0.173
-384.990	-200.000	0.052	-0.277
-383.975	-59.098	0.269	0.115
-382.960	-36.661	-0.205	-0.109
-381.946	53.444	-0.318	-0.303
-380.931	404.184	0.103	0.216
-379.917	-19.953	0.087	-0.053
-378.902	-141.229	0.239	-0.024
-377.888	109.067	-0.097	0.115
-376.873	138.158	0.122	-0.159
-375.858	-16.210	-0.397	-0.250
-374.844	-16.655	0.218	0.137
-373.829	800.000	-0.082	0.325
-372.815	-97.840	-0.163	0.042
-371.800	-92.830	-0.173	-0.048
-370.785	104.821	0.313	0.366
-369.771	-200.000	0.011	0.243
-368.756	-93.368	-0.192	-0.053
-367.742	-59.738	-0.091	0.039
-366.727	-92.747	-0.234	0.065
-365.712	428.900	0.150	-0.321
-364.698	216.788	-0.202	0.319
-363.683	92.291	-0.258	0.289
-362.669	-55.876	0.181	0.080
-361.654	800.000	0.004	-0.012
-360.639	-101.364	0.284	-0.069
-359.625	-200.000	0.008	0.218
-358.610	497.371	0.062	-0.142
-357.596	536.003	-0.103	-0.242
-356.581	-39.352	-0.148	-0.077
-355.566	186.629	-0.106	-0.157
-354.552	-108.140	0.036	0.008
-353.537	-64.593	0.163	0.066
-352.523	-117.577	0.240	0.043
-351.508	3.925	0.299	-0.216
-350.493	775.254	0.072	0.194
-349.479	-200.000	-0.049	-0.345
-348.464	65.001	-0.071	-0.071
-347.450	122.036	0.160	0.198
-346.435	-98.238	-0.127	-0.032
-345.420	-198.722	0.076	0.000
-344.406	172.368	-0.095	0.135
-343.391	800.000	0.063	-0.174
-342.377	46.750	0.153	-0.140
-341.362	-93.525	0.231	-0.063
-340.348	96.107	0.075	0.085
-339.333	245.683	0.080	0.133
-338.318	711.596	-0.021	0.054
-337.304	800.000	0.082	0.260
-336.289	-200.000	-0.014	0.128
-335.275	-121.974	0.151	-0.025
-334.260	13.720	-0.042	0.033
-333.245	-86.210	0.101	-0.031
-332.231	-200.000	0.032	0.314
-331.216	-60.774	-0.061	0.025
-330.202	800.000	-0.078	0.309
-329.187	-76.463	-0.269	0.094
-328.172	676.864	0.079	-0.203
-327.158	261.179	0.100	-0.171
-326.143	-85.933	0.152	0.047
-325.129	53.661	0.194	0.185
-324.114	31.541	-0.133	0.113
-323.099	-92.684	-0.252	0.070
-322.085	-200.000	-0.032	0.244
-321.070	-186.969	0.327	-0.004
-320.056	174.579	-0.288	-0.413
-319.041	-50.375	0.252	-0.118
-318.026	-135.793	0.102	0.012
-317.012	319.856	-0.057	0.106
-315.997	209.751	-0.216	0.336
-314.983	663.071	-0.112	-0.285
-313.968	688.279	-0.120	-0.310
-312.953	567.624	-0.062	0.148
-311.939	800.000	-0.089	-0.295
-310.924	-89.956	-0.297	-0.086
-309.910	-100.417	-0.294	-0.072
-308.895	-69.076	0.146	0.055
-307.880	-200.000	0.042	0.323
-306.866	-18.285	-0.331	0.205
-305.851	519.353	0.074	-0.171
-304.837	644.058	0.050	0.127
-303.822	-200.000	-0.054	0.554
-302.807	59.624	-0.126	0.123
-301.793	800.000	0.104	0.381
-300.778	58.749	-0.146	0.141
-299.764	-107.323	0.482	-0.105
-298.749	-144.145	-0.330	0.031
-297.735	321.412	0.102	0.191
-296.720	-116.059	-0.101	0.019
-295.705	316.845	-0.047	-0.088
-294.691	-41.329	-0.219	-0.111
-293.676	8.470	-0.159	0.118
-292.662	-200.000	-0.044	0.208
-291.647	206.366	-0.161	0.248
-290.632	108.964	0.172	-0.203
-289.618	-200.000	-0.006	-0.160
-288.603	91.070	-0.309	-0.342
-287.589	-182.520	0.037	-0.001
-286.574	-86.302	-0.464	0.141
-285.559	-200.000	-0.030	-0.179
-284.545	800.000	-0.028	0.084
-283.530	-0.186	0.312	-0.219
-282.516	-116.915	0.259	0.047
-281.501	165.860	-0.197	0.276
-280.486	376.957	-0.118	0.238
-279.472	-27.023	-0.296	0.171
-278.457	-90.364	0.273	0.078
-277.443	543.837	-0.091	-0.215
-276.428	-54.263	0.232	0.104
-275.413	-60.216	0.436	-0.184
-274.399	-4.544	0.328	-0.224
-273.384	92.076	-0.224	0.249
-272.370	-20.340	0.444	0.270
-271.355	-81.935	-0.180	-0.058
-270.340	-90.293	-0.259	0.074
-269.326	-200.000	0.028	-0.197
-268.311	100.387	-0.070	-0.081
-267.297	62.370	-0.157	0.155
-266.282	33.420	-0.315	-0.270
-265.267	-71.655	-0.123	0.045
-264.253	194.146	0.026	-0.039
-263.238	61.656	0.166	0.163
-262.224	-34.593	-0.216	-0.117
-261.209	800.000	0.089	0.262
-260.195	76.863	-0.208	-0.218
-259.180	584.187	0.042	0.102
-258.165	-164.027	0.175	-0.008
-257.151	-38.954	0.249	-0.129
-256.136	231.998	0.087	-0.140
-255.122	-200.000	-0.000	0.026
-254.107	214.931	-0.128	0.200
-253.092	-136.156	0.108	0.013
-252.078	-56.797	-0.117	-0.051
-251.063	601.637	-0.017	-0.043
-250.049	-111.472	0.288	-0.058
-249.034	-77.198	0.219	0.075
-248.019	-200.000	0.010	-0.165
-247.005	-79.313	-0.114	0.038
-245.990	59.162	0.209	0.203
-244.976	531.718	0.135	0.315
-243.961	56.336	0.160	0.153
-242.946	-24.672	-0.077	0.045
-241.932	-200.000	0.003	-0.187
-240.917	800.000	-0.091	-0.255
-239.903	800.000	-0.096	0.283
-238.888	-97.654	-0.134	0.034
-237.873	800.000	0.046	0.172
-236.859	-200.000	-0.024	-0.270
-235.844	-73.686	-0.116	0.042
-234.830	47.127	0.036	-0.033
-233.815	-32.812	0.223	-0.122
-232.800	-70.729	0.231	-0.086
-231.786	-200.000	0.003	0.106
-230.771	53.576	0.105	-0.100
-229.757	-81.860	0.178	0.057
-228.742	-58.253	0.336	-0.144
-227.727	-200.000	0.038	0.337
-226.713	-200.000	-0.039	-0.272
-225.698	165.812	-0.101	-0.141
-224.684	305.198	-0.111	-0.203
-223.669	-200.000	-0.004	0.232
-222.655	-26.892	0.191	-0.110
-221.640	-133.684	-0.303	-0.037
-220.625	179.269	0.312	0.449
-219.611	88.349	0.141	-0.154
-218.596	47.510	-0.058	-0.053
-217.582	-200.000	0.048	-0.231
-216.567	-200.000	0.004	0.222
-215.552	800.000	0.052	0.204
-214.538	-200.000	0.017	-0.231
-213.523	-200.000	-0.029	0.193
-212.509	-200.000	-0.032	0.199
-211.494	-200.000	-0.008	-0.146
-210.479	-27.153	0.176	0.101
-209.465	-54.776	0.205	-0.091
-208.450	-52.063	0.347	0.159
-207.436	26.772	-0.204	0.168
-206.421	-87.511	0.202	-0.060
-205.406	74.952	-0.061	-0.063
-204.392	800.000	0.028	-0.117
-203.377	761.731	-0.085	0.227
-202.363	211.194	-0.166	-0.257
-201.348	-178.670	0.481	-0.011
-200.333	240.188	-0.106	0.174
-199.319	-67.068	-0.196	-0.076
-198.304	-135.224	0.145	-0.017
-197.290	-200.000	-0.008	0.134
-196.275	60.847	-0.164	-0.160
-195.260	-91.211	0.129	0.036
-194.246	-104.265	-0.085	0.020
-193.231	-20.248	-0.100	0.061
-192.217	-188.007	-0.182	-0.002
-191.202	-140.367	0.122	0.013
-190.187	44.071	0.133	0.120
-189.173	-200.000	0.004	-0.090
-188.158	-11.888	0.364	-0.235
-187.144	-93.786	-0.335	0.091
-186.129	-63.369	0.110	0.045
-185.114	-127.944	0.099	0.014
-184.100	800.000	0.043	-0.179
-183.085	-37.584	-0.146	-0.077
-182.071	-146.750	0.254	0.022
-181.056	208.045	-0.055	-0.085
-180.042	-6.523	0.062	0.041
-179.027	-77.535	0.272	0.093
-178.012	201.106	0.034	0.052
-176.998	-200.000	0.011	0.139
-175.983	-194.042	0.138	-0.001
-174.969	-200.000	0.052	-0.374
-173.954	-42.913	0.311	0.155
-172.939	255.967	0.024	0.041
-171.925	-39.891	0.229	0.118
-170.910	-93.110	-0.218	0.060
-169.896	-118.498	0.422	-0.074
-168.881	-121.470	-0.375	0.061
-167.866	800.000	-0.086	0.258
-166.852	800.000	0.068	0.234
-165.837	-18.411	0.302	0.186
-164.823	112.872	-0.177	0.211
-163.808	-200.000	-0.052	-0.294
-162.793	521.288	-0.069	0.158
-161.779	-200.000	0.003	-0.097
-160.764	378.206	-0.249	0.501
-159.750	800.000	-0.049	0.192
-158.735	-138.767	0.072	-0.008
-157.720	-116.049	0.193	-0.035
-156.706	-27.550	-0.237	-0.135
-155.691	-62.868	0.196	-0.080
-154.677	-57.439	0.220	0.095
-153.662	-146.369	-0.286	-0.025
-152.647	800.000	0.092	0.254
-151.633	393.784	-0.133	0.272
-150.618	253.461	0.174	0.291
-149.604	140.973	0.106	0.138
-148.589	-156.509	0.225	0.014
-147.574	204.884	0.044	-0.067
-146.560	-71.789	-0.229	-0.084
-145.545	-200.000	-0.017	-0.229
-144.531	320.151	0.083	-0.155
-143.516	227.985	-0.095	0.151
-142.502	800.000	0.018	-0.068
-141.487	21.429	0.309	0.247
-140.472	-174.434	-0.122	-0.003
-139.458	29.142	-0.132	-0.110
-138.443	-114.705	0.079	-0.015
-137.429	471.506	-0.065	-0.143
-136.414	-200.000	-0.014	-0.203
-135.399	-70.640	-0.205	-0.076
-134.385	800.000	-0.022	0.085
-133.370	-200.000	-0.015	-0.178
-132.356	24.579	0.243	-0.197
-131.341	-56.329	0.147	-0.064
-130.326	-58.819	-0.213	-0.091
-129.312	225.660	0.128	0.204
-128.297	79.051	-0.162	-0.170
-127.283	9.451	-0.330	-0.245
-126.268	-56.826	0.225	-0.098
-125.253	428.583	0.100	-0.212
-124.239	44.780	0.301	-0.272
-123.224	-27.912	0.139	-0.079
-122.210	-134.254	0.350	-0.042
-121.195	-85.951	0.227	-0.069
