DTS Sentinel unit serial number:	SN413079Multiplexer serial number:	ORYXHardware model number:	OX4-SRSoftware version number:	ORYX F/W v4.00 Oryx Data Collector v3.7.2.0data status	okinstallation	princeton_trtdifferential loss correction	single-endedforward channel	channel 4reverse channel	N/Adate	2019/09/16time	21:37:34forward acquisition time	60.00reverse acquisition time	0.00gamma	496.2192k internal	0.2313k external	0.2313temperature offset calibration	0.9967default loss term (dB/km)	0.3790temperature slope calibration	1.0000multiplexer offset coefficient	1.0000multiplexer slope coefficient	1.0000fibre end	0.00T internal ref (°C)	31.37T ext. ref 1 (°C)	0.06T ext. ref 2 (°C)	25.60length (m)	temperature (°C)	Stokes	anti-Stokes-747.200	-200.000	-0.028	0.165
-746.185	-173.028	-0.216	0.007
-745.171	-27.313	0.166	0.098
-744.156	316.437	-0.119	0.228
-743.142	152.848	0.264	0.367
-742.127	-200.000	-0.018	0.304
-741.112	300.456	0.167	0.313
-740.098	350.061	0.183	0.367
-739.083	-152.262	-0.139	0.010
-738.069	-43.962	-0.155	0.079
-737.054	800.000	0.114	-0.321
-736.039	81.844	0.111	-0.122
-735.025	-136.654	0.188	-0.022
-734.010	348.760	-0.036	-0.072
-732.996	177.502	-0.165	-0.244
-731.981	-117.036	0.032	-0.006
-730.966	800.000	-0.066	-0.207
-729.952	304.170	0.073	-0.138
-728.937	769.249	-0.105	-0.290
-727.923	-101.337	-0.184	0.046
-726.908	-79.062	0.457	-0.157
-725.894	-96.546	0.299	-0.080
-724.879	65.100	-0.252	0.258
-723.864	414.112	0.042	0.092
-722.850	324.711	-0.162	0.314
-721.835	100.680	0.018	-0.021
-720.821	410.961	0.062	0.134
-719.806	131.890	-0.056	0.073
-718.791	63.790	-0.074	0.075
-717.777	72.601	-0.140	0.148
-716.762	-25.092	0.128	0.077
-715.748	-114.145	0.050	-0.010
-714.733	-200.000	-0.108	-0.495
-713.718	88.463	0.149	-0.168
-712.704	25.629	0.300	0.253
-711.689	17.720	0.241	0.194
-710.675	45.957	-0.102	-0.096
-709.660	-200.000	0.058	-0.384
-708.645	800.000	-0.081	-0.271
-707.631	264.109	0.135	0.238
-706.616	89.415	-0.099	0.111
-705.602	-121.898	0.281	0.047
-704.587	211.531	0.173	-0.277
-703.572	-7.603	-0.052	-0.035
-702.558	-23.695	0.035	0.021
-701.543	170.031	-0.114	0.165
-700.529	-138.952	0.176	0.019
-699.514	-200.000	0.012	-0.302
-698.499	-84.722	-0.019	0.006
-697.485	255.267	0.061	0.107
-696.470	800.000	-0.072	0.213
-695.456	-53.580	0.216	-0.100
-694.441	-63.690	-0.245	0.101
-693.426	508.324	-0.017	0.039
-692.412	-103.465	-0.122	0.029
-691.397	-157.651	-0.244	-0.015
-690.383	607.261	-0.120	0.304
-689.368	-200.000	-0.045	-0.231
-688.354	-10.125	0.165	-0.111
-687.339	-168.436	0.461	0.018
-686.324	-96.184	-0.306	0.082
-685.310	800.000	0.045	-0.193
-684.295	197.498	-0.054	-0.084
-683.281	-49.119	0.274	-0.133
-682.266	47.996	-0.231	0.219
-681.251	-109.822	-0.142	-0.030
-680.237	-200.000	0.018	0.094
-679.222	101.350	0.196	-0.231
-678.208	32.874	0.208	-0.182
-677.193	-151.076	-0.603	0.046
-676.178	-91.578	0.362	0.104
-675.164	62.233	0.115	0.116
-674.149	-200.000	0.010	0.339
-673.135	-170.092	0.097	0.003
-672.120	-101.040	0.327	-0.081
-671.105	-72.126	-0.165	-0.062
-670.091	800.000	-0.095	-0.274
-669.076	-13.918	0.123	0.080
-668.062	-200.000	-0.045	0.426
-667.047	112.267	0.031	-0.038
-666.032	-69.068	0.061	-0.024
-665.018	-200.000	-0.023	-0.126
-664.003	-90.874	-0.285	-0.083
-662.989	-130.974	0.391	0.053
-661.974	-122.734	0.310	-0.051
-660.959	216.693	-0.292	0.469
-659.945	-200.000	-0.202	0.001
-658.930	800.000	0.060	-0.248
-657.916	-28.041	-0.154	-0.090
-656.901	-4.116	0.148	-0.104
-655.886	-23.046	-0.148	-0.090
-654.872	-42.679	-0.136	-0.070
-653.857	707.927	-0.074	-0.198
-652.843	127.212	0.110	-0.141
-651.828	185.756	-0.138	0.207
-650.814	-200.000	-0.015	-0.319
-649.799	800.000	-0.025	-0.105
-648.784	-99.353	-0.140	-0.036
-647.770	510.160	-0.122	-0.286
-646.755	102.641	-0.048	-0.057
-645.741	-200.000	-0.027	-0.245
-644.726	59.394	-0.234	0.233
-643.711	-63.249	-0.053	0.022
-642.697	-200.000	-0.047	-0.224
-641.682	-60.560	-0.181	0.077
-640.668	-200.000	-0.044	-0.214
-639.653	-200.000	-0.024	0.234
-638.638	-200.000	0.016	0.163
-637.624	-5.898	0.041	-0.029
-636.609	-87.444	-0.299	-0.091
-635.595	-112.552	-0.237	-0.048
-634.580	-169.197	-0.200	0.007
-633.565	4.448	0.179	-0.132
-632.551	800.000	0.127	0.422
-631.536	-107.126	0.300	-0.067
-630.522	-200.000	-0.026	0.239
-629.507	-193.893	0.257	0.002
-628.492	-186.432	0.117	-0.002
-627.478	-62.212	-0.207	0.087
-626.463	-200.000	-0.024	-0.336
-625.449	123.785	0.052	-0.065
-624.434	-85.593	0.129	-0.041
-623.419	-79.978	-0.126	0.043
-622.405	110.596	-0.209	0.253
-621.390	-110.813	0.110	0.023
-620.376	152.510	0.125	0.173
-619.361	302.742	0.125	0.233
-618.346	492.912	0.077	-0.179
-617.332	432.180	0.065	0.143
-616.317	-75.044	0.151	0.055
-615.303	613.709	-0.118	0.299
-614.288	144.378	-0.220	-0.297
-613.273	489.516	0.010	0.022
-612.259	554.957	-0.068	0.164
-611.244	17.365	-0.263	-0.210
-610.230	-59.740	0.031	-0.013
-609.215	-106.957	0.346	0.077
-608.201	16.493	-0.324	-0.258
-607.186	-48.647	0.170	0.083
-606.171	-125.815	-0.308	-0.047
-605.157	149.396	-0.172	0.235
-604.142	84.037	-0.042	0.046
-603.128	-42.671	0.352	0.181
-602.113	-200.000	-0.009	0.233
-601.098	145.754	0.086	-0.116
-600.084	184.794	-0.048	0.071
-599.069	774.241	-0.077	-0.213
-598.055	452.664	-0.111	0.249
-597.040	-200.000	0.011	-0.162
-596.025	24.065	0.114	-0.095
-595.011	-90.095	-0.196	0.057
-593.996	-35.083	-0.261	0.143
-592.982	-20.286	-0.156	-0.097
-591.967	105.639	-0.029	-0.035
-590.952	-200.000	-0.048	-0.467
-589.938	166.175	0.215	-0.307
-588.923	166.094	-0.055	0.078
-587.909	-36.481	-0.499	0.271
-586.894	685.710	-0.084	-0.222
-585.879	-39.956	0.074	0.039
-584.865	327.038	0.062	-0.119
-583.850	87.767	-0.250	0.279
-582.836	800.000	-0.074	-0.281
-581.821	-61.979	0.235	-0.099
-580.806	189.001	-0.129	-0.195
-579.792	-87.513	-0.280	-0.085
-578.777	-200.000	0.020	-0.186
-577.763	-130.437	0.248	0.034
-576.748	800.000	0.068	-0.284
-575.733	-5.917	0.156	-0.108
-574.719	-17.143	-0.344	-0.219
-573.704	-40.965	0.354	-0.184
-572.690	192.228	-0.085	-0.129
-571.675	50.087	-0.158	-0.150
-570.661	800.000	0.046	-0.185
-569.646	137.379	0.123	0.162
-568.631	82.291	-0.200	0.218
-567.617	-200.000	-0.054	-0.250
-566.602	-54.752	0.105	-0.048
-565.588	-88.905	0.339	0.101
-564.573	29.684	0.216	0.185
-563.558	-18.907	-0.096	0.060
-562.544	-62.768	0.337	0.141
-561.529	-0.840	0.163	0.116
-560.515	-200.000	-0.021	0.109
-559.500	68.929	-0.194	0.200
-558.485	-194.442	0.227	-0.002
-557.471	-69.738	-0.270	-0.104
-556.456	800.000	-0.065	-0.208
-555.442	278.213	-0.178	-0.319
-554.427	174.326	0.151	-0.220
-553.412	55.239	0.094	-0.091
-552.398	-119.673	-0.284	-0.049
-551.383	-49.155	0.135	0.065
-550.369	102.611	-0.361	0.425
-549.354	396.067	-0.112	0.235
-548.339	9.499	0.339	-0.259
-547.325	-200.000	-0.044	-0.279
-546.310	-30.131	-0.115	0.066
-545.296	42.194	-0.121	-0.111
-544.281	405.828	0.070	0.148
-543.266	372.797	-0.148	-0.302
-542.252	-53.688	-0.197	0.091
-541.237	-95.898	0.257	-0.069
-540.223	-200.000	0.027	-0.446
-539.208	-103.347	-0.152	0.036
-538.193	60.334	-0.068	0.067
-537.179	140.003	0.174	-0.231
-536.164	63.742	0.202	0.204
-535.150	800.000	-0.115	0.440
-534.135	-99.532	0.219	-0.055
-533.121	-42.435	0.158	-0.081
-532.106	-173.310	0.090	0.003
-531.091	-146.754	0.431	0.037
-530.077	800.000	0.032	0.132
-529.062	690.506	0.091	0.240
-528.048	-11.498	0.231	0.153
-527.033	15.244	0.106	-0.083
-526.018	36.597	-0.035	-0.031
-525.004	71.445	0.223	-0.233
-523.989	148.025	0.170	-0.230
-522.975	-200.000	0.026	-0.132
-521.960	125.211	-0.092	0.117
-520.945	-45.083	-0.160	-0.080
-519.931	301.134	-0.217	0.402
-518.916	78.065	-0.207	0.222
-517.902	26.650	0.187	0.157
-516.887	-120.940	0.278	0.047
-515.872	-118.175	-0.340	-0.061
-514.858	-55.566	-0.254	0.114
-513.843	-163.961	-0.198	-0.009
-512.829	-163.721	0.328	-0.015
-511.814	558.633	-0.063	0.152
-510.799	800.000	0.134	0.399
-509.785	-69.483	0.037	0.014
-508.770	800.000	-0.071	-0.260
-507.756	88.058	-0.109	-0.122
-506.741	438.993	-0.083	-0.182
-505.726	148.394	-0.100	-0.136
-504.712	-81.860	0.100	-0.033
-503.697	268.532	0.165	0.291
-502.683	41.132	-0.069	-0.063
-501.668	283.703	0.070	0.127
-500.653	-58.547	-0.075	-0.033
-499.639	251.132	-0.137	0.234
-498.624	260.492	-0.331	0.575
-497.610	-200.000	0.023	0.122
-496.595	245.252	0.007	0.011
-495.581	-200.000	0.010	0.084
-494.566	-92.224	-0.084	-0.024
-493.551	-64.982	-0.236	0.096
-492.537	-126.757	0.210	-0.031
-491.522	247.645	0.058	0.098
-490.508	300.858	-0.068	0.125
-489.493	800.000	0.090	0.349
-488.478	800.000	-0.109	-0.327
-487.464	-104.408	-0.239	-0.055
-486.449	800.000	-0.076	-0.316
-485.435	-123.427	-0.103	0.016
-484.420	129.363	-0.111	0.143
-483.405	70.860	-0.314	0.326
-482.391	-200.000	-0.058	0.313
-481.376	71.943	0.172	0.179
-480.362	289.856	-0.085	0.154
-479.347	800.000	-0.073	-0.263
-478.332	-200.000	-0.002	0.351
-477.318	-93.925	-0.218	0.060
-476.303	26.244	-0.078	0.065
-475.289	-70.646	-0.125	0.047
-474.274	-1.920	-0.090	-0.063
-473.259	146.609	0.118	0.160
-472.245	41.884	0.097	-0.088
-471.230	-7.887	0.110	-0.075
-470.216	312.101	0.063	0.120
-469.201	-110.697	0.053	0.011
-468.186	-200.000	0.007	0.094
-467.172	235.109	-0.053	-0.087
-466.157	-125.758	0.181	0.028
-465.143	346.988	0.137	-0.270
-464.128	-45.775	-0.117	-0.058
-463.113	174.421	0.384	-0.558
-462.099	-112.720	-0.332	0.066
-461.084	-200.000	-0.022	0.161
-460.070	429.353	-0.086	-0.187
-459.055	-70.205	0.347	0.132
-458.040	40.403	0.157	-0.142
-457.026	800.000	0.022	-0.089
-456.011	4.782	-0.237	0.175
-454.997	-10.968	0.123	-0.082
-453.982	-24.968	0.257	-0.153
-452.968	-92.325	-0.171	0.048
-451.953	-115.392	0.124	0.024
-450.938	-132.503	-0.266	-0.034
-449.924	-200.000	0.027	0.243
-448.909	-117.941	-0.406	-0.073
-447.895	800.000	0.020	0.070
-446.880	-37.399	0.233	0.125
-445.865	-160.501	-0.134	0.007
-444.851	117.268	0.107	-0.131
-443.836	-193.442	0.178	-0.002
-442.822	370.384	0.123	0.251
-441.807	6.229	0.136	-0.101
-440.792	-198.445	0.224	0.001
-439.778	177.443	0.144	-0.210
-438.763	-134.976	0.189	-0.023
-437.749	198.690	0.168	0.258
-436.734	800.000	0.120	-0.359
-435.719	-200.000	-0.017	-0.428
-434.705	-60.998	0.298	0.126
-433.690	-105.854	-0.113	-0.026
-432.676	717.796	0.061	-0.163
-431.661	-200.000	-0.060	0.000
-430.646	-200.000	0.012	0.191
-429.632	-105.270	0.179	-0.041
-428.617	137.450	-0.105	-0.137
-427.603	-129.416	-0.163	-0.023
-426.588	-39.535	0.230	-0.120
-425.573	-82.038	0.316	0.103
-424.559	-6.927	0.212	-0.144
-423.544	59.555	-0.229	0.226
-422.530	341.346	0.118	-0.231
-421.515	316.079	-0.058	-0.110
-420.500	800.000	-0.083	0.257
-419.486	-200.000	0.080	0.420
-418.471	-200.000	-0.028	-0.278
-417.457	-152.239	0.300	-0.022
-416.442	123.585	-0.049	-0.062
-415.428	800.000	0.014	-0.054
-414.413	-16.945	0.241	0.152
-413.398	147.153	0.062	-0.083
-412.384	296.055	0.073	0.133
-411.369	-12.783	0.096	0.062
-410.355	12.503	-0.051	-0.039
-409.340	-57.316	0.207	-0.091
-408.325	75.131	-0.136	-0.144
-407.311	143.252	0.130	0.174
-406.296	409.447	-0.075	0.158
-405.282	-4.214	-0.145	0.101
-404.267	249.992	0.119	-0.202
-403.252	167.267	0.135	0.192
-402.238	-1.220	-0.184	-0.130
-401.223	369.170	-0.095	-0.193
-400.209	44.534	-0.192	0.176
-399.194	76.774	0.214	0.227
-398.179	800.000	-0.141	0.391
-397.165	52.603	-0.295	-0.282
-396.150	-41.738	0.204	-0.105
-395.136	-100.927	0.275	-0.068
-394.121	-124.673	-0.090	-0.014
-393.106	603.825	0.073	-0.181
-392.092	-44.961	-0.200	-0.100
-391.077	-87.367	-0.304	-0.092
-390.063	602.943	-0.058	-0.144
-389.048	132.649	0.190	-0.245
-388.033	131.019	0.172	0.221
-387.019	-200.000	-0.001	0.035
-386.004	85.290	0.055	-0.060
-384.990	28.461	0.162	-0.137
-383.975	354.754	-0.146	0.290
-382.960	-101.970	-0.105	0.025
-381.946	390.494	0.069	-0.144
-380.931	-200.000	-0.063	-0.425
-379.917	-195.947	0.091	-0.001
-378.902	-176.861	-0.342	-0.009
-377.888	410.424	0.176	0.373
-376.873	258.948	-0.242	-0.416
-375.858	24.480	0.098	0.081
-374.844	-3.045	-0.072	0.050
-373.829	48.451	-0.365	0.342
-372.815	38.874	-0.118	-0.105
-371.800	15.748	-0.092	-0.072
-370.785	575.056	-0.058	0.142
-369.771	67.366	-0.134	0.137
-368.756	-134.596	0.346	0.042
-367.742	220.191	-0.147	0.235
-366.727	264.459	0.047	0.081
-365.712	488.747	0.063	-0.143
-364.698	-200.000	-0.009	-0.133
-363.683	-200.000	-0.037	-0.216
-362.669	-200.000	-0.008	-0.047
-361.654	-55.986	0.215	0.096
-360.639	-20.023	0.216	-0.133
-359.625	120.453	-0.032	-0.040
-358.610	97.263	0.205	0.236
-357.596	-139.279	0.299	0.032
-356.581	461.043	0.049	-0.109
-355.566	-90.499	-0.186	0.054
-354.552	-150.497	-0.026	-0.002
-353.537	-3.550	-0.142	-0.099
-352.523	-200.000	0.012	0.247
-351.508	-200.000	-0.064	0.300
-350.493	418.194	0.133	0.284
-349.479	-60.369	-0.284	0.120
-348.464	-57.849	-0.100	-0.044
-347.450	-168.113	0.155	0.006
-346.435	38.495	0.167	0.149
-345.420	0.830	0.164	-0.118
-344.406	114.210	0.361	-0.439
-343.391	-57.341	-0.089	0.039
-342.377	800.000	-0.052	0.193
-341.362	-36.455	-0.067	-0.036
-340.348	158.689	0.078	-0.108
-339.333	-200.000	-0.042	0.240
-338.318	495.455	-0.089	0.205
-337.304	0.502	0.169	0.121
-336.289	800.000	-0.035	0.133
-335.275	507.967	0.027	-0.064
-334.260	151.246	0.044	0.060
-333.245	70.518	0.149	0.154
-332.231	295.570	-0.058	-0.107
-331.216	-57.031	-0.144	-0.063
-330.202	-38.661	-0.545	0.287
-329.187	-162.023	-0.108	0.005
-328.172	-15.583	-0.408	0.260
-327.158	99.063	-0.123	0.142
-326.143	-200.000	-0.003	0.017
-325.129	-185.950	0.087	0.001
-324.114	-90.433	0.184	0.053
-323.099	110.317	0.184	0.221
-322.085	-200.000	-0.006	0.377
-321.070	-128.645	0.158	-0.022
-320.056	-51.005	-0.123	0.057
-319.041	-115.371	0.338	0.064
-318.026	87.338	0.432	-0.477
-317.012	186.787	-0.044	-0.065
-315.997	152.200	-0.182	-0.247
-314.983	800.000	-0.081	-0.230
-313.968	30.979	-0.022	0.018
-312.953	479.868	-0.053	0.120
-311.939	271.257	0.065	-0.113
-310.924	-139.224	-0.180	0.019
-309.910	-9.639	-0.217	-0.144
-308.895	663.431	0.035	-0.090
-307.880	32.036	0.134	-0.115
-306.866	-78.694	0.143	0.049
-305.851	482.029	0.107	0.242
-304.837	800.000	0.046	0.178
-303.822	800.000	-0.034	-0.126
-302.807	-200.000	0.007	0.171
-301.793	-200.000	-0.043	-0.370
-300.778	139.985	0.174	-0.229
-299.764	-158.552	0.182	-0.010
-298.749	800.000	0.048	-0.140
-297.735	-99.237	0.323	-0.081
-296.720	-152.643	0.233	0.017
-295.705	-64.433	0.297	-0.120
-294.691	4.040	-0.104	0.076
-293.676	-139.700	0.142	-0.015
-292.662	-200.000	0.017	-0.377
-291.647	-200.000	0.004	-0.185
-290.632	307.011	0.132	0.245
-289.618	-162.113	-0.114	-0.006
-288.603	-87.625	-0.367	0.110
-287.589	-67.260	0.170	0.067
-286.574	217.367	0.064	-0.102
-285.559	72.988	0.219	0.228
-284.545	45.848	0.122	0.112
-283.530	50.263	0.025	0.023
-282.516	52.593	-0.125	0.119
-281.501	-200.000	-0.002	0.190
-280.486	128.277	-0.140	0.178
-279.472	-200.000	-0.037	0.181
-278.457	58.537	-0.286	-0.279
-277.443	523.565	0.022	-0.052
-276.428	0.277	-0.064	-0.045
-275.413	-200.000	0.005	0.146
-274.399	-122.359	-0.475	0.077
-273.384	-64.851	0.110	-0.044
-272.370	-52.289	0.077	0.035
-271.355	-200.000	-0.013	-0.164
-270.340	-200.000	-0.050	-0.241
-269.326	-200.000	0.054	-0.363
-268.311	143.891	-0.063	0.084
-267.297	-200.000	-0.038	0.186
-266.282	800.000	-0.105	0.396
-265.267	-66.895	0.296	-0.116
-264.253	-200.000	-0.069	0.313
-263.238	-200.000	-0.005	0.246
-262.224	91.587	-0.104	0.116
-261.209	800.000	0.039	-0.113
-260.195	-200.000	-0.022	-0.213
-259.180	-121.662	0.106	0.017
-258.165	800.000	0.048	0.191
-257.151	35.519	-0.325	0.284
-256.136	800.000	0.039	-0.130
-255.122	240.225	0.088	0.146
-254.107	-114.460	-0.131	-0.025
-253.092	239.206	-0.119	-0.198
-252.078	-41.714	-0.048	-0.025
-251.063	393.966	0.171	-0.354
-250.049	-80.212	0.186	0.062
-249.034	-31.620	0.177	-0.099
-248.019	25.021	-0.105	-0.086
-247.005	-50.031	-0.272	-0.128
-245.990	-160.363	-0.062	-0.003
-244.976	800.000	-0.085	-0.252
-243.961	84.081	-0.121	-0.132
-242.946	800.000	0.075	-0.297
-241.932	43.255	-0.158	0.144
-240.917	-127.823	0.177	-0.025
-239.903	523.795	0.066	0.154
-238.888	-200.000	-0.001	0.165
-237.873	-123.326	0.141	-0.022
-236.859	-71.741	-0.083	0.031
-235.844	800.000	-0.121	-0.364
-234.830	241.833	-0.193	-0.321
-233.815	800.000	-0.049	0.146
-232.800	-57.246	-0.418	-0.183
-231.786	-106.269	-0.209	-0.047
-230.771	-74.212	-0.158	-0.057
-229.757	-133.261	0.269	-0.034
-228.742	79.604	0.180	0.192
-227.727	-65.728	0.329	-0.131
-226.713	42.842	-0.016	0.014
-225.698	450.542	0.050	-0.109
-224.684	-123.031	0.360	0.057
-223.669	-200.000	-0.039	-0.200
-222.655	114.292	0.324	0.392
-221.640	6.614	-0.142	-0.105
-220.625	126.042	0.206	0.258
-219.611	-200.000	-0.035	0.487
-218.596	-200.000	-0.048	0.221
-217.582	370.138	0.112	-0.226
-216.567	-200.000	-0.022	0.184
-215.552	-77.934	0.126	-0.043
-214.538	352.870	0.115	0.226
-213.523	800.000	0.051	0.199
-212.509	-200.000	0.012	0.348
-211.494	55.568	0.084	0.081
-210.479	-94.737	-0.127	0.034
-209.465	-133.243	0.173	0.022
-208.450	-180.633	-0.128	0.003
-207.436	-200.000	-0.006	-0.117
-206.421	-158.614	-0.196	0.011
-205.406	49.260	-0.302	0.282
-204.392	222.945	-0.311	-0.498
-203.377	800.000	0.109	-0.430
-202.363	800.000	0.056	0.206
-201.348	800.000	-0.044	0.123
-200.333	-113.322	0.285	0.056
-199.319	95.942	0.086	-0.098
-198.304	-200.000	0.038	-0.361
-197.290	-114.656	0.206	-0.039
-196.275	11.778	-0.242	0.184
-195.260	-39.910	0.143	0.074
-194.246	-200.000	-0.049	0.368
-193.231	194.246	-0.108	0.162
-192.217	-50.783	-0.152	-0.071
-191.202	150.499	0.030	-0.040
-190.187	800.000	-0.044	-0.151
-189.173	-33.954	0.212	0.116
-188.158	-59.451	-0.229	-0.097
-187.144	111.872	0.250	-0.299
-186.129	-200.000	0.037	-0.360
-185.114	-65.347	-0.433	-0.173
-184.100	40.379	0.481	0.429
-183.085	800.000	-0.093	-0.346
-182.071	-99.424	-0.154	0.038
-181.056	356.450	-0.137	0.272
-180.042	-200.000	-0.024	0.157
-179.027	241.863	0.118	-0.195
-178.012	203.986	0.053	-0.082
-176.998	-200.000	-0.038	-0.447
-175.983	6.631	0.210	-0.155
-174.969	129.990	0.180	0.228
-173.954	-146.087	-0.248	-0.022
-172.939	119.910	0.087	0.107
-171.925	-52.665	-0.208	-0.095
-170.910	-103.777	0.281	0.065
-169.896	-119.548	-0.104	0.018
-168.881	800.000	0.047	-0.199
-167.866	-200.000	0.011	-0.277
-166.852	-200.000	0.002	0.084
-165.837	-150.409	0.203	0.015
-164.823	67.192	-0.149	0.150
-163.808	282.516	-0.118	0.211
-162.793	37.020	-0.332	-0.291
-161.779	-200.000	0.008	0.044
-160.764	-19.872	-0.309	-0.189
-159.750	116.255	-0.113	0.137
-158.735	125.054	-0.129	0.161
-157.720	-139.159	0.275	0.029
-156.706	800.000	0.050	-0.204
-155.691	-8.497	-0.222	-0.148
-154.677	800.000	0.053	-0.168
-153.662	-37.022	-0.235	0.125
-152.647	-3.104	0.175	-0.121
-151.633	506.837	-0.083	-0.190
-150.618	-181.646	-0.144	0.003
-149.604	800.000	-0.036	-0.128
-148.589	-200.000	-0.016	-0.212
-147.574	92.664	-0.160	0.179
-146.560	-7.340	-0.171	-0.114
-145.545	800.000	0.088	-0.308
-144.531	-70.500	0.043	0.016
-143.516	-124.152	-0.482	0.075
-142.502	-32.317	-0.145	0.080
-141.487	800.000	-0.039	-0.127
-140.472	135.314	-0.115	0.148
-139.458	364.358	-0.040	-0.079
-138.443	390.518	-0.119	-0.245
-137.429	-89.931	0.230	0.067
-136.414	-200.000	-0.061	0.309
-135.399	-186.108	-0.117	-0.002
-134.385	103.078	-0.175	-0.203
-133.370	-42.648	0.380	-0.192
-132.356	-101.276	0.195	-0.047
-131.341	26.383	0.003	-0.003
-130.326	11.520	-0.250	0.190
-129.312	142.944	-0.199	0.262
-128.297	83.192	0.193	-0.208
-127.283	29.348	0.248	-0.209
-126.268	-81.667	0.113	-0.037
-125.253	-200.000	0.003	0.398
-124.239	46.455	-0.169	0.155
-123.224	-70.897	-0.245	0.092
-122.210	249.509	0.341	0.573
-121.195	-152.229	-0.405	0.029
