DTS Sentinel unit serial number:	SN413079Multiplexer serial number:	ORYXHardware model number:	OX4-SRSoftware version number:	ORYX F/W v4.00 Oryx Data Collector v3.7.2.0data status	okinstallation	princeton_trtdifferential loss correction	single-endedforward channel	channel 4reverse channel	N/Adate	2019/09/15time	21:45:34forward acquisition time	60.00reverse acquisition time	0.00gamma	496.2192k internal	0.2318k external	0.2318temperature offset calibration	0.9943default loss term (dB/km)	0.3790temperature slope calibration	1.0000multiplexer offset coefficient	1.0000multiplexer slope coefficient	1.0000fibre end	0.00T internal ref (°C)	30.28T ext. ref 1 (°C)	8.42T ext. ref 2 (°C)	23.40length (m)	temperature (°C)	Stokes	anti-Stokes-747.200	800.000	-0.037	-0.117
-746.185	-107.939	-0.182	-0.040
-745.171	211.457	-0.160	0.255
-744.156	64.203	-0.271	0.276
-743.142	-200.000	-0.013	-0.104
-742.127	-200.000	-0.030	0.440
-741.112	168.962	-0.070	0.101
-740.098	216.239	-0.214	0.345
-739.083	-30.402	-0.256	-0.147
-738.069	-200.000	0.014	0.627
-737.054	800.000	0.068	0.214
-736.039	-28.893	-0.087	0.050
-735.025	-63.286	-0.091	-0.038
-734.010	-200.000	0.022	-0.213
-732.996	34.466	-0.034	0.030
-731.981	-69.297	-0.223	-0.087
-730.966	137.288	-0.073	-0.096
-729.952	-149.976	-0.301	0.024
-728.937	-49.737	-0.256	-0.123
-727.923	-81.862	-0.183	-0.061
-726.908	800.000	-0.072	-0.244
-725.894	800.000	-0.149	0.420
-724.879	800.000	-0.057	0.184
-723.864	215.362	0.066	-0.106
-722.850	-97.167	-0.401	0.106
-721.835	800.000	0.074	-0.207
-720.821	75.173	-0.158	0.168
-719.806	-200.000	0.070	-0.315
-718.791	60.479	-0.157	-0.157
-717.777	-200.000	-0.012	-0.118
-716.762	-30.798	-0.143	-0.082
-715.748	74.516	0.146	0.155
-714.733	-118.284	-0.225	0.040
-713.718	-200.000	0.009	-0.341
-712.704	-200.000	0.021	-0.170
-711.689	-200.000	-0.009	0.096
-710.675	-200.000	0.003	-0.104
-709.660	-200.000	0.048	-0.300
-708.645	137.326	0.246	0.325
-707.631	-170.484	-0.064	0.002
-706.616	327.466	0.044	0.086
-705.602	-200.000	-0.025	-0.261
-704.587	259.986	-0.082	-0.144
-703.572	14.490	0.111	-0.087
-702.558	303.374	0.092	0.172
-701.543	800.000	-0.040	-0.140
-700.529	-200.000	0.006	-0.232
-699.514	215.360	-0.090	-0.144
-698.499	-118.101	0.186	0.034
-697.485	299.838	0.099	-0.184
-696.470	444.265	0.053	0.118
-695.456	132.387	-0.227	-0.296
-694.441	-200.000	-0.006	-0.111
-693.426	11.692	0.100	0.078
-692.412	95.205	-0.180	0.207
-691.397	28.202	0.294	-0.251
-690.383	-101.278	0.218	-0.054
-689.368	-87.577	-0.208	0.063
-688.354	329.900	0.106	-0.206
-687.339	-200.000	-0.002	0.120
-686.324	528.895	0.088	-0.210
-685.310	-200.000	-0.013	-0.110
-684.295	-200.000	-0.025	-0.191
-683.281	-45.604	-0.229	-0.114
-682.266	-164.626	-0.161	0.007
-681.251	800.000	-0.011	0.046
-680.237	-194.823	-0.461	-0.004
-679.222	-190.789	-0.143	0.002
-678.208	-200.000	-0.053	0.304
-677.193	394.615	-0.179	-0.376
-676.178	45.960	-0.078	0.073
-675.164	-200.000	0.062	-0.297
-674.149	430.339	-0.153	-0.334
-673.135	246.213	-0.069	-0.117
-672.120	-0.237	-0.311	0.223
-671.105	-94.432	0.216	-0.060
-670.091	158.200	0.125	0.175
-669.076	-143.063	-0.166	0.016
-668.062	-200.000	0.005	-0.110
-667.047	-2.644	0.187	-0.132
-666.032	-134.515	-0.177	-0.022
-665.018	-49.683	-0.173	-0.083
-664.003	59.365	0.196	-0.195
-662.989	215.200	0.125	0.201
-661.974	51.486	-0.106	0.102
-660.959	78.938	-0.159	-0.171
-659.945	110.730	0.178	-0.216
-658.930	-49.058	-0.065	-0.031
-657.916	-33.066	-0.354	-0.198
-656.901	-130.660	-0.251	-0.034
-655.886	-200.000	0.002	0.120
-654.872	150.072	-0.019	-0.025
-653.857	-200.000	0.010	0.173
-652.843	16.985	-0.212	0.169
-651.828	64.947	0.179	-0.182
-650.814	800.000	0.090	-0.254
-649.799	622.990	0.065	0.165
-648.784	-69.983	-0.035	-0.013
-647.770	22.896	-0.085	-0.070
-646.755	364.895	-0.118	0.239
-645.741	-200.000	0.032	-0.147
-644.726	800.000	-0.061	0.193
-643.711	108.746	0.173	0.209
-642.697	-200.000	-0.002	0.040
-641.682	-142.385	0.183	0.018
-640.668	-200.000	-0.069	-0.310
-639.653	-74.291	-0.103	0.038
-638.638	249.781	-0.088	0.151
-637.624	-71.555	-0.228	0.086
-636.609	-65.461	-0.210	-0.085
-635.595	-31.696	0.126	-0.071
-634.580	-200.000	0.001	-0.163
-633.565	435.505	-0.185	-0.406
-632.551	177.570	-0.183	0.269
-631.536	228.499	-0.127	0.208
-630.522	-91.426	-0.349	-0.100
-629.507	73.609	0.073	0.077
-628.492	83.132	0.121	0.133
-627.478	236.605	-0.124	0.207
-626.463	-80.292	-0.064	0.021
-625.449	490.070	0.058	-0.133
-624.434	-42.012	0.151	-0.078
-623.419	-72.846	-0.216	-0.080
-622.405	17.970	-0.290	-0.233
-621.390	-200.000	0.055	0.253
-620.376	207.774	-0.048	-0.075
-619.361	-19.449	-0.056	-0.035
-618.346	124.528	-0.253	-0.321
-617.332	800.000	-0.083	0.293
-616.317	41.574	-0.393	0.358
-615.303	-165.148	0.154	-0.007
-614.288	-120.988	-0.056	-0.009
-613.273	800.000	0.051	-0.147
-612.259	44.347	0.215	0.199
-611.244	689.486	-0.158	-0.417
-610.230	800.000	0.008	0.036
-609.215	-200.000	0.044	0.410
-608.201	-200.000	-0.033	0.268
-607.186	442.303	0.135	-0.298
-606.171	26.042	0.199	0.167
-605.157	159.646	0.240	-0.336
-604.142	262.407	0.125	0.219
-603.128	-24.219	0.096	-0.058
-602.113	-25.243	-0.029	-0.017
-601.098	-5.700	0.315	0.217
-600.084	800.000	-0.037	0.128
-599.069	-58.811	-0.195	-0.085
-598.055	77.909	0.117	-0.125
-597.040	-200.000	-0.042	0.267
-596.025	26.346	0.167	0.140
-595.011	-75.601	-0.140	-0.050
-593.996	-74.917	-0.120	0.043
-592.982	800.000	-0.018	-0.065
-591.967	-125.234	-0.192	-0.030
-590.952	-59.272	-0.136	0.059
-589.938	800.000	0.041	-0.132
-588.923	-101.489	0.206	0.050
-587.909	-38.649	-0.246	0.131
-586.894	-62.541	-0.317	0.132
-585.879	470.727	-0.044	0.100
-584.865	-31.638	0.216	-0.122
-583.850	193.464	-0.027	-0.042
-582.836	-200.000	0.036	-0.316
-581.821	-100.154	-0.137	0.034
-580.806	226.713	0.214	0.350
-579.792	-68.698	0.098	-0.038
-578.777	2.279	0.137	0.100
-577.763	2.316	0.129	-0.094
-576.748	-200.000	0.000	-0.284
-575.733	-97.884	0.096	0.025
-574.719	-24.652	-0.147	0.088
-573.704	167.842	0.065	-0.093
-572.690	-69.157	0.076	-0.030
-571.675	18.819	-0.228	0.184
-570.661	-109.686	-0.171	-0.036
-569.646	91.107	-0.146	0.165
-568.631	151.751	-0.101	-0.139
-567.617	-84.297	-0.135	-0.043
-566.602	-200.000	-0.007	-0.055
-565.588	346.240	-0.114	-0.225
-564.573	-64.926	0.248	0.101
-563.558	800.000	-0.103	0.367
-562.544	50.255	0.041	0.039
-561.529	437.587	-0.018	-0.040
-560.515	552.697	-0.017	0.041
-559.500	176.918	0.191	-0.279
-558.485	-200.000	-0.007	0.059
-557.471	-70.395	-0.178	0.068
-556.456	236.631	0.129	0.214
-555.442	-122.071	0.361	-0.060
-554.427	800.000	-0.088	-0.349
-553.412	111.061	0.139	0.168
-552.398	433.518	-0.078	-0.171
-551.383	-200.000	-0.002	0.097
-550.369	496.977	-0.024	0.055
-549.354	-68.039	0.251	-0.098
-548.339	800.000	0.028	-0.119
-547.325	-78.988	-0.194	0.066
-546.310	-200.000	0.053	0.248
-545.296	10.064	-0.146	0.111
-544.281	307.334	-0.144	0.270
-543.266	91.705	-0.208	0.235
-542.252	291.266	0.092	-0.168
-541.237	-56.074	0.042	-0.019
-540.223	213.362	-0.080	0.127
-539.208	-121.457	0.282	0.047
-538.193	-200.000	-0.005	-0.198
-537.179	-200.000	0.018	-0.163
-536.164	-81.975	-0.184	0.060
-535.150	-95.199	0.334	0.090
-534.135	227.433	0.114	0.186
-533.121	800.000	-0.076	-0.325
-532.106	505.578	-0.100	-0.232
-531.091	800.000	-0.114	-0.336
-530.077	29.515	-0.394	0.336
-529.062	-200.000	-0.086	-0.386
-528.048	-146.302	-0.303	0.027
-527.033	750.545	-0.048	0.131
-526.018	437.862	-0.052	-0.113
-525.004	800.000	-0.023	-0.080
-523.989	-200.000	-0.049	0.222
-522.975	-200.000	-0.001	-0.123
-521.960	86.019	0.201	0.222
-520.945	57.974	0.180	-0.177
-519.931	3.876	-0.235	-0.172
-518.916	59.525	0.216	0.213
-517.902	-11.428	-0.314	-0.207
-516.887	-35.793	-0.123	-0.067
-515.872	-200.000	-0.010	0.134
-514.858	800.000	-0.097	0.328
-513.843	-200.000	-0.026	0.127
-512.829	51.370	-0.119	0.113
-511.814	102.756	-0.073	-0.085
-510.799	-89.258	0.370	-0.109
-509.785	262.876	-0.207	0.361
-508.770	-69.106	-0.052	-0.020
-507.756	347.871	-0.046	-0.090
-506.741	49.138	-0.294	-0.277
-505.726	-37.217	0.225	0.120
-504.712	-11.708	0.183	0.120
-503.697	-200.000	0.016	0.105
-502.683	-115.231	-0.321	0.061
-501.668	-107.547	-0.144	0.032
-500.653	-71.323	-0.051	-0.019
-499.639	-59.721	-0.198	0.085
-498.624	-12.096	0.341	-0.224
-497.610	-200.000	-0.034	0.178
-496.595	-200.000	-0.003	0.059
-495.581	203.052	0.099	-0.153
-494.566	-55.638	-0.245	-0.110
-493.551	459.850	0.177	0.396
-492.537	7.537	-0.204	0.153
-491.522	126.367	0.101	-0.128
-490.508	52.813	0.084	-0.080
-489.493	-200.000	-0.026	-0.164
-488.478	800.000	-0.030	-0.094
-487.464	-200.000	-0.056	0.325
-486.449	-58.436	0.221	-0.096
-485.435	-141.286	-0.162	-0.017
-484.420	67.368	0.250	-0.255
-483.405	-58.920	-0.264	0.114
-482.391	800.000	-0.034	0.101
-481.376	-200.000	0.015	0.168
-480.362	-200.000	0.038	0.275
-479.347	192.768	0.161	0.244
-478.332	150.171	0.264	-0.358
-477.318	-200.000	-0.022	0.132
-476.303	-200.000	-0.018	-0.166
-475.289	627.695	-0.116	-0.294
-474.274	166.098	0.025	-0.036
-473.259	3.113	-0.067	0.049
-472.245	-52.651	-0.109	0.051
-471.230	-200.000	0.013	0.108
-470.216	208.881	-0.148	-0.232
-469.201	173.832	-0.152	-0.220
-468.186	-62.048	0.192	0.080
-467.172	-200.000	0.084	-0.415
-466.157	132.362	0.090	-0.116
-465.143	181.982	-0.180	0.266
-464.128	-63.499	-0.146	-0.060
-463.113	-71.149	-0.133	-0.050
-462.099	225.444	-0.104	-0.169
-461.084	800.000	0.060	0.253
-460.070	-7.662	-0.213	0.144
-459.055	26.200	0.209	-0.175
-458.040	549.894	-0.027	-0.064
-457.026	-160.235	-0.242	-0.013
-456.011	-97.250	0.142	-0.037
-454.997	-22.756	-0.230	-0.139
-453.982	-200.000	0.030	-0.141
-452.968	-200.000	-0.006	-0.152
-451.953	52.943	0.263	0.252
-450.938	-200.000	0.030	0.190
-449.924	800.000	0.072	-0.300
-448.909	42.524	-0.336	-0.306
-447.895	-111.672	0.354	-0.072
-446.880	-200.000	0.023	-0.137
-445.865	-102.747	-0.190	0.045
-444.851	-58.222	0.206	0.090
-443.836	32.899	0.068	0.059
-442.822	-200.000	0.000	0.178
-441.807	149.741	0.045	0.061
-440.792	800.000	-0.054	-0.176
-439.778	-7.379	0.164	-0.111
-438.763	108.991	0.219	0.262
-437.749	-39.360	0.069	-0.036
-436.734	87.312	0.172	-0.190
-435.719	800.000	-0.093	0.278
-434.705	-200.000	0.032	0.403
-433.690	-135.635	-0.243	-0.029
-432.676	-146.462	-0.239	-0.021
-431.661	-83.239	-0.152	-0.049
-430.646	767.750	-0.055	0.150
-429.632	800.000	-0.056	-0.164
-428.617	-200.000	-0.299	0.001
-427.603	-200.000	0.000	-0.187
-426.588	-180.273	0.323	0.007
-425.573	-200.000	0.001	0.012
-424.559	-67.328	0.276	0.109
-423.544	-70.842	0.146	0.055
-422.530	48.400	0.129	-0.121
-421.515	127.713	-0.081	-0.103
-420.500	15.235	0.247	0.194
-419.486	-200.000	0.013	0.213
-418.471	800.000	-0.030	0.086
-417.457	54.536	0.108	0.104
-416.442	627.887	-0.121	-0.306
-415.428	36.942	0.083	0.073
-414.413	-44.920	0.025	-0.012
-413.398	377.191	-0.148	-0.302
-412.384	-45.578	0.072	0.036
-411.369	-200.000	0.018	-0.155
-410.355	800.000	0.049	0.175
-409.340	-37.480	0.050	0.027
-408.325	22.152	0.338	-0.275
-407.311	800.000	-0.088	0.305
-406.296	800.000	-0.043	0.130
-405.282	234.140	0.015	0.025
-404.267	-200.000	-0.047	-0.217
-403.252	139.077	-0.041	0.054
-402.238	-38.511	0.142	-0.075
-401.223	404.344	-0.030	-0.063
-400.209	-187.276	0.169	-0.002
-399.194	66.616	0.133	0.135
-398.179	-160.071	-0.252	-0.014
-397.165	-14.603	-0.131	-0.084
-396.150	-8.398	0.333	0.223
-395.136	800.000	-0.053	0.192
-394.121	-166.983	-0.139	-0.006
-393.106	-41.834	-0.294	0.151
-392.092	-6.653	0.248	-0.169
-391.077	-200.000	-0.007	0.115
-390.063	26.915	0.153	0.128
-389.048	800.000	-0.019	0.081
-388.033	-41.976	-0.149	-0.076
-387.019	515.153	0.103	-0.241
-386.004	23.182	-0.212	-0.174
-384.990	-200.000	-0.009	0.181
-383.975	-121.374	-0.416	-0.069
-382.960	800.000	-0.046	-0.156
-381.946	387.704	0.126	0.259
-380.931	-200.000	-0.006	-0.062
-379.917	-200.000	-0.001	-0.327
-378.902	800.000	-0.009	0.033
-377.888	-125.994	-0.204	0.031
-376.873	108.235	0.169	0.201
-375.858	-29.787	-0.053	0.030
-374.844	693.790	-0.125	-0.326
-373.829	111.172	-0.068	0.081
-372.815	55.974	0.174	0.169
-371.800	-91.472	-0.184	0.052
-370.785	329.621	0.111	-0.213
-369.771	-96.281	0.292	0.077
-368.756	174.965	-0.207	-0.299
-367.742	180.235	-0.202	-0.295
-366.727	351.005	0.111	-0.218
-365.712	800.000	-0.055	-0.191
-364.698	-79.181	-0.403	0.136
-363.683	-92.752	0.284	-0.079
-362.669	-157.338	0.290	-0.017
-361.654	36.770	0.247	-0.217
-360.639	504.499	-0.146	-0.337
-359.625	-118.608	0.314	0.055
-358.610	8.385	0.154	0.115
-357.596	-24.406	-0.370	0.220
-356.581	54.868	-0.165	0.159
-355.566	99.136	-0.127	-0.146
-354.552	83.770	-0.186	0.203
-353.537	-131.771	-0.235	0.031
-352.523	800.000	0.128	0.364
-351.508	-200.000	-0.028	0.237
-350.493	-82.439	0.150	-0.049
-349.479	-153.787	0.222	-0.015
-348.464	-200.000	0.013	0.079
-347.450	-72.720	-0.340	0.125
-346.435	800.000	0.140	-0.550
-345.420	800.000	-0.055	-0.198
-344.406	452.056	-0.195	0.429
-343.391	-200.000	0.015	0.216
-342.377	-142.945	0.200	0.019
-341.362	310.470	0.128	-0.239
-340.348	27.730	-0.133	0.111
-339.333	18.360	0.165	-0.132
-338.318	-200.000	-0.046	-0.236
-337.304	-200.000	-0.004	-0.222
-336.289	219.999	0.154	-0.246
-335.275	-200.000	-0.055	-0.297
-334.260	376.825	0.056	-0.114
-333.245	450.761	-0.065	-0.142
-332.231	460.084	0.107	0.238
-331.216	800.000	0.025	-0.105
-330.202	-27.593	0.128	0.074
-329.187	53.282	0.319	-0.305
-328.172	107.291	-0.194	-0.229
-327.158	38.550	0.280	0.249
-326.143	-200.000	0.022	0.222
-325.129	800.000	0.093	-0.363
-324.114	-27.639	0.410	0.237
-323.099	61.826	0.225	0.223
-322.085	33.425	0.157	-0.136
-321.070	-36.782	0.184	-0.098
-320.056	172.775	-0.135	0.194
-319.041	393.735	-0.077	-0.160
-318.026	-200.000	0.021	0.276
-317.012	-89.731	0.251	0.073
-315.997	-200.000	-0.018	-0.120
-314.983	-94.046	0.209	0.057
-313.968	345.464	-0.130	0.254
-312.953	-73.393	-0.257	0.093
-311.939	635.420	-0.113	-0.285
-310.924	-200.000	0.030	-0.389
-309.910	800.000	0.121	0.355
-308.895	-18.672	-0.151	0.094
-307.880	800.000	-0.033	0.117
-306.866	140.490	-0.061	0.080
-305.851	-200.000	0.031	0.396
-304.837	-96.920	-0.416	-0.109
-303.822	358.058	-0.089	0.177
-302.807	-100.921	-0.189	-0.046
-301.793	-135.115	0.251	0.030
-300.778	-76.371	0.333	0.116
-299.764	800.000	0.104	0.416
-298.749	5.903	0.139	0.103
-297.735	-46.444	0.239	-0.117
-296.720	-129.099	0.357	0.050
-295.705	-171.618	0.247	-0.008
-294.691	800.000	0.110	-0.361
-293.676	512.841	-0.035	-0.081
-292.662	-200.000	0.059	0.286
-291.647	479.449	-0.132	-0.298
-290.632	-62.118	0.058	0.024
-289.618	-200.000	-0.076	-0.513
-288.603	-147.282	-0.262	0.022
-287.589	-83.153	0.408	0.130
-286.574	800.000	0.051	0.173
-285.559	-53.777	-0.174	0.079
-284.545	800.000	0.035	-0.139
-283.530	604.664	0.089	-0.221
-282.516	-200.000	0.042	-0.394
-281.501	-53.352	-0.255	-0.116
-280.486	-109.606	-0.167	0.035
-279.472	6.673	-0.265	-0.196
-278.457	94.412	0.113	-0.127
-277.443	-151.102	0.305	-0.023
-276.428	800.000	-0.113	-0.357
-275.413	-60.777	-0.285	-0.120
-274.399	92.397	0.237	-0.265
-273.384	800.000	-0.070	0.201
-272.370	-200.000	-0.024	-0.269
-271.355	800.000	0.064	-0.205
-270.340	-9.691	-0.088	-0.058
-269.326	-9.759	0.285	0.189
-268.311	-95.151	-0.243	-0.065
-267.297	800.000	0.145	0.406
-266.282	-200.000	-0.000	0.057
-265.267	373.321	-0.118	-0.239
-264.253	800.000	-0.089	-0.262
-263.238	-6.491	-0.029	0.020
-262.224	-151.242	-0.418	-0.031
-261.209	-121.332	0.130	0.022
-260.195	-200.000	0.006	0.039
-259.180	-200.000	0.014	-0.283
-258.165	800.000	-0.058	0.182
-257.151	638.872	-0.012	0.031
-256.136	-139.157	0.395	0.042
-255.122	-200.000	0.026	-0.130
-254.107	611.207	0.110	-0.273
-253.092	-102.568	-0.346	-0.082
-252.078	-200.000	0.033	0.170
-251.063	-30.948	0.187	-0.105
-250.049	158.563	0.089	0.123
-249.034	89.080	-0.102	-0.112
-248.019	176.169	0.135	0.195
-247.005	-200.000	-0.034	0.284
-245.990	510.667	0.152	-0.351
-244.976	65.176	0.157	-0.157
-243.961	15.789	0.185	-0.145
-242.946	800.000	-0.028	0.085
-241.932	350.203	-0.012	0.024
-240.917	-200.000	-0.011	-0.075
-239.903	800.000	0.093	0.353
-238.888	-124.440	0.252	0.039
-237.873	220.171	0.048	-0.076
-236.859	7.928	-0.106	-0.079
-235.844	267.216	-0.200	0.347
-234.830	-113.680	-0.138	-0.027
-233.815	-200.000	0.049	-0.223
-232.800	126.942	-0.067	-0.084
-231.786	53.551	-0.208	-0.198
-230.771	9.563	0.448	0.337
-229.757	-200.000	-0.042	-0.373
-228.742	30.128	-0.152	-0.129
-227.727	-200.000	-0.043	0.305
-226.713	-165.910	-0.081	0.003
-225.698	67.233	-0.172	-0.174
-224.684	257.654	-0.059	-0.100
-223.669	-6.671	0.161	0.109
-222.655	-17.597	0.132	0.082
-221.640	258.939	0.220	0.376
-220.625	-54.674	-0.100	0.045
-219.611	-100.109	0.155	0.038
-218.596	-21.729	-0.169	0.102
-217.582	293.407	0.128	0.231
-216.567	572.187	-0.160	0.386
-215.552	-150.023	0.189	0.015
-214.538	-96.812	-0.234	0.061
-213.523	-33.429	-0.415	-0.227
-212.509	66.428	-0.210	-0.212
-211.494	-147.300	0.201	-0.017
-210.479	-89.390	0.169	-0.049
-209.465	231.070	0.218	-0.354
-208.450	-198.150	0.094	-0.001
-207.436	800.000	0.095	0.274
-206.421	-77.226	0.395	0.136
-205.406	51.088	-0.201	0.189
-204.392	-19.080	-0.368	-0.226
-203.377	800.000	-0.070	-0.195
-202.363	-200.000	0.023	-0.142
-201.348	800.000	0.042	-0.136
-200.333	-200.000	0.021	-0.429
-199.319	-108.015	-0.147	-0.032
-198.304	-72.176	-0.196	0.072
-197.290	174.761	-0.206	0.295
-196.275	800.000	0.084	0.276
-195.260	-12.407	0.403	-0.261
-194.246	53.447	-0.145	0.138
-193.231	328.498	0.155	0.295
-192.217	-200.000	-0.016	-0.214
-191.202	-50.042	-0.136	0.064
-190.187	641.712	-0.073	-0.183
-189.173	94.085	-0.062	-0.070
-188.158	-157.892	0.135	0.008
-187.144	-50.815	0.102	0.048
-186.129	-200.000	-0.106	0.463
-185.114	706.255	0.078	-0.203
-184.100	-75.560	-0.157	-0.055
-183.085	-24.681	0.202	-0.119
-182.071	14.220	0.125	-0.096
-181.056	-200.000	-0.065	0.345
-180.042	-62.885	-0.167	0.068
-179.027	-87.371	-0.464	0.139
-178.012	-200.000	-0.026	0.326
-176.998	18.534	0.035	-0.028
-175.983	-95.797	0.446	-0.118
-174.969	-112.655	-0.121	-0.024
-173.954	800.000	0.010	-0.027
-172.939	799.637	-0.019	0.052
-171.925	-37.582	0.281	0.148
-170.910	624.433	-0.063	0.156
-169.896	-17.871	-0.127	0.079
-168.881	132.087	0.244	-0.311
-167.866	536.553	0.034	-0.081
-166.852	216.518	0.093	0.147
-165.837	72.809	0.053	0.055
-164.823	-144.809	0.223	0.020
-163.808	50.987	0.154	-0.144
-162.793	423.539	0.113	0.241
-161.779	-136.390	0.193	-0.022
-160.764	132.003	-0.128	0.162
-159.750	-0.841	-0.096	0.067
-158.735	-200.000	-0.001	-0.107
-157.720	129.483	0.086	-0.109
-156.706	800.000	-0.166	0.474
-155.691	119.538	-0.101	0.124
-154.677	485.070	0.109	0.246
-153.662	-200.000	0.316	0.002
-152.647	-145.907	-0.239	0.021
-151.633	-63.028	-0.150	-0.061
-150.618	-41.226	-0.108	-0.055
-149.604	-76.679	-0.368	0.127
-148.589	-15.487	0.080	-0.050
-147.574	385.351	0.147	0.299
-146.560	-114.603	0.169	-0.032
-145.545	614.969	0.071	-0.177
-144.531	-86.216	-0.250	0.076
-143.516	5.568	0.090	0.065
-142.502	-66.870	-0.225	0.088
-141.487	161.988	0.042	0.058
-140.472	-13.050	0.171	-0.110
-139.458	2.233	-0.154	0.110
-138.443	-73.845	0.260	-0.093
-137.429	-91.674	-0.126	-0.036
-136.414	-75.825	-0.190	-0.066
-135.399	800.000	0.048	0.202
-134.385	-43.007	0.075	-0.038
-133.370	-200.000	0.026	-0.152
-132.356	-200.000	0.011	0.054
-131.341	800.000	0.034	0.096
-130.326	0.617	0.350	0.247
-129.312	113.219	0.226	0.271
-128.297	78.239	-0.137	0.144
-127.283	10.558	-0.042	-0.032
-126.268	54.805	-0.088	0.084
-125.253	800.000	0.126	-0.401
-124.239	10.315	0.156	0.117
-123.224	-200.000	0.061	0.355
-122.210	54.260	-0.194	0.185
-121.195	-147.881	0.179	0.015
