DTS Sentinel unit serial number:	SN413079Multiplexer serial number:	ORYXHardware model number:	OX4-SRSoftware version number:	ORYX F/W v4.00 Oryx Data Collector v3.7.2.0data status	okinstallation	princeton_trtdifferential loss correction	single-endedforward channel	channel 4reverse channel	N/Adate	2019/09/14time	15:13:34forward acquisition time	60.00reverse acquisition time	0.00gamma	496.2192k internal	0.2290k external	0.2290temperature offset calibration	1.0140default loss term (dB/km)	0.3790temperature slope calibration	1.0000multiplexer offset coefficient	1.0000multiplexer slope coefficient	1.0000fibre end	0.00T internal ref (°C)	39.12T ext. ref 1 (°C)	5.11T ext. ref 2 (°C)	35.00length (m)	temperature (°C)	Stokes	anti-Stokes-747.200	-41.220	-0.172	0.091
-746.185	56.837	0.392	-0.391
-745.171	-200.000	-0.006	-0.148
-744.156	-200.000	-0.011	-0.211
-743.142	-200.000	-0.019	-0.116
-742.127	-25.610	-0.102	0.062
-741.112	-21.835	0.086	0.054
-740.098	159.059	-0.117	0.167
-739.083	-8.972	0.075	0.051
-738.069	-112.194	-0.256	0.053
-737.054	125.799	-0.120	-0.155
-736.039	38.283	0.123	-0.112
-735.025	800.000	-0.022	-0.085
-734.010	-76.994	-0.083	-0.030
-732.996	561.889	-0.082	-0.204
-731.981	212.240	-0.057	-0.092
-730.966	-71.581	-0.413	0.158
-729.952	-15.279	0.099	0.065
-728.937	-136.713	0.159	0.019
-727.923	-126.626	-0.127	-0.019
-726.908	-91.030	-0.207	-0.061
-725.894	-82.184	0.054	-0.018
-724.879	127.444	-0.230	0.299
-723.864	-79.874	0.029	-0.010
-722.850	-200.000	-0.026	-0.344
-721.835	252.801	-0.188	-0.328
-720.821	-84.065	0.268	0.087
-719.806	-41.567	-0.162	0.085
-718.791	30.689	0.071	0.062
-717.777	-162.990	-0.332	0.016
-716.762	-59.041	-0.301	-0.133
-715.748	-137.353	0.139	0.016
-714.733	800.000	-0.044	0.177
-713.718	212.846	0.102	-0.165
-712.704	147.786	-0.246	-0.339
-711.689	800.000	0.077	-0.318
-710.675	-200.000	0.058	-0.296
-709.660	-98.954	0.202	-0.053
-708.645	343.893	-0.179	0.360
-707.631	-103.660	-0.268	0.064
-706.616	-10.809	0.142	-0.096
-705.602	-56.114	-0.194	-0.088
-704.587	-200.000	-0.032	-0.270
-703.572	-110.913	0.102	-0.021
-702.558	386.887	0.127	-0.268
-701.543	-200.000	-0.011	0.190
-700.529	-72.623	-0.250	0.094
-699.514	18.054	-0.100	-0.082
-698.499	-200.000	-0.009	0.324
-697.485	-200.000	-0.040	-0.224
-696.470	-200.000	-0.030	-0.259
-695.456	-90.410	-0.234	-0.069
-694.441	-139.242	-0.174	0.019
-693.426	-200.000	-0.000	0.020
-692.412	-86.759	0.263	-0.082
-691.397	62.437	0.092	-0.094
-690.383	800.000	0.098	-0.293
-689.368	-44.645	-0.250	-0.127
-688.354	-36.888	0.155	0.085
-687.339	-32.913	0.124	-0.070
-686.324	-26.780	-0.190	0.114
-685.310	126.036	-0.112	0.144
-684.295	-154.757	-0.087	-0.006
-683.281	169.609	0.100	-0.146
-682.266	800.000	-0.013	0.042
-681.251	800.000	0.026	0.112
-680.237	440.610	-0.087	-0.194
-679.222	338.490	-0.262	-0.521
-678.208	-153.188	-0.281	-0.020
-677.193	-141.615	0.022	-0.002
-676.178	-125.726	0.381	0.059
-675.164	22.695	-0.109	0.091
-674.149	-64.943	0.270	-0.111
-673.135	28.918	-0.242	-0.209
-672.120	-173.635	-0.396	-0.012
-671.105	-48.235	0.127	0.063
-670.091	313.689	0.176	-0.338
-669.076	549.015	0.078	-0.190
-668.062	43.150	-0.060	-0.056
-667.047	45.253	0.109	-0.103
-666.032	40.226	-0.101	0.093
-665.018	382.665	-0.103	0.216
-664.003	385.668	-0.158	-0.333
-662.989	45.620	-0.099	0.094
-661.974	171.536	-0.053	-0.078
-660.959	800.000	-0.056	0.232
-659.945	-148.983	-0.207	-0.017
-658.930	28.448	-0.234	-0.202
-657.916	-135.506	0.098	0.012
-656.901	-200.000	-0.065	-0.337
-655.886	10.865	-0.320	0.249
-654.872	202.710	0.033	-0.052
-653.857	74.608	-0.197	0.211
-652.843	-6.052	0.278	0.194
-651.828	-25.708	-0.249	-0.150
-650.814	584.725	-0.145	-0.364
-649.799	-200.000	0.009	-0.238
-648.784	-178.667	-0.026	-0.001
-647.770	49.024	-0.404	0.387
-646.755	371.719	0.135	-0.280
-645.741	-200.000	0.056	0.261
-644.726	800.000	0.121	0.360
-643.711	-48.733	0.181	-0.089
-642.697	9.215	-0.130	0.100
-641.682	-200.000	0.018	-0.479
-640.668	800.000	0.024	0.086
-639.653	-200.000	0.031	0.264
-638.638	800.000	0.110	0.468
-637.624	14.019	-0.117	0.093
-636.609	800.000	0.035	0.120
-635.595	800.000	-0.025	0.073
-634.580	-200.000	0.023	-0.163
-633.565	800.000	-0.056	-0.166
-632.551	-200.000	0.005	0.110
-631.536	51.703	0.190	-0.184
-630.522	95.719	-0.192	0.223
-629.507	-129.500	0.074	-0.010
-628.492	-200.000	0.017	0.226
-627.478	63.238	-0.322	-0.329
-626.463	170.803	-0.130	-0.190
-625.449	-200.000	0.014	-0.186
-624.434	800.000	-0.028	0.118
-623.419	327.600	-0.198	-0.387
-622.405	128.437	0.085	-0.110
-621.390	-166.013	-0.278	0.012
-620.376	424.699	-0.050	-0.110
-619.361	15.114	-0.274	0.219
-618.346	-29.107	-0.123	-0.072
-617.332	-100.879	-0.293	-0.074
-616.317	800.000	-0.058	0.174
-615.303	-200.000	0.066	0.416
-614.288	-183.943	0.189	0.003
-613.273	111.152	-0.184	0.226
-612.259	-178.267	-0.292	-0.007
-611.244	-200.000	0.004	-0.166
-610.230	209.042	-0.243	-0.388
-609.215	118.599	0.099	-0.125
-608.201	-200.000	0.050	0.356
-607.186	-200.000	0.022	-0.120
-606.171	207.589	-0.100	-0.159
-605.157	-82.973	0.274	0.090
-604.142	202.672	0.096	-0.151
-603.128	-200.000	0.038	0.191
-602.113	-200.000	-0.321	-0.000
-601.098	-200.000	0.031	0.244
-600.084	-72.845	-0.123	0.046
-599.069	57.645	0.194	0.193
-598.055	-37.268	0.015	-0.008
-597.040	299.156	-0.159	-0.299
-596.025	-200.000	-0.003	-0.288
-595.011	-200.000	0.043	-0.289
-593.996	800.000	0.027	0.119
-592.982	-62.376	-0.195	0.083
-591.967	-16.415	0.330	0.213
-590.952	260.414	-0.193	0.340
-589.938	-200.000	-0.028	-0.146
-588.923	-91.056	0.399	-0.117
-587.909	134.316	0.215	0.284
-586.894	28.439	0.134	-0.115
-585.879	57.795	-0.214	0.213
-584.865	800.000	0.082	-0.333
-583.850	-200.000	-0.005	-0.129
-582.836	-28.097	0.150	-0.088
-581.821	-59.540	0.192	-0.084
-580.806	141.604	0.059	-0.080
-579.792	-168.035	-0.182	0.007
-578.777	-68.557	-0.274	0.108
-577.763	-151.746	0.115	0.009
-576.748	199.781	0.127	0.199
-575.733	107.600	-0.070	-0.085
-574.719	-83.559	-0.070	-0.023
-573.704	-29.601	-0.199	0.116
-572.690	-200.000	-0.017	0.280
-571.675	-200.000	-0.007	0.131
-570.661	-122.606	0.346	0.057
-569.646	677.467	-0.035	-0.093
-568.631	71.137	-0.123	0.130
-567.617	-200.000	0.012	-0.061
-566.602	-200.000	0.009	0.075
-565.588	-93.882	-0.154	-0.043
-564.573	-129.227	0.074	-0.010
-563.558	155.170	0.101	-0.141
-562.544	-85.495	0.287	0.091
-561.529	111.416	-0.238	-0.292
-560.515	-139.136	0.086	-0.009
-559.500	-200.000	-0.008	-0.186
-558.485	-169.702	0.147	0.005
-557.471	-200.000	-0.036	-0.176
-556.456	-200.000	0.035	-0.225
-555.442	800.000	0.129	-0.363
-554.427	-200.000	0.003	-0.249
-553.412	-144.565	0.425	0.040
-552.398	422.502	-0.047	-0.102
-551.383	797.959	0.073	0.203
-550.369	0.229	0.219	-0.159
-549.354	141.250	0.217	-0.292
-548.339	15.227	-0.308	0.245
-547.325	-52.450	0.252	0.118
-546.310	-146.678	-0.112	0.010
-545.296	-95.026	-0.236	-0.065
-544.281	800.000	0.041	-0.158
-543.266	178.424	-0.098	-0.146
-542.252	154.397	-0.181	-0.252
-541.237	-170.323	0.175	-0.006
-540.223	40.618	-0.087	0.080
-539.208	-200.000	-0.016	0.076
-538.193	104.983	-0.128	-0.154
-537.179	-200.000	0.046	0.219
-536.164	-200.000	0.021	-0.248
-535.150	47.373	0.142	0.135
-534.135	52.537	0.048	0.046
-533.121	504.060	0.054	0.126
-532.106	800.000	-0.132	0.374
-531.091	-200.000	0.012	0.065
-530.077	96.234	-0.129	0.150
-529.062	-128.098	0.253	-0.037
-528.048	356.388	-0.080	0.161
-527.033	625.722	0.186	0.477
-526.018	30.492	-0.157	-0.136
-525.004	-159.495	-0.039	0.002
-523.989	-95.623	-0.208	-0.056
-522.975	59.801	-0.123	0.123
-521.960	-200.000	-0.088	0.438
-520.945	5.007	-0.389	0.290
-519.931	182.356	0.032	0.048
-518.916	159.762	0.239	-0.337
-517.902	-200.000	-0.017	-0.444
-516.887	-93.029	-0.284	0.080
-515.872	163.884	0.042	0.060
-514.858	293.848	0.023	0.042
-513.843	-36.232	0.386	-0.211
-512.829	-132.324	0.220	-0.029
-511.814	38.916	-0.372	0.337
-510.799	44.922	-0.088	-0.082
-509.785	-200.000	-0.043	-0.205
-508.770	-200.000	0.076	-0.469
-507.756	-200.000	-0.025	-0.241
-506.741	377.322	-0.067	-0.140
-505.726	667.988	-0.049	-0.128
-504.712	169.013	0.071	-0.102
-503.697	87.203	0.074	-0.083
-502.683	-200.000	0.009	0.394
-501.668	800.000	-0.053	-0.207
-500.653	-58.237	-0.099	-0.044
-499.639	-61.968	0.200	0.085
-498.624	281.011	0.049	-0.089
-497.610	132.346	0.147	-0.193
-496.595	800.000	0.055	0.209
-495.581	136.480	-0.115	-0.153
-494.566	182.709	-0.112	-0.168
-493.551	-190.025	-0.139	-0.002
-492.537	40.291	0.097	-0.088
-491.522	-90.123	-0.351	-0.104
-490.508	-200.000	0.030	-0.186
-489.493	-200.000	0.005	-0.126
-488.478	391.862	-0.090	0.190
-487.464	-50.860	0.289	-0.138
-486.449	-12.469	-0.224	-0.148
-485.435	-95.775	-0.149	-0.040
-484.420	193.422	0.155	0.237
-483.405	-129.744	-0.179	-0.025
-482.391	68.104	0.173	-0.180
-481.376	-200.000	0.071	-0.407
-480.362	151.733	0.118	0.163
-479.347	-150.081	0.287	0.023
-478.332	331.225	0.156	-0.304
-477.318	-88.455	-0.137	0.042
-476.303	114.238	0.080	0.098
-475.289	48.171	-0.107	0.102
-474.274	-91.210	0.112	0.033
-473.259	39.061	0.163	-0.148
-472.245	-33.516	-0.130	0.073
-471.230	-115.017	-0.135	-0.026
-470.216	800.000	0.054	-0.178
-469.201	73.657	0.054	0.057
-468.186	-200.000	0.000	0.251
-467.172	675.186	0.097	0.256
-466.157	-93.501	-0.324	-0.091
-465.143	800.000	-0.009	-0.037
-464.128	-5.923	0.247	-0.171
-463.113	-168.596	0.183	-0.007
-462.099	-20.860	-0.176	-0.109
-461.084	800.000	-0.088	-0.275
-460.070	800.000	0.053	-0.200
-459.055	-63.899	0.124	0.051
-458.040	-200.000	0.018	-0.084
-457.026	-200.000	-0.041	-0.255
-456.011	79.123	-0.126	-0.137
-454.997	-200.000	-0.060	0.383
-453.982	52.622	0.095	-0.092
-452.968	-16.959	-0.144	0.092
-451.953	0.921	0.108	-0.078
-450.938	-59.618	-0.315	0.137
-449.924	-121.694	-0.313	0.052
-448.909	-20.848	-0.227	0.141
-447.895	24.658	-0.188	-0.157
-446.880	336.641	-0.055	0.107
-445.865	-90.989	-0.324	0.094
-444.851	-200.000	0.019	0.194
-443.836	-97.607	0.481	0.126
-442.822	-200.000	0.039	-0.177
-441.807	-200.000	0.009	0.062
-440.792	729.127	0.122	-0.330
-439.778	-119.606	-0.357	-0.062
-438.763	-200.000	0.004	0.019
-437.749	59.069	-0.106	0.106
-436.734	98.074	0.216	0.252
-435.719	800.000	0.072	-0.265
-434.705	-22.515	0.171	-0.105
-433.690	23.336	0.124	-0.103
-432.676	-135.569	-0.083	-0.010
-431.661	291.050	-0.134	-0.246
-430.646	1.528	-0.119	0.086
-429.632	-78.628	-0.220	-0.076
-428.617	-59.831	-0.101	0.044
-427.603	410.827	0.116	0.248
-426.588	653.202	0.102	-0.265
-425.573	-32.461	-0.167	0.094
-424.559	-146.853	-0.128	0.011
-423.544	-196.475	0.213	0.001
-422.530	155.295	0.169	-0.235
-421.515	604.301	-0.038	-0.095
-420.500	115.262	0.099	-0.123
-419.486	120.241	0.270	-0.339
-418.471	-68.077	0.042	0.016
-417.457	5.509	-0.148	0.110
-416.442	-85.871	0.306	0.096
-415.428	-151.954	-0.062	0.005
-414.413	295.834	0.127	-0.235
-413.398	-200.000	-0.074	-0.386
-412.384	-200.000	0.047	0.232
-411.369	486.863	-0.066	0.152
-410.355	569.273	-0.060	0.147
-409.340	68.737	-0.055	0.057
-408.325	-52.135	0.218	-0.102
-407.311	549.712	-0.099	-0.240
-406.296	107.615	-0.170	0.205
-405.282	310.167	0.046	0.086
-404.267	64.040	0.083	0.085
-403.252	114.935	-0.109	0.134
-402.238	219.297	0.104	0.168
-401.223	48.160	0.073	-0.069
-400.209	11.808	-0.102	0.079
-399.194	27.165	0.045	0.038
-398.179	-42.331	0.153	0.079
-397.165	-104.655	0.236	0.055
-396.150	-127.780	0.249	-0.036
-395.136	-53.849	-0.379	-0.174
-394.121	-200.000	-0.030	-0.295
-393.106	-87.935	-0.278	-0.085
-392.092	-125.354	-0.307	-0.047
-391.077	619.757	0.095	0.241
-390.063	463.464	-0.111	0.251
-389.048	800.000	-0.065	-0.188
-388.033	48.167	0.119	-0.113
-387.019	242.701	0.064	-0.108
-386.004	328.068	-0.066	-0.128
-384.990	306.168	0.086	0.162
-383.975	619.308	-0.086	0.219
-382.960	249.454	-0.196	0.335
-381.946	-100.815	-0.215	-0.053
-380.931	607.217	-0.036	-0.091
-379.917	-35.023	0.290	-0.160
-378.902	-60.613	0.202	0.087
-377.888	-43.894	0.104	-0.053
-376.873	-60.853	-0.027	0.011
-375.858	602.277	0.118	0.297
-374.844	-173.210	0.235	0.007
-373.829	-200.000	-0.003	-0.096
-372.815	-200.000	0.020	0.175
-371.800	60.044	-0.080	-0.080
-370.785	510.471	-0.045	0.106
-369.771	-200.000	-0.020	0.137
-368.756	79.294	0.125	-0.135
-367.742	510.717	0.111	-0.262
-366.727	331.799	-0.123	0.240
-365.712	167.825	-0.144	0.207
-364.698	800.000	-0.040	0.116
-363.683	3.758	-0.253	-0.187
-362.669	-77.622	0.041	-0.014
-361.654	-85.349	-0.102	-0.032
-360.639	-100.083	0.201	-0.051
-359.625	30.884	-0.090	-0.078
-358.610	-148.234	-0.146	-0.012
-357.596	-166.042	-0.029	0.001
-356.581	800.000	0.069	0.273
-355.566	239.720	0.085	-0.143
-354.552	120.899	0.189	0.237
-353.537	-106.490	0.135	0.030
-352.523	234.763	-0.066	0.110
-351.508	93.407	0.058	0.066
-350.493	562.084	0.176	-0.430
-349.479	-79.038	-0.103	-0.035
-348.464	352.746	0.172	-0.343
-347.450	629.370	-0.027	0.068
-346.435	97.332	-0.214	-0.247
-345.420	175.567	-0.106	0.155
-344.406	-200.000	-0.020	-0.291
-343.391	787.807	-0.147	0.407
-342.377	-200.000	-0.009	0.068
-341.362	125.876	-0.113	-0.144
-340.348	263.671	-0.057	-0.101
-339.333	800.000	-0.049	0.160
-338.318	-200.000	-0.054	0.420
-337.304	800.000	-0.117	0.368
-336.289	-41.417	0.186	0.097
-335.275	-32.854	-0.191	0.107
-334.260	-200.000	-0.032	-0.170
-333.245	-102.212	0.238	0.058
-332.231	-109.921	-0.306	-0.065
-331.216	-4.980	0.092	0.064
-330.202	-130.649	-0.181	0.025
-329.187	44.934	0.098	0.091
-328.172	-43.369	0.158	-0.081
-327.158	118.480	-0.117	0.146
-326.143	-68.232	-0.324	0.127
-325.129	-21.788	0.157	0.096
-324.114	-170.915	0.203	-0.007
-323.099	-12.888	-0.248	0.162
-322.085	773.631	-0.074	-0.203
-321.070	800.000	-0.093	0.298
-320.056	-200.000	0.009	-0.124
-319.041	-49.208	0.284	0.137
-318.026	761.520	0.037	0.102
-317.012	800.000	-0.061	-0.263
-315.997	-200.000	0.050	0.392
-314.983	565.054	-0.113	0.275
-313.968	169.970	-0.072	0.103
-312.953	351.809	0.134	0.268
-311.939	59.540	0.126	-0.125
-310.924	634.680	-0.217	-0.555
-309.910	35.233	-0.133	0.117
-308.895	-200.000	0.018	-0.117
-307.880	448.763	0.116	-0.257
-306.866	800.000	0.045	0.183
-305.851	-105.227	-0.206	0.047
-304.837	204.745	-0.048	0.075
-303.822	144.578	0.116	0.157
-302.807	-77.499	0.186	-0.065
-301.793	-34.621	-0.147	0.081
-300.778	800.000	-0.056	-0.189
-299.764	-200.000	0.037	0.276
-298.749	548.400	0.140	0.338
-297.735	-27.249	0.336	-0.197
-296.720	-30.604	-0.127	0.072
-295.705	-90.836	-0.090	0.026
-294.691	-200.000	-0.004	0.189
-293.676	50.771	0.098	-0.093
-292.662	-200.000	-0.037	-0.575
-291.647	-200.000	-0.022	-0.138
-290.632	508.030	-0.079	-0.185
-289.618	549.127	0.176	0.425
-288.603	-110.649	-0.244	-0.051
-287.589	-100.442	-0.148	-0.037
-286.574	103.758	-0.148	-0.175
-285.559	-184.857	0.249	0.004
-284.545	175.107	0.092	0.134
-283.530	-200.000	0.053	-0.303
-282.516	525.798	0.066	0.156
-281.501	-24.561	0.138	-0.083
-280.486	-11.669	-0.017	-0.011
-279.472	319.839	-0.068	0.130
-278.457	12.267	0.281	0.218
-277.443	-124.308	-0.287	0.045
-276.428	359.490	0.073	-0.146
-275.413	800.000	0.096	-0.274
-274.399	-17.420	-0.143	0.091
-273.384	49.127	-0.073	0.069
-272.370	-116.077	0.050	-0.009
-271.355	-69.825	-0.158	0.061
-270.340	-109.173	-0.334	-0.071
-269.326	-30.138	-0.189	0.108
-268.311	-105.004	0.152	-0.035
-267.297	296.549	0.146	0.270
-266.282	531.268	-0.066	-0.157
-265.267	-64.546	-0.345	-0.141
-264.253	-200.000	0.054	-0.297
-263.238	100.433	-0.087	-0.102
-262.224	800.000	0.068	-0.284
-261.209	265.061	0.061	0.106
-260.195	341.063	-0.070	-0.137
-259.180	16.257	-0.189	-0.150
-258.165	615.364	0.142	0.356
-257.151	-21.326	0.057	-0.035
-256.136	-99.182	0.077	0.019
-255.122	238.350	0.109	-0.182
-254.107	127.747	0.061	-0.078
-253.092	-87.178	-0.079	-0.024
-252.078	681.128	-0.118	0.308
-251.063	-158.251	0.240	0.014
-250.049	-200.000	-0.000	-0.154
-249.034	-48.614	-0.239	0.116
-248.019	36.013	-0.137	-0.122
-247.005	800.000	-0.173	-0.492
-245.990	-33.833	-0.103	-0.057
-244.976	105.495	0.087	0.103
-243.961	-135.121	0.429	0.052
-242.946	391.989	0.109	-0.227
-241.932	-48.220	0.270	-0.131
-240.917	166.072	0.041	0.059
-239.903	-101.687	-0.055	-0.013
-238.888	26.487	-0.080	-0.068
-237.873	-106.340	0.299	0.067
-236.859	-200.000	0.002	-0.244
-235.844	800.000	0.026	0.095
-234.830	781.747	0.125	0.345
-233.815	-70.730	-0.028	0.011
-232.800	392.100	-0.042	-0.087
-231.786	257.729	-0.076	-0.131
-230.771	-86.674	-0.370	-0.114
-229.757	-91.283	0.114	0.033
-228.742	-18.077	0.160	-0.100
-227.727	9.866	-0.049	-0.038
-226.713	-144.176	-0.220	0.021
-225.698	24.188	0.252	0.209
-224.684	-88.435	0.175	0.052
-223.669	-120.166	0.241	0.041
-222.655	22.554	0.379	0.311
-221.640	-200.000	0.025	0.242
-220.625	-92.135	-0.271	-0.077
-219.611	35.433	-0.224	-0.197
-218.596	-67.022	0.340	-0.135
-217.582	72.351	0.226	0.236
-216.567	-200.000	0.026	0.273
-215.552	2.340	0.142	-0.103
-214.538	63.644	0.101	-0.102
-213.523	-93.147	-0.367	0.103
-212.509	-63.343	0.263	-0.109
-211.494	35.351	-0.303	0.267
-210.479	34.536	-0.125	0.109
-209.465	751.171	-0.096	-0.260
-208.450	-131.776	-0.212	-0.028
-207.436	30.192	0.128	0.110
-206.421	22.659	0.086	-0.071
-205.406	273.035	0.085	0.150
-204.392	800.000	-0.095	0.348
-203.377	238.920	0.124	-0.206
-202.363	-51.108	0.347	0.163
-201.348	-28.632	0.048	0.027
-200.333	323.249	0.245	0.468
-199.319	-66.662	-0.121	0.048
-198.304	-5.487	-0.113	0.078
-197.290	800.000	0.087	0.270
-196.275	345.302	0.092	-0.181
-195.260	-90.063	0.306	0.090
-194.246	-15.217	-0.211	0.135
-193.231	800.000	-0.088	0.302
-192.217	116.933	0.031	0.039
-191.202	-55.368	-0.395	0.178
-190.187	-200.000	-0.005	-0.024
-189.173	85.949	0.107	0.118
-188.158	-25.025	-0.108	0.064
-187.144	111.472	0.096	-0.116
-186.129	624.935	0.064	0.160
-185.114	32.725	0.084	-0.073
-184.100	-23.494	-0.176	0.106
-183.085	-87.330	0.040	0.012
-182.071	61.467	-0.169	0.168
-181.056	-121.046	-0.242	0.041
-180.042	-32.717	-0.108	-0.060
-179.027	-200.000	0.043	-0.204
-178.012	148.956	-0.127	0.172
-176.998	-56.087	0.129	0.057
-175.983	222.049	0.197	-0.317
-174.969	-110.818	0.166	-0.034
-173.954	-200.000	-0.038	-0.170
-172.939	-8.299	0.133	-0.090
-171.925	-60.560	0.242	0.103
-170.910	74.916	-0.115	0.121
-169.896	-124.104	-0.080	0.013
-168.881	-112.618	0.223	0.045
-167.866	31.523	-0.279	-0.240
-166.852	268.447	0.050	-0.088
-165.837	800.000	0.099	0.430
-164.823	212.746	0.121	-0.192
-163.808	-54.733	0.158	0.071
-162.793	75.737	0.037	-0.039
-161.779	93.485	0.116	-0.131
-160.764	-14.110	0.285	-0.184
-159.750	800.000	0.061	-0.269
-158.735	-151.633	-0.238	0.018
-157.720	-52.388	0.454	0.210
-156.706	800.000	-0.055	0.161
-155.691	159.476	0.217	-0.303
-154.677	-86.268	0.122	0.038
-153.662	-103.046	-0.193	0.046
-152.647	-77.301	-0.168	-0.058
-151.633	-200.000	0.004	0.345
-150.618	800.000	-0.081	0.255
-149.604	-73.452	0.264	0.097
-148.589	-44.368	-0.378	0.190
-147.574	-148.864	-0.143	-0.012
-146.560	416.471	0.085	-0.182
-145.545	-151.183	0.217	0.016
-144.531	-200.000	0.070	0.367
-143.516	-51.589	0.222	0.104
-142.502	-122.583	-0.296	-0.048
-141.487	-200.000	-0.042	-0.223
-140.472	49.607	-0.139	-0.131
-139.458	-67.906	0.238	0.093
-138.443	-200.000	-0.018	0.111
-137.429	46.726	0.082	0.076
-136.414	-74.032	0.286	0.104
-135.399	-85.454	-0.273	0.085
-134.385	-97.316	-0.148	0.039
-133.370	-139.519	-0.036	0.004
-132.356	-9.541	-0.180	0.120
-131.341	83.326	0.154	0.168
-130.326	506.472	-0.091	0.211
-129.312	-110.278	0.287	0.060
-128.297	158.360	0.218	0.303
-127.283	-19.141	0.231	0.143
-126.268	13.260	0.095	0.074
-125.253	800.000	0.072	0.307
-124.239	800.000	-0.097	-0.290
-123.224	-200.000	0.023	0.328
-122.210	111.934	-0.125	0.152
-121.195	4.457	0.149	0.109
