DTS Sentinel unit serial number:	SN413079Multiplexer serial number:	ORYXHardware model number:	OX4-SRSoftware version number:	ORYX F/W v4.00 Oryx Data Collector v3.7.2.0data status	okinstallation	princeton_trtdifferential loss correction	single-endedforward channel	channel 4reverse channel	N/Adate	2019/09/17time	07:41:35forward acquisition time	60.00reverse acquisition time	0.00gamma	496.2192k internal	0.2320k external	0.2320temperature offset calibration	0.9985default loss term (dB/km)	0.3790temperature slope calibration	1.0000multiplexer offset coefficient	1.0000multiplexer slope coefficient	1.0000fibre end	0.00T internal ref (°C)	27.16T ext. ref 1 (°C)	0.12T ext. ref 2 (°C)	21.96length (m)	temperature (°C)	Stokes	anti-Stokes-747.200	800.000	-0.086	0.264
-746.185	-200.000	-0.029	0.453
-745.171	800.000	-0.054	0.231
-744.156	184.232	-0.123	0.184
-743.142	84.619	-0.168	0.186
-742.127	800.000	-0.112	0.355
-741.112	-200.000	-0.048	0.291
-740.098	355.600	0.066	0.132
-739.083	81.836	-0.132	0.144
-738.069	-40.809	-0.172	0.090
-737.054	-38.583	0.370	0.198
-736.039	-77.525	-0.075	0.026
-735.025	-200.000	-0.020	-0.109
-734.010	-20.573	-0.189	-0.117
-732.996	-200.000	0.028	-0.135
-731.981	40.788	-0.150	0.137
-730.966	-79.186	0.094	-0.032
-729.952	-56.596	-0.113	0.051
-728.937	-19.479	-0.141	-0.088
-727.923	-50.260	0.245	0.117
-726.908	74.808	-0.168	0.178
-725.894	-81.343	-0.226	0.075
-724.879	-200.000	-0.021	-0.162
-723.864	-200.000	0.002	-0.414
-722.850	800.000	-0.045	-0.146
-721.835	466.298	0.139	0.316
-720.821	-75.588	-0.252	0.090
-719.806	-75.362	-0.225	-0.081
-718.791	-200.000	-0.020	0.093
-717.777	800.000	0.069	0.239
-716.762	-95.069	-0.427	-0.116
-715.748	-107.618	-0.430	-0.095
-714.733	-44.394	-0.251	-0.127
-713.718	-200.000	0.007	-0.203
-712.704	-200.000	0.032	0.175
-711.689	-156.655	-0.434	-0.027
-710.675	81.717	-0.455	-0.497
-709.660	147.909	0.140	0.191
-708.645	-63.340	-0.219	0.091
-707.631	-34.947	-0.266	0.147
-706.616	-48.507	-0.213	0.104
-705.602	-200.000	-0.005	0.202
-704.587	107.090	-0.101	0.121
-703.572	-200.000	-0.013	-0.378
-702.558	-48.258	-0.220	-0.107
-701.543	800.000	0.046	-0.192
-700.529	480.851	0.049	-0.113
-699.514	112.452	-0.022	-0.027
-698.499	31.200	0.110	-0.095
-697.485	800.000	-0.065	0.187
-696.470	67.825	-0.212	-0.219
-695.456	-200.000	-0.041	0.190
-694.441	-200.000	0.016	-0.329
-693.426	-47.261	-0.129	0.064
-692.412	680.706	0.138	0.362
-691.397	246.153	-0.147	0.249
-690.383	55.186	-0.120	0.117
-689.368	251.653	-0.027	-0.046
-688.354	58.789	0.155	0.153
-687.339	83.059	0.063	-0.069
-686.324	-119.740	0.175	-0.031
-685.310	-200.000	-0.007	-0.277
-684.295	800.000	-0.051	-0.193
-683.281	-74.120	0.142	-0.052
-682.266	-200.000	-0.007	-0.145
-681.251	-119.648	-0.303	-0.053
-680.237	146.650	-0.021	-0.028
-679.222	-105.414	-0.320	-0.073
-678.208	-200.000	-0.006	-0.291
-677.193	54.516	-0.124	0.121
-676.178	609.234	0.022	0.056
-675.164	800.000	-0.076	0.321
-674.149	38.781	0.147	0.132
-673.135	-125.919	0.179	-0.027
-672.120	44.079	0.157	0.145
-671.105	-29.032	0.099	0.057
-670.091	-91.342	0.568	0.164
-669.076	322.293	-0.163	0.313
-668.062	247.102	-0.057	0.096
-667.047	-200.000	0.027	-0.260
-666.032	38.656	-0.294	-0.265
-665.018	-96.612	-0.189	-0.050
-664.003	373.648	-0.053	0.109
-662.989	109.259	-0.222	-0.267
-661.974	28.559	-0.168	-0.144
-660.959	800.000	0.049	0.213
-659.945	88.991	-0.068	-0.076
-658.930	174.226	-0.227	-0.330
-657.916	-200.000	-0.006	-0.222
-656.901	800.000	-0.074	0.253
-655.886	-125.776	-0.185	-0.028
-654.872	39.503	-0.143	0.129
-653.857	518.581	0.117	-0.275
-652.843	453.162	-0.101	0.226
-651.828	-61.261	0.149	-0.063
-650.814	101.005	-0.210	0.246
-649.799	-200.000	-0.015	-0.235
-648.784	566.879	0.107	-0.263
-647.770	-110.244	-0.156	0.033
-646.755	-45.209	-0.288	-0.144
-645.741	-104.971	-0.159	0.037
-644.726	-112.847	0.217	-0.043
-643.711	-200.000	0.136	-0.000
-642.697	-150.228	0.268	0.021
-641.682	53.784	0.151	-0.146
-640.668	-200.000	-0.007	0.213
-639.653	-62.364	-0.154	0.064
-638.638	800.000	-0.073	0.218
-637.624	16.409	-0.208	0.165
-636.609	-98.008	-0.435	0.113
-635.595	62.875	-0.226	-0.228
-634.580	-31.096	0.122	0.069
-633.565	7.667	-0.259	-0.195
-632.551	34.523	-0.156	-0.137
-631.536	87.319	-0.058	0.064
-630.522	81.363	0.118	0.128
-629.507	41.684	-0.125	-0.114
-628.492	113.852	0.149	-0.183
-627.478	-48.396	0.081	0.039
-626.463	649.766	-0.074	-0.192
-625.449	229.401	-0.023	-0.037
-624.434	-1.797	0.226	0.160
-623.419	310.217	0.141	-0.265
-622.405	-200.000	0.013	0.324
-621.390	4.310	-0.336	-0.248
-620.376	23.543	-0.087	0.072
-619.361	800.000	0.032	0.128
-618.346	-161.677	0.133	-0.007
-617.332	-108.056	-0.284	0.062
-616.317	121.467	-0.147	-0.184
-615.303	-45.457	0.084	-0.042
-614.288	-29.193	-0.108	-0.062
-613.273	-152.996	0.262	0.019
-612.259	-140.725	-0.389	0.040
-611.244	32.397	0.165	-0.144
-610.230	-200.000	0.001	0.023
-609.215	-200.000	-0.022	0.228
-608.201	-200.000	-0.057	0.315
-607.186	222.884	-0.124	-0.200
-606.171	800.000	-0.055	0.238
-605.157	593.765	-0.079	-0.196
-604.142	58.556	-0.095	-0.094
-603.128	78.046	0.076	0.081
-602.113	-200.000	0.015	0.100
-601.098	95.548	0.204	-0.234
-600.084	800.000	0.020	-0.078
-599.069	-78.889	0.190	-0.065
-598.055	-17.527	0.115	-0.073
-597.040	-31.602	0.119	-0.067
-596.025	390.572	0.187	0.390
-595.011	-43.552	0.285	-0.145
-593.996	-143.743	-0.234	-0.022
-592.982	-82.365	0.171	0.056
-591.967	-3.044	0.111	-0.078
-590.952	-116.947	-0.059	-0.011
-589.938	-34.499	-0.233	-0.128
-588.923	260.764	-0.086	-0.149
-587.909	-82.121	0.147	0.048
-586.894	-4.603	0.102	-0.071
-585.879	-186.507	-0.146	-0.002
-584.865	-78.613	-0.317	0.109
-583.850	-95.013	-0.450	0.122
-582.836	-200.000	0.023	0.271
-581.821	-200.000	-0.087	-0.479
-580.806	38.083	-0.188	0.168
-579.792	-114.583	-0.270	-0.052
-578.777	800.000	0.076	-0.271
-577.763	25.803	0.311	-0.260
-576.748	207.762	-0.162	0.254
-575.733	-62.988	0.160	0.066
-574.719	-200.000	0.001	0.015
-573.704	-65.384	0.055	-0.022
-572.690	95.037	0.153	0.175
-571.675	343.535	-0.145	0.285
-570.661	-200.000	-0.016	0.136
-569.646	-54.287	0.130	-0.059
-568.631	-108.890	0.108	-0.023
-567.617	17.498	-0.063	0.050
-566.602	-200.000	0.073	0.392
-565.588	-42.094	0.231	0.119
-564.573	272.623	-0.099	-0.175
-563.558	-27.674	-0.154	-0.090
-562.544	236.440	-0.066	-0.109
-561.529	-200.000	-0.005	0.252
-560.515	-200.000	-0.025	-0.201
-559.500	352.803	0.159	0.317
-558.485	-200.000	0.018	-0.218
-557.471	-8.622	0.250	0.169
-556.456	233.805	0.151	0.250
-555.442	-91.728	0.349	-0.099
-554.427	388.343	0.198	0.411
-553.412	-31.598	-0.186	0.105
-552.398	5.792	0.271	0.201
-551.383	800.000	0.096	-0.399
-550.369	800.000	-0.085	-0.310
-549.354	-118.823	-0.140	-0.025
-548.339	-200.000	-0.031	-0.242
-547.325	-200.000	0.020	0.267
-546.310	-27.454	0.222	0.130
-545.296	309.423	0.098	-0.184
-544.281	149.829	-0.095	0.129
-543.266	-4.188	0.192	0.133
-542.252	-122.941	-0.217	0.035
-541.237	157.648	0.099	0.138
-540.223	729.729	0.039	0.105
-539.208	194.473	0.144	-0.220
-538.193	-78.702	0.165	0.056
-537.179	-44.179	0.172	-0.087
-536.164	-130.807	0.295	0.040
-535.150	369.270	-0.075	0.152
-534.135	-200.000	-0.025	0.151
-533.121	-95.241	0.093	0.025
-532.106	-200.000	-0.013	0.231
-531.091	-67.483	-0.058	0.023
-530.077	44.282	-0.111	0.102
-529.062	-98.477	0.324	-0.083
-528.048	-67.786	-0.299	-0.117
-527.033	-123.740	-0.309	-0.049
-526.018	-19.023	0.108	0.067
-525.004	-114.975	-0.236	0.045
-523.989	800.000	0.050	-0.189
-522.975	85.251	-0.168	0.185
-521.960	-107.262	-0.328	0.072
-520.945	795.770	-0.056	-0.156
-519.931	-138.034	0.129	-0.014
-518.916	-95.036	-0.114	0.031
-517.902	-151.079	0.251	-0.019
-516.887	292.909	0.093	0.169
-515.872	141.301	0.144	0.191
-514.858	-200.000	-0.063	-0.358
-513.843	-200.000	-0.006	0.043
-512.829	148.648	0.040	0.054
-511.814	-45.396	0.159	-0.079
-510.799	167.204	0.110	-0.157
-509.785	-200.000	-0.000	-0.069
-508.770	105.994	-0.147	-0.175
-507.756	-2.965	-0.098	-0.068
-506.741	800.000	-0.111	-0.391
-505.726	800.000	-0.073	0.257
-504.712	712.885	0.109	-0.289
-503.697	306.699	0.089	0.166
-502.683	-200.000	-0.010	0.197
-501.668	-41.116	-0.248	-0.128
-500.653	-103.347	0.234	0.055
-499.639	19.060	-0.262	-0.210
-498.624	-5.296	0.183	0.126
-497.610	-200.000	-0.000	0.094
-496.595	294.138	0.082	0.151
-495.581	17.734	-0.196	-0.156
-494.566	-119.896	-0.052	-0.009
-493.551	-99.806	0.349	0.087
-492.537	404.770	0.010	0.021
-491.522	443.962	-0.057	0.125
-490.508	73.905	0.134	-0.141
-489.493	88.651	-0.213	0.237
-488.478	250.168	-0.126	-0.213
-487.464	246.814	0.100	0.169
-486.449	14.761	0.400	0.313
-485.435	491.260	0.077	-0.177
-484.420	-86.350	-0.243	-0.075
-483.405	-11.318	0.130	-0.086
-482.391	-200.000	0.038	0.193
-481.376	-92.329	-0.060	-0.017
-480.362	-158.842	-0.158	0.009
-479.347	522.492	0.102	-0.239
-478.332	-61.019	-0.244	0.103
-477.318	-96.510	0.344	-0.091
-476.303	-200.000	0.037	-0.312
-475.289	194.268	-0.136	-0.206
-474.274	-15.767	-0.232	-0.148
-473.259	167.850	0.219	-0.312
-472.245	22.976	-0.297	-0.244
-471.230	-123.519	-0.089	-0.014
-470.216	-175.913	0.207	-0.006
-469.201	62.776	0.157	-0.158
-468.186	-84.889	0.193	0.061
-467.172	199.112	-0.033	0.050
-466.157	-200.000	-0.009	0.148
-465.143	-60.390	0.228	0.097
-464.128	48.762	-0.269	-0.252
-463.113	166.154	0.069	-0.097
-462.099	47.661	0.071	0.066
-461.084	230.865	0.110	0.180
-460.070	-76.113	0.149	-0.053
-459.055	-43.734	-0.201	0.101
-458.040	-200.000	0.012	0.122
-457.026	-102.946	0.291	-0.069
-456.011	-200.000	-0.102	-0.500
-454.997	-200.000	0.036	0.184
-453.982	-200.000	0.085	0.533
-452.968	-86.093	0.153	0.047
-451.953	800.000	-0.058	0.162
-450.938	53.810	0.257	0.247
-449.924	-200.000	-0.053	0.268
-448.909	-200.000	0.014	-0.090
-447.895	-154.328	-0.199	-0.013
-446.880	150.631	0.157	0.213
-445.865	2.109	-0.067	0.048
-444.851	-88.935	-0.270	-0.080
-443.836	-74.430	0.354	0.128
-442.822	-71.523	0.143	-0.054
-441.807	495.762	-0.058	0.132
-440.792	-200.000	-0.004	0.173
-439.778	217.984	0.143	-0.227
-438.763	30.400	-0.221	0.189
-437.749	-133.107	0.191	-0.024
-436.734	-200.000	-0.019	-0.247
-435.719	24.385	-0.150	-0.124
-434.705	-10.311	0.071	-0.047
-433.690	409.306	0.034	0.072
-432.676	-200.000	0.025	-0.187
-431.661	77.110	0.078	-0.083
-430.646	-127.101	0.146	0.021
-429.632	106.338	-0.021	0.025
-428.617	800.000	-0.042	0.177
-427.603	46.880	-0.060	-0.056
-426.588	-200.000	-0.037	0.261
-425.573	134.363	0.084	-0.109
-424.559	-107.120	-0.236	0.052
-423.544	-42.633	-0.269	0.137
-422.530	-53.118	-0.071	0.033
-421.515	-129.775	0.180	-0.025
-420.500	800.000	-0.036	0.117
-419.486	-200.000	0.036	0.345
-418.471	-200.000	0.043	-0.390
-417.457	-200.000	-0.003	-0.140
-416.442	94.653	0.134	0.152
-415.428	300.666	0.108	-0.200
-414.413	-92.631	-0.131	-0.037
-413.398	-200.000	-0.000	-0.024
-412.384	27.796	-0.218	-0.184
-411.369	-77.753	0.251	0.087
-410.355	-134.466	-0.236	0.029
-409.340	314.923	0.116	-0.218
-408.325	427.346	-0.145	0.312
-407.311	121.408	0.051	0.063
-406.296	-133.294	0.069	-0.009
-405.282	-95.965	-0.061	0.016
-404.267	85.975	-0.210	-0.230
-403.252	146.813	-0.093	-0.125
-402.238	-107.621	-0.110	0.024
-401.223	-200.000	0.002	0.168
-400.209	50.341	-0.138	-0.130
-399.194	172.849	-0.125	0.180
-398.179	-121.449	0.273	0.045
-397.165	6.175	-0.252	0.186
-396.150	182.512	-0.043	0.063
-395.136	214.714	-0.113	-0.179
-394.121	517.519	-0.078	-0.182
-393.106	-157.107	-0.146	0.009
-392.092	17.446	-0.210	0.166
-391.077	-4.184	-0.189	0.131
-390.063	-139.183	0.212	-0.023
-389.048	-55.385	-0.307	-0.137
-388.033	-200.000	0.008	-0.201
-387.019	72.278	-0.224	-0.233
-386.004	-147.861	-0.106	-0.009
-384.990	259.056	0.186	0.320
-383.975	-55.425	-0.324	0.145
-382.960	87.763	0.237	-0.262
-381.946	-74.388	-0.070	-0.025
-380.931	800.000	-0.177	-0.560
-379.917	-161.030	0.208	0.011
-378.902	125.468	-0.153	-0.193
-377.888	379.180	-0.164	-0.334
-376.873	-140.494	0.289	-0.030
-375.858	-125.359	0.265	0.040
-374.844	-183.603	0.371	0.006
-373.829	170.797	-0.147	0.210
-372.815	800.000	0.041	0.123
-371.800	-108.359	0.294	-0.063
-370.785	-200.000	0.017	-0.087
-369.771	-98.676	0.237	-0.060
-368.756	-200.000	-0.019	0.297
-367.742	-200.000	0.004	0.068
-366.727	71.681	-0.338	-0.350
-365.712	-38.727	0.143	-0.075
-364.698	-110.305	-0.258	0.053
-363.683	435.546	0.050	-0.109
-362.669	-200.000	0.081	-0.406
-361.654	450.494	-0.081	0.179
-360.639	-132.477	0.137	0.018
-359.625	5.595	-0.095	0.070
-358.610	25.385	0.314	-0.260
-357.596	-50.669	-0.246	-0.115
-356.581	-200.000	-0.007	-0.109
-355.566	-110.716	0.229	-0.047
-354.552	-73.853	0.207	-0.075
-353.537	-34.237	0.113	0.062
-352.523	282.228	0.104	0.186
-351.508	-33.010	0.061	0.034
-350.493	365.973	-0.124	0.249
-349.479	344.242	-0.037	0.073
-348.464	-136.609	-0.130	0.015
-347.450	-127.709	-0.151	-0.022
-346.435	128.795	0.233	0.296
-345.420	-102.853	0.363	-0.086
-344.406	-60.885	0.306	-0.129
-343.391	-200.000	0.016	0.230
-342.377	-171.512	-0.176	-0.006
-341.362	-200.000	0.008	-0.091
-340.348	-38.541	0.345	-0.182
-339.333	-100.566	-0.140	0.034
-338.318	800.000	0.048	-0.197
-337.304	-104.581	-0.139	-0.032
-336.289	-52.245	0.311	0.143
-335.275	-200.000	0.012	0.287
-334.260	-200.000	0.045	-0.492
-333.245	631.572	-0.138	-0.348
-332.231	-200.000	-0.029	-0.177
-331.216	-76.075	-0.295	0.104
-330.202	-79.249	-0.088	-0.030
-329.187	-59.462	0.088	0.038
-328.172	150.810	-0.150	0.203
-327.158	-200.000	-0.032	0.157
-326.143	27.880	0.207	0.174
-325.129	-200.000	-0.054	-0.308
-324.114	192.149	-0.223	-0.335
-323.099	1.162	0.133	0.095
-322.085	-69.271	-0.126	-0.048
-321.070	-71.284	-0.207	-0.077
-320.056	107.579	0.101	-0.120
-319.041	-200.000	0.026	0.381
-318.026	336.573	0.067	-0.130
-317.012	-200.000	-0.007	0.146
-315.997	-3.632	-0.163	0.112
-314.983	504.072	0.057	0.132
-313.968	245.220	0.103	-0.173
-312.953	352.857	-0.142	0.281
-311.939	-116.834	0.379	-0.069
-310.924	410.309	0.059	0.125
-309.910	328.426	-0.068	0.131
-308.895	800.000	0.042	0.171
-307.880	-16.421	-0.105	0.066
-306.866	-200.000	-0.386	-0.002
-305.851	-200.000	-0.007	0.216
-304.837	-60.676	-0.154	-0.065
-303.822	-200.000	-0.039	0.170
-302.807	11.977	-0.181	-0.138
-301.793	120.723	-0.100	0.124
-300.778	800.000	-0.071	-0.289
-299.764	800.000	0.104	-0.322
-298.749	800.000	0.030	0.119
-297.735	42.695	-0.071	0.064
-296.720	320.475	0.057	-0.107
-295.705	142.476	-0.024	0.032
-294.691	-5.441	0.328	0.224
-293.676	95.806	-0.121	-0.137
-292.662	77.267	-0.129	0.137
-291.647	0.667	0.146	0.103
-290.632	150.464	-0.072	-0.098
-289.618	762.365	0.160	-0.431
-288.603	50.046	0.228	-0.214
-287.589	126.479	-0.105	-0.132
-286.574	562.161	0.032	0.078
-285.559	161.624	0.188	0.261
-284.545	800.000	0.118	0.363
-283.530	16.672	0.292	0.229
-282.516	-99.463	0.129	0.032
-281.501	320.692	-0.091	-0.172
-280.486	494.805	-0.046	0.105
-279.472	-87.332	-0.169	-0.051
-278.457	-166.448	-0.257	0.011
-277.443	223.505	0.054	0.087
-276.428	-200.000	-0.062	-0.405
-275.413	9.459	0.128	-0.096
-274.399	-138.099	-0.263	-0.029
-273.384	-86.912	0.112	0.034
-272.370	-200.000	0.016	-0.100
-271.355	9.110	0.114	-0.086
-270.340	455.291	0.058	-0.128
-269.326	298.805	-0.061	-0.112
-268.311	-96.287	-0.314	0.082
-267.297	41.690	0.279	-0.251
-266.282	294.356	0.145	-0.264
-265.267	150.437	0.102	0.137
-264.253	302.160	0.063	-0.116
-263.238	-82.553	0.065	-0.021
-262.224	800.000	-0.039	-0.116
-261.209	25.920	-0.274	0.226
-260.195	519.389	0.061	-0.142
-259.180	-11.645	0.177	-0.115
-258.165	-200.000	0.005	-0.236
-257.151	633.192	0.088	0.221
-256.136	-200.000	0.071	-0.329
-255.122	-119.138	-0.343	0.059
-254.107	146.997	0.287	0.383
-253.092	74.154	-0.216	0.225
-252.078	800.000	0.044	-0.131
-251.063	16.348	-0.193	0.151
-250.049	4.987	0.028	0.020
-249.034	14.468	0.255	0.198
-248.019	251.702	0.076	-0.128
-247.005	342.352	-0.184	0.357
-245.990	800.000	-0.039	-0.122
-244.976	82.261	0.205	-0.220
-243.961	225.475	-0.046	-0.075
-242.946	315.003	-0.207	0.386
-241.932	-122.100	-0.224	-0.036
-240.917	-200.000	0.020	-0.121
-239.903	51.866	-0.261	0.246
-238.888	169.966	-0.127	0.180
-237.873	-200.000	0.074	0.457
-236.859	-21.079	-0.270	-0.164
-235.844	-6.075	-0.161	0.109
-234.830	-200.000	0.010	-0.150
-233.815	-9.399	0.068	-0.045
-232.800	578.276	-0.068	0.165
-231.786	266.956	-0.144	-0.249
-230.771	800.000	0.052	0.223
-229.757	800.000	0.029	0.124
-228.742	22.371	0.180	-0.146
-227.727	97.422	0.230	0.262
-226.713	-79.918	-0.127	-0.042
-225.698	32.133	0.189	0.162
-224.684	-200.000	0.036	-0.161
-223.669	-164.574	-0.123	0.006
-222.655	-163.078	-0.447	-0.021
-221.640	-200.000	-0.027	-0.212
-220.625	-102.242	0.128	0.031
-219.611	-200.000	0.031	-0.142
-218.596	-97.189	0.313	0.081
-217.582	-3.914	-0.116	-0.080
-216.567	-34.996	-0.171	-0.092
-215.552	-22.463	-0.321	-0.193
-214.538	-94.104	-0.381	0.104
-213.523	-79.718	-0.086	0.029
-212.509	-72.714	0.331	0.121
-211.494	410.435	-0.103	-0.217
-210.479	-16.825	-0.280	-0.175
-209.465	383.319	-0.027	-0.054
-208.450	-40.337	-0.084	-0.043
-207.436	-90.416	0.203	-0.058
-206.421	-8.251	-0.070	-0.047
-205.406	535.244	-0.041	0.097
-204.392	-200.000	0.024	0.140
-203.377	476.443	0.176	-0.394
-202.363	86.082	0.146	-0.159
-201.348	-20.938	0.109	-0.066
-200.333	275.040	0.056	-0.099
-199.319	-86.284	0.137	0.042
-198.304	-86.125	-0.278	0.085
-197.290	123.390	0.086	0.107
-196.275	-28.522	0.156	0.089
-195.260	-200.000	0.003	0.187
-194.246	198.237	0.069	0.104
-193.231	710.297	-0.073	0.191
-192.217	-109.700	-0.293	0.061
-191.202	176.575	-0.260	0.374
-190.187	-106.570	-0.069	-0.015
-189.173	-76.451	0.233	0.081
-188.158	-104.971	-0.204	0.046
-187.144	-13.922	0.062	0.040
-186.129	160.924	-0.120	0.165
-185.114	32.568	0.139	0.119
-184.100	104.021	-0.023	-0.026
-183.085	-32.588	0.342	-0.189
-182.071	800.000	-0.022	-0.065
-181.056	58.971	0.122	-0.118
-180.042	557.159	-0.096	0.229
-179.027	34.378	-0.295	-0.255
-178.012	160.201	-0.022	-0.030
-176.998	-112.223	0.355	-0.070
-175.983	-72.658	-0.104	-0.038
-174.969	800.000	-0.067	-0.264
-173.954	800.000	0.026	-0.083
-172.939	-185.170	0.224	0.003
-171.925	-97.418	0.182	-0.047
-170.910	187.566	0.136	-0.200
-169.896	-42.169	0.062	-0.031
-168.881	-0.567	-0.298	-0.209
-167.866	-38.102	-0.239	0.125
-166.852	-48.627	-0.136	0.065
-165.837	99.107	0.204	0.233
-164.823	-140.511	0.103	0.011
-163.808	17.179	0.077	0.061
-162.793	643.356	0.160	0.404
-161.779	390.862	-0.117	-0.239
-160.764	11.673	-0.143	0.108
-159.750	-64.364	0.135	0.054
-158.735	-90.505	0.064	-0.018
-157.720	238.889	-0.176	0.290
-156.706	-95.378	-0.206	0.055
-155.691	14.134	0.108	-0.083
-154.677	-200.000	0.027	0.312
-153.662	291.823	0.121	0.217
-152.647	-200.000	-0.009	0.062
-151.633	-82.232	0.251	-0.081
-150.618	754.086	-0.111	-0.297
-149.604	-200.000	-0.014	-0.367
-148.589	628.646	0.062	0.155
-147.574	-36.908	-0.017	-0.009
-146.560	-122.954	0.239	0.038
-145.545	-22.363	-0.052	0.031
-144.531	-200.000	0.010	-0.060
-143.516	-52.383	0.392	-0.179
-142.502	800.000	-0.068	-0.188
-141.487	-56.017	-0.195	0.086
-140.472	36.525	-0.177	-0.154
-139.458	-79.411	-0.077	0.026
-138.443	-136.789	0.304	0.035
-137.429	800.000	0.057	0.197
-136.414	-116.985	0.052	-0.009
-135.399	-58.364	0.136	-0.058
-134.385	-68.055	-0.244	-0.094
-133.370	-36.243	0.432	-0.230
-132.356	-200.000	0.029	-0.174
-131.341	91.182	-0.191	0.212
-130.326	-200.000	0.043	0.243
-129.312	-63.357	0.360	-0.146
-128.297	619.774	-0.038	0.095
-127.283	-127.987	-0.341	-0.048
-126.268	-200.000	-0.015	0.254
-125.253	722.102	0.108	-0.285
-124.239	-91.285	0.180	0.051
-123.224	110.094	0.160	0.189
-122.210	-52.323	-0.049	-0.022
-121.195	800.000	0.067	0.248
