DTS Sentinel unit serial number:	SN413079Multiplexer serial number:	ORYXHardware model number:	OX4-SRSoftware version number:	ORYX F/W v4.00 Oryx Data Collector v3.7.2.0data status	okinstallation	princeton_trtdifferential loss correction	single-endedforward channel	channel 4reverse channel	N/Adate	2019/09/17time	00:13:34forward acquisition time	60.00reverse acquisition time	0.00gamma	496.2192k internal	0.2314k external	0.2314temperature offset calibration	0.9974default loss term (dB/km)	0.3790temperature slope calibration	1.0000multiplexer offset coefficient	1.0000multiplexer slope coefficient	1.0000fibre end	0.00T internal ref (°C)	29.56T ext. ref 1 (°C)	0.09T ext. ref 2 (°C)	23.74length (m)	temperature (°C)	Stokes	anti-Stokes-747.200	668.747	-0.073	-0.191
-746.185	53.481	0.148	0.144
-745.171	98.085	0.167	0.195
-744.156	-200.000	-0.048	0.317
-743.142	-93.321	0.179	0.050
-742.127	-200.000	0.014	0.080
-741.112	95.452	-0.065	-0.075
-740.098	-71.381	0.365	0.139
-739.083	-156.808	0.158	-0.010
-738.069	800.000	0.102	0.438
-737.054	-28.667	-0.136	-0.079
-736.039	-38.945	-0.262	-0.140
-735.025	800.000	0.068	0.218
-734.010	523.544	-0.176	-0.420
-732.996	34.406	-0.229	0.203
-731.981	-31.485	-0.205	-0.117
-730.966	170.935	0.073	0.106
-729.952	-12.291	-0.327	-0.216
-728.937	378.275	-0.067	0.140
-727.923	-104.918	-0.299	-0.069
-726.908	2.509	-0.259	-0.190
-725.894	-93.230	-0.216	-0.061
-724.879	-192.916	0.185	-0.002
-723.864	-63.085	-0.133	0.056
-722.850	78.679	0.124	-0.135
-721.835	47.874	-0.090	0.085
-720.821	-169.866	0.149	0.005
-719.806	478.341	-0.088	0.201
-718.791	559.247	-0.084	-0.206
-717.777	547.481	-0.107	-0.261
-716.762	362.636	0.085	-0.173
-715.748	-54.271	0.085	0.039
-714.733	-91.642	0.038	0.011
-713.718	-200.000	0.028	0.348
-712.704	-200.000	0.035	-0.204
-711.689	-86.213	0.012	-0.004
-710.675	-200.000	0.095	-0.611
-709.660	-200.000	-0.006	-0.244
-708.645	112.733	0.105	-0.128
-707.631	-200.000	0.040	0.207
-706.616	-7.382	-0.046	-0.032
-705.602	-44.690	0.149	0.076
-704.587	-143.856	0.063	0.006
-703.572	122.052	-0.170	-0.214
-702.558	25.177	-0.133	-0.112
-701.543	-145.319	0.051	-0.005
-700.529	-200.000	-0.049	0.231
-699.514	0.554	-0.060	0.043
-698.499	-28.240	0.389	-0.227
-697.485	-131.235	-0.535	-0.072
-696.470	-200.000	0.054	0.266
-695.456	-99.996	0.569	-0.144
-694.441	768.304	-0.152	-0.417
-693.426	-200.000	-0.029	0.258
-692.412	-200.000	-0.002	0.219
-691.397	109.492	-0.259	0.314
-690.383	21.164	-0.110	0.090
-689.368	-200.000	-0.018	-0.116
-688.354	-28.616	0.219	-0.128
-687.339	-200.000	-0.031	-0.382
-686.324	130.508	0.025	0.033
-685.310	-120.922	-0.184	0.031
-684.295	-40.757	0.336	-0.176
-683.281	-200.000	-0.060	-0.333
-682.266	-13.931	-0.098	-0.064
-681.251	41.719	-0.261	-0.240
-680.237	200.536	-0.163	0.253
-679.222	142.519	-0.273	-0.366
-678.208	505.812	0.198	-0.465
-677.193	800.000	0.033	-0.118
-676.178	-200.000	0.012	-0.102
-675.164	538.343	-0.082	0.197
-674.149	137.803	-0.014	0.018
-673.135	-200.000	-0.006	0.336
-672.120	121.143	-0.172	0.217
-671.105	274.021	0.080	0.143
-670.091	69.161	-0.099	0.103
-669.076	-200.000	0.042	0.196
-668.062	-200.000	-0.037	-0.279
-667.047	-149.667	-0.168	0.013
-666.032	93.637	-0.209	0.239
-665.018	274.289	-0.117	0.210
-664.003	-200.000	-0.037	0.329
-662.989	800.000	0.034	0.124
-661.974	80.215	0.064	-0.070
-660.959	-16.985	0.209	0.133
-659.945	-125.007	-0.140	-0.022
-658.930	-111.295	-0.064	0.013
-657.916	-200.000	-0.015	-0.167
-656.901	-32.178	0.107	-0.060
-655.886	-172.216	-0.139	-0.005
-654.872	75.445	-0.191	-0.204
-653.857	230.434	0.103	0.170
-652.843	-200.000	-0.018	0.285
-651.828	-200.000	-0.000	-0.092
-650.814	746.125	0.051	0.139
-649.799	125.206	-0.233	0.297
-648.784	475.769	-0.169	-0.386
-647.770	163.100	-0.033	-0.047
-646.755	-127.729	0.223	0.033
-645.741	6.434	0.112	0.084
-644.726	-200.000	-0.033	0.186
-643.711	-159.020	-0.071	-0.004
-642.697	-25.096	0.294	0.176
-641.682	-200.000	-0.049	0.219
-640.668	65.536	0.184	0.188
-639.653	538.623	-0.156	-0.376
-638.638	794.166	0.091	-0.252
-637.624	800.000	0.115	0.341
-636.609	-72.138	-0.299	0.112
-635.595	460.444	-0.069	-0.155
-634.580	-39.355	-0.163	-0.086
-633.565	-178.426	-0.097	-0.002
-632.551	-85.899	-0.099	0.031
-631.536	406.351	0.150	0.320
-630.522	-200.000	-0.009	-0.154
-629.507	0.125	-0.246	-0.177
-628.492	541.670	-0.098	-0.235
-627.478	800.000	0.065	-0.207
-626.463	584.917	-0.132	0.326
-625.449	367.923	-0.186	-0.379
-624.434	-33.084	-0.164	0.092
-623.419	-173.968	-0.097	-0.003
-622.405	-51.392	0.055	0.026
-621.390	488.251	-0.085	-0.196
-620.376	-94.753	-0.257	0.070
-619.361	-200.000	-0.056	-0.282
-618.346	208.854	-0.147	0.232
-617.332	-200.000	-0.003	0.100
-616.317	-26.441	0.202	-0.120
-615.303	-87.326	0.416	-0.127
-614.288	358.642	-0.044	-0.088
-613.273	40.118	-0.223	0.203
-612.259	-200.000	-0.010	-0.143
-611.244	-200.000	-0.043	0.365
-610.230	57.094	0.092	-0.090
-609.215	-46.306	-0.108	0.053
-608.201	-114.990	0.272	0.052
-607.186	-200.000	0.016	-0.207
-606.171	-167.984	0.307	-0.012
-605.157	-20.569	0.070	0.043
-604.142	800.000	-0.064	0.179
-603.128	-144.295	0.454	-0.043
-602.113	12.397	-0.096	-0.075
-601.098	-125.343	0.149	-0.023
-600.084	187.145	0.215	-0.324
-599.069	-15.179	-0.076	0.049
-598.055	-163.746	-0.339	0.016
-597.040	227.646	-0.219	0.360
-596.025	51.200	-0.135	0.129
-595.011	-159.974	-0.144	-0.008
-593.996	-119.254	0.241	-0.042
-592.982	-85.186	-0.083	0.026
-591.967	-154.085	0.088	-0.006
-590.952	33.815	0.137	0.120
-589.938	547.743	-0.130	-0.313
-588.923	-101.497	0.230	-0.056
-587.909	-200.000	0.019	-0.122
-586.894	426.955	-0.028	0.061
-585.879	-14.898	0.070	-0.045
-584.865	-200.000	-0.014	0.112
-583.850	-115.730	-0.222	0.042
-582.836	29.365	-0.160	0.137
-581.821	291.551	0.016	-0.030
-580.806	24.218	-0.216	0.180
-579.792	-105.979	0.189	0.043
-578.777	-7.552	0.142	0.097
-577.763	-108.790	0.171	0.037
-576.748	-80.462	-0.167	-0.056
-575.733	-1.688	0.394	-0.279
-574.719	15.167	-0.126	0.099
-573.704	54.082	0.105	-0.102
-572.690	228.015	-0.164	0.269
-571.675	-200.000	0.003	0.022
-570.661	-200.000	-0.029	0.258
-569.646	79.539	-0.087	0.094
-568.631	-35.807	-0.111	0.061
-567.617	48.140	-0.199	-0.187
-566.602	-49.762	0.137	-0.066
-565.588	800.000	0.099	-0.285
-564.573	-154.733	-0.363	-0.024
-563.558	54.703	0.083	-0.081
-562.544	22.867	-0.227	0.187
-561.529	800.000	0.091	0.314
-560.515	265.341	0.120	-0.210
-559.500	49.532	0.222	0.210
-558.485	-154.966	-0.193	-0.013
-557.471	547.354	-0.117	0.281
-556.456	153.581	0.136	0.187
-555.442	-124.291	-0.272	-0.043
-554.427	-125.801	-0.375	0.057
-553.412	69.071	-0.235	0.243
-552.398	-142.216	0.178	-0.018
-551.383	-200.000	0.010	0.218
-550.369	92.658	-0.170	0.193
-549.354	-200.000	-0.086	0.000
-548.339	30.335	0.331	-0.285
-547.325	-158.429	-0.027	-0.002
-546.310	800.000	0.033	0.094
-545.296	57.017	-0.141	-0.138
-544.281	52.244	0.190	-0.182
-543.266	134.366	-0.155	-0.202
-542.252	519.677	0.029	0.069
-541.237	85.409	0.268	-0.296
-540.223	-48.067	0.004	-0.002
-539.208	-42.197	-0.085	-0.044
-538.193	101.798	-0.063	-0.074
-537.179	-200.000	0.033	-0.189
-536.164	499.152	0.033	-0.076
-535.150	-121.842	0.190	-0.032
-534.135	-140.028	0.261	0.028
-533.121	-92.280	0.331	0.094
-532.106	-43.577	-0.046	-0.023
-531.091	-173.563	-0.233	0.007
-530.077	-87.827	-0.396	-0.120
-529.062	218.339	-0.098	-0.158
-528.048	-58.691	-0.085	0.037
-527.033	-54.675	-0.241	-0.109
-526.018	-108.630	-0.144	0.031
-525.004	148.936	-0.089	0.121
-523.989	799.787	-0.079	-0.218
-522.975	8.046	-0.173	0.131
-521.960	192.586	0.055	-0.083
-520.945	91.023	-0.166	0.187
-519.931	8.787	-0.401	0.304
-518.916	-3.071	-0.223	-0.156
-517.902	-67.784	-0.252	0.099
-516.887	-200.000	0.005	-0.173
-515.872	178.177	0.088	-0.129
-514.858	-106.554	-0.205	0.046
-513.843	182.351	-0.065	0.097
-512.829	-122.553	0.185	-0.030
-511.814	392.070	-0.088	0.183
-510.799	-200.000	0.039	0.198
-509.785	296.089	-0.119	-0.220
-508.770	800.000	-0.063	-0.278
-507.756	742.616	0.041	-0.110
-506.741	47.136	0.321	-0.300
-505.726	-35.869	-0.089	-0.049
-504.712	570.105	-0.036	0.088
-503.697	-73.308	0.128	0.047
-502.683	-53.769	-0.206	-0.094
-501.668	-200.000	0.014	-0.384
-500.653	634.945	-0.024	-0.062
-499.639	800.000	-0.075	-0.239
-498.624	-200.000	0.011	-0.092
-497.610	-106.516	-0.121	0.027
-496.595	-93.843	0.009	0.003
-495.581	-31.578	-0.322	-0.181
-494.566	-62.372	0.151	0.063
-493.551	-200.000	-0.024	-0.212
-492.537	73.336	0.035	-0.036
-491.522	433.764	0.068	-0.149
-490.508	168.143	-0.101	-0.144
-489.493	-167.391	-0.127	0.005
-488.478	550.701	0.131	-0.317
-487.464	33.942	0.188	0.164
-486.449	1.990	0.181	-0.131
-485.435	176.616	-0.110	-0.161
-484.420	76.629	-0.117	-0.124
-483.405	-105.872	0.212	-0.048
-482.391	-43.340	-0.380	-0.193
-481.376	195.959	0.195	0.298
-480.362	800.000	-0.060	0.255
-479.347	-160.318	0.174	-0.009
-478.332	-166.330	-0.206	-0.009
-477.318	-25.373	0.010	0.006
-476.303	-196.994	-0.174	-0.001
-475.289	-30.782	0.206	-0.117
-474.274	25.538	-0.111	0.093
-473.259	103.008	-0.142	-0.167
-472.245	-61.709	0.146	0.062
-471.230	-70.132	0.151	-0.057
-470.216	211.732	0.168	0.266
-469.201	401.749	-0.110	0.231
-468.186	218.630	0.025	0.041
-467.172	-187.764	-0.018	0.000
-466.157	-9.751	0.139	0.093
-465.143	-4.049	-0.104	-0.072
-464.128	79.669	0.226	0.243
-463.113	-200.000	0.098	0.434
-462.099	5.884	-0.191	0.142
-461.084	204.263	0.042	-0.066
-460.070	-158.195	-0.026	0.002
-459.055	-81.930	-0.151	0.049
-458.040	-200.000	0.033	0.160
-457.026	-200.000	-0.040	-0.269
-456.011	-148.067	0.340	-0.028
-454.997	-155.452	0.193	-0.013
-453.982	549.164	0.150	0.359
-452.968	194.153	0.076	0.115
-451.953	122.616	0.230	0.289
-450.938	-169.975	-0.358	0.013
-449.924	24.717	0.073	-0.060
-448.909	580.699	-0.053	-0.130
-447.895	-116.382	0.091	0.017
-446.880	-200.000	-0.033	-0.235
-445.865	11.294	-0.033	-0.025
-444.851	-93.423	-0.129	-0.036
-443.836	220.706	-0.224	-0.360
-442.822	800.000	-0.040	0.122
-441.807	-21.110	0.111	-0.068
-440.792	603.891	0.100	-0.250
-439.778	329.161	-0.048	0.092
-438.763	42.230	-0.232	-0.211
-437.749	651.368	0.114	-0.293
-436.734	466.813	-0.111	0.249
-435.719	-156.720	0.372	0.023
-434.705	28.920	-0.186	0.158
-433.690	-36.995	0.073	-0.039
-432.676	800.000	-0.036	-0.128
-431.661	-130.537	-0.314	-0.042
-430.646	-200.000	-0.008	0.195
-429.632	430.514	-0.119	-0.258
-428.617	156.052	-0.065	0.090
-427.603	187.693	-0.064	0.096
-426.588	-68.402	-0.272	-0.106
-425.573	-200.000	0.004	-0.147
-424.559	356.876	-0.173	0.345
-423.544	97.914	0.154	0.177
-422.530	-200.000	-0.017	-0.323
-421.515	-200.000	0.025	-0.257
-420.500	-93.879	0.319	0.088
-419.486	-126.780	0.181	-0.027
-418.471	278.913	-0.033	-0.059
-417.457	-115.532	0.343	-0.065
-416.442	800.000	-0.016	-0.050
-415.428	236.006	0.061	-0.100
-414.413	-113.107	-0.060	-0.012
-413.398	-2.401	-0.147	-0.103
-412.384	-200.000	-0.006	-0.096
-411.369	-108.343	0.069	0.015
-410.355	39.485	-0.089	-0.080
-409.340	88.449	-0.184	0.204
-408.325	49.449	0.272	0.256
-407.311	259.875	-0.058	0.100
-406.296	-122.228	0.019	0.003
-405.282	114.613	0.040	0.048
-404.267	-113.084	-0.501	-0.099
-403.252	-200.000	-0.023	-0.101
-402.238	-200.000	-0.021	-0.578
-401.223	-152.540	-0.150	-0.011
-400.209	-200.000	-0.067	-0.427
-399.194	-200.000	0.049	-0.295
-398.179	106.949	0.278	-0.331
-397.165	-138.219	-0.140	0.015
-396.150	-80.690	-0.136	-0.045
-395.136	-16.399	0.120	-0.076
-394.121	135.937	0.318	-0.415
-393.106	99.544	-0.061	0.070
-392.092	800.000	-0.113	0.328
-391.077	800.000	-0.088	0.329
-390.063	120.403	0.016	-0.020
-389.048	-141.112	-0.265	-0.027
-388.033	800.000	-0.046	0.139
-387.019	-200.000	0.001	-0.272
-386.004	9.284	0.123	-0.093
-384.990	-105.586	-0.187	0.042
-383.975	-40.394	0.135	0.070
-382.960	-114.635	-0.221	0.042
-381.946	15.225	0.054	0.042
-380.931	121.232	-0.120	0.149
-379.917	197.478	-0.136	0.207
-378.902	78.047	0.029	-0.030
-377.888	-200.000	-0.026	0.255
-376.873	800.000	0.012	-0.049
-375.858	-126.629	0.350	-0.052
-374.844	-59.690	-0.283	-0.121
-373.829	141.899	0.213	0.282
-372.815	-200.000	0.006	-0.371
-371.800	109.374	0.090	-0.108
-370.785	800.000	-0.136	0.499
-369.771	-180.444	-0.090	0.002
-368.756	-200.000	0.014	0.220
-367.742	-200.000	-0.014	-0.251
-366.727	408.338	-0.124	-0.261
-365.712	138.061	-0.148	0.193
-364.698	-47.209	0.102	0.049
-363.683	800.000	-0.029	-0.123
-362.669	170.645	-0.039	0.056
-361.654	-31.361	-0.204	0.115
-360.639	114.955	0.027	-0.033
-359.625	-64.345	0.225	0.091
-358.610	-129.221	-0.361	-0.050
-357.596	-0.225	0.039	0.028
-356.581	148.528	0.110	-0.148
-355.566	189.572	0.106	-0.159
-354.552	-99.901	0.244	0.061
-353.537	-200.000	-0.033	-0.277
-352.523	428.985	-0.135	0.292
-351.508	-57.553	0.287	-0.126
-350.493	72.478	0.162	-0.169
-349.479	-24.992	-0.242	-0.143
-348.464	-160.248	0.413	0.022
-347.450	-200.000	0.026	0.180
-346.435	800.000	-0.058	0.208
-345.420	-99.795	-0.133	-0.033
-344.406	53.389	-0.201	0.193
-343.391	25.957	-0.070	-0.058
-342.377	-43.581	0.155	-0.078
-341.362	-130.808	0.429	-0.057
-340.348	9.702	0.227	0.172
-339.333	-124.952	-0.129	0.020
-338.318	322.178	0.163	0.310
-337.304	-29.196	0.265	0.151
-336.289	-24.996	-0.143	0.085
-335.275	-169.661	0.240	0.009
-334.260	-92.498	-0.240	-0.067
-333.245	800.000	0.105	-0.411
-332.231	-87.561	0.213	-0.064
-331.216	247.970	0.029	-0.049
-330.202	-151.065	-0.074	0.006
-329.187	34.131	0.145	0.126
-328.172	30.309	0.143	-0.122
-327.158	181.801	-0.135	0.198
-326.143	-146.218	-0.300	0.026
-325.129	-45.112	-0.136	-0.067
-324.114	-140.253	-0.424	0.044
-323.099	-131.571	-0.180	0.024
-322.085	11.943	-0.273	0.209
-321.070	-200.000	0.022	-0.169
-320.056	227.556	-0.198	-0.322
-319.041	5.142	0.113	-0.083
-318.026	713.168	-0.047	-0.124
-317.012	-200.000	-0.040	-0.254
-315.997	401.022	-0.103	-0.216
-314.983	152.618	0.306	-0.417
-313.968	-40.177	0.190	0.098
-312.953	-39.237	-0.238	-0.125
-311.939	383.991	-0.142	0.291
-310.924	-35.930	-0.126	0.068
-309.910	800.000	0.080	0.223
-308.895	60.992	0.194	-0.191
-307.880	276.860	0.062	-0.111
-306.866	800.000	-0.090	-0.288
-305.851	13.707	-0.247	-0.191
-304.837	263.233	0.025	0.043
-303.822	9.962	0.105	0.080
-302.807	6.487	0.028	-0.021
-301.793	-80.114	0.103	0.034
-300.778	190.044	-0.112	0.167
-299.764	-190.006	0.124	0.001
-298.749	-35.303	0.133	0.072
-297.735	169.529	0.215	-0.306
-296.720	-22.942	-0.203	0.122
-295.705	23.698	0.127	0.105
-294.691	401.308	0.081	0.170
-293.676	30.088	0.225	0.191
-292.662	620.792	-0.109	0.274
-291.647	-200.000	0.005	0.266
-290.632	-19.737	0.048	0.030
-289.618	296.561	-0.019	-0.035
-288.603	-200.000	-0.025	0.153
-287.589	-117.673	0.066	-0.012
-286.574	-87.245	0.267	-0.081
-285.559	-200.000	-0.015	-0.246
-284.545	92.261	-0.133	0.149
-283.530	-200.000	0.025	0.163
-282.516	-85.995	-0.135	0.041
-281.501	286.738	-0.016	0.029
-280.486	467.230	0.060	-0.133
-279.472	49.152	-0.206	-0.192
-278.457	-31.684	0.198	0.110
-277.443	-60.260	-0.148	-0.063
-276.428	175.564	-0.113	0.164
-275.413	-98.322	0.252	0.064
-274.399	516.284	0.138	-0.322
-273.384	294.410	0.236	0.430
-272.370	88.623	-0.109	0.121
-271.355	-200.000	-0.036	-0.211
-270.340	-110.242	0.099	-0.021
-269.326	-200.000	-0.005	0.044
-268.311	-179.212	0.231	0.005
-267.297	-145.845	-0.122	-0.011
-266.282	692.530	-0.038	-0.099
-265.267	-11.992	0.121	-0.079
-264.253	758.407	0.073	0.196
-263.238	485.637	0.130	0.294
-262.224	-195.687	0.215	-0.002
-261.209	-155.823	-0.267	0.017
-260.195	319.051	-0.121	0.227
-259.180	-63.554	-0.059	0.024
-258.165	-58.400	0.486	-0.210
-257.151	398.629	-0.183	0.380
-256.136	-200.000	-0.037	0.286
-255.122	-107.144	-0.282	-0.062
-254.107	-200.000	0.057	-0.329
-253.092	168.887	0.054	-0.076
-252.078	-103.021	-0.026	0.006
-251.063	-200.000	-0.015	0.224
-250.049	-200.000	-0.048	0.255
-249.034	143.428	0.171	-0.226
-248.019	-51.135	0.091	-0.043
-247.005	800.000	-0.004	0.013
-245.990	-200.000	-0.028	0.241
-244.976	-120.238	0.197	0.033
-243.961	-44.757	-0.190	0.094
-242.946	15.939	0.078	-0.061
-241.932	-23.515	0.326	0.195
-240.917	426.487	-0.048	0.103
-239.903	225.689	0.141	-0.227
-238.888	142.466	0.056	0.074
-237.873	231.613	0.170	-0.277
-236.859	800.000	-0.119	-0.456
-235.844	47.698	0.153	0.142
-234.830	-108.811	-0.322	0.068
-233.815	-17.243	-0.128	0.080
-232.800	225.976	0.042	0.068
-231.786	103.540	-0.142	0.166
-230.771	-8.122	0.019	-0.013
-229.757	-27.074	-0.188	-0.109
-228.742	800.000	0.130	0.405
-227.727	759.554	-0.104	-0.279
-226.713	-200.000	-0.014	-0.169
-225.698	27.695	-0.182	0.152
-224.684	-117.621	0.277	0.050
-223.669	-18.707	0.245	0.152
-222.655	124.046	-0.153	-0.191
-221.640	-56.171	0.089	-0.039
-220.625	-0.701	0.186	0.131
-219.611	59.313	0.246	0.241
-218.596	112.065	-0.124	0.149
-217.582	-144.605	0.310	-0.028
-216.567	-127.698	0.209	0.030
-215.552	-200.000	0.029	-0.237
-214.538	421.614	0.087	0.186
-213.523	467.402	0.140	0.311
-212.509	-69.344	0.324	0.124
-211.494	-53.870	0.240	0.109
-210.479	-11.695	-0.133	-0.087
-209.465	117.828	0.061	0.075
-208.450	-15.561	-0.430	0.272
-207.436	346.193	-0.136	0.266
-206.421	-38.977	0.160	0.084
-205.406	-0.043	0.093	0.065
-204.392	87.656	-0.050	0.055
-203.377	-52.927	0.134	-0.061
-202.363	-172.649	0.054	0.002
-201.348	228.664	0.045	-0.072
-200.333	-81.578	0.124	-0.040
-199.319	-7.014	-0.232	-0.156
-198.304	39.163	0.288	-0.256
-197.290	142.043	-0.236	-0.310
-196.275	49.789	-0.187	-0.175
-195.260	-200.000	0.005	0.142
-194.246	29.608	-0.161	0.136
-193.231	62.230	0.106	0.105
-192.217	417.505	-0.044	0.093
-191.202	309.230	0.147	0.273
-190.187	-200.000	-0.044	0.595
-189.173	312.139	-0.094	0.176
-188.158	800.000	0.058	0.198
-187.144	14.804	0.118	0.092
-186.129	19.907	-0.059	-0.047
-185.114	349.401	0.117	0.229
-184.100	708.450	0.044	0.114
-183.085	-200.000	-0.039	0.302
-182.071	-128.422	0.057	0.008
-181.056	174.079	0.135	0.194
-180.042	239.848	0.057	0.094
-179.027	-73.885	0.617	-0.222
-178.012	-84.801	-0.041	0.013
-176.998	-122.788	-0.183	-0.029
-175.983	297.833	0.125	0.228
-174.969	-200.000	-0.003	0.316
-173.954	8.356	-0.228	0.170
-172.939	-200.000	0.005	-0.281
-171.925	217.009	0.097	-0.153
-170.910	227.616	0.190	-0.306
-169.896	154.038	0.097	-0.132
-168.881	-77.743	-0.412	0.141
-167.866	-200.000	-0.019	-0.208
-166.852	-97.433	0.244	0.063
-165.837	800.000	0.068	-0.278
-164.823	171.186	0.154	-0.219
-163.808	539.445	0.177	-0.417
-162.793	113.626	0.030	0.036
-161.779	-142.203	0.049	0.005
-160.764	-174.580	0.082	0.002
-159.750	-200.000	-0.020	0.327
-158.735	-121.420	-0.269	0.044
-157.720	-200.000	0.024	-0.183
-156.706	-140.688	-0.220	-0.023
-155.691	465.198	0.040	-0.088
-154.677	-200.000	-0.005	-0.112
-153.662	103.541	-0.123	-0.143
-152.647	-50.287	-0.074	-0.034
-151.633	30.205	0.401	-0.339
-150.618	54.931	0.337	0.322
-149.604	-200.000	0.012	0.053
-148.589	195.757	0.073	0.110
-147.574	-35.048	-0.358	-0.194
-146.560	800.000	0.102	-0.330
-145.545	710.088	-0.188	-0.492
-144.531	242.678	0.064	-0.106
-143.516	-158.411	0.228	0.013
-142.502	-169.031	-0.175	0.006
-141.487	67.454	0.215	0.217
-140.472	-115.710	0.217	-0.040
-139.458	-200.000	-0.025	0.156
-138.443	186.969	-0.160	-0.236
-137.429	13.211	-0.062	-0.048
-136.414	-86.795	-0.460	0.139
-135.399	-20.107	0.202	-0.123
-134.385	800.000	-0.064	0.234
-133.370	-200.000	0.024	0.299
-132.356	-200.000	0.034	0.464
-131.341	-57.183	0.095	-0.042
-130.326	-136.268	-0.151	-0.017
-129.312	64.062	-0.082	-0.082
-128.297	-65.290	0.140	0.056
-127.283	10.299	-0.188	0.141
-126.268	79.784	-0.045	-0.048
-125.253	-200.000	0.033	0.394
-124.239	-200.000	-0.026	0.198
-123.224	38.478	-0.133	-0.117
-122.210	-151.364	-0.073	-0.005
