DTS Sentinel unit serial number:	SN413079Multiplexer serial number:	ORYXHardware model number:	OX4-SRSoftware version number:	ORYX F/W v4.00 Oryx Data Collector v3.7.2.0data status	okinstallation	princeton_trtdifferential loss correction	single-endedforward channel	channel 4reverse channel	N/Adate	2019/09/17time	21:13:35forward acquisition time	60.00reverse acquisition time	0.00gamma	496.2192k internal	0.2325k external	0.2325temperature offset calibration	0.9991default loss term (dB/km)	0.3790temperature slope calibration	1.0000multiplexer offset coefficient	1.0000multiplexer slope coefficient	1.0000fibre end	0.00T internal ref (°C)	27.94T ext. ref 1 (°C)	0.19T ext. ref 2 (°C)	19.70length (m)	temperature (°C)	Stokes	anti-Stokes-747.200	-56.985	-0.178	0.079
-746.185	-200.000	-0.069	0.328
-745.171	-179.173	-0.302	0.007
-744.156	-155.717	-0.292	-0.019
-743.142	121.149	0.204	0.256
-742.127	800.000	-0.136	0.380
-741.112	632.719	0.060	0.154
-740.098	800.000	0.006	0.027
-739.083	-200.000	-0.012	0.225
-738.069	304.596	-0.103	0.192
-737.054	-200.000	0.029	0.230
-736.039	-159.088	-0.172	-0.010
-735.025	-40.973	0.143	0.075
-734.010	137.990	-0.138	-0.182
-732.996	-168.608	-0.479	-0.018
-731.981	-23.522	0.217	-0.131
-730.966	800.000	-0.038	0.137
-729.952	-84.947	-0.060	0.019
-728.937	121.389	0.129	0.162
-727.923	-200.000	-0.033	0.174
-726.908	-74.015	-0.257	0.094
-725.894	161.481	0.140	0.198
-724.879	-142.226	-0.111	0.011
-723.864	-163.726	-0.083	0.004
-722.850	-26.511	0.188	0.111
-721.835	284.515	0.139	-0.253
-720.821	38.492	-0.148	-0.133
-719.806	197.962	-0.191	-0.294
-718.791	800.000	-0.028	0.093
-717.777	-41.154	-0.098	0.051
-716.762	22.334	-0.072	-0.059
-715.748	244.173	0.117	0.198
-714.733	286.670	0.068	0.123
-713.718	111.817	0.011	0.013
-712.704	-146.331	-0.261	-0.023
-711.689	-19.927	-0.150	-0.093
-710.675	-186.076	-0.370	0.005
-709.660	131.519	0.221	-0.287
-708.645	88.139	0.160	0.179
-707.631	-38.400	-0.216	0.115
-706.616	125.545	-0.070	0.089
-705.602	-27.452	0.507	-0.297
-704.587	-130.934	0.185	-0.025
-703.572	-51.658	0.123	0.058
-702.558	-36.925	0.167	-0.090
-701.543	126.156	-0.055	0.070
-700.529	-102.258	0.318	-0.077
-699.514	800.000	0.139	-0.433
-698.499	-63.980	-0.311	0.128
-697.485	-66.165	-0.305	0.123
-696.470	-46.904	0.293	0.144
-695.456	119.459	0.126	0.157
-694.441	-42.910	-0.365	-0.186
-693.426	-47.766	0.337	0.164
-692.412	800.000	-0.049	-0.212
-691.397	163.485	-0.176	-0.250
-690.383	-115.822	0.516	-0.097
-689.368	14.377	-0.147	-0.115
-688.354	-108.684	-0.257	0.056
-687.339	358.570	0.116	0.234
-686.324	303.314	0.100	0.186
-685.310	-165.334	0.220	0.010
-684.295	-125.756	-0.147	0.022
-683.281	232.089	-0.088	0.145
-682.266	-200.000	-0.056	0.283
-681.251	-200.000	0.052	-0.239
-680.237	-35.854	-0.204	0.111
-679.222	-9.028	0.259	-0.174
-678.208	800.000	-0.054	0.174
-677.193	364.572	-0.063	0.127
-676.178	-92.577	-0.024	0.007
-675.164	461.264	-0.157	0.352
-674.149	-15.830	0.237	0.152
-673.135	-53.463	0.232	0.107
-672.120	-184.595	0.227	0.004
-671.105	-81.318	0.080	-0.027
-670.091	70.015	-0.216	-0.224
-669.076	-119.619	-0.311	-0.054
-668.062	-200.000	0.003	-0.039
-667.047	-50.912	-0.073	-0.034
-666.032	15.040	-0.113	-0.089
-665.018	800.000	-0.096	-0.373
-664.003	100.285	-0.048	-0.056
-662.989	-43.742	-0.467	-0.237
-661.974	478.247	0.016	0.037
-660.959	-14.569	-0.227	-0.147
-659.945	-111.815	-0.428	0.087
-658.930	-15.535	0.066	0.042
-657.916	499.864	-0.069	0.159
-656.901	319.341	0.125	-0.239
-655.886	-111.636	-0.219	-0.045
-654.872	-124.312	-0.377	-0.059
-653.857	-30.165	-0.158	0.090
-652.843	-127.981	0.223	-0.032
-651.828	-44.385	-0.188	-0.095
-650.814	-20.628	-0.388	0.239
-649.799	-119.022	0.195	-0.034
-648.784	178.033	-0.078	0.114
-647.770	58.379	0.004	-0.004
-646.755	-62.155	-0.282	0.118
-645.741	-100.846	-0.227	0.056
-644.726	-10.430	-0.359	0.239
-643.711	-67.772	0.505	-0.198
-642.697	147.874	0.002	0.003
-641.682	800.000	0.014	-0.054
-640.668	-156.452	-0.056	0.004
-639.653	-200.000	-0.035	0.378
-638.638	-100.171	0.159	-0.040
-637.624	-101.841	-0.151	-0.037
-636.609	-200.000	0.034	-0.211
-635.595	-197.621	-0.050	-0.000
-634.580	-200.000	0.027	-0.120
-633.565	-123.911	-0.268	0.042
-632.551	51.526	0.114	0.109
-631.536	-55.933	-0.242	-0.109
-630.522	7.584	-0.125	0.094
-629.507	103.124	0.217	-0.256
-628.492	102.842	-0.097	0.114
-627.478	26.029	0.226	-0.190
-626.463	-173.436	0.413	0.013
-625.449	800.000	0.124	-0.435
-624.434	3.763	-0.031	-0.023
-623.419	-200.000	-0.023	0.000
-622.405	-43.709	0.149	-0.075
-621.390	247.324	-0.091	-0.154
-620.376	179.280	-0.093	-0.137
-619.361	-200.000	0.044	-0.202
-618.346	-3.709	0.205	-0.143
-617.332	-112.538	0.114	-0.023
-616.317	-71.295	-0.376	0.142
-615.303	800.000	-0.041	0.157
-614.288	-136.202	0.478	-0.056
-613.273	-100.423	0.051	0.013
-612.259	800.000	0.059	-0.192
-611.244	6.988	-0.259	0.194
-610.230	-200.000	0.016	0.105
-609.215	-57.989	-0.165	0.072
-608.201	800.000	0.042	0.131
-607.186	-200.000	-0.028	-0.141
-606.171	-71.300	0.182	0.069
-605.157	150.015	0.094	0.128
-604.142	-200.000	-0.013	-0.393
-603.128	-45.132	0.018	-0.009
-602.113	38.026	0.107	0.096
-601.098	-140.688	-0.365	0.038
-600.084	25.135	-0.087	0.072
-599.069	25.374	0.124	0.103
-598.055	-90.115	0.149	0.044
-597.040	-1.568	-0.283	0.200
-596.025	-200.000	0.035	-0.165
-595.011	90.717	0.130	0.146
-593.996	237.312	-0.115	-0.192
-592.982	68.435	-0.191	0.197
-591.967	724.066	-0.019	-0.052
-590.952	47.115	-0.355	0.331
-589.938	-11.733	0.126	-0.083
-588.923	541.709	0.132	-0.314
-587.909	-200.000	0.013	0.153
-586.894	31.024	0.114	-0.098
-585.879	-200.000	0.008	-0.149
-584.865	-135.649	0.062	0.007
-583.850	42.242	0.298	-0.272
-582.836	-108.409	-0.226	-0.049
-581.821	559.694	0.073	0.178
-580.806	642.220	-0.143	0.364
-579.792	-15.647	0.258	0.165
-578.777	32.312	-0.373	0.323
-577.763	-135.627	0.409	-0.049
-576.748	-95.233	-0.198	0.053
-575.733	95.100	0.069	-0.079
-574.719	-165.922	0.280	-0.012
-573.704	-161.020	-0.117	0.006
-572.690	187.773	0.115	0.172
-571.675	24.670	0.214	-0.178
-570.661	-200.000	0.042	0.362
-569.646	-108.729	0.178	-0.038
-568.631	-142.412	0.173	-0.017
-567.617	23.378	0.206	-0.170
-566.602	-146.556	-0.105	0.009
-565.588	-200.000	-0.018	0.401
-564.573	151.294	-0.195	-0.266
-563.558	82.368	-0.240	-0.260
-562.544	59.116	-0.207	0.204
-561.529	-68.815	-0.104	-0.040
-560.515	25.778	0.298	0.249
-559.500	2.371	-0.194	0.140
-558.485	-200.000	0.004	0.087
-557.471	42.965	-0.226	-0.206
-556.456	644.256	-0.073	0.185
-555.442	-34.727	0.094	-0.051
-554.427	-153.458	0.179	-0.012
-553.412	-49.946	0.239	0.113
-552.398	334.548	-0.201	0.389
-551.383	255.216	0.060	-0.103
-550.369	66.910	-0.139	-0.142
-549.354	-53.051	-0.109	0.050
-548.339	70.829	0.151	0.157
-547.325	-175.495	-0.181	-0.005
-546.310	-196.067	0.399	0.003
-545.296	135.549	-0.302	0.393
-544.281	-106.253	-0.267	0.060
-543.266	502.882	0.100	0.231
-542.252	-101.684	0.112	0.027
-541.237	369.337	0.047	-0.096
-540.223	-147.164	0.129	-0.011
-539.208	49.437	0.263	-0.248
-538.193	-104.852	-0.137	-0.031
-537.179	-200.000	0.056	-0.256
-536.164	-140.824	0.339	0.035
-535.150	-60.006	-0.302	0.129
-534.135	38.793	-0.236	-0.211
-533.121	52.982	0.102	-0.097
-532.106	-200.000	-0.021	-0.133
-531.091	-38.499	0.284	-0.150
-530.077	-200.000	0.301	-0.001
-529.062	-117.931	0.185	-0.033
-528.048	327.175	0.049	0.094
-527.033	-125.746	0.364	0.055
-526.018	-122.285	-0.123	-0.020
-525.004	-200.000	-0.075	-0.382
-523.989	-181.705	-0.276	0.005
-522.975	-40.325	0.463	-0.241
-521.960	-36.587	-0.305	0.164
-520.945	352.602	-0.073	0.144
-519.931	-66.948	0.328	0.130
-518.916	172.072	0.045	-0.065
-517.902	-158.748	-0.236	-0.014
-516.887	-200.000	0.026	0.393
-515.872	36.363	-0.171	-0.151
-514.858	-200.000	0.008	-0.171
-513.843	-52.811	0.291	0.134
-512.829	716.929	-0.039	0.104
-511.814	-200.000	0.032	-0.189
-510.799	354.609	-0.066	-0.131
-509.785	206.870	-0.166	0.259
-508.770	-200.000	-0.000	0.155
-507.756	-51.631	-0.247	-0.115
-506.741	-200.000	0.046	0.315
-505.726	-151.449	-0.228	-0.017
-504.712	155.461	0.144	0.199
-503.697	-200.000	-0.022	-0.371
-502.683	205.568	0.152	-0.236
-501.668	800.000	0.059	-0.233
-500.653	-200.000	0.005	-0.143
-499.639	192.539	-0.115	-0.174
-498.624	9.291	-0.266	-0.201
-497.610	-57.429	0.009	-0.004
-496.595	141.379	0.083	-0.110
-495.581	157.650	-0.145	0.200
-494.566	18.476	-0.128	-0.102
-493.551	-170.676	-0.103	-0.004
-492.537	-200.000	-0.007	-0.102
-491.522	800.000	0.009	-0.039
-490.508	74.343	0.072	0.076
-489.493	126.127	0.076	-0.097
-488.478	-200.000	-0.062	-0.419
-487.464	492.501	0.081	-0.184
-486.449	-111.731	-0.066	-0.013
-485.435	111.531	-0.225	0.271
-484.420	408.992	0.138	-0.291
-483.405	262.630	-0.145	-0.251
-482.391	-44.957	-0.511	0.254
-481.376	-200.000	0.037	0.169
-480.362	-54.311	-0.111	0.050
-479.347	800.000	-0.048	0.194
-478.332	297.163	0.089	0.163
-477.318	37.297	-0.177	-0.156
-476.303	-200.000	-0.003	0.146
-475.289	-49.858	0.289	-0.137
-474.274	705.438	-0.062	0.162
-473.259	800.000	-0.068	-0.237
-472.245	-9.364	-0.054	-0.036
-471.230	59.779	0.115	-0.113
-470.216	-105.906	0.360	-0.081
-469.201	-97.889	0.340	0.088
-468.186	-176.508	-0.353	-0.009
-467.172	800.000	0.061	-0.194
-466.157	-200.000	0.038	-0.259
-465.143	-96.102	-0.151	0.040
-464.128	11.721	-0.250	0.191
-463.113	-19.097	0.086	-0.053
-462.099	50.411	-0.095	-0.089
-461.084	130.614	-0.097	-0.124
-460.070	-22.756	0.259	0.156
-459.055	148.563	-0.095	-0.128
-458.040	-200.000	0.031	-0.320
-457.026	-16.017	-0.109	-0.069
-456.011	82.880	0.119	-0.129
-454.997	542.866	0.084	-0.201
-453.982	-21.367	0.068	0.041
-452.968	-36.446	0.021	0.011
-451.953	800.000	-0.039	-0.133
-450.938	522.112	0.170	-0.397
-449.924	-114.520	0.324	-0.062
-448.909	212.568	-0.059	0.092
-447.895	-200.000	0.021	0.278
-446.880	-200.000	-0.006	0.048
-445.865	-98.493	0.392	0.100
-444.851	112.882	-0.047	0.057
-443.836	-4.628	0.139	-0.095
-442.822	146.709	-0.199	-0.267
-441.807	-66.203	-0.120	-0.048
-440.792	-182.062	0.087	-0.002
-439.778	-15.509	-0.329	0.210
-438.763	-200.000	0.003	0.170
-437.749	300.870	-0.123	0.226
-436.734	800.000	0.040	0.137
-435.719	800.000	-0.043	-0.159
-434.705	-169.562	0.356	-0.013
-433.690	-78.302	-0.120	0.041
-432.676	170.935	-0.146	-0.209
-431.661	4.067	0.101	0.074
-430.646	-182.090	-0.411	-0.008
-429.632	590.634	0.111	0.274
-428.617	112.641	0.080	-0.097
-427.603	74.089	-0.199	-0.209
-426.588	-110.937	-0.017	-0.004
-425.573	-81.483	-0.168	-0.055
-424.559	120.659	0.225	0.279
-423.544	-75.649	-0.220	-0.078
-422.530	-61.501	-0.139	0.058
-421.515	293.624	-0.008	0.014
-420.500	-200.000	0.011	0.186
-419.486	-66.962	-0.324	-0.127
-418.471	-200.000	0.118	-0.599
-417.457	-200.000	0.066	-0.369
-416.442	-83.219	-0.251	-0.080
-415.428	90.218	-0.363	-0.404
-414.413	-12.813	0.107	-0.069
-413.398	-140.872	-0.154	-0.016
-412.384	45.508	0.132	-0.121
-411.369	-200.000	0.007	0.115
-410.355	-94.229	0.144	0.039
-409.340	188.447	-0.061	-0.090
-408.325	-140.305	-0.095	0.010
-407.311	-43.832	0.291	0.146
-406.296	-200.000	0.053	-0.358
-405.282	-61.703	0.403	-0.168
-404.267	136.641	0.097	0.126
-403.252	534.298	-0.103	-0.243
-402.238	-179.432	0.468	-0.010
-401.223	8.738	-0.318	-0.238
-400.209	43.739	-0.169	-0.154
-399.194	-72.014	-0.304	-0.112
-398.179	-200.000	-0.032	-0.162
-397.165	-200.000	-0.001	-0.294
-396.150	2.911	-0.108	-0.078
-395.136	256.236	-0.094	-0.160
-394.121	215.355	0.131	-0.207
-393.106	-40.876	-0.277	0.143
-392.092	-129.807	0.251	-0.034
-391.077	-23.299	-0.299	0.179
-390.063	-109.293	-0.444	-0.094
-389.048	-101.111	-0.101	-0.025
-388.033	78.295	0.213	-0.226
-387.019	11.338	-0.242	0.184
-386.004	-127.136	0.118	0.017
-384.990	-108.556	0.525	-0.112
-383.975	-95.877	-0.184	0.049
-382.960	-39.773	-0.224	-0.116
-381.946	60.673	-0.099	-0.098
-380.931	-117.571	0.076	0.014
-379.917	189.243	-0.121	0.180
-378.902	-109.654	0.434	-0.091
-377.888	120.724	-0.031	-0.038
-376.873	-28.412	-0.170	0.097
-375.858	-113.716	-0.336	-0.065
-374.844	-37.081	-0.113	0.060
-373.829	800.000	0.039	0.161
-372.815	-72.802	0.143	-0.052
-371.800	-115.997	0.387	0.072
-370.785	-200.000	-0.012	0.105
-369.771	101.436	0.142	0.164
-368.756	-140.988	0.096	-0.010
-367.742	-99.509	0.140	0.035
-366.727	-108.517	-0.257	-0.055
-365.712	-130.183	-0.048	-0.007
-364.698	800.000	0.084	0.233
-363.683	-200.000	-0.001	-0.377
-362.669	73.123	0.139	-0.145
-361.654	3.308	0.351	-0.254
-360.639	-91.083	0.187	0.053
-359.625	-200.000	0.003	-0.021
-358.610	143.632	-0.165	0.218
-357.596	-150.768	0.318	-0.024
-356.581	85.865	0.102	-0.111
-355.566	-140.193	0.296	0.031
-354.552	-81.047	-0.129	0.042
-353.537	-200.000	-0.023	0.146
-352.523	-4.147	0.149	0.102
-351.508	-143.375	-0.341	0.032
-350.493	-200.000	-0.022	0.255
-349.479	168.548	0.200	0.282
-348.464	158.657	0.242	0.334
-347.450	136.870	-0.020	0.026
-346.435	5.862	0.159	0.117
-345.420	26.612	-0.095	0.079
-344.406	109.681	-0.058	-0.069
-343.391	-174.471	-0.270	0.008
-342.377	6.961	0.185	-0.137
-341.362	-200.000	0.016	-0.188
-340.348	67.270	-0.124	-0.125
-339.333	-118.181	-0.110	-0.019
-338.318	-66.280	0.233	-0.092
-337.304	354.651	-0.115	0.227
-336.289	-200.000	0.034	-0.244
-335.275	12.512	-0.083	-0.064
-334.260	64.819	-0.131	-0.131
-333.245	-133.349	0.151	-0.019
-332.231	-162.169	-0.132	-0.007
-331.216	800.000	0.075	0.237
-330.202	-104.213	-0.057	0.013
-329.187	151.341	0.165	-0.223
-328.172	-117.009	-0.238	-0.043
-327.158	-158.745	0.300	-0.017
-326.143	-103.650	-0.224	0.052
-325.129	208.101	0.163	-0.252
-324.114	236.464	0.073	0.119
-323.099	59.530	-0.217	-0.213
-322.085	13.351	-0.172	-0.132
-321.070	-35.541	-0.149	-0.080
-320.056	58.323	-0.093	0.090
-319.041	-77.356	0.246	0.085
-318.026	-105.135	-0.238	0.054
-317.012	76.275	0.109	0.115
-315.997	157.957	0.178	0.245
-314.983	100.322	-0.092	0.106
-313.968	800.000	-0.160	0.453
-312.953	455.178	0.117	0.257
-311.939	800.000	-0.072	0.205
-310.924	-24.131	0.235	-0.139
-309.910	-60.242	-0.068	-0.029
-308.895	-200.000	-0.015	0.132
-307.880	-132.043	0.056	-0.007
-306.866	-200.000	-0.007	0.096
-305.851	-151.655	-0.248	0.018
-304.837	-82.359	0.281	0.091
-303.822	800.000	0.018	-0.060
-302.807	800.000	-0.033	0.096
-301.793	157.923	0.060	0.083
-300.778	-148.021	-0.338	0.028
-299.764	132.004	0.082	-0.105
-298.749	-154.477	-0.299	0.020
-297.735	618.248	-0.111	0.275
-296.720	-119.492	-0.047	-0.008
-295.705	-200.000	-0.010	0.167
-294.691	56.924	-0.155	-0.149
-293.676	53.337	-0.285	0.271
-292.662	-200.000	-0.065	-0.431
-291.647	-200.000	-0.068	0.553
-290.632	41.169	0.412	0.369
-289.618	-61.197	-0.180	0.075
-288.603	316.578	-0.050	-0.093
-287.589	-200.000	0.001	0.082
-286.574	-119.134	-0.276	0.048
-285.559	39.385	-0.108	-0.096
-284.545	120.329	0.060	0.073
-283.530	-151.459	-0.031	-0.002
-282.516	-200.000	0.021	0.286
-281.501	-67.534	0.364	-0.141
-280.486	-200.000	0.027	-0.123
-279.472	-200.000	-0.024	-0.236
-278.457	-200.000	-0.010	-0.174
-277.443	800.000	-0.033	-0.101
-276.428	0.866	0.373	0.264
-275.413	800.000	0.046	0.178
-274.399	-191.117	0.216	0.002
-273.384	800.000	-0.011	-0.033
-272.370	-46.690	0.041	-0.020
-271.355	800.000	-0.090	-0.292
-270.340	-90.302	-0.213	-0.061
-269.326	63.065	0.187	-0.185
-268.311	-66.988	-0.375	-0.147
-267.297	365.149	0.114	0.227
-266.282	-66.974	-0.317	0.124
-265.267	-125.521	-0.321	0.048
-264.253	800.000	0.028	-0.107
-263.238	102.114	-0.075	0.087
-262.224	-102.249	0.439	0.104
-261.209	-200.000	0.056	0.282
-260.195	37.150	-0.275	0.241
-259.180	-200.000	-0.029	0.204
-258.165	82.728	0.224	0.241
-257.151	-200.000	-0.011	0.090
-256.136	-200.000	0.047	-0.320
-255.122	-86.703	-0.085	-0.026
-254.107	-31.990	0.094	-0.052
-253.092	-103.465	0.247	-0.058
-252.078	-160.143	0.224	-0.012
-251.063	370.543	0.081	-0.163
-250.049	6.769	0.102	0.075
-249.034	-200.000	0.014	-0.232
-248.019	167.059	-0.271	-0.380
-247.005	-87.937	0.137	0.041
-245.990	-200.000	0.000	0.004
-244.976	114.425	-0.202	0.243
-243.961	800.000	0.115	-0.362
-242.946	188.587	-0.159	-0.235
-241.932	-7.942	-0.107	0.072
-240.917	-68.506	0.182	0.070
-239.903	-138.524	0.158	0.017
-238.888	-200.000	-0.003	0.320
-237.873	-28.489	-0.309	0.176
-236.859	84.997	0.099	0.107
-235.844	1.176	-0.037	0.026
-234.830	65.625	0.101	0.101
-233.815	-200.000	-0.007	-0.088
-232.800	25.730	-0.122	-0.101
-231.786	800.000	0.074	-0.262
-230.771	107.546	0.312	0.367
-229.757	-102.805	-0.341	0.080
-228.742	-200.000	-0.002	-0.209
-227.727	-200.000	-0.112	0.546
-226.713	-200.000	0.020	-0.110
-225.698	-81.591	0.170	-0.055
-224.684	198.723	-0.018	-0.027
-223.669	800.000	-0.036	-0.136
-222.655	-127.353	-0.355	0.051
-221.640	-72.541	-0.110	-0.040
-220.625	15.044	-0.130	-0.101
-219.611	800.000	-0.096	-0.320
-218.596	188.211	0.045	-0.067
-217.582	-174.471	-0.172	0.005
-216.567	106.020	-0.136	0.159
-215.552	-56.070	-0.285	0.126
-214.538	-200.000	-0.046	0.251
-213.523	-132.110	0.190	0.024
-212.509	-82.643	0.170	-0.054
-211.494	7.122	0.077	0.057
-210.479	-44.038	-0.223	-0.111
-209.465	297.906	0.022	0.039
-208.450	-75.295	0.333	-0.117
-207.436	47.802	0.228	0.211
-206.421	-82.760	-0.041	0.013
-205.406	-200.000	-0.000	-0.049
-204.392	-112.775	0.179	0.035
-203.377	546.117	0.089	0.210
-202.363	384.823	-0.089	0.182
-201.348	-14.317	0.082	0.052
-200.333	-4.495	0.047	-0.032
-199.319	-200.000	0.003	0.065
-198.304	-35.416	-0.111	-0.060
-197.290	149.705	-0.103	0.137
-196.275	-200.000	0.010	0.358
-195.260	94.280	-0.163	0.183
-194.246	-153.838	0.176	-0.012
-193.231	-0.571	0.123	0.086
-192.217	800.000	-0.033	0.123
-191.202	169.628	0.071	0.100
-190.187	-200.000	-0.084	-0.622
-189.173	800.000	0.089	0.305
-188.158	231.122	-0.149	0.241
-187.144	-129.991	-0.495	-0.067
-186.129	46.883	0.060	-0.055
-185.114	136.114	-0.085	-0.109
-184.100	-7.489	0.072	-0.048
-183.085	-142.895	0.325	0.031
-182.071	-104.023	0.182	-0.042
-181.056	-86.160	-0.229	-0.070
-180.042	800.000	0.132	0.368
-179.027	167.998	0.347	0.488
-178.012	-180.347	0.053	-0.001
-176.998	-132.808	-0.286	-0.036
-175.983	-113.881	0.345	-0.066
-174.969	800.000	-0.022	0.076
-173.954	-200.000	-0.060	-0.334
-172.939	700.332	-0.053	-0.138
-171.925	-28.345	-0.167	0.095
-170.910	-57.347	0.234	-0.101
-169.896	538.066	-0.058	0.137
-168.881	-99.890	-0.182	0.045
-167.866	-200.000	-0.026	-0.204
-166.852	-112.505	0.285	0.056
-165.837	671.737	-0.076	0.195
-164.823	-84.603	0.255	0.079
-163.808	363.581	-0.096	0.190
-162.793	-121.392	0.382	0.063
-161.779	-124.787	-0.206	-0.031
-160.764	243.977	-0.098	-0.162
-159.750	8.469	-0.196	0.146
-158.735	-87.371	0.048	-0.014
-157.720	408.045	0.044	-0.092
-156.706	357.773	0.032	0.063
-155.691	-200.000	-0.014	-0.190
-154.677	229.307	-0.036	-0.057
-153.662	-200.000	-0.023	-0.109
-152.647	-26.509	0.218	0.126
-151.633	-41.252	0.274	0.139
-150.618	51.477	-0.174	-0.163
-149.604	17.356	-0.156	-0.122
-148.589	108.914	0.217	-0.256
-147.574	-200.000	-0.029	0.149
-146.560	-59.118	0.120	-0.051
-145.545	800.000	-0.131	-0.440
-144.531	-200.000	-0.104	-0.000
-143.516	-137.896	0.164	0.018
-142.502	-16.841	-0.107	0.067
-141.487	-200.000	0.034	0.168
-140.472	-200.000	-0.056	-0.269
-139.458	-34.393	0.161	0.087
-138.443	-179.094	-0.449	0.010
-137.429	32.408	0.150	-0.128
-136.414	-14.625	0.302	0.191
-135.399	-81.616	0.490	-0.159
-134.385	458.099	0.102	0.224
-133.370	-162.205	0.231	0.011
-132.356	-54.607	-0.261	-0.116
-131.341	-90.777	0.202	-0.057
-130.326	-96.905	-0.435	-0.112
-129.312	-75.654	-0.465	0.163
-128.297	-200.000	-0.008	-0.111
-127.283	300.774	-0.105	-0.192
-126.268	800.000	-0.032	-0.125
-125.253	-200.000	-0.027	0.290
-124.239	193.632	-0.261	0.389
-123.224	187.707	0.163	-0.240
