DTS Sentinel unit serial number:	SN413079Multiplexer serial number:	ORYXHardware model number:	OX4-SRSoftware version number:	ORYX F/W v4.00 Oryx Data Collector v3.7.2.0data status	okinstallation	princeton_trtdifferential loss correction	single-endedforward channel	channel 4reverse channel	N/Adate	2019/09/12time	20:00:19forward acquisition time	15.00reverse acquisition time	0.00gamma	496.2192k internal	0.2311k external	0.2311temperature offset calibration	1.0165default loss term (dB/km)	0.3790temperature slope calibration	1.0000multiplexer offset coefficient	1.0000multiplexer slope coefficient	1.0000fibre end	0.00T internal ref (°C)	31.75T ext. ref 1 (°C)	3.53T ext. ref 2 (°C)	26.34length (m)	temperature (°C)	Stokes	anti-Stokes-747.200	-152.523	0.122	0.009
-746.185	8.919	-0.719	0.551
-745.171	-179.722	0.281	-0.006
-744.156	658.779	0.276	0.722
-743.142	-200.000	0.053	0.550
-742.127	-77.063	1.000	0.354
-741.112	293.862	0.302	0.560
-740.098	-106.788	-0.813	0.183
-739.083	-186.436	-0.262	-0.004
-738.069	-200.000	0.010	-0.113
-737.054	-136.942	0.206	-0.024
-736.039	-160.434	0.457	0.025
-735.025	-15.366	-0.261	-0.169
-734.010	304.163	-0.554	-1.043
-732.996	-122.388	0.325	-0.054
-731.981	-109.978	0.072	0.015
-730.966	-30.506	0.306	-0.176
-729.952	800.000	0.203	-0.824
-728.937	-200.000	-0.020	-0.196
-727.923	174.996	-0.282	0.415
-726.908	-117.051	-0.356	0.066
-725.894	87.939	0.905	-1.018
-724.879	538.950	-0.313	-0.755
-723.864	-123.473	-0.266	0.043
-722.850	492.170	-0.309	-0.718
-721.835	232.104	-0.307	-0.512
-720.821	-200.000	0.073	-0.330
-719.806	-154.602	-0.293	-0.020
-718.791	-108.321	-0.473	-0.104
-717.777	-200.000	-0.003	-0.556
-716.762	389.109	0.246	-0.518
-715.748	13.973	-0.388	-0.307
-714.733	546.513	0.220	-0.533
-713.718	216.956	0.493	-0.796
-712.704	-41.575	-0.786	0.410
-711.689	-200.000	-0.099	-0.823
-710.675	-33.693	0.747	0.418
-709.660	-21.501	-0.975	0.603
-708.645	-37.486	-0.165	-0.089
-707.631	31.073	0.477	0.415
-706.616	42.795	0.462	0.426
-705.602	-48.130	0.178	-0.087
-704.587	-130.282	-0.666	-0.092
-703.572	-119.099	0.272	0.048
-702.558	706.440	-0.208	-0.558
-701.543	-85.384	-0.260	-0.082
-700.529	-148.389	-0.209	-0.017
-699.514	-88.684	0.358	-0.108
-698.499	184.747	0.262	-0.393
-697.485	-118.503	-0.681	-0.122
-696.470	-96.875	-0.621	0.165
-695.456	-8.689	0.311	-0.212
-694.441	-77.659	-0.349	0.122
-693.426	-200.000	-0.116	0.667
-692.412	-200.000	0.052	-0.632
-691.397	-200.000	0.002	-0.569
-690.383	-56.864	0.507	-0.227
-689.368	-200.000	-0.055	0.335
-688.354	295.615	-0.280	0.519
-687.339	150.666	0.266	0.366
-686.324	-200.000	0.089	0.407
-685.310	-77.452	0.580	-0.204
-684.295	800.000	-0.074	0.269
-683.281	-35.215	-0.418	-0.231
-682.266	-55.978	0.257	-0.116
-681.251	-200.000	0.016	-0.168
-680.237	-92.499	0.335	0.095
-679.222	-113.333	0.347	0.069
-678.208	-200.000	-0.056	0.496
-677.193	-200.000	-0.036	0.654
-676.178	-160.528	0.221	0.012
-675.164	-60.045	-0.033	0.014
-674.149	-107.876	0.437	0.096
-673.135	-103.779	-0.414	-0.098
-672.120	-68.570	0.333	0.131
-671.105	-64.333	-0.287	-0.118
-670.091	-200.000	-0.024	-0.413
-669.076	17.339	-0.546	0.438
-668.062	94.334	-0.569	0.654
-667.047	302.268	-0.253	-0.474
-666.032	79.810	-0.090	-0.097
-665.018	76.750	-0.241	0.259
-664.003	-126.364	0.384	0.058
-662.989	171.336	-0.144	-0.210
-661.974	-200.000	0.091	1.071
-660.959	7.732	-0.703	-0.533
-659.945	217.864	-0.171	-0.276
-658.930	190.337	0.550	0.836
-657.916	217.711	0.390	0.629
-656.901	172.980	0.614	-0.895
-655.886	-115.329	0.396	-0.076
-654.872	281.950	0.548	-0.994
-653.857	146.557	-0.369	0.502
-652.843	74.441	0.524	0.557
-651.828	-189.120	-0.909	-0.011
-650.814	-200.000	0.018	-0.252
-649.799	-200.000	-0.010	-0.208
-648.784	-21.121	0.324	0.201
-647.770	-114.312	0.236	-0.046
-646.755	800.000	-0.126	-0.542
-645.741	-200.000	-0.001	0.372
-644.726	-152.283	0.514	0.038
-643.711	-200.000	-0.022	-0.534
-642.697	41.797	0.662	-0.607
-641.682	-120.425	0.371	0.064
-640.668	800.000	-0.029	-0.083
-639.653	-200.000	0.045	-0.319
-638.638	-131.781	-0.690	-0.091
-637.624	33.038	0.103	-0.090
-636.609	800.000	0.083	0.364
-635.595	39.462	0.486	-0.440
-634.580	-200.000	0.069	-0.634
-633.565	-49.782	-0.528	-0.253
-632.551	-161.799	0.667	-0.034
-631.536	-200.000	-0.082	0.908
-630.522	71.064	-0.409	0.428
-629.507	-90.185	0.624	-0.184
-628.492	-53.589	0.579	-0.268
-627.478	-39.920	-0.573	0.302
-626.463	170.045	-0.523	-0.756
-625.449	-24.267	-0.674	0.406
-624.434	105.665	-0.370	0.442
-623.419	-17.762	0.541	0.343
-622.405	55.193	-0.605	0.591
-621.390	-13.518	0.087	-0.057
-620.376	54.764	0.885	-0.863
-619.361	81.751	0.273	-0.299
-618.346	-80.599	0.414	0.139
-617.332	-200.000	-0.009	0.161
-616.317	56.953	1.040	-1.023
-615.303	-52.033	-0.299	-0.140
-614.288	643.187	-0.238	-0.613
-613.273	-66.636	-0.282	-0.113
-612.259	402.549	0.028	-0.060
-611.244	-200.000	0.009	-0.370
-610.230	20.693	0.742	-0.607
-609.215	552.157	0.147	-0.356
-608.201	218.858	0.449	-0.725
-607.186	-71.693	0.294	-0.111
-606.171	800.000	-0.043	-0.170
-605.157	351.403	-0.597	-1.193
-604.142	-55.384	0.711	0.322
-603.128	272.305	0.141	0.251
-602.113	-60.764	-0.511	0.219
-601.098	-44.631	-0.678	-0.342
-600.084	-28.547	-0.216	0.126
-599.069	165.469	0.416	-0.594
-598.055	-198.938	-0.934	0.005
-597.040	-19.805	0.384	0.240
-596.025	-26.169	0.296	-0.176
-595.011	390.443	-0.008	0.016
-593.996	162.842	-0.238	0.337
-592.982	-200.000	0.053	0.292
-591.967	-200.000	0.041	0.252
-590.952	83.283	-0.493	-0.542
-589.938	-45.999	-0.004	-0.002
-588.923	117.816	-0.424	-0.526
-587.909	800.000	0.153	0.574
-586.894	-85.033	-0.803	0.254
-585.879	42.132	-0.412	0.377
-584.865	-61.687	-0.545	-0.230
-583.850	-95.024	-0.795	-0.217
-582.836	203.531	0.085	-0.133
-581.821	800.000	-0.076	0.284
-580.806	20.482	-0.559	0.456
-579.792	26.169	0.672	0.566
-578.777	-57.290	0.553	0.245
-577.763	-51.832	-0.129	0.060
-576.748	260.683	-0.394	-0.687
-575.733	373.540	-0.285	-0.585
-574.719	-152.632	0.772	0.056
-573.704	-140.952	-0.863	-0.089
-572.690	-124.814	0.219	0.034
-571.675	-62.636	0.413	-0.173
-570.661	800.000	0.175	-0.734
-569.646	-51.020	-0.480	0.227
-568.631	34.202	-0.152	0.134
-567.617	414.306	-0.070	0.151
-566.602	800.000	-0.311	1.309
-565.588	800.000	-0.262	-1.030
-564.573	-200.000	-0.056	0.421
-563.558	241.733	-0.172	-0.289
-562.544	-66.210	-1.099	0.441
-561.529	800.000	0.224	0.681
-560.515	401.641	-0.321	-0.680
-559.500	492.091	0.129	-0.298
-558.485	-174.013	-0.745	0.022
-557.471	-158.712	0.465	0.027
-556.456	-200.000	0.035	-0.205
-555.442	120.003	0.399	-0.499
-554.427	-131.145	-0.139	0.019
-553.412	229.440	0.430	-0.708
-552.398	57.077	-0.451	-0.444
-551.383	-113.663	-0.891	0.175
-550.369	35.435	0.225	-0.199
-549.354	-29.384	0.446	-0.257
-548.339	-73.938	-0.082	-0.030
-547.325	-42.670	0.416	0.213
-546.310	2.931	-0.331	0.243
-545.296	168.341	-0.165	0.237
-544.281	272.154	0.160	0.285
-543.266	694.448	-0.192	0.508
-542.252	131.122	-0.221	0.286
-541.237	-158.145	-0.507	0.030
-540.223	-200.000	-0.008	0.368
-539.208	-200.000	-0.007	0.303
-538.193	226.473	-0.367	-0.600
-537.179	-200.000	0.176	-1.152
-536.164	-106.965	0.565	0.126
-535.150	43.405	-0.295	-0.272
-534.135	-130.809	0.346	-0.047
-533.121	-200.000	-0.007	-0.176
-532.106	-179.020	-0.865	0.020
-531.091	342.256	0.077	0.152
-530.077	-195.473	-0.182	-0.001
-529.062	-200.000	-0.049	-0.250
-528.048	-101.086	0.775	-0.191
-527.033	-90.722	0.296	0.086
-526.018	-200.000	0.139	-0.668
-525.004	-52.633	0.609	-0.283
-523.989	-104.726	-0.381	-0.088
-522.975	96.733	-0.279	0.321
-521.960	651.623	0.149	-0.385
-520.945	800.000	0.066	0.190
-519.931	348.218	-0.294	0.584
-518.916	-136.968	-1.046	0.121
-517.902	-84.154	0.177	0.057
-516.887	-150.159	0.253	-0.020
-515.872	154.579	-0.140	-0.193
-514.858	-116.059	0.655	-0.123
-513.843	800.000	0.072	-0.265
-512.829	1.924	0.344	0.250
-511.814	101.576	-0.346	0.406
-510.799	377.836	0.067	0.139
-509.785	-112.742	-0.377	-0.075
-508.770	-60.687	-0.764	0.326
-507.756	538.526	0.376	-0.899
-506.741	153.006	0.096	-0.132
-505.726	-93.189	0.227	-0.063
-504.712	800.000	0.066	-0.183
-503.697	-200.000	-0.082	0.859
-502.683	-96.237	0.239	-0.064
-501.668	276.830	-0.616	-1.101
-500.653	268.569	-0.405	-0.714
-499.639	-43.741	-0.515	-0.261
-498.624	-38.119	-0.493	-0.263
-497.610	800.000	-0.089	-0.269
-496.595	22.880	0.764	-0.630
-495.581	193.052	-0.249	0.378
-494.566	-38.594	-0.924	0.491
-493.551	-112.022	0.674	0.136
-492.537	-69.395	-0.373	-0.144
-491.522	400.619	0.177	0.373
-490.508	-200.000	-0.032	0.621
-489.493	800.000	-0.094	0.299
-488.478	800.000	-0.014	0.047
-487.464	-170.678	-0.371	-0.013
-486.449	310.869	0.246	0.463
-485.435	-200.000	-0.009	-0.372
-484.420	-34.622	-0.577	0.317
-483.405	-12.788	-0.766	-0.502
-482.391	357.407	0.478	0.958
-481.376	311.323	-0.196	0.370
-480.362	-117.479	0.181	-0.033
-479.347	-68.573	0.488	0.190
-478.332	800.000	0.181	0.576
-477.318	-141.559	0.314	0.032
-476.303	92.894	-0.333	0.378
-475.289	-189.814	-0.824	0.009
-474.274	225.947	0.316	-0.515
-473.259	800.000	0.044	-0.178
-472.245	360.420	0.262	-0.526
-471.230	-34.750	-0.364	-0.200
-470.216	733.116	-0.234	-0.629
-469.201	-8.556	0.928	-0.626
-468.186	3.641	0.400	0.293
-467.172	-22.939	-0.101	-0.061
-466.157	105.894	-0.487	0.579
-465.143	800.000	0.241	0.723
-464.128	170.668	0.230	-0.331
-463.113	-104.398	-0.405	-0.094
-462.099	-200.000	-0.117	0.696
-461.084	32.727	-0.382	-0.332
-460.070	-49.026	0.510	-0.245
-459.055	-200.000	-0.026	0.128
-458.040	290.017	0.102	0.186
-457.026	-125.615	1.281	0.195
-456.011	69.663	-0.276	-0.286
-454.997	-66.945	0.442	0.175
-453.982	-200.000	0.112	-0.546
-452.968	94.688	0.285	-0.325
-451.953	-73.932	0.631	0.230
-450.938	-200.000	-0.050	0.413
-449.924	-92.910	0.713	-0.200
-448.909	-168.152	-0.834	-0.032
-447.895	-63.255	-0.345	0.143
-446.880	-200.000	-0.028	0.381
-445.865	-200.000	-0.024	0.265
-444.851	-90.252	-1.243	-0.362
-443.836	214.896	0.397	0.632
-442.822	282.502	0.235	0.423
-441.807	200.307	-0.143	0.220
-440.792	-82.758	-0.974	0.316
-439.778	-151.805	-0.129	-0.010
-438.763	-109.532	0.597	-0.126
-437.749	-153.971	0.236	0.016
-436.734	12.206	-0.262	-0.202
-435.719	273.041	-0.346	-0.614
-434.705	257.340	0.319	0.551
-433.690	105.002	0.245	-0.289
-432.676	661.820	0.113	0.293
-431.661	-149.162	-0.442	0.036
-430.646	633.559	-0.510	1.297
-429.632	-16.894	-0.123	0.078
-428.617	515.133	0.080	0.187
-427.603	331.286	-0.210	-0.407
-426.588	-116.850	-0.799	0.147
-425.573	-12.651	-0.555	0.363
-424.559	-55.112	-0.611	0.276
-423.544	-200.000	-0.039	0.832
-422.530	87.035	0.316	0.350
-421.515	301.608	-0.744	1.378
-420.500	-1.729	0.495	-0.350
-419.486	-74.812	0.234	0.084
-418.471	-200.000	-0.001	0.437
-417.457	-64.781	0.653	0.265
-416.442	-200.000	-0.023	0.156
-415.428	-200.000	-0.161	0.887
-414.413	124.708	-0.074	0.093
-413.398	800.000	0.151	0.469
-412.384	455.970	-0.066	-0.147
-411.369	20.662	0.021	0.017
-410.355	136.124	-0.066	0.086
-409.340	-9.863	-0.382	-0.255
-408.325	465.153	-0.361	-0.809
-407.311	-1.585	0.752	0.531
-406.296	-6.184	0.138	0.095
-405.282	41.893	0.689	-0.626
-404.267	-125.161	-0.201	-0.031
-403.252	225.519	-0.392	-0.635
-402.238	-51.409	-0.762	0.357
-401.223	60.118	-0.520	0.515
-400.209	21.347	-0.652	-0.530
-399.194	772.764	-0.214	-0.585
-398.179	800.000	0.088	0.348
-397.165	207.240	0.322	0.503
-396.150	-200.000	-0.043	0.444
-395.136	8.117	0.254	-0.191
-394.121	-168.574	0.355	0.014
-393.106	-8.119	0.261	0.176
-392.092	15.844	0.128	0.101
-391.077	-200.000	-0.049	0.289
-390.063	-165.289	-0.635	0.028
-389.048	344.042	0.183	0.360
-388.033	-160.312	0.220	-0.012
-387.019	-91.691	-0.629	0.179
-386.004	-200.000	-0.099	0.935
-384.990	-102.670	0.362	0.086
-383.975	51.582	-0.299	0.285
-382.960	-200.000	0.090	-0.521
-381.946	214.589	0.275	0.437
-380.931	61.858	-0.202	0.202
-379.917	-124.819	0.696	-0.108
-378.902	-46.956	0.619	-0.302
-377.888	139.569	-0.040	0.053
-376.873	173.663	0.267	0.386
-375.858	-64.412	0.414	-0.168
-374.844	59.485	-0.175	0.172
-373.829	-13.360	-0.153	-0.099
-372.815	162.821	0.426	-0.599
-371.800	-96.425	-0.227	0.060
-370.785	-126.785	-0.406	0.060
-369.771	-132.438	-0.525	-0.068
-368.756	41.079	-0.244	-0.221
-367.742	-200.000	0.051	0.358
-366.727	132.219	0.555	-0.715
-365.712	-6.010	0.347	-0.237
-364.698	-43.918	-1.044	0.525
-363.683	262.033	0.326	-0.565
-362.669	9.154	-0.732	-0.553
-361.654	75.654	-0.202	0.213
-360.639	178.843	0.489	-0.715
-359.625	463.198	0.141	-0.315
-358.610	800.000	-0.090	0.385
-357.596	-200.000	0.014	0.889
-356.581	-200.000	0.076	0.377
-355.566	-105.910	0.835	-0.188
-354.552	-79.303	-0.020	0.007
-353.537	800.000	-0.209	-0.640
-352.523	23.859	-0.327	-0.270
-351.508	89.669	-0.375	0.419
-350.493	14.662	-0.294	-0.230
-349.479	-200.000	0.058	-0.472
-348.464	309.937	0.300	0.562
-347.450	505.451	0.170	0.393
-346.435	51.634	0.190	0.180
-345.420	800.000	0.214	-0.675
-344.406	-33.412	0.615	-0.340
-343.391	113.956	-0.335	0.407
-342.377	-182.239	0.426	0.008
-341.362	246.825	0.088	-0.148
-340.348	-66.085	0.345	0.138
-339.333	61.596	0.375	-0.373
-338.318	800.000	-0.089	-0.268
-337.304	43.663	0.057	-0.052
-336.289	37.120	-0.823	0.728
-335.275	-99.953	-0.264	-0.066
-334.260	-200.000	-0.107	-0.576
-333.245	548.704	0.152	-0.365
-332.231	-67.873	-0.855	-0.334
-331.216	197.443	-0.364	-0.555
-330.202	531.911	-0.170	0.402
-329.187	-62.648	0.326	-0.135
-328.172	402.094	0.126	-0.264
-327.158	361.379	-0.184	-0.369
-326.143	800.000	-0.266	-0.744
-325.129	-26.880	-0.489	-0.285
-324.114	-116.987	0.741	-0.135
-323.099	-152.545	0.657	-0.047
-322.085	26.146	-0.175	0.146
-321.070	393.654	-0.209	0.435
-320.056	151.505	0.249	0.338
-319.041	-79.839	-0.847	-0.285
-318.026	597.961	0.046	0.113
-317.012	-43.756	0.709	0.357
-315.997	-200.000	0.033	0.417
-314.983	-30.009	-0.561	0.319
-313.968	83.145	-0.164	-0.178
-312.953	-64.472	-0.365	0.148
-311.939	507.955	0.338	-0.784
-310.924	-132.562	-0.389	0.050
-309.910	-183.540	-0.605	-0.010
-308.895	800.000	-0.051	-0.218
-307.880	-87.223	0.782	-0.237
-306.866	327.868	-0.393	-0.753
-305.851	-174.420	-0.406	-0.012
-304.837	15.140	0.295	0.231
-303.822	-36.153	-0.480	-0.259
-302.807	53.938	0.339	-0.325
-301.793	-167.469	-0.502	0.020
-300.778	-110.104	-0.390	0.081
-299.764	-49.420	-0.718	0.342
-298.749	-171.841	0.423	-0.014
-297.735	-158.910	-0.326	0.018
-296.720	425.539	0.325	-0.698
-295.705	-66.092	-0.566	-0.225
-294.691	66.119	-0.349	-0.353
-293.676	312.883	-0.468	-0.877
-292.662	-200.000	-0.043	0.324
-291.647	132.887	-0.228	0.294
-290.632	43.492	0.234	-0.213
-289.618	800.000	-0.118	0.336
-288.603	140.148	0.159	0.209
-287.589	-200.000	0.070	0.331
-286.574	108.734	0.677	0.807
-285.559	800.000	0.084	0.303
-284.545	130.426	0.360	0.460
-283.530	631.816	-0.178	0.449
-282.516	7.905	0.050	0.038
-281.501	-60.754	-0.185	0.078
-280.486	-11.368	0.526	-0.345
-279.472	-55.840	-0.660	-0.294
-278.457	-200.000	0.087	-0.478
-277.443	-200.000	-0.001	-0.210
-276.428	800.000	0.116	0.437
-275.413	361.425	0.115	-0.230
-274.399	-120.240	1.105	-0.188
-273.384	444.164	0.143	-0.313
-272.370	235.615	0.448	0.738
-271.355	23.026	-0.425	-0.347
-270.340	155.184	0.359	-0.493
-269.326	800.000	-0.139	0.417
-268.311	77.085	-0.226	0.239
-267.297	-82.754	0.425	0.137
-266.282	-200.000	-0.088	0.414
-265.267	148.032	0.176	-0.236
-264.253	-200.000	0.000	0.249
-263.238	-89.669	0.909	-0.265
-262.224	-200.000	0.191	0.860
-261.209	-139.010	-0.153	-0.017
-260.195	611.311	0.348	-0.867
-259.180	64.478	-0.284	0.285
-258.165	655.483	-0.284	-0.726
-257.151	800.000	0.105	0.456
-256.136	155.697	0.779	1.069
-255.122	-52.877	0.912	0.418
-254.107	383.919	-0.198	-0.406
-253.092	89.583	0.231	0.257
-252.078	370.514	0.363	0.733
-251.063	-58.376	-0.148	-0.064
-250.049	-200.000	0.059	-0.372
-249.034	38.757	-0.480	-0.427
-248.019	-200.000	0.060	-0.844
-247.005	74.411	-0.528	0.552
-245.990	-127.590	1.027	0.148
-244.976	104.049	0.350	0.410
-243.961	-56.294	-0.530	0.234
-242.946	-200.000	0.011	-0.122
-241.932	182.496	0.101	0.148
-240.917	-93.759	0.422	0.116
-239.903	-167.357	-0.297	-0.012
-238.888	33.537	-0.286	-0.247
-237.873	-40.636	0.444	0.229
-236.859	240.630	-0.147	0.244
-235.844	-79.310	-0.351	-0.118
-234.830	-58.880	-0.179	0.077
-233.815	382.175	0.324	-0.663
-232.800	87.978	0.399	0.441
-231.786	120.241	0.604	0.746
-230.771	182.829	0.551	0.809
-229.757	15.228	0.369	-0.288
-228.742	275.683	0.113	-0.200
-227.727	59.816	0.390	0.383
-226.713	-58.375	0.593	-0.256
-225.698	-200.000	0.011	0.146
-224.684	772.028	0.089	0.242
-223.669	-162.617	0.531	0.026
-222.655	494.379	-0.006	0.013
-221.640	-200.000	0.002	-0.587
-220.625	0.157	-0.571	0.405
-219.611	-53.402	0.982	-0.447
-218.596	-8.211	-0.255	-0.171
-217.582	392.467	-0.140	-0.289
-216.567	-200.000	0.005	0.104
-215.552	800.000	0.349	1.239
-214.538	800.000	0.133	-0.499
-213.523	95.537	0.241	-0.273
-212.509	-142.357	-0.538	0.053
-211.494	800.000	0.072	0.252
-210.479	17.849	-0.240	0.190
-209.465	22.787	0.501	-0.408
-208.450	-71.395	-0.331	0.123
-207.436	-37.086	-0.249	0.133
-206.421	800.000	-0.327	1.164
-205.406	133.726	0.354	0.456
-204.392	-48.430	0.210	0.100
-203.377	67.517	-0.576	-0.585
-202.363	-94.179	-0.183	-0.050
-201.348	47.450	-0.915	-0.848
-200.333	80.852	-0.511	-0.548
-199.319	-54.896	-0.674	-0.302
-198.304	27.948	0.568	-0.476
-197.290	-200.000	0.017	0.343
-196.275	-102.694	0.784	-0.186
-195.260	113.918	-0.456	0.551
-194.246	-37.591	0.442	-0.234
-193.231	109.034	0.139	-0.165
-192.217	592.526	-0.194	-0.476
-191.202	-41.589	0.739	0.377
-190.187	-163.942	-1.084	0.050
-189.173	81.177	0.317	0.340
-188.158	5.860	0.288	0.212
-187.144	-138.907	-0.220	-0.024
-186.129	800.000	0.105	0.450
-185.114	159.685	0.528	0.730
-184.100	-91.594	0.469	-0.133
-183.085	133.350	0.253	-0.324
-182.071	587.666	-0.207	0.507
-181.056	-99.255	0.376	0.094
-180.042	221.270	-0.441	-0.703
-179.027	-179.396	0.323	-0.007
-178.012	-200.000	0.025	0.700
-176.998	800.000	0.102	0.376
-175.983	290.870	0.045	-0.081
-174.969	-200.000	0.013	-0.724
-173.954	-200.000	-0.050	-1.052
-172.939	-63.652	0.490	0.200
-171.925	-200.000	0.038	0.401
-170.910	-200.000	0.014	-0.683
-169.896	-120.440	0.929	-0.157
-168.881	-90.165	0.416	-0.120
-167.866	-147.755	0.373	0.031
-166.852	-200.000	0.005	0.260
-165.837	1.190	0.322	-0.229
-164.823	-90.225	-0.604	0.174
-163.808	206.018	0.422	-0.651
-162.793	46.803	-0.554	0.511
-161.779	82.020	-0.400	0.430
-160.764	463.567	0.103	0.229
-159.750	-42.449	0.131	-0.066
-158.735	159.466	-0.186	-0.257
-157.720	228.518	-0.115	-0.186
-156.706	96.334	0.195	-0.222
-155.691	-112.442	0.297	-0.059
-154.677	241.893	0.284	0.471
-153.662	-65.803	0.111	0.044
-152.647	-200.000	-0.005	0.106
-151.633	-200.000	0.058	0.501
-150.618	145.759	0.109	-0.145
-149.604	0.191	0.654	0.462
-148.589	-200.000	-0.044	-0.491
-147.574	-200.000	0.051	-0.261
-146.560	-141.416	-1.024	0.103
-145.545	199.133	-0.400	-0.609
-144.531	262.964	0.181	-0.312
-143.516	800.000	0.106	-0.298
-142.502	247.340	0.165	0.277
-141.487	332.060	0.200	0.382
-140.472	-48.831	-1.078	0.513
-139.458	-98.264	-0.752	-0.191
-138.443	0.121	-0.956	0.676
-137.429	800.000	0.145	0.418
-136.414	176.963	-0.364	0.525
-135.399	86.248	-0.129	0.141
-134.385	74.904	-0.517	-0.539
-133.370	426.949	0.178	0.380
-132.356	-77.678	0.805	-0.276
-131.341	800.000	0.064	-0.257
-130.326	296.723	0.134	0.244
-129.312	274.700	-0.168	0.295
-128.297	-162.336	-0.425	0.021
-127.283	-6.251	-0.309	-0.209
-126.268	-200.000	-0.018	-0.319
-125.253	365.229	0.020	0.040
-124.239	800.000	0.275	-0.969
-123.224	-96.220	0.286	-0.075
-122.210	5.051	0.174	-0.127
-121.195	560.389	-0.264	-0.632
