DTS Sentinel unit serial number:	SN413079Multiplexer serial number:	ORYXHardware model number:	OX4-SRSoftware version number:	ORYX F/W v4.00 Oryx Data Collector v3.7.2.0data status	okinstallation	princeton_trtdifferential loss correction	single-endedforward channel	channel 4reverse channel	N/Adate	2019/09/17time	15:01:34forward acquisition time	60.00reverse acquisition time	0.00gamma	496.2192k internal	0.2293k external	0.2293temperature offset calibration	0.9982default loss term (dB/km)	0.3790temperature slope calibration	1.0000multiplexer offset coefficient	1.0000multiplexer slope coefficient	1.0000fibre end	0.00T internal ref (°C)	37.42T ext. ref 1 (°C)	0.38T ext. ref 2 (°C)	34.17length (m)	temperature (°C)	Stokes	anti-Stokes-747.200	-170.432	0.134	-0.005
-746.185	-200.000	-0.031	0.364
-745.171	303.280	-0.188	-0.356
-744.156	-200.000	-0.030	0.140
-743.142	-41.725	0.249	0.131
-742.127	-54.107	-0.468	0.218
-741.112	-39.612	-0.094	-0.050
-740.098	640.328	-0.129	0.335
-739.083	278.832	-0.124	-0.225
-738.069	153.172	0.090	0.126
-737.054	300.589	-0.183	0.345
-736.039	-189.838	-0.366	-0.004
-735.025	-103.000	0.117	0.028
-734.010	-94.219	0.088	-0.025
-732.996	-24.423	0.166	0.101
-731.981	-29.253	-0.471	-0.276
-730.966	800.000	-0.040	-0.119
-729.952	101.196	-0.092	-0.110
-728.937	-29.451	-0.115	0.067
-727.923	-86.881	0.241	-0.075
-726.908	58.936	0.216	-0.217
-725.894	-9.848	-0.153	0.104
-724.879	-57.333	0.207	0.093
-723.864	202.101	0.162	-0.255
-722.850	8.325	0.120	-0.092
-721.835	109.704	-0.169	-0.208
-720.821	58.166	-0.030	-0.030
-719.806	290.416	0.121	0.224
-718.791	265.536	0.059	0.105
-717.777	800.000	-0.042	-0.188
-716.762	69.372	0.191	-0.201
-715.748	-16.193	0.192	-0.125
-714.733	-156.135	0.188	0.012
-713.718	-16.532	-0.187	0.121
-712.704	394.117	0.121	0.258
-711.689	-200.000	0.011	0.154
-710.675	-117.077	-0.296	0.055
-709.660	92.199	0.102	0.117
-708.645	332.478	-0.063	0.124
-707.631	-58.526	-0.206	-0.091
-706.616	-84.523	-0.123	0.040
-705.602	48.213	-0.196	-0.187
-704.587	-126.748	-0.267	-0.040
-703.572	158.094	0.020	0.028
-702.558	-166.459	0.102	-0.004
-701.543	-8.593	0.059	0.041
-700.529	-200.000	0.019	-0.134
-699.514	735.048	-0.025	0.069
-698.499	-103.901	0.201	0.048
-697.485	193.702	-0.129	-0.199
-696.470	800.000	-0.146	-0.443
-695.456	145.774	-0.119	-0.163
-694.441	800.000	-0.120	-0.439
-693.426	800.000	-0.023	-0.087
-692.412	800.000	-0.029	0.101
-691.397	-200.000	-0.040	-0.295
-690.383	147.895	0.020	-0.028
-689.368	569.134	0.029	0.072
-688.354	-160.689	0.340	-0.018
-687.339	800.000	-0.079	0.239
-686.324	800.000	-0.022	0.094
-685.310	169.215	0.130	-0.190
-684.295	-31.837	-0.086	-0.049
-683.281	172.355	0.101	-0.148
-682.266	800.000	-0.118	-0.347
-681.251	297.574	-0.120	0.224
-680.237	-2.124	-0.297	0.213
-679.222	-200.000	0.033	0.387
-678.208	800.000	0.098	0.333
-677.193	-99.568	0.217	-0.056
-676.178	-85.567	-0.228	-0.072
-675.164	-48.695	0.103	0.050
-674.149	20.730	0.006	0.005
-673.135	-200.000	-0.028	-0.157
-672.120	78.971	0.156	-0.170
-671.105	-200.000	-0.010	-0.058
-670.091	166.788	-0.209	0.302
-669.076	50.598	0.073	0.071
-668.062	207.798	-0.151	0.241
-667.047	247.727	0.156	-0.270
-666.032	143.014	-0.137	0.186
-665.018	-146.923	0.104	0.009
-664.003	-10.815	-0.296	0.199
-662.989	258.553	-0.099	-0.174
-661.974	-200.000	0.023	-0.256
-660.959	-105.194	-0.116	-0.027
-659.945	-200.000	0.007	-0.154
-658.930	800.000	-0.081	0.309
-657.916	-91.833	-0.264	-0.076
-656.901	-36.304	0.201	-0.111
-655.886	684.742	0.098	-0.262
-654.872	-200.000	0.014	-0.221
-653.857	-11.314	-0.308	0.207
-652.843	346.050	0.118	0.237
-651.828	-2.769	-0.227	-0.162
-650.814	-200.000	-0.032	0.276
-649.799	170.765	0.118	0.173
-648.784	-39.537	0.292	0.156
-647.770	-200.000	-0.052	0.254
-646.755	-11.240	0.258	0.173
-645.741	800.000	0.115	0.463
-644.726	-200.000	-0.053	-0.345
-643.711	-200.000	0.035	-0.265
-642.697	404.739	0.073	0.156
-641.682	-200.000	-0.007	-0.209
-640.668	381.641	-0.057	0.120
-639.653	138.481	0.127	-0.170
-638.638	86.838	-0.122	0.138
-637.624	230.422	0.153	0.256
-636.609	90.470	0.200	-0.228
-635.595	613.445	0.123	-0.315
-634.580	198.397	-0.242	0.377
-633.565	173.699	-0.099	0.146
-632.551	104.114	0.106	-0.127
-631.536	-200.000	-0.011	-0.258
-630.522	-13.968	-0.188	-0.123
-629.507	463.436	-0.036	0.083
-628.492	-200.000	0.007	0.075
-627.478	91.562	-0.157	-0.180
-626.463	-1.936	-0.404	-0.289
-625.449	219.538	0.193	-0.315
-624.434	-147.721	0.300	-0.026
-623.419	416.545	-0.097	-0.211
-622.405	800.000	0.117	0.483
-621.390	-130.165	0.163	0.023
-620.376	76.198	-0.099	0.107
-619.361	800.000	-0.062	0.191
-618.346	-171.107	-0.273	0.009
-617.332	-200.000	0.032	0.272
-616.317	-36.749	0.238	-0.130
-615.303	-4.734	0.279	0.196
-614.288	222.064	-0.220	-0.360
-613.273	88.231	0.228	-0.258
-612.259	800.000	-0.042	-0.180
-611.244	94.226	0.130	-0.150
-610.230	-78.970	-0.133	0.046
-609.215	720.378	-0.118	0.319
-608.201	131.540	0.007	0.009
-607.186	-74.642	0.044	-0.016
-606.171	-200.000	-0.005	-0.145
-605.157	-200.000	0.006	-0.216
-604.142	-5.727	0.042	-0.029
-603.128	29.008	-0.200	0.173
-602.113	-200.000	0.019	-0.175
-601.098	-29.174	0.208	0.121
-600.084	800.000	0.062	-0.228
-599.069	280.500	-0.185	0.337
-598.055	-79.091	-0.290	0.100
-597.040	152.122	0.128	-0.178
-596.025	11.284	0.144	-0.112
-595.011	-200.000	0.064	-0.294
-593.996	-9.904	0.215	-0.145
-592.982	-200.000	-0.054	0.286
-591.967	800.000	-0.090	0.305
-590.952	-60.008	0.213	0.092
-589.938	-200.000	0.017	-0.093
-588.923	-122.009	-0.415	-0.069
-587.909	14.382	-0.158	0.126
-586.894	-130.035	0.083	-0.011
-585.879	7.978	0.174	0.133
-584.865	-127.440	-0.114	-0.017
-583.850	86.390	-0.233	-0.261
-582.836	376.605	-0.065	-0.136
-581.821	227.167	-0.090	-0.149
-580.806	-72.440	-0.268	-0.101
-579.792	-99.490	0.181	0.046
-578.777	-137.331	-0.100	-0.011
-577.763	173.875	-0.065	0.095
-576.748	-11.902	-0.076	0.051
-575.733	28.133	0.312	0.267
-574.719	-144.740	0.312	-0.029
-573.704	800.000	-0.024	-0.084
-572.690	-40.295	-0.068	0.036
-571.675	197.215	-0.124	-0.193
-570.661	271.544	-0.261	0.468
-569.646	77.010	0.163	0.176
-568.631	-124.015	0.206	-0.033
-567.617	24.662	0.102	0.086
-566.602	800.000	-0.045	0.137
-565.588	-200.000	-0.086	-0.452
-564.573	-200.000	0.075	-0.390
-563.558	-59.689	-0.204	0.089
-562.544	299.414	0.101	0.189
-561.529	26.569	0.142	-0.121
-560.515	39.774	0.155	-0.141
-559.500	-100.119	0.075	0.019
-558.485	340.545	0.027	0.053
-557.471	373.299	0.058	-0.120
-556.456	146.519	-0.100	-0.136
-555.442	383.093	0.081	-0.169
-554.427	-200.000	-0.046	0.243
-553.412	-49.998	-0.202	0.097
-552.398	225.354	0.054	0.088
-551.383	-200.000	0.014	0.317
-550.369	147.693	-0.055	0.075
-549.354	-101.536	0.163	-0.040
-548.339	390.374	0.060	0.127
-547.325	-73.974	0.311	0.114
-546.310	800.000	-0.039	0.150
-545.296	110.551	0.079	0.097
-544.281	104.153	0.129	0.154
-543.266	116.916	-0.152	0.189
-542.252	49.595	-0.146	0.139
-541.237	206.890	0.094	-0.149
-540.223	40.696	0.081	-0.074
-539.208	-114.758	-0.212	-0.041
-538.193	-149.476	-0.337	0.027
-537.179	117.840	0.062	0.078
-536.164	96.369	0.203	-0.236
-535.150	-161.212	-0.232	-0.012
-534.135	-56.013	-0.168	-0.076
-533.121	-185.586	0.055	-0.001
-532.106	-200.000	0.002	-0.510
-531.091	138.294	0.138	0.183
-530.077	176.388	0.226	-0.333
-529.062	100.659	-0.147	-0.174
-528.048	275.371	0.019	-0.035
-527.033	-200.000	0.012	0.483
-526.018	-46.338	0.176	0.088
-525.004	180.747	0.051	-0.076
-523.989	122.186	-0.150	0.190
-522.975	-26.615	0.086	0.051
-521.960	231.434	-0.128	-0.213
-520.945	-133.099	-0.434	-0.056
-519.931	42.130	0.055	-0.051
-518.916	17.231	0.169	0.136
-517.902	800.000	0.062	0.212
-516.887	-30.197	-0.168	-0.097
-515.872	-200.000	0.039	0.223
-514.858	-101.521	-0.184	0.045
-513.843	-61.587	-0.212	-0.090
-512.829	-200.000	-0.054	-0.267
-511.814	-131.436	-0.356	-0.048
-510.799	-200.000	0.051	-0.269
-509.785	15.366	0.226	-0.180
-508.770	-78.495	-0.136	-0.047
-507.756	125.179	-0.170	-0.217
-506.741	-16.995	-0.260	0.167
-505.726	566.226	-0.028	-0.069
-504.712	-200.000	0.009	0.247
-503.697	43.924	0.096	-0.089
-502.683	101.362	-0.211	-0.249
-501.668	-43.014	0.156	0.080
-500.653	-57.338	-0.280	-0.125
-499.639	-111.036	0.194	-0.040
-498.624	-12.953	-0.353	-0.233
-497.610	378.824	-0.049	-0.101
-496.595	29.771	-0.104	-0.090
-495.581	-200.000	0.075	-0.355
-494.566	-117.831	-0.173	-0.032
-493.551	-81.830	0.221	0.073
-492.537	-200.000	0.024	-0.597
-491.522	-65.693	0.385	-0.156
-490.508	800.000	0.086	0.278
-489.493	-48.995	0.159	-0.077
-488.478	-41.473	0.234	-0.122
-487.464	48.129	-0.245	-0.232
-486.449	-200.000	0.006	-0.317
-485.435	85.486	-0.019	0.021
-484.420	437.301	-0.116	-0.256
-483.405	-186.018	0.312	-0.005
-482.391	146.431	-0.172	-0.234
-481.376	-136.432	0.081	0.010
-480.362	538.777	-0.093	-0.223
-479.347	64.237	-0.157	-0.160
-478.332	-16.755	0.081	-0.052
-477.318	-131.552	0.120	0.016
-476.303	239.353	-0.090	0.151
-475.289	-119.679	0.243	-0.042
-474.274	118.086	-0.096	-0.120
-473.259	145.068	-0.193	0.262
-472.245	-161.368	0.120	0.006
-471.230	-200.000	0.015	-0.103
-470.216	800.000	0.010	0.033
-469.201	-200.000	-0.021	-0.200
-468.186	-200.000	-0.007	0.305
-467.172	97.021	0.190	0.221
-466.157	200.281	0.087	-0.135
-465.143	-44.278	-0.125	0.064
-464.128	35.486	0.268	-0.238
-463.113	800.000	-0.038	0.124
-462.099	-200.000	0.007	0.181
-461.084	-159.956	0.240	0.013
-460.070	-200.000	0.009	-0.102
-459.055	-122.489	-0.179	0.029
-458.040	800.000	-0.057	0.208
-457.026	537.976	0.188	0.451
-456.011	26.640	0.167	0.141
-454.997	800.000	0.059	-0.240
-453.982	-129.418	-0.068	0.010
-452.968	145.341	-0.073	0.099
-451.953	533.066	0.082	0.197
-450.938	237.171	-0.149	0.250
-449.924	102.717	0.305	0.361
-448.909	-166.783	0.048	0.002
-447.895	218.330	-0.268	-0.432
-446.880	-128.766	-0.117	0.017
-445.865	60.194	0.185	0.185
-444.851	494.973	0.107	-0.249
-443.836	-94.743	-0.310	-0.085
-442.822	-46.062	-0.132	-0.066
-441.807	-168.298	-0.195	0.008
-440.792	-92.510	-0.177	-0.050
-439.778	-200.000	0.017	0.103
-438.763	-200.000	0.026	0.282
-437.749	-178.121	0.089	0.002
-436.734	-71.473	-0.163	-0.062
-435.719	63.688	0.328	-0.333
-434.705	800.000	0.063	0.208
-433.690	800.000	-0.033	0.132
-432.676	211.085	-0.051	-0.081
-431.661	164.597	0.156	-0.222
-430.646	-62.147	0.147	-0.062
-429.632	61.361	-0.202	0.203
-428.617	-48.368	0.254	-0.124
-427.603	-200.000	0.035	0.286
-426.588	800.000	0.087	0.256
-425.573	447.462	-0.028	0.063
-424.559	-31.130	-0.398	-0.227
-423.544	-130.514	-0.163	-0.022
-422.530	15.514	-0.162	0.128
-421.515	-52.745	0.154	0.072
-420.500	-121.177	0.366	0.062
-419.486	-85.350	0.069	0.022
-418.471	267.738	0.226	-0.400
-417.457	89.232	0.273	-0.307
-416.442	10.970	0.226	-0.175
-415.428	-200.000	-0.007	0.041
-414.413	-172.747	-0.402	0.013
-413.398	-200.000	0.002	-0.452
-412.384	-200.000	-0.012	0.158
-411.369	275.076	-0.097	-0.173
-410.355	334.187	0.091	0.178
-409.340	178.728	-0.090	-0.132
-408.325	-119.753	-0.303	0.053
-407.311	663.615	0.034	0.088
-406.296	-19.655	-0.308	0.193
-405.282	221.029	-0.052	-0.085
-404.267	800.000	0.076	-0.220
-403.252	80.834	-0.062	-0.068
-402.238	-38.857	0.176	-0.094
-401.223	-75.129	0.437	0.158
-400.209	110.025	0.063	-0.076
-399.194	107.346	0.165	-0.198
-398.179	-200.000	-0.012	-0.099
-397.165	-17.827	-0.119	0.076
-396.150	-91.039	0.067	-0.019
-395.136	800.000	0.084	0.306
-394.121	186.159	-0.042	-0.062
-393.106	86.936	-0.106	0.118
-392.092	-200.000	0.005	-0.245
-391.077	-30.632	-0.045	0.026
-390.063	227.484	0.092	0.151
-389.048	800.000	0.103	0.301
-388.033	277.317	0.037	-0.067
-387.019	255.828	0.165	0.286
-386.004	-139.156	0.331	-0.036
-384.990	-121.454	-0.169	0.028
-383.975	-200.000	0.004	-0.132
-382.960	800.000	-0.025	-0.077
-381.946	-10.054	-0.246	0.165
-380.931	50.167	-0.065	0.062
-379.917	-44.336	-0.402	0.203
-378.902	-200.000	0.008	0.224
-377.888	-200.000	-0.024	-0.373
-376.873	274.799	-0.065	-0.117
-375.858	101.351	0.150	-0.176
-374.844	695.452	0.009	-0.025
-373.829	234.799	-0.143	-0.238
-372.815	160.721	-0.156	-0.219
-371.800	-27.792	-0.379	-0.221
-370.785	-120.312	0.232	0.040
-369.771	-48.901	-0.063	-0.030
-368.756	-200.000	0.003	0.113
-367.742	800.000	-0.050	0.204
-366.727	425.545	-0.064	-0.139
-365.712	-132.324	-0.170	-0.022
-364.698	-157.941	0.170	0.010
-363.683	800.000	-0.169	0.483
-362.669	263.787	0.194	-0.341
-361.654	438.385	0.050	0.110
-360.639	800.000	0.063	0.257
-359.625	74.437	0.318	-0.336
-358.610	-62.191	-0.122	-0.051
-357.596	-62.527	-0.323	0.135
-356.581	726.254	-0.034	0.090
-355.566	-200.000	0.078	-0.360
-354.552	-158.004	0.381	0.023
-353.537	373.534	0.174	0.357
-352.523	-98.116	0.144	0.037
-351.508	145.211	0.077	-0.103
-350.493	83.367	-0.104	0.114
-349.479	-90.961	0.040	0.012
-348.464	800.000	-0.029	-0.098
-347.450	282.841	-0.200	0.362
-346.435	-68.497	0.182	-0.071
-345.420	-11.847	-0.131	-0.087
-344.406	-109.623	0.301	0.064
-343.391	-20.065	0.226	0.140
-342.377	-105.723	0.442	0.101
-341.362	80.287	0.147	0.159
-340.348	113.320	0.019	-0.023
-339.333	176.242	0.092	-0.135
-338.318	552.674	0.104	-0.251
-337.304	-200.000	-0.001	0.068
-336.289	-58.331	-0.195	-0.085
-335.275	-17.593	0.096	0.061
-334.260	263.285	0.235	0.411
-333.245	349.115	0.092	0.183
-332.231	73.021	-0.054	0.057
-331.216	800.000	-0.077	-0.229
-330.202	483.022	-0.113	0.259
-329.187	-200.000	-0.029	0.207
-328.172	-77.907	-0.152	-0.053
-327.158	415.260	-0.088	-0.190
-326.143	284.067	0.211	0.382
-325.129	-144.698	0.156	0.014
-324.114	-96.250	-0.162	-0.043
-323.099	-0.580	0.146	0.105
-322.085	-90.481	-0.314	-0.092
-321.070	-8.514	-0.146	0.099
-320.056	10.253	-0.141	-0.108
-319.041	-5.420	0.071	-0.049
-318.026	225.203	-0.160	0.260
-317.012	-15.779	-0.173	0.111
-315.997	180.813	-0.015	0.022
-314.983	459.145	0.093	0.207
-313.968	-200.000	-0.013	0.094
-312.953	-79.389	-0.360	-0.123
-311.939	351.842	-0.022	-0.043
-310.924	-31.954	0.180	0.101
-309.910	-179.888	0.280	-0.006
-308.895	331.376	-0.060	0.116
-307.880	46.942	0.173	-0.162
-306.866	-102.694	0.056	0.013
-305.851	-148.756	-0.017	0.001
-304.837	69.593	0.165	0.171
-303.822	19.125	0.171	-0.138
-302.807	-45.372	0.329	0.164
-301.793	-112.042	0.239	-0.048
-300.778	457.279	0.165	0.369
-299.764	-66.040	-0.288	0.116
-298.749	-140.812	-0.127	-0.013
-297.735	-200.000	0.017	0.173
-296.720	-25.557	-0.260	-0.154
-295.705	12.902	0.052	-0.040
-294.691	203.806	0.089	-0.138
-293.676	-200.000	0.100	0.505
-292.662	-31.670	-0.083	-0.047
-291.647	-200.000	-0.025	-0.201
-290.632	179.609	0.156	-0.230
-289.618	-104.841	-0.201	-0.046
-288.603	-119.999	-0.109	-0.019
-287.589	174.326	0.027	-0.040
-286.574	212.458	0.073	0.116
-285.559	83.168	0.077	0.084
-284.545	242.259	0.106	0.177
-283.530	-53.839	-0.209	0.096
-282.516	153.242	-0.095	0.130
-281.501	296.676	-0.044	-0.082
-280.486	363.338	0.055	0.111
-279.472	-200.000	0.027	0.162
-278.457	413.308	-0.062	-0.133
-277.443	-115.667	0.189	0.036
-276.428	-178.576	0.234	0.005
-275.413	-18.285	-0.335	0.210
-274.399	172.057	0.114	0.164
-273.384	340.929	-0.046	-0.091
-272.370	-68.740	-0.072	0.028
-271.355	264.885	-0.142	-0.248
-270.340	-6.932	-0.337	-0.230
-269.326	-122.156	0.109	0.018
-268.311	800.000	0.063	-0.223
-267.297	-200.000	0.081	0.407
-266.282	-92.250	-0.170	-0.048
-265.267	800.000	0.041	-0.134
-264.253	225.712	-0.092	-0.150
-263.238	210.610	-0.112	-0.176
-262.224	390.765	-0.070	-0.146
-261.209	800.000	-0.078	-0.218
-260.195	72.740	-0.154	-0.161
-259.180	230.300	-0.171	-0.281
-258.165	-29.921	0.389	0.222
-257.151	-65.365	0.141	0.057
-256.136	-83.767	0.167	-0.053
-255.122	800.000	0.050	0.151
-254.107	-134.439	0.027	0.003
-253.092	102.716	-0.189	0.222
-252.078	167.251	-0.036	-0.051
-251.063	4.900	-0.249	0.184
-250.049	-18.965	-0.037	0.023
-249.034	217.079	0.102	-0.163
-248.019	45.416	-0.087	0.081
-247.005	-15.738	-0.363	0.232
-245.990	-34.693	0.189	-0.104
-244.976	-4.478	-0.268	0.186
-243.961	-200.000	0.024	0.312
-242.946	-50.524	-0.096	0.045
-241.932	330.779	-0.089	0.172
-240.917	-154.551	-0.320	-0.021
-239.903	61.579	-0.050	-0.050
-238.888	535.759	-0.029	0.069
-237.873	10.951	0.082	0.063
-236.859	-170.352	-0.326	0.011
-235.844	14.383	0.098	-0.076
-234.830	794.465	0.105	-0.289
-233.815	134.771	0.282	-0.366
-232.800	-135.431	0.126	-0.015
-231.786	20.136	-0.284	-0.230
-230.771	117.614	0.205	0.253
-229.757	-91.145	-0.465	-0.134
-228.742	-56.148	0.077	0.034
-227.727	133.466	0.058	-0.075
-226.713	-200.000	0.002	-0.090
-225.698	-98.067	-0.341	-0.088
-224.684	15.753	0.119	0.093
-223.669	-108.623	0.153	0.033
-222.655	-154.867	-0.207	0.014
-221.640	21.016	-0.348	0.283
-220.625	44.971	0.216	0.199
-219.611	122.607	0.199	-0.250
-218.596	800.000	-0.094	-0.287
-217.582	-151.967	-0.114	-0.008
-216.567	138.214	-0.220	0.289
-215.552	-200.000	-0.056	0.250
-214.538	755.381	-0.072	-0.195
-213.523	-200.000	0.014	-0.239
-212.509	-27.330	0.068	-0.039
-211.494	-129.368	0.252	0.035
-210.479	34.768	-0.098	-0.086
-209.465	-200.000	0.014	-0.169
-208.450	-122.026	-0.193	-0.032
-207.436	583.025	0.126	-0.309
-206.421	-29.088	0.171	-0.098
-205.406	-50.720	-0.089	-0.042
-204.392	73.614	0.354	-0.371
-203.377	11.059	0.202	-0.154
-202.363	117.062	-0.125	-0.153
-201.348	477.767	-0.189	0.428
-200.333	-184.321	0.349	-0.006
-199.319	-132.648	0.140	-0.018
-198.304	800.000	0.082	-0.231
-197.290	-200.000	-0.046	0.260
-196.275	-62.340	0.133	-0.055
-195.260	-160.353	0.095	0.005
-194.246	-78.582	0.368	-0.126
-193.231	-149.913	-0.279	-0.022
-192.217	800.000	0.049	0.152
-191.202	-12.658	-0.240	0.157
-190.187	-200.000	-0.005	0.036
-189.173	133.767	-0.186	-0.241
-188.158	-133.829	-0.078	-0.010
-187.144	800.000	0.034	0.118
-186.129	-200.000	0.007	-0.274
-185.114	-152.953	-0.144	0.010
-184.100	646.898	-0.102	0.262
-183.085	800.000	-0.041	0.143
-182.071	-73.560	-0.085	0.031
-181.056	-90.872	0.183	-0.053
-180.042	-156.780	0.025	0.002
-179.027	-9.159	0.317	0.212
-178.012	-51.340	-0.139	0.065
-176.998	465.559	-0.137	0.306
-175.983	466.670	-0.036	0.081
-174.969	-47.566	-0.164	-0.080
-173.954	33.140	-0.100	-0.087
-172.939	-103.245	-0.158	-0.037
-171.925	800.000	-0.100	0.279
-170.910	-116.953	-0.150	-0.028
-169.896	-87.900	0.111	0.033
-168.881	-70.274	0.077	-0.029
-167.866	42.687	-0.075	0.068
-166.852	-139.344	0.242	-0.026
-165.837	-160.819	0.461	0.024
-164.823	291.833	-0.100	-0.182
-163.808	800.000	0.071	0.230
-162.793	-200.000	0.025	-0.371
-161.779	-163.233	0.432	-0.021
-160.764	727.674	-0.058	0.155
-159.750	-7.496	-0.041	0.028
-158.735	24.884	0.135	0.111
-157.720	18.036	0.154	-0.123
-156.706	88.698	-0.287	0.319
-155.691	-158.918	-0.291	-0.017
-154.677	491.566	-0.106	0.242
-153.662	-200.000	0.000	-0.197
-152.647	-162.085	-0.090	-0.005
-151.633	-200.000	0.005	0.255
-150.618	683.586	0.100	-0.261
-149.604	86.820	0.044	0.049
-148.589	-15.276	0.238	0.152
-147.574	59.113	-0.194	-0.191
-146.560	800.000	-0.110	0.344
-145.545	222.859	0.067	-0.108
-144.531	-121.187	-0.265	-0.044
-143.516	-84.379	0.136	-0.043
-142.502	-104.385	-0.190	-0.044
-141.487	236.204	-0.091	0.150
-140.472	-12.202	0.114	0.075
-139.458	272.329	-0.088	0.155
-138.443	224.234	-0.079	0.127
-137.429	6.311	0.066	0.049
-136.414	-102.530	-0.486	-0.116
-135.399	439.548	0.109	-0.238
-134.385	13.109	-0.151	-0.117
-133.370	-200.000	-0.047	-0.615
-132.356	31.979	-0.328	0.283
-131.341	800.000	0.079	0.334
-130.326	-98.193	-0.041	0.010
-129.312	-31.668	0.027	-0.015
-128.297	-168.853	0.167	-0.006
-127.283	213.123	0.008	-0.013
-126.268	546.440	-0.028	0.067
-125.253	97.897	-0.087	-0.100
-124.239	27.137	-0.267	0.224
-123.224	800.000	0.057	-0.217
-122.210	141.235	0.159	-0.210
-121.195	800.000	-0.052	0.152
