DTS Sentinel unit serial number:	SN413079Multiplexer serial number:	ORYXHardware model number:	OX4-SRSoftware version number:	ORYX F/W v4.00 Oryx Data Collector v3.7.2.0data status	okinstallation	princeton_trtdifferential loss correction	single-endedforward channel	channel 4reverse channel	N/Adate	2019/09/18time	00:17:35forward acquisition time	60.00reverse acquisition time	0.00gamma	496.2192k internal	0.2334k external	0.2334temperature offset calibration	0.9997default loss term (dB/km)	0.3790temperature slope calibration	1.0000multiplexer offset coefficient	1.0000multiplexer slope coefficient	1.0000fibre end	0.00T internal ref (°C)	23.67T ext. ref 1 (°C)	0.17T ext. ref 2 (°C)	17.13length (m)	temperature (°C)	Stokes	anti-Stokes-747.200	87.483	-0.054	0.061
-746.185	-87.012	-0.319	0.098
-745.171	-200.000	-0.010	-0.181
-744.156	-61.464	-0.455	-0.192
-743.142	23.663	0.254	-0.210
-742.127	-200.000	-0.070	0.350
-741.112	800.000	0.092	0.291
-740.098	-55.084	-0.042	0.019
-739.083	264.263	0.174	0.305
-738.069	-4.733	0.044	0.031
-737.054	-32.249	0.093	0.052
-736.039	800.000	0.119	-0.433
-735.025	-200.000	-0.011	0.101
-734.010	-200.000	0.008	-0.203
-732.996	33.221	-0.330	0.288
-731.981	-57.592	0.319	0.141
-730.966	46.935	-0.152	0.142
-729.952	175.253	-0.079	-0.115
-728.937	-75.375	0.100	-0.036
-727.923	-111.572	-0.270	-0.055
-726.908	322.023	-0.031	-0.059
-725.894	26.828	-0.146	-0.123
-724.879	-60.742	0.414	0.176
-723.864	-5.771	-0.129	0.089
-722.850	800.000	0.051	-0.168
-721.835	-200.000	-0.101	-0.542
-720.821	50.131	0.104	-0.099
-719.806	131.534	-0.083	0.107
-718.791	96.156	-0.370	-0.425
-717.777	-200.000	-0.026	-0.446
-716.762	596.342	0.085	-0.210
-715.748	56.840	0.419	-0.410
-714.733	468.332	0.074	-0.167
-713.718	296.929	-0.077	0.142
-712.704	-0.389	0.352	0.251
-711.689	154.836	0.228	-0.315
-710.675	800.000	0.075	-0.217
-709.660	-200.000	0.085	-0.456
-708.645	-116.420	0.236	0.044
-707.631	546.035	-0.047	0.114
-706.616	-11.446	-0.171	0.113
-705.602	-29.269	0.105	-0.060
-704.587	538.496	-0.050	-0.120
-703.572	336.691	0.064	0.125
-702.558	-95.129	0.269	-0.073
-701.543	-200.000	-0.031	-0.198
-700.529	-200.000	-0.032	-0.277
-699.514	-54.249	-0.145	-0.066
-698.499	179.377	-0.143	-0.210
-697.485	146.260	-0.191	-0.258
-696.470	-168.963	0.216	0.008
-695.456	224.329	-0.101	-0.164
-694.441	559.185	-0.038	0.092
-693.426	800.000	0.076	0.253
-692.412	-109.287	-0.342	-0.073
-691.397	-62.929	-0.185	0.077
-690.383	-170.232	-0.179	0.006
-689.368	-200.000	0.020	-0.329
-688.354	186.958	0.437	0.654
-687.339	351.561	-0.064	-0.128
-686.324	-200.000	0.059	0.315
-685.310	535.641	-0.068	-0.161
-684.295	-57.732	-0.081	-0.036
-683.281	-64.352	0.157	0.064
-682.266	128.389	-0.150	0.192
-681.251	-87.799	-0.255	-0.077
-680.237	-69.046	0.065	-0.025
-679.222	-200.000	0.015	0.252
-678.208	-200.000	0.013	0.317
-677.193	-135.107	0.212	0.026
-676.178	53.615	-0.238	0.229
-675.164	130.711	0.082	-0.105
-674.149	-110.829	-0.370	0.076
-673.135	-8.475	0.049	0.033
-672.120	-200.000	-0.004	-0.138
-671.105	-108.349	-0.289	-0.062
-670.091	-200.000	-0.006	-0.311
-669.076	311.803	-0.118	-0.222
-668.062	-5.693	-0.069	-0.047
-667.047	383.701	-0.169	0.348
-666.032	-23.005	-0.128	-0.077
-665.018	499.518	-0.090	-0.208
-664.003	-103.915	-0.333	-0.078
-662.989	20.609	-0.102	-0.083
-661.974	-200.000	-0.044	-0.287
-660.959	-117.670	0.092	0.017
-659.945	1.637	-0.311	0.225
-658.930	-28.924	0.105	-0.060
-657.916	-114.203	-0.136	-0.026
-656.901	65.664	-0.117	-0.119
-655.886	331.512	-0.090	-0.174
-654.872	115.148	-0.187	0.228
-653.857	-126.747	0.478	-0.071
-652.843	-138.249	-0.315	-0.035
-651.828	109.086	-0.199	0.239
-650.814	67.427	0.214	0.219
-649.799	440.658	0.111	-0.244
-648.784	-38.502	-0.284	-0.150
-647.770	-117.992	0.117	0.021
-646.755	800.000	0.053	0.178
-645.741	-98.630	0.177	-0.045
-644.726	-103.489	-0.130	-0.031
-643.711	-137.106	-0.262	0.030
-642.697	10.475	0.395	-0.301
-641.682	12.261	-0.116	0.089
-640.668	-109.396	-0.086	0.018
-639.653	-85.192	-0.151	0.047
-638.638	-131.253	-0.232	-0.031
-637.624	174.327	0.147	-0.213
-636.609	-200.000	-0.041	0.253
-635.595	-37.421	0.238	0.127
-634.580	-200.000	-0.012	-0.125
-633.565	52.749	-0.144	-0.138
-632.551	0.125	-0.132	-0.094
-631.536	-200.000	-0.006	-0.235
-630.522	-200.000	0.039	-0.331
-629.507	141.901	0.066	0.087
-628.492	136.760	-0.229	0.300
-627.478	-153.018	0.242	-0.017
-626.463	28.576	-0.202	0.171
-625.449	800.000	-0.057	-0.213
-624.434	-200.000	0.039	-0.326
-623.419	227.191	-0.092	0.150
-622.405	-100.657	-0.248	-0.061
-621.390	-45.087	0.163	-0.081
-620.376	576.008	-0.104	0.254
-619.361	-42.302	0.319	0.163
-618.346	28.857	0.220	0.186
-617.332	-84.773	-0.262	0.082
-616.317	-189.498	0.363	0.004
-615.303	-151.405	-0.191	0.014
-614.288	-50.554	0.531	0.250
-613.273	119.198	-0.237	0.293
-612.259	-138.512	-0.017	-0.002
-611.244	-179.093	-0.273	-0.006
-610.230	147.508	-0.182	-0.246
-609.215	526.464	0.142	-0.334
-608.201	202.456	-0.059	-0.091
-607.186	800.000	0.147	-0.532
-606.171	-200.000	-0.010	-0.357
-605.157	668.125	-0.032	-0.083
-604.142	800.000	0.188	0.619
-603.128	420.704	0.159	-0.340
-602.113	-96.838	-0.201	-0.053
-601.098	361.377	-0.044	0.088
-600.084	-81.670	-0.315	-0.103
-599.069	728.677	-0.078	0.209
-598.055	-67.005	0.330	-0.130
-597.040	621.289	-0.126	-0.316
-596.025	114.581	-0.215	0.262
-595.011	-95.517	0.138	-0.037
-593.996	-91.233	0.040	-0.011
-592.982	3.071	0.171	-0.125
-591.967	263.167	-0.067	0.116
-590.952	60.936	-0.324	0.321
-589.938	-200.000	-0.000	0.113
-588.923	346.570	0.047	0.092
-587.909	-51.064	0.342	0.160
-586.894	-200.000	0.012	0.335
-585.879	76.220	-0.243	-0.257
-584.865	126.030	0.104	0.131
-583.850	-18.409	-0.078	0.049
-582.836	-17.270	0.280	0.176
-581.821	-119.330	0.260	0.045
-580.806	-38.147	0.292	0.155
-579.792	-67.848	0.243	-0.095
-578.777	-71.161	0.122	-0.046
-577.763	3.864	-0.123	-0.090
-576.748	800.000	-0.066	-0.277
-575.733	93.523	0.067	-0.076
-574.719	440.621	0.118	-0.257
-573.704	-130.066	-0.166	0.023
-572.690	102.641	-0.086	-0.101
-571.675	-64.597	0.108	-0.044
-570.661	800.000	-0.082	-0.235
-569.646	-200.000	-0.038	0.356
-568.631	-146.861	0.286	0.025
-567.617	-47.822	0.078	0.038
-566.602	800.000	0.013	0.040
-565.588	358.259	0.068	0.136
-564.573	-200.000	0.047	0.270
-563.558	-200.000	-0.017	-0.132
-562.544	-200.000	0.014	-0.270
-561.529	-101.071	0.257	0.063
-560.515	-98.081	-0.104	0.027
-559.500	-200.000	-0.029	0.253
-558.485	22.831	-0.120	0.098
-557.471	71.206	0.170	0.176
-556.456	239.279	0.099	0.164
-555.442	-59.952	-0.028	-0.012
-554.427	-154.092	-0.061	0.004
-553.412	-169.150	-0.266	0.010
-552.398	-184.660	-0.090	0.001
-551.383	-108.921	-0.375	-0.080
-550.369	-44.391	-0.321	0.160
-549.354	517.951	0.099	0.231
-548.339	-116.288	0.370	-0.068
-547.325	203.642	-0.124	0.192
-546.310	-95.027	0.267	-0.072
-545.296	108.680	-0.158	-0.188
-544.281	-22.856	0.021	0.013
-543.266	-200.000	-0.046	0.248
-542.252	-8.885	-0.238	-0.159
-541.237	-115.414	0.223	0.042
-540.223	94.576	0.266	-0.301
-539.208	-88.280	0.398	-0.119
-538.193	141.608	0.048	-0.063
-537.179	-8.045	0.239	0.160
-536.164	-136.491	0.185	-0.021
-535.150	-69.146	-0.375	-0.144
-534.135	-200.000	0.009	-0.267
-533.121	-43.208	-0.096	0.048
-532.106	724.348	-0.102	0.271
-531.091	220.846	-0.124	0.199
-530.077	-1.462	0.068	0.048
-529.062	137.658	0.122	-0.160
-528.048	-154.767	-0.512	-0.034
-527.033	398.411	0.021	-0.043
-526.018	-200.000	-0.011	0.125
-525.004	-200.000	-0.042	0.194
-523.989	-6.639	-0.362	-0.246
-522.975	104.053	-0.265	0.311
-521.960	-55.034	-0.139	-0.062
-520.945	303.360	0.019	-0.036
-519.931	800.000	-0.056	-0.182
-518.916	11.854	0.155	0.119
-517.902	571.652	0.095	0.231
-516.887	85.019	0.125	0.137
-515.872	-200.000	-0.098	-0.662
-514.858	-93.396	-0.162	-0.045
-513.843	80.192	-0.147	0.158
-512.829	-200.000	-0.070	0.380
-511.814	-33.447	-0.057	-0.032
-510.799	-111.489	0.404	0.082
-509.785	-200.000	0.018	-0.350
-508.770	800.000	-0.075	-0.312
-507.756	-163.788	0.339	0.016
-506.741	800.000	-0.079	-0.336
-505.726	-54.012	-0.108	-0.049
-504.712	-170.600	0.264	-0.009
-503.697	-142.102	-0.357	-0.035
-502.683	623.869	-0.110	-0.276
-501.668	360.504	-0.106	-0.211
-500.653	122.517	0.134	-0.167
-499.639	479.068	-0.117	0.264
-498.624	76.660	0.188	0.199
-497.610	123.203	-0.320	0.399
-496.595	-52.154	-0.364	-0.168
-495.581	-68.226	0.257	0.100
-494.566	11.990	0.233	-0.178
-493.551	800.000	-0.061	0.247
-492.537	4.757	0.088	-0.064
-491.522	100.728	-0.109	0.126
-490.508	-116.785	-0.216	-0.040
-489.493	800.000	0.044	0.137
-488.478	171.185	-0.086	-0.123
-487.464	160.764	-0.134	0.186
-486.449	-187.273	-0.335	-0.005
-485.435	-76.384	0.476	0.167
-484.420	-33.173	-0.247	0.136
-483.405	800.000	0.068	0.292
-482.391	155.420	-0.072	0.099
-481.376	800.000	0.096	-0.309
-480.362	-102.302	-0.112	0.027
-479.347	-200.000	-0.026	0.196
-478.332	119.197	-0.173	-0.212
-477.318	800.000	-0.006	0.026
-476.303	-200.000	-0.030	-0.291
-475.289	83.488	-0.168	0.182
-474.274	-200.000	-0.005	0.054
-473.259	-112.961	0.383	-0.075
-472.245	-80.037	0.419	-0.140
-471.230	-88.179	-0.125	0.037
-470.216	-200.000	-0.015	0.166
-469.201	34.521	0.051	0.044
-468.186	800.000	0.062	-0.213
-467.172	324.911	0.044	-0.083
-466.157	-87.017	-0.103	-0.031
-465.143	58.580	-0.116	0.113
-464.128	-49.844	-0.133	-0.063
-463.113	-200.000	-0.018	-0.167
-462.099	91.264	0.079	-0.089
-461.084	236.800	-0.091	-0.151
-460.070	88.161	0.193	0.213
-459.055	732.108	-0.256	-0.680
-458.040	800.000	0.070	0.222
-457.026	800.000	0.042	0.131
-456.011	-181.927	-0.106	0.002
-454.997	140.912	-0.174	-0.228
-453.982	-73.775	-0.199	-0.072
-452.968	-147.547	0.286	0.024
-451.953	-77.601	0.069	0.024
-450.938	-127.950	-0.144	0.021
-449.924	-25.066	0.311	-0.183
-448.909	-66.471	-0.062	-0.024
-447.895	-181.877	0.137	-0.003
-446.880	284.723	-0.167	-0.298
-445.865	-128.314	-0.251	0.036
-444.851	88.020	0.275	0.303
-443.836	-200.000	0.005	-0.295
-442.822	-145.728	-0.127	0.011
-441.807	-200.000	-0.040	-0.251
-440.792	-82.204	0.265	0.086
-439.778	800.000	0.049	-0.169
-438.763	800.000	-0.098	-0.327
-437.749	-200.000	-0.000	-0.110
-436.734	-200.000	0.031	-0.162
-435.719	-200.000	0.029	-0.316
-434.705	-9.048	0.310	-0.206
-433.690	631.612	0.094	0.238
-432.676	-26.191	-0.142	0.083
-431.661	800.000	-0.036	0.108
-430.646	171.013	-0.065	0.092
-429.632	45.312	0.146	-0.134
-428.617	-200.000	-0.011	-0.162
-427.603	-131.431	-0.138	-0.018
-426.588	190.034	-0.155	-0.232
-425.573	151.234	0.211	-0.285
-424.559	-115.716	0.528	0.098
-423.544	-83.854	0.199	-0.063
-422.530	201.661	0.081	-0.124
-421.515	-85.466	0.087	-0.027
-420.500	-145.239	0.164	-0.015
-419.486	221.626	0.120	0.191
-418.471	-200.000	-0.011	0.082
-417.457	232.009	-0.043	0.070
-416.442	223.262	0.213	0.341
-415.428	-103.192	-0.125	0.029
-414.413	-22.341	-0.062	0.037
-413.398	-14.849	0.228	0.145
-412.384	-200.000	0.022	0.200
-411.369	-145.874	-0.209	0.018
-410.355	-89.570	0.040	-0.012
-409.340	-143.829	-0.162	-0.015
-408.325	-200.000	-0.003	-0.150
-407.311	-200.000	0.066	-0.289
-406.296	248.477	-0.158	0.266
-405.282	800.000	-0.127	0.381
-404.267	52.097	0.053	-0.050
-403.252	-200.000	-0.039	0.282
-402.238	75.635	0.214	0.224
-401.223	99.037	0.112	0.128
-400.209	-4.020	-0.093	0.064
-399.194	738.134	0.045	-0.120
-398.179	-200.000	0.013	0.135
-397.165	74.621	0.224	0.233
-396.150	-15.215	0.339	-0.215
-395.136	-11.332	-0.228	0.149
-394.121	-104.501	-0.047	0.011
-393.106	-200.000	-0.001	-0.066
-392.092	-114.951	0.448	0.085
-391.077	-111.285	0.153	-0.031
-390.063	800.000	-0.051	-0.170
-389.048	800.000	0.008	-0.027
-388.033	144.088	-0.187	0.247
-387.019	-146.675	-0.199	-0.017
-386.004	16.958	0.220	0.173
-384.990	-12.578	-0.162	0.105
-383.975	-62.209	0.148	0.061
-382.960	45.813	-0.187	-0.171
-381.946	337.474	0.084	-0.161
-380.931	-200.000	-0.000	0.150
-379.917	800.000	-0.102	0.343
-378.902	26.645	0.089	0.074
-377.888	800.000	0.055	0.209
-376.873	141.231	0.008	-0.010
-375.858	-21.800	-0.246	0.148
-374.844	191.671	0.113	0.169
-373.829	-62.035	-0.207	-0.086
-372.815	73.908	-0.060	0.062
-371.800	127.267	0.062	0.078
-370.785	266.561	0.252	0.436
-369.771	-106.648	0.065	0.014
-368.756	-200.000	0.022	-0.168
-367.742	165.027	-0.148	0.207
-366.727	-56.535	-0.281	0.124
-365.712	253.213	0.142	-0.239
-364.698	122.147	-0.135	-0.167
-363.683	15.138	0.067	-0.052
-362.669	-200.000	-0.024	0.282
-361.654	562.542	0.096	-0.230
-360.639	575.403	-0.126	-0.304
-359.625	15.993	-0.256	0.199
-358.610	-34.472	0.156	-0.085
-357.596	-137.642	-0.360	0.040
-356.581	-66.590	-0.215	0.085
-355.566	19.550	-0.278	0.221
-354.552	56.569	0.229	-0.220
-353.537	127.172	-0.418	0.525
-352.523	145.149	-0.066	0.087
-351.508	183.855	-0.132	-0.194
-350.493	-161.469	0.167	0.009
-349.479	-200.000	-0.043	0.259
-348.464	251.326	-0.079	-0.133
-347.450	-200.000	0.064	0.434
-346.435	-200.000	0.001	0.020
-345.420	-66.960	-0.301	-0.118
-344.406	112.993	0.088	-0.105
-343.391	97.922	-0.211	-0.240
-342.377	-148.895	0.368	-0.029
-341.362	-59.733	-0.036	0.015
-340.348	-83.082	-0.091	-0.029
-339.333	-67.693	0.358	0.139
-338.318	-142.322	0.110	-0.011
-337.304	-159.761	0.161	-0.009
-336.289	-90.512	0.228	-0.065
-335.275	-200.000	-0.017	-0.152
-334.260	-200.000	-0.013	0.101
-333.245	-92.856	0.143	-0.040
-332.231	800.000	-0.079	0.235
-331.216	344.054	-0.125	0.243
-330.202	-47.259	0.315	0.152
-329.187	800.000	-0.048	0.195
-328.172	800.000	0.042	0.142
-327.158	-200.000	0.042	0.227
-326.143	-20.281	0.313	-0.190
-325.129	101.111	0.056	0.064
-324.114	-36.384	-0.280	-0.149
-323.099	420.355	0.232	-0.492
-322.085	96.550	-0.109	-0.123
-321.070	-28.251	0.179	0.102
-320.056	-200.000	-0.024	0.162
-319.041	-98.701	-0.259	-0.065
-318.026	-200.000	-0.014	0.123
-317.012	800.000	-0.124	0.379
-315.997	378.780	-0.214	0.433
-314.983	66.159	-0.103	0.103
-313.968	-82.947	-0.250	0.080
-312.953	800.000	0.045	0.153
-311.939	-116.746	0.140	-0.025
-310.924	-200.000	0.021	0.176
-309.910	99.834	-0.257	0.295
-308.895	305.543	0.104	0.190
-307.880	-37.542	-0.261	-0.137
-306.866	65.717	0.112	0.112
-305.851	-133.978	-0.116	0.014
-304.837	112.365	0.062	0.074
-303.822	679.842	-0.110	0.282
-302.807	-200.000	-0.051	0.246
-301.793	-200.000	0.016	-0.182
-300.778	-200.000	-0.003	-0.325
-299.764	-161.921	0.182	-0.009
-298.749	-200.000	-0.015	-0.215
-297.735	-2.328	-0.128	-0.089
-296.720	-127.836	-0.298	0.042
-295.705	40.695	0.435	0.387
-294.691	21.787	-0.136	0.109
-293.676	-200.000	0.084	-0.474
-292.662	-200.000	-0.032	0.235
-291.647	114.967	0.112	0.134
-290.632	-18.700	0.227	0.140
-289.618	800.000	-0.035	0.125
-288.603	180.785	-0.151	0.219
-287.589	-109.787	0.084	0.017
-286.574	800.000	0.023	-0.092
-285.559	-155.933	0.315	0.020
-284.545	-5.722	0.167	-0.113
-283.530	89.398	0.155	-0.170
-282.516	143.777	-0.142	-0.187
-281.501	-200.000	-0.005	0.056
-280.486	-64.234	0.196	0.079
-279.472	-62.854	-0.290	-0.119
-278.457	44.060	-0.105	-0.095
-277.443	-38.400	-0.189	0.099
-276.428	800.000	-0.050	-0.198
-275.413	-139.020	-0.173	0.018
-274.399	17.069	0.155	0.122
-273.384	800.000	0.054	0.158
-272.370	545.603	0.223	0.527
-271.355	113.603	0.291	0.349
-270.340	-77.091	-0.213	-0.073
-269.326	-98.313	-0.099	0.025
-268.311	13.182	0.177	-0.135
-267.297	-200.000	0.021	-0.294
-266.282	-9.977	0.339	-0.222
-265.267	259.894	0.129	0.220
-264.253	-149.724	-0.337	-0.026
-263.238	800.000	0.064	-0.233
-262.224	-200.000	-0.081	-0.446
-261.209	-129.035	-0.303	0.042
-260.195	290.821	0.168	-0.302
-259.180	-172.057	0.095	0.003
-258.165	-200.000	0.031	-0.136
-257.151	63.145	0.148	-0.146
-256.136	75.930	0.029	-0.031
-255.122	-62.575	0.222	0.091
-254.107	-107.608	-0.373	0.080
-253.092	-200.000	-0.078	-0.469
-252.078	-58.620	-0.171	-0.073
-251.063	-41.493	0.361	-0.183
-250.049	-200.000	0.022	0.356
-249.034	800.000	-0.104	-0.297
-248.019	21.908	0.239	-0.192
-247.005	464.565	-0.124	-0.273
-245.990	121.002	-0.109	0.134
-244.976	-105.538	0.469	0.105
-243.961	-55.113	-0.100	0.044
-242.946	226.203	0.239	0.382
-241.932	375.181	0.062	-0.124
-240.917	225.932	0.146	-0.233
-239.903	-96.651	-0.169	-0.044
-238.888	-68.353	0.350	0.134
-237.873	142.542	0.089	0.116
-236.859	-24.040	-0.207	0.122
-235.844	-133.771	0.262	-0.032
-234.830	-132.965	-0.247	0.031
-233.815	-62.110	-0.192	-0.079
-232.800	433.546	-0.100	-0.214
-231.786	121.056	0.097	-0.119
-230.771	-200.000	-0.010	0.243
-229.757	300.953	0.036	0.065
-228.742	-200.000	0.003	-0.113
-227.727	719.205	0.019	-0.051
-226.713	-200.000	0.057	-0.258
-225.698	662.744	-0.185	-0.469
-224.684	170.873	-0.262	-0.369
-223.669	800.000	-0.124	0.361
-222.655	-200.000	0.003	0.277
-221.640	134.502	0.091	0.117
-220.625	-47.391	0.257	0.123
-219.611	-136.906	-0.096	-0.011
-218.596	224.060	0.021	-0.033
-217.582	-76.249	0.291	0.101
-216.567	-61.320	0.122	0.050
-215.552	-200.000	-0.046	0.248
-214.538	-16.872	0.122	0.076
-213.523	13.791	0.281	0.215
-212.509	-105.845	-0.033	-0.007
-211.494	498.901	-0.043	0.097
-210.479	80.217	-0.037	-0.039
-209.465	-138.729	-0.217	0.023
-208.450	-113.349	0.185	0.036
-207.436	445.088	-0.053	-0.114
-206.421	-147.759	-0.330	0.027
-205.406	-146.142	0.102	0.009
-204.392	-129.169	-0.417	0.057
-203.377	-16.168	0.276	0.172
-202.363	-200.000	0.017	-0.091
-201.348	-94.960	-0.264	-0.070
-200.333	800.000	0.057	-0.195
-199.319	152.181	0.140	-0.188
-198.304	800.000	0.052	-0.183
-197.290	48.633	0.179	-0.165
-196.275	-200.000	-0.004	0.270
-195.260	-0.819	0.061	0.043
-194.246	-149.118	-0.298	-0.023
-193.231	-66.203	0.199	-0.078
-192.217	800.000	-0.030	-0.119
-191.202	-200.000	0.002	-0.165
-190.187	26.768	-0.101	0.084
-189.173	198.840	0.156	-0.234
-188.158	-200.000	0.076	-0.392
-187.144	69.437	0.176	0.179
-186.129	-91.444	0.322	0.090
-185.114	-200.000	-0.019	-0.336
-184.100	-200.000	-0.042	-0.262
-183.085	488.073	-0.093	-0.208
-182.071	800.000	-0.134	0.399
-181.056	50.885	-0.166	0.155
-180.042	-5.626	0.196	-0.132
-179.027	192.092	0.020	-0.030
-178.012	-200.000	0.003	-0.169
-176.998	127.775	-0.243	-0.303
-175.983	45.742	-0.061	-0.055
-174.969	235.329	-0.222	0.361
-173.954	-3.117	-0.251	-0.172
-172.939	-61.707	-0.125	0.051
-171.925	-200.000	0.000	-0.064
-170.910	129.934	0.244	-0.306
-169.896	800.000	0.067	0.262
-168.881	-110.557	0.270	-0.055
-167.866	-200.000	-0.013	-0.290
-166.852	-200.000	0.028	0.242
-165.837	11.159	0.086	-0.065
-164.823	140.649	-0.083	-0.108
-163.808	182.905	-0.176	-0.255
-162.793	-166.628	0.101	0.004
-161.779	-119.180	-0.133	0.023
-160.764	-41.261	0.142	0.072
-159.750	-114.443	-0.427	0.081
-158.735	14.082	-0.381	-0.292
-157.720	-33.216	0.224	-0.122
-156.706	-133.428	-0.158	-0.019
-155.691	32.063	-0.267	0.226
-154.677	-99.093	-0.376	0.093
-153.662	15.247	-0.021	-0.017
-152.647	174.280	-0.084	-0.120
-151.633	-4.957	-0.174	0.118
-150.618	-115.998	0.367	0.067
-149.604	-200.000	-0.031	-0.174
-148.589	-117.218	0.371	0.066
-147.574	490.440	-0.058	0.129
-146.560	-186.184	-0.148	-0.002
-145.545	49.169	-0.120	-0.111
-144.531	85.757	-0.130	-0.141
-143.516	330.254	-0.191	0.361
-142.502	-19.201	0.175	0.107
-141.487	-200.000	-0.024	0.203
-140.472	391.501	-0.097	-0.199
-139.458	3.752	0.288	-0.206
-138.443	129.805	0.262	-0.329
-137.429	605.605	0.093	-0.228
-136.414	53.769	0.177	-0.167
-135.399	-87.113	-0.216	-0.064
-134.385	-128.944	0.203	0.028
-133.370	-75.635	-0.346	-0.121
-132.356	193.084	0.266	0.395
-131.341	-200.000	0.002	-0.477
-130.326	-121.484	-0.225	0.037
-129.312	-200.000	0.032	-0.190
-128.297	-86.375	-0.600	0.181
-127.283	-18.457	-0.038	-0.023
-126.268	-26.466	0.106	-0.061
-125.253	48.963	0.195	0.180
-124.239	800.000	-0.043	-0.184
-123.224	-15.902	0.138	0.086
