DTS Sentinel unit serial number:	SN413079Multiplexer serial number:	ORYXHardware model number:	OX4-SRSoftware version number:	ORYX F/W v4.00 Oryx Data Collector v3.7.2.0data status	okinstallation	princeton_trtdifferential loss correction	single-endedforward channel	channel 4reverse channel	N/Adate	2019/09/15time	20:17:35forward acquisition time	60.00reverse acquisition time	0.00gamma	496.2192k internal	0.2311k external	0.2311temperature offset calibration	0.9931default loss term (dB/km)	0.3790temperature slope calibration	1.0000multiplexer offset coefficient	1.0000multiplexer slope coefficient	1.0000fibre end	0.00T internal ref (°C)	34.33T ext. ref 1 (°C)	7.71T ext. ref 2 (°C)	25.54length (m)	temperature (°C)	Stokes	anti-Stokes-747.200	-27.703	0.519	0.306
-746.185	-42.841	-0.273	0.141
-745.171	41.986	0.217	0.200
-744.156	-121.008	-0.200	0.034
-743.142	-3.470	0.134	0.095
-742.127	-29.969	-0.237	0.137
-741.112	-200.000	-0.001	0.211
-740.098	474.224	-0.188	0.431
-739.083	-109.040	-0.133	-0.029
-738.069	219.671	-0.135	-0.219
-737.054	-100.940	0.101	-0.025
-736.039	-115.084	-0.148	-0.029
-735.025	-200.000	-0.005	0.123
-734.010	-115.956	-0.256	0.048
-732.996	4.819	0.072	0.054
-731.981	-130.725	-0.474	0.065
-730.966	11.502	0.093	-0.072
-729.952	-53.464	0.113	0.052
-728.937	-200.000	0.010	-0.321
-727.923	259.998	0.122	-0.214
-726.908	-200.000	-0.001	-0.121
-725.894	-200.000	-0.022	-0.286
-724.879	-77.102	0.219	0.077
-723.864	800.000	0.022	0.098
-722.850	23.262	0.153	0.127
-721.835	-125.283	0.043	0.007
-720.821	217.836	-0.180	0.291
-719.806	-200.000	-0.031	0.245
-718.791	101.819	-0.173	-0.205
-717.777	476.204	0.169	-0.387
-716.762	-150.282	-0.322	0.025
-715.748	184.997	0.114	-0.171
-714.733	196.061	-0.117	-0.180
-713.718	-41.921	0.270	-0.140
-712.704	16.126	0.089	0.071
-711.689	427.174	-0.139	0.305
-710.675	42.786	0.089	-0.082
-709.660	313.143	0.042	-0.080
-708.645	195.269	-0.047	0.073
-707.631	762.317	0.091	0.250
-706.616	-45.755	-0.058	0.029
-705.602	800.000	-0.076	0.212
-704.587	800.000	-0.048	0.189
-703.572	-8.174	0.152	-0.104
-702.558	474.546	-0.070	0.159
-701.543	-58.308	0.103	-0.045
-700.529	-92.991	-0.288	-0.082
-699.514	-32.053	0.098	-0.055
-698.499	-42.839	0.042	-0.021
-697.485	-200.000	-0.022	0.222
-696.470	579.264	-0.037	-0.092
-695.456	-200.000	0.000	0.033
-694.441	-88.719	0.104	-0.031
-693.426	-55.589	0.136	-0.062
-692.412	-42.932	0.053	0.027
-691.397	-200.000	-0.004	0.294
-690.383	-82.666	0.309	-0.101
-689.368	-187.590	-0.224	-0.003
-688.354	440.813	0.085	-0.188
-687.339	-178.776	-0.291	-0.007
-686.324	349.471	-0.138	-0.275
-685.310	-155.353	0.479	-0.032
-684.295	163.312	-0.045	-0.064
-683.281	-11.841	-0.166	0.110
-682.266	-75.734	0.175	0.063
-681.251	-200.000	-0.251	0.001
-680.237	-76.897	0.211	0.075
-679.222	-200.000	0.018	-0.178
-678.208	-200.000	-0.056	0.300
-677.193	-19.362	-0.223	-0.140
-676.178	-113.022	0.118	-0.024
-675.164	195.654	0.063	-0.097
-674.149	27.899	-0.121	0.104
-673.135	800.000	-0.049	0.151
-672.120	23.076	-0.042	-0.035
-671.105	800.000	0.051	0.179
-670.091	388.639	0.059	0.124
-669.076	-86.649	0.245	-0.076
-668.062	-33.312	-0.239	-0.134
-667.047	-200.000	0.037	0.211
-666.032	110.732	0.063	-0.076
-665.018	-93.430	0.248	0.069
-664.003	-167.651	-0.062	0.002
-662.989	-3.304	0.422	0.298
-661.974	-47.440	-0.215	0.106
-660.959	-9.605	0.108	0.073
-659.945	-85.901	-0.031	-0.010
-658.930	160.571	-0.132	0.187
-657.916	-110.940	-0.181	-0.038
-656.901	-12.332	0.282	0.186
-655.886	-101.849	-0.305	0.075
-654.872	-55.653	-0.258	-0.117
-653.857	502.726	-0.100	0.234
-652.843	-87.315	0.288	0.088
-651.828	10.272	0.110	0.085
-650.814	-95.862	-0.174	-0.047
-649.799	-45.667	0.033	0.017
-648.784	62.271	0.221	-0.223
-647.770	650.363	0.055	0.142
-646.755	-2.387	-0.224	-0.159
-645.741	185.385	0.216	-0.324
-644.726	215.886	0.102	0.164
-643.711	-123.649	0.291	0.047
-642.697	-24.270	-0.255	-0.154
-641.682	-80.026	-0.228	-0.078
-640.668	-200.000	0.002	-0.268
-639.653	191.717	-0.277	-0.422
-638.638	147.796	-0.105	0.143
-637.624	256.934	0.214	-0.371
-636.609	-2.085	-0.246	0.174
-635.595	-104.573	-0.108	-0.025
-634.580	29.010	-0.086	-0.074
-633.565	-200.000	0.018	0.233
-632.551	-5.218	0.058	0.040
-631.536	800.000	-0.094	-0.292
-630.522	800.000	0.014	0.058
-629.507	-60.539	-0.323	-0.139
-628.492	-45.658	-0.051	0.026
-627.478	156.445	-0.024	0.034
-626.463	-200.000	0.019	-0.087
-625.449	11.943	-0.187	0.145
-624.434	-36.954	-0.277	-0.150
-623.419	800.000	-0.034	0.128
-622.405	-200.000	-0.009	0.147
-621.390	-61.330	-0.224	0.095
-620.376	-48.019	0.275	0.134
-619.361	81.980	0.127	-0.139
-618.346	-200.000	0.055	0.316
-617.332	-200.000	0.009	0.148
-616.317	-68.696	0.168	-0.066
-615.303	411.221	-0.188	-0.402
-614.288	800.000	0.067	-0.210
-613.273	-67.554	-0.377	-0.149
-612.259	119.943	0.148	0.186
-611.244	228.279	0.064	0.105
-610.230	800.000	0.037	-0.136
-609.215	-200.000	0.005	-0.201
-608.201	-200.000	0.015	-0.310
-607.186	-200.000	-0.030	-0.163
-606.171	-186.230	-0.114	-0.002
-605.157	18.795	-0.206	0.166
-604.142	212.892	0.088	-0.141
-603.128	-73.623	-0.229	0.084
-602.113	-79.757	0.306	0.104
-601.098	-200.000	0.018	0.153
-600.084	27.754	0.211	0.179
-599.069	-82.624	-0.067	0.022
-598.055	-200.000	0.008	-0.134
-597.040	231.065	-0.127	-0.209
-596.025	-200.000	-0.001	-0.089
-595.011	23.241	-0.223	0.185
-593.996	800.000	-0.113	-0.340
-592.982	380.752	0.021	-0.042
-591.967	11.783	-0.035	0.027
-590.952	773.115	0.042	0.115
-589.938	-66.981	0.077	0.031
-588.923	800.000	-0.069	-0.208
-587.909	179.692	-0.219	0.324
-586.894	-200.000	0.005	-0.103
-585.879	363.512	0.134	0.272
-584.865	-131.056	0.268	0.036
-583.850	136.192	0.043	-0.057
-582.836	-200.000	-0.023	0.128
-581.821	800.000	-0.086	-0.258
-580.806	-71.659	-0.224	-0.084
-579.792	-177.445	-0.266	-0.007
-578.777	67.217	-0.094	0.097
-577.763	800.000	-0.090	0.285
-576.748	263.409	0.120	0.210
-575.733	-200.000	-0.034	-0.240
-574.719	178.875	0.084	0.124
-573.704	-39.921	0.054	-0.028
-572.690	-29.086	0.106	-0.061
-571.675	35.873	0.227	-0.201
-570.661	-200.000	0.064	0.327
-569.646	-77.526	-0.075	0.026
-568.631	84.134	-0.159	-0.175
-567.617	302.808	0.096	-0.179
-566.602	800.000	0.062	0.226
-565.588	800.000	0.086	-0.260
-564.573	-70.904	0.264	0.100
-563.558	-124.462	-0.112	0.018
-562.544	121.031	0.131	0.164
-561.529	-200.000	-0.018	-0.324
-560.515	-120.596	0.312	-0.053
-559.500	349.261	0.052	-0.103
-558.485	53.573	0.258	0.249
-557.471	253.655	-0.074	-0.128
-556.456	421.281	0.146	-0.315
-555.442	68.556	0.126	0.130
-554.427	-94.135	-0.201	-0.056
-553.412	800.000	0.102	-0.387
-552.398	-200.000	0.012	0.084
-551.383	-198.058	-0.242	0.001
-550.369	337.483	0.142	0.279
-549.354	-83.657	0.092	-0.030
-548.339	544.914	0.060	0.145
-547.325	-200.000	-0.007	0.166
-546.310	-157.656	-0.154	-0.009
-545.296	-62.317	0.249	-0.105
-544.281	-184.595	-0.158	-0.003
-543.266	-82.794	-0.237	0.077
-542.252	-115.305	0.158	0.030
-541.237	-91.372	-0.080	-0.023
-540.223	-18.493	-0.251	0.158
-539.208	800.000	-0.050	0.215
-538.193	703.008	0.139	-0.369
-537.179	0.273	-0.340	-0.244
-536.164	-149.840	0.232	-0.018
-535.150	-200.000	-0.049	0.273
-534.135	-200.000	0.026	0.120
-533.121	45.521	-0.111	0.103
-532.106	-104.282	-0.413	-0.097
-531.091	-66.183	-0.286	0.115
-530.077	8.457	0.141	-0.106
-529.062	-200.000	0.056	-0.361
-528.048	26.011	0.255	0.214
-527.033	-200.000	0.036	-0.297
-526.018	26.096	-0.117	-0.098
-525.004	12.799	-0.087	-0.068
-523.989	-169.904	-0.106	0.004
-522.975	-105.293	0.062	-0.014
-521.960	-84.354	0.113	0.036
-520.945	-13.386	0.003	0.002
-519.931	130.028	-0.242	-0.312
-518.916	76.925	0.010	-0.011
-517.902	178.377	-0.157	0.230
-516.887	-121.500	0.496	-0.083
-515.872	7.423	0.005	-0.004
-514.858	-33.343	-0.120	0.067
-513.843	38.298	0.111	-0.100
-512.829	71.281	0.204	-0.213
-511.814	6.188	-0.253	-0.188
-510.799	-200.000	0.035	-0.203
-509.785	-16.902	-0.121	-0.077
-508.770	748.703	-0.155	0.421
-507.756	-44.785	0.281	-0.141
-506.741	71.081	0.195	-0.204
-505.726	800.000	0.012	0.042
-504.712	-85.254	0.246	-0.077
-503.697	-98.027	0.219	0.057
-502.683	52.730	-0.206	-0.198
-501.668	185.435	-0.262	0.391
-500.653	-200.000	0.007	0.151
-499.639	245.000	-0.050	-0.085
-498.624	-200.000	-0.017	0.296
-497.610	515.327	-0.109	0.256
-496.595	-116.349	0.328	0.061
-495.581	20.542	0.151	-0.123
-494.566	-200.000	-0.051	0.272
-493.551	-200.000	-0.019	-0.322
-492.537	-35.279	0.090	-0.049
-491.522	-72.708	0.344	0.127
-490.508	12.751	0.211	0.164
-489.493	-13.172	0.161	-0.105
-488.478	-200.000	0.022	0.158
-487.464	-35.925	0.350	0.191
-486.449	-14.584	-0.130	-0.084
-485.435	-200.000	0.001	0.015
-484.420	217.952	-0.046	0.074
-483.405	74.054	0.235	-0.247
-482.391	-101.888	-0.185	0.045
-481.376	-200.000	0.009	-0.047
-480.362	-139.535	-0.231	-0.025
-479.347	106.054	-0.066	0.078
-478.332	-144.611	-0.172	-0.016
-477.318	-49.328	0.346	-0.166
-476.303	-15.892	-0.385	-0.246
-475.289	-14.162	0.148	0.096
-474.274	199.616	0.015	0.023
-473.259	-93.967	-0.304	-0.084
-472.245	-185.120	-0.404	0.006
-471.230	-6.926	0.187	-0.128
-470.216	-15.133	0.110	0.071
-469.201	-109.154	-0.226	0.048
-468.186	-30.478	-0.204	0.116
-467.172	-194.011	-0.280	0.002
-466.157	-200.000	0.039	0.386
-465.143	42.705	-0.447	-0.409
-464.128	233.619	0.046	0.076
-463.113	-33.641	0.120	-0.066
-462.099	-92.979	-0.217	0.061
-461.084	-24.565	0.139	-0.083
-460.070	649.915	-0.015	0.038
-459.055	-188.462	-0.138	0.002
-458.040	800.000	-0.007	-0.022
-457.026	-155.381	-0.248	0.016
-456.011	283.963	0.129	0.233
-454.997	121.952	0.171	0.215
-453.982	800.000	0.084	0.285
-452.968	-200.000	-0.011	0.102
-451.953	800.000	0.066	-0.220
-450.938	601.850	-0.116	-0.289
-449.924	29.356	0.142	-0.121
-448.909	614.977	-0.195	0.489
-447.895	61.821	0.044	-0.044
-446.880	-127.577	0.235	0.034
-445.865	-200.000	-0.034	-0.351
-444.851	122.953	-0.021	0.026
-443.836	-104.499	-0.316	0.073
-442.822	58.944	-0.168	-0.166
-441.807	-35.475	-0.049	0.027
-440.792	-200.000	0.034	-0.205
-439.778	-104.061	0.121	0.028
-438.763	-53.484	0.161	-0.074
-437.749	40.377	-0.062	0.056
-436.734	800.000	-0.020	0.063
-435.719	800.000	-0.087	0.245
-434.705	85.533	0.079	0.088
-433.690	405.726	-0.137	-0.289
-432.676	236.505	0.156	-0.259
-431.661	-200.000	0.006	0.133
-430.646	106.454	-0.123	0.146
-429.632	-200.000	0.013	-0.210
-428.617	-63.894	0.105	-0.043
-427.603	-56.067	-0.378	-0.169
-426.588	-152.438	0.226	0.016
-425.573	-200.000	-0.017	0.097
-424.559	-161.829	0.104	0.005
-423.544	716.301	0.131	-0.348
-422.530	-200.000	-0.048	-0.478
-421.515	-181.538	0.332	0.006
-420.500	72.049	0.258	-0.269
-419.486	232.642	-0.146	-0.240
-418.471	140.222	0.246	0.325
-417.457	93.886	0.203	0.231
-416.442	36.283	-0.300	0.265
-415.428	155.838	-0.081	0.112
-414.413	37.522	-0.170	0.151
-413.398	800.000	0.027	0.101
-412.384	-3.632	0.280	-0.195
-411.369	31.180	0.195	-0.167
-410.355	186.164	-0.027	-0.040
-409.340	135.584	-0.109	-0.142
-408.325	-200.000	-0.011	0.426
-407.311	-200.000	-0.013	0.100
-406.296	-75.176	-0.150	0.054
-405.282	800.000	0.079	-0.322
-404.267	124.770	0.258	0.325
-403.252	93.735	0.240	-0.272
-402.238	-171.623	0.286	0.009
-401.223	-148.405	-0.223	0.018
-400.209	-121.008	0.047	0.008
-399.194	-200.000	0.013	-0.336
-398.179	-200.000	0.023	-0.123
-397.165	74.427	0.080	0.084
-396.150	-7.910	0.224	0.151
-395.136	-103.789	-0.146	0.034
-394.121	800.000	0.018	-0.078
-393.106	-90.363	-0.270	0.078
-392.092	-200.000	-0.034	0.238
-391.077	-72.891	0.301	0.111
-390.063	436.511	-0.071	-0.155
-389.048	-200.000	0.058	-0.258
-388.033	-9.366	0.281	-0.188
-387.019	800.000	-0.113	0.352
-386.004	800.000	-0.075	0.235
-384.990	-74.646	0.112	-0.040
-383.975	-27.177	0.419	-0.244
-382.960	800.000	-0.110	-0.347
-381.946	-161.688	0.291	-0.015
-380.931	-37.780	0.112	0.059
-379.917	800.000	-0.032	-0.125
-378.902	-200.000	0.010	0.137
-377.888	336.232	0.108	-0.210
-376.873	-78.672	-0.203	0.069
-375.858	207.654	-0.065	-0.102
-374.844	-150.497	0.166	0.013
-373.829	34.469	-0.151	0.132
-372.815	106.499	0.025	-0.029
-371.800	-64.377	-0.223	-0.091
-370.785	133.643	0.159	0.206
-369.771	122.463	-0.164	0.205
-368.756	-13.944	-0.197	0.128
-367.742	646.834	0.118	0.300
-366.727	6.632	-0.117	0.087
-365.712	800.000	-0.045	-0.142
-364.698	-6.131	-0.110	-0.075
-363.683	190.981	0.012	-0.018
-362.669	546.925	0.079	0.190
-361.654	-2.621	0.017	-0.012
-360.639	166.725	-0.183	-0.259
-359.625	-200.000	0.017	0.239
-358.610	800.000	0.039	0.133
-357.596	213.812	-0.063	0.100
-356.581	329.657	0.167	-0.322
-355.566	-200.000	-0.002	-0.226
-354.552	-200.000	0.012	-0.299
-353.537	800.000	-0.041	0.120
-352.523	-200.000	0.026	0.253
-351.508	800.000	-0.143	-0.445
-350.493	-200.000	-0.030	-0.267
-349.479	-200.000	0.014	-0.328
-348.464	246.294	-0.064	-0.108
-347.450	-44.491	-0.092	-0.046
-346.435	20.498	-0.104	0.084
-345.420	285.571	0.096	0.174
-344.406	402.153	-0.127	0.267
-343.391	436.742	-0.057	0.123
-342.377	29.369	0.052	0.044
-341.362	-136.361	-0.261	-0.030
-340.348	191.347	0.038	-0.057
-339.333	-200.000	0.032	-0.153
-338.318	-83.228	0.218	0.070
-337.304	800.000	0.080	0.258
-336.289	42.778	-0.285	0.259
-335.275	-109.537	0.096	0.020
-334.260	-6.323	0.236	-0.161
-333.245	800.000	0.054	0.197
-332.231	-65.442	0.117	-0.047
-331.216	179.865	-0.142	0.207
-330.202	-200.000	0.011	0.216
-329.187	333.454	-0.108	-0.208
-328.172	-179.799	0.474	0.010
-327.158	-200.000	0.003	-0.015
-326.143	146.855	-0.189	0.254
-325.129	-74.032	0.331	0.120
-324.114	800.000	0.035	0.111
-323.099	40.792	-0.287	-0.259
-322.085	-200.000	-0.016	0.111
-321.070	-24.653	0.147	0.087
-320.056	-44.327	-0.025	-0.012
-319.041	558.346	0.092	0.222
-318.026	-43.620	-0.172	-0.087
-317.012	334.530	0.084	0.162
-315.997	-70.151	0.279	-0.106
-314.983	800.000	0.028	0.106
-313.968	-183.831	-0.266	-0.004
-312.953	129.914	-0.136	0.174
-311.939	-4.597	0.223	0.154
-310.924	-40.245	0.197	-0.102
-309.910	454.902	0.153	0.338
-308.895	222.311	0.118	-0.190
-307.880	-85.619	0.361	-0.112
-306.866	-200.000	-0.008	0.156
-305.851	191.904	0.167	-0.251
-304.837	800.000	-0.039	0.129
-303.822	477.740	0.037	0.084
-302.807	423.722	-0.111	-0.237
-301.793	52.943	0.248	-0.237
-300.778	-200.000	0.058	-0.330
-299.764	-63.418	0.431	-0.177
-298.749	168.678	0.150	0.213
-297.735	107.074	0.094	0.111
-296.720	-200.000	-0.002	0.020
-295.705	-88.923	0.545	0.161
-294.691	-120.184	0.270	-0.046
-293.676	294.619	0.072	0.132
-292.662	-49.250	-0.199	0.095
-291.647	800.000	-0.091	-0.269
-290.632	-116.774	-0.089	0.016
-289.618	15.229	0.128	0.100
-288.603	-77.530	-0.078	0.027
-287.589	-200.000	0.060	0.384
-286.574	-200.000	0.021	0.097
-285.559	-8.156	0.205	0.137
-284.545	-200.000	-0.007	0.046
-283.530	88.614	0.095	0.105
-282.516	-97.411	0.141	-0.037
-281.501	-5.112	-0.224	0.154
-280.486	677.129	0.070	0.182
-279.472	-200.000	0.031	0.224
-278.457	-200.000	-0.045	0.440
-277.443	-122.011	0.127	-0.021
-276.428	-93.973	-0.345	-0.095
-275.413	752.332	-0.067	-0.180
-274.399	-37.040	0.244	0.130
-273.384	-200.000	0.007	0.145
-272.370	-90.255	-0.407	0.118
-271.355	-41.156	-0.182	0.094
-270.340	129.060	-0.058	0.074
-269.326	800.000	0.098	0.288
-268.311	-33.559	-0.134	0.074
-267.297	-11.959	0.203	-0.133
-266.282	-27.337	0.234	0.136
-265.267	-105.419	-0.178	-0.040
-264.253	800.000	-0.029	-0.106
-263.238	-7.420	0.364	0.245
-262.224	-120.061	-0.095	0.016
-261.209	265.335	-0.060	-0.103
-260.195	-66.666	0.051	-0.020
-259.180	39.914	-0.104	0.093
-258.165	17.515	0.176	-0.140
-257.151	19.601	-0.171	0.137
-256.136	36.001	0.105	-0.092
-255.122	800.000	0.077	0.306
-254.107	93.534	0.106	-0.120
-253.092	336.522	0.211	-0.407
-252.078	-82.089	-0.263	0.085
-251.063	-82.025	0.278	-0.090
-250.049	242.077	0.141	0.235
-249.034	350.896	0.096	-0.189
-248.019	-108.675	0.110	0.024
-247.005	800.000	-0.049	-0.171
-245.990	143.857	-0.333	-0.442
-244.976	147.511	-0.207	-0.277
-243.961	-32.516	-0.203	-0.113
-242.946	363.930	0.145	-0.291
-241.932	21.558	0.154	-0.124
-240.917	24.497	0.049	0.041
-239.903	-155.391	-0.210	-0.014
-238.888	-200.000	0.012	0.255
-237.873	192.958	-0.167	0.251
-236.859	800.000	-0.105	0.435
-235.844	-200.000	-0.042	-0.278
-234.830	800.000	-0.032	0.090
-233.815	-78.412	-0.067	0.023
-232.800	-173.482	-0.090	-0.003
-231.786	262.198	-0.131	0.225
-230.771	800.000	-0.102	-0.349
-229.757	155.250	-0.108	-0.147
-228.742	403.808	0.132	0.276
-227.727	800.000	-0.026	-0.075
-226.713	-131.395	0.615	-0.081
-225.698	-167.167	0.238	0.010
-224.684	-147.439	-0.384	0.032
-223.669	113.468	0.155	0.187
-222.655	168.411	-0.130	0.184
-221.640	-36.240	-0.385	0.207
-220.625	-3.901	-0.440	0.303
-219.611	163.736	-0.106	0.148
-218.596	-54.075	0.118	-0.053
-217.582	92.802	-0.089	-0.100
-216.567	-129.746	-0.130	0.018
-215.552	-79.280	0.149	0.050
-214.538	475.228	0.107	0.241
-213.523	-100.189	-0.343	-0.085
-212.509	-169.430	-0.447	0.016
-211.494	663.542	0.059	-0.151
-210.479	-200.000	0.144	0.001
-209.465	193.338	-0.096	0.145
-208.450	-60.185	-0.059	0.025
-207.436	568.961	-0.026	-0.064
-206.421	33.560	-0.143	-0.123
-205.406	4.790	-0.196	0.143
-204.392	-200.000	0.018	-0.122
-203.377	-129.524	0.253	0.035
-202.363	-141.384	0.159	-0.016
-201.348	-200.000	0.032	0.265
-200.333	-112.338	-0.031	-0.006
-199.319	620.126	0.004	0.011
-198.304	-118.014	0.131	-0.023
-197.290	800.000	-0.112	-0.430
-196.275	313.449	-0.211	-0.395
-195.260	140.028	0.313	0.411
-194.246	311.892	-0.102	0.190
-193.231	79.384	-0.171	0.182
-192.217	-200.000	0.004	-0.101
-191.202	387.240	0.208	0.426
-190.187	130.045	-0.071	-0.090
-189.173	73.106	-0.177	-0.184
-188.158	127.164	-0.230	0.290
-187.144	-72.706	-0.288	0.105
-186.129	557.078	0.132	-0.315
-185.114	-169.031	0.255	0.009
-184.100	185.240	-0.074	0.109
-183.085	-200.000	-0.010	-0.075
-182.071	-200.000	-0.008	-0.065
-181.056	-64.402	0.132	0.053
-180.042	240.265	-0.079	-0.131
-179.027	105.254	0.045	0.053
-178.012	-14.963	-0.105	0.067
-176.998	632.995	-0.010	-0.025
-175.983	335.294	-0.163	0.314
-174.969	133.918	0.107	-0.137
-173.954	800.000	0.039	0.113
-172.939	-200.000	-0.009	0.039
-171.925	739.005	-0.098	0.262
-170.910	-83.873	-0.252	-0.080
-169.896	12.463	-0.108	-0.083
-168.881	-66.626	0.194	0.076
-167.866	-134.777	-0.065	0.008
-166.852	800.000	0.120	-0.361
-165.837	-197.040	-0.433	0.003
-164.823	-200.000	-0.009	-0.237
-163.808	65.642	0.114	-0.114
-162.793	-200.000	-0.009	-0.200
-161.779	-130.185	-0.279	-0.038
-160.764	-11.035	-0.340	-0.223
-159.750	-200.000	0.018	-0.233
-158.735	243.459	0.241	-0.401
-157.720	-200.000	0.055	0.269
-156.706	168.458	0.056	0.079
-155.691	-66.206	0.185	0.073
-154.677	287.371	0.184	0.329
-153.662	-200.000	-0.021	0.149
-152.647	8.800	-0.143	-0.107
-151.633	562.505	-0.083	-0.199
-150.618	-38.308	-0.187	0.098
-149.604	-111.657	0.177	-0.036
-148.589	-200.000	-0.023	-0.119
-147.574	-3.077	0.222	-0.153
-146.560	707.626	0.075	-0.197
-145.545	-200.000	-0.005	0.174
-144.531	361.694	0.079	-0.158
-143.516	-98.845	-0.113	0.028
-142.502	-70.460	-0.146	-0.055
-141.487	-131.043	0.504	-0.067
-140.472	-200.000	0.027	0.165
-139.458	-85.237	0.366	-0.113
-138.443	-117.479	0.327	-0.059
-137.429	-87.078	0.443	0.134
-136.414	363.594	0.094	0.186
-135.399	50.419	0.202	0.189
-134.385	-200.000	0.014	0.195
-133.370	-39.201	-0.284	-0.148
-132.356	-152.672	-0.192	-0.014
-131.341	-200.000	0.008	-0.120
-130.326	-165.838	-0.337	0.014
-129.312	0.432	-0.388	0.275
-128.297	-102.667	0.303	0.072
-127.283	-90.056	0.213	0.061
-126.268	-33.949	-0.116	-0.063
-125.253	800.000	-0.056	0.204
-124.239	52.883	-0.257	0.244
-123.224	-96.126	-0.043	0.011
-122.210	46.147	-0.206	-0.189
-121.195	14.497	0.171	0.132
-120.180	-200.000	-0.011	-0.419
