DTS Sentinel unit serial number:	SN413079Multiplexer serial number:	ORYXHardware model number:	OX4-SRSoftware version number:	ORYX F/W v4.00 Oryx Data Collector v3.7.2.0data status	okinstallation	princeton_trtdifferential loss correction	single-endedforward channel	channel 4reverse channel	N/Adate	2019/09/19time	11:41:35forward acquisition time	60.00reverse acquisition time	0.00gamma	496.2192k internal	0.2326k external	0.2326temperature offset calibration	1.0020default loss term (dB/km)	0.3790temperature slope calibration	1.0000multiplexer offset coefficient	1.0000multiplexer slope coefficient	1.0000fibre end	0.00T internal ref (°C)	25.62T ext. ref 1 (°C)	0.81T ext. ref 2 (°C)	21.43length (m)	temperature (°C)	Stokes	anti-Stokes-747.200	409.516	0.106	0.227
-746.185	800.000	-0.075	-0.297
-745.171	-94.242	0.277	0.076
-744.156	-11.847	-0.172	0.114
-743.142	-152.065	0.315	-0.023
-742.127	-112.123	-0.372	-0.075
-741.112	231.386	-0.075	0.123
-740.098	800.000	-0.036	0.147
-739.083	-124.252	-0.351	0.055
-738.069	800.000	0.078	0.241
-737.054	0.853	0.135	0.098
-736.039	-200.000	-0.014	-0.238
-735.025	306.962	0.130	-0.244
-734.010	132.949	-0.173	0.225
-732.996	-124.596	-0.168	-0.026
-731.981	800.000	0.078	0.273
-730.966	-53.941	-0.106	-0.048
-729.952	-200.000	0.030	-0.203
-728.937	-97.623	0.247	-0.064
-727.923	104.807	0.067	0.080
-726.908	-58.589	-0.543	-0.237
-725.894	-159.402	0.089	0.005
-724.879	-90.547	-0.378	-0.110
-723.864	-63.849	0.175	-0.072
-722.850	640.475	0.058	-0.149
-721.835	-48.514	0.169	0.082
-720.821	-68.245	-0.244	-0.095
-719.806	74.994	-0.223	-0.236
-718.791	5.044	0.090	-0.066
-717.777	800.000	-0.039	0.132
-716.762	82.427	-0.152	-0.166
-715.748	-33.942	0.097	0.054
-714.733	382.162	-0.112	-0.231
-713.718	93.648	0.124	-0.141
-712.704	-45.499	-0.167	0.083
-711.689	197.900	0.075	0.115
-710.675	-153.293	0.283	0.020
-709.660	53.523	0.143	0.138
-708.645	0.275	0.275	-0.198
-707.631	800.000	-0.067	-0.220
-706.616	-65.767	-0.146	-0.059
-705.602	600.238	-0.058	-0.145
-704.587	-97.100	0.263	0.069
-703.572	1.841	0.206	-0.149
-702.558	-70.860	-0.640	-0.243
-701.543	-200.000	-0.052	-0.255
-700.529	670.495	0.096	0.250
-699.514	-63.955	0.312	0.129
-698.499	-4.192	-0.044	-0.030
-697.485	279.677	-0.178	-0.319
-696.470	-76.434	-0.270	-0.095
-695.456	250.740	-0.154	0.264
-694.441	-117.202	0.217	0.040
-693.426	2.220	0.119	-0.086
-692.412	20.793	-0.153	0.124
-691.397	164.967	0.068	0.096
-690.383	345.943	0.179	0.354
-689.368	-140.714	0.230	-0.024
-688.354	-147.154	-0.250	0.021
-687.339	59.555	-0.149	0.148
-686.324	-200.000	-0.117	-0.514
-685.310	-111.370	0.210	0.043
-684.295	-200.000	-0.009	-0.119
-683.281	800.000	0.065	0.212
-682.266	193.745	0.141	-0.215
-681.251	-200.000	-0.022	0.155
-680.237	-200.000	-0.051	-0.417
-679.222	-149.816	0.184	0.015
-678.208	-135.954	-0.499	-0.059
-677.193	800.000	-0.072	-0.229
-676.178	-158.468	-0.346	-0.020
-675.164	-77.089	-0.057	0.020
-674.149	-14.962	-0.252	-0.163
-673.135	-19.450	0.255	-0.159
-672.120	800.000	0.037	0.148
-671.105	-200.000	0.061	-0.282
-670.091	-200.000	0.011	-0.163
-669.076	-98.176	-0.357	-0.092
-668.062	-15.806	0.120	0.077
-667.047	-200.000	0.018	-0.160
-666.032	96.707	-0.146	-0.169
-665.018	800.000	0.065	-0.270
-664.003	-200.000	-0.000	-0.166
-662.989	-200.000	0.067	0.525
-661.974	241.212	-0.072	-0.122
-660.959	-7.261	-0.172	0.117
-659.945	-134.533	-0.153	-0.019
-658.930	-147.818	-0.309	-0.026
-657.916	-126.128	-0.170	0.026
-656.901	-200.000	-0.050	0.336
-655.886	172.791	0.080	-0.116
-654.872	-200.000	-0.237	-0.001
-653.857	-200.000	0.039	-0.243
-652.843	-116.987	-0.183	-0.034
-651.828	-97.374	0.257	0.067
-650.814	800.000	0.085	-0.261
-649.799	-64.549	-0.281	-0.115
-648.784	-14.713	0.161	0.104
-647.770	-12.723	0.173	-0.113
-646.755	800.000	-0.133	0.375
-645.741	-173.432	-0.312	0.009
-644.726	-200.000	0.045	0.227
-643.711	-110.966	-0.288	-0.059
-642.697	-200.000	0.053	-0.238
-641.682	800.000	-0.058	-0.174
-640.668	130.425	0.309	-0.398
-639.653	-200.000	-0.017	-0.385
-638.638	-7.969	0.231	-0.156
-637.624	800.000	0.018	-0.062
-636.609	-157.165	0.262	0.016
-635.595	-79.409	0.100	0.034
-634.580	-167.595	-0.285	0.011
-633.565	-200.000	-0.002	-0.172
-632.551	72.105	0.149	0.155
-631.536	-145.625	-0.102	0.009
-630.522	49.436	0.098	-0.092
-629.507	800.000	0.038	-0.151
-628.492	2.446	-0.120	0.087
-627.478	67.577	-0.157	-0.161
-626.463	-98.997	-0.102	-0.026
-625.449	800.000	0.046	0.132
-624.434	-200.000	-0.005	0.062
-623.419	-191.542	0.339	-0.003
-622.405	-141.278	0.068	0.007
-621.390	-64.078	0.171	-0.070
-620.376	-118.614	-0.069	-0.012
-619.361	-200.000	-0.046	0.301
-618.346	-200.000	-0.007	-0.288
-617.332	55.020	-0.097	-0.094
-616.317	-80.248	-0.197	-0.066
-615.303	654.199	0.099	-0.255
-614.288	82.681	-0.165	-0.180
-613.273	-175.068	-0.117	0.003
-612.259	800.000	0.058	-0.172
-611.244	222.262	-0.104	0.168
-610.230	-148.117	0.071	0.006
-609.215	-129.715	0.188	-0.026
-608.201	-148.080	0.253	-0.021
-607.186	-36.812	0.096	-0.052
-606.171	-12.563	0.169	0.111
-605.157	-200.000	-0.019	-0.254
-604.142	800.000	-0.038	0.114
-603.128	47.411	0.048	0.044
-602.113	-116.339	-0.240	-0.044
-601.098	-200.000	0.004	0.070
-600.084	800.000	0.087	-0.270
-599.069	-200.000	-0.050	0.237
-598.055	100.221	0.060	-0.069
-597.040	10.337	-0.291	0.222
-596.025	-200.000	-0.031	-0.216
-595.011	-85.595	-0.151	-0.047
-593.996	641.224	-0.131	0.336
-592.982	477.772	0.044	0.100
-591.967	-200.000	-0.018	-0.098
-590.952	-200.000	0.028	0.166
-589.938	-200.000	-0.018	0.303
-588.923	-170.979	-0.425	-0.015
-587.909	-109.702	-0.335	0.071
-586.894	-79.237	-0.082	-0.028
-585.879	-200.000	0.024	0.118
-584.865	-90.557	0.262	0.076
-583.850	221.455	-0.128	0.205
-582.836	-200.000	-0.048	0.315
-581.821	66.027	0.120	0.122
-580.806	-101.793	-0.186	-0.045
-579.792	28.622	-0.091	-0.077
-578.777	-115.703	0.193	0.036
-577.763	488.441	0.046	0.106
-576.748	800.000	-0.068	0.200
-575.733	159.808	-0.113	-0.157
-574.719	125.609	0.115	-0.146
-573.704	-72.094	0.288	0.107
-572.690	110.788	-0.233	0.281
-571.675	-7.888	-0.267	-0.181
-570.661	269.664	0.149	0.262
-569.646	-102.353	-0.406	0.098
-568.631	-200.000	-0.001	0.213
-567.617	-148.965	-0.226	0.018
-566.602	800.000	0.064	-0.233
-565.588	-100.008	0.227	-0.057
-564.573	-93.087	-0.222	-0.062
-563.558	361.536	-0.053	-0.107
-562.544	-61.054	0.062	0.026
-561.529	-40.389	0.099	0.052
-560.515	-200.000	0.433	0.001
-559.500	580.377	-0.158	-0.388
-558.485	-151.757	0.213	-0.016
-557.471	-200.000	-0.014	0.098
-556.456	758.458	0.035	0.096
-555.442	-100.728	-0.378	0.093
-554.427	-4.547	-0.258	0.178
-553.412	4.383	0.176	0.129
-552.398	53.422	0.218	0.209
-551.383	-200.000	0.036	0.353
-550.369	-91.068	0.275	-0.079
-549.354	31.369	-0.022	0.019
-548.339	213.755	0.144	0.228
-547.325	63.227	-0.070	-0.070
-546.310	-135.299	-0.216	0.026
-545.296	581.772	-0.061	-0.150
-544.281	-156.220	0.188	-0.012
-543.266	33.564	0.053	0.046
-542.252	-70.973	-0.215	-0.081
-541.237	-153.094	0.317	-0.022
-540.223	-200.000	-0.030	-0.291
-539.208	-23.379	-0.133	0.080
-538.193	11.259	0.169	0.129
-537.179	-0.597	0.411	0.292
-536.164	-132.891	-0.279	-0.036
-535.150	286.414	0.133	0.240
-534.135	-109.959	0.137	0.029
-533.121	-78.908	0.124	0.042
-532.106	-22.975	-0.106	0.064
-531.091	219.610	-0.047	0.075
-530.077	-200.000	0.007	-0.184
-529.062	-200.000	0.001	-0.144
-528.048	-200.000	0.009	0.149
-527.033	20.067	0.235	-0.189
-526.018	35.623	-0.133	0.117
-525.004	44.591	0.320	0.294
-523.989	-59.696	-0.248	-0.106
-522.975	-25.357	-0.206	-0.122
-521.960	214.557	0.049	0.077
-520.945	-200.000	-0.046	-0.227
-519.931	381.502	0.028	-0.058
-518.916	18.940	-0.176	-0.141
-517.902	-25.070	-0.138	0.082
-516.887	800.000	0.007	0.028
-515.872	437.608	-0.080	-0.175
-514.858	735.040	0.199	-0.534
-513.843	-188.042	-0.196	0.003
-512.829	800.000	-0.108	-0.299
-511.814	472.711	-0.062	-0.139
-510.799	-112.473	0.218	-0.043
-509.785	185.227	0.141	-0.210
-508.770	92.717	0.250	-0.282
-507.756	800.000	0.069	0.296
-506.741	459.631	-0.057	0.126
-505.726	-126.559	-0.438	-0.065
-504.712	136.813	0.080	0.104
-503.697	-92.646	0.231	-0.065
-502.683	129.053	-0.229	-0.292
-501.668	-118.295	-0.088	0.016
-500.653	529.294	-0.116	0.274
-499.639	-85.440	0.584	-0.182
-498.624	11.184	-0.285	0.218
-497.610	-200.000	-0.034	-0.236
-496.595	248.084	0.153	0.258
-495.581	-110.528	-0.102	0.021
-494.566	219.730	0.156	-0.249
-493.551	-123.880	-0.547	-0.086
-492.537	-56.849	0.094	-0.041
-491.522	-30.838	0.147	-0.083
-490.508	128.245	0.091	-0.115
-489.493	221.541	-0.048	0.077
-488.478	800.000	-0.063	0.256
-487.464	22.408	-0.362	-0.295
-486.449	-200.000	-0.162	-0.000
-485.435	77.791	0.121	-0.129
-484.420	-147.386	0.229	0.019
-483.405	46.894	0.169	-0.157
-482.391	-10.504	-0.041	0.027
-481.376	-167.681	-0.086	0.003
-480.362	22.415	0.009	0.008
-479.347	351.473	-0.094	-0.186
-478.332	181.098	-0.123	-0.180
-477.318	-70.601	0.145	-0.055
-476.303	-200.000	0.116	0.529
-475.289	61.287	-0.109	-0.108
-474.274	476.162	0.074	0.167
-473.259	498.250	-0.141	-0.324
-472.245	202.474	-0.063	-0.097
-471.230	-13.791	-0.230	-0.148
-470.216	202.259	-0.070	-0.108
-469.201	278.369	-0.017	0.030
-468.186	-200.000	-0.017	0.206
-467.172	-16.845	0.085	0.054
-466.157	296.647	-0.095	0.174
-465.143	-143.319	-0.184	0.018
-464.128	-200.000	0.007	-0.051
-463.113	2.658	-0.210	0.152
-462.099	453.028	0.052	0.116
-461.084	167.751	-0.024	-0.034
-460.070	-63.250	0.070	0.029
-459.055	-54.745	-0.291	0.131
-458.040	-56.107	-0.156	0.070
-457.026	-121.778	0.256	-0.042
-456.011	-106.934	0.316	-0.070
-454.997	-57.802	0.180	-0.079
-453.982	5.896	-0.263	0.194
-452.968	119.954	-0.072	0.089
-451.953	124.026	0.068	0.086
-450.938	-200.000	-0.002	0.049
-449.924	238.148	-0.167	0.276
-448.909	92.918	-0.082	0.092
-447.895	-99.643	-0.397	0.099
-446.880	-32.648	-0.088	-0.049
-445.865	-200.000	-0.020	-0.218
-444.851	-97.294	0.390	0.101
-443.836	330.111	-0.110	0.211
-442.822	61.509	0.051	-0.051
-441.807	541.829	-0.014	0.034
-440.792	-124.491	0.177	-0.027
-439.778	524.701	-0.080	0.188
-438.763	-200.000	-0.041	-0.455
-437.749	211.694	0.064	0.100
-436.734	0.292	-0.162	-0.115
-435.719	-135.542	-0.114	0.013
-434.705	9.470	0.138	0.104
-433.690	-200.000	-0.008	-0.079
-432.676	269.382	0.080	-0.139
-431.661	800.000	0.068	-0.187
-430.646	-7.391	-0.232	0.157
-429.632	-200.000	0.050	0.310
-428.617	-171.896	0.041	-0.001
-427.603	21.880	-0.094	-0.076
-426.588	238.863	-0.173	-0.286
-425.573	-102.466	0.151	-0.036
-424.559	42.233	0.329	-0.298
-423.544	44.317	-0.098	0.090
-422.530	-1.148	0.225	0.158
-421.515	79.393	-0.075	-0.080
-420.500	800.000	-0.045	0.181
-419.486	96.271	0.110	0.126
-418.471	512.012	-0.096	0.223
-417.457	4.922	0.054	0.040
-416.442	57.565	-0.143	0.140
-415.428	593.009	-0.025	0.061
-414.413	-157.397	0.393	-0.024
-413.398	149.563	-0.177	0.239
-412.384	-99.606	-0.226	0.056
-411.369	800.000	0.055	-0.170
-410.355	-186.668	0.179	0.003
-409.340	800.000	0.026	-0.073
-408.325	605.386	0.082	0.203
-407.311	-109.762	0.203	0.042
-406.296	41.755	-0.423	0.381
-405.282	42.830	0.005	-0.005
-404.267	-60.711	0.163	0.069
-403.252	-30.120	-0.129	0.073
-402.238	-156.997	0.095	-0.006
-401.223	-20.441	0.085	0.052
-400.209	-200.000	-0.035	-0.214
-399.194	-139.858	0.217	-0.023
-398.179	432.253	0.025	0.055
-397.165	-158.046	-0.524	0.031
-396.150	-59.888	0.166	-0.071
-395.136	262.302	-0.073	-0.126
-394.121	146.896	-0.235	-0.315
-393.106	-178.009	0.187	0.004
-392.092	232.837	-0.076	0.125
-391.077	-85.600	-0.428	0.133
-390.063	-200.000	0.011	-0.197
-389.048	800.000	-0.121	-0.465
-388.033	-200.000	0.002	-0.117
-387.019	-100.368	0.589	0.145
-386.004	-94.503	0.216	0.058
-384.990	386.116	0.040	0.081
-383.975	-139.233	0.021	-0.002
-382.960	-200.000	-0.015	0.181
-381.946	-89.507	0.160	-0.047
-380.931	488.979	-0.109	0.248
-379.917	143.987	0.106	-0.141
-378.902	-108.985	-0.130	-0.028
-377.888	-23.896	0.130	-0.078
-376.873	758.535	0.100	-0.269
-375.858	33.384	-0.038	-0.033
-374.844	4.520	0.120	-0.088
-373.829	457.999	-0.137	0.303
-372.815	391.353	0.135	-0.278
-371.800	-188.346	-0.308	0.004
-370.785	90.445	0.105	-0.117
-369.771	-88.713	0.154	0.046
-368.756	232.627	0.123	-0.201
-367.742	-200.000	-0.007	-0.205
-366.727	-139.470	-0.514	-0.055
-365.712	161.594	0.094	0.131
-364.698	143.145	-0.060	0.079
-363.683	800.000	0.076	0.217
-362.669	800.000	0.087	0.296
-361.654	-52.462	0.299	-0.137
-360.639	83.416	-0.081	0.088
-359.625	56.864	0.216	0.209
-358.610	-52.004	0.158	0.073
-357.596	144.799	-0.075	-0.099
-356.581	796.694	-0.037	-0.100
-355.566	-200.000	-0.054	0.240
-354.552	-92.041	0.302	-0.085
-353.537	-85.950	-0.114	-0.035
-352.523	67.355	-0.159	-0.162
-351.508	-75.871	-0.254	0.089
-350.493	-27.139	0.372	0.215
-349.479	144.658	0.161	-0.214
-348.464	-75.526	0.100	0.035
-347.450	-112.761	-0.204	0.040
-346.435	-47.033	-0.096	0.047
-345.420	-7.306	0.168	-0.113
-344.406	-29.201	0.241	-0.137
-343.391	-200.000	0.002	-0.169
-342.377	405.113	-0.089	-0.186
-341.362	-200.000	-0.044	0.411
-340.348	-82.298	0.259	0.084
-339.333	151.057	0.140	0.189
-338.318	800.000	-0.038	0.131
-337.304	145.658	0.073	0.097
-336.289	-195.971	0.319	-0.002
-335.275	-200.000	0.023	0.121
-334.260	-14.226	-0.319	-0.204
-333.245	-71.806	0.450	0.167
-332.231	-200.000	0.016	-0.114
-331.216	78.043	0.155	-0.164
-330.202	-162.480	-0.154	-0.008
-329.187	-200.000	-0.074	0.327
-328.172	-129.560	-0.336	0.046
-327.158	-145.248	-0.248	-0.022
-326.143	-200.000	0.007	0.090
-325.129	66.740	0.108	0.109
-324.114	-134.281	0.174	0.021
-323.099	129.343	-0.206	-0.262
-322.085	111.129	-0.247	-0.295
-321.070	78.138	0.058	0.062
-320.056	-13.812	0.419	-0.268
-319.041	800.000	-0.072	-0.263
-318.026	-89.818	0.157	-0.046
-317.012	-200.000	-0.011	-0.110
-315.997	701.473	0.133	-0.346
-314.983	-25.868	-0.306	0.179
-313.968	-50.096	-0.219	-0.103
-312.953	28.553	0.023	-0.019
-311.939	0.273	-0.262	0.185
-310.924	7.803	0.025	0.019
-309.910	-200.000	-0.039	-0.321
-308.895	307.862	-0.027	-0.049
-307.880	-46.956	0.229	-0.111
-306.866	118.677	0.110	0.134
-305.851	-57.914	0.223	-0.097
-304.837	-84.544	0.101	0.032
-303.822	-106.159	-0.167	0.037
-302.807	234.767	0.138	0.225
-301.793	218.652	0.122	0.193
-300.778	-200.000	-0.025	-0.116
-299.764	82.891	0.020	0.022
-298.749	77.492	-0.184	0.194
-297.735	-172.976	0.175	-0.005
-296.720	-18.969	0.108	-0.067
-295.705	-200.000	0.013	0.108
-294.691	-200.000	0.031	0.400
-293.676	610.897	0.136	0.336
-292.662	-200.000	-0.030	-0.259
-291.647	17.360	-0.159	0.125
-290.632	-28.205	0.370	0.212
-289.618	46.729	-0.154	0.142
-288.603	-160.286	0.194	0.010
-287.589	-100.696	-0.211	-0.051
-286.574	-28.615	-0.052	0.030
-285.559	-169.901	-0.233	0.008
-284.545	-28.727	0.173	-0.098
-283.530	134.676	-0.177	-0.228
-282.516	800.000	0.035	0.130
-281.501	587.986	-0.126	0.307
-280.486	169.740	0.243	0.343
-279.472	-132.154	0.400	-0.051
-278.457	800.000	-0.029	0.105
-277.443	-200.000	0.058	0.321
-276.428	-112.331	-0.265	-0.053
-275.413	54.863	0.206	0.197
-274.399	-12.377	-0.397	0.257
-273.384	143.257	-0.130	-0.172
-272.370	-0.313	0.083	0.058
-271.355	-6.907	0.289	0.195
-270.340	-200.000	-0.062	0.287
-269.326	-10.347	0.049	0.032
-268.311	-200.000	-0.097	0.574
-267.297	-25.402	0.343	-0.201
-266.282	120.617	0.162	-0.199
-265.267	800.000	-0.015	-0.055
-264.253	-48.292	0.307	0.146
-263.238	-200.000	0.001	-0.063
-262.224	-200.000	-0.100	-0.434
-261.209	-74.486	-0.232	0.083
-260.195	-200.000	-0.013	0.072
-259.180	-200.000	0.050	0.272
-258.165	292.086	-0.045	-0.081
-257.151	-14.230	-0.250	0.159
-256.136	-36.219	-0.349	-0.186
-255.122	0.396	0.107	0.076
-254.107	288.914	0.067	-0.121
-253.092	74.740	-0.152	0.158
-252.078	246.311	-0.079	-0.132
-251.063	-87.651	0.139	-0.041
-250.049	-200.000	0.005	0.136
-249.034	365.789	0.110	-0.219
-248.019	240.485	0.054	-0.089
-247.005	141.300	0.059	-0.078
-245.990	73.209	-0.039	-0.040
-244.976	204.824	-0.215	-0.330
-243.961	-200.000	-0.002	0.150
-242.946	-87.760	-0.101	0.030
-241.932	-200.000	0.042	-0.183
-240.917	800.000	0.039	-0.133
-239.903	589.062	0.184	-0.449
-238.888	-59.457	0.120	0.051
-237.873	5.148	-0.100	-0.073
-236.859	-173.867	0.147	0.004
-235.844	-73.084	0.157	-0.057
-234.830	0.672	-0.301	0.213
-233.815	800.000	-0.021	-0.081
-232.800	99.248	-0.134	-0.154
-231.786	-0.332	-0.139	-0.097
-230.771	800.000	-0.046	0.177
-229.757	90.058	-0.116	-0.128
-228.742	800.000	-0.053	-0.213
-227.727	81.586	-0.235	-0.252
-226.713	8.868	-0.205	0.153
-225.698	12.493	0.246	-0.187
-224.684	-136.238	-0.051	0.006
-223.669	-198.426	0.314	-0.002
-222.655	-95.404	-0.414	0.110
-221.640	800.000	0.008	-0.022
-220.625	39.060	-0.284	-0.251
-219.611	234.518	-0.124	-0.202
-218.596	-104.161	0.153	0.035
-217.582	-200.000	0.011	0.163
-216.567	-11.775	-0.289	0.187
-215.552	-55.914	0.129	0.057
-214.538	-142.630	-0.472	0.046
-213.523	16.792	-0.164	0.129
-212.509	-9.454	0.188	0.124
-211.494	-19.401	-0.256	-0.157
-210.479	-111.663	0.349	-0.070
-209.465	-63.864	0.214	-0.087
-208.450	-129.044	-0.130	-0.018
-207.436	-200.000	0.031	0.230
-206.421	293.699	0.085	0.153
-205.406	713.508	-0.048	-0.126
-204.392	-74.401	0.149	0.053
-203.377	-200.000	-0.029	-0.537
-202.363	-200.000	0.020	-0.129
-201.348	68.940	0.239	0.242
-200.333	-200.000	0.060	0.322
-199.319	-55.283	-0.151	-0.067
-198.304	-166.304	-0.139	-0.006
-197.290	141.538	-0.152	-0.199
-196.275	800.000	-0.095	-0.378
-195.260	800.000	-0.154	0.446
-194.246	-200.000	-0.027	0.238
-193.231	-55.504	0.178	-0.079
-192.217	-103.468	-0.171	0.040
-191.202	299.160	-0.127	-0.230
-190.187	57.057	-0.112	-0.108
-189.173	10.307	0.042	0.032
-188.158	-14.898	0.198	-0.125
-187.144	566.035	-0.127	0.304
-186.129	-53.095	-0.076	0.035
-185.114	-63.025	0.359	0.146
-184.100	96.141	0.056	0.063
-183.085	-6.056	-0.252	0.170
-182.071	92.567	0.140	-0.156
-181.056	-116.580	0.115	-0.021
-180.042	800.000	0.115	-0.321
-179.027	-73.634	-0.026	-0.009
-178.012	129.277	0.060	-0.075
-176.998	-54.052	0.470	-0.211
-175.983	800.000	-0.173	-0.579
-174.969	91.020	-0.191	-0.211
-173.954	117.022	0.260	0.315
-172.939	-176.026	0.335	0.009
-171.925	82.357	-0.132	-0.141
-170.910	-111.401	0.345	0.069
-169.896	7.045	-0.372	-0.274
-168.881	69.235	0.125	0.127
-167.866	77.923	0.111	0.117
-166.852	-107.213	-0.288	0.063
-165.837	-200.000	0.009	0.323
-164.823	70.589	-0.290	0.296
-163.808	681.689	-0.100	-0.256
-162.793	800.000	-0.110	-0.439
-161.779	-39.308	-0.427	-0.221
-160.764	-12.817	-0.111	0.071
-159.750	48.344	-0.142	0.131
-158.735	-200.000	-0.006	0.176
-157.720	-49.562	0.158	-0.074
-156.706	-200.000	0.022	0.198
-155.691	-28.357	0.369	-0.210
-154.677	800.000	-0.029	0.105
-153.662	-122.064	0.349	0.056
-152.647	-91.670	0.228	0.064
-151.633	-122.230	0.604	-0.097
-150.618	235.000	-0.083	0.135
-149.604	800.000	0.156	0.482
-148.589	215.472	-0.124	0.194
-147.574	-23.320	0.159	-0.094
-146.560	800.000	0.088	-0.253
-145.545	-96.281	0.228	-0.059
-144.531	511.272	0.065	0.149
-143.516	787.786	-0.103	0.278
-142.502	525.932	-0.067	0.155
-141.487	66.643	-0.250	-0.251
-140.472	-83.165	0.134	-0.043
-139.458	280.234	0.042	0.074
-138.443	-26.488	-0.268	-0.154
-137.429	-200.000	-0.042	0.322
-136.414	769.837	-0.038	0.103
-135.399	-60.130	0.271	-0.114
-134.385	-70.086	-0.083	-0.031
-133.370	51.588	0.291	0.273
-132.356	0.553	-0.120	0.085
-131.341	39.709	0.196	-0.173
-130.326	-200.000	0.001	0.065
-129.312	-134.672	0.291	-0.035
-128.297	-63.665	0.259	-0.105
-127.283	800.000	-0.115	-0.314
-126.268	-19.985	0.293	0.178
-125.253	-200.000	0.034	0.221
-124.239	-125.491	0.308	0.046
-123.224	92.072	0.196	-0.218
-122.210	296.679	-0.133	0.240
-121.195	-160.879	-0.382	0.020
