DTS Sentinel unit serial number:	SN413079Multiplexer serial number:	ORYXHardware model number:	OX4-SRSoftware version number:	ORYX F/W v4.00 Oryx Data Collector v3.7.2.0data status	okinstallation	princeton_trtdifferential loss correction	single-endedforward channel	channel 4reverse channel	N/Adate	2019/09/15time	18:17:35forward acquisition time	60.00reverse acquisition time	0.00gamma	496.2192k internal	0.2275k external	0.2275temperature offset calibration	0.9921default loss term (dB/km)	0.3790temperature slope calibration	1.0000multiplexer offset coefficient	1.0000multiplexer slope coefficient	1.0000fibre end	0.00T internal ref (°C)	44.44T ext. ref 1 (°C)	6.61T ext. ref 2 (°C)	39.10length (m)	temperature (°C)	Stokes	anti-Stokes-747.200	-60.848	-0.248	-0.108
-746.185	-200.000	-0.034	0.229
-745.171	-200.000	0.030	-0.240
-744.156	-0.405	0.096	0.070
-743.142	61.522	-0.071	0.073
-742.127	167.515	-0.081	0.118
-741.112	-200.000	0.006	0.339
-740.098	465.960	0.125	0.288
-739.083	151.348	-0.140	0.197
-738.069	-200.000	-0.033	0.196
-737.054	-185.041	0.287	-0.005
-736.039	-151.572	0.362	-0.028
-735.025	16.797	0.123	0.100
-734.010	0.735	-0.293	-0.216
-732.996	800.000	-0.030	-0.132
-731.981	-88.199	-0.444	0.137
-730.966	-96.128	-0.203	0.056
-729.952	-200.000	0.011	-0.184
-728.937	134.562	0.257	0.344
-727.923	800.000	0.127	0.377
-726.908	27.749	-0.105	0.091
-725.894	25.077	0.073	0.063
-724.879	73.641	0.150	0.162
-723.864	-105.481	0.066	-0.015
-722.850	677.589	0.045	-0.121
-721.835	318.612	0.117	-0.229
-720.821	-200.000	-0.027	-0.280
-719.806	-4.701	-0.116	-0.083
-718.791	-108.321	-0.265	-0.059
-717.777	136.548	-0.023	-0.030
-716.762	-200.000	0.009	-0.111
-715.748	-125.299	-0.072	0.011
-714.733	800.000	-0.065	-0.281
-713.718	312.919	0.106	-0.205
-712.704	-132.967	0.195	0.026
-711.689	209.255	-0.126	-0.203
-710.675	-144.380	-0.211	-0.020
-709.660	-200.000	0.027	-0.269
-708.645	-200.000	0.001	-0.168
-707.631	87.774	-0.364	-0.415
-706.616	207.897	-0.211	-0.340
-705.602	91.871	0.132	-0.153
-704.587	-200.000	-0.053	-0.321
-703.572	134.067	-0.167	-0.223
-702.558	137.593	-0.142	0.192
-701.543	-23.209	0.154	-0.095
-700.529	-113.213	-0.163	0.033
-699.514	-200.000	-0.043	-0.257
-698.499	-47.226	-0.163	-0.082
-697.485	-139.594	0.331	0.036
-696.470	-42.569	0.114	0.060
-695.456	422.606	0.092	0.202
-694.441	77.212	-0.079	0.087
-693.426	739.495	-0.073	-0.203
-692.412	-1.921	0.273	-0.197
-691.397	-37.265	-0.102	0.056
-690.383	115.122	0.091	-0.114
-689.368	-106.109	-0.285	0.066
-688.354	-106.594	-0.453	-0.104
-687.339	-200.000	0.015	-0.175
-686.324	-200.000	0.014	0.157
-685.310	800.000	-0.031	-0.102
-684.295	36.038	0.288	0.261
-683.281	-105.278	-0.301	-0.071
-682.266	376.861	0.136	-0.285
-681.251	-200.000	-0.022	0.249
-680.237	287.767	-0.075	0.140
-679.222	-99.024	0.153	-0.040
-678.208	-63.255	-0.104	0.044
-677.193	800.000	0.052	0.185
-676.178	-200.000	-0.006	-0.074
-675.164	-70.838	-0.235	0.091
-674.149	-200.000	-0.009	0.145
-673.135	-125.615	-0.271	0.042
-672.120	565.008	0.077	-0.192
-671.105	800.000	-0.067	-0.237
-670.091	800.000	-0.009	-0.034
-669.076	-200.000	-0.027	-0.187
-668.062	-200.000	-0.006	-0.077
-667.047	-138.271	0.336	0.038
-666.032	702.854	-0.106	0.288
-665.018	147.381	-0.162	0.225
-664.003	394.866	-0.005	-0.011
-662.989	11.371	0.158	-0.124
-661.974	-17.686	0.139	0.090
-660.959	-200.000	-0.027	-0.202
-659.945	-200.000	-0.048	-0.300
-658.930	770.216	0.054	0.152
-657.916	-171.345	-0.261	0.009
-656.901	-127.644	0.147	0.022
-655.886	-200.000	0.009	-0.308
-654.872	137.593	0.180	-0.243
-653.857	62.820	-0.144	0.148
-652.843	-200.000	0.016	-0.079
-651.828	118.238	0.142	0.180
-650.814	75.279	0.248	0.269
-649.799	-102.073	-0.102	-0.025
-648.784	61.797	-0.143	-0.146
-647.770	415.761	0.058	-0.127
-646.755	-6.113	-0.087	-0.061
-645.741	-59.308	0.188	0.083
-644.726	391.210	-0.154	0.328
-643.711	-200.000	-0.038	-0.319
-642.697	-137.364	0.104	-0.012
-641.682	-34.414	0.164	0.092
-640.668	-200.000	0.002	-0.246
-639.653	-8.360	0.179	-0.123
-638.638	-111.222	0.280	0.059
-637.624	300.134	0.089	0.169
-636.609	170.139	0.076	0.112
-635.595	-63.310	0.090	0.038
-634.580	703.208	0.091	-0.247
-633.565	81.975	-0.110	0.122
-632.551	-134.861	-0.181	0.023
-631.536	82.052	-0.258	0.287
-630.522	-200.000	-0.016	0.181
-629.507	-102.805	-0.168	-0.041
-628.492	9.472	-0.063	-0.049
-627.478	45.170	0.081	-0.077
-626.463	-200.000	0.002	-0.111
-625.449	194.284	-0.173	-0.268
-624.434	-200.000	-0.108	-0.563
-623.419	-79.126	-0.276	-0.096
-622.405	-81.931	-0.283	-0.095
-621.390	-200.000	0.016	-0.107
-620.376	259.681	-0.005	-0.008
-619.361	-11.429	-0.079	-0.053
-618.346	-200.000	-0.017	0.084
-617.332	-91.678	0.446	-0.130
-616.317	-72.425	-0.401	-0.152
-615.303	18.988	-0.147	0.121
-614.288	214.233	-0.056	0.090
-613.273	174.983	-0.183	0.272
-612.259	800.000	-0.068	-0.278
-611.244	184.184	0.246	-0.374
-610.230	635.143	-0.053	-0.138
-609.215	-121.898	-0.257	0.043
-608.201	-10.370	-0.139	-0.095
-607.186	-143.916	-0.306	-0.030
-606.171	-45.112	-0.188	-0.096
-605.157	800.000	0.052	0.168
-604.142	-12.329	-0.181	-0.122
-603.128	50.406	0.308	0.299
-602.113	-55.148	-0.118	-0.054
-601.098	154.389	-0.278	-0.391
-600.084	135.902	0.082	-0.109
-599.069	54.754	-0.109	-0.107
-598.055	-71.012	0.285	-0.110
-597.040	169.934	0.192	-0.281
-596.025	36.689	0.161	-0.146
-595.011	-124.361	-0.285	-0.046
-593.996	21.194	0.167	-0.139
-592.982	-200.000	0.014	0.080
-591.967	371.683	0.156	0.324
-590.952	-114.866	0.018	0.003
-589.938	800.000	0.083	-0.261
-588.923	-200.000	-0.012	-0.070
-587.909	59.167	0.089	0.090
-586.894	242.702	-0.047	-0.081
-585.879	-200.000	0.013	0.146
-584.865	-61.144	-0.219	-0.095
-583.850	800.000	0.018	-0.067
-582.836	35.770	-0.365	-0.329
-581.821	300.397	0.100	-0.189
-580.806	-34.140	0.135	0.076
-579.792	106.116	-0.045	0.055
-578.777	324.863	0.036	-0.071
-577.763	-200.000	0.011	-0.103
-576.748	586.171	-0.040	-0.101
-575.733	71.342	0.062	0.066
-574.719	-134.654	0.329	0.041
-573.704	-152.965	-0.351	-0.025
-572.690	619.046	0.012	0.031
-571.675	-154.064	-0.196	0.014
-570.661	138.124	-0.284	0.381
-569.646	800.000	-0.117	-0.344
-568.631	-46.981	0.103	0.051
-567.617	-20.422	0.319	0.201
-566.602	121.248	0.113	-0.145
-565.588	-200.000	0.015	0.271
-564.573	-6.211	-0.116	-0.081
-563.558	-25.693	-0.035	-0.021
-562.544	-56.418	-0.228	0.104
-561.529	-38.248	-0.032	0.017
-560.515	466.674	0.036	-0.083
-559.500	-141.112	-0.413	0.043
-558.485	-103.999	-0.373	0.089
-557.471	-143.074	-0.198	-0.020
-556.456	-66.144	-0.276	0.113
-555.442	728.028	-0.043	-0.119
-554.427	14.082	-0.341	-0.272
-553.412	-20.987	0.217	-0.136
-552.398	312.615	0.134	0.258
-551.383	-111.886	0.338	-0.070
-550.369	30.389	-0.175	0.153
-549.354	-45.057	0.109	-0.056
-548.339	-200.000	-0.011	0.108
-547.325	11.242	0.301	-0.236
-546.310	241.171	0.071	0.122
-545.296	-200.000	0.018	-0.468
-544.281	-73.492	-0.165	-0.062
-543.266	-142.630	0.246	0.025
-542.252	-200.000	0.052	0.320
-541.237	127.310	-0.195	0.253
-540.223	-147.650	-0.187	0.016
-539.208	115.822	0.193	0.242
-538.193	-149.388	-0.349	-0.028
-537.179	-22.986	0.197	-0.121
-536.164	-14.150	0.318	0.210
-535.150	164.805	0.179	0.259
-534.135	61.081	0.234	-0.238
-533.121	-200.000	-0.013	0.060
-532.106	-39.670	-0.150	0.080
-531.091	-46.198	0.075	0.038
-530.077	-200.000	-0.043	0.325
-529.062	-200.000	0.017	0.292
-528.048	523.188	-0.049	0.117
-527.033	-193.806	0.257	0.002
-526.018	-19.617	0.276	0.175
-525.004	-104.635	0.168	0.040
-523.989	-49.167	0.256	0.125
-522.975	17.650	0.223	0.182
-521.960	-28.182	0.338	0.200
-520.945	-200.000	0.004	-0.205
-519.931	-173.565	-0.201	0.006
-518.916	800.000	-0.114	0.413
-517.902	-28.641	-0.274	0.161
-516.887	-200.000	0.015	0.102
-515.872	-146.588	0.397	0.035
-514.858	83.984	0.119	-0.133
-513.843	-57.572	-0.065	-0.029
-512.829	363.770	-0.038	-0.078
-511.814	-112.021	-0.054	-0.011
-510.799	251.899	0.220	-0.382
-509.785	508.787	0.127	-0.302
-508.770	-156.205	-0.166	-0.011
-507.756	800.000	0.032	0.121
-506.741	-200.000	-0.023	-0.438
-505.726	-61.938	0.289	0.123
-504.712	-200.000	0.032	-0.233
-503.697	118.253	-0.110	0.138
-502.683	147.870	-0.082	-0.113
-501.668	-200.000	0.024	0.279
-500.653	-87.732	0.114	-0.035
-499.639	222.326	0.093	0.153
-498.624	-101.138	-0.206	0.052
-497.610	-116.696	0.267	0.050
-496.595	85.638	0.164	0.184
-495.581	82.757	-0.106	0.117
-494.566	800.000	-0.033	-0.117
-493.551	-99.569	-0.204	-0.052
-492.537	-4.276	-0.050	0.036
-491.522	-200.000	0.063	-0.380
-490.508	-192.857	-0.225	-0.002
-489.493	-200.000	0.051	0.242
-488.478	800.000	-0.112	-0.487
-487.464	-93.278	-0.189	-0.054
-486.449	-18.008	-0.068	-0.043
-485.435	-60.829	0.558	0.241
-484.420	-96.522	-0.477	-0.128
-483.405	21.529	-0.284	-0.236
-482.391	800.000	0.060	-0.187
-481.376	-19.165	0.331	0.210
-480.362	800.000	0.041	-0.135
-479.347	-200.000	-0.000	0.185
-478.332	800.000	0.032	0.120
-477.318	-141.962	0.066	-0.007
-476.303	110.222	-0.043	-0.053
-475.289	76.892	-0.032	-0.035
-474.274	532.969	0.090	-0.219
-473.259	-200.000	0.015	-0.412
-472.245	-165.731	-0.410	0.018
-471.230	-200.000	-0.018	-0.105
-470.216	456.526	0.150	0.339
-469.201	212.180	-0.147	0.236
-468.186	-53.678	-0.267	-0.124
-467.172	-75.852	0.121	0.044
-466.157	136.266	0.035	0.047
-465.143	-200.000	-0.012	0.105
-464.128	81.760	-0.083	-0.092
-463.113	402.581	-0.056	0.119
-462.099	-200.000	-0.025	0.367
-461.084	251.868	0.060	-0.104
-460.070	184.064	-0.187	0.282
-459.055	-125.591	0.199	-0.031
-458.040	-151.287	-0.185	0.014
-457.026	89.385	0.119	0.135
-456.011	171.729	-0.217	0.318
-454.997	613.409	-0.062	0.158
-453.982	800.000	-0.026	0.091
-452.968	-134.397	0.119	0.015
-451.953	373.549	-0.074	-0.154
-450.938	411.358	-0.062	-0.133
-449.924	800.000	0.046	-0.140
-448.909	800.000	-0.081	0.233
-447.895	-139.720	-0.216	0.023
-446.880	-11.167	-0.237	-0.159
-445.865	800.000	0.040	-0.132
-444.851	800.000	-0.122	-0.388
-443.836	-104.434	0.223	-0.053
-442.822	26.615	-0.157	0.134
-441.807	287.869	0.149	-0.275
-440.792	24.537	-0.256	0.216
-439.778	788.504	0.105	0.295
-438.763	-41.305	-0.100	0.053
-437.749	-200.000	0.001	0.244
-436.734	800.000	-0.075	0.275
-435.719	-200.000	-0.018	0.199
-434.705	-93.086	-0.344	-0.098
-433.690	800.000	0.006	0.017
-432.676	800.000	-0.097	0.414
-431.661	-136.913	0.145	-0.017
-430.646	800.000	0.133	-0.429
-429.632	-81.642	-0.225	0.075
-428.617	91.406	-0.107	-0.122
-427.603	194.535	0.192	0.297
-426.588	137.257	0.061	0.081
-425.573	314.838	-0.140	0.268
-424.559	-57.385	0.076	0.034
-423.544	800.000	-0.098	-0.319
-422.530	566.635	-0.050	-0.123
-421.515	255.838	0.162	-0.284
-420.500	-40.029	0.173	0.092
-419.486	-133.343	-0.199	-0.025
-418.471	31.572	0.228	0.199
-417.457	359.547	0.089	0.182
-416.442	-143.682	-0.431	0.042
-415.428	-200.000	-0.018	0.414
-414.413	603.837	0.069	0.175
-413.398	-105.991	0.143	-0.033
-412.384	800.000	0.017	0.054
-411.369	-129.862	-0.143	0.020
-410.355	36.603	-0.054	0.048
-409.340	25.922	-0.170	0.144
-408.325	800.000	0.040	-0.117
-407.311	-106.067	-0.243	0.056
-406.296	-200.000	0.035	-0.326
-405.282	-200.000	-0.047	-0.253
-404.267	326.968	0.169	-0.329
-403.252	303.402	-0.078	0.147
-402.238	799.773	-0.089	0.249
-401.223	-113.248	-0.172	0.034
-400.209	-136.553	0.067	-0.008
-399.194	-73.581	-0.326	-0.121
-398.179	664.796	0.039	0.103
-397.165	800.000	-0.137	-0.388
-396.150	800.000	-0.098	0.384
-395.136	199.542	0.144	0.225
-394.121	-200.000	-0.054	0.311
-393.106	252.151	-0.048	0.083
-392.092	800.000	0.074	-0.218
-391.077	-94.040	-0.134	-0.037
-390.063	2.781	-0.135	-0.100
-389.048	-163.902	0.125	0.006
-388.033	-200.000	0.009	-0.097
-387.019	-60.064	0.315	-0.137
-386.004	-7.066	-0.037	-0.026
-384.990	-200.000	-0.003	-0.060
-383.975	-200.000	-0.018	0.198
-382.960	199.258	-0.013	-0.021
-381.946	131.347	0.245	-0.321
-380.931	-128.628	0.184	0.027
-379.917	440.079	-0.078	0.173
-378.902	75.290	-0.040	0.043
-377.888	-200.000	-0.017	0.212
-376.873	118.349	0.253	0.318
-375.858	-144.674	0.148	0.014
-374.844	800.000	0.037	0.142
-373.829	800.000	-0.026	0.090
-372.815	-7.775	0.234	-0.161
-371.800	160.650	0.106	-0.150
-370.785	7.373	0.192	-0.146
-369.771	-200.000	-0.019	0.177
-368.756	169.209	0.168	-0.244
-367.742	800.000	-0.005	-0.016
-366.727	-94.601	-0.331	-0.092
-365.712	-46.150	0.090	0.045
-364.698	800.000	0.027	-0.082
-363.683	-200.000	0.031	0.148
-362.669	800.000	0.078	0.222
-361.654	-200.000	-0.000	0.263
-360.639	-33.071	0.023	-0.013
-359.625	800.000	-0.048	0.215
-358.610	800.000	0.042	0.137
-357.596	-141.949	-0.429	-0.043
-356.581	77.201	0.253	0.274
-355.566	129.510	0.153	0.198
-354.552	300.776	-0.071	-0.133
-353.537	40.747	-0.021	-0.019
-352.523	-58.840	0.118	0.052
-351.508	30.401	0.227	0.197
-350.493	63.556	0.072	0.074
-349.479	83.819	-0.105	0.116
-348.464	731.098	0.008	0.022
-347.450	357.324	-0.076	-0.155
-346.435	-200.000	0.022	-0.192
-345.420	-200.000	-0.181	0.001
-344.406	-120.868	0.086	0.015
-343.391	-200.000	0.019	0.227
-342.377	-200.000	-0.018	0.120
-341.362	128.000	0.090	-0.117
-340.348	-200.000	0.093	-0.452
-339.333	8.082	0.075	0.057
-338.318	-200.000	0.005	-0.071
-337.304	14.056	0.202	-0.160
-336.289	-55.409	-0.225	-0.102
-335.275	75.705	-0.187	-0.200
-334.260	800.000	0.021	-0.067
-333.245	-32.856	-0.102	-0.057
-332.231	708.119	0.089	-0.238
-331.216	-200.000	-0.010	-0.221
-330.202	225.727	-0.079	-0.130
-329.187	-139.948	-0.200	-0.021
-328.172	80.351	0.033	0.036
-327.158	496.677	0.080	-0.186
-326.143	-73.821	0.197	-0.073
-325.129	-200.000	0.021	-0.121
-324.114	547.423	0.168	-0.407
-323.099	-130.342	0.294	-0.041
-322.085	30.533	-0.149	0.130
-321.070	-200.000	-0.018	-0.095
-320.056	-22.629	-0.065	-0.040
-319.041	166.672	0.051	-0.074
-318.026	800.000	0.010	-0.028
-317.012	-110.634	0.325	0.068
-315.997	564.950	-0.028	0.068
-314.983	656.440	0.027	-0.071
-313.968	499.533	0.029	-0.068
-312.953	542.774	-0.060	0.145
-311.939	133.338	-0.057	0.075
-310.924	109.494	-0.151	0.183
-309.910	-107.090	-0.056	0.013
-308.895	192.051	0.140	0.214
-307.880	800.000	-0.050	-0.167
-306.866	158.003	-0.099	0.139
-305.851	-17.038	0.196	-0.125
-304.837	-103.055	0.221	0.053
-303.822	439.721	-0.014	-0.031
-302.807	-10.486	-0.297	0.200
-301.793	238.263	-0.071	-0.119
-300.778	-8.790	0.123	-0.084
-299.764	637.984	0.087	-0.225
-298.749	-200.000	-0.008	-0.174
-297.735	169.406	-0.030	0.044
-296.720	-99.011	0.147	-0.038
-295.705	800.000	-0.035	-0.135
-294.691	100.533	0.153	0.180
-293.676	-147.428	-0.269	0.023
-292.662	-150.320	-0.166	0.013
-291.647	-46.242	0.113	-0.056
-290.632	800.000	0.036	0.151
-289.618	-120.277	-0.124	-0.021
-288.603	28.034	0.145	-0.124
-287.589	-83.166	-0.195	0.063
-286.574	800.000	-0.078	0.241
-285.559	359.601	-0.090	0.183
-284.545	-200.000	-0.042	-0.189
-283.530	26.067	-0.163	-0.138
-282.516	-200.000	0.046	-0.210
-281.501	683.570	0.136	0.360
-280.486	-195.078	-0.046	-0.000
-279.472	-129.439	-0.072	-0.010
-278.457	-200.000	-0.049	-0.376
-277.443	65.480	-0.145	0.149
-276.428	78.346	0.199	-0.216
-275.413	487.513	-0.109	0.252
-274.399	252.849	-0.043	-0.075
-273.384	-171.872	0.179	0.006
-272.370	16.848	0.212	0.170
-271.355	-200.000	0.027	0.470
-270.340	800.000	0.062	-0.234
-269.326	263.135	0.150	0.264
-268.311	800.000	0.111	-0.321
-267.297	34.622	-0.151	0.134
-266.282	-147.851	0.232	0.020
-265.267	-42.882	-0.197	0.101
-264.253	471.594	0.023	-0.052
-263.238	65.405	-0.187	0.192
-262.224	-200.000	-0.074	-0.413
-261.209	212.231	0.097	0.154
-260.195	18.833	-0.111	-0.090
-259.180	-102.955	-0.366	0.088
-258.165	-23.687	-0.221	-0.134
-257.151	-46.093	0.030	0.015
-256.136	-200.000	0.021	-0.313
-255.122	153.502	-0.163	-0.226
-254.107	800.000	-0.120	-0.438
-253.092	376.346	0.119	0.245
-252.078	-144.507	0.083	0.008
-251.063	-200.000	0.014	0.213
-250.049	-146.751	-0.440	0.038
-249.034	102.242	-0.128	-0.152
-248.019	-192.028	-0.446	-0.004
-247.005	81.346	-0.351	0.383
-245.990	-121.105	0.334	-0.057
-244.976	-89.364	0.590	0.176
-243.961	-55.263	0.238	-0.108
-242.946	-162.861	-0.207	0.010
-241.932	180.578	0.120	0.178
-240.917	-200.000	-0.033	-0.178
-239.903	800.000	-0.040	0.152
-238.888	-70.288	0.388	-0.149
-237.873	-39.136	-0.056	0.030
-236.859	-158.475	0.337	0.020
-235.844	-75.104	-0.297	-0.107
-234.830	-200.000	-0.030	-0.328
-233.815	-200.000	0.037	-0.337
-232.800	800.000	0.056	0.180
-231.786	490.918	0.064	-0.148
-230.771	1.959	0.173	-0.126
-229.757	-179.747	0.396	-0.009
-228.742	244.762	-0.117	0.198
-227.727	-200.000	-0.012	0.286
-226.713	311.968	-0.189	0.358
-225.698	227.005	-0.064	0.105
-224.684	-200.000	0.062	-0.289
-223.669	30.947	0.208	0.180
-222.655	-67.851	-0.193	0.076
-221.640	166.520	0.089	-0.128
-220.625	146.526	0.275	0.373
-219.611	2.140	0.053	-0.039
-218.596	-200.000	0.004	0.196
-217.582	-26.741	0.174	-0.103
-216.567	75.566	-0.360	0.384
-215.552	-47.791	0.047	0.023
-214.538	12.174	-0.174	0.135
-213.523	385.339	-0.150	0.312
-212.509	47.301	0.024	-0.022
-211.494	1.583	-0.344	-0.250
-210.479	621.646	-0.038	-0.097
-209.465	610.305	0.102	-0.258
-208.450	-120.828	0.392	0.067
-207.436	-36.009	0.142	-0.077
-206.421	800.000	-0.061	0.219
-205.406	452.498	0.098	-0.220
-204.392	33.712	0.296	-0.260
-203.377	-90.060	-0.288	0.085
-202.363	477.888	0.075	0.172
-201.348	-200.000	0.004	-0.163
-200.333	73.500	0.076	0.081
-199.319	-100.745	-0.259	-0.065
-198.304	-38.618	0.146	0.078
-197.290	103.672	-0.243	-0.288
-196.275	19.727	0.134	-0.109
-195.260	560.617	-0.051	-0.125
-194.246	185.483	-0.031	-0.047
-193.231	-75.746	-0.130	-0.046
-192.217	-4.624	0.037	0.026
-191.202	141.121	-0.047	-0.062
-190.187	-10.885	0.363	-0.242
-189.173	649.494	0.094	0.244
-188.158	6.458	0.076	0.057
-187.144	-121.390	0.344	0.058
-186.129	59.491	-0.072	0.072
-185.114	-72.563	0.312	-0.116
-184.100	612.064	0.079	0.198
-183.085	309.715	0.129	0.243
-182.071	6.031	0.091	-0.068
-181.056	244.449	-0.114	0.193
-180.042	112.614	-0.158	0.193
-179.027	800.000	0.044	-0.181
-178.012	-4.059	0.015	-0.011
-176.998	-200.000	-0.005	0.191
-175.983	800.000	0.029	0.099
-174.969	277.465	-0.103	0.185
-173.954	-95.893	-0.085	0.023
-172.939	738.714	0.071	-0.191
-171.925	-17.812	0.150	-0.095
-170.910	210.552	0.118	-0.188
-169.896	-20.484	0.316	-0.196
-168.881	-124.066	0.139	-0.022
-167.866	515.400	-0.165	-0.388
-166.852	800.000	0.053	-0.220
-165.837	-176.252	0.382	-0.010
-164.823	-76.343	-0.114	-0.041
-163.808	310.169	0.064	0.121
-162.793	-110.030	-0.400	-0.084
-161.779	-125.934	-0.166	0.025
-160.764	-64.393	0.217	0.089
-159.750	324.211	-0.055	0.106
-158.735	-72.694	0.353	0.131
-157.720	-136.210	-0.207	0.024
-156.706	-150.245	0.313	-0.024
-155.691	103.167	-0.120	0.141
-154.677	800.000	0.110	0.367
-153.662	-158.722	-0.095	0.005
-152.647	800.000	0.056	-0.159
-151.633	-36.318	0.184	0.100
-150.618	442.377	0.099	-0.218
-149.604	800.000	-0.037	0.134
-148.589	133.033	0.145	0.189
-147.574	-200.000	-0.036	0.556
-146.560	-57.864	0.253	0.112
-145.545	-172.505	-0.172	0.005
-144.531	6.234	0.219	-0.164
-143.516	523.306	0.089	0.211
-142.502	743.311	0.148	-0.400
-141.487	286.574	-0.099	-0.180
-140.472	-200.000	0.022	-0.122
-139.458	-94.700	0.218	-0.060
-138.443	-200.000	-0.038	-0.184
-137.429	-122.725	0.179	0.029
-136.414	800.000	-0.069	-0.262
-135.399	800.000	-0.157	-0.479
-134.385	83.400	0.213	0.234
-133.370	-175.296	0.267	0.007
-132.356	-173.855	-0.156	-0.005
-131.341	110.736	-0.035	-0.042
-130.326	57.940	0.126	0.124
-129.312	-9.594	0.119	-0.080
-128.297	-15.796	-0.257	-0.165
-127.283	-200.000	-0.056	-0.556
-126.268	-111.102	-0.181	0.037
-125.253	544.716	-0.041	-0.098
-124.239	-200.000	-0.040	0.348
-123.224	800.000	0.030	-0.099
-122.210	51.498	-0.278	0.265
