DTS Sentinel unit serial number:	SN413079Multiplexer serial number:	ORYXHardware model number:	OX4-SRSoftware version number:	ORYX F/W v4.00 Oryx Data Collector v3.7.2.0data status	okinstallation	princeton_trtdifferential loss correction	single-endedforward channel	channel 4reverse channel	N/Adate	2019/09/19time	02:29:35forward acquisition time	60.00reverse acquisition time	0.00gamma	496.2192k internal	0.2340k external	0.2340temperature offset calibration	1.0030default loss term (dB/km)	0.3790temperature slope calibration	1.0000multiplexer offset coefficient	1.0000multiplexer slope coefficient	1.0000fibre end	0.00T internal ref (°C)	21.00T ext. ref 1 (°C)	0.67T ext. ref 2 (°C)	14.72length (m)	temperature (°C)	Stokes	anti-Stokes-747.200	-42.662	-0.143	0.073
-746.185	-199.601	-0.434	0.002
-745.171	800.000	0.101	0.284
-744.156	-3.521	-0.270	0.189
-743.142	231.864	-0.134	0.221
-742.127	292.439	0.080	0.145
-741.112	800.000	-0.078	-0.224
-740.098	800.000	0.087	0.260
-739.083	43.700	-0.373	0.342
-738.069	-110.672	-0.031	-0.006
-737.054	-71.222	0.134	-0.050
-736.039	-142.916	-0.182	0.018
-735.025	-106.128	0.285	0.064
-734.010	529.124	0.099	0.234
-732.996	92.056	0.089	-0.100
-731.981	-46.291	0.131	0.064
-730.966	19.500	0.175	0.141
-729.952	-107.758	-0.130	-0.028
-728.937	-66.098	-0.296	0.118
-727.923	-184.145	0.153	0.003
-726.908	371.261	-0.026	0.053
-725.894	-168.373	-0.624	0.024
-724.879	800.000	0.086	-0.297
-723.864	773.360	0.091	0.249
-722.850	449.859	-0.085	0.189
-721.835	-100.376	-0.123	0.031
-720.821	79.326	-0.078	-0.083
-719.806	-200.000	-0.011	-0.436
-718.791	70.037	0.197	-0.204
-717.777	30.811	-0.386	-0.331
-716.762	-124.369	-0.254	-0.040
-715.748	212.109	0.134	0.211
-714.733	-200.000	0.041	-0.417
-713.718	293.837	-0.084	-0.154
-712.704	-200.000	-0.008	-0.111
-711.689	-63.849	0.135	0.055
-710.675	379.065	0.209	0.428
-709.660	16.255	-0.191	-0.151
-708.645	610.887	0.084	-0.211
-707.631	-59.434	0.191	0.082
-706.616	800.000	-0.086	-0.240
-705.602	-107.741	0.151	0.033
-704.587	-99.462	0.105	-0.027
-703.572	354.115	-0.088	0.174
-702.558	34.836	-0.225	0.197
-701.543	800.000	0.037	0.136
-700.529	-96.508	-0.176	-0.046
-699.514	153.437	0.094	0.128
-698.499	-114.633	-0.337	-0.065
-697.485	31.677	0.076	-0.065
-696.470	-113.027	-0.234	0.046
-695.456	147.306	-0.175	-0.236
-694.441	-148.092	-0.268	0.022
-693.426	113.462	0.087	0.106
-692.412	265.554	0.021	0.036
-691.397	81.282	0.093	-0.100
-690.383	331.367	-0.168	0.324
-689.368	-161.621	-0.243	0.012
-688.354	51.573	-0.122	-0.116
-687.339	-200.000	-0.001	-0.093
-686.324	-74.509	-0.304	-0.110
-685.310	-139.855	0.121	0.013
-684.295	680.459	-0.038	0.099
-683.281	94.815	-0.349	0.397
-682.266	-131.281	0.070	-0.009
-681.251	-81.421	-0.092	-0.030
-680.237	-87.047	0.281	0.085
-679.222	-26.076	0.159	-0.093
-678.208	58.544	-0.127	0.125
-677.193	459.098	-0.080	-0.179
-676.178	800.000	-0.060	0.192
-675.164	-183.185	-0.276	-0.005
-674.149	419.605	-0.110	-0.236
-673.135	192.657	0.107	0.161
-672.120	-24.797	-0.203	0.121
-671.105	800.000	0.030	-0.086
-670.091	800.000	0.017	0.056
-669.076	-32.935	0.407	-0.226
-668.062	-141.779	-0.168	0.017
-667.047	115.791	0.060	-0.073
-666.032	247.463	-0.127	-0.215
-665.018	70.815	0.038	-0.039
-664.003	-85.440	-0.136	0.042
-662.989	36.301	0.187	0.165
-661.974	451.026	-0.090	0.199
-660.959	-20.465	-0.063	0.039
-659.945	-7.337	-0.381	-0.258
-658.930	-41.148	-0.117	-0.060
-657.916	800.000	0.097	0.326
-656.901	-31.356	0.024	0.014
-655.886	-19.911	-0.174	-0.108
-654.872	-200.000	0.019	0.308
-653.857	-14.317	0.140	-0.090
-652.843	-200.000	0.048	-0.218
-651.828	800.000	-0.063	0.213
-650.814	91.670	0.120	0.135
-649.799	177.465	-0.222	-0.323
-648.784	800.000	0.070	0.222
-647.770	-45.626	0.633	-0.313
-646.755	29.178	-0.135	-0.115
-645.741	-153.129	-0.254	-0.018
-644.726	-18.934	-0.199	0.124
-643.711	-200.000	0.000	0.054
-642.697	800.000	-0.079	-0.291
-641.682	-200.000	0.099	0.449
-640.668	-80.284	-0.290	0.097
-639.653	-197.876	-0.550	-0.003
-638.638	423.072	0.173	-0.372
-637.624	-200.000	-0.009	-0.165
-636.609	-200.000	-0.003	0.281
-635.595	224.563	-0.129	0.209
-634.580	-22.939	0.237	-0.142
-633.565	41.346	-0.158	-0.142
-632.551	-43.687	0.169	0.085
-631.536	-200.000	-0.005	-0.236
-630.522	0.763	0.362	-0.259
-629.507	-92.865	-0.221	0.062
-628.492	581.159	-0.146	-0.356
-627.478	-47.015	-0.192	-0.094
-626.463	-38.525	-0.276	-0.146
-625.449	201.088	0.089	0.136
-624.434	-91.862	0.166	0.047
-623.419	-200.000	0.065	0.417
-622.405	-62.823	0.086	-0.036
-621.390	109.066	0.151	-0.181
-620.376	-41.923	-0.251	0.129
-619.361	-113.356	-0.201	0.039
-618.346	124.552	0.182	-0.229
-617.332	-0.320	-0.121	0.086
-616.317	-71.363	0.322	0.120
-615.303	-23.028	-0.382	-0.230
-614.288	99.926	0.092	-0.106
-613.273	-51.853	0.236	-0.110
-612.259	-65.565	-0.045	-0.018
-611.244	247.470	0.050	0.085
-610.230	-83.448	0.220	0.070
-609.215	-52.243	0.287	-0.133
-608.201	-123.665	-0.072	0.011
-607.186	-101.205	-0.594	0.145
-606.171	36.021	-0.188	0.165
-605.157	-200.000	-0.022	0.163
-604.142	-89.476	-0.262	-0.077
-603.128	-42.445	-0.271	0.138
-602.113	-200.000	-0.062	0.397
-601.098	-72.089	0.181	-0.067
-600.084	14.013	-0.129	-0.100
-599.069	-130.110	0.182	-0.025
-598.055	90.214	-0.214	0.239
-597.040	-36.104	-0.110	0.059
-596.025	563.954	0.060	0.144
-595.011	249.941	0.049	0.083
-593.996	177.371	-0.133	0.193
-592.982	34.059	0.284	-0.247
-591.967	-55.609	0.090	-0.040
-590.952	647.431	0.154	-0.391
-589.938	-121.269	-0.129	0.022
-588.923	113.367	0.017	-0.020
-587.909	-111.865	-0.119	-0.024
-586.894	800.000	-0.172	-0.510
-585.879	800.000	0.052	-0.165
-584.865	161.077	0.043	0.060
-583.850	800.000	0.106	0.299
-582.836	287.683	-0.200	0.361
-581.821	172.194	0.172	0.247
-580.806	-24.033	-0.134	-0.080
-579.792	-74.273	-0.118	-0.042
-578.777	-28.429	-0.181	-0.104
-577.763	-46.939	-0.157	-0.077
-576.748	-200.000	0.016	0.096
-575.733	-159.895	0.185	0.010
-574.719	-67.905	-0.168	0.065
-573.704	-11.983	0.087	0.057
-572.690	-200.000	0.000	0.355
-571.675	-77.803	-0.448	0.154
-570.661	-182.559	-0.209	0.004
-569.646	800.000	0.066	0.257
-568.631	-151.646	-0.133	0.010
-567.617	167.336	0.053	0.074
-566.602	-41.558	0.205	-0.105
-565.588	-122.798	0.012	-0.002
-564.573	49.798	-0.152	-0.143
-563.558	-76.403	-0.116	-0.041
-562.544	-200.000	-0.023	-0.253
-561.529	210.425	-0.138	-0.216
-560.515	116.680	0.189	-0.231
-559.500	361.572	0.113	-0.225
-558.485	-27.948	0.229	-0.132
-557.471	-44.383	0.060	-0.030
-556.456	-108.652	-0.140	-0.030
-555.442	163.173	0.131	0.183
-554.427	35.098	-0.159	-0.138
-553.412	-50.478	0.431	0.202
-552.398	-200.000	-0.023	0.158
-551.383	16.111	0.237	0.186
-550.369	480.386	-0.118	-0.266
-549.354	-142.621	-0.190	0.019
-548.339	-200.000	-0.019	-0.356
-547.325	-200.000	0.000	-0.030
-546.310	681.522	-0.053	0.137
-545.296	220.009	0.254	-0.405
-544.281	236.206	-0.083	-0.137
-543.266	-89.595	0.173	0.050
-542.252	69.198	0.195	0.200
-541.237	118.586	-0.223	-0.274
-540.223	-196.840	-0.165	-0.001
-539.208	-93.730	-0.225	-0.062
-538.193	-72.007	-0.191	-0.070
-537.179	-74.022	0.095	-0.034
-536.164	-44.954	0.315	0.156
-535.150	215.189	-0.088	-0.139
-534.135	-125.168	0.346	0.053
-533.121	-130.274	-0.244	-0.033
-532.106	-39.165	-0.036	0.019
-531.091	-81.760	0.192	0.063
-530.077	168.065	-0.200	0.283
-529.062	180.821	-0.203	-0.297
-528.048	366.954	-0.144	-0.289
-527.033	-193.990	0.159	-0.001
-526.018	81.943	-0.136	-0.147
-525.004	-46.660	-0.104	-0.051
-523.989	72.494	0.174	-0.180
-522.975	216.736	0.090	0.142
-521.960	28.706	0.153	0.129
-520.945	800.000	-0.026	-0.110
-519.931	-200.000	0.020	0.181
-518.916	800.000	0.041	0.115
-517.902	419.285	-0.211	0.450
-516.887	-83.391	-0.206	-0.065
-515.872	-99.851	-0.190	0.047
-514.858	-194.857	0.132	-0.001
-513.843	-26.096	0.239	-0.139
-512.829	-112.970	0.278	0.055
-511.814	-14.905	0.081	-0.052
-510.799	116.314	-0.268	-0.327
-509.785	-10.746	0.248	0.163
-508.770	-24.373	0.343	0.203
-507.756	800.000	-0.055	-0.232
-506.741	-90.397	0.123	0.035
-505.726	800.000	-0.127	-0.360
-504.712	-76.339	0.424	-0.148
-503.697	4.740	0.016	0.012
-502.683	16.014	0.176	0.137
-501.668	313.091	-0.117	-0.219
-500.653	-71.302	-0.211	-0.079
-499.639	320.437	0.160	0.303
-498.624	770.340	0.062	-0.167
-497.610	-200.000	0.064	-0.295
-496.595	6.407	-0.163	-0.120
-495.581	-91.618	0.171	0.048
-494.566	-22.232	0.300	-0.180
-493.551	201.547	0.139	-0.212
-492.537	215.698	0.093	-0.146
-491.522	325.171	-0.065	-0.123
-490.508	300.693	-0.215	0.394
-489.493	-176.791	-0.515	0.013
-488.478	-128.424	-0.177	0.025
-487.464	-200.000	0.011	0.382
-486.449	-19.104	-0.089	-0.055
-485.435	183.110	-0.060	-0.089
-484.420	-200.000	0.017	-0.409
-483.405	326.104	0.210	-0.399
-482.391	339.342	-0.027	0.051
-481.376	-69.841	0.066	0.025
-480.362	-71.149	-0.016	0.006
-479.347	65.523	0.171	0.172
-478.332	-107.909	-0.419	-0.090
-477.318	-129.722	0.115	0.016
-476.303	800.000	0.056	-0.158
-475.289	800.000	0.077	0.248
-474.274	-200.000	-0.045	0.364
-473.259	-1.897	-0.172	0.120
-472.245	800.000	0.101	-0.292
-471.230	365.521	0.130	0.260
-470.216	800.000	0.080	0.337
-469.201	-143.395	0.252	-0.024
-468.186	2.925	0.151	0.109
-467.172	-200.000	0.001	-0.085
-466.157	154.080	0.037	0.050
-465.143	31.037	0.046	0.039
-464.128	-108.813	0.360	0.076
-463.113	-101.885	-0.063	-0.015
-462.099	-151.247	0.168	-0.012
-461.084	154.674	0.223	0.303
-460.070	229.162	-0.086	-0.139
-459.055	-70.898	0.321	-0.120
-458.040	-200.000	-0.019	-0.427
-457.026	69.459	-0.020	-0.020
-456.011	165.346	-0.148	-0.208
-454.997	-122.279	-0.147	-0.024
-453.982	-115.041	-0.153	-0.029
-452.968	-8.717	0.159	-0.106
-451.953	-200.000	-0.024	-0.107
-450.938	-200.000	-0.013	-0.261
-449.924	-85.463	0.314	-0.097
-448.909	800.000	-0.069	-0.221
-447.895	-200.000	-0.010	0.088
-446.880	231.756	0.164	-0.267
-445.865	-82.614	-0.423	0.136
-444.851	-18.567	-0.357	-0.220
-443.836	333.197	-0.054	0.103
-442.822	-74.240	-0.292	-0.105
-441.807	-200.000	0.050	-0.289
-440.792	71.342	0.120	-0.123
-439.778	800.000	-0.023	0.074
-438.763	-7.584	-0.340	0.228
-437.749	-77.969	0.250	-0.086
-436.734	-200.000	-0.004	0.151
-435.719	-11.299	0.116	-0.076
-434.705	-200.000	0.051	-0.282
-433.690	800.000	-0.103	0.293
-432.676	159.740	0.044	0.061
-431.661	-51.639	0.293	-0.135
-430.646	-100.209	-0.259	-0.064
-429.632	131.621	0.126	0.161
-428.617	10.914	-0.170	0.128
-427.603	-95.575	0.158	0.042
-426.588	-100.312	0.100	-0.024
-425.573	-52.140	-0.152	-0.070
-424.559	89.268	-0.326	0.360
-423.544	800.000	-0.040	-0.165
-422.530	535.436	0.080	0.189
-421.515	121.741	-0.088	0.109
-420.500	-80.460	-0.231	0.076
-419.486	-65.529	0.090	-0.036
-418.471	138.392	-0.038	-0.049
-417.457	-174.409	-0.436	-0.012
-416.442	211.839	0.234	-0.364
-415.428	619.100	-0.029	-0.071
-414.413	154.896	0.077	0.104
-413.398	-176.411	0.253	-0.007
-412.384	-50.668	0.243	-0.113
-411.369	-133.394	-0.320	0.040
-410.355	-200.000	-0.012	-0.207
-409.340	-22.390	0.159	0.095
-408.325	139.546	-0.149	-0.194
-407.311	-200.000	-0.004	-0.152
-406.296	-200.000	0.043	-0.251
-405.282	800.000	-0.008	-0.024
-404.267	21.171	-0.127	-0.102
-403.252	-63.584	-0.149	0.060
-402.238	118.496	0.201	-0.246
-401.223	309.749	0.107	0.198
-400.209	320.599	-0.078	-0.147
-399.194	-193.801	-0.336	-0.003
-398.179	800.000	-0.062	0.257
-397.165	-107.555	-0.256	0.055
-396.150	100.038	0.086	0.099
-395.136	-106.904	0.119	0.026
-394.121	541.496	0.139	-0.326
-393.106	-200.000	0.040	-0.282
-392.092	-66.031	0.172	-0.068
-391.077	-33.008	0.153	-0.084
-390.063	-79.820	-0.444	-0.148
-389.048	364.230	-0.078	0.155
-388.033	207.620	0.147	-0.227
-387.019	59.725	0.091	0.089
-386.004	371.240	0.123	0.248
-384.990	-5.038	0.005	0.003
-383.975	-173.668	-0.280	0.008
-382.960	89.137	0.027	0.029
-381.946	-190.758	-0.038	0.000
-380.931	-200.000	0.005	0.090
-379.917	-200.000	-0.047	0.343
-378.902	-100.742	0.285	0.069
-377.888	-84.986	-0.269	0.083
-376.873	322.432	0.190	-0.359
-375.858	-89.928	0.291	-0.084
-374.844	71.022	-0.172	-0.176
-373.829	800.000	0.022	0.092
-372.815	36.705	0.082	-0.071
-371.800	614.013	0.062	-0.152
-370.785	-200.000	-0.010	0.136
-369.771	-200.000	-0.112	0.563
-368.756	623.389	-0.071	0.177
-367.742	-157.605	0.406	0.024
-366.727	-200.000	0.046	-0.234
-365.712	-200.000	-0.054	0.298
-364.698	-5.146	-0.132	0.090
-363.683	25.754	0.180	0.148
-362.669	-126.644	-0.176	0.026
-361.654	800.000	-0.045	0.158
-360.639	-106.218	0.171	0.038
-359.625	-79.026	0.212	0.071
-358.610	370.183	0.158	0.315
-357.596	800.000	0.043	0.169
-356.581	-181.052	0.091	0.002
-355.566	36.986	-0.385	0.337
-354.552	157.246	-0.094	-0.128
-353.537	200.495	-0.194	0.294
-352.523	-200.000	-0.009	-0.071
-351.508	-84.817	0.222	0.069
-350.493	44.025	0.153	-0.139
-349.479	-200.000	-0.011	0.257
-348.464	-47.677	0.075	-0.036
-347.450	69.621	0.176	0.179
-346.435	-26.777	-0.373	-0.216
-345.420	-82.205	0.227	-0.073
-344.406	72.950	0.223	-0.230
-343.391	-55.043	-0.313	-0.139
-342.377	255.751	0.183	0.310
-341.362	48.128	-0.091	-0.084
-340.348	-200.000	0.009	-0.092
-339.333	-200.000	0.081	-0.383
-338.318	571.337	-0.110	-0.265
-337.304	-81.601	0.364	0.118
-336.289	-103.580	-0.416	-0.096
-335.275	-111.578	0.137	0.027
-334.260	-97.778	-0.117	0.030
-333.245	334.634	-0.114	-0.218
-332.231	-35.162	0.212	-0.114
-331.216	-113.181	0.116	-0.023
-330.202	-94.452	0.093	-0.025
-329.187	561.195	-0.032	-0.077
-328.172	43.262	0.055	0.050
-327.158	-91.886	0.263	-0.074
-326.143	800.000	0.031	-0.089
-325.129	-200.000	-0.026	0.169
-324.114	77.553	-0.113	-0.118
-323.099	-154.077	-0.368	-0.025
-322.085	115.053	-0.190	0.229
-321.070	800.000	0.020	-0.061
-320.056	6.039	0.221	-0.161
-319.041	474.953	0.090	0.200
-318.026	-148.746	0.178	-0.014
-317.012	-58.670	-0.176	-0.075
-315.997	-200.000	-0.006	0.157
-314.983	266.946	0.143	0.247
-313.968	236.714	0.057	0.093
-312.953	-79.576	0.119	0.040
-311.939	-200.000	-0.018	0.311
-310.924	728.402	-0.045	0.118
-309.910	-200.000	0.044	0.389
-308.895	800.000	0.078	0.298
-307.880	-80.550	-0.175	-0.057
-306.866	130.738	-0.093	0.118
-305.851	-98.420	-0.088	0.022
-304.837	-67.454	0.128	0.049
-303.822	204.555	-0.214	0.327
-302.807	1.803	-0.100	0.071
-301.793	8.244	-0.158	-0.117
-300.778	-200.000	-0.001	0.276
-299.764	558.303	0.130	0.309
-298.749	17.749	0.335	0.263
-297.735	800.000	0.032	-0.103
-296.720	62.170	-0.180	0.177
-295.705	-19.787	0.249	-0.152
-294.691	-14.422	0.187	0.118
-293.676	800.000	-0.095	-0.279
-292.662	-200.000	-0.003	0.224
-291.647	800.000	0.061	0.215
-290.632	-111.165	-0.033	-0.007
-289.618	-200.000	-0.062	-0.294
-288.603	83.206	-0.125	-0.134
-287.589	-112.214	0.451	0.089
-286.574	-200.000	0.034	0.196
-285.559	491.949	-0.220	-0.497
-284.545	800.000	0.077	0.237
-283.530	-141.280	-0.425	-0.043
-282.516	25.827	0.300	-0.246
-281.501	-86.225	-0.147	-0.045
-280.486	-200.000	-0.021	-0.192
-279.472	-18.427	0.390	0.240
-278.457	-89.218	-0.487	-0.141
-277.443	-181.891	0.341	0.006
-276.428	502.895	-0.051	0.116
-275.413	269.806	0.068	-0.118
-274.399	-146.644	-0.159	0.014
-273.384	-200.000	-0.026	0.205
-272.370	-188.355	-0.296	0.004
-271.355	4.034	0.029	0.021
-270.340	575.391	0.055	0.132
-269.326	-82.443	-0.149	-0.048
-268.311	-145.096	0.328	0.029
-267.297	148.739	-0.127	0.169
-266.282	-108.892	0.383	0.081
-265.267	-200.000	-0.089	0.418
-264.253	19.079	0.250	0.197
-263.238	145.079	0.198	-0.260
-262.224	800.000	0.026	-0.082
-261.209	800.000	-0.093	0.386
-260.195	-104.961	-0.231	-0.052
-259.180	-200.000	-0.034	0.222
-258.165	411.700	0.066	-0.137
-257.151	800.000	0.127	0.465
-256.136	77.942	-0.065	0.068
-255.122	-143.035	0.448	0.043
-254.107	11.904	-0.245	-0.185
-253.092	152.589	-0.139	0.186
-252.078	800.000	-0.028	-0.083
-251.063	-51.757	-0.107	0.049
-250.049	-200.000	-0.053	0.501
-249.034	64.147	-0.182	0.180
-248.019	-153.959	-0.153	-0.010
-247.005	48.790	-0.086	0.079
-245.990	289.304	-0.202	0.361
-244.976	-200.000	0.039	0.172
-243.961	-93.306	-0.046	-0.013
-242.946	-3.145	-0.108	-0.074
-241.932	91.068	-0.098	-0.108
-240.917	-56.176	-0.154	0.067
-239.903	118.638	0.127	-0.155
-238.888	800.000	-0.024	-0.075
-237.873	182.823	0.198	0.287
-236.859	800.000	0.066	0.240
-235.844	-16.312	0.211	-0.132
-234.830	-49.474	-0.152	0.071
-233.815	800.000	-0.073	-0.209
-232.800	31.711	-0.139	-0.118
-231.786	148.599	-0.150	-0.199
-230.771	73.670	-0.190	-0.195
-229.757	-59.253	0.139	0.059
-228.742	10.061	-0.189	-0.141
-227.727	48.575	0.147	0.136
-226.713	136.467	0.076	0.097
-225.698	60.646	-0.094	0.091
-224.684	-31.497	-0.150	-0.083
-223.669	224.975	0.110	0.175
-222.655	218.859	-0.115	0.180
-221.640	433.232	-0.031	-0.065
-220.625	-70.161	0.156	0.058
-219.611	101.843	-0.048	-0.054
-218.596	-143.949	0.234	-0.022
-217.582	-200.000	-0.071	0.351
-216.567	-200.000	0.001	0.308
-215.552	207.772	0.148	-0.227
-214.538	-173.266	0.138	-0.004
-213.523	-71.534	0.167	0.061
-212.509	-21.298	-0.293	0.176
-211.494	-200.000	0.072	-0.545
-210.479	166.341	0.036	-0.051
-209.465	-73.206	0.205	-0.074
-208.450	-12.579	0.375	-0.240
-207.436	800.000	-0.042	-0.181
-206.421	-200.000	0.029	0.258
-205.406	107.010	-0.036	-0.042
-204.392	-200.000	0.020	0.390
-203.377	-134.201	-0.276	-0.033
-202.363	377.056	0.199	-0.399
-201.348	281.636	0.162	-0.286
-200.333	633.910	0.022	-0.056
-199.319	92.326	0.175	-0.194
-198.304	292.596	-0.129	-0.230
-197.290	169.052	0.084	0.117
-196.275	-20.825	-0.182	-0.110
-195.260	-55.878	-0.017	0.007
-194.246	108.528	-0.091	-0.107
-193.231	-13.508	-0.107	0.068
-192.217	603.042	0.098	0.239
-191.202	-16.136	-0.249	-0.155
-190.187	369.159	-0.069	0.137
-189.173	40.155	-0.144	-0.127
-188.158	28.417	-0.208	0.173
-187.144	511.834	-0.049	-0.112
-186.129	152.467	0.091	-0.122
-185.114	77.306	-0.109	-0.114
-184.100	-10.427	0.142	0.093
-183.085	348.031	0.076	0.147
-182.071	-113.555	-0.118	-0.023
-181.056	800.000	0.078	-0.298
-180.042	-81.982	-0.126	0.040
-179.027	-200.000	-0.038	0.181
-178.012	-125.019	0.147	-0.022
-176.998	800.000	-0.072	0.231
-175.983	-22.713	0.193	0.114
-174.969	-200.000	-0.036	0.211
-173.954	-91.792	0.083	0.023
-172.939	369.397	-0.080	0.158
-171.925	141.945	-0.217	-0.282
-170.910	800.000	-0.064	-0.178
-169.896	-87.011	0.212	-0.063
-168.881	-87.344	0.265	-0.079
-167.866	-63.033	-0.306	-0.124
-166.852	800.000	-0.069	0.196
-165.837	78.691	0.096	0.100
-164.823	-137.353	0.308	0.034
-163.808	-183.113	-0.153	-0.003
-162.793	-200.000	0.003	0.065
-161.779	17.139	0.062	-0.048
-160.764	-110.428	0.506	0.103
-159.750	86.547	-0.303	-0.327
-158.735	44.674	0.188	0.170
-157.720	-9.953	-0.077	-0.050
-156.706	140.607	0.230	-0.298
-155.691	-13.110	-0.108	-0.069
-154.677	5.627	-0.163	-0.118
-153.662	-24.581	0.217	-0.127
-152.647	-200.000	-0.032	-0.163
-151.633	248.224	0.009	0.016
-150.618	84.469	-0.277	-0.296
-149.604	-105.487	0.107	-0.024
-148.589	-66.675	0.178	-0.069
-147.574	81.042	0.277	0.293
-146.560	273.561	0.190	0.329
-145.545	-17.275	0.113	0.070
-144.531	300.631	0.075	0.135
-143.516	-200.000	-0.002	0.220
-142.502	-200.000	-0.005	0.198
-141.487	214.092	-0.205	0.318
-140.472	35.315	-0.209	0.179
-139.458	-200.000	0.004	0.072
-138.443	71.367	0.090	-0.091
-137.429	-184.605	0.346	-0.005
-136.414	11.528	0.252	0.189
-135.399	616.731	-0.247	-0.607
-134.385	3.373	0.123	-0.087
-133.370	-133.287	0.182	-0.023
-132.356	-55.857	-0.249	-0.109
-131.341	157.629	-0.124	0.168
-130.326	88.675	-0.143	0.156
-129.312	800.000	0.056	-0.208
-128.297	245.674	-0.075	0.123
-127.283	-128.235	0.200	-0.028
-126.268	-94.791	-0.040	-0.011
-125.253	88.135	-0.258	0.280
-124.239	-200.000	0.008	-0.098
-123.224	38.471	-0.162	0.142
-122.210	-130.735	0.262	0.034
-121.195	-200.000	-0.009	0.141
