DTS Sentinel unit serial number:	SN413079Multiplexer serial number:	ORYXHardware model number:	OX4-SRSoftware version number:	ORYX F/W v4.00 Oryx Data Collector v3.7.2.0data status	okinstallation	princeton_trtdifferential loss correction	single-endedforward channel	channel 4reverse channel	N/Adate	2019/09/14time	21:09:34forward acquisition time	60.00reverse acquisition time	0.00gamma	496.2192k internal	0.2306k external	0.2306temperature offset calibration	1.0077default loss term (dB/km)	0.3790temperature slope calibration	1.0000multiplexer offset coefficient	1.0000multiplexer slope coefficient	1.0000fibre end	0.00T internal ref (°C)	33.06T ext. ref 1 (°C)	4.74T ext. ref 2 (°C)	27.80length (m)	temperature (°C)	Stokes	anti-Stokes-747.200	-56.469	0.103	0.047
-746.185	-200.000	0.028	0.198
-745.171	-200.000	-0.001	-0.244
-744.156	-161.184	-0.262	0.014
-743.142	-149.539	0.256	-0.021
-742.127	225.871	0.088	0.146
-741.112	131.679	0.177	0.232
-740.098	272.854	-0.222	0.399
-739.083	-109.644	-0.271	0.058
-738.069	-200.000	0.056	0.385
-737.054	-25.264	-0.253	-0.153
-736.039	-200.000	-0.043	-0.196
-735.025	329.174	0.161	0.316
-734.010	-100.826	-0.095	0.024
-732.996	144.297	-0.127	-0.172
-731.981	-4.017	-0.073	-0.052
-730.966	84.168	0.123	-0.136
-729.952	106.166	-0.152	-0.183
-728.937	179.316	0.133	0.198
-727.923	-36.261	-0.209	0.114
-726.908	-200.000	-0.011	0.098
-725.894	-7.414	-0.061	0.042
-724.879	-114.401	-0.183	-0.036
-723.864	-62.751	-0.395	-0.166
-722.850	555.977	-0.158	-0.386
-721.835	440.108	0.160	-0.355
-720.821	401.400	0.047	-0.101
-719.806	418.670	-0.164	-0.356
-718.791	157.035	-0.134	-0.188
-717.777	-109.842	-0.528	-0.113
-716.762	-200.000	-0.006	-0.184
-715.748	91.229	-0.082	0.093
-714.733	-200.000	-0.034	0.224
-713.718	7.190	0.033	-0.025
-712.704	-200.000	0.029	-0.407
-711.689	800.000	0.030	-0.111
-710.675	-130.787	0.037	0.005
-709.660	41.779	0.337	-0.310
-708.645	-200.000	0.013	-0.086
-707.631	779.923	-0.112	0.310
-706.616	66.910	0.201	-0.208
-705.602	381.739	0.046	0.096
-704.587	-200.000	-0.002	0.463
-703.572	-54.916	-0.268	-0.123
-702.558	45.435	0.225	0.211
-701.543	-80.283	-0.375	-0.127
-700.529	145.178	-0.045	0.061
-699.514	288.153	-0.129	0.237
-698.499	-58.033	-0.180	0.080
-697.485	-119.254	-0.150	0.027
-696.470	-200.000	-0.008	0.049
-695.456	-200.000	0.069	-0.330
-694.441	-200.000	-0.031	-0.178
-693.426	-200.000	0.052	0.262
-692.412	344.709	-0.064	-0.128
-691.397	-200.000	0.000	0.011
-690.383	30.747	0.170	0.148
-689.368	-187.620	-0.228	0.003
-688.354	-22.683	-0.153	-0.094
-687.339	-69.398	0.055	0.021
-686.324	-58.298	0.028	-0.012
-685.310	379.430	-0.053	0.111
-684.295	367.729	0.109	0.224
-683.281	449.564	-0.076	0.169
-682.266	-85.485	-0.340	-0.108
-681.251	-25.508	-0.175	-0.105
-680.237	-200.000	-0.054	-0.284
-679.222	-41.340	-0.212	0.111
-678.208	-6.113	0.047	0.032
-677.193	-200.000	0.036	-0.173
-676.178	249.334	0.074	-0.127
-675.164	-48.040	0.111	-0.054
-674.149	-200.000	-0.034	0.246
-673.135	-23.049	-0.203	0.124
-672.120	54.452	0.032	0.031
-671.105	481.881	0.034	0.079
-670.091	-151.466	0.100	-0.008
-669.076	39.761	0.079	-0.071
-668.062	-126.414	-0.424	-0.064
-667.047	800.000	-0.046	-0.180
-666.032	-92.976	0.025	0.007
-665.018	257.232	-0.130	-0.227
-664.003	-200.000	-0.025	-0.198
-662.989	-200.000	-0.176	-0.000
-661.974	800.000	-0.046	-0.172
-660.959	-65.216	0.154	0.063
-659.945	-34.078	-0.376	-0.210
-658.930	-149.725	-0.159	-0.013
-657.916	800.000	0.064	-0.208
-656.901	24.484	-0.379	-0.318
-655.886	-73.223	-0.129	-0.048
-654.872	-200.000	0.008	0.088
-653.857	800.000	0.008	-0.026
-652.843	485.298	0.056	0.128
-651.828	17.030	-0.387	-0.311
-650.814	-112.391	-0.261	0.053
-649.799	-10.569	0.159	0.107
-648.784	-58.126	-0.235	0.104
-647.770	-46.998	-0.355	-0.176
-646.755	54.329	-0.232	-0.226
-645.741	-54.073	-0.267	-0.123
-644.726	800.000	0.057	0.205
-643.711	15.163	-0.183	0.145
-642.697	-126.372	0.158	-0.024
-641.682	-127.539	-0.144	-0.021
-640.668	800.000	-0.066	-0.252
-639.653	232.222	-0.136	0.226
-638.638	-97.438	-0.154	-0.041
-637.624	742.623	0.061	-0.165
-636.609	-118.426	0.371	0.067
-635.595	-51.232	-0.021	-0.010
-634.580	-113.966	-0.049	0.010
-633.565	800.000	-0.086	-0.281
-632.551	-200.000	0.020	0.225
-631.536	-70.914	-0.242	-0.092
-630.522	-68.817	-0.296	0.116
-629.507	71.909	0.136	-0.143
-628.492	-102.765	-0.239	-0.058
-627.478	800.000	0.090	-0.395
-626.463	145.466	-0.123	0.166
-625.449	186.513	-0.188	0.283
-624.434	-21.600	-0.245	-0.151
-623.419	-56.169	0.157	-0.071
-622.405	-119.544	0.308	0.054
-621.390	224.476	-0.105	0.172
-620.376	111.496	-0.086	0.104
-619.361	-200.000	-0.011	-0.159
-618.346	-10.022	-0.085	-0.057
-617.332	-163.897	0.153	-0.007
-616.317	413.674	-0.103	0.221
-615.303	428.961	-0.154	0.337
-614.288	-33.216	-0.219	-0.123
-613.273	-200.000	0.023	0.225
-612.259	53.709	-0.093	-0.091
-611.244	155.133	-0.040	-0.056
-610.230	-91.801	0.437	0.126
-609.215	-29.321	0.142	-0.082
-608.201	-200.000	0.001	0.064
-607.186	-96.909	0.209	0.056
-606.171	-100.190	0.131	0.033
-605.157	800.000	-0.120	0.428
-604.142	-200.000	0.010	0.105
-603.128	203.406	-0.138	-0.216
-602.113	-48.759	-0.317	-0.154
-601.098	166.792	-0.110	-0.157
-600.084	318.609	0.113	-0.216
-599.069	65.387	-0.157	-0.161
-598.055	800.000	0.067	-0.243
-597.040	-200.000	0.017	-0.105
-596.025	119.943	-0.086	-0.108
-595.011	-200.000	-0.030	-0.179
-593.996	12.143	-0.236	0.183
-592.982	89.784	-0.226	-0.255
-591.967	-3.851	-0.105	-0.074
-590.952	59.670	0.122	0.122
-589.938	800.000	-0.036	0.113
-588.923	-106.146	0.233	0.053
-587.909	5.021	-0.065	-0.048
-586.894	53.602	0.240	-0.233
-585.879	19.069	0.182	0.148
-584.865	-160.149	0.294	-0.016
-583.850	-45.961	-0.097	0.049
-582.836	19.086	-0.151	0.123
-581.821	233.479	-0.202	-0.337
-580.806	54.609	0.181	-0.177
-579.792	-128.458	-0.275	0.040
-578.777	40.573	-0.123	0.112
-577.763	207.099	0.135	-0.214
-576.748	428.359	-0.110	0.240
-575.733	800.000	0.036	0.130
-574.719	135.425	0.130	-0.170
-573.704	-155.971	-0.255	-0.016
-572.690	53.791	-0.273	-0.265
-571.675	28.339	-0.382	-0.326
-570.661	-200.000	0.005	-0.267
-569.646	800.000	0.091	0.297
-568.631	-87.287	0.112	-0.034
-567.617	-200.000	0.043	0.248
-566.602	12.504	-0.179	-0.140
-565.588	800.000	0.091	0.394
-564.573	-200.000	-0.083	-0.422
-563.558	296.174	0.182	-0.337
-562.544	668.587	-0.087	0.227
-561.529	-91.826	0.253	-0.073
-560.515	-142.080	-0.288	-0.029
-559.500	-143.600	-0.331	0.032
-558.485	-68.991	0.063	0.024
-557.471	800.000	-0.105	0.359
-556.456	25.136	0.066	-0.055
-555.442	-200.000	0.005	0.028
-554.427	800.000	-0.083	0.335
-553.412	163.480	-0.099	-0.140
-552.398	-144.457	-0.130	-0.012
-551.383	-137.073	0.286	0.033
-550.369	-138.066	-0.449	-0.050
-549.354	-112.826	0.293	-0.059
-548.339	-52.185	0.035	-0.017
-547.325	-38.390	0.526	0.281
-546.310	44.496	0.112	0.104
-545.296	-53.174	0.019	0.009
-544.281	381.465	-0.033	0.068
-543.266	83.046	0.043	0.048
-542.252	800.000	0.087	-0.249
-541.237	-113.902	-0.073	0.014
-540.223	-74.792	0.198	0.072
-539.208	372.510	-0.013	0.027
-538.193	-185.782	0.295	0.004
-537.179	321.488	0.318	-0.610
-536.164	800.000	0.095	-0.281
-535.150	-144.216	0.149	0.014
-534.135	-59.287	0.218	0.095
-533.121	-46.056	0.115	-0.057
-532.106	800.000	-0.090	-0.352
-531.091	-67.538	0.356	0.141
-530.077	-113.312	-0.230	0.046
-529.062	-42.835	0.240	-0.123
-528.048	-148.961	-0.598	0.049
-527.033	61.289	-0.097	0.097
-526.018	-31.613	-0.315	0.178
-525.004	143.287	0.349	-0.468
-523.989	-51.197	-0.267	0.126
-522.975	23.215	0.240	-0.199
-521.960	-35.457	0.128	-0.070
-520.945	-200.000	-0.028	-0.175
-519.931	-90.136	0.250	-0.074
-518.916	250.070	-0.150	-0.257
-517.902	14.926	-0.177	-0.140
-516.887	-200.000	-0.004	0.282
-515.872	427.179	0.131	0.285
-514.858	-118.358	-0.082	0.015
-513.843	-200.000	-0.069	-0.419
-512.829	800.000	-0.058	-0.228
-511.814	-160.002	0.159	0.009
-510.799	-200.000	0.056	0.270
-509.785	-200.000	0.024	0.119
-508.770	107.790	0.094	0.113
-507.756	-10.133	0.093	0.062
-506.741	-200.000	0.023	-0.320
-505.726	77.949	0.050	-0.053
-504.712	-200.000	-0.059	-0.271
-503.697	116.707	-0.215	-0.266
-502.683	-123.352	0.237	0.038
-501.668	-200.000	0.031	0.187
-500.653	-200.000	-0.013	0.282
-499.639	-96.310	-0.205	-0.055
-498.624	-200.000	0.021	-0.144
-497.610	188.978	0.045	0.068
-496.595	122.407	0.069	0.087
-495.581	-200.000	-0.001	0.235
-494.566	221.311	-0.196	0.318
-493.551	-200.000	0.012	0.285
-492.537	-128.441	0.030	-0.004
-491.522	601.554	-0.143	-0.358
-490.508	800.000	0.008	-0.033
-489.493	-40.232	0.253	-0.133
-488.478	224.670	0.095	0.154
-487.464	-55.881	-0.240	0.108
-486.449	88.472	-0.190	-0.212
-485.435	127.995	0.080	-0.103
-484.420	-92.313	-0.340	-0.097
-483.405	137.460	0.056	0.074
-482.391	87.623	0.155	0.173
-481.376	46.724	-0.364	0.340
-480.362	586.812	-0.215	-0.532
-479.347	800.000	0.161	-0.464
-478.332	-97.630	-0.149	0.039
-477.318	-97.674	0.301	0.078
-476.303	39.607	0.267	0.241
-475.289	8.992	0.036	-0.028
-474.274	467.536	0.052	-0.116
-473.259	327.464	-0.079	0.153
-472.245	-84.498	-0.010	-0.003
-471.230	180.760	0.043	0.064
-470.216	800.000	-0.042	0.127
-469.201	800.000	0.150	-0.419
-468.186	-200.000	0.040	0.420
-467.172	-52.340	0.344	0.161
-466.157	800.000	0.105	0.335
-465.143	72.702	0.026	-0.028
-464.128	-58.705	0.121	0.053
-463.113	800.000	-0.120	0.358
-462.099	-117.056	-0.215	-0.039
-461.084	-129.588	0.298	-0.041
-460.070	398.759	0.061	0.129
-459.055	-73.183	-0.146	0.054
-458.040	56.184	-0.056	-0.055
-457.026	112.948	0.162	-0.197
-456.011	-1.649	-0.118	-0.084
-454.997	-4.646	0.255	-0.177
-453.982	800.000	-0.023	0.087
-452.968	70.791	-0.122	0.127
-451.953	582.546	-0.097	0.239
-450.938	-93.594	-0.179	-0.050
-449.924	-103.613	-0.179	0.042
-448.909	1.451	-0.190	0.137
-447.895	-200.000	-0.048	0.216
-446.880	-51.379	-0.297	-0.140
-445.865	-99.984	0.312	0.078
-444.851	298.502	-0.107	-0.199
-443.836	-127.438	0.297	-0.043
-442.822	-200.000	-0.007	-0.080
-441.807	743.571	0.104	-0.281
-440.792	800.000	-0.046	0.129
-439.778	-200.000	0.021	-0.184
-438.763	-47.355	-0.063	-0.031
-437.749	-82.551	-0.163	-0.053
-436.734	-200.000	-0.042	0.269
-435.719	-200.000	0.061	0.305
-434.705	621.400	0.052	0.131
-433.690	33.762	-0.223	0.195
-432.676	-16.080	-0.035	-0.022
-431.661	-200.000	0.028	0.485
-430.646	11.629	-0.032	0.025
-429.632	-21.707	-0.033	0.020
-428.617	-200.000	-0.043	-0.356
-427.603	800.000	-0.029	-0.111
-426.588	-200.000	-0.040	-0.345
-425.573	-162.469	-0.266	-0.013
-424.559	40.802	-0.049	0.044
-423.544	406.898	-0.059	0.125
-422.530	-200.000	0.015	0.090
-421.515	-200.000	-0.053	-0.336
-420.500	178.764	-0.062	0.092
-419.486	58.180	0.072	-0.071
-418.471	-200.000	-0.070	0.325
-417.457	-82.395	-0.043	0.014
-416.442	-58.323	0.115	-0.050
-415.428	-200.000	-0.000	-0.011
-414.413	-39.500	0.176	0.093
-413.398	-200.000	0.029	0.219
-412.384	9.685	-0.081	-0.062
-411.369	-63.261	0.112	-0.046
-410.355	272.571	-0.104	-0.184
-409.340	6.654	0.252	-0.188
-408.325	205.279	0.124	0.193
-407.311	-200.000	-0.043	0.236
-406.296	220.556	-0.158	0.255
-405.282	315.232	-0.131	0.247
-404.267	-200.000	0.038	0.306
-403.252	244.783	-0.127	-0.214
-402.238	364.196	-0.138	-0.278
-401.223	110.316	0.065	0.079
-400.209	-121.491	0.086	0.014
-399.194	-200.000	0.000	-0.003
-398.179	-24.271	-0.146	-0.087
-397.165	800.000	-0.069	0.224
-396.150	248.110	-0.182	0.309
-395.136	-138.196	-0.210	-0.023
-394.121	-200.000	0.004	0.114
-393.106	-200.000	-0.032	0.294
-392.092	574.694	0.118	0.290
-391.077	27.411	0.030	-0.025
-390.063	12.402	-0.305	-0.236
-389.048	-200.000	-0.014	-0.187
-388.033	219.115	0.177	0.284
-387.019	88.741	0.139	-0.155
-386.004	-101.113	0.286	-0.070
-384.990	-57.661	-0.057	0.025
-383.975	237.519	-0.126	-0.210
-382.960	15.942	-0.058	0.046
-381.946	-200.000	0.015	-0.093
-380.931	31.820	-0.305	-0.263
-379.917	17.372	-0.237	-0.189
-378.902	111.168	0.069	-0.083
-377.888	-10.635	-0.089	-0.059
-376.873	13.667	-0.232	0.181
-375.858	663.806	-0.103	0.266
-374.844	-200.000	-0.026	0.137
-373.829	-37.134	0.560	0.300
-372.815	273.644	-0.144	-0.254
-371.800	-104.992	0.200	-0.046
-370.785	190.040	0.150	-0.225
-369.771	-145.586	0.099	-0.009
-368.756	-200.000	0.023	0.135
-367.742	169.793	-0.147	0.210
-366.727	234.395	0.250	-0.414
-365.712	-23.241	-0.034	-0.020
-364.698	88.767	0.149	-0.166
-363.683	-200.000	0.034	0.182
-362.669	-200.000	0.004	0.057
-361.654	-166.784	0.064	-0.003
-360.639	35.932	0.153	0.135
-359.625	331.275	0.065	0.126
-358.610	-42.853	-0.363	-0.185
-357.596	-65.819	-0.378	-0.152
-356.581	298.413	0.109	-0.201
-355.566	36.463	-0.178	0.157
-354.552	800.000	-0.030	0.085
-353.537	780.147	-0.052	0.143
-352.523	-168.553	0.323	-0.012
-351.508	-4.378	0.267	0.185
-350.493	-139.600	-0.290	-0.031
-349.479	104.164	0.133	-0.157
-348.464	-104.481	-0.413	0.096
-347.450	-164.896	-0.043	0.002
-346.435	-42.904	0.090	0.046
-345.420	-8.241	-0.089	-0.060
-344.406	-126.034	0.120	-0.018
-343.391	800.000	0.045	0.134
-342.377	-85.579	0.151	-0.047
-341.362	-21.077	-0.103	0.063
-340.348	-98.073	0.254	0.066
-339.333	42.158	0.257	0.233
-338.318	736.108	0.108	0.290
-337.304	800.000	-0.021	0.074
-336.289	800.000	0.005	0.015
-335.275	8.690	0.186	0.140
-334.260	33.711	0.197	0.172
-333.245	-148.809	0.379	0.031
-332.231	-144.161	0.202	-0.019
-331.216	65.092	0.053	0.054
-330.202	-108.282	-0.331	0.072
-329.187	499.574	0.070	0.162
-328.172	-200.000	0.018	0.123
-327.158	-58.016	0.320	0.140
-326.143	-22.506	-0.433	-0.262
-325.129	81.828	-0.055	-0.059
-324.114	-112.589	0.027	0.005
-323.099	-15.804	-0.118	-0.075
-322.085	-49.069	0.110	-0.053
-321.070	-200.000	-0.045	-0.204
-320.056	800.000	-0.127	-0.477
-319.041	762.642	-0.022	0.061
-318.026	352.508	-0.139	0.276
-317.012	-65.726	0.290	-0.116
-315.997	-200.000	0.036	-0.202
-314.983	-142.216	-0.063	-0.006
-313.968	-175.008	-0.241	-0.007
-312.953	289.989	0.148	0.269
-311.939	-200.000	0.032	0.345
-310.924	-200.000	-0.025	0.337
-309.910	117.358	0.295	0.363
-308.895	203.458	-0.042	-0.065
-307.880	-124.165	-0.187	0.029
-306.866	-82.509	0.296	0.096
-305.851	-180.074	-0.240	-0.005
-304.837	-200.000	-0.041	0.215
-303.822	472.642	0.080	0.181
-302.807	759.007	0.094	0.254
-301.793	-200.000	-0.001	-0.251
-300.778	195.905	-0.088	0.135
-299.764	574.750	-0.046	-0.111
-298.749	-41.664	-0.223	-0.115
-297.735	99.369	-0.291	0.336
-296.720	800.000	0.058	-0.212
-295.705	-200.000	0.015	0.074
-294.691	-200.000	-0.002	0.059
-293.676	57.354	-0.181	0.177
-292.662	-91.279	0.299	-0.086
-291.647	800.000	-0.103	0.294
-290.632	-152.580	0.137	0.010
-289.618	800.000	-0.092	-0.259
-288.603	-10.122	-0.093	-0.062
-287.589	408.079	-0.165	0.349
-286.574	497.303	-0.047	0.107
-285.559	-123.008	-0.074	0.012
-284.545	-200.000	-0.001	-0.116
-283.530	800.000	-0.042	-0.138
-282.516	288.994	-0.152	-0.276
-281.501	275.537	0.092	-0.163
-280.486	-53.587	0.252	-0.115
-279.472	-200.000	0.041	0.214
-278.457	-200.000	0.019	0.198
-277.443	369.783	0.222	-0.450
-276.428	-200.000	-0.056	0.365
-275.413	-89.675	0.027	0.008
-274.399	93.476	-0.276	-0.312
-273.384	-200.000	-0.006	0.358
-272.370	-200.000	0.046	-0.222
-271.355	344.374	-0.097	0.189
-270.340	113.150	0.156	0.189
-269.326	-64.131	-0.130	-0.053
-268.311	202.125	-0.090	-0.138
-267.297	-153.131	-0.120	0.008
-266.282	-103.404	0.126	-0.030
-265.267	800.000	0.024	-0.102
-264.253	-94.340	0.123	0.034
-263.238	-110.584	0.042	0.009
-262.224	90.761	0.157	0.176
-261.209	-29.131	-0.219	-0.126
-260.195	-4.652	0.123	-0.085
-259.180	-30.656	0.145	0.082
-258.165	188.908	-0.077	0.116
-257.151	800.000	-0.019	-0.055
-256.136	180.241	0.230	-0.337
-255.122	28.046	-0.176	0.148
-254.107	-103.589	0.302	0.071
-253.092	240.163	-0.021	-0.035
-252.078	66.552	0.132	0.134
-251.063	-39.754	0.207	0.108
-250.049	-111.394	-0.357	0.073
-249.034	49.848	-0.237	-0.223
-248.019	800.000	0.121	0.418
-247.005	-171.914	-0.134	-0.004
-245.990	-22.798	-0.259	-0.156
-244.976	9.388	0.087	-0.066
-243.961	-79.587	0.122	0.041
-242.946	-82.801	0.167	-0.054
-241.932	-122.186	-0.070	0.011
-240.917	-200.000	0.007	0.168
-239.903	41.500	0.170	-0.153
-238.888	-54.300	0.198	-0.090
-237.873	-142.619	-0.113	0.011
-236.859	128.920	-0.196	-0.250
-235.844	54.776	0.185	-0.178
-234.830	-179.434	0.390	0.009
-233.815	501.103	0.049	-0.113
-232.800	-96.839	-0.152	0.040
-231.786	-97.029	0.029	-0.008
-230.771	-115.270	-0.115	-0.022
-229.757	233.567	0.225	-0.368
-228.742	-160.464	0.250	-0.013
-227.727	767.991	0.021	0.057
-226.713	-125.218	-0.258	0.039
-225.698	37.745	0.089	0.079
-224.684	11.782	0.084	0.064
-223.669	-167.270	-0.232	0.009
-222.655	-200.000	-0.045	-0.348
-221.640	800.000	0.111	-0.332
-220.625	-200.000	0.054	-0.298
-219.611	-66.218	-0.212	0.084
-218.596	-43.235	-0.219	0.110
-217.582	-3.404	-0.139	-0.097
-216.567	-53.691	0.174	-0.079
-215.552	-66.338	0.461	-0.183
-214.538	441.278	0.157	0.343
-213.523	246.054	-0.037	0.062
-212.509	-68.888	-0.318	0.122
-211.494	-200.000	-0.007	0.258
-210.479	143.926	0.087	0.116
-209.465	448.848	-0.145	-0.319
-208.450	-45.864	0.041	0.020
-207.436	277.421	-0.149	-0.265
-206.421	-116.262	0.260	0.048
-205.406	-57.274	0.087	0.038
-204.392	-0.315	-0.110	-0.078
-203.377	260.191	-0.046	0.080
-202.363	142.055	0.154	-0.203
-201.348	91.411	0.180	0.201
-200.333	-23.899	0.232	-0.138
-199.319	-173.387	-0.069	0.002
-198.304	-136.005	0.279	0.033
-197.290	-130.570	-0.041	0.005
-196.275	715.577	0.032	0.084
-195.260	-55.407	0.221	0.099
-194.246	234.071	-0.154	-0.253
-193.231	-34.054	-0.456	-0.250
-192.217	-200.000	0.006	0.073
-191.202	116.911	-0.139	-0.170
-190.187	-73.696	-0.312	0.113
-189.173	-52.310	-0.157	-0.072
-188.158	48.329	-0.143	-0.133
-187.144	229.566	0.045	0.073
-186.129	-84.328	0.154	-0.048
-185.114	-86.796	0.299	-0.091
-184.100	-51.865	0.232	-0.107
-183.085	800.000	0.054	0.230
-182.071	-175.528	0.366	0.010
-181.056	-84.637	-0.266	-0.083
-180.042	-200.000	0.014	-0.092
-179.027	-119.264	-0.250	-0.043
-178.012	-162.622	0.305	0.015
-176.998	264.337	-0.051	0.088
-175.983	211.477	-0.117	0.183
-174.969	800.000	0.100	-0.277
-173.954	402.671	-0.032	-0.068
-172.939	8.127	-0.056	0.042
-171.925	4.844	-0.213	0.156
-170.910	74.752	0.265	-0.277
-169.896	-5.047	-0.150	0.103
-168.881	-107.988	-0.062	0.013
-167.866	597.697	0.197	0.485
-166.852	139.315	0.149	0.196
-165.837	393.189	-0.241	-0.499
-164.823	800.000	0.018	0.078
-163.808	-118.825	-0.032	-0.006
-162.793	-133.719	0.142	0.018
-161.779	-11.999	0.161	-0.105
-160.764	-93.638	-0.410	0.113
-159.750	30.448	0.219	-0.186
-158.735	-115.783	0.476	-0.089
-157.720	-200.000	0.034	-0.188
-156.706	-200.000	0.051	0.289
-155.691	-67.515	0.234	0.091
-154.677	-60.678	0.214	0.090
-153.662	163.026	0.285	-0.398
-152.647	-154.522	-0.234	-0.016
-151.633	146.064	0.131	-0.175
-150.618	12.906	-0.073	-0.056
-149.604	800.000	-0.080	0.220
-148.589	-159.564	-0.371	0.020
-147.574	-200.000	-0.032	0.238
-146.560	-158.321	0.200	-0.012
-145.545	800.000	-0.140	-0.396
-144.531	41.016	0.347	-0.311
-143.516	-67.318	0.078	0.031
-142.502	175.895	-0.153	0.221
-141.487	-200.000	-0.019	-0.358
-140.472	66.474	-0.164	0.166
-139.458	-86.020	-0.222	0.068
-138.443	251.024	-0.122	-0.206
-137.429	-80.113	-0.145	0.048
-136.414	-200.000	0.009	0.077
-135.399	-8.000	0.264	0.177
-134.385	183.499	0.123	0.181
-133.370	800.000	0.013	-0.036
-132.356	25.839	0.231	-0.191
-131.341	-200.000	0.025	0.139
-130.326	-17.427	0.145	0.090
-129.312	800.000	0.084	0.259
-128.297	-97.694	0.161	-0.041
-127.283	-49.222	0.260	0.124
-126.268	-30.907	0.135	0.076
-125.253	-113.303	0.327	-0.064
-124.239	10.297	-0.168	0.127
-123.224	-200.000	-0.012	0.067
-122.210	-123.456	0.209	-0.033
-121.195	-1.674	-0.149	-0.104
