DTS Sentinel unit serial number:	SN413079Multiplexer serial number:	ORYXHardware model number:	OX4-SRSoftware version number:	ORYX F/W v4.00 Oryx Data Collector v3.7.2.0data status	okinstallation	princeton_trtdifferential loss correction	single-endedforward channel	channel 4reverse channel	N/Adate	2019/09/19time	04:37:35forward acquisition time	60.00reverse acquisition time	0.00gamma	496.2192k internal	0.2339k external	0.2339temperature offset calibration	1.0029default loss term (dB/km)	0.3790temperature slope calibration	1.0000multiplexer offset coefficient	1.0000multiplexer slope coefficient	1.0000fibre end	0.00T internal ref (°C)	20.02T ext. ref 1 (°C)	0.62T ext. ref 2 (°C)	13.03length (m)	temperature (°C)	Stokes	anti-Stokes-747.200	-200.000	0.045	-0.472
-746.185	-27.584	-0.264	0.154
-745.171	-58.896	0.125	0.054
-744.156	-77.718	-0.220	0.076
-743.142	53.557	-0.139	0.134
-742.127	-46.348	0.110	0.054
-741.112	157.336	-0.255	0.354
-740.098	41.907	0.288	0.262
-739.083	-200.000	-0.014	0.325
-738.069	-106.317	-0.264	-0.059
-737.054	800.000	-0.099	-0.389
-736.039	-200.000	-0.028	-0.438
-735.025	-182.976	0.290	0.005
-734.010	-200.000	-0.019	-0.377
-732.996	190.813	-0.241	-0.363
-731.981	-200.000	-0.030	-0.251
-730.966	-106.500	-0.334	-0.075
-729.952	94.700	-0.163	-0.186
-728.937	-200.000	-0.039	-0.172
-727.923	800.000	-0.070	-0.203
-726.908	-11.960	-0.237	-0.156
-725.894	-56.492	-0.205	-0.091
-724.879	-200.000	-0.009	0.265
-723.864	194.864	0.148	0.225
-722.850	-79.277	-0.115	-0.039
-721.835	-200.000	0.016	0.236
-720.821	29.807	0.300	0.256
-719.806	-108.524	0.108	-0.023
-718.791	-200.000	0.014	0.250
-717.777	-126.740	-0.169	0.025
-716.762	-200.000	0.051	0.382
-715.748	216.526	0.028	0.045
-714.733	39.224	0.094	0.084
-713.718	-3.257	-0.074	0.051
-712.704	-200.000	-0.005	0.149
-711.689	353.071	-0.159	-0.315
-710.675	-176.786	0.268	0.007
-709.660	581.832	0.049	-0.121
-708.645	-200.000	0.008	0.210
-707.631	-10.650	-0.292	-0.193
-706.616	-200.000	0.010	-0.102
-705.602	-200.000	-0.013	0.189
-704.587	-200.000	0.024	-0.156
-703.572	102.581	0.046	-0.053
-702.558	-18.212	0.042	-0.026
-701.543	-15.766	-0.248	0.158
-700.529	7.342	0.133	0.100
-699.514	-200.000	0.064	-0.387
-698.499	800.000	-0.031	-0.113
-697.485	75.328	0.055	-0.058
-696.470	-200.000	-0.108	-0.000
-695.456	25.887	0.258	-0.215
-694.441	-46.835	0.274	0.134
-693.426	-44.257	0.241	-0.121
-692.412	-200.000	-0.001	0.355
-691.397	-200.000	0.002	0.244
-690.383	84.420	-0.115	0.126
-689.368	-68.318	-0.253	0.098
-688.354	155.209	-0.157	-0.216
-687.339	442.316	0.159	-0.349
-686.324	-166.093	-0.066	-0.003
-685.310	800.000	0.054	0.178
-684.295	108.551	0.098	-0.117
-683.281	-55.569	0.072	0.032
-682.266	-87.554	-0.106	-0.032
-681.251	100.744	0.156	-0.181
-680.237	-161.405	-0.052	0.003
-679.222	75.636	-0.381	0.403
-678.208	-200.000	-0.005	0.089
-677.193	-175.274	0.161	0.004
-676.178	-200.000	-0.011	-0.128
-675.164	-200.000	-0.020	-0.160
-674.149	105.464	0.271	0.320
-673.135	-200.000	-0.001	0.187
-672.120	-38.135	-0.147	-0.078
-671.105	143.135	0.140	-0.186
-670.091	-200.000	0.000	0.123
-669.076	-200.000	-0.032	0.178
-668.062	-200.000	0.037	0.173
-667.047	-95.075	0.043	0.012
-666.032	-117.609	0.082	-0.015
-665.018	-137.041	-0.283	-0.032
-664.003	65.777	-0.255	-0.258
-662.989	-36.392	-0.333	0.179
-661.974	-200.000	-0.022	-0.179
-660.959	-200.000	-0.053	-0.311
-659.945	-200.000	-0.016	-0.191
-658.930	-117.590	0.288	-0.052
-657.916	-134.553	0.280	-0.034
-656.901	-25.672	-0.124	0.073
-655.886	800.000	-0.080	0.235
-654.872	208.523	0.259	-0.405
-653.857	745.728	0.030	-0.081
-652.843	-200.000	-0.065	0.346
-651.828	22.250	0.159	0.130
-650.814	157.184	-0.117	-0.162
-649.799	-67.689	-0.111	-0.043
-648.784	401.598	0.052	-0.108
-647.770	-200.000	-0.010	-0.138
-646.755	-32.654	0.179	0.100
-645.741	-200.000	-0.024	-0.169
-644.726	-125.829	0.277	0.042
-643.711	-12.972	-0.310	-0.202
-642.697	-200.000	-0.025	0.266
-641.682	-200.000	0.023	-0.176
-640.668	-103.985	-0.336	0.078
-639.653	131.657	-0.208	-0.268
-638.638	800.000	-0.074	-0.270
-637.624	62.714	0.175	-0.175
-636.609	-200.000	0.016	-0.308
-635.595	-46.269	0.063	-0.031
-634.580	-200.000	-0.075	-0.362
-633.565	-61.373	-0.270	-0.113
-632.551	181.797	-0.239	0.351
-631.536	-147.793	0.284	0.024
-630.522	-112.259	-0.141	-0.028
-629.507	-200.000	0.034	0.206
-628.492	-19.260	0.241	-0.149
-627.478	-200.000	-0.033	0.324
-626.463	-33.377	-0.209	-0.115
-625.449	-15.704	0.285	-0.182
-624.434	604.775	0.184	0.458
-623.419	60.404	0.007	0.007
-622.405	800.000	0.031	0.087
-621.390	-49.808	-0.351	-0.166
-620.376	800.000	0.075	-0.219
-619.361	-200.000	-0.006	0.194
-618.346	119.013	0.125	0.154
-617.332	227.467	0.148	0.241
-616.317	800.000	-0.045	0.135
-615.303	-6.215	-0.213	-0.145
-614.288	65.186	-0.179	0.181
-613.273	-200.000	0.040	0.196
-612.259	-200.000	0.032	-0.252
-611.244	-200.000	0.024	0.127
-610.230	-128.803	0.337	-0.047
-609.215	108.187	-0.144	-0.171
-608.201	-172.906	0.221	-0.007
-607.186	800.000	-0.027	-0.085
-606.171	56.715	-0.166	-0.161
-605.157	81.947	-0.125	0.135
-604.142	-200.000	0.016	-0.160
-603.128	66.170	0.077	0.078
-602.113	800.000	0.077	0.319
-601.098	-200.000	-0.032	-0.285
-600.084	56.791	0.094	-0.092
-599.069	-164.455	0.202	0.009
-598.055	340.722	0.056	0.109
-597.040	-200.000	-0.301	-0.001
-596.025	-159.931	0.338	-0.018
-595.011	631.167	-0.103	0.260
-593.996	800.000	-0.094	0.269
-592.982	652.266	-0.055	-0.140
-591.967	93.561	-0.167	-0.188
-590.952	37.793	-0.243	-0.215
-589.938	-163.919	-0.360	0.017
-588.923	-55.984	0.188	0.084
-587.909	-67.885	-0.442	0.172
-586.894	-84.638	0.327	-0.103
-585.879	-118.809	-0.331	-0.058
-584.865	-55.438	-0.079	-0.035
-583.850	800.000	0.127	0.443
-582.836	-58.431	0.131	0.057
-581.821	-200.000	-0.010	-0.098
-580.806	255.345	-0.120	0.205
-579.792	369.131	-0.090	0.181
-578.777	53.632	0.229	0.219
-577.763	800.000	0.100	-0.428
-576.748	-6.891	0.322	-0.218
-575.733	-42.885	-0.158	-0.080
-574.719	736.453	-0.036	0.095
-573.704	117.198	-0.159	-0.195
-572.690	-200.000	-0.013	-0.195
-571.675	97.790	-0.242	-0.278
-570.661	142.003	-0.129	0.170
-569.646	594.183	-0.023	-0.056
-568.631	31.314	-0.172	-0.147
-567.617	730.754	0.153	-0.408
-566.602	-102.437	0.273	0.065
-565.588	-0.969	0.080	-0.056
-564.573	-10.892	-0.362	0.238
-563.558	-200.000	0.003	0.132
-562.544	-14.431	0.227	0.146
-561.529	-68.246	-0.132	0.051
-560.515	-200.000	0.007	-0.229
-559.500	800.000	-0.157	-0.540
-558.485	-119.110	0.205	-0.036
-557.471	29.192	-0.310	0.262
-556.456	-107.323	-0.179	0.039
-555.442	1.224	0.140	0.100
-554.427	-140.617	-0.142	-0.015
-553.412	800.000	0.041	-0.150
-552.398	290.411	-0.110	-0.200
-551.383	800.000	0.045	-0.127
-550.369	-200.000	0.001	0.269
-549.354	-4.800	0.236	-0.162
-548.339	-200.000	0.067	0.348
-547.325	800.000	-0.027	-0.085
-546.310	-112.571	0.373	-0.074
-545.296	-13.182	-0.281	-0.181
-544.281	365.862	0.104	0.208
-543.266	77.224	0.138	-0.146
-542.252	-55.118	-0.141	0.063
-541.237	173.730	-0.144	0.206
-540.223	450.749	0.141	0.310
-539.208	154.347	-0.235	0.321
-538.193	-200.000	-0.005	0.083
-537.179	347.741	0.051	-0.101
-536.164	-34.727	-0.187	0.102
-535.150	-200.000	-0.028	0.266
-534.135	800.000	-0.147	-0.548
-533.121	-98.095	0.049	-0.013
-532.106	-109.422	0.187	0.039
-531.091	400.738	0.108	-0.226
-530.077	280.223	-0.100	-0.178
-529.062	-16.100	-0.114	-0.072
-528.048	-146.687	-0.162	-0.014
-527.033	-124.714	-0.173	-0.027
-526.018	-150.751	0.340	0.026
-525.004	69.761	0.153	-0.156
-523.989	-86.788	-0.283	0.086
-522.975	22.317	-0.128	-0.104
-521.960	-14.628	0.118	-0.076
-520.945	-44.204	-0.345	-0.172
-519.931	595.759	0.077	-0.189
-518.916	-200.000	-0.004	0.145
-517.902	65.746	0.153	0.154
-516.887	-176.541	-0.128	-0.003
-515.872	430.319	0.097	-0.209
-514.858	-200.000	0.003	-0.173
-513.843	-157.990	-0.215	-0.013
-512.829	97.715	0.120	-0.138
-511.814	-24.552	0.073	0.043
-510.799	291.900	0.086	0.156
-509.785	371.548	-0.135	-0.273
-508.770	-157.359	-0.443	0.027
-507.756	113.062	0.029	-0.035
-506.741	-92.760	-0.223	-0.062
-505.726	-200.000	-0.049	-0.339
-504.712	-6.704	0.204	0.138
-503.697	-101.142	-0.605	-0.147
-502.683	-200.000	-0.004	-0.020
-501.668	-93.803	0.263	0.072
-500.653	-72.150	-0.220	-0.081
-499.639	160.355	0.227	0.314
-498.624	27.777	-0.315	0.264
-497.610	-85.948	0.138	-0.042
-496.595	76.916	-0.135	-0.142
-495.581	-181.131	-0.262	-0.005
-494.566	-22.617	0.300	-0.180
-493.551	800.000	-0.120	-0.458
-492.537	-23.176	-0.065	-0.039
-491.522	-20.399	-0.319	0.195
-490.508	-200.000	0.012	0.171
-489.493	126.498	-0.160	-0.201
-488.478	-16.497	0.283	-0.178
-487.464	-6.044	0.274	-0.186
-486.449	57.764	-0.342	0.332
-485.435	-68.996	0.186	-0.071
-484.420	-200.000	-0.020	-0.130
-483.405	-120.948	0.039	-0.007
-482.391	132.653	-0.218	-0.279
-481.376	800.000	-0.103	0.360
-480.362	394.942	0.071	-0.147
-479.347	102.672	0.268	-0.311
-478.332	-172.420	-0.142	-0.004
-477.318	-130.521	-0.224	-0.030
-476.303	-75.674	0.428	-0.151
-475.289	-149.462	0.266	-0.021
-474.274	100.890	-0.127	-0.147
-473.259	-24.045	0.284	0.168
-472.245	-129.599	0.242	-0.033
-471.230	84.408	0.135	0.146
-470.216	-84.074	0.245	-0.077
-469.201	103.945	-0.080	0.093
-468.186	-83.711	0.318	-0.101
-467.172	-20.055	-0.084	-0.051
-466.157	196.586	-0.145	0.219
-465.143	229.888	-0.131	-0.212
-464.128	-103.959	0.321	-0.074
-463.113	-69.352	-0.389	0.148
-462.099	-73.081	0.144	-0.052
-461.084	-18.482	-0.052	-0.032
-460.070	-33.779	-0.174	-0.095
-459.055	157.965	-0.108	-0.149
-458.040	-52.849	-0.248	-0.113
-457.026	-76.427	0.232	-0.081
-456.011	220.413	-0.122	0.193
-454.997	-78.652	0.094	-0.032
-453.982	-200.000	0.029	0.140
-452.968	11.384	-0.124	-0.094
-451.953	564.322	-0.060	0.145
-450.938	17.663	0.084	-0.066
-449.924	-26.521	-0.205	0.119
-448.909	168.127	-0.153	-0.215
-447.895	71.455	-0.048	0.049
-446.880	117.566	0.198	0.242
-445.865	-83.335	0.127	-0.040
-444.851	59.789	0.121	-0.118
-443.836	246.542	-0.125	0.209
-442.822	70.621	0.073	-0.075
-441.807	-76.049	-0.194	0.068
-440.792	526.214	-0.187	0.436
-439.778	-118.855	-0.132	-0.023
-438.763	-97.264	0.050	-0.013
-437.749	-100.865	-0.105	0.026
-436.734	190.380	-0.021	0.031
-435.719	-37.363	-0.079	0.042
-434.705	29.093	-0.298	-0.251
-433.690	354.581	-0.097	0.191
-432.676	-70.228	0.186	0.070
-431.661	-90.886	0.137	-0.039
-430.646	-62.765	0.428	0.176
-429.632	335.417	0.270	-0.519
-428.617	385.817	-0.173	-0.353
-427.603	-200.000	0.050	-0.258
-426.588	102.250	-0.086	-0.100
-425.573	73.666	0.143	0.149
-424.559	27.905	-0.404	-0.337
-423.544	-134.397	0.194	-0.024
-422.530	800.000	-0.049	0.137
-421.515	-200.000	-0.036	0.227
-420.500	800.000	-0.128	-0.374
-419.486	-200.000	0.022	-0.306
-418.471	-68.139	0.083	0.032
-417.457	-133.266	0.123	0.015
-416.442	-6.278	0.043	-0.029
-415.428	800.000	-0.109	-0.300
-414.413	-153.892	-0.270	0.018
-413.398	268.735	-0.091	0.157
-412.384	33.441	0.098	0.084
-411.369	170.669	-0.177	0.251
-410.355	-200.000	-0.012	-0.108
-409.340	195.183	-0.129	-0.194
-408.325	-120.551	-0.241	0.041
-407.311	24.291	0.095	-0.077
-406.296	151.881	-0.200	0.269
-405.282	23.160	-0.075	-0.061
-404.267	-200.000	-0.051	0.357
-403.252	-74.197	-0.321	-0.115
-402.238	-200.000	0.018	0.157
-401.223	-108.964	-0.193	-0.041
-400.209	-193.339	-0.052	0.000
-399.194	-5.092	0.196	-0.134
-398.179	800.000	0.109	-0.322
-397.165	-189.344	-0.254	0.003
-396.150	-51.597	-0.302	-0.140
-395.136	-141.267	-0.365	0.037
-394.121	-91.148	-0.082	0.023
-393.106	-112.005	0.222	0.044
-392.092	336.731	0.207	0.398
-391.077	18.709	-0.213	0.169
-390.063	-200.000	-0.047	-0.313
-389.048	190.203	-0.295	-0.437
-388.033	-57.311	-0.248	0.108
-387.019	26.841	0.259	-0.214
-386.004	261.387	0.220	-0.378
-384.990	-55.339	-0.177	0.079
-383.975	-16.314	0.152	0.095
-382.960	-200.000	0.034	0.172
-381.946	-139.277	0.349	-0.037
-380.931	-200.000	-0.007	-0.118
-379.917	-200.000	0.047	-0.261
-378.902	505.274	-0.100	0.230
-377.888	185.623	-0.119	-0.175
-376.873	-200.000	0.048	0.483
-375.858	800.000	-0.041	-0.118
-374.844	-200.000	0.001	0.029
-373.829	-22.672	0.096	-0.058
-372.815	-17.699	-0.157	-0.098
-371.800	-200.000	-0.017	0.350
-370.785	225.358	-0.101	-0.162
-369.771	537.650	0.101	-0.236
-368.756	266.534	-0.150	0.260
-367.742	-136.899	-0.060	-0.007
-366.727	-200.000	0.021	0.160
-365.712	800.000	-0.097	-0.360
-364.698	-143.404	0.506	-0.048
-363.683	450.844	-0.201	0.439
-362.669	76.784	0.182	0.191
-361.654	59.477	0.241	0.235
-360.639	-136.628	-0.213	-0.024
-359.625	-5.491	0.232	0.157
-358.610	-200.000	0.024	0.116
-357.596	-174.735	-0.557	0.016
-356.581	-200.000	0.056	0.292
-355.566	-4.874	-0.053	-0.036
-354.552	263.718	-0.127	0.218
-353.537	-45.096	0.376	0.185
-352.523	-58.873	-0.131	0.056
-351.508	-171.168	0.125	-0.004
-350.493	800.000	0.052	-0.152
-349.479	-125.898	0.418	0.062
-348.464	-14.241	0.156	0.099
-347.450	654.208	0.082	0.208
-346.435	288.573	-0.159	0.285
-345.420	102.458	0.098	0.114
-344.406	-38.698	0.184	0.096
-343.391	800.000	-0.051	-0.195
-342.377	-200.000	0.083	-0.358
-341.362	-99.794	-0.365	0.090
-340.348	-200.000	-0.011	0.345
-339.333	41.429	-0.121	0.108
-338.318	79.673	0.044	-0.046
-337.304	-96.722	-0.366	0.095
-336.289	38.591	0.023	-0.020
-335.275	800.000	0.038	-0.148
-334.260	-90.506	0.157	0.045
-333.245	-200.000	-0.022	0.280
-332.231	199.832	0.092	-0.139
-331.216	-200.000	0.029	-0.264
-330.202	14.679	0.139	0.107
-329.187	90.233	0.211	-0.233
-328.172	70.116	0.083	0.085
-327.158	547.360	0.060	-0.142
-326.143	800.000	0.031	0.089
-325.129	-15.824	0.119	0.075
-324.114	81.626	-0.151	0.161
-323.099	419.014	0.111	0.235
-322.085	29.033	-0.068	-0.057
-321.070	-132.073	-0.060	0.008
-320.056	-132.950	-0.053	-0.007
-319.041	9.508	0.137	0.102
-318.026	371.974	0.068	-0.136
-317.012	-114.633	0.036	-0.007
-315.997	210.304	0.193	0.299
-314.983	-63.918	0.289	-0.117
-313.968	12.327	0.099	-0.075
-312.953	26.267	-0.194	0.160
-311.939	-69.776	0.249	-0.094
-310.924	-11.567	0.227	0.147
-309.910	-142.365	-0.243	0.024
-308.895	-161.831	0.264	-0.013
-307.880	502.985	0.108	-0.246
-306.866	16.220	0.296	0.230
-305.851	800.000	-0.053	-0.154
-304.837	-200.000	-0.016	-0.399
-303.822	-109.404	-0.090	0.019
-302.807	126.396	0.168	-0.209
-301.793	605.374	0.099	-0.244
-300.778	101.946	-0.156	-0.179
-299.764	11.942	-0.093	0.071
-298.749	56.526	0.170	0.163
-297.735	258.665	0.068	-0.116
-296.720	129.517	0.110	-0.139
-295.705	208.988	0.111	-0.171
-294.691	699.959	0.076	-0.197
-293.676	224.246	-0.055	-0.087
-292.662	70.724	-0.057	-0.058
-291.647	-200.000	0.051	0.232
-290.632	59.697	-0.188	0.183
-289.618	-128.449	0.185	-0.026
-288.603	-200.000	0.020	0.107
-287.589	96.087	0.111	0.125
-286.574	-184.382	-0.046	0.001
-285.559	-33.822	-0.143	0.077
-284.545	-39.022	0.281	0.146
-283.530	-17.082	0.113	0.070
-282.516	60.853	0.253	0.247
-281.501	-200.000	-0.034	-0.234
-280.486	-176.225	0.276	-0.007
-279.472	101.975	-0.097	0.111
-278.457	-54.731	-0.209	0.093
-277.443	-200.000	-0.007	0.125
-276.428	-200.000	0.055	-0.259
-275.413	69.504	0.261	0.265
-274.399	-200.000	-0.028	0.183
-273.384	-55.822	-0.423	-0.186
-272.370	-86.224	0.275	0.083
-271.355	425.818	0.123	-0.261
-270.340	-1.761	0.047	-0.032
-269.326	-99.570	0.153	-0.038
-268.311	131.536	0.075	-0.094
-267.297	800.000	0.106	0.418
-266.282	36.288	-0.068	-0.059
-265.267	-106.850	0.233	-0.051
-264.253	598.239	-0.025	-0.061
-263.238	-200.000	-0.066	0.367
-262.224	-67.136	-0.160	-0.062
-261.209	-69.015	0.085	0.032
-260.195	42.875	-0.113	0.101
-259.180	380.802	0.064	-0.130
-258.165	-200.000	0.018	-0.226
-257.151	800.000	0.115	-0.370
-256.136	190.551	0.234	-0.346
-255.122	-200.000	-0.026	0.191
-254.107	-29.455	0.143	0.080
-253.092	-200.000	-0.017	-0.081
-252.078	72.906	0.202	0.208
-251.063	218.474	0.076	0.119
-250.049	-62.588	-0.279	0.114
-249.034	-37.466	0.136	-0.072
-248.019	-142.734	-0.283	-0.027
-247.005	-200.000	0.047	-0.281
-245.990	-53.715	-0.055	0.024
-244.976	-5.766	-0.189	0.128
-243.961	195.561	-0.205	0.306
-242.946	51.164	-0.314	0.293
-241.932	-82.467	-0.093	0.030
-240.917	76.632	-0.050	0.052
-239.903	123.880	-0.250	-0.309
-238.888	800.000	0.047	-0.182
-237.873	232.538	0.089	-0.144
-236.859	-100.477	0.122	0.030
-235.844	-36.345	0.239	0.127
-234.830	184.196	-0.226	-0.328
-233.815	249.319	0.190	0.317
-232.800	-200.000	0.010	0.360
-231.786	520.046	0.030	0.070
-230.771	800.000	0.043	0.165
-229.757	-97.191	0.108	0.028
-228.742	587.365	0.085	-0.205
-227.727	5.220	0.353	0.256
-226.713	800.000	0.082	0.313
-225.698	-130.873	-0.180	-0.024
-224.684	67.586	0.344	0.345
-223.669	408.307	-0.093	-0.193
-222.655	-67.200	0.273	-0.106
-221.640	-100.892	-0.190	-0.046
-220.625	-115.031	-0.114	0.021
-219.611	-15.001	0.075	-0.047
-218.596	-175.742	0.162	0.004
-217.582	15.950	-0.242	-0.187
-216.567	66.160	0.242	0.242
-215.552	-67.701	-0.328	0.126
-214.538	-68.256	-0.326	-0.125
-213.523	-20.922	0.253	-0.152
-212.509	-200.000	-0.006	0.106
-211.494	-33.616	0.170	0.092
-210.479	0.227	-0.102	-0.072
-209.465	174.783	0.281	-0.399
-208.450	94.051	0.184	-0.205
-207.436	496.338	0.052	-0.117
-206.421	-92.846	0.246	-0.067
-205.406	-147.147	-0.115	0.010
-204.392	800.000	0.104	-0.349
-203.377	36.830	-0.206	-0.179
-202.363	-98.700	0.182	0.046
-201.348	-160.844	0.195	0.010
-200.333	253.818	-0.182	0.305
-199.319	800.000	0.083	0.281
-198.304	501.728	0.165	0.374
-197.290	800.000	0.048	-0.192
-196.275	-200.000	0.003	-0.079
-195.260	-127.782	-0.109	-0.015
-194.246	284.154	0.087	-0.154
-193.231	800.000	0.114	0.320
-192.217	9.733	-0.172	0.128
-191.202	-58.217	-0.254	0.108
-190.187	-10.064	-0.288	-0.188
-189.173	-96.466	-0.123	-0.032
-188.158	800.000	-0.027	0.101
-187.144	-142.696	0.119	-0.011
-186.129	157.015	0.288	-0.390
-185.114	24.706	-0.072	0.058
-184.100	-92.388	0.053	0.015
-183.085	-200.000	-0.019	-0.165
-182.071	-36.173	-0.115	-0.061
-181.056	800.000	-0.120	0.366
-180.042	231.559	0.198	0.318
-179.027	-200.000	0.000	0.327
-178.012	148.380	0.073	0.097
-176.998	63.701	-0.024	-0.024
-175.983	12.979	0.296	-0.225
-174.969	366.865	-0.063	0.125
-173.954	-88.484	-0.268	0.078
-172.939	-56.566	-0.320	0.139
-171.925	-200.000	0.010	0.163
-170.910	142.941	0.246	0.321
-169.896	-100.133	0.332	0.081
-168.881	-200.000	0.017	0.074
-167.866	54.698	0.086	-0.081
-166.852	-200.000	0.054	0.383
-165.837	800.000	0.075	-0.268
-164.823	506.364	0.125	0.284
-163.808	-66.231	0.221	-0.086
-162.793	-200.000	0.019	0.214
-161.779	-176.035	0.127	-0.003
-160.764	175.026	0.101	0.143
-159.750	321.139	0.030	0.057
-158.735	226.907	-0.167	-0.265
-157.720	-27.323	0.333	0.190
-156.706	-99.995	-0.409	-0.100
-155.691	275.393	0.042	0.073
-154.677	-200.000	-0.080	-0.000
-153.662	-53.663	-0.315	0.141
-152.647	-32.605	-0.092	-0.050
-151.633	800.000	-0.077	0.308
-150.618	71.543	0.265	0.270
-149.604	39.124	0.411	0.360
-148.589	800.000	-0.127	-0.396
-147.574	-200.000	0.053	-0.283
-146.560	607.546	-0.100	0.245
-145.545	567.941	-0.021	0.051
-144.531	81.963	-0.062	0.066
-143.516	81.531	-0.096	-0.102
-142.502	-33.733	0.128	0.069
-141.487	-135.007	-0.441	-0.052
-140.472	85.943	0.081	0.087
-139.458	-75.579	-0.425	-0.148
-138.443	324.076	-0.219	-0.410
-137.429	-193.366	-0.068	0.001
-136.414	-130.720	0.190	0.025
-135.399	28.116	-0.190	0.157
-134.385	-128.729	0.164	-0.023
-133.370	54.383	-0.093	0.088
-132.356	601.905	0.140	-0.341
-131.341	-119.492	0.117	0.020
-130.326	800.000	0.081	-0.270
-129.312	-57.479	-0.187	-0.080
-128.297	-200.000	-0.021	0.336
-127.283	-200.000	-0.017	0.253
-126.268	-22.650	0.302	-0.178
-125.253	-52.581	-0.059	-0.027
-124.239	-5.582	-0.076	-0.051
-123.224	-138.434	0.117	0.013
-122.210	-85.031	0.315	0.097
