DTS Sentinel unit serial number:	SN413079Multiplexer serial number:	ORYXHardware model number:	OX4-SRSoftware version number:	ORYX F/W v4.00 Oryx Data Collector v3.7.2.0data status	okinstallation	princeton_trtdifferential loss correction	single-endedforward channel	channel 4reverse channel	N/Adate	2019/09/18time	22:29:35forward acquisition time	60.00reverse acquisition time	0.00gamma	496.2192k internal	0.2333k external	0.2333temperature offset calibration	1.0032default loss term (dB/km)	0.3790temperature slope calibration	1.0000multiplexer offset coefficient	1.0000multiplexer slope coefficient	1.0000fibre end	0.00T internal ref (°C)	24.25T ext. ref 1 (°C)	0.80T ext. ref 2 (°C)	17.93length (m)	temperature (°C)	Stokes	anti-Stokes-747.200	-30.297	0.056	0.032
-746.185	-73.810	-0.293	0.107
-745.171	-83.862	0.147	-0.047
-744.156	-77.801	-0.232	0.081
-743.142	-200.000	-0.026	-0.248
-742.127	32.212	0.193	0.168
-741.112	77.864	0.038	0.041
-740.098	270.368	-0.273	0.482
-739.083	95.955	0.163	-0.188
-738.069	793.898	0.073	0.203
-737.054	-134.213	0.276	0.034
-736.039	-95.283	-0.365	-0.099
-735.025	302.882	0.037	-0.069
-734.010	418.995	-0.116	-0.249
-732.996	-75.285	-0.430	-0.154
-731.981	-8.561	0.126	0.085
-730.966	-85.576	-0.302	-0.094
-729.952	-37.172	0.041	-0.022
-728.937	-200.000	0.022	-0.374
-727.923	-33.932	-0.140	-0.077
-726.908	-1.715	-0.088	-0.062
-725.894	79.185	0.049	-0.053
-724.879	-89.130	0.069	-0.020
-723.864	-131.118	0.238	-0.032
-722.850	237.715	-0.147	0.245
-721.835	131.774	-0.072	-0.093
-720.821	-59.079	0.169	-0.073
-719.806	800.000	-0.099	-0.338
-718.791	-200.000	-0.048	-0.345
-717.777	40.968	-0.137	-0.124
-716.762	800.000	-0.085	-0.344
-715.748	48.219	-0.391	-0.367
-714.733	-200.000	-0.005	0.197
-713.718	12.365	0.104	-0.081
-712.704	-167.478	0.148	0.006
-711.689	75.027	-0.076	-0.081
-710.675	-3.644	0.354	-0.247
-709.660	788.530	-0.091	-0.252
-708.645	575.740	0.113	-0.277
-707.631	-133.114	-0.246	-0.031
-706.616	40.684	0.086	0.078
-705.602	-102.105	-0.196	0.047
-704.587	-200.000	-0.058	0.270
-703.572	-40.231	-0.186	0.097
-702.558	-70.799	-0.453	0.171
-701.543	289.614	0.171	-0.311
-700.529	-200.000	-0.019	0.133
-699.514	-85.284	0.304	0.095
-698.499	-4.905	0.154	-0.106
-697.485	800.000	0.075	-0.269
-696.470	-25.389	-0.098	-0.058
-695.456	3.239	-0.089	-0.065
-694.441	58.589	0.248	-0.245
-693.426	800.000	-0.185	-0.588
-692.412	-200.000	-0.023	-0.230
-691.397	800.000	0.019	0.059
-690.383	119.575	0.045	0.056
-689.368	-87.392	-0.211	0.064
-688.354	10.177	0.158	-0.121
-687.339	175.251	-0.182	-0.265
-686.324	-89.604	-0.028	-0.008
-685.310	-46.295	0.220	0.108
-684.295	5.779	0.125	0.093
-683.281	-163.319	0.113	-0.005
-682.266	-110.872	-0.178	0.037
-681.251	-50.045	0.400	0.190
-680.237	-126.163	-0.224	0.034
-679.222	18.232	-0.331	0.265
-678.208	-22.108	-0.271	0.165
-677.193	-124.054	-0.430	0.068
-676.178	800.000	-0.075	0.230
-675.164	-200.000	-0.014	0.337
-674.149	-116.901	0.219	0.040
-673.135	-106.638	0.213	-0.048
-672.120	-200.000	-0.006	0.203
-671.105	14.059	-0.096	-0.075
-670.091	-200.000	-0.026	0.226
-669.076	-50.443	0.281	-0.133
-668.062	187.433	0.123	-0.184
-667.047	53.514	-0.244	-0.235
-666.032	-200.000	-0.102	0.454
-665.018	355.750	-0.088	0.176
-664.003	-105.622	-0.420	-0.095
-662.989	-200.000	0.042	-0.258
-661.974	-76.641	0.265	-0.093
-660.959	-200.000	-0.025	0.184
-659.945	46.469	-0.182	-0.169
-658.930	800.000	0.080	-0.283
-657.916	-200.000	-0.028	0.266
-656.901	4.494	-0.127	-0.094
-655.886	708.604	-0.133	0.353
-654.872	203.825	0.080	-0.124
-653.857	56.959	0.024	-0.023
-652.843	220.948	-0.298	-0.479
-651.828	90.921	-0.041	-0.046
-650.814	29.226	0.150	0.127
-649.799	75.104	-0.186	-0.196
-648.784	-200.000	0.003	0.089
-647.770	-114.076	-0.274	-0.053
-646.755	-200.000	0.046	-0.309
-645.741	285.464	-0.116	-0.210
-644.726	-200.000	0.046	-0.223
-643.711	800.000	-0.059	0.163
-642.697	-200.000	0.022	-0.332
-641.682	-110.003	0.330	0.069
-640.668	800.000	-0.117	0.408
-639.653	-200.000	0.016	-0.226
-638.638	800.000	0.055	-0.155
-637.624	-200.000	0.009	-0.050
-636.609	148.296	0.066	-0.090
-635.595	353.903	0.046	-0.091
-634.580	-64.713	-0.371	0.151
-633.565	-96.043	0.366	-0.097
-632.551	-103.277	-0.064	0.015
-631.536	-94.448	0.247	-0.068
-630.522	-200.000	0.047	-0.276
-629.507	217.671	0.260	-0.415
-628.492	-30.229	-0.024	0.014
-627.478	450.111	0.084	0.186
-626.463	28.843	-0.261	-0.221
-625.449	-146.504	-0.378	0.033
-624.434	-96.336	0.084	0.022
-623.419	278.395	-0.204	-0.364
-622.405	146.137	0.098	-0.132
-621.390	55.364	0.138	0.134
-620.376	9.642	0.177	0.134
-619.361	-109.702	0.130	-0.027
-618.346	800.000	-0.075	-0.214
-617.332	5.081	-0.015	0.011
-616.317	-78.034	-0.294	0.101
-615.303	-78.873	-0.184	0.063
-614.288	-38.060	0.206	0.109
-613.273	800.000	0.028	-0.111
-612.259	-125.243	0.196	0.030
-611.244	800.000	-0.019	0.057
-610.230	-99.208	0.141	-0.036
-609.215	-0.079	0.083	0.059
-608.201	497.291	-0.058	0.133
-607.186	800.000	-0.066	0.288
-606.171	-57.545	0.131	0.057
-605.157	-60.519	-0.085	0.036
-604.142	-200.000	0.010	-0.095
-603.128	-200.000	-0.009	-0.079
-602.113	14.505	-0.271	-0.211
-601.098	-53.873	0.042	-0.019
-600.084	-104.241	0.253	0.059
-599.069	504.263	0.082	0.190
-598.055	-200.000	-0.005	0.343
-597.040	224.383	-0.228	-0.368
-596.025	-200.000	-0.069	-0.304
-595.011	-47.818	0.032	0.015
-593.996	185.464	0.127	-0.188
-592.982	-200.000	0.034	-0.216
-591.967	-148.722	0.045	-0.004
-590.952	-144.085	0.431	0.040
-589.938	-92.040	-0.395	0.112
-588.923	57.410	-0.063	-0.061
-587.909	637.878	-0.048	0.121
-586.894	-200.000	-0.009	-0.378
-585.879	-174.085	0.338	0.010
-584.865	-200.000	-0.065	-0.475
-583.850	227.143	-0.140	0.228
-582.836	268.598	0.125	0.218
-581.821	-32.707	0.419	0.233
-580.806	-127.654	-0.184	-0.027
-579.792	71.274	0.161	0.167
-578.777	83.018	0.132	0.144
-577.763	405.203	-0.084	0.177
-576.748	-132.476	-0.195	-0.025
-575.733	420.787	0.100	0.215
-574.719	-18.794	-0.119	0.074
-573.704	205.956	-0.167	-0.259
-572.690	185.648	0.234	0.347
-571.675	-122.690	-0.117	0.019
-570.661	92.985	0.106	0.119
-569.646	108.226	-0.109	0.129
-568.631	-73.515	0.272	0.099
-567.617	-101.633	-0.341	-0.083
-566.602	229.346	0.034	-0.055
-565.588	170.714	0.226	0.324
-564.573	-79.988	-0.156	-0.052
-563.558	-200.000	0.003	-0.072
-562.544	-56.921	0.065	-0.029
-561.529	147.277	0.041	0.055
-560.515	0.066	-0.345	0.246
-559.500	800.000	0.025	0.096
-558.485	-19.744	0.048	-0.029
-557.471	402.930	-0.070	0.148
-556.456	638.149	0.099	0.250
-555.442	165.131	0.098	-0.139
-554.427	-200.000	-0.021	-0.406
-553.412	-14.944	0.215	-0.137
-552.398	-63.990	0.228	0.093
-551.383	110.236	-0.111	-0.133
-550.369	-136.252	0.208	0.024
-549.354	285.050	0.096	-0.172
-548.339	-43.475	-0.149	0.075
-547.325	26.996	-0.121	-0.101
-546.310	-154.481	0.371	-0.025
-545.296	134.496	-0.151	0.196
-544.281	170.496	0.093	-0.132
-543.266	261.632	-0.108	-0.186
-542.252	753.113	-0.086	-0.233
-541.237	800.000	0.047	0.195
-540.223	800.000	-0.064	-0.182
-539.208	-200.000	-0.013	-0.117
-538.193	-200.000	0.010	0.097
-537.179	-21.082	-0.469	-0.286
-536.164	-200.000	0.029	-0.328
-535.150	254.700	0.176	-0.300
-534.135	-200.000	-0.015	-0.068
-533.121	13.274	0.147	-0.114
-532.106	-120.152	-0.094	-0.016
-531.091	800.000	-0.050	-0.150
-530.077	-109.591	-0.324	0.068
-529.062	-200.000	0.021	0.093
-528.048	-200.000	0.045	-0.261
-527.033	-93.256	-0.339	0.094
-526.018	-48.099	0.185	0.089
-525.004	-17.531	0.192	-0.120
-523.989	-149.689	-0.229	0.018
-522.975	800.000	-0.068	0.201
-521.960	-59.487	-0.070	0.030
-520.945	28.959	-0.078	0.066
-519.931	87.146	-0.044	-0.048
-518.916	800.000	0.062	0.260
-517.902	378.201	-0.064	0.131
-516.887	-134.658	0.132	0.016
-515.872	-74.809	-0.377	-0.135
-514.858	45.407	-0.187	0.172
-513.843	-117.583	-0.128	0.023
-512.829	194.258	0.151	0.227
-511.814	609.001	0.082	-0.205
-510.799	-200.000	0.004	-0.289
-509.785	571.047	0.129	0.312
-508.770	113.619	0.151	-0.182
-507.756	-200.000	0.031	-0.233
-506.741	-83.441	0.173	0.055
-505.726	519.008	-0.035	-0.081
-504.712	113.236	0.047	0.057
-503.697	-102.598	0.159	-0.038
-502.683	-78.570	0.277	-0.094
-501.668	-179.682	0.234	0.005
-500.653	62.331	0.122	-0.122
-499.639	-83.910	-0.252	0.080
-498.624	612.421	0.056	-0.138
-497.610	800.000	-0.049	-0.153
-496.595	115.767	-0.083	0.101
-495.581	-68.574	0.279	0.107
-494.566	-163.287	-0.466	0.022
-493.551	-200.000	-0.039	0.232
-492.537	39.757	-0.137	-0.122
-491.522	-200.000	0.049	0.221
-490.508	-94.919	0.099	0.027
-489.493	-200.000	-0.016	0.244
-488.478	-200.000	-0.007	0.297
-487.464	-138.091	0.107	-0.012
-486.449	136.987	-0.070	0.091
-485.435	-50.668	-0.236	-0.110
-484.420	93.307	0.151	0.170
-483.405	-91.786	-0.080	-0.023
-482.391	-143.285	0.357	0.034
-481.376	-101.096	-0.144	-0.035
-480.362	-139.619	-0.234	-0.025
-479.347	-112.942	-0.417	0.082
-478.332	522.181	-0.075	-0.175
-477.318	-187.410	-0.355	-0.005
-476.303	369.088	0.091	0.183
-475.289	456.578	0.177	0.391
-474.274	-200.000	-0.015	-0.133
-473.259	231.509	0.088	-0.143
-472.245	-68.507	-0.302	-0.116
-471.230	118.323	-0.127	-0.156
-470.216	139.032	0.201	0.263
-469.201	-152.962	-0.097	-0.007
-468.186	800.000	-0.036	0.141
-467.172	800.000	0.064	-0.175
-466.157	-200.000	0.001	-0.334
-465.143	68.137	0.256	-0.261
-464.128	-16.568	-0.150	-0.094
-463.113	-42.604	-0.162	0.082
-462.099	247.810	0.109	-0.183
-461.084	146.724	-0.053	-0.071
-460.070	-200.000	-0.057	-0.248
-459.055	-9.254	0.150	0.100
-458.040	-59.730	-0.196	0.084
-457.026	-6.104	0.197	0.134
-456.011	-34.206	0.456	-0.249
-454.997	-137.298	0.122	0.014
-453.982	218.014	-0.046	-0.072
-452.968	180.688	-0.050	0.073
-451.953	-83.602	0.224	0.071
-450.938	-76.398	0.070	-0.024
-449.924	43.607	0.129	0.117
-448.909	-97.689	-0.138	0.036
-447.895	-200.000	0.036	0.214
-446.880	49.117	0.134	0.125
-445.865	-151.303	-0.572	0.042
-444.851	800.000	0.021	0.060
-443.836	-149.583	-0.323	0.025
-442.822	-200.000	-0.027	0.180
-441.807	-76.729	-0.066	-0.023
-440.792	320.940	0.053	-0.099
-439.778	-200.000	0.054	0.251
-438.763	221.597	0.127	-0.203
-437.749	-30.342	0.291	0.164
-436.734	-20.130	0.116	-0.071
-435.719	294.386	0.120	-0.218
-434.705	386.954	0.143	-0.293
-433.690	-200.000	-0.012	-0.162
-432.676	134.914	0.034	0.044
-431.661	96.769	0.137	0.156
-430.646	120.947	-0.310	0.383
-429.632	-200.000	-0.011	-0.202
-428.617	208.002	0.190	0.295
-427.603	37.012	0.056	-0.049
-426.588	96.685	0.200	-0.228
-425.573	-200.000	-0.049	0.246
-424.559	-200.000	0.008	-0.158
-423.544	-131.652	0.134	-0.017
-422.530	22.332	0.052	-0.042
-421.515	31.779	0.053	-0.045
-420.500	51.245	0.118	-0.111
-419.486	50.970	0.165	-0.156
-418.471	-108.908	-0.376	0.080
-417.457	-143.400	0.223	0.021
-416.442	755.464	-0.064	-0.173
-415.428	127.622	-0.216	-0.273
-414.413	43.184	-0.147	-0.133
-413.398	-200.000	-0.047	0.260
-412.384	-109.296	0.322	0.068
-411.369	-63.608	0.111	0.045
-410.355	-16.112	-0.016	-0.010
-409.340	261.807	-0.136	-0.234
-408.325	-108.907	0.046	0.010
-407.311	50.996	0.177	-0.166
-406.296	-16.507	0.272	-0.171
-405.282	-6.604	-0.316	0.213
-404.267	800.000	0.111	0.317
-403.252	16.494	-0.192	-0.151
-402.238	-65.704	0.053	0.021
-401.223	800.000	-0.089	0.362
-400.209	32.565	-0.139	0.119
-399.194	420.757	-0.126	-0.268
-398.179	-118.263	-0.302	0.053
-397.165	213.838	-0.105	0.164
-396.150	32.505	-0.208	0.178
-395.136	-71.154	-0.140	-0.052
-394.121	48.469	0.296	0.275
-393.106	320.988	0.064	0.122
-392.092	-34.560	0.121	0.066
-391.077	-181.826	0.442	-0.008
-390.063	131.157	-0.213	-0.272
-389.048	-176.739	0.067	-0.002
-388.033	654.981	0.156	0.397
-387.019	326.955	0.137	-0.260
-386.004	193.735	-0.046	0.069
-384.990	152.115	0.235	0.317
-383.975	201.618	-0.452	-0.690
-382.960	131.691	0.096	0.123
-381.946	87.756	0.141	0.155
-380.931	166.812	-0.105	-0.148
-379.917	10.455	-0.206	-0.156
-378.902	-200.000	-0.013	-0.433
-377.888	125.640	-0.116	-0.145
-376.873	291.900	0.123	0.222
-375.858	-8.774	-0.273	0.181
-374.844	247.750	0.080	0.135
-373.829	229.838	-0.203	0.329
-372.815	109.521	0.149	-0.176
-371.800	9.055	0.210	0.157
-370.785	157.585	0.072	-0.099
-369.771	125.218	0.197	-0.246
-368.756	-162.258	-0.049	-0.002
-367.742	-80.749	-0.063	-0.021
-366.727	-60.315	-0.152	-0.064
-365.712	393.392	0.039	0.081
-364.698	-82.294	-0.295	-0.095
-363.683	-142.306	-0.322	0.031
-362.669	-99.514	-0.267	0.067
-361.654	800.000	0.115	0.405
-360.639	169.092	0.061	0.086
-359.625	-200.000	-0.004	0.094
-358.610	301.623	-0.103	-0.189
-357.596	-146.299	0.133	0.012
-356.581	-43.049	0.266	-0.134
-355.566	-200.000	-0.031	0.234
-354.552	-23.309	0.157	-0.093
-353.537	-200.000	-0.013	0.195
-352.523	-112.096	0.198	0.039
-351.508	-200.000	-0.015	0.080
-350.493	-80.413	0.167	0.055
-349.479	550.853	0.125	-0.297
-348.464	606.016	0.135	-0.333
-347.450	91.549	0.173	0.193
-346.435	-70.900	0.221	-0.082
-345.420	-118.882	0.114	-0.020
-344.406	-200.000	0.049	-0.268
-343.391	164.125	-0.047	0.066
-342.377	-56.423	0.451	-0.198
-341.362	-81.473	0.316	0.103
-340.348	-200.000	0.020	-0.127
-339.333	-107.829	-0.061	-0.013
-338.318	240.373	-0.126	0.208
-337.304	381.419	0.124	-0.252
-336.289	800.000	-0.070	-0.281
-335.275	-64.880	0.356	0.143
-334.260	472.566	-0.108	0.240
-333.245	693.740	-0.099	0.258
-332.231	-200.000	-0.021	-0.102
-331.216	-96.385	-0.276	0.072
-330.202	-3.238	0.302	0.208
-329.187	516.235	-0.083	0.191
-328.172	-200.000	-0.004	0.070
-327.158	215.090	0.081	-0.127
-326.143	-36.513	-0.039	-0.021
-325.129	-138.261	-0.149	0.016
-324.114	-79.916	-0.154	0.051
-323.099	-95.479	-0.385	-0.102
-322.085	-200.000	-0.038	-0.224
-321.070	3.986	-0.261	-0.189
-320.056	-20.354	-0.106	0.065
-319.041	-200.000	0.069	0.402
-318.026	-200.000	0.051	0.448
-317.012	800.000	0.063	-0.235
-315.997	-200.000	-0.017	0.133
-314.983	312.832	0.102	-0.189
-313.968	59.141	-0.177	0.172
-312.953	56.788	-0.084	0.081
-311.939	419.512	-0.195	0.412
-310.924	-200.000	-0.009	-0.107
-309.910	230.905	-0.049	-0.080
-308.895	-87.151	-0.138	-0.041
-307.880	-200.000	0.022	-0.137
-306.866	15.741	-0.079	-0.062
-305.851	-90.200	0.356	0.102
-304.837	136.500	0.159	-0.204
-303.822	87.631	0.214	0.235
-302.807	-73.175	-0.275	0.100
-301.793	-28.584	0.056	-0.032
-300.778	-120.423	0.114	0.019
-299.764	-29.985	-0.318	0.179
-298.749	37.094	0.060	0.053
-297.735	-153.897	-0.388	0.026
-296.720	61.582	-0.167	0.165
-295.705	-44.225	0.019	0.009
-294.691	-182.833	0.275	-0.005
-293.676	799.652	0.088	-0.239
-292.662	116.267	0.223	0.269
-291.647	492.216	-0.123	0.278
-290.632	-181.067	-0.420	-0.008
-289.618	-65.949	0.420	-0.166
-288.603	76.117	-0.140	-0.147
-287.589	800.000	-0.045	0.188
-286.574	321.582	0.101	-0.190
-285.559	-200.000	0.045	-0.210
-284.545	157.096	-0.127	-0.173
-283.530	-127.771	0.255	0.036
-282.516	6.139	-0.084	-0.061
-281.501	40.890	-0.126	0.112
-280.486	583.942	-0.073	-0.177
-279.472	-13.544	0.226	-0.144
-278.457	-200.000	0.028	0.146
-277.443	-52.899	-0.321	0.146
-276.428	52.988	-0.223	0.211
-275.413	16.368	-0.113	0.088
-274.399	44.813	-0.068	-0.062
-273.384	51.908	0.150	0.141
-272.370	-21.959	0.247	-0.148
-271.355	202.977	0.230	-0.351
-270.340	409.209	0.040	0.084
-269.326	800.000	-0.026	0.094
-268.311	94.786	0.272	0.305
-267.297	-86.502	0.133	-0.040
-266.282	-200.000	0.032	0.163
-265.267	123.750	-0.075	0.093
-264.253	-67.160	-0.230	0.089
-263.238	-30.713	-0.126	0.071
-262.224	-46.745	0.100	-0.048
-261.209	-157.631	-0.193	-0.011
-260.195	69.534	-0.082	-0.083
-259.180	-200.000	0.005	-0.135
-258.165	188.096	-0.107	0.158
-257.151	14.859	0.081	-0.062
-256.136	27.410	0.126	0.104
-255.122	800.000	0.091	-0.261
-254.107	-104.073	-0.266	0.061
-253.092	-9.594	-0.158	-0.104
-252.078	-39.477	0.124	-0.064
-251.063	96.504	-0.168	-0.190
-250.049	-200.000	-0.011	-0.224
-249.034	-76.827	-0.220	0.076
-248.019	-69.301	-0.126	0.048
-247.005	-109.251	-0.185	-0.039
-245.990	-200.000	0.013	0.459
-244.976	-77.185	0.079	-0.027
-243.961	498.809	0.079	-0.179
-242.946	-61.117	-0.275	0.115
-241.932	800.000	0.097	0.267
-240.917	14.296	0.224	0.172
-239.903	-77.659	0.096	0.033
-238.888	-200.000	0.001	0.194
-237.873	-81.357	0.169	-0.055
-236.859	-137.767	-0.570	-0.063
-235.844	-200.000	0.025	-0.255
-234.830	-81.050	0.185	0.060
-233.815	683.382	0.051	0.130
-232.800	-93.969	0.325	-0.088
-231.786	-74.214	-0.085	0.030
-230.771	800.000	0.041	-0.168
-229.757	22.836	0.102	0.083
-228.742	212.715	0.079	0.123
-227.727	-73.939	0.178	-0.064
-226.713	-200.000	0.024	0.255
-225.698	-35.437	0.070	0.037
-224.684	59.580	-0.121	-0.118
-223.669	188.492	-0.024	0.035
-222.655	473.449	-0.125	-0.277
-221.640	-114.257	0.169	0.032
-220.625	-200.000	-0.013	0.178
-219.611	800.000	0.086	0.341
-218.596	-49.454	-0.075	-0.035
-217.582	86.563	-0.134	-0.145
-216.567	240.829	-0.064	0.105
-215.552	125.939	0.055	-0.068
-214.538	-149.592	-0.407	-0.032
-213.523	-129.375	0.237	0.032
-212.509	706.111	-0.014	-0.035
-211.494	-200.000	0.010	0.186
-210.479	-0.331	-0.138	0.096
-209.465	54.678	-0.224	-0.213
-208.450	800.000	-0.034	0.093
-207.436	800.000	0.028	0.076
-206.421	-53.121	-0.312	0.141
-205.406	-200.000	0.073	-0.371
-204.392	-135.505	0.297	0.035
-203.377	-117.856	-0.206	0.036
-202.363	-88.277	0.233	0.069
-201.348	-99.897	0.034	0.008
-200.333	249.956	-0.070	0.117
-199.319	6.875	-0.060	0.044
-198.304	-17.936	0.041	-0.025
-197.290	-200.000	-0.004	-0.183
-196.275	-67.785	-0.119	0.046
-195.260	-136.409	-0.197	0.023
-194.246	-41.637	0.011	0.006
-193.231	-85.992	0.137	0.042
-192.217	84.984	0.036	-0.039
-191.202	-136.806	0.313	0.035
-190.187	-200.000	0.032	-0.211
-189.173	-200.000	0.027	-0.182
-188.158	-200.000	0.072	-0.322
-187.144	-200.000	-0.016	-0.496
-186.129	-36.691	0.329	-0.174
-185.114	85.862	-0.284	0.307
-184.100	363.087	0.074	-0.146
-183.085	26.696	-0.190	0.157
-182.071	-115.791	-0.064	-0.012
-181.056	-89.566	-0.290	-0.084
-180.042	-200.000	-0.001	0.124
-179.027	-142.548	0.462	0.045
-178.012	143.475	0.107	-0.140
-176.998	-160.124	-0.495	-0.026
-175.983	-55.537	0.335	-0.148
-174.969	43.894	-0.180	-0.162
-173.954	28.946	-0.350	0.292
-172.939	7.976	0.133	0.098
-171.925	199.023	0.139	0.209
-170.910	-200.000	-0.008	0.144
-169.896	-52.850	-0.207	0.094
-168.881	800.000	-0.092	-0.322
-167.866	-76.104	-0.096	0.033
-166.852	-200.000	0.012	0.208
-165.837	23.932	0.388	0.314
-164.823	-200.000	0.007	0.196
-163.808	800.000	-0.082	0.225
-162.793	-200.000	-0.016	-0.210
-161.779	-200.000	0.005	-0.198
-160.764	-200.000	-0.003	-0.178
-159.750	418.270	0.043	0.090
-158.735	-60.593	0.203	-0.085
-157.720	-70.441	-0.259	0.096
-156.706	-98.348	0.085	0.022
-155.691	45.895	-0.268	-0.243
-154.677	-123.509	0.484	0.076
-153.662	21.819	-0.314	0.251
-152.647	-75.797	-0.095	0.033
-151.633	395.252	0.058	0.119
-150.618	-200.000	0.012	-0.148
-149.604	17.733	-0.170	0.133
-148.589	110.250	0.153	0.181
-147.574	22.671	-0.210	-0.169
-146.560	-148.996	0.218	-0.017
-145.545	100.750	0.099	-0.113
-144.531	444.392	0.096	0.207
-143.516	-200.000	-0.039	0.236
-142.502	-74.016	0.259	-0.092
-141.487	-200.000	0.018	0.077
-140.472	-87.628	0.302	0.090
-139.458	-9.082	-0.488	0.321
-138.443	800.000	-0.063	0.260
-137.429	-135.419	0.097	-0.011
-136.414	-200.000	-0.009	0.220
-135.399	-23.795	-0.078	0.046
-134.385	-106.205	-0.090	0.020
-133.370	29.955	0.260	0.217
-132.356	-200.000	0.024	0.115
-131.341	-83.266	-0.220	-0.069
-130.326	209.570	-0.219	-0.336
-129.312	-83.356	0.082	0.026
-128.297	239.224	0.086	0.140
-127.283	-200.000	-0.049	-0.259
-126.268	513.171	-0.127	0.291
-125.253	165.673	0.095	-0.131
-124.239	-79.176	-0.167	0.056
-123.224	-46.908	-0.210	0.101
-122.210	800.000	-0.007	0.024
-121.195	-57.724	0.354	-0.152
-120.180	10.468	-0.289	-0.216
