DTS Sentinel unit serial number:	SN413079Multiplexer serial number:	ORYXHardware model number:	OX4-SRSoftware version number:	ORYX F/W v4.00 Oryx Data Collector v3.7.2.0data status	okinstallation	princeton_trtdifferential loss correction	single-endedforward channel	channel 4reverse channel	N/Adate	2019/09/12time	14:31:11forward acquisition time	60.00reverse acquisition time	0.00gamma	496.2192k internal	0.2291k external	0.2291temperature offset calibration	1.0088default loss term (dB/km)	0.3790temperature slope calibration	1.0000multiplexer offset coefficient	1.0000multiplexer slope coefficient	1.0000fibre end	0.00T internal ref (°C)	40.06T ext. ref 1 (°C)	2.29T ext. ref 2 (°C)	35.65length (m)	temperature (°C)	Stokes	anti-Stokes-747.200	-26.224	-0.099	-0.060
-746.185	800.000	-0.097	0.393
-745.171	213.456	-0.157	0.254
-744.156	52.253	0.237	0.232
-743.142	-145.334	0.139	-0.013
-742.127	-111.949	0.087	0.018
-741.112	32.027	-0.067	0.059
-740.098	355.008	-0.128	0.260
-739.083	-200.000	0.000	-0.261
-738.069	640.574	-0.042	0.108
-737.054	261.266	0.076	0.135
-736.039	169.087	0.152	-0.222
-735.025	-49.341	-0.107	0.052
-734.010	-200.000	0.026	0.132
-732.996	45.191	0.137	0.129
-731.981	-121.489	-0.195	0.033
-730.966	-200.000	0.025	0.128
-729.952	-17.079	0.208	0.134
-728.937	800.000	0.072	0.249
-727.923	144.254	-0.314	-0.429
-726.908	78.263	-0.215	-0.235
-725.894	787.102	0.097	-0.271
-724.879	180.428	0.215	-0.323
-723.864	-123.525	-0.135	-0.022
-722.850	651.073	-0.086	0.226
-721.835	-111.149	-0.361	-0.076
-720.821	126.185	-0.036	0.047
-719.806	199.913	0.132	-0.207
-718.791	800.000	-0.046	-0.202
-717.777	124.948	-0.122	0.157
-716.762	800.000	-0.102	0.316
-715.748	237.008	-0.049	-0.084
-714.733	-164.009	-0.412	-0.020
-713.718	327.287	-0.186	0.366
-712.704	-200.000	-0.015	0.201
-711.689	-99.003	-0.285	0.074
-710.675	-200.000	-0.002	0.129
-709.660	199.641	-0.052	-0.082
-708.645	-107.072	-0.126	0.029
-707.631	-17.691	-0.165	0.106
-706.616	-115.812	-0.340	-0.065
-705.602	308.026	0.041	0.077
-704.587	-84.792	-0.076	-0.024
-703.572	-169.744	0.087	0.003
-702.558	29.979	0.151	0.132
-701.543	-132.269	-0.545	0.072
-700.529	-200.000	0.033	-0.182
-699.514	-22.001	0.305	-0.190
-698.499	-68.657	-0.265	0.105
-697.485	-200.000	-0.068	-0.305
-696.470	-59.989	-0.169	0.074
-695.456	-200.000	0.032	0.274
-694.441	92.208	-0.189	0.218
-693.426	124.731	0.134	-0.173
-692.412	-60.425	-0.087	0.038
-691.397	326.352	-0.113	0.222
-690.383	-13.425	-0.343	0.227
-689.368	-200.000	-0.051	0.322
-688.354	284.563	-0.036	0.065
-687.339	446.592	0.115	0.259
-686.324	-200.000	-0.013	0.088
-685.310	78.415	0.181	0.197
-684.295	-59.627	0.144	-0.063
-683.281	33.185	-0.193	0.171
-682.266	-118.140	0.195	-0.035
-681.251	10.100	-0.275	-0.214
-680.237	28.166	0.235	-0.202
-679.222	-9.315	-0.419	0.286
-678.208	-148.438	-0.028	-0.002
-677.193	-29.817	0.431	0.251
-676.178	83.634	-0.413	-0.460
-675.164	271.146	-0.099	-0.178
-674.149	-156.524	0.024	0.001
-673.135	-103.526	0.209	0.050
-672.120	58.627	0.103	-0.103
-671.105	69.579	0.127	0.134
-670.091	24.681	0.125	-0.106
-669.076	49.528	-0.104	-0.100
-668.062	-200.000	-0.011	-0.318
-667.047	149.325	-0.092	-0.127
-666.032	-112.548	0.128	0.026
-665.018	-200.000	0.044	0.239
-664.003	-65.839	0.215	0.088
-662.989	-55.990	0.443	-0.202
-661.974	800.000	-0.091	-0.377
-660.959	656.904	-0.111	-0.292
-659.945	-167.718	0.121	-0.005
-658.930	27.146	-0.306	0.262
-657.916	800.000	-0.052	-0.209
-656.901	-72.081	-0.269	-0.102
-655.886	6.697	-0.423	-0.321
-654.872	37.526	-0.031	0.028
-653.857	-200.000	0.018	0.122
-652.843	800.000	-0.072	-0.232
-651.828	-17.229	-0.197	-0.127
-650.814	-173.039	0.202	0.006
-649.799	-94.347	0.278	-0.077
-648.784	84.351	0.150	-0.167
-647.770	-3.378	-0.302	0.215
-646.755	-200.000	0.016	-0.178
-645.741	40.016	-0.082	-0.075
-644.726	-119.112	0.531	-0.095
-643.711	-154.318	0.117	0.008
-642.697	800.000	0.100	0.296
-641.682	-200.000	-0.045	-0.237
-640.668	-111.166	0.350	-0.073
-639.653	-200.000	0.009	0.281
-638.638	800.000	0.044	-0.146
-637.624	-104.522	0.060	-0.014
-636.609	-141.735	-0.206	-0.021
-635.595	-49.946	-0.112	0.054
-634.580	-69.060	0.183	-0.072
-633.565	800.000	0.058	0.200
-632.551	13.189	-0.135	-0.106
-631.536	-56.444	-0.246	0.111
-630.522	-139.640	-0.414	-0.045
-629.507	-0.789	0.118	0.085
-628.492	68.251	-0.308	0.322
-627.478	-50.574	-0.183	-0.088
-626.463	134.998	0.047	0.063
-625.449	8.090	0.128	-0.098
-624.434	800.000	-0.142	0.535
-623.419	-200.000	-0.025	0.155
-622.405	-116.821	-0.144	-0.027
-621.390	70.718	-0.174	0.184
-620.376	-132.680	0.565	0.074
-619.361	140.330	0.070	0.094
-618.346	-87.654	-0.180	-0.055
-617.332	200.730	0.103	0.162
-616.317	302.679	-0.044	0.083
-615.303	-200.000	-0.004	-0.120
-614.288	80.815	-0.328	-0.360
-613.273	43.849	-0.269	0.251
-612.259	800.000	0.059	0.194
-611.244	460.542	-0.060	0.137
-610.230	-62.819	-0.419	-0.177
-609.215	-87.134	0.201	0.062
-608.201	156.791	-0.163	-0.229
-607.186	52.636	-0.153	-0.149
-606.171	-119.253	0.020	-0.004
-605.157	-35.985	-0.192	-0.106
-604.142	-29.565	-0.187	0.109
-603.128	412.476	-0.087	0.189
-602.113	-4.278	0.095	0.067
-601.098	-200.000	0.051	-0.240
-600.084	-182.852	-0.156	-0.003
-599.069	59.972	-0.109	0.109
-598.055	-155.266	0.102	0.007
-597.040	163.325	-0.137	0.196
-596.025	-26.603	0.168	-0.100
-595.011	-7.973	-0.175	0.120
-593.996	601.588	0.144	-0.365
-592.982	126.979	0.157	0.202
-591.967	-200.000	-0.020	0.292
-590.952	-59.481	-0.560	0.245
-589.938	-14.926	-0.011	-0.007
-588.923	-81.689	0.129	-0.043
-587.909	-120.876	-0.006	0.001
-586.894	433.884	-0.099	-0.219
-585.879	68.587	-0.137	0.143
-584.865	93.739	0.037	-0.042
-583.850	35.565	0.182	-0.162
-582.836	-200.000	0.026	0.122
-581.821	-170.565	0.085	-0.003
-580.806	-87.752	0.205	-0.063
-579.792	781.748	0.100	0.278
-578.777	265.586	0.165	-0.293
-577.763	51.200	-0.063	0.060
-576.748	182.533	-0.113	-0.170
-575.733	-200.000	-0.010	0.191
-574.719	-1.145	-0.267	0.192
-573.704	169.814	-0.205	-0.298
-572.690	334.805	0.106	-0.209
-571.675	343.569	-0.142	-0.283
-570.661	-200.000	-0.005	-0.039
-569.646	48.561	-0.056	0.053
-568.631	42.669	-0.148	0.137
-567.617	-169.919	-0.309	0.011
-566.602	30.282	-0.143	-0.124
-565.588	754.561	0.072	-0.199
-564.573	-200.000	0.011	0.254
-563.558	-48.752	0.267	-0.130
-562.544	257.892	-0.111	-0.195
-561.529	301.813	0.030	0.056
-560.515	-152.026	0.324	-0.024
-559.500	0.747	-0.070	-0.051
-558.485	-136.302	0.110	0.013
-557.471	138.178	-0.053	0.070
-556.456	-65.121	0.254	0.104
-555.442	-33.917	0.152	0.085
-554.427	51.587	0.118	0.114
-553.412	133.561	0.201	-0.265
-552.398	-74.748	0.297	-0.108
-551.383	-55.501	-0.108	-0.049
-550.369	-200.000	-0.047	-0.262
-549.354	99.885	0.179	-0.211
-548.339	113.803	-0.358	-0.442
-547.325	-71.131	0.306	-0.117
-546.310	-200.000	-0.048	0.256
-545.296	597.200	0.090	0.227
-544.281	800.000	-0.098	0.326
-543.266	-64.147	-0.108	-0.045
-542.252	-200.000	-0.004	-0.054
-541.237	73.769	-0.084	-0.090
-540.223	164.350	0.066	0.095
-539.208	377.246	0.046	-0.095
-538.193	-92.606	-0.313	-0.089
-537.179	-38.274	-0.183	0.099
-536.164	-109.965	0.415	-0.088
-535.150	371.778	0.185	0.381
-534.135	-119.093	0.413	0.073
-533.121	43.927	0.014	0.013
-532.106	12.948	0.115	-0.090
-531.091	-118.761	0.321	-0.057
-530.077	-200.000	-0.017	-0.167
-529.062	-22.769	0.052	0.032
-528.048	-47.523	0.257	-0.127
-527.033	9.055	-0.288	-0.221
-526.018	-89.895	0.396	0.117
-525.004	-86.438	0.166	0.052
-523.989	-22.000	0.187	0.115
-522.975	-132.586	0.267	-0.035
-521.960	25.499	0.261	0.220
-520.945	502.622	-0.105	-0.247
-519.931	-200.000	-0.004	-0.172
-518.916	800.000	0.103	-0.300
-517.902	150.080	-0.172	0.236
-516.887	-53.745	-0.091	-0.042
-515.872	800.000	0.078	-0.229
-514.858	-135.283	-0.149	-0.018
-513.843	-126.689	-0.285	-0.043
-512.829	-52.442	0.075	-0.035
-511.814	-200.000	-0.041	0.209
-510.799	-200.000	0.038	0.183
-509.785	-93.771	0.570	-0.159
-508.770	-134.152	0.176	0.022
-507.756	-45.357	-0.414	0.208
-506.741	800.000	-0.069	0.222
-505.726	68.289	0.076	0.079
-504.712	800.000	-0.022	0.082
-503.697	-200.000	-0.012	0.252
-502.683	-145.536	0.262	0.024
-501.668	-49.198	-0.088	-0.043
-500.653	-16.597	0.090	-0.058
-499.639	-69.580	-0.182	0.071
-498.624	-44.360	-0.320	-0.162
-497.610	-200.000	0.003	-0.036
-496.595	-40.404	-0.064	0.033
-495.581	64.494	-0.122	-0.125
-494.566	12.882	0.120	0.094
-493.551	-117.390	0.152	0.028
-492.537	-60.489	0.229	0.099
-491.522	-44.426	-0.242	0.123
-490.508	7.699	-0.127	0.096
-489.493	4.956	0.105	-0.078
-488.478	800.000	0.062	-0.189
-487.464	-98.260	-0.104	0.027
-486.449	-178.747	0.344	0.008
-485.435	-200.000	0.028	-0.190
-484.420	800.000	0.026	-0.091
-483.405	-47.111	0.091	0.045
-482.391	-34.568	-0.207	-0.115
-481.376	62.484	-0.063	0.063
-480.362	-120.674	-0.209	0.036
-479.347	391.902	-0.151	0.318
-478.332	800.000	0.040	0.116
-477.318	800.000	0.017	-0.055
-476.303	-130.706	-0.238	-0.032
-475.289	187.058	0.185	-0.279
-474.274	-14.092	-0.117	0.077
-473.259	-109.838	-0.119	0.025
-472.245	-200.000	-0.061	0.313
-471.230	500.178	-0.084	-0.196
-470.216	-200.000	0.031	-0.351
-469.201	130.637	-0.085	0.110
-468.186	-191.373	-0.083	0.001
-467.172	150.300	0.042	0.057
-466.157	-37.435	-0.325	0.176
-465.143	121.827	-0.061	-0.078
-464.128	-75.366	-0.152	0.055
-463.113	-200.000	0.068	0.319
-462.099	116.203	0.140	-0.173
-461.084	40.555	-0.250	0.228
-460.070	-64.305	-0.121	0.050
-459.055	411.366	-0.049	-0.105
-458.040	-62.829	0.206	0.086
-457.026	-200.000	0.020	0.211
-456.011	145.828	0.046	0.062
-454.997	-95.911	-0.185	-0.050
-453.982	800.000	0.134	-0.405
-452.968	75.466	0.119	-0.127
-451.953	-32.689	0.331	-0.186
-450.938	-56.442	-0.046	0.021
-449.924	-155.868	-0.284	-0.018
-448.909	-69.726	-0.257	0.099
-447.895	55.501	-0.137	0.134
-446.880	-134.902	0.248	-0.030
-445.865	-46.908	0.139	-0.069
-444.851	165.695	0.247	0.354
-443.836	-45.312	-0.334	0.168
-442.822	716.560	0.084	-0.225
-441.807	-53.007	-0.214	0.100
-440.792	10.317	-0.098	0.075
-439.778	110.066	-0.132	0.161
-438.763	-200.000	-0.002	0.011
-437.749	-4.819	0.222	0.155
-436.734	386.274	-0.054	0.113
-435.719	-109.965	0.315	-0.067
-434.705	-180.494	-0.162	-0.003
-433.690	-200.000	-0.001	0.066
-432.676	132.700	0.163	-0.213
-431.661	-31.910	0.312	-0.177
-430.646	416.975	-0.113	-0.244
-429.632	-57.405	0.301	-0.134
-428.617	800.000	-0.025	-0.096
-427.603	-200.000	-0.065	0.303
-426.588	-200.000	0.022	-0.174
-425.573	800.000	-0.075	0.327
-424.559	-138.859	-0.189	-0.021
-423.544	241.925	0.128	-0.216
-422.530	-200.000	-0.054	0.271
-421.515	10.592	-0.096	0.074
-420.500	-12.324	0.025	0.016
-419.486	-35.811	-0.100	-0.055
-418.471	-156.182	-0.189	0.012
-417.457	800.000	-0.035	0.144
-416.442	42.496	0.374	0.344
-415.428	-86.875	0.253	-0.078
-414.413	800.000	-0.050	-0.162
-413.398	19.833	-0.270	0.220
-412.384	1.997	0.314	0.229
-411.369	116.911	0.044	-0.055
-410.355	200.843	0.048	-0.075
-409.340	-129.360	0.287	-0.040
-408.325	-132.408	0.039	-0.005
-407.311	10.612	-0.067	-0.051
-406.296	-93.610	-0.276	-0.077
-405.282	-39.007	-0.063	-0.034
-404.267	-100.878	-0.239	-0.059
-403.252	-77.709	-0.062	-0.022
-402.238	800.000	0.014	0.049
-401.223	87.455	-0.013	0.015
-400.209	-138.969	0.437	-0.048
-399.194	-200.000	0.008	0.148
-398.179	800.000	0.055	0.167
-397.165	800.000	-0.065	0.198
-396.150	27.616	0.124	-0.105
-395.136	-200.000	-0.026	0.353
-394.121	149.262	-0.157	0.215
-393.106	-200.000	-0.001	0.026
-392.092	-47.191	0.018	0.009
-391.077	26.182	0.147	-0.124
-390.063	-159.770	0.435	0.024
-389.048	-129.724	0.299	0.042
-388.033	0.865	-0.198	-0.143
-387.019	-200.000	0.038	0.468
-386.004	800.000	-0.117	-0.425
-384.990	417.726	0.081	-0.176
-383.975	-59.768	-0.235	-0.101
-382.960	-84.635	-0.168	-0.053
-381.946	392.460	0.087	-0.182
-380.931	237.490	0.116	0.194
-379.917	-200.000	-0.013	0.103
-378.902	103.554	-0.102	0.121
-377.888	324.447	0.239	-0.460
-376.873	609.157	0.125	-0.316
-375.858	15.501	-0.136	0.108
-374.844	-29.650	-0.035	-0.020
-373.829	800.000	-0.131	-0.395
-372.815	-25.657	0.081	-0.048
-371.800	-29.001	-0.274	0.158
-370.785	800.000	0.070	0.216
-369.771	399.814	0.121	0.256
-368.756	349.385	-0.107	-0.214
-367.742	-24.676	0.182	0.110
-366.727	800.000	-0.102	0.361
-365.712	-108.935	-0.361	-0.078
-364.698	800.000	0.034	0.119
-363.683	-156.922	0.216	0.013
-362.669	800.000	0.075	0.213
-361.654	-4.338	-0.218	-0.152
-360.639	-0.516	0.267	0.191
-359.625	-130.897	0.347	0.047
-358.610	-126.507	-0.190	0.028
-357.596	576.571	-0.095	-0.234
-356.581	800.000	0.061	0.232
-355.566	-45.017	0.220	-0.110
-354.552	-98.340	0.054	-0.014
-353.537	-8.255	0.095	0.064
-352.523	51.267	0.179	0.171
-351.508	-200.000	-0.021	-0.180
-350.493	-111.482	0.520	0.107
-349.479	800.000	-0.095	0.318
-348.464	800.000	0.077	0.271
-347.450	737.486	0.114	-0.309
-346.435	-189.420	-0.274	0.003
-345.420	54.212	-0.271	0.263
-344.406	340.389	-0.265	-0.521
-343.391	407.545	-0.125	-0.267
-342.377	125.432	-0.075	0.095
-341.362	184.448	0.124	-0.185
-340.348	133.594	0.045	0.059
-339.333	800.000	0.086	-0.245
-338.318	-136.819	-0.128	0.015
-337.304	-108.753	-0.040	-0.009
-336.289	-140.510	0.040	-0.004
-335.275	-136.006	0.114	0.014
-334.260	8.812	-0.041	-0.031
-333.245	-108.769	-0.583	0.126
-332.231	-29.871	0.373	-0.214
-331.216	-187.498	0.330	-0.004
-330.202	-124.622	-0.221	-0.035
-329.187	-146.776	0.049	-0.004
-328.172	-60.804	0.289	-0.123
-327.158	-1.136	-0.196	-0.139
-326.143	199.155	0.170	0.263
-325.129	-200.000	-0.051	-0.287
-324.114	-8.256	0.218	-0.148
-323.099	740.530	-0.152	0.411
-322.085	800.000	0.026	0.113
-321.070	37.305	0.248	0.221
-320.056	-56.006	-0.205	-0.092
-319.041	648.526	0.034	-0.087
-318.026	106.889	-0.275	0.329
-317.012	-48.311	-0.311	-0.151
-315.997	800.000	0.009	-0.039
-314.983	-132.299	-0.214	0.028
-313.968	-52.064	0.190	-0.089
-312.953	-200.000	-0.050	-0.275
-311.939	-139.907	-0.253	0.027
-310.924	-134.258	0.167	0.021
-309.910	720.422	-0.107	0.286
-308.895	114.652	-0.054	0.067
-307.880	-84.092	-0.306	0.098
-306.866	-200.000	0.018	0.169
-305.851	-32.765	-0.132	-0.074
-304.837	-165.047	0.484	0.022
-303.822	-200.000	0.009	-0.172
-302.807	-200.000	-0.008	-0.180
-301.793	800.000	0.003	-0.010
-300.778	-200.000	0.014	0.181
-299.764	-109.257	-0.078	0.017
-298.749	33.415	-0.103	0.090
-297.735	44.083	0.157	0.144
-296.720	180.501	0.144	-0.212
-295.705	-114.627	0.119	-0.023
-294.691	91.944	0.230	0.260
-293.676	-8.683	0.253	0.171
-292.662	-35.190	0.027	0.015
-291.647	53.855	0.081	-0.078
-290.632	52.783	-0.239	0.229
-289.618	96.451	-0.257	-0.296
-288.603	-132.101	-0.095	-0.012
-287.589	725.320	-0.101	-0.271
-286.574	800.000	0.021	-0.076
-285.559	-146.515	-0.305	-0.027
-284.545	106.468	0.066	-0.079
-283.530	323.170	0.215	-0.412
-282.516	-200.000	-0.060	-0.270
-281.501	-200.000	-0.036	0.215
-280.486	226.274	0.177	-0.288
-279.472	-200.000	-0.015	-0.150
-278.457	104.503	-0.297	0.352
-277.443	-56.955	-0.229	-0.102
-276.428	-188.954	0.133	-0.002
-275.413	-200.000	0.016	-0.091
-274.399	265.589	-0.091	-0.159
-273.384	663.606	-0.082	0.213
-272.370	24.747	-0.097	0.081
-271.355	-200.000	0.030	-0.296
-270.340	-33.985	0.168	0.093
-269.326	233.678	-0.048	0.079
-268.311	168.996	0.016	0.023
-267.297	68.391	-0.187	-0.193
-266.282	-200.000	-0.020	0.106
-265.267	-200.000	-0.033	-0.225
-264.253	-126.917	0.101	-0.015
-263.238	-38.804	-0.162	-0.086
-262.224	-200.000	0.008	-0.046
-261.209	-200.000	-0.008	-0.204
-260.195	-5.643	0.079	0.054
-259.180	305.604	-0.064	0.120
-258.165	-200.000	0.019	0.125
-257.151	-38.027	0.162	0.086
-256.136	-150.089	-0.308	0.024
-255.122	-200.000	-0.053	-0.269
-254.107	-200.000	0.037	-0.256
-253.092	-80.588	-0.139	-0.047
-252.078	-152.247	0.270	0.020
-251.063	-126.000	-0.184	0.028
-250.049	-110.822	-0.203	0.042
-249.034	-185.270	-0.093	0.001
-248.019	-133.469	-0.138	0.017
-247.005	-122.071	0.376	-0.062
-245.990	611.392	-0.023	-0.058
-244.976	-200.000	-0.056	-0.260
-243.961	-123.654	0.189	0.030
-242.946	800.000	0.077	-0.300
-241.932	297.433	-0.069	-0.127
-240.917	-123.285	-0.254	-0.041
-239.903	-107.393	0.217	-0.048
-238.888	43.457	0.113	0.104
-237.873	-84.120	-0.186	0.059
-236.859	-69.293	-0.222	-0.085
-235.844	-67.795	-0.167	0.065
-234.830	191.777	0.176	-0.267
-233.815	-27.184	-0.012	-0.007
-232.800	-185.465	-0.482	0.007
-231.786	225.426	0.085	0.138
-230.771	188.009	-0.075	-0.112
-229.757	-200.000	0.024	0.254
-228.742	-65.177	-0.138	0.056
-227.727	-93.149	0.079	0.022
-226.713	-27.016	0.149	0.087
-225.698	-200.000	-0.005	-0.031
-224.684	-14.521	0.133	-0.086
-223.669	130.366	0.153	-0.196
-222.655	-200.000	0.025	0.119
-221.640	-200.000	0.053	0.275
-220.625	-2.210	-0.138	0.097
-219.611	28.331	0.313	-0.266
-218.596	85.790	-0.253	-0.279
-217.582	800.000	-0.091	-0.313
-216.567	175.557	0.070	0.102
-215.552	17.135	0.143	0.114
-214.538	-80.285	0.361	0.121
-213.523	-200.000	0.071	0.378
-212.509	251.437	0.117	0.199
-211.494	122.251	-0.101	0.126
-210.479	800.000	-0.081	0.256
-209.465	24.591	-0.071	-0.059
-208.450	-106.024	0.239	0.054
-207.436	-19.089	0.547	0.341
-206.421	-96.534	-0.386	0.102
-205.406	-66.089	-0.365	0.146
-204.392	-200.000	-0.030	-0.177
-203.377	-74.180	-0.021	0.008
-202.363	-73.466	0.278	0.102
-201.348	146.797	-0.015	-0.020
-200.333	132.275	0.034	0.044
-199.319	732.360	-0.016	-0.042
-198.304	800.000	0.087	0.359
-197.290	14.109	-0.192	-0.150
-196.275	140.136	-0.128	-0.169
-195.260	768.289	-0.032	0.088
-194.246	125.942	-0.176	-0.223
-193.231	433.892	-0.102	-0.222
-192.217	254.873	0.163	0.279
-191.202	-161.212	-0.308	0.016
-190.187	286.132	-0.028	-0.050
-189.173	130.811	-0.198	-0.255
-188.158	-200.000	-0.016	0.231
-187.144	251.447	0.013	-0.023
-186.129	-200.000	-0.083	0.477
-185.114	651.386	-0.086	0.221
-184.100	-200.000	0.016	0.120
-183.085	-127.610	0.139	0.020
-182.071	-200.000	0.009	0.536
-181.056	167.450	0.155	-0.220
-180.042	-100.955	0.241	0.059
-179.027	800.000	0.020	0.081
-178.012	634.083	-0.110	-0.279
-176.998	800.000	-0.117	-0.371
-175.983	666.793	-0.129	-0.335
-174.969	-83.299	0.149	0.048
-173.954	-87.584	-0.156	0.047
-172.939	572.285	-0.096	0.233
-171.925	800.000	-0.105	-0.309
-170.910	-68.557	-0.218	-0.085
-169.896	-97.196	0.294	-0.077
-168.881	800.000	0.085	-0.274
-167.866	-200.000	-0.061	0.311
-166.852	-74.312	-0.119	-0.043
-165.837	-72.872	-0.193	0.071
-164.823	66.912	0.382	-0.389
-163.808	350.629	0.093	-0.184
-162.793	173.567	0.147	0.213
-161.779	105.348	-0.065	-0.077
-160.764	800.000	0.092	0.359
-159.750	185.036	0.256	-0.380
-158.735	784.795	-0.129	-0.354
-157.720	202.860	0.114	0.177
-156.706	-200.000	-0.029	-0.145
-155.691	-120.846	-0.215	-0.036
-154.677	20.485	0.182	0.147
-153.662	751.600	0.108	-0.292
-152.647	11.666	0.210	-0.161
-151.633	118.739	-0.089	-0.110
-150.618	-94.586	-0.235	-0.064
-149.604	-200.000	0.064	-0.309
-148.589	-29.360	-0.111	-0.064
-147.574	-188.364	-0.203	-0.003
-146.560	389.925	-0.033	0.068
-145.545	300.795	0.089	-0.163
-144.531	-85.495	-0.328	0.102
-143.516	800.000	0.047	0.157
-142.502	8.312	-0.063	0.047
-141.487	181.245	0.150	-0.220
-140.472	-128.573	0.215	-0.030
-139.458	63.351	-0.153	-0.153
-138.443	-200.000	-0.003	-0.185
-137.429	-92.523	0.300	0.084
-136.414	-200.000	-0.043	0.255
-135.399	-200.000	0.015	0.310
-134.385	642.906	0.017	-0.044
-133.370	-200.000	0.001	-0.154
-132.356	-153.618	-0.396	0.027
-131.341	2.149	-0.059	0.043
-130.326	-128.669	0.236	0.033
-129.312	338.533	0.101	-0.197
-128.297	-200.000	-0.023	0.228
-127.283	75.708	-0.211	-0.223
-126.268	-200.000	0.065	-0.401
-125.253	800.000	0.020	0.079
-124.239	-200.000	-0.020	0.123
-123.224	174.039	-0.140	0.202
-122.210	-12.059	0.246	-0.161
