DTS Sentinel unit serial number:	SN413079Multiplexer serial number:	ORYXHardware model number:	OX4-SRSoftware version number:	ORYX F/W v4.00 Oryx Data Collector v3.7.2.0data status	okinstallation	princeton_trtdifferential loss correction	single-endedforward channel	channel 4reverse channel	N/Adate	2019/09/12time	14:19:11forward acquisition time	60.00reverse acquisition time	0.00gamma	496.2192k internal	0.2291k external	0.2291temperature offset calibration	1.0088default loss term (dB/km)	0.3790temperature slope calibration	1.0000multiplexer offset coefficient	1.0000multiplexer slope coefficient	1.0000fibre end	0.00T internal ref (°C)	40.19T ext. ref 1 (°C)	2.24T ext. ref 2 (°C)	34.92length (m)	temperature (°C)	Stokes	anti-Stokes-747.200	259.170	-0.130	0.229
-746.185	800.000	-0.061	-0.240
-745.171	17.375	-0.034	-0.028
-744.156	800.000	-0.052	0.154
-743.142	176.454	-0.185	0.275
-742.127	-135.863	-0.259	-0.031
-741.112	-60.642	-0.109	0.047
-740.098	-133.354	0.437	-0.056
-739.083	800.000	-0.084	0.311
-738.069	45.278	0.270	0.255
-737.054	-19.613	0.195	0.124
-736.039	64.690	-0.119	0.123
-735.025	486.560	-0.073	-0.169
-734.010	201.591	0.119	-0.187
-732.996	-57.249	-0.052	-0.023
-731.981	249.053	0.119	-0.206
-730.966	401.165	-0.093	0.200
-729.952	800.000	-0.019	-0.067
-728.937	131.150	0.069	0.090
-727.923	800.000	-0.053	-0.201
-726.908	800.000	0.146	-0.453
-725.894	-200.000	-0.041	-0.316
-724.879	694.299	0.027	-0.073
-723.864	100.318	-0.014	0.017
-722.850	388.197	0.077	0.163
-721.835	43.303	0.231	-0.216
-720.821	800.000	0.085	-0.350
-719.806	29.323	0.135	-0.117
-718.791	19.319	-0.140	0.115
-717.777	800.000	-0.014	-0.056
-716.762	800.000	0.029	0.129
-715.748	-23.469	0.202	0.124
-714.733	-16.729	-0.059	0.038
-713.718	-149.640	-0.295	0.024
-712.704	-200.000	0.052	0.339
-711.689	203.810	-0.047	0.075
-710.675	-15.510	0.209	-0.136
-709.660	554.841	-0.031	0.077
-708.645	800.000	-0.102	-0.297
-707.631	4.677	0.294	-0.221
-706.616	323.214	0.104	0.202
-705.602	122.887	-0.175	0.223
-704.587	-79.125	-0.148	-0.052
-703.572	792.443	-0.052	0.147
-702.558	21.398	0.189	0.157
-701.543	-81.839	0.312	0.104
-700.529	-200.000	0.039	-0.183
-699.514	-14.562	-0.062	0.041
-698.499	-10.023	0.110	-0.075
-697.485	189.667	0.048	-0.073
-696.470	287.973	-0.072	0.133
-695.456	-2.974	-0.182	-0.130
-694.441	-143.027	-0.389	-0.038
-693.426	60.987	-0.215	-0.218
-692.412	-5.916	-0.132	0.092
-691.397	-141.984	-0.185	0.019
-690.383	-200.000	0.001	-0.122
-689.368	-100.041	0.221	-0.056
-688.354	-110.048	-0.425	0.091
-687.339	50.187	0.281	0.271
-686.324	19.096	0.281	-0.230
-685.310	-20.972	-0.106	0.066
-684.295	-162.042	0.081	-0.004
-683.281	-158.310	0.012	-0.001
-682.266	-37.278	-0.210	-0.115
-681.251	32.529	-0.187	-0.165
-680.237	-200.000	-0.003	-0.154
-679.222	3.018	-0.065	-0.048
-678.208	83.069	0.044	-0.049
-677.193	800.000	0.048	0.180
-676.178	23.906	-0.085	0.071
-675.164	26.286	-0.195	-0.166
-674.149	122.626	0.100	-0.128
-673.135	-200.000	-0.039	0.205
-672.120	-41.414	0.172	0.090
-671.105	103.828	0.190	-0.227
-670.091	330.260	-0.198	-0.389
-669.076	-200.000	0.021	-0.171
-668.062	125.793	-0.208	0.268
-667.047	134.411	-0.223	-0.296
-666.032	-190.779	-0.204	0.002
-665.018	134.466	-0.215	-0.285
-664.003	-200.000	-0.009	-0.190
-662.989	-19.974	-0.181	-0.114
-661.974	24.313	-0.135	-0.114
-660.959	254.701	-0.065	0.114
-659.945	60.151	0.029	0.029
-658.930	-114.460	-0.273	0.053
-657.916	88.554	-0.246	0.278
-656.901	-74.214	0.108	0.040
-655.886	119.273	-0.236	-0.298
-654.872	-43.705	0.155	0.080
-653.857	-128.080	0.268	-0.039
-652.843	0.578	-0.218	-0.159
-651.828	-118.101	-0.150	-0.027
-650.814	8.970	-0.196	-0.151
-649.799	-140.051	-0.336	-0.036
-648.784	800.000	0.116	0.397
-647.770	-49.954	-0.263	0.127
-646.755	800.000	-0.010	-0.028
-645.741	-29.410	-0.151	0.088
-644.726	287.977	0.179	0.331
-643.711	-18.355	-0.026	0.016
-642.697	800.000	0.047	0.156
-641.682	800.000	0.026	0.095
-640.668	-119.443	-0.410	0.073
-639.653	-54.385	0.275	0.127
-638.638	-90.141	-0.039	0.011
-637.624	-110.303	-0.279	-0.059
-636.609	-59.565	-0.248	0.109
-635.595	123.352	-0.268	-0.342
-634.580	-80.247	0.064	0.022
-633.565	-200.000	-0.025	-0.247
-632.551	431.744	-0.125	-0.276
-631.536	800.000	-0.086	-0.333
-630.522	-159.861	0.210	0.012
-629.507	800.000	-0.048	-0.163
-628.492	-16.735	-0.032	-0.021
-627.478	-200.000	-0.039	-0.207
-626.463	-9.357	0.150	-0.102
-625.449	-136.152	-0.096	0.011
-624.434	221.816	0.267	0.438
-623.419	-200.000	-0.016	0.172
-622.405	-49.008	-0.109	-0.053
-621.390	800.000	-0.073	-0.225
-620.376	387.791	-0.140	-0.295
-619.361	-123.707	-0.075	-0.012
-618.346	168.811	0.073	-0.107
-617.332	-200.000	0.002	-0.016
-616.317	29.700	-0.177	-0.154
-615.303	211.485	-0.042	0.068
-614.288	205.204	0.179	0.284
-613.273	-114.434	0.170	0.033
-612.259	-1.583	-0.034	-0.025
-611.244	6.498	-0.176	0.133
-610.230	36.446	0.279	-0.251
-609.215	103.114	-0.102	-0.122
-608.201	557.703	-0.067	0.164
-607.186	800.000	0.122	-0.369
-606.171	-52.520	0.107	0.050
-605.157	-44.489	-0.160	-0.081
-604.142	209.369	0.006	0.009
-603.128	72.672	-0.133	0.141
-602.113	-89.208	0.435	-0.131
-601.098	800.000	-0.043	0.164
-600.084	-78.003	-0.157	0.055
-599.069	-200.000	0.035	0.275
-598.055	279.298	-0.123	0.223
-597.040	24.992	0.220	-0.186
-596.025	-52.242	-0.071	-0.033
-595.011	-200.000	0.109	0.522
-593.996	-200.000	0.018	-0.227
-592.982	-200.000	-0.005	0.165
-591.967	800.000	-0.054	0.229
-590.952	-200.000	-0.044	0.265
-589.938	437.833	0.058	-0.128
-588.923	-19.448	0.163	0.103
-587.909	-200.000	0.000	-0.072
-586.894	-59.530	0.215	0.094
-585.879	-88.364	0.349	-0.106
-584.865	800.000	0.128	-0.474
-583.850	496.754	0.111	-0.260
-582.836	-157.828	-0.096	-0.006
-581.821	-100.613	-0.346	0.087
-580.806	-200.000	0.016	0.132
-579.792	130.050	0.244	0.318
-578.777	-141.041	0.203	0.021
-577.763	-200.000	0.079	-0.481
-576.748	70.289	0.201	-0.211
-575.733	356.218	-0.118	0.240
-574.719	-126.643	0.178	-0.027
-573.704	82.664	0.122	0.135
-572.690	-200.000	0.005	-0.376
-571.675	14.764	0.188	-0.150
-570.661	130.090	0.095	0.124
-569.646	-200.000	0.048	-0.358
-568.631	-59.402	-0.221	-0.096
-567.617	75.535	-0.151	0.162
-566.602	-200.000	0.035	0.203
-565.588	-200.000	-0.031	-0.163
-564.573	180.889	-0.029	-0.043
-563.558	153.676	-0.069	0.097
-562.544	345.713	0.078	-0.157
-561.529	-27.516	0.437	-0.258
-560.515	-186.105	0.250	-0.004
-559.500	-87.261	0.031	-0.010
-558.485	-200.000	0.060	0.330
-557.471	-200.000	-0.014	-0.104
-556.456	-200.000	0.006	-0.212
-555.442	114.606	-0.121	0.150
-554.427	-200.000	0.031	0.158
-553.412	-200.000	0.002	-0.199
-552.398	-8.131	0.149	0.102
-551.383	41.752	-0.122	0.113
-550.369	-200.000	0.019	0.161
-549.354	81.286	0.080	-0.088
-548.339	360.142	0.092	-0.187
-547.325	-81.477	-0.283	-0.094
-546.310	-200.000	-0.029	-0.167
-545.296	-200.000	-0.012	-0.196
-544.281	12.287	-0.250	-0.196
-543.266	262.684	-0.085	0.149
-542.252	179.758	0.148	0.221
-541.237	672.414	-0.079	-0.208
-540.223	-111.140	-0.523	-0.109
-539.208	245.883	0.167	0.287
-538.193	800.000	-0.061	-0.238
-537.179	93.589	-0.116	-0.133
-536.164	-200.000	0.039	-0.352
-535.150	28.721	-0.187	-0.161
-534.135	242.051	0.106	0.180
-533.121	41.032	-0.072	0.066
-532.106	-80.430	-0.182	-0.062
-531.091	107.853	-0.119	0.144
-530.077	-16.861	-0.116	0.074
-529.062	50.446	0.006	0.005
-528.048	-117.906	-0.197	-0.036
-527.033	-200.000	-0.018	0.145
-526.018	35.307	-0.112	-0.100
-525.004	-66.520	-0.526	-0.212
-523.989	-188.485	-0.127	0.002
-522.975	45.744	-0.184	-0.173
-521.960	-200.000	-0.019	0.130
-520.945	153.119	0.146	0.202
-519.931	-127.843	-0.372	0.054
-518.916	10.415	-0.326	-0.252
-517.902	-14.932	-0.258	0.168
-516.887	800.000	0.020	-0.077
-515.872	54.506	0.251	0.245
-514.858	-70.491	0.050	0.019
-513.843	3.238	0.098	-0.072
-512.829	61.455	0.155	0.156
-511.814	-200.000	0.002	0.143
-510.799	-56.495	0.171	0.077
-509.785	800.000	-0.037	-0.126
-508.770	-42.475	-0.070	0.036
-507.756	41.348	-0.109	-0.100
-506.741	468.820	0.087	-0.198
-505.726	-200.000	-0.012	-0.228
-504.712	800.000	0.058	0.210
-503.697	320.251	-0.046	-0.088
-502.683	-154.505	-0.067	-0.005
-501.668	-56.582	0.122	0.055
-500.653	-56.398	0.202	0.091
-499.639	-194.486	0.223	-0.002
-498.624	1.399	0.374	0.273
-497.610	-8.722	-0.172	0.117
-496.595	-62.387	-0.302	0.127
-495.581	-123.094	-0.127	-0.021
-494.566	-129.823	-0.280	0.039
-493.551	-22.817	0.119	-0.073
-492.537	800.000	0.083	-0.263
-491.522	-200.000	0.019	0.113
-490.508	-154.852	0.131	0.009
-489.493	-200.000	0.048	0.265
-488.478	367.621	0.089	0.183
-487.464	215.257	0.259	-0.417
-486.449	-200.000	-0.032	-0.197
-485.435	-200.000	-0.044	0.223
-484.420	-144.096	-0.023	-0.002
-483.405	16.148	0.063	0.050
-482.391	-3.324	-0.248	-0.175
-481.376	19.100	0.047	-0.038
-480.362	698.056	0.083	0.221
-479.347	-43.383	0.228	0.117
-478.332	-200.000	0.074	0.388
-477.318	-200.000	-0.060	0.489
-476.303	220.532	-0.078	-0.127
-475.289	-89.563	0.206	0.061
-474.274	-110.312	-0.166	-0.035
-473.259	-84.078	0.186	-0.060
-472.245	-200.000	0.019	-0.329
-471.230	32.725	0.363	-0.318
-470.216	177.538	-0.094	0.138
-469.201	102.522	0.285	0.338
-468.186	425.772	-0.076	0.165
-467.172	-128.067	0.147	0.021
-466.157	-29.958	0.067	-0.039
-465.143	-111.368	0.609	0.126
-464.128	170.767	0.177	-0.257
-463.113	-97.343	0.250	0.066
-462.099	-144.322	-0.224	0.021
-461.084	279.817	0.165	-0.299
-460.070	178.341	-0.148	-0.219
-459.055	-200.000	-0.051	0.280
-458.040	307.769	-0.152	0.287
-457.026	55.824	-0.130	0.128
-456.011	-144.801	-0.358	0.033
-454.997	32.112	-0.263	0.230
-453.982	428.222	-0.095	0.207
-452.968	-16.174	-0.081	-0.052
-451.953	-82.454	0.162	0.053
-450.938	-184.948	0.259	0.004
-449.924	-47.684	-0.064	0.031
-448.909	-21.423	0.419	-0.259
-447.895	145.571	-0.131	0.178
-446.880	307.143	-0.058	0.110
-445.865	742.693	-0.050	-0.137
-444.851	-116.190	-0.167	-0.031
-443.836	25.648	0.150	-0.126
-442.822	-24.450	-0.090	-0.054
-441.807	415.753	-0.105	-0.226
-440.792	111.365	0.207	-0.252
-439.778	59.344	-0.092	0.091
-438.763	-119.990	0.429	0.074
-437.749	760.704	0.057	0.157
-436.734	124.965	0.116	-0.148
-435.719	713.129	0.095	-0.254
-434.705	6.779	-0.219	-0.165
-433.690	546.786	0.166	0.402
-432.676	565.220	0.023	0.056
-431.661	-26.693	-0.272	-0.161
-430.646	59.587	-0.166	-0.166
-429.632	-200.000	-0.041	0.392
-428.617	3.001	-0.267	0.196
-427.603	-113.655	-0.189	-0.037
-426.588	-200.000	-0.034	0.239
-425.573	-200.000	0.010	-0.110
-424.559	127.142	0.138	0.178
-423.544	-12.600	-0.211	0.140
-422.530	130.106	0.156	0.201
-421.515	443.105	-0.159	0.353
-420.500	-200.000	0.012	-0.265
-419.486	-200.000	-0.039	-0.212
-418.471	-0.633	-0.130	-0.093
-417.457	252.001	0.124	0.214
-416.442	-200.000	0.027	-0.156
-415.428	-28.815	0.129	0.075
-414.413	-102.544	0.073	-0.018
-413.398	-80.485	0.171	0.058
-412.384	91.030	0.125	-0.142
-411.369	800.000	-0.058	-0.245
-410.355	-104.069	-0.170	-0.040
-409.340	113.419	-0.227	-0.278
-408.325	-126.654	-0.519	0.078
-407.311	800.000	-0.137	-0.411
-406.296	-0.725	0.161	0.115
-405.282	-92.807	-0.227	-0.064
-404.267	800.000	-0.101	0.361
-403.252	-89.148	0.233	-0.070
-402.238	186.691	-0.086	-0.130
-401.223	340.573	-0.135	0.265
-400.209	-118.957	0.256	-0.045
-399.194	-200.000	0.015	0.199
-398.179	134.429	0.078	-0.103
-397.165	117.553	0.083	-0.103
-396.150	-138.498	-0.060	0.007
-395.136	14.703	0.272	0.215
-394.121	-34.520	0.061	0.034
-393.106	-65.925	0.148	-0.060
-392.092	2.541	-0.180	0.131
-391.077	-141.950	-0.083	0.008
-390.063	339.565	0.100	-0.196
-389.048	-200.000	-0.020	0.165
-388.033	-200.000	-0.034	-0.152
-387.019	335.755	-0.114	-0.222
-386.004	-55.084	0.125	0.057
-384.990	800.000	-0.042	-0.146
-383.975	661.477	0.171	-0.445
-382.960	-55.611	0.130	-0.059
-381.946	-124.820	0.083	0.013
-380.931	68.190	-0.031	0.032
-379.917	650.648	0.082	0.213
-378.902	-160.524	-0.225	-0.012
-377.888	258.051	-0.104	0.180
-376.873	-41.738	-0.153	0.079
-375.858	800.000	-0.046	0.138
-374.844	-135.911	-0.243	-0.029
-373.829	-200.000	0.010	-0.346
-372.815	-71.802	-0.156	-0.059
-371.800	676.328	0.048	0.125
-370.785	-96.869	-0.356	-0.094
-369.771	-22.140	-0.036	-0.022
-368.756	-123.661	0.214	-0.034
-367.742	-86.546	-0.300	-0.093
-366.727	-94.394	-0.277	-0.076
-365.712	-130.400	-0.293	-0.040
-364.698	-68.820	-0.046	-0.018
-363.683	144.524	-0.232	0.312
-362.669	105.478	0.040	-0.048
-361.654	800.000	0.010	-0.043
-360.639	-198.772	-0.073	-0.000
-359.625	261.058	0.087	-0.152
-358.610	-169.166	-0.285	-0.011
-357.596	-154.486	-0.242	-0.016
-356.581	162.020	0.063	-0.089
-355.566	-153.033	0.050	-0.004
-354.552	-200.000	0.014	-0.116
-353.537	18.200	-0.339	-0.272
-352.523	-200.000	0.074	0.402
-351.508	-64.438	0.431	0.177
-350.493	405.680	0.093	0.198
-349.479	-126.988	-0.446	0.066
-348.464	-69.444	0.090	-0.035
-347.450	796.004	0.042	0.115
-346.435	-12.040	0.172	0.114
-345.420	800.000	-0.094	0.397
-344.406	265.277	0.093	-0.163
-343.391	-200.000	0.030	-0.226
-342.377	-60.981	0.342	-0.146
-341.362	-96.016	-0.435	-0.117
-340.348	62.983	0.114	-0.115
-339.333	800.000	0.024	-0.084
-338.318	-200.000	0.043	-0.228
-337.304	134.951	-0.133	-0.174
-336.289	33.247	-0.065	0.057
-335.275	800.000	0.043	-0.148
-334.260	-115.133	-0.131	-0.025
-333.245	-200.000	0.064	-0.000
-332.231	-120.255	-0.141	-0.024
-331.216	-33.997	0.229	0.127
-330.202	-92.704	0.360	-0.102
-329.187	109.881	0.297	0.358
-328.172	360.886	-0.170	0.342
-327.158	-117.092	0.137	0.025
-326.143	-154.572	-0.195	0.013
-325.129	517.470	-0.089	0.209
-324.114	428.556	-0.043	-0.094
-323.099	-200.000	-0.015	-0.208
-322.085	-178.832	0.222	0.005
-321.070	414.865	0.073	-0.158
-320.056	-89.986	0.362	0.106
-319.041	-200.000	0.065	0.365
-318.026	800.000	-0.045	0.148
-317.012	800.000	0.022	0.079
-315.997	12.178	-0.240	-0.186
-314.983	282.035	-0.072	0.130
-313.968	-58.695	0.206	0.090
-312.953	-176.581	0.087	-0.002
-311.939	-42.608	-0.113	0.058
-310.924	-200.000	0.064	0.290
-309.910	-55.597	0.231	-0.104
-308.895	-45.061	-0.159	0.080
-307.880	426.158	-0.094	-0.204
-306.866	-81.883	-0.194	0.064
-305.851	54.132	-0.112	0.109
-304.837	424.037	0.160	-0.346
-303.822	-69.794	0.254	0.098
-302.807	-70.407	0.311	0.119
-301.793	170.831	-0.096	-0.139
-300.778	45.593	-0.214	-0.199
-299.764	79.563	-0.104	0.112
-298.749	-154.771	-0.133	0.009
-297.735	278.732	0.061	-0.110
-296.720	-200.000	-0.023	-0.118
-295.705	800.000	-0.108	0.345
-294.691	276.044	-0.147	-0.263
-293.676	-8.785	0.153	-0.103
-292.662	-122.983	-0.117	0.019
-291.647	97.621	-0.181	0.209
-290.632	67.534	-0.034	-0.035
-289.618	-200.000	0.031	-0.211
-288.603	506.910	0.021	-0.049
-287.589	38.157	0.179	0.160
-286.574	-200.000	-0.019	0.155
-285.559	-11.287	0.620	0.411
-284.545	-62.055	-0.135	-0.057
-283.530	-124.206	0.119	0.019
-282.516	-139.132	0.146	-0.016
-281.501	-200.000	-0.008	-0.430
-280.486	-168.560	0.237	-0.009
-279.472	117.619	-0.066	0.081
-278.457	125.053	0.102	-0.130
-277.443	-11.848	-0.099	-0.065
-276.428	-76.836	-0.123	0.043
-275.413	361.263	0.052	-0.104
-274.399	800.000	-0.078	-0.234
-273.384	-163.613	0.070	0.003
-272.370	-124.095	0.075	0.012
-271.355	-139.576	0.424	0.045
-270.340	800.000	0.082	-0.302
-269.326	-40.021	0.168	0.088
-268.311	-37.447	-0.189	0.101
-267.297	342.130	0.143	-0.281
-266.282	342.881	0.083	-0.163
-265.267	345.073	-0.190	0.375
-264.253	-200.000	0.003	0.404
-263.238	-200.000	0.046	0.332
-262.224	201.560	0.049	0.075
-261.209	122.491	-0.225	0.282
-260.195	-60.192	-0.283	0.121
-259.180	140.813	0.217	-0.288
-258.165	-113.709	0.205	-0.040
-257.151	101.132	0.041	-0.048
-256.136	444.275	0.010	0.022
-255.122	-90.772	0.274	-0.079
-254.107	36.219	0.181	-0.160
-253.092	800.000	-0.022	-0.060
-252.078	-112.668	-0.236	-0.047
-251.063	-30.120	0.126	0.072
-250.049	517.990	-0.091	0.213
-249.034	493.382	-0.071	0.163
-248.019	170.526	-0.092	-0.132
-247.005	-81.224	0.130	-0.043
-245.990	800.000	0.079	-0.226
-244.976	-97.468	0.111	-0.029
-243.961	103.281	-0.261	-0.307
-242.946	592.900	0.036	0.089
-241.932	21.246	-0.096	0.078
-240.917	453.757	-0.027	-0.061
-239.903	-200.000	0.004	-0.106
-238.888	-121.848	-0.129	0.021
-237.873	271.151	-0.122	-0.216
-236.859	96.899	-0.113	-0.130
-235.844	596.566	-0.033	-0.083
-234.830	-119.097	0.258	-0.045
-233.815	800.000	0.139	0.482
-232.800	452.007	-0.054	0.120
-231.786	-154.742	0.198	0.013
-230.771	-200.000	0.035	-0.384
-229.757	-96.835	0.471	-0.124
-228.742	-200.000	-0.012	0.098
-227.727	-64.351	-0.192	-0.078
-226.713	-27.764	-0.151	-0.088
-225.698	-200.000	-0.015	-0.192
-224.684	-200.000	-0.086	-0.398
-223.669	49.177	-0.181	-0.171
-222.655	-33.345	0.097	0.054
-221.640	30.413	0.079	0.068
-220.625	24.091	-0.068	-0.056
-219.611	-200.000	0.002	0.230
-218.596	-112.023	0.128	-0.026
-217.582	145.812	0.054	0.072
-216.567	800.000	0.038	0.152
-215.552	-97.341	-0.343	0.090
-214.538	282.925	-0.111	-0.200
-213.523	204.206	0.194	0.302
-212.509	800.000	0.088	0.341
-211.494	-192.236	-0.013	0.000
-210.479	56.265	-0.259	0.252
-209.465	800.000	0.095	0.274
-208.450	-200.000	-0.029	0.400
-207.436	-58.181	0.128	-0.056
-206.421	190.855	-0.084	-0.126
-205.406	-101.384	0.130	0.032
-204.392	10.851	0.258	-0.198
-203.377	137.064	-0.101	0.133
-202.363	-47.944	-0.192	-0.093
-201.348	147.139	0.129	0.174
-200.333	-200.000	-0.058	-0.291
-199.319	-14.157	-0.075	-0.048
-198.304	-200.000	-0.013	0.119
-197.290	-163.630	0.339	-0.016
-196.275	-99.318	-0.191	-0.048
-195.260	-200.000	-0.020	0.359
-194.246	800.000	-0.094	-0.304
-193.231	125.085	0.314	0.396
-192.217	-19.152	-0.174	0.108
-191.202	-200.000	0.009	0.207
-190.187	71.540	0.195	0.203
-189.173	469.167	0.223	-0.501
-188.158	-119.173	0.208	-0.036
-187.144	-182.487	0.144	0.003
-186.129	-107.879	0.248	0.054
-185.114	-63.306	-0.383	0.158
-184.100	-200.000	0.054	0.296
-183.085	-200.000	0.003	0.113
-182.071	169.952	0.082	0.117
-181.056	-200.000	-0.014	0.111
-180.042	269.189	0.079	-0.139
-179.027	-72.546	-0.154	-0.057
-178.012	800.000	-0.039	-0.152
-176.998	-97.853	0.188	-0.049
-175.983	-95.893	-0.224	-0.060
-174.969	591.483	0.045	-0.111
-173.954	730.687	0.016	-0.042
-172.939	182.713	0.147	-0.217
-171.925	149.601	-0.227	-0.307
-170.910	-49.678	-0.233	-0.111
-169.896	-98.588	0.179	-0.046
-168.881	65.811	0.068	0.069
-167.866	800.000	0.021	-0.063
-166.852	291.138	-0.097	0.176
-165.837	33.161	-0.084	0.073
-164.823	1.531	-0.361	-0.260
-163.808	-156.583	0.292	0.018
-162.793	-200.000	0.014	0.093
-161.779	-200.000	0.021	0.162
-160.764	800.000	-0.049	0.195
-159.750	-182.538	0.354	-0.006
-158.735	459.449	-0.078	-0.175
-157.720	-200.000	0.039	0.244
-156.706	800.000	-0.015	0.054
-155.691	65.522	-0.017	-0.017
-154.677	126.936	-0.266	-0.337
-153.662	-200.000	0.012	-0.248
-152.647	246.898	0.093	-0.158
-151.633	-87.365	-0.295	-0.089
-150.618	-200.000	-0.002	0.048
-149.604	2.797	0.117	0.085
-148.589	-200.000	-0.035	-0.295
-147.574	-200.000	0.014	-0.139
-146.560	3.162	0.115	-0.084
-145.545	-200.000	-0.029	-0.355
-144.531	800.000	-0.088	-0.342
-143.516	-136.824	-0.435	0.050
-142.502	-129.243	0.049	-0.007
-141.487	-0.852	-0.257	-0.182
-140.472	34.168	-0.079	0.069
-139.458	-200.000	0.046	-0.217
-138.443	-52.064	0.291	-0.135
-137.429	34.015	-0.253	0.220
-136.414	-111.440	-0.068	0.014
-135.399	-200.000	0.002	0.051
-134.385	-33.617	0.261	0.144
-133.370	164.825	-0.090	-0.127
-132.356	800.000	0.088	0.367
-131.341	-200.000	0.009	-0.160
-130.326	388.323	-0.111	-0.229
-129.312	-45.248	0.319	-0.158
-128.297	-97.462	0.132	0.034
-127.283	24.352	0.067	-0.055
-126.268	-200.000	-0.056	0.373
-125.253	13.997	0.071	-0.056
-124.239	720.024	0.078	0.206
-123.224	-200.000	-0.003	0.104
-122.210	-42.118	0.280	-0.143
