DTS Sentinel unit serial number:	SN413079Multiplexer serial number:	ORYXHardware model number:	OX4-SRSoftware version number:	ORYX F/W v4.00 Oryx Data Collector v3.7.2.0data status	okinstallation	princeton_trtdifferential loss correction	single-endedforward channel	channel 4reverse channel	N/Adate	2019/09/14time	16:21:34forward acquisition time	60.00reverse acquisition time	0.00gamma	496.2192k internal	0.2294k external	0.2294temperature offset calibration	1.0132default loss term (dB/km)	0.3790temperature slope calibration	1.0000multiplexer offset coefficient	1.0000multiplexer slope coefficient	1.0000fibre end	0.00T internal ref (°C)	38.12T ext. ref 1 (°C)	5.09T ext. ref 2 (°C)	32.90length (m)	temperature (°C)	Stokes	anti-Stokes-747.200	28.870	0.205	0.177
-746.185	670.322	-0.042	-0.111
-745.171	668.154	-0.263	0.696
-744.156	-82.756	-0.141	-0.047
-743.142	-0.251	0.247	-0.180
-742.127	396.767	0.128	0.273
-741.112	-56.946	0.157	-0.071
-740.098	416.162	-0.201	0.439
-739.083	-45.646	0.082	0.041
-738.069	89.578	-0.228	0.260
-737.054	-99.922	0.116	-0.030
-736.039	36.349	-0.074	0.067
-735.025	-128.589	-0.180	0.026
-734.010	-200.000	-0.012	0.437
-732.996	-170.832	-0.202	-0.007
-731.981	57.323	-0.087	0.087
-730.966	-23.914	0.409	-0.250
-729.952	-38.311	-0.165	0.089
-728.937	209.047	0.215	-0.344
-727.923	-200.000	0.029	0.282
-726.908	184.077	0.095	0.144
-725.894	578.161	0.140	0.350
-724.879	183.455	0.158	0.239
-723.864	-200.000	-0.023	0.145
-722.850	63.528	-0.160	-0.164
-721.835	-155.384	-0.196	-0.013
-720.821	-200.000	0.009	-0.499
-719.806	27.415	0.042	0.036
-718.791	-139.693	0.125	-0.014
-717.777	44.689	0.085	0.080
-716.762	-134.018	0.250	0.032
-715.748	75.556	-0.184	-0.198
-714.733	-155.399	-0.146	0.010
-713.718	-97.975	-0.197	0.052
-712.704	-37.501	-0.320	-0.175
-711.689	-92.420	0.073	-0.021
-710.675	-78.197	-0.233	0.082
-709.660	800.000	-0.159	0.462
-708.645	260.017	0.229	0.404
-707.631	-111.258	0.548	-0.115
-706.616	800.000	0.034	0.142
-705.602	-14.186	-0.177	-0.116
-704.587	-10.752	-0.136	0.092
-703.572	800.000	0.052	0.195
-702.558	-84.334	-0.282	0.091
-701.543	367.658	0.068	-0.141
-700.529	10.519	-0.103	-0.080
-699.514	-200.000	0.022	-0.255
-698.499	-62.264	0.199	0.085
-697.485	-121.053	0.094	-0.016
-696.470	-200.000	-0.015	0.167
-695.456	-200.000	-0.040	0.267
-694.441	-141.676	-0.181	0.019
-693.426	-124.988	-0.086	0.014
-692.412	26.596	0.127	0.108
-691.397	-200.000	-0.001	0.216
-690.383	6.910	-0.268	0.204
-689.368	328.031	-0.050	-0.099
-688.354	800.000	-0.047	-0.132
-687.339	81.312	-0.106	-0.117
-686.324	-200.000	-0.011	0.323
-685.310	800.000	-0.052	-0.157
-684.295	-88.758	-0.077	0.023
-683.281	-127.366	0.085	0.013
-682.266	440.228	-0.054	-0.120
-681.251	800.000	0.032	0.094
-680.237	-147.029	0.178	0.016
-679.222	-49.735	-0.112	0.054
-678.208	83.654	-0.036	0.040
-677.193	-116.357	-0.290	-0.055
-676.178	149.095	0.026	-0.035
-675.164	96.318	-0.049	0.057
-674.149	226.863	-0.378	-0.625
-673.135	-200.000	0.044	0.325
-672.120	-30.243	0.213	0.124
-671.105	792.908	0.084	0.236
-670.091	-200.000	0.003	-0.062
-669.076	-127.300	0.075	-0.011
-668.062	-30.308	-0.205	0.119
-667.047	228.198	0.149	-0.247
-666.032	-103.534	-0.093	-0.022
-665.018	296.944	-0.104	0.195
-664.003	-86.323	-0.363	-0.114
-662.989	-200.000	-0.032	-0.290
-661.974	407.122	-0.119	0.255
-660.959	-200.000	0.022	0.164
-659.945	147.263	0.111	-0.152
-658.930	-177.771	0.172	0.004
-657.916	-200.000	0.015	-0.134
-656.901	102.717	-0.103	0.123
-655.886	800.000	-0.035	0.147
-654.872	-103.232	0.287	-0.069
-653.857	-169.794	-0.187	0.007
-652.843	-161.833	-0.368	-0.019
-651.828	-200.000	-0.012	0.169
-650.814	-143.264	-0.208	-0.020
-649.799	-116.656	0.184	-0.034
-648.784	800.000	-0.045	-0.130
-647.770	122.929	0.128	0.163
-646.755	98.265	-0.119	-0.140
-645.741	-120.806	0.078	-0.013
-644.726	-119.575	-0.229	-0.040
-643.711	21.170	-0.210	0.173
-642.697	-200.000	-0.027	0.338
-641.682	161.448	0.163	0.232
-640.668	-200.000	0.021	-0.152
-639.653	-200.000	0.009	0.270
-638.638	-200.000	-0.043	-0.225
-637.624	-86.814	-0.065	0.020
-636.609	-135.257	0.168	0.021
-635.595	-8.481	0.367	-0.251
-634.580	-200.000	-0.076	0.362
-633.565	800.000	0.044	0.169
-632.551	-200.000	0.104	-0.492
-631.536	538.051	-0.015	-0.037
-630.522	-35.831	0.204	-0.113
-629.507	357.471	-0.037	-0.074
-628.492	-200.000	-0.013	-0.424
-627.478	6.480	-0.247	-0.187
-626.463	-200.000	-0.042	-0.207
-625.449	-0.381	-0.305	0.220
-624.434	732.846	0.134	-0.365
-623.419	800.000	-0.052	0.180
-622.405	-200.000	-0.018	-0.462
-621.390	433.823	-0.071	-0.157
-620.376	-200.000	-0.038	0.303
-619.361	-200.000	-0.033	0.175
-618.346	-145.347	-0.152	-0.014
-617.332	256.375	0.164	-0.286
-616.317	-63.093	0.422	0.177
-615.303	800.000	-0.054	-0.164
-614.288	75.627	-0.309	0.332
-613.273	-200.000	-0.017	-0.157
-612.259	-13.811	-0.472	0.311
-611.244	-57.986	0.095	-0.042
-610.230	-200.000	0.003	-0.115
-609.215	-72.874	-0.279	0.104
-608.201	306.959	0.115	0.217
-607.186	442.629	0.139	-0.309
-606.171	451.479	-0.035	-0.078
-605.157	-23.062	0.228	-0.139
-604.142	183.147	0.254	-0.382
-603.128	83.121	-0.203	-0.225
-602.113	-57.212	0.346	0.155
-601.098	-74.789	0.285	0.104
-600.084	-120.473	0.290	-0.050
-599.069	69.211	0.090	-0.094
-598.055	31.808	-0.172	0.150
-597.040	8.184	0.213	-0.163
-596.025	-178.463	-0.160	-0.004
-595.011	15.296	-0.071	0.057
-593.996	-200.000	-0.019	0.288
-592.982	-77.898	0.267	0.094
-591.967	-47.262	-0.401	-0.199
-590.952	-200.000	0.050	-0.391
-589.938	-143.388	0.383	0.037
-588.923	109.617	0.092	0.113
-587.909	-200.000	0.016	-0.296
-586.894	245.733	0.118	0.202
-585.879	47.228	-0.167	0.158
-584.865	-109.821	0.067	0.014
-583.850	-118.486	0.047	-0.009
-582.836	87.550	-0.068	-0.077
-581.821	21.294	-0.129	0.107
-580.806	-42.424	0.067	-0.034
-579.792	-12.665	0.502	-0.333
-578.777	-79.667	-0.517	-0.177
-577.763	133.708	-0.068	0.090
-576.748	3.439	-0.177	0.131
-575.733	315.822	-0.183	-0.350
-574.719	800.000	-0.084	0.284
-573.704	281.042	0.118	0.214
-572.690	-200.000	-0.047	-0.212
-571.675	-200.000	-0.010	0.152
-570.661	-89.790	-0.281	0.084
-569.646	152.088	0.068	-0.094
-568.631	406.923	-0.052	-0.111
-567.617	431.864	0.087	-0.191
-566.602	-146.029	-0.014	0.001
-565.588	-22.537	0.231	0.142
-564.573	-200.000	0.010	-0.210
-563.558	357.922	0.092	0.187
-562.544	-59.154	0.083	-0.036
-561.529	800.000	0.114	0.320
-560.515	101.257	0.036	-0.042
-559.500	28.252	-0.063	0.054
-558.485	-200.000	-0.002	-0.045
-557.471	-6.547	-0.156	-0.108
-556.456	155.731	0.222	0.310
-555.442	-89.497	-0.092	0.027
-554.427	-200.000	0.003	-0.018
-553.412	800.000	-0.058	-0.216
-552.398	800.000	-0.097	-0.286
-551.383	-200.000	0.014	0.091
-550.369	-33.448	0.165	0.093
-549.354	-92.707	0.107	0.030
-548.339	643.058	0.041	-0.106
-547.325	-88.771	0.138	-0.042
-546.310	-39.862	0.174	0.092
-545.296	-6.867	-0.132	0.091
-544.281	358.789	0.060	0.122
-543.266	-10.430	-0.344	0.231
-542.252	46.500	0.098	0.092
-541.237	91.470	-0.093	0.106
-540.223	51.788	0.186	-0.179
-539.208	331.838	-0.080	-0.157
-538.193	-2.950	-0.469	0.333
-537.179	-19.930	0.269	0.168
-536.164	1.653	-0.055	0.041
-535.150	325.615	-0.105	-0.204
-534.135	-125.176	0.520	-0.081
-533.121	-200.000	-0.035	-0.356
-532.106	-200.000	-0.012	0.201
-531.091	-200.000	-0.024	0.461
-530.077	10.881	-0.131	-0.101
-529.062	-67.382	-0.161	-0.064
-528.048	-200.000	0.002	0.029
-527.033	-133.167	-0.091	-0.012
-526.018	-159.719	-0.342	0.019
-525.004	293.163	-0.225	-0.417
-523.989	238.180	-0.173	-0.290
-522.975	-179.288	-0.267	0.006
-521.960	286.080	-0.022	0.041
-520.945	-6.610	-0.164	-0.113
-519.931	179.317	0.225	-0.334
-518.916	-11.865	0.240	0.159
-517.902	-110.472	0.291	0.061
-516.887	36.226	0.059	-0.053
-515.872	47.937	-0.337	-0.319
-514.858	-8.170	-0.132	-0.090
-513.843	800.000	-0.054	0.177
-512.829	79.805	-0.087	0.094
-511.814	-84.784	0.258	0.082
-510.799	-80.253	-0.051	0.017
-509.785	-200.000	0.015	-0.214
-508.770	800.000	0.087	-0.306
-507.756	800.000	-0.048	0.192
-506.741	249.310	-0.114	-0.196
-505.726	-6.072	-0.234	0.162
-504.712	145.935	0.020	-0.027
-503.697	-200.000	0.040	-0.214
-502.683	84.485	0.034	0.038
-501.668	-179.585	0.243	0.005
-500.653	800.000	-0.089	-0.340
-499.639	-200.000	-0.035	-0.263
-498.624	57.976	0.106	-0.105
-497.610	359.574	0.203	-0.412
-496.595	-131.239	-0.301	-0.041
-495.581	41.425	0.095	-0.087
-494.566	800.000	0.053	-0.212
-493.551	-46.470	-0.220	0.110
-492.537	-88.721	0.128	0.039
-491.522	764.746	0.233	0.642
-490.508	-157.616	0.315	-0.019
-489.493	300.160	-0.237	0.442
-488.478	-3.150	0.286	-0.202
-487.464	116.207	-0.199	-0.247
-486.449	296.067	0.137	-0.253
-485.435	-200.000	-0.032	-0.455
-484.420	213.875	0.023	0.036
-483.405	-200.000	0.025	-0.226
-482.391	365.572	-0.060	0.122
-481.376	-200.000	0.024	0.244
-480.362	-10.028	-0.303	-0.204
-479.347	4.904	-0.320	0.238
-478.332	-200.000	0.028	-0.131
-477.318	-12.552	-0.296	0.195
-476.303	-12.088	0.195	-0.129
-475.289	123.115	0.249	0.315
-474.274	78.064	-0.251	-0.271
-473.259	-59.092	-0.217	-0.095
-472.245	-57.913	0.164	-0.073
-471.230	-200.000	0.008	-0.183
-470.216	313.521	-0.148	-0.282
-469.201	-200.000	0.022	0.248
-468.186	-200.000	-0.033	0.174
-467.172	37.786	-0.224	0.201
-466.157	104.104	0.079	0.094
-465.143	-132.349	0.144	0.019
-464.128	-88.468	0.235	0.071
-463.113	-56.404	-0.278	0.125
-462.099	-200.000	0.003	-0.081
-461.084	-200.000	0.014	-0.190
-460.070	-64.482	-0.278	0.114
-459.055	6.670	-0.247	-0.186
-458.040	-154.442	-0.106	0.007
-457.026	-74.551	-0.149	-0.054
-456.011	-200.000	-0.026	0.210
-454.997	-123.315	0.060	-0.010
-453.982	-85.734	0.376	-0.118
-452.968	-184.323	0.158	-0.003
-451.953	800.000	-0.043	0.165
-450.938	-200.000	-0.232	0.000
-449.924	141.139	0.064	-0.085
-448.909	-92.095	-0.168	-0.048
-447.895	247.360	-0.100	0.171
-446.880	-36.649	0.136	0.074
-445.865	-200.000	0.077	0.437
-444.851	-112.427	-0.305	0.062
-443.836	675.873	-0.106	0.279
-442.822	89.373	-0.201	0.227
-441.807	617.036	0.113	-0.287
-440.792	-104.740	0.318	0.074
-439.778	561.478	-0.127	-0.311
-438.763	684.768	-0.103	-0.273
-437.749	-96.471	0.128	-0.034
-436.734	-145.512	0.252	0.023
-435.719	26.972	0.400	0.339
-434.705	200.452	0.022	0.034
-433.690	-83.116	-0.347	-0.113
-432.676	-169.438	-0.167	-0.006
-431.661	-85.440	0.109	-0.034
-430.646	-35.067	-0.398	-0.219
-429.632	60.627	-0.119	0.119
-428.617	-200.000	-0.027	0.258
-427.603	-200.000	0.015	-0.139
-426.588	-132.800	-0.375	-0.048
-425.573	-169.742	-0.360	0.013
-424.559	-2.009	0.231	-0.164
-423.544	562.878	-0.141	-0.346
-422.530	-72.410	0.147	-0.055
-421.515	-200.000	0.001	0.245
-420.500	-200.000	-0.012	-0.238
-419.486	85.845	0.113	0.125
-418.471	800.000	0.048	-0.179
-417.457	-104.187	-0.226	-0.053
-416.442	505.924	-0.159	-0.372
-415.428	21.896	-0.293	0.241
-414.413	-28.600	0.125	0.073
-413.398	86.416	0.015	0.016
-412.384	45.456	0.130	0.121
-411.369	-176.773	0.130	-0.003
-410.355	800.000	0.116	0.506
-409.340	-200.000	0.008	-0.044
-408.325	112.100	-0.049	0.060
-407.311	-79.081	-0.127	-0.044
-406.296	-19.834	-0.129	-0.080
-405.282	-24.838	0.275	-0.165
-404.267	-160.122	0.234	-0.013
-403.252	-76.684	0.051	0.018
-402.238	95.555	-0.105	-0.120
-401.223	-200.000	0.032	-0.246
-400.209	262.793	0.104	0.182
-399.194	-119.350	-0.168	-0.029
-398.179	-97.520	-0.122	-0.032
-397.165	-200.000	0.005	-0.074
-396.150	-14.210	0.243	0.158
-395.136	-123.755	0.315	-0.050
-394.121	174.183	-0.087	-0.127
-393.106	375.832	-0.103	0.212
-392.092	-200.000	-0.005	-0.061
-391.077	152.414	0.109	0.151
-390.063	155.165	-0.083	0.116
-389.048	-200.000	0.030	0.351
-388.033	45.183	-0.201	-0.187
-387.019	-64.234	0.275	0.113
-386.004	-125.303	0.368	0.057
-384.990	-43.098	0.065	0.033
-383.975	150.026	0.042	-0.057
-382.960	48.240	0.049	-0.047
-381.946	-200.000	0.006	-0.074
-380.931	52.818	0.223	-0.215
-379.917	800.000	-0.052	-0.166
-378.902	396.814	0.159	0.334
-377.888	121.862	-0.140	0.177
-376.873	145.812	0.099	0.133
-375.858	-137.298	-0.244	0.028
-374.844	-200.000	-0.016	0.221
-373.829	46.125	0.254	0.237
-372.815	-200.000	-0.025	-0.258
-371.800	-100.876	-0.155	-0.039
-370.785	-110.863	0.251	-0.052
-369.771	585.497	0.234	-0.579
-368.756	-135.799	-0.268	-0.032
-367.742	14.053	0.117	-0.091
-366.727	-200.000	-0.021	0.261
-365.712	-200.000	0.080	0.613
-364.698	28.239	0.136	0.116
-363.683	94.570	-0.035	-0.041
-362.669	800.000	-0.039	0.143
-361.654	-147.478	0.301	-0.026
-360.639	201.678	-0.238	-0.369
-359.625	-132.659	0.127	0.016
-358.610	14.123	-0.175	0.137
-357.596	-30.156	0.169	0.097
-356.581	61.999	-0.202	-0.203
-355.566	-200.000	-0.019	-0.111
-354.552	19.248	-0.122	0.099
-353.537	-79.343	0.199	-0.068
-352.523	-55.895	0.348	-0.156
-351.508	190.215	-0.050	-0.076
-350.493	621.201	-0.099	-0.252
-349.479	500.719	0.081	0.188
-348.464	23.002	-0.309	0.255
-347.450	-200.000	-0.009	-0.278
-346.435	-130.602	0.077	0.010
-345.420	223.254	0.089	0.144
-344.406	116.777	-0.211	-0.261
-343.391	-200.000	0.011	0.082
-342.377	35.003	0.072	-0.064
-341.362	8.981	0.172	-0.131
-340.348	800.000	0.032	0.114
-339.333	100.717	-0.088	0.103
-338.318	-117.047	0.096	0.018
-337.304	-200.000	0.017	-0.219
-336.289	-59.535	0.062	-0.027
-335.275	800.000	-0.072	0.262
-334.260	-134.024	0.053	0.007
-333.245	46.254	0.143	0.133
-332.231	800.000	0.120	-0.458
-331.216	457.445	0.042	0.093
-330.202	51.406	-0.206	-0.197
-329.187	-200.000	0.003	0.217
-328.172	465.482	0.054	-0.122
-327.158	60.731	-0.044	0.044
-326.143	39.260	-0.073	0.066
-325.129	26.994	0.204	0.172
-324.114	112.768	0.161	-0.197
-323.099	800.000	0.064	0.208
-322.085	-97.191	0.031	0.008
-321.070	406.923	0.067	-0.143
-320.056	-13.495	-0.381	0.248
-319.041	-127.720	-0.195	0.028
-318.026	224.729	-0.067	-0.109
-317.012	-74.643	-0.337	0.122
-315.997	-69.966	-0.221	0.085
-314.983	-200.000	-0.002	0.088
-313.968	-172.423	0.021	0.001
-312.953	-27.962	-0.090	-0.052
-311.939	457.083	0.053	-0.119
-310.924	169.573	-0.246	-0.353
-309.910	-200.000	-0.039	0.257
-308.895	-68.590	0.134	-0.052
-307.880	51.409	0.207	0.198
-306.866	-200.000	0.009	-0.088
-305.851	800.000	-0.072	0.231
-304.837	-200.000	-0.038	-0.193
-303.822	176.653	0.268	0.392
-302.807	389.962	0.137	-0.285
-301.793	800.000	-0.040	0.169
-300.778	44.448	0.067	0.062
-299.764	-143.238	-0.240	-0.023
-298.749	-78.312	-0.279	0.096
-297.735	16.444	0.155	0.123
-296.720	800.000	-0.091	0.385
-295.705	800.000	-0.110	0.350
-294.691	-200.000	0.049	0.339
-293.676	-117.340	-0.092	-0.017
-292.662	14.580	0.125	0.098
-291.647	273.305	-0.137	-0.243
-290.632	-43.018	0.379	-0.193
-289.618	-200.000	-0.114	-0.586
-288.603	-132.388	0.152	0.020
-287.589	171.258	0.297	-0.428
-286.574	204.677	0.113	-0.175
-285.559	-33.293	-0.321	0.179
-284.545	-3.785	0.190	0.133
-283.530	-200.000	-0.012	0.166
-282.516	-107.592	0.500	-0.110
-281.501	23.311	-0.113	0.093
-280.486	-200.000	0.007	-0.384
-279.472	800.000	-0.165	0.468
-278.457	3.624	-0.090	0.066
-277.443	91.323	-0.083	-0.094
-276.428	514.958	0.055	-0.128
-275.413	73.055	-0.143	-0.150
-274.399	-76.907	-0.429	-0.150
-273.384	-135.143	0.041	-0.005
-272.370	116.000	0.084	-0.103
-271.355	-200.000	0.008	0.145
-270.340	-114.092	-0.087	0.017
-269.326	207.775	-0.093	-0.146
-268.311	800.000	0.042	-0.130
-267.297	-68.661	0.327	0.127
-266.282	-4.688	-0.185	0.128
-265.267	30.946	0.148	0.128
-264.253	-69.944	0.151	0.058
-263.238	598.384	-0.076	0.190
-262.224	282.077	0.295	0.530
-261.209	84.365	0.268	0.294
-260.195	638.507	-0.071	-0.181
-259.180	84.027	0.077	-0.085
-258.165	-104.324	0.216	0.050
-257.151	-177.287	0.158	-0.004
-256.136	-200.000	0.037	-0.175
-255.122	290.885	-0.112	-0.204
-254.107	-200.000	0.006	-0.048
-253.092	-11.403	0.258	0.170
-252.078	-37.581	0.173	0.093
-251.063	72.544	0.058	0.061
-250.049	-157.126	-0.344	-0.021
-249.034	44.910	-0.055	0.050
-248.019	-64.263	-0.315	-0.129
-247.005	-59.026	0.381	0.165
-245.990	429.395	-0.062	0.134
-244.976	800.000	-0.086	0.274
-243.961	-146.853	-0.156	-0.013
-242.946	204.142	-0.129	-0.201
-241.932	-103.762	-0.195	0.046
-240.917	800.000	-0.063	-0.204
-239.903	-127.487	0.089	0.013
-238.888	-200.000	0.007	0.182
-237.873	-45.045	-0.323	0.161
-236.859	334.105	-0.035	0.067
-235.844	9.361	0.152	0.115
-234.830	-200.000	0.015	-0.397
-233.815	-152.687	-0.312	0.022
-232.800	-200.000	-0.056	0.319
-231.786	-200.000	0.010	-0.107
-230.771	-200.000	-0.040	0.497
-229.757	17.996	-0.064	-0.051
-228.742	47.104	-0.093	-0.087
-227.727	72.818	0.127	-0.132
-226.713	-73.875	-0.178	0.065
-225.698	-200.000	0.012	0.245
-224.684	174.695	0.202	0.293
-223.669	-200.000	-0.031	0.299
-222.655	-111.351	-0.243	-0.050
-221.640	800.000	-0.101	0.367
-220.625	800.000	-0.140	-0.431
-219.611	143.601	0.095	0.127
-218.596	-9.628	-0.121	-0.081
-217.582	800.000	0.016	-0.056
-216.567	555.317	0.095	-0.228
-215.552	-194.225	0.350	0.003
-214.538	675.599	-0.036	-0.094
-213.523	14.367	-0.202	-0.158
-212.509	800.000	-0.094	-0.324
-211.494	-102.766	-0.116	0.028
-210.479	329.044	0.062	0.119
-209.465	-155.370	-0.087	0.006
-208.450	307.722	0.114	0.214
-207.436	800.000	-0.054	0.187
-206.421	-94.278	-0.369	0.101
-205.406	-174.169	-0.202	-0.006
-204.392	-36.215	-0.111	0.060
-203.377	63.418	0.042	0.042
-202.363	-194.364	-0.267	0.002
-201.348	67.127	0.106	-0.108
-200.333	545.493	0.090	0.215
-199.319	7.838	-0.130	0.097
-198.304	-171.692	0.173	0.006
-197.290	295.566	-0.150	-0.276
-196.275	-200.000	-0.001	-0.158
-195.260	490.889	-0.094	-0.214
-194.246	-56.841	0.326	0.144
-193.231	-22.168	0.094	0.057
-192.217	-168.928	-0.093	0.003
-191.202	668.444	-0.060	0.156
-190.187	-200.000	-0.017	0.266
-189.173	204.868	0.157	-0.244
-188.158	-200.000	-0.017	0.301
-187.144	96.962	-0.102	0.117
-186.129	-200.000	-0.020	0.196
-185.114	-200.000	0.003	-0.039
-184.100	800.000	-0.035	0.099
-183.085	-106.049	-0.190	0.043
-182.071	-90.005	0.133	-0.039
-181.056	23.784	0.128	-0.105
-180.042	548.405	0.058	-0.138
-179.027	26.582	0.251	-0.210
-178.012	131.112	0.054	0.070
-176.998	-56.217	0.439	0.195
-175.983	4.814	0.111	0.081
-174.969	-93.702	0.267	0.074
-173.954	-119.872	0.186	0.032
-172.939	-200.000	-0.007	0.100
-171.925	61.745	0.173	0.172
-170.910	-35.628	-0.200	-0.108
-169.896	800.000	-0.065	0.243
-168.881	121.613	0.279	-0.347
-167.866	800.000	-0.008	0.025
-166.852	61.710	-0.092	0.091
-165.837	-200.000	0.067	0.344
-164.823	800.000	0.094	0.285
-163.808	17.344	-0.136	-0.108
-162.793	-200.000	0.012	-0.230
-161.779	800.000	0.057	-0.160
-160.764	-83.591	-0.349	-0.112
-159.750	-30.737	0.206	-0.117
-158.735	-155.872	0.350	0.022
-157.720	-45.879	0.253	-0.125
-156.706	-117.833	-0.291	0.052
-155.691	288.517	0.287	-0.519
-154.677	800.000	0.063	0.190
-153.662	53.276	-0.088	0.084
-152.647	-115.166	-0.168	-0.032
-151.633	178.575	-0.070	0.103
-150.618	41.443	0.362	0.327
-149.604	800.000	-0.030	-0.115
-148.589	-119.997	0.301	0.052
-147.574	-129.506	0.220	0.030
-146.560	-55.476	-0.129	-0.058
-145.545	-131.650	0.240	-0.031
-144.531	-82.858	0.226	-0.073
-143.516	-22.035	0.086	0.052
-142.502	800.000	-0.053	0.195
-141.487	-200.000	0.015	0.246
-140.472	-200.000	-0.005	0.374
-139.458	-26.941	0.059	-0.035
-138.443	-200.000	0.004	0.277
-137.429	82.218	0.170	-0.184
-136.414	800.000	0.090	-0.274
-135.399	-200.000	-0.345	-0.000
-134.385	-20.418	0.138	-0.085
-133.370	104.365	-0.062	0.073
-132.356	-44.436	0.173	0.087
-131.341	-200.000	-0.036	0.415
-130.326	-200.000	0.027	0.268
-129.312	228.728	0.229	0.372
-128.297	-20.657	-0.181	0.111
-127.283	800.000	-0.044	-0.182
-126.268	-60.806	0.066	0.028
-125.253	38.344	-0.106	0.094
-124.239	-94.208	-0.046	0.013
-123.224	-200.000	-0.051	0.278
-122.210	-102.509	-0.079	0.019
-121.195	-200.000	-0.293	0.000
