DTS Sentinel unit serial number:	SN413079Multiplexer serial number:	ORYXHardware model number:	OX4-SRSoftware version number:	ORYX F/W v4.00 Oryx Data Collector v3.7.2.0data status	okinstallation	princeton_trtdifferential loss correction	single-endedforward channel	channel 4reverse channel	N/Adate	2019/09/13time	06:13:34forward acquisition time	60.00reverse acquisition time	0.00gamma	496.2192k internal	0.2323k external	0.2323temperature offset calibration	1.0198default loss term (dB/km)	0.3790temperature slope calibration	1.0000multiplexer offset coefficient	1.0000multiplexer slope coefficient	1.0000fibre end	0.00T internal ref (°C)	26.12T ext. ref 1 (°C)	4.09T ext. ref 2 (°C)	20.90length (m)	temperature (°C)	Stokes	anti-Stokes-747.200	-200.000	-0.001	0.026
-746.185	800.000	0.034	0.099
-745.171	-200.000	0.067	0.330
-744.156	800.000	0.105	0.404
-743.142	800.000	0.044	0.170
-742.127	153.930	0.169	0.235
-741.112	-150.708	0.162	-0.012
-740.098	504.841	0.012	0.028
-739.083	30.753	0.227	0.196
-738.069	-121.831	-0.127	0.021
-737.054	-178.464	-0.185	0.004
-736.039	56.999	-0.116	-0.114
-735.025	-200.000	0.100	0.503
-734.010	800.000	0.068	-0.216
-732.996	-162.204	-0.133	0.007
-731.981	354.904	-0.007	-0.015
-730.966	-33.974	-0.344	-0.191
-729.952	-102.914	0.388	-0.093
-728.937	255.495	0.077	0.133
-727.923	-117.827	-0.246	-0.045
-726.908	-18.186	-0.258	0.163
-725.894	800.000	0.124	0.349
-724.879	296.063	0.106	-0.195
-723.864	-200.000	0.025	-0.119
-722.850	-200.000	-0.004	-0.165
-721.835	-20.501	-0.286	-0.178
-720.821	-10.207	0.367	-0.246
-719.806	481.014	0.119	-0.273
-718.791	-89.795	-0.139	0.041
-717.777	31.973	-0.268	-0.233
-716.762	142.502	-0.320	0.429
-715.748	-200.000	-0.004	0.080
-714.733	-44.003	-0.178	-0.090
-713.718	-168.808	0.273	0.010
-712.704	111.517	0.154	-0.188
-711.689	-134.731	-0.240	0.029
-710.675	-87.711	0.436	-0.133
-709.660	397.024	0.152	0.321
-708.645	255.803	-0.082	-0.141
-707.631	-80.554	-0.319	-0.107
-706.616	800.000	-0.052	-0.192
-705.602	-67.892	0.272	-0.107
-704.587	-200.000	0.073	0.343
-703.572	492.332	0.155	-0.359
-702.558	107.304	-0.229	-0.274
-701.543	302.335	-0.178	-0.332
-700.529	-78.592	-0.236	-0.081
-699.514	-24.868	0.168	0.101
-698.499	-170.395	0.373	-0.013
-697.485	62.994	-0.110	0.111
-696.470	-200.000	-0.024	-0.112
-695.456	-162.428	-0.386	0.019
-694.441	197.386	-0.175	0.269
-693.426	231.679	0.166	-0.275
-692.412	-200.000	-0.016	0.126
-691.397	36.803	-0.145	0.129
-690.383	117.992	-0.119	-0.148
-689.368	-37.802	-0.323	-0.173
-688.354	161.135	-0.145	-0.204
-687.339	395.392	-0.120	-0.252
-686.324	76.144	-0.070	0.074
-685.310	-122.103	0.104	0.017
-684.295	105.744	-0.115	-0.137
-683.281	82.373	-0.327	-0.357
-682.266	280.926	0.069	-0.125
-681.251	-50.140	0.268	-0.128
-680.237	-200.000	0.008	-0.170
-679.222	227.765	-0.114	0.187
-678.208	800.000	0.088	-0.319
-677.193	417.913	-0.066	-0.143
-676.178	73.598	0.094	-0.099
-675.164	-99.935	0.164	0.041
-674.149	-200.000	-0.011	0.168
-673.135	706.673	0.051	0.137
-672.120	35.871	0.189	0.168
-671.105	73.125	0.127	-0.133
-670.091	-200.000	0.056	-0.286
-669.076	550.856	0.057	-0.139
-668.062	-38.870	0.277	-0.147
-667.047	44.061	0.104	-0.096
-666.032	-10.752	0.083	0.055
-665.018	-200.000	-0.000	0.061
-664.003	-172.912	0.402	-0.013
-662.989	-200.000	0.069	-0.407
-661.974	240.870	0.050	0.083
-660.959	-60.504	-0.242	0.103
-659.945	-126.872	0.103	-0.015
-658.930	65.658	-0.264	0.270
-657.916	512.975	-0.098	0.229
-656.901	141.627	-0.108	-0.145
-655.886	203.078	-0.056	-0.087
-654.872	-20.862	-0.266	-0.164
-653.857	-200.000	0.008	0.121
-652.843	-83.646	-0.408	-0.131
-651.828	-125.385	-0.397	0.061
-650.814	319.313	-0.185	-0.353
-649.799	-158.905	0.275	0.016
-648.784	-155.136	0.407	-0.027
-647.770	192.869	0.105	-0.160
-646.755	449.407	-0.114	-0.254
-645.741	49.649	-0.190	-0.180
-644.726	800.000	0.023	-0.069
-643.711	-80.403	0.262	-0.088
-642.697	-119.620	-0.265	0.046
-641.682	800.000	-0.090	-0.295
-640.668	-155.168	-0.598	-0.039
-639.653	-60.095	-0.029	-0.012
-638.638	84.134	-0.234	0.257
-637.624	-174.028	0.145	-0.004
-636.609	19.312	0.026	0.021
-635.595	-86.611	-0.160	0.049
-634.580	228.390	0.079	0.129
-633.565	785.776	0.092	0.255
-632.551	64.821	-0.229	0.232
-631.536	129.478	0.195	0.251
-630.522	-86.982	0.264	-0.081
-629.507	-18.384	-0.156	-0.098
-628.492	-53.046	-0.507	-0.234
-627.478	-75.022	-0.263	-0.095
-626.463	-42.182	-0.200	-0.103
-625.449	-44.244	-0.326	-0.164
-624.434	15.980	-0.196	0.156
-623.419	-53.157	-0.455	0.210
-622.405	84.504	-0.089	0.098
-621.390	-29.787	0.290	-0.166
-620.376	327.864	0.084	-0.163
-619.361	-200.000	0.032	-0.303
-618.346	-31.773	-0.122	-0.069
-617.332	-200.000	-0.009	-0.252
-616.317	420.542	0.079	0.170
-615.303	-112.461	-0.369	0.074
-614.288	-200.000	-0.004	-0.109
-613.273	800.000	-0.049	0.152
-612.259	-200.000	-0.017	-0.112
-611.244	-200.000	-0.003	-0.051
-610.230	-200.000	-0.016	-0.086
-609.215	482.819	0.101	-0.230
-608.201	-25.839	0.115	0.068
-607.186	800.000	0.016	0.052
-606.171	417.891	-0.101	0.216
-605.157	800.000	-0.013	0.045
-604.142	-129.171	-0.178	0.025
-603.128	-200.000	-0.007	0.221
-602.113	-21.759	-0.271	-0.166
-601.098	-52.641	0.120	0.055
-600.084	-84.750	0.112	0.035
-599.069	-20.467	-0.062	0.038
-598.055	-167.366	0.228	0.009
-597.040	-11.049	0.236	-0.156
-596.025	-200.000	0.112	0.494
-595.011	55.251	-0.218	0.211
-593.996	-71.126	-0.216	0.082
-592.982	-200.000	-0.009	0.158
-591.967	162.823	0.150	0.211
-590.952	-98.129	0.242	0.062
-589.938	616.011	0.128	-0.323
-588.923	-73.767	0.044	0.016
-587.909	198.022	-0.210	-0.322
-586.894	-200.000	0.027	-0.127
-585.879	367.516	0.117	-0.237
-584.865	-15.470	-0.203	0.130
-583.850	800.000	-0.090	-0.276
-582.836	-87.037	-0.233	-0.071
-581.821	36.691	-0.148	-0.131
-580.806	60.970	-0.026	0.026
-579.792	220.146	-0.080	-0.128
-578.777	800.000	0.119	-0.423
-577.763	-28.099	-0.193	0.112
-576.748	-160.051	-0.296	0.016
-575.733	-200.000	-0.006	-0.488
-574.719	800.000	-0.067	0.205
-573.704	369.558	0.132	0.268
-572.690	389.816	0.061	-0.127
-571.675	-130.636	-0.416	0.056
-570.661	-82.513	-0.059	0.019
-569.646	152.228	0.076	-0.104
-568.631	-24.564	-0.119	-0.071
-567.617	-116.843	-0.133	-0.024
-566.602	-132.682	-0.063	0.008
-565.588	-200.000	0.004	0.161
-564.573	800.000	-0.101	0.296
-563.558	-68.060	-0.187	-0.073
-562.544	168.516	-0.114	0.162
-561.529	255.909	0.145	-0.249
-560.515	758.249	0.017	0.047
-559.500	85.463	-0.190	-0.209
-558.485	31.711	0.205	-0.177
-557.471	-147.351	-0.450	0.038
-556.456	28.272	-0.219	-0.185
-555.442	-141.536	-0.158	0.016
-554.427	-109.010	0.359	0.077
-553.412	-6.843	-0.190	0.129
-552.398	-40.694	0.096	0.050
-551.383	289.416	0.132	0.240
-550.369	-122.130	0.135	0.022
-549.354	-128.344	-0.156	0.022
-548.339	-26.033	0.165	-0.097
-547.325	56.465	0.155	0.151
-546.310	6.850	0.253	0.189
-545.296	-130.000	-0.289	0.040
-544.281	-80.434	-0.260	0.087
-543.266	800.000	0.032	0.133
-542.252	-61.377	0.332	0.140
-541.237	-119.645	0.117	0.020
-540.223	-200.000	-0.068	0.341
-539.208	-200.000	-0.002	-0.257
-538.193	-200.000	0.025	-0.141
-537.179	65.263	0.119	0.120
-536.164	800.000	0.035	0.145
-535.150	-200.000	-0.044	-0.436
-534.135	115.504	-0.126	0.155
-533.121	-49.437	-0.244	0.117
-532.106	103.785	0.071	-0.084
-531.091	-141.992	0.189	0.019
-530.077	-128.892	0.394	-0.055
-529.062	17.910	0.271	-0.216
-528.048	232.407	-0.097	0.160
-527.033	161.758	-0.242	-0.339
-526.018	800.000	-0.118	0.330
-525.004	-11.458	-0.044	0.029
-523.989	632.950	-0.064	-0.162
-522.975	105.033	0.049	0.057
-521.960	-55.157	0.088	0.039
-520.945	-104.947	0.327	0.075
-519.931	135.988	-0.157	-0.205
-518.916	-89.791	-0.125	0.036
-517.902	-1.786	0.261	-0.184
-516.887	-200.000	0.006	-0.184
-515.872	196.290	0.069	-0.106
-514.858	-98.040	0.330	0.085
-513.843	-157.282	0.195	-0.012
-512.829	-200.000	0.008	-0.081
-511.814	-79.672	-0.288	0.097
-510.799	-200.000	0.032	0.259
-509.785	-122.692	-0.353	-0.057
-508.770	-200.000	-0.031	-0.244
-507.756	125.509	0.305	0.385
-506.741	699.788	0.034	-0.090
-505.726	138.802	0.198	0.260
-504.712	-20.881	0.053	0.032
-503.697	187.517	-0.054	-0.081
-502.683	234.148	0.215	-0.354
-501.668	-159.426	0.136	0.008
-500.653	-133.830	0.128	-0.016
-499.639	-138.432	0.271	0.030
-498.624	-200.000	0.014	0.065
-497.610	800.000	-0.087	-0.243
-496.595	289.845	0.104	-0.189
-495.581	534.713	0.042	-0.099
-494.566	-60.366	0.208	0.089
-493.551	-25.417	-0.087	0.052
-492.537	-33.424	-0.199	-0.110
-491.522	367.025	0.089	0.180
-490.508	37.478	0.255	0.226
-489.493	56.222	0.010	0.009
-488.478	800.000	-0.027	-0.111
-487.464	15.162	0.047	-0.037
-486.449	5.709	-0.014	0.011
-485.435	61.435	0.208	-0.207
-484.420	-117.147	0.213	0.039
-483.405	-114.644	0.592	0.113
-482.391	-29.909	-0.089	0.050
-481.376	800.000	0.107	0.431
-480.362	-157.958	0.233	-0.014
-479.347	103.137	-0.133	0.156
-478.332	-22.845	-0.136	-0.082
-477.318	-102.265	-0.045	0.011
-476.303	-88.119	0.273	-0.082
-475.289	140.200	-0.076	-0.101
-474.274	384.078	0.090	-0.186
-473.259	33.273	0.088	-0.077
-472.245	-0.045	0.193	-0.137
-471.230	362.322	-0.095	0.190
-470.216	-114.106	0.147	0.028
-469.201	-140.316	-0.297	0.031
-468.186	273.443	-0.139	-0.246
-467.172	300.429	-0.090	0.166
-466.157	165.343	0.145	-0.204
-465.143	57.874	-0.179	-0.175
-464.128	119.168	-0.150	0.186
-463.113	-76.718	-0.221	-0.077
-462.099	97.374	0.365	0.418
-461.084	-31.301	-0.139	-0.078
-460.070	-200.000	0.058	0.325
-459.055	286.679	-0.030	-0.055
-458.040	400.394	0.048	0.101
-457.026	-144.393	0.264	0.024
-456.011	11.905	0.190	0.146
-454.997	-200.000	-0.011	0.169
-453.982	201.260	-0.121	0.185
-452.968	57.910	-0.116	0.113
-451.953	-200.000	-0.007	-0.180
-450.938	-98.956	-0.331	-0.084
-449.924	11.690	0.085	0.065
-448.909	132.293	0.122	-0.157
-447.895	295.462	-0.095	0.173
-446.880	65.382	-0.108	0.110
-445.865	-200.000	0.032	0.181
-444.851	-57.780	0.261	-0.114
-443.836	122.480	0.180	0.225
-442.822	-109.057	-0.354	-0.075
-441.807	800.000	-0.061	-0.184
-440.792	800.000	0.074	0.225
-439.778	-73.250	-0.170	-0.062
-438.763	-20.493	0.224	0.138
-437.749	181.017	-0.040	-0.058
-436.734	-127.298	-0.143	0.021
-435.719	-78.490	-0.167	0.057
-434.705	-15.902	-0.175	-0.111
-433.690	152.536	0.081	0.111
-432.676	800.000	0.072	-0.225
-431.661	386.633	0.051	0.104
-430.646	800.000	0.121	-0.382
-429.632	-200.000	-0.035	0.372
-428.617	209.184	-0.169	-0.264
-427.603	87.609	0.102	-0.113
-426.588	-100.770	-0.138	0.034
-425.573	800.000	0.012	0.046
-424.559	-161.042	-0.259	0.014
-423.544	800.000	0.040	0.113
-422.530	-64.328	-0.175	0.071
-421.515	-92.767	-0.318	0.089
-420.500	-113.558	0.090	-0.017
-419.486	-189.910	0.354	-0.004
-418.471	800.000	-0.012	0.035
-417.457	-200.000	0.049	0.322
-416.442	-15.085	0.049	-0.031
-415.428	-200.000	-0.003	0.331
-414.413	-200.000	0.003	0.100
-413.398	-94.492	0.048	0.013
-412.384	-200.000	0.028	0.283
-411.369	-90.279	-0.166	-0.048
-410.355	123.708	-0.023	-0.029
-409.340	278.551	0.067	-0.119
-408.325	-96.625	-0.046	0.012
-407.311	88.722	-0.156	0.173
-406.296	-95.062	0.334	-0.090
-405.282	800.000	0.020	0.082
-404.267	-44.933	-0.090	-0.044
-403.252	50.123	-0.176	0.165
-402.238	-200.000	0.006	0.072
-401.223	-200.000	-0.117	-0.528
-400.209	-200.000	0.024	0.407
-399.194	304.110	0.101	0.186
-398.179	-47.748	0.028	-0.014
-397.165	-120.432	0.055	0.009
-396.150	-200.000	-0.048	-0.302
-395.136	532.242	0.011	0.025
-394.121	-200.000	-0.021	0.092
-393.106	-166.450	-0.049	-0.002
-392.092	-200.000	-0.007	-0.370
-391.077	28.758	0.168	-0.141
-390.063	-123.075	0.177	-0.028
-389.048	97.795	-0.052	-0.059
-388.033	389.877	-0.096	-0.199
-387.019	37.960	-0.089	0.079
-386.004	201.638	0.149	0.229
-384.990	-176.212	-0.126	0.003
-383.975	-19.391	0.314	-0.194
-382.960	-200.000	-0.017	-0.148
-381.946	-117.346	-0.230	0.042
-380.931	-83.148	0.244	0.078
-379.917	800.000	0.091	-0.279
-378.902	-56.334	-0.136	-0.060
-377.888	-63.988	0.130	0.053
-376.873	-87.456	0.118	0.036
-375.858	-200.000	0.045	0.322
-374.844	18.773	0.162	-0.129
-373.829	-104.868	-0.235	-0.054
-372.815	800.000	0.080	0.302
-371.800	128.558	0.223	0.283
-370.785	-17.374	0.217	0.136
-369.771	-98.017	-0.205	0.053
-368.756	-69.659	-0.044	0.017
-367.742	267.036	0.100	0.175
-366.727	-200.000	0.045	-0.229
-365.712	59.952	0.263	-0.259
-364.698	800.000	0.061	-0.197
-363.683	800.000	-0.084	-0.246
-362.669	-200.000	0.022	-0.190
-361.654	-42.197	0.370	-0.188
-360.639	-39.620	0.267	0.139
-359.625	-61.250	-0.291	0.122
-358.610	-170.510	-0.026	0.001
-357.596	7.471	-0.124	0.092
-356.581	279.988	0.066	-0.117
-355.566	-93.792	-0.191	0.052
-354.552	-40.608	-0.454	-0.234
-353.537	86.496	-0.205	-0.225
-352.523	746.638	-0.103	0.276
-351.508	-200.000	-0.016	0.110
-350.493	-200.000	0.002	0.169
-349.479	-200.000	0.013	-0.275
-348.464	192.649	0.069	-0.103
-347.450	19.715	-0.351	-0.281
-346.435	266.318	0.115	0.200
-345.420	-91.411	0.194	-0.055
-344.406	258.292	0.152	-0.260
-343.391	397.498	-0.150	0.311
-342.377	-17.708	0.085	-0.053
-341.362	394.632	0.148	-0.306
-340.348	-97.820	-0.235	0.060
-339.333	45.417	0.125	0.115
-338.318	-200.000	-0.048	0.320
-337.304	80.822	0.200	0.214
-336.289	436.129	0.078	0.168
-335.275	-200.000	0.037	0.223
-334.260	800.000	-0.096	-0.298
-333.245	-200.000	-0.012	-0.076
-332.231	-14.925	0.323	-0.206
-331.216	-8.160	0.100	0.067
-330.202	34.186	-0.243	0.211
-329.187	145.173	0.129	-0.172
-328.172	7.996	-0.318	-0.237
-327.158	-200.000	0.012	0.224
-326.143	612.282	0.100	0.249
-325.129	-200.000	0.016	0.270
-324.114	78.651	0.067	-0.071
-323.099	12.466	0.204	-0.156
-322.085	-50.806	0.102	-0.048
-321.070	-104.378	-0.181	0.042
-320.056	800.000	-0.033	0.111
-319.041	19.091	-0.282	-0.225
-318.026	-96.523	-0.266	-0.070
-317.012	7.221	-0.167	0.124
-315.997	54.020	-0.070	-0.067
-314.983	800.000	-0.058	-0.171
-313.968	-81.839	-0.278	-0.090
-312.953	-200.000	0.031	0.256
-311.939	-130.834	-0.186	-0.025
-310.924	-200.000	-0.005	0.302
-309.910	-105.013	0.297	0.068
-308.895	146.610	0.195	0.261
-307.880	136.475	0.134	0.173
-306.866	95.193	-0.126	0.142
-305.851	-74.737	-0.208	-0.074
-304.837	-200.000	-0.023	-0.199
-303.822	-92.077	-0.283	0.079
-302.807	-161.327	0.191	0.010
-301.793	-178.739	-0.208	-0.005
-300.778	-51.363	0.244	0.113
-299.764	179.474	0.156	0.227
-298.749	-136.435	-0.360	0.042
-297.735	744.824	-0.031	-0.083
-296.720	-200.000	0.002	0.065
-295.705	-148.882	-0.125	-0.010
-294.691	26.224	0.017	0.014
-293.676	648.515	0.124	-0.314
-292.662	-86.485	0.362	-0.110
-291.647	77.626	-0.172	-0.182
-290.632	-87.940	0.141	-0.042
-289.618	-69.708	0.205	0.078
-288.603	-44.422	-0.137	-0.068
-287.589	-107.534	-0.334	0.073
-286.574	-200.000	0.017	-0.078
-285.559	-116.472	-0.255	0.047
-284.545	-200.000	-0.027	0.130
-283.530	-168.034	-0.133	-0.005
-282.516	-200.000	-0.044	0.279
-281.501	-200.000	0.022	-0.109
-280.486	-161.612	-0.139	-0.007
-279.472	800.000	0.054	-0.155
-278.457	210.935	0.060	-0.093
-277.443	51.107	-0.103	-0.097
-276.428	716.973	-0.074	0.196
-275.413	-10.170	0.090	0.059
-274.399	51.744	0.103	-0.097
-273.384	-140.832	0.206	-0.021
-272.370	-188.222	-0.049	0.001
-271.355	-200.000	0.021	-0.176
-270.340	310.183	-0.115	-0.213
-269.326	612.519	0.089	0.221
-268.311	91.717	0.236	0.264
-267.297	-35.554	0.210	-0.113
-266.282	-6.517	0.093	0.063
-265.267	-87.013	-0.109	0.033
-264.253	161.515	-0.126	-0.174
-263.238	800.000	0.052	0.214
-262.224	800.000	0.063	-0.179
-261.209	800.000	0.050	0.155
-260.195	-200.000	-0.038	-0.188
-259.180	-97.596	0.212	-0.055
-258.165	218.830	-0.172	-0.272
-257.151	31.454	0.232	-0.198
-256.136	800.000	0.062	-0.216
-255.122	-161.430	0.220	-0.011
-254.107	-97.233	-0.265	-0.069
-253.092	800.000	0.085	0.293
-252.078	-61.526	0.106	-0.044
-251.063	68.444	-0.121	-0.123
-250.049	-149.242	0.121	-0.010
-249.034	-200.000	0.025	-0.287
-248.019	-60.272	-0.140	0.059
-247.005	297.048	-0.105	-0.192
-245.990	185.517	0.260	-0.382
-244.976	-41.393	-0.193	0.098
-243.961	-62.413	0.012	-0.005
-242.946	-200.000	-0.036	-0.160
-241.932	67.950	0.043	-0.043
-240.917	-200.000	-0.002	0.243
-239.903	-200.000	0.021	0.380
-238.888	52.074	-0.158	-0.149
-237.873	259.943	0.207	-0.355
-236.859	765.548	0.040	0.108
-235.844	157.926	-0.074	-0.101
-234.830	47.543	0.127	0.117
-233.815	273.696	-0.051	-0.088
-232.800	-112.527	0.119	0.023
-231.786	317.836	0.104	-0.195
-230.771	5.182	0.369	0.269
-229.757	56.498	0.154	0.148
-228.742	21.405	0.238	-0.191
-227.727	-200.000	-0.032	-0.159
-226.713	-116.819	0.314	0.057
-225.698	-146.408	-0.336	-0.029
-224.684	82.438	0.074	-0.080
-223.669	98.491	-0.062	0.071
-222.655	800.000	-0.099	0.413
-221.640	-71.734	0.198	0.073
-220.625	160.495	-0.063	-0.087
-219.611	106.323	-0.151	0.178
-218.596	-200.000	-0.061	0.298
-217.582	-200.000	-0.032	0.268
-216.567	4.535	0.232	0.168
-215.552	29.852	-0.063	-0.053
-214.538	279.884	0.089	-0.158
-213.523	81.019	0.080	-0.086
-212.509	58.604	0.195	-0.189
-211.494	-91.622	0.160	0.045
-210.479	-63.199	-0.223	0.091
-209.465	-17.800	0.056	-0.035
-208.450	-170.160	0.181	-0.006
-207.436	-53.361	-0.099	-0.045
-206.421	-155.025	-0.201	-0.013
-205.406	800.000	0.110	0.368
-204.392	261.220	0.087	0.149
-203.377	423.735	0.066	0.141
-202.363	-61.907	-0.440	0.182
-201.348	58.558	0.075	0.073
-200.333	25.296	-0.152	-0.125
-199.319	157.412	-0.051	0.070
-198.304	-153.141	0.160	-0.011
-197.290	-92.401	0.322	-0.090
-196.275	800.000	0.066	0.260
-195.260	88.354	0.080	-0.088
-194.246	-200.000	-0.013	-0.108
-193.231	107.192	-0.130	0.153
-192.217	176.642	0.116	-0.166
-191.202	-200.000	0.020	-0.303
-190.187	165.215	0.049	0.069
-189.173	-134.321	-0.146	-0.018
-188.158	-90.620	0.143	0.041
-187.144	-24.570	-0.348	0.205
-186.129	-3.850	-0.144	0.099
-185.114	209.812	-0.050	0.078
-184.100	-200.000	-0.022	-0.329
-183.085	-200.000	-0.045	-0.254
-182.071	344.754	0.014	-0.027
-181.056	-138.705	-0.245	0.026
-180.042	762.291	0.102	-0.274
-179.027	109.503	0.110	-0.130
-178.012	-73.161	-0.319	-0.116
-176.998	38.369	-0.243	0.214
-175.983	59.868	0.160	0.156
-174.969	800.000	0.084	-0.238
-173.954	-200.000	-0.022	0.138
-172.939	800.000	0.074	-0.272
-171.925	-178.180	0.186	0.004
-170.910	-92.711	-0.161	0.045
-169.896	1.897	0.302	0.215
-168.881	-184.561	-0.221	-0.004
-167.866	17.279	0.103	-0.080
-166.852	371.297	0.031	-0.063
-165.837	800.000	0.086	0.238
-164.823	800.000	0.101	0.405
-163.808	800.000	-0.051	0.153
-162.793	84.697	0.164	-0.178
-161.779	71.023	0.267	0.273
-160.764	800.000	0.028	-0.118
-159.750	97.447	0.237	-0.269
-158.735	78.930	0.185	-0.196
-157.720	-183.773	-0.334	-0.006
-156.706	-200.000	-0.025	0.123
-155.691	-62.617	-0.068	-0.028
-154.677	147.597	-0.146	0.195
-153.662	88.077	-0.289	-0.316
-152.647	92.727	-0.064	-0.071
-151.633	800.000	-0.068	-0.233
-150.618	-121.283	-0.168	-0.028
-149.604	52.049	-0.048	-0.045
-148.589	51.217	0.216	0.202
-147.574	-116.899	-0.379	-0.068
-146.560	-56.348	-0.174	0.076
-145.545	251.334	0.114	0.190
-144.531	-54.939	-0.128	-0.057
-143.516	-59.183	-0.122	0.052
-142.502	40.737	0.458	0.408
-141.487	-154.078	0.274	-0.018
-140.472	-44.437	0.169	-0.083
-139.458	-17.503	0.252	0.156
-138.443	-110.604	-0.102	0.021
-137.429	179.231	0.112	0.161
-136.414	-62.329	0.131	0.054
-135.399	-200.000	-0.043	0.201
-134.385	800.000	0.061	0.252
-133.370	590.614	0.077	-0.187
-132.356	-2.385	0.180	-0.124
-131.341	-200.000	-0.021	0.469
-130.326	-158.149	0.144	0.008
-129.312	6.246	-0.237	0.174
-128.297	263.886	-0.071	0.122
-127.283	-200.000	0.002	0.195
-126.268	-162.265	-0.201	-0.010
-125.253	-152.436	-0.056	-0.004
-124.239	-200.000	-0.052	0.293
-123.224	82.664	0.237	-0.254
-122.210	447.265	0.023	-0.049
-121.195	800.000	0.034	-0.094
