DTS Sentinel unit serial number:	SN413079Multiplexer serial number:	ORYXHardware model number:	OX4-SRSoftware version number:	ORYX F/W v4.00 Oryx Data Collector v3.7.2.0data status	okinstallation	princeton_trtdifferential loss correction	single-endedforward channel	channel 4reverse channel	N/Adate	2019/09/13time	14:33:34forward acquisition time	60.00reverse acquisition time	0.00gamma	496.2192k internal	0.2295k external	0.2295temperature offset calibration	1.0209default loss term (dB/km)	0.3790temperature slope calibration	1.0000multiplexer offset coefficient	1.0000multiplexer slope coefficient	1.0000fibre end	0.00T internal ref (°C)	35.28T ext. ref 1 (°C)	4.65T ext. ref 2 (°C)	32.07length (m)	temperature (°C)	Stokes	anti-Stokes-747.200	-86.560	0.143	-0.045
-746.185	-114.326	0.357	0.070
-745.171	112.339	0.181	-0.224
-744.156	48.357	-0.179	-0.171
-743.142	-200.000	-0.017	-0.331
-742.127	-148.300	0.280	0.024
-741.112	631.045	-0.052	-0.135
-740.098	-200.000	0.020	-0.126
-739.083	446.881	-0.069	0.155
-738.069	394.336	0.086	-0.183
-737.054	117.800	0.103	-0.130
-736.039	800.000	0.049	-0.192
-735.025	102.902	0.125	0.149
-734.010	7.770	-0.342	-0.262
-732.996	-200.000	0.002	0.177
-731.981	284.876	-0.201	0.370
-730.966	351.672	0.037	0.075
-729.952	198.752	0.166	-0.260
-728.937	800.000	0.025	0.080
-727.923	800.000	-0.079	-0.261
-726.908	-73.725	-0.095	-0.035
-725.894	-7.646	-0.178	0.123
-724.879	200.626	-0.130	-0.205
-723.864	39.037	-0.278	-0.254
-722.850	-200.000	-0.029	-0.201
-721.835	-15.699	0.329	0.214
-720.821	-41.792	-0.134	-0.070
-719.806	1.811	-0.166	0.122
-718.791	800.000	0.024	0.102
-717.777	336.432	0.127	-0.252
-716.762	-189.640	0.249	-0.003
-715.748	-22.980	0.035	0.021
-714.733	-200.000	-0.010	-0.168
-713.718	-115.991	-0.336	-0.064
-712.704	800.000	-0.016	0.051
-711.689	-200.000	-0.074	0.371
-710.675	103.668	-0.151	0.181
-709.660	771.076	0.062	-0.171
-708.645	272.929	0.100	-0.181
-707.631	379.198	0.036	0.076
-706.616	-107.093	-0.077	0.017
-705.602	-127.400	-0.284	-0.042
-704.587	800.000	0.031	0.126
-703.572	-119.846	0.098	-0.017
-702.558	-163.012	-0.223	0.011
-701.543	800.000	0.088	-0.320
-700.529	-200.000	0.024	0.208
-699.514	-128.853	-0.354	0.051
-698.499	288.413	0.144	0.267
-697.485	-31.621	0.276	0.158
-696.470	-31.665	-0.117	-0.067
-695.456	-139.179	0.189	0.021
-694.441	680.293	0.114	-0.303
-693.426	263.558	0.107	0.189
-692.412	-200.000	0.002	0.061
-691.397	-200.000	0.014	-0.233
-690.383	-20.492	-0.288	0.181
-689.368	62.692	0.127	0.129
-688.354	21.371	0.095	-0.079
-687.339	-0.775	0.212	0.153
-686.324	-161.064	-0.280	-0.015
-685.310	-134.805	0.242	0.030
-684.295	800.000	0.022	0.088
-683.281	62.331	-0.320	-0.325
-682.266	-200.000	0.016	-0.144
-681.251	148.429	0.118	-0.162
-680.237	345.497	-0.054	-0.108
-679.222	703.230	-0.111	-0.297
-678.208	-55.087	0.282	-0.130
-677.193	25.317	0.151	0.128
-676.178	456.928	-0.044	0.099
-675.164	21.886	0.065	-0.054
-674.149	-102.832	0.261	0.063
-673.135	773.474	-0.072	-0.201
-672.120	-200.000	0.009	0.152
-671.105	467.898	-0.081	0.185
-670.091	-89.690	0.397	-0.119
-669.076	31.917	-0.196	-0.172
-668.062	-50.057	-0.065	0.031
-667.047	-200.000	-0.033	-0.197
-666.032	-38.290	-0.133	-0.072
-665.018	-200.000	-0.091	-0.602
-664.003	-136.998	-0.286	0.033
-662.989	-21.336	-0.050	-0.031
-661.974	-91.819	0.338	-0.098
-660.959	194.756	-0.221	0.342
-659.945	245.046	-0.129	0.221
-658.930	-81.676	-0.137	-0.046
-657.916	-107.649	-0.218	-0.049
-656.901	-81.766	0.253	0.085
-655.886	800.000	0.029	-0.125
-654.872	113.985	0.159	-0.198
-653.857	-108.690	-0.110	-0.024
-652.843	-93.699	-0.006	-0.002
-651.828	800.000	0.066	0.275
-650.814	-78.034	-0.105	0.037
-649.799	-35.382	0.261	-0.144
-648.784	-130.694	0.246	0.034
-647.770	-108.224	-0.376	-0.083
-646.755	-155.539	-0.411	-0.027
-645.741	213.294	0.119	-0.191
-644.726	-87.533	-0.331	-0.102
-643.711	-127.872	-0.246	0.036
-642.697	-200.000	0.004	0.302
-641.682	4.870	0.121	0.090
-640.668	-104.076	-0.214	0.051
-639.653	-200.000	0.032	0.180
-638.638	59.601	-0.072	-0.072
-637.624	800.000	0.086	-0.336
-636.609	-2.397	-0.329	0.235
-635.595	256.579	-0.069	-0.121
-634.580	102.027	-0.291	-0.346
-633.565	-27.905	-0.354	-0.209
-632.551	-150.632	-0.187	-0.015
-631.536	-33.115	-0.176	0.099
-630.522	-22.504	-0.195	0.120
-629.507	-20.062	0.223	0.140
-628.492	-200.000	0.003	-0.018
-627.478	203.912	0.123	0.193
-626.463	174.727	0.204	0.300
-625.449	-91.869	-0.222	-0.064
-624.434	-140.541	0.032	0.003
-623.419	-200.000	-0.043	0.327
-622.405	-88.237	0.181	-0.055
-621.390	-200.000	-0.009	-0.142
-620.376	800.000	0.045	-0.168
-619.361	-117.341	0.097	0.018
-618.346	-200.000	-0.009	-0.120
-617.332	87.462	0.073	-0.082
-616.317	140.945	-0.062	0.083
-615.303	216.443	-0.083	0.134
-614.288	-200.000	-0.003	0.246
-613.273	-23.416	-0.070	-0.043
-612.259	-200.000	0.021	0.134
-611.244	-184.327	0.206	0.003
-610.230	-141.078	-0.332	0.035
-609.215	800.000	0.065	-0.249
-608.201	800.000	0.056	-0.162
-607.186	-200.000	-0.048	0.249
-606.171	-184.601	0.217	0.004
-605.157	-200.000	-0.008	-0.063
-604.142	-107.099	0.301	0.067
-603.128	-41.401	0.084	0.044
-602.113	-137.224	-0.405	-0.047
-601.098	-28.261	-0.472	0.277
-600.084	452.785	-0.135	0.305
-599.069	181.307	-0.223	-0.333
-598.055	-200.000	-0.021	0.230
-597.040	-4.054	0.243	-0.171
-596.025	-200.000	0.070	-0.446
-595.011	189.276	0.210	0.319
-593.996	800.000	0.036	-0.161
-592.982	-200.000	-0.022	0.183
-591.967	-116.637	0.223	-0.042
-590.952	-33.424	0.213	-0.120
-589.938	800.000	-0.085	-0.281
-588.923	159.675	0.176	-0.249
-587.909	-36.826	-0.128	0.070
-586.894	31.981	-0.226	0.198
-585.879	180.104	0.106	-0.158
-584.865	-99.584	-0.248	0.063
-583.850	-91.303	0.055	-0.016
-582.836	28.408	-0.053	-0.045
-581.821	-19.404	0.246	0.155
-580.806	-147.287	0.107	0.009
-579.792	-200.000	-0.038	-0.211
-578.777	-200.000	-0.004	-0.394
-577.763	200.374	0.183	0.285
-576.748	-20.555	0.088	0.055
-575.733	-200.000	-0.047	-0.555
-574.719	69.445	0.111	-0.116
-573.704	9.624	-0.076	-0.058
-572.690	159.054	-0.151	0.213
-571.675	-200.000	-0.086	-0.389
-570.661	-200.000	0.011	-0.194
-569.646	29.649	0.265	-0.229
-568.631	-135.302	0.355	-0.043
-567.617	-1.220	-0.246	-0.176
-566.602	-115.870	0.174	0.033
-565.588	155.408	-0.222	-0.311
-564.573	775.527	0.072	0.201
-563.558	800.000	0.085	-0.285
-562.544	-135.127	-0.394	0.048
-561.529	-96.972	-0.297	0.079
-560.515	-106.237	-0.377	-0.086
-559.500	-177.088	-0.263	0.007
-558.485	-82.086	0.126	-0.042
-557.471	-190.177	-0.237	-0.003
-556.456	-133.241	0.160	0.020
-555.442	-135.407	-0.231	0.028
-554.427	-96.827	0.088	-0.024
-553.412	470.004	0.094	0.214
-552.398	-32.170	-0.174	-0.099
-551.383	800.000	-0.107	-0.354
-550.369	800.000	0.046	0.165
-549.354	-153.718	0.028	0.002
-548.339	346.493	0.041	0.081
-547.325	460.936	0.042	0.094
-546.310	-96.742	-0.105	-0.028
-545.296	-200.000	0.050	-0.280
-544.281	114.166	-0.062	-0.076
-543.266	531.430	0.098	-0.235
-542.252	-97.070	-0.334	0.089
-541.237	-200.000	-0.057	0.393
-540.223	578.295	-0.113	0.280
-539.208	224.797	0.171	-0.280
-538.193	10.470	-0.230	-0.178
-537.179	800.000	-0.012	-0.047
-536.164	-160.269	-0.358	0.020
-535.150	-200.000	0.016	-0.118
-534.135	-166.383	-0.132	-0.006
-533.121	800.000	-0.024	-0.071
-532.106	69.791	-0.192	-0.201
-531.091	15.178	-0.072	-0.057
-530.077	800.000	-0.034	-0.126
-529.062	800.000	0.103	-0.403
-528.048	-200.000	0.007	0.173
-527.033	724.735	-0.077	-0.209
-526.018	-200.000	0.077	-0.451
-525.004	78.591	0.119	0.129
-523.989	-10.143	0.146	-0.098
-522.975	-80.429	-0.433	-0.146
-521.960	-18.637	-0.309	-0.195
-520.945	-42.195	-0.281	0.146
-519.931	-104.855	-0.129	-0.030
-518.916	58.262	0.021	0.021
-517.902	-200.000	-0.004	-0.139
-516.887	-18.040	0.289	0.183
-515.872	-177.249	0.326	0.008
-514.858	-8.550	-0.210	-0.143
-513.843	-57.547	0.335	0.149
-512.829	-3.711	0.462	0.325
-511.814	-102.193	-0.267	-0.065
-510.799	360.247	-0.086	-0.174
-509.785	103.799	-0.169	-0.201
-508.770	0.954	-0.139	0.101
-507.756	127.337	0.077	0.098
-506.741	-93.337	-0.104	-0.029
-505.726	-16.938	0.050	-0.032
-504.712	324.504	-0.160	-0.310
-503.697	-200.000	-0.029	-0.406
-502.683	-200.000	0.009	0.348
-501.668	36.660	0.194	0.174
-500.653	-106.383	0.340	0.077
-499.639	-200.000	0.026	-0.300
-498.624	800.000	-0.095	-0.297
-497.610	-7.429	-0.220	-0.151
-496.595	127.685	0.193	0.248
-495.581	113.674	0.188	-0.232
-494.566	5.114	0.294	-0.219
-493.551	212.488	0.152	-0.242
-492.537	-72.594	-0.100	0.037
-491.522	-200.000	-0.001	0.022
-490.508	-182.438	-0.183	0.003
-489.493	-159.318	0.173	0.010
-488.478	38.263	-0.243	-0.219
-487.464	323.013	0.083	-0.160
-486.449	-200.000	-0.021	-0.225
-485.435	-123.561	-0.083	0.013
-484.420	61.401	-0.245	-0.246
-483.405	-7.290	0.155	-0.106
-482.391	15.410	0.062	-0.049
-481.376	376.927	-0.167	0.344
-480.362	124.602	-0.016	-0.020
-479.347	-102.845	-0.198	-0.048
-478.332	27.918	-0.016	-0.014
-477.318	50.216	0.311	0.297
-476.303	-26.205	-0.276	0.164
-475.289	156.667	0.165	-0.231
-474.274	-200.000	-0.021	0.178
-473.259	-7.973	-0.179	0.122
-472.245	-60.458	-0.256	-0.110
-471.230	-132.027	-0.049	0.006
-470.216	16.885	0.126	0.101
-469.201	-200.000	-0.009	0.100
-468.186	485.845	-0.089	-0.205
-467.172	-200.000	-0.057	-0.262
-466.157	-87.151	0.415	0.127
-465.143	-200.000	0.065	-0.320
-464.128	1.041	-0.186	-0.135
-463.113	-133.656	-0.356	0.045
-462.099	-57.129	-0.027	-0.012
-461.084	156.870	-0.185	-0.258
-460.070	305.729	-0.017	0.032
-459.055	277.815	0.032	0.058
-458.040	95.995	0.062	0.072
-457.026	129.017	-0.312	0.403
-456.011	-140.149	0.285	0.030
-454.997	117.748	-0.096	0.120
-453.982	209.206	-0.055	0.088
-452.968	-106.183	0.108	-0.024
-451.953	800.000	0.117	-0.414
-450.938	126.430	-0.136	-0.174
-449.924	183.185	0.081	-0.120
-448.909	-117.626	-0.295	0.054
-447.895	417.162	-0.081	0.175
-446.880	-200.000	0.002	-0.127
-445.865	-35.788	0.613	0.336
-444.851	-200.000	-0.265	0.000
-443.836	-67.911	0.239	-0.094
-442.822	777.032	0.126	0.349
-441.807	-200.000	-0.061	0.296
-440.792	69.893	-0.184	0.192
-439.778	800.000	-0.063	0.209
-438.763	-23.074	-0.175	-0.107
-437.749	781.956	-0.056	-0.154
-436.734	800.000	0.176	0.590
-435.719	-200.000	-0.044	-0.254
-434.705	475.521	-0.090	0.204
-433.690	-110.652	0.311	0.065
-432.676	20.145	0.294	-0.240
-431.661	-104.732	-0.223	0.052
-430.646	-32.590	0.192	-0.108
-429.632	-49.859	0.252	0.121
-428.617	-128.196	-0.261	-0.038
-427.603	-200.000	0.002	0.087
-426.588	-24.642	0.181	-0.109
-425.573	771.212	0.120	-0.330
-424.559	-98.757	0.206	0.053
-423.544	-200.000	0.058	-0.288
-422.530	18.503	0.112	-0.090
-421.515	337.798	-0.048	0.095
-420.500	90.506	-0.123	0.139
-419.486	-84.893	0.222	0.070
-418.471	800.000	0.088	0.367
-417.457	-140.620	0.198	-0.021
-416.442	32.822	-0.151	-0.132
-415.428	-200.000	-0.009	0.153
-414.413	260.205	0.030	-0.052
-413.398	-45.252	-0.258	-0.129
-412.384	-200.000	-0.005	0.459
-411.369	-200.000	0.002	-0.082
-410.355	-200.000	-0.036	0.226
-409.340	-200.000	0.007	0.051
-408.325	21.432	0.134	0.110
-407.311	-82.235	-0.072	0.024
-406.296	-135.317	0.332	0.040
-405.282	-28.856	0.368	0.213
-404.267	-134.202	-0.185	-0.023
-403.252	352.334	0.174	0.347
-402.238	-200.000	-0.095	0.484
-401.223	-194.981	-0.250	0.002
-400.209	800.000	-0.011	-0.032
-399.194	-89.043	-0.171	0.051
-398.179	-188.541	-0.281	-0.004
-397.165	48.186	-0.107	0.101
-396.150	-125.256	-0.293	0.045
-395.136	-116.593	0.254	0.047
-394.121	-64.383	0.179	-0.073
-393.106	-181.434	0.353	0.007
-392.092	42.395	-0.035	-0.032
-391.077	-120.288	-0.252	-0.043
-390.063	-53.057	-0.269	-0.125
-389.048	108.747	0.185	-0.222
-388.033	-200.000	-0.005	0.110
-387.019	-200.000	0.025	0.179
-386.004	-132.468	0.033	-0.004
-384.990	-84.331	-0.069	-0.022
-383.975	-33.255	-0.138	-0.077
-382.960	-200.000	-0.001	0.036
-381.946	-151.576	0.041	-0.003
-380.931	800.000	0.066	0.222
-379.917	4.697	-0.140	-0.103
-378.902	246.568	-0.042	-0.071
-377.888	155.106	-0.180	-0.249
-376.873	424.276	-0.122	-0.265
-375.858	-200.000	0.013	0.221
-374.844	63.389	-0.099	0.100
-373.829	-17.660	0.277	-0.176
-372.815	-127.370	-0.306	0.045
-371.800	-115.288	-0.338	-0.064
-370.785	-157.879	-0.293	-0.017
-369.771	131.520	0.260	0.336
-368.756	6.688	-0.405	0.304
-367.742	87.586	0.110	0.123
-366.727	-200.000	0.011	0.213
-365.712	29.389	0.168	0.144
-364.698	1.463	-0.152	-0.110
-363.683	108.005	-0.186	0.223
-362.669	-75.050	0.239	-0.086
-361.654	-139.486	0.278	-0.030
-360.639	-99.722	-0.049	0.012
-359.625	10.561	-0.187	0.143
-358.610	-24.049	-0.098	0.059
-357.596	-200.000	0.284	0.000
-356.581	-107.282	-0.126	0.028
-355.566	13.952	-0.127	-0.099
-354.552	329.273	0.053	0.102
-353.537	800.000	0.053	-0.189
-352.523	800.000	-0.036	0.123
-351.508	-200.000	0.042	-0.382
-350.493	155.279	0.081	0.113
-349.479	-109.391	-0.368	0.078
-348.464	-36.347	0.066	0.036
-347.450	386.123	0.044	0.090
-346.435	-59.025	0.131	-0.057
-345.420	97.186	-0.219	0.253
-344.406	-200.000	-0.034	0.165
-343.391	-156.205	0.042	-0.003
-342.377	145.936	-0.317	-0.428
-341.362	6.655	0.146	0.110
-340.348	-200.000	0.145	-0.000
-339.333	-45.878	0.093	-0.046
-338.318	462.020	-0.041	0.091
-337.304	-200.000	0.001	0.033
-336.289	-118.506	0.245	-0.044
-335.275	182.645	-0.039	0.058
-334.260	-190.364	0.175	-0.002
-333.245	-200.000	0.014	0.199
-332.231	20.114	-0.064	0.052
-331.216	-43.489	-0.208	-0.106
-330.202	102.040	0.152	-0.179
-329.187	-134.882	0.289	-0.035
-328.172	254.815	0.139	0.240
-327.158	-108.542	0.004	-0.001
-326.143	625.839	0.062	-0.156
-325.129	-95.682	0.208	-0.056
-324.114	76.200	0.115	0.122
-323.099	-80.807	0.261	0.087
-322.085	118.412	-0.313	-0.388
-321.070	69.048	-0.278	-0.287
-320.056	175.450	-0.209	-0.305
-319.041	23.020	0.127	0.105
-318.026	-103.564	0.075	-0.018
-317.012	-200.000	0.032	0.165
-315.997	-200.000	0.017	0.239
-314.983	-200.000	-0.002	0.049
-313.968	-106.210	-0.086	-0.019
-312.953	-200.000	0.034	0.269
-311.939	800.000	0.087	-0.304
-310.924	-200.000	0.013	-0.179
-309.910	227.701	-0.106	-0.174
-308.895	228.078	0.193	0.315
-307.880	-101.341	0.152	0.037
-306.866	-200.000	-0.004	-0.026
-305.851	3.426	-0.176	-0.129
-304.837	-200.000	0.078	-0.364
-303.822	276.710	-0.183	-0.327
-302.807	250.000	-0.189	-0.322
-301.793	-16.629	-0.035	0.023
-300.778	82.239	0.143	0.156
-299.764	50.744	0.176	0.168
-298.749	-200.000	0.026	-0.163
-297.735	165.482	-0.080	-0.113
-296.720	-25.443	-0.094	-0.056
-295.705	223.860	-0.043	0.069
-294.691	316.648	-0.095	-0.180
-293.676	26.116	0.093	-0.078
-292.662	74.650	0.062	0.065
-291.647	-90.219	0.153	-0.045
-290.632	0.560	0.233	0.167
-289.618	-200.000	-0.023	0.373
-288.603	19.227	-0.147	0.118
-287.589	-13.042	-0.080	-0.052
-286.574	-200.000	0.008	-0.434
-285.559	-165.842	0.103	0.004
-284.545	-200.000	0.048	-0.249
-283.530	-200.000	0.112	-0.494
-282.516	800.000	0.004	0.015
-281.501	-35.364	0.063	-0.034
-280.486	-100.529	0.308	-0.076
-279.472	-200.000	0.005	0.202
-278.457	800.000	0.096	0.342
-277.443	62.476	-0.053	-0.054
-276.428	-200.000	0.021	0.153
-275.413	302.984	0.128	0.237
-274.399	684.095	0.094	0.245
-273.384	-200.000	-0.027	-0.123
-272.370	19.648	0.276	-0.223
-271.355	-6.697	-0.267	-0.183
-270.340	660.449	-0.066	0.171
-269.326	102.901	0.217	0.255
-268.311	90.901	0.095	-0.107
-267.297	-200.000	0.015	0.307
-266.282	-62.868	-0.286	0.119
-265.267	89.553	-0.068	0.077
-264.253	-200.000	-0.013	0.142
-263.238	-49.736	0.385	0.183
-262.224	-12.289	-0.287	-0.188
-261.209	211.740	-0.048	0.075
-260.195	119.863	0.104	-0.130
-259.180	-200.000	-0.063	-0.301
-258.165	300.375	0.124	0.229
-257.151	61.006	0.129	-0.129
-256.136	800.000	-0.014	0.043
-255.122	-78.972	0.556	-0.190
-254.107	192.497	-0.069	-0.104
-253.092	301.494	-0.037	0.069
-252.078	-20.023	0.192	0.119
-251.063	-66.057	-0.053	0.021
-250.049	173.171	0.117	-0.169
-249.034	-34.504	0.045	-0.025
-248.019	-10.344	-0.089	-0.059
-247.005	-76.975	-0.192	0.067
-245.990	-200.000	0.037	0.185
-244.976	-154.991	0.133	0.009
-243.961	12.407	0.165	-0.127
-242.946	-74.053	-0.216	0.079
-241.932	-71.441	-0.281	0.106
-240.917	-200.000	0.038	-0.204
-239.903	-127.021	-0.211	-0.031
-238.888	228.655	-0.066	0.107
-237.873	-114.586	0.183	-0.035
-236.859	800.000	0.076	0.218
-235.844	23.306	0.122	-0.100
-234.830	679.786	0.053	0.139
-233.815	-23.058	0.064	0.039
-232.800	-72.201	-0.199	0.074
-231.786	-59.913	0.320	-0.137
-230.771	-35.245	-0.267	0.146
-229.757	-162.365	-0.208	-0.010
-228.742	69.375	0.138	-0.143
-227.727	-76.380	0.171	-0.060
-226.713	176.944	-0.076	0.111
-225.698	40.733	0.346	-0.313
-224.684	-200.000	-0.009	-0.271
-223.669	-200.000	-0.007	-0.094
-222.655	-200.000	-0.011	0.248
-221.640	-78.388	0.199	-0.068
-220.625	44.143	-0.357	-0.328
-219.611	-12.309	-0.219	0.144
-218.596	624.006	0.016	0.040
-217.582	-145.386	0.253	-0.023
-216.567	101.221	0.203	-0.237
-215.552	35.404	0.246	-0.217
-214.538	46.375	0.141	0.131
-213.523	95.846	0.269	0.307
-212.509	-93.850	0.273	0.075
-211.494	49.800	-0.184	0.174
-210.479	264.212	-0.149	0.260
-209.465	289.091	-0.043	-0.078
-208.450	-200.000	-0.055	0.265
-207.436	332.309	-0.073	0.142
-206.421	46.247	0.106	-0.099
-205.406	265.607	0.017	-0.030
-204.392	164.376	0.171	0.241
-203.377	-200.000	-0.003	-0.044
-202.363	49.334	0.361	0.340
-201.348	34.313	0.123	-0.107
-200.333	286.159	-0.130	-0.234
-199.319	-53.511	0.138	-0.063
-198.304	800.000	0.071	0.261
-197.290	47.320	0.244	-0.228
-196.275	649.172	0.100	0.257
-195.260	-200.000	-0.011	0.213
-194.246	84.380	-0.110	-0.121
-193.231	-200.000	0.005	0.069
-192.217	-47.163	0.302	0.147
-191.202	-11.617	0.016	-0.011
-190.187	78.534	-0.064	-0.069
-189.173	-200.000	-0.002	-0.144
-188.158	48.135	-0.232	-0.217
-187.144	-40.918	-0.176	0.091
-186.129	-200.000	0.009	0.286
-185.114	63.120	0.119	0.119
-184.100	800.000	-0.053	0.194
-183.085	-61.072	-0.306	0.129
-182.071	766.591	0.140	0.380
-181.056	42.159	0.092	-0.083
-180.042	270.560	0.054	-0.094
-179.027	344.926	-0.049	0.097
-178.012	-176.756	0.414	0.011
-176.998	-200.000	-0.069	-0.322
-175.983	-200.000	0.034	0.307
-174.969	220.103	-0.097	0.155
-173.954	91.201	0.270	0.303
-172.939	-200.000	-0.063	0.466
-171.925	-200.000	0.055	0.280
-170.910	60.174	0.076	-0.075
-169.896	496.253	-0.082	0.189
-168.881	-105.216	0.245	0.056
-167.866	-72.768	-0.394	0.145
-166.852	-200.000	-0.040	-0.186
-165.837	0.463	-0.026	-0.019
-164.823	391.605	-0.105	0.218
-163.808	-40.112	0.222	-0.116
-162.793	800.000	0.055	0.215
-161.779	800.000	-0.098	-0.308
-160.764	-200.000	0.020	0.197
-159.750	-68.815	0.161	0.062
-158.735	6.937	-0.111	-0.083
-157.720	-87.081	0.208	-0.063
-156.706	77.000	0.177	-0.188
-155.691	800.000	-0.082	0.338
-154.677	800.000	0.019	0.073
-153.662	662.511	0.081	-0.208
-152.647	148.002	0.105	-0.142
-151.633	172.967	-0.125	0.180
-150.618	164.475	-0.087	0.123
-149.604	-53.602	0.244	0.111
-148.589	-22.893	-0.290	-0.174
-147.574	-200.000	-0.052	-0.457
-146.560	28.554	-0.125	0.106
-145.545	144.579	-0.170	-0.227
-144.531	-55.355	0.105	0.047
-143.516	53.380	0.176	0.169
-142.502	-62.867	-0.212	-0.088
-141.487	-200.000	-0.034	0.171
-140.472	210.077	0.124	0.194
-139.458	356.806	0.203	0.404
-138.443	-154.140	-0.232	-0.016
-137.429	-37.927	0.262	-0.139
-136.414	-9.054	-0.106	0.071
-135.399	-57.705	-0.185	0.081
-134.385	15.636	0.322	0.253
-133.370	-50.180	-0.150	0.071
-132.356	-139.586	0.216	0.023
-131.341	2.471	-0.182	0.132
-130.326	800.000	-0.045	-0.131
-129.312	-184.280	-0.027	0.000
-128.297	-120.889	-0.208	-0.035
-127.283	7.962	0.062	0.047
-126.268	180.329	-0.103	-0.150
-125.253	-15.834	0.076	0.048
-124.239	-91.864	-0.144	0.041
-123.224	-73.464	-0.053	0.019
-122.210	-11.894	0.083	0.054
-121.195	219.892	-0.108	-0.172
