DTS Sentinel unit serial number:	SN413079Multiplexer serial number:	ORYXHardware model number:	OX4-SRSoftware version number:	ORYX F/W v4.00 Oryx Data Collector v3.7.2.0data status	okinstallation	princeton_trtdifferential loss correction	single-endedforward channel	channel 4reverse channel	N/Adate	2019/09/12time	19:52:18forward acquisition time	15.00reverse acquisition time	0.00gamma	496.2192k internal	0.2310k external	0.2310temperature offset calibration	1.0159default loss term (dB/km)	0.3790temperature slope calibration	1.0000multiplexer offset coefficient	1.0000multiplexer slope coefficient	1.0000fibre end	0.00T internal ref (°C)	31.87T ext. ref 1 (°C)	3.44T ext. ref 2 (°C)	26.47length (m)	temperature (°C)	Stokes	anti-Stokes-747.200	134.830	0.363	-0.478
-746.185	69.382	0.539	-0.564
-745.171	-41.020	0.588	-0.309
-744.156	-44.969	0.104	-0.052
-743.142	69.065	-0.554	-0.578
-742.127	-200.000	0.080	-0.502
-741.112	-158.137	-1.470	-0.087
-740.098	-200.000	-0.162	0.932
-739.083	36.330	-0.475	-0.425
-738.069	29.386	-0.504	-0.435
-737.054	-200.000	-0.021	-0.116
-736.039	-76.663	-0.887	-0.316
-735.025	800.000	-0.209	-0.702
-734.010	-200.000	0.013	-0.501
-732.996	12.763	-0.414	0.324
-731.981	-200.000	0.095	0.496
-730.966	-152.958	-0.310	0.022
-729.952	-74.808	-0.484	-0.176
-728.937	-200.000	-0.054	1.001
-727.923	-79.771	-0.356	-0.122
-726.908	-146.977	-0.157	0.014
-725.894	66.650	-0.288	-0.297
-724.879	-200.000	-0.065	0.973
-723.864	-200.000	-0.015	0.134
-722.850	9.443	-0.557	0.428
-721.835	-51.592	-0.496	0.235
-720.821	458.787	0.470	1.061
-719.806	-53.048	0.235	0.110
-718.791	316.268	-0.406	0.777
-717.777	-200.000	-0.017	-0.096
-716.762	-28.947	-0.542	0.316
-715.748	469.979	0.163	-0.372
-714.733	-173.290	-0.203	-0.006
-713.718	-144.134	0.293	-0.028
-712.704	-54.696	-0.773	-0.354
-711.689	-110.811	-0.319	-0.067
-710.675	45.545	0.711	0.666
-709.660	-83.921	-0.561	0.181
-708.645	-54.578	0.559	0.257
-707.631	800.000	0.192	-0.770
-706.616	-200.000	0.120	0.853
-705.602	-86.498	-0.248	0.077
-704.587	65.542	0.473	0.485
-703.572	-186.765	-0.832	-0.012
-702.558	153.755	-0.198	0.275
-701.543	-43.031	-0.339	0.174
-700.529	-97.934	-0.102	-0.027
-699.514	-200.000	-0.001	-0.253
-698.499	800.000	-0.008	-0.029
-697.485	78.762	0.362	-0.392
-696.470	-200.000	0.018	-0.543
-695.456	10.665	-0.457	0.353
-694.441	800.000	-0.134	0.390
-693.426	160.982	0.283	-0.400
-692.412	-158.538	0.197	-0.012
-691.397	-135.553	-0.664	0.080
-690.383	-11.206	-0.187	-0.125
-689.368	-200.000	0.077	-0.413
-688.354	800.000	-0.251	-0.903
-687.339	76.622	0.366	-0.393
-686.324	25.800	0.804	-0.679
-685.310	-41.232	0.754	0.394
-684.295	-200.000	-0.042	-0.209
-683.281	6.278	0.211	-0.159
-682.266	-31.054	0.437	0.250
-681.251	800.000	0.170	0.648
-680.237	-200.000	-0.051	-0.393
-679.222	795.354	-0.290	0.808
-678.208	-51.577	-0.358	0.169
-677.193	-57.978	-0.769	-0.340
-676.178	-7.057	-1.194	-0.821
-675.164	800.000	0.349	1.413
-674.149	-200.000	-0.012	0.290
-673.135	-200.000	0.002	0.089
-672.120	6.058	-0.290	-0.218
-671.105	288.272	-0.170	-0.312
-670.091	-51.068	0.422	0.200
-669.076	87.073	-0.536	0.600
-668.062	29.424	-0.483	-0.416
-667.047	-200.000	0.024	-0.780
-666.032	452.805	0.173	-0.387
-665.018	146.530	0.325	0.443
-664.003	-81.073	-0.158	0.053
-662.989	136.761	0.467	-0.617
-661.974	-8.819	0.083	0.056
-660.959	-200.000	-0.144	-0.881
-659.945	-97.762	1.056	-0.277
-658.930	-177.311	0.758	-0.019
-657.916	-200.000	0.015	0.676
-656.901	461.887	0.245	-0.554
-655.886	360.864	0.210	0.426
-654.872	-200.000	-0.027	0.176
-653.857	-148.254	0.354	0.030
-652.843	-93.237	0.424	-0.119
-651.828	46.642	-0.300	0.282
-650.814	6.302	0.509	-0.382
-649.799	-200.000	0.001	0.171
-648.784	664.343	-0.394	-1.029
-647.770	158.043	-0.259	-0.363
-646.755	46.084	-0.326	-0.305
-645.741	-124.887	0.019	-0.003
-644.726	360.525	-0.272	-0.552
-643.711	-200.000	0.157	0.831
-642.697	428.682	0.226	-0.493
-641.682	396.245	-0.266	0.563
-640.668	748.863	-0.147	0.401
-639.653	140.110	-0.264	0.352
-638.638	-132.369	-0.256	-0.033
-637.624	131.938	0.507	-0.660
-636.609	-60.898	-0.928	-0.397
-635.595	-169.753	-0.828	0.030
-634.580	-45.728	0.819	0.409
-633.565	-145.645	0.643	-0.058
-632.551	-27.328	0.303	-0.179
-631.536	-200.000	0.058	-0.369
-630.522	-60.687	0.652	0.280
-629.507	351.244	-0.165	-0.329
-628.492	800.000	-0.101	-0.285
-627.478	-200.000	0.115	-0.850
-626.463	0.390	0.489	0.353
-625.449	-200.000	-0.100	-0.684
-624.434	43.191	-0.846	0.781
-623.419	659.548	-0.233	0.605
-622.405	191.434	0.322	0.490
-621.390	-24.888	-0.587	0.352
-620.376	800.000	0.272	0.835
-619.361	714.544	-0.212	0.568
-618.346	239.105	0.511	-0.860
-617.332	-77.020	-0.899	-0.317
-616.317	-131.501	0.338	0.045
-615.303	117.898	-0.520	0.647
-614.288	178.562	-0.224	0.331
-613.273	800.000	0.237	0.685
-612.259	-25.676	-0.989	-0.590
-611.244	34.755	0.281	-0.248
-610.230	-200.000	0.048	0.398
-609.215	264.461	-0.073	-0.128
-608.201	12.196	0.301	-0.234
-607.186	-134.587	0.880	-0.108
-606.171	235.498	-0.358	-0.598
-605.157	800.000	-0.231	-0.829
-604.142	-200.000	0.017	0.077
-603.128	91.183	-0.293	-0.332
-602.113	-200.000	0.012	0.287
-601.098	-200.000	-0.026	-0.354
-600.084	218.182	0.350	-0.564
-599.069	-68.630	-0.400	-0.156
-598.055	-43.430	-0.114	-0.058
-597.040	11.521	0.489	-0.378
-596.025	673.879	-0.177	-0.463
-595.011	-111.086	0.440	0.091
-593.996	14.677	-0.386	-0.304
-592.982	113.969	-0.247	0.303
-591.967	380.893	-0.207	0.430
-590.952	176.961	-0.212	-0.311
-589.938	179.849	-0.180	-0.266
-588.923	-61.173	-0.745	-0.317
-587.909	800.000	-0.200	0.764
-586.894	-110.316	-0.702	-0.147
-585.879	27.540	-0.473	-0.401
-584.865	-200.000	-0.037	-0.420
-583.850	-1.874	0.546	0.387
-582.836	-63.260	0.358	0.149
-581.821	-38.192	0.296	0.158
-580.806	-77.163	-0.954	0.335
-579.792	-91.912	-0.720	-0.206
-578.777	-200.000	-0.022	-0.894
-577.763	36.406	-0.391	0.348
-576.748	180.097	-0.377	-0.557
-575.733	-90.086	-0.305	0.090
-574.719	-32.685	-0.337	-0.189
-573.704	277.346	-0.186	0.334
-572.690	683.882	-0.045	0.117
-571.675	-80.536	0.836	0.281
-570.661	494.161	-0.223	0.515
-569.646	-96.267	0.846	-0.226
-568.631	-23.622	0.390	0.236
-567.617	73.575	-0.203	0.215
-566.602	-74.142	0.996	0.364
-565.588	93.168	0.262	0.299
-564.573	-46.649	-0.267	-0.132
-563.558	247.943	0.939	-1.601
-562.544	800.000	-0.134	-0.572
-561.529	-200.000	0.019	0.172
-560.515	-48.289	-0.291	-0.142
-559.500	-121.508	0.126	0.021
-558.485	26.589	0.565	-0.477
-557.471	196.204	0.489	-0.751
-556.456	47.312	0.050	-0.047
-555.442	52.522	-0.271	0.260
-554.427	68.463	0.482	0.498
-553.412	680.957	-0.241	0.632
-552.398	-62.135	0.145	-0.061
-551.383	-94.720	-0.256	0.070
-550.369	374.452	-0.271	-0.555
-549.354	222.290	-0.074	0.120
-548.339	-7.453	0.270	0.184
-547.325	-149.276	-0.181	0.015
-546.310	189.225	-0.134	0.203
-545.296	-200.000	0.032	-0.399
-544.281	-141.495	0.409	-0.042
-543.266	22.289	0.523	0.431
-542.252	6.025	-0.556	0.415
-541.237	406.715	0.191	0.407
-540.223	316.629	0.225	-0.428
-539.208	-40.893	-0.456	0.238
-538.193	-112.559	-0.449	0.090
-537.179	-127.058	0.554	-0.082
-536.164	19.218	0.272	0.220
-535.150	-74.841	0.290	0.105
-534.135	-200.000	-0.161	0.757
-533.121	-83.223	-0.103	-0.033
-532.106	-23.553	-0.042	0.025
-531.091	141.036	-0.387	-0.515
-530.077	800.000	-0.176	0.506
-529.062	-34.966	0.060	0.033
-528.048	-200.000	-0.025	-0.327
-527.033	-15.832	-0.905	0.581
-526.018	800.000	0.299	-1.229
-525.004	175.261	0.333	-0.486
-523.989	-200.000	-0.000	-0.054
-522.975	337.076	0.335	-0.655
-521.960	-200.000	0.087	-0.396
-520.945	113.800	-0.055	-0.067
-519.931	160.105	0.309	-0.433
-518.916	-26.461	0.217	-0.128
-517.902	172.569	0.222	0.322
-516.887	-52.928	-0.178	0.083
-515.872	-155.332	0.548	0.036
-514.858	-200.000	0.023	0.309
-513.843	115.569	0.295	0.362
-512.829	113.764	0.100	-0.122
-511.814	265.990	-0.224	-0.393
-510.799	-127.673	-0.542	-0.079
-509.785	800.000	0.282	-0.941
-508.770	44.526	-0.421	0.389
-507.756	-136.306	-0.740	-0.087
-506.741	-132.365	-0.231	-0.030
-505.726	-200.000	0.053	-0.681
-504.712	800.000	-0.239	0.788
-503.697	-139.855	-0.291	-0.031
-502.683	266.486	-0.032	0.056
-501.668	-18.997	-1.123	0.703
-500.653	-68.077	-0.056	-0.022
-499.639	-200.000	-0.006	0.085
-498.624	-200.000	0.003	-0.568
-497.610	368.020	0.173	0.353
-496.595	-58.700	-0.621	0.271
-495.581	418.602	0.273	-0.587
-494.566	406.754	-0.048	-0.102
-493.551	-200.000	-0.037	-0.177
-492.537	31.524	0.260	-0.225
-491.522	-151.265	-0.658	-0.049
-490.508	-26.722	-0.246	-0.145
-489.493	-46.975	-1.292	0.635
-488.478	38.047	-0.440	-0.394
-487.464	800.000	-0.139	-0.418
-486.449	-48.457	-0.303	-0.147
-485.435	561.608	0.270	0.657
-484.420	56.216	0.291	-0.284
-483.405	-107.212	0.141	0.031
-482.391	117.821	0.060	0.074
-481.376	-200.000	-0.024	0.286
-480.362	66.825	-0.050	-0.051
-479.347	-106.574	-0.210	0.047
-478.332	50.411	-0.620	0.589
-477.318	-200.000	-0.162	0.768
-476.303	-5.894	0.410	0.282
-475.289	-200.000	-0.158	-0.831
-474.274	-200.000	-0.050	-0.364
-473.259	-62.299	0.251	-0.105
-472.245	13.889	-0.465	-0.363
-471.230	-58.264	0.130	-0.057
-470.216	-123.196	-0.824	-0.133
-469.201	49.121	0.204	-0.192
-468.186	262.955	0.071	0.124
-467.172	-101.651	0.101	0.025
-466.157	184.180	0.349	0.518
-465.143	-200.000	-0.106	-0.751
-464.128	183.502	0.515	-0.765
-463.113	800.000	-0.146	0.406
-462.099	254.065	-0.258	-0.442
-461.084	322.072	-0.476	0.911
-460.070	-92.675	0.409	-0.115
-459.055	800.000	0.167	-0.642
-458.040	-32.188	-0.702	-0.394
-457.026	-111.537	0.939	-0.192
-456.011	-124.985	0.211	0.033
-454.997	652.576	0.135	0.349
-453.982	67.356	0.348	0.357
-452.968	62.328	0.454	-0.455
-451.953	-147.224	0.483	-0.041
-450.938	33.051	-0.490	0.426
-449.924	-33.121	0.631	0.351
-448.909	189.211	-0.184	-0.276
-447.895	-142.166	-0.862	0.086
-446.880	-95.305	1.003	0.271
-445.865	-82.784	0.331	-0.108
-444.851	697.254	-0.079	-0.209
-443.836	218.721	0.357	0.573
-442.822	-200.000	-0.060	-0.275
-441.807	800.000	0.120	-0.494
-440.792	-115.951	-0.432	0.081
-439.778	-23.230	-0.152	0.092
-438.763	29.114	-0.611	-0.520
-437.749	800.000	0.180	0.777
-436.734	90.465	0.650	0.730
-435.719	29.071	0.503	0.428
-434.705	-200.000	-0.025	0.359
-433.690	-156.986	0.206	0.013
-432.676	395.837	-0.395	-0.827
-431.661	3.260	0.745	-0.544
-430.646	-200.000	-0.025	0.281
-429.632	35.690	-0.707	0.623
-428.617	76.584	-0.185	0.197
-427.603	800.000	-0.090	-0.364
-426.588	800.000	-0.143	0.561
-425.573	200.747	-0.123	0.190
-424.559	8.312	0.307	0.232
-423.544	-49.416	-0.339	0.162
-422.530	27.330	0.218	0.184
-421.515	-82.002	0.569	-0.186
-420.500	-200.000	-0.009	0.386
-419.486	73.263	-0.221	0.231
-418.471	-109.045	0.400	0.085
-417.457	358.213	-0.213	-0.426
-416.442	-200.000	0.152	0.781
-415.428	404.963	0.212	0.447
-414.413	68.014	-0.275	0.282
-413.398	129.736	0.182	0.234
-412.384	-200.000	-0.036	0.704
-411.369	173.100	0.229	-0.330
-410.355	-200.000	0.009	0.309
-409.340	44.097	0.312	-0.286
-408.325	-41.320	-0.647	0.334
-407.311	-200.000	-0.044	-0.674
-406.296	495.015	-0.160	0.369
-405.282	359.792	-0.403	-0.808
-404.267	-189.619	-0.495	-0.006
-403.252	-3.546	0.912	0.636
-402.238	-200.000	0.067	-0.313
-401.223	-151.483	-0.432	-0.032
-400.209	-179.879	0.810	-0.017
-399.194	-200.000	0.093	0.572
-398.179	171.941	0.595	-0.857
-397.165	117.002	0.224	-0.275
-396.150	-200.000	-0.018	0.236
-395.136	800.000	0.276	0.944
-394.121	349.784	0.171	0.338
-393.106	303.308	-0.246	-0.457
-392.092	-133.918	-1.339	0.166
-391.077	-75.116	-0.657	0.235
-390.063	108.680	-0.469	-0.561
-389.048	-148.428	1.093	-0.090
-388.033	-200.000	0.019	-0.144
-387.019	703.204	-0.170	-0.448
-386.004	2.999	0.289	-0.210
-384.990	-143.387	-0.470	-0.045
-383.975	172.928	0.131	0.189
-382.960	119.576	-0.414	0.513
-381.946	-131.982	-0.231	0.030
-380.931	354.537	-0.319	0.635
-379.917	33.880	-0.813	0.708
-378.902	-123.122	0.289	-0.046
-377.888	-122.708	0.653	-0.106
-376.873	-140.325	0.418	0.044
-375.858	30.964	-0.545	-0.468
-374.844	45.211	-0.263	0.243
-373.829	688.973	0.380	-0.995
-372.815	-200.000	0.045	-0.509
-371.800	-113.823	-0.812	0.158
-370.785	-200.000	-0.002	0.328
-369.771	32.582	0.244	-0.211
-368.756	-40.356	-0.897	0.467
-367.742	97.974	0.691	-0.795
-366.727	-200.000	-0.040	-0.972
-365.712	32.698	-0.648	0.561
-364.698	-115.259	0.778	0.147
-363.683	-98.191	0.609	-0.156
-362.669	537.330	0.445	1.057
-361.654	102.889	0.475	-0.557
-360.639	506.695	-0.099	-0.230
-359.625	65.702	-0.541	-0.548
-358.610	49.888	-0.587	0.554
-357.596	-92.908	0.138	-0.039
-356.581	-79.326	-0.363	0.123
-355.566	-154.844	0.264	0.017
-354.552	29.892	0.251	-0.214
-353.537	91.954	-0.198	0.223
-352.523	276.227	0.331	-0.589
-351.508	28.390	-0.362	0.306
-350.493	10.881	-0.165	0.126
-349.479	190.607	0.237	0.356
-348.464	-177.814	1.103	-0.027
-347.450	-74.222	-0.581	0.210
-346.435	94.809	-0.203	-0.231
-345.420	13.243	-0.248	0.192
-344.406	-35.241	1.088	0.592
-343.391	166.971	0.363	-0.515
-342.377	15.995	-0.560	-0.441
-341.362	175.087	0.361	0.522
-340.348	-14.829	0.356	0.228
-339.333	800.000	-0.075	-0.268
-338.318	-42.844	-0.794	0.403
-337.304	45.865	0.504	0.466
-336.289	-88.926	0.299	0.089
-335.275	-200.000	-0.068	-0.528
-334.260	329.218	0.223	-0.429
-333.245	-188.323	0.471	-0.006
-332.231	800.000	0.072	0.252
-331.216	-123.915	0.584	0.092
-330.202	792.206	0.104	0.286
-329.187	29.080	0.507	0.430
-328.172	-11.310	-0.507	0.334
-327.158	-81.825	-0.608	0.199
-326.143	-50.256	0.304	-0.144
-325.129	-18.228	0.698	0.436
-324.114	-43.804	0.416	0.209
-323.099	-118.824	0.450	-0.079
-322.085	800.000	0.245	-0.775
-321.070	188.086	0.128	-0.190
-320.056	-91.538	-0.577	0.164
-319.041	-97.701	-0.446	0.115
-318.026	526.424	0.156	0.366
-317.012	229.436	0.350	-0.570
-315.997	163.254	-0.299	-0.419
-314.983	-88.048	0.785	0.235
-313.968	-70.819	0.711	0.268
-312.953	-36.947	-0.296	-0.158
-311.939	-118.807	0.363	-0.064
-310.924	800.000	0.024	-0.075
-309.910	800.000	0.159	0.470
-308.895	800.000	0.158	-0.602
-307.880	800.000	-0.147	-0.445
-306.866	800.000	0.195	-0.636
-305.851	-200.000	0.061	-0.351
-304.837	-18.578	-0.538	0.335
-303.822	-35.471	-0.983	-0.533
-302.807	-170.327	0.832	-0.029
-301.793	37.921	-0.646	0.573
-300.778	212.926	0.237	0.373
-299.764	0.715	0.248	-0.177
-298.749	-200.000	-0.045	0.238
-297.735	-200.000	0.114	0.869
-296.720	-23.511	0.120	-0.072
-295.705	259.055	-0.359	0.618
-294.691	-200.000	-0.048	-0.215
-293.676	-78.852	0.620	-0.211
-292.662	47.285	0.472	0.439
-291.647	-70.269	0.075	-0.028
-290.632	-62.495	0.409	-0.170
-289.618	74.819	-0.872	-0.916
-288.603	-42.447	-1.163	-0.592
-287.589	-95.451	0.655	0.176
-286.574	183.779	0.321	0.473
-285.559	-56.027	0.350	-0.156
-284.545	-122.628	-1.094	0.177
-283.530	-0.711	0.203	0.144
-282.516	800.000	-0.342	-0.960
-281.501	144.866	0.334	0.445
-280.486	-21.632	-0.153	0.093
-279.472	-64.669	0.447	0.181
-278.457	165.535	0.213	-0.300
-277.443	739.755	0.084	-0.224
-276.428	800.000	-0.135	0.376
-275.413	29.892	0.182	-0.154
-274.399	342.590	-0.104	0.203
-273.384	-200.000	-0.067	0.460
-272.370	-200.000	-0.043	0.315
-271.355	-32.291	1.047	-0.583
-270.340	181.297	0.110	0.161
-269.326	800.000	0.059	-0.184
-268.311	-127.710	-0.638	-0.092
-267.297	-47.666	-0.422	0.204
-266.282	445.185	-0.146	-0.320
-265.267	-200.000	0.073	-1.027
-264.253	-134.234	0.706	0.087
-263.238	-53.382	-0.346	0.158
-262.224	40.493	0.605	-0.543
-261.209	5.166	-0.529	0.388
-260.195	-100.073	0.301	0.075
-259.180	-200.000	-0.126	-1.285
-258.165	-44.517	0.204	-0.102
-257.151	42.599	-0.823	-0.747
-256.136	-188.408	0.620	0.008
-255.122	22.276	0.517	0.421
-254.107	75.805	0.408	-0.430
-253.092	459.033	0.145	-0.320
-252.078	80.845	0.143	-0.153
-251.063	331.693	-0.316	0.608
-250.049	-200.000	-0.088	0.478
-249.034	-200.000	-0.068	-0.310
-248.019	-200.000	-0.066	-0.432
-247.005	-150.490	0.292	0.022
-245.990	101.996	0.117	0.137
-244.976	233.872	-0.237	-0.388
-243.961	800.000	-0.147	-0.627
-242.946	-167.370	0.301	-0.012
-241.932	-92.897	-0.534	-0.148
-240.917	81.017	0.255	0.275
-239.903	-86.358	-1.056	-0.323
-238.888	-49.296	0.849	0.404
-237.873	-87.277	0.290	0.088
-236.859	-31.648	-0.498	0.278
-235.844	-36.134	-0.892	-0.480
-234.830	232.903	0.484	0.792
-233.815	-94.661	0.603	0.163
-232.800	396.159	-0.417	-0.867
-231.786	-63.868	0.364	-0.148
-230.771	-28.873	-0.258	-0.148
-229.757	-129.677	0.750	0.103
-228.742	-200.000	-0.047	-0.466
-227.727	-169.786	1.031	-0.037
-226.713	-200.000	0.014	0.156
-225.698	10.993	-0.560	-0.426
-224.684	65.818	0.407	0.411
-223.669	-59.599	0.262	0.112
-222.655	800.000	0.225	-0.835
-221.640	81.218	0.325	0.350
-220.625	-58.224	-0.836	0.362
-219.611	578.810	-0.186	0.454
-218.596	-144.224	0.031	0.003
-217.582	-114.061	0.272	0.052
-216.567	-70.159	0.235	0.089
-215.552	-200.000	-0.036	0.578
-214.538	87.295	0.107	0.118
-213.523	98.900	-0.451	0.518
-212.509	111.192	-0.227	0.272
-211.494	146.591	-0.507	-0.677
-210.479	114.027	-0.485	-0.586
-209.465	-73.427	-0.371	-0.135
-208.450	153.156	0.252	-0.343
-207.436	800.000	0.130	0.392
-206.421	-200.000	-0.141	-0.718
-205.406	-5.958	-0.580	0.394
-204.392	800.000	-0.152	-0.479
-203.377	85.483	-0.332	0.363
-202.363	196.009	-0.456	0.690
-201.348	67.362	0.383	0.389
-200.333	800.000	0.363	1.552
-199.319	-200.000	0.017	0.459
-198.304	-103.290	0.314	-0.074
-197.290	113.398	0.726	0.875
-196.275	-200.000	-0.039	-0.994
-195.260	800.000	-0.164	0.679
-194.246	-87.989	-0.792	0.237
-193.231	-159.370	0.648	0.036
-192.217	1.299	-0.547	0.390
-191.202	800.000	-0.202	0.815
-190.187	-21.728	0.166	-0.101
-189.173	-200.000	0.064	-0.762
-188.158	-139.446	-0.371	-0.040
-187.144	-123.378	-0.523	-0.083
-186.129	800.000	-0.292	0.981
-185.114	-102.642	-0.072	0.017
-184.100	-38.035	-0.452	0.239
-183.085	53.041	0.434	-0.413
-182.071	-200.000	-0.022	-0.859
-181.056	192.565	-0.143	0.214
-180.042	800.000	0.133	-0.376
-179.027	16.961	0.375	0.295
-178.012	-100.838	-0.802	-0.196
-176.998	-200.000	-0.107	0.525
-175.983	-200.000	0.101	0.861
-174.969	502.372	0.154	-0.354
-173.954	76.030	0.364	0.382
-172.939	728.587	-0.139	0.368
-171.925	-49.810	0.308	0.145
-170.910	800.000	-0.157	0.548
-169.896	58.182	-0.670	0.652
-168.881	-200.000	0.035	0.261
-167.866	-200.000	0.014	0.686
-166.852	-157.126	0.714	0.043
-165.837	-101.894	0.300	0.072
-164.823	800.000	-0.134	-0.388
-163.808	29.333	0.094	-0.079
-162.793	800.000	0.029	-0.089
-161.779	18.092	0.437	0.346
-160.764	-200.000	-0.086	-0.661
-159.750	74.903	0.429	0.449
-158.735	610.570	-0.114	-0.282
-157.720	327.684	-0.087	-0.166
-156.706	-100.534	0.711	-0.174
-155.691	-64.271	0.294	-0.119
-154.677	251.002	0.508	0.858
-153.662	14.109	0.440	-0.340
-152.647	620.600	0.144	0.358
-151.633	800.000	-0.451	-1.513
-150.618	-200.000	-0.047	-0.395
-149.604	259.986	-0.328	-0.563
-148.589	177.928	-0.207	-0.299
-147.574	-87.195	-0.431	0.130
-146.560	-119.245	-0.420	-0.073
-145.545	4.954	-0.195	-0.142
-144.531	-8.560	0.103	0.068
-143.516	-127.153	-1.262	0.183
-142.502	-200.000	0.147	0.759
-141.487	124.299	0.278	-0.347
-140.472	-76.050	-0.255	0.089
-139.458	-139.183	0.413	0.044
-138.443	-200.000	-0.071	0.635
-137.429	-45.475	0.317	0.156
-136.414	130.426	-0.415	-0.528
-135.399	-68.821	-0.304	-0.116
-134.385	-200.000	0.041	-0.544
-133.370	-200.000	0.013	0.248
-132.356	800.000	-0.152	0.487
-131.341	70.351	-0.244	0.250
-130.326	-200.000	-0.090	0.578
-129.312	-40.622	0.423	-0.218
-128.297	-152.740	-0.993	-0.070
-127.283	41.071	0.607	0.543
-126.268	18.772	0.655	0.520
-125.253	-200.000	-0.036	0.185
-124.239	-200.000	0.107	0.499
-123.224	-21.981	0.763	-0.459
-122.210	-200.000	0.037	0.338
-121.195	-130.450	0.103	-0.014
