DTS Sentinel unit serial number:	SN413079Multiplexer serial number:	ORYXHardware model number:	OX4-SRSoftware version number:	ORYX F/W v4.00 Oryx Data Collector v3.7.2.0data status	okinstallation	princeton_trtdifferential loss correction	single-endedforward channel	channel 4reverse channel	N/Adate	2019/09/19time	05:05:35forward acquisition time	60.00reverse acquisition time	0.00gamma	496.2192k internal	0.2340k external	0.2340temperature offset calibration	1.0028default loss term (dB/km)	0.3790temperature slope calibration	1.0000multiplexer offset coefficient	1.0000multiplexer slope coefficient	1.0000fibre end	0.00T internal ref (°C)	19.64T ext. ref 1 (°C)	0.61T ext. ref 2 (°C)	12.80length (m)	temperature (°C)	Stokes	anti-Stokes-747.200	0.983	-0.179	0.129
-746.185	-200.000	0.029	0.432
-745.171	-200.000	0.017	0.313
-744.156	7.828	-0.094	0.070
-743.142	-63.413	-0.041	0.017
-742.127	525.609	-0.045	0.105
-741.112	105.326	-0.343	0.406
-740.098	-17.878	0.293	0.184
-739.083	53.098	0.101	0.097
-738.069	-200.000	0.001	0.527
-737.054	119.271	0.122	-0.152
-736.039	150.895	-0.100	-0.136
-735.025	-112.738	-0.112	0.022
-734.010	70.534	-0.120	-0.124
-732.996	800.000	0.061	0.173
-731.981	-200.000	-0.022	-0.360
-730.966	112.828	-0.130	-0.158
-729.952	194.230	-0.069	0.105
-728.937	111.035	-0.258	-0.311
-727.923	564.239	0.041	0.100
-726.908	-133.964	-0.598	0.074
-725.894	-100.478	0.332	0.082
-724.879	800.000	-0.043	-0.187
-723.864	-24.194	-0.367	-0.220
-722.850	-96.568	-0.062	-0.017
-721.835	443.954	0.033	-0.073
-720.821	-22.017	0.283	-0.172
-719.806	754.892	-0.068	-0.185
-718.791	-16.701	0.050	-0.032
-717.777	-6.785	-0.104	-0.071
-716.762	192.584	0.308	-0.466
-715.748	-145.915	-0.172	-0.015
-714.733	227.559	-0.155	0.252
-713.718	263.270	0.125	-0.217
-712.704	-13.543	-0.234	0.152
-711.689	-3.991	0.096	0.067
-710.675	59.485	0.072	-0.071
-709.660	-200.000	0.100	0.501
-708.645	628.173	-0.012	0.030
-707.631	-152.355	0.055	-0.004
-706.616	-102.560	-0.411	0.098
-705.602	-28.219	-0.325	0.188
-704.587	541.491	0.179	0.427
-703.572	-91.865	-0.473	0.134
-702.558	10.830	0.085	0.065
-701.543	287.121	-0.110	-0.199
-700.529	12.189	-0.183	-0.141
-699.514	-26.157	-0.129	-0.076
-698.499	147.147	-0.127	-0.171
-697.485	7.145	-0.222	-0.166
-696.470	-66.121	-0.352	-0.140
-695.456	-43.205	0.111	0.056
-694.441	-36.141	-0.226	-0.122
-693.426	-200.000	0.004	0.253
-692.412	200.189	-0.189	-0.291
-691.397	-200.000	0.008	-0.122
-690.383	282.768	0.046	-0.083
-689.368	214.194	0.234	-0.370
-688.354	-78.530	-0.256	-0.088
-687.339	-139.453	0.109	0.012
-686.324	-52.080	0.160	0.074
-685.310	800.000	-0.069	-0.207
-684.295	637.468	-0.138	-0.352
-683.281	-119.196	0.140	0.024
-682.266	-82.908	-0.502	0.162
-681.251	-125.496	0.273	0.041
-680.237	50.851	-0.213	-0.202
-679.222	-200.000	-0.002	0.111
-678.208	800.000	-0.089	-0.317
-677.193	82.084	-0.203	-0.220
-676.178	-42.981	-0.168	-0.085
-675.164	-166.236	-0.150	-0.006
-674.149	59.776	-0.265	-0.262
-673.135	-200.000	0.022	0.197
-672.120	-71.206	0.051	-0.019
-671.105	26.729	-0.104	0.087
-670.091	800.000	0.054	-0.181
-669.076	-37.339	0.072	0.038
-668.062	454.592	-0.050	-0.112
-667.047	563.355	0.107	-0.258
-666.032	-36.790	-0.221	0.119
-665.018	88.867	-0.071	0.078
-664.003	-200.000	0.031	-0.202
-662.989	-200.000	-0.045	-0.220
-661.974	585.864	0.063	0.156
-660.959	-171.654	-0.177	0.006
-659.945	-97.118	-0.283	0.074
-658.930	-200.000	-0.002	0.413
-657.916	-200.000	-0.179	0.001
-656.901	162.496	0.082	0.115
-655.886	800.000	-0.057	-0.210
-654.872	-200.000	-0.014	-0.075
-653.857	-59.306	-0.140	0.060
-652.843	-177.255	-0.212	0.005
-651.828	800.000	-0.066	-0.190
-650.814	-67.700	-0.164	-0.064
-649.799	74.241	0.425	0.446
-648.784	-102.287	0.242	-0.058
-647.770	800.000	0.041	-0.176
-646.755	-184.539	0.198	-0.003
-645.741	127.611	0.106	0.135
-644.726	-15.509	-0.086	-0.055
-643.711	800.000	0.058	0.176
-642.697	800.000	-0.110	0.383
-641.682	-154.051	-0.153	-0.010
-640.668	-200.000	-0.052	-0.344
-639.653	-107.759	-0.141	-0.031
-638.638	-31.178	-0.234	-0.132
-637.624	253.757	-0.174	0.297
-636.609	-97.065	-0.189	0.050
-635.595	10.879	0.088	0.067
-634.580	-138.016	-0.213	-0.024
-633.565	-129.436	-0.249	0.034
-632.551	-200.000	-0.027	-0.131
-631.536	-200.000	0.002	-0.184
-630.522	37.716	0.173	0.153
-629.507	681.031	-0.089	0.231
-628.492	-70.325	-0.099	0.038
-627.478	-200.000	0.050	0.365
-626.463	-200.000	-0.045	-0.272
-625.449	-200.000	0.005	-0.129
-624.434	-75.755	0.086	-0.031
-623.419	57.450	0.173	0.169
-622.405	-95.592	-0.037	0.010
-621.390	-200.000	0.032	-0.362
-620.376	-200.000	-0.006	0.032
-619.361	-200.000	0.008	0.076
-618.346	201.546	-0.088	-0.135
-617.332	-82.227	0.255	-0.083
-616.317	-105.546	-0.136	-0.031
-615.303	-200.000	0.053	-0.255
-614.288	23.962	-0.253	0.209
-613.273	75.599	-0.057	-0.060
-612.259	32.159	-0.153	0.131
-611.244	800.000	-0.059	-0.196
-610.230	-42.347	-0.164	-0.084
-609.215	-96.864	0.114	-0.030
-608.201	-124.112	-0.327	-0.051
-607.186	-105.285	0.141	-0.032
-606.171	800.000	0.057	-0.169
-605.157	-200.000	-0.004	0.254
-604.142	800.000	0.115	0.355
-603.128	22.709	0.130	-0.106
-602.113	-63.578	-0.283	0.116
-601.098	478.187	0.146	-0.331
-600.084	-124.611	0.195	0.030
-599.069	105.620	-0.086	0.101
-598.055	-200.000	0.042	-0.204
-597.040	76.952	-0.148	0.156
-596.025	-28.510	-0.072	-0.041
-595.011	-124.445	-0.042	0.007
-593.996	-92.848	0.256	0.071
-592.982	-101.451	-0.305	0.074
-591.967	343.845	0.059	0.115
-590.952	-200.000	0.033	0.174
-589.938	452.462	-0.059	-0.131
-588.923	-32.434	0.086	0.048
-587.909	-200.000	-0.015	-0.165
-586.894	-23.604	-0.067	-0.040
-585.879	-16.437	-0.253	-0.160
-584.865	-200.000	0.015	0.192
-583.850	-162.789	-0.135	0.007
-582.836	-119.196	-0.432	0.075
-581.821	287.074	-0.236	0.424
-580.806	353.414	-0.132	0.261
-579.792	-111.728	-0.228	0.046
-578.777	800.000	0.015	-0.054
-577.763	160.898	0.020	-0.028
-576.748	800.000	0.021	-0.064
-575.733	83.287	-0.134	-0.145
-574.719	-200.000	-0.019	-0.296
-573.704	182.076	-0.082	-0.120
-572.690	800.000	-0.105	0.318
-571.675	-200.000	-0.033	0.157
-570.661	-50.379	0.186	-0.087
-569.646	162.913	0.167	-0.233
-568.631	800.000	-0.061	0.196
-567.617	800.000	0.115	0.455
-566.602	-47.675	0.134	0.065
-565.588	101.739	0.161	-0.187
-564.573	-94.590	0.160	-0.043
-563.558	51.888	0.151	-0.143
-562.544	47.084	0.047	-0.043
-561.529	800.000	-0.045	0.178
-560.515	201.966	-0.104	0.160
-559.500	-200.000	0.017	0.375
-558.485	-1.343	0.126	-0.089
-557.471	-168.677	0.136	-0.005
-556.456	98.149	0.116	0.133
-555.442	-21.975	-0.135	0.082
-554.427	-149.631	-0.195	0.015
-553.412	-152.280	0.228	-0.016
-552.398	-5.959	-0.241	-0.164
-551.383	-6.419	0.237	0.161
-550.369	-200.000	-0.078	-0.584
-549.354	387.664	0.088	-0.181
-548.339	-200.000	-0.009	0.403
-547.325	225.796	-0.123	-0.199
-546.310	388.417	0.124	0.254
-545.296	-72.763	-0.186	0.068
-544.281	800.000	-0.030	-0.118
-543.266	-0.869	-0.239	-0.168
-542.252	-55.778	-0.316	-0.141
-541.237	-33.430	-0.386	0.212
-540.223	344.267	0.069	-0.134
-539.208	-166.488	0.151	0.006
-538.193	-200.000	0.025	-0.285
-537.179	-200.000	0.042	-0.226
-536.164	89.330	-0.095	-0.106
-535.150	383.811	0.119	-0.244
-534.135	-156.565	-0.372	0.023
-533.121	-33.065	0.296	-0.163
-532.106	800.000	-0.026	-0.090
-531.091	-25.576	-0.159	0.093
-530.077	-73.587	0.349	0.126
-529.062	-86.750	-0.452	-0.137
-528.048	-76.846	-0.229	-0.080
-527.033	-124.245	0.280	-0.044
-526.018	-35.604	-0.292	-0.158
-525.004	800.000	0.101	-0.414
-523.989	-200.000	-0.057	-0.258
-522.975	387.260	0.136	0.279
-521.960	94.763	-0.061	-0.069
-520.945	-33.537	-0.383	-0.210
-519.931	-200.000	0.012	-0.253
-518.916	-134.413	-0.444	0.054
-517.902	-64.880	0.206	0.083
-516.887	-68.494	-0.127	0.049
-515.872	-200.000	-0.007	-0.151
-514.858	-30.249	0.093	0.053
-513.843	-47.269	-0.389	-0.188
-512.829	158.692	-0.183	0.253
-511.814	549.924	0.143	0.340
-510.799	-139.336	-0.161	0.017
-509.785	146.399	-0.022	0.029
-508.770	-41.942	-0.266	-0.135
-507.756	26.722	0.127	-0.105
-506.741	381.380	-0.057	0.116
-505.726	-101.243	-0.199	-0.048
-504.712	-95.570	-0.182	-0.048
-503.697	41.712	-0.017	-0.015
-502.683	-112.411	0.311	0.062
-501.668	-101.825	-0.230	-0.055
-500.653	-80.551	0.366	-0.121
-499.639	31.546	-0.046	0.040
-498.624	-15.284	0.277	0.176
-497.610	-200.000	-0.017	0.079
-496.595	3.693	-0.248	0.180
-495.581	-111.088	0.333	-0.068
-494.566	-181.766	-0.268	0.005
-493.551	8.904	0.162	-0.121
-492.537	-200.000	-0.003	0.204
-491.522	270.223	0.089	0.155
-490.508	191.966	-0.124	0.186
-489.493	-125.394	-0.251	-0.038
-488.478	800.000	-0.056	0.213
-487.464	800.000	0.018	0.069
-486.449	-200.000	0.007	0.102
-485.435	-200.000	0.062	0.277
-484.420	-149.185	-0.156	0.012
-483.405	-76.967	0.318	0.110
-482.391	23.209	0.075	-0.061
-481.376	771.800	-0.058	0.156
-480.362	50.714	0.097	0.091
-479.347	800.000	-0.101	0.325
-478.332	224.233	-0.266	0.426
-477.318	-95.696	0.242	-0.064
-476.303	-200.000	0.028	-0.202
-475.289	-71.191	-0.405	0.151
-474.274	-35.100	0.205	0.111
-473.259	-82.632	0.331	-0.106
-472.245	-10.617	-0.154	-0.101
-471.230	800.000	0.072	-0.297
-470.216	31.714	0.147	0.126
-469.201	-200.000	0.050	-0.258
-468.186	800.000	0.046	-0.171
-467.172	3.429	-0.221	-0.159
-466.157	153.277	0.192	0.261
-465.143	0.626	-0.029	0.021
-464.128	-109.245	-0.261	0.055
-463.113	-200.000	-0.024	0.143
-462.099	800.000	0.069	-0.196
-461.084	-68.698	-0.154	0.059
-460.070	-51.308	0.113	0.053
-459.055	48.466	-0.314	0.291
-458.040	35.844	-0.209	-0.182
-457.026	800.000	-0.081	-0.298
-456.011	46.077	0.089	0.082
-454.997	-47.842	-0.363	-0.174
-453.982	-200.000	-0.006	-0.221
-452.968	94.292	-0.271	-0.305
-451.953	800.000	-0.056	-0.169
-450.938	-163.294	-0.483	-0.023
-449.924	-57.319	0.120	-0.052
-448.909	-200.000	-0.019	0.157
-447.895	-47.844	-0.200	-0.096
-446.880	-100.972	-0.479	-0.117
-445.865	377.616	0.040	-0.082
-444.851	-200.000	-0.021	-0.294
-443.836	800.000	0.086	-0.237
-442.822	72.165	-0.076	0.079
-441.807	800.000	-0.079	0.259
-440.792	-5.858	0.154	0.104
-439.778	800.000	-0.069	-0.243
-438.763	-200.000	0.024	0.201
-437.749	-1.403	0.045	0.032
-436.734	-200.000	-0.004	-0.147
-435.719	-200.000	-0.086	0.377
-434.705	-132.136	0.106	-0.014
-433.690	-185.854	0.399	-0.006
-432.676	800.000	-0.095	0.320
-431.661	101.064	0.228	0.262
-430.646	87.915	0.140	0.154
-429.632	-138.813	-0.181	-0.020
-428.617	-129.372	0.218	0.030
-427.603	328.731	0.078	0.149
-426.588	-100.505	-0.244	-0.060
-425.573	-23.027	0.058	0.035
-424.559	-7.870	-0.352	0.235
-423.544	-200.000	-0.004	0.292
-422.530	-105.939	0.295	-0.066
-421.515	-113.807	0.182	-0.035
-420.500	-64.920	0.105	-0.042
-419.486	211.188	0.124	0.193
-418.471	-114.465	-0.341	-0.065
-417.457	-99.716	-0.265	0.066
-416.442	-200.000	0.029	-0.467
-415.428	219.190	-0.108	-0.171
-414.413	-151.128	0.204	-0.015
-413.398	-35.700	-0.031	-0.016
-412.384	-1.584	-0.172	-0.120
-411.369	-101.376	0.112	0.027
-410.355	422.904	0.038	-0.081
-409.340	293.843	0.149	-0.269
-408.325	44.157	0.298	-0.270
-407.311	6.344	0.077	-0.056
-406.296	-88.269	0.265	0.079
-405.282	134.096	0.064	0.081
-404.267	5.573	-0.041	-0.030
-403.252	-50.674	-0.131	-0.061
-402.238	-200.000	0.017	0.169
-401.223	-149.562	0.107	-0.008
-400.209	-75.057	0.060	0.021
-399.194	52.646	0.198	-0.187
-398.179	609.245	0.023	0.056
-397.165	-135.509	-0.393	-0.046
-396.150	-2.442	0.281	-0.195
-395.136	140.502	-0.112	0.146
-394.121	736.995	0.144	0.382
-393.106	-161.174	0.082	-0.004
-392.092	-119.446	0.054	0.009
-391.077	19.092	0.230	-0.182
-390.063	499.642	0.086	-0.196
-389.048	-122.463	0.241	-0.039
-388.033	-185.634	0.178	0.003
-387.019	-87.588	0.257	0.077
-386.004	13.769	0.154	0.118
-384.990	165.971	-0.081	-0.113
-383.975	41.937	0.307	0.275
-382.960	89.645	0.072	-0.079
-381.946	38.702	-0.124	-0.109
-380.931	395.986	0.080	-0.165
-379.917	15.811	0.179	-0.139
-378.902	62.499	-0.139	0.137
-377.888	-118.534	0.117	0.020
-376.873	123.840	-0.197	-0.245
-375.858	2.869	-0.214	-0.154
-374.844	520.532	0.045	0.104
-373.829	-100.353	-0.257	-0.063
-372.815	800.000	0.063	0.175
-371.800	288.322	-0.198	-0.355
-370.785	155.067	0.166	-0.226
-369.771	149.855	-0.138	-0.184
-368.756	-176.194	0.145	0.004
-367.742	-148.460	-0.062	0.005
-366.727	204.793	0.159	-0.243
-365.712	365.936	-0.035	-0.069
-364.698	322.128	-0.105	-0.198
-363.683	293.072	-0.109	-0.197
-362.669	294.247	0.166	-0.300
-361.654	433.184	0.055	0.118
-360.639	-200.000	-0.022	-0.139
-359.625	39.179	-0.191	0.169
-358.610	-122.030	0.286	-0.046
-357.596	-174.708	-0.176	-0.005
-356.581	-45.518	-0.410	-0.201
-355.566	-64.277	-0.364	-0.147
-354.552	316.450	-0.070	-0.130
-353.537	-69.755	0.360	0.136
-352.523	188.931	0.132	0.194
-351.508	-0.028	0.481	-0.338
-350.493	-28.250	0.177	0.101
-349.479	3.154	-0.243	-0.175
-348.464	-47.258	0.027	0.013
-347.450	0.908	0.250	-0.177
-346.435	-200.000	-0.002	-0.102
-345.420	2.447	0.093	0.066
-344.406	-45.107	-0.133	0.065
-343.391	65.241	0.090	-0.090
-342.377	414.846	0.172	0.362
-341.362	200.468	0.116	-0.176
-340.348	510.252	0.134	0.308
-339.333	800.000	0.035	0.139
-338.318	31.450	-0.156	-0.132
-337.304	-8.071	0.350	-0.233
-336.289	37.909	0.220	-0.193
-335.275	-97.104	-0.101	0.026
-334.260	-100.100	-0.137	-0.034
-333.245	-47.412	-0.394	0.189
-332.231	146.502	0.156	0.206
-331.216	205.800	-0.162	0.249
-330.202	-200.000	0.112	-0.565
-329.187	145.707	0.100	-0.133
-328.172	256.882	0.149	-0.253
-327.158	-181.295	0.068	0.001
-326.143	652.451	-0.047	0.119
-325.129	-25.546	0.389	-0.226
-324.114	36.754	0.186	-0.162
-323.099	79.440	0.104	0.110
-322.085	-94.574	0.141	0.038
-321.070	296.609	0.093	0.168
-320.056	-200.000	-0.028	-0.130
-319.041	800.000	-0.005	0.020
-318.026	800.000	0.106	0.340
-317.012	18.818	0.321	-0.254
-315.997	-118.321	0.068	0.012
-314.983	-200.000	0.049	-0.253
-313.968	-99.977	0.124	0.030
-312.953	392.348	0.082	-0.169
-311.939	-142.061	-0.222	-0.022
-310.924	710.167	0.013	-0.035
-309.910	-200.000	0.037	0.283
-308.895	800.000	-0.013	0.038
-307.880	-200.000	0.004	0.182
-306.866	191.236	-0.175	0.259
-305.851	-76.448	0.272	0.094
-304.837	-175.306	-0.312	0.008
-303.822	90.360	-0.109	-0.120
-302.807	-200.000	0.027	-0.366
-301.793	690.694	0.036	0.092
-300.778	25.113	-0.076	0.062
-299.764	-113.389	-0.219	-0.042
-298.749	-21.683	-0.292	0.175
-297.735	511.014	-0.040	0.092
-296.720	-195.062	-0.156	0.001
-295.705	339.873	0.074	0.142
-294.691	-6.958	-0.203	-0.136
-293.676	-43.501	-0.140	-0.070
-292.662	56.186	0.279	0.267
-291.647	-127.997	-0.258	-0.036
-290.632	70.993	-0.081	0.083
-289.618	-14.090	0.158	0.101
-288.603	-200.000	-0.034	-0.298
-287.589	303.794	0.082	0.150
-286.574	-200.000	0.034	-0.177
-285.559	-200.000	0.001	0.193
-284.545	-118.354	-0.257	-0.045
-283.530	-30.935	0.230	0.128
-282.516	357.634	0.021	0.041
-281.501	-135.417	-0.375	-0.044
-280.486	-21.009	-0.084	-0.050
-279.472	-149.278	0.190	-0.015
-278.457	-38.838	0.296	0.153
-277.443	-184.010	0.490	0.008
-276.428	-200.000	0.037	0.289
-275.413	-77.949	-0.143	-0.048
-274.399	172.957	0.051	-0.072
-273.384	-104.675	-0.178	0.040
-272.370	-54.119	0.161	0.072
-271.355	-200.000	-0.256	0.001
-270.340	-1.367	0.178	0.124
-269.326	-1.100	-0.065	-0.045
-268.311	116.270	0.164	0.198
-267.297	-193.245	0.350	0.003
-266.282	39.542	0.124	-0.109
-265.267	99.518	0.271	-0.308
-264.253	-200.000	-0.092	0.400
-263.238	35.802	-0.179	0.155
-262.224	-59.569	-0.150	-0.063
-261.209	-200.000	-0.006	0.066
-260.195	-108.557	0.278	-0.059
-259.180	126.837	-0.125	-0.156
-258.165	66.141	-0.070	0.070
-257.151	166.924	0.081	0.113
-256.136	412.584	0.114	-0.238
-255.122	-200.000	-0.034	-0.158
-254.107	800.000	0.076	0.293
-253.092	95.321	0.278	0.312
-252.078	583.088	-0.124	-0.299
-251.063	51.513	-0.106	-0.099
-250.049	210.589	-0.048	0.074
-249.034	-117.420	-0.085	0.015
-248.019	-117.383	0.238	-0.042
-247.005	-198.871	0.154	-0.001
-245.990	221.451	0.130	0.205
-244.976	-200.000	-0.011	-0.133
-243.961	-34.169	0.065	0.035
-242.946	17.169	-0.184	0.143
-241.932	-154.214	0.172	0.011
-240.917	-144.151	0.238	0.022
-239.903	-200.000	0.025	0.228
-238.888	639.145	0.070	-0.174
-237.873	-54.823	-0.207	0.092
-236.859	-167.566	0.158	-0.006
-235.844	332.210	-0.073	0.138
-234.830	800.000	0.073	-0.270
-233.815	800.000	-0.029	0.091
-232.800	387.440	0.056	-0.114
-231.786	141.585	0.087	0.113
-230.771	800.000	0.052	-0.148
-229.757	-39.432	0.416	-0.214
-228.742	800.000	-0.063	-0.225
-227.727	652.730	-0.066	0.166
-226.713	383.287	0.138	-0.279
-225.698	-47.759	-0.226	-0.108
-224.684	-200.000	-0.072	-0.508
-223.669	-115.605	0.240	0.044
-222.655	-138.145	-0.118	-0.013
-221.640	-123.477	0.297	0.046
-220.625	12.528	-0.281	0.213
-219.611	-81.897	0.133	-0.043
-218.596	-103.176	-0.119	-0.028
-217.582	247.503	-0.149	-0.247
-216.567	-75.349	0.048	0.017
-215.552	-124.816	-0.237	0.036
-214.538	-15.796	0.256	-0.160
-213.523	161.778	0.039	-0.054
-212.509	-200.000	-0.120	0.549
-211.494	137.885	0.175	-0.225
-210.479	800.000	-0.090	-0.319
-209.465	269.346	-0.021	0.035
-208.450	-200.000	0.027	-0.182
-207.436	-18.557	-0.254	0.156
-206.421	800.000	-0.096	0.319
-205.406	467.243	0.160	0.352
-204.392	-182.359	-0.193	-0.004
-203.377	-70.545	0.048	0.018
-202.363	171.520	-0.168	-0.237
-201.348	728.977	0.083	0.218
-200.333	-167.403	-0.172	-0.007
-199.319	-163.165	0.117	-0.006
-198.304	-200.000	0.022	0.163
-197.290	106.258	-0.194	-0.226
-196.275	77.885	-0.214	0.224
-195.260	55.220	-0.092	0.087
-194.246	621.650	0.107	0.265
-193.231	800.000	0.050	0.171
-192.217	65.951	0.158	-0.157
-191.202	-155.060	0.180	0.012
-190.187	112.005	-0.175	-0.208
-189.173	-200.000	-0.015	0.346
-188.158	405.178	-0.281	0.581
-187.144	-38.287	0.209	0.109
-186.129	-48.271	0.242	-0.114
-185.114	-200.000	0.047	-0.602
-184.100	-123.872	0.079	-0.012
-183.085	800.000	-0.074	0.238
-182.071	46.052	0.083	0.075
-181.056	108.852	0.318	0.373
-180.042	-51.678	-0.182	-0.083
-179.027	63.541	-0.110	0.108
-178.012	129.192	0.113	-0.142
-176.998	-37.057	-0.086	0.045
-175.983	-108.217	0.426	-0.090
-174.969	269.328	0.087	-0.149
-173.954	100.252	0.082	0.093
-172.939	-200.000	-0.015	0.168
-171.925	-1.171	0.142	-0.098
-170.910	-200.000	-0.026	0.271
-169.896	-30.735	0.081	0.045
-168.881	53.567	-0.084	-0.079
-167.866	-50.389	0.399	0.185
-166.852	-198.993	-0.115	-0.001
-165.837	-98.400	-0.228	-0.057
-164.823	-42.697	0.143	0.072
-163.808	-138.315	-0.132	0.014
-162.793	-59.937	-0.180	-0.075
-161.779	80.860	0.153	-0.162
-160.764	-38.059	0.272	-0.141
-159.750	800.000	-0.047	0.140
-158.735	208.695	-0.057	-0.088
-157.720	-200.000	-0.032	0.386
-156.706	-123.734	-0.135	0.021
-155.691	123.735	-0.062	0.077
-154.677	-141.278	-0.233	-0.023
-153.662	158.734	0.165	0.224
-152.647	800.000	-0.017	-0.073
-151.633	-128.418	-0.171	0.024
-150.618	207.140	0.026	0.039
-149.604	217.661	-0.099	0.155
-148.589	62.887	0.184	0.180
-147.574	276.128	-0.062	0.108
-146.560	-200.000	0.067	0.438
-145.545	-66.301	-0.142	0.055
-144.531	-137.174	0.114	0.013
-143.516	776.353	0.049	0.131
-142.502	212.707	-0.118	-0.182
-141.487	106.430	0.252	0.292
-140.472	-97.732	0.372	0.094
-139.458	301.570	-0.210	0.380
-138.443	-102.383	0.380	0.089
-137.429	-8.489	-0.193	0.127
-136.414	-86.703	0.153	-0.046
-135.399	800.000	0.068	-0.244
-134.385	-101.014	0.180	-0.043
-133.370	-107.956	-0.352	0.075
-132.356	778.377	-0.082	-0.219
-131.341	409.649	0.131	0.271
-130.326	121.268	-0.093	-0.114
-129.312	167.685	0.168	-0.234
-128.297	-200.000	-0.033	0.180
-127.283	-105.153	-0.350	0.078
-126.268	103.808	0.153	-0.175
-125.253	257.085	0.181	-0.304
-124.239	-11.427	0.188	-0.121
-123.224	-66.280	-0.088	0.034
-122.210	-200.000	-0.026	0.186
