DTS Sentinel unit serial number:	SN413079Multiplexer serial number:	ORYXHardware model number:	OX4-SRSoftware version number:	ORYX F/W v4.00 Oryx Data Collector v3.7.2.0data status	okinstallation	princeton_trtdifferential loss correction	single-endedforward channel	channel 4reverse channel	N/Adate	2019/09/18time	01:33:35forward acquisition time	60.00reverse acquisition time	0.00gamma	496.2192k internal	0.2334k external	0.2334temperature offset calibration	0.9997default loss term (dB/km)	0.3790temperature slope calibration	1.0000multiplexer offset coefficient	1.0000multiplexer slope coefficient	1.0000fibre end	0.00T internal ref (°C)	23.06T ext. ref 1 (°C)	0.16T ext. ref 2 (°C)	16.74length (m)	temperature (°C)	Stokes	anti-Stokes-747.200	-155.479	0.203	0.013
-746.185	90.659	-0.080	0.090
-745.171	800.000	-0.066	-0.272
-744.156	-200.000	-0.189	0.000
-743.142	-98.488	0.342	-0.088
-742.127	64.684	-0.285	0.289
-741.112	522.561	-0.225	0.532
-740.098	-27.749	0.085	-0.049
-739.083	-128.797	0.288	-0.041
-738.069	-65.897	-0.278	0.112
-737.054	93.319	-0.079	-0.090
-736.039	11.175	-0.143	-0.110
-735.025	-101.281	0.088	0.022
-734.010	-200.000	0.034	-0.222
-732.996	262.040	-0.217	0.379
-731.981	-152.777	0.149	0.011
-730.966	-200.000	-0.015	-0.167
-729.952	252.830	-0.040	-0.069
-728.937	-32.058	0.251	0.141
-727.923	72.506	-0.177	-0.185
-726.908	390.608	0.163	0.339
-725.894	-52.446	0.161	-0.075
-724.879	-38.285	-0.080	-0.043
-723.864	282.784	0.056	0.100
-722.850	-126.080	-0.344	-0.052
-721.835	484.458	-0.103	0.235
-720.821	-131.536	0.195	-0.026
-719.806	800.000	0.042	-0.144
-718.791	69.743	-0.146	0.152
-717.777	-65.681	-0.236	-0.095
-716.762	-124.134	-0.343	-0.054
-715.748	10.488	0.122	0.093
-714.733	-175.875	-0.344	-0.009
-713.718	-71.675	-0.223	-0.084
-712.704	-200.000	0.023	-0.233
-711.689	44.652	-0.617	-0.570
-710.675	-100.978	0.176	0.043
-709.660	-92.272	0.260	-0.074
-708.645	30.839	-0.097	0.083
-707.631	98.719	-0.125	0.144
-706.616	363.348	0.047	0.095
-705.602	-200.000	0.006	0.390
-704.587	3.295	0.283	-0.207
-703.572	34.460	0.125	-0.109
-702.558	-123.089	-0.085	-0.014
-701.543	263.373	0.110	0.192
-700.529	-45.666	-0.173	0.086
-699.514	-136.301	-0.079	-0.009
-698.499	800.000	0.194	0.570
-697.485	-29.166	-0.128	-0.074
-696.470	3.580	-0.142	-0.104
-695.456	-200.000	-0.060	-0.617
-694.441	-131.054	-0.104	0.014
-693.426	-200.000	-0.260	-0.001
-692.412	-112.939	0.201	-0.040
-691.397	244.858	-0.041	-0.070
-690.383	-200.000	0.050	-0.301
-689.368	-11.620	-0.251	0.165
-688.354	787.700	-0.059	0.162
-687.339	-81.450	-0.242	0.080
-686.324	-1.666	0.189	-0.134
-685.310	-65.583	0.062	0.025
-684.295	15.710	-0.134	0.105
-683.281	148.321	-0.042	-0.057
-682.266	800.000	-0.015	-0.049
-681.251	-53.661	0.368	-0.169
-680.237	111.150	-0.182	0.220
-679.222	800.000	0.113	-0.407
-678.208	800.000	-0.090	0.300
-677.193	-55.426	0.450	0.202
-676.178	-200.000	0.068	-0.370
-675.164	-45.502	-0.290	-0.144
-674.149	-57.238	-0.047	0.021
-673.135	342.008	0.181	0.356
-672.120	-113.457	0.166	0.033
-671.105	-200.000	0.008	-0.136
-670.091	-200.000	0.013	0.170
-669.076	101.106	0.285	-0.332
-668.062	-83.466	0.389	-0.125
-667.047	-200.000	-0.035	-0.212
-666.032	800.000	0.029	0.111
-665.018	62.763	0.015	-0.015
-664.003	12.131	-0.151	0.116
-662.989	-200.000	0.000	-0.094
-661.974	-144.381	-0.113	0.011
-660.959	-135.720	0.327	0.039
-659.945	-174.375	-0.128	0.004
-658.930	-94.415	0.257	-0.070
-657.916	432.474	-0.093	-0.202
-656.901	-86.540	-0.109	0.033
-655.886	-200.000	-0.010	-0.226
-654.872	-85.403	0.247	0.077
-653.857	-9.074	0.163	0.109
-652.843	800.000	-0.047	0.155
-651.828	353.058	-0.051	-0.102
-650.814	101.968	0.192	-0.224
-649.799	800.000	-0.034	-0.124
-648.784	213.992	0.092	-0.146
-647.770	800.000	0.044	0.155
-646.755	-86.420	-0.053	-0.016
-645.741	542.232	-0.038	-0.090
-644.726	-34.320	0.193	0.106
-643.711	-98.133	0.100	-0.026
-642.697	-83.673	0.361	-0.115
-641.682	-99.721	-0.151	-0.038
-640.668	-200.000	-0.048	-0.279
-639.653	-128.579	0.202	-0.029
-638.638	-200.000	0.015	-0.431
-637.624	-57.169	-0.299	0.132
-636.609	37.584	0.207	-0.184
-635.595	348.151	-0.076	0.150
-634.580	800.000	0.030	0.087
-633.565	-68.174	-0.364	0.142
-632.551	130.828	0.139	0.179
-631.536	-184.684	-0.130	-0.002
-630.522	-29.255	0.236	-0.135
-629.507	800.000	-0.019	-0.052
-628.492	-68.465	-0.205	-0.080
-627.478	-78.982	0.224	-0.076
-626.463	216.829	-0.335	0.533
-625.449	255.341	0.068	-0.117
-624.434	-200.000	0.041	-0.240
-623.419	-187.776	0.305	0.004
-622.405	22.839	0.340	-0.278
-621.390	521.443	0.022	0.053
-620.376	174.706	0.137	0.198
-619.361	800.000	0.128	0.360
-618.346	137.315	-0.065	0.085
-617.332	-200.000	-0.018	0.347
-616.317	-200.000	-0.037	-0.303
-615.303	-55.937	-0.096	0.043
-614.288	-132.991	0.184	0.023
-613.273	-89.481	-0.168	-0.049
-612.259	151.106	0.052	-0.070
-611.244	-130.646	0.250	0.034
-610.230	-200.000	0.025	0.443
-609.215	327.352	0.023	0.043
-608.201	-65.034	0.275	-0.111
-607.186	-31.852	-0.110	0.062
-606.171	-51.054	-0.127	0.059
-605.157	161.364	-0.100	-0.140
-604.142	216.897	-0.125	-0.198
-603.128	-34.812	-0.112	0.061
-602.113	-62.568	0.199	0.082
-601.098	703.389	-0.072	-0.191
-600.084	-23.451	-0.096	0.058
-599.069	-148.594	-0.100	0.008
-598.055	-94.648	-0.299	0.081
-597.040	800.000	-0.073	-0.287
-596.025	800.000	0.024	0.099
-595.011	512.707	-0.102	0.238
-593.996	-131.874	-0.239	0.031
-592.982	260.418	-0.006	0.011
-591.967	2.363	-0.193	0.140
-590.952	-200.000	-0.015	-0.245
-589.938	407.677	-0.086	0.181
-588.923	28.579	0.064	-0.054
-587.909	-30.587	0.045	0.025
-586.894	91.837	0.253	0.284
-585.879	540.495	-0.077	0.184
-584.865	-86.198	-0.180	-0.055
-583.850	296.887	0.157	-0.289
-582.836	391.339	0.111	-0.230
-581.821	130.412	0.245	-0.314
-580.806	-109.446	-0.399	-0.084
-579.792	-59.636	-0.301	0.129
-578.777	54.518	-0.251	-0.242
-577.763	205.139	0.087	-0.134
-576.748	-14.692	-0.233	0.149
-575.733	-67.395	0.277	-0.109
-574.719	-102.536	-0.070	-0.017
-573.704	-78.405	0.260	0.089
-572.690	-142.816	0.044	-0.004
-571.675	747.097	-0.144	0.387
-570.661	-138.577	0.089	-0.010
-569.646	800.000	-0.060	0.174
-568.631	-117.113	-0.176	0.032
-567.617	438.334	0.078	0.171
-566.602	-22.264	0.303	-0.183
-565.588	-15.342	-0.172	0.110
-564.573	-13.671	0.072	0.046
-563.558	800.000	-0.023	0.084
-562.544	-60.411	0.172	-0.073
-561.529	449.928	-0.092	-0.202
-560.515	224.864	0.171	0.275
-559.500	275.672	0.113	-0.201
-558.485	16.085	0.067	0.052
-557.471	24.614	0.179	-0.148
-556.456	227.086	0.015	-0.025
-555.442	331.111	-0.019	0.037
-554.427	240.998	-0.051	-0.085
-553.412	-200.000	-0.075	0.448
-552.398	43.346	-0.133	0.121
-551.383	458.471	-0.070	0.155
-550.369	504.608	-0.052	0.120
-549.354	800.000	-0.110	0.374
-548.339	-49.585	-0.158	0.075
-547.325	307.662	0.146	-0.271
-546.310	-72.017	0.161	0.060
-545.296	-200.000	-0.004	0.224
-544.281	-8.189	-0.055	-0.037
-543.266	57.520	-0.072	-0.070
-542.252	-11.659	-0.218	0.143
-541.237	-6.428	0.355	-0.242
-540.223	-194.761	0.171	0.001
-539.208	191.039	-0.128	-0.192
-538.193	-73.072	0.117	0.043
-537.179	800.000	-0.063	-0.265
-536.164	-69.606	-0.190	0.073
-535.150	-155.135	-0.217	0.014
-534.135	-36.118	0.235	0.127
-533.121	-130.274	-0.403	0.055
-532.106	-200.000	0.018	-0.311
-531.091	341.300	-0.092	-0.178
-530.077	-160.178	-0.184	0.010
-529.062	22.444	0.124	-0.101
-528.048	-200.000	0.020	-0.219
-527.033	-200.000	0.060	0.276
-526.018	231.060	0.069	0.113
-525.004	-96.876	0.150	0.039
-523.989	141.456	-0.302	0.398
-522.975	-200.000	0.006	-0.031
-521.960	138.128	-0.102	-0.133
-520.945	-32.315	-0.124	0.069
-519.931	-86.095	0.148	-0.045
-518.916	800.000	0.043	-0.141
-517.902	-200.000	0.018	-0.165
-516.887	-16.917	-0.075	0.047
-515.872	-119.848	0.476	-0.082
-514.858	-103.813	0.086	0.020
-513.843	-85.901	0.228	0.070
-512.829	-116.584	-0.276	-0.051
-511.814	800.000	-0.072	-0.281
-510.799	-85.575	-0.253	0.078
-509.785	-71.063	0.308	0.116
-508.770	429.693	-0.068	0.147
-507.756	-131.445	-0.106	0.014
-506.741	-150.931	0.332	-0.025
-505.726	-83.418	-0.190	0.061
-504.712	-125.265	0.329	-0.050
-503.697	21.692	-0.156	-0.127
-502.683	800.000	-0.077	0.222
-501.668	-192.620	0.210	-0.002
-500.653	-149.343	0.317	0.025
-499.639	-80.675	-0.311	-0.103
-498.624	-153.472	-0.033	0.002
-497.610	87.833	-0.081	0.090
-496.595	-200.000	-0.001	-0.167
-495.581	-113.868	-0.103	0.020
-494.566	-200.000	-0.017	0.225
-493.551	687.829	-0.097	-0.254
-492.537	-41.283	-0.300	-0.154
-491.522	-67.826	-0.110	-0.043
-490.508	-133.872	0.143	0.018
-489.493	-200.000	0.019	-0.122
-488.478	-200.000	-0.019	-0.239
-487.464	800.000	-0.062	-0.230
-486.449	480.362	0.158	-0.357
-485.435	675.923	-0.110	-0.284
-484.420	54.312	-0.033	0.031
-483.405	75.173	-0.232	-0.244
-482.391	89.821	0.060	0.067
-481.376	-141.077	-0.332	0.034
-480.362	-11.749	-0.099	-0.065
-479.347	800.000	-0.049	-0.177
-478.332	435.082	-0.069	-0.149
-477.318	-200.000	0.033	0.170
-476.303	385.001	0.058	-0.119
-475.289	-200.000	-0.061	0.336
-474.274	87.037	0.032	-0.035
-473.259	800.000	-0.094	-0.405
-472.245	-200.000	0.018	-0.229
-471.230	174.225	0.186	0.267
-470.216	-200.000	-0.009	-0.109
-469.201	-46.485	-0.163	-0.080
-468.186	190.072	0.217	0.323
-467.172	-200.000	0.033	0.516
-466.157	-21.970	0.115	-0.070
-465.143	-186.583	-0.263	-0.004
-464.128	18.296	0.153	0.121
-463.113	-99.373	0.411	0.103
-462.099	-61.416	-0.160	0.067
-461.084	-108.237	0.144	-0.031
-460.070	161.089	-0.329	0.456
-459.055	800.000	-0.030	0.105
-458.040	800.000	-0.027	-0.091
-457.026	-149.669	-0.307	0.024
-456.011	-200.000	0.030	0.158
-454.997	233.299	-0.097	-0.159
-453.982	-150.080	-0.272	0.021
-452.968	-172.028	0.148	-0.005
-451.953	-170.225	-0.070	-0.002
-450.938	32.090	0.088	0.075
-449.924	-147.961	0.498	-0.041
-448.909	177.512	-0.216	-0.313
-447.895	102.307	-0.125	0.145
-446.880	125.184	-0.356	-0.446
-445.865	-200.000	0.007	-0.128
-444.851	-128.381	-0.244	0.034
-443.836	-37.549	0.062	-0.033
-442.822	79.886	0.209	-0.223
-441.807	57.885	-0.039	-0.038
-440.792	800.000	0.036	0.120
-439.778	-131.718	-0.070	-0.009
-438.763	60.976	-0.337	0.332
-437.749	800.000	0.041	0.125
-436.734	-38.197	-0.133	-0.070
-435.719	-113.748	0.380	-0.074
-434.705	701.936	-0.084	-0.220
-433.690	-73.846	-0.087	-0.032
-432.676	-31.595	-0.146	-0.082
-431.661	49.888	0.229	-0.214
-430.646	122.764	-0.215	0.267
-429.632	10.637	-0.256	0.194
-428.617	12.963	0.173	-0.133
-427.603	-73.072	-0.255	0.093
-426.588	272.786	0.065	0.114
-425.573	309.989	0.120	-0.223
-424.559	-200.000	-0.001	0.041
-423.544	159.693	-0.010	0.013
-422.530	356.778	-0.087	0.172
-421.515	-103.194	-0.208	-0.049
-420.500	800.000	0.008	-0.034
-419.486	-200.000	-0.006	-0.185
-418.471	-200.000	0.007	0.065
-417.457	-68.526	-0.320	0.123
-416.442	407.116	0.056	0.117
-415.428	112.656	-0.159	-0.191
-414.413	372.313	-0.033	-0.067
-413.398	270.197	0.109	-0.191
-412.384	664.442	-0.127	0.325
-411.369	-108.483	-0.286	0.061
-410.355	-154.388	0.071	0.005
-409.340	105.575	0.255	0.299
-408.325	-43.548	0.125	-0.062
-407.311	-200.000	-0.017	0.076
-406.296	-59.602	-0.025	-0.011
-405.282	-184.357	0.123	0.002
-404.267	-135.043	0.062	0.007
-403.252	-73.063	-0.209	0.076
-402.238	-155.052	-0.109	0.007
-401.223	232.699	0.032	0.052
-400.209	800.000	0.081	0.248
-399.194	-91.817	-0.036	0.010
-398.179	15.050	0.231	0.179
-397.165	150.887	0.274	0.369
-396.150	-70.440	0.386	-0.145
-395.136	-200.000	0.013	-0.452
-394.121	83.876	-0.102	-0.111
-393.106	-123.602	0.195	0.031
-392.092	-200.000	0.007	-0.225
-391.077	-134.125	-0.371	0.045
-390.063	-83.385	0.185	-0.059
-389.048	80.823	-0.252	-0.270
-388.033	-200.000	0.040	-0.216
-387.019	-200.000	-0.006	-0.223
-386.004	393.454	0.097	-0.201
-384.990	-61.499	-0.219	0.091
-383.975	-23.700	0.016	-0.010
-382.960	-8.199	0.242	-0.161
-381.946	433.232	-0.194	-0.417
-380.931	-200.000	0.033	0.250
-379.917	-200.000	0.006	0.234
-378.902	-200.000	0.006	-0.169
-377.888	-46.072	0.183	0.089
-376.873	538.593	-0.083	0.194
-375.858	-110.331	0.109	-0.022
-374.844	-64.981	0.268	0.107
-373.829	237.053	0.043	0.071
-372.815	-36.909	-0.410	0.218
-371.800	800.000	0.101	0.298
-370.785	-200.000	0.028	-0.244
-369.771	-200.000	-0.004	-0.206
-368.756	-200.000	0.096	0.521
-367.742	25.525	0.310	-0.255
-366.727	37.036	0.181	-0.159
-365.712	-200.000	-0.018	-0.255
-364.698	-128.025	-0.120	-0.017
-363.683	-65.276	-0.108	-0.043
-362.669	132.921	-0.109	0.139
-361.654	340.152	-0.104	0.201
-360.639	-200.000	0.045	0.367
-359.625	800.000	0.064	0.272
-358.610	194.267	0.020	-0.030
-357.596	38.866	0.175	0.154
-356.581	-122.498	-0.226	0.036
-355.566	10.089	0.343	-0.258
-354.552	-200.000	-0.022	-0.241
-353.537	287.190	0.123	-0.220
-352.523	32.095	0.219	0.187
-351.508	-200.000	0.048	-0.237
-350.493	164.815	-0.158	-0.221
-349.479	85.228	0.231	0.251
-348.464	-200.000	0.055	0.262
-347.450	-0.003	-0.222	0.157
-346.435	-200.000	-0.020	-0.132
-345.420	-200.000	-0.012	0.223
-344.406	667.175	0.103	0.263
-343.391	-128.839	0.162	-0.023
-342.377	-200.000	-0.008	0.073
-341.362	-36.072	0.148	-0.079
-340.348	-158.562	-0.436	-0.025
-339.333	-120.129	0.431	-0.073
-338.318	150.239	-0.137	0.184
-337.304	-193.453	-0.087	-0.001
-336.289	800.000	-0.037	0.148
-335.275	31.629	-0.171	0.145
-334.260	-45.293	-0.198	0.097
-333.245	-81.619	0.241	0.078
-332.231	-107.754	-0.421	0.091
-331.216	-57.791	0.270	0.117
-330.202	-136.046	0.370	0.043
-329.187	-200.000	-0.032	-0.276
-328.172	-106.355	0.086	-0.019
-327.158	-38.069	-0.157	0.082
-326.143	419.139	-0.120	-0.254
-325.129	-200.000	0.045	0.241
-324.114	-200.000	-0.009	0.343
-323.099	334.849	-0.041	-0.079
-322.085	-86.373	0.241	-0.073
-321.070	74.943	-0.135	0.141
-320.056	-200.000	-0.050	0.216
-319.041	-42.055	0.212	-0.107
-318.026	-200.000	0.024	-0.214
-317.012	-52.306	-0.274	-0.126
-315.997	433.085	0.032	0.068
-314.983	-200.000	-0.027	0.324
-313.968	13.808	-0.060	0.046
-312.953	-200.000	-0.012	-0.227
-311.939	310.853	-0.073	-0.135
-310.924	-69.092	-0.111	-0.042
-309.910	-199.249	-0.212	0.001
-308.895	-114.962	0.021	-0.004
-307.880	-151.679	-0.392	0.029
-306.866	254.957	0.132	0.223
-305.851	-200.000	0.102	-0.536
-304.837	183.491	0.185	-0.271
-303.822	800.000	-0.055	0.152
-302.807	-130.320	-0.096	0.013
-301.793	234.211	0.149	-0.242
-300.778	92.980	0.111	-0.124
-299.764	800.000	-0.080	-0.297
-298.749	-91.059	-0.092	0.026
-297.735	151.595	-0.125	0.168
-296.720	-200.000	0.008	0.291
-295.705	367.831	0.177	-0.354
-294.691	448.834	-0.021	0.047
-293.676	-101.425	0.135	0.033
-292.662	-75.592	0.143	-0.050
-291.647	800.000	-0.153	0.420
-290.632	361.665	0.080	-0.158
-289.618	28.848	-0.406	-0.340
-288.603	300.097	0.111	-0.203
-287.589	250.631	-0.153	-0.258
-286.574	147.382	-0.040	0.053
-285.559	-38.126	-0.265	0.139
-284.545	239.894	-0.178	-0.293
-283.530	340.288	-0.081	0.156
-282.516	4.373	0.216	-0.157
-281.501	116.848	0.296	-0.359
-280.486	-200.000	-0.012	-0.093
-279.472	-200.000	0.019	0.264
-278.457	-75.591	-0.193	0.068
-277.443	-82.081	-0.223	0.072
-276.428	601.783	0.055	-0.135
-275.413	56.847	0.273	-0.262
-274.399	191.845	0.069	0.102
-273.384	-115.466	0.139	-0.026
-272.370	800.000	-0.043	0.147
-271.355	800.000	-0.023	-0.077
-270.340	-61.046	-0.245	0.102
-269.326	-138.422	-0.162	-0.018
-268.311	269.503	-0.159	0.275
-267.297	-31.130	0.079	-0.044
-266.282	235.180	0.133	0.217
-265.267	37.454	-0.076	0.067
-264.253	398.250	0.227	-0.468
-263.238	-200.000	0.002	0.191
-262.224	-109.256	-0.121	-0.025
-261.209	327.172	0.036	-0.067
-260.195	48.929	-0.119	-0.110
-259.180	-200.000	0.051	-0.323
-258.165	-43.064	0.199	-0.100
-257.151	123.754	-0.086	-0.106
-256.136	-65.169	-0.129	-0.051
-255.122	-62.107	-0.128	-0.052
-254.107	-4.328	0.277	0.189
-253.092	-116.926	0.354	-0.064
-252.078	-200.000	-0.003	0.050
-251.063	-43.482	0.381	0.190
-250.049	-200.000	0.054	0.279
-249.034	-168.579	-0.405	-0.015
-248.019	800.000	0.128	-0.360
-247.005	195.011	-0.076	0.114
-245.990	-36.933	0.050	-0.026
-244.976	-200.000	-0.039	-0.274
-243.961	59.813	0.187	0.182
-242.946	-23.544	-0.184	-0.109
-241.932	183.092	-0.303	-0.441
-240.917	-200.000	-0.018	-0.285
-239.903	-88.704	0.517	-0.152
-238.888	-200.000	0.004	0.058
-237.873	800.000	0.041	0.114
-236.859	85.801	0.144	-0.156
-235.844	800.000	0.101	0.410
-234.830	5.851	-0.165	-0.120
-233.815	-200.000	0.029	0.133
-232.800	47.824	0.230	0.212
-231.786	84.421	0.161	0.173
-230.771	361.661	0.092	0.182
-229.757	15.651	0.218	0.169
-228.742	-27.844	-0.023	0.013
-227.727	657.797	-0.071	0.180
-226.713	-24.024	0.101	-0.059
-225.698	162.582	-0.064	-0.088
-224.684	-200.000	0.029	0.140
-223.669	38.640	-0.267	-0.235
-222.655	-43.845	0.057	-0.028
-221.640	28.145	-0.183	0.152
-220.625	-200.000	0.013	0.184
-219.611	-200.000	-0.020	0.263
-218.596	-200.000	-0.019	0.106
-217.582	-18.382	0.140	0.086
-216.567	800.000	0.110	0.332
-215.552	87.366	-0.049	-0.054
-214.538	85.025	0.043	0.047
-213.523	286.438	-0.140	0.250
-212.509	-200.000	0.021	0.154
-211.494	-200.000	-0.021	0.095
-210.479	-200.000	0.055	-0.286
-209.465	395.556	-0.109	-0.224
-208.450	197.412	0.144	-0.216
-207.436	-200.000	-0.007	0.046
-206.421	-120.071	0.371	0.063
-205.406	-114.457	-0.512	-0.097
-204.392	-130.557	0.070	-0.009
-203.377	-200.000	-0.041	0.344
-202.363	19.768	-0.198	-0.157
-201.348	32.719	-0.116	-0.099
-200.333	-200.000	0.066	-0.296
-199.319	-34.540	0.204	0.110
-198.304	192.623	-0.038	0.057
-197.290	800.000	-0.092	-0.373
-196.275	78.633	0.041	0.043
-195.260	767.081	0.038	-0.101
-194.246	246.688	-0.109	0.181
-193.231	313.717	-0.043	-0.080
-192.217	-200.000	0.031	0.233
-191.202	-129.184	0.185	-0.025
-190.187	-200.000	-0.005	-0.226
-189.173	103.808	-0.089	0.103
-188.158	28.187	-0.172	0.143
-187.144	-82.444	-0.294	0.094
-186.129	-200.000	-0.000	-0.161
-185.114	237.033	0.193	-0.314
-184.100	362.608	-0.064	-0.127
-183.085	-7.944	0.193	-0.128
-182.071	-191.727	-0.313	0.003
-181.056	219.149	-0.117	-0.184
-180.042	-200.000	-0.023	0.124
-179.027	-86.552	-0.121	0.036
-178.012	-5.277	0.266	0.179
-176.998	-200.000	0.015	0.228
-175.983	44.948	0.353	0.319
-174.969	114.657	0.168	-0.201
-173.954	36.215	0.125	-0.108
-172.939	581.054	0.070	-0.170
-171.925	-128.292	-0.135	-0.019
-170.910	-200.000	-0.006	0.385
-169.896	9.686	-0.516	-0.385
-168.881	-12.273	0.179	-0.115
-167.866	32.519	0.195	0.166
-166.852	44.118	0.115	-0.104
-165.837	-159.852	0.260	-0.014
-164.823	-97.275	0.096	-0.025
-163.808	-52.951	0.241	0.109
-162.793	455.508	-0.176	0.384
-161.779	328.083	0.042	0.079
-160.764	426.817	-0.072	-0.152
-159.750	394.946	0.098	0.201
-158.735	-76.978	0.137	0.047
-157.720	8.573	-0.123	0.091
-156.706	0.540	0.056	-0.039
-155.691	111.395	0.127	-0.150
-154.677	-200.000	-0.018	0.184
-153.662	-164.829	0.197	-0.009
-152.647	571.188	-0.142	0.341
-151.633	-77.620	0.189	-0.064
-150.618	-200.000	0.006	-0.169
-149.604	800.000	0.072	-0.272
-148.589	168.628	0.128	0.180
-147.574	107.319	-0.202	0.236
-146.560	-12.426	0.206	0.132
-145.545	233.750	-0.161	0.260
-144.531	137.863	-0.091	0.117
-143.516	390.535	-0.016	-0.032
-142.502	-145.492	-0.200	-0.018
-141.487	800.000	0.094	-0.255
-140.472	-200.000	-0.010	0.235
-139.458	-143.190	0.166	-0.016
-138.443	569.945	-0.064	-0.152
-137.429	-156.666	0.079	0.005
-136.414	402.627	-0.041	-0.084
-135.399	33.195	-0.126	-0.107
-134.385	334.217	0.016	0.030
-133.370	-55.430	0.065	0.029
-132.356	15.383	0.148	-0.114
-131.341	293.701	-0.076	-0.137
-130.326	-7.964	-0.195	-0.129
-129.312	-120.846	-0.462	0.076
-128.297	589.598	-0.097	0.234
-127.283	59.356	0.115	-0.111
-126.268	22.733	-0.335	0.269
-125.253	-200.000	-0.017	0.135
-124.239	87.088	-0.147	0.160
-123.224	561.426	0.026	-0.062
-122.210	-81.849	0.191	-0.061
