DTS Sentinel unit serial number:	SN413079Multiplexer serial number:	ORYXHardware model number:	OX4-SRSoftware version number:	ORYX F/W v4.00 Oryx Data Collector v3.7.2.0data status	okinstallation	princeton_trtdifferential loss correction	single-endedforward channel	channel 4reverse channel	N/Adate	2019/09/13time	03:45:34forward acquisition time	60.00reverse acquisition time	0.00gamma	496.2192k internal	0.2320k external	0.2320temperature offset calibration	1.0196default loss term (dB/km)	0.3790temperature slope calibration	1.0000multiplexer offset coefficient	1.0000multiplexer slope coefficient	1.0000fibre end	0.00T internal ref (°C)	27.19T ext. ref 1 (°C)	4.08T ext. ref 2 (°C)	21.45length (m)	temperature (°C)	Stokes	anti-Stokes-747.200	409.768	-0.145	0.311
-746.185	-9.319	-0.205	0.138
-745.171	10.579	-0.108	0.083
-744.156	-175.764	0.129	-0.004
-743.142	-200.000	-0.002	-0.138
-742.127	800.000	-0.059	0.166
-741.112	2.003	0.266	-0.194
-740.098	541.691	-0.135	-0.326
-739.083	89.663	-0.087	0.099
-738.069	800.000	-0.073	0.241
-737.054	-200.000	-0.015	-0.198
-736.039	-200.000	0.015	0.141
-735.025	511.056	0.084	0.199
-734.010	75.607	0.209	-0.223
-732.996	800.000	0.084	-0.258
-731.981	635.878	0.160	0.411
-730.966	35.070	-0.144	0.127
-729.952	463.499	-0.142	0.320
-728.937	-164.611	-0.155	0.007
-727.923	-200.000	-0.001	-0.331
-726.908	800.000	-0.026	0.106
-725.894	-107.348	-0.152	-0.034
-724.879	558.606	0.023	0.056
-723.864	326.683	0.230	-0.444
-722.850	-27.393	0.062	-0.037
-721.835	372.588	0.089	-0.182
-720.821	-46.255	-0.038	-0.019
-719.806	1.117	-0.113	0.082
-718.791	139.662	-0.044	-0.059
-717.777	800.000	0.081	0.267
-716.762	302.932	0.048	0.090
-715.748	-166.301	0.389	-0.017
-714.733	-126.711	0.184	-0.027
-713.718	-5.269	0.235	-0.163
-712.704	24.265	0.138	-0.116
-711.689	-17.841	0.075	0.047
-710.675	-200.000	0.009	0.123
-709.660	78.509	-0.224	0.242
-708.645	-98.811	0.393	0.101
-707.631	307.152	0.073	-0.137
-706.616	29.606	0.073	0.063
-705.602	-200.000	0.005	-0.086
-704.587	244.634	0.178	-0.302
-703.572	-9.458	-0.257	-0.173
-702.558	-200.000	-0.003	-0.356
-701.543	-200.000	0.028	-0.258
-700.529	650.183	-0.062	-0.159
-699.514	39.360	-0.285	-0.258
-698.499	-116.611	0.108	-0.020
-697.485	800.000	0.115	-0.469
-696.470	170.099	0.075	0.109
-695.456	-200.000	-0.059	0.370
-694.441	-148.937	0.295	0.024
-693.426	-0.923	0.012	-0.009
-692.412	108.904	-0.113	-0.136
-691.397	125.866	-0.120	0.153
-690.383	82.472	0.106	-0.116
-689.368	279.526	-0.089	0.160
-688.354	-71.542	0.185	0.070
-687.339	-32.266	0.257	-0.145
-686.324	-156.639	0.081	-0.005
-685.310	226.111	-0.082	0.134
-684.295	-103.867	0.101	0.024
-683.281	-14.147	-0.282	-0.183
-682.266	19.682	0.200	0.162
-681.251	-200.000	0.020	0.251
-680.237	-50.789	-0.249	0.118
-679.222	117.782	0.120	-0.149
-678.208	138.927	0.142	0.189
-677.193	-54.181	0.214	-0.098
-676.178	-40.258	-0.267	0.140
-675.164	486.506	0.037	-0.086
-674.149	183.195	-0.218	-0.324
-673.135	20.317	-0.265	-0.216
-672.120	800.000	0.115	0.356
-671.105	184.151	-0.093	-0.138
-670.091	-18.309	-0.293	-0.185
-669.076	-59.494	0.243	0.105
-668.062	-14.466	0.284	0.184
-667.047	-103.056	0.081	0.019
-666.032	-108.146	-0.245	-0.053
-665.018	-80.666	-0.229	0.077
-664.003	-200.000	0.021	-0.212
-662.989	83.957	-0.186	-0.205
-661.974	-57.927	-0.332	-0.146
-660.959	-200.000	0.014	0.093
-659.945	-146.629	0.351	-0.031
-658.930	58.597	0.125	-0.124
-657.916	-85.364	0.082	0.026
-656.901	-128.864	-0.041	0.006
-655.886	-63.160	-0.172	0.071
-654.872	800.000	-0.026	0.083
-653.857	-200.000	-0.009	-0.150
-652.843	800.000	0.086	0.285
-651.828	-127.402	0.097	0.014
-650.814	-114.547	-0.207	-0.040
-649.799	-5.171	-0.094	0.065
-648.784	-121.462	0.234	0.039
-647.770	88.376	0.153	0.171
-646.755	-71.937	-0.366	-0.137
-645.741	53.200	-0.022	0.022
-644.726	-5.559	0.264	0.183
-643.711	-90.213	-0.156	0.046
-642.697	59.176	0.091	0.090
-641.682	-180.788	-0.226	-0.005
-640.668	29.181	0.042	-0.036
-639.653	800.000	-0.077	-0.297
-638.638	117.488	0.367	0.454
-637.624	800.000	-0.031	0.099
-636.609	734.064	-0.107	-0.289
-635.595	-156.108	-0.126	-0.008
-634.580	496.550	0.032	-0.075
-633.565	-200.000	0.013	0.321
-632.551	93.323	0.338	0.385
-631.536	552.050	0.099	0.240
-630.522	-66.082	-0.178	0.071
-629.507	-151.465	0.121	0.009
-628.492	-46.189	-0.192	0.095
-627.478	-15.564	0.319	-0.205
-626.463	107.579	-0.077	0.092
-625.449	-200.000	-0.022	-0.102
-624.434	-61.603	-0.076	0.032
-623.419	-200.000	-0.019	0.366
-622.405	295.279	-0.051	-0.094
-621.390	-132.537	0.158	0.020
-620.376	-59.367	0.135	-0.058
-619.361	800.000	0.031	-0.112
-618.346	-134.861	-0.400	-0.049
-617.332	683.684	0.069	0.181
-616.317	132.590	0.129	-0.167
-615.303	-91.088	0.163	-0.047
-614.288	-200.000	0.032	-0.297
-613.273	-2.903	-0.112	-0.078
-612.259	-104.266	-0.059	0.014
-611.244	467.273	-0.054	0.121
-610.230	-200.000	0.005	0.118
-609.215	800.000	0.057	0.225
-608.201	-165.136	0.307	0.014
-607.186	68.163	-0.120	-0.124
-606.171	-200.000	0.013	0.068
-605.157	94.341	-0.227	0.259
-604.142	316.081	-0.147	0.278
-603.128	-131.896	0.245	-0.032
-602.113	-154.627	-0.125	-0.008
-601.098	209.994	0.080	-0.126
-600.084	-83.030	-0.230	0.074
-599.069	481.946	-0.073	-0.167
-598.055	-200.000	-0.051	-0.235
-597.040	-162.424	-0.768	-0.038
-596.025	158.685	0.216	-0.302
-595.011	216.025	0.210	0.335
-593.996	800.000	0.146	-0.523
-592.982	-200.000	-0.045	-0.201
-591.967	-154.692	0.112	0.007
-590.952	333.684	0.256	0.497
-589.938	-200.000	-0.000	-0.096
-588.923	347.583	0.045	0.090
-587.909	185.467	-0.080	-0.120
-586.894	-200.000	-0.041	0.181
-585.879	-200.000	-0.054	-0.436
-584.865	-91.618	-0.440	-0.126
-583.850	505.952	0.063	-0.148
-582.836	9.186	0.242	0.184
-581.821	-99.672	-0.288	0.073
-580.806	-67.664	0.446	-0.175
-579.792	-44.496	-0.207	0.104
-578.777	-6.262	0.094	0.064
-577.763	101.625	0.290	0.339
-576.748	-200.000	-0.049	-0.467
-575.733	-200.000	-0.027	0.177
-574.719	-166.115	0.244	-0.010
-573.704	254.371	0.251	0.431
-572.690	-22.834	-0.122	0.074
-571.675	-200.000	-0.012	0.176
-570.661	-200.000	0.054	-0.294
-569.646	-200.000	-0.039	-0.246
-568.631	-200.000	-0.026	0.129
-567.617	139.922	-0.106	-0.141
-566.602	250.968	-0.220	0.376
-565.588	-200.000	-0.027	0.159
-564.573	169.801	-0.175	0.251
-563.558	-124.854	0.155	0.024
-562.544	-86.045	-0.172	0.053
-561.529	-59.935	0.215	-0.092
-560.515	-154.743	0.363	-0.024
-559.500	-48.170	-0.088	-0.042
-558.485	-200.000	0.018	-0.086
-557.471	546.247	-0.108	0.259
-556.456	800.000	-0.070	-0.256
-555.442	330.409	0.030	-0.057
-554.427	-87.604	0.391	-0.119
-553.412	459.341	0.094	-0.209
-552.398	346.616	-0.099	-0.196
-551.383	-51.724	0.332	0.155
-550.369	-157.548	-0.102	-0.006
-549.354	451.989	0.031	0.068
-548.339	-73.116	-0.188	-0.069
-547.325	-146.403	0.246	0.022
-546.310	116.654	-0.167	0.205
-545.296	-65.074	0.237	0.096
-544.281	-95.306	0.221	-0.060
-543.266	-1.640	-0.412	0.291
-542.252	-27.898	0.319	0.185
-541.237	-200.000	0.010	0.217
-540.223	262.677	-0.181	0.315
-539.208	-200.000	0.020	-0.132
-538.193	-200.000	0.005	0.115
-537.179	227.724	0.076	0.125
-536.164	-149.147	0.116	0.009
-535.150	-29.928	-0.257	-0.147
-534.135	-139.697	-0.130	-0.014
-533.121	-12.584	0.387	0.253
-532.106	-68.789	0.307	-0.119
-531.091	330.405	-0.100	-0.192
-530.077	-200.000	0.028	0.149
-529.062	15.061	-0.232	0.182
-528.048	800.000	-0.134	-0.382
-527.033	227.635	0.088	0.144
-526.018	6.891	0.127	0.095
-525.004	-89.572	0.075	-0.022
-523.989	-7.199	-0.133	-0.091
-522.975	-42.230	-0.066	-0.034
-521.960	19.022	-0.095	-0.076
-520.945	-200.000	-0.020	-0.421
-519.931	-123.771	-0.147	0.023
-518.916	-23.383	-0.041	0.025
-517.902	-130.648	-0.009	-0.001
-516.887	-73.744	-0.179	-0.065
-515.872	-109.331	0.279	-0.059
-514.858	-152.204	0.065	-0.005
-513.843	133.089	0.170	0.219
-512.829	-165.154	-0.146	-0.006
-511.814	800.000	-0.055	0.171
-510.799	162.099	-0.088	-0.124
-509.785	-193.579	0.263	-0.002
-508.770	-56.305	-0.156	-0.069
-507.756	-200.000	0.006	0.248
-506.741	-200.000	-0.019	0.145
-505.726	76.117	-0.055	-0.058
-504.712	42.453	0.193	-0.176
-503.697	-80.186	0.256	-0.086
-502.683	-46.818	-0.177	0.087
-501.668	80.178	-0.164	0.177
-500.653	-133.284	-0.167	0.021
-499.639	194.360	-0.175	-0.266
-498.624	646.223	0.106	-0.270
-497.610	100.231	0.096	0.112
-496.595	4.839	0.289	-0.213
-495.581	-107.255	-0.063	-0.014
-494.566	-52.767	-0.126	-0.058
-493.551	800.000	0.122	0.530
-492.537	800.000	-0.018	0.052
-491.522	-116.743	-0.205	0.038
-490.508	112.099	-0.028	-0.034
-489.493	-35.700	0.098	-0.053
-488.478	249.528	-0.265	-0.450
-487.464	30.087	-0.114	0.097
-486.449	112.464	0.093	0.113
-485.435	800.000	0.033	0.111
-484.420	-81.902	0.124	0.041
-483.405	-41.483	-0.066	-0.034
-482.391	-9.057	-0.245	-0.164
-481.376	-131.728	-0.263	0.035
-480.362	-171.180	0.121	-0.004
-479.347	-200.000	0.042	-0.229
-478.332	-200.000	-0.116	-0.552
-477.318	-148.647	0.225	0.018
-476.303	-103.226	0.398	-0.094
-475.289	-75.451	0.328	-0.117
-474.274	-148.566	-0.226	-0.018
-473.259	264.114	-0.103	0.180
-472.245	-200.000	-0.018	-0.225
-471.230	359.078	0.074	0.147
-470.216	190.263	0.186	0.279
-469.201	-100.715	-0.155	-0.038
-468.186	188.917	0.225	-0.337
-467.172	-16.834	-0.099	0.063
-466.157	382.533	0.156	0.321
-465.143	81.122	0.102	0.110
-464.128	-200.000	-0.031	0.283
-463.113	-66.124	-0.156	0.062
-462.099	-63.786	-0.329	-0.135
-461.084	800.000	-0.059	-0.190
-460.070	1.920	0.212	0.153
-459.055	7.356	-0.091	0.068
-458.040	132.097	0.155	-0.200
-457.026	-193.727	-0.118	0.001
-456.011	-62.318	0.122	-0.051
-454.997	-200.000	-0.021	0.342
-453.982	-200.000	0.027	-0.167
-452.968	-200.000	0.009	-0.251
-451.953	-200.000	0.006	-0.408
-450.938	-123.565	0.214	0.034
-449.924	-200.000	-0.011	0.212
-448.909	-35.705	0.100	-0.054
-447.895	23.247	0.126	0.104
-446.880	401.591	-0.101	0.212
-445.865	-128.211	-0.220	0.031
-444.851	-100.508	0.093	0.023
-443.836	-200.000	-0.018	0.103
-442.822	-23.179	-0.090	0.054
-441.807	-200.000	0.018	-0.160
-440.792	82.696	-0.192	-0.209
-439.778	800.000	0.025	0.077
-438.763	-5.125	0.260	0.179
-437.749	145.932	-0.207	-0.277
-436.734	-8.514	0.143	0.096
-435.719	292.810	-0.047	-0.085
-434.705	-200.000	-0.002	-0.039
-433.690	-92.659	0.052	0.014
-432.676	42.846	0.151	0.137
-431.661	45.881	0.133	0.123
-430.646	-114.280	0.209	0.040
-429.632	-200.000	-0.026	-0.156
-428.617	-181.610	-0.277	-0.005
-427.603	83.032	0.267	-0.290
-426.588	15.530	-0.120	-0.094
-425.573	-185.187	0.169	-0.003
-424.559	96.476	0.072	-0.082
-423.544	-12.039	-0.297	0.194
-422.530	-64.823	0.159	-0.064
-421.515	-157.805	-0.084	-0.005
-420.500	637.262	-0.113	0.288
-419.486	-200.000	-0.005	0.087
-418.471	-102.633	0.183	0.044
-417.457	-200.000	0.065	-0.347
-416.442	-200.000	0.016	-0.340
-415.428	-151.888	-0.433	-0.032
-414.413	-174.193	-0.279	0.008
-413.398	-200.000	-0.038	-0.410
-412.384	398.278	0.057	0.118
-411.369	-200.000	0.048	0.315
-410.355	134.703	-0.096	-0.124
-409.340	-20.761	-0.302	-0.185
-408.325	133.522	0.106	-0.136
-407.311	-103.325	0.329	-0.077
-406.296	67.735	-0.184	0.188
-405.282	73.086	-0.070	-0.073
-404.267	-130.003	0.277	0.038
-403.252	-15.590	0.132	0.084
-402.238	-92.730	0.208	-0.058
-401.223	-200.000	0.028	-0.158
-400.209	335.829	-0.125	0.241
-399.194	1.918	-0.156	0.112
-398.179	-68.704	0.209	0.081
-397.165	-157.477	0.264	-0.016
-396.150	-45.618	0.134	0.066
-395.136	138.369	-0.084	0.110
-394.121	800.000	-0.079	-0.329
-393.106	566.589	-0.030	0.074
-392.092	-122.548	0.310	0.050
-391.077	-94.411	-0.113	-0.031
-390.063	-57.426	0.262	-0.115
-389.048	7.104	0.177	0.131
-388.033	286.945	0.025	0.045
-387.019	-144.788	-0.482	-0.044
-386.004	12.635	0.094	-0.073
-384.990	190.793	0.120	-0.180
-383.975	-94.532	-0.327	-0.089
-382.960	-101.542	-0.101	-0.025
-381.946	-60.422	0.041	-0.018
-380.931	-61.698	0.299	-0.125
-379.917	-32.642	-0.258	0.143
-378.902	-186.271	0.171	-0.002
-377.888	193.212	-0.096	0.145
-376.873	193.651	0.196	-0.296
-375.858	-93.101	-0.186	0.052
-374.844	-120.751	-0.219	-0.037
-373.829	-47.117	-0.388	-0.189
-372.815	-200.000	0.004	-0.173
-371.800	-37.764	0.143	0.076
-370.785	-29.804	0.029	-0.017
-369.771	-200.000	-0.014	0.333
-368.756	-62.664	0.119	-0.049
-367.742	718.051	-0.062	0.164
-366.727	106.509	0.109	-0.128
-365.712	-1.056	-0.144	0.102
-364.698	-81.924	0.229	0.075
-363.683	800.000	0.069	-0.211
-362.669	-200.000	0.004	-0.219
-361.654	-200.000	0.040	0.203
-360.639	89.714	0.184	-0.205
-359.625	800.000	0.062	0.189
-358.610	53.312	0.242	0.231
-357.596	-200.000	-0.013	-0.337
-356.581	-63.801	0.225	0.092
-355.566	100.208	0.268	0.310
-354.552	-200.000	-0.003	-0.067
-353.537	375.102	-0.101	-0.205
-352.523	-40.430	-0.287	0.148
-351.508	-106.071	-0.162	-0.036
-350.493	-78.731	0.132	-0.045
-349.479	13.698	-0.330	0.255
-348.464	-32.245	-0.263	0.146
-347.450	4.934	-0.302	-0.221
-346.435	-134.391	-0.221	0.027
-345.420	168.960	0.141	-0.200
-344.406	-200.000	-0.006	-0.126
-343.391	800.000	0.043	-0.145
-342.377	388.773	-0.028	0.057
-341.362	11.824	-0.101	-0.077
-340.348	-108.513	-0.244	0.052
-339.333	-53.716	0.066	0.030
-338.318	-62.424	-0.387	-0.160
-337.304	278.548	0.086	-0.152
-336.289	-177.861	0.371	-0.009
-335.275	-200.000	0.043	0.299
-334.260	742.265	-0.117	0.313
-333.245	55.251	-0.017	0.016
-332.231	-200.000	0.005	0.243
-331.216	-200.000	0.032	0.185
-330.202	-68.406	-0.068	0.026
-329.187	-26.273	0.208	-0.122
-328.172	-58.243	0.297	-0.129
-327.158	66.924	-0.193	-0.195
-326.143	623.306	0.049	0.124
-325.129	84.918	0.106	-0.115
-324.114	-82.516	-0.325	0.105
-323.099	50.871	-0.151	-0.143
-322.085	78.420	-0.149	0.158
-321.070	-65.133	-0.095	0.038
-320.056	-200.000	-0.045	-0.389
-319.041	789.415	-0.044	-0.121
-318.026	280.948	-0.061	-0.108
-317.012	800.000	0.070	0.270
-315.997	-116.435	0.162	-0.030
-314.983	242.485	-0.206	-0.343
-313.968	363.947	0.103	-0.206
-312.953	16.928	0.290	-0.228
-311.939	-102.635	0.215	-0.051
-310.924	-72.774	-0.207	0.076
-309.910	-200.000	-0.005	0.028
-308.895	55.155	-0.037	-0.036
-307.880	-135.418	-0.223	-0.026
-306.866	224.971	0.149	-0.240
-305.851	-200.000	-0.007	-0.137
-304.837	0.255	-0.206	0.146
-303.822	-107.780	0.265	-0.057
-302.807	-87.329	0.331	-0.100
-301.793	-81.483	-0.160	-0.052
-300.778	800.000	-0.121	-0.443
-299.764	128.797	-0.036	-0.045
-298.749	800.000	0.054	0.190
-297.735	800.000	-0.025	0.068
-296.720	174.623	-0.109	0.156
-295.705	-200.000	0.020	0.401
-294.691	117.933	0.035	-0.043
-293.676	103.195	0.069	-0.081
-292.662	-91.192	-0.213	0.061
-291.647	94.967	-0.068	-0.077
-290.632	236.510	0.126	0.207
-289.618	-147.827	-0.090	-0.008
-288.603	368.330	0.034	0.069
-287.589	632.304	-0.043	0.108
-286.574	-0.006	-0.022	0.016
-285.559	588.101	-0.069	-0.168
-284.545	-0.131	-0.298	-0.211
-283.530	666.901	-0.029	0.075
-282.516	-119.084	-0.163	0.028
-281.501	-120.068	0.018	-0.003
-280.486	403.850	-0.163	0.341
-279.472	800.000	0.042	-0.141
-278.457	309.608	0.055	0.102
-277.443	-200.000	-0.004	-0.184
-276.428	603.892	0.081	-0.201
-275.413	45.256	-0.162	0.148
-274.399	-87.340	-0.128	0.039
-273.384	21.711	0.355	-0.287
-272.370	503.365	0.188	-0.432
-271.355	-200.000	0.013	-0.185
-270.340	31.928	-0.075	0.064
-269.326	-200.000	0.004	-0.133
-268.311	-136.445	0.136	0.016
-267.297	-131.648	-0.225	0.029
-266.282	27.163	-0.190	-0.158
-265.267	800.000	0.089	-0.341
-264.253	800.000	0.025	-0.102
-263.238	-200.000	-0.017	-0.088
-262.224	-6.080	0.342	-0.232
-261.209	-200.000	-0.074	0.384
-260.195	-10.504	-0.168	0.110
-259.180	800.000	0.015	-0.046
-258.165	4.728	0.226	0.165
-257.151	-104.108	-0.221	0.051
-256.136	91.454	-0.026	-0.029
-255.122	123.284	0.107	0.132
-254.107	-82.317	-0.106	0.034
-253.092	756.985	-0.157	0.422
-252.078	177.824	0.140	0.202
-251.063	-200.000	-0.057	0.309
-250.049	800.000	0.165	-0.491
-249.034	-53.373	0.200	0.091
-248.019	-190.504	-0.232	0.002
-247.005	300.737	-0.172	0.314
-245.990	-200.000	-0.010	-0.107
-244.976	156.120	-0.022	0.030
-243.961	-86.332	0.261	-0.080
-242.946	415.570	-0.030	0.064
-241.932	-66.837	-0.138	-0.054
-240.917	800.000	-0.051	0.175
-239.903	-59.899	-0.461	0.195
-238.888	-21.179	0.253	0.154
-237.873	800.000	0.063	-0.237
-236.859	18.192	0.311	-0.246
-235.844	7.058	-0.165	-0.122
-234.830	-141.008	0.167	-0.017
-233.815	-83.754	-0.139	-0.044
-232.800	77.290	-0.164	0.173
-231.786	203.489	0.090	-0.139
-230.771	-62.541	-0.323	0.133
-229.757	45.559	0.146	0.133
-228.742	75.476	0.200	-0.209
-227.727	20.213	0.045	0.036
-226.713	201.453	0.170	0.259
-225.698	-200.000	0.022	-0.250
-224.684	9.558	0.080	-0.060
-223.669	-179.952	0.261	-0.006
-222.655	-200.000	0.009	-0.093
-221.640	-95.736	0.218	0.058
-220.625	-200.000	0.022	0.141
-219.611	800.000	-0.041	0.175
-218.596	555.279	0.127	0.302
-217.582	516.568	0.069	-0.159
-216.567	40.145	0.169	-0.151
-215.552	-119.592	-0.189	0.032
-214.538	-62.067	-0.264	0.109
-213.523	86.501	-0.113	-0.123
-212.509	-127.049	0.300	-0.044
-211.494	88.492	0.187	-0.205
-210.479	-200.000	-0.002	0.194
-209.465	265.717	0.028	-0.048
-208.450	-166.216	0.061	0.003
-207.436	187.401	0.072	-0.107
-206.421	-200.000	0.006	-0.033
-205.406	171.540	-0.118	-0.167
-204.392	19.327	-0.367	0.292
-203.377	-71.391	-0.107	0.040
-202.363	800.000	0.044	0.152
-201.348	-200.000	0.006	0.160
-200.333	-73.062	-0.181	0.066
-199.319	85.416	-0.080	0.087
-198.304	-120.541	-0.508	0.085
-197.290	459.557	0.041	0.090
-196.275	-129.328	-0.287	-0.040
-195.260	-79.195	-0.318	-0.107
-194.246	-25.822	0.229	0.134
-193.231	-33.276	0.544	-0.298
-192.217	14.833	0.282	-0.218
-191.202	2.631	-0.053	-0.038
-190.187	-10.297	0.145	0.096
-189.173	-62.728	-0.112	-0.046
-188.158	-132.524	-0.216	-0.028
-187.144	-166.774	-0.420	0.017
-186.129	61.921	-0.075	0.074
-185.114	-177.284	0.074	-0.002
-184.100	800.000	-0.026	0.096
-183.085	235.758	-0.184	-0.301
-182.071	-67.775	-0.291	-0.113
-181.056	0.608	-0.078	0.055
-180.042	-123.765	-0.081	0.013
-179.027	230.977	-0.122	-0.198
-178.012	-200.000	0.245	0.000
-176.998	800.000	-0.046	-0.140
-175.983	48.946	0.361	0.335
-174.969	-154.347	0.137	-0.009
-173.954	245.420	-0.171	0.285
-172.939	-200.000	-0.035	-0.178
-171.925	159.041	0.139	0.191
-170.910	199.947	0.061	-0.093
-169.896	30.648	-0.084	-0.071
-168.881	-86.323	-0.225	0.069
-167.866	287.949	-0.083	0.148
-166.852	-97.931	0.304	-0.078
-165.837	145.166	-0.121	0.160
-164.823	-107.108	0.331	0.072
-163.808	-79.011	-0.235	0.079
-162.793	-200.000	0.005	0.250
-161.779	-200.000	0.026	0.253
-160.764	48.036	0.103	-0.095
-159.750	101.802	-0.162	-0.187
-158.735	-67.194	0.103	-0.040
-157.720	60.969	0.232	0.227
-156.706	517.726	0.110	0.255
-155.691	-200.000	-0.006	-0.106
-154.677	-18.446	-0.222	-0.137
-153.662	-151.621	0.253	-0.018
-152.647	-169.579	0.073	0.003
-151.633	-116.051	-0.369	0.068
-150.618	25.601	0.144	-0.118
-149.604	-106.895	0.167	0.037
-148.589	75.664	-0.087	0.091
-147.574	800.000	0.113	0.402
-146.560	19.706	0.367	0.292
-145.545	-200.000	0.013	0.083
-144.531	-78.545	0.035	0.012
-143.516	-200.000	-0.007	0.145
-142.502	-83.446	0.224	0.071
-141.487	-81.508	0.202	-0.065
-140.472	723.733	-0.089	0.235
-139.458	-200.000	-0.064	0.319
-138.443	-54.083	-0.154	0.069
-137.429	-92.938	-0.098	0.027
-136.414	55.115	-0.022	-0.021
-135.399	185.041	0.230	0.337
-134.385	108.347	0.115	0.136
-133.370	-45.648	0.166	0.081
-132.356	-57.791	0.031	-0.013
-131.341	-24.020	0.100	0.059
-130.326	160.970	-0.094	0.129
-129.312	-114.687	-0.082	0.015
-128.297	800.000	-0.019	-0.077
-127.283	8.544	0.041	-0.031
-126.268	-87.414	0.188	-0.056
-125.253	271.318	0.245	0.425
-124.239	75.742	-0.170	-0.177
-123.224	-200.000	0.000	0.230
-122.210	-200.000	0.011	0.166
-121.195	-2.601	0.135	-0.093
