DTS Sentinel unit serial number:	SN413079Multiplexer serial number:	ORYXHardware model number:	OX4-SRSoftware version number:	ORYX F/W v4.00 Oryx Data Collector v3.7.2.0data status	okinstallation	princeton_trtdifferential loss correction	single-endedforward channel	channel 4reverse channel	N/Adate	2019/09/16time	06:05:35forward acquisition time	60.00reverse acquisition time	0.00gamma	496.2192k internal	0.2320k external	0.2320temperature offset calibration	0.9983default loss term (dB/km)	0.3790temperature slope calibration	1.0000multiplexer offset coefficient	1.0000multiplexer slope coefficient	1.0000fibre end	0.00T internal ref (°C)	27.44T ext. ref 1 (°C)	11.28T ext. ref 2 (°C)	21.94length (m)	temperature (°C)	Stokes	anti-Stokes-747.200	33.143	0.113	0.099
-746.185	-27.722	-0.140	-0.082
-745.171	-66.605	-0.190	-0.076
-744.156	103.569	-0.185	0.220
-743.142	-200.000	-0.015	0.228
-742.127	-142.711	0.089	0.009
-741.112	-50.503	0.463	0.221
-740.098	800.000	-0.062	0.224
-739.083	-80.072	-0.172	0.058
-738.069	250.273	0.334	0.573
-737.054	-68.286	-0.182	-0.072
-736.039	-189.507	-0.289	0.003
-735.025	-200.000	-0.038	0.340
-734.010	84.023	0.178	0.197
-732.996	-110.879	-0.083	-0.017
-731.981	-93.532	-0.143	-0.040
-730.966	-178.366	-0.170	-0.004
-729.952	51.315	0.158	-0.151
-728.937	-36.452	-0.313	-0.171
-727.923	-41.775	-0.464	0.241
-726.908	127.232	-0.050	0.065
-725.894	690.434	-0.070	-0.185
-724.879	-59.766	-0.244	-0.106
-723.864	-117.866	0.249	0.045
-722.850	396.359	0.079	-0.167
-721.835	-37.663	-0.341	-0.184
-720.821	-200.000	0.039	0.550
-719.806	-131.589	0.232	0.031
-718.791	800.000	-0.104	0.386
-717.777	800.000	0.085	-0.364
-716.762	-85.000	-0.262	0.083
-715.748	-200.000	-0.017	0.207
-714.733	800.000	-0.019	-0.064
-713.718	116.717	-0.051	0.063
-712.704	13.950	-0.250	-0.196
-711.689	-200.000	0.015	-0.154
-710.675	71.980	0.241	-0.253
-709.660	46.663	0.083	-0.078
-708.645	12.300	0.138	-0.107
-707.631	-200.000	-0.053	-0.302
-706.616	-114.987	0.081	-0.016
-705.602	40.556	0.274	-0.250
-704.587	158.394	-0.208	-0.291
-703.572	164.670	-0.184	0.262
-702.558	-200.000	-0.008	0.276
-701.543	77.927	0.099	-0.107
-700.529	173.775	-0.121	0.177
-699.514	-200.000	-0.050	-0.235
-698.499	-200.000	0.016	-0.084
-697.485	-200.000	-0.030	-0.159
-696.470	-60.589	-0.122	-0.052
-695.456	-75.083	0.165	-0.059
-694.441	52.489	0.149	-0.144
-693.426	761.130	0.068	0.185
-692.412	168.976	-0.103	0.148
-691.397	-76.670	0.158	-0.056
-690.383	-200.000	0.024	-0.280
-689.368	113.544	-0.106	0.130
-688.354	-130.565	0.376	0.051
-687.339	141.787	-0.178	-0.238
-686.324	-128.465	0.090	0.013
-685.310	800.000	-0.080	-0.255
-684.295	-200.000	0.052	0.264
-683.281	145.039	-0.208	-0.281
-682.266	179.463	-0.067	-0.099
-681.251	371.225	-0.063	-0.128
-680.237	-36.961	-0.266	0.144
-679.222	131.106	-0.018	0.023
-678.208	-200.000	-0.025	-0.201
-677.193	-171.920	-0.158	0.005
-676.178	800.000	-0.047	-0.138
-675.164	108.206	-0.210	-0.253
-674.149	256.049	0.098	0.170
-673.135	59.065	0.158	0.157
-672.120	-55.382	-0.207	-0.094
-671.105	-67.950	-0.246	0.097
-670.091	-43.290	-0.130	0.067
-669.076	-126.453	-0.282	-0.042
-668.062	49.014	-0.166	-0.157
-667.047	-63.064	-0.218	-0.091
-666.032	-200.000	-0.014	-0.216
-665.018	-109.797	0.139	0.029
-664.003	-126.492	0.146	-0.022
-662.989	637.774	-0.055	0.141
-661.974	800.000	0.094	0.299
-660.959	86.842	0.042	-0.047
-659.945	-200.000	-0.013	0.321
-658.930	223.077	0.088	0.142
-657.916	431.263	-0.138	-0.302
-656.901	-39.777	-0.355	-0.187
-655.886	-200.000	-0.074	-0.350
-654.872	-87.496	0.160	0.049
-653.857	-74.169	0.272	-0.099
-652.843	27.406	-0.157	0.133
-651.828	552.366	-0.096	0.233
-650.814	-200.000	0.036	-0.249
-649.799	96.141	-0.026	0.030
-648.784	-34.029	0.193	-0.107
-647.770	-200.000	-0.010	-0.160
-646.755	-200.000	-0.002	0.055
-645.741	-34.408	-0.059	-0.033
-644.726	87.295	0.098	0.110
-643.711	5.149	0.136	-0.101
-642.697	70.837	-0.198	-0.207
-641.682	-133.823	0.242	-0.030
-640.668	-35.157	-0.208	0.114
-639.653	145.623	-0.143	0.193
-638.638	-46.328	0.190	-0.094
-637.624	137.442	-0.304	-0.401
-636.609	-33.254	-0.206	-0.115
-635.595	249.701	-0.064	0.110
-634.580	-200.000	-0.024	-0.527
-633.565	518.369	-0.055	0.129
-632.551	-101.513	0.201	-0.049
-631.536	-53.556	-0.130	0.060
-630.522	389.716	-0.081	0.169
-629.507	22.887	-0.276	-0.228
-628.492	-35.999	0.143	0.078
-627.478	-149.821	-0.480	0.038
-626.463	16.055	-0.137	0.109
-625.449	-12.951	0.268	0.176
-624.434	164.282	0.187	-0.265
-623.419	-200.000	0.009	-0.143
-622.405	-64.672	0.169	0.069
-621.390	-25.789	-0.213	-0.126
-620.376	-167.756	-0.179	0.007
-619.361	-141.272	-0.370	-0.038
-618.346	800.000	-0.085	-0.314
-617.332	800.000	-0.038	0.133
-616.317	119.018	0.022	0.028
-615.303	-77.930	0.347	-0.121
-614.288	-123.016	0.309	-0.050
-613.273	160.341	-0.100	-0.140
-612.259	-2.550	0.157	0.111
-611.244	-91.334	0.283	-0.081
-610.230	506.629	-0.131	0.306
-609.215	-200.000	0.008	-0.043
-608.201	800.000	-0.094	-0.415
-607.186	-92.414	0.379	-0.107
-606.171	800.000	0.061	-0.178
-605.157	369.860	0.043	0.087
-604.142	86.454	-0.187	0.208
-603.128	800.000	0.077	0.265
-602.113	-112.299	-0.541	0.109
-601.098	800.000	0.026	-0.091
-600.084	-57.994	0.277	-0.122
-599.069	800.000	-0.013	-0.050
-598.055	-77.441	-0.349	-0.122
-597.040	210.944	-0.170	0.268
-596.025	217.931	0.186	-0.298
-595.011	47.265	0.027	0.025
-593.996	-141.115	0.419	-0.043
-592.982	76.125	-0.248	0.264
-591.967	-14.903	-0.249	0.160
-590.952	-158.356	0.066	0.004
-589.938	330.976	0.173	-0.335
-588.923	38.799	0.081	0.072
-587.909	-38.430	0.211	-0.112
-586.894	49.050	0.142	-0.134
-585.879	-200.000	-0.026	-0.160
-584.865	-200.000	0.462	0.002
-583.850	250.580	0.174	0.297
-582.836	21.549	0.239	0.195
-581.821	800.000	0.047	0.151
-580.806	-92.754	0.043	0.012
-579.792	260.875	-0.083	-0.143
-578.777	800.000	0.065	0.212
-577.763	-54.516	0.377	0.171
-576.748	800.000	0.031	0.125
-575.733	581.228	-0.018	0.045
-574.719	252.658	0.112	0.192
-573.704	96.518	0.213	-0.245
-572.690	238.903	0.082	-0.137
-571.675	149.582	0.237	0.322
-570.661	-70.846	-0.150	-0.057
-569.646	187.908	0.219	0.328
-568.631	159.416	-0.136	-0.190
-567.617	43.308	0.124	0.114
-566.602	-93.881	0.184	0.051
-565.588	-44.055	-0.043	-0.022
-564.573	83.604	0.257	0.282
-563.558	-200.000	0.010	-0.307
-562.544	424.074	0.121	-0.261
-561.529	163.992	0.145	-0.205
-560.515	-14.792	-0.031	-0.020
-559.500	181.821	0.158	0.234
-558.485	375.759	-0.161	0.329
-557.471	140.954	0.050	0.066
-556.456	350.961	-0.007	-0.014
-555.442	-95.972	0.177	0.047
-554.427	181.086	0.105	-0.155
-553.412	175.423	0.020	-0.029
-552.398	-200.000	-0.133	-0.602
-551.383	435.623	0.186	-0.406
-550.369	163.730	-0.174	-0.246
-549.354	-200.000	0.031	-0.162
-548.339	-200.000	0.062	0.313
-547.325	632.180	-0.085	0.217
-546.310	-200.000	-0.002	-0.313
-545.296	4.640	-0.080	-0.059
-544.281	178.641	-0.258	-0.379
-543.266	-76.342	0.312	-0.110
-542.252	800.000	0.000	0.001
-541.237	413.272	0.126	0.269
-540.223	-78.450	-0.272	0.093
-539.208	69.419	0.058	0.060
-538.193	249.283	-0.067	-0.114
-537.179	61.332	0.147	-0.147
-536.164	-200.000	0.011	-0.090
-535.150	-200.000	-0.020	0.256
-534.135	-134.561	0.104	0.013
-533.121	543.629	-0.057	0.136
-532.106	129.792	-0.170	-0.218
-531.091	-200.000	-0.000	0.093
-530.077	-200.000	-0.038	0.170
-529.062	227.735	0.026	0.042
-528.048	-12.396	-0.304	-0.199
-527.033	170.107	-0.069	-0.099
-526.018	-46.861	-0.315	-0.155
-525.004	-200.000	-0.064	-0.287
-523.989	-61.956	0.117	-0.049
-522.975	120.707	0.099	-0.123
-521.960	441.121	0.031	0.067
-520.945	140.048	-0.186	-0.245
-519.931	800.000	0.097	0.276
-518.916	-200.000	0.003	0.017
-517.902	-200.000	-0.001	0.202
-516.887	-56.244	0.317	0.141
-515.872	438.472	-0.032	-0.070
-514.858	471.015	0.076	0.170
-513.843	-153.656	-0.314	0.022
-512.829	67.378	-0.055	-0.056
-511.814	-147.332	-0.152	0.013
-510.799	-200.000	-0.018	0.190
-509.785	58.018	-0.160	0.157
-508.770	-57.140	-0.186	0.082
-507.756	-95.836	0.229	-0.061
-506.741	-200.000	-0.000	0.125
-505.726	-81.926	0.163	0.053
-504.712	26.607	-0.063	0.053
-503.697	726.988	0.147	-0.394
-502.683	421.143	0.100	-0.215
-501.668	-63.951	-0.331	0.136
-500.653	-46.293	0.173	0.085
-499.639	424.034	-0.129	0.277
-498.624	103.714	0.153	-0.179
-497.610	-153.824	0.046	0.003
-496.595	642.923	0.099	-0.252
-495.581	143.613	-0.122	-0.162
-494.566	-200.000	-0.031	-0.162
-493.551	-9.115	-0.203	-0.136
-492.537	116.794	0.206	-0.253
-491.522	59.057	-0.053	-0.052
-490.508	348.995	0.082	-0.162
-489.493	175.254	-0.124	0.181
-488.478	92.950	0.168	0.190
-487.464	-182.170	0.213	-0.004
-486.449	-23.986	-0.204	0.122
-485.435	50.133	-0.212	-0.200
-484.420	49.503	0.271	0.255
-483.405	-200.000	0.010	0.069
-482.391	-49.414	0.159	0.076
-481.376	-29.078	-0.135	-0.077
-480.362	-200.000	0.048	-0.545
-479.347	-200.000	-0.008	0.222
-478.332	-200.000	0.015	0.106
-477.318	333.079	-0.157	-0.303
-476.303	613.022	0.069	-0.173
-475.289	-151.235	0.173	0.013
-474.274	508.341	0.075	0.173
-473.259	-200.000	0.011	0.135
-472.245	-200.000	-0.025	-0.184
-471.230	32.052	-0.100	-0.086
-470.216	-200.000	0.018	-0.092
-469.201	-43.662	-0.045	-0.023
-468.186	1.331	-0.190	-0.137
-467.172	-127.084	0.269	0.039
-466.157	-102.730	-0.125	-0.030
-465.143	-200.000	-0.047	-0.265
-464.128	30.940	-0.276	-0.237
-463.113	550.161	-0.078	-0.187
-462.099	118.997	-0.227	0.280
-461.084	-200.000	0.057	0.265
-460.070	628.027	-0.053	0.133
-459.055	81.084	0.234	0.252
-458.040	-115.105	-0.187	-0.036
-457.026	800.000	0.093	0.301
-456.011	145.119	-0.255	0.341
-454.997	538.318	-0.151	0.360
-453.982	186.875	0.124	-0.185
-452.968	-110.948	0.183	-0.038
-451.953	39.632	0.159	-0.143
-450.938	-47.140	0.159	-0.077
-449.924	363.021	0.033	-0.067
-448.909	-200.000	0.063	0.319
-447.895	-200.000	-0.022	0.306
-446.880	-49.401	0.280	-0.133
-445.865	-69.902	0.106	0.040
-444.851	173.323	-0.083	0.120
-443.836	221.005	0.081	0.130
-442.822	-103.520	-0.106	0.025
-441.807	-1.162	-0.213	0.151
-440.792	800.000	0.047	0.134
-439.778	174.886	-0.075	-0.108
-438.763	-6.414	0.171	0.117
-437.749	116.215	-0.070	-0.086
-436.734	-146.177	0.149	-0.013
-435.719	-200.000	-0.054	0.306
-434.705	1.387	0.143	-0.102
-433.690	139.381	-0.086	0.114
-432.676	-21.566	-0.046	-0.028
-431.661	796.086	-0.117	0.322
-430.646	-130.614	0.301	0.041
-429.632	25.058	-0.275	-0.228
-428.617	131.527	-0.108	0.138
-427.603	-196.449	0.281	0.002
-426.588	17.421	0.034	0.027
-425.573	-0.209	-0.179	-0.127
-424.559	4.020	-0.145	0.106
-423.544	394.325	-0.098	0.204
-422.530	335.957	-0.177	-0.343
-421.515	-103.470	-0.082	-0.019
-420.500	-200.000	-0.113	0.548
-419.486	-200.000	-0.010	0.337
-418.471	173.263	-0.275	-0.395
-417.457	-18.419	0.251	-0.156
-416.442	138.158	-0.061	0.080
-415.428	-200.000	0.006	-0.087
-414.413	800.000	0.021	0.082
-413.398	-102.473	-0.224	-0.054
-412.384	-165.942	-0.261	0.011
-411.369	549.375	0.071	0.169
-410.355	-200.000	-0.012	0.078
-409.340	406.182	0.140	-0.296
-408.325	-78.029	-0.288	0.099
-407.311	-160.662	0.430	0.023
-406.296	36.751	0.267	-0.235
-405.282	24.674	0.137	-0.113
-404.267	-82.299	0.252	-0.082
-403.252	-2.700	-0.288	0.201
-402.238	-135.154	0.244	0.029
-401.223	42.496	-0.135	0.122
-400.209	800.000	0.045	0.186
-399.194	243.996	0.129	0.216
-398.179	-154.339	-0.323	0.022
-397.165	-200.000	-0.005	0.088
-396.150	-24.777	0.259	0.153
-395.136	93.033	-0.238	-0.269
-394.121	800.000	0.029	-0.094
-393.106	-61.770	-0.098	0.041
-392.092	-151.655	-0.149	0.011
-391.077	23.694	0.347	0.285
-390.063	800.000	0.115	0.486
-389.048	17.850	-0.171	0.136
-388.033	-200.000	-0.064	0.298
-387.019	66.554	0.223	-0.226
-386.004	-157.051	0.425	0.026
-384.990	75.431	0.142	-0.149
-383.975	-14.690	0.063	0.040
-382.960	800.000	0.019	-0.071
-381.946	123.488	-0.052	-0.065
-380.931	-37.765	-0.256	-0.136
-379.917	-200.000	0.061	-0.429
-378.902	-126.906	0.183	-0.027
-377.888	180.831	-0.095	-0.139
-376.873	800.000	0.061	-0.266
-375.858	-65.345	0.159	-0.064
-374.844	-200.000	0.004	-0.108
-373.829	143.918	0.249	0.331
-372.815	-45.245	0.214	0.106
-371.800	-200.000	0.006	0.075
-370.785	-7.797	-0.165	0.111
-369.771	25.037	-0.150	-0.124
-368.756	16.970	-0.068	-0.054
-367.742	-200.000	-0.006	-0.186
-366.727	-110.901	-0.608	-0.125
-365.712	36.830	0.163	-0.143
-364.698	-7.682	0.038	0.026
-363.683	3.541	0.163	0.118
-362.669	-91.129	0.214	-0.061
-361.654	-132.743	-0.338	-0.043
-360.639	-127.381	-0.318	0.046
-359.625	148.697	0.048	0.064
-358.610	-103.783	0.368	-0.086
-357.596	94.144	-0.124	-0.140
-356.581	-81.681	0.326	0.107
-355.566	186.862	-0.175	-0.259
-354.552	-200.000	0.025	-0.138
-353.537	-100.523	-0.145	-0.036
-352.523	-200.000	-0.007	0.413
-351.508	-200.000	-0.004	-0.119
-350.493	-76.584	0.194	-0.068
-349.479	800.000	0.031	-0.087
-348.464	-59.389	-0.213	-0.091
-347.450	800.000	0.052	0.163
-346.435	85.608	-0.097	-0.106
-345.420	-188.469	0.084	0.001
-344.406	-200.000	-0.009	-0.070
-343.391	301.340	-0.020	-0.037
-342.377	-2.016	-0.038	0.026
-341.362	-158.334	0.333	-0.019
-340.348	-89.306	0.226	0.066
-339.333	-200.000	0.031	0.149
-338.318	47.538	0.364	0.338
-337.304	682.941	0.109	0.283
-336.289	-126.322	0.100	0.015
-335.275	-200.000	-0.002	0.013
-334.260	159.056	0.203	-0.281
-333.245	-200.000	0.035	0.218
-332.231	185.594	-0.104	0.154
-331.216	12.792	-0.038	0.029
-330.202	133.715	0.094	-0.122
-329.187	-165.082	0.114	-0.005
-328.172	142.596	-0.036	-0.048
-327.158	-49.492	-0.244	0.116
-326.143	24.969	0.027	-0.022
-325.129	55.556	0.152	0.147
-324.114	272.116	-0.127	0.223
-323.099	-105.680	0.193	-0.043
-322.085	129.402	-0.182	0.232
-321.070	41.351	0.102	-0.091
-320.056	-108.027	-0.114	-0.025
-319.041	96.093	-0.143	0.163
-318.026	-76.707	-0.051	-0.018
-317.012	-155.707	-0.277	0.018
-315.997	-189.306	-0.277	0.003
-314.983	-200.000	-0.021	0.092
-313.968	-44.813	-0.170	-0.084
-312.953	800.000	0.092	0.302
-311.939	260.734	0.083	-0.143
-310.924	100.220	0.151	-0.175
-309.910	-19.649	0.230	0.142
-308.895	18.627	0.277	0.220
-307.880	-200.000	0.030	-0.320
-306.866	-200.000	-0.009	-0.232
-305.851	150.351	0.214	-0.288
-304.837	128.433	-0.329	-0.417
-303.822	235.211	0.093	-0.153
-302.807	-46.355	-0.180	0.088
-301.793	-200.000	-0.008	-0.107
-300.778	98.182	-0.066	0.075
-299.764	-105.706	-0.358	0.080
-298.749	167.377	-0.097	-0.136
-297.735	-137.171	-0.175	0.020
-296.720	-52.337	0.096	-0.044
-295.705	597.355	-0.061	0.151
-294.691	140.759	-0.155	-0.203
-293.676	24.635	0.155	0.128
-292.662	-19.372	-0.190	-0.117
-291.647	229.378	0.060	0.097
-290.632	238.684	-0.193	0.318
-289.618	-148.894	0.412	0.033
-288.603	278.974	0.065	-0.115
-287.589	654.183	0.090	-0.230
-286.574	-200.000	-0.063	-0.475
-285.559	339.404	0.050	0.097
-284.545	250.502	0.106	-0.178
-283.530	800.000	0.044	0.153
-282.516	-179.355	-0.109	0.002
-281.501	244.813	0.082	0.138
-280.486	-42.054	0.155	-0.079
-279.472	-2.905	0.189	0.131
-278.457	-124.448	-0.085	0.013
-277.443	144.574	0.087	-0.115
-276.428	-66.895	-0.246	0.097
-275.413	102.959	-0.250	-0.291
-274.399	-184.183	0.235	0.004
-273.384	-44.023	-0.193	0.096
-272.370	106.389	-0.153	-0.180
-271.355	151.795	-0.119	0.161
-270.340	169.016	0.155	0.220
-269.326	-200.000	0.038	-0.195
-268.311	-39.586	0.035	0.018
-267.297	152.744	-0.121	0.164
-266.282	-200.000	0.050	-0.327
-265.267	-50.230	-0.307	-0.144
-264.253	-10.346	0.205	-0.135
-263.238	800.000	-0.151	0.421
-262.224	42.931	-0.133	0.120
-261.209	712.370	-0.076	-0.200
-260.195	-114.609	0.181	0.034
-259.180	-141.026	-0.292	0.030
-258.165	648.509	-0.072	-0.183
-257.151	-69.534	-0.249	0.095
-256.136	640.008	-0.035	0.088
-255.122	10.202	-0.092	0.070
-254.107	163.898	0.138	-0.193
-253.092	800.000	-0.053	0.145
-252.078	-143.514	-0.182	-0.017
-251.063	79.766	-0.239	0.255
-250.049	-79.650	-0.035	0.012
-249.034	-115.765	-0.147	-0.027
-248.019	312.916	-0.034	0.064
-247.005	657.365	0.107	-0.273
-245.990	183.548	0.116	-0.170
-244.976	-200.000	0.041	0.183
-243.961	-200.000	0.086	0.456
-242.946	-49.932	-0.249	0.117
-241.932	-82.361	0.135	-0.043
-240.917	125.974	0.173	0.217
-239.903	-200.000	-0.034	0.231
-238.888	12.956	-0.299	0.229
-237.873	-168.692	-0.257	-0.010
-236.859	800.000	0.082	0.287
-235.844	255.826	0.057	-0.097
-234.830	-200.000	-0.032	-0.251
-233.815	3.803	-0.279	-0.202
-232.800	-92.729	-0.305	0.085
-231.786	800.000	-0.068	-0.281
-230.771	119.147	-0.139	0.170
-229.757	108.516	0.134	-0.158
-228.742	-68.170	-0.172	0.066
-227.727	-86.847	0.171	-0.052
-226.713	-200.000	-0.026	-0.266
-225.698	-141.535	0.159	0.016
-224.684	-118.317	-0.236	-0.042
-223.669	38.943	-0.171	-0.152
-222.655	82.448	0.159	0.171
-221.640	71.175	0.062	0.063
-220.625	62.643	0.217	-0.215
-219.611	-4.087	-0.071	-0.049
-218.596	-200.000	0.173	-0.000
-217.582	-200.000	0.040	0.175
-216.567	-200.000	-0.004	-0.028
-215.552	209.701	0.130	-0.202
-214.538	442.210	0.143	0.310
-213.523	-87.459	0.359	0.108
-212.509	24.697	0.180	0.148
-211.494	-55.644	-0.291	-0.129
-210.479	-8.640	-0.290	-0.193
-209.465	54.768	-0.111	0.106
-208.450	800.000	-0.103	-0.285
-207.436	800.000	0.101	0.297
-206.421	-99.989	-0.308	0.076
-205.406	215.684	-0.100	0.157
-204.392	800.000	-0.098	-0.341
-203.377	430.821	-0.083	-0.178
-202.363	368.298	-0.068	-0.136
-201.348	-58.342	0.375	-0.161
-200.333	-113.727	0.107	-0.021
-199.319	-200.000	0.016	0.173
-198.304	148.909	0.211	0.282
-197.290	-92.816	0.174	0.048
-196.275	439.099	0.040	-0.087
-195.260	-200.000	-0.031	0.163
-194.246	-23.858	0.069	0.041
-193.231	225.730	0.203	0.326
-192.217	-86.097	-0.255	0.078
-191.202	46.628	0.204	-0.187
-190.187	224.253	-0.205	0.328
-189.173	130.825	0.196	-0.249
-188.158	-200.000	-0.052	0.342
-187.144	453.997	0.067	0.148
-186.129	-42.038	0.236	0.120
-185.114	105.828	-0.094	0.110
-184.100	-168.121	-0.302	-0.012
-183.085	-200.000	-0.041	-0.290
-182.071	341.136	0.047	0.092
-181.056	-200.000	0.010	-0.057
-180.042	26.046	-0.206	-0.170
-179.027	-200.000	0.048	0.239
-178.012	-155.986	0.168	0.011
-176.998	2.888	-0.389	-0.279
-175.983	334.171	-0.134	-0.256
-174.969	12.306	0.323	-0.246
-173.954	-96.510	-0.146	0.038
-172.939	-200.000	0.005	-0.202
-171.925	800.000	0.091	-0.353
-170.910	-200.000	-0.002	0.111
-169.896	274.074	0.140	0.245
-168.881	-52.619	0.127	0.058
-167.866	171.694	-0.065	0.093
-166.852	106.578	-0.281	0.330
-165.837	800.000	-0.036	-0.141
-164.823	190.929	-0.055	0.082
-163.808	268.849	0.172	0.298
-162.793	-22.627	0.168	0.101
-161.779	-128.843	-0.238	-0.033
-160.764	131.902	0.134	0.170
-159.750	362.021	0.028	-0.055
-158.735	41.241	-0.172	-0.154
-157.720	471.261	-0.080	-0.178
-156.706	392.054	-0.123	0.253
-155.691	-92.002	-0.388	0.109
-154.677	-200.000	0.016	-0.079
-153.662	-37.318	0.251	0.132
-152.647	-163.882	-0.258	0.012
-151.633	800.000	-0.062	-0.268
-150.618	-200.000	-0.010	0.108
-149.604	800.000	0.037	0.128
-148.589	-200.000	-0.019	-0.124
-147.574	92.970	-0.219	0.244
-146.560	109.561	0.086	-0.102
-145.545	33.150	-0.193	0.166
-144.531	9.344	0.170	0.127
-143.516	85.919	-0.025	-0.027
-142.502	-200.000	0.035	-0.201
-141.487	415.329	-0.067	0.141
-140.472	-200.000	0.094	0.409
-139.458	-145.100	0.126	-0.011
-138.443	-81.501	-0.095	0.031
-137.429	-169.524	-0.135	0.005
-136.414	-20.925	-0.227	-0.137
-135.399	-200.000	0.021	-0.241
-134.385	118.365	-0.326	0.397
-133.370	-52.183	-0.406	0.186
-132.356	-200.000	-0.002	0.069
-131.341	-144.813	0.164	-0.015
-130.326	800.000	0.087	-0.324
-129.312	65.317	-0.154	-0.154
-128.297	-154.512	-0.203	0.013
-127.283	32.594	0.209	-0.178
-126.268	-21.498	0.251	0.151
-125.253	91.447	-0.092	-0.102
-124.239	-200.000	-0.006	0.199
-123.224	-157.653	-0.121	-0.007
-122.210	-200.000	0.055	-0.252
-121.195	800.000	-0.048	0.153
