DTS Sentinel unit serial number:	SN413079Multiplexer serial number:	ORYXHardware model number:	OX4-SRSoftware version number:	ORYX F/W v4.00 Oryx Data Collector v3.7.2.0data status	okinstallation	princeton_trtdifferential loss correction	single-endedforward channel	channel 4reverse channel	N/Adate	2019/09/18time	09:25:35forward acquisition time	60.00reverse acquisition time	0.00gamma	496.2192k internal	0.2324k external	0.2324temperature offset calibration	0.9981default loss term (dB/km)	0.3790temperature slope calibration	1.0000multiplexer offset coefficient	1.0000multiplexer slope coefficient	1.0000fibre end	0.00T internal ref (°C)	26.19T ext. ref 1 (°C)	0.26T ext. ref 2 (°C)	23.42length (m)	temperature (°C)	Stokes	anti-Stokes-747.200	-200.000	-0.007	0.034
-746.185	-23.379	0.267	0.162
-745.171	-200.000	0.028	-0.151
-744.156	-200.000	-0.021	-0.203
-743.142	800.000	-0.067	0.272
-742.127	29.058	0.108	-0.093
-741.112	800.000	-0.127	-0.467
-740.098	800.000	0.054	0.176
-739.083	800.000	0.080	0.332
-738.069	800.000	-0.120	0.413
-737.054	800.000	0.068	-0.211
-736.039	-54.944	-0.144	-0.065
-735.025	375.216	0.033	0.067
-734.010	-52.426	-0.208	0.097
-732.996	18.852	-0.144	-0.116
-731.981	-37.259	0.280	0.151
-730.966	-200.000	-0.012	-0.457
-729.952	215.722	0.176	-0.282
-728.937	-105.231	-0.535	-0.123
-727.923	800.000	-0.053	-0.202
-726.908	-4.733	-0.196	0.136
-725.894	-135.999	0.178	-0.021
-724.879	-200.000	0.018	-0.172
-723.864	130.704	0.178	0.230
-722.850	-139.418	-0.107	-0.012
-721.835	-200.000	0.027	-0.144
-720.821	49.123	-0.091	-0.087
-719.806	-21.126	0.040	0.025
-718.791	-60.549	-0.395	-0.169
-717.777	-119.081	-0.295	-0.052
-716.762	21.153	0.100	0.081
-715.748	328.505	-0.064	-0.124
-714.733	-66.949	-0.344	0.137
-713.718	-110.932	-0.270	0.056
-712.704	-200.000	-0.032	0.219
-711.689	197.687	-0.128	-0.197
-710.675	69.760	-0.176	-0.183
-709.660	800.000	-0.046	-0.141
-708.645	-200.000	0.046	0.426
-707.631	15.094	-0.090	0.071
-706.616	542.090	0.115	-0.277
-705.602	-200.000	-0.021	-0.200
-704.587	800.000	0.104	-0.331
-703.572	-87.855	0.370	-0.112
-702.558	-33.945	0.161	-0.089
-701.543	-11.909	-0.059	-0.039
-700.529	567.924	0.028	-0.068
-699.514	37.875	-0.135	-0.121
-698.499	2.109	-0.100	-0.073
-697.485	-125.264	0.162	-0.025
-696.470	-32.186	0.560	0.315
-695.456	800.000	0.060	-0.217
-694.441	-49.217	-0.120	0.058
-693.426	25.569	-0.133	0.112
-692.412	87.439	0.225	0.250
-691.397	82.073	-0.173	-0.189
-690.383	800.000	-0.016	-0.068
-689.368	157.498	0.153	-0.213
-688.354	77.819	-0.122	0.131
-687.339	-145.241	0.236	0.022
-686.324	-200.000	-0.001	-0.265
-685.310	-53.884	0.176	-0.081
-684.295	5.820	-0.204	-0.152
-683.281	800.000	0.016	0.055
-682.266	-97.602	-0.205	-0.054
-681.251	-80.740	0.261	-0.087
-680.237	-200.000	-0.021	-0.114
-679.222	188.172	-0.089	-0.134
-678.208	-48.754	0.139	-0.067
-677.193	-32.072	0.096	-0.054
-676.178	-162.660	0.055	-0.003
-675.164	-135.379	0.136	-0.016
-674.149	222.566	0.070	-0.114
-673.135	-187.612	0.274	-0.004
-672.120	44.047	0.259	0.239
-671.105	31.969	0.161	0.140
-670.091	200.275	-0.098	-0.151
-669.076	-200.000	-0.091	-0.455
-668.062	-160.889	-0.445	-0.024
-667.047	-86.826	0.340	0.105
-666.032	13.557	0.256	0.200
-665.018	-200.000	0.006	0.187
-664.003	-68.735	0.171	0.067
-662.989	800.000	-0.021	-0.065
-661.974	347.622	0.085	-0.169
-660.959	-73.008	-0.098	-0.036
-659.945	-200.000	-0.045	-0.466
-658.930	-131.930	-0.269	-0.035
-657.916	-91.236	0.198	0.057
-656.901	-10.667	-0.254	0.169
-655.886	800.000	0.046	0.191
-654.872	-76.523	-0.238	-0.084
-653.857	800.000	0.022	-0.061
-652.843	-200.000	-0.057	0.423
-651.828	-107.903	0.161	0.035
-650.814	-178.896	-0.193	-0.004
-649.799	-107.566	0.359	0.079
-648.784	-200.000	-0.013	0.318
-647.770	166.266	-0.109	0.155
-646.755	-8.465	-0.181	-0.122
-645.741	491.282	0.079	-0.183
-644.726	195.663	0.122	0.187
-643.711	-94.179	0.125	0.034
-642.697	112.552	0.265	0.322
-641.682	-17.538	-0.096	0.061
-640.668	126.393	-0.170	-0.217
-639.653	109.381	0.219	0.264
-638.638	316.460	0.034	-0.065
-637.624	105.138	-0.247	0.293
-636.609	683.145	0.070	0.184
-635.595	-16.126	0.253	0.162
-634.580	-68.181	-0.152	-0.060
-633.565	-45.594	-0.213	0.106
-632.551	800.000	-0.061	0.266
-631.536	22.685	0.219	0.181
-630.522	416.351	0.259	-0.556
-629.507	-143.475	-0.360	0.035
-628.492	-200.000	0.037	0.174
-627.478	-6.076	0.276	0.190
-626.463	41.715	0.172	-0.157
-625.449	390.127	-0.027	-0.057
-624.434	-72.202	-0.469	-0.175
-623.419	-200.000	-0.068	-0.344
-622.405	-200.000	-0.020	0.134
-621.390	-79.604	-0.120	0.041
-620.376	146.712	-0.027	-0.037
-619.361	-72.193	0.148	-0.055
-618.346	-200.000	-0.007	0.093
-617.332	-200.000	-0.035	-0.195
-616.317	800.000	-0.032	-0.127
-615.303	690.853	0.032	-0.083
-614.288	-129.954	-0.116	-0.016
-613.273	231.505	-0.122	0.200
-612.259	244.790	0.148	-0.249
-611.244	-200.000	-0.167	-0.001
-610.230	-166.078	-0.158	-0.007
-609.215	800.000	0.098	-0.357
-608.201	-111.891	-0.119	0.024
-607.186	383.875	-0.095	-0.197
-606.171	-123.859	-0.221	0.035
-605.157	188.019	-0.085	-0.128
-604.142	-200.000	-0.044	0.457
-603.128	-41.346	-0.189	-0.098
-602.113	294.365	-0.020	-0.037
-601.098	31.121	-0.125	0.107
-600.084	-101.746	-0.246	-0.060
-599.069	800.000	-0.037	-0.117
-598.055	-43.491	-0.078	0.039
-597.040	-30.259	-0.161	-0.092
-596.025	-200.000	-0.046	0.221
-595.011	-200.000	-0.006	0.072
-593.996	-128.725	0.055	0.008
-592.982	-34.515	0.377	-0.207
-591.967	-146.929	-0.259	-0.022
-590.952	400.445	-0.046	0.098
-589.938	800.000	-0.078	0.227
-588.923	-200.000	0.001	-0.145
-587.909	27.811	-0.102	0.086
-586.894	-200.000	-0.031	0.271
-585.879	205.346	-0.147	0.230
-584.865	-104.393	-0.057	0.013
-583.850	127.421	0.198	-0.252
-582.836	800.000	0.081	-0.251
-581.821	-116.511	-0.209	0.039
-580.806	-66.231	-0.164	-0.066
-579.792	-37.497	0.156	0.084
-578.777	-45.758	-0.366	-0.181
-577.763	-96.068	0.353	-0.094
-576.748	62.656	0.088	-0.088
-575.733	-71.444	-0.149	0.056
-574.719	730.468	0.133	-0.357
-573.704	417.474	-0.095	0.204
-572.690	-32.716	-0.236	0.131
-571.675	-55.917	0.158	0.071
-570.661	-200.000	-0.005	0.038
-569.646	417.577	-0.017	-0.035
-568.631	-23.304	0.112	0.068
-567.617	-53.443	-0.198	-0.091
-566.602	-200.000	0.010	-0.096
-565.588	606.656	-0.156	0.390
-564.573	-88.245	0.083	-0.025
-563.558	-39.175	0.263	0.138
-562.544	-200.000	0.024	0.203
-561.529	195.060	0.154	0.235
-560.515	-67.525	-0.205	0.081
-559.500	42.716	-0.131	0.120
-558.485	-48.336	-0.162	0.078
-557.471	-139.047	0.075	-0.008
-556.456	-46.145	-0.044	0.022
-555.442	32.309	-0.151	-0.131
-554.427	-38.812	0.060	0.032
-553.412	-175.758	0.294	0.008
-552.398	370.161	-0.188	-0.382
-551.383	197.858	-0.163	-0.249
-550.369	42.581	-0.216	0.197
-549.354	-62.020	-0.109	-0.046
-548.339	79.050	0.333	0.358
-547.325	-175.822	-0.289	0.008
-546.310	199.973	-0.196	-0.301
-545.296	-200.000	-0.029	-0.306
-544.281	-200.000	-0.013	-0.134
-543.266	-200.000	0.281	-0.001
-542.252	104.698	-0.198	0.233
-541.237	-105.095	-0.413	0.095
-540.223	-200.000	-0.022	0.197
-539.208	101.737	-0.142	-0.166
-538.193	-96.285	0.134	0.036
-537.179	2.495	0.009	-0.007
-536.164	-85.988	-0.143	-0.044
-535.150	156.191	0.309	0.427
-534.135	-200.000	0.009	0.052
-533.121	190.295	0.018	0.026
-532.106	-149.450	0.242	0.019
-531.091	-200.000	-0.027	0.233
-530.077	120.591	0.393	-0.489
-529.062	-200.000	0.058	0.373
-528.048	-55.774	0.124	0.056
-527.033	-200.000	0.003	0.030
-526.018	800.000	0.022	0.082
-525.004	29.499	-0.125	0.106
-523.989	-57.091	-0.135	-0.059
-522.975	678.412	0.039	-0.101
-521.960	-133.125	-0.250	0.032
-520.945	-200.000	-0.037	0.169
-519.931	800.000	0.047	0.146
-518.916	173.292	-0.240	0.346
-517.902	417.999	-0.096	-0.204
-516.887	695.749	0.055	-0.144
-515.872	145.275	-0.187	0.250
-514.858	56.702	-0.143	0.139
-513.843	-200.000	-0.001	0.253
-512.829	-64.608	0.251	0.102
-511.814	-88.590	-0.169	-0.050
-510.799	-200.000	0.027	-0.217
-509.785	7.970	-0.215	-0.161
-508.770	372.082	0.038	0.078
-507.756	596.132	-0.148	-0.368
-506.741	-50.902	-0.289	-0.136
-505.726	106.089	0.047	0.055
-504.712	-200.000	-0.020	-0.121
-503.697	-116.988	-0.135	0.025
-502.683	-36.735	0.260	-0.140
-501.668	-25.242	0.133	-0.079
-500.653	137.999	0.020	0.027
-499.639	33.513	0.150	-0.130
-498.624	800.000	0.029	0.081
-497.610	227.225	-0.182	0.296
-496.595	-200.000	-0.006	-0.183
-495.581	556.395	-0.024	-0.058
-494.566	-136.534	-0.098	-0.011
-493.551	-108.046	-0.458	0.099
-492.537	-7.754	0.278	-0.188
-491.522	-30.685	0.352	-0.199
-490.508	-164.917	0.171	-0.008
-489.493	-108.464	-0.254	0.055
-488.478	-200.000	0.038	-0.287
-487.464	618.825	-0.063	-0.159
-486.449	800.000	0.103	-0.325
-485.435	-93.032	0.103	0.029
-484.420	18.935	0.310	0.248
-483.405	163.471	0.274	0.384
-482.391	65.683	-0.099	-0.100
-481.376	-200.000	-0.030	-0.263
-480.362	800.000	0.060	-0.175
-479.347	290.220	0.131	0.238
-478.332	-200.000	0.042	0.284
-477.318	14.952	-0.157	0.123
-476.303	82.149	-0.040	-0.043
-475.289	612.315	-0.097	-0.241
-474.274	-102.632	-0.118	-0.028
-473.259	-200.000	0.026	0.203
-472.245	35.929	-0.094	0.083
-471.230	84.491	-0.163	0.178
-470.216	-115.832	0.339	-0.063
-469.201	-11.414	-0.143	-0.094
-468.186	-200.000	0.030	0.000
-467.172	526.477	0.108	-0.254
-466.157	-7.060	0.245	0.166
-465.143	66.296	-0.190	0.192
-464.128	135.744	0.148	0.192
-463.113	800.000	-0.031	-0.105
-462.099	-133.900	0.274	0.034
-461.084	717.734	-0.141	0.374
-460.070	-200.000	0.069	0.476
-459.055	-62.834	-0.123	-0.051
-458.040	77.884	-0.095	-0.101
-457.026	2.753	-0.177	-0.128
-456.011	-118.056	0.319	-0.057
-454.997	800.000	-0.016	-0.070
-453.982	-77.700	0.363	-0.126
-452.968	43.347	0.291	0.265
-451.953	-200.000	-0.066	-0.486
-450.938	-128.951	-0.220	0.031
-449.924	-200.000	0.027	-0.332
-448.909	800.000	-0.132	0.412
-447.895	-144.220	0.239	0.022
-446.880	233.332	0.119	0.196
-445.865	68.241	-0.315	0.322
-444.851	-154.902	0.242	-0.016
-443.836	-63.996	-0.256	-0.104
-442.822	-159.405	0.308	0.017
-441.807	556.611	0.119	-0.285
-440.792	51.182	0.302	0.286
-439.778	231.793	0.023	-0.037
-438.763	154.642	0.184	-0.253
-437.749	-117.056	0.143	0.026
-436.734	-58.573	0.453	-0.196
-435.719	76.674	-0.104	0.110
-434.705	123.184	0.095	0.119
-433.690	800.000	0.063	-0.227
-432.676	-200.000	0.052	-0.263
-431.661	295.639	0.185	-0.338
-430.646	238.674	0.092	-0.152
-429.632	-21.241	-0.156	-0.095
-428.617	688.965	0.111	0.291
-427.603	118.918	-0.039	0.049
-426.588	-184.449	-0.208	0.003
-425.573	34.526	-0.219	-0.191
-424.559	-200.000	0.014	-0.185
-423.544	72.212	0.076	0.079
-422.530	-200.000	-0.070	-0.359
-421.515	-200.000	0.007	0.130
-420.500	278.535	-0.052	-0.093
-419.486	250.318	-0.079	0.134
-418.471	-200.000	0.003	0.152
-417.457	571.631	-0.221	0.537
-416.442	-109.886	0.443	0.093
-415.428	659.849	0.031	0.080
-414.413	-80.970	0.355	0.117
-413.398	69.669	-0.088	0.090
-412.384	70.613	-0.202	0.209
-411.369	46.163	-0.257	0.237
-410.355	-159.967	0.073	0.004
-409.340	136.883	0.182	0.237
-408.325	47.670	-0.174	0.162
-407.311	179.527	0.233	0.339
-406.296	-101.254	-0.189	-0.046
-405.282	113.826	-0.096	-0.117
-404.267	-104.188	0.158	-0.036
-403.252	-193.071	0.278	-0.002
-402.238	-158.576	0.320	0.018
-401.223	-155.281	0.152	0.010
-400.209	64.926	-0.097	-0.098
-399.194	-46.089	-0.413	0.203
-398.179	218.946	-0.055	0.087
-397.165	-127.166	0.209	0.030
-396.150	-107.602	-0.104	-0.023
-395.136	57.340	0.272	-0.265
-394.121	-55.708	-0.311	0.138
-393.106	279.379	-0.199	0.353
-392.092	259.598	0.186	0.320
-391.077	-65.114	-0.224	0.090
-390.063	800.000	-0.024	0.094
-389.048	-51.767	0.299	-0.139
-388.033	-200.000	-0.024	-0.132
-387.019	72.525	-0.120	0.124
-386.004	-57.720	0.199	0.087
-384.990	-140.029	-0.121	0.013
-383.975	44.001	-0.030	0.027
-382.960	-200.000	-0.001	0.037
-381.946	-200.000	0.027	-0.133
-380.931	-70.891	0.183	0.069
-379.917	294.153	0.060	0.109
-378.902	-107.392	0.076	-0.017
-377.888	1.799	-0.138	-0.099
-376.873	42.022	-0.050	-0.045
-375.858	270.204	-0.164	-0.287
-374.844	-79.237	-0.128	0.043
-373.829	568.698	0.065	-0.157
-372.815	355.000	0.207	-0.409
-371.800	107.244	-0.064	0.075
-370.785	35.584	-0.249	-0.217
-369.771	-146.901	0.026	0.002
-368.756	-200.000	-0.019	0.189
-367.742	800.000	0.099	-0.336
-366.727	800.000	0.037	-0.102
-365.712	-200.000	-0.244	-0.000
-364.698	-200.000	-0.001	-0.046
-363.683	79.280	0.113	-0.121
-362.669	-125.345	0.372	-0.056
-361.654	369.974	-0.070	0.141
-360.639	469.303	0.145	0.325
-359.625	-99.426	0.195	0.049
-358.610	-45.512	-0.173	-0.085
-357.596	-200.000	-0.048	0.399
-356.581	645.344	0.032	-0.080
-355.566	-1.751	-0.251	-0.176
-354.552	-150.292	-0.119	-0.009
-353.537	-95.178	0.349	-0.094
-352.523	-158.777	-0.215	-0.012
-351.508	272.241	-0.048	-0.084
-350.493	-67.038	-0.330	-0.130
-349.479	142.348	0.074	-0.098
-348.464	-72.274	-0.331	-0.122
-347.450	800.000	-0.042	0.171
-346.435	-15.639	-0.070	-0.044
-345.420	-132.527	0.222	0.028
-344.406	800.000	-0.089	0.353
-343.391	-122.517	-0.160	-0.026
-342.377	590.095	-0.035	0.087
-341.362	765.164	-0.055	-0.148
-340.348	152.873	-0.208	-0.283
-339.333	458.374	0.119	-0.263
-338.318	800.000	0.059	0.204
-337.304	-70.821	-0.087	0.033
-336.289	-121.669	0.306	-0.050
-335.275	-56.640	-0.093	0.041
-334.260	144.737	0.164	0.218
-333.245	-90.294	0.364	0.105
-332.231	33.924	-0.125	-0.108
-331.216	800.000	-0.146	-0.429
-330.202	-177.262	-0.116	0.003
-329.187	-200.000	-0.028	-0.178
-328.172	-200.000	-0.051	-0.234
-327.158	-7.626	0.196	-0.132
-326.143	-108.390	0.404	-0.087
-325.129	-108.619	0.299	-0.064
-324.114	213.211	-0.066	0.104
-323.099	235.458	0.061	0.100
-322.085	49.328	-0.265	-0.247
-321.070	-39.349	-0.219	-0.114
-320.056	-103.350	-0.147	0.034
-319.041	800.000	-0.009	-0.027
-318.026	800.000	0.065	-0.247
-317.012	337.692	0.080	0.155
-315.997	-34.077	-0.222	0.121
-314.983	87.081	0.228	0.250
-313.968	800.000	-0.064	-0.218
-312.953	17.505	-0.133	0.105
-311.939	5.498	0.185	-0.135
-310.924	-117.572	-0.200	-0.036
-309.910	800.000	0.135	0.412
-308.895	12.342	-0.235	0.180
-307.880	355.210	-0.088	-0.173
-306.866	-73.554	0.313	-0.113
-305.851	203.998	0.219	-0.336
-304.837	174.864	0.074	-0.106
-303.822	-200.000	-0.076	-0.337
-302.807	-73.795	-0.403	-0.145
-301.793	56.790	-0.084	0.081
-300.778	50.012	0.122	-0.114
-299.764	-169.345	-0.184	0.007
-298.749	3.721	-0.376	0.272
-297.735	2.439	0.199	-0.143
-296.720	-143.096	0.261	0.025
-295.705	81.670	0.093	-0.100
-294.691	78.662	0.249	0.265
-293.676	782.274	-0.028	0.075
-292.662	5.608	-0.250	-0.183
-291.647	-126.330	-0.181	0.027
-290.632	82.083	0.148	0.160
-289.618	-69.348	0.179	-0.068
-288.603	-200.000	0.012	0.169
-287.589	385.421	0.135	-0.276
-286.574	-200.000	0.002	-0.075
-285.559	-134.319	-0.173	0.021
-284.545	800.000	0.041	-0.162
-283.530	-169.865	0.193	0.007
-282.516	-26.488	0.372	-0.216
-281.501	-200.000	0.025	-0.221
-280.486	301.858	-0.127	-0.232
-279.472	21.582	-0.153	-0.124
-278.457	525.803	-0.039	-0.090
-277.443	800.000	0.078	0.223
-276.428	28.552	-0.227	0.191
-275.413	-200.000	-0.060	0.388
-274.399	28.270	0.262	-0.219
-273.384	-198.007	0.218	-0.001
-272.370	18.290	0.008	0.007
-271.355	396.486	0.077	0.159
-270.340	60.066	0.187	0.183
-269.326	294.418	0.049	-0.089
-268.311	48.017	-0.185	-0.172
-267.297	184.001	0.138	-0.203
-266.282	112.432	-0.247	-0.296
-265.267	800.000	-0.090	-0.349
-264.253	137.760	0.166	-0.216
-263.238	-150.060	0.247	-0.019
-262.224	3.736	-0.211	-0.153
-261.209	42.617	-0.122	-0.110
-260.195	-86.142	0.366	0.112
-259.180	-89.596	-0.430	-0.125
-258.165	-18.924	-0.315	-0.194
-257.151	657.720	0.121	0.309
-256.136	11.557	0.237	0.180
-255.122	-90.584	0.239	-0.068
-254.107	104.648	0.050	0.058
-253.092	159.733	-0.306	0.423
-252.078	-200.000	0.072	-0.366
-251.063	-110.905	0.370	0.075
-250.049	-100.384	-0.257	0.063
-249.034	280.585	-0.112	0.199
-248.019	-17.478	0.239	-0.149
-247.005	-39.676	-0.203	0.105
-245.990	-200.000	-0.017	0.081
-244.976	0.404	-0.287	-0.203
-243.961	-200.000	0.009	-0.113
-242.946	-76.798	-0.137	0.047
-241.932	-200.000	-0.001	-0.198
-240.917	-90.926	0.380	-0.108
-239.903	-200.000	-0.008	-0.234
-238.888	-5.410	0.087	0.059
-237.873	-1.409	-0.417	0.291
-236.859	-48.189	0.081	-0.039
-235.844	99.142	-0.079	0.090
-234.830	-81.505	0.239	0.078
-233.815	800.000	-0.047	0.152
-232.800	-79.429	-0.165	-0.055
-231.786	-200.000	-0.041	-0.217
-230.771	-99.850	0.151	0.037
-229.757	49.727	0.148	-0.138
-228.742	327.983	0.094	0.178
-227.727	34.231	0.268	0.231
-226.713	-168.450	-0.269	-0.010
-225.698	274.081	-0.137	0.240
-224.684	800.000	0.069	-0.232
-223.669	48.744	-0.117	-0.109
-222.655	-119.326	-0.236	0.041
-221.640	655.829	-0.090	0.229
-220.625	-16.972	0.414	-0.258
-219.611	46.481	0.096	-0.088
-218.596	800.000	-0.088	0.322
-217.582	11.368	-0.215	0.163
-216.567	42.709	-0.175	0.157
-215.552	-196.365	0.236	0.002
-214.538	123.099	0.063	-0.078
-213.523	41.118	0.300	0.268
-212.509	470.379	0.077	0.170
-211.494	-76.033	-0.329	0.115
-210.479	-7.988	0.274	-0.183
-209.465	82.442	0.085	0.092
-208.450	74.897	-0.111	0.116
-207.436	554.221	0.081	0.193
-206.421	800.000	0.104	0.311
-205.406	137.419	0.026	-0.033
-204.392	-200.000	-0.380	-0.000
-203.377	62.559	0.083	0.082
-202.363	-200.000	0.032	-0.186
-201.348	-132.105	-0.251	-0.032
-200.333	101.151	0.045	-0.052
-199.319	30.007	0.484	-0.408
-198.304	70.116	-0.148	-0.151
-197.290	-155.853	-0.228	0.014
-196.275	248.512	0.051	0.085
-195.260	37.208	-0.228	0.199
-194.246	-98.812	-0.114	-0.029
-193.231	358.192	0.071	-0.139
-192.217	459.608	0.124	-0.272
-191.202	-200.000	0.018	0.144
-190.187	-200.000	0.028	-0.393
-189.173	-167.521	0.146	0.006
-188.158	-0.911	-0.113	-0.079
-187.144	14.168	-0.254	-0.196
-186.129	209.829	-0.104	-0.161
-185.114	47.182	-0.197	-0.181
-184.100	107.967	-0.156	-0.183
-183.085	30.399	-0.241	0.203
-182.071	-79.248	-0.084	-0.028
-181.056	648.753	-0.069	-0.174
-180.042	-101.907	0.549	0.131
-179.027	210.691	0.262	0.407
-178.012	-132.529	0.083	-0.010
-176.998	-21.384	-0.104	-0.063
-175.983	-127.939	0.346	0.049
-174.969	490.245	-0.131	0.296
-173.954	425.694	0.013	-0.029
-172.939	800.000	0.087	0.256
-171.925	68.219	0.037	0.037
-170.910	-62.676	0.249	-0.102
-169.896	-200.000	-0.019	-0.218
-168.881	1.096	0.245	-0.174
-167.866	-137.480	-0.307	0.034
-166.852	-200.000	0.037	0.268
-165.837	355.557	-0.089	0.175
-164.823	137.921	-0.058	-0.075
-163.808	401.395	0.110	-0.227
-162.793	52.469	0.056	0.053
-161.779	-133.704	-0.209	0.026
-160.764	-90.290	0.077	-0.022
-159.750	-77.327	-0.201	-0.069
-158.735	103.310	0.264	0.306
-157.720	77.889	0.142	0.150
-156.706	-200.000	-0.022	-0.105
-155.691	-65.656	0.239	-0.094
-154.677	273.923	0.033	-0.057
-153.662	358.170	-0.074	-0.146
-152.647	-63.758	-0.145	-0.058
-151.633	237.896	-0.063	-0.104
-150.618	-32.460	-0.089	0.049
-149.604	-15.854	0.279	0.175
-148.589	236.062	0.025	-0.041
-147.574	-116.591	-0.274	0.050
-146.560	-80.419	0.275	-0.090
-145.545	-112.305	-0.175	-0.034
-144.531	20.332	0.156	-0.124
-143.516	460.820	0.028	-0.062
-142.502	-69.633	-0.094	-0.035
-141.487	-200.000	0.013	0.072
-140.472	-128.508	0.231	-0.032
-139.458	-126.374	-0.088	-0.013
-138.443	-72.703	-0.294	0.107
-137.429	-63.116	0.192	0.078
-136.414	416.617	-0.058	-0.121
-135.399	29.259	-0.140	0.117
-134.385	-144.465	0.206	0.019
-133.370	-136.221	0.057	-0.007
-132.356	-113.896	-0.264	0.051
-131.341	-116.961	-0.173	-0.031
-130.326	349.324	0.207	0.403
-129.312	98.775	-0.065	-0.074
-128.297	-63.910	-0.077	0.031
-127.283	-49.520	0.211	0.099
-126.268	800.000	-0.051	0.193
-125.253	-78.214	-0.191	0.065
-124.239	52.112	-0.142	-0.133
-123.224	800.000	0.046	-0.151
-122.210	-88.271	-0.241	-0.071
