DTS Sentinel unit serial number:	SN413079Multiplexer serial number:	ORYXHardware model number:	OX4-SRSoftware version number:	ORYX F/W v4.00 Oryx Data Collector v3.7.2.0data status	okinstallation	princeton_trtdifferential loss correction	single-endedforward channel	channel 4reverse channel	N/Adate	2019/09/13time	20:57:35forward acquisition time	60.00reverse acquisition time	0.00gamma	496.2192k internal	0.2319k external	0.2319temperature offset calibration	1.0132default loss term (dB/km)	0.3790temperature slope calibration	1.0000multiplexer offset coefficient	1.0000multiplexer slope coefficient	1.0000fibre end	0.00T internal ref (°C)	28.66T ext. ref 1 (°C)	3.14T ext. ref 2 (°C)	23.17length (m)	temperature (°C)	Stokes	anti-Stokes-747.200	-200.000	0.034	-0.392
-746.185	80.093	0.308	0.335
-745.171	-86.745	-0.135	0.042
-744.156	486.105	0.073	0.168
-743.142	191.100	-0.087	-0.132
-742.127	-152.175	-0.103	0.008
-741.112	800.000	-0.057	0.206
-740.098	438.752	-0.098	0.217
-739.083	-139.472	0.047	0.005
-738.069	-71.458	-0.287	-0.109
-737.054	185.439	-0.119	-0.178
-736.039	-95.533	-0.221	0.060
-735.025	101.726	0.218	0.257
-734.010	-96.049	-0.223	0.060
-732.996	48.727	0.142	0.134
-731.981	41.183	0.089	-0.081
-730.966	-126.855	-0.155	0.023
-729.952	-94.154	0.301	0.083
-728.937	56.046	0.145	0.143
-727.923	-37.443	-0.061	0.033
-726.908	-89.804	-0.237	0.070
-725.894	-119.106	-0.389	-0.069
-724.879	327.792	0.052	-0.101
-723.864	-28.472	-0.343	-0.200
-722.850	-53.271	0.075	-0.035
-721.835	-121.516	0.240	0.040
-720.821	355.855	-0.178	-0.359
-719.806	-163.318	-0.042	0.002
-718.791	442.208	0.089	0.197
-717.777	125.872	-0.053	0.067
-716.762	293.828	0.090	-0.167
-715.748	-97.183	0.119	-0.031
-714.733	-166.707	-0.099	-0.004
-713.718	81.805	-0.206	-0.226
-712.704	112.148	-0.160	-0.195
-711.689	252.834	-0.068	-0.118
-710.675	-130.519	0.212	0.029
-709.660	191.808	-0.074	-0.113
-708.645	-37.842	0.033	0.018
-707.631	800.000	0.039	0.124
-706.616	-67.978	-0.205	0.081
-705.602	800.000	-0.028	0.108
-704.587	-144.696	0.080	0.007
-703.572	206.861	-0.117	-0.184
-702.558	-200.000	0.004	0.241
-701.543	77.933	-0.235	0.253
-700.529	17.829	0.071	0.057
-699.514	170.553	-0.154	0.223
-698.499	531.357	-0.113	-0.269
-697.485	7.014	0.155	0.117
-696.470	-61.603	-0.324	-0.137
-695.456	270.686	0.096	-0.170
-694.441	-102.259	-0.218	0.053
-693.426	-68.402	0.051	-0.020
-692.412	-200.000	-0.018	0.116
-691.397	-200.000	-0.011	-0.134
-690.383	-77.019	-0.194	0.069
-689.368	-54.236	-0.296	-0.136
-688.354	-56.620	0.251	-0.112
-687.339	-100.557	-0.221	0.055
-686.324	610.719	0.046	-0.117
-685.310	-58.331	-0.117	-0.051
-684.295	-79.962	-0.298	0.101
-683.281	-133.211	0.195	0.025
-682.266	-200.000	-0.012	-0.216
-681.251	511.019	-0.185	-0.434
-680.237	800.000	0.094	0.338
-679.222	800.000	0.023	-0.090
-678.208	124.743	0.173	0.219
-677.193	-200.000	-0.009	-0.213
-676.178	143.933	-0.186	-0.250
-675.164	292.966	-0.134	-0.246
-674.149	464.600	0.136	-0.307
-673.135	-27.787	-0.027	-0.016
-672.120	32.447	0.115	-0.100
-671.105	92.172	0.131	0.149
-670.091	-108.232	-0.351	-0.077
-669.076	-116.219	-0.060	0.011
-668.062	-109.233	-0.474	-0.101
-667.047	85.873	0.141	-0.157
-666.032	-108.307	0.261	-0.057
-665.018	-152.414	0.289	-0.021
-664.003	-75.207	-0.205	0.074
-662.989	-200.000	0.042	-0.244
-661.974	-108.625	-0.166	0.036
-660.959	-40.479	0.127	-0.066
-659.945	334.602	0.015	0.029
-658.930	-83.904	-0.371	0.119
-657.916	-146.851	-0.297	0.026
-656.901	73.948	0.183	0.193
-655.886	-108.928	0.260	-0.056
-654.872	315.494	0.138	-0.262
-653.857	101.446	-0.218	-0.256
-652.843	188.196	-0.112	0.168
-651.828	67.588	-0.337	-0.347
-650.814	-200.000	-0.032	-0.201
-649.799	-5.093	0.159	-0.110
-648.784	615.396	-0.066	0.167
-647.770	453.234	-0.075	-0.166
-646.755	-200.000	0.045	-0.353
-645.741	-36.212	-0.328	-0.179
-644.726	256.847	-0.073	-0.126
-643.711	-200.000	-0.011	0.071
-642.697	-200.000	-0.008	0.347
-641.682	-200.000	-0.544	-0.001
-640.668	640.558	-0.172	-0.440
-639.653	800.000	0.125	-0.359
-638.638	608.460	-0.038	-0.095
-637.624	800.000	0.083	0.249
-636.609	416.695	0.062	0.134
-635.595	-200.000	-0.042	-0.298
-634.580	-104.946	0.324	-0.075
-633.565	-200.000	0.004	0.040
-632.551	-108.761	-0.424	-0.092
-631.536	23.271	-0.121	-0.100
-630.522	209.261	0.054	-0.086
-629.507	101.111	-0.274	-0.321
-628.492	-22.076	-0.042	-0.026
-627.478	102.391	0.091	-0.107
-626.463	-60.376	-0.183	-0.078
-625.449	-88.853	-0.195	0.058
-624.434	-200.000	-0.024	0.209
-623.419	249.383	-0.224	-0.383
-622.405	-75.355	0.179	-0.064
-621.390	-84.247	-0.090	-0.029
-620.376	-76.491	0.393	-0.139
-619.361	144.563	-0.131	-0.176
-618.346	-8.693	-0.306	-0.207
-617.332	-200.000	0.194	0.000
-616.317	1.799	0.230	-0.167
-615.303	-35.478	0.089	-0.049
-614.288	-44.558	0.089	0.045
-613.273	61.045	-0.119	-0.119
-612.259	66.194	0.217	0.222
-611.244	381.177	0.124	-0.256
-610.230	800.000	-0.097	-0.270
-609.215	30.374	-0.205	-0.176
-608.201	95.008	-0.134	0.154
-607.186	800.000	-0.072	0.257
-606.171	-200.000	-0.051	0.237
-605.157	-28.356	0.260	0.151
-604.142	-93.822	0.197	-0.055
-603.128	590.179	-0.053	0.132
-602.113	-83.418	-0.225	-0.073
-601.098	-104.346	0.143	0.033
-600.084	-200.000	-0.036	0.251
-599.069	541.552	-0.061	0.146
-598.055	89.207	-0.333	-0.373
-597.040	23.189	0.166	-0.137
-596.025	-200.000	0.022	-0.199
-595.011	770.121	-0.090	-0.246
-593.996	-136.601	-0.226	-0.026
-592.982	-11.468	0.190	0.126
-591.967	800.000	0.068	-0.246
-590.952	503.468	0.120	0.278
-589.938	-111.688	-0.082	-0.017
-588.923	166.381	-0.159	0.227
-587.909	-137.225	-0.145	-0.017
-586.894	-164.024	-0.400	-0.019
-585.879	-26.628	-0.234	-0.137
-584.865	-200.000	0.005	0.109
-583.850	-200.000	-0.032	0.249
-582.836	-200.000	0.003	0.015
-581.821	800.000	-0.036	0.147
-580.806	93.269	-0.213	-0.243
-579.792	800.000	0.037	0.146
-578.777	-200.000	-0.016	-0.172
-577.763	-138.738	-0.071	0.008
-576.748	800.000	-0.140	0.394
-575.733	800.000	-0.097	0.329
-574.719	-116.488	0.207	0.038
-573.704	-48.499	-0.283	0.137
-572.690	205.371	-0.184	0.287
-571.675	245.595	-0.088	0.149
-570.661	2.680	-0.270	0.196
-569.646	-200.000	0.030	0.254
-568.631	-200.000	0.011	0.149
-567.617	800.000	0.040	0.145
-566.602	-88.235	-0.245	0.074
-565.588	-56.886	-0.282	-0.125
-564.573	-100.569	0.190	0.047
-563.558	-55.296	0.119	-0.054
-562.544	614.642	0.061	0.154
-561.529	156.299	-0.118	-0.163
-560.515	167.129	0.126	0.180
-559.500	800.000	-0.113	-0.352
-558.485	-129.047	0.317	0.045
-557.471	-4.151	-0.207	-0.144
-556.456	-29.490	0.109	0.062
-555.442	-167.713	-0.350	0.014
-554.427	-200.000	0.081	-0.370
-553.412	-200.000	0.031	0.354
-552.398	-200.000	0.030	0.185
-551.383	-58.698	-0.055	-0.024
-550.369	239.191	0.169	-0.282
-549.354	562.153	-0.142	0.345
-548.339	-4.627	0.315	-0.218
-547.325	-166.546	-0.156	-0.007
-546.310	-200.000	0.001	0.166
-545.296	-200.000	-0.002	0.114
-544.281	-200.000	-0.043	-0.265
-543.266	41.917	-0.069	0.062
-542.252	800.000	-0.079	0.230
-541.237	800.000	0.013	-0.045
-540.223	800.000	0.140	0.477
-539.208	-103.129	0.423	0.101
-538.193	2.997	0.065	0.048
-537.179	96.228	-0.131	-0.150
-536.164	-115.653	0.140	-0.026
-535.150	-178.318	0.372	0.009
-534.135	-200.000	0.001	0.056
-533.121	75.652	0.122	-0.129
-532.106	-76.014	0.226	0.080
-531.091	-200.000	0.077	-0.390
-530.077	50.291	-0.147	-0.140
-529.062	-29.713	0.371	-0.212
-528.048	-200.000	-0.045	0.217
-527.033	-200.000	-0.029	0.152
-526.018	-107.543	0.067	0.015
-525.004	115.403	0.013	-0.016
-523.989	-146.914	-0.319	-0.028
-522.975	-1.721	0.204	0.144
-521.960	-104.642	0.421	-0.097
-520.945	168.503	-0.039	-0.055
-519.931	78.069	0.193	0.206
-518.916	53.524	0.137	0.131
-517.902	-200.000	0.003	-0.016
-516.887	-54.148	-0.065	0.029
-515.872	-94.693	-0.223	-0.061
-514.858	-200.000	-0.071	0.390
-513.843	-200.000	-0.028	-0.137
-512.829	377.534	-0.183	-0.376
-511.814	153.059	0.096	-0.132
-510.799	470.062	0.102	-0.229
-509.785	166.343	0.086	0.122
-508.770	446.834	-0.025	0.055
-507.756	640.586	0.108	-0.276
-506.741	800.000	-0.072	0.212
-505.726	-18.461	-0.085	-0.054
-504.712	-109.747	0.119	0.025
-503.697	-88.285	-0.183	-0.055
-502.683	206.723	-0.107	-0.167
-501.668	60.960	-0.310	-0.309
-500.653	-73.456	0.206	0.075
-499.639	-22.504	0.150	0.091
-498.624	43.285	-0.179	0.164
-497.610	-151.914	-0.061	0.004
-496.595	82.258	0.146	-0.159
-495.581	395.014	-0.047	0.098
-494.566	19.296	-0.190	-0.153
-493.551	125.774	0.118	-0.149
-492.537	-57.464	-0.072	0.032
-491.522	-79.222	-0.301	-0.102
-490.508	-200.000	0.013	0.146
-489.493	-133.845	0.219	0.027
-488.478	403.443	-0.162	-0.341
-487.464	222.427	0.185	-0.298
-486.449	-200.000	-0.049	0.233
-485.435	800.000	0.041	0.150
-484.420	-32.613	-0.139	-0.078
-483.405	-108.300	-0.190	0.041
-482.391	-132.064	0.228	-0.030
-481.376	413.558	-0.152	0.323
-480.362	-4.308	0.021	-0.014
-479.347	-121.668	0.184	0.031
-478.332	40.379	0.187	-0.169
-477.318	-12.318	-0.129	-0.084
-476.303	-58.383	0.203	-0.088
-475.289	372.170	-0.108	0.219
-474.274	63.947	-0.273	-0.275
-473.259	-200.000	-0.052	-0.345
-472.245	-102.704	0.243	0.058
-471.230	800.000	0.032	-0.140
-470.216	-115.182	-0.200	-0.038
-469.201	227.528	0.143	-0.234
-468.186	-105.498	-0.124	0.028
-467.172	-50.749	0.217	-0.102
-466.157	-171.754	-0.405	0.013
-465.143	-33.763	0.004	0.002
-464.128	-95.169	-0.105	0.028
-463.113	-81.287	-0.031	-0.010
-462.099	-200.000	0.012	-0.086
-461.084	-200.000	-0.044	0.204
-460.070	-13.075	0.312	0.203
-459.055	-125.805	0.037	-0.006
-458.040	-77.984	-0.298	-0.103
-457.026	-87.465	-0.250	0.076
-456.011	-67.715	0.100	0.039
-454.997	-200.000	0.021	0.110
-453.982	-105.797	-0.243	-0.055
-452.968	-23.426	-0.329	-0.197
-451.953	-122.379	0.391	0.064
-450.938	46.527	0.062	0.058
-449.924	-38.926	0.202	0.106
-448.909	100.569	-0.091	0.105
-447.895	800.000	0.058	0.237
-446.880	568.670	0.103	0.251
-445.865	251.304	0.091	0.155
-444.851	187.810	-0.215	-0.321
-443.836	87.610	0.282	0.312
-442.822	286.389	-0.166	0.300
-441.807	-63.541	-0.230	-0.095
-440.792	-200.000	0.034	-0.377
-439.778	-147.479	-0.226	0.019
-438.763	580.618	-0.204	-0.501
-437.749	69.639	0.111	-0.114
-436.734	42.315	0.072	0.065
-435.719	-49.152	-0.084	-0.040
-434.705	-127.219	0.159	-0.023
-433.690	-80.421	-0.228	0.076
-432.676	-26.237	0.235	-0.138
-431.661	-137.961	-0.141	-0.016
-430.646	180.872	-0.089	0.130
-429.632	800.000	-0.057	-0.202
-428.617	25.999	0.162	0.135
-427.603	-200.000	-0.042	0.215
-426.588	-109.121	-0.207	-0.044
-425.573	440.778	0.174	0.381
-424.559	81.354	0.263	0.284
-423.544	-123.368	0.145	-0.023
-422.530	347.377	-0.027	0.053
-421.515	-180.588	-0.150	0.003
-420.500	83.386	0.146	0.158
-419.486	273.827	-0.068	0.121
-418.471	-200.000	-0.025	-0.207
-417.457	-200.000	-0.052	-0.399
-416.442	76.632	-0.074	0.078
-415.428	285.256	-0.125	0.226
-414.413	304.572	0.084	-0.156
-413.398	-200.000	0.028	-0.366
-412.384	800.000	0.048	0.173
-411.369	-106.204	0.036	0.008
-410.355	208.292	-0.085	-0.133
-409.340	-200.000	-0.008	0.103
-408.325	800.000	0.059	-0.207
-407.311	199.188	0.111	0.170
-406.296	-138.377	0.154	0.017
-405.282	262.117	0.079	0.137
-404.267	800.000	-0.115	-0.329
-403.252	-200.000	-0.057	-0.308
-402.238	-104.499	0.287	-0.066
-401.223	63.443	0.210	0.210
-400.209	-200.000	0.018	0.146
-399.194	-200.000	0.017	-0.197
-398.179	-200.000	-0.046	-0.362
-397.165	209.769	0.157	-0.246
-396.150	82.428	-0.084	-0.091
-395.136	5.553	0.072	0.053
-394.121	-200.000	0.031	-0.634
-393.106	-200.000	0.016	0.136
-392.092	-8.326	0.186	-0.125
-391.077	328.861	-0.089	0.171
-390.063	394.052	-0.078	0.162
-389.048	800.000	-0.025	-0.084
-388.033	400.232	0.270	0.566
-387.019	-39.082	0.127	-0.067
-386.004	50.159	-0.114	-0.108
-384.990	236.812	-0.136	0.225
-383.975	-200.000	-0.003	-0.204
-382.960	145.629	0.098	0.131
-381.946	-200.000	0.007	0.116
-380.931	-200.000	0.004	0.022
-379.917	44.390	-0.267	0.244
-378.902	-200.000	-0.071	-0.336
-377.888	-200.000	-0.010	0.226
-376.873	86.770	-0.165	-0.181
-375.858	28.614	0.203	-0.171
-374.844	-110.704	0.230	0.047
-373.829	402.196	0.025	-0.052
-372.815	162.892	0.048	-0.068
-371.800	122.278	0.107	0.134
-370.785	-42.455	-0.258	-0.131
-369.771	58.192	0.119	0.116
-368.756	392.472	-0.132	-0.274
-367.742	20.391	0.128	-0.103
-366.727	30.134	-0.120	0.102
-365.712	92.642	0.231	0.260
-364.698	-77.258	-0.356	0.123
-363.683	6.696	0.245	0.182
-362.669	483.174	-0.121	0.275
-361.654	800.000	-0.081	-0.270
-360.639	-200.000	-0.030	-0.209
-359.625	-39.062	-0.138	-0.072
-358.610	94.621	0.128	-0.145
-357.596	55.358	-0.328	0.316
-356.581	161.864	0.116	-0.162
-355.566	-200.000	-0.089	0.400
-354.552	800.000	0.007	0.030
-353.537	-33.729	0.089	-0.049
-352.523	330.204	0.126	-0.241
-351.508	-165.018	-0.211	0.009
-350.493	245.527	0.199	0.334
-349.479	-154.911	-0.435	-0.029
-348.464	-4.154	-0.248	0.171
-347.450	77.140	-0.166	0.176
-346.435	-58.981	0.375	0.161
-345.420	-149.241	-0.175	-0.014
-344.406	-105.686	-0.021	0.005
-343.391	-160.070	-0.318	0.017
-342.377	581.053	0.066	0.161
-341.362	-28.199	-0.180	-0.103
-340.348	133.611	0.128	-0.165
-339.333	800.000	-0.089	0.283
-338.318	-61.587	-0.085	-0.035
-337.304	-76.642	-0.249	-0.087
-336.289	327.083	-0.067	-0.128
-335.275	-46.576	0.319	-0.156
-334.260	-84.144	0.587	-0.186
-333.245	-59.875	0.191	-0.081
-332.231	-200.000	-0.033	-0.178
-331.216	-79.372	0.164	0.055
-330.202	32.260	0.112	-0.096
-329.187	-115.344	0.297	0.056
-328.172	362.362	-0.205	-0.409
-327.158	25.548	0.204	0.169
-326.143	-200.000	-0.046	0.278
-325.129	76.611	-0.406	0.428
-324.114	-49.813	0.657	-0.311
-323.099	-96.821	0.179	0.047
-322.085	4.643	-0.252	-0.184
-321.070	800.000	0.106	-0.366
-320.056	-97.552	-0.342	0.088
-319.041	-200.000	0.016	0.374
-318.026	11.978	-0.189	-0.144
-317.012	800.000	0.006	-0.022
-315.997	-200.000	0.009	0.182
-314.983	-46.786	0.185	-0.090
-313.968	-47.676	0.232	-0.112
-312.953	202.626	0.079	-0.121
-311.939	-71.906	0.152	-0.056
-310.924	-108.808	-0.112	0.024
-309.910	303.225	-0.174	0.320
-308.895	-59.427	0.189	0.081
-307.880	180.123	-0.087	0.127
-306.866	37.866	0.212	0.188
-305.851	120.953	0.065	-0.080
-304.837	388.325	0.102	-0.210
-303.822	198.211	0.100	-0.153
-302.807	-119.151	0.104	-0.018
-301.793	-110.832	-0.107	-0.022
-300.778	800.000	-0.074	-0.206
-299.764	149.769	-0.306	0.412
-298.749	-200.000	0.016	0.215
-297.735	800.000	-0.005	-0.018
-296.720	28.713	-0.098	0.082
-295.705	-91.644	0.321	-0.091
-294.691	5.365	-0.185	-0.136
-293.676	-200.000	0.022	-0.315
-292.662	-64.481	0.193	-0.078
-291.647	-200.000	-0.101	0.516
-290.632	-200.000	0.034	0.302
-289.618	-0.420	-0.153	0.108
-288.603	-20.390	0.181	-0.111
-287.589	-161.578	-0.101	0.005
-286.574	-61.543	0.267	-0.111
-285.559	-200.000	-0.003	-0.231
-284.545	107.272	-0.086	-0.102
-283.530	-200.000	0.019	0.271
-282.516	-200.000	-0.004	0.086
-281.501	800.000	0.103	-0.370
-280.486	69.448	-0.147	0.151
-279.472	219.879	-0.301	0.479
-278.457	370.380	-0.124	0.249
-277.443	147.068	-0.159	0.212
-276.428	800.000	0.033	-0.117
-275.413	221.968	-0.045	-0.073
-274.399	-109.632	0.358	0.075
-273.384	-96.544	0.500	-0.131
-272.370	-49.119	0.176	0.084
-271.355	-99.247	0.166	-0.042
-270.340	198.780	-0.093	0.141
-269.326	800.000	0.068	0.214
-268.311	-200.000	-0.006	0.102
-267.297	-61.455	0.063	-0.026
-266.282	-26.474	-0.084	0.049
-265.267	436.643	-0.125	0.271
-264.253	-17.774	0.241	-0.150
-263.238	-50.470	0.258	-0.121
-262.224	-200.000	-0.024	-0.178
-261.209	800.000	-0.061	0.264
-260.195	800.000	-0.078	-0.257
-259.180	-200.000	-0.004	0.236
-258.165	800.000	-0.029	-0.102
-257.151	498.129	-0.067	0.154
-256.136	-10.420	-0.099	-0.065
-255.122	44.726	-0.047	0.043
-254.107	-200.000	-0.066	0.289
-253.092	-166.086	0.429	-0.018
-252.078	-200.000	0.058	-0.000
-251.063	-98.865	0.064	-0.016
-250.049	-132.671	-0.150	-0.019
-249.034	-144.856	-0.199	-0.018
-248.019	-113.691	0.091	0.018
-247.005	-76.377	-0.188	0.066
-245.990	-170.655	0.228	-0.008
-244.976	-145.364	0.215	0.019
-243.961	126.514	0.044	-0.055
-242.946	4.023	-0.083	-0.060
-241.932	149.232	0.041	-0.055
-240.917	-71.876	-0.213	0.079
-239.903	-72.605	-0.177	0.065
-238.888	129.403	-0.163	-0.207
-237.873	-111.743	-0.294	-0.059
-236.859	16.868	0.170	-0.133
-235.844	-40.648	0.187	0.096
-234.830	-152.397	0.054	-0.004
-233.815	194.512	0.113	0.170
-232.800	65.036	0.085	0.085
-231.786	-16.414	-0.197	0.124
-230.771	-200.000	0.019	-0.100
-229.757	-29.385	0.262	0.148
-228.742	-139.858	-0.204	-0.021
-227.727	800.000	0.135	-0.470
-226.713	-114.693	0.220	-0.042
-225.698	-163.318	-0.232	0.011
-224.684	-26.966	0.123	0.071
-223.669	800.000	-0.051	-0.146
-222.655	800.000	0.026	0.079
-221.640	499.270	0.008	0.018
-220.625	11.482	-0.342	0.259
-219.611	-99.319	-0.509	-0.127
-218.596	80.763	0.199	0.212
-217.582	108.430	0.134	0.159
-216.567	-200.000	-0.001	-0.042
-215.552	83.722	0.212	0.229
-214.538	37.696	-0.100	0.088
-213.523	-200.000	-0.127	0.585
-212.509	-171.267	0.137	0.005
-211.494	-93.882	0.069	0.019
-210.479	-106.747	0.070	0.015
-209.465	-104.031	-0.199	0.046
-208.450	-200.000	0.014	-0.236
-207.436	781.528	-0.060	-0.161
-206.421	100.081	0.120	0.138
-205.406	47.406	0.112	0.104
-204.392	198.415	-0.115	-0.174
-203.377	-16.833	-0.183	-0.114
-202.363	166.352	-0.034	0.048
-201.348	-200.000	-0.000	-0.184
-200.333	-200.000	-0.056	0.253
-199.319	-200.000	-0.054	-0.418
-198.304	-145.942	0.227	-0.020
-197.290	-200.000	-0.006	0.205
-196.275	-76.365	0.353	-0.123
-195.260	-151.777	-0.356	-0.026
-194.246	14.423	0.151	0.116
-193.231	-200.000	-0.025	0.183
-192.217	-57.530	-0.166	0.072
-191.202	205.930	-0.162	-0.250
-190.187	-187.656	-0.229	-0.003
-189.173	243.138	0.225	-0.374
-188.158	-200.000	-0.004	-0.231
-187.144	227.680	0.080	0.129
-186.129	-40.102	0.215	0.111
-185.114	-200.000	0.013	0.065
-184.100	-4.493	-0.215	-0.147
-183.085	-128.453	-0.224	0.031
-182.071	-70.557	-0.181	-0.068
-181.056	-70.103	0.140	-0.053
-180.042	-61.677	0.200	-0.083
-179.027	-200.000	-0.010	0.155
-178.012	-153.037	-0.110	0.008
-176.998	-200.000	0.045	-0.313
-175.983	514.364	-0.052	0.120
-174.969	-112.458	-0.098	0.019
-173.954	-200.000	0.024	0.364
-172.939	800.000	-0.052	0.144
-171.925	-33.467	-0.246	0.135
-170.910	800.000	-0.072	-0.243
-169.896	19.209	0.140	-0.111
-168.881	119.617	0.088	-0.108
-167.866	45.623	-0.126	0.115
-166.852	-200.000	0.004	0.360
-165.837	243.012	0.044	0.074
-164.823	379.229	0.229	0.463
-163.808	-52.112	0.215	-0.098
-162.793	-127.640	0.033	-0.005
-161.779	800.000	0.101	-0.419
-160.764	-16.693	0.129	0.081
-159.750	-78.055	0.129	-0.044
-158.735	29.205	0.310	-0.260
-157.720	388.499	0.062	-0.127
-156.706	105.144	0.178	-0.208
-155.691	106.476	0.148	-0.173
-154.677	-200.000	-0.084	0.443
-153.662	38.329	0.181	0.160
-152.647	-200.000	-0.007	-0.093
-151.633	-42.472	0.328	-0.165
-150.618	47.196	-0.025	-0.023
-149.604	-124.088	0.312	-0.048
-148.589	478.825	-0.099	0.221
-147.574	71.931	0.132	0.136
-146.560	-107.867	-0.336	0.072
-145.545	-200.000	0.034	0.154
-144.531	-200.000	-0.028	-0.142
-143.516	-62.918	-0.155	-0.063
-142.502	86.068	0.222	-0.241
-141.487	237.767	0.135	-0.221
-140.472	800.000	-0.071	-0.273
-139.458	20.082	-0.157	0.125
-138.443	-200.000	0.002	0.147
-137.429	-169.764	0.182	0.006
-136.414	800.000	0.126	0.364
-135.399	149.628	-0.122	-0.164
-134.385	560.709	-0.090	0.214
-133.370	-103.435	0.194	0.045
-132.356	-88.485	-0.178	-0.052
-131.341	-200.000	0.008	0.164
-130.326	-5.127	0.409	0.278
-129.312	-142.522	0.423	0.041
-128.297	381.346	0.026	-0.054
-127.283	800.000	0.079	0.302
-126.268	-120.847	0.260	0.043
-125.253	-200.000	0.021	0.223
-124.239	800.000	0.058	0.244
-123.224	800.000	-0.084	-0.283
-122.210	63.989	0.264	-0.262
