DTS Sentinel unit serial number:	SN413079Multiplexer serial number:	ORYXHardware model number:	OX4-SRSoftware version number:	ORYX F/W v4.00 Oryx Data Collector v3.7.2.0data status	okinstallation	princeton_trtdifferential loss correction	single-endedforward channel	channel 4reverse channel	N/Adate	2019/09/16time	21:45:35forward acquisition time	60.00reverse acquisition time	0.00gamma	496.2192k internal	0.2313k external	0.2313temperature offset calibration	0.9965default loss term (dB/km)	0.3790temperature slope calibration	1.0000multiplexer offset coefficient	1.0000multiplexer slope coefficient	1.0000fibre end	0.00T internal ref (°C)	31.31T ext. ref 1 (°C)	0.05T ext. ref 2 (°C)	25.61length (m)	temperature (°C)	Stokes	anti-Stokes-747.200	175.762	0.025	-0.037
-746.185	384.317	-0.174	0.363
-745.171	139.605	0.109	-0.146
-744.156	243.033	0.098	0.166
-743.142	800.000	0.019	0.061
-742.127	20.493	-0.392	0.322
-741.112	-200.000	-0.014	0.266
-740.098	102.654	-0.099	-0.117
-739.083	58.469	0.194	-0.193
-738.069	-65.831	-0.353	0.143
-737.054	-46.886	0.233	0.115
-736.039	-38.751	-0.146	-0.078
-735.025	11.235	-0.383	0.297
-734.010	147.820	-0.129	-0.176
-732.996	-200.000	-0.024	0.207
-731.981	-109.982	-0.257	-0.054
-730.966	34.409	0.271	-0.240
-729.952	-81.230	-0.336	-0.113
-728.937	113.662	-0.086	-0.106
-727.923	311.989	-0.047	0.090
-726.908	-200.000	-0.004	-0.171
-725.894	-117.232	0.495	-0.091
-724.879	69.219	0.237	-0.247
-723.864	306.790	0.153	-0.289
-722.850	-19.918	-0.171	-0.107
-721.835	37.641	-0.259	-0.233
-720.821	-200.000	-0.014	-0.184
-719.806	276.530	0.144	0.259
-718.791	800.000	0.050	0.148
-717.777	-8.517	0.114	-0.077
-716.762	800.000	0.033	-0.099
-715.748	-152.030	0.125	-0.009
-714.733	128.446	-0.068	-0.088
-713.718	-200.000	-0.044	-0.377
-712.704	52.525	0.255	-0.247
-711.689	-5.034	0.147	0.103
-710.675	2.513	-0.094	0.069
-709.660	-182.223	0.467	0.009
-708.645	-126.052	-0.086	0.013
-707.631	226.486	0.091	-0.150
-706.616	51.944	-0.211	-0.204
-705.602	-85.052	-0.273	0.087
-704.587	-200.000	-0.018	0.079
-703.572	376.678	-0.129	0.267
-702.558	-32.839	-0.175	0.098
-701.543	-141.352	-0.077	-0.008
-700.529	217.371	0.045	-0.072
-699.514	800.000	0.096	0.293
-698.499	-200.000	-0.000	-0.465
-697.485	-200.000	-0.043	-0.258
-696.470	-200.000	0.005	-0.317
-695.456	800.000	-0.031	-0.125
-694.441	-170.524	-0.445	-0.016
-693.426	-64.014	-0.123	-0.051
-692.412	800.000	0.020	-0.065
-691.397	-34.647	0.201	0.111
-690.383	-24.169	0.100	0.060
-689.368	-200.000	-0.001	0.233
-688.354	161.034	-0.130	0.183
-687.339	91.872	-0.253	0.288
-686.324	-74.179	0.066	-0.024
-685.310	-157.833	-0.349	-0.021
-684.295	-200.000	0.003	-0.048
-683.281	-200.000	-0.052	-0.237
-682.266	304.206	-0.007	-0.013
-681.251	-99.227	-0.293	-0.075
-680.237	-200.000	0.070	0.465
-679.222	309.508	-0.084	-0.159
-678.208	-200.000	-0.048	-0.241
-677.193	800.000	-0.118	-0.375
-676.178	160.342	0.336	0.473
-675.164	-200.000	-0.002	0.420
-674.149	-3.130	0.139	0.098
-673.135	359.876	-0.147	-0.298
-672.120	361.692	0.051	0.104
-671.105	13.660	0.046	0.036
-670.091	-1.711	0.101	0.072
-669.076	-9.372	0.352	0.238
-668.062	800.000	0.104	-0.339
-667.047	86.344	-0.035	0.038
-666.032	3.025	-0.249	-0.183
-665.018	-189.339	0.095	0.001
-664.003	-200.000	0.002	-0.084
-662.989	-60.677	-0.110	-0.047
-661.974	800.000	-0.049	-0.149
-660.959	-22.375	-0.184	0.112
-659.945	-200.000	0.014	0.193
-658.930	255.119	-0.043	0.074
-657.916	-142.939	0.033	-0.003
-656.901	-100.255	-0.185	-0.046
-655.886	-65.190	0.173	0.071
-654.872	230.473	-0.008	0.014
-653.857	-100.830	-0.039	0.010
-652.843	-8.182	0.235	0.160
-651.828	-144.750	0.364	-0.034
-650.814	209.152	-0.106	0.168
-649.799	116.857	0.125	0.155
-648.784	244.900	-0.094	0.159
-647.770	800.000	0.068	-0.198
-646.755	39.948	-0.121	-0.110
-645.741	517.827	0.064	0.152
-644.726	-70.269	-0.241	0.092
-643.711	-132.424	-0.167	0.022
-642.697	-199.598	-0.067	-0.000
-641.682	-200.000	-0.049	0.230
-640.668	199.487	-0.131	-0.203
-639.653	26.025	0.134	0.113
-638.638	-128.011	0.128	-0.019
-637.624	124.961	-0.087	-0.111
-636.609	194.027	-0.055	0.085
-635.595	114.833	-0.086	0.106
-634.580	-200.000	0.037	0.199
-633.565	-21.175	-0.105	-0.065
-632.551	-41.526	-0.028	0.014
-631.536	-200.000	0.050	0.357
-630.522	-96.294	0.340	-0.091
-629.507	21.601	-0.135	-0.111
-628.492	-200.000	0.044	0.365
-627.478	256.381	0.123	-0.213
-626.463	-200.000	0.019	-0.319
-625.449	375.653	0.033	-0.068
-624.434	-72.026	-0.286	0.107
-623.419	184.621	-0.101	-0.152
-622.405	-94.947	0.211	-0.058
-621.390	74.341	0.232	-0.246
-620.376	-62.954	0.143	-0.059
-619.361	800.000	0.083	-0.236
-618.346	28.777	-0.120	0.102
-617.332	168.014	0.270	-0.387
-616.317	-200.000	0.005	0.032
-615.303	800.000	0.007	-0.029
-614.288	77.842	-0.086	0.092
-613.273	-18.666	0.307	0.193
-612.259	199.984	0.067	-0.103
-611.244	-200.000	-0.021	0.225
-610.230	130.103	0.075	-0.097
-609.215	94.106	0.118	0.135
-608.201	-40.884	0.154	0.080
-607.186	-102.885	-0.484	0.116
-606.171	140.965	0.058	0.077
-605.157	-101.240	-0.436	0.107
-604.142	-6.958	0.209	-0.143
-603.128	169.859	-0.053	0.076
-602.113	178.293	-0.214	-0.315
-601.098	0.853	-0.294	0.212
-600.084	16.443	-0.061	-0.049
-599.069	735.901	0.058	0.156
-598.055	800.000	-0.097	-0.271
-597.040	-12.617	-0.134	-0.088
-596.025	-152.995	-0.229	0.016
-595.011	192.569	-0.108	-0.165
-593.996	-200.000	-0.040	-0.222
-592.982	-107.797	0.023	-0.005
-591.967	46.699	0.205	0.192
-590.952	183.019	-0.124	-0.185
-589.938	61.174	-0.164	-0.165
-588.923	190.362	0.312	-0.473
-587.909	-168.303	0.181	-0.007
-586.894	-200.000	0.014	0.098
-585.879	-75.133	-0.227	-0.082
-584.865	-124.495	0.276	0.043
-583.850	-66.763	-0.151	0.060
-582.836	-200.000	0.010	0.146
-581.821	-200.000	0.021	-0.239
-580.806	53.307	-0.140	0.135
-579.792	-47.563	0.095	0.046
-578.777	-36.003	0.027	-0.014
-577.763	-22.282	0.276	-0.168
-576.748	-12.711	0.193	0.127
-575.733	22.647	-0.179	0.147
-574.719	-68.631	0.290	0.113
-573.704	800.000	-0.031	0.111
-572.690	91.091	0.112	-0.127
-571.675	184.558	0.092	-0.138
-570.661	105.402	0.224	-0.266
-569.646	-130.376	-0.308	0.042
-568.631	129.396	-0.114	-0.147
-567.617	212.774	0.167	-0.266
-566.602	14.375	-0.206	-0.162
-565.588	0.393	-0.147	-0.105
-564.573	800.000	0.080	-0.256
-563.558	-65.200	0.313	0.127
-562.544	-166.098	-0.259	-0.011
-561.529	366.814	0.087	0.178
-560.515	-37.427	0.229	-0.123
-559.500	143.665	0.136	-0.183
-558.485	-126.000	-0.204	-0.031
-557.471	-146.365	-0.209	-0.018
-556.456	8.954	0.106	-0.081
-555.442	114.894	0.074	0.091
-554.427	-102.075	-0.186	0.045
-553.412	533.780	-0.056	-0.133
-552.398	-138.844	-0.219	0.024
-551.383	-200.000	-0.004	-0.115
-550.369	-200.000	-0.000	0.370
-549.354	-76.311	0.133	0.047
-548.339	-44.690	-0.112	-0.056
-547.325	-200.000	-0.030	-0.283
-546.310	-138.715	-0.436	0.048
-545.296	-200.000	-0.012	-0.185
-544.281	-200.000	-0.015	-0.251
-543.266	-200.000	0.019	0.330
-542.252	-115.996	-0.169	0.032
-541.237	681.420	-0.094	0.247
-540.223	-200.000	-0.054	0.331
-539.208	-78.039	-0.153	0.053
-538.193	-14.407	0.142	0.092
-537.179	-11.712	-0.033	0.022
-536.164	-116.737	0.236	-0.044
-535.150	318.910	0.010	-0.020
-534.135	-80.307	-0.260	0.088
-533.121	192.219	0.158	-0.240
-532.106	713.829	0.110	-0.294
-531.091	-200.000	-0.016	-0.105
-530.077	-200.000	0.039	-0.209
-529.062	266.367	-0.029	-0.051
-528.048	-11.407	-0.174	-0.115
-527.033	44.376	-0.379	0.350
-526.018	14.660	0.310	-0.244
-525.004	-45.964	0.223	-0.111
-523.989	-152.913	-0.260	-0.018
-522.975	-179.884	-0.085	-0.002
-521.960	298.372	0.074	0.137
-520.945	-79.373	0.036	-0.012
-519.931	-87.614	0.162	0.049
-518.916	-18.202	0.174	-0.109
-517.902	800.000	-0.041	0.129
-516.887	296.756	-0.112	-0.206
-515.872	413.126	0.137	-0.293
-514.858	-200.000	0.007	-0.108
-513.843	-42.174	0.254	0.130
-512.829	-16.348	-0.259	-0.165
-511.814	-149.668	0.334	0.026
-510.799	-0.546	-0.033	0.023
-509.785	-200.000	0.012	0.247
-508.770	460.380	-0.121	-0.272
-507.756	-200.000	0.010	0.258
-506.741	39.070	0.383	0.344
-505.726	159.834	0.208	-0.292
-504.712	800.000	-0.080	-0.309
-503.697	-14.200	0.242	0.157
-502.683	444.614	-0.102	0.226
-501.668	-143.761	0.049	-0.005
-500.653	157.896	0.112	0.156
-499.639	108.763	0.039	-0.046
-498.624	16.369	0.146	-0.116
-497.610	61.694	0.034	0.034
-496.595	539.343	-0.154	0.368
-495.581	77.136	0.247	0.263
-494.566	-42.965	-0.202	0.103
-493.551	476.519	-0.117	-0.266
-492.537	14.932	-0.082	0.064
-491.522	127.937	0.055	-0.071
-490.508	-200.000	0.016	0.083
-489.493	1.549	0.073	0.053
-488.478	-200.000	0.017	-0.230
-487.464	405.323	-0.051	0.107
-486.449	-85.829	0.304	0.095
-485.435	800.000	0.018	0.061
-484.420	191.175	0.217	0.328
-483.405	800.000	-0.065	-0.266
-482.391	88.079	-0.246	-0.274
-481.376	-200.000	-0.055	0.263
-480.362	800.000	-0.041	0.128
-479.347	-130.474	-0.187	-0.025
-478.332	-128.412	-0.065	-0.009
-477.318	102.097	0.125	0.146
-476.303	-200.000	-0.003	-0.096
-475.289	98.967	0.162	-0.187
-474.274	404.316	0.097	-0.205
-473.259	800.000	0.014	-0.051
-472.245	-180.502	0.088	-0.002
-471.230	-43.627	-0.058	-0.029
-470.216	541.415	0.122	-0.292
-469.201	182.753	0.058	0.086
-468.186	-200.000	-0.017	0.129
-467.172	4.572	-0.075	0.055
-466.157	672.642	0.026	0.068
-465.143	-59.161	-0.260	0.112
-464.128	-107.083	-0.472	0.104
-463.113	800.000	-0.096	-0.381
-462.099	60.584	0.083	-0.082
-461.084	-200.000	-0.016	-0.236
-460.070	-95.318	0.271	0.073
-459.055	370.254	0.074	-0.150
-458.040	-84.226	-0.503	-0.160
-457.026	-200.000	-0.018	0.108
-456.011	-120.988	0.397	-0.067
-454.997	-200.000	-0.010	0.124
-453.982	-141.987	0.108	0.011
-452.968	-150.008	-0.377	-0.029
-451.953	117.021	0.215	-0.264
-450.938	-58.925	0.157	-0.068
-449.924	800.000	-0.064	-0.256
-448.909	-53.874	0.258	-0.118
-447.895	281.081	-0.067	0.119
-446.880	-171.384	0.147	0.005
-445.865	800.000	-0.054	0.156
-444.851	-31.925	0.325	0.183
-443.836	101.397	-0.206	-0.241
-442.822	219.062	-0.016	0.025
-441.807	149.788	0.256	-0.348
-440.792	10.382	0.041	0.031
-439.778	-172.088	-0.285	-0.009
-438.763	800.000	0.047	-0.198
-437.749	-200.000	0.010	-0.112
-436.734	800.000	-0.063	-0.179
-435.719	800.000	0.036	0.115
-434.705	-200.000	0.046	0.277
-433.690	562.821	0.053	0.128
-432.676	255.540	-0.103	-0.176
-431.661	-27.095	0.119	-0.069
-430.646	800.000	0.072	0.254
-429.632	-67.044	0.280	0.111
-428.617	-36.002	0.191	0.104
-427.603	-200.000	0.042	-0.196
-426.588	-200.000	-0.019	0.306
-425.573	-200.000	0.003	0.331
-424.559	109.632	0.138	0.166
-423.544	1.296	0.092	-0.066
-422.530	20.108	-0.230	-0.186
-421.515	115.652	0.235	-0.287
-420.500	-44.930	0.060	-0.030
-419.486	-152.613	-0.111	-0.008
-418.471	-200.000	0.021	-0.128
-417.457	-127.697	-0.266	0.038
-416.442	96.380	-0.293	-0.335
-415.428	54.210	0.177	-0.170
-414.413	71.414	-0.174	-0.181
-413.398	-200.000	-0.043	-0.332
-412.384	-27.372	-0.256	-0.149
-411.369	-87.912	0.299	-0.090
-410.355	-113.497	0.050	0.010
-409.340	192.611	-0.089	-0.135
-408.325	-200.000	0.021	0.221
-407.311	368.091	0.101	-0.204
-406.296	158.238	-0.262	0.364
-405.282	-200.000	0.027	-0.243
-404.267	513.611	0.084	0.196
-403.252	294.406	-0.274	-0.501
-402.238	-133.019	-0.205	-0.026
-401.223	204.519	0.222	0.345
-400.209	75.696	0.075	0.079
-399.194	425.062	0.080	0.172
-398.179	251.823	0.035	0.060
-397.165	87.200	-0.100	0.111
-396.150	72.421	-0.328	0.342
-395.136	-108.258	-0.033	0.007
-394.121	5.173	-0.218	-0.160
-393.106	-26.202	0.120	-0.070
-392.092	800.000	0.064	-0.199
-391.077	246.920	-0.165	-0.278
-390.063	276.303	0.107	-0.189
-389.048	-69.556	0.191	0.073
-388.033	-200.000	0.034	-0.247
-387.019	-72.447	-0.289	0.107
-386.004	184.059	-0.118	-0.174
-384.990	-200.000	-0.038	0.214
-383.975	-37.478	-0.245	0.131
-382.960	-200.000	-0.056	0.399
-381.946	270.286	0.097	0.171
-380.931	32.377	-0.089	0.077
-379.917	-200.000	-0.034	0.313
-378.902	-131.765	-0.090	0.012
-377.888	-64.325	0.342	-0.139
-376.873	74.785	0.047	0.050
-375.858	800.000	0.102	0.305
-374.844	800.000	-0.081	-0.271
-373.829	-72.850	-0.128	-0.047
-372.815	-2.457	-0.057	0.040
-371.800	-48.959	0.272	-0.130
-370.785	-181.186	-0.050	0.001
-369.771	268.590	-0.099	0.173
-368.756	-200.000	0.014	0.394
-367.742	-51.123	-0.254	0.119
-366.727	-92.385	-0.284	0.080
-365.712	-200.000	-0.005	0.143
-364.698	29.790	0.205	0.175
-363.683	303.365	-0.098	0.181
-362.669	-104.781	-0.098	-0.023
-361.654	690.694	0.045	-0.116
-360.639	-112.565	0.308	0.061
-359.625	800.000	0.084	0.259
-358.610	-47.136	-0.074	0.036
-357.596	-34.951	0.112	-0.061
-356.581	67.864	-0.217	-0.222
-355.566	196.926	0.177	0.269
-354.552	-112.000	-0.201	-0.040
-353.537	800.000	-0.032	-0.104
-352.523	166.198	0.091	-0.129
-351.508	68.952	-0.124	0.127
-350.493	276.788	0.125	-0.222
-349.479	520.314	-0.067	-0.156
-348.464	800.000	0.031	0.109
-347.450	151.976	0.073	0.099
-346.435	800.000	-0.147	0.451
-345.420	800.000	-0.076	-0.278
-344.406	-200.000	-0.112	0.506
-343.391	795.260	-0.070	-0.192
-342.377	-114.626	-0.361	-0.069
-341.362	-200.000	0.017	-0.189
-340.348	103.396	0.071	-0.084
-339.333	-200.000	0.011	0.118
-338.318	462.705	0.082	-0.183
-337.304	-59.367	0.063	0.027
-336.289	262.437	0.064	0.111
-335.275	-159.891	-0.137	-0.008
-334.260	248.851	0.127	0.214
-333.245	-87.680	0.355	-0.107
-332.231	379.699	-0.084	-0.171
-331.216	216.385	0.172	0.272
-330.202	-7.396	0.426	0.288
-329.187	-200.000	-0.007	-0.254
-328.172	33.828	-0.193	-0.168
-327.158	-118.089	-0.235	-0.042
-326.143	-110.080	-0.209	-0.043
-325.129	171.503	0.033	-0.048
-324.114	-163.539	0.525	-0.025
-323.099	-28.107	0.094	-0.055
-322.085	-200.000	-0.023	0.255
-321.070	-83.357	0.042	-0.013
-320.056	-62.776	-0.177	-0.073
-319.041	-71.319	0.092	-0.034
-318.026	716.520	0.154	0.407
-317.012	-71.730	-0.200	-0.074
-315.997	8.007	0.320	-0.239
-314.983	-19.977	-0.089	0.055
-313.968	-36.136	-0.174	0.094
-312.953	-200.000	0.003	0.118
-311.939	-119.050	-0.172	0.030
-310.924	-56.905	0.070	0.031
-309.910	-30.056	0.224	-0.127
-308.895	-74.085	0.182	0.066
-307.880	-43.446	-0.310	0.156
-306.866	355.499	0.164	-0.326
-305.851	-92.467	-0.142	0.040
-304.837	-116.632	0.151	0.028
-303.822	-200.000	0.063	-0.340
-302.807	92.077	0.295	-0.331
-301.793	-98.717	0.060	-0.015
-300.778	80.214	-0.124	0.133
-299.764	180.701	0.138	-0.201
-298.749	-114.457	0.236	0.045
-297.735	-136.350	-0.224	0.026
-296.720	-56.560	-0.237	-0.105
-295.705	265.745	0.273	0.475
-294.691	67.240	-0.092	-0.093
-293.676	-89.648	0.031	-0.009
-292.662	477.611	0.154	-0.347
-291.647	-200.000	0.066	-0.314
-290.632	-200.000	-0.021	-0.131
-289.618	140.903	0.272	0.358
-288.603	800.000	-0.091	-0.274
-287.589	-102.623	-0.226	0.054
-286.574	-44.784	-0.120	0.060
-285.559	319.086	0.126	0.238
-284.545	-110.055	-0.244	-0.051
-283.530	-33.685	0.051	-0.028
-282.516	289.669	-0.111	-0.201
-281.501	-35.086	-0.320	-0.174
-280.486	-73.852	-0.137	0.050
-279.472	-92.208	-0.235	-0.066
-278.457	5.975	0.203	0.150
-277.443	355.178	0.173	-0.343
-276.428	246.406	-0.122	-0.204
-275.413	287.317	-0.052	0.094
-274.399	236.891	-0.063	0.103
-273.384	-200.000	-0.007	-0.254
-272.370	800.000	-0.037	0.106
-271.355	371.461	-0.164	-0.331
-270.340	92.687	-0.084	0.094
-269.326	-29.199	0.215	-0.123
-268.311	460.928	-0.036	-0.079
-267.297	-99.619	-0.137	0.034
-266.282	243.501	0.068	-0.114
-265.267	79.302	-0.072	0.077
-264.253	75.622	0.101	0.106
-263.238	-13.165	-0.296	0.191
-262.224	-200.000	0.005	-0.276
-261.209	81.968	0.127	0.136
-260.195	-200.000	-0.014	0.185
-259.180	-179.664	-0.263	-0.006
-258.165	-66.432	-0.462	0.183
-257.151	-200.000	-0.023	0.221
-256.136	349.656	-0.058	-0.114
-255.122	-200.000	-0.003	-0.286
-254.107	1.844	-0.184	-0.132
-253.092	-103.526	-0.083	0.020
-252.078	1.069	0.191	-0.136
-251.063	-171.874	0.259	0.008
-250.049	-47.519	-0.241	-0.116
-249.034	-200.000	-0.010	0.277
-248.019	800.000	-0.021	-0.061
-247.005	749.969	0.094	0.253
-245.990	-140.363	0.188	-0.020
-244.976	-200.000	0.001	-0.140
-243.961	-68.892	-0.213	0.082
-242.946	295.054	0.063	-0.114
-241.932	134.000	-0.185	0.238
-240.917	174.550	-0.128	0.184
-239.903	-87.667	0.008	0.002
-238.888	-117.431	0.384	0.069
-237.873	-200.000	-0.037	0.207
-236.859	752.181	-0.108	-0.289
-235.844	-171.310	0.265	-0.009
-234.830	-84.174	0.109	0.034
-233.815	-200.000	0.007	-0.222
-232.800	329.842	0.050	0.095
-231.786	612.752	0.037	-0.093
-230.771	92.352	0.188	0.211
-229.757	94.507	0.147	-0.166
-228.742	83.945	0.152	-0.165
-227.727	23.867	-0.130	-0.106
-226.713	-45.820	0.205	-0.100
-225.698	38.201	-0.194	0.172
-224.684	-130.425	0.119	0.016
-223.669	72.063	-0.130	-0.135
-222.655	277.159	0.245	0.433
-221.640	416.925	-0.144	0.306
-220.625	-200.000	0.003	0.150
-219.611	663.901	-0.096	-0.246
-218.596	-185.538	0.124	0.002
-217.582	-200.000	0.012	-0.073
-216.567	-26.544	-0.243	0.141
-215.552	-127.372	0.287	0.042
-214.538	-0.573	-0.174	0.123
-213.523	-67.912	-0.210	0.081
-212.509	24.990	-0.165	0.136
-211.494	52.224	0.041	-0.039
-210.479	127.345	-0.307	0.387
-209.465	-132.684	-0.254	-0.032
-208.450	79.826	-0.103	-0.110
-207.436	-41.497	0.315	0.161
-206.421	-76.285	-0.125	0.044
-205.406	-96.315	-0.136	0.036
-204.392	50.382	0.110	-0.103
-203.377	-200.000	-0.031	0.250
-202.363	136.106	0.089	-0.115
-201.348	-128.355	-0.157	0.022
-200.333	708.080	-0.154	0.405
-199.319	-28.725	0.109	0.062
-198.304	-84.049	0.154	0.049
-197.290	-162.750	0.157	0.008
-196.275	570.236	-0.022	-0.054
-195.260	800.000	0.059	0.250
-194.246	37.679	0.155	0.137
-193.231	-107.931	0.183	-0.039
-192.217	800.000	0.053	-0.213
-191.202	44.788	-0.270	0.247
-190.187	800.000	-0.046	-0.135
-189.173	-51.041	-0.115	-0.053
-188.158	-36.943	-0.307	-0.163
-187.144	-200.000	-0.019	-0.181
-186.129	-200.000	0.252	-0.001
-185.114	378.299	-0.145	0.294
-184.100	-60.076	0.101	-0.043
-183.085	600.602	0.012	0.030
-182.071	-31.426	-0.253	0.141
-181.056	220.400	-0.169	0.269
-180.042	302.361	-0.125	0.230
-179.027	-113.180	0.465	-0.091
-178.012	800.000	-0.053	0.186
-176.998	-200.000	-0.058	0.428
-175.983	-26.350	0.060	0.035
-174.969	60.771	-0.177	-0.174
-173.954	4.101	-0.106	-0.077
-172.939	85.065	0.283	0.308
-171.925	-116.481	-0.110	-0.020
-170.910	-114.992	0.359	-0.068
-169.896	330.666	0.134	0.256
-168.881	-100.256	0.423	0.104
-167.866	-107.826	-0.092	-0.020
-166.852	-33.552	0.253	0.138
-165.837	-2.240	0.155	-0.108
-164.823	-1.723	0.227	0.158
-163.808	800.000	-0.080	0.329
-162.793	45.486	-0.250	-0.229
-161.779	-15.386	-0.107	-0.068
-160.764	-107.458	-0.247	-0.054
-159.750	33.569	0.140	0.121
-158.735	-11.445	-0.079	-0.051
-157.720	-101.797	0.123	0.029
-156.706	36.338	0.137	-0.120
-155.691	-139.207	0.194	0.021
-154.677	-142.706	-0.085	-0.008
-153.662	-68.838	0.245	0.094
-152.647	800.000	0.088	0.270
-151.633	800.000	-0.130	-0.416
-150.618	106.577	0.104	-0.122
-149.604	369.379	-0.123	0.247
-148.589	49.595	0.156	-0.146
-147.574	-188.225	0.263	-0.003
-146.560	800.000	0.116	0.321
-145.545	-200.000	0.035	0.384
-144.531	-15.993	-0.064	0.041
-143.516	-77.775	-0.262	0.090
-142.502	800.000	0.055	0.192
-141.487	217.016	0.107	0.169
-140.472	-38.953	-0.327	0.171
-139.458	-42.233	0.279	-0.141
-138.443	-200.000	-0.007	0.263
-137.429	800.000	-0.037	0.105
-136.414	800.000	0.091	0.267
-135.399	-71.051	-0.187	0.070
-134.385	800.000	0.044	-0.153
-133.370	-141.075	-0.333	-0.034
-132.356	-123.624	-0.102	-0.016
-131.341	327.186	0.191	0.363
-130.326	43.143	-0.231	0.209
-129.312	-94.858	0.033	-0.009
-128.297	-78.085	-0.400	0.136
-127.283	-83.981	0.088	0.028
-126.268	800.000	0.074	-0.319
-125.253	-102.803	0.292	-0.069
-124.239	800.000	0.112	-0.435
-123.224	-200.000	-0.016	-0.126
-122.210	800.000	0.085	-0.295
-121.195	750.065	0.122	-0.327
