DTS Sentinel unit serial number:	SN413079Multiplexer serial number:	ORYXHardware model number:	OX4-SRSoftware version number:	ORYX F/W v4.00 Oryx Data Collector v3.7.2.0data status	okinstallation	princeton_trtdifferential loss correction	single-endedforward channel	channel 4reverse channel	N/Adate	2019/09/16time	00:09:34forward acquisition time	60.00reverse acquisition time	0.00gamma	496.2192k internal	0.2323k external	0.2323temperature offset calibration	0.9963default loss term (dB/km)	0.3790temperature slope calibration	1.0000multiplexer offset coefficient	1.0000multiplexer slope coefficient	1.0000fibre end	0.00T internal ref (°C)	27.75T ext. ref 1 (°C)	9.44T ext. ref 2 (°C)	21.67length (m)	temperature (°C)	Stokes	anti-Stokes-747.200	-66.118	-0.194	-0.078
-746.185	244.887	0.141	-0.239
-745.171	518.336	-0.161	-0.381
-744.156	183.850	-0.068	0.102
-743.142	-200.000	0.012	-0.254
-742.127	-172.900	-0.257	0.008
-741.112	-22.205	-0.236	0.144
-740.098	800.000	-0.043	-0.180
-739.083	-200.000	0.003	-0.192
-738.069	217.112	0.211	0.340
-737.054	402.622	-0.055	0.116
-736.039	-124.586	-0.340	0.053
-735.025	1.298	0.119	-0.086
-734.010	-100.815	-0.533	0.132
-732.996	-47.538	0.168	0.082
-731.981	-119.670	-0.260	-0.045
-730.966	313.491	-0.079	-0.149
-729.952	-200.000	-0.007	-0.106
-728.937	-100.963	-0.177	0.044
-727.923	-3.954	-0.056	0.039
-726.908	-54.644	0.110	-0.050
-725.894	-140.219	0.133	-0.014
-724.879	-68.337	-0.082	0.032
-723.864	-139.690	0.034	-0.004
-722.850	-95.537	-0.047	-0.013
-721.835	-200.000	0.072	0.328
-720.821	-200.000	0.008	-0.166
-719.806	28.931	0.114	-0.098
-718.791	-17.891	-0.199	-0.126
-717.777	-78.094	-0.296	-0.103
-716.762	49.440	-0.180	0.171
-715.748	-147.752	-0.204	0.017
-714.733	800.000	-0.045	-0.154
-713.718	-200.000	0.031	-0.171
-712.704	800.000	-0.031	0.113
-711.689	220.088	-0.072	0.116
-710.675	-61.069	0.198	0.084
-709.660	-85.469	-0.166	-0.052
-708.645	54.132	0.073	-0.071
-707.631	2.197	-0.130	-0.095
-706.616	-200.000	-0.001	-0.216
-705.602	-30.503	-0.030	0.017
-704.587	800.000	0.053	0.186
-703.572	-124.740	-0.367	-0.057
-702.558	-200.000	-0.021	0.288
-701.543	643.727	-0.070	0.179
-700.529	48.975	0.162	0.154
-699.514	-86.982	-0.377	-0.116
-698.499	-200.000	0.014	-0.182
-697.485	-200.000	-0.016	-0.114
-696.470	19.225	0.067	-0.054
-695.456	59.967	0.061	-0.061
-694.441	285.947	-0.127	-0.231
-693.426	62.322	-0.109	0.110
-692.412	-57.370	0.123	-0.054
-691.397	781.020	-0.041	-0.114
-690.383	43.802	-0.060	0.056
-689.368	-70.725	-0.100	-0.038
-688.354	800.000	-0.066	-0.231
-687.339	493.350	0.111	0.256
-686.324	112.641	0.161	0.197
-685.310	156.415	0.115	-0.160
-684.295	800.000	-0.111	0.345
-683.281	-57.669	0.476	0.210
-682.266	205.418	0.098	0.153
-681.251	-114.997	0.123	0.024
-680.237	-3.594	0.239	-0.168
-679.222	-88.261	-0.155	0.047
-678.208	58.918	-0.169	-0.168
-677.193	-126.342	0.206	0.031
-676.178	42.442	-0.298	-0.273
-675.164	17.077	-0.355	-0.283
-674.149	-66.219	-0.324	0.130
-673.135	-118.990	0.393	-0.069
-672.120	-135.439	0.029	0.004
-671.105	-96.429	-0.197	-0.052
-670.091	93.286	0.096	-0.110
-669.076	153.789	-0.196	-0.270
-668.062	-62.085	-0.316	-0.133
-667.047	97.144	0.064	0.074
-666.032	-66.375	-0.127	-0.051
-665.018	13.211	0.237	-0.185
-664.003	-200.000	0.213	-0.000
-662.989	-200.000	-0.033	-0.181
-661.974	-127.208	0.198	0.029
-660.959	321.300	-0.083	0.159
-659.945	800.000	-0.077	0.259
-658.930	800.000	-0.067	0.197
-657.916	-22.972	0.054	0.033
-656.901	-200.000	0.040	0.264
-655.886	-200.000	-0.029	-0.171
-654.872	131.663	0.090	-0.116
-653.857	800.000	0.130	-0.569
-652.843	372.266	-0.117	0.240
-651.828	-200.000	0.024	0.245
-650.814	58.136	-0.147	-0.145
-649.799	-200.000	-0.013	-0.265
-648.784	7.118	-0.178	0.134
-647.770	-120.523	0.109	0.019
-646.755	800.000	-0.089	0.336
-645.741	24.350	0.216	-0.180
-644.726	340.113	-0.058	-0.113
-643.711	-68.533	0.200	-0.078
-642.697	-44.573	-0.333	0.167
-641.682	800.000	0.042	0.156
-640.668	800.000	-0.023	-0.089
-639.653	-29.884	-0.467	-0.268
-638.638	-84.656	0.308	0.098
-637.624	-140.295	-0.467	-0.049
-636.609	201.095	-0.027	-0.042
-635.595	29.750	0.086	0.074
-634.580	-70.670	-0.336	-0.128
-633.565	-146.978	-0.298	-0.026
-632.551	77.107	-0.089	-0.095
-631.536	-200.000	0.023	-0.176
-630.522	111.473	0.140	-0.170
-629.507	-51.209	0.139	-0.065
-628.492	49.126	-0.157	0.148
-627.478	-200.000	0.035	-0.319
-626.463	459.149	-0.152	-0.340
-625.449	800.000	0.005	-0.019
-624.434	234.169	-0.110	-0.182
-623.419	-200.000	0.016	-0.112
-622.405	219.387	0.062	-0.099
-621.390	68.160	0.220	-0.227
-620.376	55.269	0.110	-0.107
-619.361	800.000	0.013	0.051
-618.346	-66.490	-0.383	0.153
-617.332	-200.000	0.037	-0.379
-616.317	59.709	-0.141	-0.139
-615.303	17.795	-0.180	0.144
-614.288	45.846	0.062	-0.058
-613.273	-200.000	-0.049	-0.227
-612.259	-59.855	0.072	0.031
-611.244	800.000	0.090	-0.370
-610.230	-200.000	0.029	-0.323
-609.215	800.000	0.096	-0.306
-608.201	-50.284	-0.045	-0.021
-607.186	800.000	-0.057	0.179
-606.171	-102.492	-0.114	-0.027
-605.157	138.943	0.052	-0.069
-604.142	47.456	-0.219	-0.205
-603.128	-129.878	0.166	0.023
-602.113	80.642	0.216	-0.234
-601.098	800.000	0.085	-0.308
-600.084	800.000	-0.091	-0.360
-599.069	-200.000	0.041	-0.286
-598.055	384.262	0.093	-0.191
-597.040	-172.041	-0.170	-0.006
-596.025	799.300	0.010	-0.028
-595.011	-5.503	-0.288	-0.199
-593.996	-200.000	-0.000	0.047
-592.982	-200.000	0.101	-0.536
-591.967	-197.805	-0.128	0.001
-590.952	107.545	0.025	0.030
-589.938	800.000	-0.099	-0.281
-588.923	-111.032	-0.169	-0.035
-587.909	-165.518	0.262	0.011
-586.894	-200.000	0.031	0.454
-585.879	-58.112	0.058	-0.025
-584.865	-200.000	-0.001	0.239
-583.850	216.785	-0.107	0.171
-582.836	95.569	0.078	-0.089
-581.821	-200.000	-0.046	0.291
-580.806	800.000	-0.108	0.330
-579.792	199.726	-0.065	-0.099
-578.777	58.349	0.247	0.243
-577.763	-111.141	-0.197	-0.041
-576.748	271.831	0.148	-0.262
-575.733	-171.565	0.289	-0.010
-574.719	407.001	0.036	-0.077
-573.704	-30.971	-0.127	-0.072
-572.690	-46.369	0.185	0.091
-571.675	-200.000	-0.001	-0.097
-570.661	32.029	0.053	0.046
-569.646	-23.887	-0.241	0.145
-568.631	-59.620	-0.486	0.209
-567.617	-134.580	0.146	-0.018
-566.602	51.120	0.193	0.184
-565.588	-41.838	0.170	-0.088
-564.573	800.000	-0.116	-0.373
-563.558	-200.000	0.010	-0.293
-562.544	378.138	-0.084	-0.173
-561.529	31.975	-0.158	-0.137
-560.515	151.876	0.054	-0.074
-559.500	489.699	0.047	-0.108
-558.485	182.609	0.096	-0.142
-557.471	-200.000	0.001	0.117
-556.456	-150.696	-0.254	0.019
-555.442	-44.866	-0.037	-0.018
-554.427	-200.000	0.041	0.231
-553.412	-170.850	-0.269	0.009
-552.398	-113.971	0.120	-0.023
-551.383	17.606	-0.276	-0.220
-550.369	-200.000	0.041	0.202
-549.354	-200.000	-0.020	0.153
-548.339	335.305	-0.142	0.275
-547.325	-6.795	0.074	-0.050
-546.310	475.274	-0.065	-0.147
-545.296	-123.284	-0.225	0.036
-544.281	-200.000	0.016	0.240
-543.266	-32.544	0.249	0.139
-542.252	160.944	-0.017	0.024
-541.237	6.497	-0.156	0.116
-540.223	800.000	-0.156	-0.480
-539.208	-65.312	-0.172	0.069
-538.193	-200.000	-0.012	0.121
-537.179	-101.693	0.123	0.030
-536.164	-200.000	0.064	0.311
-535.150	-115.431	-0.171	0.032
-534.135	138.785	-0.212	0.279
-533.121	-200.000	-0.014	0.266
-532.106	-12.124	-0.247	0.162
-531.091	-15.178	0.079	-0.051
-530.077	800.000	0.057	-0.219
-529.062	131.716	-0.140	-0.180
-528.048	-10.397	0.181	-0.120
-527.033	800.000	0.009	0.031
-526.018	-110.290	-0.310	-0.065
-525.004	106.772	-0.205	-0.244
-523.989	89.571	0.248	-0.278
-522.975	164.190	-0.102	0.143
-521.960	-152.274	-0.076	-0.006
-520.945	671.207	0.184	0.477
-519.931	-75.736	0.259	-0.092
-518.916	-200.000	0.013	-0.145
-517.902	731.694	0.091	-0.243
-516.887	290.835	0.106	0.192
-515.872	-132.696	-0.343	-0.044
-514.858	-11.349	-0.234	-0.154
-513.843	-11.052	0.071	-0.047
-512.829	15.882	0.142	-0.112
-511.814	68.281	0.026	-0.026
-510.799	-124.495	-0.135	0.021
-509.785	-159.086	0.313	-0.018
-508.770	-113.722	0.313	-0.061
-507.756	-178.061	-0.127	-0.003
-506.741	800.000	-0.112	0.343
-505.726	145.636	0.148	-0.198
-504.712	141.103	0.102	-0.135
-503.697	140.318	0.117	0.155
-502.683	-58.999	-0.153	-0.066
-501.668	466.264	0.086	-0.194
-500.653	329.998	0.080	-0.154
-499.639	-142.255	-0.190	0.019
-498.624	800.000	-0.063	0.192
-497.610	-200.000	0.017	-0.247
-496.595	800.000	-0.061	0.225
-495.581	6.162	-0.280	-0.208
-494.566	-106.019	-0.379	-0.085
-493.551	52.756	0.103	-0.099
-492.537	96.403	-0.209	0.239
-491.522	-156.157	-0.248	0.016
-490.508	-167.171	0.136	0.006
-489.493	-41.039	-0.145	-0.075
-488.478	215.216	-0.202	0.320
-487.464	-65.048	0.094	-0.038
-486.449	-153.543	-0.113	-0.008
-485.435	-28.289	0.189	-0.109
-484.420	286.906	-0.044	-0.079
-483.405	-9.761	-0.125	-0.084
-482.391	26.785	0.147	-0.123
-481.376	-200.000	0.066	0.471
-480.362	23.923	0.212	-0.175
-479.347	56.313	-0.111	0.108
-478.332	-55.588	-0.043	-0.019
-477.318	-25.518	0.194	0.115
-476.303	32.971	0.144	0.125
-475.289	79.383	-0.287	-0.308
-474.274	-90.204	0.299	-0.087
-473.259	-111.154	-0.194	-0.040
-472.245	-108.142	0.355	0.077
-471.230	451.025	-0.095	-0.211
-470.216	597.322	-0.036	0.088
-469.201	-79.699	0.217	0.073
-468.186	345.661	0.143	-0.280
-467.172	800.000	0.094	-0.338
-466.157	-105.118	0.217	-0.050
-465.143	-200.000	0.009	0.338
-464.128	-39.894	-0.007	0.003
-463.113	-134.716	0.070	-0.008
-462.099	-83.686	-0.140	0.045
-461.084	160.821	-0.191	-0.267
-460.070	-87.993	0.206	0.062
-459.055	250.229	-0.094	0.160
-458.040	438.482	0.036	0.078
-457.026	-1.980	-0.113	-0.079
-456.011	-49.781	-0.050	-0.024
-454.997	171.369	-0.047	0.068
-453.982	-57.059	-0.144	0.063
-452.968	-168.798	0.052	-0.002
-451.953	265.425	-0.070	-0.121
-450.938	128.715	0.100	-0.128
-449.924	199.350	-0.098	0.150
-448.909	225.175	0.055	-0.088
-447.895	104.577	-0.114	-0.134
-446.880	412.103	-0.085	-0.180
-445.865	29.713	-0.177	-0.150
-444.851	-200.000	-0.016	-0.118
-443.836	-36.140	0.171	-0.092
-442.822	20.990	-0.264	-0.213
-441.807	-102.962	0.086	-0.020
-440.792	-110.598	-0.556	0.115
-439.778	-8.848	-0.209	-0.140
-438.763	208.167	-0.141	-0.219
-437.749	5.269	-0.078	0.057
-436.734	-11.949	-0.179	0.117
-435.719	-177.521	0.369	-0.009
-434.705	-104.943	-0.581	-0.133
-433.690	-200.000	-0.037	-0.258
-432.676	-200.000	-0.038	0.274
-431.661	-69.404	0.375	0.144
-430.646	800.000	-0.017	-0.056
-429.632	-108.468	0.453	-0.097
-428.617	158.235	-0.078	-0.108
-427.603	358.308	-0.037	0.073
-426.588	467.897	-0.098	0.220
-425.573	94.227	-0.242	0.274
-424.559	7.485	0.091	0.068
-423.544	72.194	-0.106	0.110
-422.530	-69.444	-0.187	-0.071
-421.515	326.264	0.201	-0.383
-420.500	-200.000	-0.012	0.178
-419.486	153.261	0.229	0.313
-418.471	-105.157	0.141	0.032
-417.457	800.000	0.054	0.167
-416.442	800.000	-0.100	0.289
-415.428	-178.228	0.286	0.007
-414.413	-59.614	-0.122	-0.052
-413.398	800.000	-0.064	0.257
-412.384	98.580	0.052	0.060
-411.369	-127.508	-0.207	-0.030
-410.355	-72.372	0.192	0.071
-409.340	122.546	-0.042	-0.053
-408.325	-98.195	0.173	0.044
-407.311	-200.000	0.007	-0.141
-406.296	-123.138	0.126	-0.020
-405.282	800.000	-0.080	0.248
-404.267	-6.574	0.324	0.220
-403.252	2.357	0.153	-0.110
-402.238	460.381	-0.050	0.110
-401.223	120.626	0.341	0.422
-400.209	-138.139	-0.359	-0.040
-399.194	-16.043	-0.158	0.100
-398.179	207.951	0.280	-0.436
-397.165	715.371	-0.060	0.160
-396.150	61.280	0.114	-0.113
-395.136	-28.614	0.266	0.153
-394.121	-40.654	0.333	0.172
-393.106	-200.000	-0.063	0.310
-392.092	-49.031	-0.554	-0.264
-391.077	800.000	0.070	-0.280
-390.063	161.398	-0.105	-0.147
-389.048	299.517	0.117	0.215
-388.033	-160.592	0.193	-0.010
-387.019	545.466	-0.070	0.166
-386.004	-200.000	-0.029	-0.429
-384.990	-200.000	0.083	-0.451
-383.975	31.767	0.117	-0.100
-382.960	-86.407	-0.304	0.093
-381.946	43.689	0.158	-0.144
-380.931	-9.623	0.062	-0.041
-379.917	800.000	0.101	-0.303
-378.902	-11.978	-0.355	-0.231
-377.888	259.663	-0.108	-0.186
-376.873	456.045	-0.280	-0.619
-375.858	-140.506	-0.224	-0.023
-374.844	727.067	0.031	0.081
-373.829	-104.764	0.056	-0.013
-372.815	-200.000	0.020	-0.313
-371.800	800.000	-0.019	-0.064
-370.785	59.370	0.144	-0.141
-369.771	-48.578	-0.270	0.129
-368.756	-45.054	0.295	-0.146
-367.742	20.471	-0.051	0.041
-366.727	-19.349	-0.349	0.216
-365.712	-100.360	0.228	-0.056
-364.698	-21.325	0.108	-0.066
-363.683	111.820	-0.156	0.187
-362.669	-142.481	-0.048	-0.005
-361.654	-200.000	-0.050	-0.282
-360.639	-35.532	0.129	0.070
-359.625	-200.000	-0.005	-0.033
-358.610	-167.411	0.084	-0.003
-357.596	-93.115	-0.515	-0.142
-356.581	-121.877	0.202	-0.033
-355.566	32.483	0.092	-0.080
-354.552	-36.030	-0.141	-0.076
-353.537	-116.148	0.245	0.045
-352.523	-200.000	-0.012	-0.168
-351.508	134.193	-0.115	0.148
-350.493	-37.314	-0.167	-0.089
-349.479	-96.120	0.237	0.063
-348.464	800.000	-0.048	-0.137
-347.450	-200.000	0.086	0.594
-346.435	-119.682	0.285	-0.049
-345.420	800.000	0.052	0.205
-344.406	181.347	0.171	0.249
-343.391	548.389	-0.049	0.116
-342.377	-180.933	0.139	-0.003
-341.362	-200.000	0.019	-0.167
-340.348	800.000	-0.069	-0.209
-339.333	-200.000	-0.022	0.129
-338.318	800.000	-0.111	0.425
-337.304	-200.000	-0.007	0.196
-336.289	216.405	0.060	0.095
-335.275	-133.030	0.336	-0.042
-334.260	-200.000	0.037	-0.338
-333.245	201.348	0.196	-0.300
-332.231	718.898	-0.099	-0.262
-331.216	7.295	-0.155	0.115
-330.202	-125.956	-0.555	0.083
-329.187	18.880	0.124	-0.099
-328.172	503.336	0.097	0.223
-327.158	-200.000	0.000	-0.055
-326.143	-133.303	0.099	-0.012
-325.129	-137.591	0.248	-0.028
-324.114	-63.853	0.284	0.116
-323.099	-87.725	-0.122	-0.037
-322.085	126.927	-0.221	0.278
-321.070	800.000	0.035	-0.125
-320.056	-9.451	-0.238	0.158
-319.041	426.803	0.118	-0.253
-318.026	192.536	0.144	0.215
-317.012	-200.000	-0.005	-0.216
-315.997	-53.102	0.238	-0.109
-314.983	-200.000	-0.038	0.553
-313.968	-8.854	0.083	-0.055
-312.953	-104.967	0.248	-0.057
-311.939	800.000	0.095	0.270
-310.924	-200.000	-0.056	0.322
-309.910	-44.670	0.271	-0.134
-308.895	-200.000	0.008	0.037
-307.880	152.831	0.120	0.163
-306.866	501.949	-0.090	0.207
-305.851	16.384	-0.152	0.120
-304.837	-83.496	0.131	-0.042
-303.822	67.883	0.192	0.195
-302.807	-152.503	-0.026	0.002
-301.793	-45.366	-0.148	0.073
-300.778	800.000	-0.063	0.267
-299.764	-90.796	-0.270	-0.077
-298.749	312.341	-0.069	0.128
-297.735	-200.000	-0.042	0.306
-296.720	-169.803	0.059	-0.002
-295.705	-200.000	0.056	0.278
-294.691	317.652	0.039	-0.074
-293.676	67.087	-0.196	-0.198
-292.662	152.275	-0.060	-0.082
-291.647	130.348	-0.178	-0.227
-290.632	222.894	0.122	0.196
-289.618	259.572	0.135	-0.231
-288.603	-81.577	0.150	-0.049
-287.589	-18.189	0.192	0.119
-286.574	-200.000	0.007	0.032
-285.559	140.991	0.192	0.251
-284.545	-117.796	0.190	0.034
-283.530	800.000	0.037	0.122
-282.516	800.000	0.038	0.122
-281.501	122.904	-0.075	0.093
-280.486	3.825	0.049	-0.035
-279.472	17.089	-0.074	0.058
-278.457	-69.844	-0.302	0.114
-277.443	66.331	-0.377	-0.380
-276.428	182.965	-0.231	0.338
-275.413	181.978	0.124	0.180
-274.399	63.377	0.253	0.252
-273.384	354.990	0.093	0.183
-272.370	35.416	-0.148	0.128
-271.355	83.155	0.101	0.109
-270.340	-200.000	0.003	0.308
-269.326	-132.908	0.405	-0.051
-268.311	106.139	0.202	0.238
-267.297	495.353	0.092	-0.209
-266.282	-129.626	0.167	0.023
-265.267	-79.711	0.380	0.127
-264.253	800.000	0.039	0.170
-263.238	-59.623	0.301	0.128
-262.224	-88.678	-0.186	-0.055
-261.209	800.000	-0.103	0.367
-260.195	-150.410	-0.180	0.014
-259.180	-80.311	0.271	-0.090
-258.165	12.662	-0.121	0.093
-257.151	-20.278	0.233	-0.142
-256.136	611.435	0.129	0.319
-255.122	-66.172	-0.148	-0.059
-254.107	440.311	0.063	0.137
-253.092	-59.346	0.028	-0.012
-252.078	800.000	0.043	0.138
-251.063	-132.454	0.238	0.030
-250.049	800.000	-0.069	0.297
-249.034	-160.303	0.199	-0.011
-248.019	67.165	0.115	0.116
-247.005	188.001	0.080	-0.119
-245.990	194.490	-0.113	0.170
-244.976	-97.430	0.056	-0.014
-243.961	155.691	-0.109	-0.149
-242.946	232.374	-0.110	-0.178
-241.932	-32.959	0.086	-0.047
-240.917	-200.000	-0.002	-0.040
-239.903	-49.352	0.383	0.181
-238.888	344.329	0.117	-0.226
-237.873	-30.759	0.147	-0.083
-236.859	-200.000	0.048	-0.381
-235.844	800.000	-0.042	-0.122
-234.830	188.683	-0.242	-0.359
-233.815	73.653	0.319	-0.331
-232.800	-15.038	-0.104	-0.066
-231.786	335.187	0.156	0.299
-230.771	533.734	0.010	-0.023
-229.757	-27.801	0.071	-0.041
-228.742	-200.000	-0.004	0.162
-227.727	-200.000	-0.019	0.195
-226.713	120.933	0.113	0.139
-225.698	-200.000	-0.058	-0.335
-224.684	-200.000	0.014	-0.118
-223.669	32.381	0.167	-0.143
-222.655	44.667	-0.230	0.209
-221.640	-200.000	0.004	0.060
-220.625	-42.810	0.129	0.065
-219.611	-89.344	0.194	0.056
-218.596	-200.000	0.069	0.398
-217.582	800.000	0.047	0.182
-216.567	-158.632	-0.260	-0.015
-215.552	-139.446	0.234	-0.025
-214.538	-11.807	-0.198	-0.129
-213.523	65.973	0.031	0.031
-212.509	-200.000	0.021	0.141
-211.494	-200.000	-0.009	-0.080
-210.479	1.651	-0.112	0.080
-209.465	67.054	0.193	-0.194
-208.450	535.158	0.111	0.261
-207.436	-73.969	-0.143	0.051
-206.421	-88.030	-0.497	-0.147
-205.406	-40.359	0.180	0.093
-204.392	96.442	0.108	-0.123
-203.377	2.384	0.193	0.138
-202.363	-108.517	-0.095	0.020
-201.348	-200.000	-0.011	-0.110
-200.333	-200.000	-0.019	0.158
-199.319	794.767	0.060	0.163
-198.304	265.300	0.287	0.495
-197.290	113.075	0.219	0.263
-196.275	-38.927	0.251	0.131
-195.260	73.213	-0.217	0.224
-194.246	4.224	0.078	0.057
-193.231	-165.032	-0.119	-0.005
-192.217	165.208	0.078	0.109
-191.202	800.000	0.048	-0.147
-190.187	-200.000	-0.008	0.038
-189.173	160.795	-0.025	-0.035
-188.158	67.980	0.257	-0.260
-187.144	95.546	-0.081	0.091
-186.129	-200.000	0.038	-0.240
-185.114	-97.251	-0.135	0.035
-184.100	-200.000	-0.004	-0.092
-183.085	364.611	0.107	0.213
-182.071	-87.624	-0.136	-0.041
-181.056	-134.972	0.064	0.008
-180.042	-200.000	0.007	-0.180
-179.027	-183.350	-0.367	0.006
-178.012	-200.000	0.002	0.185
-176.998	800.000	0.017	0.050
-175.983	348.200	-0.088	0.171
-174.969	52.326	-0.089	-0.084
-173.954	-6.041	-0.298	-0.201
-172.939	-164.885	0.048	-0.002
-171.925	66.549	0.064	0.064
-170.910	-69.849	-0.119	0.045
-169.896	41.929	-0.079	0.071
-168.881	-138.877	0.166	0.018
-167.866	-119.045	-0.135	0.023
-166.852	-200.000	-0.042	0.335
-165.837	800.000	-0.059	0.204
-164.823	800.000	0.110	0.340
-163.808	-76.790	0.276	-0.095
-162.793	-200.000	-0.043	0.350
-161.779	-9.672	0.303	-0.199
-160.764	77.875	0.044	-0.046
-159.750	-3.487	-0.382	0.263
-158.735	800.000	0.072	-0.285
-157.720	9.975	-0.199	-0.150
-156.706	-78.929	-0.198	-0.066
-155.691	-200.000	-0.071	-0.383
-154.677	306.726	-0.066	0.122
-153.662	185.183	-0.022	0.032
-152.647	105.609	0.182	0.212
-151.633	800.000	-0.053	0.210
-150.618	800.000	0.061	-0.169
-149.604	59.871	0.143	-0.140
-148.589	-78.146	-0.121	-0.041
-147.574	-132.963	0.179	0.022
-146.560	-122.535	-0.246	0.039
-145.545	800.000	-0.009	0.027
-144.531	161.669	0.146	-0.202
-143.516	800.000	0.030	0.110
-142.502	-200.000	-0.008	0.170
-141.487	-56.214	-0.288	0.126
-140.472	-90.925	-0.238	-0.067
-139.458	-3.701	0.107	-0.073
-138.443	13.212	0.152	0.116
-137.429	212.877	0.127	-0.197
-136.414	-3.414	-0.099	-0.068
-135.399	-69.862	-0.258	0.097
-134.385	-106.944	-0.226	-0.049
-133.370	-35.202	-0.230	-0.124
-132.356	-49.506	-0.174	0.082
-131.341	-24.000	-0.178	-0.105
-130.326	-93.889	-0.060	-0.016
-129.312	-200.000	0.027	0.160
-128.297	198.808	0.155	0.235
-127.283	-162.166	-0.518	-0.026
-126.268	-200.000	0.181	0.001
-125.253	800.000	-0.112	-0.321
-124.239	-121.327	0.510	0.084
-123.224	52.766	0.274	-0.258
-122.210	296.646	-0.126	-0.227
