DTS Sentinel unit serial number:	SN413079Multiplexer serial number:	ORYXHardware model number:	OX4-SRSoftware version number:	ORYX F/W v4.00 Oryx Data Collector v3.7.2.0data status	okinstallation	princeton_trtdifferential loss correction	single-endedforward channel	channel 4reverse channel	N/Adate	2019/09/13time	02:49:35forward acquisition time	60.00reverse acquisition time	0.00gamma	496.2192k internal	0.2319k external	0.2319temperature offset calibration	1.0193default loss term (dB/km)	0.3790temperature slope calibration	1.0000multiplexer offset coefficient	1.0000multiplexer slope coefficient	1.0000fibre end	0.00T internal ref (°C)	27.44T ext. ref 1 (°C)	4.03T ext. ref 2 (°C)	22.34length (m)	temperature (°C)	Stokes	anti-Stokes-747.200	26.912	0.090	0.077
-746.185	-59.182	0.318	0.139
-745.171	-200.000	-0.019	0.124
-744.156	53.700	-0.156	0.151
-743.142	-120.749	0.230	0.039
-742.127	435.468	-0.023	0.051
-741.112	-94.261	-0.354	-0.098
-740.098	-200.000	-0.007	0.360
-739.083	219.794	0.146	0.236
-738.069	800.000	0.104	0.380
-737.054	-200.000	-0.011	0.189
-736.039	-125.297	-0.624	-0.096
-735.025	-53.267	0.206	-0.095
-734.010	-12.076	0.157	0.104
-732.996	-52.997	0.162	-0.075
-731.981	-3.548	0.195	-0.137
-730.966	-16.878	0.110	-0.070
-729.952	-63.767	-0.295	-0.122
-728.937	-200.000	0.007	0.065
-727.923	26.809	-0.123	0.105
-726.908	800.000	-0.095	-0.338
-725.894	-126.782	0.190	-0.028
-724.879	25.175	0.042	0.035
-723.864	800.000	-0.054	0.229
-722.850	-172.629	-0.269	-0.009
-721.835	-155.665	-0.219	0.014
-720.821	-200.000	-0.010	-0.136
-719.806	7.510	0.489	-0.370
-718.791	13.473	-0.204	0.160
-717.777	-114.246	-0.226	-0.044
-716.762	-60.344	-0.231	0.099
-715.748	-100.788	-0.102	-0.025
-714.733	176.367	0.037	-0.055
-713.718	-195.424	0.040	-0.000
-712.704	92.741	0.230	-0.262
-711.689	-97.654	-0.168	0.044
-710.675	-200.000	-0.019	0.349
-709.660	3.335	0.298	-0.220
-708.645	236.151	-0.117	0.195
-707.631	74.120	-0.216	0.229
-706.616	-200.000	-0.044	-0.292
-705.602	336.650	0.101	0.198
-704.587	69.822	-0.262	0.273
-703.572	-148.447	0.204	0.017
-702.558	55.384	0.211	0.206
-701.543	-200.000	0.069	-0.326
-700.529	-200.000	0.005	0.036
-699.514	630.841	0.164	-0.420
-698.499	477.338	-0.099	-0.227
-697.485	-0.164	-0.099	0.071
-696.470	93.963	-0.283	-0.324
-695.456	-200.000	0.008	-0.074
-694.441	3.129	-0.333	0.245
-693.426	800.000	0.057	0.240
-692.412	340.371	-0.109	0.214
-691.397	167.929	0.190	0.272
-690.383	-78.385	-0.246	0.085
-689.368	281.410	-0.015	0.027
-688.354	58.685	-0.117	0.116
-687.339	-109.674	0.238	0.051
-686.324	-115.202	-0.108	-0.021
-685.310	800.000	-0.015	-0.063
-684.295	311.152	-0.112	0.211
-683.281	129.838	0.173	-0.223
-682.266	-185.344	-0.117	0.002
-681.251	-52.998	-0.158	-0.073
-680.237	-154.531	-0.200	-0.013
-679.222	129.349	0.055	-0.070
-678.208	-200.000	-0.010	-0.139
-677.193	800.000	0.033	-0.095
-676.178	96.152	-0.087	-0.100
-675.164	342.039	-0.037	0.073
-674.149	195.043	-0.177	-0.271
-673.135	404.801	0.094	0.200
-672.120	128.323	0.055	0.071
-671.105	-200.000	0.037	0.251
-670.091	267.392	0.078	0.137
-669.076	-155.724	-0.328	0.021
-668.062	286.815	-0.063	-0.114
-667.047	-84.214	0.205	-0.065
-666.032	296.598	-0.210	0.388
-665.018	-200.000	-0.059	-0.265
-664.003	35.777	-0.230	-0.204
-662.989	-22.386	-0.180	-0.110
-661.974	-35.832	-0.152	0.083
-660.959	262.631	-0.060	0.104
-659.945	-3.234	-0.237	0.166
-658.930	304.764	0.044	0.083
-657.916	-112.611	-0.193	0.039
-656.901	13.665	-0.170	-0.133
-655.886	-70.959	-0.186	-0.071
-654.872	-126.101	0.217	-0.033
-653.857	-200.000	0.010	-0.334
-652.843	-200.000	-0.016	-0.085
-651.828	800.000	-0.014	0.047
-650.814	-149.988	-0.309	-0.024
-649.799	-200.000	0.029	-0.277
-648.784	11.949	-0.232	-0.180
-647.770	-79.748	-0.390	0.132
-646.755	348.869	0.105	-0.209
-645.741	0.079	0.090	0.065
-644.726	-113.970	-0.192	0.038
-643.711	-47.156	0.063	0.031
-642.697	-119.552	0.187	-0.033
-641.682	-102.490	0.326	0.079
-640.668	-90.062	-0.384	0.113
-639.653	-200.000	-0.013	-0.156
-638.638	-200.000	0.012	0.123
-637.624	800.000	0.070	0.280
-636.609	-78.904	0.200	-0.069
-635.595	68.465	-0.212	-0.219
-634.580	-75.194	0.430	0.155
-633.565	-94.690	-0.074	-0.020
-632.551	282.374	-0.227	-0.410
-631.536	656.921	-0.082	-0.211
-630.522	252.584	-0.172	0.296
-629.507	-54.442	-0.251	-0.114
-628.492	642.651	-0.106	0.273
-627.478	-120.233	0.289	-0.050
-626.463	635.665	-0.046	0.117
-625.449	16.955	0.129	-0.103
-624.434	-200.000	-0.045	0.269
-623.419	27.060	-0.208	-0.176
-622.405	-200.000	0.019	-0.143
-621.390	-61.314	-0.099	-0.042
-620.376	-200.000	0.014	0.148
-619.361	289.601	0.200	-0.366
-618.346	-11.837	-0.091	-0.060
-617.332	407.405	-0.062	-0.133
-616.317	-200.000	-0.062	-0.362
-615.303	-200.000	0.011	-0.249
-614.288	57.357	0.107	0.106
-613.273	-33.501	-0.121	0.067
-612.259	513.807	-0.049	-0.115
-611.244	-140.499	-0.307	-0.032
-610.230	-169.382	-0.313	0.012
-609.215	800.000	0.047	-0.166
-608.201	237.647	0.112	-0.188
-607.186	-42.678	-0.095	-0.049
-606.171	800.000	0.052	0.146
-605.157	-31.376	0.083	0.047
-604.142	-177.193	-0.095	-0.002
-603.128	-26.732	0.335	0.197
-602.113	-1.298	-0.288	0.204
-601.098	800.000	0.054	-0.157
-600.084	290.078	-0.188	-0.344
-599.069	92.877	-0.160	0.182
-598.055	800.000	-0.111	0.367
-597.040	-83.544	-0.104	0.033
-596.025	69.776	-0.116	0.120
-595.011	11.658	-0.161	-0.124
-593.996	-95.625	-0.246	-0.066
-592.982	-200.000	0.025	0.240
-591.967	800.000	0.020	0.061
-590.952	125.610	-0.064	-0.081
-589.938	-200.000	0.029	-0.293
-588.923	-171.575	0.144	0.005
-587.909	-46.998	0.054	-0.027
-586.894	243.421	0.107	-0.180
-585.879	-94.659	0.160	0.044
-584.865	20.519	-0.119	0.097
-583.850	17.456	-0.256	-0.204
-582.836	-81.477	0.283	-0.093
-581.821	800.000	0.034	-0.138
-580.806	-43.037	-0.293	-0.150
-579.792	-1.202	-0.168	-0.120
-578.777	557.965	0.161	0.391
-577.763	-120.106	-0.306	0.053
-576.748	-181.024	-0.142	0.003
-575.733	-142.810	0.112	0.011
-574.719	-105.896	-0.002	-0.000
-573.704	800.000	0.078	-0.236
-572.690	-200.000	-0.024	-0.130
-571.675	7.324	0.262	-0.197
-570.661	-85.764	-0.182	-0.057
-569.646	-99.428	-0.057	0.015
-568.631	-200.000	-0.005	0.056
-567.617	164.350	-0.031	0.044
-566.602	21.047	-0.174	0.141
-565.588	55.789	-0.103	-0.101
-564.573	-43.427	0.233	0.118
-563.558	-200.000	0.040	-0.217
-562.544	-174.953	0.146	-0.004
-561.529	575.195	-0.050	-0.123
-560.515	-200.000	-0.014	0.193
-559.500	800.000	-0.034	0.097
-558.485	20.458	-0.072	0.059
-557.471	-30.589	0.110	0.063
-556.456	-87.317	0.144	-0.044
-555.442	74.262	-0.100	0.105
-554.427	-200.000	0.036	-0.236
-553.412	-74.052	-0.143	-0.052
-552.398	24.151	0.280	0.232
-551.383	351.394	-0.149	-0.295
-550.369	698.198	0.102	-0.269
-549.354	25.648	-0.263	0.220
-548.339	-144.135	-0.185	0.017
-547.325	-148.447	-0.368	0.030
-546.310	-113.410	0.312	-0.061
-545.296	-98.763	0.398	-0.102
-544.281	-200.000	0.001	0.376
-543.266	-56.627	0.090	0.040
-542.252	392.660	-0.133	0.278
-541.237	-0.386	-0.142	0.101
-540.223	7.545	0.153	-0.115
-539.208	457.362	-0.041	-0.091
-538.193	47.262	-0.146	0.137
-537.179	76.942	-0.124	-0.132
-536.164	-200.000	0.031	-0.170
-535.150	-200.000	0.316	0.001
-534.135	-200.000	-0.005	0.255
-533.121	-38.734	-0.080	0.042
-532.106	-200.000	-0.006	-0.106
-531.091	-10.770	-0.195	0.129
-530.077	-200.000	0.291	-0.000
-529.062	647.265	0.070	-0.179
-528.048	782.056	-0.095	-0.261
-527.033	-23.437	0.184	0.111
-526.018	62.672	0.102	-0.102
-525.004	-51.103	0.191	0.090
-523.989	432.282	0.128	-0.279
-522.975	-118.034	0.193	-0.035
-521.960	800.000	-0.067	-0.227
-520.945	-103.903	-0.330	-0.077
-519.931	23.930	0.161	0.133
-518.916	-200.000	0.060	0.561
-517.902	54.684	0.063	-0.061
-516.887	135.490	-0.237	-0.309
-515.872	359.404	0.111	0.223
-514.858	-200.000	-0.021	0.104
-513.843	-106.937	0.348	-0.077
-512.829	-200.000	-0.006	-0.092
-511.814	-200.000	-0.055	-0.309
-510.799	-200.000	-0.073	0.340
-509.785	800.000	-0.012	0.048
-508.770	-72.802	-0.235	0.087
-507.756	-120.963	-0.348	0.059
-506.741	157.388	0.100	-0.139
-505.726	-200.000	-0.031	0.214
-504.712	-200.000	0.008	-0.046
-503.697	-45.049	-0.295	-0.147
-502.683	800.000	0.040	0.158
-501.668	-200.000	-0.018	-0.172
-500.653	83.101	-0.049	0.053
-499.639	-2.911	0.230	-0.161
-498.624	194.468	-0.097	-0.147
-497.610	-200.000	-0.052	-0.279
-496.595	213.342	-0.060	0.095
-495.581	-30.074	-0.170	-0.097
-494.566	15.937	0.268	-0.212
-493.551	-200.000	0.004	0.135
-492.537	345.324	0.115	0.226
-491.522	-113.388	-0.225	-0.044
-490.508	-3.413	-0.060	-0.042
-489.493	136.363	-0.121	-0.158
-488.478	243.124	-0.190	-0.319
-487.464	121.722	-0.166	0.208
-486.449	800.000	0.044	0.136
-485.435	186.834	0.100	0.150
-484.420	-103.794	0.249	-0.058
-483.405	-200.000	0.035	-0.156
-482.391	-48.259	0.398	-0.192
-481.376	-8.900	0.065	-0.044
-480.362	-66.990	-0.477	-0.189
-479.347	-109.947	0.158	-0.033
-478.332	177.595	-0.162	-0.236
-477.318	8.978	-0.113	0.086
-476.303	161.138	-0.045	0.063
-475.289	203.799	0.082	0.127
-474.274	713.243	0.007	-0.019
-473.259	59.571	0.303	0.299
-472.245	800.000	0.074	0.243
-471.230	-60.754	0.192	0.082
-470.216	-159.243	0.113	0.006
-469.201	-23.191	-0.164	-0.099
-468.186	-200.000	0.007	0.441
-467.172	8.287	-0.149	0.112
-466.157	-41.591	-0.397	-0.204
-465.143	-118.215	-0.403	-0.072
-464.128	-114.273	0.297	0.057
-463.113	99.337	-0.136	0.158
-462.099	-200.000	0.011	-0.188
-461.084	-200.000	0.005	0.226
-460.070	-116.663	-0.047	-0.009
-459.055	67.572	-0.176	-0.180
-458.040	-100.947	0.353	0.087
-457.026	37.261	-0.114	0.101
-456.011	155.743	-0.088	-0.121
-454.997	-200.000	0.033	-0.208
-453.982	67.590	-0.260	0.266
-452.968	525.582	-0.084	-0.198
-451.953	492.918	0.098	-0.224
-450.938	56.847	0.166	-0.162
-449.924	-109.777	0.092	0.019
-448.909	380.726	-0.071	-0.146
-447.895	38.612	-0.099	0.088
-446.880	162.639	0.092	0.129
-445.865	63.634	-0.260	-0.261
-444.851	-130.888	-0.215	0.029
-443.836	-200.000	-0.006	0.150
-442.822	800.000	0.043	0.169
-441.807	60.659	0.041	-0.041
-440.792	-111.096	0.137	-0.028
-439.778	180.593	-0.181	-0.265
-438.763	-82.812	-0.336	0.109
-437.749	-200.000	-0.007	-0.094
-436.734	63.857	0.113	0.114
-435.719	-186.339	-0.154	-0.002
-434.705	800.000	0.062	0.218
-433.690	221.725	0.143	-0.229
-432.676	85.775	0.051	-0.056
-431.661	549.674	0.018	0.043
-430.646	800.000	0.069	-0.223
-429.632	800.000	0.034	-0.131
-428.617	-200.000	0.001	0.158
-427.603	332.153	0.085	0.165
-426.588	-200.000	-0.035	0.219
-425.573	-47.386	0.183	0.089
-424.559	18.640	0.244	0.195
-423.544	-32.796	0.084	0.046
-422.530	-76.067	0.272	0.096
-421.515	8.914	0.127	0.096
-420.500	-33.470	-0.196	-0.108
-419.486	1.390	0.382	0.274
-418.471	-200.000	-0.004	-0.109
-417.457	-68.267	0.186	0.072
-416.442	38.715	-0.217	0.193
-415.428	20.304	0.074	0.060
-414.413	-1.599	0.249	-0.175
-413.398	181.175	0.064	0.094
-412.384	645.606	-0.044	-0.111
-411.369	-126.455	-0.103	0.015
-410.355	-157.135	-0.163	-0.010
-409.340	51.597	-0.167	-0.158
-408.325	68.891	-0.200	0.205
-407.311	50.576	-0.092	0.087
-406.296	-21.717	-0.081	-0.049
-405.282	-43.303	0.290	0.147
-404.267	-110.154	0.264	-0.055
-403.252	229.503	-0.164	-0.267
-402.238	338.037	0.215	0.418
-401.223	-200.000	-0.070	-0.322
-400.209	-48.870	0.198	-0.095
-399.194	-63.544	0.222	0.091
-398.179	173.139	0.149	-0.214
-397.165	-140.069	0.045	-0.005
-396.150	110.319	-0.053	0.064
-395.136	-104.348	-0.208	-0.048
-394.121	-11.235	0.067	-0.044
-393.106	447.754	-0.169	0.372
-392.092	35.991	0.133	-0.116
-391.077	-200.000	0.007	0.133
-390.063	-188.326	-0.197	-0.002
-389.048	142.504	-0.190	-0.251
-388.033	800.000	-0.158	-0.439
-387.019	-200.000	0.006	-0.036
-386.004	-138.360	-0.181	-0.020
-384.990	-200.000	0.083	-0.374
-383.975	-200.000	0.043	-0.370
-382.960	-82.164	0.342	0.111
-381.946	-22.448	0.191	-0.115
-380.931	105.707	-0.154	0.182
-379.917	-71.674	-0.162	-0.060
-378.902	-161.911	-0.135	-0.007
-377.888	423.578	0.196	0.420
-376.873	800.000	-0.056	0.243
-375.858	70.437	-0.068	0.070
-374.844	708.701	0.130	0.342
-373.829	8.956	0.117	-0.088
-372.815	367.203	-0.027	-0.054
-371.800	-59.693	-0.281	0.120
-370.785	-1.780	-0.104	0.073
-369.771	800.000	0.027	0.082
-368.756	-200.000	-0.026	0.128
-367.742	-6.937	0.386	0.262
-366.727	800.000	0.039	0.133
-365.712	-119.546	-0.191	-0.033
-364.698	134.747	-0.093	0.120
-363.683	204.599	-0.061	0.094
-362.669	-200.000	0.036	-0.179
-361.654	-200.000	0.004	-0.021
-360.639	-112.494	0.265	-0.053
-359.625	156.107	0.121	0.167
-358.610	47.643	0.151	-0.140
-357.596	74.881	0.080	0.083
-356.581	-200.000	-0.006	-0.264
-355.566	174.242	0.150	0.217
-354.552	-37.070	-0.130	-0.069
-353.537	-153.415	0.382	0.026
-352.523	-200.000	0.046	-0.285
-351.508	17.423	-0.138	0.109
-350.493	-88.089	-0.164	-0.049
-349.479	-125.556	-0.190	0.029
-348.464	-70.277	-0.161	0.061
-347.450	-200.000	0.063	0.378
-346.435	449.655	0.097	-0.213
-345.420	70.698	-0.095	-0.098
-344.406	52.069	0.135	0.128
-343.391	36.285	0.047	0.041
-342.377	-14.524	0.119	-0.076
-341.362	13.670	-0.069	0.054
-340.348	-200.000	0.008	0.136
-339.333	218.749	0.108	-0.171
-338.318	800.000	0.101	-0.316
-337.304	-34.332	0.271	-0.148
-336.289	476.250	-0.104	0.234
-335.275	800.000	-0.073	0.214
-334.260	-200.000	-0.012	-0.208
-333.245	-200.000	-0.019	-0.176
-332.231	-200.000	0.052	-0.290
-331.216	746.835	-0.087	-0.234
-330.202	-46.603	0.261	0.127
-329.187	113.518	-0.240	-0.290
-328.172	-200.000	-0.011	-0.101
-327.158	611.710	0.098	0.243
-326.143	95.076	0.102	0.115
-325.129	-76.284	-0.089	-0.031
-324.114	13.305	0.168	0.130
-323.099	-37.210	-0.111	0.059
-322.085	-141.991	-0.024	-0.002
-321.070	800.000	-0.053	-0.215
-320.056	38.438	-0.036	-0.032
-319.041	79.645	0.134	0.143
-318.026	-67.455	0.142	0.055
-317.012	800.000	0.063	0.179
-315.997	-109.278	0.179	0.038
-314.983	14.729	-0.095	0.074
-313.968	-200.000	0.008	-0.302
-312.953	-200.000	-0.064	-0.440
-311.939	42.081	0.230	-0.208
-310.924	311.835	0.043	0.079
-309.910	-56.300	0.186	-0.082
-308.895	106.606	0.142	0.168
-307.880	-0.240	-0.199	-0.141
-306.866	-75.869	-0.095	-0.033
-305.851	0.124	-0.291	-0.206
-304.837	-17.968	-0.375	-0.234
-303.822	-88.004	0.086	-0.026
-302.807	455.263	-0.022	0.048
-301.793	12.012	0.156	-0.120
-300.778	-95.772	-0.212	-0.056
-299.764	-39.379	-0.327	-0.171
-298.749	800.000	0.011	0.045
-297.735	281.510	-0.042	-0.075
-296.720	0.546	0.184	-0.131
-295.705	324.293	0.121	-0.229
-294.691	800.000	-0.060	0.238
-293.676	567.522	0.057	0.137
-292.662	-200.000	0.013	-0.179
-291.647	-11.053	0.185	0.122
-290.632	-28.397	0.063	-0.036
-289.618	17.601	0.232	0.183
-288.603	-2.982	0.299	0.208
-287.589	-132.744	0.247	-0.031
-286.574	61.104	0.045	-0.045
-285.559	408.305	-0.146	-0.307
-284.545	800.000	0.006	0.019
-283.530	-64.485	-0.548	-0.221
-282.516	-124.654	0.147	-0.023
-281.501	-30.355	0.029	0.017
-280.486	464.916	0.032	0.070
-279.472	103.882	0.077	0.090
-278.457	-200.000	-0.048	-0.240
-277.443	81.698	-0.088	0.095
-276.428	-200.000	-0.007	0.069
-275.413	218.799	0.094	0.149
-274.399	-200.000	0.052	0.403
-273.384	800.000	0.045	0.184
-272.370	-39.099	-0.168	0.088
-271.355	63.635	-0.212	0.212
-270.340	-76.754	0.214	-0.074
-269.326	-200.000	0.053	-0.354
-268.311	800.000	0.104	-0.306
-267.297	213.761	0.091	0.143
-266.282	-75.545	-0.110	-0.039
-265.267	-135.100	0.397	0.047
-264.253	102.938	-0.062	0.072
-263.238	25.355	0.120	-0.099
-262.224	138.627	-0.142	-0.185
-261.209	-143.827	0.182	0.017
-260.195	-117.053	0.168	-0.030
-259.180	298.521	0.070	-0.128
-258.165	-162.099	-0.316	0.016
-257.151	-200.000	-0.091	0.435
-256.136	186.323	-0.107	-0.159
-255.122	33.688	-0.140	0.121
-254.107	18.274	-0.226	0.179
-253.092	-68.582	0.067	0.026
-252.078	-200.000	0.068	0.370
-251.063	-200.000	-0.030	0.193
-250.049	186.085	-0.139	-0.205
-249.034	174.186	-0.199	-0.285
-248.019	536.506	-0.108	-0.254
-247.005	-200.000	-0.022	0.159
-245.990	-200.000	0.019	0.187
-244.976	-200.000	0.013	0.275
-243.961	658.082	0.146	-0.372
-242.946	-200.000	0.028	0.283
-241.932	100.636	0.301	0.347
-240.917	8.077	0.104	0.077
-239.903	-112.399	-0.176	0.035
-238.888	-132.775	0.308	0.039
-237.873	-164.037	0.089	-0.004
-236.859	-147.286	0.353	0.030
-235.844	-113.364	0.272	-0.053
-234.830	352.298	0.035	-0.069
-233.815	-200.000	0.015	0.142
-232.800	-200.000	0.011	-0.092
-231.786	-200.000	0.046	0.384
-230.771	27.498	0.240	-0.200
-229.757	-3.832	0.148	-0.102
-228.742	-84.075	-0.257	0.081
-227.727	-55.052	-0.312	0.139
-226.713	-200.000	0.001	0.140
-225.698	-40.150	0.299	-0.154
-224.684	590.251	0.108	-0.265
-223.669	-110.289	-0.071	0.015
-222.655	-200.000	-0.047	0.388
-221.640	-200.000	0.044	0.191
-220.625	-77.275	0.370	0.127
-219.611	424.575	-0.006	0.012
-218.596	-156.775	-0.223	0.014
-217.582	-156.684	-0.424	0.026
-216.567	800.000	-0.074	-0.243
-215.552	164.499	0.125	-0.174
-214.538	239.173	-0.029	0.047
-213.523	27.020	0.152	0.127
-212.509	14.078	-0.267	0.206
-211.494	-200.000	0.013	-0.075
-210.479	800.000	-0.080	0.218
-209.465	-76.846	0.176	0.061
-208.450	-70.582	0.212	0.079
-207.436	-200.000	-0.020	0.247
-206.421	-48.378	0.187	0.089
-205.406	-45.458	-0.070	0.034
-204.392	117.173	0.230	0.280
-203.377	452.395	0.095	-0.209
-202.363	-60.620	-0.204	0.086
-201.348	-200.000	0.039	0.235
-200.333	-200.000	0.035	0.253
-199.319	361.877	-0.058	-0.115
-198.304	-50.366	0.181	0.084
-197.290	14.010	-0.104	-0.080
-196.275	171.109	-0.085	-0.121
-195.260	800.000	-0.048	-0.202
-194.246	-67.077	-0.196	0.077
-193.231	-200.000	0.038	-0.179
-192.217	-38.988	0.286	-0.149
-191.202	-172.080	-0.126	0.004
-190.187	-112.825	-0.027	-0.005
-189.173	-200.000	-0.006	0.260
-188.158	18.697	-0.269	0.213
-187.144	-27.308	0.236	-0.136
-186.129	-90.590	-0.190	-0.054
-185.114	-161.168	-0.621	0.032
-184.100	652.021	-0.128	0.325
-183.085	-200.000	0.043	0.210
-182.071	732.002	0.064	-0.169
-181.056	-149.416	0.140	0.011
-180.042	-200.000	0.054	0.238
-179.027	67.217	0.090	0.090
-178.012	-124.763	-0.196	0.030
-176.998	217.546	-0.152	0.239
-175.983	63.125	-0.072	-0.071
-174.969	-98.657	-0.322	-0.081
-173.954	-90.200	-0.362	-0.104
-172.939	63.728	-0.031	-0.031
-171.925	185.099	0.162	-0.238
-170.910	571.237	0.100	0.240
-169.896	-72.726	0.145	0.053
-168.881	-24.810	-0.238	0.140
-167.866	63.259	0.096	-0.095
-166.852	800.000	0.039	-0.160
-165.837	-82.317	-0.444	0.143
-164.823	-44.650	0.296	-0.146
-163.808	754.118	-0.042	-0.113
-162.793	30.655	0.176	0.149
-161.779	132.802	-0.133	-0.170
-160.764	-183.992	-0.163	0.003
-159.750	339.253	0.089	0.172
-158.735	-64.408	0.263	-0.106
-157.720	106.498	0.253	0.297
-156.706	498.966	-0.068	-0.155
-155.691	-133.514	0.083	0.010
-154.677	-185.032	0.213	0.003
-153.662	-84.890	0.332	-0.103
-152.647	-104.261	-0.155	0.035
-151.633	135.649	0.103	-0.132
-150.618	4.368	0.079	-0.057
-149.604	-200.000	-0.024	0.162
-148.589	707.052	-0.046	-0.120
-147.574	701.436	-0.100	-0.261
-146.560	157.287	0.197	-0.270
-145.545	463.468	0.088	0.195
-144.531	-200.000	-0.011	0.090
-143.516	176.663	0.052	0.075
-142.502	-200.000	-0.029	-0.132
-141.487	-52.498	0.169	0.077
-140.472	-61.041	0.204	0.085
-139.458	36.911	0.172	-0.150
-138.443	56.058	0.166	-0.159
-137.429	-138.910	0.294	-0.032
-136.414	-69.342	-0.240	-0.091
-135.399	-7.813	0.147	0.098
-134.385	-132.241	-0.274	-0.035
-133.370	179.313	-0.269	0.389
-132.356	371.175	-0.069	-0.139
-131.341	-173.450	-0.278	0.008
-130.326	64.305	0.149	0.148
-129.312	800.000	-0.072	0.233
-128.297	642.610	-0.071	0.180
-127.283	166.815	0.247	0.345
-126.268	552.477	0.110	0.260
-125.253	176.993	-0.104	0.150
-124.239	628.931	0.133	-0.332
-123.224	-85.062	-0.175	-0.054
-122.210	191.732	-0.142	-0.211
-121.195	173.179	-0.036	-0.051
