DTS Sentinel unit serial number:	SN413079Multiplexer serial number:	ORYXHardware model number:	OX4-SRSoftware version number:	ORYX F/W v4.00 Oryx Data Collector v3.7.2.0data status	okinstallation	princeton_trtdifferential loss correction	single-endedforward channel	channel 4reverse channel	N/Adate	2019/09/15time	21:53:35forward acquisition time	60.00reverse acquisition time	0.00gamma	496.2192k internal	0.2318k external	0.2318temperature offset calibration	0.9945default loss term (dB/km)	0.3790temperature slope calibration	1.0000multiplexer offset coefficient	1.0000multiplexer slope coefficient	1.0000fibre end	0.00T internal ref (°C)	30.03T ext. ref 1 (°C)	8.49T ext. ref 2 (°C)	23.02length (m)	temperature (°C)	Stokes	anti-Stokes-747.200	-46.843	0.203	0.101
-746.185	-56.840	-0.182	0.081
-745.171	-63.674	-0.185	0.077
-744.156	-137.899	-0.426	-0.048
-743.142	-200.000	0.011	0.217
-742.127	364.557	-0.146	-0.298
-741.112	-111.170	-0.434	-0.090
-740.098	99.877	-0.237	0.278
-739.083	-99.109	0.226	0.058
-738.069	-200.000	0.030	0.313
-737.054	-195.701	0.384	-0.003
-736.039	-38.276	-0.556	-0.298
-735.025	800.000	-0.025	-0.084
-734.010	-200.000	-0.007	-0.170
-732.996	125.419	-0.268	0.342
-731.981	82.813	0.073	0.080
-730.966	-200.000	0.005	0.199
-729.952	-200.000	0.035	-0.318
-728.937	97.968	-0.326	-0.379
-727.923	191.271	-0.077	0.117
-726.908	-61.965	-0.177	0.075
-725.894	501.917	0.083	0.194
-724.879	-43.342	-0.413	-0.211
-723.864	32.540	0.106	-0.093
-722.850	-17.969	0.194	-0.123
-721.835	340.811	0.049	0.097
-720.821	-142.908	-0.171	-0.017
-719.806	701.706	-0.161	-0.428
-718.791	800.000	0.068	-0.217
-717.777	109.555	-0.157	0.190
-716.762	-200.000	0.013	-0.272
-715.748	-200.000	0.038	-0.404
-714.733	-91.669	0.116	-0.033
-713.718	-15.763	0.173	-0.111
-712.704	3.590	-0.050	0.037
-711.689	55.979	0.101	-0.099
-710.675	98.105	-0.211	0.245
-709.660	125.475	0.084	-0.108
-708.645	467.278	0.110	-0.249
-707.631	37.645	-0.338	-0.303
-706.616	487.096	-0.034	0.078
-705.602	-200.000	-0.030	0.139
-704.587	-200.000	-0.033	0.182
-703.572	42.518	0.160	-0.147
-702.558	67.722	-0.207	0.213
-701.543	-200.000	-0.036	-0.381
-700.529	-67.708	-0.357	-0.141
-699.514	-154.160	0.280	0.019
-698.499	-200.000	-0.012	-0.181
-697.485	-89.542	0.205	-0.061
-696.470	755.079	0.131	0.359
-695.456	-148.398	0.572	-0.047
-694.441	-86.514	-0.320	0.099
-693.426	-112.961	0.220	-0.044
-692.412	-57.732	-0.097	0.043
-691.397	224.824	0.186	-0.303
-690.383	-200.000	0.067	-0.411
-689.368	-27.281	-0.265	0.156
-688.354	-66.131	0.191	-0.077
-687.339	122.396	0.140	-0.176
-686.324	150.208	0.245	0.335
-685.310	2.153	0.252	-0.184
-684.295	-200.000	-0.022	-0.208
-683.281	63.015	0.270	-0.273
-682.266	498.887	-0.097	-0.227
-681.251	75.922	0.114	0.121
-680.237	-37.346	0.221	0.119
-679.222	-154.480	0.090	-0.006
-678.208	359.654	-0.056	-0.112
-677.193	124.240	-0.033	-0.042
-676.178	85.176	0.153	-0.170
-675.164	315.289	0.126	-0.240
-674.149	-74.240	-0.134	-0.049
-673.135	-37.182	-0.170	0.092
-672.120	185.857	-0.264	0.396
-671.105	68.921	0.076	-0.079
-670.091	-33.478	-0.120	0.067
-669.076	134.580	-0.121	0.158
-668.062	292.952	0.041	-0.075
-667.047	-17.147	-0.037	-0.023
-666.032	562.275	0.099	0.241
-665.018	-45.280	0.159	0.080
-664.003	308.124	-0.065	-0.123
-662.989	-200.000	-0.002	0.034
-661.974	-200.000	0.025	0.131
-660.959	-200.000	-0.096	-0.537
-659.945	-148.442	0.346	0.029
-658.930	34.719	0.232	0.205
-657.916	553.215	0.071	-0.171
-656.901	284.300	0.051	0.092
-655.886	-200.000	0.020	-0.349
-654.872	-200.000	0.021	0.114
-653.857	181.649	-0.076	0.113
-652.843	72.615	0.059	-0.062
-651.828	-143.790	0.401	0.038
-650.814	-200.000	-0.012	0.210
-649.799	-53.781	-0.237	-0.109
-648.784	-5.168	-0.240	0.166
-647.770	-149.247	-0.423	-0.034
-646.755	151.011	0.144	0.198
-645.741	-69.512	-0.240	0.093
-644.726	-200.000	0.013	0.621
-643.711	178.888	0.109	0.160
-642.697	800.000	0.004	0.013
-641.682	-124.196	-0.043	0.007
-640.668	220.014	0.194	0.314
-639.653	800.000	0.076	0.288
-638.638	-71.490	0.163	0.061
-637.624	-46.363	-0.123	-0.061
-636.609	62.414	0.133	-0.134
-635.595	-94.380	-0.140	-0.039
-634.580	-36.940	-0.345	-0.186
-633.565	103.985	-0.174	-0.206
-632.551	61.290	0.095	0.095
-631.536	0.374	-0.087	0.062
-630.522	-69.991	0.082	-0.031
-629.507	84.252	0.041	0.045
-628.492	280.381	-0.074	0.133
-627.478	-11.445	0.142	-0.094
-626.463	-39.364	0.130	0.069
-625.449	-200.000	0.039	0.232
-624.434	394.121	-0.127	-0.266
-623.419	800.000	-0.015	-0.054
-622.405	-21.274	-0.154	-0.095
-621.390	-98.900	0.180	0.046
-620.376	54.126	-0.320	0.310
-619.361	-127.353	-0.139	-0.020
-618.346	33.366	-0.302	-0.264
-617.332	800.000	0.027	0.081
-616.317	-107.674	-0.262	-0.058
-615.303	73.312	-0.112	0.118
-614.288	-80.411	0.321	0.108
-613.273	8.772	-0.231	-0.175
-612.259	175.275	-0.135	-0.196
-611.244	-83.009	0.257	-0.083
-610.230	26.038	0.159	0.133
-609.215	491.922	-0.140	0.322
-608.201	-55.620	-0.169	-0.076
-607.186	68.564	-0.106	0.110
-606.171	78.550	0.035	0.037
-605.157	-32.497	0.316	-0.177
-604.142	265.147	0.018	0.031
-603.128	-33.072	-0.135	0.076
-602.113	-200.000	-0.087	-0.447
-601.098	35.039	0.093	-0.082
-600.084	72.844	0.154	-0.162
-599.069	-134.102	0.220	0.027
-598.055	-200.000	0.026	-0.144
-597.040	-200.000	-0.017	0.282
-596.025	342.529	-0.154	0.303
-595.011	800.000	0.070	0.220
-593.996	-145.905	0.218	0.019
-592.982	-200.000	0.064	-0.307
-591.967	800.000	-0.077	0.341
-590.952	-200.000	0.013	-0.135
-589.938	-86.933	-0.299	0.092
-588.923	-60.043	0.107	-0.046
-587.909	-103.896	-0.190	0.045
-586.894	515.236	0.044	-0.104
-585.879	253.877	-0.022	-0.038
-584.865	-75.240	0.221	0.079
-583.850	191.285	0.022	0.034
-582.836	41.894	-0.248	-0.226
-581.821	800.000	-0.045	0.137
-580.806	4.022	-0.162	-0.119
-579.792	-71.717	-0.174	-0.065
-578.777	-78.536	0.144	0.050
-577.763	-133.830	0.124	-0.016
-576.748	164.949	-0.123	-0.174
-575.733	-200.000	-0.003	0.459
-574.719	364.537	0.064	-0.129
-573.704	-91.551	0.227	0.065
-572.690	-127.085	-0.298	0.044
-571.675	-200.000	-0.019	0.263
-570.661	-110.809	-0.131	-0.027
-569.646	-75.004	-0.449	-0.161
-568.631	487.985	-0.055	-0.127
-567.617	416.117	0.037	-0.078
-566.602	517.816	-0.096	0.225
-565.588	800.000	-0.024	0.069
-564.573	-200.000	-0.007	-0.204
-563.558	-200.000	0.001	0.036
-562.544	15.562	0.373	-0.294
-561.529	-39.744	-0.142	-0.074
-560.515	18.783	-0.127	0.102
-559.500	-76.456	-0.157	-0.056
-558.485	-128.753	-0.300	0.043
-557.471	101.485	-0.170	-0.199
-556.456	-75.734	-0.238	0.085
-555.442	-200.000	0.000	-0.165
-554.427	-185.962	0.141	0.002
-553.412	-200.000	0.008	-0.274
-552.398	-131.733	-0.189	-0.025
-551.383	40.888	0.113	0.102
-550.369	-200.000	-0.036	0.342
-549.354	174.255	0.087	-0.126
-548.339	16.634	0.047	-0.037
-547.325	-200.000	0.022	0.121
-546.310	-81.390	0.182	-0.060
-545.296	-68.621	-0.218	-0.085
-544.281	-9.575	0.230	0.154
-543.266	-154.507	-0.168	0.011
-542.252	-187.932	0.113	-0.001
-541.237	-96.820	0.100	0.026
-540.223	-56.987	0.049	0.022
-539.208	41.600	-0.132	-0.120
-538.193	800.000	0.042	0.177
-537.179	156.138	-0.152	0.211
-536.164	-23.927	-0.103	-0.062
-535.150	266.963	-0.089	0.156
-534.135	250.862	-0.139	0.238
-533.121	800.000	-0.025	-0.109
-532.106	800.000	0.054	0.185
-531.091	445.841	0.087	0.192
-530.077	-200.000	0.043	-0.494
-529.062	-115.961	-0.379	-0.071
-528.048	84.042	0.104	0.114
-527.033	-200.000	0.008	-0.300
-526.018	3.861	0.207	0.151
-525.004	23.607	0.294	0.243
-523.989	-200.000	-0.020	-0.307
-522.975	171.017	-0.116	-0.168
-521.960	-113.783	0.041	-0.008
-520.945	-200.000	0.007	-0.326
-519.931	800.000	-0.106	0.402
-518.916	248.463	0.068	0.116
-517.902	-103.983	-0.396	-0.093
-516.887	800.000	0.028	0.118
-515.872	-84.890	0.296	-0.093
-514.858	234.081	-0.095	0.157
-513.843	373.033	-0.066	0.134
-512.829	114.221	0.056	0.068
-511.814	154.610	-0.208	0.286
-510.799	800.000	-0.044	-0.155
-509.785	-49.115	0.135	-0.065
-508.770	-200.000	0.002	0.102
-507.756	35.036	-0.305	-0.268
-506.741	654.527	-0.064	-0.164
-505.726	-200.000	-0.032	-0.147
-504.712	116.498	-0.089	0.110
-503.697	215.987	0.072	0.115
-502.683	-183.555	0.172	0.003
-501.668	-54.431	-0.193	-0.088
-500.653	56.125	0.134	0.130
-499.639	548.158	-0.148	0.355
-498.624	-4.894	0.346	0.239
-497.610	-115.545	0.122	-0.023
-496.595	800.000	-0.083	-0.316
-495.581	130.962	-0.070	0.089
-494.566	800.000	-0.048	-0.144
-493.551	286.550	0.152	0.275
-492.537	-40.822	0.225	-0.117
-491.522	-5.300	-0.094	0.064
-490.508	-71.246	0.380	-0.143
-489.493	-94.833	0.377	0.102
-488.478	680.235	0.115	-0.300
-487.464	-168.316	-0.188	-0.007
-486.449	-200.000	0.035	0.391
-485.435	7.643	0.060	-0.045
-484.420	-200.000	-0.002	-0.295
-483.405	-56.107	-0.271	0.121
-482.391	-200.000	0.014	0.199
-481.376	-3.727	0.022	-0.015
-480.362	-104.373	-0.215	0.050
-479.347	-19.946	0.235	0.145
-478.332	-1.502	0.197	0.139
-477.318	336.674	0.013	0.026
-476.303	170.006	0.118	-0.168
-475.289	510.267	0.140	0.327
-474.274	224.567	-0.138	-0.223
-473.259	524.950	0.135	-0.318
-472.245	-80.685	0.173	0.058
-471.230	-200.000	0.066	-0.300
-470.216	-140.865	0.098	0.010
-469.201	-200.000	-0.026	-0.254
-468.186	432.747	-0.177	0.384
-467.172	65.993	-0.252	0.256
-466.157	-200.000	0.020	0.271
-465.143	-69.708	0.074	0.028
-464.128	62.455	0.171	-0.171
-463.113	327.220	0.290	0.557
-462.099	-80.895	0.357	0.118
-461.084	-142.448	-0.262	-0.026
-460.070	112.857	-0.067	0.082
-459.055	-11.116	0.102	0.067
-458.040	-69.062	-0.222	0.086
-457.026	-200.000	0.041	0.232
-456.011	-100.869	-0.005	0.001
-454.997	76.028	0.134	0.142
-453.982	645.126	-0.109	-0.277
-452.968	800.000	-0.071	-0.202
-451.953	42.168	-0.228	-0.207
-450.938	163.115	-0.109	0.153
-449.924	327.496	-0.077	-0.148
-448.909	800.000	0.028	0.077
-447.895	800.000	0.136	-0.399
-446.880	800.000	0.118	-0.384
-445.865	-77.172	-0.133	0.046
-444.851	-24.934	0.136	-0.081
-443.836	-200.000	0.010	-0.203
-442.822	-145.187	-0.227	-0.021
-441.807	-84.284	-0.319	-0.101
-440.792	800.000	0.060	0.196
-439.778	-154.042	-0.028	-0.002
-438.763	-69.917	-0.208	0.079
-437.749	182.664	-0.275	-0.406
-436.734	-105.013	0.168	-0.039
-435.719	12.670	-0.334	-0.258
-434.705	800.000	0.077	-0.320
-433.690	800.000	-0.108	-0.332
-432.676	514.433	-0.124	-0.289
-431.661	168.784	-0.104	0.148
-430.646	800.000	-0.107	-0.427
-429.632	64.777	0.238	0.240
-428.617	57.339	0.147	-0.144
-427.603	-200.000	0.014	0.062
-426.588	-200.000	0.014	0.122
-425.573	143.263	-0.113	-0.151
-424.559	-115.704	-0.057	-0.011
-423.544	-200.000	0.010	0.221
-422.530	-176.715	0.226	-0.006
-421.515	-0.154	-0.123	0.088
-420.500	-46.076	0.089	-0.044
-419.486	188.686	0.246	0.368
-418.471	-101.464	-0.264	-0.064
-417.457	-143.461	-0.303	0.029
-416.442	459.047	0.141	0.314
-415.428	-40.667	-0.441	-0.228
-414.413	135.425	0.075	-0.097
-413.398	-68.327	-0.414	-0.161
-412.384	212.161	-0.077	0.122
-411.369	99.167	-0.316	-0.364
-410.355	-200.000	-0.023	0.140
-409.340	107.267	-0.155	-0.184
-408.325	-24.155	-0.327	0.195
-407.311	439.199	0.080	0.175
-406.296	800.000	0.074	-0.220
-405.282	219.613	-0.128	0.205
-404.267	-83.016	0.226	0.073
-403.252	-200.000	-0.001	0.085
-402.238	-200.000	0.015	0.156
-401.223	-157.607	0.199	0.012
-400.209	620.159	-0.038	-0.096
-399.194	-90.553	-0.421	-0.122
-398.179	118.549	0.114	-0.141
-397.165	423.188	0.105	0.225
-396.150	283.136	-0.043	0.078
-395.136	434.916	0.102	0.222
-394.121	-200.000	-0.078	0.345
-393.106	6.539	0.118	-0.087
-392.092	-140.243	-0.189	0.020
-391.077	157.198	0.124	0.171
-390.063	-54.055	0.063	-0.029
-389.048	-8.107	-0.136	0.091
-388.033	800.000	-0.033	0.108
-387.019	20.964	-0.313	0.254
-386.004	-51.262	0.101	0.047
-384.990	-19.405	0.177	-0.110
-383.975	-123.767	-0.082	-0.013
-382.960	-200.000	0.045	-0.330
-381.946	-184.924	0.142	0.002
-380.931	505.157	0.037	0.085
-379.917	-4.181	0.109	0.075
-378.902	418.511	0.096	-0.205
-377.888	-9.885	-0.093	0.062
-376.873	-200.000	-0.052	0.286
-375.858	-163.389	0.415	0.020
-374.844	-157.656	0.346	-0.021
-373.829	272.223	-0.047	0.083
-372.815	-80.745	0.161	0.053
-371.800	-119.451	0.178	0.031
-370.785	622.959	0.067	-0.168
-369.771	-87.589	-0.105	-0.032
-368.756	-113.801	0.153	-0.030
-367.742	517.110	-0.054	-0.125
-366.727	-119.348	0.226	0.039
-365.712	32.925	-0.170	-0.147
-364.698	-74.266	0.279	0.101
-363.683	-65.296	-0.034	0.014
-362.669	174.351	0.128	0.185
-361.654	214.658	-0.083	0.132
-360.639	-200.000	0.010	0.473
-359.625	-11.981	-0.085	-0.056
-358.610	800.000	0.082	-0.275
-357.596	-102.971	-0.320	0.076
-356.581	8.590	0.091	-0.068
-355.566	-200.000	-0.085	-0.420
-354.552	-200.000	-0.062	0.359
-353.537	412.549	0.106	0.224
-352.523	707.124	-0.157	-0.413
-351.508	800.000	-0.017	0.051
-350.493	-111.210	-0.140	-0.028
-349.479	-72.332	-0.366	-0.135
-348.464	356.247	-0.156	0.309
-347.450	-54.353	-0.158	0.072
-346.435	3.482	0.133	-0.097
-345.420	-30.643	0.373	-0.211
-344.406	-106.715	-0.078	0.017
-343.391	-200.000	0.004	0.054
-342.377	-23.545	0.171	0.102
-341.362	-129.021	0.189	-0.026
-340.348	6.901	-0.115	0.085
-339.333	800.000	-0.020	-0.069
-338.318	272.103	-0.070	-0.122
-337.304	-106.600	-0.243	-0.054
-336.289	-85.620	0.241	-0.075
-335.275	800.000	-0.129	-0.380
-334.260	233.376	0.100	-0.164
-333.245	459.916	-0.095	0.211
-332.231	800.000	-0.055	-0.196
-331.216	-41.385	0.167	-0.086
-330.202	543.895	0.059	0.141
-329.187	800.000	0.021	-0.069
-328.172	-60.080	0.457	0.194
-327.158	649.437	0.131	-0.333
-326.143	-155.938	0.300	0.019
-325.129	-135.651	0.212	-0.025
-324.114	15.766	0.299	-0.234
-323.099	-40.205	0.266	0.138
-322.085	-148.283	0.154	-0.013
-321.070	800.000	-0.048	0.143
-320.056	445.179	-0.015	0.033
-319.041	-29.280	-0.017	0.010
-318.026	-75.174	0.042	0.015
-317.012	74.754	0.035	0.036
-315.997	116.404	-0.276	0.337
-314.983	-128.963	0.269	0.038
-313.968	219.872	0.185	-0.294
-312.953	399.522	0.190	-0.397
-311.939	657.766	0.086	-0.220
-310.924	-125.068	0.336	-0.051
-309.910	-51.596	-0.136	0.063
-308.895	800.000	0.021	-0.078
-307.880	24.256	0.424	-0.348
-306.866	-4.560	-0.228	-0.157
-305.851	755.501	0.051	-0.137
-304.837	-64.236	0.059	-0.024
-303.822	-35.038	0.100	0.054
-302.807	297.880	0.086	0.157
-301.793	-1.788	0.453	-0.317
-300.778	211.991	0.125	-0.196
-299.764	-200.000	-0.033	0.303
-298.749	-61.501	-0.079	0.033
-297.735	-200.000	-0.055	0.250
-296.720	-200.000	0.009	0.246
-295.705	356.484	0.090	0.179
-294.691	256.048	0.138	0.235
-293.676	47.471	-0.228	-0.211
-292.662	-2.153	0.143	-0.100
-291.647	800.000	0.118	-0.477
-290.632	-84.537	0.169	-0.053
-289.618	-58.769	-0.257	0.111
-288.603	-98.020	-0.244	0.062
-287.589	-97.694	0.420	0.108
-286.574	-23.035	0.152	-0.091
-285.559	-200.000	-0.037	-0.275
-284.545	117.992	-0.181	-0.221
-283.530	14.706	0.281	-0.218
-282.516	72.425	-0.293	-0.304
-281.501	800.000	-0.070	0.191
-280.486	484.074	0.133	-0.300
-279.472	-128.493	-0.183	0.026
-278.457	335.542	0.043	-0.083
-277.443	717.055	0.050	0.131
-276.428	-200.000	-0.001	0.152
-275.413	-68.070	0.170	0.066
-274.399	-110.197	0.263	0.054
-273.384	-18.736	0.387	-0.239
-272.370	-200.000	-0.013	-0.398
-271.355	-49.251	0.112	-0.053
-270.340	54.867	0.147	0.141
-269.326	729.810	0.108	-0.286
-268.311	32.849	0.246	-0.211
-267.297	-200.000	-0.008	-0.067
-266.282	-200.000	0.017	-0.403
-265.267	800.000	-0.093	-0.262
-264.253	-124.198	0.183	0.028
-263.238	-200.000	0.026	-0.147
-262.224	-77.398	0.082	0.028
-261.209	92.795	-0.104	0.117
-260.195	300.472	-0.086	-0.158
-259.180	9.199	0.343	0.257
-258.165	-200.000	-0.026	0.245
-257.151	96.178	0.268	-0.304
-256.136	-118.077	0.237	0.042
-255.122	-82.577	-0.303	0.098
-254.107	-127.164	0.064	-0.009
-253.092	136.529	-0.033	0.043
-252.078	40.235	0.214	0.191
-251.063	-130.599	0.149	-0.020
-250.049	40.609	-0.117	-0.104
-249.034	761.846	-0.186	-0.500
-248.019	-128.970	-0.083	0.012
-247.005	-200.000	0.023	-0.223
-245.990	410.910	-0.105	-0.220
-244.976	-154.020	0.132	-0.009
-243.961	-26.097	0.342	-0.200
-242.946	-200.000	-0.001	-0.178
-241.932	50.050	-0.117	-0.109
-240.917	147.191	-0.094	0.125
-239.903	46.780	0.221	0.204
-238.888	-21.224	-0.149	0.091
-237.873	112.882	-0.235	0.282
-236.859	19.606	-0.164	-0.131
-235.844	-107.887	-0.233	-0.050
-234.830	-200.000	-0.016	0.077
-233.815	-7.035	-0.083	0.056
-232.800	-200.000	0.019	0.111
-231.786	-46.360	0.192	0.094
-230.771	-68.109	-0.124	0.048
-229.757	88.458	-0.048	0.053
-228.742	-85.956	-0.038	0.012
-227.727	-59.751	-0.288	0.122
-226.713	-200.000	-0.041	0.239
-225.698	315.606	0.104	0.195
-224.684	-106.758	0.163	0.036
-223.669	-136.225	0.251	0.029
-222.655	188.422	0.080	0.119
-221.640	578.556	-0.142	-0.344
-220.625	403.839	0.098	0.204
-219.611	-200.000	-0.027	0.190
-218.596	-136.605	-0.142	-0.016
-217.582	700.952	0.063	0.166
-216.567	-200.000	-0.023	0.272
-215.552	-200.000	0.011	0.057
-214.538	116.986	0.305	0.371
-213.523	154.748	-0.067	0.091
-212.509	189.464	0.076	0.113
-211.494	97.417	-0.185	-0.210
-210.479	-6.286	0.300	0.203
-209.465	-102.854	-0.160	-0.038
-208.450	45.099	0.157	-0.144
-207.436	276.519	0.209	0.368
-206.421	-28.664	-0.262	-0.150
-205.406	99.854	-0.216	-0.248
-204.392	181.779	-0.184	-0.268
-203.377	-98.451	0.133	-0.034
-202.363	-64.830	0.050	0.020
-201.348	767.592	-0.070	-0.188
-200.333	44.914	-0.377	-0.343
-199.319	187.116	0.114	0.169
-198.304	356.009	0.014	-0.028
-197.290	-200.000	-0.022	-0.178
-196.275	174.034	-0.259	0.370
-195.260	2.340	-0.086	-0.062
-194.246	198.490	-0.083	0.125
-193.231	-113.486	-0.135	0.026
-192.217	-42.684	-0.139	-0.070
-191.202	-44.387	0.140	0.069
-190.187	800.000	0.078	0.307
-189.173	733.760	-0.080	0.211
-188.158	-90.769	0.315	0.090
-187.144	-110.174	-0.102	0.021
-186.129	154.340	0.079	0.108
-185.114	800.000	0.012	-0.046
-184.100	-4.644	0.236	0.161
-183.085	-200.000	0.011	0.128
-182.071	7.509	0.242	0.179
-181.056	-200.000	-0.028	0.293
-180.042	193.265	-0.178	0.266
-179.027	-71.608	-0.047	-0.017
-178.012	135.770	-0.088	0.113
-176.998	-113.204	-0.071	-0.014
-175.983	800.000	-0.078	0.310
-174.969	-146.523	-0.163	-0.014
-173.954	-47.445	-0.313	-0.151
-172.939	312.783	0.032	-0.059
-171.925	-126.693	0.137	0.020
-170.910	-131.253	0.445	-0.058
-169.896	800.000	0.015	0.043
-168.881	618.501	0.040	0.099
-167.866	-200.000	-0.004	0.045
-166.852	-70.110	-0.433	0.163
-165.837	189.576	-0.283	-0.420
-164.823	-200.000	0.007	-0.326
-163.808	-200.000	0.020	-0.324
-162.793	-35.884	0.142	-0.076
-161.779	-144.678	-0.221	0.020
-160.764	-143.972	-0.172	0.016
-159.750	17.928	0.108	0.085
-158.735	53.174	-0.210	0.199
-157.720	221.661	0.069	0.109
-156.706	-106.896	-0.094	0.021
-155.691	800.000	-0.015	-0.046
-154.677	-200.000	-0.029	-0.182
-153.662	669.260	0.061	-0.156
-152.647	-141.205	0.146	0.015
-151.633	-139.467	-0.134	-0.014
-150.618	20.664	-0.122	-0.097
-149.604	-189.572	-0.143	0.002
-148.589	-148.586	0.221	0.018
-147.574	-200.000	-0.002	-0.091
-146.560	-176.072	0.091	0.002
-145.545	57.138	-0.040	-0.039
-144.531	-200.000	-0.034	0.167
-143.516	-93.467	-0.373	-0.102
-142.502	-116.981	-0.264	0.048
-141.487	266.631	-0.099	0.171
-140.472	23.784	0.101	0.082
-139.458	-163.987	-0.410	-0.019
-138.443	56.552	0.146	-0.140
-137.429	-10.861	0.227	0.148
-136.414	-200.000	-0.001	-0.019
-135.399	-200.000	0.015	0.184
-134.385	106.164	0.323	0.378
-133.370	-153.678	0.229	-0.016
-132.356	800.000	0.032	-0.132
-131.341	-107.153	0.232	-0.051
-130.326	-73.004	0.226	-0.082
-129.312	158.028	-0.043	0.059
-128.297	-139.293	0.225	0.024
-127.283	-141.136	0.088	-0.009
-126.268	69.008	0.108	-0.110
-125.253	-87.840	0.217	0.065
-124.239	243.901	0.088	-0.146
-123.224	-122.465	-0.244	-0.039
-122.210	604.677	0.212	0.520
-121.195	470.471	-0.039	-0.086
-120.180	800.000	-0.047	0.189
