DTS Sentinel unit serial number:	SN413079Multiplexer serial number:	ORYXHardware model number:	OX4-SRSoftware version number:	ORYX F/W v4.00 Oryx Data Collector v3.7.2.0data status	okinstallation	princeton_trtdifferential loss correction	single-endedforward channel	channel 4reverse channel	N/Adate	2019/09/13time	21:49:35forward acquisition time	60.00reverse acquisition time	0.00gamma	496.2192k internal	0.2320k external	0.2320temperature offset calibration	1.0128default loss term (dB/km)	0.3790temperature slope calibration	1.0000multiplexer offset coefficient	1.0000multiplexer slope coefficient	1.0000fibre end	0.00T internal ref (°C)	28.09T ext. ref 1 (°C)	3.12T ext. ref 2 (°C)	22.86length (m)	temperature (°C)	Stokes	anti-Stokes-747.200	-58.837	-0.513	0.224
-746.185	49.664	-0.243	-0.231
-745.171	66.246	0.241	0.248
-744.156	-85.855	-0.358	0.112
-743.142	-155.590	-0.353	-0.023
-742.127	44.970	0.209	0.194
-741.112	-200.000	-0.016	0.078
-740.098	-51.234	-0.238	0.113
-739.083	46.744	0.222	-0.209
-738.069	-200.000	0.002	-0.053
-737.054	-170.202	-0.294	-0.011
-736.039	-69.660	-0.400	0.155
-735.025	-96.420	0.379	-0.101
-734.010	-108.230	-0.321	0.070
-732.996	-200.000	-0.037	-0.205
-731.981	88.164	-0.137	0.153
-730.966	339.734	0.077	-0.152
-729.952	-37.731	-0.293	0.158
-728.937	-200.000	-0.005	-0.216
-727.923	800.000	0.110	-0.314
-726.908	-148.813	-0.148	-0.012
-725.894	-116.040	0.127	0.024
-724.879	800.000	-0.084	0.319
-723.864	-109.686	-0.244	-0.052
-722.850	-10.245	-0.172	-0.116
-721.835	9.220	-0.311	-0.237
-720.821	105.101	-0.009	-0.011
-719.806	-110.657	-0.087	0.018
-718.791	-129.690	-0.098	-0.014
-717.777	84.319	-0.002	-0.003
-716.762	165.141	0.280	0.399
-715.748	-45.267	-0.183	-0.092
-714.733	-200.000	-0.115	-0.514
-713.718	15.532	-0.130	-0.103
-712.704	391.590	-0.079	0.165
-711.689	32.623	0.137	-0.120
-710.675	117.753	0.186	-0.232
-709.660	-200.000	0.011	-0.144
-708.645	145.588	0.109	0.147
-707.631	-147.856	0.224	-0.019
-706.616	52.783	-0.098	0.095
-705.602	800.000	-0.052	-0.217
-704.587	112.306	-0.149	0.182
-703.572	-159.904	0.261	-0.014
-702.558	-60.021	-0.205	0.088
-701.543	800.000	-0.053	0.152
-700.529	154.370	-0.136	0.188
-699.514	-5.429	0.020	-0.014
-698.499	108.877	0.124	-0.150
-697.485	136.229	-0.226	-0.298
-696.470	26.114	-0.300	-0.253
-695.456	-200.000	0.033	-0.153
-694.441	-200.000	0.005	-0.317
-693.426	-57.503	-0.204	-0.090
-692.412	-200.000	-0.004	0.191
-691.397	70.633	-0.056	-0.059
-690.383	8.026	0.045	-0.034
-689.368	-200.000	-0.035	0.286
-688.354	800.000	0.075	-0.269
-687.339	-1.955	-0.139	-0.099
-686.324	-200.000	-0.031	0.157
-685.310	71.430	-0.243	-0.254
-684.295	33.532	-0.309	0.271
-683.281	-83.461	0.157	0.051
-682.266	-200.000	-0.025	0.125
-681.251	544.492	0.042	0.100
-680.237	-200.000	-0.016	-0.182
-679.222	-144.597	-0.210	0.020
-678.208	800.000	0.049	0.158
-677.193	88.121	0.082	-0.092
-676.178	90.085	-0.057	0.064
-675.164	-105.970	-0.255	-0.058
-674.149	109.512	0.170	-0.205
-673.135	256.861	-0.066	-0.114
-672.120	-40.514	-0.070	0.036
-671.105	91.346	0.135	-0.153
-670.091	-97.326	-0.494	0.130
-669.076	-148.203	-0.172	0.014
-668.062	175.471	-0.202	-0.295
-667.047	71.774	-0.205	-0.215
-666.032	2.182	0.157	0.115
-665.018	437.889	-0.106	-0.234
-664.003	-200.000	0.027	0.162
-662.989	800.000	-0.053	-0.197
-661.974	15.936	0.276	-0.219
-660.959	319.594	0.224	-0.429
-659.945	-56.918	-0.162	0.072
-658.930	429.201	-0.077	-0.168
-657.916	-200.000	0.020	-0.099
-656.901	-104.860	-0.207	0.048
-655.886	-12.100	-0.274	-0.181
-654.872	-200.000	-0.011	-0.108
-653.857	201.752	-0.102	-0.158
-652.843	201.916	0.130	-0.202
-651.828	-4.397	-0.110	-0.076
-650.814	-64.332	0.115	-0.047
-649.799	-104.274	-0.098	0.023
-648.784	-22.616	0.081	-0.049
-647.770	800.000	0.032	-0.124
-646.755	-160.919	0.330	-0.018
-645.741	-3.830	-0.174	-0.121
-644.726	-91.955	-0.151	0.043
-643.711	134.761	-0.240	-0.314
-642.697	176.242	-0.111	0.162
-641.682	-123.642	-0.340	-0.054
-640.668	-150.943	-0.164	-0.012
-639.653	28.790	0.088	0.075
-638.638	-80.001	0.202	-0.068
-637.624	-108.719	-0.184	0.040
-636.609	607.278	0.142	0.357
-635.595	800.000	0.046	-0.192
-634.580	155.654	-0.233	-0.323
-633.565	-69.038	-0.181	-0.070
-632.551	-200.000	-0.021	0.131
-631.536	442.374	0.118	-0.261
-630.522	-85.868	-0.073	-0.023
-629.507	-200.000	0.019	-0.135
-628.492	-102.769	-0.298	0.072
-627.478	387.491	0.113	-0.235
-626.463	-145.866	-0.521	-0.047
-625.449	89.306	-0.315	-0.353
-624.434	-200.000	-0.004	-0.215
-623.419	800.000	-0.108	0.372
-622.405	-200.000	-0.015	0.162
-621.390	57.310	-0.126	0.124
-620.376	278.006	0.244	0.437
-619.361	86.419	-0.090	0.099
-618.346	800.000	0.071	-0.248
-617.332	192.002	0.099	0.150
-616.317	-200.000	0.008	-0.072
-615.303	-15.815	0.135	-0.087
-614.288	-200.000	0.009	-0.232
-613.273	715.452	0.184	0.491
-612.259	133.314	0.238	-0.309
-611.244	274.421	0.099	0.176
-610.230	457.613	-0.061	-0.135
-609.215	-200.000	0.014	-0.080
-608.201	80.675	0.159	0.172
-607.186	161.515	-0.031	-0.043
-606.171	117.162	-0.261	0.323
-605.157	800.000	0.058	0.209
-604.142	-200.000	-0.008	-0.132
-603.128	-36.719	0.153	0.083
-602.113	-70.858	-0.096	-0.037
-601.098	-33.563	-0.301	0.167
-600.084	9.582	0.149	0.113
-599.069	72.501	-0.202	0.211
-598.055	-9.556	-0.220	-0.148
-597.040	773.957	-0.050	-0.136
-596.025	-151.178	-0.456	0.034
-595.011	-200.000	-0.003	-0.170
-593.996	-147.198	-0.275	-0.024
-592.982	-52.403	-0.222	0.103
-591.967	401.960	0.042	0.089
-590.952	489.144	-0.104	0.239
-589.938	-12.043	-0.093	-0.061
-588.923	-155.732	-0.516	-0.033
-587.909	715.565	-0.093	-0.247
-586.894	-78.530	-0.413	0.142
-585.879	134.869	-0.113	-0.148
-584.865	-200.000	0.035	0.264
-583.850	-54.707	-0.240	0.109
-582.836	369.846	0.151	0.308
-581.821	800.000	0.039	0.127
-580.806	-200.000	0.007	0.313
-579.792	-113.556	-0.153	0.030
-578.777	204.257	0.067	-0.105
-577.763	91.904	0.015	0.017
-576.748	-200.000	0.015	-0.338
-575.733	-67.068	-0.216	0.086
-574.719	-2.784	-0.147	0.103
-573.704	-200.000	0.003	-0.097
-572.690	30.710	0.099	-0.086
-571.675	800.000	-0.089	-0.268
-570.661	6.909	0.349	0.261
-569.646	-170.445	0.328	0.012
-568.631	800.000	0.039	0.122
-567.617	37.607	-0.194	0.172
-566.602	134.712	0.030	-0.039
-565.588	27.254	-0.202	0.170
-564.573	-17.973	0.114	-0.072
-563.558	246.571	-0.117	-0.199
-562.544	-200.000	-0.016	0.182
-561.529	66.249	-0.103	-0.105
-560.515	237.551	0.196	-0.327
-559.500	-33.239	-0.341	-0.190
-558.485	6.775	0.255	-0.190
-557.471	-33.064	-0.261	-0.145
-556.456	157.179	0.136	0.189
-555.442	344.243	0.121	0.238
-554.427	-200.000	-0.315	-0.001
-553.412	111.731	-0.037	0.044
-552.398	-168.942	-0.461	0.017
-551.383	21.153	-0.093	-0.076
-550.369	-71.981	-0.132	-0.049
-549.354	-200.000	0.012	0.222
-548.339	-114.948	-0.200	0.038
-547.325	-130.478	0.123	0.017
-546.310	-70.889	-0.399	0.151
-545.296	-38.417	-0.127	-0.067
-544.281	-6.656	-0.193	0.132
-543.266	93.790	-0.154	-0.175
-542.252	239.981	0.229	-0.383
-541.237	-47.603	-0.242	0.118
-540.223	-30.236	0.206	-0.118
-539.208	-15.128	0.292	-0.188
-538.193	-101.383	0.050	-0.012
-537.179	-11.641	0.220	0.145
-536.164	-91.512	-0.231	0.066
-535.150	285.300	-0.018	-0.032
-534.135	-69.516	0.069	-0.026
-533.121	-106.071	0.205	0.046
-532.106	285.631	0.042	-0.076
-531.091	83.680	0.120	-0.131
-530.077	-200.000	0.020	-0.092
-529.062	10.706	0.302	0.231
-528.048	28.147	-0.140	0.118
-527.033	-4.280	0.120	0.083
-526.018	28.208	-0.212	0.179
-525.004	-50.795	0.238	-0.112
-523.989	-200.000	0.013	0.098
-522.975	190.572	-0.118	0.178
-521.960	-81.623	0.185	-0.061
-520.945	-108.205	-0.153	0.033
-519.931	-28.720	0.181	0.105
-518.916	189.643	0.116	-0.174
-517.902	54.480	-0.135	-0.130
-516.887	-37.634	0.152	0.081
-515.872	56.505	0.154	-0.150
-514.858	483.385	-0.055	-0.125
-513.843	66.997	-0.274	-0.279
-512.829	131.797	-0.139	-0.179
-511.814	572.811	0.084	-0.205
-510.799	439.531	-0.080	0.175
-509.785	174.004	-0.052	0.075
-508.770	168.248	0.213	-0.304
-507.756	60.023	0.179	0.178
-506.741	-200.000	0.033	-0.212
-505.726	510.023	0.199	-0.464
-504.712	-200.000	0.016	0.222
-503.697	-200.000	-0.050	-0.286
-502.683	-35.387	0.087	-0.047
-501.668	-30.766	-0.339	0.192
-500.653	242.298	0.034	-0.057
-499.639	91.115	0.083	0.093
-498.624	800.000	-0.053	-0.151
-497.610	800.000	0.036	0.152
-496.595	33.033	0.224	0.195
-495.581	800.000	-0.020	0.078
-494.566	174.742	0.207	0.300
-493.551	-200.000	0.014	0.217
-492.537	-200.000	-0.025	0.241
-491.522	72.981	-0.298	-0.312
-490.508	-4.860	-0.344	0.238
-489.493	-200.000	-0.034	0.158
-488.478	43.681	-0.152	0.139
-487.464	126.823	0.203	-0.257
-486.449	-22.248	-0.426	-0.259
-485.435	132.879	0.129	-0.167
-484.420	736.305	0.094	-0.251
-483.405	-168.583	0.198	-0.008
-482.391	-150.886	0.550	-0.042
-481.376	-159.282	0.246	0.014
-480.362	-93.050	-0.060	-0.017
-479.347	-111.828	-0.232	-0.047
-478.332	-200.000	-0.016	-0.097
-477.318	-20.070	0.030	0.018
-476.303	-71.645	0.192	0.072
-475.289	-80.883	-0.299	-0.099
-474.274	288.329	-0.165	-0.300
-473.259	800.000	0.084	0.256
-472.245	26.064	0.432	0.361
-471.230	-119.198	0.070	0.012
-470.216	-33.967	0.275	0.151
-469.201	-200.000	-0.041	0.225
-468.186	70.167	-0.093	-0.096
-467.172	800.000	-0.220	0.664
-466.157	108.458	0.110	-0.131
-465.143	-200.000	-0.067	-0.322
-464.128	-85.824	-0.219	0.068
-463.113	-127.084	0.352	0.052
-462.099	56.471	-0.088	-0.086
-461.084	-15.917	0.350	-0.223
-460.070	47.874	0.158	-0.148
-459.055	800.000	0.056	-0.191
-458.040	180.658	-0.327	-0.480
-457.026	-159.097	-0.299	-0.017
-456.011	486.511	0.145	0.330
-454.997	36.666	0.079	0.069
-453.982	-55.159	-0.158	0.071
-452.968	20.169	-0.151	-0.122
-451.953	800.000	-0.122	0.380
-450.938	-56.587	0.356	0.158
-449.924	-39.558	0.268	-0.140
-448.909	-34.974	0.048	0.026
-447.895	-11.468	-0.070	0.046
-446.880	-200.000	-0.061	0.281
-445.865	758.227	0.122	-0.330
-444.851	327.005	-0.192	-0.368
-443.836	5.763	-0.233	0.172
-442.822	-200.000	0.026	0.195
-441.807	-116.069	0.236	0.044
-440.792	348.694	0.073	0.143
-439.778	-122.560	0.402	0.065
-438.763	-27.747	0.256	-0.148
-437.749	-149.557	-0.191	0.015
-436.734	279.242	0.045	0.080
-435.719	-200.000	0.032	-0.235
-434.705	-68.743	-0.019	0.007
-433.690	-59.624	0.247	0.106
-432.676	197.081	0.146	0.223
-431.661	-156.527	0.180	-0.011
-430.646	-135.683	-0.383	0.045
-429.632	-152.886	0.303	-0.021
-428.617	-25.956	-0.214	0.126
-427.603	800.000	0.089	0.308
-426.588	-72.151	0.301	0.111
-425.573	181.947	-0.146	0.214
-424.559	800.000	0.064	0.186
-423.544	-67.319	-0.030	0.012
-422.530	384.873	0.040	-0.083
-421.515	-57.505	0.144	0.063
-420.500	42.340	-0.162	0.147
-419.486	53.274	0.308	0.295
-418.471	-200.000	-0.035	0.195
-417.457	800.000	-0.046	-0.176
-416.442	-200.000	-0.005	-0.149
-415.428	-25.901	-0.222	0.130
-414.413	800.000	0.090	0.253
-413.398	-176.927	0.240	0.006
-412.384	-160.989	0.062	0.003
-411.369	-200.000	-0.021	-0.200
-410.355	306.650	-0.095	-0.177
-409.340	33.411	0.202	0.175
-408.325	396.738	0.138	0.287
-407.311	133.619	0.167	-0.215
-406.296	-200.000	0.025	0.531
-405.282	800.000	0.057	0.158
-404.267	172.366	-0.145	-0.209
-403.252	800.000	0.012	-0.041
-402.238	-200.000	0.062	0.477
-401.223	-26.451	-0.078	-0.045
-400.209	50.488	-0.081	0.077
-399.194	15.281	0.235	-0.184
-398.179	196.168	0.067	-0.102
-397.165	55.486	0.255	0.246
-396.150	415.119	0.087	0.186
-395.136	-1.825	0.026	-0.019
-394.121	-200.000	-0.075	0.360
-393.106	24.104	-0.172	0.142
-392.092	-127.306	-0.179	-0.026
-391.077	-57.271	-0.183	0.080
-390.063	-97.998	0.228	-0.059
-389.048	-21.212	0.199	-0.121
-388.033	277.654	0.102	0.181
-387.019	-109.703	-0.234	0.049
-386.004	-200.000	0.008	-0.090
-384.990	96.438	-0.264	0.301
-383.975	101.959	0.163	-0.189
-382.960	-138.260	0.562	-0.062
-381.946	106.424	-0.197	-0.233
-380.931	-17.601	-0.146	-0.092
-379.917	800.000	-0.112	0.317
-378.902	231.482	0.258	0.422
-377.888	215.816	0.100	-0.159
-376.873	12.956	-0.186	-0.143
-375.858	158.409	-0.106	0.147
-374.844	-74.941	-0.191	0.068
-373.829	49.725	0.335	-0.314
-372.815	800.000	-0.125	0.346
-371.800	-54.449	0.095	0.043
-370.785	-200.000	0.021	-0.207
-369.771	-200.000	0.003	-0.107
-368.756	220.453	0.018	-0.029
-367.742	3.619	0.070	-0.051
-366.727	-63.521	0.338	-0.138
-365.712	-7.430	0.184	-0.124
-364.698	800.000	-0.091	0.262
-363.683	-200.000	0.010	0.115
-362.669	-44.046	-0.275	0.138
-361.654	-117.112	-0.081	-0.015
-360.639	145.849	0.022	-0.029
-359.625	-79.353	-0.265	0.090
-358.610	800.000	0.069	-0.229
-357.596	143.552	-0.104	0.138
-356.581	800.000	-0.045	-0.166
-355.566	199.009	0.037	-0.056
-354.552	278.030	0.110	-0.195
-353.537	-43.907	0.065	-0.032
-352.523	-200.000	0.003	-0.194
-351.508	-103.196	0.191	-0.045
-350.493	15.948	0.248	-0.195
-349.479	800.000	0.125	-0.413
-348.464	-200.000	0.001	-0.171
-347.450	-106.073	0.078	0.017
-346.435	109.176	0.025	0.030
-345.420	74.567	-0.079	0.083
-344.406	163.188	0.019	0.027
-343.391	161.469	0.120	-0.168
-342.377	-82.713	-0.286	-0.092
-341.362	77.428	-0.107	-0.114
-340.348	-72.873	0.147	-0.054
-339.333	-136.931	-0.227	-0.026
-338.318	-100.932	0.240	0.059
-337.304	53.948	0.116	0.111
-336.289	-121.605	-0.320	0.053
-335.275	-143.545	-0.136	-0.013
-334.260	-200.000	-0.076	0.353
-333.245	-96.978	-0.197	0.051
-332.231	-23.969	-0.174	0.104
-331.216	225.771	0.031	0.050
-330.202	-11.669	-0.274	-0.179
-329.187	-23.953	0.085	0.051
-328.172	800.000	-0.155	0.436
-327.158	201.515	0.070	-0.107
-326.143	305.414	0.147	-0.272
-325.129	67.684	0.134	-0.136
-324.114	-200.000	0.010	-0.322
-323.099	233.530	-0.104	-0.170
-322.085	53.175	-0.250	0.238
-321.070	800.000	0.041	0.136
-320.056	69.533	-0.327	-0.335
-319.041	57.767	0.126	-0.123
-318.026	145.401	-0.154	0.205
-317.012	-89.534	-0.097	0.028
-315.997	69.871	0.305	-0.313
-314.983	-200.000	-0.012	0.130
-313.968	133.459	-0.103	0.133
-312.953	-18.127	-0.080	-0.050
-311.939	800.000	-0.120	0.397
-310.924	-86.124	0.134	0.041
-309.910	-139.212	-0.114	-0.012
-308.895	-110.961	0.301	0.062
-307.880	420.253	-0.101	-0.215
-306.866	-68.585	0.233	0.090
-305.851	-7.988	0.208	-0.140
-304.837	170.900	-0.099	-0.141
-303.822	800.000	-0.063	0.250
-302.807	800.000	0.139	-0.408
-301.793	-95.177	-0.153	0.041
-300.778	116.868	-0.147	0.179
-299.764	-74.731	-0.148	0.053
-298.749	-52.118	0.557	0.257
-297.735	119.584	0.194	-0.239
-296.720	-81.215	0.281	-0.092
-295.705	211.764	0.049	-0.077
-294.691	483.179	0.113	0.256
-293.676	173.229	0.121	0.173
-292.662	12.085	-0.088	0.067
-291.647	524.399	-0.088	0.205
-290.632	800.000	0.054	0.160
-289.618	-56.005	0.248	-0.110
-288.603	-148.579	0.507	0.041
-287.589	20.131	-0.190	0.152
-286.574	26.129	0.117	-0.097
-285.559	149.100	-0.154	0.207
-284.545	22.358	-0.176	0.143
-283.530	800.000	-0.081	0.274
-282.516	-71.891	-0.150	-0.056
-281.501	91.959	0.098	0.110
-280.486	-200.000	0.018	-0.225
-279.472	4.357	-0.210	-0.153
-278.457	-59.803	0.101	-0.043
-277.443	-200.000	-0.036	0.207
-276.428	415.888	-0.101	-0.213
-275.413	800.000	0.014	-0.045
-274.399	-8.740	-0.148	0.099
-273.384	233.958	0.129	-0.212
-272.370	-72.772	-0.232	-0.085
-271.355	182.337	-0.150	0.220
-270.340	-35.242	-0.123	-0.066
-269.326	222.606	-0.161	-0.258
-268.311	464.595	0.053	0.117
-267.297	-200.000	-0.011	-0.415
-266.282	-45.327	0.199	0.098
-265.267	-71.270	0.229	-0.085
-264.253	57.181	0.149	0.144
-263.238	-75.618	0.280	0.099
-262.224	-64.764	0.357	-0.143
-261.209	-200.000	0.075	-0.519
-260.195	-56.255	0.169	0.075
-259.180	-134.920	0.196	0.024
-258.165	183.849	0.039	0.057
-257.151	-62.784	-0.238	-0.098
-256.136	-41.371	-0.314	-0.161
-255.122	4.523	0.199	-0.145
-254.107	-61.313	-0.095	-0.040
-253.092	63.571	-0.207	0.206
-252.078	119.316	0.048	0.058
-251.063	178.673	-0.131	-0.189
-250.049	800.000	0.055	0.193
-249.034	62.696	-0.041	-0.041
-248.019	81.837	-0.144	0.155
-247.005	73.338	-0.079	0.082
-245.990	-38.929	0.169	0.089
-244.976	-134.869	-0.271	-0.033
-243.961	59.973	0.205	-0.201
-242.946	-77.345	0.119	-0.041
-241.932	-200.000	-0.020	0.179
-240.917	-200.000	-0.021	0.241
-239.903	26.903	0.221	-0.184
-238.888	-123.133	0.410	0.065
-237.873	-146.555	-0.155	-0.013
-236.859	-55.933	-0.301	0.133
-235.844	-30.062	0.184	0.104
-234.830	-145.402	0.198	-0.018
-233.815	-105.338	-0.378	-0.085
-232.800	-200.000	0.010	0.337
-231.786	223.372	-0.119	0.191
-230.771	-167.384	-0.300	0.012
-229.757	800.000	0.068	-0.254
-228.742	800.000	0.039	-0.113
-227.727	17.423	-0.270	-0.213
-226.713	-200.000	-0.004	0.208
-225.698	-200.000	-0.011	0.188
-224.684	-200.000	0.017	0.122
-223.669	-200.000	0.033	0.276
-222.655	-17.115	-0.200	-0.125
-221.640	800.000	-0.083	0.295
-220.625	800.000	-0.050	-0.148
-219.611	-105.259	-0.059	-0.013
-218.596	-121.117	0.191	0.032
-217.582	696.797	-0.060	0.156
-216.567	64.246	0.177	-0.177
-215.552	12.488	-0.076	-0.058
-214.538	-51.151	0.206	0.095
-213.523	800.000	0.027	-0.103
-212.509	-200.000	0.010	-0.110
-211.494	-200.000	0.013	-0.349
-210.479	-200.000	-0.005	-0.145
-209.465	48.684	-0.218	-0.203
-208.450	522.430	-0.134	0.312
-207.436	-20.684	-0.114	0.069
-206.421	70.877	0.250	0.257
-205.406	353.191	0.194	-0.381
-204.392	9.066	0.168	-0.126
-203.377	190.202	0.089	0.132
-202.363	-200.000	-0.044	-0.260
-201.348	-16.396	0.439	-0.276
-200.333	147.243	0.280	0.373
-199.319	-200.000	-0.040	0.212
-198.304	-133.477	0.332	-0.041
-197.290	800.000	-0.197	-0.607
-196.275	-124.287	-0.085	-0.013
-195.260	78.520	0.208	-0.220
-194.246	-9.767	0.274	0.181
-193.231	6.043	-0.052	-0.038
-192.217	28.577	-0.171	-0.143
-191.202	465.233	-0.078	0.173
-190.187	-70.287	-0.044	-0.016
-189.173	-200.000	-0.051	0.355
-188.158	-41.673	-0.322	0.164
-187.144	84.471	-0.149	-0.161
-186.129	-200.000	-0.015	-0.188
-185.114	800.000	-0.138	-0.550
-184.100	-114.950	-0.250	0.047
-183.085	-200.000	0.072	0.433
-182.071	-162.659	0.158	0.008
-181.056	-20.653	-0.247	-0.150
-180.042	-141.429	-0.489	0.049
-179.027	41.363	0.038	0.034
-178.012	197.787	0.101	-0.152
-176.998	-54.847	0.242	0.108
-175.983	-52.054	0.275	-0.126
-174.969	-18.961	0.246	-0.151
-173.954	123.101	-0.164	-0.203
-172.939	-200.000	-0.061	-0.418
-171.925	800.000	0.047	0.146
-170.910	680.142	-0.105	-0.270
-169.896	-165.416	0.179	-0.008
-168.881	-164.503	-0.082	-0.004
-167.866	4.105	-0.167	-0.121
-166.852	106.474	0.112	-0.131
-165.837	-77.680	0.053	-0.018
-164.823	-62.424	-0.158	0.065
-163.808	-132.252	0.387	0.049
-162.793	7.772	-0.344	-0.255
-161.779	-95.993	-0.154	-0.041
-160.764	277.637	0.062	-0.110
-159.750	5.015	0.108	0.079
-158.735	-96.990	0.222	-0.058
-157.720	2.425	0.182	-0.130
-156.706	-43.036	0.249	0.125
-155.691	-23.494	0.148	-0.088
-154.677	-200.000	-0.012	0.160
-153.662	-119.072	-0.167	-0.029
-152.647	-200.000	-0.008	-0.284
-151.633	167.260	0.074	-0.104
-150.618	-147.065	0.337	0.028
-149.604	20.599	0.080	-0.064
-148.589	-30.324	-0.367	-0.206
-147.574	-200.000	0.005	-0.183
-146.560	-200.000	0.002	0.193
-145.545	37.934	-0.226	-0.198
-144.531	-58.764	0.131	-0.056
-143.516	-150.892	0.110	-0.008
-142.502	-200.000	-0.063	0.308
-141.487	-119.966	-0.191	0.032
-140.472	800.000	-0.117	-0.406
-139.458	448.014	-0.128	-0.279
-138.443	90.090	0.184	-0.203
-137.429	-187.424	-0.395	-0.005
-136.414	-200.000	-0.022	0.207
-135.399	313.595	-0.163	0.302
-134.385	800.000	0.062	0.185
-133.370	800.000	-0.085	-0.278
-132.356	-2.711	0.131	-0.091
-131.341	121.161	-0.236	0.290
-130.326	-171.437	0.364	-0.012
-129.312	206.637	0.030	-0.046
-128.297	-60.000	0.277	-0.117
-127.283	-47.417	-0.235	0.113
-126.268	-200.000	0.002	0.349
-125.253	-78.199	-0.179	0.061
-124.239	-51.451	-0.119	-0.055
-123.224	-200.000	0.011	-0.169
-122.210	-7.095	-0.424	0.284
-121.195	-178.093	0.376	-0.009
