DTS Sentinel unit serial number:	SN413079Multiplexer serial number:	ORYXHardware model number:	OX4-SRSoftware version number:	ORYX F/W v4.00 Oryx Data Collector v3.7.2.0data status	okinstallation	princeton_trtdifferential loss correction	single-endedforward channel	channel 4reverse channel	N/Adate	2019/09/16time	11:33:34forward acquisition time	60.00reverse acquisition time	0.00gamma	496.2192k internal	0.2295k external	0.2295temperature offset calibration	0.9953default loss term (dB/km)	0.3790temperature slope calibration	1.0000multiplexer offset coefficient	1.0000multiplexer slope coefficient	1.0000fibre end	0.00T internal ref (°C)	37.75T ext. ref 1 (°C)	12.97T ext. ref 2 (°C)	35.71length (m)	temperature (°C)	Stokes	anti-Stokes-747.200	68.983	-0.166	0.175
-746.185	-14.483	-0.110	0.073
-745.171	-200.000	-0.026	-0.362
-744.156	-4.359	-0.040	0.029
-743.142	-200.000	0.007	0.415
-742.127	526.026	-0.146	0.352
-741.112	-154.927	-0.177	0.012
-740.098	-48.902	0.129	0.063
-739.083	51.195	0.211	0.205
-738.069	800.000	0.112	0.344
-737.054	335.780	0.082	0.163
-736.039	-94.306	-0.222	0.062
-735.025	487.130	-0.157	0.365
-734.010	151.505	0.103	0.144
-732.996	344.793	-0.084	-0.168
-731.981	-101.014	-0.255	-0.064
-730.966	-33.570	-0.140	0.079
-729.952	325.477	-0.153	0.299
-728.937	213.518	-0.181	-0.292
-727.923	-200.000	0.001	0.035
-726.908	-200.000	-0.010	-0.224
-725.894	-200.000	-0.043	-0.207
-724.879	1.272	0.084	0.062
-723.864	-200.000	0.018	-0.080
-722.850	779.418	-0.088	-0.246
-721.835	-110.281	0.204	0.043
-720.821	-168.948	0.153	-0.006
-719.806	137.788	-0.149	0.199
-718.791	123.927	-0.410	-0.525
-717.777	-185.319	-0.379	-0.006
-716.762	-171.574	0.322	-0.011
-715.748	-200.000	0.030	0.185
-714.733	800.000	-0.057	0.166
-713.718	-17.080	-0.160	-0.103
-712.704	371.623	-0.027	0.056
-711.689	-11.507	0.266	0.179
-710.675	353.935	0.126	0.255
-709.660	-147.384	-0.140	0.012
-708.645	298.271	-0.079	0.149
-707.631	-38.774	-0.102	-0.055
-706.616	12.566	0.216	0.170
-705.602	-200.000	0.011	0.086
-704.587	-61.557	0.174	0.075
-703.572	466.200	0.086	0.196
-702.558	-200.000	-0.011	-0.072
-701.543	13.631	-0.198	-0.157
-700.529	605.709	-0.047	-0.120
-699.514	-96.166	0.157	0.042
-698.499	39.357	0.164	-0.149
-697.485	-38.422	0.230	0.124
-696.470	-169.875	0.172	-0.006
-695.456	-134.328	0.074	0.009
-694.441	-193.916	-0.184	0.002
-693.426	800.000	-0.029	0.089
-692.412	9.158	0.223	-0.172
-691.397	-200.000	0.038	-0.371
-690.383	800.000	0.035	-0.141
-689.368	-100.312	0.137	-0.035
-688.354	-86.858	0.082	-0.026
-687.339	800.000	0.082	-0.241
-686.324	434.225	0.038	-0.084
-685.310	800.000	0.090	-0.308
-684.295	-200.000	0.019	-0.445
-683.281	-115.392	-0.157	-0.030
-682.266	-200.000	-0.026	0.224
-681.251	800.000	0.037	-0.131
-680.237	800.000	0.049	0.145
-679.222	30.242	0.077	-0.067
-678.208	-60.802	0.217	0.094
-677.193	33.961	-0.139	-0.124
-676.178	223.380	0.064	0.106
-675.164	-166.952	-0.150	-0.006
-674.149	94.638	0.130	-0.150
-673.135	191.723	0.229	-0.352
-672.120	27.872	0.064	-0.055
-671.105	11.133	0.129	0.100
-670.091	-200.000	0.008	-0.121
-669.076	-89.075	0.133	0.040
-668.062	-131.286	0.290	0.039
-667.047	-200.000	0.026	0.140
-666.032	412.416	0.139	0.302
-665.018	7.856	0.150	-0.115
-664.003	-200.000	0.024	0.171
-662.989	23.560	-0.106	-0.089
-661.974	-43.317	0.151	-0.078
-660.959	5.261	-0.058	-0.043
-659.945	18.889	0.209	0.171
-658.930	-200.000	0.038	0.227
-657.916	800.000	-0.036	-0.109
-656.901	107.391	0.071	-0.086
-655.886	-200.000	-0.014	-0.094
-654.872	-82.341	-0.123	-0.041
-653.857	-69.828	-0.190	-0.074
-652.843	42.195	-0.216	0.199
-651.828	-173.773	0.120	0.004
-650.814	72.135	-0.038	-0.040
-649.799	-200.000	0.009	0.122
-648.784	86.396	0.117	0.131
-647.770	31.530	-0.103	0.090
-646.755	342.986	0.177	-0.352
-645.741	316.184	-0.076	-0.146
-644.726	-11.418	0.227	-0.152
-643.711	-200.000	-0.050	-0.344
-642.697	612.808	0.156	-0.397
-641.682	-154.356	-0.088	-0.006
-640.668	-48.168	0.060	-0.029
-639.653	-5.945	-0.147	0.102
-638.638	385.493	-0.187	-0.393
-637.624	221.067	-0.137	-0.224
-636.609	-142.172	0.126	0.013
-635.595	-200.000	0.038	0.284
-634.580	-146.001	0.387	0.035
-633.565	800.000	0.080	0.315
-632.551	-90.852	-0.169	0.050
-631.536	-114.891	0.420	0.082
-630.522	284.682	0.062	0.114
-629.507	23.488	-0.198	-0.166
-628.492	-171.072	-0.085	0.003
-627.478	-52.686	0.257	-0.121
-626.463	-112.339	0.382	0.078
-625.449	-83.051	-0.384	-0.126
-624.434	38.532	0.175	0.159
-623.419	-200.000	-0.014	-0.228
-622.405	-40.394	-0.227	0.120
-621.390	-109.508	0.218	0.047
-620.376	-200.000	0.017	-0.253
-619.361	-27.617	0.090	0.053
-618.346	-114.640	-0.268	-0.052
-617.332	194.669	-0.065	-0.100
-616.317	800.000	0.044	0.164
-615.303	518.136	0.025	0.059
-614.288	-200.000	0.060	-0.374
-613.273	242.222	-0.180	-0.306
-612.259	-200.000	-0.051	-0.248
-611.244	508.033	-0.130	0.306
-610.230	471.720	0.066	-0.151
-609.215	132.496	0.333	0.437
-608.201	-125.487	0.212	-0.033
-607.186	569.545	0.076	0.189
-606.171	380.858	0.011	0.023
-605.157	-25.740	0.079	0.047
-604.142	-200.000	-0.069	0.322
-603.128	3.338	-0.119	-0.088
-602.113	-200.000	0.064	-0.288
-601.098	-104.754	-0.224	-0.052
-600.084	-200.000	0.061	-0.354
-599.069	-113.545	-0.210	0.042
-598.055	-113.657	-0.501	-0.099
-597.040	95.966	0.050	-0.057
-596.025	601.272	-0.081	-0.205
-595.011	245.075	-0.226	0.387
-593.996	-200.000	-0.061	0.361
-592.982	10.969	0.060	-0.046
-591.967	-125.607	-0.312	0.048
-590.952	800.000	-0.066	0.230
-589.938	199.913	-0.108	0.168
-588.923	159.409	-0.036	0.050
-587.909	-164.509	0.497	0.023
-586.894	800.000	-0.085	-0.329
-585.879	644.925	0.083	-0.215
-584.865	38.330	-0.219	0.198
-583.850	-144.856	-0.268	0.025
-582.836	-56.517	0.171	0.077
-581.821	2.465	-0.198	-0.145
-580.806	41.406	-0.115	-0.105
-579.792	-116.869	-0.166	-0.031
-578.777	-91.234	0.139	-0.040
-577.763	-200.000	0.041	-0.190
-576.748	-200.000	0.014	-0.096
-575.733	-64.772	-0.121	-0.050
-574.719	-157.772	0.176	-0.011
-573.704	154.152	-0.083	-0.115
-572.690	800.000	-0.050	0.154
-571.675	-83.944	0.190	0.062
-570.661	223.208	0.186	0.304
-569.646	-29.660	0.229	0.133
-568.631	266.342	-0.204	0.361
-567.617	-200.000	-0.017	0.346
-566.602	-50.859	-0.079	-0.038
-565.588	-153.067	-0.146	-0.010
-564.573	800.000	0.065	0.182
-563.558	20.946	0.184	0.151
-562.544	125.127	0.105	0.134
-561.529	231.276	0.132	0.220
-560.515	800.000	-0.083	0.357
-559.500	800.000	-0.063	0.266
-558.485	28.695	-0.157	-0.134
-557.471	85.828	0.136	-0.151
-556.456	800.000	0.045	-0.138
-555.442	12.303	0.254	-0.198
-554.427	-200.000	0.009	-0.116
-553.412	800.000	0.115	-0.375
-552.398	800.000	-0.021	0.060
-551.383	234.175	0.121	-0.202
-550.369	-200.000	-0.013	-0.160
-549.354	-200.000	-0.008	0.201
-548.339	-160.909	-0.412	0.022
-547.325	-67.048	-0.196	0.078
-546.310	234.061	0.349	0.583
-545.296	-43.192	-0.228	-0.117
-544.281	-200.000	-0.039	0.278
-543.266	18.675	-0.154	-0.125
-542.252	12.703	-0.052	-0.041
-541.237	-200.000	0.013	0.167
-540.223	-96.379	-0.240	0.064
-539.208	-82.635	0.049	0.016
-538.193	-200.000	0.014	0.164
-537.179	336.127	0.179	-0.352
-536.164	-42.790	0.161	0.083
-535.150	-69.789	-0.232	-0.090
-534.135	-139.308	0.574	-0.063
-533.121	83.209	-0.230	-0.254
-532.106	52.879	-0.154	0.149
-531.091	-113.411	0.055	-0.011
-530.077	-116.915	-0.108	-0.020
-529.062	123.132	0.276	-0.351
-528.048	-200.000	0.016	-0.150
-527.033	41.606	0.030	0.027
-526.018	-169.863	-0.218	-0.008
-525.004	59.840	-0.141	-0.141
-523.989	-200.000	-0.044	0.201
-522.975	-183.423	0.137	-0.002
-521.960	-200.000	-0.001	-0.101
-520.945	224.733	-0.071	-0.116
-519.931	90.860	0.186	0.211
-518.916	-43.720	0.199	-0.102
-517.902	201.411	0.123	0.192
-516.887	-11.712	-0.170	0.113
-515.872	199.806	-0.126	0.196
-514.858	800.000	0.046	0.156
-513.843	-200.000	-0.054	-0.253
-512.829	-113.203	-0.308	0.062
-511.814	285.194	0.080	-0.145
-510.799	155.303	0.117	-0.163
-509.785	-25.883	-0.381	-0.227
-508.770	3.122	0.143	0.105
-507.756	146.051	0.068	-0.092
-506.741	419.789	-0.027	-0.059
-505.726	56.676	0.115	0.114
-504.712	473.249	-0.105	0.239
-503.697	-146.122	-0.323	0.029
-502.683	-200.000	-0.008	0.188
-501.668	442.345	0.024	-0.053
-500.653	27.306	0.071	0.060
-499.639	669.053	0.040	-0.104
-498.624	273.486	-0.128	-0.228
-497.610	40.370	-0.188	0.171
-496.595	68.320	0.162	0.168
-495.581	-200.000	-0.020	0.257
-494.566	-200.000	-0.053	-0.270
-493.551	117.245	-0.037	0.046
-492.537	68.909	0.135	-0.140
-491.522	98.274	-0.283	0.330
-490.508	800.000	0.080	-0.279
-489.493	-135.517	-0.152	0.018
-488.478	-153.953	0.237	-0.016
-487.464	-200.000	0.033	0.164
-486.449	55.225	-0.243	-0.237
-485.435	470.039	-0.082	-0.187
-484.420	800.000	0.117	-0.366
-483.405	-38.405	0.174	-0.093
-482.391	732.678	-0.100	-0.271
-481.376	800.000	-0.108	-0.321
-480.362	-148.822	-0.124	-0.010
-479.347	-26.578	-0.228	-0.135
-478.332	143.468	-0.071	0.096
-477.318	-200.000	0.013	-0.154
-476.303	131.347	-0.020	0.026
-475.289	-200.000	0.035	0.194
-474.274	-200.000	0.052	-0.280
-473.259	-34.033	-0.219	-0.122
-472.245	-200.000	0.086	-0.467
-471.230	-41.673	0.422	-0.219
-470.216	-200.000	0.047	0.476
-469.201	121.989	0.221	0.278
-468.186	-64.313	-0.035	0.014
-467.172	-58.345	0.232	-0.102
-466.157	-75.356	-0.096	-0.035
-465.143	-169.734	0.205	-0.007
-464.128	-113.903	-0.276	-0.054
-463.113	-70.348	-0.050	0.019
-462.099	-200.000	0.020	-0.242
-461.084	-200.000	0.001	0.217
-460.070	204.745	0.149	0.234
-459.055	791.288	-0.077	-0.214
-458.040	641.854	0.064	0.164
-457.026	178.363	-0.211	-0.312
-456.011	-200.000	0.003	0.083
-454.997	8.185	-0.081	0.061
-453.982	800.000	-0.058	0.173
-452.968	-200.000	-0.072	0.328
-451.953	-156.585	0.068	0.004
-450.938	-200.000	-0.021	-0.164
-449.924	416.355	0.074	-0.160
-448.909	-200.000	0.086	-0.386
-447.895	800.000	-0.010	0.033
-446.880	71.503	-0.204	0.214
-445.865	-73.503	0.354	0.131
-444.851	172.726	-0.104	0.151
-443.836	800.000	0.024	-0.092
-442.822	42.015	-0.069	0.063
-441.807	-140.137	0.426	0.045
-440.792	-200.000	0.068	-0.412
-439.778	-48.809	0.171	0.083
-438.763	800.000	-0.118	0.374
-437.749	-168.768	-0.419	0.016
-436.734	-113.000	-0.455	0.091
-435.719	-85.370	0.104	0.033
-434.705	800.000	0.060	0.239
-433.690	86.467	0.151	-0.168
-432.676	17.351	-0.079	-0.063
-431.661	37.964	-0.151	0.135
-430.646	160.511	0.128	-0.180
-429.632	41.940	-0.147	-0.135
-428.617	206.027	-0.173	-0.272
-427.603	-4.432	-0.146	-0.102
-426.588	12.390	-0.223	0.173
-425.573	45.770	-0.092	-0.086
-424.559	9.166	-0.449	0.343
-423.544	55.996	0.280	-0.274
-422.530	131.117	0.165	-0.214
-421.515	243.442	0.070	0.118
-420.500	-200.000	-0.068	-0.313
-419.486	-200.000	-0.005	-0.223
-418.471	202.094	0.021	0.032
-417.457	-90.135	-0.215	0.063
-416.442	-151.687	0.119	0.009
-415.428	-200.000	-0.069	-0.382
-414.413	11.517	0.083	0.064
-413.398	-171.393	-0.124	-0.004
-412.384	-180.262	-0.094	-0.002
-411.369	-158.837	0.132	-0.008
-410.355	-80.636	0.181	0.061
-409.340	89.175	0.167	0.188
-408.325	78.088	-0.209	-0.225
-407.311	-114.542	-0.477	0.092
-406.296	-57.798	-0.101	-0.045
-405.282	-19.334	0.164	-0.102
-404.267	32.202	-0.138	0.120
-403.252	-51.363	0.314	-0.148
-402.238	333.218	-0.059	-0.114
-401.223	-19.310	-0.147	-0.092
-400.209	-52.576	0.247	0.115
-399.194	-147.896	-0.328	0.028
-398.179	-200.000	0.034	-0.151
-397.165	56.842	0.075	-0.074
-396.150	-167.768	0.184	-0.007
-395.136	800.000	0.122	-0.400
-394.121	15.099	0.113	-0.089
-393.106	68.318	0.174	0.180
-392.092	-200.000	0.000	0.103
-391.077	800.000	0.155	0.450
-390.063	-82.844	-0.274	-0.089
-389.048	4.368	0.347	0.256
-388.033	73.312	0.097	-0.102
-387.019	-95.226	-0.057	-0.015
-386.004	-200.000	-0.001	-0.072
-384.990	-200.000	-0.008	0.379
-383.975	-119.991	0.320	0.055
-382.960	-148.155	0.159	-0.013
-381.946	37.934	-0.051	-0.046
-380.931	220.087	0.061	0.099
-379.917	-200.000	0.012	-0.197
-378.902	48.431	0.100	-0.094
-377.888	800.000	0.144	0.462
-376.873	331.927	-0.100	0.194
-375.858	-200.000	-0.039	0.311
-374.844	-96.619	-0.457	-0.121
-373.829	68.910	0.179	0.185
-372.815	65.877	-0.049	0.050
-371.800	47.479	0.239	0.224
-370.785	183.456	-0.115	0.172
-369.771	-200.000	-0.038	0.399
-368.756	150.550	-0.167	-0.229
-367.742	-108.883	0.074	0.016
-366.727	540.244	-0.117	0.279
-365.712	86.608	-0.073	-0.081
-364.698	800.000	0.039	-0.149
-363.683	-105.351	-0.286	0.066
-362.669	-200.000	-0.010	0.205
-361.654	5.779	0.093	0.069
-360.639	-105.742	0.126	0.029
-359.625	-108.274	-0.317	-0.069
-358.610	138.286	-0.025	-0.033
-357.596	-72.266	-0.060	0.022
-356.581	-200.000	-0.012	0.173
-355.566	14.979	-0.171	-0.134
-354.552	-121.324	0.031	0.005
-353.537	81.419	0.084	-0.091
-352.523	-75.482	0.074	0.026
-351.508	-200.000	-0.014	-0.173
-350.493	28.136	-0.295	-0.251
-349.479	-200.000	-0.087	0.386
-348.464	-132.177	-0.298	0.039
-347.450	-124.292	0.201	0.032
-346.435	395.366	0.047	0.098
-345.420	-85.326	-0.263	-0.083
-344.406	47.279	0.194	0.182
-343.391	285.967	-0.086	-0.156
-342.377	-129.932	0.268	0.037
-341.362	-200.000	0.035	0.192
-340.348	-185.476	-0.201	0.003
-339.333	-200.000	-0.014	-0.122
-338.318	111.255	0.122	0.148
-337.304	5.104	0.227	0.168
-336.289	800.000	-0.059	0.220
-335.275	-200.000	0.014	0.207
-334.260	107.938	-0.150	0.180
-333.245	-42.880	-0.191	0.098
-332.231	-200.000	-0.015	0.216
-331.216	-91.078	0.026	-0.007
-330.202	189.450	-0.152	-0.230
-329.187	-200.000	0.006	0.227
-328.172	-68.015	-0.195	0.077
-327.158	134.588	0.251	-0.328
-326.143	-200.000	0.095	-0.436
-325.129	-116.000	0.186	-0.035
-324.114	495.188	-0.131	-0.303
-323.099	49.446	-0.063	-0.059
-322.085	-50.283	0.134	0.064
-321.070	137.629	-0.058	0.077
-320.056	67.227	0.242	-0.248
-319.041	-102.361	-0.122	-0.029
-318.026	217.069	0.052	0.082
-317.012	-195.974	-0.095	0.001
-315.997	436.602	0.055	0.121
-314.983	-149.870	-0.216	-0.017
-313.968	31.077	-0.127	0.109
-312.953	-60.804	-0.156	-0.066
-311.939	446.040	-0.034	-0.075
-310.924	138.143	-0.089	0.117
-309.910	249.262	-0.076	-0.130
-308.895	-136.134	-0.081	0.010
-307.880	10.168	-0.183	-0.139
-306.866	79.494	0.074	0.080
-305.851	-41.174	-0.225	0.117
-304.837	-200.000	-0.088	-0.414
-303.822	-107.232	0.340	0.075
-302.807	-27.919	-0.255	0.149
-301.793	31.016	-0.242	-0.208
-300.778	146.879	0.236	-0.319
-299.764	107.836	-0.207	-0.248
-298.749	800.000	-0.107	-0.334
-297.735	107.111	0.061	-0.073
-296.720	-37.398	-0.128	0.069
-295.705	-116.008	0.281	0.053
-294.691	-35.399	-0.213	-0.116
-293.676	-38.713	0.174	0.092
-292.662	-74.438	0.633	-0.229
-291.647	-185.094	-0.329	0.005
-290.632	-200.000	-0.011	0.230
-289.618	592.988	-0.131	0.326
-288.603	-72.224	0.047	0.017
-287.589	199.842	0.156	-0.240
-286.574	104.116	0.102	0.121
-285.559	800.000	-0.100	-0.292
-284.545	800.000	0.103	0.344
-283.530	75.147	0.157	0.166
-282.516	-200.000	0.028	-0.225
-281.501	-51.967	0.425	0.198
-280.486	281.603	0.018	0.032
-279.472	-200.000	0.060	0.471
-278.457	110.638	0.116	0.140
-277.443	-22.589	-0.194	0.117
-276.428	533.864	-0.090	-0.215
-275.413	215.620	0.082	-0.130
-274.399	43.079	0.271	0.248
-273.384	-200.000	-0.012	0.145
-272.370	-85.672	0.157	0.049
-271.355	7.845	-0.059	0.044
-270.340	82.736	0.263	-0.286
-269.326	-200.000	-0.025	-0.145
-268.311	67.297	-0.237	0.243
-267.297	-108.970	0.271	0.058
-266.282	149.540	0.224	0.305
-265.267	-200.000	0.008	-0.228
-264.253	17.681	0.091	0.073
-263.238	178.725	-0.109	0.160
-262.224	-200.000	-0.050	-0.333
-261.209	92.262	-0.199	0.225
-260.195	-37.898	0.061	-0.032
-259.180	83.970	-0.122	-0.134
-258.165	-158.873	0.165	0.009
-257.151	800.000	0.168	0.479
-256.136	-79.845	-0.143	0.048
-255.122	76.437	-0.244	0.260
-254.107	-115.019	0.035	0.007
-253.092	-200.000	-0.076	0.341
-252.078	-33.401	-0.110	0.061
-251.063	121.173	0.150	0.188
-250.049	-200.000	-0.025	0.154
-249.034	-156.652	0.265	0.016
-248.019	-200.000	0.029	0.179
-247.005	61.897	-0.230	0.230
-245.990	-158.381	0.274	0.016
-244.976	201.397	0.114	0.176
-243.961	58.993	0.212	-0.209
-242.946	237.474	-0.121	-0.201
-241.932	-200.000	-0.007	0.366
-240.917	-127.497	-0.260	0.038
-239.903	-10.833	0.288	0.191
-238.888	-1.342	0.283	0.200
-237.873	25.030	-0.067	-0.055
-236.859	269.934	-0.111	0.196
-235.844	30.281	0.272	-0.233
-234.830	-64.503	-0.223	-0.091
-233.815	-200.000	-0.000	0.059
-232.800	-6.040	0.377	0.258
-231.786	55.758	0.134	0.130
-230.771	-66.882	-0.229	0.091
-229.757	-42.647	0.236	0.120
-228.742	381.902	-0.112	0.229
-227.727	-56.450	-0.107	-0.048
-226.713	-67.766	-0.146	0.057
-225.698	-23.603	-0.266	0.160
-224.684	664.212	-0.087	-0.226
-223.669	-200.000	-0.045	-0.506
-222.655	-117.234	-0.202	-0.037
-221.640	4.177	-0.225	-0.165
-220.625	3.674	-0.261	0.191
-219.611	19.934	0.409	-0.330
-218.596	-60.267	-0.196	0.083
-217.582	394.096	0.085	-0.177
-216.567	-200.000	-0.002	-0.274
-215.552	-107.363	-0.047	0.010
-214.538	-200.000	0.019	-0.237
-213.523	-131.231	-0.080	0.011
-212.509	-125.368	-0.297	0.045
-211.494	-116.568	-0.206	0.038
-210.479	-114.421	0.092	0.018
-209.465	-200.000	0.025	-0.199
-208.450	-122.152	0.198	0.032
-207.436	179.776	0.099	0.145
-206.421	-141.300	-0.232	-0.024
-205.406	800.000	-0.023	-0.071
-204.392	-70.746	0.086	-0.033
-203.377	-108.993	0.194	-0.041
-202.363	-200.000	-0.016	0.275
-201.348	800.000	0.121	0.449
-200.333	-200.000	0.032	0.238
-199.319	-46.592	0.257	-0.126
-198.304	-200.000	0.030	0.204
-197.290	82.300	-0.100	0.108
-196.275	-9.986	0.318	-0.212
-195.260	38.537	0.183	0.163
-194.246	-116.176	0.419	-0.078
-193.231	272.294	-0.211	-0.373
-192.217	79.536	0.236	0.253
-191.202	800.000	0.048	-0.176
-190.187	12.814	0.069	0.053
-189.173	-177.512	0.118	-0.003
-188.158	-70.034	-0.164	0.063
-187.144	-200.000	-0.025	-0.295
-186.129	31.295	-0.287	0.247
-185.114	333.246	0.042	-0.082
-184.100	-37.953	-0.355	0.189
-183.085	-34.723	0.083	-0.045
-182.071	-148.983	-0.084	0.007
-181.056	-91.324	0.104	0.030
-180.042	-200.000	-0.039	-0.493
-179.027	800.000	-0.069	-0.263
-178.012	800.000	0.072	0.210
-176.998	-200.000	0.010	-0.074
-175.983	-81.322	-0.058	0.019
-174.969	-176.385	-0.140	0.004
-173.954	81.965	0.326	-0.353
-172.939	-40.424	0.524	-0.272
-171.925	-102.265	0.236	-0.057
-170.910	46.499	-0.199	-0.185
-169.896	-101.008	-0.375	-0.092
-168.881	92.623	0.168	-0.190
-167.866	-62.471	0.128	0.053
-166.852	800.000	-0.085	-0.365
-165.837	126.164	0.306	0.387
-164.823	426.008	0.110	-0.238
-163.808	-200.000	-0.007	0.227
-162.793	357.171	-0.095	-0.190
-161.779	38.009	-0.174	0.155
-160.764	376.927	-0.177	-0.361
-159.750	58.647	-0.184	-0.180
-158.735	-159.210	0.070	-0.004
-157.720	319.984	0.079	0.151
-156.706	-88.739	0.247	-0.073
-155.691	167.730	0.124	0.177
-154.677	85.021	0.160	0.176
-153.662	800.000	-0.007	0.025
-152.647	-200.000	-0.055	-0.494
-151.633	36.496	0.200	-0.176
-150.618	-30.406	0.147	-0.083
-149.604	-95.879	-0.099	0.026
-148.589	5.166	-0.095	-0.070
-147.574	-85.579	-0.157	0.049
-146.560	-200.000	-0.029	0.194
-145.545	-104.375	0.427	0.099
-144.531	-177.791	0.287	0.007
-143.516	-91.675	0.217	-0.062
-142.502	91.569	-0.186	0.209
-141.487	9.353	0.216	-0.163
-140.472	-40.231	-0.276	-0.143
-139.458	111.526	-0.161	0.194
-138.443	48.481	0.124	-0.116
-137.429	-200.000	-0.014	0.154
-136.414	150.416	-0.112	0.152
-135.399	-200.000	-0.055	0.246
-134.385	483.777	0.104	0.236
-133.370	-141.199	0.185	0.019
-132.356	128.544	-0.146	-0.186
-131.341	124.186	0.150	-0.188
-130.326	-19.311	0.261	-0.161
-129.312	-45.236	0.246	0.122
-128.297	800.000	-0.030	0.109
-127.283	-200.000	0.037	0.274
-126.268	-78.692	-0.110	0.037
-125.253	264.409	0.125	-0.216
-124.239	136.361	0.210	0.273
-123.224	-1.752	-0.501	0.352
-122.210	-200.000	0.035	-0.214
-121.195	-20.468	-0.203	0.124
-120.180	232.535	0.139	-0.228
