DTS Sentinel unit serial number:	SN413079Multiplexer serial number:	ORYXHardware model number:	OX4-SRSoftware version number:	ORYX F/W v4.00 Oryx Data Collector v3.7.2.0data status	okinstallation	princeton_trtdifferential loss correction	single-endedforward channel	channel 4reverse channel	N/Adate	2019/09/17time	16:09:34forward acquisition time	60.00reverse acquisition time	0.00gamma	496.2192k internal	0.2286k external	0.2286temperature offset calibration	0.9982default loss term (dB/km)	0.3790temperature slope calibration	1.0000multiplexer offset coefficient	1.0000multiplexer slope coefficient	1.0000fibre end	0.00T internal ref (°C)	40.47T ext. ref 1 (°C)	0.37T ext. ref 2 (°C)	38.75length (m)	temperature (°C)	Stokes	anti-Stokes-747.200	-114.501	-0.350	0.069
-746.185	160.103	-0.155	0.222
-745.171	404.309	-0.129	-0.280
-744.156	-79.775	0.042	0.015
-743.142	45.062	-0.097	-0.092
-742.127	62.218	-0.069	-0.071
-741.112	44.448	-0.049	-0.046
-740.098	-200.000	0.054	0.255
-739.083	212.522	-0.137	0.222
-738.069	-200.000	-0.013	-0.208
-737.054	52.339	0.189	0.185
-736.039	176.251	0.181	0.270
-735.025	123.137	0.349	0.449
-734.010	-200.000	-0.013	-0.191
-732.996	-197.984	0.073	-0.000
-731.981	-119.840	-0.109	0.019
-730.966	-146.781	0.236	-0.021
-729.952	46.720	0.072	0.069
-728.937	-64.247	0.169	0.071
-727.923	105.373	-0.159	0.193
-726.908	-121.626	-0.301	0.051
-725.894	-128.950	-0.249	-0.036
-724.879	362.692	-0.124	0.255
-723.864	-200.000	-0.034	0.174
-722.850	239.137	0.086	0.146
-721.835	-128.720	-0.345	0.050
-720.821	-32.153	0.079	0.045
-719.806	-134.561	-0.290	-0.036
-718.791	457.124	-0.156	-0.355
-717.777	-167.477	-0.496	-0.020
-716.762	-46.081	0.262	-0.132
-715.748	-25.675	-0.130	-0.079
-714.733	-86.003	0.213	0.068
-713.718	176.763	-0.106	0.158
-712.704	150.806	-0.035	-0.049
-711.689	-24.880	0.104	-0.063
-710.675	761.878	0.113	0.314
-709.660	-108.769	-0.166	-0.036
-708.645	-91.042	0.038	0.011
-707.631	276.576	0.012	0.021
-706.616	-135.595	0.144	-0.017
-705.602	140.781	-0.056	0.076
-704.587	91.872	-0.146	0.169
-703.572	-117.954	-0.196	-0.036
-702.558	329.270	0.124	-0.245
-701.543	303.106	0.039	0.075
-700.529	-55.928	0.241	0.110
-699.514	-119.036	-0.121	-0.022
-698.499	-142.664	-0.271	-0.027
-697.485	800.000	-0.027	-0.078
-696.470	2.381	0.085	-0.063
-695.456	161.518	-0.048	-0.069
-694.441	114.705	0.141	-0.176
-693.426	-98.685	0.136	-0.036
-692.412	-138.370	-0.288	0.033
-691.397	548.482	0.047	-0.114
-690.383	-169.677	0.364	0.013
-689.368	38.872	0.070	0.064
-688.354	800.000	0.100	0.355
-687.339	323.830	0.144	-0.282
-686.324	35.792	0.227	-0.205
-685.310	665.072	-0.042	0.111
-684.295	800.000	0.050	0.197
-683.281	145.949	-0.111	-0.152
-682.266	152.732	0.081	-0.113
-681.251	-106.970	0.052	0.012
-680.237	-96.301	-0.485	0.132
-679.222	54.351	0.205	-0.202
-678.208	154.960	0.082	0.115
-677.193	61.099	0.066	-0.067
-676.178	-200.000	-0.025	0.238
-675.164	191.263	-0.039	0.061
-674.149	800.000	0.071	-0.251
-673.135	-4.950	0.139	0.098
-672.120	26.688	-0.087	-0.074
-671.105	-61.233	0.292	0.126
-670.091	-31.158	0.130	0.075
-669.076	204.796	-0.144	0.229
-668.062	-16.772	0.160	-0.104
-667.047	679.253	-0.090	-0.239
-666.032	-200.000	0.027	0.137
-665.018	-103.348	-0.127	-0.031
-664.003	210.286	-0.030	-0.049
-662.989	-83.117	0.222	0.073
-661.974	31.453	-0.199	-0.175
-660.959	204.422	-0.106	-0.168
-659.945	-41.310	0.049	-0.026
-658.930	89.562	0.017	-0.019
-657.916	-98.893	-0.335	0.087
-656.901	103.334	0.103	-0.124
-655.886	-33.008	-0.175	-0.099
-654.872	37.178	-0.032	0.029
-653.857	-200.000	-0.060	0.383
-652.843	-133.280	-0.392	-0.051
-651.828	243.795	-0.100	0.172
-650.814	800.000	0.065	0.242
-649.799	550.216	0.064	0.158
-648.784	5.093	-0.232	0.175
-647.770	457.323	0.079	-0.180
-646.755	-143.737	-0.299	-0.029
-645.741	743.308	0.062	0.170
-644.726	616.391	-0.111	-0.286
-643.711	-85.023	0.237	0.076
-642.697	-81.104	0.140	0.047
-641.682	-123.965	-0.150	0.024
-640.668	-119.766	-0.183	-0.032
-639.653	-65.287	0.196	-0.081
-638.638	800.000	-0.042	0.137
-637.624	245.449	-0.122	-0.210
-636.609	648.279	-0.047	-0.122
-635.595	-200.000	0.001	-0.089
-634.580	-116.373	0.264	-0.050
-633.565	384.546	0.091	0.192
-632.551	-200.000	0.020	-0.111
-631.536	204.503	-0.082	0.130
-630.522	70.858	0.123	-0.130
-629.507	-13.171	0.157	0.104
-628.492	270.524	-0.107	-0.193
-627.478	-52.281	-0.211	0.100
-626.463	-147.353	-0.221	-0.019
-625.449	473.688	0.096	0.222
-624.434	-200.000	0.022	0.164
-623.419	800.000	-0.037	0.149
-622.405	780.300	-0.021	0.059
-621.390	-57.553	0.215	-0.096
-620.376	233.465	0.107	0.179
-619.361	18.948	-0.173	0.142
-618.346	52.271	-0.120	0.117
-617.332	10.395	-0.174	0.136
-616.317	153.567	0.119	0.167
-615.303	-200.000	-0.017	-0.078
-614.288	-0.416	-0.162	-0.118
-613.273	-167.535	0.396	0.016
-612.259	122.906	-0.165	-0.211
-611.244	800.000	0.056	0.204
-610.230	800.000	0.103	0.372
-609.215	460.508	-0.113	0.257
-608.201	-137.896	-0.259	-0.030
-607.186	71.884	0.158	0.168
-606.171	800.000	0.056	-0.234
-605.157	51.661	0.112	0.108
-604.142	800.000	0.079	-0.294
-603.128	-89.653	0.210	0.063
-602.113	35.631	-0.346	-0.310
-601.098	308.987	0.127	0.243
-600.084	-35.653	-0.382	-0.211
-599.069	-200.000	0.018	-0.184
-598.055	311.613	-0.158	0.303
-597.040	-200.000	0.029	-0.231
-596.025	44.098	-0.182	0.170
-595.011	-29.559	-0.313	0.182
-593.996	165.021	0.111	-0.161
-592.982	-15.525	0.094	0.061
-591.967	-124.779	0.490	0.077
-590.952	800.000	0.068	0.225
-589.938	-200.000	0.009	0.291
-588.923	114.659	-0.132	-0.164
-587.909	-200.000	-0.031	0.179
-586.894	148.995	0.119	-0.165
-585.879	7.548	-0.103	-0.079
-584.865	-6.902	0.322	0.223
-583.850	277.413	0.056	0.102
-582.836	-79.638	0.316	0.109
-581.821	-156.748	-0.087	0.005
-580.806	-200.000	-0.011	-0.087
-579.792	230.801	-0.053	-0.089
-578.777	-200.000	-0.023	-0.173
-577.763	-62.900	-0.163	-0.069
-576.748	-200.000	-0.038	-0.209
-575.733	-200.000	-0.019	-0.339
-574.719	-73.128	0.038	0.014
-573.704	40.607	-0.162	0.149
-572.690	-36.744	-0.145	-0.080
-571.675	-124.803	-0.368	-0.058
-570.661	-200.000	-0.043	-0.198
-569.646	-104.237	0.304	0.072
-568.631	296.248	-0.068	0.128
-567.617	207.321	-0.111	0.176
-566.602	-111.027	0.112	0.023
-565.588	-200.000	0.026	-0.215
-564.573	-135.908	-0.167	0.020
-563.558	146.057	-0.239	0.327
-562.544	-175.983	-0.307	0.008
-561.529	-76.844	-0.153	-0.055
-560.515	800.000	-0.086	-0.244
-559.500	-89.413	0.154	-0.046
-558.485	204.690	-0.025	-0.040
-557.471	492.825	-0.132	-0.308
-556.456	-68.984	-0.139	0.055
-555.442	-200.000	0.029	-0.148
-554.427	111.576	-0.076	-0.093
-553.412	2.394	-0.120	0.089
-552.398	-200.000	-0.038	-0.302
-551.383	800.000	-0.024	0.100
-550.369	-22.005	-0.343	-0.212
-549.354	-83.429	-0.321	-0.105
-548.339	11.165	-0.129	-0.101
-547.325	357.157	0.108	-0.218
-546.310	62.503	0.178	0.181
-545.296	-55.437	-0.181	-0.083
-544.281	-21.812	-0.309	0.191
-543.266	-71.757	-0.061	0.023
-542.252	116.024	-0.079	0.098
-541.237	-37.136	0.068	-0.037
-540.223	242.542	0.052	0.088
-539.208	164.694	0.156	0.224
-538.193	-0.388	0.111	0.081
-537.179	800.000	0.043	0.151
-536.164	-7.732	0.110	0.075
-535.150	-48.348	0.152	0.075
-534.135	321.137	-0.086	0.167
-533.121	-97.753	-0.400	-0.105
-532.106	151.062	-0.046	0.064
-531.091	-66.088	0.134	-0.055
-530.077	-200.000	-0.033	-0.313
-529.062	-45.503	-0.275	-0.138
-528.048	413.638	0.167	-0.362
-527.033	570.514	0.073	-0.180
-526.018	-200.000	-0.001	-0.286
-525.004	77.527	0.115	-0.124
-523.989	-153.469	0.143	-0.010
-522.975	-49.028	-0.162	0.079
-521.960	-200.000	-0.019	-0.147
-520.945	46.259	-0.181	-0.170
-519.931	-96.531	-0.341	0.092
-518.916	-200.000	0.002	0.295
-517.902	-37.449	0.100	0.054
-516.887	800.000	-0.047	0.183
-515.872	800.000	-0.059	0.250
-514.858	-118.795	-0.172	0.031
-513.843	69.754	-0.157	0.164
-512.829	357.143	0.138	0.279
-511.814	-38.790	-0.282	0.151
-510.799	253.932	0.192	-0.333
-509.785	-54.634	-0.343	-0.158
-508.770	-131.078	0.325	-0.044
-507.756	289.389	0.048	-0.088
-506.741	-60.081	0.211	-0.092
-505.726	-200.000	-0.514	-0.002
-504.712	-77.205	-0.147	0.052
-503.697	-180.525	-0.120	0.003
-502.683	-200.000	-0.005	-0.071
-501.668	-119.077	0.218	0.039
-500.653	-50.343	0.065	0.031
-499.639	-85.833	0.328	-0.103
-498.624	252.726	-0.179	-0.311
-497.610	224.827	0.130	-0.214
-496.595	40.465	0.328	-0.300
-495.581	-200.000	0.031	-0.257
-494.566	507.247	0.062	-0.147
-493.551	109.419	-0.170	-0.207
-492.537	-8.294	0.220	0.151
-491.522	-56.355	-0.289	-0.131
-490.508	-13.013	-0.228	0.151
-489.493	156.205	-0.127	0.178
-488.478	-144.996	0.244	0.023
-487.464	242.505	0.097	0.164
-486.449	-135.348	0.263	0.032
-485.435	-47.087	-0.048	-0.024
-484.420	19.282	-0.113	-0.092
-483.405	288.967	-0.116	0.214
-482.391	-200.000	-0.052	0.243
-481.376	-112.433	-0.307	-0.062
-480.362	-28.413	0.147	0.086
-479.347	394.445	-0.095	-0.200
-478.332	-200.000	0.009	-0.041
-477.318	-50.289	0.150	0.072
-476.303	800.000	-0.096	-0.289
-475.289	59.244	0.215	-0.215
-474.274	-76.938	0.423	-0.150
-473.259	800.000	-0.044	-0.132
-472.245	-0.063	-0.194	-0.140
-471.230	88.174	0.019	0.021
-470.216	-173.413	0.187	0.006
-469.201	-91.146	0.178	-0.052
-468.186	-104.226	0.093	0.022
-467.172	32.104	0.219	-0.192
-466.157	102.387	-0.194	0.231
-465.143	-28.150	-0.150	0.088
-464.128	-200.000	0.013	-0.116
-463.113	800.000	-0.031	0.109
-462.099	66.217	-0.154	0.159
-461.084	218.379	-0.123	0.200
-460.070	11.675	0.166	0.129
-459.055	6.072	-0.192	-0.145
-458.040	800.000	-0.026	0.115
-457.026	-60.921	0.179	0.077
-456.011	800.000	-0.135	-0.397
-454.997	-173.392	-0.275	-0.008
-453.982	142.170	-0.130	0.175
-452.968	191.281	0.105	-0.160
-451.953	800.000	0.148	-0.500
-450.938	-114.900	-0.196	-0.038
-449.924	-53.000	0.236	0.110
-448.909	138.484	-0.145	0.193
-447.895	72.744	0.253	-0.267
-446.880	-22.630	-0.066	-0.041
-445.865	-9.717	-0.304	-0.206
-444.851	-42.344	-0.465	-0.241
-443.836	54.884	0.178	0.175
-442.822	-200.000	0.034	-0.208
-441.807	771.956	0.091	0.252
-440.792	-25.349	0.102	0.061
-439.778	-51.173	0.473	-0.225
-438.763	45.388	0.325	-0.304
-437.749	13.128	-0.147	-0.115
-436.734	-200.000	-0.056	-0.262
-435.719	56.730	-0.048	0.048
-434.705	-183.283	0.150	-0.003
-433.690	-184.254	-0.140	0.002
-432.676	800.000	0.101	-0.338
-431.661	800.000	-0.034	0.117
-430.646	-90.057	-0.304	0.090
-429.632	800.000	0.024	-0.089
-428.617	98.102	-0.087	0.102
-427.603	-53.389	-0.203	-0.094
-426.588	-44.720	-0.216	-0.109
-425.573	-30.441	-0.214	0.123
-424.559	-142.207	0.145	0.015
-423.544	97.745	0.166	0.193
-422.530	163.063	0.161	-0.230
-421.515	296.727	0.160	-0.298
-420.500	-200.000	0.008	-0.155
-419.486	68.139	0.108	-0.112
-418.471	-40.572	-0.234	0.123
-417.457	800.000	0.022	0.073
-416.442	-200.000	-0.068	0.409
-415.428	-119.601	-0.025	0.004
-414.413	33.715	0.163	-0.144
-413.398	-200.000	-0.036	0.175
-412.384	203.027	-0.006	0.009
-411.369	-115.385	-0.309	0.059
-410.355	-173.424	-0.372	0.011
-409.340	-200.000	0.005	-0.258
-408.325	-200.000	0.014	0.091
-407.311	-73.243	-0.086	0.032
-406.296	435.678	-0.064	-0.142
-405.282	-25.356	0.204	0.122
-404.267	-200.000	-0.050	0.249
-403.252	557.633	-0.018	0.045
-402.238	-200.000	-0.000	-0.111
-401.223	-63.757	0.044	-0.018
-400.209	-127.067	0.044	0.007
-399.194	-62.541	-0.275	-0.115
-398.179	-116.919	0.130	0.024
-397.165	166.754	0.116	-0.167
-396.150	194.819	0.106	0.162
-395.136	11.698	-0.221	-0.172
-394.121	17.016	-0.177	-0.142
-393.106	643.163	-0.051	-0.131
-392.092	-120.078	-0.283	0.049
-391.077	800.000	0.061	-0.229
-390.063	-200.000	0.015	0.067
-389.048	29.984	-0.049	-0.043
-388.033	-200.000	-0.005	0.043
-387.019	338.785	-0.052	0.102
-386.004	-177.202	0.188	0.005
-384.990	-188.727	0.146	-0.002
-383.975	-200.000	-0.020	-0.126
-382.960	142.043	-0.137	-0.184
-381.946	-200.000	-0.039	0.226
-380.931	366.589	-0.050	0.102
-379.917	-200.000	-0.031	0.175
-378.902	-22.456	-0.098	-0.060
-377.888	17.343	0.258	0.207
-376.873	800.000	-0.105	0.358
-375.858	-122.395	-0.109	0.018
-374.844	-113.172	0.041	0.008
-373.829	-200.000	-0.057	0.391
-372.815	238.488	0.144	0.242
-371.800	49.847	-0.146	0.140
-370.785	-137.343	0.192	0.022
-369.771	89.276	0.173	-0.195
-368.756	-56.630	0.282	0.126
-367.742	-92.527	0.231	0.065
-366.727	800.000	-0.052	0.218
-365.712	159.358	0.107	0.151
-364.698	-145.179	-0.182	0.017
-363.683	-92.710	0.161	-0.045
-362.669	800.000	-0.143	0.424
-361.654	196.171	-0.165	0.254
-360.639	33.467	0.107	0.094
-359.625	-105.785	0.088	-0.020
-358.610	388.446	0.046	0.097
-357.596	-92.263	0.364	0.104
-356.581	800.000	0.059	-0.173
-355.566	64.545	-0.237	-0.242
-354.552	-200.000	-0.007	0.172
-353.537	800.000	0.026	0.110
-352.523	-10.772	-0.180	0.121
-351.508	-200.000	0.024	-0.177
-350.493	-108.956	0.205	-0.044
-349.479	-42.316	-0.294	-0.152
-348.464	-200.000	0.034	-0.213
-347.450	660.023	-0.146	0.380
-346.435	-117.962	-0.371	0.067
-345.420	367.852	0.168	0.342
-344.406	-200.000	0.030	0.137
-343.391	-160.341	-0.076	-0.004
-342.377	-200.000	-0.013	-0.073
-341.362	-48.551	-0.130	-0.063
-340.348	800.000	0.037	0.112
-339.333	800.000	0.086	0.257
-338.318	-47.933	-0.096	-0.047
-337.304	-12.950	-0.393	0.258
-336.289	-200.000	-0.053	0.255
-335.275	-173.114	0.053	-0.002
-334.260	0.976	0.158	0.114
-333.245	-30.444	0.425	-0.243
-332.231	-120.695	-0.129	-0.022
-331.216	-124.972	0.156	0.024
-330.202	176.927	0.018	-0.027
-329.187	-121.535	0.318	0.053
-328.172	800.000	0.088	0.333
-327.158	5.667	-0.065	0.049
-326.143	-82.562	0.202	-0.066
-325.129	8.647	-0.070	-0.053
-324.114	658.934	-0.047	-0.123
-323.099	48.833	0.174	-0.165
-322.085	-200.000	-0.012	-0.085
-321.070	720.932	-0.112	0.301
-320.056	-200.000	0.023	0.212
-319.041	-146.275	0.209	-0.019
-318.026	-41.934	-0.296	-0.153
-317.012	460.495	-0.044	0.098
-315.997	-200.000	0.002	0.163
-314.983	-90.829	0.137	-0.040
-313.968	210.766	0.128	0.204
-312.953	-118.306	0.213	0.038
-311.939	131.582	-0.069	-0.090
-310.924	-38.656	-0.186	-0.099
-309.910	2.355	-0.131	0.095
-308.895	-0.522	0.229	0.164
-307.880	-200.000	0.024	0.261
-306.866	265.448	0.141	-0.248
-305.851	50.614	0.306	-0.292
-304.837	-21.480	0.055	0.034
-303.822	800.000	-0.046	-0.181
-302.807	-200.000	0.279	0.000
-301.793	-200.000	-0.021	0.162
-300.778	-50.831	-0.112	0.053
-299.764	90.079	-0.101	0.114
-298.749	-39.978	0.113	-0.060
-297.735	8.072	0.217	-0.165
-296.720	528.203	0.066	0.158
-295.705	33.154	0.125	-0.109
-294.691	10.647	-0.244	0.187
-293.676	67.948	-0.108	0.111
-292.662	-200.000	0.006	-0.345
-291.647	104.413	0.117	0.139
-290.632	800.000	0.086	-0.284
-289.618	-200.000	-0.027	-0.270
-288.603	317.306	-0.105	-0.201
-287.589	17.992	-0.158	0.127
-286.574	800.000	-0.052	0.184
-285.559	800.000	-0.107	0.369
-284.545	-200.000	-0.010	0.098
-283.530	-200.000	0.002	0.286
-282.516	116.959	0.234	0.289
-281.501	269.358	0.029	-0.051
-280.486	-99.794	-0.328	0.083
-279.472	223.036	0.135	0.219
-278.457	800.000	0.039	0.147
-277.443	39.470	-0.084	-0.075
-276.428	-200.000	-0.005	0.076
-275.413	800.000	0.054	0.195
-274.399	-134.842	0.256	-0.031
-273.384	1.149	0.097	-0.070
-272.370	-200.000	0.009	-0.059
-271.355	588.256	0.064	0.160
-270.340	-8.830	0.073	-0.049
-269.326	504.998	-0.215	0.501
-268.311	118.896	-0.053	0.066
-267.297	36.182	0.162	-0.143
-266.282	-76.358	-0.177	0.063
-265.267	-200.000	0.027	-0.157
-264.253	800.000	-0.056	-0.235
-263.238	514.964	-0.144	-0.338
-262.224	344.213	-0.070	-0.138
-261.209	-137.032	0.061	0.007
-260.195	-85.907	0.276	-0.086
-259.180	-111.747	0.076	0.016
-258.165	-15.094	0.280	0.181
-257.151	-200.000	0.016	-0.272
-256.136	800.000	0.013	0.051
-255.122	-157.032	-0.253	0.016
-254.107	-101.214	0.145	0.036
-253.092	135.348	-0.203	-0.266
-252.078	800.000	0.030	-0.098
-251.063	800.000	-0.042	0.167
-250.049	-200.000	0.029	0.455
-249.034	25.519	-0.048	0.040
-248.019	-200.000	-0.031	-0.556
-247.005	-15.986	-0.226	-0.145
-245.990	-153.899	0.229	-0.016
-244.976	-88.287	-0.353	-0.106
-243.961	12.251	-0.060	0.046
-242.946	-20.474	0.133	0.083
-241.932	-134.721	0.208	-0.025
-240.917	-161.727	0.214	-0.011
-239.903	403.266	-0.050	-0.105
-238.888	-34.402	0.260	-0.144
-237.873	404.224	-0.141	0.299
-236.859	-200.000	-0.009	-0.040
-235.844	-10.011	0.111	0.075
-234.830	-43.313	0.299	0.152
-233.815	538.277	0.032	0.078
-232.800	89.509	0.247	0.277
-231.786	299.888	-0.016	0.030
-230.771	-96.561	0.154	-0.041
-229.757	47.778	-0.165	-0.155
-228.742	112.068	-0.163	-0.198
-227.727	735.038	0.080	-0.217
-226.713	-141.234	0.238	-0.024
-225.698	-200.000	0.007	0.281
-224.684	6.749	0.242	0.181
-223.669	-57.492	0.051	0.022
-222.655	-31.241	-0.049	0.028
-221.640	-200.000	-0.016	0.096
-220.625	-200.000	-0.070	0.355
-219.611	-132.712	0.192	-0.025
-218.596	-58.756	-0.279	-0.121
-217.582	-200.000	-0.001	-0.114
-216.567	-14.669	0.339	-0.219
-215.552	-28.318	0.196	-0.114
-214.538	-72.674	0.327	0.121
-213.523	800.000	-0.067	-0.195
-212.509	331.375	-0.067	-0.129
-211.494	134.158	-0.085	0.111
-210.479	2.433	-0.052	0.038
-209.465	44.956	-0.198	0.184
-208.450	24.269	0.441	-0.366
-207.436	-200.000	-0.006	0.124
-206.421	134.537	-0.082	0.107
-205.406	100.197	-0.187	0.218
-204.392	-86.239	-0.175	-0.054
-203.377	216.803	-0.053	-0.086
-202.363	-200.000	-0.028	-0.369
-201.348	661.626	0.063	-0.163
-200.333	717.631	-0.075	-0.201
-199.319	0.101	-0.296	-0.212
-198.304	439.114	0.059	-0.128
-197.290	800.000	-0.068	-0.200
-196.275	671.505	0.078	0.202
-195.260	222.458	-0.214	-0.346
-194.246	-55.415	0.258	0.116
-193.231	-98.223	0.330	-0.085
-192.217	-139.826	0.184	-0.020
-191.202	-73.402	-0.162	-0.059
-190.187	10.628	0.178	0.136
-189.173	60.761	0.169	-0.168
-188.158	-82.540	0.198	0.064
-187.144	-200.000	-0.076	0.470
-186.129	-148.319	-0.125	0.010
-185.114	-200.000	-0.013	-0.157
-184.100	-5.279	0.490	0.338
-183.085	-18.593	-0.056	-0.035
-182.071	-200.000	-0.010	-0.095
-181.056	-9.679	0.060	0.040
-180.042	209.259	-0.157	-0.247
-179.027	-87.373	0.259	0.079
-178.012	350.620	0.037	-0.074
-176.998	-135.668	-0.118	0.014
-175.983	-142.620	-0.142	0.014
-174.969	-200.000	-0.030	-0.330
-173.954	-200.000	0.017	-0.255
-172.939	-135.987	0.213	0.025
-171.925	185.189	-0.134	0.199
-170.910	-200.000	0.037	-0.187
-169.896	-89.800	0.307	-0.090
-168.881	-200.000	-0.001	0.146
-167.866	-23.997	-0.084	-0.050
-166.852	-118.633	-0.115	0.020
-165.837	699.814	-0.078	0.207
-164.823	-200.000	-0.014	-0.077
-163.808	-114.664	-0.203	-0.039
-162.793	695.762	-0.078	-0.205
-161.779	-9.734	-0.316	0.211
-160.764	3.539	-0.110	0.081
-159.750	112.175	0.138	-0.168
-158.735	-139.437	0.154	0.017
-157.720	-131.031	-0.018	-0.002
-156.706	754.006	0.044	-0.119
-155.691	111.679	0.081	-0.098
-154.677	101.887	-0.099	0.115
-153.662	-200.000	0.022	0.311
-152.647	-41.081	0.369	-0.191
-151.633	-37.540	0.255	0.136
-150.618	-78.181	0.308	-0.106
-149.604	35.949	-0.168	-0.149
-148.589	-143.924	0.199	-0.019
-147.574	-84.687	-0.099	-0.031
-146.560	163.258	0.040	-0.057
-145.545	-183.694	0.279	-0.005
-144.531	-129.976	0.238	-0.033
-143.516	126.241	-0.062	0.079
-142.502	-93.184	-0.087	-0.024
-141.487	-11.015	-0.177	0.117
-140.472	38.104	0.151	-0.134
-139.458	-51.868	-0.124	0.058
-138.443	9.555	0.244	-0.185
-137.429	-200.000	0.076	0.469
-136.414	-200.000	-0.117	0.551
-135.399	-35.190	-0.161	-0.088
-134.385	50.526	0.270	0.256
-133.370	79.836	0.115	-0.124
-132.356	-200.000	0.085	0.409
-131.341	40.794	0.358	-0.324
-130.326	20.482	-0.157	0.128
-129.312	-88.827	-0.245	0.073
-128.297	-19.316	0.135	0.084
-127.283	-9.565	-0.128	-0.086
-126.268	-200.000	-0.021	-0.348
-125.253	183.473	0.180	0.266
-124.239	-200.000	0.049	-0.271
-123.224	800.000	-0.060	-0.211
-122.210	-81.524	0.251	-0.083
-121.195	18.907	-0.110	0.088
