DTS Sentinel unit serial number:	SN413079Multiplexer serial number:	ORYXHardware model number:	OX4-SRSoftware version number:	ORYX F/W v4.00 Oryx Data Collector v3.7.2.0data status	okinstallation	princeton_trtdifferential loss correction	single-endedforward channel	channel 4reverse channel	N/Adate	2019/09/18time	10:57:34forward acquisition time	60.00reverse acquisition time	0.00gamma	496.2192k internal	0.2313k external	0.2313temperature offset calibration	0.9986default loss term (dB/km)	0.3790temperature slope calibration	1.0000multiplexer offset coefficient	1.0000multiplexer slope coefficient	1.0000fibre end	0.00T internal ref (°C)	29.19T ext. ref 1 (°C)	0.39T ext. ref 2 (°C)	25.64length (m)	temperature (°C)	Stokes	anti-Stokes-747.200	-10.279	0.154	-0.103
-746.185	800.000	0.087	0.352
-745.171	800.000	0.087	-0.274
-744.156	-15.496	-0.398	0.258
-743.142	-159.758	0.107	0.006
-742.127	64.234	-0.230	0.235
-741.112	-200.000	0.001	0.168
-740.098	538.015	-0.055	0.132
-739.083	-117.789	0.430	0.078
-738.069	-22.333	-0.154	0.095
-737.054	-125.408	0.305	-0.047
-736.039	-92.445	-0.372	0.106
-735.025	192.983	0.106	-0.162
-734.010	-67.705	-0.358	-0.142
-732.996	-42.468	-0.098	0.051
-731.981	626.503	-0.064	-0.163
-730.966	-54.412	-0.125	-0.058
-729.952	-33.604	-0.289	-0.162
-728.937	-87.365	-0.376	-0.116
-727.923	52.208	0.045	-0.044
-726.908	-133.137	-0.131	0.017
-725.894	150.789	-0.195	-0.269
-724.879	-149.192	0.164	-0.013
-723.864	-111.932	0.216	0.044
-722.850	-63.094	0.390	-0.163
-721.835	-200.000	0.028	-0.164
-720.821	-200.000	-0.068	0.362
-719.806	117.180	0.117	-0.145
-718.791	176.748	-0.032	-0.047
-717.777	146.202	-0.125	0.169
-716.762	-200.000	-0.005	0.137
-715.748	65.167	-0.219	-0.224
-714.733	74.406	-0.078	0.083
-713.718	129.398	0.161	-0.209
-712.704	-200.000	-0.023	-0.165
-711.689	329.814	-0.111	0.217
-710.675	112.329	0.333	0.408
-709.660	-200.000	-0.013	0.099
-708.645	658.123	-0.150	0.390
-707.631	-77.673	0.161	-0.056
-706.616	-3.532	0.195	-0.137
-705.602	-36.359	0.270	-0.148
-704.587	279.543	0.123	-0.222
-703.572	-5.645	-0.161	-0.112
-702.558	-150.267	-0.417	0.033
-701.543	263.852	0.055	-0.098
-700.529	16.547	0.372	-0.298
-699.514	-162.585	0.202	0.010
-698.499	800.000	-0.058	-0.219
-697.485	155.738	0.272	-0.379
-696.470	388.224	-0.067	-0.141
-695.456	192.675	-0.127	-0.194
-694.441	607.929	-0.155	-0.390
-693.426	25.523	-0.277	-0.233
-692.412	333.088	0.088	-0.173
-691.397	-56.176	-0.149	0.067
-690.383	279.199	0.125	-0.225
-689.368	-156.644	-0.241	-0.015
-688.354	-65.677	-0.286	0.116
-687.339	351.639	0.057	0.113
-686.324	-30.245	-0.329	0.189
-685.310	-55.014	0.089	0.041
-684.295	-161.932	-0.162	-0.008
-683.281	-80.303	-0.266	-0.090
-682.266	-200.000	-0.013	0.100
-681.251	-50.110	-0.166	-0.079
-680.237	800.000	0.135	0.442
-679.222	-152.633	0.189	0.014
-678.208	115.116	-0.081	0.100
-677.193	96.290	-0.111	0.128
-676.178	289.837	-0.020	-0.037
-675.164	800.000	0.064	-0.213
-674.149	-124.822	-0.493	0.077
-673.135	-200.000	0.012	-0.320
-672.120	262.159	-0.219	-0.383
-671.105	154.180	-0.096	-0.133
-670.091	-97.674	0.106	-0.028
-669.076	-104.164	-0.151	0.035
-668.062	-34.232	0.247	-0.137
-667.047	-63.494	0.118	0.049
-666.032	800.000	-0.069	0.239
-665.018	-125.541	0.116	-0.018
-664.003	115.726	0.145	-0.179
-662.989	-100.910	0.124	0.031
-661.974	-200.000	0.006	0.262
-660.959	-37.554	0.163	0.088
-659.945	619.149	-0.040	-0.102
-658.930	-200.000	-0.008	0.111
-657.916	234.142	0.244	0.407
-656.901	-8.799	-0.096	0.065
-655.886	-200.000	-0.017	-0.280
-654.872	18.311	-0.185	0.149
-653.857	-44.091	-0.246	-0.125
-652.843	-50.071	0.165	-0.079
-651.828	-148.361	0.199	0.016
-650.814	23.932	0.228	-0.190
-649.799	184.938	0.123	-0.185
-648.784	800.000	-0.091	0.328
-647.770	-200.000	-0.019	0.118
-646.755	-105.430	0.300	0.069
-645.741	-49.986	0.098	0.047
-644.726	-169.055	0.063	-0.002
-643.711	288.782	-0.156	-0.285
-642.697	-200.000	-0.047	-0.383
-641.682	224.899	0.090	-0.148
-640.668	800.000	0.036	0.147
-639.653	-200.000	-0.029	-0.134
-638.638	172.195	-0.016	0.023
-637.624	-41.535	0.106	-0.055
-636.609	-37.160	-0.217	0.117
-635.595	-160.258	0.166	0.009
-634.580	33.858	0.197	-0.173
-633.565	36.635	0.390	-0.348
-632.551	-58.338	0.128	0.056
-631.536	59.555	-0.242	-0.241
-630.522	103.114	-0.046	-0.055
-629.507	93.589	0.154	0.176
-628.492	-200.000	0.020	0.151
-627.478	156.267	-0.108	0.151
-626.463	19.011	0.385	0.312
-625.449	-200.000	0.024	-0.153
-624.434	800.000	-0.069	0.217
-623.419	719.021	0.082	-0.219
-622.405	789.497	-0.155	-0.430
-621.390	66.181	0.053	-0.055
-620.376	-45.217	-0.233	-0.117
-619.361	212.763	0.253	0.403
-618.346	800.000	0.161	-0.509
-617.332	-9.806	0.053	0.036
-616.317	113.232	0.248	-0.303
-615.303	-125.123	0.121	-0.019
-614.288	-155.479	-0.050	-0.003
-613.273	428.373	0.159	-0.346
-612.259	96.908	0.107	0.124
-611.244	-57.503	0.340	0.151
-610.230	800.000	-0.002	-0.008
-609.215	-77.414	0.310	-0.109
-608.201	34.907	-0.311	0.274
-607.186	137.600	-0.272	0.359
-606.171	-200.000	-0.044	-0.263
-605.157	-200.000	0.024	0.152
-604.142	103.614	0.159	0.189
-603.128	-40.628	-0.140	0.073
-602.113	-81.426	-0.435	0.144
-601.098	-118.446	-0.357	-0.064
-600.084	97.650	0.165	-0.191
-599.069	-135.172	0.273	-0.033
-598.055	-200.000	0.038	0.374
-597.040	40.796	-0.198	0.180
-596.025	800.000	0.073	0.267
-595.011	21.476	0.248	-0.203
-593.996	-56.826	-0.237	0.106
-592.982	-200.000	0.075	0.336
-591.967	29.838	-0.126	-0.108
-590.952	185.367	-0.120	-0.179
-589.938	-123.371	0.233	0.038
-588.923	-72.713	0.122	-0.045
-587.909	-115.235	0.314	0.060
-586.894	-73.858	-0.285	-0.104
-585.879	163.531	0.188	-0.266
-584.865	77.340	-0.119	-0.128
-583.850	-200.000	0.011	-0.258
-582.836	-146.532	-0.340	-0.030
-581.821	1.591	-0.186	-0.135
-580.806	-6.350	0.180	-0.124
-579.792	506.144	0.151	0.353
-578.777	97.135	-0.081	-0.093
-577.763	-30.357	-0.200	-0.115
-576.748	-200.000	-0.020	0.136
-575.733	34.957	0.137	-0.121
-574.719	-163.329	-0.181	-0.009
-573.704	125.848	-0.107	0.136
-572.690	-200.000	-0.005	-0.040
-571.675	800.000	0.079	-0.329
-570.661	3.251	0.132	-0.097
-569.646	-200.000	-0.022	0.151
-568.631	-82.626	-0.081	0.026
-567.617	-200.000	0.003	0.269
-566.602	57.188	-0.197	-0.193
-565.588	68.857	-0.249	-0.257
-564.573	-200.000	-0.026	-0.260
-563.558	-200.000	-0.040	-0.415
-562.544	-125.703	-0.380	-0.058
-561.529	-184.243	0.196	-0.003
-560.515	-200.000	0.014	0.361
-559.500	800.000	-0.048	-0.146
-558.485	800.000	0.027	-0.087
-557.471	101.976	-0.126	0.148
-556.456	655.202	-0.080	0.207
-555.442	-20.544	-0.225	0.139
-554.427	251.948	0.081	0.140
-553.412	-200.000	0.027	-0.254
-552.398	63.019	0.204	-0.205
-551.383	-200.000	-0.013	0.235
-550.369	-200.000	-0.053	-0.257
-549.354	37.389	0.185	-0.165
-548.339	-36.162	-0.254	0.138
-547.325	84.424	0.166	0.183
-546.310	-89.167	-0.266	0.079
-545.296	800.000	0.034	-0.110
-544.281	154.408	0.051	0.070
-543.266	327.516	0.113	-0.219
-542.252	154.428	-0.260	-0.359
-541.237	274.154	-0.125	0.223
-540.223	-60.069	-0.217	-0.093
-539.208	-46.983	-0.135	-0.066
-538.193	94.940	0.200	0.229
-537.179	-200.000	0.035	-0.186
-536.164	217.732	-0.076	-0.122
-535.150	-200.000	0.050	0.281
-534.135	39.381	-0.088	0.079
-533.121	-200.000	-0.029	-0.210
-532.106	-115.355	0.027	0.005
-531.091	800.000	-0.067	0.213
-530.077	-73.669	0.234	-0.086
-529.062	-91.051	-0.099	0.028
-528.048	-200.000	-0.029	0.208
-527.033	-200.000	0.025	0.295
-526.018	1.093	-0.303	-0.219
-525.004	121.814	0.154	0.193
-523.989	-200.000	0.030	0.196
-522.975	57.596	-0.092	-0.090
-521.960	-200.000	0.022	-0.239
-520.945	-108.412	-0.253	0.055
-519.931	324.716	0.073	-0.141
-518.916	115.788	-0.133	0.164
-517.902	-91.787	-0.132	-0.038
-516.887	208.589	0.077	-0.121
-515.872	147.975	-0.079	0.107
-514.858	128.193	-0.182	-0.233
-513.843	-200.000	-0.017	-0.288
-512.829	577.552	-0.050	-0.122
-511.814	159.292	-0.052	-0.073
-510.799	800.000	-0.080	-0.252
-509.785	75.196	-0.077	-0.081
-508.770	89.116	0.129	-0.145
-507.756	-200.000	0.007	0.034
-506.741	448.108	0.054	-0.120
-505.726	31.163	-0.195	-0.168
-504.712	-200.000	-0.033	-0.261
-503.697	-13.867	-0.090	0.058
-502.683	156.264	-0.170	-0.235
-501.668	-200.000	-0.003	0.238
-500.653	-24.747	0.089	-0.053
-499.639	-107.296	0.295	-0.065
-498.624	-82.687	-0.053	0.017
-497.610	-115.138	0.281	-0.053
-496.595	-57.354	0.056	0.025
-495.581	-103.949	-0.328	-0.077
-494.566	128.874	0.154	0.197
-493.551	-161.118	-0.082	0.004
-492.537	219.197	0.024	-0.038
-491.522	-33.655	-0.110	-0.061
-490.508	440.966	0.113	-0.248
-489.493	-80.591	-0.164	-0.055
-488.478	149.279	0.048	0.065
-487.464	654.167	0.108	0.279
-486.449	-200.000	0.293	0.001
-485.435	-200.000	0.007	-0.110
-484.420	-112.535	-0.280	-0.056
-483.405	-171.676	-0.153	0.005
-482.391	-200.000	0.023	0.100
-481.376	-51.843	0.146	0.068
-480.362	-137.737	-0.108	0.012
-479.347	-155.793	0.114	0.007
-478.332	-37.965	-0.231	0.123
-477.318	-200.000	0.006	-0.247
-476.303	-68.838	0.121	-0.047
-475.289	800.000	-0.055	0.210
-474.274	220.243	0.146	-0.235
-473.259	-200.000	-0.038	0.174
-472.245	-162.068	-0.385	-0.019
-471.230	-141.070	-0.112	-0.012
-470.216	94.000	-0.133	0.151
-469.201	158.826	0.223	0.311
-468.186	292.786	0.106	-0.195
-467.172	-200.000	0.041	-0.234
-466.157	-200.000	-0.071	0.398
-465.143	48.800	0.075	0.071
-464.128	800.000	-0.079	-0.250
-463.113	481.966	-0.103	-0.235
-462.099	-200.000	0.001	-0.228
-461.084	-13.535	0.087	0.056
-460.070	-57.352	-0.496	0.219
-459.055	29.999	0.339	-0.290
-458.040	117.095	-0.080	0.099
-457.026	-99.508	-0.078	0.020
-456.011	-77.491	-0.096	-0.034
-454.997	84.345	0.066	-0.072
-453.982	-61.937	-0.039	0.016
-452.968	321.231	0.115	0.220
-451.953	-15.833	-0.070	0.044
-450.938	163.277	-0.054	0.077
-449.924	800.000	0.005	-0.017
-448.909	-24.823	-0.164	-0.098
-447.895	-60.735	-0.396	-0.168
-446.880	-104.419	-0.254	0.059
-445.865	683.526	0.103	-0.268
-444.851	-41.153	0.327	0.169
-443.836	-52.812	-0.114	-0.053
-442.822	342.482	0.107	0.209
-441.807	-121.205	-0.322	0.054
-440.792	274.695	0.123	-0.219
-439.778	170.813	0.129	-0.186
-438.763	116.093	-0.098	-0.121
-437.749	800.000	0.094	-0.277
-436.734	-200.000	-0.023	-0.125
-435.719	-86.410	-0.108	-0.033
-434.705	99.034	0.060	0.070
-433.690	-60.547	0.187	0.080
-432.676	-35.059	-0.134	0.073
-431.661	-12.384	-0.142	0.093
-430.646	-200.000	-0.005	0.179
-429.632	258.086	0.092	0.159
-428.617	142.334	0.148	-0.197
-427.603	800.000	0.026	0.090
-426.588	121.006	-0.218	0.272
-425.573	-34.247	-0.298	0.164
-424.559	-1.023	0.199	0.141
-423.544	148.824	-0.154	-0.209
-422.530	258.614	-0.210	-0.362
-421.515	-59.030	-0.180	0.078
-420.500	-200.000	0.015	-0.084
-419.486	-167.770	-0.139	-0.005
-418.471	-40.622	-0.082	0.043
-417.457	13.374	-0.034	-0.026
-416.442	168.324	-0.082	-0.117
-415.428	9.645	0.149	0.113
-414.413	506.969	-0.170	0.395
-413.398	800.000	-0.040	0.163
-412.384	126.278	-0.257	0.326
-411.369	-148.487	0.080	-0.007
-410.355	42.466	0.149	0.135
-409.340	-200.000	-0.031	0.171
-408.325	115.283	-0.114	-0.139
-407.311	-85.366	0.117	-0.037
-406.296	211.254	0.139	0.219
-405.282	296.898	0.179	-0.328
-404.267	-15.481	0.118	-0.075
-403.252	104.324	0.106	-0.125
-402.238	-79.157	0.114	0.039
-401.223	-30.777	-0.199	-0.113
-400.209	54.950	0.216	-0.208
-399.194	-124.863	0.316	-0.049
-398.179	119.983	-0.203	-0.252
-397.165	322.359	-0.096	0.183
-396.150	0.895	0.064	-0.046
-395.136	-8.009	-0.097	0.066
-394.121	-200.000	0.097	0.454
-393.106	63.531	0.143	-0.143
-392.092	-87.487	-0.404	0.122
-391.077	-39.180	0.358	0.188
-390.063	-4.470	0.130	-0.090
-389.048	-30.827	-0.313	-0.177
-388.033	-56.824	0.079	0.035
-387.019	327.508	0.037	0.071
-386.004	106.726	-0.163	-0.193
-384.990	-129.387	-0.237	-0.033
-383.975	-200.000	-0.002	0.111
-382.960	800.000	-0.022	0.066
-381.946	482.686	-0.147	-0.334
-380.931	4.444	0.181	0.133
-379.917	-156.676	0.194	-0.012
-378.902	-38.301	-0.119	-0.063
-377.888	800.000	0.100	-0.349
-376.873	195.759	-0.161	-0.244
-375.858	-200.000	-0.036	0.270
-374.844	-200.000	0.000	-0.035
-373.829	402.383	-0.135	-0.283
-372.815	-58.891	-0.118	0.051
-371.800	-21.233	-0.374	-0.229
-370.785	-200.000	0.065	-0.291
-369.771	-200.000	-0.002	0.354
-368.756	47.561	0.229	0.214
-367.742	-116.091	-0.067	-0.012
-366.727	449.815	-0.093	0.206
-365.712	-200.000	-0.017	0.140
-364.698	-120.411	0.222	0.038
-363.683	425.787	-0.037	-0.079
-362.669	1.851	0.170	0.123
-361.654	800.000	0.073	-0.240
-360.639	800.000	-0.044	0.137
-359.625	-54.708	-0.106	0.048
-358.610	-200.000	-0.055	0.292
-357.596	-57.295	0.182	0.080
-356.581	556.700	0.089	0.213
-355.566	287.037	-0.073	0.131
-354.552	400.548	-0.044	0.093
-353.537	-128.877	0.205	0.029
-352.523	-102.221	-0.256	-0.061
-351.508	463.381	0.078	0.174
-350.493	-200.000	0.033	0.172
-349.479	-200.000	0.017	0.395
-348.464	90.814	0.235	0.263
-347.450	-200.000	-0.019	0.089
-346.435	-200.000	0.017	0.103
-345.420	-131.913	0.233	0.030
-344.406	800.000	0.083	-0.269
-343.391	-138.289	0.148	0.016
-342.377	-171.961	-0.219	-0.007
-341.362	75.221	-0.057	0.060
-340.348	-83.069	0.176	-0.056
-339.333	363.891	-0.101	-0.202
-338.318	-134.927	-0.102	-0.012
-337.304	3.879	0.187	-0.137
-336.289	-71.117	-0.177	0.066
-335.275	199.445	-0.064	0.098
-334.260	320.289	-0.077	-0.146
-333.245	19.422	0.238	0.191
-332.231	-111.102	-0.235	0.048
-331.216	782.669	-0.104	0.285
-330.202	454.508	-0.124	0.275
-329.187	574.343	0.066	0.161
-328.172	-124.833	-0.530	0.082
-327.158	-200.000	0.012	0.235
-326.143	-200.000	0.009	-0.048
-325.129	63.562	-0.128	0.128
-324.114	-138.996	0.255	-0.028
-323.099	-200.000	-0.039	0.264
-322.085	-200.000	-0.010	-0.072
-321.070	647.556	-0.038	-0.098
-320.056	104.814	0.124	0.145
-319.041	-90.732	-0.269	-0.077
-318.026	-200.000	0.040	0.182
-317.012	6.974	-0.305	0.227
-315.997	-163.906	0.163	-0.008
-314.983	-108.548	0.289	-0.062
-313.968	328.468	-0.167	0.320
-312.953	-115.553	0.145	0.027
-311.939	-200.000	-0.004	0.333
-310.924	-146.517	-0.356	0.031
-309.910	-200.000	-0.050	-0.228
-308.895	-188.277	-0.190	0.002
-307.880	-55.603	-0.043	0.019
-306.866	800.000	0.033	0.137
-305.851	99.451	-0.142	0.163
-304.837	800.000	0.055	-0.213
-303.822	-37.498	0.118	0.063
-302.807	517.419	0.148	0.345
-301.793	49.151	-0.119	0.111
-300.778	216.377	0.052	-0.083
-299.764	-67.618	0.312	-0.122
-298.749	-150.210	-0.152	-0.012
-297.735	-13.849	-0.265	-0.171
-296.720	-200.000	0.005	-0.258
-295.705	14.415	0.062	0.048
-294.691	379.092	0.003	-0.006
-293.676	5.973	0.165	-0.122
-292.662	202.636	0.041	0.063
-291.647	-200.000	0.004	-0.149
-290.632	33.144	0.075	-0.065
-289.618	-98.203	-0.151	-0.039
-288.603	139.965	-0.237	-0.311
-287.589	540.504	-0.047	-0.112
-286.574	-15.307	0.304	0.194
-285.559	79.873	-0.216	0.231
-284.545	16.225	-0.237	0.186
-283.530	143.159	-0.042	0.055
-282.516	-1.940	-0.132	0.092
-281.501	13.660	0.066	0.051
-280.486	-200.000	0.020	-0.149
-279.472	-200.000	0.006	0.221
-278.457	-47.044	0.083	0.041
-277.443	-200.000	0.015	0.068
-276.428	-98.964	0.032	-0.008
-275.413	-200.000	0.172	0.001
-274.399	-200.000	-0.005	0.170
-273.384	-68.805	0.063	0.024
-272.370	-59.212	-0.045	-0.019
-271.355	-49.542	0.213	0.101
-270.340	-78.434	-0.238	0.081
-269.326	16.246	-0.219	0.172
-268.311	546.270	-0.077	-0.184
-267.297	-170.507	-0.440	0.015
-266.282	93.421	-0.184	-0.207
-265.267	77.679	0.152	-0.162
-264.253	112.218	0.163	0.196
-263.238	695.793	0.031	-0.080
-262.224	14.147	0.119	-0.093
-261.209	-200.000	0.041	0.205
-260.195	54.418	0.172	-0.165
-259.180	-85.671	0.273	-0.084
-258.165	-173.378	0.215	-0.006
-257.151	-200.000	0.003	-0.194
-256.136	-97.214	0.319	0.083
-255.122	115.206	0.145	0.176
-254.107	-54.028	0.218	0.099
-253.092	291.753	-0.075	-0.136
-252.078	-139.488	0.427	-0.045
-251.063	-121.430	0.341	0.056
-250.049	-200.000	-0.005	-0.044
-249.034	-36.653	0.093	0.050
-248.019	-200.000	0.001	0.171
-247.005	-92.549	0.439	0.123
-245.990	-72.672	0.030	0.011
-244.976	-75.389	-0.146	-0.052
-243.961	136.800	0.183	-0.237
-242.946	9.966	0.268	0.202
-241.932	-200.000	0.022	0.133
-240.917	239.317	-0.104	-0.171
-239.903	557.396	0.062	0.150
-238.888	99.795	-0.167	0.193
-237.873	-200.000	-0.016	-0.175
-236.859	15.378	0.029	-0.022
-235.844	120.063	0.095	0.118
-234.830	106.887	0.164	0.194
-233.815	-55.968	-0.196	-0.087
-232.800	23.818	0.117	0.096
-231.786	95.514	-0.212	-0.240
-230.771	-66.627	0.265	-0.105
-229.757	-85.807	-0.093	0.029
-228.742	2.453	0.116	-0.084
-227.727	683.286	0.029	-0.075
-226.713	-49.177	-0.406	-0.193
-225.698	-106.356	-0.184	0.041
-224.684	-88.068	0.180	-0.054
-223.669	68.764	0.058	-0.059
-222.655	-127.716	-0.159	-0.023
-221.640	-24.257	0.058	-0.034
-220.625	270.476	0.191	-0.333
-219.611	-200.000	-0.028	-0.368
-218.596	-71.796	-0.224	-0.083
-217.582	-200.000	-0.013	-0.256
-216.567	-200.000	0.017	-0.207
-215.552	331.377	-0.031	0.060
-214.538	-33.274	0.228	0.125
-213.523	-173.048	-0.228	0.007
-212.509	-200.000	-0.030	0.298
-211.494	-50.228	0.304	0.143
-210.479	800.000	-0.081	-0.293
-209.465	800.000	-0.053	-0.151
-208.450	-102.762	0.325	-0.077
-207.436	800.000	-0.084	0.277
-206.421	-66.851	0.127	-0.050
-205.406	-79.957	-0.148	-0.049
-204.392	319.964	-0.155	0.292
-203.377	-37.871	0.179	0.094
-202.363	-175.323	0.272	-0.007
-201.348	-161.643	0.256	-0.013
-200.333	-200.000	0.038	0.204
-199.319	110.893	-0.082	0.098
-198.304	-200.000	-0.008	0.322
-197.290	-15.381	0.120	0.076
-196.275	258.662	-0.143	-0.244
-195.260	401.065	-0.218	-0.455
-194.246	539.531	0.208	-0.491
-193.231	-68.089	-0.124	0.048
-192.217	-96.957	0.076	-0.020
-191.202	164.337	0.208	-0.291
-190.187	665.009	-0.071	-0.181
-189.173	-5.789	0.143	0.097
-188.158	800.000	0.074	-0.207
-187.144	-49.974	0.211	0.099
-186.129	-135.017	0.316	-0.038
-185.114	273.720	-0.108	-0.190
-184.100	-146.347	0.203	0.018
-183.085	5.692	-0.200	-0.147
-182.071	469.076	0.004	0.009
-181.056	-181.381	-0.131	0.003
-180.042	800.000	-0.029	0.104
-179.027	-47.840	0.051	-0.024
-178.012	92.855	0.201	0.225
-176.998	130.735	0.188	0.239
-175.983	415.044	-0.041	0.087
-174.969	800.000	0.091	0.282
-173.954	-200.000	-0.018	0.318
-172.939	-142.555	0.157	0.015
-171.925	16.991	0.075	0.059
-170.910	-40.204	0.108	-0.056
-169.896	271.643	-0.146	0.256
-168.881	-200.000	0.088	0.383
-167.866	800.000	0.060	-0.221
-166.852	201.240	-0.060	0.092
-165.837	-19.253	-0.160	-0.099
-164.823	402.014	-0.093	0.194
-163.808	357.589	-0.097	0.192
-162.793	-79.515	0.016	0.006
-161.779	173.814	0.159	-0.228
-160.764	800.000	0.030	0.124
-159.750	-40.639	0.046	0.024
-158.735	-17.763	-0.203	-0.126
-157.720	-200.000	-0.043	-0.236
-156.706	13.459	0.268	-0.206
-155.691	177.983	0.096	-0.139
-154.677	-200.000	-0.029	0.168
-153.662	16.146	0.063	-0.049
-152.647	9.032	-0.145	0.108
-151.633	-56.945	-0.105	-0.046
-150.618	-84.604	0.253	-0.079
-149.604	-92.276	0.345	0.097
-148.589	-95.138	0.199	0.053
-147.574	-79.195	0.316	-0.106
-146.560	-105.825	0.546	-0.122
-145.545	-33.326	-0.299	0.164
-144.531	800.000	0.034	0.141
-143.516	29.220	-0.175	-0.147
-142.502	121.123	0.237	-0.293
-141.487	-106.732	0.134	0.030
-140.472	800.000	-0.085	-0.288
-139.458	-129.581	0.478	0.065
-138.443	-197.102	0.167	0.001
-137.429	-82.874	0.089	0.028
-136.414	54.468	-0.122	0.117
-135.399	405.387	0.140	0.293
-134.385	-85.237	-0.230	-0.071
-133.370	-102.237	-0.122	0.029
-132.356	432.640	-0.081	0.175
-131.341	173.321	-0.152	0.217
-130.326	-200.000	0.011	-0.195
-129.312	77.384	0.100	-0.105
-128.297	-200.000	-0.441	0.001
-127.283	-200.000	-0.032	-0.232
-126.268	625.835	0.069	-0.173
-125.253	469.450	0.137	-0.305
-124.239	-28.256	-0.249	-0.142
-123.224	-102.429	-0.071	-0.017
-122.210	40.953	-0.060	0.053
-121.195	-104.298	0.129	0.030
