DTS Sentinel unit serial number:	SN413079Multiplexer serial number:	ORYXHardware model number:	OX4-SRSoftware version number:	ORYX F/W v4.00 Oryx Data Collector v3.7.2.0data status	okinstallation	princeton_trtdifferential loss correction	single-endedforward channel	channel 4reverse channel	N/Adate	2019/09/12time	19:34:18forward acquisition time	15.00reverse acquisition time	0.00gamma	496.2192k internal	0.2309k external	0.2309temperature offset calibration	1.0156default loss term (dB/km)	0.3790temperature slope calibration	1.0000multiplexer offset coefficient	1.0000multiplexer slope coefficient	1.0000fibre end	0.00T internal ref (°C)	32.19T ext. ref 1 (°C)	3.37T ext. ref 2 (°C)	26.69length (m)	temperature (°C)	Stokes	anti-Stokes-747.200	-100.365	-0.419	-0.106
-746.185	-38.167	0.277	-0.149
-745.171	-25.861	0.287	-0.172
-744.156	-62.135	-0.893	-0.378
-743.142	-118.121	0.430	0.078
-742.127	190.599	0.510	0.778
-741.112	488.565	-0.304	0.705
-740.098	-80.696	0.325	-0.110
-739.083	-200.000	0.022	0.178
-738.069	-60.088	0.256	0.111
-737.054	-86.934	0.347	0.107
-736.039	1.822	-0.165	0.121
-735.025	-44.912	0.173	0.087
-734.010	200.057	-0.158	-0.247
-732.996	-13.066	0.632	-0.418
-731.981	30.183	0.316	0.274
-730.966	-60.382	-0.387	-0.167
-729.952	-93.650	0.466	-0.131
-728.937	-145.260	-0.366	-0.034
-727.923	-35.215	-0.507	-0.280
-726.908	-125.778	-0.097	-0.015
-725.894	93.270	0.387	0.445
-724.879	113.628	-0.052	0.065
-723.864	-14.351	0.086	-0.056
-722.850	800.000	0.076	-0.225
-721.835	334.251	0.293	-0.575
-720.821	270.622	-0.051	0.091
-719.806	-174.930	-0.435	-0.012
-718.791	54.281	0.359	-0.350
-717.777	800.000	-0.088	0.349
-716.762	484.480	0.080	-0.185
-715.748	-150.510	0.259	-0.020
-714.733	-71.485	-0.466	0.177
-713.718	10.143	0.542	0.418
-712.704	-200.000	-0.038	-0.193
-711.689	800.000	0.373	-1.178
-710.675	-96.003	-1.049	-0.283
-709.660	229.423	-0.581	0.963
-708.645	15.412	-0.591	0.471
-707.631	21.324	0.124	0.102
-706.616	800.000	0.084	-0.283
-705.602	90.787	0.368	-0.419
-704.587	800.000	0.107	-0.435
-703.572	632.683	-0.031	0.078
-702.558	-200.000	-0.041	0.531
-701.543	-119.345	-0.478	-0.084
-700.529	-200.000	0.068	-0.526
-699.514	800.000	0.271	-1.133
-698.499	-200.000	-0.005	-0.537
-697.485	-140.740	0.431	-0.045
-696.470	43.224	-0.206	0.191
-695.456	-132.107	-0.449	-0.059
-694.441	259.672	0.368	0.645
-693.426	-200.000	0.069	-0.357
-692.412	-41.587	-0.216	-0.113
-691.397	800.000	0.059	0.230
-690.383	-66.909	-0.732	-0.293
-689.368	7.919	0.976	0.742
-688.354	-0.516	-0.260	-0.187
-687.339	-14.192	-0.749	-0.489
-686.324	-62.196	-0.614	0.260
-685.310	-200.000	-0.399	-0.002
-684.295	-106.099	-0.500	-0.114
-683.281	-109.814	0.466	0.099
-682.266	46.207	-0.545	0.512
-681.251	403.146	0.058	0.124
-680.237	-55.717	0.208	-0.094
-679.222	-200.000	0.015	0.576
-678.208	519.679	0.179	-0.425
-677.193	-200.000	0.032	-0.528
-676.178	22.176	0.436	0.361
-675.164	441.531	-0.214	0.474
-674.149	44.427	-0.217	0.202
-673.135	-200.000	0.052	-0.357
-672.120	-29.814	-0.108	-0.062
-671.105	-200.000	-0.047	-0.338
-670.091	800.000	-0.112	-0.411
-669.076	-71.895	-1.128	-0.425
-668.062	84.700	-0.183	0.203
-667.047	276.101	-0.292	0.525
-666.032	-103.828	-0.507	0.120
-665.018	157.861	-0.348	-0.489
-664.003	-127.640	-0.836	0.122
-662.989	-37.293	0.633	0.343
-661.974	800.000	0.201	-0.827
-660.959	4.688	0.747	-0.556
-659.945	-200.000	0.022	0.477
-658.930	-84.267	0.570	0.183
-657.916	-200.000	0.060	-0.303
-656.901	84.792	0.584	0.648
-655.886	-185.388	-0.536	-0.008
-654.872	-27.524	-0.144	-0.085
-653.857	-169.088	0.562	0.021
-652.843	-89.576	0.856	-0.254
-651.828	-99.313	-0.764	0.195
-650.814	45.690	-0.312	0.292
-649.799	-200.000	0.042	0.344
-648.784	-132.930	0.383	-0.049
-647.770	240.723	0.359	0.605
-646.755	-81.213	-0.801	0.268
-645.741	26.384	-0.191	-0.161
-644.726	208.389	-0.374	0.592
-643.711	118.838	0.611	0.763
-642.697	-130.620	-0.858	0.117
-641.682	-200.000	0.082	-0.674
-640.668	-24.401	-0.592	0.357
-639.653	-49.836	-0.395	-0.190
-638.638	-48.406	-0.701	-0.342
-637.624	-200.000	-0.157	0.721
-636.609	-29.187	0.668	-0.387
-635.595	-200.000	-0.012	0.463
-634.580	77.076	0.685	0.736
-633.565	236.177	0.772	1.291
-632.551	200.053	-0.255	0.396
-631.536	-101.330	0.455	0.112
-630.522	33.011	-0.651	-0.571
-629.507	-39.005	-0.187	0.100
-628.492	-135.770	0.270	-0.032
-627.478	191.887	0.173	-0.264
-626.463	-200.000	-0.012	0.453
-625.449	-158.629	-0.734	0.043
-624.434	20.028	-0.602	-0.491
-623.419	26.660	0.190	-0.161
-622.405	-30.171	-0.614	-0.353
-621.390	-8.501	0.463	0.315
-620.376	10.792	0.645	-0.497
-619.361	-3.453	-1.009	-0.710
-618.346	-101.105	0.404	0.100
-617.332	124.393	0.400	-0.509
-616.317	113.345	-0.327	0.401
-615.303	-145.563	0.629	0.057
-614.288	-200.000	-0.106	0.700
-613.273	-200.000	-0.022	-0.225
-612.259	-14.007	0.559	0.365
-611.244	800.000	0.095	-0.343
-610.230	-8.888	-0.247	-0.167
-609.215	20.797	0.483	-0.396
-608.201	-52.522	0.285	-0.133
-607.186	135.532	-0.250	0.329
-606.171	-185.761	0.297	0.005
-605.157	-92.770	-0.552	0.156
-604.142	-61.846	0.163	-0.069
-603.128	104.829	-0.156	-0.186
-602.113	-67.833	-0.168	-0.066
-601.098	18.851	-0.481	-0.389
-600.084	-112.935	-0.100	0.020
-599.069	70.209	-0.465	-0.485
-598.055	-200.000	0.060	-0.589
-597.040	536.278	0.039	0.094
-596.025	-140.727	0.838	-0.087
-595.011	105.204	0.515	-0.613
-593.996	800.000	-0.030	0.094
-592.982	150.729	-0.105	0.145
-591.967	133.982	-0.341	0.447
-590.952	-200.000	-0.692	-0.001
-589.938	-15.103	-0.178	-0.115
-588.923	-200.000	0.035	0.168
-587.909	-86.254	-0.036	-0.011
-586.894	-87.562	-0.242	0.074
-585.879	82.963	-0.096	-0.105
-584.865	-200.000	-0.008	-0.118
-583.850	-200.000	0.055	0.828
-582.836	-45.736	0.542	0.270
-581.821	52.095	-0.182	0.175
-580.806	-200.000	-0.036	0.724
-579.792	-65.706	-0.795	-0.322
-578.777	266.577	0.022	0.039
-577.763	450.056	0.124	0.276
-576.748	7.696	-0.371	0.280
-575.733	-88.817	-0.425	-0.127
-574.719	-200.000	-0.020	-0.179
-573.704	-46.180	0.271	0.135
-572.690	-200.000	0.067	-0.665
-571.675	800.000	0.084	0.261
-570.661	-68.973	-0.678	0.264
-569.646	-200.000	-0.031	0.180
-568.631	-200.000	-0.031	0.529
-567.617	17.639	0.704	-0.565
-566.602	-161.978	0.224	-0.011
-565.588	800.000	-0.274	-0.834
-564.573	211.283	0.175	-0.277
-563.558	-11.023	-0.101	-0.068
-562.544	-80.248	-0.904	-0.305
-561.529	167.167	0.482	-0.691
-560.515	-66.827	-0.560	-0.223
-559.500	-200.000	-0.068	0.524
-558.485	-44.280	-0.645	-0.326
-557.471	412.020	-0.140	-0.301
-556.456	-143.457	-0.274	-0.026
-555.442	373.207	-0.313	0.641
-554.427	-104.732	-0.308	-0.071
-553.412	-12.485	0.889	-0.586
-552.398	-200.000	0.017	0.498
-551.383	104.612	0.079	0.094
-550.369	251.743	-0.154	0.265
-549.354	-200.000	0.006	0.359
-548.339	-147.903	-0.395	0.033
-547.325	172.188	-0.350	-0.507
-546.310	-81.990	0.319	0.105
-545.296	-200.000	0.017	0.268
-544.281	471.737	-0.132	-0.299
-543.266	-200.000	-0.055	-0.282
-542.252	-97.999	-0.154	-0.040
-541.237	333.618	0.464	0.904
-540.223	258.194	0.162	0.282
-539.208	463.309	-0.189	0.424
-538.193	-152.637	0.281	0.020
-537.179	68.593	0.371	0.383
-536.164	-200.000	-0.021	0.243
-535.150	448.705	-0.153	0.341
-534.135	510.735	0.364	-0.853
-533.121	-175.762	0.547	-0.015
-532.106	327.346	0.069	-0.134
-531.091	139.766	-0.185	0.246
-530.077	-200.000	-0.083	-0.476
-529.062	-36.188	0.586	-0.318
-528.048	800.000	-0.082	0.345
-527.033	-32.608	-0.143	0.080
-526.018	2.377	0.314	-0.229
-525.004	195.730	-0.466	-0.714
-523.989	580.301	-0.232	-0.571
-522.975	-71.342	1.323	-0.499
-521.960	149.799	-0.390	-0.532
-520.945	800.000	-0.106	-0.320
-519.931	199.783	-0.247	-0.382
-518.916	12.748	0.085	-0.066
-517.902	800.000	-0.245	0.703
-516.887	179.736	-0.324	0.477
-515.872	-200.000	0.006	0.614
-514.858	-117.660	0.192	0.035
-513.843	-127.902	0.441	-0.064
-512.829	-200.000	0.068	0.656
-511.814	-200.000	-0.063	-0.377
-510.799	661.783	-0.077	0.200
-509.785	48.640	0.377	-0.355
-508.770	321.931	-0.027	-0.052
-507.756	-84.518	-0.321	-0.102
-506.741	329.912	0.183	-0.354
-505.726	800.000	0.098	0.278
-504.712	25.044	-0.345	-0.288
-503.697	800.000	0.117	-0.450
-502.683	-167.048	-1.118	-0.046
-501.668	-200.000	0.056	-0.459
-500.653	-200.000	0.062	1.020
-499.639	-109.745	0.518	0.110
-498.624	166.615	0.408	0.582
-497.610	82.138	-0.404	-0.440
-496.595	309.873	-0.212	0.399
-495.581	-92.366	-0.724	0.205
-494.566	168.880	-0.191	-0.274
-493.551	14.349	-0.342	0.269
-492.537	-167.847	-0.433	-0.017
-491.522	800.000	0.071	-0.273
-490.508	88.599	0.380	0.425
-489.493	77.953	-0.501	0.537
-488.478	800.000	-0.086	0.255
-487.464	-166.473	-0.664	0.028
-486.449	53.298	0.026	-0.025
-485.435	-200.000	0.035	0.609
-484.420	-200.000	0.100	-0.658
-483.405	-31.537	-0.463	0.262
-482.391	-200.000	0.133	0.828
-481.376	36.223	-0.297	0.263
-480.362	178.266	0.295	0.433
-479.347	69.564	0.065	-0.067
-478.332	-200.000	-0.045	-0.343
-477.318	-200.000	-0.004	-0.249
-476.303	42.742	-0.593	-0.543
-475.289	-182.075	0.545	-0.010
-474.274	31.827	-0.044	-0.038
-473.259	-152.431	0.567	-0.041
-472.245	-200.000	0.007	0.180
-471.230	-9.701	0.477	-0.319
-470.216	-98.807	-0.424	0.108
-469.201	64.593	-0.558	0.566
-468.186	48.228	0.501	0.471
-467.172	86.901	0.488	0.541
-466.157	267.779	-0.274	0.482
-465.143	800.000	0.137	-0.414
-464.128	-103.826	-0.267	0.063
-463.113	-127.656	0.976	-0.142
-462.099	800.000	-0.181	0.642
-461.084	-200.000	0.056	-0.312
-460.070	-148.445	0.505	-0.042
-459.055	-200.000	0.083	0.421
-458.040	-56.072	-0.462	-0.207
-457.026	-200.000	-0.013	-0.625
-456.011	-11.060	0.851	-0.564
-454.997	-54.474	-0.814	-0.370
-453.982	51.214	0.338	0.322
-452.968	-51.427	0.164	-0.077
-451.953	-41.817	-0.253	0.130
-450.938	-31.269	-0.147	0.083
-449.924	-15.437	-0.125	-0.080
-448.909	630.423	0.154	-0.392
-447.895	-200.000	0.003	-0.843
-446.880	-76.460	0.376	-0.133
-445.865	800.000	-0.039	-0.112
-444.851	-63.997	0.710	0.291
-443.836	-79.909	0.660	-0.223
-442.822	296.879	-0.382	0.704
-441.807	470.429	-0.105	0.236
-440.792	-200.000	-0.023	0.646
-439.778	25.640	0.148	-0.123
-438.763	166.938	-0.296	0.422
-437.749	748.561	0.411	-1.113
-436.734	-38.080	-0.487	-0.259
-435.719	-134.590	-0.714	0.087
-434.705	-91.514	-0.364	-0.104
-433.690	-103.577	0.195	-0.046
-432.676	800.000	-0.053	0.162
-431.661	1.404	-0.225	-0.163
-430.646	224.755	-0.249	-0.404
-429.632	-200.000	-0.014	0.150
-428.617	705.620	-0.129	0.342
-427.603	800.000	0.191	-0.688
-426.588	-97.327	-0.790	-0.206
-425.573	-85.859	-0.494	0.154
-424.559	150.582	0.498	-0.679
-423.544	800.000	0.077	-0.298
-422.530	800.000	-0.144	0.479
-421.515	86.343	-0.405	0.447
-420.500	800.000	0.029	0.111
-419.486	386.910	-0.232	-0.481
-418.471	111.502	-0.697	-0.843
-417.457	800.000	0.090	-0.271
-416.442	800.000	-0.089	-0.374
-415.428	190.523	-0.086	-0.130
-414.413	-200.000	-0.012	-0.290
-413.398	44.187	-0.350	-0.322
-412.384	-200.000	0.032	-0.367
-411.369	-40.847	0.172	-0.089
-410.355	-172.456	0.223	-0.007
-409.340	-82.139	0.753	0.246
-408.325	-38.421	0.677	0.359
-407.311	-200.000	-0.082	0.422
-406.296	800.000	0.134	0.517
-405.282	-104.984	-0.497	0.114
-404.267	-69.694	0.452	0.173
-403.252	-96.578	-0.767	0.203
-402.238	-54.702	0.532	-0.241
-401.223	-76.728	-0.633	-0.222
-400.209	-9.658	-0.093	0.062
-399.194	-200.000	0.076	0.357
-398.179	800.000	-0.107	0.358
-397.165	450.316	-0.062	-0.137
-396.150	224.293	-0.008	0.013
-395.136	-84.629	-0.327	-0.103
-394.121	-200.000	0.020	-0.762
-393.106	-131.075	0.737	-0.098
-392.092	-40.220	0.315	0.164
-391.077	800.000	-0.312	-0.935
-390.063	35.258	0.363	-0.319
-389.048	-200.000	-0.023	-0.105
-388.033	800.000	-0.144	-0.506
-387.019	-48.049	0.447	0.217
-386.004	234.747	-0.383	0.633
-384.990	-200.000	0.015	-0.390
-383.975	800.000	0.051	0.193
-382.960	800.000	0.132	-0.565
-381.946	800.000	0.155	0.448
-380.931	-200.000	-0.112	0.752
-379.917	-63.102	0.518	-0.214
-378.902	80.762	0.469	-0.506
-377.888	-200.000	-0.150	-0.728
-376.873	61.426	-0.118	-0.117
-375.858	597.823	0.029	0.072
-374.844	-168.247	0.959	0.037
-373.829	125.571	0.270	0.341
-372.815	-10.168	0.296	0.197
-371.800	-200.000	-0.122	-0.613
-370.785	-88.418	-0.242	0.072
-369.771	12.666	0.743	-0.574
-368.756	14.092	-0.503	-0.392
-367.742	320.100	0.121	0.230
-366.727	-24.783	-0.835	0.497
-365.712	-11.701	0.873	0.574
-364.698	-164.720	-0.421	-0.019
-363.683	-31.213	-0.256	-0.144
-362.669	-136.468	-0.681	-0.079
-361.654	53.408	-0.422	0.405
-360.639	161.637	0.393	-0.550
-359.625	18.496	-0.754	-0.603
-358.610	-200.000	-0.145	0.939
-357.596	85.680	0.750	-0.825
-356.581	-12.320	-0.173	-0.113
-355.566	256.490	0.117	-0.202
-354.552	-20.291	0.313	-0.193
-353.537	-25.664	-0.673	0.397
-352.523	-57.453	0.801	-0.352
-351.508	-200.000	-0.107	0.486
-350.493	86.184	0.487	0.536
-349.479	-200.000	0.097	0.600
-348.464	-155.669	-0.454	0.029
-347.450	-200.000	-0.008	0.458
-346.435	314.969	-0.598	-1.127
-345.420	207.016	-0.633	0.986
-344.406	-12.523	0.582	-0.380
-343.391	800.000	-0.282	-0.921
-342.377	108.307	-0.341	0.407
-341.362	-200.000	-0.008	0.255
-340.348	800.000	-0.216	-0.671
-339.333	-55.129	0.410	-0.185
-338.318	-42.260	-0.458	0.234
-337.304	-61.053	-0.647	0.273
-336.289	-82.007	0.469	0.153
-335.275	-126.710	0.977	-0.144
-334.260	-2.815	0.675	0.471
-333.245	398.850	0.426	0.892
-332.231	-200.000	0.039	0.319
-331.216	71.078	0.361	0.374
-330.202	-70.522	-0.861	0.326
-329.187	-155.172	-0.591	0.039
-328.172	30.258	0.078	-0.066
-327.158	-67.558	-0.249	0.098
-326.143	32.261	-0.042	-0.037
-325.129	160.081	-0.353	0.492
-324.114	-67.755	-0.601	-0.235
-323.099	708.859	0.325	0.857
-322.085	800.000	0.108	0.420
-321.070	-107.804	0.719	0.157
-320.056	-68.789	0.135	-0.052
-319.041	800.000	-0.096	-0.301
-318.026	-200.000	0.053	-0.430
-317.012	-108.917	0.786	0.168
-315.997	800.000	0.105	-0.408
-314.983	417.477	-0.309	0.659
-313.968	141.352	0.351	-0.464
-312.953	18.243	0.231	0.184
-311.939	665.099	0.201	0.519
-310.924	-117.575	0.436	-0.079
-309.910	-200.000	-0.041	-0.758
-308.895	-104.124	-0.263	-0.061
-307.880	-200.000	0.061	0.271
-306.866	-41.083	0.418	0.215
-305.851	349.345	0.286	-0.564
-304.837	529.974	-0.091	-0.215
-303.822	-31.198	0.476	-0.268
-302.807	800.000	0.104	0.357
-301.793	-67.902	0.550	-0.215
-300.778	94.207	0.605	-0.686
-299.764	126.759	0.351	0.444
-298.749	343.792	-0.175	0.342
-297.735	4.467	-0.141	-0.103
-296.720	63.436	-0.166	0.167
-295.705	-200.000	0.088	0.525
-294.691	-200.000	0.122	-0.580
-293.676	-200.000	0.031	0.308
-292.662	-36.832	-0.436	0.233
-291.647	-125.841	0.807	-0.122
-290.632	-200.000	0.073	-0.787
-289.618	115.939	-0.118	-0.144
-288.603	68.074	0.258	-0.264
-287.589	-200.000	0.016	0.075
-286.574	-12.751	0.192	0.125
-285.559	-126.715	-0.500	0.074
-284.545	-52.027	0.396	0.184
-283.530	-131.294	-0.304	-0.040
-282.516	-66.722	0.385	-0.152
-281.501	-200.000	-0.068	-0.368
-280.486	-188.622	-0.611	0.008
-279.472	-97.588	0.418	-0.108
-278.457	-200.000	-0.072	0.392
-277.443	269.925	-0.353	0.618
-276.428	-30.681	0.787	0.444
-275.413	248.502	0.074	-0.125
-274.399	-107.585	0.210	-0.046
-273.384	-103.229	-0.336	-0.079
-272.370	800.000	-0.209	0.712
-271.355	-61.019	0.394	0.166
-270.340	136.350	-0.102	-0.133
-269.326	-200.000	-0.092	0.402
-268.311	191.415	0.257	0.386
-267.297	-65.408	-0.526	-0.211
-266.282	-200.000	-0.045	-0.310
-265.267	165.400	-0.369	-0.520
-264.253	-91.210	-0.808	-0.231
-263.238	705.715	-0.107	0.281
-262.224	-200.000	0.034	-0.833
-261.209	-87.886	0.734	0.220
-260.195	222.001	-0.276	0.443
-259.180	18.531	0.051	-0.041
-258.165	58.963	0.430	0.421
-257.151	-200.000	0.016	0.084
-256.136	-200.000	-0.028	-0.550
-255.122	406.165	-0.278	-0.585
-254.107	-58.440	0.364	-0.158
-253.092	17.942	-0.237	0.188
-252.078	800.000	0.139	-0.392
-251.063	-66.106	-0.156	0.062
-250.049	-200.000	-0.028	0.265
-249.034	-106.452	0.500	-0.111
-248.019	-118.980	-0.052	-0.009
-247.005	-137.061	0.704	-0.080
-245.990	138.193	0.189	-0.247
-244.976	-200.000	-0.023	-0.396
-243.961	-200.000	0.036	0.295
-242.946	800.000	-0.097	0.367
-241.932	-30.388	0.410	-0.232
-240.917	138.355	0.652	-0.851
-239.903	-200.000	-0.035	0.602
-238.888	-90.119	0.404	-0.117
-237.873	33.025	0.444	-0.383
-236.859	695.539	-0.126	0.331
-235.844	-99.454	-0.670	0.168
-234.830	-200.000	-0.025	-0.380
-233.815	55.858	-0.787	-0.760
-232.800	346.700	0.355	-0.696
-231.786	54.202	-0.507	-0.485
-230.771	-133.496	0.281	-0.035
-229.757	16.056	-0.335	-0.263
-228.742	-22.446	0.682	-0.411
-227.727	-169.846	-0.744	-0.027
-226.713	-76.424	-0.571	0.200
-225.698	-151.841	1.194	-0.087
-224.684	6.630	-0.541	-0.401
-223.669	-200.000	0.057	0.311
-222.655	-123.290	0.673	-0.107
-221.640	507.062	0.079	0.182
-220.625	626.694	-0.214	0.537
-219.611	800.000	0.243	-0.882
-218.596	-185.062	-0.267	0.004
-217.582	780.343	-0.235	0.640
-216.567	432.010	0.093	0.200
-215.552	1.778	-0.550	-0.395
-214.538	-63.205	-0.849	-0.348
-213.523	611.985	-0.350	-0.871
-212.509	-0.008	-0.357	0.253
-211.494	-32.026	0.249	-0.139
-210.479	216.322	0.254	0.401
-209.465	-171.494	0.624	0.021
-208.450	5.308	-0.471	-0.346
-207.436	-81.811	-0.179	0.058
-206.421	239.295	0.131	-0.217
-205.406	800.000	0.154	0.460
-204.392	-68.176	0.223	0.086
-203.377	99.432	-0.228	0.262
-202.363	87.451	-0.283	-0.311
-201.348	-21.258	0.628	0.382
-200.333	172.751	-0.206	0.296
-199.319	800.000	0.157	-0.525
-198.304	-70.393	0.436	0.164
-197.290	-59.929	0.583	0.248
-196.275	88.339	0.209	-0.231
-195.260	-126.094	-0.558	-0.083
-194.246	-200.000	0.007	-0.290
-193.231	-46.299	0.095	-0.046
-192.217	-148.362	-1.029	0.084
-191.202	800.000	-0.083	-0.298
-190.187	-106.034	0.130	0.029
-189.173	-127.138	-0.340	-0.049
-188.158	-53.521	-0.319	0.145
-187.144	-81.440	0.263	-0.086
-186.129	246.945	0.257	0.431
-185.114	-200.000	-0.030	0.334
-184.100	168.042	0.450	0.637
-183.085	-200.000	-0.070	-0.812
-182.071	-200.000	0.051	0.803
-181.056	-76.834	0.764	0.266
-180.042	-200.000	0.033	0.801
-179.027	800.000	0.074	-0.211
-178.012	800.000	0.201	0.620
-176.998	-78.630	0.168	0.057
-175.983	800.000	-0.103	0.356
-174.969	-200.000	0.001	0.261
-173.954	-41.069	-0.845	0.433
-172.939	-200.000	-0.013	-0.319
-171.925	-24.685	-0.648	0.383
-170.910	89.476	-0.260	-0.288
-169.896	-200.000	0.172	-1.100
-168.881	-8.361	-0.245	-0.164
-167.866	158.459	0.530	-0.730
-166.852	287.338	-0.110	0.197
-165.837	800.000	-0.223	-0.956
-164.823	-200.000	-0.095	-0.878
-163.808	-100.039	1.031	-0.255
-162.793	-122.169	0.284	0.046
-161.779	800.000	-0.054	-0.204
-160.764	178.516	-0.498	0.723
-159.750	383.774	-0.079	-0.162
-158.735	39.325	0.217	-0.193
-157.720	800.000	0.102	0.434
-156.706	800.000	0.129	0.508
-155.691	800.000	0.313	0.890
-154.677	800.000	0.088	0.256
-153.662	-134.012	0.464	0.057
-152.647	13.592	-0.662	0.510
-151.633	-200.000	-0.031	0.362
-150.618	-200.000	-0.102	0.769
-149.604	-142.047	-0.805	0.080
-148.589	-138.325	-0.573	-0.063
-147.574	-105.409	0.651	0.147
-146.560	-27.683	0.524	0.302
-145.545	800.000	-0.173	0.602
-144.531	-115.195	-0.595	0.112
-143.516	-79.092	-0.365	-0.123
-142.502	-200.000	0.013	-0.328
-141.487	-88.490	1.423	0.421
-140.472	-4.394	0.534	-0.366
-139.458	366.129	0.366	0.732
-138.443	315.122	0.205	-0.383
-137.429	-93.974	-0.542	0.148
-136.414	184.097	0.281	-0.413
-135.399	56.512	-0.658	-0.634
-134.385	-40.833	-0.854	-0.439
-133.370	-170.729	-0.757	-0.026
-132.356	-130.114	-0.355	0.048
-131.341	26.082	0.467	0.386
-130.326	-32.394	-1.042	-0.577
-129.312	432.443	0.346	0.744
-128.297	164.364	-0.216	0.302
-127.283	-17.724	0.307	-0.191
-126.268	-200.000	-0.027	-0.560
-125.253	192.338	0.216	-0.323
-124.239	-116.441	0.711	-0.130
-123.224	13.407	-0.227	0.175
-122.210	-42.313	-0.341	-0.173
