DTS Sentinel unit serial number:	SN413079Multiplexer serial number:	ORYXHardware model number:	OX4-SRSoftware version number:	ORYX F/W v4.00 Oryx Data Collector v3.7.2.0data status	okinstallation	princeton_trtdifferential loss correction	single-endedforward channel	channel 4reverse channel	N/Adate	2019/09/18time	21:13:35forward acquisition time	60.00reverse acquisition time	0.00gamma	496.2192k internal	0.2329k external	0.2329temperature offset calibration	1.0033default loss term (dB/km)	0.3790temperature slope calibration	1.0000multiplexer offset coefficient	1.0000multiplexer slope coefficient	1.0000fibre end	0.00T internal ref (°C)	25.91T ext. ref 1 (°C)	0.84T ext. ref 2 (°C)	18.14length (m)	temperature (°C)	Stokes	anti-Stokes-747.200	-86.302	-0.311	-0.096
-746.185	-75.435	0.075	0.027
-745.171	-83.417	0.144	0.046
-744.156	76.909	0.120	-0.128
-743.142	71.975	0.159	-0.167
-742.127	88.748	-0.096	-0.108
-741.112	-93.117	-0.111	-0.031
-740.098	800.000	0.094	0.335
-739.083	-129.542	-0.405	-0.056
-738.069	-72.881	0.317	-0.117
-737.054	-200.000	-0.032	0.456
-736.039	1.592	-0.262	-0.190
-735.025	264.129	0.124	-0.218
-734.010	78.752	-0.150	-0.161
-732.996	-69.774	-0.172	-0.066
-731.981	1.601	0.236	0.171
-730.966	333.458	-0.134	-0.262
-729.952	94.306	0.211	-0.241
-728.937	800.000	-0.021	0.066
-727.923	-48.742	-0.197	-0.095
-726.908	-120.181	-0.151	-0.026
-725.894	-5.390	0.224	-0.154
-724.879	16.428	-0.358	-0.284
-723.864	-91.404	0.256	0.074
-722.850	46.078	-0.102	-0.095
-721.835	68.747	-0.140	0.145
-720.821	-152.366	0.312	0.023
-719.806	363.313	0.042	-0.084
-718.791	800.000	-0.093	0.264
-717.777	-37.710	-0.487	-0.261
-716.762	489.886	0.126	0.289
-715.748	-109.172	0.041	0.009
-714.733	-97.081	0.190	-0.050
-713.718	630.782	-0.086	-0.218
-712.704	800.000	-0.011	-0.038
-711.689	-67.838	-0.075	0.029
-710.675	490.648	0.054	-0.125
-709.660	334.222	0.103	-0.201
-708.645	66.663	0.191	0.196
-707.631	-129.132	0.138	-0.019
-706.616	96.837	-0.230	-0.265
-705.602	175.674	-0.117	0.170
-704.587	-42.229	0.247	-0.127
-703.572	-3.348	-0.234	-0.164
-702.558	-200.000	0.063	-0.310
-701.543	800.000	0.097	-0.288
-700.529	-133.557	-0.318	-0.040
-699.514	53.530	-0.272	0.262
-698.499	-200.000	0.030	-0.388
-697.485	-162.840	0.051	-0.002
-696.470	-200.000	0.066	0.322
-695.456	-62.098	-0.177	0.074
-694.441	-200.000	0.007	-0.291
-693.426	-124.212	-0.137	-0.021
-692.412	-49.837	0.160	-0.077
-691.397	87.119	-0.189	0.210
-690.383	93.050	-0.197	-0.224
-689.368	-200.000	-0.022	-0.236
-688.354	-158.142	0.202	0.012
-687.339	34.225	-0.050	0.044
-686.324	217.805	-0.102	0.163
-685.310	-54.525	-0.182	-0.083
-684.295	120.060	0.125	-0.156
-683.281	-200.000	-0.016	-0.237
-682.266	157.446	-0.164	0.228
-681.251	77.159	0.187	0.200
-680.237	-53.340	-0.179	-0.082
-679.222	800.000	0.082	0.251
-678.208	88.867	0.058	-0.065
-677.193	-74.429	0.257	0.093
-676.178	-158.239	0.146	-0.009
-675.164	-10.312	-0.109	-0.073
-674.149	-48.664	-0.515	0.249
-673.135	431.104	-0.083	-0.180
-672.120	-44.504	0.320	-0.161
-671.105	800.000	-0.054	0.175
-670.091	314.027	-0.156	-0.294
-669.076	638.259	-0.131	-0.334
-668.062	284.026	-0.125	-0.226
-667.047	-200.000	-0.033	-0.186
-666.032	383.347	0.165	0.341
-665.018	-55.631	0.177	0.079
-664.003	660.099	-0.046	0.119
-662.989	422.222	0.054	-0.116
-661.974	-89.060	-0.315	-0.093
-660.959	-200.000	-0.010	-0.201
-659.945	-152.627	0.212	0.015
-658.930	-131.335	-0.005	-0.001
-657.916	92.834	-0.090	-0.102
-656.901	205.728	0.025	-0.038
-655.886	-143.710	-0.202	-0.019
-654.872	-56.302	0.195	0.087
-653.857	-88.810	0.409	0.122
-652.843	103.426	-0.063	0.074
-651.828	-28.772	-0.072	0.042
-650.814	800.000	-0.032	-0.139
-649.799	15.988	-0.162	0.128
-648.784	-200.000	-0.009	0.065
-647.770	30.541	0.289	-0.248
-646.755	-83.473	0.092	-0.030
-645.741	273.177	-0.082	0.146
-644.726	17.112	0.185	0.147
-643.711	-128.213	-0.380	0.054
-642.697	506.253	-0.078	0.182
-641.682	-155.032	0.392	-0.026
-640.668	-200.000	-0.059	-0.326
-639.653	800.000	0.066	-0.257
-638.638	-14.237	-0.101	-0.065
-637.624	-40.384	-0.167	-0.087
-636.609	317.204	0.117	0.221
-635.595	800.000	0.050	-0.195
-634.580	-200.000	-0.032	0.309
-633.565	-200.000	0.085	-0.602
-632.551	51.046	-0.119	-0.113
-631.536	-102.445	-0.096	-0.023
-630.522	593.187	-0.094	-0.232
-629.507	-200.000	-0.015	-0.077
-628.492	-154.168	-0.242	-0.016
-627.478	-49.900	-0.188	-0.089
-626.463	-9.066	0.079	0.053
-625.449	-200.000	-0.065	-0.430
-624.434	-200.000	0.044	0.294
-623.419	201.185	-0.114	0.175
-622.405	-17.999	-0.117	-0.073
-621.390	326.662	0.024	-0.047
-620.376	561.150	0.138	0.336
-619.361	-55.075	-0.110	0.049
-618.346	-18.561	0.276	-0.172
-617.332	-0.893	-0.036	0.026
-616.317	-134.377	-0.131	-0.016
-615.303	552.494	-0.039	-0.093
-614.288	171.921	-0.178	0.256
-613.273	-64.643	0.077	0.031
-612.259	104.602	0.055	0.064
-611.244	-200.000	-0.028	0.134
-610.230	80.249	-0.267	-0.288
-609.215	-141.057	-0.131	-0.013
-608.201	216.868	0.256	0.408
-607.186	35.729	-0.051	0.045
-606.171	-101.715	-0.337	-0.082
-605.157	-126.383	0.529	0.079
-604.142	-14.590	-0.191	0.123
-603.128	7.488	-0.166	-0.124
-602.113	129.434	0.142	-0.182
-601.098	-200.000	0.076	-0.668
-600.084	362.868	0.054	-0.109
-599.069	-109.645	-0.154	0.032
-598.055	-91.576	0.138	0.040
-597.040	800.000	-0.066	0.208
-596.025	-200.000	0.058	0.505
-595.011	640.772	-0.049	0.125
-593.996	-129.186	0.138	0.019
-592.982	287.373	0.056	-0.101
-591.967	-46.806	0.098	0.048
-590.952	-200.000	-0.023	-0.394
-589.938	-200.000	-0.013	-0.270
-588.923	8.289	-0.084	-0.063
-587.909	-110.824	0.100	-0.021
-586.894	-200.000	-0.027	-0.202
-585.879	-200.000	0.019	0.190
-584.865	82.996	0.144	0.156
-583.850	-28.237	0.098	-0.056
-582.836	-200.000	-0.009	0.090
-581.821	61.658	-0.151	0.151
-580.806	-109.603	-0.475	-0.100
-579.792	800.000	0.046	-0.178
-578.777	-200.000	0.002	-0.035
-577.763	-106.438	-0.078	-0.017
-576.748	-20.606	0.147	0.090
-575.733	-5.368	-0.116	0.080
-574.719	800.000	-0.031	0.126
-573.704	40.077	-0.211	-0.190
-572.690	-106.972	0.186	-0.041
-571.675	-82.373	0.277	-0.090
-570.661	-7.652	0.230	-0.155
-569.646	-40.309	-0.247	-0.129
-568.631	800.000	-0.064	0.183
-567.617	15.167	-0.044	-0.034
-566.602	424.384	-0.020	0.042
-565.588	33.576	0.094	0.082
-564.573	-200.000	0.016	-0.245
-563.558	62.885	0.173	-0.173
-562.544	-4.522	-0.287	0.199
-561.529	241.322	0.116	-0.194
-560.515	18.071	-0.161	-0.128
-559.500	-72.566	0.258	-0.095
-558.485	-200.000	0.008	0.125
-557.471	800.000	-0.029	-0.090
-556.456	-22.564	-0.176	-0.106
-555.442	-105.651	-0.147	0.033
-554.427	-114.894	0.379	0.072
-553.412	178.883	-0.127	0.185
-552.398	-159.548	-0.382	-0.021
-551.383	523.785	0.091	0.215
-550.369	279.983	0.049	0.087
-549.354	800.000	0.192	0.588
-548.339	-68.757	0.163	0.063
-547.325	-116.702	-0.089	0.016
-546.310	-200.000	-0.048	0.221
-545.296	708.243	0.166	0.439
-544.281	11.372	-0.131	0.100
-543.266	77.966	0.091	-0.096
-542.252	-200.000	0.024	0.201
-541.237	-200.000	-0.054	0.311
-540.223	-129.784	0.326	-0.045
-539.208	-200.000	-0.116	-0.000
-538.193	-48.727	0.226	0.109
-537.179	305.962	-0.076	-0.141
-536.164	-170.411	-0.186	-0.006
-535.150	422.469	-0.167	0.358
-534.135	52.124	0.113	-0.108
-533.121	-34.116	0.169	-0.093
-532.106	68.296	0.098	-0.100
-531.091	41.841	-0.204	0.185
-530.077	58.369	-0.191	0.188
-529.062	420.057	-0.221	-0.472
-528.048	-59.267	-0.195	-0.084
-527.033	49.010	-0.212	0.199
-526.018	-75.799	-0.166	-0.059
-525.004	92.031	0.326	-0.366
-523.989	511.591	-0.054	0.124
-522.975	137.245	0.172	-0.225
-521.960	800.000	0.109	0.401
-520.945	800.000	0.160	0.470
-519.931	98.010	0.093	0.106
-518.916	96.407	-0.126	-0.144
-517.902	-183.010	-0.231	-0.004
-516.887	-87.045	0.068	-0.021
-515.872	456.206	-0.067	-0.149
-514.858	575.117	0.124	-0.302
-513.843	-9.371	-0.147	0.098
-512.829	-200.000	0.019	0.257
-511.814	-132.549	-0.213	-0.027
-510.799	197.011	-0.172	0.262
-509.785	626.385	0.081	0.204
-508.770	-200.000	-0.034	-0.262
-507.756	-74.090	-0.078	0.028
-506.741	-70.686	0.302	-0.114
-505.726	-69.582	0.177	-0.068
-504.712	96.671	0.080	0.092
-503.697	312.759	-0.027	-0.050
-502.683	800.000	0.065	0.179
-501.668	93.307	0.325	-0.366
-500.653	-5.465	0.393	-0.269
-499.639	138.125	0.059	-0.078
-498.624	376.650	-0.052	0.106
-497.610	257.351	0.067	0.115
-496.595	262.519	0.220	0.380
-495.581	299.908	0.078	0.143
-494.566	137.609	0.150	-0.197
-493.551	-121.511	-0.075	0.012
-492.537	-81.428	-0.168	-0.055
-491.522	-76.729	0.335	0.117
-490.508	-15.241	-0.242	-0.154
-489.493	43.060	0.134	-0.122
-488.478	145.327	0.106	0.141
-487.464	-100.493	-0.243	0.060
-486.449	-200.000	-0.028	-0.206
-485.435	224.032	-0.226	-0.364
-484.420	-60.399	-0.265	0.113
-483.405	-10.434	-0.169	0.112
-482.391	-16.056	-0.107	-0.068
-481.376	79.900	-0.214	0.229
-480.362	800.000	-0.054	-0.166
-479.347	108.269	-0.336	0.400
-478.332	800.000	-0.111	0.453
-477.318	-78.189	-0.140	0.048
-476.303	-51.302	0.239	-0.112
-475.289	342.914	0.149	0.290
-474.274	82.751	0.031	0.034
-473.259	-123.291	0.133	0.021
-472.245	-97.857	0.310	-0.080
-471.230	49.620	-0.120	-0.113
-470.216	182.005	-0.167	0.246
-469.201	-97.652	0.302	-0.078
-468.186	351.582	0.060	-0.118
-467.172	66.419	-0.251	-0.254
-466.157	76.423	0.203	0.215
-465.143	394.969	-0.063	-0.130
-464.128	-156.020	0.384	0.024
-463.113	-160.209	-0.293	0.016
-462.099	-22.357	-0.108	-0.065
-461.084	-200.000	-0.010	0.103
-460.070	-66.280	0.197	-0.078
-459.055	-95.696	0.208	0.055
-458.040	196.930	0.011	0.017
-457.026	-200.000	-0.002	-0.049
-456.011	-2.506	-0.188	0.131
-454.997	-200.000	0.035	-0.289
-453.982	611.092	0.082	-0.203
-452.968	-26.813	-0.151	0.088
-451.953	-93.352	0.030	0.008
-450.938	800.000	0.071	-0.210
-449.924	291.437	0.174	-0.315
-448.909	-154.597	0.668	-0.044
-447.895	41.147	0.192	-0.173
-446.880	792.161	0.126	0.344
-445.865	-200.000	0.011	-0.119
-444.851	-200.000	0.002	-0.514
-443.836	229.510	0.132	0.215
-442.822	-124.631	0.102	0.016
-441.807	-76.700	-0.113	-0.039
-440.792	-86.103	-0.094	-0.029
-439.778	-141.367	-0.133	0.013
-438.763	674.785	0.063	-0.162
-437.749	-77.629	-0.071	-0.025
-436.734	-119.532	0.151	0.026
-435.719	60.749	-0.113	-0.112
-434.705	46.132	-0.122	0.112
-433.690	800.000	-0.029	0.124
-432.676	-80.741	0.309	0.102
-431.661	498.997	0.132	-0.302
-430.646	-21.230	-0.341	-0.207
-429.632	6.848	0.165	0.122
-428.617	-106.372	-0.103	-0.023
-427.603	82.545	0.181	-0.196
-426.588	-57.720	-0.212	-0.092
-425.573	16.044	0.164	0.129
-424.559	9.376	-0.254	0.191
-423.544	800.000	-0.095	0.361
-422.530	172.759	0.190	0.272
-421.515	-53.654	-0.263	-0.119
-420.500	-54.827	-0.119	0.053
-419.486	55.617	0.083	0.080
-418.471	-57.215	-0.147	-0.064
-417.457	-200.000	0.050	0.232
-416.442	-200.000	0.024	0.207
-415.428	316.749	-0.070	0.131
-414.413	-200.000	0.014	-0.075
-413.398	351.682	-0.163	0.320
-412.384	9.531	0.149	-0.112
-411.369	121.287	-0.127	0.157
-410.355	-95.244	0.353	0.094
-409.340	91.102	-0.202	-0.225
-408.325	-47.063	0.323	0.157
-407.311	-102.285	0.316	-0.075
-406.296	277.030	-0.133	-0.235
-405.282	94.912	-0.232	0.263
-404.267	-2.561	0.134	0.093
-403.252	119.521	0.179	0.220
-402.238	199.794	0.176	-0.268
-401.223	107.327	0.136	-0.161
-400.209	393.462	0.037	-0.076
-399.194	-200.000	0.003	-0.082
-398.179	32.244	-0.115	-0.099
-397.165	-160.029	-0.052	-0.003
-396.150	-34.856	-0.190	-0.103
-395.136	-73.343	-0.255	-0.093
-394.121	57.826	0.128	0.124
-393.106	-34.712	0.139	-0.075
-392.092	-10.720	-0.092	-0.061
-391.077	36.468	0.178	-0.156
-390.063	-114.539	0.283	0.054
-389.048	155.284	0.074	0.101
-388.033	800.000	0.061	0.235
-387.019	29.463	-0.178	-0.150
-386.004	-43.213	0.371	0.187
-384.990	-109.582	-0.131	0.027
-383.975	-23.883	-0.133	-0.079
-382.960	-30.088	-0.192	-0.108
-381.946	-200.000	-0.023	-0.157
-380.931	613.076	-0.082	-0.203
-379.917	171.103	0.143	-0.204
-378.902	-2.261	0.087	-0.061
-377.888	-113.342	0.231	0.045
-376.873	110.393	-0.151	0.180
-375.858	-63.492	-0.230	-0.094
-374.844	110.469	0.152	-0.182
-373.829	443.937	-0.081	-0.176
-372.815	-7.433	-0.104	0.070
-371.800	800.000	-0.065	0.278
-370.785	59.686	0.180	-0.176
-369.771	800.000	0.038	0.151
-368.756	159.999	0.192	0.266
-367.742	77.861	0.371	-0.392
-366.727	-172.213	-0.232	-0.007
-365.712	-186.446	-0.128	0.002
-364.698	-162.496	-0.397	0.019
-363.683	-55.878	-0.169	-0.075
-362.669	42.359	-0.270	-0.244
-361.654	800.000	-0.034	-0.098
-360.639	8.007	-0.172	0.128
-359.625	28.836	-0.039	-0.033
-358.610	-77.375	-0.167	-0.058
-357.596	-97.322	-0.329	0.085
-356.581	-107.997	0.270	-0.058
-355.566	51.917	-0.101	-0.096
-354.552	-191.391	0.189	-0.002
-353.537	-22.688	0.262	0.157
-352.523	329.162	-0.109	-0.208
-351.508	-57.700	0.077	-0.033
-350.493	-47.503	-0.167	-0.080
-349.479	102.838	0.258	0.299
-348.464	-26.740	-0.185	0.107
-347.450	-200.000	-0.074	-0.391
-346.435	-130.461	0.040	-0.005
-345.420	-25.270	-0.073	0.043
-344.406	325.251	0.088	0.166
-343.391	-173.711	0.064	-0.002
-342.377	50.791	0.286	0.269
-341.362	-145.456	0.198	-0.018
-340.348	44.293	-0.209	0.190
-339.333	-81.176	-0.012	-0.004
-338.318	570.658	0.050	-0.120
-337.304	-84.539	-0.155	-0.048
-336.289	266.412	0.120	0.208
-335.275	-62.712	0.247	0.102
-334.260	152.356	-0.045	-0.061
-333.245	24.817	-0.051	-0.042
-332.231	-132.953	-0.707	0.089
-331.216	-161.404	0.025	-0.001
-330.202	-3.222	-0.388	-0.268
-329.187	-87.758	-0.231	0.069
-328.172	67.261	0.111	-0.112
-327.158	41.138	-0.162	0.145
-326.143	-140.372	0.287	0.030
-325.129	-126.587	0.132	0.019
-324.114	614.817	0.127	0.317
-323.099	-43.639	0.154	0.077
-322.085	88.796	-0.248	0.273
-321.070	97.150	-0.239	-0.272
-320.056	-200.000	0.007	0.145
-319.041	469.285	-0.097	-0.215
-318.026	800.000	0.050	-0.175
-317.012	48.179	0.100	-0.093
-315.997	-86.798	-0.206	-0.062
-314.983	66.583	0.048	-0.048
-313.968	85.621	0.115	0.125
-312.953	-34.219	-0.218	0.119
-311.939	76.123	-0.229	0.240
-310.924	800.000	0.044	0.158
-309.910	-42.456	0.163	-0.082
-308.895	191.180	-0.138	-0.205
-307.880	117.817	0.052	-0.064
-306.866	-46.644	0.264	0.128
-305.851	800.000	0.053	-0.221
-304.837	153.701	0.072	-0.097
-303.822	-83.913	0.270	-0.085
-302.807	-42.912	-0.309	-0.156
-301.793	-200.000	0.038	-0.172
-300.778	-77.489	-0.109	0.038
-299.764	-16.626	0.141	0.089
-298.749	43.868	0.085	-0.077
-297.735	92.571	0.172	0.192
-296.720	-86.186	-0.168	0.051
-295.705	-107.449	-0.507	-0.110
-294.691	-161.251	-0.197	0.010
-293.676	25.926	-0.147	-0.121
-292.662	176.074	-0.061	-0.088
-291.647	-96.314	0.095	0.025
-290.632	-101.281	0.295	-0.071
-289.618	-107.295	0.257	0.056
-288.603	-21.429	-0.180	-0.109
-287.589	335.649	-0.163	0.312
-286.574	38.197	-0.142	0.125
-285.559	-200.000	0.033	0.228
-284.545	28.413	0.167	-0.140
-283.530	-200.000	-0.007	0.034
-282.516	762.646	0.071	0.192
-281.501	800.000	-0.088	-0.268
-280.486	27.783	0.217	0.181
-279.472	345.505	0.182	-0.354
-278.457	-59.231	-0.138	-0.059
-277.443	-110.672	0.333	0.068
-276.428	-88.791	0.179	0.053
-275.413	295.796	0.187	-0.339
-274.399	280.739	-0.209	0.370
-273.384	373.448	0.068	-0.136
-272.370	-200.000	-0.021	0.125
-271.355	30.169	-0.219	-0.185
-270.340	-96.368	-0.290	0.076
-269.326	619.403	-0.082	0.205
-268.311	26.403	0.092	0.076
-267.297	-29.033	0.150	0.085
-266.282	347.180	-0.007	-0.013
-265.267	240.464	0.047	0.078
-264.253	-200.000	-0.042	0.364
-263.238	-200.000	-0.007	0.101
-262.224	-30.006	-0.155	0.087
-261.209	-118.617	-0.097	0.017
-260.195	38.233	0.161	0.142
-259.180	315.273	-0.091	-0.169
-258.165	-109.466	0.449	-0.094
-257.151	-25.262	-0.182	0.106
-256.136	-181.846	-0.167	0.003
-255.122	-84.719	-0.103	-0.032
-254.107	473.454	-0.102	-0.226
-253.092	-200.000	0.021	-0.343
-252.078	-200.000	0.065	-0.405
-251.063	54.701	0.025	-0.024
-250.049	-191.615	0.328	-0.003
-249.034	244.251	-0.160	-0.266
-248.019	21.728	-0.184	-0.148
-247.005	-1.034	0.145	0.101
-245.990	48.882	0.247	-0.229
-244.976	-114.224	-0.258	0.049
-243.961	-102.980	0.311	-0.073
-242.946	90.916	-0.110	-0.122
-241.932	162.231	-0.066	0.091
-240.917	800.000	-0.028	0.091
-239.903	27.305	0.059	-0.049
-238.888	743.039	-0.019	0.052
-237.873	43.233	-0.048	-0.043
-236.859	-53.154	-0.180	0.082
-235.844	33.947	0.194	0.167
-234.830	183.177	-0.090	-0.132
-233.815	65.210	-0.100	0.100
-232.800	169.336	0.019	0.027
-231.786	-39.104	-0.240	-0.125
-230.771	-200.000	-0.018	-0.347
-229.757	-200.000	0.029	0.168
-228.742	-200.000	-0.000	-0.413
-227.727	-112.386	-0.198	-0.039
-226.713	264.135	-0.075	0.129
-225.698	-200.000	0.074	0.323
-224.684	-200.000	0.013	0.204
-223.669	-171.720	0.200	-0.006
-222.655	800.000	0.058	0.226
-221.640	800.000	-0.089	0.354
-220.625	170.785	0.022	-0.030
-219.611	293.573	-0.103	0.185
-218.596	-34.188	0.152	-0.082
-217.582	162.423	-0.023	0.032
-216.567	320.023	-0.078	-0.145
-215.552	-113.511	-0.448	-0.087
-214.538	789.428	-0.112	-0.303
-213.523	-190.639	0.074	0.001
-212.509	-200.000	0.031	-0.141
-211.494	-181.315	0.181	-0.004
-210.479	238.434	0.189	-0.309
-209.465	41.029	-0.220	-0.196
-208.450	-97.351	0.099	-0.025
-207.436	630.857	-0.116	0.288
-206.421	82.350	0.248	-0.265
-205.406	-22.563	0.209	0.124
-204.392	-71.830	-0.243	-0.089
-203.377	260.768	-0.020	0.034
-202.363	800.000	-0.047	0.182
-201.348	-2.820	0.530	0.365
-200.333	-108.788	-0.404	-0.085
-199.319	-28.508	-0.063	-0.036
-198.304	-29.882	-0.099	-0.056
-197.290	-11.644	-0.376	0.243
-196.275	49.007	-0.051	-0.047
-195.260	-14.924	-0.136	-0.086
-194.246	73.481	-0.158	0.163
-193.231	-200.000	-0.072	0.363
-192.217	111.278	0.142	0.169
-191.202	-95.052	0.140	-0.037
-190.187	-8.718	0.192	0.127
-189.173	100.762	0.081	0.092
-188.158	800.000	-0.050	0.158
-187.144	46.280	0.121	-0.111
-186.129	800.000	-0.103	-0.295
-185.114	-200.000	0.013	0.163
-184.100	-116.461	-0.235	-0.043
-183.085	-34.392	0.284	-0.153
-182.071	58.491	0.359	-0.347
-181.056	-200.000	0.016	0.142
-180.042	-82.261	0.195	-0.062
-179.027	223.532	0.044	-0.070
-178.012	93.681	-0.124	0.139
-176.998	-93.527	0.066	0.018
-175.983	458.737	0.146	0.319
-174.969	77.070	0.051	0.053
-173.954	-79.646	-0.199	-0.066
-172.939	-105.675	0.215	-0.048
-171.925	594.851	-0.106	0.259
-170.910	-200.000	0.000	-0.094
-169.896	-147.909	0.249	-0.020
-168.881	800.000	-0.102	0.312
-167.866	165.625	0.071	-0.099
-166.852	165.102	0.092	-0.128
-165.837	-200.000	0.057	-0.284
-164.823	-52.702	-0.093	0.042
-163.808	114.253	0.203	-0.244
-162.793	800.000	-0.029	-0.087
-161.779	-37.609	-0.292	0.153
-160.764	-20.989	-0.146	-0.088
-159.750	221.852	-0.168	0.266
-158.735	732.337	-0.053	0.139
-157.720	-39.980	-0.162	-0.083
-156.706	7.144	-0.153	0.113
-155.691	-46.258	0.338	0.164
-154.677	358.623	-0.177	-0.348
-153.662	1.407	0.354	-0.250
-152.647	-88.735	0.279	0.082
-151.633	-138.066	0.102	0.011
-150.618	800.000	0.016	0.058
-149.604	661.715	0.042	-0.107
-148.589	800.000	0.082	0.314
-147.574	-12.964	-0.297	-0.190
-146.560	-97.059	-0.449	0.116
-145.545	5.588	0.166	0.121
-144.531	-8.012	0.294	-0.195
-143.516	-133.561	0.171	-0.021
-142.502	-40.875	-0.198	0.101
-141.487	-74.863	0.219	0.077
-140.472	-12.410	-0.067	0.043
-139.458	-164.833	0.297	0.013
-138.443	800.000	0.070	-0.228
-137.429	10.744	0.136	-0.102
-136.414	-174.472	-0.154	0.004
-135.399	120.897	0.203	-0.249
-134.385	800.000	0.104	0.319
-133.370	-200.000	-0.017	0.219
-132.356	-46.261	-0.187	-0.090
-131.341	54.597	-0.209	-0.198
-130.326	-47.800	0.173	0.082
-129.312	-70.371	-0.111	0.041
-128.297	-200.000	-0.015	-0.069
-127.283	369.266	-0.065	-0.129
-126.268	249.316	-0.014	0.024
-125.253	440.287	0.099	-0.213
-124.239	173.838	0.256	-0.364
-123.224	-200.000	-0.019	0.346
-122.210	-112.428	-0.059	-0.012
-121.195	86.311	0.140	0.152
-120.180	-140.961	-0.294	-0.030
