DTS Sentinel unit serial number:	SN413079Multiplexer serial number:	ORYXHardware model number:	OX4-SRSoftware version number:	ORYX F/W v4.00 Oryx Data Collector v3.7.2.0data status	okinstallation	princeton_trtdifferential loss correction	single-endedforward channel	channel 4reverse channel	N/Adate	2019/09/11time	03:59:11forward acquisition time	60.00reverse acquisition time	0.00gamma	496.2192k internal	0.2316k external	0.2316temperature offset calibration	0.9941default loss term (dB/km)	0.3790temperature slope calibration	1.0000multiplexer offset coefficient	1.0000multiplexer slope coefficient	1.0000fibre end	0.00T internal ref (°C)	29.56T ext. ref 1 (°C)	-0.32T ext. ref 2 (°C)	23.75length (m)	temperature (°C)	Stokes	anti-Stokes-747.200	-20.461	0.340	-0.212
-746.185	-200.000	-0.019	0.173
-745.171	-65.662	-0.254	-0.103
-744.156	5.341	-0.262	-0.196
-743.142	-46.495	0.119	-0.059
-742.127	677.758	-0.088	0.232
-741.112	-22.801	0.173	0.106
-740.098	-130.729	-0.079	0.011
-739.083	88.951	0.095	-0.107
-738.069	-153.761	0.293	0.020
-737.054	35.899	0.217	0.193
-736.039	-92.098	-0.201	-0.058
-735.025	-49.793	0.203	-0.098
-734.010	-122.919	0.117	0.019
-732.996	-200.000	0.044	-0.361
-731.981	-200.000	-0.018	0.151
-730.966	214.985	-0.080	0.128
-729.952	391.434	-0.113	-0.239
-728.937	800.000	0.021	-0.063
-727.923	63.627	-0.334	-0.340
-726.908	-26.601	-0.151	-0.089
-725.894	-86.954	-0.384	-0.119
-724.879	114.894	-0.207	-0.256
-723.864	147.277	-0.029	-0.039
-722.850	173.771	0.108	-0.158
-721.835	32.195	-0.209	0.183
-720.821	-200.000	0.017	-0.154
-719.806	-175.980	-0.288	0.008
-718.791	800.000	-0.030	-0.122
-717.777	-200.000	0.023	-0.143
-716.762	800.000	0.130	0.423
-715.748	176.609	-0.071	0.105
-714.733	-58.970	0.325	0.142
-713.718	539.111	0.100	-0.240
-712.704	360.305	-0.180	-0.364
-711.689	-17.732	0.142	-0.090
-710.675	-200.000	-0.038	-0.342
-709.660	-117.874	-0.159	0.029
-708.645	-69.356	-0.381	-0.148
-707.631	-94.382	0.131	0.036
-706.616	-200.000	-0.062	-0.280
-705.602	-31.501	-0.074	0.042
-704.587	800.000	0.032	-0.100
-703.572	-26.373	-0.069	0.041
-702.558	-200.000	-0.005	-0.030
-701.543	800.000	0.108	-0.331
-700.529	150.486	-0.080	0.110
-699.514	33.838	-0.081	0.071
-698.499	10.588	-0.070	-0.054
-697.485	800.000	-0.020	-0.079
-696.470	-18.415	0.439	-0.277
-695.456	243.674	0.113	0.192
-694.441	54.349	0.089	-0.087
-693.426	800.000	0.083	0.295
-692.412	41.265	0.122	-0.112
-691.397	-200.000	-0.054	0.363
-690.383	3.883	-0.074	-0.055
-689.368	-102.071	-0.361	-0.088
-688.354	259.556	-0.238	-0.415
-687.339	518.621	0.073	-0.173
-686.324	-200.000	-0.021	-0.195
-685.310	35.093	0.104	-0.092
-684.295	-200.000	-0.005	-0.114
-683.281	451.921	0.059	-0.131
-682.266	-121.409	0.062	-0.010
-681.251	-200.000	0.033	-0.176
-680.237	-98.723	-0.132	-0.034
-679.222	-31.498	-0.250	0.142
-678.208	-106.608	-0.074	0.017
-677.193	537.468	0.085	0.205
-676.178	-45.877	0.099	-0.049
-675.164	-155.691	-0.177	0.011
-674.149	690.868	-0.098	-0.258
-673.135	557.764	-0.129	-0.314
-672.120	-200.000	-0.002	0.235
-671.105	-200.000	-0.027	0.193
-670.091	4.715	-0.059	-0.044
-669.076	-58.524	-0.246	0.108
-668.062	305.896	-0.029	0.054
-667.047	-38.374	0.266	-0.142
-666.032	-36.779	-0.123	-0.067
-665.018	-62.567	-0.287	-0.120
-664.003	-8.772	-0.187	-0.127
-662.989	-60.848	-0.201	0.086
-661.974	-93.402	0.072	-0.020
-660.959	262.920	0.144	0.253
-659.945	-9.375	0.192	-0.129
-658.930	-88.422	0.534	-0.161
-657.916	11.754	0.122	-0.095
-656.901	9.931	0.237	-0.181
-655.886	800.000	0.082	-0.277
-654.872	-67.518	-0.126	0.050
-653.857	-200.000	-0.037	-0.308
-652.843	716.968	0.018	0.047
-651.828	-71.066	0.319	0.121
-650.814	-109.510	0.293	0.063
-649.799	-62.501	0.249	-0.105
-648.784	-110.393	0.301	0.063
-647.770	-162.511	0.325	-0.016
-646.755	800.000	0.141	-0.456
-645.741	-145.816	-0.458	-0.041
-644.726	-58.867	0.157	-0.069
-643.711	35.236	0.104	0.092
-642.697	-41.001	-0.280	-0.146
-641.682	800.000	0.049	-0.137
-640.668	78.880	-0.103	0.111
-639.653	800.000	0.091	0.303
-638.638	780.434	-0.066	-0.181
-637.624	-200.000	-0.023	0.125
-636.609	113.473	0.122	-0.150
-635.595	-129.859	0.097	-0.013
-634.580	-66.397	0.214	0.086
-633.565	-93.519	-0.137	-0.038
-632.551	-100.351	0.237	-0.059
-631.536	-55.813	-0.097	0.044
-630.522	128.137	-0.036	0.046
-629.507	253.625	0.129	0.221
-628.492	-118.251	0.256	-0.046
-627.478	-8.422	-0.149	-0.101
-626.463	10.278	0.186	-0.143
-625.449	34.567	-0.312	-0.274
-624.434	-58.655	0.137	-0.060
-623.419	-200.000	0.021	0.108
-622.405	-28.802	0.108	0.063
-621.390	66.536	0.301	0.308
-620.376	-106.312	-0.394	-0.089
-619.361	768.535	-0.013	-0.035
-618.346	-200.000	0.001	-0.133
-617.332	-200.000	-0.004	-0.401
-616.317	800.000	0.034	0.134
-615.303	153.435	-0.195	0.269
-614.288	-56.831	-0.397	0.177
-613.273	-70.354	0.585	0.223
-612.259	-200.000	-0.003	-0.076
-611.244	-60.860	-0.204	-0.087
-610.230	-65.956	0.044	0.018
-609.215	654.340	-0.047	0.121
-608.201	374.803	-0.033	0.068
-607.186	-129.890	-0.176	0.024
-606.171	800.000	-0.029	0.108
-605.157	-57.441	-0.316	-0.140
-604.142	529.752	0.142	-0.339
-603.128	800.000	0.011	0.037
-602.113	-82.027	-0.295	0.097
-601.098	-159.505	0.350	-0.020
-600.084	-200.000	-0.004	0.062
-599.069	645.345	-0.082	-0.210
-598.055	19.518	-0.054	0.043
-597.040	-0.796	0.138	0.099
-596.025	161.574	-0.116	0.164
-595.011	-111.893	-0.338	-0.069
-593.996	-200.000	-0.039	0.279
-592.982	-77.706	0.100	0.035
-591.967	301.762	0.070	0.131
-590.952	70.280	-0.129	-0.134
-589.938	-69.681	0.018	-0.007
-588.923	-40.800	-0.459	-0.239
-587.909	-134.913	0.223	0.027
-586.894	800.000	0.045	0.171
-585.879	-122.235	-0.178	-0.029
-584.865	-14.449	-0.298	0.193
-583.850	-95.881	-0.257	-0.069
-582.836	-200.000	0.024	-0.295
-581.821	-25.907	-0.196	-0.116
-580.806	98.060	0.095	-0.110
-579.792	-57.776	-0.196	0.086
-578.777	-74.592	-0.127	0.046
-577.763	800.000	0.008	-0.026
-576.748	393.382	-0.111	0.232
-575.733	-103.684	0.134	-0.032
-574.719	-200.000	0.022	-0.133
-573.704	89.937	0.027	0.031
-572.690	31.728	0.156	0.135
-571.675	247.106	0.122	-0.207
-570.661	44.165	-0.115	-0.107
-569.646	-200.000	-0.022	-0.114
-568.631	775.954	-0.061	0.167
-567.617	-200.000	0.052	0.273
-566.602	-97.241	-0.155	0.041
-565.588	-11.463	-0.323	-0.214
-564.573	-30.704	-0.498	-0.283
-563.558	-200.000	0.023	-0.270
-562.544	-200.000	0.046	-0.271
-561.529	94.407	-0.077	-0.088
-560.515	484.705	0.124	-0.284
-559.500	-172.198	0.234	-0.008
-558.485	483.621	0.051	-0.116
-557.471	1.325	0.139	-0.101
-556.456	670.149	0.080	-0.208
-555.442	455.227	0.193	-0.431
-554.427	-107.475	0.366	-0.081
-553.412	162.378	0.136	-0.191
-552.398	-200.000	0.013	-0.213
-551.383	-200.000	0.052	0.373
-550.369	359.580	0.099	-0.199
-549.354	66.743	-0.029	0.029
-548.339	30.854	0.198	0.170
-547.325	192.726	0.183	0.278
-546.310	-96.752	-0.246	0.065
-545.296	-86.103	-0.140	0.044
-544.281	-200.000	0.012	0.232
-543.266	-72.077	0.325	0.121
-542.252	-58.774	-0.194	-0.084
-541.237	800.000	0.033	-0.106
-540.223	800.000	0.059	-0.227
-539.208	598.943	-0.058	-0.144
-538.193	-67.062	0.180	-0.071
-537.179	-86.311	-0.180	0.056
-536.164	-200.000	-0.001	0.179
-535.150	384.201	-0.063	0.131
-534.135	45.701	-0.113	0.105
-533.121	338.830	0.103	-0.201
-532.106	108.523	0.203	0.243
-531.091	191.732	-0.121	-0.184
-530.077	42.618	0.189	-0.173
-529.062	362.519	0.136	-0.274
-528.048	-200.000	-0.008	-0.042
-527.033	-173.107	0.293	-0.009
-526.018	-99.878	-0.187	-0.047
-525.004	133.738	0.077	0.100
-523.989	15.871	0.202	0.160
-522.975	800.000	0.031	-0.124
-521.960	-6.495	0.102	-0.070
-520.945	159.983	0.041	0.058
-519.931	-19.529	-0.243	0.151
-518.916	201.445	0.132	0.205
-517.902	39.028	-0.206	-0.185
-516.887	-30.852	-0.233	-0.132
-515.872	-200.000	-0.020	0.091
-514.858	135.779	0.080	0.105
-513.843	-200.000	0.012	-0.051
-512.829	303.782	-0.094	-0.174
-511.814	-79.079	0.233	0.079
-510.799	517.469	0.046	0.109
-509.785	191.309	0.136	-0.206
-508.770	67.796	-0.127	0.131
-507.756	-144.604	-0.247	-0.023
-506.741	536.934	-0.079	-0.188
-505.726	-200.000	-0.005	-0.026
-504.712	-99.153	0.211	0.053
-503.697	42.196	0.253	-0.231
-502.683	103.109	0.042	-0.049
-501.668	62.321	-0.089	-0.089
-500.653	800.000	0.055	0.205
-499.639	180.924	-0.168	0.248
-498.624	227.527	-0.092	0.151
-497.610	-200.000	-0.005	-0.398
-496.595	333.936	-0.057	-0.110
-495.581	231.685	0.062	-0.102
-494.566	-200.000	0.004	-0.019
-493.551	-122.486	0.163	-0.027
-492.537	219.059	-0.146	0.234
-491.522	-85.661	-0.404	0.126
-490.508	-96.258	0.180	-0.048
-489.493	-200.000	-0.015	0.234
-488.478	-106.441	-0.193	0.043
-487.464	636.375	-0.076	-0.194
-486.449	94.380	0.076	-0.087
-485.435	-134.107	-0.343	-0.042
-484.420	-191.079	0.059	0.001
-483.405	-103.642	0.368	0.087
-482.391	-66.699	-0.105	-0.042
-481.376	-200.000	0.057	0.256
-480.362	-59.324	-0.249	-0.107
-479.347	484.798	0.020	0.047
-478.332	-78.859	-0.218	0.075
-477.318	-34.103	-0.159	0.088
-476.303	405.761	0.171	0.361
-475.289	135.299	-0.061	0.080
-474.274	-101.386	-0.080	0.020
-473.259	-200.000	-0.028	-0.146
-472.245	213.567	-0.113	0.178
-471.230	-200.000	-0.023	0.102
-470.216	-72.380	0.199	0.074
-469.201	546.167	0.037	-0.088
-468.186	85.900	-0.116	0.128
-467.172	-151.684	0.268	-0.020
-466.157	146.734	-0.055	-0.074
-465.143	-53.901	-0.199	0.091
-464.128	-87.701	0.129	0.039
-463.113	361.954	0.049	-0.099
-462.099	160.932	-0.023	-0.032
-461.084	72.190	0.336	-0.351
-460.070	298.112	0.094	0.174
-459.055	-200.000	-0.011	0.114
-458.040	156.154	0.137	-0.189
-457.026	275.589	-0.207	0.368
-456.011	-95.981	0.149	0.040
-454.997	-5.056	0.237	-0.164
-453.982	800.000	-0.105	-0.324
-452.968	-129.856	0.143	-0.020
-451.953	6.159	0.224	0.166
-450.938	-122.454	-0.347	-0.057
-449.924	-49.398	0.281	-0.134
-448.909	-200.000	-0.007	-0.402
-447.895	-200.000	0.032	-0.261
-446.880	185.207	0.201	-0.299
-445.865	467.866	0.070	-0.156
-444.851	196.696	-0.070	0.107
-443.836	279.896	-0.007	-0.012
-442.822	48.564	0.072	0.068
-441.807	-8.360	-0.110	0.074
-440.792	0.971	-0.286	-0.205
-439.778	-79.638	-0.378	-0.127
-438.763	33.837	0.282	-0.246
-437.749	-200.000	-0.004	-0.044
-436.734	147.844	0.070	-0.094
-435.719	33.709	0.211	0.184
-434.705	-98.298	0.075	-0.019
-433.690	513.740	-0.093	0.217
-432.676	27.850	0.121	0.102
-431.661	303.469	0.145	0.270
-430.646	49.423	-0.151	0.142
-429.632	-35.107	-0.359	-0.196
-428.617	-17.252	-0.307	0.194
-427.603	-55.928	0.271	0.121
-426.588	-149.181	0.163	0.013
-425.573	-99.546	-0.419	0.105
-424.559	-200.000	0.029	-0.192
-423.544	208.756	0.057	0.089
-422.530	-99.683	-0.189	-0.047
-421.515	800.000	-0.039	0.125
-420.500	31.518	-0.081	-0.070
-419.486	-59.175	0.306	-0.132
-418.471	-200.000	-0.233	0.001
-417.457	-34.634	0.223	0.122
-416.442	-200.000	-0.010	-0.173
-415.428	-99.636	-0.249	-0.063
-414.413	122.024	0.143	0.179
-413.398	54.935	-0.081	-0.078
-412.384	21.268	-0.022	0.017
-411.369	-7.537	-0.070	0.048
-410.355	-93.314	-0.354	-0.098
-409.340	-69.776	0.110	0.042
-408.325	104.227	0.004	0.005
-407.311	502.083	-0.068	0.157
-406.296	-7.634	-0.290	-0.196
-405.282	23.264	-0.180	0.148
-404.267	213.010	-0.091	-0.143
-403.252	794.344	-0.086	-0.237
-402.238	-24.684	0.224	0.133
-401.223	800.000	0.103	-0.346
-400.209	18.767	0.151	-0.121
-399.194	-200.000	-0.027	0.145
-398.179	133.123	0.131	0.170
-397.165	-46.156	0.178	0.088
-396.150	-172.519	0.348	-0.011
-395.136	497.291	0.212	-0.488
-394.121	117.061	0.126	-0.155
-393.106	-200.000	-0.070	0.319
-392.092	-200.000	-0.051	0.468
-391.077	-115.454	0.202	-0.038
-390.063	88.612	-0.145	0.161
-389.048	-36.626	0.195	0.105
-388.033	54.227	0.120	0.115
-387.019	68.951	-0.279	0.286
-386.004	-135.266	0.182	-0.022
-384.990	-200.000	-0.266	0.001
-383.975	5.901	-0.129	0.096
-382.960	-121.205	0.155	0.026
-381.946	800.000	0.079	0.281
-380.931	391.843	0.018	-0.038
-379.917	800.000	0.160	-0.450
-378.902	105.837	-0.250	-0.296
-377.888	-200.000	-0.047	0.264
-376.873	800.000	-0.029	-0.109
-375.858	800.000	0.053	0.159
-374.844	105.250	0.228	0.269
-373.829	-144.718	0.244	-0.022
-372.815	-55.630	-0.180	-0.081
-371.800	-200.000	0.065	-0.389
-370.785	717.799	0.081	-0.216
-369.771	-39.619	0.276	0.144
-368.756	-85.629	-0.152	-0.047
-367.742	-200.000	0.001	-0.256
-366.727	-93.809	-0.120	-0.033
-365.712	-131.330	-0.211	-0.028
-364.698	800.000	0.026	0.075
-363.683	-58.073	0.276	0.120
-362.669	-47.218	0.055	0.027
-361.654	-200.000	-0.026	-0.120
-360.639	5.264	0.022	-0.016
-359.625	132.883	-0.051	0.066
-358.610	337.834	-0.179	0.348
-357.596	-23.822	-0.298	-0.178
-356.581	-200.000	0.098	0.436
-355.566	-116.967	-0.357	-0.065
-354.552	-18.203	0.380	0.237
-353.537	-200.000	-0.010	0.076
-352.523	-200.000	0.004	-0.204
-351.508	133.661	0.090	-0.116
-350.493	800.000	0.058	0.202
-349.479	252.121	0.197	-0.335
-348.464	173.226	-0.206	0.296
-347.450	-20.327	0.108	-0.067
-346.435	-28.971	0.173	-0.099
-345.420	52.996	0.059	0.056
-344.406	64.960	-0.236	0.238
-343.391	40.838	0.327	0.295
-342.377	-72.635	-0.115	-0.042
-341.362	-76.919	-0.044	0.015
-340.348	691.216	0.017	-0.045
-339.333	-44.289	-0.130	0.065
-338.318	750.967	0.051	0.138
-337.304	-4.665	0.259	0.178
-336.289	104.504	-0.151	-0.177
-335.275	-200.000	-0.025	0.303
-334.260	274.255	-0.129	0.228
-333.245	240.477	0.152	0.252
-332.231	-44.254	0.217	-0.109
-331.216	209.475	0.127	-0.198
-330.202	-146.106	-0.219	-0.019
-329.187	240.199	-0.026	0.044
-328.172	800.000	-0.058	-0.160
-327.158	-200.000	0.028	0.124
-326.143	-106.903	-0.349	0.077
-325.129	-200.000	-0.030	-0.159
-324.114	-200.000	0.002	-0.164
-323.099	-200.000	0.041	0.255
-322.085	-175.198	0.328	-0.009
-321.070	-200.000	0.016	0.170
-320.056	-28.756	-0.006	-0.004
-319.041	120.697	0.213	0.264
-318.026	-200.000	-0.006	0.030
-317.012	19.337	0.284	0.227
-315.997	-37.560	-0.295	-0.157
-314.983	-156.589	0.307	0.019
-313.968	800.000	-0.042	-0.174
-312.953	-53.344	0.103	0.047
-311.939	104.616	-0.249	-0.292
-310.924	-9.999	-0.262	0.173
-309.910	-126.367	0.398	-0.059
-308.895	20.284	0.213	0.171
-307.880	108.182	-0.048	-0.057
-306.866	681.603	0.052	0.136
-305.851	-24.770	0.188	-0.111
-304.837	-1.681	-0.240	-0.168
-303.822	154.804	0.287	0.393
-302.807	-200.000	0.013	0.077
-301.793	800.000	0.059	-0.236
-300.778	464.591	-0.067	-0.149
-299.764	130.376	-0.118	-0.151
-298.749	353.529	0.069	0.136
-297.735	-200.000	-0.027	-0.395
-296.720	419.914	-0.096	0.206
-295.705	189.832	0.174	-0.260
-294.691	-49.960	0.089	0.042
-293.676	134.740	0.120	-0.155
-292.662	-200.000	-0.014	0.085
-291.647	800.000	0.188	-0.577
-290.632	18.460	-0.151	-0.120
-289.618	800.000	-0.069	-0.277
-288.603	-161.950	-0.342	0.017
-287.589	-27.918	-0.305	0.176
-286.574	557.371	0.148	0.356
-285.559	-27.896	0.166	-0.096
-284.545	-166.863	-0.213	0.009
-283.530	800.000	-0.045	-0.183
-282.516	73.895	0.182	-0.190
-281.501	35.169	-0.189	-0.164
-280.486	-157.154	0.221	-0.013
-279.472	552.970	0.169	-0.404
-278.457	-65.879	-0.112	-0.045
-277.443	6.695	-0.260	-0.192
-276.428	800.000	0.131	-0.413
-275.413	-24.318	0.074	-0.044
-274.399	-40.123	-0.140	-0.072
-273.384	800.000	0.025	0.087
-272.370	240.791	0.089	0.148
-271.355	-200.000	-0.033	-0.391
-270.340	-156.625	-0.049	-0.003
-269.326	-7.502	-0.097	-0.065
-268.311	293.474	0.111	0.201
-267.297	-56.707	-0.142	-0.063
-266.282	198.073	-0.046	0.070
-265.267	18.231	-0.252	0.200
-264.253	-200.000	0.014	-0.183
-263.238	-87.933	0.116	-0.035
-262.224	155.939	0.234	0.321
-261.209	-200.000	0.053	0.236
-260.195	101.087	0.281	0.325
-259.180	-72.635	0.212	0.078
-258.165	-48.559	-0.018	0.009
-257.151	800.000	-0.064	-0.193
-256.136	-200.000	0.007	-0.120
-255.122	-61.790	-0.119	0.050
-254.107	38.092	-0.156	-0.138
-253.092	310.188	0.114	0.212
-252.078	59.840	0.103	0.101
-251.063	280.895	-0.203	0.362
-250.049	785.580	-0.077	-0.210
-249.034	3.055	0.299	-0.216
-248.019	-200.000	-0.059	-0.370
-247.005	18.784	0.190	0.151
-245.990	609.067	0.084	0.208
-244.976	346.694	-0.057	0.111
-243.961	800.000	0.059	-0.190
-242.946	-200.000	0.009	0.317
-241.932	-119.284	0.412	0.071
-240.917	800.000	0.015	-0.043
-239.903	-178.793	-0.222	0.005
-238.888	-95.954	-0.191	0.050
-237.873	-94.004	-0.221	0.060
-236.859	-58.243	-0.138	0.060
-235.844	78.038	0.130	0.138
-234.830	-123.223	0.154	-0.024
-233.815	-74.579	0.316	0.113
-232.800	158.972	0.119	0.164
-231.786	41.487	0.169	0.152
-230.771	-8.696	0.042	0.028
-229.757	-61.064	0.129	0.054
-228.742	-88.418	-0.179	0.053
-227.727	-50.251	-0.280	-0.131
-226.713	-200.000	-0.001	0.075
-225.698	20.502	-0.217	-0.175
-224.684	450.575	-0.182	0.399
-223.669	800.000	-0.081	0.304
-222.655	304.444	0.073	0.134
-221.640	-93.488	-0.128	0.035
-220.625	-200.000	-0.022	0.191
-219.611	-13.692	0.161	0.104
-218.596	-103.337	-0.344	0.081
-217.582	72.020	0.119	-0.123
-216.567	-200.000	-0.031	0.291
-215.552	-142.402	-0.024	0.002
-214.538	58.376	0.096	0.093
-213.523	24.927	-0.041	-0.034
-212.509	140.967	0.183	-0.240
-211.494	-147.668	-0.107	0.009
-210.479	-36.643	-0.179	0.096
-209.465	-144.867	-0.364	0.033
-208.450	-200.000	-0.002	0.044
-207.436	-18.404	0.146	-0.090
-206.421	51.267	0.349	-0.329
-205.406	-126.077	-0.422	0.063
-204.392	-200.000	0.002	-0.028
-203.377	300.234	-0.065	-0.119
-202.363	-26.953	0.207	-0.120
-201.348	-200.000	0.034	0.171
-200.333	61.184	0.211	0.208
-199.319	800.000	0.067	-0.216
-198.304	800.000	0.011	0.035
-197.290	61.301	0.093	0.091
-196.275	44.306	-0.181	0.165
-195.260	-200.000	0.050	0.000
-194.246	-98.528	-0.292	-0.074
-193.231	-199.386	-0.110	0.001
-192.217	-136.026	0.241	-0.028
-191.202	-130.347	-0.160	-0.022
-190.187	-149.144	0.187	-0.015
-189.173	-200.000	-0.015	0.200
-188.158	312.380	0.112	0.208
-187.144	-169.398	-0.482	-0.018
-186.129	-20.388	0.120	0.073
-185.114	-48.585	-0.208	-0.099
-184.100	-142.545	-0.265	-0.026
-183.085	-144.145	0.058	-0.005
-182.071	-145.761	0.062	0.006
-181.056	-5.393	0.088	0.060
-180.042	383.547	0.064	-0.131
-179.027	800.000	-0.063	-0.200
-178.012	26.463	-0.350	0.290
-176.998	224.770	0.149	-0.239
-175.983	-22.927	-0.239	-0.143
-174.969	-98.116	0.179	-0.046
-173.954	-200.000	-0.021	0.372
-172.939	-200.000	0.041	0.237
-171.925	7.057	-0.156	-0.115
-170.910	800.000	-0.040	-0.164
-169.896	162.037	0.037	-0.051
-168.881	172.547	0.050	-0.072
-167.866	-200.000	0.018	0.185
-166.852	-1.824	0.107	-0.075
-165.837	-122.539	-0.159	0.026
-164.823	-38.995	-0.095	-0.049
-163.808	-200.000	-0.102	-0.565
-162.793	42.490	-0.201	0.181
-161.779	-200.000	-0.058	0.413
-160.764	-200.000	0.052	0.263
-159.750	-33.636	0.220	0.120
-158.735	14.461	-0.178	0.137
-157.720	70.598	0.127	0.130
-156.706	175.112	0.081	-0.117
-155.691	-56.726	-0.154	0.067
-154.677	-96.639	-0.317	-0.083
-153.662	-70.121	-0.193	0.073
-152.647	232.336	0.029	-0.047
-151.633	-186.139	0.278	0.004
-150.618	800.000	0.070	0.242
-149.604	-200.000	0.027	-0.124
-148.589	-115.806	0.301	0.056
-147.574	110.697	-0.145	-0.173
-146.560	800.000	0.089	0.290
-145.545	-93.107	-0.147	0.040
-144.531	42.785	0.272	-0.246
-143.516	-200.000	0.045	-0.572
-142.502	800.000	-0.065	0.211
-141.487	-79.726	0.103	0.034
-140.472	334.784	-0.105	-0.201
-139.458	800.000	-0.105	-0.402
-138.443	196.153	-0.081	0.122
-137.429	-171.368	0.201	-0.007
-136.414	636.036	0.149	0.374
-135.399	-49.513	0.255	-0.120
-134.385	-61.690	0.218	0.090
-133.370	258.207	-0.051	0.087
-132.356	-113.358	0.456	-0.088
-131.341	542.091	0.171	-0.404
-130.326	-200.000	-0.009	-0.227
-129.312	800.000	0.075	-0.316
-128.297	-200.000	-0.023	-0.158
-127.283	-64.022	0.256	0.103
-126.268	49.885	0.165	0.154
-125.253	-63.461	-0.272	0.110
-124.239	-79.049	-0.149	-0.050
-123.224	-139.946	0.394	0.041
-122.210	54.963	0.030	0.028
-121.195	361.642	0.058	-0.115
