DTS Sentinel unit serial number:	SN413079Multiplexer serial number:	ORYXHardware model number:	OX4-SRSoftware version number:	ORYX F/W v4.00 Oryx Data Collector v3.7.2.0data status	okinstallation	princeton_trtdifferential loss correction	single-endedforward channel	channel 4reverse channel	N/Adate	2019/09/14time	05:45:35forward acquisition time	60.00reverse acquisition time	0.00gamma	496.2192k internal	0.2321k external	0.2321temperature offset calibration	1.0135default loss term (dB/km)	0.3790temperature slope calibration	1.0000multiplexer offset coefficient	1.0000multiplexer slope coefficient	1.0000fibre end	0.00T internal ref (°C)	26.92T ext. ref 1 (°C)	3.40T ext. ref 2 (°C)	21.62length (m)	temperature (°C)	Stokes	anti-Stokes-747.200	-100.725	0.229	-0.057
-746.185	-91.751	-0.311	0.089
-745.171	-109.121	-0.025	-0.005
-744.156	800.000	-0.047	0.135
-743.142	82.007	-0.145	0.159
-742.127	800.000	-0.204	0.668
-741.112	800.000	0.142	0.474
-740.098	26.655	-0.061	0.051
-739.083	-59.290	0.239	0.104
-738.069	197.042	-0.062	0.096
-737.054	-123.020	0.304	0.049
-736.039	24.871	0.053	-0.044
-735.025	800.000	0.086	0.270
-734.010	-107.490	-0.442	-0.098
-732.996	-200.000	0.001	-0.013
-731.981	-200.000	0.074	0.428
-730.966	-113.564	0.234	-0.046
-729.952	-200.000	-0.039	-0.322
-728.937	800.000	-0.049	-0.167
-727.923	-30.055	-0.268	0.154
-726.908	800.000	-0.087	0.244
-725.894	-49.161	-0.422	-0.204
-724.879	12.589	0.181	0.141
-723.864	-100.644	0.257	-0.064
-722.850	768.236	0.066	0.181
-721.835	174.011	-0.192	0.279
-720.821	22.897	-0.061	-0.051
-719.806	-62.860	-0.291	-0.122
-718.791	-111.398	-0.107	0.022
-717.777	423.618	0.033	-0.072
-716.762	151.326	0.151	-0.208
-715.748	-32.213	0.280	-0.158
-714.733	-26.787	-0.298	-0.176
-713.718	-200.000	-0.002	-0.277
-712.704	709.419	-0.052	-0.139
-711.689	800.000	0.018	0.079
-710.675	-200.000	0.006	-0.108
-709.660	-200.000	0.051	-0.237
-708.645	-200.000	0.029	0.140
-707.631	-200.000	-0.306	0.001
-706.616	-171.788	0.301	0.010
-705.602	198.508	-0.110	0.169
-704.587	800.000	-0.067	-0.252
-703.572	393.450	-0.085	-0.179
-702.558	204.716	0.258	0.404
-701.543	104.435	0.069	-0.082
-700.529	-160.565	0.108	0.006
-699.514	-200.000	0.028	-0.180
-698.499	67.357	-0.201	0.207
-697.485	1.519	0.287	-0.209
-696.470	-78.724	-0.317	-0.109
-695.456	10.805	0.157	-0.121
-694.441	71.885	0.313	0.329
-693.426	-96.074	-0.511	-0.137
-692.412	157.910	0.184	0.257
-691.397	-143.070	-0.484	-0.047
-690.383	-70.195	0.055	0.021
-689.368	-59.500	-0.033	-0.014
-688.354	-13.696	0.101	0.066
-687.339	-161.097	-0.143	0.008
-686.324	-200.000	-0.028	-0.128
-685.310	800.000	-0.043	-0.138
-684.295	-200.000	0.015	-0.079
-683.281	800.000	-0.016	0.060
-682.266	37.257	0.106	-0.095
-681.251	-94.114	-0.238	0.066
-680.237	-1.175	-0.179	-0.127
-679.222	112.232	-0.174	-0.212
-678.208	-161.365	0.111	0.006
-677.193	-94.839	-0.226	0.062
-676.178	-200.000	0.005	-0.222
-675.164	381.829	0.065	0.134
-674.149	800.000	-0.089	-0.368
-673.135	179.089	0.058	0.086
-672.120	14.836	-0.302	-0.238
-671.105	-200.000	0.006	-0.174
-670.091	-200.000	0.028	0.133
-669.076	127.596	-0.226	-0.290
-668.062	800.000	-0.065	-0.215
-667.047	800.000	0.033	0.138
-666.032	196.286	-0.005	0.008
-665.018	167.745	-0.139	0.200
-664.003	340.088	-0.112	0.220
-662.989	545.477	0.060	0.144
-661.974	-200.000	0.001	-0.291
-660.959	-127.006	0.334	-0.049
-659.945	613.369	-0.045	-0.113
-658.930	-39.246	-0.288	-0.152
-657.916	56.330	0.190	0.186
-656.901	800.000	-0.087	-0.320
-655.886	280.990	0.285	0.513
-654.872	-182.294	0.316	0.006
-653.857	-200.000	-0.013	0.299
-652.843	-24.147	0.297	-0.179
-651.828	-185.234	-0.121	-0.002
-650.814	233.098	-0.023	-0.038
-649.799	476.464	-0.067	-0.154
-648.784	-200.000	-0.034	-0.305
-647.770	12.047	-0.202	-0.156
-646.755	87.604	0.158	-0.177
-645.741	-108.574	-0.302	-0.065
-644.726	247.966	-0.132	-0.225
-643.711	-74.294	-0.350	-0.127
-642.697	-3.580	0.167	-0.117
-641.682	60.951	0.120	0.120
-640.668	-69.962	-0.095	0.036
-639.653	800.000	-0.063	-0.210
-638.638	-200.000	0.006	-0.102
-637.624	-127.813	-0.183	0.027
-636.609	-200.000	-0.009	0.079
-635.595	-86.985	0.094	0.029
-634.580	46.011	0.126	-0.117
-633.565	113.391	0.122	-0.148
-632.551	-90.201	0.249	0.073
-631.536	-69.796	-0.038	0.014
-630.522	-125.640	-0.176	0.027
-629.507	-200.000	-0.040	0.224
-628.492	800.000	-0.052	0.166
-627.478	-129.023	0.096	-0.014
-626.463	-133.743	-0.139	-0.017
-625.449	84.179	-0.172	0.189
-624.434	-59.949	0.063	-0.027
-623.419	-95.533	-0.225	-0.061
-622.405	-132.769	0.137	-0.018
-621.390	590.141	0.096	-0.238
-620.376	-39.907	0.250	0.131
-619.361	-33.186	0.135	0.075
-618.346	-9.005	-0.174	-0.117
-617.332	74.679	0.126	-0.134
-616.317	800.000	0.034	0.134
-615.303	187.426	-0.073	-0.109
-614.288	-60.612	0.331	0.141
-613.273	167.312	-0.047	0.067
-612.259	382.494	-0.110	0.227
-611.244	106.652	0.199	-0.237
-610.230	-137.501	-0.215	0.024
-609.215	-148.869	0.407	0.033
-608.201	77.441	-0.140	0.150
-607.186	-124.863	0.158	0.024
-606.171	-78.276	0.212	-0.073
-605.157	-49.310	0.139	0.067
-604.142	-200.000	0.003	-0.016
-603.128	22.344	0.041	0.034
-602.113	266.462	-0.094	0.166
-601.098	800.000	0.041	-0.142
-600.084	800.000	-0.084	0.238
-599.069	43.609	0.165	0.152
-598.055	-72.389	0.189	-0.070
-597.040	-120.425	0.323	-0.055
-596.025	-54.896	0.208	0.094
-595.011	800.000	-0.011	0.043
-593.996	22.322	-0.168	0.138
-592.982	-115.213	-0.137	-0.026
-591.967	225.970	-0.049	-0.079
-590.952	-44.529	0.372	0.187
-589.938	-108.156	0.104	0.023
-588.923	800.000	0.067	0.218
-587.909	-200.000	0.049	0.459
-586.894	591.896	-0.032	0.081
-585.879	-65.002	0.254	0.103
-584.865	74.027	-0.099	0.105
-583.850	46.616	0.156	-0.145
-582.836	-155.803	-0.115	-0.007
-581.821	800.000	-0.031	-0.122
-580.806	-145.824	0.064	-0.006
-579.792	169.390	0.144	0.207
-578.777	-50.974	-0.200	0.094
-577.763	-200.000	-0.004	-0.039
-576.748	-200.000	-0.001	0.263
-575.733	-155.079	0.232	-0.015
-574.719	-200.000	0.004	0.295
-573.704	482.049	-0.069	-0.157
-572.690	397.331	0.221	-0.464
-571.675	17.543	-0.100	0.080
-570.661	800.000	0.049	-0.172
-569.646	126.866	-0.284	-0.361
-568.631	-48.696	0.173	0.083
-567.617	-81.622	-0.574	-0.189
-566.602	57.361	-0.256	-0.251
-565.588	-55.890	0.173	-0.077
-564.573	27.711	-0.051	-0.043
-563.558	21.821	0.231	-0.189
-562.544	-200.000	0.011	0.153
-561.529	-200.000	-0.014	-0.111
-560.515	-45.134	-0.255	-0.127
-559.500	9.798	-0.310	0.236
-558.485	72.601	-0.020	0.021
-557.471	-70.911	0.196	0.074
-556.456	-181.449	-0.160	0.003
-555.442	-92.082	-0.275	0.078
-554.427	342.081	-0.084	-0.165
-553.412	400.808	0.129	-0.272
-552.398	-20.186	-0.096	-0.059
-551.383	-9.224	0.136	-0.091
-550.369	-200.000	-0.042	-0.277
-549.354	-101.833	-0.147	-0.036
-548.339	-47.613	0.316	0.154
-547.325	-113.043	-0.181	0.036
-546.310	759.368	0.045	-0.123
-545.296	-108.464	-0.115	0.025
-544.281	-64.150	-0.062	-0.025
-543.266	800.000	-0.100	-0.282
-542.252	-53.170	0.273	0.126
-541.237	18.234	-0.050	0.040
-540.223	800.000	0.079	0.266
-539.208	167.185	0.153	0.218
-538.193	-47.402	0.203	-0.099
-537.179	-120.344	0.362	0.062
-536.164	-200.000	0.035	0.266
-535.150	800.000	-0.055	0.229
-534.135	1.568	0.171	0.124
-533.121	800.000	0.094	0.290
-532.106	11.704	-0.050	-0.038
-531.091	97.659	0.105	0.121
-530.077	4.646	0.112	-0.082
-529.062	292.241	-0.078	-0.143
-528.048	-200.000	0.003	0.164
-527.033	3.024	0.222	-0.162
-526.018	20.418	-0.197	0.159
-525.004	-59.811	-0.206	-0.088
-523.989	24.812	0.179	-0.148
-522.975	98.902	0.233	-0.270
-521.960	800.000	0.056	-0.206
-520.945	-119.667	-0.180	-0.031
-519.931	66.020	-0.203	-0.207
-518.916	800.000	0.014	0.043
-517.902	-126.704	-0.191	-0.028
-516.887	-21.778	-0.137	-0.084
-515.872	-188.011	0.101	-0.001
-514.858	-200.000	0.068	-0.419
-513.843	503.502	0.096	0.222
-512.829	-119.221	0.327	0.057
-511.814	-200.000	-0.012	-0.262
-510.799	-41.150	-0.218	-0.113
-509.785	-200.000	-0.011	-0.401
-508.770	-53.460	-0.297	-0.136
-507.756	448.539	-0.131	0.290
-506.741	-55.546	-0.230	0.103
-505.726	29.608	0.326	0.277
-504.712	-200.000	0.011	0.233
-503.697	218.400	0.094	-0.150
-502.683	-200.000	-0.030	-0.299
-501.668	14.988	-0.295	-0.231
-500.653	54.943	0.018	0.017
-499.639	-52.758	0.268	-0.124
-498.624	26.164	0.120	0.100
-497.610	6.315	-0.166	0.123
-496.595	-200.000	0.004	-0.079
-495.581	-82.480	0.093	-0.030
-494.566	-105.324	-0.174	0.040
-493.551	-200.000	0.013	0.223
-492.537	-200.000	0.025	-0.130
-491.522	-89.853	-0.149	0.043
-490.508	-200.000	-0.007	-0.071
-489.493	55.607	0.059	-0.057
-488.478	60.175	0.228	-0.225
-487.464	-45.197	-0.286	0.142
-486.449	-64.611	0.274	0.111
-485.435	-9.174	-0.226	0.151
-484.420	-200.000	0.001	-0.270
-483.405	-65.122	-0.138	-0.056
-482.391	73.512	0.096	-0.101
-481.376	97.253	-0.087	-0.100
-480.362	-176.915	0.041	0.001
-479.347	-128.683	-0.116	-0.016
-478.332	-59.359	0.139	0.060
-477.318	101.273	0.049	0.057
-476.303	-99.927	0.492	-0.123
-475.289	106.863	-0.124	0.148
-474.274	800.000	-0.092	0.335
-473.259	68.706	0.122	-0.125
-472.245	-153.268	0.361	-0.025
-471.230	-200.000	-0.006	0.064
-470.216	-200.000	-0.045	-0.256
-469.201	800.000	0.033	0.106
-468.186	-153.211	-0.233	-0.016
-467.172	-118.688	-0.197	0.035
-466.157	280.873	-0.080	0.143
-465.143	-18.151	0.165	0.103
-464.128	-67.045	0.169	-0.067
-463.113	338.225	0.074	-0.145
-462.099	-103.031	-0.208	-0.049
-461.084	-196.872	0.322	0.002
-460.070	-25.220	-0.114	-0.067
-459.055	222.809	0.209	-0.337
-458.040	800.000	-0.043	-0.184
-457.026	183.706	0.258	0.381
-456.011	800.000	-0.095	-0.347
-454.997	83.694	0.130	0.142
-453.982	-117.238	-0.106	-0.019
-452.968	-200.000	-0.054	-0.365
-451.953	267.741	-0.102	-0.178
-450.938	-90.134	0.288	0.084
-449.924	33.099	0.078	-0.067
-448.909	27.725	-0.207	-0.174
-447.895	-38.872	-0.157	-0.082
-446.880	800.000	-0.071	0.197
-445.865	281.619	0.125	-0.223
-444.851	-108.501	0.325	0.070
-443.836	286.569	0.051	0.093
-442.822	69.151	0.151	-0.155
-441.807	166.903	0.182	0.258
-440.792	69.504	0.327	0.337
-439.778	-107.542	0.087	0.019
-438.763	182.352	-0.122	-0.180
-437.749	-200.000	0.033	0.156
-436.734	-73.851	0.330	-0.120
-435.719	-144.933	-0.133	-0.012
-434.705	97.723	-0.125	-0.143
-433.690	800.000	0.080	0.245
-432.676	-200.000	-0.068	-0.305
-431.661	335.438	-0.044	-0.085
-430.646	160.211	-0.077	-0.108
-429.632	-134.294	0.333	-0.041
-428.617	-53.799	-0.089	0.041
-427.603	432.299	-0.078	-0.169
-426.588	800.000	0.041	0.123
-425.573	-200.000	0.047	0.397
-424.559	-111.099	0.052	0.011
-423.544	-158.610	0.142	-0.008
-422.530	-200.000	-0.336	0.001
-421.515	-200.000	-0.002	0.046
-420.500	-32.817	-0.113	-0.063
-419.486	232.054	-0.125	-0.204
-418.471	-26.987	-0.094	-0.055
-417.457	716.090	0.113	0.298
-416.442	-200.000	0.011	0.061
-415.428	-70.913	-0.045	-0.017
-414.413	-200.000	0.005	-0.220
-413.398	-118.319	-0.501	0.089
-412.384	-49.213	-0.366	-0.175
-411.369	65.171	0.174	-0.175
-410.355	379.959	-0.083	0.170
-409.340	228.610	0.153	-0.249
-408.325	5.622	-0.249	-0.183
-407.311	-59.855	-0.042	0.018
-406.296	-88.981	-0.330	0.098
-405.282	-178.134	0.271	-0.006
-404.267	-44.321	0.176	-0.088
-403.252	-200.000	0.050	0.306
-402.238	800.000	-0.046	0.153
-401.223	-94.241	-0.136	-0.037
-400.209	594.657	-0.053	-0.130
-399.194	-106.533	-0.165	-0.037
-398.179	-112.019	0.092	-0.018
-397.165	-34.575	0.258	0.141
-396.150	-137.388	0.174	-0.020
-395.136	-176.374	-0.234	0.006
-394.121	-121.088	-0.259	0.043
-393.106	61.122	-0.134	-0.133
-392.092	-200.000	-0.002	0.093
-391.077	-200.000	-0.067	0.345
-390.063	-86.850	0.146	0.045
-389.048	198.909	0.168	0.257
-388.033	-200.000	0.105	0.482
-387.019	-176.009	0.365	-0.010
-386.004	653.979	0.057	0.146
-384.990	358.202	-0.108	0.214
-383.975	-153.443	-0.258	0.018
-382.960	-194.568	-0.189	-0.001
-381.946	-118.833	-0.116	0.020
-380.931	-200.000	-0.005	0.150
-379.917	-21.693	-0.133	0.081
-378.902	800.000	0.017	-0.052
-377.888	-200.000	-0.025	-0.248
-376.873	-135.206	-0.478	-0.057
-375.858	-100.275	-0.161	0.040
-374.844	-200.000	-0.024	-0.114
-373.829	-2.896	-0.153	0.106
-372.815	-200.000	-0.051	-0.403
-371.800	43.648	-0.215	-0.196
-370.785	-117.305	0.163	-0.030
-369.771	382.252	-0.109	-0.223
-368.756	53.151	-0.206	0.197
-367.742	-146.060	0.230	-0.020
-366.727	-79.263	0.151	-0.051
-365.712	-200.000	-0.087	0.422
-364.698	800.000	0.065	-0.179
-363.683	187.481	-0.151	-0.225
-362.669	-55.179	-0.212	-0.095
-361.654	77.505	0.038	0.040
-360.639	-65.334	-0.237	0.095
-359.625	0.119	0.171	0.121
-358.610	-200.000	0.005	-0.045
-357.596	-1.012	-0.228	0.161
-356.581	420.342	0.141	0.302
-355.566	9.343	-0.096	-0.072
-354.552	-161.724	0.143	0.007
-353.537	800.000	-0.078	0.238
-352.523	-160.669	0.255	-0.013
-351.508	-131.576	-0.163	-0.021
-350.493	-8.565	0.177	0.118
-349.479	-200.000	-0.056	-0.452
-348.464	-106.348	0.282	-0.063
-347.450	-200.000	0.000	-0.003
-346.435	-200.000	0.018	-0.251
-345.420	-200.000	0.043	-0.276
-344.406	40.776	-0.230	-0.206
-343.391	-4.208	-0.222	-0.153
-342.377	-91.210	-0.347	-0.099
-341.362	-200.000	0.018	0.146
-340.348	-45.068	-0.267	-0.132
-339.333	-9.749	0.034	-0.022
-338.318	-200.000	-0.019	0.160
-337.304	-85.405	0.199	0.062
-336.289	-200.000	-0.035	-0.168
-335.275	531.808	0.036	0.085
-334.260	-112.668	0.283	-0.056
-333.245	104.546	-0.092	0.108
-332.231	-200.000	-0.036	0.260
-331.216	800.000	0.031	-0.130
-330.202	-200.000	0.014	-0.234
-329.187	214.877	0.039	0.062
-328.172	-33.086	0.039	0.021
-327.158	-200.000	-0.064	-0.309
-326.143	-33.789	-0.126	0.069
-325.129	-78.153	0.133	-0.045
-324.114	-58.405	0.045	0.019
-323.099	-101.127	0.215	-0.052
-322.085	-163.497	0.195	-0.009
-321.070	-117.692	0.195	-0.035
-320.056	-108.591	-0.056	0.012
-319.041	800.000	-0.011	0.037
-318.026	9.262	0.197	0.148
-317.012	230.769	-0.110	0.180
-315.997	8.421	0.177	0.133
-314.983	244.505	-0.053	0.089
-313.968	-55.889	-0.406	0.180
-312.953	37.403	0.163	0.144
-311.939	-200.000	-0.022	0.162
-310.924	-90.631	0.240	-0.069
-309.910	586.970	0.120	0.294
-308.895	223.128	0.055	0.089
-307.880	-77.121	0.245	0.085
-306.866	-4.036	-0.079	-0.054
-305.851	-200.000	-0.009	-0.060
-304.837	-98.348	0.165	0.042
-303.822	-200.000	-0.045	-0.292
-302.807	0.962	-0.059	-0.042
-301.793	216.231	-0.097	-0.154
-300.778	8.515	0.252	-0.189
-299.764	-109.487	0.177	-0.037
-298.749	800.000	0.082	-0.237
-297.735	64.182	-0.048	0.048
-296.720	800.000	-0.084	0.327
-295.705	384.388	-0.019	-0.039
-294.691	-125.822	0.232	0.035
-293.676	99.087	-0.190	0.218
-292.662	-200.000	-0.033	0.147
-291.647	76.949	0.242	-0.255
-290.632	-200.000	-0.026	-0.129
-289.618	-200.000	0.054	0.281
-288.603	-50.268	0.284	-0.133
-287.589	-80.030	0.366	0.122
-286.574	800.000	-0.046	0.170
-285.559	201.529	-0.065	0.099
-284.545	319.232	0.130	-0.245
-283.530	-56.440	-0.132	-0.058
-282.516	-28.802	0.101	-0.058
-281.501	109.669	-0.062	-0.073
-280.486	284.843	0.197	0.353
-279.472	-137.511	-0.256	0.029
-278.457	71.229	-0.069	-0.071
-277.443	-200.000	0.012	-0.285
-276.428	-200.000	0.037	-0.233
-275.413	-200.000	-0.031	0.184
-274.399	800.000	-0.029	-0.123
-273.384	800.000	-0.087	-0.324
-272.370	-136.214	-0.134	-0.016
-271.355	-91.385	0.213	0.060
-270.340	800.000	-0.055	-0.227
-269.326	183.364	-0.126	0.184
-268.311	-33.719	-0.109	0.060
-267.297	-10.243	0.321	0.211
-266.282	-200.000	0.017	0.459
-265.267	-141.068	-0.324	-0.033
-264.253	-1.073	0.033	-0.023
-263.238	-76.456	0.282	-0.098
-262.224	81.080	0.127	-0.136
-261.209	800.000	0.146	0.440
-260.195	-22.338	-0.409	0.246
-259.180	-172.978	-0.227	-0.007
-258.165	-93.801	0.098	-0.027
-257.151	602.301	-0.097	0.239
-256.136	352.115	-0.190	0.374
-255.122	685.699	0.096	-0.248
-254.107	-15.323	-0.177	0.112
-253.092	-45.102	-0.121	0.060
-252.078	45.894	0.186	0.171
-251.063	800.000	-0.090	-0.257
-250.049	366.973	0.093	-0.187
-249.034	3.951	0.144	-0.104
-248.019	-132.878	0.244	0.031
-247.005	89.619	0.099	-0.110
-245.990	-39.553	0.427	-0.222
-244.976	64.381	-0.219	0.218
-243.961	-75.757	-0.406	-0.143
-242.946	16.519	0.243	-0.190
-241.932	72.767	-0.106	-0.110
-240.917	-103.187	-0.100	0.023
-239.903	-200.000	-0.006	-0.078
-238.888	-54.713	0.184	0.082
-237.873	-159.588	-0.140	-0.008
-236.859	45.491	-0.091	-0.083
-235.844	-200.000	0.020	0.147
-234.830	200.129	-0.071	0.108
-233.815	-200.000	0.032	-0.173
-232.800	-102.186	-0.205	-0.049
-231.786	-73.514	-0.381	0.138
-230.771	-36.101	0.124	0.066
-229.757	0.537	-0.033	0.023
-228.742	103.889	-0.192	0.224
-227.727	339.899	0.150	0.290
-226.713	800.000	0.040	0.118
-225.698	127.760	-0.108	0.136
-224.684	137.084	-0.076	0.098
-223.669	-200.000	0.007	0.184
-222.655	-200.000	-0.011	0.100
-221.640	-200.000	-0.014	0.273
-220.625	242.851	-0.103	0.170
-219.611	268.697	-0.083	-0.144
-218.596	177.683	0.155	0.223
-217.582	-200.000	0.002	-0.221
-216.567	218.254	0.084	0.134
-215.552	-25.833	0.376	-0.219
-214.538	-134.585	-0.086	0.010
-213.523	55.149	-0.147	0.141
-212.509	12.520	0.164	0.126
-211.494	-81.486	-0.174	-0.057
-210.479	550.718	0.156	0.370
-209.465	144.977	-0.059	0.078
-208.450	245.024	0.098	-0.163
-207.436	-130.418	0.124	0.017
-206.421	-86.784	-0.260	-0.079
-205.406	-200.000	0.018	-0.344
-204.392	778.844	0.067	0.180
-203.377	-200.000	-0.053	-0.296
-202.363	-200.000	0.035	0.294
-201.348	-100.375	-0.113	0.028
-200.333	46.076	0.046	0.042
-199.319	-111.362	0.553	-0.112
-198.304	-104.132	0.248	-0.057
-197.290	-11.102	0.164	-0.107
-196.275	-120.224	-0.367	-0.062
-195.260	800.000	-0.055	-0.207
-194.246	-200.000	0.001	0.128
-193.231	-109.098	-0.298	-0.063
-192.217	583.506	0.130	0.316
-191.202	-100.533	0.173	0.042
-190.187	512.237	-0.083	-0.192
-189.173	172.071	-0.186	-0.265
-188.158	474.651	-0.215	-0.480
-187.144	-200.000	-0.031	-0.145
-186.129	-200.000	-0.001	-0.433
-185.114	338.269	-0.108	0.208
-184.100	-68.184	0.079	0.031
-183.085	800.000	-0.019	0.063
-182.071	-63.954	0.240	-0.097
-181.056	-64.237	0.265	0.107
-180.042	-123.719	-0.496	-0.078
-179.027	33.452	0.245	0.211
-178.012	-143.789	0.049	0.005
-176.998	51.409	0.284	0.267
-175.983	208.802	0.123	-0.190
-174.969	-200.000	-0.011	0.102
-173.954	-146.687	-0.213	0.018
-172.939	182.977	0.140	0.204
-171.925	-24.835	0.079	0.046
-170.910	-200.000	0.026	0.317
-169.896	273.104	-0.123	-0.215
-168.881	629.287	-0.038	0.095
-167.866	-200.000	0.040	-0.332
-166.852	97.448	0.091	0.104
-165.837	35.526	-0.055	-0.048
-164.823	-160.112	-0.085	-0.005
-163.808	13.414	-0.257	0.197
-162.793	-73.822	-0.264	-0.095
-161.779	-200.000	-0.007	0.431
-160.764	302.656	-0.134	0.245
-159.750	-112.853	-0.211	0.041
-158.735	-73.139	0.154	0.056
-157.720	358.430	-0.077	-0.152
-156.706	-27.719	-0.630	-0.361
-155.691	-200.000	-0.007	-0.064
-154.677	-134.466	-0.303	0.037
-153.662	107.139	-0.135	0.159
-152.647	-200.000	0.014	0.189
-151.633	-88.530	-0.214	-0.063
-150.618	-34.135	0.224	0.122
-149.604	80.214	-0.073	0.078
-148.589	104.819	-0.222	-0.258
-147.574	-155.823	-0.202	0.013
-146.560	23.332	-0.074	-0.060
-145.545	800.000	0.175	-0.602
-144.531	800.000	-0.093	0.350
-143.516	-200.000	-0.023	-0.195
-142.502	-22.552	0.485	0.290
-141.487	571.446	0.057	0.138
-140.472	-200.000	0.028	0.406
-139.458	365.054	0.074	0.147
-138.443	-143.104	-0.082	-0.008
-137.429	213.159	0.249	0.389
-136.414	-1.487	-0.149	-0.104
-135.399	635.418	-0.071	0.179
-134.385	173.761	0.186	0.265
-133.370	190.710	0.087	0.130
-132.356	-42.492	0.301	-0.151
-131.341	800.000	0.065	0.242
-130.326	-97.190	0.206	-0.053
-129.312	-43.975	0.149	-0.074
-128.297	39.101	-0.186	-0.164
-127.283	260.516	-0.086	0.146
-126.268	-101.099	0.084	-0.020
-125.253	-22.047	0.280	0.168
-124.239	599.916	-0.126	0.307
-123.224	415.075	0.074	-0.156
-122.210	-47.344	0.076	-0.037
