DTS Sentinel unit serial number:	SN413079Multiplexer serial number:	ORYXHardware model number:	OX4-SRSoftware version number:	ORYX F/W v4.00 Oryx Data Collector v3.7.2.0data status	okinstallation	princeton_trtdifferential loss correction	single-endedforward channel	channel 4reverse channel	N/Adate	2019/09/14time	18:17:34forward acquisition time	60.00reverse acquisition time	0.00gamma	496.2192k internal	0.2298k external	0.2298temperature offset calibration	1.0107default loss term (dB/km)	0.3790temperature slope calibration	1.0000multiplexer offset coefficient	1.0000multiplexer slope coefficient	1.0000fibre end	0.00T internal ref (°C)	36.97T ext. ref 1 (°C)	4.97T ext. ref 2 (°C)	31.07length (m)	temperature (°C)	Stokes	anti-Stokes-747.200	2.742	-0.347	0.257
-746.185	-161.389	0.185	0.010
-745.171	22.176	0.064	0.053
-744.156	539.283	-0.213	0.516
-743.142	-83.643	-0.068	-0.022
-742.127	125.354	0.071	-0.091
-741.112	-133.141	0.219	0.028
-740.098	91.580	-0.216	0.248
-739.083	312.801	0.121	-0.231
-738.069	604.123	0.118	0.299
-737.054	120.321	0.089	-0.113
-736.039	-24.962	-0.078	-0.047
-735.025	-76.997	0.126	-0.045
-734.010	-200.000	0.028	-0.378
-732.996	-99.828	-0.262	0.067
-731.981	28.207	-0.125	-0.108
-730.966	29.397	0.181	0.157
-729.952	698.956	-0.081	-0.217
-728.937	-58.963	-0.169	0.075
-727.923	185.045	-0.151	-0.228
-726.908	-98.722	0.310	0.081
-725.894	33.746	-0.039	0.034
-724.879	-200.000	-0.009	-0.081
-723.864	104.055	0.116	-0.139
-722.850	-165.415	0.218	0.010
-721.835	-133.124	-0.348	-0.045
-720.821	-148.916	0.148	-0.012
-719.806	166.539	-0.226	0.326
-718.791	-84.555	0.323	0.104
-717.777	-16.068	-0.083	0.054
-716.762	14.439	0.143	-0.114
-715.748	23.471	-0.188	-0.157
-714.733	-39.921	-0.188	0.100
-713.718	-146.689	-0.168	-0.015
-712.704	39.784	-0.143	0.131
-711.689	-200.000	-0.050	0.305
-710.675	800.000	-0.019	-0.069
-709.660	-86.336	0.202	-0.063
-708.645	-200.000	0.009	0.187
-707.631	-70.485	0.174	-0.067
-706.616	-62.297	-0.106	-0.045
-705.602	-47.411	0.275	0.136
-704.587	139.941	0.104	0.140
-703.572	-165.982	-0.290	-0.013
-702.558	-11.392	-0.287	0.192
-701.543	281.975	0.086	-0.157
-700.529	278.312	-0.102	0.185
-699.514	43.856	-0.125	-0.117
-698.499	-5.146	-0.223	0.156
-697.485	-200.000	0.013	-0.070
-696.470	-200.000	0.016	-0.119
-695.456	41.173	-0.165	0.152
-694.441	-200.000	0.076	-0.419
-693.426	39.269	0.129	0.118
-692.412	5.438	-0.196	-0.148
-691.397	143.098	-0.235	-0.318
-690.383	-200.000	-0.024	0.163
-689.368	106.459	-0.148	0.178
-688.354	-43.143	-0.188	0.097
-687.339	-80.956	-0.253	0.086
-686.324	-60.582	-0.068	0.029
-685.310	50.930	0.122	0.118
-684.295	800.000	0.034	-0.115
-683.281	797.721	0.163	-0.458
-682.266	-200.000	-0.004	0.202
-681.251	-59.920	-0.124	0.054
-680.237	-56.837	-0.097	0.044
-679.222	241.354	0.132	-0.224
-678.208	294.569	-0.069	-0.128
-677.193	-113.374	0.166	0.033
-676.178	-16.290	0.078	0.051
-675.164	96.492	-0.170	0.198
-674.149	-159.495	0.308	0.017
-673.135	-13.586	-0.232	-0.153
-672.120	46.442	-0.137	-0.129
-671.105	-62.701	-0.329	0.139
-670.091	615.972	0.057	-0.146
-669.076	-13.398	-0.162	-0.107
-668.062	-113.351	-0.267	-0.053
-667.047	66.737	-0.144	0.149
-666.032	-200.000	-0.008	0.283
-665.018	749.457	0.025	-0.069
-664.003	800.000	-0.013	-0.058
-662.989	-200.000	0.016	0.103
-661.974	-30.640	0.140	0.081
-660.959	-18.290	-0.163	-0.103
-659.945	-28.460	-0.249	0.146
-658.930	-41.355	0.022	0.012
-657.916	-49.125	-0.387	0.189
-656.901	-73.842	0.030	0.011
-655.886	800.000	-0.035	0.146
-654.872	-200.000	0.039	-0.225
-653.857	418.699	-0.022	-0.047
-652.843	219.495	-0.088	0.144
-651.828	-200.000	-0.014	0.063
-650.814	153.999	-0.184	0.257
-649.799	-161.762	0.124	-0.006
-648.784	28.472	-0.128	0.110
-647.770	-200.000	0.009	0.170
-646.755	20.347	-0.116	-0.095
-645.741	104.013	0.020	-0.024
-644.726	2.450	0.248	-0.182
-643.711	479.037	0.088	0.203
-642.697	-200.000	0.000	-0.141
-641.682	-62.463	-0.034	-0.014
-640.668	-77.466	-0.213	-0.075
-639.653	-142.076	0.334	0.034
-638.638	-79.299	0.157	0.054
-637.624	75.024	0.139	0.149
-636.609	619.751	-0.060	0.153
-635.595	-200.000	-0.042	0.229
-634.580	7.434	0.226	-0.171
-633.565	-94.757	-0.290	0.080
-632.551	-142.783	0.196	0.019
-631.536	210.664	0.146	0.233
-630.522	-61.233	-0.086	0.037
-629.507	228.959	0.053	0.088
-628.492	-198.710	0.103	0.001
-627.478	-200.000	0.008	-0.295
-626.463	351.766	-0.160	0.322
-625.449	104.337	-0.093	-0.112
-624.434	29.053	0.150	-0.129
-623.419	345.052	-0.167	0.333
-622.405	-33.483	0.136	0.077
-621.390	-200.000	-0.027	-0.122
-620.376	136.340	-0.066	0.088
-619.361	512.771	0.152	-0.359
-618.346	-2.868	0.116	0.083
-617.332	-60.943	-0.150	0.065
-616.317	-54.885	0.136	0.062
-615.303	-38.271	-0.178	0.096
-614.288	655.308	-0.091	-0.238
-613.273	232.955	0.169	0.283
-612.259	-27.972	0.037	-0.022
-611.244	400.811	-0.045	-0.096
-610.230	81.798	0.273	0.300
-609.215	-200.000	0.024	-0.297
-608.201	158.211	0.052	-0.073
-607.186	800.000	-0.010	-0.033
-606.171	13.409	-0.145	-0.114
-605.157	143.433	0.225	-0.304
-604.142	-126.271	-0.272	0.041
-603.128	51.204	0.063	0.060
-602.113	-81.136	-0.085	-0.029
-601.098	485.096	-0.066	0.153
-600.084	163.988	0.125	0.179
-599.069	-44.337	-0.234	0.119
-598.055	-47.831	-0.190	0.093
-597.040	-59.242	-0.128	-0.056
-596.025	39.899	0.020	0.018
-595.011	150.091	-0.229	0.315
-593.996	-95.463	-0.242	-0.066
-592.982	43.183	-0.079	-0.074
-591.967	-67.819	0.042	0.017
-590.952	619.447	-0.164	-0.419
-589.938	30.076	0.092	-0.080
-588.923	65.448	-0.152	-0.156
-587.909	-154.900	0.348	0.023
-586.894	-97.015	0.089	0.024
-585.879	-200.000	0.034	0.368
-584.865	-200.000	0.000	-0.195
-583.850	795.314	0.063	-0.175
-582.836	-130.472	-0.154	-0.021
-581.821	474.483	0.134	-0.308
-580.806	800.000	-0.027	0.119
-579.792	800.000	0.073	-0.239
-578.777	-158.217	0.206	-0.012
-577.763	800.000	-0.060	0.189
-576.748	800.000	0.019	0.068
-575.733	45.695	0.372	0.349
-574.719	24.652	-0.230	0.193
-573.704	97.924	0.098	0.114
-572.690	-34.749	0.186	-0.103
-571.675	100.369	-0.075	0.088
-570.661	-200.000	0.017	-0.293
-569.646	576.110	-0.187	-0.464
-568.631	-200.000	0.024	-0.236
-567.617	-200.000	0.016	0.304
-566.602	34.086	0.072	0.063
-565.588	800.000	-0.028	-0.114
-564.573	-200.000	-0.003	-0.306
-563.558	-87.113	0.348	0.107
-562.544	-75.191	-0.451	0.163
-561.529	-200.000	-0.033	0.422
-560.515	-161.968	-0.020	0.001
-559.500	-14.449	-0.263	0.171
-558.485	77.855	0.083	-0.090
-557.471	110.169	-0.032	0.039
-556.456	248.422	-0.131	-0.224
-555.442	-200.000	-0.046	0.264
-554.427	-200.000	0.044	-0.299
-553.412	-98.244	-0.179	-0.047
-552.398	73.346	0.047	-0.050
-551.383	-4.616	-0.039	-0.027
-550.369	190.620	0.140	-0.213
-549.354	170.596	0.208	-0.302
-548.339	420.351	0.052	0.112
-547.325	-81.551	0.286	0.095
-546.310	203.340	0.092	0.144
-545.296	800.000	-0.141	0.399
-544.281	-41.617	-0.271	-0.141
-543.266	-8.521	-0.214	-0.146
-542.252	-45.627	0.212	-0.106
-541.237	-13.521	-0.215	-0.141
-540.223	124.258	-0.182	0.232
-539.208	-107.189	-0.145	-0.032
-538.193	-123.380	-0.307	0.050
-537.179	-200.000	-0.039	-0.197
-536.164	127.942	-0.156	-0.201
-535.150	-67.443	0.315	-0.125
-534.135	800.000	-0.018	0.052
-533.121	-200.000	0.019	0.159
-532.106	280.800	-0.064	0.116
-531.091	88.816	-0.237	0.267
-530.077	-200.000	0.026	-0.117
-529.062	-133.968	0.109	-0.014
-528.048	-200.000	-0.008	-0.145
-527.033	-200.000	0.064	-0.315
-526.018	25.788	0.110	0.093
-525.004	134.235	-0.220	-0.288
-523.989	-89.890	-0.200	-0.059
-522.975	267.703	-0.106	0.188
-521.960	-182.666	-0.179	-0.003
-520.945	-58.733	-0.216	-0.095
-519.931	-47.047	0.312	0.154
-518.916	-43.528	-0.286	0.146
-517.902	-64.954	0.159	-0.065
-516.887	-109.758	-0.133	-0.028
-515.872	800.000	-0.041	0.142
-514.858	-66.058	-0.142	-0.058
-513.843	-200.000	0.018	0.206
-512.829	-82.742	-0.157	0.051
-511.814	85.398	-0.215	-0.239
-510.799	-69.191	0.105	0.041
-509.785	63.330	-0.178	0.180
-508.770	135.835	-0.157	0.207
-507.756	432.176	0.066	0.145
-506.741	355.552	0.055	-0.110
-505.726	571.956	-0.099	-0.245
-504.712	-141.195	0.114	-0.012
-503.697	80.498	-0.049	-0.053
-502.683	-171.561	0.013	0.000
-501.668	216.532	-0.042	0.067
-500.653	-89.659	-0.185	-0.055
-499.639	800.000	-0.015	0.046
-498.624	99.191	-0.133	0.156
-497.610	243.329	-0.058	-0.098
-496.595	800.000	-0.071	0.276
-495.581	-200.000	-0.009	0.316
-494.566	18.375	0.290	-0.234
-493.551	-108.075	-0.080	0.018
-492.537	-80.795	-0.137	0.046
-491.522	-26.034	-0.123	0.073
-490.508	800.000	0.127	0.537
-489.493	100.793	-0.077	0.091
-488.478	800.000	-0.027	0.089
-487.464	-108.648	-0.269	0.058
-486.449	-200.000	-0.008	0.160
-485.435	800.000	0.011	0.048
-484.420	800.000	0.041	0.116
-483.405	-79.132	0.218	0.075
-482.391	-200.000	-0.056	-0.315
-481.376	-36.000	-0.168	0.092
-480.362	241.772	0.131	-0.221
-479.347	47.990	0.303	0.286
-478.332	486.590	0.176	0.406
-477.318	151.243	0.245	0.336
-476.303	46.567	-0.198	0.185
-475.289	800.000	-0.073	0.241
-474.274	-50.444	-0.368	-0.175
-473.259	800.000	0.052	-0.180
-472.245	-200.000	0.062	-0.481
-471.230	-53.503	-0.002	0.001
-470.216	-90.098	-0.077	-0.023
-469.201	15.235	0.465	-0.368
-468.186	-162.278	-0.353	0.018
-467.172	-142.131	0.083	-0.008
-466.157	800.000	0.038	0.119
-465.143	800.000	0.017	-0.061
-464.128	-200.000	0.029	-0.523
-463.113	-3.008	0.033	0.024
-462.099	513.385	-0.053	-0.126
-461.084	177.570	0.123	-0.181
-460.070	7.054	0.259	-0.195
-459.055	-85.848	0.117	0.037
-458.040	-111.631	-0.470	-0.096
-457.026	611.717	-0.036	0.090
-456.011	-200.000	-0.025	0.122
-454.997	-33.886	-0.335	0.186
-453.982	382.143	-0.053	0.110
-452.968	-200.000	-0.027	0.215
-451.953	62.303	-0.218	-0.220
-450.938	-108.075	-0.164	0.036
-449.924	-200.000	-0.012	0.141
-448.909	-200.000	-0.048	-0.248
-447.895	128.300	0.098	0.126
-446.880	-65.810	0.329	-0.133
-445.865	538.747	0.106	0.253
-444.851	232.446	0.114	0.189
-443.836	29.630	-0.257	-0.220
-442.822	24.086	0.054	-0.045
-441.807	77.977	0.044	0.047
-440.792	74.192	-0.098	0.103
-439.778	-97.388	0.431	-0.113
-438.763	-200.000	-0.068	-0.333
-437.749	-128.855	-0.375	0.053
-436.734	254.716	-0.175	0.302
-435.719	-79.851	0.195	0.066
-434.705	-151.196	0.211	0.016
-433.690	-110.345	0.335	-0.070
-432.676	800.000	0.028	0.080
-431.661	27.102	0.128	0.108
-430.646	-200.000	-0.003	0.092
-429.632	-81.960	0.280	0.092
-428.617	-87.936	0.267	0.081
-427.603	166.930	-0.050	-0.071
-426.588	-200.000	0.010	0.426
-425.573	139.647	0.289	0.383
-424.559	528.948	0.066	-0.156
-423.544	-98.781	-0.352	0.090
-422.530	800.000	0.022	-0.075
-421.515	-15.287	0.135	-0.087
-420.500	-11.958	0.154	-0.102
-419.486	41.986	0.256	-0.234
-418.471	800.000	-0.086	0.332
-417.457	-83.084	-0.482	0.156
-416.442	111.030	-0.157	-0.191
-415.428	41.217	-0.097	-0.088
-414.413	142.105	0.104	-0.138
-413.398	56.163	-0.195	0.191
-412.384	64.497	-0.172	0.175
-411.369	-200.000	0.034	-0.262
-410.355	-100.904	0.081	0.020
-409.340	140.716	0.188	0.251
-408.325	100.131	0.342	-0.399
-407.311	-180.797	-0.029	-0.001
-406.296	-200.000	0.033	0.360
-405.282	-14.945	-0.316	0.204
-404.267	-186.426	-0.367	0.005
-403.252	1.041	0.212	-0.153
-402.238	-77.514	0.228	-0.079
-401.223	800.000	-0.101	-0.286
-400.209	-53.104	-0.138	-0.064
-399.194	139.171	0.143	-0.190
-398.179	-99.721	-0.360	0.091
-397.165	-115.630	0.089	0.017
-396.150	80.406	-0.254	-0.276
-395.136	287.402	-0.082	-0.150
-394.121	125.281	0.245	0.311
-393.106	-45.154	-0.130	-0.065
-392.092	-128.236	0.049	0.007
-391.077	-117.272	-0.228	-0.042
-390.063	-200.000	-0.050	0.271
-389.048	-108.683	-0.195	0.042
-388.033	-142.062	0.023	0.002
-387.019	-127.501	0.017	-0.003
-386.004	577.945	-0.076	0.188
-384.990	47.742	-0.136	0.127
-383.975	-81.765	-0.203	-0.067
-382.960	-55.323	-0.187	0.085
-381.946	-200.000	0.057	0.292
-380.931	-147.021	0.101	-0.009
-379.917	-11.020	-0.325	-0.216
-378.902	-6.469	-0.099	-0.068
-377.888	-200.000	0.029	0.159
-376.873	79.933	0.226	0.245
-375.858	-92.584	0.318	0.090
-374.844	-200.000	0.055	-0.375
-373.829	367.084	-0.174	0.354
-372.815	800.000	0.071	0.260
-371.800	-200.000	-0.015	0.131
-370.785	-200.000	0.014	0.143
-369.771	-161.038	-0.390	0.021
-368.756	-101.313	-0.108	-0.026
-367.742	651.145	-0.022	-0.057
-366.727	-56.322	-0.180	-0.081
-365.712	-35.902	0.084	-0.046
-364.698	-121.696	0.110	0.018
-363.683	-111.563	0.146	0.030
-362.669	157.464	0.095	-0.132
-361.654	310.175	0.038	-0.071
-360.639	-122.327	-0.143	0.023
-359.625	-200.000	0.054	0.347
-358.610	-94.714	-0.337	0.092
-357.596	200.733	-0.156	0.242
-356.581	128.183	-0.145	-0.185
-355.566	-43.341	-0.183	-0.093
-354.552	357.867	-0.078	0.156
-353.537	-85.658	0.083	-0.026
-352.523	-200.000	-0.027	-0.190
-351.508	-65.715	0.260	-0.105
-350.493	-33.223	0.233	-0.130
-349.479	800.000	0.026	0.089
-348.464	-200.000	0.021	0.294
-347.450	70.298	-0.236	0.245
-346.435	800.000	-0.028	0.101
-345.420	-200.000	0.027	-0.205
-344.406	-151.915	0.131	0.010
-343.391	24.688	0.385	0.321
-342.377	28.236	0.333	-0.283
-341.362	800.000	0.086	-0.292
-340.348	800.000	-0.029	-0.097
-339.333	759.167	-0.085	0.230
-338.318	-135.852	-0.355	0.042
-337.304	106.101	-0.172	-0.205
-336.289	-200.000	0.024	-0.146
-335.275	-39.078	-0.096	-0.051
-334.260	-118.663	0.141	-0.025
-333.245	-133.488	0.066	0.008
-332.231	73.258	-0.073	-0.076
-331.216	555.184	0.147	-0.356
-330.202	515.404	0.074	-0.173
-329.187	352.674	-0.065	0.130
-328.172	225.517	0.074	0.121
-327.158	25.649	-0.052	-0.043
-326.143	-165.284	-0.134	0.006
-325.129	-64.893	0.239	0.097
-324.114	230.728	0.277	-0.454
-323.099	-200.000	-0.057	-0.466
-322.085	-101.714	0.239	-0.058
-321.070	57.792	0.245	0.241
-320.056	517.811	0.015	0.035
-319.041	800.000	-0.073	-0.203
-318.026	-181.267	-0.232	-0.005
-317.012	-113.599	0.131	-0.026
-315.997	-101.609	0.110	-0.027
-314.983	39.442	0.087	-0.078
-313.968	-37.505	0.061	-0.033
-312.953	-200.000	-0.013	0.061
-311.939	800.000	-0.111	0.350
-310.924	-64.482	-0.168	0.069
-309.910	-77.164	0.265	-0.093
-308.895	348.751	-0.079	0.157
-307.880	247.134	-0.175	0.297
-306.866	437.112	-0.148	-0.323
-305.851	550.197	0.045	-0.108
-304.837	-164.318	0.192	0.009
-303.822	654.264	0.078	0.200
-302.807	0.683	0.190	-0.137
-301.793	-200.000	0.007	-0.170
-300.778	-115.167	-0.308	0.059
-299.764	-200.000	0.168	0.000
-298.749	-58.570	0.256	-0.111
-297.735	-93.620	-0.074	-0.020
-296.720	800.000	-0.140	0.443
-295.705	108.201	0.144	-0.172
-294.691	-170.707	-0.457	0.016
-293.676	-24.274	0.083	0.050
-292.662	-97.770	0.202	-0.053
-291.647	75.838	-0.105	-0.112
-290.632	-200.000	-0.025	-0.234
-289.618	800.000	0.047	-0.133
-288.603	-200.000	0.039	0.207
-287.589	-46.124	0.046	0.023
-286.574	63.118	0.151	0.151
-285.559	-46.738	-0.173	0.085
-284.545	-112.607	0.259	0.052
-283.530	-26.496	-0.145	0.085
-282.516	67.244	-0.132	0.135
-281.501	-82.715	-0.271	-0.088
-280.486	-200.000	0.007	-0.195
-279.472	431.160	0.068	0.148
-278.457	-81.644	-0.170	0.056
-277.443	260.757	0.157	-0.273
-276.428	800.000	0.021	-0.064
-275.413	800.000	0.117	0.332
-274.399	-63.047	0.276	0.114
-273.384	309.898	0.260	0.487
-272.370	800.000	-0.077	-0.323
-271.355	-130.690	0.077	0.010
-270.340	800.000	0.079	0.335
-269.326	-109.397	0.147	0.031
-268.311	316.141	-0.065	0.123
-267.297	-170.055	0.124	0.004
-266.282	-29.256	0.156	0.089
-265.267	800.000	0.032	0.095
-264.253	-58.310	0.176	0.077
-263.238	30.210	0.171	0.146
-262.224	383.914	0.094	-0.195
-261.209	488.895	-0.104	-0.237
-260.195	47.412	-0.037	-0.034
-259.180	129.281	0.104	0.133
-258.165	-72.891	0.211	-0.078
-257.151	800.000	-0.103	-0.295
-256.136	-60.449	-0.261	-0.111
-255.122	5.477	0.353	0.261
-254.107	-121.874	0.444	0.073
-253.092	-61.728	0.180	0.075
-252.078	800.000	0.039	-0.162
-251.063	-89.900	0.327	0.096
-250.049	-200.000	-0.001	0.030
-249.034	4.374	0.222	0.163
-248.019	-102.092	0.143	-0.035
-247.005	-200.000	-0.018	-0.094
-245.990	-200.000	-0.054	-0.244
-244.976	36.801	-0.211	-0.187
-243.961	-22.906	0.129	-0.078
-242.946	-135.367	-0.374	-0.045
-241.932	-124.307	0.172	0.027
-240.917	610.456	-0.120	-0.301
-239.903	-29.033	0.213	-0.123
-238.888	800.000	0.029	-0.120
-237.873	-144.335	-0.039	0.004
-236.859	576.026	-0.147	0.360
-235.844	-64.934	-0.291	0.118
-234.830	516.879	0.030	0.071
-233.815	-200.000	0.000	0.550
-232.800	225.191	0.132	-0.214
-231.786	110.150	-0.140	-0.168
-230.771	120.776	-0.092	-0.114
-229.757	-118.533	-0.085	0.015
-228.742	800.000	0.048	-0.145
-227.727	170.841	-0.078	-0.112
-226.713	800.000	-0.016	0.044
-225.698	-200.000	-0.018	0.219
-224.684	-91.788	0.222	0.063
-223.669	-68.675	-0.138	-0.053
-222.655	-62.415	-0.334	-0.139
-221.640	-66.884	-0.218	0.086
-220.625	259.272	0.089	-0.153
-219.611	-46.923	0.051	-0.025
-218.596	-200.000	0.008	0.132
-217.582	800.000	0.031	-0.133
-216.567	-9.489	0.168	-0.112
-215.552	-200.000	0.056	-0.247
-214.538	765.485	0.087	-0.236
-213.523	298.737	0.067	-0.123
-212.509	184.659	0.171	-0.254
-211.494	-200.000	0.045	0.252
-210.479	-50.255	0.296	0.140
-209.465	-57.253	0.191	0.084
-208.450	800.000	-0.064	-0.211
-207.436	-12.301	-0.251	-0.164
-206.421	20.345	0.055	0.044
-205.406	68.228	-0.267	-0.273
-204.392	310.098	0.063	0.119
-203.377	-105.522	0.178	0.040
-202.363	800.000	0.065	-0.257
-201.348	-5.100	0.088	-0.060
-200.333	213.259	-0.105	0.165
-199.319	298.297	-0.069	-0.128
-198.304	153.494	-0.082	0.112
-197.290	-87.742	-0.297	-0.090
-196.275	-62.754	-0.122	-0.051
-195.260	78.551	0.140	-0.149
-194.246	-43.813	-0.240	0.121
-193.231	-22.020	0.169	0.103
-192.217	-200.000	0.022	-0.294
-191.202	163.301	-0.108	-0.152
-190.187	-126.322	-0.109	-0.016
-189.173	293.401	-0.106	-0.193
-188.158	136.852	-0.063	0.082
-187.144	-124.459	0.345	0.054
-186.129	-104.808	-0.311	0.071
-185.114	-83.176	-0.209	0.067
-184.100	-75.783	0.258	-0.091
-183.085	333.755	-0.129	-0.248
-182.071	114.389	-0.139	0.169
-181.056	-124.333	0.128	0.020
-180.042	-39.636	-0.157	-0.082
-179.027	101.331	-0.061	-0.071
-178.012	800.000	0.082	-0.355
-176.998	-60.630	0.088	-0.037
-175.983	45.150	0.276	-0.254
-174.969	-103.174	0.256	0.060
-173.954	77.547	-0.200	0.213
-172.939	-10.369	0.274	-0.182
-171.925	234.439	0.026	-0.044
-170.910	132.768	-0.106	0.136
-169.896	33.945	0.077	-0.067
-168.881	342.486	0.067	-0.131
-167.866	346.197	0.148	0.291
-166.852	308.710	0.047	-0.088
-165.837	-91.927	-0.163	0.046
-164.823	-58.698	0.279	0.121
-163.808	64.587	0.226	0.228
-162.793	-47.609	-0.338	-0.164
-161.779	546.685	-0.120	0.287
-160.764	-200.000	-0.000	-0.133
-159.750	-87.590	0.143	0.043
-158.735	-200.000	-0.017	-0.120
-157.720	-66.482	0.036	0.014
-156.706	-160.994	0.253	-0.013
-155.691	-155.206	-0.132	-0.009
-154.677	72.915	-0.173	0.181
-153.662	173.916	-0.246	-0.354
-152.647	-200.000	-0.087	-0.391
-151.633	-132.015	0.253	-0.033
-150.618	-200.000	0.020	0.154
-149.604	-108.366	-0.274	0.059
-148.589	81.934	0.150	-0.162
-147.574	-20.907	-0.004	-0.002
-146.560	-128.042	0.336	0.048
-145.545	210.671	-0.042	0.066
-144.531	65.241	-0.136	-0.138
-143.516	111.392	0.175	0.211
-142.502	-200.000	0.024	0.209
-141.487	418.183	-0.026	0.056
-140.472	-81.960	-0.170	0.056
-139.458	-30.277	-0.104	0.059
-138.443	-40.369	-0.174	0.090
-137.429	800.000	-0.044	0.123
-136.414	269.681	0.108	-0.189
-135.399	149.026	-0.077	-0.103
-134.385	800.000	0.079	0.226
-133.370	31.137	-0.207	0.177
-132.356	-34.724	0.382	0.208
-131.341	-200.000	-0.016	0.069
-130.326	-200.000	-0.051	-0.305
-129.312	-182.533	-0.228	-0.004
-128.297	800.000	-0.003	-0.012
-127.283	71.241	-0.180	0.186
-126.268	20.728	-0.152	0.123
-125.253	74.639	0.146	0.153
-124.239	-139.921	0.062	-0.007
-123.224	-167.869	0.291	0.011
-122.210	-76.839	-0.176	-0.061
-121.195	800.000	0.070	0.285
-120.180	-200.000	0.064	0.425
