DTS Sentinel unit serial number:	SN413079Multiplexer serial number:	ORYXHardware model number:	OX4-SRSoftware version number:	ORYX F/W v4.00 Oryx Data Collector v3.7.2.0data status	okinstallation	princeton_trtdifferential loss correction	single-endedforward channel	channel 4reverse channel	N/Adate	2019/09/16time	10:33:35forward acquisition time	60.00reverse acquisition time	0.00gamma	496.2192k internal	0.2299k external	0.2299temperature offset calibration	0.9959default loss term (dB/km)	0.3790temperature slope calibration	1.0000multiplexer offset coefficient	1.0000multiplexer slope coefficient	1.0000fibre end	0.00T internal ref (°C)	35.47T ext. ref 1 (°C)	12.60T ext. ref 2 (°C)	33.76length (m)	temperature (°C)	Stokes	anti-Stokes-747.200	-73.040	-0.321	0.120
-746.185	-200.000	0.017	0.092
-745.171	-191.855	0.190	-0.002
-744.156	-200.000	0.010	0.101
-743.142	800.000	0.033	0.113
-742.127	99.895	-0.177	0.210
-741.112	-200.000	0.046	0.280
-740.098	119.689	0.115	0.145
-739.083	-18.773	-0.263	-0.167
-738.069	-131.666	-0.447	0.060
-737.054	800.000	0.035	-0.129
-736.039	-200.000	0.006	-0.155
-735.025	77.148	-0.096	-0.104
-734.010	-200.000	-0.050	-0.379
-732.996	91.398	-0.185	-0.212
-731.981	-200.000	-0.204	0.000
-730.966	-101.472	-0.241	-0.060
-729.952	-87.330	-0.173	-0.054
-728.937	-119.274	-0.281	0.050
-727.923	21.318	-0.138	0.114
-726.908	-114.588	-0.328	-0.064
-725.894	23.871	0.217	0.182
-724.879	254.909	0.058	0.101
-723.864	-10.335	-0.225	0.152
-722.850	-81.579	-0.313	-0.105
-721.835	-142.868	-0.133	0.013
-720.821	-0.697	-0.049	0.036
-719.806	-113.079	-0.203	-0.041
-718.791	-200.000	0.018	0.101
-717.777	209.349	0.091	0.145
-716.762	53.769	-0.249	0.244
-715.748	-131.479	0.083	0.011
-714.733	-56.098	-0.199	0.090
-713.718	46.461	-0.218	0.206
-712.704	-56.735	0.276	0.125
-711.689	568.320	0.105	-0.260
-710.675	99.765	0.021	0.025
-709.660	-84.544	0.121	0.039
-708.645	-30.228	-0.248	0.144
-707.631	306.031	0.124	0.235
-706.616	135.358	-0.066	-0.088
-705.602	193.915	0.078	0.120
-704.587	-90.768	-0.165	-0.049
-703.572	130.835	0.071	-0.092
-702.558	-146.983	0.159	-0.014
-701.543	-138.902	-0.342	0.038
-700.529	234.371	0.172	0.289
-699.514	-84.372	-0.270	-0.087
-698.499	-200.000	0.014	-0.150
-697.485	2.620	0.229	-0.169
-696.470	-160.349	-0.398	0.022
-695.456	244.364	-0.069	-0.118
-694.441	45.322	-0.164	-0.154
-693.426	242.591	0.097	0.165
-692.412	-135.441	-0.212	-0.026
-691.397	-80.033	-0.469	-0.160
-690.383	-200.000	-0.020	0.276
-689.368	-200.000	0.043	0.313
-688.354	151.578	0.135	-0.187
-687.339	-127.220	-0.280	-0.042
-686.324	-156.807	-0.191	-0.012
-685.310	-26.104	-0.527	-0.315
-684.295	48.598	-0.248	-0.237
-683.281	57.256	0.109	-0.108
-682.266	-96.414	0.068	0.018
-681.251	-125.149	0.060	0.009
-680.237	-200.000	-0.028	0.134
-679.222	674.779	-0.040	0.106
-678.208	398.553	0.071	0.151
-677.193	-200.000	0.015	-0.096
-676.178	314.764	0.039	-0.075
-675.164	137.765	0.168	-0.224
-674.149	-36.703	0.322	0.176
-673.135	-3.496	-0.440	-0.312
-672.120	800.000	0.046	0.144
-671.105	17.038	-0.251	-0.202
-670.091	-27.144	0.293	0.174
-669.076	-21.865	0.473	-0.292
-668.062	-200.000	-0.025	-0.392
-667.047	-200.000	0.054	-0.327
-666.032	-200.000	-0.046	0.630
-665.018	130.955	0.090	-0.117
-664.003	-142.320	-0.355	0.036
-662.989	800.000	0.104	-0.426
-661.974	-142.982	-0.250	-0.025
-660.959	110.951	0.106	-0.130
-659.945	124.674	-0.145	-0.186
-658.930	-171.537	-0.201	0.007
-657.916	800.000	-0.089	-0.290
-656.901	-122.019	-0.033	0.005
-655.886	-87.587	-0.080	-0.025
-654.872	800.000	-0.051	-0.201
-653.857	692.778	-0.185	0.492
-652.843	102.659	0.165	0.197
-651.828	-29.108	0.091	-0.053
-650.814	-80.941	0.063	-0.021
-649.799	124.172	0.107	0.137
-648.784	-18.168	-0.098	0.063
-647.770	-96.795	-0.259	0.069
-646.755	-97.385	-0.109	0.029
-645.741	108.215	0.131	0.159
-644.726	-70.139	-0.155	-0.060
-643.711	-76.075	-0.678	0.243
-642.697	800.000	-0.059	0.178
-641.682	544.480	0.117	-0.284
-640.668	23.126	-0.060	-0.050
-639.653	-18.513	0.022	-0.014
-638.638	245.901	0.179	0.306
-637.624	-146.270	0.172	0.015
-636.609	-120.790	0.333	0.057
-635.595	-175.358	-0.028	0.001
-634.580	-200.000	-0.024	-0.192
-633.565	206.286	0.084	0.133
-632.551	-200.000	-0.029	0.275
-631.536	166.329	0.031	0.045
-630.522	52.863	-0.167	0.162
-629.507	38.087	0.185	0.167
-628.492	50.210	0.094	-0.090
-627.478	800.000	0.078	0.222
-626.463	69.022	-0.062	-0.065
-625.449	-122.915	-0.063	0.010
-624.434	-138.952	-0.162	0.018
-623.419	286.701	-0.058	-0.107
-622.405	70.164	-0.105	-0.110
-621.390	399.513	-0.107	-0.228
-620.376	129.283	-0.074	-0.095
-619.361	-167.266	-0.539	0.022
-618.346	99.509	-0.083	-0.097
-617.332	84.293	-0.046	0.052
-616.317	504.560	-0.092	-0.215
-615.303	-200.000	-0.019	-0.191
-614.288	115.245	0.016	0.020
-613.273	293.630	-0.074	0.137
-612.259	104.574	0.075	0.090
-611.244	53.463	-0.165	0.160
-610.230	740.971	-0.061	-0.168
-609.215	163.569	-0.119	-0.170
-608.201	189.044	0.045	0.069
-607.186	94.982	0.315	-0.363
-606.171	-76.042	0.397	-0.142
-605.157	385.760	-0.048	-0.101
-604.142	423.924	0.035	0.077
-603.128	-200.000	-0.027	-0.364
-602.113	737.208	0.056	0.152
-601.098	79.745	-0.108	0.118
-600.084	309.328	0.081	0.154
-599.069	-90.760	-0.219	0.064
-598.055	95.003	-0.041	-0.048
-597.040	-91.068	-0.332	-0.097
-596.025	-74.943	0.072	0.026
-595.011	-89.849	-0.324	0.096
-593.996	90.718	-0.215	0.244
-592.982	-29.359	0.203	0.118
-591.967	18.111	-0.127	0.102
-590.952	50.038	0.291	0.279
-589.938	-150.416	0.247	0.019
-588.923	-200.000	0.004	0.049
-587.909	353.088	0.044	0.088
-586.894	43.079	0.335	0.310
-585.879	-71.707	-0.239	-0.090
-584.865	-37.201	0.173	-0.094
-583.850	39.277	0.075	-0.068
-582.836	-200.000	-0.023	0.305
-581.821	800.000	-0.058	0.180
-580.806	-200.000	0.006	-0.180
-579.792	108.968	0.327	-0.397
-578.777	194.726	-0.228	0.351
-577.763	800.000	-0.078	-0.287
-576.748	-74.594	-0.026	-0.010
-575.733	6.765	-0.061	-0.046
-574.719	-61.828	0.061	-0.026
-573.704	-200.000	0.015	-0.158
-572.690	-36.132	0.365	-0.200
-571.675	-52.383	0.208	-0.098
-570.661	451.632	0.058	-0.131
-569.646	115.945	0.262	0.325
-568.631	-139.741	-0.259	-0.028
-567.617	444.820	-0.125	0.279
-566.602	95.310	-0.203	-0.235
-565.588	800.000	0.064	0.276
-564.573	14.651	-0.217	0.172
-563.558	76.311	0.241	-0.259
-562.544	82.252	-0.104	-0.114
-561.529	69.813	0.197	-0.205
-560.515	-200.000	-0.042	-0.207
-559.500	-133.907	0.071	-0.009
-558.485	-72.798	0.033	0.012
-557.471	62.297	0.109	-0.110
-556.456	391.684	-0.136	-0.286
-555.442	-22.804	-0.132	0.081
-554.427	800.000	-0.072	-0.319
-553.412	-122.682	-0.135	0.022
-552.398	-43.494	-0.154	0.079
-551.383	65.794	-0.384	-0.394
-550.369	266.848	-0.113	-0.200
-549.354	-14.640	0.201	-0.131
-548.339	366.962	0.102	-0.209
-547.325	342.077	-0.076	0.151
-546.310	4.543	0.221	-0.164
-545.296	31.933	-0.272	0.237
-544.281	800.000	0.078	0.282
-543.266	-200.000	-0.083	0.409
-542.252	-15.147	0.337	0.219
-541.237	-131.867	-0.097	-0.013
-540.223	-78.422	0.142	0.049
-539.208	-150.486	0.180	-0.014
-538.193	-17.677	0.060	-0.038
-537.179	-181.532	-0.205	-0.004
-536.164	405.099	-0.042	-0.089
-535.150	-200.000	0.015	0.221
-534.135	724.532	0.047	0.128
-533.121	497.996	-0.015	0.036
-532.106	-87.511	-0.387	-0.119
-531.091	-47.336	-0.103	-0.051
-530.077	800.000	0.083	-0.278
-529.062	27.659	0.292	-0.249
-528.048	-200.000	-0.003	-0.197
-527.033	-54.423	-0.187	-0.086
-526.018	-200.000	-0.018	0.086
-525.004	113.641	0.069	-0.085
-523.989	247.000	-0.138	0.236
-522.975	-42.556	-0.192	-0.099
-521.960	-102.401	-0.221	-0.053
-520.945	-78.849	0.282	0.097
-519.931	221.004	0.279	-0.453
-518.916	-200.000	-0.019	0.191
-517.902	800.000	0.025	-0.099
-516.887	-200.000	0.017	-0.137
-515.872	-188.377	-0.091	-0.001
-514.858	-167.085	0.193	0.008
-513.843	-200.000	0.025	0.150
-512.829	671.193	0.036	0.096
-511.814	-96.781	0.421	0.112
-510.799	243.167	0.139	-0.235
-509.785	46.149	-0.112	-0.104
-508.770	117.369	0.190	-0.236
-507.756	800.000	0.069	-0.217
-506.741	800.000	0.085	0.267
-505.726	-200.000	-0.039	0.248
-504.712	-200.000	0.030	0.181
-503.697	251.089	0.130	0.224
-502.683	-83.550	0.069	0.022
-501.668	278.646	0.126	-0.226
-500.653	800.000	0.015	0.065
-499.639	271.135	0.046	-0.082
-498.624	118.422	0.093	-0.116
-497.610	57.845	0.016	0.015
-496.595	408.821	0.120	0.257
-495.581	33.767	0.056	-0.049
-494.566	-118.859	0.164	-0.029
-493.551	-144.396	0.076	0.007
-492.537	800.000	0.096	0.355
-491.522	-200.000	-0.050	0.274
-490.508	-116.638	0.284	0.053
-489.493	800.000	0.066	-0.215
-488.478	651.398	0.039	0.100
-487.464	42.476	0.242	-0.222
-486.449	-200.000	-0.019	-0.274
-485.435	119.588	-0.210	-0.262
-484.420	479.871	0.023	0.053
-483.405	34.604	0.094	0.083
-482.391	169.470	-0.117	0.169
-481.376	24.039	-0.137	-0.114
-480.362	434.094	0.057	-0.126
-479.347	-124.089	-0.136	0.022
-478.332	318.698	0.048	-0.091
-477.318	95.042	-0.092	-0.106
-476.303	709.819	0.067	0.180
-475.289	582.730	0.114	0.283
-474.274	-200.000	0.013	0.068
-473.259	-200.000	0.050	0.316
-472.245	622.117	0.066	-0.168
-471.230	-153.053	-0.179	-0.013
-470.216	-200.000	-0.020	0.170
-469.201	-107.969	0.205	-0.045
-468.186	-92.471	-0.457	-0.130
-467.172	800.000	-0.028	0.113
-466.157	-122.238	-0.160	-0.026
-465.143	-200.000	-0.031	-0.341
-464.128	-46.228	0.248	-0.123
-463.113	79.053	0.076	-0.082
-462.099	0.446	-0.067	-0.049
-461.084	-125.023	0.415	-0.064
-460.070	-114.190	-0.138	-0.027
-459.055	-185.711	0.412	0.006
-458.040	-144.014	0.121	-0.011
-457.026	2.186	0.181	-0.132
-456.011	-200.000	-0.005	0.459
-454.997	-200.000	0.402	-0.001
-453.982	-200.000	-0.033	0.194
-452.968	-61.201	-0.378	0.161
-451.953	65.729	-0.150	-0.153
-450.938	132.741	-0.020	0.027
-449.924	-138.863	-0.170	-0.019
-448.909	-81.830	-0.185	-0.061
-447.895	-9.629	0.337	-0.227
-446.880	-200.000	-0.010	-0.346
-445.865	-200.000	-0.060	-0.299
-444.851	-8.822	0.323	0.219
-443.836	-9.535	0.293	-0.197
-442.822	103.487	-0.204	-0.241
-441.807	172.835	0.236	0.343
-440.792	77.659	-0.083	-0.089
-439.778	800.000	-0.139	0.442
-438.763	-67.236	0.149	0.059
-437.749	157.218	0.195	-0.271
-436.734	296.694	-0.184	-0.341
-435.719	-80.195	0.197	-0.066
-434.705	-130.697	0.501	0.068
-433.690	243.744	-0.106	0.179
-432.676	-91.855	-0.060	0.017
-431.661	-119.047	0.468	0.083
-430.646	-61.535	-0.112	0.048
-429.632	-4.316	0.078	-0.055
-428.617	-200.000	-0.023	0.146
-427.603	81.744	0.164	0.179
-426.588	-109.045	0.197	0.042
-425.573	-130.843	-0.450	-0.061
-424.559	800.000	0.071	0.283
-423.544	2.986	-0.181	-0.132
-422.530	-24.509	-0.358	0.215
-421.515	-64.970	0.083	-0.034
-420.500	-121.585	0.304	-0.051
-419.486	108.597	-0.335	-0.403
-418.471	-17.178	0.325	-0.206
-417.457	-200.000	-0.042	0.217
-416.442	-200.000	0.047	-0.222
-415.428	-200.000	0.003	-0.151
-414.413	-31.898	-0.053	-0.030
-413.398	-104.807	-0.237	0.055
-412.384	800.000	0.119	-0.339
-411.369	-64.110	0.160	-0.066
-410.355	449.866	-0.120	0.267
-409.340	33.763	-0.357	0.312
-408.325	-110.858	0.110	0.023
-407.311	33.569	-0.280	0.245
-406.296	50.968	-0.184	0.176
-405.282	192.730	-0.035	0.053
-404.267	18.075	-0.138	0.111
-403.252	-34.867	-0.108	0.059
-402.238	93.023	0.046	-0.052
-401.223	-113.454	0.271	-0.054
-400.209	-119.570	0.215	0.038
-399.194	144.284	0.028	0.037
-398.179	-200.000	-0.014	0.171
-397.165	-149.985	-0.478	-0.038
-396.150	48.033	0.217	-0.204
-395.136	-140.315	-0.129	0.014
-394.121	-200.000	0.056	-0.332
-393.106	-61.297	0.199	-0.084
-392.092	172.560	-0.172	-0.249
-391.077	112.432	-0.288	-0.351
-390.063	421.449	-0.031	-0.068
-389.048	-12.517	-0.145	0.095
-388.033	-49.803	-0.175	-0.084
-387.019	-63.157	-0.291	-0.121
-386.004	689.822	-0.107	0.281
-384.990	800.000	0.004	-0.013
-383.975	800.000	0.040	-0.160
-382.960	-48.706	-0.217	0.105
-381.946	120.066	-0.089	-0.111
-380.931	-200.000	0.033	-0.354
-379.917	-13.924	0.009	0.006
-378.902	-6.521	0.202	-0.138
-377.888	-14.202	-0.128	-0.083
-376.873	201.142	0.059	0.091
-375.858	104.916	0.062	-0.073
-374.844	800.000	-0.146	0.490
-373.829	304.934	-0.103	0.193
-372.815	798.159	0.095	-0.264
-371.800	-35.733	-0.194	0.106
-370.785	-39.590	0.284	0.150
-369.771	-145.156	-0.279	-0.025
-368.756	33.867	0.034	-0.030
-367.742	-200.000	-0.016	0.086
-366.727	-127.231	-0.124	-0.018
-365.712	15.620	-0.061	-0.048
-364.698	-200.000	0.039	-0.236
-363.683	206.922	0.161	0.252
-362.669	192.300	-0.176	0.267
-361.654	97.389	-0.095	0.109
-360.639	-200.000	0.028	-0.211
-359.625	129.311	-0.116	-0.149
-358.610	65.150	0.273	-0.277
-357.596	-122.055	-0.040	-0.007
-356.581	-200.000	0.006	-0.226
-355.566	-59.280	0.099	0.043
-354.552	35.810	-0.159	-0.140
-353.537	263.518	-0.065	0.114
-352.523	439.175	-0.034	0.075
-351.508	-75.415	-0.216	0.077
-350.493	582.872	-0.011	0.027
-349.479	405.082	0.157	0.334
-348.464	-84.342	-0.199	-0.063
-347.450	-86.286	-0.294	0.091
-346.435	-82.801	0.151	-0.049
-345.420	800.000	0.026	-0.103
-344.406	-136.973	0.180	0.021
-343.391	-200.000	-0.016	0.156
-342.377	-200.000	0.005	-0.163
-341.362	-200.000	0.025	0.156
-340.348	-200.000	0.049	-0.515
-339.333	-200.000	0.052	0.392
-338.318	-52.648	0.403	-0.187
-337.304	397.240	-0.055	-0.115
-336.289	154.790	0.118	-0.163
-335.275	-200.000	-0.033	-0.328
-334.260	-11.506	0.290	0.191
-333.245	324.346	0.103	0.198
-332.231	-148.371	-0.155	-0.013
-331.216	-72.934	-0.104	0.038
-330.202	-200.000	-0.007	0.355
-329.187	483.313	0.034	-0.078
-328.172	-145.261	0.163	0.015
-327.158	-124.853	0.207	0.032
-326.143	-102.873	0.452	-0.108
-325.129	-200.000	-0.013	0.065
-324.114	70.296	-0.033	-0.035
-323.099	-63.047	-0.150	0.062
-322.085	263.038	-0.124	0.216
-321.070	54.298	-0.034	-0.033
-320.056	-200.000	-0.006	-0.244
-319.041	-40.162	0.021	-0.011
-318.026	-76.204	-0.248	0.088
-317.012	-157.023	-0.179	-0.011
-315.997	142.256	0.045	-0.060
-314.983	116.470	-0.212	-0.261
-313.968	61.936	-0.231	0.231
-312.953	69.517	0.199	-0.205
-311.939	-200.000	0.002	-0.127
-310.924	100.303	-0.053	0.062
-309.910	38.948	-0.247	-0.221
-308.895	-200.000	0.034	-0.276
-307.880	272.453	0.170	0.301
-306.866	21.526	-0.136	0.111
-305.851	-161.607	0.298	-0.015
-304.837	-142.755	-0.176	-0.017
-303.822	800.000	0.066	-0.285
-302.807	8.841	0.027	0.021
-301.793	-67.457	0.097	0.038
-300.778	800.000	-0.061	0.169
-299.764	103.654	0.128	0.151
-298.749	800.000	-0.039	-0.153
-297.735	110.578	-0.190	-0.229
-296.720	56.436	-0.062	0.060
-295.705	-200.000	0.034	0.268
-294.691	800.000	0.080	-0.271
-293.676	108.683	-0.053	-0.063
-292.662	-153.494	-0.102	-0.007
-291.647	-109.016	-0.123	0.026
-290.632	-200.000	0.037	-0.175
-289.618	387.341	-0.113	0.234
-288.603	-200.000	0.018	0.110
-287.589	-200.000	0.036	-0.199
-286.574	43.253	-0.204	-0.187
-285.559	7.066	-0.151	-0.113
-284.545	-200.000	-0.003	-0.059
-283.530	223.390	-0.125	-0.201
-282.516	-200.000	0.035	0.157
-281.501	53.137	-0.116	-0.111
-280.486	800.000	-0.154	-0.581
-279.472	-94.757	0.179	-0.049
-278.457	-89.287	-0.452	-0.134
-277.443	717.009	-0.098	0.261
-276.428	277.540	0.230	-0.410
-275.413	233.867	0.237	-0.392
-274.399	17.318	-0.446	0.355
-273.384	-9.064	-0.144	-0.096
-272.370	-200.000	-0.058	-0.310
-271.355	-2.434	0.028	0.020
-270.340	-200.000	0.009	-0.304
-269.326	-73.160	0.202	-0.074
-268.311	-71.646	-0.280	0.105
-267.297	399.967	-0.051	0.106
-266.282	-200.000	0.024	0.129
-265.267	216.023	-0.197	-0.314
-264.253	800.000	-0.038	-0.156
-263.238	-200.000	-0.027	0.293
-262.224	-103.428	-0.313	-0.074
-261.209	800.000	-0.109	-0.301
-260.195	-6.901	0.168	0.115
-259.180	48.512	0.106	0.099
-258.165	42.572	0.279	0.254
-257.151	34.655	-0.150	0.131
-256.136	-118.236	0.179	-0.032
-255.122	194.640	0.117	0.178
-254.107	85.225	0.143	0.157
-253.092	-75.647	-0.667	-0.237
-252.078	-200.000	0.025	-0.168
-251.063	-59.973	0.129	-0.055
-250.049	-32.411	0.299	0.167
-249.034	-11.552	-0.167	0.110
-248.019	448.256	0.093	0.206
-247.005	-71.410	-0.388	-0.145
-245.990	365.453	-0.061	-0.122
-244.976	4.112	-0.379	0.278
-243.961	-73.074	-0.102	0.038
-242.946	-29.403	-0.156	0.089
-241.932	-200.000	-0.062	0.349
-240.917	104.435	-0.122	0.143
-239.903	765.942	0.072	0.196
-238.888	194.489	0.040	0.061
-237.873	72.517	0.271	0.282
-236.859	288.667	0.004	0.008
-235.844	53.939	-0.205	0.197
-234.830	68.318	0.231	0.237
-233.815	-82.729	-0.138	-0.045
-232.800	-34.846	0.146	0.080
-231.786	-46.053	0.184	-0.091
-230.771	-200.000	0.000	0.192
-229.757	16.647	0.177	0.140
-228.742	54.664	0.157	-0.152
-227.727	619.539	0.060	0.151
-226.713	79.560	0.226	-0.242
-225.698	646.772	-0.134	-0.341
-224.684	800.000	-0.058	-0.175
-223.669	49.770	0.257	0.243
-222.655	800.000	-0.111	0.336
-221.640	5.371	0.379	-0.280
-220.625	297.803	0.074	-0.137
-219.611	-200.000	0.038	0.220
-218.596	-75.465	0.298	0.106
-217.582	240.480	-0.089	-0.148
-216.567	55.516	-0.191	-0.185
-215.552	83.327	0.226	0.245
-214.538	-9.693	-0.131	-0.087
-213.523	-32.361	-0.242	-0.135
-212.509	-200.000	0.036	-0.187
-211.494	193.666	0.097	0.146
-210.479	-87.009	0.235	0.071
-209.465	489.647	0.041	0.095
-208.450	-200.000	0.039	-0.227
-207.436	-121.545	-0.051	0.008
-206.421	-200.000	0.016	0.209
-205.406	214.148	-0.139	-0.220
-204.392	71.800	0.363	0.377
-203.377	212.961	0.192	0.303
-202.363	-68.390	-0.456	0.177
-201.348	-114.651	-0.192	0.037
-200.333	413.728	0.080	0.170
-199.319	-8.486	0.073	-0.049
-198.304	-134.714	-0.464	-0.056
-197.290	-200.000	0.034	0.160
-196.275	124.728	-0.013	-0.016
-195.260	-16.483	-0.150	0.095
-194.246	800.000	0.018	-0.074
-193.231	488.062	0.127	0.289
-192.217	-200.000	0.012	0.072
-191.202	371.639	0.081	0.163
-190.187	800.000	0.105	0.332
-189.173	-200.000	-0.002	-0.352
-188.158	-200.000	-0.000	-0.373
-187.144	139.648	0.227	0.298
-186.129	-57.249	0.130	0.057
-185.114	237.133	0.104	0.171
-184.100	-200.000	-0.018	-0.134
-183.085	-105.973	-0.091	0.020
-182.071	-171.569	0.154	-0.005
-181.056	800.000	0.169	-0.530
-180.042	50.018	0.220	0.207
-179.027	381.584	-0.095	0.196
-178.012	-71.052	-0.230	-0.086
-176.998	87.815	0.169	0.187
-175.983	-200.000	0.020	0.094
-174.969	-36.449	0.117	0.063
-173.954	141.212	-0.125	0.165
-172.939	-52.322	-0.198	-0.091
-171.925	158.175	0.115	0.159
-170.910	800.000	-0.045	0.188
-169.896	-15.077	0.239	-0.153
-168.881	19.809	0.397	0.319
-167.866	-119.358	-0.316	-0.055
-166.852	-92.633	-0.125	0.035
-165.837	-9.799	0.370	0.245
-164.823	-105.243	-0.134	0.030
-163.808	147.262	-0.014	0.019
-162.793	-200.000	-0.013	0.089
-161.779	-101.471	0.109	0.026
-160.764	434.294	0.109	0.236
-159.750	-200.000	0.013	-0.069
-158.735	114.569	0.022	-0.026
-157.720	-51.904	-0.265	-0.123
-156.706	-200.000	0.040	-0.221
-155.691	-2.978	-0.226	-0.157
-154.677	-87.107	-0.202	-0.061
-153.662	-39.132	-0.054	0.028
-152.647	-102.115	0.267	0.064
-151.633	-44.964	0.097	0.048
-150.618	-131.678	0.132	0.017
-149.604	-154.165	-0.356	-0.024
-148.589	-156.102	-0.358	0.023
-147.574	-152.272	0.315	-0.023
-146.560	-200.000	-0.003	0.326
-145.545	-200.000	-0.019	0.084
-144.531	-200.000	0.031	-0.206
-143.516	66.369	-0.244	0.248
-142.502	45.360	0.242	0.222
-141.487	-34.944	-0.351	-0.191
-140.472	98.758	-0.128	0.147
-139.458	68.773	-0.048	-0.049
-138.443	138.830	-0.117	-0.153
-137.429	298.339	-0.057	0.104
-136.414	785.404	-0.102	0.279
-135.399	-92.086	-0.189	0.053
-134.385	73.660	0.260	0.271
-133.370	-51.335	0.375	-0.175
-132.356	374.148	-0.034	-0.070
-131.341	-153.544	-0.470	-0.032
-130.326	60.878	-0.131	0.129
-129.312	240.220	-0.021	-0.034
-128.297	-200.000	0.036	-0.185
-127.283	-83.630	0.349	-0.111
-126.268	-200.000	0.000	0.165
-125.253	-55.677	0.243	-0.108
-124.239	-200.000	0.005	0.138
-123.224	-137.900	-0.219	-0.024
-122.210	368.311	0.126	-0.253
-121.195	-47.455	-0.105	0.051
