DTS Sentinel unit serial number:	SN413079Multiplexer serial number:	ORYXHardware model number:	OX4-SRSoftware version number:	ORYX F/W v4.00 Oryx Data Collector v3.7.2.0data status	okinstallation	princeton_trtdifferential loss correction	single-endedforward channel	channel 4reverse channel	N/Adate	2019/09/18time	08:33:35forward acquisition time	60.00reverse acquisition time	0.00gamma	496.2192k internal	0.2326k external	0.2326temperature offset calibration	0.9986default loss term (dB/km)	0.3790temperature slope calibration	1.0000multiplexer offset coefficient	1.0000multiplexer slope coefficient	1.0000fibre end	0.00T internal ref (°C)	24.37T ext. ref 1 (°C)	0.22T ext. ref 2 (°C)	20.15length (m)	temperature (°C)	Stokes	anti-Stokes-747.200	-62.011	0.237	-0.100
-746.185	450.426	-0.127	0.282
-745.171	800.000	0.040	-0.138
-744.156	84.457	-0.213	-0.235
-743.142	-200.000	0.004	-0.372
-742.127	419.198	0.074	-0.160
-741.112	499.245	0.087	0.202
-740.098	-128.690	-0.364	0.052
-739.083	36.206	0.138	0.123
-738.069	-200.000	-0.087	0.400
-737.054	-200.000	0.063	0.346
-736.039	82.637	-0.317	-0.348
-735.025	-156.812	0.411	0.025
-734.010	18.607	-0.061	0.049
-732.996	253.662	-0.196	-0.337
-731.981	47.304	-0.201	-0.189
-730.966	-64.948	-0.147	-0.060
-729.952	77.279	-0.147	-0.158
-728.937	-142.877	-0.152	-0.015
-727.923	14.798	-0.088	0.069
-726.908	28.994	-0.218	-0.186
-725.894	-149.036	-0.247	0.020
-724.879	38.502	0.154	-0.138
-723.864	115.313	-0.070	-0.086
-722.850	-41.387	-0.303	0.157
-721.835	800.000	-0.106	-0.328
-720.821	74.165	0.179	-0.190
-719.806	249.843	0.044	0.075
-718.791	155.503	0.122	-0.170
-717.777	-124.231	0.087	0.014
-716.762	-155.579	-0.298	-0.019
-715.748	800.000	-0.129	-0.377
-714.733	-79.630	-0.175	0.059
-713.718	-42.171	0.574	0.296
-712.704	-56.998	-0.240	-0.107
-711.689	800.000	0.010	-0.031
-710.675	-158.144	0.077	0.005
-709.660	-200.000	0.020	-0.420
-708.645	-200.000	0.022	-0.228
-707.631	-112.641	0.360	0.072
-706.616	-121.434	0.280	-0.047
-705.602	-87.545	0.032	-0.010
-704.587	22.038	-0.067	-0.055
-703.572	23.238	-0.243	0.201
-702.558	800.000	0.061	0.201
-701.543	392.652	-0.047	0.098
-700.529	263.514	-0.192	0.335
-699.514	72.806	-0.018	-0.019
-698.499	92.738	0.167	0.190
-697.485	-154.777	0.255	-0.017
-696.470	160.003	-0.081	-0.114
-695.456	244.707	0.097	0.164
-694.441	157.460	-0.076	0.105
-693.426	-61.840	-0.095	0.040
-692.412	101.701	0.128	0.151
-691.397	27.092	-0.173	0.146
-690.383	800.000	0.038	-0.145
-689.368	-145.921	-0.358	-0.032
-688.354	-152.105	-0.123	0.009
-687.339	800.000	-0.042	-0.156
-686.324	-9.839	-0.235	0.158
-685.310	-200.000	-0.060	-0.591
-684.295	800.000	0.055	-0.219
-683.281	-200.000	-0.069	-0.334
-682.266	169.965	0.249	-0.359
-681.251	-59.899	0.242	0.104
-680.237	-25.597	-0.254	-0.151
-679.222	10.712	0.214	0.165
-678.208	-47.385	-0.411	0.201
-677.193	-22.765	-0.133	0.081
-676.178	800.000	-0.082	-0.285
-675.164	25.420	0.067	0.056
-674.149	-104.491	-0.424	-0.098
-673.135	40.552	0.047	-0.042
-672.120	-64.752	0.143	-0.058
-671.105	51.082	-0.053	0.050
-670.091	-200.000	0.044	0.223
-669.076	56.453	-0.118	-0.116
-668.062	760.891	0.134	-0.366
-667.047	428.549	0.117	-0.254
-666.032	-200.000	0.024	-0.244
-665.018	7.907	0.338	0.255
-664.003	-62.899	-0.207	-0.086
-662.989	62.084	0.214	-0.215
-661.974	800.000	-0.023	-0.076
-660.959	369.178	-0.058	0.119
-659.945	-101.560	0.302	-0.074
-658.930	-119.318	0.225	0.039
-657.916	6.249	-0.321	-0.239
-656.901	-46.940	-0.186	-0.091
-655.886	149.042	0.076	0.103
-654.872	-18.902	-0.091	-0.057
-653.857	227.642	-0.147	-0.241
-652.843	-46.333	0.453	0.224
-651.828	-144.691	-0.260	0.024
-650.814	800.000	0.120	-0.445
-649.799	-37.716	-0.323	0.173
-648.784	-166.230	-0.344	-0.015
-647.770	384.947	0.076	-0.157
-646.755	-10.404	-0.214	0.143
-645.741	800.000	-0.030	0.112
-644.726	285.864	-0.090	-0.163
-643.711	-200.000	0.002	-0.231
-642.697	-200.000	0.036	-0.169
-641.682	-200.000	0.073	0.335
-640.668	800.000	0.063	-0.262
-639.653	189.913	-0.193	-0.291
-638.638	-200.000	-0.009	0.100
-637.624	-121.144	-0.120	-0.020
-636.609	-200.000	-0.007	0.054
-635.595	351.080	-0.071	0.141
-634.580	559.041	-0.060	-0.146
-633.565	-108.074	-0.332	0.072
-632.551	-154.928	-0.399	0.026
-631.536	-200.000	-0.005	0.191
-630.522	-110.680	-0.329	-0.068
-629.507	217.693	0.061	-0.098
-628.492	800.000	0.013	0.039
-627.478	800.000	0.043	0.177
-626.463	-135.866	-0.288	0.034
-625.449	-64.627	-0.135	0.055
-624.434	-200.000	0.021	-0.155
-623.419	800.000	-0.086	0.310
-622.405	-76.962	0.225	0.079
-621.390	180.583	-0.060	-0.089
-620.376	63.099	0.137	0.138
-619.361	72.782	-0.213	0.223
-618.346	57.449	-0.051	-0.050
-617.332	-14.444	-0.275	-0.178
-616.317	800.000	0.052	-0.155
-615.303	725.019	-0.067	-0.179
-614.288	42.878	-0.076	-0.070
-613.273	245.173	-0.127	0.214
-612.259	-200.000	-0.034	0.402
-611.244	-90.512	-0.274	0.080
-610.230	155.858	-0.173	0.239
-609.215	19.445	-0.295	0.238
-608.201	-93.331	0.247	-0.069
-607.186	800.000	0.117	-0.346
-606.171	800.000	-0.059	0.233
-605.157	-200.000	-0.024	0.220
-604.142	346.686	0.114	-0.224
-603.128	633.944	0.119	0.304
-602.113	-1.600	0.128	0.090
-601.098	-187.218	0.138	0.002
-600.084	-38.831	0.160	-0.085
-599.069	-63.503	0.058	0.024
-598.055	-95.462	0.259	-0.070
-597.040	525.460	0.071	-0.167
-596.025	-200.000	0.043	-0.194
-595.011	-153.088	-0.176	0.012
-593.996	239.511	0.069	-0.115
-592.982	-76.708	-0.026	-0.009
-591.967	-108.001	-0.236	-0.051
-590.952	-200.000	0.007	-0.151
-589.938	-200.000	-0.032	-0.416
-588.923	80.205	-0.091	-0.098
-587.909	-200.000	0.007	-0.250
-586.894	-155.718	-0.248	-0.016
-585.879	180.449	0.265	-0.389
-584.865	-10.788	0.235	0.156
-583.850	298.182	-0.123	0.226
-582.836	800.000	0.040	0.114
-581.821	-141.921	-0.127	0.013
-580.806	-158.057	-0.056	-0.003
-579.792	85.416	-0.220	-0.242
-578.777	-89.364	0.346	0.102
-577.763	800.000	0.056	-0.236
-576.748	228.828	-0.257	0.420
-575.733	-59.069	0.167	0.072
-574.719	-200.000	0.096	-0.440
-573.704	718.693	-0.160	-0.426
-572.690	13.076	0.074	0.057
-571.675	99.463	0.321	0.372
-570.661	-200.000	-0.009	0.077
-569.646	-126.414	0.230	-0.034
-568.631	-92.355	-0.207	-0.058
-567.617	390.521	0.005	-0.010
-566.602	-137.669	-0.144	-0.016
-565.588	-195.161	0.261	-0.002
-564.573	-200.000	-0.019	0.239
-563.558	172.903	0.017	-0.024
-562.544	-200.000	0.020	-0.102
-561.529	-10.682	0.111	0.074
-560.515	-61.511	-0.380	0.160
-559.500	-2.903	0.166	0.116
-558.485	-145.262	0.096	-0.009
-557.471	42.653	-0.343	-0.313
-556.456	11.122	-0.211	0.161
-555.442	-176.392	-0.202	-0.005
-554.427	-200.000	0.000	-0.148
-553.412	-169.464	0.399	-0.015
-552.398	800.000	-0.052	-0.159
-551.383	-3.641	-0.234	-0.162
-550.369	-200.000	0.017	-0.231
-549.354	-35.386	-0.176	-0.096
-548.339	800.000	-0.095	0.362
-547.325	-22.805	0.122	0.074
-546.310	-47.294	0.041	0.020
-545.296	197.105	-0.152	0.233
-544.281	-200.000	0.042	0.237
-543.266	20.759	-0.235	-0.190
-542.252	-200.000	0.003	-0.091
-541.237	-106.018	0.178	-0.040
-540.223	-68.425	0.199	-0.077
-539.208	195.239	0.129	0.196
-538.193	-159.872	-0.196	-0.011
-537.179	82.600	0.086	0.093
-536.164	-200.000	-0.008	0.255
-535.150	-170.021	-0.269	0.010
-534.135	91.593	0.127	0.143
-533.121	117.481	0.112	0.138
-532.106	545.742	-0.057	0.136
-531.091	-200.000	0.035	-0.318
-530.077	-196.625	-0.171	0.001
-529.062	163.202	0.164	-0.230
-528.048	-129.813	0.151	0.021
-527.033	-55.321	-0.186	-0.083
-526.018	14.416	-0.142	0.111
-525.004	800.000	0.101	-0.312
-523.989	197.708	-0.187	0.285
-522.975	-180.118	0.229	0.005
-521.960	-70.846	0.127	0.048
-520.945	646.730	-0.076	-0.193
-519.931	-41.269	-0.140	0.072
-518.916	800.000	-0.069	-0.244
-517.902	-200.000	0.037	-0.335
-516.887	-85.267	0.339	-0.106
-515.872	-57.475	0.181	0.079
-514.858	-16.161	-0.190	0.120
-513.843	183.832	0.093	0.138
-512.829	625.202	0.026	0.065
-511.814	379.129	0.100	-0.206
-510.799	18.915	-0.173	0.139
-509.785	-135.241	-0.123	-0.015
-508.770	-200.000	-0.029	-0.276
-507.756	47.976	0.282	-0.264
-506.741	190.108	0.091	0.137
-505.726	-101.476	-0.453	-0.110
-504.712	62.660	-0.057	0.057
-503.697	-200.000	-0.006	-0.142
-502.683	-136.526	0.361	0.042
-501.668	-8.826	0.080	-0.053
-500.653	-49.516	0.094	0.045
-499.639	-63.102	-0.256	-0.106
-498.624	70.435	0.066	-0.068
-497.610	-113.163	0.196	0.039
-496.595	800.000	-0.014	-0.057
-495.581	214.652	-0.136	-0.215
-494.566	-44.267	-0.277	0.139
-493.551	31.463	0.106	-0.091
-492.537	-117.019	0.172	0.031
-491.522	-180.193	-0.172	-0.004
-490.508	800.000	-0.046	-0.158
-489.493	519.326	-0.059	-0.138
-488.478	-200.000	-0.235	0.001
-487.464	462.800	0.119	-0.265
-486.449	-200.000	-0.001	0.451
-485.435	229.336	0.092	-0.151
-484.420	-112.267	0.107	0.021
-483.405	800.000	0.040	0.125
-482.391	137.942	0.053	0.070
-481.376	800.000	-0.065	-0.266
-480.362	-200.000	0.105	-0.462
-479.347	14.290	-0.377	-0.294
-478.332	-17.938	-0.108	-0.067
-477.318	50.222	0.078	-0.074
-476.303	-200.000	0.011	0.078
-475.289	213.837	0.084	0.133
-474.274	800.000	0.146	0.426
-473.259	800.000	0.075	-0.208
-472.245	216.005	0.209	-0.332
-471.230	-123.213	-0.186	0.030
-470.216	-26.773	-0.064	0.038
-469.201	78.037	-0.033	0.035
-468.186	-198.567	-0.325	-0.002
-467.172	216.140	-0.078	-0.123
-466.157	-70.301	-0.259	0.098
-465.143	102.400	0.053	0.062
-464.128	-200.000	-0.034	-0.148
-463.113	406.143	0.106	-0.224
-462.099	-200.000	0.000	-0.276
-461.084	64.332	-0.130	-0.130
-460.070	-200.000	0.041	0.321
-459.055	82.651	-0.128	-0.139
-458.040	-77.871	-0.245	-0.084
-457.026	-91.951	0.147	-0.041
-456.011	444.950	0.063	0.137
-454.997	-102.786	0.102	0.024
-453.982	176.588	-0.183	-0.265
-452.968	-51.288	-0.282	-0.132
-451.953	114.780	-0.155	0.189
-450.938	-143.545	0.199	-0.019
-449.924	50.494	0.214	-0.202
-448.909	-200.000	-0.000	-0.083
-447.895	-200.000	0.002	-0.133
-446.880	12.009	0.091	0.070
-445.865	194.375	-0.114	0.173
-444.851	-7.041	0.044	-0.030
-443.836	800.000	0.062	0.177
-442.822	-85.377	0.277	0.086
-441.807	272.330	0.079	-0.139
-440.792	285.920	0.096	-0.172
-439.778	196.206	0.026	0.039
-438.763	483.123	0.122	-0.277
-437.749	-200.000	0.031	-0.150
-436.734	114.874	-0.214	0.260
-435.719	800.000	0.041	-0.120
-434.705	-200.000	0.013	0.120
-433.690	-72.469	0.305	0.112
-432.676	328.001	0.146	0.279
-431.661	36.265	-0.247	0.217
-430.646	-114.902	0.179	-0.034
-429.632	-175.989	-0.350	-0.009
-428.617	-200.000	0.018	-0.133
-427.603	-200.000	-0.004	-0.035
-426.588	-78.553	-0.089	-0.030
-425.573	-135.844	0.286	-0.034
-424.559	32.767	-0.304	-0.262
-423.544	-168.081	-0.403	-0.016
-422.530	800.000	0.014	-0.047
-421.515	255.703	0.153	-0.262
-420.500	-116.572	-0.202	0.037
-419.486	737.795	0.081	0.218
-418.471	-82.517	0.315	0.102
-417.457	94.263	-0.117	0.132
-416.442	-10.841	0.264	0.173
-415.428	-130.835	-0.125	0.017
-414.413	-71.776	0.116	-0.043
-413.398	709.678	-0.021	-0.054
-412.384	149.766	0.153	0.207
-411.369	-200.000	0.002	0.295
-410.355	-200.000	0.084	-0.396
-409.340	800.000	0.054	0.163
-408.325	-42.016	-0.219	-0.111
-407.311	-38.041	0.226	0.120
-406.296	-94.735	0.126	0.034
-405.282	-9.802	-0.063	-0.042
-404.267	1.919	-0.164	-0.118
-403.252	35.848	0.148	-0.129
-402.238	-200.000	-0.091	-0.452
-401.223	-25.647	-0.274	-0.161
-400.209	-103.050	0.237	0.056
-399.194	72.429	0.091	0.095
-398.179	800.000	-0.112	0.375
-397.165	161.006	-0.197	0.274
-396.150	613.506	-0.038	-0.094
-395.136	800.000	0.072	0.198
-394.121	93.849	-0.276	-0.311
-393.106	-138.776	-0.128	0.014
-392.092	-200.000	-0.008	0.294
-391.077	42.018	-0.094	0.085
-390.063	7.218	-0.027	0.020
-389.048	-56.124	-0.057	0.025
-388.033	-147.389	0.107	0.009
-387.019	800.000	-0.025	0.076
-386.004	-10.883	-0.400	-0.263
-384.990	25.516	0.170	0.141
-383.975	-124.355	0.325	-0.050
-382.960	2.486	0.115	0.082
-381.946	-200.000	-0.028	-0.180
-380.931	95.064	0.040	-0.045
-379.917	-164.499	0.360	0.016
-378.902	800.000	-0.041	-0.164
-377.888	646.948	0.137	-0.349
-376.873	68.540	0.042	-0.043
-375.858	317.366	0.067	0.126
-374.844	-123.952	-0.151	0.024
-373.829	-200.000	-0.010	-0.093
-372.815	800.000	-0.025	-0.077
-371.800	-200.000	0.033	0.265
-370.785	-200.000	0.014	-0.169
-369.771	430.922	0.019	-0.040
-368.756	97.694	0.056	-0.064
-367.742	290.270	0.095	0.172
-366.727	193.837	0.235	-0.354
-365.712	-30.304	-0.105	0.059
-364.698	-67.851	-0.270	0.105
-363.683	-160.498	0.154	-0.008
-362.669	264.106	-0.139	0.240
-361.654	-200.000	0.062	0.282
-360.639	-200.000	-0.006	0.054
-359.625	-30.266	-0.141	-0.080
-358.610	-48.830	0.117	-0.056
-357.596	-91.892	0.311	0.088
-356.581	-200.000	0.018	-0.115
-355.566	-152.771	-0.233	0.016
-354.552	11.475	0.208	-0.158
-353.537	764.716	0.113	-0.304
-352.523	98.639	0.192	-0.220
-351.508	-133.629	-0.239	0.030
-350.493	-200.000	0.005	-0.448
-349.479	-182.905	0.019	-0.000
-348.464	-200.000	-0.020	-0.242
-347.450	272.765	0.018	-0.031
-346.435	577.182	0.030	-0.073
-345.420	502.058	-0.048	-0.109
-344.406	-59.056	0.200	-0.086
-343.391	533.924	-0.113	-0.265
-342.377	-44.051	-0.152	0.076
-341.362	-134.471	0.258	-0.031
-340.348	-169.794	0.296	-0.011
-339.333	337.825	-0.085	-0.163
-338.318	-48.415	-0.084	0.040
-337.304	800.000	0.041	0.154
-336.289	181.739	-0.132	-0.193
-335.275	-36.548	-0.140	-0.075
-334.260	44.851	-0.223	0.204
-333.245	170.497	0.118	-0.168
-332.231	173.353	0.092	0.131
-331.216	-200.000	-0.018	-0.094
-330.202	164.723	0.230	-0.321
-329.187	116.791	-0.187	-0.227
-328.172	292.204	0.056	0.102
-327.158	-41.752	0.104	0.053
-326.143	-99.510	0.159	0.040
-325.129	-106.612	-0.249	0.055
-324.114	-83.044	-0.108	0.035
-323.099	-179.855	0.239	-0.005
-322.085	-200.000	0.025	-0.120
-321.070	-127.752	0.353	-0.051
-320.056	-29.816	0.079	-0.045
-319.041	800.000	-0.089	-0.260
-318.026	-200.000	-0.003	0.028
-317.012	-176.830	0.143	-0.004
-315.997	17.187	-0.257	0.202
-314.983	-200.000	-0.063	0.525
-313.968	-200.000	-0.036	0.190
-312.953	191.793	0.067	0.101
-311.939	-52.238	0.109	0.050
-310.924	143.999	-0.039	0.051
-309.910	-117.287	-0.477	0.086
-308.895	-102.774	0.357	-0.084
-307.880	142.549	-0.155	-0.204
-306.866	135.204	-0.088	-0.114
-305.851	-133.889	-0.302	-0.037
-304.837	42.790	-0.049	0.044
-303.822	130.404	-0.123	0.156
-302.807	800.000	-0.073	0.265
-301.793	191.831	-0.120	0.180
-300.778	-200.000	-0.002	-0.222
-299.764	-94.364	-0.172	0.047
-298.749	-30.621	0.405	-0.227
-297.735	-150.980	0.136	-0.010
-296.720	203.715	0.011	0.016
-295.705	243.576	0.095	0.158
-294.691	168.369	-0.297	0.419
-293.676	-50.046	-0.031	0.015
-292.662	-159.426	0.053	0.003
-291.647	115.689	0.137	-0.166
-290.632	-171.443	0.168	-0.006
-289.618	800.000	-0.009	-0.032
-288.603	52.570	0.233	0.221
-287.589	-152.179	0.254	0.018
-286.574	-64.772	0.248	0.099
-285.559	249.672	0.108	0.181
-284.545	-153.446	-0.383	-0.026
-283.530	82.929	0.306	0.330
-282.516	12.413	0.039	0.030
-281.501	-200.000	-0.021	0.101
-280.486	56.771	0.224	0.216
-279.472	49.766	0.241	0.225
-278.457	-200.000	-0.000	-0.017
-277.443	-24.430	0.077	-0.046
-276.428	18.100	0.118	0.093
-275.413	419.624	0.118	0.250
-274.399	-200.000	0.017	-0.089
-273.384	171.861	-0.078	0.110
-272.370	-135.670	-0.256	0.030
-271.355	-200.000	0.020	-0.129
-270.340	-67.071	0.091	-0.036
-269.326	-155.793	-0.431	0.027
-268.311	-140.399	-0.071	-0.007
-267.297	43.297	0.027	0.024
-266.282	-138.505	0.101	0.011
-265.267	-200.000	-0.041	0.293
-264.253	267.551	0.099	0.171
-263.238	-83.594	0.288	0.091
-262.224	-67.992	-0.158	0.061
-261.209	239.602	0.059	0.098
-260.195	42.064	0.071	0.064
-259.180	-75.824	0.260	0.091
-258.165	-42.298	-0.158	-0.080
-257.151	37.483	0.213	0.187
-256.136	-167.511	-0.021	0.001
-255.122	-200.000	0.005	0.071
-254.107	-11.099	-0.261	0.170
-253.092	-23.346	-0.208	-0.124
-252.078	-200.000	0.075	-0.334
-251.063	11.404	-0.301	0.228
-250.049	415.179	0.051	0.107
-249.034	-200.000	0.037	-0.183
-248.019	281.058	0.062	-0.109
-247.005	-126.405	-0.158	-0.023
-245.990	-200.000	-0.029	-0.307
-244.976	-178.673	0.126	-0.003
-243.961	-69.190	-0.111	-0.042
-242.946	10.241	-0.263	0.198
-241.932	14.700	0.243	0.188
-240.917	-150.932	-0.391	0.029
-239.903	5.248	-0.048	-0.035
-238.888	800.000	0.123	0.520
-237.873	-200.000	0.017	-0.123
-236.859	-54.170	0.394	-0.177
-235.844	140.252	0.089	-0.116
-234.830	-73.039	-0.414	0.150
-233.815	-200.000	0.016	-0.175
-232.800	-200.000	-0.005	-0.029
-231.786	-200.000	-0.004	0.064
-230.771	-88.301	-0.181	0.054
-229.757	-129.070	-0.067	0.009
-228.742	505.402	-0.052	-0.119
-227.727	-13.353	0.107	0.068
-226.713	2.600	0.208	0.149
-225.698	-104.160	-0.270	-0.062
-224.684	176.145	-0.178	0.255
-223.669	345.800	-0.039	0.076
-222.655	-91.930	0.142	0.040
-221.640	-86.482	0.230	0.070
-220.625	-200.000	0.020	0.311
-219.611	-125.966	0.280	-0.042
-218.596	46.013	0.062	-0.056
-217.582	63.299	0.065	-0.065
-216.567	-94.873	0.355	-0.095
-215.552	495.270	-0.029	0.065
-214.538	-91.250	0.172	-0.049
-213.523	-90.258	0.160	-0.046
-212.509	-200.000	-0.020	0.294
-211.494	504.238	-0.108	0.247
-210.479	800.000	0.113	0.346
-209.465	222.668	-0.048	0.076
-208.450	280.961	-0.205	-0.363
-207.436	-87.404	-0.173	-0.052
-206.421	214.496	-0.043	-0.068
-205.406	295.818	0.105	-0.191
-204.392	-200.000	-0.019	-0.157
-203.377	-49.350	-0.275	-0.129
-202.363	-160.503	0.111	0.006
-201.348	-200.000	0.059	0.260
-200.333	20.963	0.075	0.060
-199.319	26.759	-0.079	-0.065
-198.304	19.396	0.242	0.192
-197.290	-77.729	0.312	0.107
-196.275	-23.158	0.178	-0.106
-195.260	194.906	-0.074	0.111
-194.246	439.214	-0.127	0.274
-193.231	193.263	0.098	0.147
-192.217	-200.000	-0.013	0.106
-191.202	-13.578	0.130	-0.083
-190.187	-146.304	0.043	-0.004
-189.173	-52.783	0.217	-0.099
-188.158	800.000	-0.107	-0.302
-187.144	30.893	-0.125	-0.106
-186.129	33.869	0.069	-0.059
-185.114	440.740	0.122	0.264
-184.100	25.975	0.177	0.146
-183.085	-66.356	0.310	0.122
-182.071	-12.476	-0.188	0.121
-181.056	800.000	-0.040	0.111
-180.042	800.000	0.122	-0.486
-179.027	-46.102	0.031	-0.015
-178.012	-97.694	-0.206	0.053
-176.998	800.000	-0.093	0.290
-175.983	-137.416	-0.083	-0.009
-174.969	-143.992	-0.161	0.015
-173.954	436.199	-0.154	-0.330
-172.939	-177.822	0.434	-0.010
-171.925	-18.287	0.393	-0.242
-170.910	800.000	-0.023	-0.071
-169.896	800.000	0.071	0.243
-168.881	542.699	-0.138	0.326
-167.866	72.572	-0.069	-0.071
-166.852	237.347	0.106	0.173
-165.837	655.270	0.030	-0.075
-164.823	-200.000	0.074	-0.353
-163.808	5.246	-0.247	0.180
-162.793	195.625	0.009	0.013
-161.779	268.316	-0.212	-0.367
-160.764	800.000	-0.082	0.244
-159.750	700.153	0.193	0.499
-158.735	800.000	0.086	0.242
-157.720	-96.542	0.367	-0.096
-156.706	54.459	0.224	-0.213
-155.691	37.407	-0.034	-0.030
-154.677	-13.197	0.087	0.056
-153.662	440.088	0.046	-0.099
-152.647	-64.784	-0.275	0.110
-151.633	482.277	-0.117	0.261
-150.618	800.000	-0.056	-0.169
-149.604	-200.000	-0.011	0.111
-148.589	-168.644	0.289	0.011
-147.574	185.481	0.020	0.030
-146.560	800.000	0.074	-0.217
-145.545	-29.275	0.376	-0.212
-144.531	-200.000	0.010	-0.350
-143.516	-98.234	0.195	-0.049
-142.502	64.225	-0.212	-0.210
-141.487	-200.000	-0.028	0.142
-140.472	-95.630	0.170	-0.045
-139.458	205.767	0.190	0.291
-138.443	154.463	-0.142	-0.193
-137.429	-130.278	0.239	-0.032
-136.414	579.866	0.039	0.094
-135.399	180.589	0.074	0.106
-134.385	-47.889	0.232	-0.111
-133.370	-79.128	0.009	0.003
-132.356	106.830	-0.035	0.041
-131.341	-123.106	-0.347	0.055
-130.326	-161.904	-0.132	-0.007
-129.312	-200.000	-0.003	-0.276
-128.297	38.030	-0.087	0.076
-127.283	43.670	-0.063	-0.056
-126.268	-78.235	-0.372	-0.126
-125.253	-15.624	0.089	0.056
-124.239	-54.478	-0.213	0.095
-123.224	-200.000	-0.034	-0.338
-122.210	-200.000	-0.002	-0.055
-121.195	72.279	0.170	0.174
