DTS Sentinel unit serial number:	SN413079Multiplexer serial number:	ORYXHardware model number:	OX4-SRSoftware version number:	ORYX F/W v4.00 Oryx Data Collector v3.7.2.0data status	okinstallation	princeton_trtdifferential loss correction	single-endedforward channel	channel 4reverse channel	N/Adate	2019/09/16time	07:49:35forward acquisition time	60.00reverse acquisition time	0.00gamma	496.2192k internal	0.2316k external	0.2316temperature offset calibration	0.9981default loss term (dB/km)	0.3790temperature slope calibration	1.0000multiplexer offset coefficient	1.0000multiplexer slope coefficient	1.0000fibre end	0.00T internal ref (°C)	28.16T ext. ref 1 (°C)	11.72T ext. ref 2 (°C)	24.72length (m)	temperature (°C)	Stokes	anti-Stokes-747.200	62.002	0.240	-0.242
-746.185	-200.000	-0.072	0.345
-745.171	424.607	-0.040	-0.088
-744.156	800.000	0.049	0.146
-743.142	-115.574	-0.061	-0.012
-742.127	-101.458	-0.309	-0.076
-741.112	-200.000	-0.057	0.000
-740.098	-97.191	0.410	-0.108
-739.083	-73.291	0.192	-0.071
-738.069	-85.665	-0.154	-0.048
-737.054	1.638	-0.203	-0.148
-736.039	-120.661	-0.138	0.024
-735.025	-200.000	0.034	-0.207
-734.010	16.825	0.112	-0.090
-732.996	32.924	-0.174	0.153
-731.981	-200.000	-0.017	-0.213
-730.966	-53.042	0.411	-0.191
-729.952	-200.000	-0.042	0.400
-728.937	-104.178	0.097	0.023
-727.923	-200.000	-0.016	0.084
-726.908	-53.664	-0.359	-0.166
-725.894	24.560	0.236	-0.197
-724.879	-68.393	-0.110	0.043
-723.864	-147.016	-0.393	-0.034
-722.850	800.000	0.098	-0.315
-721.835	-200.000	0.002	-0.112
-720.821	-123.360	-0.232	-0.037
-719.806	-107.526	-0.238	0.053
-718.791	137.202	-0.121	0.160
-717.777	-98.212	0.107	0.028
-716.762	-74.385	-0.198	-0.072
-715.748	-110.960	-0.401	-0.083
-714.733	-200.000	-0.002	0.160
-713.718	800.000	-0.040	-0.169
-712.704	117.339	-0.084	0.105
-711.689	-200.000	0.016	0.263
-710.675	-200.000	-0.033	-0.246
-709.660	-174.980	-0.089	0.003
-708.645	51.059	-0.206	0.197
-707.631	-101.163	-0.360	-0.089
-706.616	-54.631	-0.229	0.105
-705.602	248.205	-0.116	0.199
-704.587	800.000	0.079	-0.277
-703.572	223.106	0.147	-0.239
-702.558	303.873	0.120	-0.225
-701.543	61.770	0.166	-0.167
-700.529	518.010	-0.080	-0.189
-699.514	193.128	-0.144	-0.219
-698.499	-135.042	-0.222	-0.027
-697.485	800.000	0.025	0.090
-696.470	800.000	0.066	0.247
-695.456	474.884	-0.140	0.319
-694.441	-45.066	-0.172	-0.087
-693.426	-41.745	0.145	-0.075
-692.412	-101.656	0.223	0.055
-691.397	-101.227	0.282	0.070
-690.383	60.694	-0.108	0.108
-689.368	39.098	0.136	-0.123
-688.354	451.179	0.029	0.064
-687.339	-65.756	0.188	-0.076
-686.324	627.467	-0.078	0.198
-685.310	-38.943	-0.257	-0.137
-684.295	800.000	-0.022	0.068
-683.281	308.759	0.143	0.269
-682.266	44.917	-0.153	-0.142
-681.251	22.417	0.193	-0.159
-680.237	94.555	0.281	0.323
-679.222	19.293	-0.146	-0.118
-678.208	40.326	-0.166	0.151
-677.193	-109.288	-0.138	0.030
-676.178	711.552	-0.014	-0.036
-675.164	-66.917	-0.481	-0.192
-674.149	-45.008	0.203	-0.102
-673.135	360.312	-0.065	-0.132
-672.120	8.747	0.351	0.267
-671.105	800.000	-0.092	-0.358
-670.091	-67.440	0.137	-0.054
-669.076	35.118	-0.068	0.060
-668.062	-64.211	-0.111	-0.046
-667.047	412.080	-0.058	0.124
-666.032	491.828	-0.094	-0.217
-665.018	-20.040	-0.342	-0.213
-664.003	-107.214	-0.179	-0.040
-662.989	800.000	0.018	0.060
-661.974	-124.492	-0.304	-0.048
-660.959	452.487	0.132	0.295
-659.945	-158.926	0.049	-0.003
-658.930	72.533	-0.161	-0.170
-657.916	-118.391	-0.353	0.063
-656.901	-7.835	-0.140	-0.095
-655.886	-200.000	0.037	-0.368
-654.872	-200.000	-0.016	-0.207
-653.857	158.474	-0.191	-0.267
-652.843	-7.035	0.146	-0.100
-651.828	31.833	-0.119	-0.103
-650.814	616.408	0.113	-0.287
-649.799	-57.571	-0.222	-0.098
-648.784	39.678	-0.065	-0.059
-647.770	-200.000	-0.020	0.217
-646.755	-90.200	-0.174	-0.051
-645.741	219.409	0.013	0.021
-644.726	289.264	0.093	-0.171
-643.711	800.000	-0.063	-0.225
-642.697	-52.204	0.088	0.041
-641.682	-200.000	0.022	0.134
-640.668	184.772	-0.237	0.355
-639.653	66.719	0.175	0.179
-638.638	-200.000	-0.139	0.000
-637.624	5.252	0.102	-0.076
-636.609	-96.933	-0.308	-0.082
-635.595	-97.303	0.107	-0.028
-634.580	365.583	0.043	0.088
-633.565	1.345	0.376	0.272
-632.551	430.201	-0.061	-0.133
-631.536	-200.000	-0.021	0.304
-630.522	28.631	-0.061	-0.052
-629.507	559.606	0.086	-0.209
-628.492	-18.320	-0.129	-0.082
-627.478	-78.219	0.164	0.057
-626.463	-187.545	0.077	0.001
-625.449	-95.199	-0.121	0.033
-624.434	306.745	-0.050	0.094
-623.419	-88.689	-0.086	0.026
-622.405	-200.000	-0.030	0.203
-621.390	68.852	0.346	-0.358
-620.376	-127.821	0.179	0.026
-619.361	15.910	-0.251	-0.199
-618.346	-106.836	-0.197	0.044
-617.332	47.237	0.154	0.144
-616.317	256.206	0.026	0.044
-615.303	69.444	0.100	0.103
-614.288	210.988	0.078	-0.123
-613.273	176.831	0.213	-0.312
-612.259	131.435	0.081	-0.105
-611.244	41.534	0.076	-0.070
-610.230	-200.000	-0.005	0.100
-609.215	-180.833	0.093	-0.002
-608.201	-147.769	0.246	0.021
-607.186	10.852	-0.117	-0.090
-606.171	-146.849	0.279	-0.024
-605.157	22.099	-0.420	-0.345
-604.142	112.776	0.067	-0.082
-603.128	210.546	0.064	0.102
-602.113	781.254	-0.080	-0.222
-601.098	62.193	0.156	0.156
-600.084	356.015	-0.042	0.084
-599.069	72.738	-0.177	-0.186
-598.055	-170.018	0.157	0.006
-597.040	-56.275	-0.085	0.038
-596.025	192.858	0.126	-0.192
-595.011	-27.369	-0.176	-0.103
-593.996	196.318	0.153	-0.234
-592.982	15.913	-0.135	-0.107
-591.967	282.643	0.135	-0.243
-590.952	-28.013	-0.207	-0.121
-589.938	800.000	-0.070	-0.274
-588.923	57.758	-0.223	-0.220
-587.909	397.203	0.095	-0.199
-586.894	60.799	-0.139	0.139
-585.879	260.478	-0.199	-0.346
-584.865	-74.511	0.233	-0.085
-583.850	86.937	-0.258	0.287
-582.836	34.527	-0.132	0.116
-581.821	183.166	0.038	0.056
-580.806	156.354	-0.035	-0.049
-579.792	209.306	-0.098	-0.154
-578.777	158.687	0.209	-0.291
-577.763	-147.115	-0.371	0.032
-576.748	374.802	0.122	0.250
-575.733	800.000	0.028	-0.084
-574.719	312.667	-0.114	0.216
-573.704	185.975	-0.181	-0.270
-572.690	-200.000	0.041	-0.190
-571.675	-200.000	0.027	0.196
-570.661	74.696	-0.248	-0.263
-569.646	800.000	0.046	-0.181
-568.631	-130.622	0.235	0.032
-567.617	24.896	-0.118	-0.098
-566.602	-200.000	0.006	0.137
-565.588	-200.000	0.014	-0.201
-564.573	-155.179	0.145	0.010
-563.558	-59.104	-0.171	-0.074
-562.544	800.000	0.144	-0.433
-561.529	6.463	0.188	0.141
-560.515	800.000	-0.106	0.332
-559.500	-200.000	0.022	-0.290
-558.485	286.789	-0.141	-0.256
-557.471	83.346	-0.251	-0.275
-556.456	-125.161	-0.143	-0.022
-555.442	342.050	-0.245	0.481
-554.427	-60.490	-0.221	-0.094
-553.412	-200.000	-0.043	0.213
-552.398	800.000	-0.025	-0.110
-551.383	800.000	0.018	-0.072
-550.369	-74.707	0.283	0.102
-549.354	-200.000	0.055	0.325
-548.339	29.454	-0.068	-0.058
-547.325	-102.278	0.082	-0.020
-546.310	-165.031	0.302	0.014
-545.296	-88.384	-0.305	-0.092
-544.281	278.813	0.036	0.065
-543.266	490.359	-0.074	-0.171
-542.252	-107.015	-0.216	0.048
-541.237	-200.000	-0.002	0.097
-540.223	-200.000	0.035	0.352
-539.208	-85.079	-0.185	0.058
-538.193	142.641	0.082	0.110
-537.179	207.540	-0.074	0.116
-536.164	-101.070	-0.130	0.032
-535.150	-200.000	-0.001	0.309
-534.135	800.000	0.077	-0.276
-533.121	23.896	0.131	0.109
-532.106	800.000	0.047	-0.145
-531.091	272.799	0.072	0.128
-530.077	-10.908	0.445	0.295
-529.062	-158.042	-0.382	0.023
-528.048	4.890	-0.132	-0.097
-527.033	304.435	-0.130	-0.242
-526.018	-200.000	0.077	-0.356
-525.004	-193.006	-0.213	0.002
-523.989	-200.000	0.087	0.544
-522.975	337.007	0.077	-0.150
-521.960	-140.008	0.307	0.033
-520.945	-200.000	-0.067	0.343
-519.931	-200.000	-0.001	0.141
-518.916	-147.938	-0.266	-0.022
-517.902	23.698	0.151	0.124
-516.887	109.683	0.155	-0.187
-515.872	-14.416	0.246	0.159
-514.858	147.844	0.208	0.281
-513.843	800.000	-0.042	-0.136
-512.829	388.257	0.093	-0.194
-511.814	-150.332	-0.261	0.020
-510.799	147.102	-0.053	-0.072
-509.785	84.984	-0.145	0.160
-508.770	-55.566	0.125	0.056
-507.756	800.000	-0.032	0.121
-506.741	-84.784	0.337	0.106
-505.726	222.716	-0.157	0.254
-504.712	-119.604	0.304	0.053
-503.697	322.094	0.111	-0.212
-502.683	9.469	-0.108	0.082
-501.668	422.688	0.160	0.345
-500.653	-34.606	-0.401	-0.220
-499.639	208.486	0.080	-0.126
-498.624	-200.000	-0.006	0.168
-497.610	41.417	-0.297	0.269
-496.595	-4.722	-0.289	0.200
-495.581	-168.193	0.175	-0.007
-494.566	-200.000	0.032	-0.152
-493.551	-73.510	0.167	-0.061
-492.537	-200.000	-0.073	-0.605
-491.522	-40.499	0.095	-0.050
-490.508	-200.000	0.033	-0.437
-489.493	-200.000	-0.018	0.113
-488.478	-63.930	-0.093	0.038
-487.464	-200.000	-0.019	0.097
-486.449	-200.000	0.022	0.202
-485.435	-53.385	0.317	0.146
-484.420	800.000	0.086	0.352
-483.405	-32.374	-0.150	0.084
-482.391	105.348	-0.186	-0.220
-481.376	-200.000	0.009	-0.059
-480.362	-12.459	0.201	0.131
-479.347	-200.000	-0.062	0.471
-478.332	-200.000	-0.021	-0.122
-477.318	-80.877	0.094	-0.031
-476.303	12.737	-0.183	-0.142
-475.289	263.141	0.126	-0.219
-474.274	28.828	-0.289	-0.245
-473.259	293.124	0.060	0.110
-472.245	653.539	-0.187	0.480
-471.230	-93.011	-0.073	0.020
-470.216	-200.000	-0.043	0.256
-469.201	-200.000	0.033	-0.360
-468.186	4.764	0.059	-0.043
-467.172	166.531	0.075	-0.106
-466.157	-13.445	0.306	0.199
-465.143	382.975	0.269	-0.554
-464.128	800.000	0.056	-0.190
-463.113	-54.223	-0.316	0.144
-462.099	174.466	0.023	-0.033
-461.084	116.195	-0.161	0.198
-460.070	792.486	-0.090	0.247
-459.055	564.272	-0.101	0.246
-458.040	380.627	-0.130	-0.267
-457.026	124.627	-0.035	0.045
-456.011	-100.199	0.269	-0.067
-454.997	189.733	-0.234	0.352
-453.982	238.031	0.071	0.119
-452.968	-72.156	-0.148	0.055
-451.953	800.000	-0.137	-0.393
-450.938	-108.184	0.192	-0.042
-449.924	-57.714	0.154	-0.068
-448.909	-45.215	0.096	-0.048
-447.895	-200.000	0.041	-0.314
-446.880	273.471	-0.210	0.372
-445.865	800.000	-0.032	-0.125
-444.851	-70.254	-0.259	-0.099
-443.836	-10.997	0.130	0.086
-442.822	12.497	-0.148	0.114
-441.807	173.280	0.092	-0.133
-440.792	-200.000	0.000	-0.156
-439.778	-200.000	-0.002	-0.010
-438.763	369.631	0.212	-0.430
-437.749	-200.000	0.001	-0.073
-436.734	159.780	-0.152	-0.212
-435.719	350.788	-0.032	-0.062
-434.705	115.042	0.321	-0.392
-433.690	128.153	0.169	0.215
-432.676	-37.114	0.151	-0.081
-431.661	-77.979	0.483	-0.167
-430.646	-79.485	0.066	0.022
-429.632	562.450	0.160	0.388
-428.617	-116.636	0.262	-0.048
-427.603	-200.000	0.025	-0.215
-426.588	-69.050	0.349	-0.134
-425.573	-124.493	0.096	-0.015
-424.559	-44.176	-0.191	-0.096
-423.544	293.241	-0.161	0.294
-422.530	-200.000	0.007	0.133
-421.515	-109.032	0.315	-0.067
-420.500	680.588	0.089	-0.232
-419.486	47.906	-0.198	0.185
-418.471	-200.000	0.047	-0.259
-417.457	464.798	-0.134	0.301
-416.442	-102.956	-0.300	-0.071
-415.428	59.627	-0.288	-0.284
-414.413	166.753	-0.195	-0.277
-413.398	29.137	0.194	-0.165
-412.384	-115.104	-0.166	-0.031
-411.369	57.052	0.025	0.025
-410.355	-120.252	0.100	-0.017
-409.340	276.665	0.069	0.122
-408.325	56.075	-0.223	0.217
-407.311	-6.283	0.135	-0.092
-406.296	3.091	-0.114	0.083
-405.282	-200.000	-0.054	-0.294
-404.267	800.000	-0.100	0.281
-403.252	-96.667	-0.072	-0.019
-402.238	34.958	0.381	-0.333
-401.223	-158.119	0.253	-0.015
-400.209	800.000	-0.039	0.164
-399.194	656.123	0.051	-0.130
-398.179	-19.061	-0.137	-0.085
-397.165	-118.624	0.189	-0.033
-396.150	-200.000	-0.024	0.218
-395.136	-200.000	0.056	-0.321
-394.121	-36.885	-0.039	-0.021
-393.106	159.361	-0.041	0.057
-392.092	-200.000	-0.049	-0.260
-391.077	-79.376	0.141	0.048
-390.063	-200.000	-0.029	-0.334
-389.048	-159.335	-0.241	-0.014
-388.033	437.599	-0.072	-0.157
-387.019	-200.000	-0.030	-0.243
-386.004	-200.000	-0.017	0.399
-384.990	-200.000	-0.060	-0.433
-383.975	-159.907	0.048	-0.003
-382.960	-54.427	-0.120	0.054
-381.946	174.209	-0.068	-0.098
-380.931	87.082	-0.109	-0.121
-379.917	-14.966	0.150	0.096
-378.902	117.142	-0.211	0.259
-377.888	-55.990	0.154	0.069
-376.873	3.249	0.050	-0.036
-375.858	-105.907	-0.373	-0.084
-374.844	112.926	-0.109	-0.132
-373.829	-200.000	-0.008	-0.100
-372.815	800.000	-0.015	-0.059
-371.800	213.708	0.129	-0.204
-370.785	10.353	0.484	-0.367
-369.771	140.517	0.076	0.100
-368.756	-26.631	0.221	0.129
-367.742	264.047	0.132	0.228
-366.727	-75.558	-0.212	-0.075
-365.712	466.018	-0.075	-0.167
-364.698	-108.355	-0.173	0.037
-363.683	-162.544	-0.430	-0.021
-362.669	800.000	-0.057	-0.236
-361.654	16.464	-0.271	0.213
-360.639	591.985	-0.113	0.279
-359.625	800.000	0.041	-0.158
-358.610	800.000	0.044	-0.189
-357.596	800.000	-0.031	0.101
-356.581	74.409	0.122	0.127
-355.566	93.326	-0.406	0.459
-354.552	551.921	0.193	0.462
-353.537	-200.000	0.058	0.410
-352.523	-78.725	-0.155	-0.053
-351.508	-101.306	0.450	0.110
-350.493	304.341	0.066	-0.122
-349.479	182.959	-0.105	-0.154
-348.464	-10.068	-0.266	0.176
-347.450	697.184	0.084	-0.220
-346.435	138.311	0.087	0.114
-345.420	-122.809	0.480	-0.077
-344.406	-69.505	-0.256	0.098
-343.391	340.226	-0.075	0.147
-342.377	-200.000	0.024	-0.117
-341.362	-69.876	0.124	-0.047
-340.348	-200.000	0.031	0.135
-339.333	-23.748	-0.011	0.007
-338.318	-104.989	-0.343	-0.078
-337.304	800.000	0.117	-0.429
-336.289	-120.194	-0.293	-0.050
-335.275	-176.051	-0.249	0.007
-334.260	255.118	0.070	0.120
-333.245	196.965	0.120	0.183
-332.231	2.294	0.053	0.038
-331.216	127.937	-0.207	0.262
-330.202	-156.371	0.169	0.011
-329.187	-101.704	-0.268	-0.065
-328.172	-15.378	0.434	-0.277
-327.158	-200.000	0.001	-0.366
-326.143	6.002	-0.391	0.289
-325.129	617.688	-0.106	0.266
-324.114	-200.000	0.001	0.072
-323.099	-170.555	0.248	-0.009
-322.085	163.149	0.172	0.240
-321.070	1.809	0.212	-0.152
-320.056	800.000	0.056	0.227
-319.041	-71.794	0.307	0.114
-318.026	466.816	-0.027	-0.061
-317.012	800.000	-0.067	-0.263
-315.997	419.022	-0.065	0.139
-314.983	-98.577	0.090	0.023
-313.968	-200.000	-0.008	0.101
-312.953	-78.984	-0.168	-0.057
-311.939	63.840	-0.048	0.048
-310.924	239.041	0.078	0.129
-309.910	-29.792	0.344	-0.195
-308.895	800.000	-0.082	-0.264
-307.880	-5.214	-0.090	-0.062
-306.866	338.374	0.075	-0.145
-305.851	-110.456	0.211	-0.044
-304.837	-200.000	-0.016	0.120
-303.822	-200.000	0.038	0.306
-302.807	-180.151	-0.262	0.006
-301.793	-200.000	0.018	0.290
-300.778	-200.000	0.010	-0.050
-299.764	231.231	0.122	0.198
-298.749	26.422	0.182	0.151
-297.735	164.743	-0.082	0.116
-296.720	-141.426	-0.081	-0.008
-295.705	-77.398	0.244	-0.084
-294.691	-5.762	-0.196	0.134
-293.676	-200.000	0.013	-0.120
-292.662	229.180	0.084	-0.136
-291.647	-90.396	-0.154	-0.044
-290.632	-42.280	-0.261	-0.132
-289.618	-200.000	-0.018	-0.122
-288.603	-68.448	-0.112	-0.043
-287.589	254.429	0.215	0.366
-286.574	42.060	-0.215	0.194
-285.559	-24.192	-0.206	-0.122
-284.545	245.497	-0.076	-0.127
-283.530	800.000	0.099	0.277
-282.516	-17.659	0.284	0.177
-281.501	-154.899	-0.502	0.033
-280.486	-200.000	-0.020	0.114
-279.472	48.304	0.101	0.094
-278.457	-200.000	0.092	-0.436
-277.443	-200.000	-0.002	-0.226
-276.428	-7.144	0.095	0.064
-275.413	484.587	0.082	0.186
-274.399	692.578	0.057	-0.150
-273.384	-85.909	0.219	-0.067
-272.370	-200.000	-0.027	0.336
-271.355	-67.145	-0.206	-0.081
-270.340	-125.368	-0.291	-0.044
-269.326	273.604	-0.131	-0.230
-268.311	-200.000	-0.005	-0.052
-267.297	138.619	0.230	0.300
-266.282	-45.362	-0.234	0.115
-265.267	800.000	0.051	-0.214
-264.253	-166.181	0.110	0.005
-263.238	155.573	-0.102	0.139
-262.224	-9.727	-0.186	0.123
-261.209	234.635	0.028	0.046
-260.195	-147.477	0.172	0.014
-259.180	-42.805	0.199	0.101
-258.165	-118.265	-0.200	0.035
-257.151	539.756	0.058	-0.138
-256.136	-107.707	-0.066	0.014
-255.122	-41.438	-0.189	0.097
-254.107	105.051	-0.165	-0.194
-253.092	-20.845	0.388	0.236
-252.078	-200.000	0.005	-0.175
-251.063	-200.000	-0.034	0.291
-250.049	60.941	-0.156	-0.154
-249.034	-26.862	0.062	-0.036
-248.019	205.806	0.034	0.052
-247.005	-46.146	0.220	0.108
-245.990	-121.339	0.097	-0.016
-244.976	-200.000	0.004	0.275
-243.961	-200.000	0.012	0.186
-242.946	800.000	-0.127	0.427
-241.932	800.000	-0.125	-0.349
-240.917	-104.013	0.408	-0.094
-239.903	800.000	-0.042	-0.180
-238.888	-200.000	-0.040	-0.199
-237.873	-180.436	0.131	0.003
-236.859	11.173	0.098	-0.074
-235.844	-200.000	-0.063	0.485
-234.830	-37.463	0.245	-0.130
-233.815	-98.538	0.224	-0.057
-232.800	27.908	0.146	-0.122
-231.786	-55.250	0.110	0.049
-230.771	32.029	0.259	-0.222
-229.757	-166.350	-0.252	-0.011
-228.742	-200.000	0.013	0.122
-227.727	-25.338	0.359	0.211
-226.713	236.933	-0.058	0.096
-225.698	12.308	0.234	-0.179
-224.684	64.335	-0.198	-0.198
-223.669	27.002	0.062	-0.052
-222.655	403.091	-0.091	-0.190
-221.640	55.569	-0.060	0.058
-220.625	201.365	-0.193	-0.295
-219.611	-27.560	0.074	-0.043
-218.596	7.989	0.197	-0.146
-217.582	295.884	0.085	0.154
-216.567	50.793	-0.152	0.143
-215.552	-180.134	-0.232	-0.005
-214.538	-200.000	-0.017	-0.165
-213.523	-106.945	0.071	-0.016
-212.509	-200.000	0.017	-0.143
-211.494	420.031	-0.035	-0.073
-210.479	147.436	-0.235	-0.314
-209.465	-117.786	0.045	-0.008
-208.450	-200.000	0.034	0.473
-207.436	-200.000	-0.014	-0.135
-206.421	-85.408	-0.083	0.026
-205.406	4.594	0.164	0.119
-204.392	-129.013	-0.266	0.037
-203.377	-200.000	0.025	0.160
-202.363	399.671	-0.052	-0.109
-201.348	285.895	-0.091	0.163
-200.333	-46.040	0.198	-0.097
-199.319	401.284	0.195	0.405
-198.304	-200.000	0.036	-0.174
-197.290	44.894	-0.013	0.012
-196.275	-25.130	0.224	0.132
-195.260	14.146	-0.260	0.201
-194.246	100.555	0.142	-0.163
-193.231	-200.000	0.012	0.084
-192.217	177.598	-0.231	0.334
-191.202	512.492	0.045	0.104
-190.187	-92.275	-0.205	0.057
-189.173	-200.000	0.006	-0.282
-188.158	40.184	0.017	0.015
-187.144	56.207	0.170	0.163
-186.129	275.803	0.110	0.193
-185.114	-200.000	0.013	-0.223
-184.100	416.678	-0.138	0.291
-183.085	-12.791	0.062	0.040
-182.071	-200.000	0.037	0.166
-181.056	-200.000	0.047	-0.302
-180.042	232.346	0.096	0.155
-179.027	32.806	0.105	-0.090
-178.012	36.607	0.019	0.017
-176.998	-24.717	-0.109	-0.064
-175.983	-147.257	-0.208	-0.018
-174.969	174.722	-0.197	-0.282
-173.954	-200.000	0.017	0.258
-172.939	231.243	-0.099	0.160
-171.925	185.706	0.086	0.127
-170.910	-62.294	0.148	-0.061
-169.896	222.887	-0.104	0.165
-168.881	-30.352	-0.363	-0.204
-167.866	683.852	-0.091	-0.236
-166.852	-200.000	-0.027	0.291
-165.837	-153.742	0.172	-0.012
-164.823	-117.703	-0.370	-0.066
-163.808	-30.265	0.161	-0.091
-162.793	-200.000	0.053	0.487
-161.779	526.396	-0.122	0.284
-160.764	407.653	0.069	0.144
-159.750	59.227	0.113	-0.110
-158.735	28.447	0.094	0.079
-157.720	-200.000	-0.003	0.443
-156.706	13.017	0.099	-0.076
-155.691	-133.178	0.210	-0.026
-154.677	13.085	0.077	0.059
-153.662	78.271	0.222	-0.235
-152.647	800.000	0.027	0.081
-151.633	-143.642	-0.161	-0.015
-150.618	-21.138	0.248	-0.150
-149.604	-200.000	-0.008	0.430
-148.589	-94.036	-0.268	0.073
-147.574	-2.993	0.348	-0.240
-146.560	800.000	-0.046	-0.154
-145.545	-200.000	-0.017	-0.084
-144.531	602.466	-0.258	0.634
-143.516	152.670	-0.111	0.149
-142.502	-137.739	0.113	-0.013
-141.487	-200.000	-0.056	0.478
-140.472	103.419	0.133	0.155
-139.458	-19.808	0.353	-0.216
-138.443	166.432	-0.299	0.419
-137.429	151.522	0.168	0.226
-136.414	22.419	0.306	0.247
-135.399	396.733	-0.080	0.165
-134.385	346.986	-0.100	-0.195
-133.370	-27.510	-0.216	0.124
-132.356	800.000	-0.008	0.024
-131.341	90.859	0.140	-0.156
-130.326	-12.274	0.295	-0.191
-129.312	301.842	-0.049	0.090
-128.297	139.997	-0.139	-0.181
-127.283	727.642	0.039	-0.103
-126.268	-18.806	0.227	-0.140
-125.253	37.637	0.137	-0.120
-124.239	-11.063	-0.339	0.221
-123.224	133.758	-0.096	0.123
-122.210	71.562	-0.183	-0.188
