DTS Sentinel unit serial number:	SN413079Multiplexer serial number:	ORYXHardware model number:	OX4-SRSoftware version number:	ORYX F/W v4.00 Oryx Data Collector v3.7.2.0data status	okinstallation	princeton_trtdifferential loss correction	single-endedforward channel	channel 4reverse channel	N/Adate	2019/09/17time	22:17:35forward acquisition time	60.00reverse acquisition time	0.00gamma	496.2192k internal	0.2330k external	0.2330temperature offset calibration	0.9990default loss term (dB/km)	0.3790temperature slope calibration	1.0000multiplexer offset coefficient	1.0000multiplexer slope coefficient	1.0000fibre end	0.00T internal ref (°C)	25.62T ext. ref 1 (°C)	0.18T ext. ref 2 (°C)	18.57length (m)	temperature (°C)	Stokes	anti-Stokes-747.200	800.000	0.020	0.062
-746.185	-149.119	-0.249	0.020
-745.171	-116.255	0.160	0.030
-744.156	-42.789	-0.295	-0.151
-743.142	92.154	-0.072	-0.082
-742.127	122.448	-0.196	0.247
-741.112	-200.000	-0.025	-0.176
-740.098	-200.000	-0.381	0.002
-739.083	16.068	0.190	0.151
-738.069	-200.000	-0.004	0.315
-737.054	352.682	-0.065	-0.130
-736.039	-200.000	0.013	-0.177
-735.025	800.000	-0.075	0.241
-734.010	800.000	-0.004	-0.013
-732.996	-141.144	0.149	0.015
-731.981	-93.189	-0.412	-0.115
-730.966	-35.747	-0.265	0.145
-729.952	-182.168	0.170	0.003
-728.937	374.638	-0.134	-0.276
-727.923	81.008	0.142	0.155
-726.908	794.797	-0.084	0.233
-725.894	-177.385	-0.285	0.007
-724.879	-200.000	-0.043	0.456
-723.864	34.936	-0.129	-0.114
-722.850	-14.227	-0.022	0.014
-721.835	9.652	-0.120	-0.091
-720.821	359.719	-0.040	-0.080
-719.806	60.724	-0.299	0.299
-718.791	-3.531	-0.266	-0.186
-717.777	-200.000	-0.043	0.259
-716.762	-70.099	-0.282	-0.108
-715.748	85.360	0.299	-0.330
-714.733	-200.000	-0.027	-0.245
-713.718	14.516	0.306	-0.240
-712.704	-159.782	0.126	0.007
-711.689	-67.046	0.203	-0.081
-710.675	-200.000	0.032	0.209
-709.660	-200.000	-0.004	0.207
-708.645	-200.000	-0.005	-0.053
-707.631	110.003	0.256	-0.308
-706.616	31.418	-0.195	-0.168
-705.602	-123.879	0.046	-0.007
-704.587	291.982	0.190	-0.348
-703.572	464.755	-0.143	-0.321
-702.558	-192.895	-0.279	0.003
-701.543	-2.713	-0.251	-0.176
-700.529	121.976	-0.069	-0.086
-699.514	4.422	0.094	0.069
-698.499	800.000	0.047	0.166
-697.485	800.000	0.052	-0.202
-696.470	-139.787	-0.310	-0.033
-695.456	-200.000	0.040	0.194
-694.441	-39.365	-0.225	-0.119
-693.426	5.185	-0.407	-0.301
-692.412	-37.685	0.236	-0.126
-691.397	-116.982	-0.193	0.035
-690.383	-200.000	-0.033	0.154
-689.368	-147.957	0.236	-0.020
-688.354	800.000	0.078	0.290
-687.339	-200.000	-0.051	-0.269
-686.324	-103.712	-0.158	0.037
-685.310	800.000	-0.127	-0.469
-684.295	-161.649	0.119	0.006
-683.281	-200.000	-0.051	-0.245
-682.266	-71.269	-0.339	0.128
-681.251	80.114	0.099	-0.106
-680.237	-200.000	-0.028	0.334
-679.222	0.620	0.100	-0.072
-678.208	800.000	0.066	-0.275
-677.193	86.909	0.086	-0.096
-676.178	-200.000	-0.038	-0.379
-675.164	-200.000	-0.002	-0.129
-674.149	-121.270	0.199	0.033
-673.135	481.572	0.066	0.150
-672.120	-66.608	0.341	0.136
-671.105	722.930	-0.054	0.146
-670.091	476.256	-0.096	0.218
-669.076	-79.917	0.233	0.079
-668.062	800.000	0.073	-0.212
-667.047	73.199	-0.116	-0.122
-666.032	525.390	-0.086	0.204
-665.018	-129.042	0.185	0.026
-664.003	-93.162	-0.100	-0.028
-662.989	-72.003	0.226	0.084
-661.974	-47.807	-0.187	0.091
-660.959	-143.890	-0.443	0.042
-659.945	-200.000	0.041	0.238
-658.930	-189.670	-0.189	0.002
-657.916	108.221	-0.295	-0.353
-656.901	440.731	-0.056	-0.124
-655.886	746.936	-0.121	0.327
-654.872	-49.256	0.159	0.076
-653.857	-200.000	0.079	0.364
-652.843	-13.573	-0.174	-0.113
-651.828	-200.000	0.091	0.431
-650.814	349.840	0.054	-0.106
-649.799	-200.000	-0.013	0.220
-648.784	62.392	-0.119	0.119
-647.770	-163.267	0.118	0.006
-646.755	-135.257	0.084	-0.010
-645.741	-120.474	-0.205	0.035
-644.726	-133.659	0.142	-0.018
-643.711	-200.000	-0.038	0.223
-642.697	800.000	0.114	0.441
-641.682	410.731	-0.137	-0.291
-640.668	-14.941	0.191	-0.123
-639.653	-88.097	0.170	-0.051
-638.638	800.000	-0.111	-0.415
-637.624	-200.000	0.025	-0.292
-636.609	-200.000	0.018	-0.198
-635.595	-57.646	-0.248	-0.109
-634.580	275.598	-0.066	-0.117
-633.565	800.000	0.058	-0.197
-632.551	199.956	-0.072	0.110
-631.536	-10.656	-0.197	-0.131
-630.522	-163.454	-0.172	-0.008
-629.507	-41.073	-0.235	0.122
-628.492	175.995	0.142	-0.207
-627.478	-37.450	0.268	0.144
-626.463	577.298	-0.083	-0.204
-625.449	-95.712	-0.170	-0.046
-624.434	-167.814	-0.205	0.008
-623.419	20.078	0.335	0.271
-622.405	800.000	0.099	-0.283
-621.390	-48.494	-0.352	-0.170
-620.376	50.460	-0.183	0.173
-619.361	15.554	0.009	-0.007
-618.346	-137.507	-0.263	0.030
-617.332	-200.000	0.012	0.130
-616.317	-200.000	0.036	-0.283
-615.303	-128.988	0.334	0.047
-614.288	14.247	0.179	-0.140
-613.273	800.000	0.024	-0.070
-612.259	762.257	0.062	-0.169
-611.244	-61.896	-0.202	-0.084
-610.230	-133.133	-0.323	-0.041
-609.215	141.881	-0.067	-0.088
-608.201	-79.647	0.188	-0.063
-607.186	-152.311	0.250	-0.018
-606.171	-200.000	-0.015	0.161
-605.157	-49.002	-0.127	-0.061
-604.142	-182.108	-0.147	0.003
-603.128	-55.428	0.267	-0.120
-602.113	800.000	0.108	-0.381
-601.098	-200.000	0.048	0.245
-600.084	56.323	-0.027	-0.026
-599.069	0.593	0.342	0.245
-598.055	-92.556	0.161	0.045
-597.040	-131.069	0.093	0.012
-596.025	18.825	-0.205	0.165
-595.011	-33.308	-0.314	0.174
-593.996	-83.174	0.394	-0.127
-592.982	-200.000	-0.038	-0.477
-591.967	-110.553	0.313	0.065
-590.952	-120.632	0.079	-0.013
-589.938	800.000	0.040	0.162
-588.923	214.418	0.023	-0.037
-587.909	773.460	-0.084	-0.230
-586.894	53.770	-0.232	0.223
-585.879	-164.565	-0.151	-0.007
-584.865	-191.456	0.027	-0.000
-583.850	-163.726	-0.158	-0.007
-582.836	-200.000	-0.062	-0.399
-581.821	6.220	0.111	-0.083
-580.806	150.401	-0.069	-0.094
-579.792	39.676	-0.050	0.045
-578.777	-86.044	0.383	0.118
-577.763	-149.542	-0.200	0.016
-576.748	510.560	0.128	-0.297
-575.733	800.000	-0.079	0.309
-574.719	136.177	-0.120	0.156
-573.704	628.355	0.027	0.069
-572.690	-177.076	-0.094	-0.002
-571.675	-51.687	-0.378	0.176
-570.661	42.101	0.159	-0.144
-569.646	-109.245	0.224	-0.047
-568.631	-200.000	-0.034	0.235
-567.617	-20.127	0.149	0.092
-566.602	-54.811	0.216	-0.098
-565.588	800.000	0.039	-0.140
-564.573	244.654	-0.099	-0.167
-563.558	-200.000	0.048	-0.347
-562.544	-76.336	-0.176	0.062
-561.529	-177.554	-0.509	0.012
-560.515	255.043	0.097	-0.166
-559.500	-165.120	0.061	-0.003
-558.485	375.975	0.055	0.111
-557.471	-24.989	-0.103	-0.061
-556.456	-50.390	0.254	-0.120
-555.442	-101.534	-0.086	-0.021
-554.427	-164.535	0.121	0.006
-553.412	387.097	-0.117	-0.242
-552.398	-18.724	0.207	-0.129
-551.383	0.282	-0.259	0.185
-550.369	-200.000	-0.022	-0.107
-549.354	-24.279	0.296	-0.177
-548.339	521.623	0.133	0.312
-547.325	-64.928	-0.187	-0.075
-546.310	-56.419	-0.055	0.024
-545.296	-75.087	-0.413	-0.148
-544.281	87.882	0.122	-0.135
-543.266	10.444	0.183	0.139
-542.252	26.996	0.130	-0.109
-541.237	139.314	0.190	0.250
-540.223	800.000	-0.062	-0.209
-539.208	276.457	-0.066	0.116
-538.193	229.558	-0.230	-0.375
-537.179	-44.467	-0.231	-0.116
-536.164	-186.429	-0.061	-0.001
-535.150	-200.000	-0.024	-0.159
-534.135	130.655	0.099	0.127
-533.121	-85.941	-0.142	0.044
-532.106	84.135	0.288	-0.315
-531.091	330.774	0.096	-0.186
-530.077	-139.009	0.078	-0.008
-529.062	76.229	0.035	-0.037
-528.048	82.457	0.259	-0.281
-527.033	-142.135	-0.286	-0.028
-526.018	282.163	0.103	0.184
-525.004	800.000	0.056	-0.216
-523.989	202.267	0.122	-0.189
-522.975	22.720	0.197	0.161
-521.960	-58.131	0.087	0.038
-520.945	29.354	-0.182	-0.155
-519.931	-42.778	-0.144	0.073
-518.916	218.601	0.136	-0.218
-517.902	4.364	-0.306	0.224
-516.887	-200.000	-0.001	-0.073
-515.872	42.564	0.105	0.096
-514.858	781.802	0.091	0.248
-513.843	-200.000	0.000	0.139
-512.829	687.696	-0.063	-0.164
-511.814	-18.925	-0.163	0.101
-510.799	-9.437	0.154	-0.102
-509.785	41.393	-0.222	0.200
-508.770	800.000	-0.053	0.188
-507.756	170.224	0.178	-0.255
-506.741	369.451	0.080	-0.161
-505.726	59.025	-0.119	-0.117
-504.712	-83.008	0.406	-0.131
-503.697	-200.000	-0.010	-0.151
-502.683	97.881	0.264	-0.303
-501.668	-7.013	-0.287	-0.194
-500.653	-200.000	-0.009	-0.198
-499.639	-142.549	-0.309	0.030
-498.624	6.077	0.392	0.290
-497.610	800.000	0.052	-0.162
-496.595	76.237	0.176	-0.186
-495.581	-200.000	0.028	-0.157
-494.566	-152.887	-0.125	0.009
-493.551	-123.159	0.607	-0.097
-492.537	446.623	-0.089	0.196
-491.522	-189.472	0.142	0.002
-490.508	159.878	0.362	0.502
-489.493	715.487	-0.139	0.368
-488.478	627.729	0.177	0.446
-487.464	-72.629	-0.425	0.156
-486.449	253.509	-0.089	-0.152
-485.435	130.459	0.132	-0.169
-484.420	-113.285	-0.412	0.081
-483.405	-200.000	-0.017	-0.116
-482.391	-5.290	-0.228	0.156
-481.376	-116.290	0.489	-0.090
-480.362	245.014	-0.162	0.272
-479.347	-87.968	-0.306	-0.092
-478.332	-0.455	0.215	-0.152
-477.318	91.119	0.322	0.360
-476.303	800.000	-0.041	0.119
-475.289	-200.000	0.003	0.051
-474.274	513.102	0.075	-0.175
-473.259	-125.615	-0.236	0.036
-472.245	6.777	-0.043	0.032
-471.230	-27.184	-0.214	-0.124
-470.216	-200.000	0.008	0.422
-469.201	-12.352	-0.182	0.119
-468.186	52.753	-0.225	0.214
-467.172	302.088	-0.072	-0.133
-466.157	353.048	-0.085	0.168
-465.143	176.546	-0.151	0.218
-464.128	85.627	-0.166	-0.182
-463.113	162.873	0.126	0.176
-462.099	-2.766	0.240	0.167
-461.084	147.708	0.013	0.017
-460.070	-200.000	-0.046	-0.348
-459.055	26.977	0.058	0.048
-458.040	800.000	-0.035	0.106
-457.026	-102.524	0.367	0.087
-456.011	137.488	-0.242	-0.315
-454.997	-120.623	-0.128	0.022
-453.982	134.616	-0.103	-0.133
-452.968	384.285	-0.165	0.338
-451.953	-90.041	-0.129	-0.037
-450.938	-9.287	-0.319	0.212
-449.924	90.496	0.360	0.401
-448.909	342.996	0.058	-0.112
-447.895	-200.000	0.011	0.237
-446.880	-119.544	0.181	0.031
-445.865	-58.003	-0.313	0.136
-444.851	221.309	0.112	-0.179
-443.836	-200.000	-0.044	-0.339
-442.822	-133.670	-0.154	0.019
-441.807	-200.000	-0.009	-0.166
-440.792	154.191	0.034	0.047
-439.778	-57.590	0.015	-0.007
-438.763	-50.425	-0.166	0.078
-437.749	-15.360	0.229	-0.146
-436.734	110.543	-0.085	0.102
-435.719	-64.563	0.241	-0.097
-434.705	800.000	-0.073	-0.239
-433.690	524.911	0.119	0.278
-432.676	-155.683	0.070	0.004
-431.661	800.000	-0.138	0.444
-430.646	-22.219	-0.215	-0.130
-429.632	-16.505	0.436	0.275
-428.617	-78.746	0.106	0.036
-427.603	190.521	-0.210	0.314
-426.588	-200.000	-0.001	0.141
-425.573	298.093	-0.170	-0.311
-424.559	-135.140	0.046	-0.005
-423.544	800.000	-0.067	0.246
-422.530	310.210	0.141	-0.262
-421.515	-108.418	-0.496	0.106
-420.500	46.530	-0.137	0.127
-419.486	-200.000	-0.031	0.157
-418.471	-66.175	0.109	0.043
-417.457	-200.000	-0.004	0.286
-416.442	-35.849	0.171	0.092
-415.428	-200.000	-0.030	0.273
-414.413	34.910	-0.217	0.189
-413.398	68.265	0.153	0.156
-412.384	18.502	-0.156	0.124
-411.369	-123.961	0.147	0.023
-410.355	242.288	-0.071	-0.118
-409.340	-131.924	0.116	-0.015
-408.325	-76.813	-0.194	-0.067
-407.311	221.630	0.140	0.223
-406.296	7.817	-0.053	0.040
-405.282	22.502	0.226	0.184
-404.267	-76.322	-0.156	0.055
-403.252	157.514	0.122	-0.168
-402.238	13.056	0.140	0.108
-401.223	-74.370	-0.128	0.046
-400.209	800.000	-0.063	-0.185
-399.194	-93.065	0.130	0.036
-398.179	390.927	0.080	0.165
-397.165	290.705	-0.069	-0.125
-396.150	-40.009	0.196	0.102
-395.136	-40.889	-0.203	0.104
-394.121	-46.661	-0.256	-0.125
-393.106	800.000	-0.068	-0.226
-392.092	-200.000	0.012	-0.144
-391.077	29.122	-0.068	0.058
-390.063	38.567	-0.036	0.032
-389.048	-5.690	-0.133	0.091
-388.033	-200.000	-0.019	-0.169
-387.019	255.231	0.068	0.116
-386.004	-73.711	0.387	-0.140
-384.990	151.759	0.238	-0.322
-383.975	59.607	-0.206	0.201
-382.960	-187.507	-0.041	0.001
-381.946	800.000	-0.069	0.228
-380.931	-39.227	-0.315	-0.164
-379.917	-200.000	-0.007	-0.043
-378.902	13.043	-0.121	0.093
-377.888	800.000	0.112	0.311
-376.873	-200.000	0.038	0.273
-375.858	20.570	0.345	-0.277
-374.844	126.504	0.141	-0.177
-373.829	-81.647	0.066	0.021
-372.815	-200.000	0.012	0.108
-371.800	399.576	-0.092	-0.191
-370.785	800.000	-0.069	-0.275
-369.771	-200.000	0.000	-0.525
-368.756	225.034	-0.070	-0.112
-367.742	800.000	-0.054	0.160
-366.727	-90.901	0.206	0.059
-365.712	-36.192	-0.192	-0.103
-364.698	-200.000	-0.108	-0.479
-363.683	-95.459	-0.056	-0.015
-362.669	17.958	-0.088	-0.070
-361.654	-120.252	0.218	0.037
-360.639	-65.366	0.036	0.014
-359.625	597.723	-0.118	-0.291
-358.610	-69.155	0.263	0.100
-357.596	-68.478	0.144	-0.056
-356.581	-59.851	0.246	0.105
-355.566	134.290	-0.070	0.090
-354.552	381.161	0.104	0.211
-353.537	4.229	-0.203	-0.147
-352.523	16.611	-0.023	-0.018
-351.508	419.428	0.019	0.040
-350.493	94.229	0.059	0.066
-349.479	-16.193	-0.248	-0.156
-348.464	-200.000	-0.060	-0.477
-347.450	-157.824	0.118	-0.007
-346.435	-176.262	-0.204	0.005
-345.420	-200.000	-0.042	-0.265
-344.406	-129.732	-0.265	-0.036
-343.391	162.688	-0.101	0.140
-342.377	6.306	-0.312	-0.230
-341.362	-200.000	-0.010	0.250
-340.348	109.457	0.111	0.132
-339.333	48.508	0.274	0.255
-338.318	-200.000	-0.009	0.187
-337.304	169.570	-0.044	0.062
-336.289	-200.000	0.020	-0.191
-335.275	141.532	-0.034	0.045
-334.260	800.000	-0.042	0.146
-333.245	800.000	-0.104	0.446
-332.231	-103.148	-0.057	-0.013
-331.216	111.920	-0.094	-0.113
-330.202	-137.700	0.284	-0.032
-329.187	-200.000	0.000	-0.067
-328.172	800.000	0.021	-0.065
-327.158	-200.000	-0.004	0.359
-326.143	71.090	0.076	0.078
-325.129	-200.000	-0.060	-0.435
-324.114	747.428	-0.028	-0.076
-323.099	385.863	-0.103	0.210
-322.085	-4.855	-0.256	-0.175
-321.070	-26.202	0.490	-0.285
-320.056	800.000	-0.116	0.372
-319.041	-72.834	0.139	-0.051
-318.026	103.038	-0.106	0.123
-317.012	-94.211	0.036	0.010
-315.997	800.000	-0.061	0.240
-314.983	-42.907	0.183	0.092
-313.968	592.967	0.137	-0.335
-312.953	-86.189	-0.261	0.080
-311.939	333.621	-0.215	-0.411
-310.924	181.045	-0.172	-0.250
-309.910	26.197	0.253	0.210
-308.895	-200.000	-0.001	0.091
-307.880	-200.000	-0.001	-0.084
-306.866	-81.598	-0.135	-0.044
-305.851	143.755	0.131	0.173
-304.837	-124.376	-0.217	-0.033
-303.822	16.532	-0.221	-0.173
-302.807	800.000	0.075	0.309
-301.793	-200.000	0.002	0.148
-300.778	-80.854	-0.416	-0.137
-299.764	66.804	0.149	-0.150
-298.749	800.000	0.045	-0.185
-297.735	-103.473	0.309	0.072
-296.720	114.435	0.016	-0.019
-295.705	-200.000	0.010	0.171
-294.691	339.299	-0.106	0.205
-293.676	-21.912	-0.229	0.138
-292.662	478.246	0.073	0.163
-291.647	-71.847	0.152	-0.056
-290.632	729.129	0.011	-0.029
-289.618	-200.000	-0.095	0.510
-288.603	62.744	-0.218	0.216
-287.589	141.346	0.351	0.460
-286.574	-4.862	0.251	0.171
-285.559	-86.930	0.208	0.063
-284.545	-32.875	-0.133	-0.073
-283.530	-200.000	0.017	-0.377
-282.516	-66.469	0.337	0.132
-281.501	-200.000	0.042	-0.248
-280.486	-68.928	0.139	-0.053
-279.472	85.933	-0.174	-0.189
-278.457	-200.000	0.060	-0.350
-277.443	-73.237	0.170	-0.062
-276.428	782.273	0.066	0.178
-275.413	4.186	0.037	-0.027
-274.399	354.383	0.057	-0.113
-273.384	-43.566	-0.394	0.197
-272.370	-200.000	-0.032	0.157
-271.355	48.816	-0.167	0.155
-270.340	43.004	0.234	0.211
-269.326	95.867	0.111	0.126
-268.311	-93.349	0.146	-0.040
-267.297	-107.903	0.098	-0.021
-266.282	-56.334	-0.233	0.102
-265.267	-82.034	0.084	-0.027
-264.253	310.684	0.141	-0.261
-263.238	-93.961	0.140	-0.038
-262.224	-153.681	0.129	0.009
-261.209	-45.844	0.291	-0.142
-260.195	-200.000	0.032	-0.144
-259.180	-200.000	-0.023	-0.129
-258.165	634.496	0.083	0.209
-257.151	-92.620	0.264	0.073
-256.136	161.371	0.079	-0.109
-255.122	-65.297	0.080	0.032
-254.107	-58.466	0.012	-0.005
-253.092	-167.886	0.148	0.006
-252.078	-31.795	0.035	-0.019
-251.063	-160.908	-0.090	0.005
-250.049	87.320	0.169	0.185
-249.034	-107.776	0.221	0.048
-248.019	741.673	0.108	-0.287
-247.005	-200.000	0.044	-0.324
-245.990	211.570	-0.058	0.091
-244.976	-150.311	-0.262	0.020
-243.961	34.303	-0.216	-0.186
-242.946	36.991	-0.064	-0.056
-241.932	9.833	-0.228	0.171
-240.917	-200.000	-0.041	0.341
-239.903	32.343	0.112	-0.095
-238.888	-101.671	0.069	-0.017
-237.873	71.420	-0.134	0.137
-236.859	-73.952	0.272	-0.097
-235.844	434.613	0.111	-0.239
-234.830	-154.549	-0.325	-0.021
-233.815	24.375	-0.251	0.205
-232.800	-90.203	-0.403	0.116
-231.786	-92.266	0.191	-0.053
-230.771	-114.285	0.041	-0.008
-229.757	-124.539	0.329	0.050
-228.742	14.897	-0.191	-0.147
-227.727	800.000	-0.149	0.417
-226.713	-200.000	-0.015	0.104
-225.698	789.119	0.112	-0.302
-224.684	221.088	-0.081	-0.128
-223.669	-0.277	-0.153	-0.107
-222.655	236.658	-0.074	-0.122
-221.640	14.470	0.339	0.261
-220.625	-26.654	-0.183	0.106
-219.611	800.000	0.030	-0.116
-218.596	-123.068	-0.190	-0.030
-217.582	-63.921	-0.192	0.078
-216.567	-108.169	0.233	-0.050
-215.552	401.416	-0.049	0.102
-214.538	-200.000	-0.004	0.231
-213.523	-66.466	-0.369	0.145
-212.509	-1.973	-0.090	-0.062
-211.494	-200.000	0.078	0.458
-210.479	82.803	0.278	0.298
-209.465	34.162	0.062	-0.053
-208.450	-50.386	0.193	-0.090
-207.436	727.458	-0.036	-0.094
-206.421	98.483	0.176	-0.200
-205.406	268.820	0.089	-0.154
-204.392	-12.360	0.106	-0.068
-203.377	-176.840	0.102	0.003
-202.363	-200.000	0.039	0.237
-201.348	-57.792	0.072	-0.031
-200.333	0.747	0.318	-0.224
-199.319	-120.463	0.104	0.017
-198.304	-149.238	0.257	-0.020
-197.290	26.157	-0.154	-0.127
-196.275	-102.294	-0.217	0.051
-195.260	-200.000	0.001	-0.032
-194.246	-43.435	-0.241	-0.120
-193.231	48.261	-0.274	0.252
-192.217	800.000	-0.087	-0.367
-191.202	-200.000	-0.039	-0.302
-190.187	-94.265	-0.368	0.099
-189.173	-166.944	-0.047	-0.002
-188.158	214.912	-0.174	0.272
-187.144	-200.000	-0.012	-0.233
-186.129	-16.790	0.185	0.115
-185.114	144.746	-0.240	-0.316
-184.100	-123.435	0.203	-0.032
-183.085	800.000	0.035	-0.142
-182.071	800.000	-0.114	-0.311
-181.056	-200.000	0.037	0.204
-180.042	-53.533	0.382	0.172
-179.027	360.152	0.268	0.528
-178.012	-38.810	-0.078	-0.041
-176.998	367.776	0.094	0.186
-175.983	-200.000	-0.007	-0.195
-174.969	300.495	-0.150	0.273
-173.954	-148.007	0.216	-0.018
-172.939	-138.700	-0.278	-0.030
-171.925	707.505	0.054	0.141
-170.910	-106.940	-0.333	0.073
-169.896	-200.000	0.025	-0.123
-168.881	227.588	0.159	0.255
-167.866	-71.165	-0.288	0.107
-166.852	210.812	-0.020	0.032
-165.837	800.000	0.075	0.254
-164.823	60.280	-0.187	-0.182
-163.808	-32.266	0.181	-0.100
-162.793	-3.401	0.137	0.094
-161.779	147.856	0.026	0.034
-160.764	-69.999	-0.092	-0.035
-159.750	228.956	-0.056	0.090
-158.735	2.378	0.065	0.046
-157.720	-200.000	-0.021	-0.345
-156.706	-110.575	-0.193	-0.039
-155.691	604.590	-0.067	-0.165
-154.677	-200.000	0.004	-0.305
-153.662	310.170	-0.092	0.170
-152.647	-51.387	0.361	0.166
-151.633	800.000	0.010	0.033
-150.618	-73.067	-0.235	0.085
-149.604	134.631	-0.234	0.298
-148.589	-173.051	0.377	0.011
-147.574	-200.000	0.028	0.145
-146.560	-200.000	0.053	0.489
-145.545	-95.918	0.153	-0.040
-144.531	-57.736	-0.121	0.052
-143.516	-133.072	0.385	0.048
-142.502	-23.994	-0.256	-0.151
-141.487	-49.882	0.153	-0.071
-140.472	-107.883	0.106	-0.023
-139.458	-200.000	-0.014	-0.070
-138.443	800.000	0.106	0.349
-137.429	800.000	0.066	0.183
-136.414	48.200	0.059	0.055
-135.399	-72.937	0.124	0.045
-134.385	134.031	0.160	-0.203
-133.370	-200.000	0.018	-0.104
-132.356	545.977	0.058	0.137
-131.341	61.181	-0.193	0.188
-130.326	-91.789	0.100	0.028
-129.312	98.386	-0.196	0.222
-128.297	-200.000	-0.003	0.261
-127.283	383.056	0.101	0.204
-126.268	69.965	-0.255	0.259
-125.253	-39.726	0.146	0.075
-124.239	240.310	0.061	-0.100
-123.224	-2.266	0.169	0.117
-122.210	-12.880	-0.111	0.071
-121.195	127.283	0.211	-0.263
