DTS Sentinel unit serial number:	SN413079Multiplexer serial number:	ORYXHardware model number:	OX4-SRSoftware version number:	ORYX F/W v4.00 Oryx Data Collector v3.7.2.0data status	okinstallation	princeton_trtdifferential loss correction	single-endedforward channel	channel 4reverse channel	N/Adate	2019/09/15time	15:49:34forward acquisition time	60.00reverse acquisition time	0.00gamma	496.2192k internal	0.2279k external	0.2279temperature offset calibration	0.9947default loss term (dB/km)	0.3790temperature slope calibration	1.0000multiplexer offset coefficient	1.0000multiplexer slope coefficient	1.0000fibre end	0.00T internal ref (°C)	42.12T ext. ref 1 (°C)	5.23T ext. ref 2 (°C)	40.45length (m)	temperature (°C)	Stokes	anti-Stokes-747.200	-125.232	0.198	-0.031
-746.185	-118.375	-0.389	-0.071
-745.171	27.116	0.050	0.043
-744.156	-58.128	-0.172	-0.077
-743.142	-111.210	-0.259	-0.055
-742.127	-83.883	-0.295	0.097
-741.112	-200.000	0.035	0.195
-740.098	5.055	0.317	0.240
-739.083	-200.000	0.004	-0.040
-738.069	-200.000	0.005	-0.155
-737.054	154.018	0.158	-0.222
-736.039	296.427	-0.098	-0.185
-735.025	211.427	0.040	-0.065
-734.010	798.946	0.017	-0.047
-732.996	-200.000	0.028	0.157
-731.981	800.000	0.046	0.175
-730.966	-87.412	0.222	0.069
-729.952	23.257	-0.090	0.076
-728.937	479.682	-0.111	-0.259
-727.923	78.814	0.106	-0.116
-726.908	161.261	-0.150	-0.216
-725.894	-132.056	0.229	-0.031
-724.879	-97.311	-0.134	0.036
-723.864	76.417	-0.152	0.166
-722.850	11.493	-0.210	0.166
-721.835	-67.667	0.150	-0.060
-720.821	-27.320	-0.125	-0.075
-719.806	800.000	-0.047	0.172
-718.791	800.000	-0.098	-0.316
-717.777	-156.246	0.241	-0.016
-716.762	-200.000	0.001	-0.195
-715.748	138.436	-0.164	-0.221
-714.733	-49.767	0.357	-0.175
-713.718	-200.000	0.044	-0.278
-712.704	6.717	0.216	-0.165
-711.689	-200.000	-0.001	-0.147
-710.675	112.658	-0.070	0.087
-709.660	588.478	-0.155	-0.392
-708.645	-200.000	0.003	0.307
-707.631	334.772	-0.090	0.178
-706.616	-77.273	-0.314	-0.112
-705.602	666.942	0.072	0.191
-704.587	143.359	-0.142	0.194
-703.572	565.158	0.060	0.150
-702.558	800.000	0.039	0.152
-701.543	800.000	0.116	-0.364
-700.529	-62.684	-0.325	-0.138
-699.514	800.000	0.100	0.318
-698.499	-200.000	0.013	0.087
-697.485	-81.865	-0.132	-0.044
-696.470	260.687	0.080	-0.143
-695.456	181.493	0.123	-0.186
-694.441	224.536	-0.052	-0.086
-693.426	800.000	-0.080	-0.311
-692.412	-110.715	0.153	-0.032
-691.397	-117.205	0.096	0.018
-690.383	40.496	0.192	-0.177
-689.368	160.948	0.232	-0.332
-688.354	-153.120	0.161	-0.012
-687.339	-63.838	-0.193	0.081
-686.324	-92.859	-0.046	0.013
-685.310	-141.974	-0.234	0.024
-684.295	356.475	-0.180	-0.368
-683.281	-102.364	0.093	0.023
-682.266	-200.000	0.008	0.396
-681.251	331.513	0.074	-0.146
-680.237	546.987	-0.044	0.108
-679.222	-161.283	0.319	0.017
-678.208	-62.023	0.133	0.057
-677.193	-15.914	0.105	0.068
-676.178	-82.387	0.061	-0.020
-675.164	-200.000	-0.038	0.334
-674.149	314.843	0.056	-0.108
-673.135	270.826	-0.036	0.065
-672.120	-200.000	0.042	-0.242
-671.105	-69.390	0.246	-0.097
-670.091	-131.458	-0.139	-0.019
-669.076	-200.000	-0.009	0.068
-668.062	800.000	0.032	-0.110
-667.047	153.909	0.041	-0.058
-666.032	-55.145	0.073	-0.034
-665.018	-113.899	0.251	-0.050
-664.003	800.000	0.105	-0.419
-662.989	-200.000	-0.007	-0.186
-661.974	-200.000	0.022	-0.443
-660.959	-200.000	0.031	-0.225
-659.945	-200.000	0.021	-0.427
-658.930	105.324	0.199	-0.241
-657.916	-99.606	-0.231	-0.059
-656.901	-200.000	-0.001	-0.234
-655.886	122.675	0.130	-0.167
-654.872	-169.972	-0.460	0.017
-653.857	412.939	0.147	-0.321
-652.843	-200.000	-0.039	-0.219
-651.828	174.182	0.246	0.365
-650.814	423.868	-0.063	-0.139
-649.799	-34.841	0.109	-0.061
-648.784	73.567	-0.145	-0.156
-647.770	497.531	-0.132	-0.311
-646.755	-200.000	-0.010	-0.263
-645.741	-81.057	-0.110	0.037
-644.726	-48.154	0.228	0.113
-643.711	-8.577	-0.179	0.123
-642.697	-84.772	-0.169	0.055
-641.682	0.399	-0.198	0.145
-640.668	-93.075	-0.233	-0.066
-639.653	800.000	0.074	-0.258
-638.638	800.000	0.039	-0.141
-637.624	800.000	-0.083	0.310
-636.609	-28.353	-0.162	0.096
-635.595	88.692	-0.169	-0.192
-634.580	800.000	0.042	-0.181
-633.565	-21.378	-0.165	-0.103
-632.551	4.656	-0.157	-0.118
-631.536	-200.000	-0.031	-0.230
-630.522	-109.539	-0.137	-0.030
-629.507	800.000	0.098	0.293
-628.492	-200.000	0.043	-0.270
-627.478	-200.000	0.000	0.332
-626.463	-65.825	0.279	-0.114
-625.449	-200.000	0.024	0.124
-624.434	-200.000	-0.020	0.135
-623.419	-5.717	-0.096	0.067
-622.405	800.000	-0.056	-0.183
-621.390	11.403	0.119	0.093
-620.376	34.033	-0.295	0.263
-619.361	115.596	-0.200	-0.250
-618.346	-200.000	0.022	-0.129
-617.332	-200.000	0.130	-0.000
-616.317	-200.000	0.008	0.126
-615.303	-141.121	-0.163	-0.017
-614.288	575.105	0.063	0.158
-613.273	124.203	0.172	-0.221
-612.259	800.000	-0.082	0.259
-611.244	-7.266	0.122	0.084
-610.230	-45.135	0.227	-0.116
-609.215	71.710	-0.290	0.309
-608.201	67.115	-0.106	0.111
-607.186	-152.244	-0.352	0.026
-606.171	218.426	-0.038	0.062
-605.157	13.715	0.016	0.013
-604.142	264.437	-0.194	-0.346
-603.128	47.329	0.051	0.049
-602.113	-115.833	-0.054	0.010
-601.098	-115.392	-0.242	-0.047
-600.084	800.000	-0.015	0.061
-599.069	22.473	-0.016	-0.014
-598.055	-200.000	-0.009	-0.044
-597.040	-58.767	0.117	-0.052
-596.025	800.000	0.055	0.179
-595.011	-46.575	0.193	0.097
-593.996	-200.000	-0.021	0.192
-592.982	-61.599	0.093	-0.040
-591.967	-59.083	0.274	-0.121
-590.952	-106.341	0.236	-0.054
-589.938	32.910	0.076	0.068
-588.923	179.679	-0.134	0.201
-587.909	269.269	-0.144	0.259
-586.894	-200.000	0.004	0.155
-585.879	-174.622	0.202	0.006
-584.865	-200.000	-0.028	0.283
-583.850	405.807	-0.090	-0.194
-582.836	-117.015	-0.283	-0.053
-581.821	275.464	-0.116	-0.211
-580.806	-200.000	0.015	0.146
-579.792	26.584	0.095	-0.081
-578.777	-200.000	-0.047	-0.284
-577.763	41.048	-0.013	0.012
-576.748	40.478	-0.119	0.109
-575.733	800.000	0.035	-0.123
-574.719	-52.063	0.129	-0.061
-573.704	-200.000	0.034	0.304
-572.690	18.861	-0.149	0.122
-571.675	-40.772	0.105	0.056
-570.661	166.205	0.082	-0.119
-569.646	556.419	-0.042	0.105
-568.631	644.995	-0.167	-0.435
-567.617	-200.000	0.040	-0.210
-566.602	471.077	0.073	0.168
-565.588	-51.635	-0.195	0.093
-564.573	590.590	-0.143	-0.362
-563.558	-22.132	0.268	0.167
-562.544	213.084	0.091	-0.146
-561.529	107.808	0.148	-0.181
-560.515	800.000	-0.071	-0.288
-559.500	54.391	0.031	-0.030
-558.485	-91.280	0.169	0.049
-557.471	-44.949	-0.032	-0.016
-556.456	327.476	0.070	0.138
-555.442	-178.221	0.529	0.013
-554.427	-200.000	0.015	0.196
-553.412	-200.000	-0.021	0.283
-552.398	-67.874	0.445	0.178
-551.383	-49.188	0.381	-0.186
-550.369	-60.091	0.258	-0.112
-549.354	25.065	-0.255	0.216
-548.339	800.000	-0.073	-0.291
-547.325	47.363	-0.159	0.151
-546.310	81.209	0.067	0.074
-545.296	-92.304	-0.162	-0.047
-544.281	436.464	0.080	0.178
-543.266	-200.000	-0.066	0.294
-542.252	182.841	-0.127	0.191
-541.237	-52.169	-0.223	-0.106
-540.223	800.000	0.023	0.081
-539.208	-87.390	0.128	-0.040
-538.193	-200.000	0.039	0.365
-537.179	640.303	-0.078	-0.204
-536.164	-98.090	-0.212	0.056
-535.150	-37.868	-0.110	0.060
-534.135	108.636	-0.152	-0.185
-533.121	463.907	-0.038	0.086
-532.106	62.314	0.240	0.244
-531.091	-92.641	0.375	0.107
-530.077	-200.000	0.003	-0.172
-529.062	-72.140	-0.193	-0.073
-528.048	800.000	0.121	-0.437
-527.033	-101.492	0.196	-0.049
-526.018	-131.960	0.250	-0.033
-525.004	-57.872	-0.116	0.052
-523.989	474.597	0.094	0.217
-522.975	55.918	-0.202	0.200
-521.960	118.424	0.175	0.221
-520.945	800.000	0.092	-0.310
-519.931	-80.626	0.082	-0.028
-518.916	-74.041	-0.206	-0.076
-517.902	131.415	0.178	-0.234
-516.887	-46.947	-0.252	-0.126
-515.872	-74.835	-0.108	0.039
-514.858	167.916	-0.184	-0.267
-513.843	22.630	-0.276	-0.230
-512.829	-123.004	0.141	0.023
-511.814	109.560	0.292	-0.357
-510.799	800.000	0.073	0.246
-509.785	428.896	0.188	0.415
-508.770	-40.830	0.331	-0.175
-507.756	-42.138	-0.234	-0.122
-506.741	30.396	-0.230	-0.200
-505.726	-72.772	0.203	-0.076
-504.712	-115.551	0.077	-0.015
-503.697	479.638	0.063	-0.147
-502.683	800.000	-0.018	0.058
-501.668	-91.937	-0.129	0.037
-500.653	291.569	-0.187	0.347
-499.639	-128.140	-0.126	-0.018
-498.624	-51.316	0.016	-0.008
-497.610	459.735	0.075	-0.170
-496.595	193.602	-0.162	0.251
-495.581	-200.000	0.044	-0.233
-494.566	-119.079	0.087	0.016
-493.551	-146.488	-0.315	0.028
-492.537	-200.000	-0.004	0.041
-491.522	-175.503	-0.359	-0.010
-490.508	-65.936	0.159	-0.065
-489.493	-73.483	-0.340	0.127
-488.478	-64.294	0.146	-0.061
-487.464	403.411	0.109	0.233
-486.449	-66.659	-0.307	0.124
-485.435	800.000	0.081	0.254
-484.420	-47.470	0.223	-0.111
-483.405	143.150	0.159	0.216
-482.391	15.529	0.201	-0.161
-481.376	-200.000	-0.013	0.169
-480.362	330.845	-0.056	-0.109
-479.347	8.437	-0.128	0.098
-478.332	-99.548	-0.234	-0.060
-477.318	157.928	0.024	0.035
-476.303	800.000	-0.062	-0.262
-475.289	12.025	0.206	0.161
-474.274	-147.239	0.205	-0.018
-473.259	245.821	-0.165	0.283
-472.245	-200.000	0.026	-0.174
-471.230	6.742	0.120	-0.091
-470.216	-108.148	0.335	0.074
-469.201	-88.350	-0.265	0.081
-468.186	800.000	0.083	0.335
-467.172	304.432	-0.074	-0.140
-466.157	-150.982	-0.186	-0.014
-465.143	266.552	-0.142	-0.252
-464.128	-130.517	-0.366	0.050
-463.113	-200.000	-0.065	0.356
-462.099	-200.000	-0.027	0.195
-461.084	-36.378	-0.074	-0.040
-460.070	29.388	0.192	0.166
-459.055	-104.754	-0.213	-0.050
-458.040	37.573	-0.134	-0.121
-457.026	-43.559	-0.207	-0.106
-456.011	373.893	-0.082	0.171
-454.997	-67.299	0.335	-0.134
-453.982	-33.459	-0.124	0.070
-452.968	133.863	-0.040	0.053
-451.953	285.720	0.140	-0.257
-450.938	-200.000	0.029	-0.160
-449.924	269.244	-0.168	-0.301
-448.909	-167.624	-0.109	0.004
-447.895	525.578	-0.109	0.260
-446.880	800.000	0.048	-0.177
-445.865	-118.498	-0.267	-0.048
-444.851	-129.743	0.046	-0.006
-443.836	-119.685	-0.391	-0.069
-442.822	-200.000	0.037	0.177
-441.807	152.783	-0.135	-0.187
-440.792	537.128	0.134	0.324
-439.778	104.893	0.173	-0.207
-438.763	-89.362	-0.160	-0.048
-437.749	-200.000	0.057	0.355
-436.734	250.551	0.127	0.220
-435.719	728.202	0.064	0.173
-434.705	-57.518	0.403	0.180
-433.690	-183.547	0.120	-0.002
-432.676	-133.082	0.222	-0.029
-431.661	218.511	0.142	0.230
-430.646	34.494	0.133	-0.118
-429.632	5.070	-0.128	0.096
-428.617	206.927	-0.285	-0.451
-427.603	5.443	-0.112	-0.084
-426.588	-200.000	-0.049	0.291
-425.573	-200.000	-0.037	-0.274
-424.559	-30.248	-0.282	-0.163
-423.544	54.532	-0.178	-0.174
-422.530	-107.742	-0.123	0.027
-421.515	-178.117	0.075	-0.002
-420.500	800.000	-0.037	-0.162
-419.486	-107.173	-0.153	0.034
-418.471	-71.439	0.166	0.063
-417.457	-71.587	-0.098	-0.037
-416.442	-20.860	-0.360	-0.225
-415.428	60.203	-0.037	0.037
-414.413	-118.805	0.207	-0.037
-413.398	-75.173	-0.459	-0.167
-412.384	-21.666	0.112	-0.070
-411.369	-149.977	-0.223	-0.018
-410.355	-108.537	0.086	-0.019
-409.340	9.044	-0.105	0.080
-408.325	7.231	-0.067	0.051
-407.311	-200.000	-0.040	-0.263
-406.296	57.751	-0.121	0.121
-405.282	-200.000	0.012	0.466
-404.267	253.522	0.029	-0.051
-403.252	-60.674	-0.196	0.084
-402.238	8.515	0.023	-0.017
-401.223	-200.000	0.079	-0.491
-400.209	33.982	-0.106	0.093
-399.194	-121.311	-0.151	0.026
-398.179	71.203	0.170	0.179
-397.165	98.480	-0.010	-0.012
-396.150	-96.557	0.154	-0.041
-395.136	8.605	-0.188	-0.144
-394.121	-200.000	-0.011	-0.335
-393.106	155.981	0.095	0.132
-392.092	-157.956	-0.190	0.011
-391.077	203.736	0.183	-0.288
-390.063	92.038	0.035	-0.040
-389.048	658.021	0.032	0.084
-388.033	800.000	0.035	-0.116
-387.019	-105.822	0.231	0.053
-386.004	-77.136	0.294	-0.104
-384.990	773.844	-0.002	-0.006
-383.975	-5.616	0.104	-0.072
-382.960	-200.000	-0.017	0.292
-381.946	24.223	-0.082	-0.069
-380.931	10.456	-0.138	0.106
-379.917	150.436	-0.269	-0.371
-378.902	-104.509	0.231	-0.054
-377.888	-200.000	0.032	0.151
-376.873	-88.833	0.307	-0.092
-375.858	-124.926	-0.213	-0.033
-374.844	-200.000	0.003	0.043
-373.829	-200.000	0.038	0.190
-372.815	188.441	-0.185	0.280
-371.800	-121.279	-0.124	-0.021
-370.785	800.000	-0.029	0.127
-369.771	-37.632	-0.240	-0.130
-368.756	214.507	-0.030	-0.049
-367.742	129.472	0.152	0.197
-366.727	125.568	0.086	0.111
-365.712	-200.000	0.015	-0.160
-364.698	77.843	-0.200	0.216
-363.683	-98.373	-0.170	0.044
-362.669	-88.353	-0.345	0.105
-361.654	-57.857	0.205	-0.091
-360.639	57.123	0.247	-0.244
-359.625	-153.755	0.228	-0.016
-358.610	-179.848	0.101	0.002
-357.596	-6.905	0.081	0.056
-356.581	-53.048	0.195	-0.091
-355.566	-200.000	-0.011	-0.112
-354.552	-200.000	-0.067	0.317
-353.537	-200.000	0.027	0.122
-352.523	-200.000	-0.046	-0.208
-351.508	-12.518	-0.240	-0.159
-350.493	-42.037	-0.208	0.108
-349.479	305.780	-0.108	0.204
-348.464	378.279	0.105	0.217
-347.450	-31.406	-0.231	0.132
-346.435	-54.242	0.362	0.167
-345.420	800.000	-0.041	0.165
-344.406	8.571	-0.256	-0.195
-343.391	-200.000	0.051	0.342
-342.377	35.201	-0.128	0.114
-341.362	-163.407	0.086	-0.004
-340.348	168.266	0.223	0.322
-339.333	205.093	-0.134	-0.211
-338.318	360.323	0.075	-0.151
-337.304	800.000	-0.063	0.194
-336.289	-200.000	-0.031	0.250
-335.275	279.921	0.097	-0.176
-334.260	-24.750	-0.184	0.111
-333.245	800.000	0.072	0.241
-332.231	800.000	-0.063	0.201
-331.216	46.322	-0.070	-0.066
-330.202	800.000	-0.063	-0.279
-329.187	120.946	-0.127	0.160
-328.172	104.426	0.205	-0.244
-327.158	-200.000	0.035	-0.465
-326.143	-200.000	0.047	0.391
-325.129	0.738	-0.342	0.248
-324.114	800.000	-0.055	-0.229
-323.099	311.174	-0.096	0.183
-322.085	121.349	0.065	-0.081
-321.070	52.749	-0.345	-0.334
-320.056	449.379	-0.174	-0.389
-319.041	-157.593	-0.118	-0.007
-318.026	-96.132	-0.246	0.066
-317.012	800.000	-0.074	0.279
-315.997	97.938	0.072	0.084
-314.983	-89.657	-0.255	-0.076
-313.968	25.887	0.045	0.038
-312.953	-200.000	0.007	0.041
-311.939	-76.691	0.282	-0.100
-310.924	225.968	0.151	-0.247
-309.910	800.000	0.024	-0.099
-308.895	-96.599	0.365	-0.097
-307.880	10.377	0.153	-0.118
-306.866	63.229	-0.164	0.167
-305.851	61.570	-0.201	0.202
-304.837	800.000	0.058	-0.239
-303.822	-12.453	-0.097	-0.064
-302.807	235.980	0.054	-0.090
-301.793	800.000	0.054	-0.187
-300.778	159.084	0.206	0.290
-299.764	461.812	-0.052	0.117
-298.749	-65.075	0.078	-0.032
-297.735	312.082	0.032	0.061
-296.720	800.000	0.102	0.406
-295.705	0.584	0.110	-0.080
-294.691	633.921	-0.100	-0.256
-293.676	531.453	0.083	0.200
-292.662	91.557	0.252	-0.286
-291.647	205.827	0.043	-0.067
-290.632	379.006	-0.140	0.290
-289.618	800.000	0.127	0.396
-288.603	45.543	-0.281	0.262
-287.589	-49.822	-0.241	0.116
-286.574	172.425	-0.174	-0.253
-285.559	-112.296	0.132	-0.027
-284.545	-200.000	0.008	0.365
-283.530	156.157	-0.070	0.097
-282.516	24.558	-0.019	-0.016
-281.501	486.363	0.044	-0.102
-280.486	800.000	-0.067	-0.230
-279.472	-63.486	0.100	0.041
-278.457	191.389	-0.122	-0.185
-277.443	105.182	-0.203	-0.242
-276.428	74.671	0.164	-0.174
-275.413	39.788	0.152	-0.138
-274.399	-200.000	-0.016	0.168
-273.384	-96.816	0.323	-0.086
-272.370	-200.000	-0.456	0.002
-271.355	-86.246	0.221	-0.069
-270.340	-136.443	-0.262	0.031
-269.326	138.758	-0.114	0.151
-268.311	82.143	0.332	0.364
-267.297	-200.000	-0.005	-0.097
-266.282	100.968	0.106	-0.124
-265.267	-116.701	-0.260	-0.048
-264.253	-200.000	-0.010	0.395
-263.238	-47.522	0.323	0.158
-262.224	282.730	0.216	0.392
-261.209	-200.000	-0.038	0.227
-260.195	-200.000	0.001	-0.107
-259.180	-71.396	0.363	0.137
-258.165	-49.656	0.212	-0.102
-257.151	-87.858	-0.177	0.054
-256.136	27.526	-0.169	-0.144
-255.122	-15.334	0.280	0.181
-254.107	24.787	0.214	0.179
-253.092	-200.000	-0.072	-0.336
-252.078	-34.633	-0.381	-0.211
-251.063	-53.842	-0.323	-0.149
-250.049	-115.649	-0.171	0.032
-249.034	26.393	0.138	-0.117
-248.019	-141.498	0.269	-0.027
-247.005	65.935	-0.113	0.116
-245.990	-1.078	-0.020	0.015
-244.976	-119.155	-0.586	0.103
-243.961	136.305	-0.119	0.157
-242.946	173.168	0.082	0.120
-241.932	-146.464	-0.115	-0.010
-240.917	-59.050	0.147	-0.064
-239.903	-117.325	0.239	-0.044
-238.888	271.326	0.237	0.421
-237.873	-200.000	-0.002	0.016
-236.859	-154.100	-0.177	0.012
-235.844	17.212	0.181	0.145
-234.830	-47.732	0.186	0.091
-233.815	253.446	-0.048	0.083
-232.800	-200.000	0.016	-0.264
-231.786	800.000	-0.063	-0.207
-230.771	800.000	-0.094	-0.351
-229.757	-116.242	0.104	-0.019
-228.742	220.684	0.136	-0.220
-227.727	82.804	0.327	-0.359
-226.713	-200.000	0.085	-0.408
-225.698	800.000	0.107	-0.311
-224.684	-99.085	-0.050	-0.013
-223.669	-166.721	0.206	-0.009
-222.655	414.452	0.103	0.222
-221.640	-200.000	-0.005	0.154
-220.625	800.000	-0.097	0.334
-219.611	114.073	0.066	0.081
-218.596	82.084	-0.181	-0.198
-217.582	522.475	0.021	-0.050
-216.567	-135.905	0.381	0.045
-215.552	-135.868	0.043	-0.005
-214.538	-7.727	0.013	-0.009
-213.523	496.963	0.118	-0.274
-212.509	-32.442	0.120	-0.068
-211.494	347.626	0.094	-0.187
-210.479	-142.356	-0.239	-0.024
-209.465	-200.000	-0.009	0.105
-208.450	344.990	0.077	-0.151
-207.436	237.240	0.034	-0.057
-206.421	-200.000	-0.054	0.359
-205.406	-21.672	-0.243	-0.149
-204.392	-85.878	-0.260	-0.081
-203.377	-200.000	0.007	0.111
-202.363	-149.314	0.109	-0.009
-201.348	-200.000	-0.010	-0.093
-200.333	800.000	0.022	-0.093
-199.319	49.618	0.040	-0.038
-198.304	58.298	0.226	-0.223
-197.290	-200.000	-0.004	0.033
-196.275	164.408	0.029	-0.041
-195.260	272.053	-0.097	-0.172
-194.246	-200.000	0.009	0.259
-193.231	-102.853	0.338	-0.081
-192.217	-200.000	0.029	-0.171
-191.202	224.425	0.077	0.126
-190.187	-101.155	0.228	0.056
-189.173	503.086	0.036	-0.084
-188.158	-89.271	0.355	-0.105
-187.144	269.760	-0.044	0.078
-186.129	213.631	0.081	0.129
-185.114	-116.272	0.283	0.053
-184.100	800.000	-0.022	-0.064
-183.085	800.000	0.044	-0.148
-182.071	-35.056	0.209	-0.115
-181.056	-82.530	0.166	0.054
-180.042	51.500	-0.070	-0.067
-179.027	800.000	0.053	0.164
-178.012	-58.402	0.241	0.105
-176.998	307.719	-0.109	-0.205
-175.983	-42.054	0.214	0.110
-174.969	-1.371	0.159	-0.113
-173.954	525.974	0.176	-0.418
-172.939	-152.732	-0.190	0.014
-171.925	-81.617	-0.089	-0.029
-170.910	-200.000	-0.009	-0.070
-169.896	241.331	-0.202	-0.339
-168.881	140.721	0.100	-0.133
-167.866	800.000	0.067	0.238
-166.852	-111.126	-0.263	0.054
-165.837	-160.951	0.111	0.006
-164.823	-20.038	0.150	0.093
-163.808	248.953	0.103	0.175
-162.793	25.801	0.132	0.111
-161.779	-42.547	-0.223	0.114
-160.764	-200.000	-0.024	0.407
-159.750	-83.293	-0.030	0.010
-158.735	-136.755	0.208	-0.024
-157.720	-200.000	-0.026	0.135
-156.706	31.551	0.351	-0.303
-155.691	-200.000	-0.018	-0.204
-154.677	353.242	0.152	0.303
-153.662	800.000	0.066	0.189
-152.647	-200.000	0.059	-0.276
-151.633	695.493	0.087	-0.230
-150.618	-72.202	0.110	0.041
-149.604	-200.000	0.044	0.267
-148.589	800.000	0.020	0.088
-147.574	369.284	-0.080	-0.163
-146.560	461.737	0.032	0.071
-145.545	-4.973	0.319	0.221
-144.531	800.000	0.192	0.628
-143.516	54.017	0.130	-0.126
-142.502	-12.175	-0.118	0.077
-141.487	399.516	0.233	0.491
-140.472	7.113	0.261	-0.196
-139.458	-62.439	0.153	0.064
-138.443	109.685	0.074	0.089
-137.429	-104.182	-0.194	-0.045
-136.414	800.000	0.096	-0.278
-135.399	86.137	-0.270	-0.299
-134.385	-200.000	-0.020	0.240
-133.370	-108.115	-0.186	-0.040
-132.356	-200.000	0.003	-0.128
-131.341	503.688	-0.130	-0.301
-130.326	160.740	-0.057	-0.080
-129.312	24.332	0.212	-0.176
-128.297	-200.000	0.047	-0.301
-127.283	280.561	0.094	0.168
-126.268	14.798	0.183	0.144
-125.253	86.041	-0.187	-0.207
-124.239	277.148	-0.124	-0.221
-123.224	-200.000	0.016	-0.368
-122.210	-39.194	-0.229	-0.121
-121.195	1.797	0.062	0.045
