DTS Sentinel unit serial number:	SN413079Multiplexer serial number:	ORYXHardware model number:	OX4-SRSoftware version number:	ORYX F/W v4.00 Oryx Data Collector v3.7.2.0data status	okinstallation	princeton_trtdifferential loss correction	single-endedforward channel	channel 4reverse channel	N/Adate	2019/09/12time	23:17:35forward acquisition time	60.00reverse acquisition time	0.00gamma	496.2192k internal	0.2316k external	0.2316temperature offset calibration	1.0173default loss term (dB/km)	0.3790temperature slope calibration	1.0000multiplexer offset coefficient	1.0000multiplexer slope coefficient	1.0000fibre end	0.00T internal ref (°C)	29.12T ext. ref 1 (°C)	3.74T ext. ref 2 (°C)	23.79length (m)	temperature (°C)	Stokes	anti-Stokes-747.200	-86.682	0.168	-0.052
-746.185	237.315	-0.203	-0.341
-745.171	-200.000	0.049	0.241
-744.156	47.612	0.297	0.280
-743.142	-121.015	-0.208	-0.035
-742.127	-78.326	0.095	0.033
-741.112	-77.762	0.200	0.070
-740.098	751.036	0.076	0.209
-739.083	302.758	0.097	0.182
-738.069	563.499	-0.060	0.146
-737.054	-131.237	0.142	-0.019
-736.039	-73.366	-0.192	-0.071
-735.025	-132.879	-0.345	0.044
-734.010	-200.000	-0.024	0.106
-732.996	140.433	-0.203	-0.272
-731.981	-77.955	0.126	-0.044
-730.966	162.861	0.041	0.058
-729.952	48.848	-0.246	-0.233
-728.937	102.938	-0.082	0.097
-727.923	-115.724	-0.281	0.053
-726.908	789.952	0.094	-0.260
-725.894	-25.081	-0.299	-0.179
-724.879	-192.436	0.173	-0.002
-723.864	221.694	-0.227	-0.370
-722.850	10.172	-0.202	-0.156
-721.835	207.194	0.142	0.224
-720.821	140.233	0.147	-0.197
-719.806	-123.710	0.415	0.066
-718.791	-121.261	-0.144	-0.024
-717.777	-36.830	-0.094	-0.051
-716.762	-84.312	-0.470	-0.150
-715.748	30.931	0.054	-0.047
-714.733	800.000	0.088	-0.289
-713.718	-197.011	0.271	-0.002
-712.704	22.722	0.087	0.072
-711.689	193.215	0.042	-0.064
-710.675	800.000	0.160	-0.587
-709.660	800.000	0.164	-0.469
-708.645	-89.474	0.144	-0.043
-707.631	293.992	-0.018	0.033
-706.616	155.093	-0.195	-0.271
-705.602	800.000	-0.107	-0.309
-704.587	800.000	-0.166	-0.650
-703.572	728.376	0.069	0.186
-702.558	170.156	-0.064	0.093
-701.543	96.660	-0.230	-0.266
-700.529	-75.104	0.253	-0.092
-699.514	164.518	0.037	-0.053
-698.499	-144.240	0.221	0.021
-697.485	103.433	-0.068	-0.081
-696.470	-95.796	0.171	-0.046
-695.456	-99.184	0.327	0.084
-694.441	-112.754	-0.134	-0.027
-693.426	24.775	0.090	-0.075
-692.412	25.781	-0.126	-0.106
-691.397	-156.176	0.021	0.001
-690.383	-159.184	0.203	0.012
-689.368	282.917	-0.035	0.063
-688.354	659.586	0.121	0.315
-687.339	85.092	-0.057	-0.063
-686.324	800.000	0.059	0.178
-685.310	-56.591	0.169	-0.075
-684.295	761.406	0.173	-0.475
-683.281	57.775	-0.167	-0.165
-682.266	264.018	-0.118	0.208
-681.251	-71.073	0.142	-0.054
-680.237	800.000	-0.048	-0.169
-679.222	-146.235	-0.231	-0.020
-678.208	62.521	0.078	-0.079
-677.193	-93.071	0.494	0.139
-676.178	85.447	-0.188	-0.208
-675.164	-200.000	-0.027	-0.206
-674.149	-200.000	-0.021	0.220
-673.135	800.000	-0.061	0.217
-672.120	408.547	0.094	-0.201
-671.105	-200.000	-0.011	-0.281
-670.091	781.171	-0.042	-0.115
-669.076	800.000	-0.028	0.100
-668.062	-102.751	-0.170	-0.041
-667.047	-117.599	0.114	0.021
-666.032	-67.935	-0.240	-0.095
-665.018	70.993	0.107	-0.111
-664.003	-52.603	0.209	-0.097
-662.989	-200.000	0.015	-0.185
-661.974	-131.779	0.211	-0.028
-660.959	800.000	0.021	0.067
-659.945	752.473	-0.063	0.172
-658.930	20.026	0.298	-0.243
-657.916	800.000	0.055	-0.216
-656.901	215.490	0.137	0.220
-655.886	51.296	0.160	-0.153
-654.872	5.831	-0.053	-0.039
-653.857	-200.000	-0.003	0.018
-652.843	69.047	-0.131	0.136
-651.828	-21.888	0.239	-0.147
-650.814	800.000	0.036	-0.134
-649.799	-101.325	-0.182	-0.045
-648.784	-85.460	-0.247	-0.078
-647.770	145.808	-0.186	-0.252
-646.755	52.540	0.129	0.124
-645.741	646.478	-0.112	-0.288
-644.726	484.861	0.053	-0.121
-643.711	413.614	0.072	0.154
-642.697	664.835	0.076	0.198
-641.682	-143.237	-0.069	-0.007
-640.668	322.935	-0.020	-0.038
-639.653	94.686	0.097	0.111
-638.638	213.089	-0.043	-0.069
-637.624	800.000	0.049	0.141
-636.609	-174.954	0.158	0.004
-635.595	-77.248	0.249	0.087
-634.580	-104.037	-0.301	-0.071
-633.565	-17.277	-0.081	-0.052
-632.551	800.000	-0.016	-0.061
-631.536	729.897	-0.061	-0.165
-630.522	-41.233	-0.385	-0.200
-629.507	800.000	0.048	-0.197
-628.492	413.719	-0.128	-0.275
-627.478	346.736	-0.135	0.267
-626.463	121.063	0.230	-0.288
-625.449	-104.685	-0.100	0.023
-624.434	64.362	-0.318	-0.322
-623.419	-74.527	0.113	-0.041
-622.405	394.068	0.038	0.080
-621.390	-174.137	-0.332	0.010
-620.376	3.619	-0.324	-0.238
-619.361	-75.480	-0.342	0.123
-618.346	14.618	0.087	-0.068
-617.332	-94.804	0.160	0.044
-616.317	-132.479	0.153	-0.020
-615.303	244.297	0.130	-0.220
-614.288	-53.458	-0.125	-0.058
-613.273	-134.035	-0.310	0.039
-612.259	800.000	-0.027	0.083
-611.244	800.000	0.007	0.023
-610.230	128.512	0.207	-0.265
-609.215	-200.000	-0.017	0.110
-608.201	69.364	0.037	-0.038
-607.186	-75.069	-0.106	0.038
-606.171	-139.925	-0.189	-0.020
-605.157	174.221	0.032	-0.047
-604.142	160.767	0.285	0.400
-603.128	-70.589	-0.244	0.093
-602.113	-61.823	0.091	-0.038
-601.098	-200.000	-0.028	-0.154
-600.084	-151.129	-0.057	-0.004
-599.069	800.000	-0.074	0.273
-598.055	-67.478	0.340	-0.134
-597.040	800.000	-0.046	0.184
-596.025	800.000	0.110	-0.311
-595.011	40.823	-0.166	0.151
-593.996	151.745	0.185	0.253
-592.982	26.560	0.184	-0.155
-591.967	-200.000	0.013	0.272
-590.952	29.035	-0.176	-0.150
-589.938	499.536	0.237	-0.551
-588.923	-200.000	0.052	-0.316
-587.909	-92.881	-0.261	-0.073
-586.894	58.173	0.079	0.078
-585.879	-8.396	-0.110	-0.074
-584.865	-25.627	0.377	-0.224
-583.850	800.000	0.095	0.373
-582.836	231.704	-0.177	-0.291
-581.821	-200.000	-0.005	-0.179
-580.806	-7.938	0.152	0.103
-579.792	235.193	-0.178	0.296
-578.777	236.834	0.160	0.267
-577.763	-107.985	0.060	0.013
-576.748	168.476	-0.134	0.192
-575.733	-170.799	-0.343	-0.012
-574.719	11.744	0.106	-0.082
-573.704	172.181	0.057	-0.083
-572.690	800.000	-0.071	0.221
-571.675	-43.850	0.321	-0.163
-570.661	-11.031	0.277	-0.184
-569.646	-151.494	-0.181	0.013
-568.631	-117.757	0.093	-0.017
-567.617	-105.795	-0.279	-0.063
-566.602	-63.314	-0.105	0.044
-565.588	-11.220	-0.094	-0.062
-564.573	800.000	0.031	-0.106
-563.558	-138.067	-0.121	-0.013
-562.544	-162.431	-0.366	-0.018
-561.529	-70.464	0.088	0.033
-560.515	57.548	-0.143	0.141
-559.500	114.247	-0.137	0.168
-558.485	-200.000	0.018	-0.160
-557.471	-105.983	-0.262	0.059
-556.456	-53.517	-0.103	-0.047
-555.442	296.900	0.184	0.339
-554.427	-79.309	-0.092	-0.031
-553.412	-43.996	0.059	-0.030
-552.398	-200.000	0.007	-0.132
-551.383	-140.989	-0.539	-0.056
-550.369	-21.663	-0.482	-0.295
-549.354	89.423	0.177	0.199
-548.339	-105.636	0.444	0.101
-547.325	-90.655	0.390	-0.113
-546.310	-125.031	-0.102	0.016
-545.296	-68.311	0.196	0.077
-544.281	595.964	0.107	-0.265
-543.266	800.000	-0.088	-0.260
-542.252	-139.697	0.283	0.030
-541.237	800.000	-0.066	-0.230
-540.223	-200.000	-0.033	0.180
-539.208	-77.709	0.025	-0.009
-538.193	800.000	-0.061	-0.204
-537.179	150.244	-0.196	-0.267
-536.164	554.572	0.027	-0.064
-535.150	-200.000	-0.008	-0.291
-534.135	401.878	0.087	-0.184
-533.121	22.835	0.205	0.169
-532.106	101.092	-0.184	0.215
-531.091	-200.000	-0.021	0.132
-530.077	-76.847	-0.191	-0.067
-529.062	2.560	-0.202	0.147
-528.048	81.835	0.264	0.287
-527.033	93.641	0.146	-0.166
-526.018	-145.690	0.064	0.006
-525.004	-200.000	0.038	-0.201
-523.989	30.492	-0.291	-0.249
-522.975	36.601	-0.283	0.251
-521.960	249.559	-0.065	-0.111
-520.945	118.985	-0.095	-0.118
-519.931	-200.000	0.016	0.215
-518.916	-102.600	0.223	0.053
-517.902	285.909	0.050	0.091
-516.887	-76.514	-0.130	0.046
-515.872	-200.000	0.074	0.433
-514.858	103.611	0.180	0.212
-513.843	-200.000	-0.029	0.138
-512.829	435.765	0.022	-0.048
-511.814	-200.000	-0.006	-0.062
-510.799	-37.605	-0.218	-0.117
-509.785	88.179	0.038	-0.042
-508.770	202.460	0.174	0.269
-507.756	-38.125	0.250	-0.133
-506.741	800.000	-0.096	-0.290
-505.726	800.000	-0.028	-0.081
-504.712	301.801	0.056	-0.103
-503.697	-64.993	0.292	-0.118
-502.683	28.006	0.241	-0.204
-501.668	-29.916	-0.081	0.046
-500.653	192.727	0.057	0.087
-499.639	-147.680	0.148	-0.012
-498.624	-70.479	0.288	0.109
-497.610	800.000	0.067	-0.227
-496.595	-92.667	-0.159	-0.045
-495.581	-89.928	-0.144	0.042
-494.566	104.475	-0.232	-0.274
-493.551	18.373	0.114	0.091
-492.537	29.038	-0.156	-0.133
-491.522	288.210	-0.101	-0.183
-490.508	189.302	0.161	-0.243
-489.493	219.996	0.127	-0.205
-488.478	149.009	0.224	-0.304
-487.464	-200.000	0.016	0.242
-486.449	-97.392	0.085	-0.022
-485.435	232.979	-0.114	0.189
-484.420	-200.000	-0.026	0.213
-483.405	533.142	-0.057	-0.135
-482.391	-30.819	-0.211	0.119
-481.376	-200.000	-0.023	0.106
-480.362	432.314	-0.117	0.254
-479.347	-105.852	0.279	-0.063
-478.332	106.179	-0.055	0.066
-477.318	-36.598	-0.155	-0.083
-476.303	-200.000	0.045	0.333
-475.289	4.374	-0.293	0.215
-474.274	-78.439	0.243	0.083
-473.259	501.570	0.074	-0.172
-472.245	-4.830	0.406	-0.280
-471.230	-182.114	0.236	-0.004
-470.216	800.000	0.084	0.234
-469.201	-115.676	-0.170	-0.032
-468.186	216.428	-0.038	-0.060
-467.172	-200.000	-0.005	-0.422
-466.157	467.266	-0.094	-0.211
-465.143	-113.599	-0.087	-0.017
-464.128	800.000	0.054	0.222
-463.113	-164.249	-0.235	-0.011
-462.099	-82.867	-0.246	-0.080
-461.084	-14.643	-0.160	-0.103
-460.070	-200.000	-0.000	-0.049
-459.055	-200.000	-0.026	0.247
-458.040	-96.346	0.205	0.054
-457.026	131.250	0.195	0.250
-456.011	-112.473	-0.189	0.038
-454.997	-200.000	-0.041	-0.423
-453.982	237.122	0.138	-0.229
-452.968	-169.896	0.310	-0.011
-451.953	-73.143	-0.227	-0.083
-450.938	-200.000	-0.038	-0.378
-449.924	23.679	0.149	-0.123
-448.909	53.362	0.049	0.047
-447.895	-200.000	-0.024	0.195
-446.880	19.777	-0.073	-0.059
-445.865	-49.713	-0.312	0.148
-444.851	334.141	-0.254	0.493
-443.836	800.000	-0.048	-0.134
-442.822	524.207	0.056	-0.131
-441.807	80.007	-0.080	-0.086
-440.792	36.963	0.018	0.016
-439.778	-189.381	0.228	0.003
-438.763	-163.670	-0.320	0.015
-437.749	800.000	-0.102	0.391
-436.734	-54.311	-0.144	0.065
-435.719	-114.212	0.104	-0.020
-434.705	-93.239	0.197	-0.055
-433.690	37.763	0.014	0.013
-432.676	90.652	-0.183	0.205
-431.661	152.676	0.257	-0.351
-430.646	-90.802	-0.268	-0.077
-429.632	-200.000	-0.056	-0.287
-428.617	800.000	-0.079	-0.266
-427.603	-200.000	-0.021	-0.110
-426.588	-7.907	0.206	0.139
-425.573	-200.000	-0.053	0.240
-424.559	-200.000	-0.029	0.164
-423.544	-102.158	0.190	-0.046
-422.530	29.185	0.241	-0.205
-421.515	-164.910	0.086	0.004
-420.500	-1.038	0.383	0.271
-419.486	212.896	-0.036	0.057
-418.471	-200.000	-0.017	-0.193
-417.457	800.000	0.052	0.179
-416.442	143.617	-0.193	0.256
-415.428	-71.632	0.127	0.048
-414.413	-200.000	-0.002	-0.243
-413.398	110.627	-0.050	-0.060
-412.384	800.000	0.061	0.193
-411.369	800.000	-0.025	-0.109
-410.355	800.000	-0.099	0.284
-409.340	-168.682	0.016	-0.001
-408.325	-5.747	-0.086	-0.059
-407.311	-143.304	-0.210	-0.020
-406.296	-24.077	-0.316	-0.189
-405.282	86.035	-0.207	0.228
-404.267	-165.211	0.188	-0.008
-403.252	59.231	0.211	-0.208
-402.238	-200.000	0.011	-0.235
-401.223	800.000	0.051	-0.192
-400.209	139.113	-0.033	-0.044
-399.194	77.856	-0.216	-0.230
-398.179	-200.000	-0.025	-0.248
-397.165	-200.000	0.039	0.305
-396.150	341.576	-0.162	0.317
-395.136	-58.853	0.207	-0.090
-394.121	-60.543	-0.101	-0.043
-393.106	800.000	0.057	0.191
-392.092	222.360	0.175	0.281
-391.077	443.727	-0.105	0.230
-390.063	-107.844	0.226	-0.049
-389.048	-89.340	-0.305	-0.090
-388.033	-192.198	0.297	-0.003
-387.019	-128.072	0.266	-0.038
-386.004	304.371	0.057	0.106
-384.990	-199.704	0.234	0.001
-383.975	796.289	0.007	-0.019
-382.960	-170.592	-0.141	0.005
-381.946	-151.065	0.203	0.015
-380.931	-200.000	-0.000	-0.035
-379.917	-87.863	0.255	0.077
-378.902	-101.395	-0.052	-0.013
-377.888	-200.000	0.040	-0.266
-376.873	320.437	-0.083	0.158
-375.858	33.125	-0.037	0.032
-374.844	493.409	0.041	0.094
-373.829	-52.928	-0.393	-0.180
-372.815	-111.422	0.371	0.075
-371.800	-200.000	0.016	0.101
-370.785	123.422	0.162	-0.202
-369.771	800.000	0.094	-0.327
-368.756	142.259	-0.147	-0.194
-367.742	-16.292	-0.372	0.236
-366.727	-168.269	-0.073	-0.003
-365.712	134.002	-0.259	0.335
-364.698	251.664	0.098	-0.166
-363.683	560.584	-0.123	-0.297
-362.669	179.816	-0.197	0.288
-361.654	239.878	0.052	0.086
-360.639	79.409	-0.218	0.233
-359.625	11.886	-0.163	-0.125
-358.610	800.000	-0.080	-0.256
-357.596	-39.341	-0.102	-0.054
-356.581	59.503	0.043	-0.042
-355.566	800.000	-0.077	-0.309
-354.552	-200.000	-0.029	0.172
-353.537	-172.192	-0.185	0.006
-352.523	800.000	0.052	0.185
-351.508	49.017	0.099	0.092
-350.493	-200.000	0.021	0.123
-349.479	59.681	-0.174	0.171
-348.464	-173.244	0.044	-0.001
-347.450	-200.000	0.001	0.123
-346.435	70.998	0.113	0.116
-345.420	226.488	-0.123	-0.200
-344.406	-100.519	0.215	0.053
-343.391	-35.048	0.165	-0.090
-342.377	-50.071	-0.253	-0.119
-341.362	-167.937	-0.178	0.007
-340.348	-84.766	0.339	0.106
-339.333	-149.289	-0.332	-0.026
-338.318	391.207	0.086	-0.178
-337.304	415.799	0.139	-0.296
-336.289	235.793	-0.079	0.130
-335.275	800.000	-0.064	-0.212
-334.260	107.569	-0.054	-0.064
-333.245	-20.650	-0.105	0.064
-332.231	-38.224	-0.146	-0.077
-331.216	-101.812	0.063	-0.015
-330.202	-125.166	0.250	0.038
-329.187	407.455	-0.115	0.242
-328.172	-77.644	0.115	-0.040
-327.158	-140.868	0.286	0.029
-326.143	-67.241	0.190	0.075
-325.129	276.535	-0.125	-0.222
-324.114	131.467	0.204	0.261
-323.099	401.536	0.204	0.426
-322.085	-71.763	-0.157	0.058
-321.070	-200.000	0.027	0.202
-320.056	16.056	-0.207	-0.162
-319.041	80.961	-0.127	-0.137
-318.026	88.665	-0.066	-0.073
-317.012	-100.983	0.243	0.059
-315.997	-200.000	0.046	0.207
-314.983	-200.000	-0.068	-0.425
-313.968	109.439	-0.226	-0.269
-312.953	74.170	0.237	-0.248
-311.939	637.717	-0.126	-0.320
-310.924	-31.061	-0.125	0.070
-309.910	65.047	0.156	-0.157
-308.895	131.631	-0.218	0.279
-307.880	800.000	0.081	0.247
-306.866	169.855	0.076	-0.108
-305.851	-200.000	-0.042	0.217
-304.837	-151.926	0.252	0.018
-303.822	-200.000	-0.020	0.263
-302.807	53.351	-0.161	-0.153
-301.793	548.064	0.052	-0.123
-300.778	64.010	0.113	0.113
-299.764	-74.486	0.173	-0.062
-298.749	-76.219	0.325	-0.114
-297.735	-166.761	-0.231	-0.009
-296.720	-155.466	0.152	-0.010
-295.705	-200.000	-0.026	0.140
-294.691	-164.080	-0.164	-0.008
-293.676	-111.190	-0.176	-0.036
-292.662	716.108	-0.055	-0.144
-291.647	-93.955	0.390	0.107
-290.632	-15.461	0.186	-0.118
-289.618	-69.205	0.156	0.060
-288.603	-149.000	-0.192	0.015
-287.589	-15.022	0.081	-0.052
-286.574	-9.710	0.177	-0.117
-285.559	158.654	0.159	0.219
-284.545	89.160	0.200	0.222
-283.530	-69.559	0.212	-0.081
-282.516	-18.021	0.136	0.085
-281.501	202.335	-0.076	0.116
-280.486	-200.000	-0.006	0.129
-279.472	552.941	-0.193	0.461
-278.457	187.540	0.114	0.170
-277.443	-89.763	-0.176	0.051
-276.428	-200.000	0.011	0.163
-275.413	262.050	0.027	-0.046
-274.399	800.000	-0.038	0.147
-273.384	800.000	-0.054	-0.231
-272.370	210.203	0.082	0.129
-271.355	800.000	0.107	-0.301
-270.340	-175.088	-0.177	0.005
-269.326	181.327	0.189	-0.276
-268.311	-200.000	-0.035	0.362
-267.297	-75.358	0.149	0.053
-266.282	-55.070	-0.161	0.072
-265.267	-25.701	0.193	0.113
-264.253	-17.501	0.253	-0.158
-263.238	100.841	-0.150	0.173
-262.224	-200.000	-0.073	-0.326
-261.209	44.291	0.086	0.078
-260.195	74.582	-0.168	0.175
-259.180	-200.000	-0.018	0.213
-258.165	-65.554	-0.083	-0.033
-257.151	63.060	0.025	-0.025
-256.136	-64.091	0.129	-0.052
-255.122	60.185	0.193	0.189
-254.107	429.879	0.196	-0.422
-253.092	287.698	0.024	-0.043
-252.078	-165.883	-0.018	-0.001
-251.063	272.982	-0.031	0.054
-250.049	4.171	-0.427	-0.311
-249.034	37.024	-0.276	0.242
-248.019	187.985	0.090	0.134
-247.005	800.000	-0.027	-0.082
-245.990	-99.493	-0.143	-0.036
-244.976	-116.559	0.104	-0.019
-243.961	-200.000	-0.024	-0.575
-242.946	-138.257	0.049	0.005
-241.932	588.654	-0.053	0.129
-240.917	291.751	-0.103	0.187
-239.903	-74.216	0.264	-0.095
-238.888	47.824	0.264	-0.245
-237.873	-105.910	-0.028	0.006
-236.859	-67.042	0.124	-0.048
-235.844	-173.803	0.221	0.007
-234.830	-105.404	0.062	0.014
-233.815	104.545	-0.185	0.216
-232.800	57.914	0.093	0.090
-231.786	-95.848	0.273	-0.072
-230.771	47.951	0.147	0.136
-229.757	-119.355	0.422	-0.073
-228.742	800.000	0.080	0.270
-227.727	-200.000	0.012	-0.258
-226.713	-38.806	-0.063	-0.033
-225.698	-25.268	0.296	0.174
-224.684	-200.000	0.034	0.388
-223.669	-34.217	0.063	-0.034
-222.655	-175.554	-0.126	-0.003
-221.640	-200.000	-0.018	-0.114
-220.625	151.711	-0.111	0.151
-219.611	-200.000	-0.042	0.207
-218.596	-71.747	0.113	-0.042
-217.582	21.789	0.050	0.041
-216.567	46.018	0.076	-0.070
-215.552	-200.000	-0.035	-0.155
-214.538	-200.000	0.012	0.079
-213.523	-14.814	-0.218	-0.139
-212.509	26.238	0.071	0.059
-211.494	-83.992	0.169	0.053
-210.479	-200.000	-0.036	0.267
-209.465	-200.000	0.089	0.422
-208.450	21.838	-0.114	0.093
-207.436	-200.000	-0.010	0.176
-206.421	-200.000	0.025	0.291
-205.406	-27.246	-0.160	0.092
-204.392	-80.540	-0.122	0.040
-203.377	727.825	0.030	-0.079
-202.363	-200.000	-0.040	-0.304
-201.348	339.656	0.194	0.374
-200.333	-200.000	0.014	0.253
-199.319	-200.000	-0.037	0.166
-198.304	-200.000	-0.019	-0.117
-197.290	-148.051	-0.270	0.022
-196.275	-123.687	-0.144	0.023
-195.260	-23.524	0.395	0.235
-194.246	-75.041	-0.138	0.049
-193.231	-200.000	0.041	-0.263
-192.217	-200.000	-0.005	-0.134
-191.202	-200.000	-0.001	0.013
-190.187	-132.520	-0.251	0.032
-189.173	-8.551	0.125	0.083
-188.158	65.444	-0.255	0.256
-187.144	800.000	-0.041	-0.121
-186.129	-200.000	-0.104	0.466
-185.114	-200.000	-0.027	0.169
-184.100	212.415	-0.027	-0.042
-183.085	-200.000	-0.029	0.158
-182.071	-137.712	-0.348	-0.039
-181.056	13.652	0.142	0.109
-180.042	63.464	-0.248	-0.246
-179.027	800.000	-0.065	0.189
-178.012	-17.781	-0.256	0.159
-176.998	3.438	0.085	0.061
-175.983	-200.000	-0.006	-0.094
-174.969	-85.575	-0.165	-0.051
-173.954	-15.976	0.136	0.086
-172.939	-76.118	0.375	-0.131
-171.925	-200.000	0.024	-0.192
-170.910	-200.000	0.036	0.165
-169.896	256.455	-0.133	-0.226
-168.881	-200.000	0.004	-0.086
-167.866	-121.137	0.147	-0.024
-166.852	513.739	0.111	0.257
-165.837	-200.000	-0.014	-0.098
-164.823	-200.000	0.009	0.363
-163.808	304.322	-0.109	-0.199
-162.793	-59.547	0.065	-0.028
-161.779	-200.000	0.035	0.225
-160.764	-200.000	-0.015	0.117
-159.750	571.068	0.156	-0.375
-158.735	188.230	0.103	0.153
-157.720	331.257	-0.039	0.075
-156.706	594.014	-0.080	0.196
-155.691	184.100	0.054	-0.079
-154.677	-65.946	0.050	0.020
-153.662	800.000	-0.054	-0.165
-152.647	800.000	-0.050	-0.201
-151.633	228.889	0.088	-0.142
-150.618	-60.124	-0.248	0.105
-149.604	-156.471	-0.096	-0.006
-148.589	90.767	0.080	0.089
-147.574	-72.829	-0.077	0.028
-146.560	105.352	-0.136	0.158
-145.545	-81.224	0.117	0.038
-144.531	800.000	0.048	-0.200
-143.516	-121.996	0.061	-0.010
-142.502	-200.000	-0.019	0.273
-141.487	-44.264	0.123	-0.061
-140.472	403.207	-0.074	-0.154
-139.458	42.521	0.260	-0.234
-138.443	44.453	-0.147	0.134
-137.429	47.852	-0.047	0.043
-136.414	800.000	0.129	0.370
-135.399	497.746	0.120	-0.274
-134.385	-56.981	-0.055	0.024
-133.370	800.000	0.025	-0.084
-132.356	-200.000	-0.028	-0.280
-131.341	-59.469	0.279	-0.118
-130.326	-87.507	-0.350	-0.105
-129.312	288.975	0.067	-0.121
-128.297	291.104	-0.149	-0.267
-127.283	-200.000	-0.000	0.021
-126.268	-104.192	0.342	0.079
-125.253	-57.909	-0.262	-0.113
-124.239	-24.614	-0.167	0.098
-123.224	-150.357	0.175	-0.013
