DTS Sentinel unit serial number:	SN413079Multiplexer serial number:	ORYXHardware model number:	OX4-SRSoftware version number:	ORYX F/W v4.00 Oryx Data Collector v3.7.2.0data status	okinstallation	princeton_trtdifferential loss correction	single-endedforward channel	channel 4reverse channel	N/Adate	2019/09/12time	19:07:18forward acquisition time	15.00reverse acquisition time	0.00gamma	496.2192k internal	0.2308k external	0.2308temperature offset calibration	1.0141default loss term (dB/km)	0.3790temperature slope calibration	1.0000multiplexer offset coefficient	1.0000multiplexer slope coefficient	1.0000fibre end	0.00T internal ref (°C)	32.69T ext. ref 1 (°C)	3.13T ext. ref 2 (°C)	27.26length (m)	temperature (°C)	Stokes	anti-Stokes-747.200	164.229	0.511	-0.732
-746.185	-60.812	-0.419	0.180
-745.171	-200.000	-0.048	0.430
-744.156	800.000	0.472	1.365
-743.142	122.324	0.358	0.454
-742.127	192.962	0.325	-0.499
-741.112	-200.000	0.033	-0.412
-740.098	-134.202	0.513	0.064
-739.083	234.007	-0.062	0.103
-738.069	-115.320	-0.405	-0.078
-737.054	-200.000	0.018	0.508
-736.039	-139.001	-0.143	0.016
-735.025	800.000	-0.126	0.544
-734.010	-45.213	-0.300	-0.152
-732.996	-26.313	0.454	-0.270
-731.981	-12.380	0.124	-0.082
-730.966	-50.797	-0.700	-0.334
-729.952	-120.364	-0.690	-0.119
-728.937	46.261	-0.549	-0.517
-727.923	-200.000	0.081	0.510
-726.908	-200.000	-0.056	-0.612
-725.894	430.748	-0.444	-0.977
-724.879	-146.250	-0.747	0.067
-723.864	50.645	-0.415	-0.399
-722.850	165.332	-0.105	-0.151
-721.835	173.611	-0.143	-0.209
-720.821	-67.342	-0.881	-0.352
-719.806	800.000	-0.108	0.375
-718.791	800.000	0.117	-0.416
-717.777	-16.580	-0.047	-0.030
-716.762	401.739	0.392	-0.836
-715.748	-7.025	0.565	0.389
-714.733	135.788	-0.612	-0.809
-713.718	739.780	0.206	0.562
-712.704	-149.264	-0.311	0.025
-711.689	301.823	-0.211	0.395
-710.675	-93.987	-0.432	0.120
-709.660	440.350	0.146	-0.324
-708.645	-148.048	0.305	0.026
-707.631	114.615	-0.240	0.296
-706.616	800.000	-0.057	-0.175
-705.602	-49.627	0.271	0.131
-704.587	59.623	0.115	-0.115
-703.572	800.000	-0.197	-0.772
-702.558	-138.763	0.424	-0.047
-701.543	-200.000	-0.020	-1.075
-700.529	-142.756	-0.352	0.035
-699.514	133.771	0.057	-0.074
-698.499	-200.000	-0.029	-1.320
-697.485	-2.201	-0.854	-0.608
-696.470	-200.000	0.067	-0.962
-695.456	131.659	-0.724	-0.944
-694.441	45.098	0.191	0.178
-693.426	-89.496	-0.545	0.162
-692.412	-68.881	1.158	-0.454
-691.397	33.379	-0.663	-0.584
-690.383	33.544	-0.152	0.134
-689.368	-200.000	-0.008	0.265
-688.354	61.705	0.372	-0.375
-687.339	-200.000	0.088	-0.623
-686.324	-0.083	-0.519	-0.375
-685.310	-91.040	-0.262	-0.076
-684.295	-136.426	0.211	-0.025
-683.281	-54.530	-0.536	-0.246
-682.266	-152.882	-0.269	0.019
-681.251	-129.883	0.857	0.119
-680.237	-12.243	-0.283	0.188
-679.222	223.509	-0.155	-0.254
-678.208	800.000	0.092	-0.261
-677.193	-200.000	0.003	-0.247
-676.178	251.271	-0.248	-0.428
-675.164	-89.672	-0.940	0.279
-674.149	64.120	0.383	-0.390
-673.135	172.664	-0.174	0.254
-672.120	172.867	0.278	0.406
-671.105	-120.898	-0.457	0.078
-670.091	75.879	-0.187	0.201
-669.076	-86.068	-0.355	0.111
-668.062	-200.000	-0.002	-0.591
-667.047	-75.725	-0.134	-0.048
-666.032	106.396	-0.575	-0.691
-665.018	800.000	-0.182	-0.528
-664.003	-33.446	0.463	-0.259
-662.989	67.481	-0.763	0.789
-661.974	-82.384	-0.547	0.180
-660.959	693.600	0.123	-0.327
-659.945	118.523	-0.635	0.794
-658.930	-95.745	0.626	-0.169
-657.916	-179.007	-0.130	0.003
-656.901	-103.520	0.225	0.054
-655.886	-148.390	0.152	-0.013
-654.872	-57.843	0.788	-0.349
-653.857	25.705	-0.104	-0.088
-652.843	-90.035	-0.827	-0.244
-651.828	-173.732	0.441	-0.013
-650.814	79.242	0.683	0.741
-649.799	527.529	-0.082	-0.196
-648.784	-200.000	-0.022	0.240
-647.770	704.553	-0.234	0.624
-646.755	6.437	-0.725	0.546
-645.741	-5.948	1.188	-0.823
-644.726	50.219	-0.415	0.396
-643.711	-86.921	-0.204	0.063
-642.697	-108.763	-0.562	-0.122
-641.682	433.829	0.309	-0.680
-640.668	-37.093	-0.141	-0.076
-639.653	800.000	0.075	0.327
-638.638	800.000	-0.042	0.122
-637.624	-200.000	-0.110	-0.764
-636.609	-72.316	0.432	-0.162
-635.595	-7.935	0.487	0.332
-634.580	217.043	0.330	-0.532
-633.565	195.257	0.331	-0.508
-632.551	204.055	0.300	0.469
-631.536	-22.200	0.594	-0.365
-630.522	-200.000	0.107	0.519
-629.507	1.647	-0.717	-0.522
-628.492	800.000	0.119	0.399
-627.478	-200.000	0.066	0.889
-626.463	-200.000	0.055	0.385
-625.449	-49.641	0.815	-0.392
-624.434	308.642	-0.162	0.307
-623.419	209.190	0.261	0.414
-622.405	478.296	0.319	0.731
-621.390	-200.000	0.049	-0.409
-620.376	800.000	-0.197	-0.552
-619.361	92.271	0.644	0.733
-618.346	-159.364	0.770	-0.044
-617.332	225.133	0.266	-0.436
-616.317	800.000	-0.069	-0.223
-615.303	-123.121	-1.139	-0.185
-614.288	-104.298	0.464	0.109
-613.273	110.805	0.354	0.431
-612.259	140.876	-0.176	0.235
-611.244	-149.859	0.399	0.032
-610.230	339.755	-0.307	-0.606
-609.215	-53.528	0.464	-0.214
-608.201	553.737	-0.229	-0.558
-607.186	3.268	-0.255	0.187
-606.171	187.269	0.476	-0.717
-605.157	92.168	0.347	0.395
-604.142	121.964	-0.368	0.464
-603.128	800.000	-0.110	-0.332
-602.113	698.074	-0.149	-0.397
-601.098	800.000	0.327	-0.977
-600.084	-200.000	-0.068	-0.617
-599.069	-48.778	-0.230	0.112
-598.055	75.830	0.629	-0.672
-597.040	33.450	-0.612	-0.537
-596.025	-60.025	-0.483	-0.208
-595.011	-200.000	-0.097	-0.442
-593.996	-200.000	-0.234	-1.349
-592.982	88.024	0.456	0.511
-591.967	212.639	-0.396	0.631
-590.952	-109.395	-1.069	0.229
-589.938	-195.303	-0.333	-0.003
-588.923	-54.515	0.491	-0.225
-587.909	332.317	-0.507	-0.988
-586.894	-59.620	-0.503	0.218
-585.879	-134.217	-0.677	0.084
-584.865	382.738	-0.027	0.056
-583.850	621.481	0.205	0.522
-582.836	130.169	-0.363	-0.469
-581.821	46.085	-0.322	-0.301
-580.806	-200.000	0.044	-0.322
-579.792	-20.131	-0.290	-0.181
-578.777	800.000	-0.278	-1.035
-577.763	384.284	0.096	0.200
-576.748	32.042	0.846	-0.736
-575.733	-70.521	-0.731	-0.279
-574.719	-200.000	-0.073	-0.513
-573.704	-7.804	-0.284	-0.194
-572.690	-200.000	-0.079	0.616
-571.675	-102.412	-1.245	-0.301
-570.661	-139.476	-0.478	0.052
-569.646	17.404	-0.391	0.314
-568.631	800.000	-0.108	-0.453
-567.617	-200.000	0.007	-1.042
-566.602	74.050	-0.392	-0.415
-565.588	-72.406	0.521	0.195
-564.573	88.223	0.267	0.299
-563.558	0.720	-0.542	-0.391
-562.544	419.542	0.568	-1.226
-561.529	125.336	-0.114	0.146
-560.515	-72.955	-0.182	0.067
-559.500	-200.000	0.032	-0.575
-558.485	-7.967	0.497	-0.338
-557.471	-200.000	0.001	-0.389
-556.456	-200.000	-0.053	0.357
-555.442	-3.788	0.422	-0.295
-554.427	-47.494	0.333	0.163
-553.412	-150.494	-0.323	0.025
-552.398	118.937	-0.603	0.752
-551.383	-109.183	0.358	-0.077
-550.369	-200.000	-0.048	0.425
-549.354	-64.067	-0.625	0.257
-548.339	-70.466	0.496	0.190
-547.325	-57.548	-0.360	-0.159
-546.310	-74.219	0.564	0.206
-545.296	124.063	-0.210	-0.266
-544.281	800.000	-0.157	0.471
-543.266	-121.239	0.487	-0.082
-542.252	229.009	0.498	-0.819
-541.237	383.434	-0.339	-0.703
-540.223	-125.520	-0.551	-0.084
-539.208	587.248	-0.111	-0.275
-538.193	-9.772	-0.228	-0.153
-537.179	91.075	-0.307	-0.348
-536.164	299.067	0.122	0.227
-535.150	10.371	0.150	0.115
-534.135	-200.000	-0.082	-1.100
-533.121	800.000	0.144	0.527
-532.106	800.000	0.084	-0.258
-531.091	-200.000	0.095	-0.482
-530.077	-119.220	-0.803	-0.141
-529.062	117.315	0.210	0.260
-528.048	521.838	0.120	-0.283
-527.033	-41.292	0.290	-0.150
-526.018	103.092	-0.207	-0.245
-525.004	-51.532	0.757	0.356
-523.989	17.824	-0.316	0.254
-522.975	191.446	-0.170	-0.258
-521.960	116.529	-0.171	-0.212
-520.945	289.669	-0.324	-0.592
-519.931	-200.000	-0.095	-0.623
-518.916	264.158	-0.328	-0.575
-517.902	-109.455	0.479	0.102
-516.887	-31.543	-0.314	0.178
-515.872	-39.260	-0.734	-0.388
-514.858	-90.793	-0.226	0.066
-513.843	-66.527	1.029	0.411
-512.829	210.519	0.464	-0.734
-511.814	-69.899	0.260	0.100
-510.799	-50.087	0.851	-0.406
-509.785	-125.909	-0.510	0.077
-508.770	84.547	0.185	0.204
-507.756	16.325	-0.052	-0.041
-506.741	665.171	0.225	0.585
-505.726	-175.211	0.622	-0.017
-504.712	-5.509	-0.820	0.567
-503.697	-200.000	0.709	0.001
-502.683	800.000	-0.241	0.717
-501.668	-33.134	-1.072	0.598
-500.653	-67.218	-0.183	0.073
-499.639	232.883	0.191	-0.316
-498.624	-129.705	1.217	-0.169
-497.610	-164.920	-0.308	0.014
-496.595	523.137	-0.209	-0.495
-495.581	-14.672	-1.013	-0.655
-494.566	-140.286	0.379	0.040
-493.551	1.247	-0.545	0.394
-492.537	186.844	-0.200	0.300
-491.522	3.154	-0.230	-0.168
-490.508	-13.491	-0.185	-0.120
-489.493	79.275	-0.738	0.796
-488.478	-47.954	-0.454	0.221
-487.464	-36.733	0.397	0.215
-486.449	800.000	-0.048	-0.174
-485.435	-200.000	0.115	-0.578
-484.420	-75.510	0.726	0.260
-483.405	-101.280	0.041	0.010
-482.391	19.145	0.131	0.106
-481.376	-107.788	0.188	-0.041
-480.362	-94.897	-1.191	-0.324
-479.347	800.000	-0.276	1.072
-478.332	-200.000	-0.062	0.491
-477.318	163.907	0.467	0.662
-476.303	-45.134	0.351	-0.176
-475.289	-51.835	-0.580	-0.271
-474.274	800.000	0.036	0.154
-473.259	-200.000	-0.254	1.158
-472.245	388.755	0.231	0.482
-471.230	800.000	-0.125	0.389
-470.216	-200.000	-0.017	0.312
-469.201	-148.785	0.708	-0.058
-468.186	89.889	0.399	0.448
-467.172	-53.128	-0.954	-0.440
-466.157	-200.000	0.224	-1.282
-465.143	-179.968	0.408	0.009
-464.128	-200.000	0.058	0.820
-463.113	-60.057	0.376	-0.161
-462.099	800.000	-0.121	0.463
-461.084	-122.293	-0.633	0.104
-460.070	-200.000	-0.030	-0.622
-459.055	-127.083	-0.678	-0.100
-458.040	-200.000	0.028	0.237
-457.026	-200.000	0.124	0.623
-456.011	-109.821	-0.491	-0.104
-454.997	800.000	0.020	0.069
-453.982	238.276	0.268	0.447
-452.968	441.518	-0.158	-0.348
-451.953	-169.897	-0.391	-0.014
-450.938	-104.507	1.208	-0.280
-449.924	217.718	0.205	0.328
-448.909	-12.634	-0.320	-0.210
-447.895	800.000	0.093	-0.298
-446.880	800.000	0.167	0.718
-445.865	-147.492	-0.318	0.027
-444.851	-147.832	0.237	0.020
-443.836	1.345	-0.350	-0.253
-442.822	800.000	-0.064	0.247
-441.807	37.973	0.734	0.655
-440.792	211.066	-0.520	0.822
-439.778	183.958	-0.186	0.276
-438.763	-200.000	-0.050	-0.340
-437.749	-52.292	0.581	-0.270
-436.734	-200.000	-0.003	-0.203
-435.719	-155.523	-0.028	0.002
-434.705	-175.213	-0.415	-0.012
-433.690	-134.135	-0.816	0.101
-432.676	-17.903	-0.680	0.428
-431.661	196.778	0.163	0.249
-430.646	559.464	0.120	-0.292
-429.632	-0.435	0.635	-0.453
-428.617	185.055	0.428	-0.637
-427.603	204.868	-0.051	0.079
-426.588	-200.000	0.072	0.744
-425.573	800.000	-0.156	0.627
-424.559	-132.411	0.227	0.029
-423.544	-88.057	-0.653	0.197
-422.530	-200.000	-0.007	0.120
-421.515	-83.658	0.219	-0.070
-420.500	-127.609	0.384	0.056
-419.486	-200.000	-0.057	0.454
-418.471	515.800	-0.133	-0.311
-417.457	-200.000	0.017	-1.048
-416.442	-3.149	-0.248	0.173
-415.428	40.776	-0.041	-0.037
-414.413	-200.000	-0.121	0.656
-413.398	800.000	-0.062	-0.184
-412.384	636.146	-0.240	0.610
-411.369	175.433	-0.219	0.318
-410.355	-111.223	-0.404	-0.083
-409.340	133.990	-0.463	-0.602
-408.325	-62.021	-0.573	-0.240
-407.311	800.000	-0.286	-0.944
-406.296	226.611	-0.056	0.092
-405.282	-109.239	0.536	0.114
-404.267	-84.445	-0.623	-0.198
-403.252	-35.869	0.393	-0.213
-402.238	-79.535	0.612	0.207
-401.223	64.038	-0.074	-0.075
-400.209	800.000	-0.159	0.542
-399.194	-110.476	-0.559	0.116
-398.179	-125.167	-0.187	0.029
-397.165	-31.194	0.422	-0.238
-396.150	-200.000	0.004	-0.305
-395.136	-98.221	0.415	0.107
-394.121	-45.035	1.205	-0.601
-393.106	-175.976	-0.299	-0.008
-392.092	201.157	0.314	-0.484
-391.077	-144.304	-0.834	-0.078
-390.063	90.210	0.339	-0.380
-389.048	-200.000	-0.037	-0.434
-388.033	-65.532	0.795	-0.320
-387.019	-101.879	0.309	-0.075
-386.004	-200.000	0.359	0.001
-384.990	46.007	0.273	0.253
-383.975	-42.411	-0.222	-0.113
-382.960	-200.000	-0.014	-0.460
-381.946	135.122	-0.385	0.501
-380.931	371.372	0.224	-0.456
-379.917	476.549	0.056	-0.128
-378.902	-20.427	-0.124	-0.076
-377.888	-4.402	-0.512	-0.355
-376.873	31.520	0.731	0.630
-375.858	-200.000	0.046	-0.309
-374.844	205.898	0.230	0.359
-373.829	148.123	0.548	0.740
-372.815	44.642	-0.159	-0.147
-371.800	-79.548	0.237	0.080
-370.785	-59.667	0.550	0.236
-369.771	145.764	0.089	0.119
-368.756	333.067	0.167	0.323
-367.742	255.129	0.340	-0.583
-366.727	-113.833	-1.116	0.217
-365.712	-35.934	0.165	-0.089
-364.698	-90.380	0.695	0.202
-363.683	-23.884	0.197	-0.118
-362.669	498.330	-0.172	0.397
-361.654	72.390	-0.466	0.487
-360.639	471.789	0.220	-0.495
-359.625	-128.606	-0.882	0.125
-358.610	-62.848	0.442	-0.183
-357.596	-89.370	0.369	0.109
-356.581	205.619	-0.204	0.317
-355.566	74.742	-0.459	-0.483
-354.552	-19.048	-0.182	-0.113
-353.537	3.175	-0.180	-0.131
-352.523	55.236	0.295	-0.285
-351.508	-38.772	0.342	-0.181
-350.493	-181.670	0.866	0.017
-349.479	-70.586	-1.260	-0.477
-348.464	-13.802	0.403	-0.261
-347.450	379.933	0.264	0.541
-346.435	33.754	0.427	0.372
-345.420	800.000	-0.357	1.110
-344.406	-186.283	-1.017	0.015
-343.391	-24.368	0.123	-0.073
-342.377	176.179	-0.147	-0.213
-341.362	-19.205	0.306	0.190
-340.348	61.523	0.310	0.309
-339.333	-13.632	-0.427	-0.277
-338.318	-20.945	-0.446	-0.273
-337.304	800.000	-0.230	-0.964
-336.289	330.178	0.182	-0.350
-335.275	66.815	-0.302	0.307
-334.260	134.584	-0.247	-0.320
-333.245	-200.000	-0.118	0.621
-332.231	-71.077	0.605	0.228
-331.216	800.000	0.111	-0.347
-330.202	35.901	0.233	0.205
-329.187	-170.547	0.715	0.025
-328.172	41.115	0.273	-0.247
-327.158	464.975	0.301	-0.672
-326.143	800.000	-0.101	-0.304
-325.129	168.470	0.088	0.125
-324.114	-161.158	-0.520	-0.027
-323.099	-77.879	0.786	0.271
-322.085	-144.696	-0.429	-0.039
-321.070	-200.000	0.100	-0.684
-320.056	-120.807	0.582	0.098
-319.041	-108.923	-0.746	0.159
-318.026	155.712	0.094	-0.129
-317.012	85.723	0.264	0.290
-315.997	-144.387	-0.504	0.047
-314.983	595.209	-0.252	-0.622
-313.968	261.364	-0.482	-0.834
-312.953	-97.136	-0.553	-0.144
-311.939	-75.694	0.229	0.081
-310.924	-165.655	-0.780	0.034
-309.910	-130.563	1.023	-0.138
-308.895	800.000	-0.075	-0.252
-307.880	-37.597	-0.132	-0.070
-306.866	-135.022	0.254	0.031
-305.851	800.000	-0.134	-0.468
-304.837	800.000	-0.016	-0.043
-303.822	127.783	0.094	0.119
-302.807	800.000	0.143	0.472
-301.793	284.995	-0.200	0.361
-300.778	359.050	0.441	0.880
-299.764	-99.668	-0.177	-0.044
-298.749	-120.676	0.919	0.155
-297.735	47.443	-0.415	0.387
-296.720	45.148	-0.375	0.345
-295.705	-200.000	-0.005	0.605
-294.691	-15.553	-0.437	-0.278
-293.676	-86.135	-0.630	-0.194
-292.662	800.000	0.340	-1.336
-291.647	65.855	-0.371	0.375
-290.632	429.108	0.321	0.693
-289.618	800.000	-0.189	-0.752
-288.603	-164.862	0.282	0.013
-287.589	143.529	-0.340	0.452
-286.574	-200.000	-0.013	0.139
-285.559	204.933	0.398	0.617
-284.545	-119.079	-0.460	-0.080
-283.530	365.968	0.316	0.637
-282.516	171.735	0.350	-0.502
-281.501	-181.322	-0.088	-0.002
-280.486	-56.492	1.024	0.453
-279.472	149.220	0.589	-0.796
-278.457	423.943	0.178	-0.382
-277.443	-41.764	-0.731	0.375
-276.428	-51.208	-0.847	0.396
-275.413	8.912	0.434	-0.326
-274.399	-15.053	-0.484	0.309
-273.384	-126.420	0.611	-0.091
-272.370	-53.052	-0.424	0.195
-271.355	147.167	-0.383	0.514
-270.340	441.577	-0.183	-0.399
-269.326	-16.226	0.607	0.385
-268.311	-133.736	-1.085	-0.135
-267.297	-200.000	-0.042	-0.221
-266.282	-50.993	-0.402	0.188
-265.267	-200.000	0.003	0.791
-264.253	97.328	0.611	0.699
-263.238	54.577	0.797	0.767
-262.224	529.108	0.456	1.073
-261.209	-94.430	0.294	-0.080
-260.195	-40.175	0.446	0.231
-259.180	-79.244	0.048	0.016
-258.165	800.000	-0.128	0.506
-257.151	-200.000	-0.034	0.319
-256.136	-25.856	-0.401	-0.236
-255.122	-200.000	0.027	-0.249
-254.107	28.752	-0.421	0.356
-253.092	58.173	0.302	-0.295
-252.078	-3.606	-0.387	-0.268
-251.063	800.000	0.106	0.350
-250.049	658.724	-0.122	-0.314
-249.034	278.676	0.560	0.995
-248.019	-200.000	-0.099	1.082
-247.005	471.415	0.271	0.608
-245.990	-87.012	-0.352	-0.107
-244.976	-200.000	-0.003	0.521
-243.961	-200.000	0.012	-0.125
-242.946	-200.000	-0.037	-0.394
-241.932	-21.346	0.276	-0.168
-240.917	-83.552	-0.670	0.214
-239.903	-128.676	-0.747	-0.105
-238.888	-200.000	0.102	0.591
-237.873	59.467	-0.217	-0.213
-236.859	-78.407	0.934	0.319
-235.844	-130.945	0.785	-0.105
-234.830	-200.000	-0.083	0.408
-233.815	800.000	0.115	0.333
-232.800	-35.124	0.516	-0.280
-231.786	-175.255	0.724	0.020
-230.771	308.993	-0.407	0.758
-229.757	187.180	0.058	0.086
-228.742	-200.000	0.008	-0.949
-227.727	-72.397	0.749	0.276
-226.713	364.487	-0.252	-0.505
-225.698	-35.610	-0.915	-0.495
-224.684	-200.000	-0.136	-0.672
-223.669	-200.000	0.021	-0.937
-222.655	159.547	-0.093	-0.129
-221.640	2.478	-0.399	-0.287
-220.625	-200.000	-0.041	0.252
-219.611	-106.405	-0.652	0.145
-218.596	120.404	0.188	-0.232
-217.582	-142.274	-0.211	-0.021
-216.567	301.789	0.291	-0.535
-215.552	146.004	0.382	0.511
-214.538	158.888	-0.483	0.667
-213.523	43.276	0.349	-0.317
-212.509	-66.889	-0.478	0.188
-211.494	-136.574	0.317	0.037
-210.479	9.867	0.691	-0.522
-209.465	-22.242	0.458	-0.277
-208.450	774.662	0.035	-0.096
-207.436	800.000	-0.229	0.866
-206.421	-200.000	0.131	0.845
-205.406	734.084	-0.123	0.329
-204.392	172.047	0.425	0.609
-203.377	-119.516	-0.151	-0.026
-202.363	-200.000	0.007	-0.307
-201.348	233.540	0.338	0.553
-200.333	-86.001	0.443	-0.136
-199.319	-140.707	-0.371	0.038
-198.304	219.602	-0.323	-0.514
-197.290	800.000	0.073	-0.262
-196.275	-77.183	1.006	-0.348
-195.260	-200.000	-0.021	-0.329
-194.246	212.224	0.176	0.276
-193.231	-184.952	-0.146	0.002
-192.217	361.782	-0.208	-0.415
-191.202	-88.396	0.923	0.274
-190.187	-200.000	-0.141	-0.655
-189.173	-200.000	0.042	-0.203
-188.158	130.238	0.409	0.521
-187.144	-94.328	0.714	0.194
-186.129	-200.000	-0.145	-1.101
-185.114	-129.491	0.392	-0.054
-184.100	17.624	-0.619	0.490
-183.085	-200.000	-0.070	0.309
-182.071	-96.873	0.363	-0.095
-181.056	-186.592	0.541	0.008
-180.042	-153.931	0.373	0.025
-179.027	-13.341	-0.110	0.071
-178.012	-200.000	-0.043	-0.521
-176.998	800.000	-0.068	-0.258
-175.983	229.432	-0.404	0.656
-174.969	76.715	0.540	0.569
-173.954	208.901	-0.579	0.900
-172.939	-66.492	0.420	0.166
-171.925	-200.000	-0.036	0.254
-170.910	26.511	-0.556	0.462
-169.896	82.804	-0.321	-0.346
-168.881	-77.847	-0.091	-0.031
-167.866	-200.000	-0.185	1.007
-166.852	-20.266	-0.369	0.226
-165.837	-200.000	-0.100	0.519
-164.823	-200.000	-0.045	0.357
-163.808	185.064	0.108	0.159
-162.793	-15.264	-0.311	0.197
-161.779	-81.629	0.646	0.211
-160.764	800.000	0.146	-0.470
-159.750	89.524	-0.469	0.519
-158.735	-53.823	0.204	0.093
-157.720	-35.732	0.558	0.300
-156.706	-19.232	0.248	0.153
-155.691	-58.016	0.270	0.117
-154.677	40.335	-0.531	-0.474
-153.662	-78.642	0.099	0.034
-152.647	-112.001	0.489	-0.098
-151.633	-22.118	-0.620	-0.374
-150.618	13.101	-0.512	0.394
-149.604	-200.000	0.051	-0.237
-148.589	150.372	-0.348	-0.469
-147.574	-110.790	0.245	0.050
-146.560	-200.000	-0.008	0.269
-145.545	467.673	-0.298	-0.663
-144.531	-44.278	0.676	0.336
-143.516	54.882	-0.560	-0.537
-142.502	-4.650	0.837	0.574
-141.487	-200.000	0.009	-0.637
-140.472	-200.000	-0.140	-0.889
-139.458	37.922	0.469	0.414
-138.443	-200.000	-0.168	1.004
-137.429	284.378	-0.335	-0.598
-136.414	800.000	0.067	-0.272
-135.399	14.669	-0.286	0.221
-134.385	-130.070	-0.414	-0.056
-133.370	-33.604	-0.227	0.124
-132.356	-135.128	0.757	-0.090
-131.341	-41.794	-0.160	0.082
-130.326	-200.000	-0.107	0.710
-129.312	-200.000	-0.095	0.468
-128.297	42.764	-0.594	0.536
-127.283	-93.491	0.588	-0.161
-126.268	-200.000	0.176	0.809
-125.253	294.257	0.398	0.721
-124.239	293.192	-0.121	-0.218
-123.224	-73.769	-0.527	0.190
-122.210	-26.352	-0.731	0.425
