DTS Sentinel unit serial number:	SN413079Multiplexer serial number:	ORYXHardware model number:	OX4-SRSoftware version number:	ORYX F/W v4.00 Oryx Data Collector v3.7.2.0data status	okinstallation	princeton_trtdifferential loss correction	single-endedforward channel	channel 4reverse channel	N/Adate	2019/09/12time	19:26:18forward acquisition time	15.00reverse acquisition time	0.00gamma	496.2192k internal	0.2309k external	0.2309temperature offset calibration	1.0161default loss term (dB/km)	0.3790temperature slope calibration	1.0000multiplexer offset coefficient	1.0000multiplexer slope coefficient	1.0000fibre end	0.00T internal ref (°C)	32.31T ext. ref 1 (°C)	3.32T ext. ref 2 (°C)	26.83length (m)	temperature (°C)	Stokes	anti-Stokes-747.200	800.000	0.069	0.304
-746.185	-110.491	-0.373	0.079
-745.171	-25.445	0.451	0.271
-744.156	10.935	-0.571	0.443
-743.142	31.495	0.493	0.430
-742.127	800.000	0.137	0.509
-741.112	-141.532	-0.411	-0.042
-740.098	-26.068	-0.509	0.304
-739.083	-200.000	-0.027	0.426
-738.069	17.938	-0.374	0.302
-737.054	-78.947	-0.244	0.084
-736.039	-200.000	0.014	-0.628
-735.025	800.000	0.136	0.556
-734.010	761.827	-0.342	-0.944
-732.996	-106.010	0.906	-0.207
-731.981	-106.534	-0.651	0.148
-730.966	-162.223	0.411	-0.021
-729.952	65.985	-0.208	-0.214
-728.937	-14.752	-0.668	0.436
-727.923	-200.000	0.036	-0.424
-726.908	21.799	-0.503	0.416
-725.894	-200.000	0.184	-0.855
-724.879	800.000	-0.101	0.396
-723.864	-200.000	-0.093	-1.072
-722.850	584.314	0.117	-0.291
-721.835	-28.541	0.358	0.209
-720.821	-119.394	0.455	-0.080
-719.806	9.255	-0.246	-0.189
-718.791	255.272	-0.022	0.038
-717.777	-87.618	-0.869	0.267
-716.762	-1.761	-0.193	-0.138
-715.748	236.556	-0.182	0.306
-714.733	549.740	0.357	0.868
-713.718	99.742	0.545	-0.640
-712.704	499.074	0.099	-0.231
-711.689	-181.447	-0.584	-0.012
-710.675	-48.264	-0.473	-0.231
-709.660	42.495	0.534	0.493
-708.645	-200.000	0.056	0.747
-707.631	-42.946	0.570	-0.293
-706.616	-57.469	0.278	-0.124
-705.602	-136.007	0.394	0.047
-704.587	470.380	0.228	-0.520
-703.572	-50.855	0.789	-0.376
-702.558	-200.000	-0.077	-1.147
-701.543	743.070	-0.173	-0.471
-700.529	-34.010	-0.607	-0.339
-699.514	-81.721	-0.316	-0.105
-698.499	-200.000	-0.007	0.156
-697.485	256.201	-0.204	-0.354
-696.470	-70.719	-0.556	0.213
-695.456	-165.562	-0.368	0.016
-694.441	-46.408	0.200	-0.100
-693.426	78.967	0.446	-0.484
-692.412	-107.256	0.343	0.077
-691.397	-200.000	0.020	-0.579
-690.383	199.796	-0.179	0.279
-689.368	75.819	-0.272	0.292
-688.354	-107.799	-0.570	-0.126
-687.339	-155.010	-1.069	0.071
-686.324	282.742	-0.139	-0.253
-685.310	-200.000	-0.000	-0.469
-684.295	-57.248	-0.215	-0.096
-683.281	-200.000	-0.030	-0.209
-682.266	-200.000	0.037	-0.454
-681.251	-96.441	-0.558	-0.149
-680.237	142.286	0.342	0.460
-679.222	-88.089	-1.155	0.351
-678.208	206.556	0.041	-0.065
-677.193	-125.546	0.970	-0.149
-676.178	80.464	-0.324	-0.354
-675.164	800.000	0.126	-0.360
-674.149	-47.666	-0.293	0.144
-673.135	-94.026	-0.708	0.197
-672.120	188.217	0.414	0.626
-671.105	800.000	0.044	0.160
-670.091	-50.526	-0.340	-0.163
-669.076	-192.479	-1.049	-0.010
-668.062	102.160	0.220	0.261
-667.047	-124.913	-0.821	-0.128
-666.032	800.000	0.272	-1.045
-665.018	346.185	0.228	-0.454
-664.003	800.000	-0.180	-0.568
-662.989	-76.022	-0.804	0.288
-661.974	-133.726	-0.407	0.051
-660.959	108.138	-0.068	-0.082
-659.945	-200.000	-0.294	0.000
-658.930	800.000	-0.279	0.904
-657.916	-98.282	0.466	0.121
-656.901	-200.000	-0.007	-0.402
-655.886	-200.000	-0.001	-0.413
-654.872	-78.174	0.532	-0.185
-653.857	-82.360	-0.888	0.292
-652.843	-55.175	0.097	-0.044
-651.828	-133.350	-0.345	0.044
-650.814	-200.000	-0.135	-0.607
-649.799	52.998	-0.661	0.640
-648.784	267.783	0.232	0.412
-647.770	-200.000	0.051	1.124
-646.755	-31.318	0.616	-0.351
-645.741	-26.573	-0.272	-0.161
-644.726	-95.767	0.473	0.128
-643.711	-139.981	0.330	0.035
-642.697	-31.714	-0.423	0.240
-641.682	800.000	0.018	-0.059
-640.668	204.661	-0.634	0.995
-639.653	-200.000	-0.020	0.184
-638.638	-200.000	-0.005	-0.451
-637.624	-56.475	-0.598	-0.269
-636.609	-9.529	-0.463	0.312
-635.595	51.321	-0.293	0.281
-634.580	127.131	-0.126	0.162
-633.565	800.000	-0.178	-0.762
-632.551	31.176	-0.403	-0.350
-631.536	-159.482	-0.297	-0.017
-630.522	-171.196	0.257	0.009
-629.507	-112.229	1.164	-0.236
-628.492	343.875	0.230	0.457
-627.478	-158.752	-0.743	0.043
-626.463	-44.305	0.633	0.321
-625.449	-200.000	-0.011	-0.188
-624.434	73.927	-0.410	-0.435
-623.419	-142.336	-0.642	0.064
-622.405	-63.886	-0.863	0.357
-621.390	281.771	-0.177	0.320
-620.376	81.175	0.620	0.677
-619.361	248.390	0.153	0.261
-618.346	225.045	-0.314	-0.513
-617.332	-15.043	0.377	0.244
-616.317	51.800	-0.233	0.224
-615.303	32.987	-0.491	0.430
-614.288	-100.026	-0.382	-0.096
-613.273	9.841	-0.659	-0.505
-612.259	-25.757	-0.575	-0.343
-611.244	-200.000	0.149	0.765
-610.230	-164.557	0.293	0.013
-609.215	402.669	0.147	-0.312
-608.201	141.372	-0.135	0.181
-607.186	36.119	0.049	-0.044
-606.171	-138.941	-0.561	0.062
-605.157	-10.813	0.634	0.424
-604.142	131.734	-0.042	0.055
-603.128	65.206	-0.337	0.345
-602.113	-61.443	-0.262	-0.112
-601.098	-200.000	-0.049	-0.228
-600.084	-106.093	-0.331	0.075
-599.069	109.106	-0.212	0.257
-598.055	6.815	-0.451	-0.339
-597.040	-200.000	-0.005	-0.038
-596.025	-43.732	0.307	-0.156
-595.011	147.397	-0.370	-0.503
-593.996	-127.912	1.511	-0.220
-592.982	37.935	-0.482	-0.433
-591.967	-151.872	0.091	0.007
-590.952	-83.314	-0.300	-0.097
-589.938	711.996	0.115	-0.306
-588.923	-200.000	0.056	-0.887
-587.909	-52.673	0.210	0.098
-586.894	552.622	-0.238	0.576
-585.879	-148.751	-0.417	-0.034
-584.865	-200.000	0.003	-0.193
-583.850	95.735	-0.120	0.138
-582.836	112.978	0.180	0.221
-581.821	-35.288	0.512	0.281
-580.806	6.278	-0.522	0.391
-579.792	-55.665	0.262	0.118
-578.777	106.634	0.415	-0.497
-577.763	800.000	-0.015	-0.060
-576.748	483.149	0.174	-0.399
-575.733	369.692	-0.182	-0.373
-574.719	800.000	0.084	0.255
-573.704	-158.246	0.697	-0.041
-572.690	270.537	-0.286	-0.507
-571.675	-110.737	-0.727	0.151
-570.661	-64.971	0.528	0.215
-569.646	-200.000	0.105	-0.817
-568.631	-126.838	-0.741	-0.110
-567.617	24.046	0.200	0.167
-566.602	-145.628	-0.410	-0.037
-565.588	-133.413	-0.137	0.017
-564.573	-81.640	-0.372	0.123
-563.558	227.258	0.297	-0.488
-562.544	-53.594	0.322	0.149
-561.529	-93.521	-0.508	0.142
-560.515	400.892	0.122	0.258
-559.500	381.955	0.255	0.529
-558.485	115.663	-0.179	-0.221
-557.471	165.469	0.330	-0.471
-556.456	-78.278	0.674	-0.233
-555.442	-172.327	0.232	-0.007
-554.427	61.299	0.765	-0.767
-553.412	-19.006	0.599	-0.376
-552.398	-56.090	-0.656	0.295
-551.383	-19.288	0.306	-0.192
-550.369	-139.571	-0.363	-0.039
-549.354	-4.097	-0.098	-0.068
-548.339	800.000	-0.091	-0.358
-547.325	800.000	-0.166	0.469
-546.310	-57.036	-0.499	0.222
-545.296	-78.437	-0.695	0.240
-544.281	-63.811	-0.361	-0.149
-543.266	800.000	0.309	-1.168
-542.252	28.400	0.351	-0.299
-541.237	-161.848	0.429	-0.022
-540.223	-142.694	0.364	-0.036
-539.208	513.132	-0.048	-0.112
-538.193	-73.362	-0.617	0.227
-537.179	-200.000	-0.051	0.958
-536.164	-200.000	-0.029	0.174
-535.150	-200.000	-0.107	0.529
-534.135	8.221	0.400	0.303
-533.121	24.344	0.423	-0.352
-532.106	-14.964	-0.100	-0.065
-531.091	-200.000	0.011	-0.296
-530.077	-124.620	0.607	-0.095
-529.062	23.879	-0.401	0.333
-528.048	800.000	0.059	0.208
-527.033	-200.000	0.182	1.012
-526.018	34.347	0.724	0.637
-525.004	-147.949	0.360	-0.030
-523.989	755.684	-0.044	-0.121
-522.975	171.144	0.249	-0.359
-521.960	37.897	0.327	-0.292
-520.945	24.287	-0.825	0.687
-519.931	800.000	0.087	0.304
-518.916	-126.329	0.617	-0.093
-517.902	514.010	-0.168	0.396
-516.887	48.587	-0.131	0.124
-515.872	-108.963	0.750	-0.161
-514.858	28.519	-0.302	0.257
-513.843	144.669	-0.332	0.447
-512.829	-200.000	0.017	0.835
-511.814	35.367	-0.779	0.688
-510.799	-71.952	0.493	0.185
-509.785	-19.427	0.271	-0.169
-508.770	122.005	-0.276	0.347
-507.756	53.454	0.158	0.152
-506.741	-76.988	0.536	0.188
-505.726	2.989	-0.145	0.106
-504.712	22.950	0.736	0.607
-503.697	-66.246	-0.638	0.256
-502.683	1.711	-0.238	-0.172
-501.668	-68.699	0.556	0.216
-500.653	-1.029	0.321	0.229
-499.639	97.127	-0.298	0.344
-498.624	-38.894	-0.371	-0.197
-497.610	446.142	0.165	0.365
-496.595	-200.000	-0.039	-0.359
-495.581	82.468	0.070	-0.076
-494.566	-5.173	-0.068	-0.047
-493.551	-200.000	0.127	0.905
-492.537	-78.333	-0.774	0.267
-491.522	-31.648	-0.313	-0.177
-490.508	-200.000	-0.047	0.325
-489.493	-178.133	-0.625	0.015
-488.478	-47.108	-1.150	-0.564
-487.464	-58.126	-0.300	0.132
-486.449	11.649	-0.829	-0.640
-485.435	-200.000	0.016	-0.170
-484.420	800.000	-0.231	-0.926
-483.405	-64.281	-0.755	-0.309
-482.391	-85.151	0.389	-0.123
-481.376	-200.000	0.024	-0.606
-480.362	800.000	-0.229	-0.763
-479.347	226.486	0.490	-0.799
-478.332	-32.592	0.462	0.259
-477.318	-88.252	-0.487	-0.147
-476.303	-98.880	0.981	0.251
-475.289	-106.052	0.656	-0.148
-474.274	164.061	0.281	-0.398
-473.259	-155.230	0.885	-0.058
-472.245	11.770	-0.158	-0.122
-471.230	152.128	-0.369	0.506
-470.216	437.523	-0.151	-0.330
-469.201	68.835	0.515	-0.531
-468.186	589.261	-0.263	0.651
-467.172	-143.418	-0.863	0.083
-466.157	-67.522	0.256	0.101
-465.143	800.000	0.192	-0.608
-464.128	-200.000	-0.011	-0.668
-463.113	129.010	-0.199	0.256
-462.099	800.000	-0.035	-0.111
-461.084	-80.314	-0.518	-0.174
-460.070	-200.000	-0.004	0.516
-459.055	-107.742	-0.600	-0.131
-458.040	-88.209	-0.727	-0.219
-457.026	86.324	-0.348	-0.385
-456.011	-9.298	0.038	-0.026
-454.997	-200.000	0.240	-1.198
-453.982	-70.191	0.342	-0.131
-452.968	123.089	0.357	-0.449
-451.953	-200.000	0.068	0.373
-450.938	-108.010	0.485	0.106
-449.924	-85.123	0.584	0.183
-448.909	-50.679	-0.300	-0.142
-447.895	-174.434	0.338	0.010
-446.880	0.774	0.327	0.235
-445.865	167.470	0.250	-0.357
-444.851	448.485	0.197	-0.436
-443.836	800.000	-0.095	-0.289
-442.822	-89.790	0.978	0.287
-441.807	-36.530	0.689	-0.372
-440.792	-200.000	-0.010	0.341
-439.778	67.398	-0.091	-0.093
-438.763	800.000	0.174	-0.710
-437.749	92.407	0.336	-0.380
-436.734	46.173	-0.584	-0.544
-435.719	-3.491	-0.537	-0.375
-434.705	800.000	0.122	-0.398
-433.690	400.906	-0.095	-0.200
-432.676	46.405	-0.257	-0.240
-431.661	81.747	-0.051	0.055
-430.646	-120.818	0.226	-0.038
-429.632	42.928	-0.240	0.219
-428.617	-200.000	0.022	-0.697
-427.603	210.742	-0.167	0.264
-426.588	207.253	-0.408	0.638
-425.573	-200.000	0.102	0.839
-424.559	-200.000	-0.047	0.417
-423.544	603.832	0.073	-0.181
-422.530	57.010	-0.313	0.306
-421.515	-200.000	-0.023	0.628
-420.500	-78.974	0.482	-0.164
-419.486	14.375	-0.705	-0.551
-418.471	-97.919	0.407	0.105
-417.457	800.000	0.076	0.325
-416.442	358.932	-0.230	-0.460
-415.428	87.274	0.417	0.463
-414.413	-66.304	-0.238	0.095
-413.398	385.210	-0.224	0.464
-412.384	-2.022	-0.390	0.275
-411.369	17.443	0.398	-0.317
-410.355	362.861	-0.255	0.513
-409.340	-23.157	-0.657	-0.396
-408.325	-86.221	0.293	0.090
-407.311	800.000	-0.168	0.568
-406.296	800.000	0.110	0.448
-405.282	-126.975	-0.333	0.049
-404.267	535.055	-0.127	-0.302
-403.252	-99.674	-0.616	-0.155
-402.238	-153.003	0.332	0.023
-401.223	-39.710	-1.007	0.528
-400.209	476.545	-0.494	-1.119
-399.194	800.000	-0.160	-0.534
-398.179	39.354	0.250	0.224
-397.165	102.853	0.144	-0.169
-396.150	178.460	-0.117	-0.171
-395.136	-200.000	-0.045	0.474
-394.121	-80.703	-0.783	-0.261
-393.106	-200.000	0.047	-0.504
-392.092	-3.847	-0.649	-0.452
-391.077	-200.000	-0.014	0.451
-390.063	347.850	0.203	-0.401
-389.048	-200.000	-0.007	-0.105
-388.033	-73.385	1.072	-0.393
-387.019	464.488	0.050	0.112
-386.004	-68.689	-0.355	0.137
-384.990	21.431	-0.156	-0.127
-383.975	467.501	-0.131	0.295
-382.960	-92.908	0.468	-0.131
-381.946	247.836	0.322	0.546
-380.931	-4.464	-0.793	-0.549
-379.917	68.470	-0.566	-0.581
-378.902	-15.636	-0.742	-0.474
-377.888	-200.000	0.008	-0.622
-376.873	-53.937	-0.225	-0.103
-375.858	-123.738	0.615	-0.097
-374.844	-73.756	0.338	0.123
-373.829	62.263	0.280	-0.280
-372.815	382.564	0.116	-0.239
-371.800	-32.124	0.477	0.267
-370.785	-200.000	-0.088	-0.729
-369.771	304.040	0.267	-0.496
-368.756	275.429	-0.550	-0.976
-367.742	-18.157	0.398	-0.249
-366.727	49.243	0.288	0.271
-365.712	463.891	-0.246	0.549
-364.698	133.423	0.172	-0.223
-363.683	274.597	0.263	0.466
-362.669	-200.000	0.213	-1.539
-361.654	-112.935	-0.389	-0.077
-360.639	183.461	0.319	0.472
-359.625	87.789	-0.209	0.232
-358.610	-137.519	0.501	-0.057
-357.596	-200.000	0.001	-0.495
-356.581	-200.000	-0.032	-0.417
-355.566	-37.736	0.458	-0.244
-354.552	-67.018	0.483	0.191
-353.537	15.962	-0.444	-0.350
-352.523	-62.637	0.287	0.119
-351.508	104.504	0.158	-0.187
-350.493	-200.000	0.004	0.486
-349.479	16.193	0.434	0.343
-348.464	53.206	0.688	-0.659
-347.450	190.785	0.635	0.955
-346.435	-113.524	-0.800	-0.157
-345.420	-63.332	0.429	-0.177
-344.406	-96.382	-0.759	0.201
-343.391	595.749	-0.101	-0.250
-342.377	66.676	-0.700	0.712
-341.362	800.000	-0.113	-0.431
-340.348	-200.000	0.181	0.990
-339.333	307.569	-0.148	-0.276
-338.318	175.137	0.311	-0.450
-337.304	-200.000	-0.028	0.224
-336.289	-118.352	0.367	-0.065
-335.275	251.419	-0.174	0.295
-334.260	-200.000	-0.055	-0.328
-333.245	181.361	-0.346	-0.509
-332.231	-146.930	0.532	-0.046
-331.216	800.000	0.233	-0.706
-330.202	-148.413	0.836	-0.069
-329.187	-200.000	0.136	0.627
-328.172	800.000	0.133	-0.377
-327.158	191.418	0.124	-0.187
-326.143	-87.285	0.287	0.087
-325.129	18.583	-0.417	0.334
-324.114	-0.466	-0.172	0.122
-323.099	-107.693	-0.825	0.180
-322.085	135.601	0.251	-0.326
-321.070	-143.010	0.631	-0.061
-320.056	678.205	-0.360	0.936
-319.041	34.032	-0.793	-0.691
-318.026	289.880	-0.145	0.263
-317.012	-152.441	0.191	-0.014
-315.997	63.056	0.207	-0.207
-314.983	-146.860	-0.598	0.051
-313.968	403.259	-0.243	0.510
-312.953	708.134	-0.309	-0.817
-311.939	80.448	0.644	-0.693
-310.924	-75.978	-0.237	-0.084
-309.910	-200.000	-0.069	0.419
-308.895	-124.556	-0.290	0.045
-307.880	-39.489	0.329	-0.172
-306.866	-200.000	-0.178	0.940
-305.851	186.869	-0.238	0.354
-304.837	-200.000	0.193	0.905
-303.822	185.523	0.565	0.838
-302.807	-52.394	-0.459	-0.212
-301.793	-40.311	-0.646	-0.336
-300.778	-150.254	-0.765	-0.059
-299.764	-186.404	0.769	-0.011
-298.749	-27.758	0.415	0.240
-297.735	443.364	0.331	0.725
-296.720	93.726	0.464	0.525
-295.705	132.964	0.565	-0.728
-294.691	-9.683	-0.147	0.098
-293.676	-72.336	-0.359	0.133
-292.662	-33.542	0.061	-0.033
-291.647	297.865	0.128	0.234
-290.632	409.115	-0.103	-0.217
-289.618	-0.957	-0.916	0.647
-288.603	-200.000	-0.158	0.750
-287.589	-200.000	0.032	-0.536
-286.574	553.299	0.252	0.606
-285.559	266.576	0.407	0.710
-284.545	-200.000	-0.133	-0.627
-283.530	800.000	0.225	-0.952
-282.516	-45.632	1.000	-0.494
-281.501	-89.480	-0.405	0.119
-280.486	-125.550	0.474	-0.072
-279.472	-200.000	0.002	0.803
-278.457	-159.931	0.248	0.014
-277.443	800.000	0.358	1.253
-276.428	-65.426	-0.451	0.181
-275.413	69.556	0.503	-0.517
-274.399	-200.000	-0.021	-0.134
-273.384	-77.583	0.156	-0.054
-272.370	-200.000	0.023	0.158
-271.355	-40.038	0.722	0.376
-270.340	-200.000	-0.000	-0.363
-269.326	-200.000	0.088	-0.564
-268.311	-167.387	0.315	0.013
-267.297	-200.000	-0.042	-0.460
-266.282	452.029	-0.379	-0.836
-265.267	554.628	-0.263	-0.631
-264.253	800.000	0.034	-0.129
-263.238	106.465	0.454	-0.537
-262.224	161.961	0.414	-0.578
-261.209	154.178	-0.571	0.781
-260.195	-22.652	-0.386	0.233
-259.180	-200.000	-0.041	-0.251
-258.165	-120.971	-0.279	0.047
-257.151	166.344	0.306	-0.431
-256.136	800.000	-0.525	1.445
-255.122	-130.129	-0.204	0.028
-254.107	-47.694	0.121	-0.059
-253.092	148.170	0.686	-0.923
-252.078	650.022	-0.182	0.464
-251.063	-9.167	0.372	-0.248
-250.049	422.130	0.394	-0.844
-249.034	197.884	0.107	0.163
-248.019	-171.556	-0.575	0.019
-247.005	192.178	-0.202	0.303
-245.990	2.613	-0.363	0.262
-244.976	-200.000	-0.013	-0.214
-243.961	216.574	-0.408	0.647
-242.946	292.986	0.556	1.011
-241.932	800.000	0.096	0.358
-240.917	96.426	-0.434	0.494
-239.903	735.811	-0.186	0.495
-238.888	11.857	-0.196	0.150
-237.873	7.403	0.497	-0.370
-236.859	-200.000	0.014	0.063
-235.844	5.332	-0.263	0.193
-234.830	-200.000	0.157	0.890
-233.815	-19.857	0.301	0.185
-232.800	-150.443	0.171	0.013
-231.786	236.581	0.341	0.563
-230.771	-195.753	-0.773	0.006
-229.757	71.383	-0.206	-0.213
-228.742	520.360	-0.279	-0.650
-227.727	-110.251	1.234	0.256
-226.713	3.895	-0.411	0.299
-225.698	-200.000	0.091	0.594
-224.684	-42.023	-0.872	-0.445
-223.669	-111.424	-0.459	0.093
-222.655	800.000	-0.240	-0.972
-221.640	-46.536	-0.327	-0.160
-220.625	-171.822	0.167	0.005
-219.611	-85.083	-0.193	-0.060
-218.596	-200.000	0.201	-1.084
-217.582	-65.967	-0.295	-0.117
-216.567	-52.216	-0.729	0.336
-215.552	160.966	-0.563	0.782
-214.538	262.351	-0.165	0.285
-213.523	-18.158	0.068	0.042
-212.509	800.000	0.025	0.087
-211.494	2.154	0.206	-0.148
-210.479	-105.216	1.049	0.238
-209.465	-145.454	0.954	0.085
-208.450	-102.152	0.419	-0.100
-207.436	172.882	0.465	0.666
-206.421	-200.000	-0.397	-0.000
-205.406	-37.742	-0.532	-0.282
-204.392	-184.146	0.510	0.008
-203.377	-200.000	-0.015	-0.425
-202.363	-147.587	0.703	-0.059
-201.348	371.186	-0.306	0.618
-200.333	-84.427	-0.474	-0.149
-199.319	-33.209	-0.340	-0.187
-198.304	-123.066	-0.461	0.074
-197.290	-24.535	0.486	0.288
-196.275	262.582	0.220	0.380
-195.260	-40.504	1.141	0.589
-194.246	-18.694	-0.100	0.062
-193.231	-124.135	0.538	0.084
-192.217	-111.168	0.452	0.092
-191.202	-92.478	0.782	-0.218
-190.187	800.000	0.192	0.554
-189.173	2.681	0.763	0.550
-188.158	142.092	0.488	-0.643
-187.144	-109.972	0.343	-0.071
-186.129	-182.066	-0.515	0.010
-185.114	-90.655	-0.256	-0.073
-184.100	800.000	-0.433	-1.204
-183.085	-19.825	0.649	-0.398
-182.071	-200.000	-0.093	0.943
-181.056	-88.944	-0.235	-0.069
-180.042	-115.662	0.110	-0.020
-179.027	15.806	0.210	-0.164
-178.012	800.000	-0.129	-0.528
-176.998	-200.000	0.019	-0.359
-175.983	-198.377	-0.744	-0.004
-174.969	51.192	0.326	-0.307
-173.954	-200.000	0.209	1.003
-172.939	-200.000	-0.069	-0.335
-171.925	81.052	-0.344	-0.369
-170.910	-80.972	0.803	0.264
-169.896	310.491	0.297	0.552
-168.881	-2.258	0.906	0.631
-167.866	-200.000	0.023	-0.344
-166.852	300.018	0.265	-0.484
-165.837	38.780	0.099	0.088
-164.823	-123.979	-0.903	0.141
-163.808	327.845	0.136	0.260
-162.793	311.897	0.111	0.206
-161.779	-122.636	-0.615	0.099
-160.764	163.910	0.209	0.292
-159.750	-178.501	-0.693	-0.016
-158.735	800.000	-0.107	-0.434
-157.720	-200.000	-0.007	0.239
-156.706	800.000	-0.155	-0.490
-155.691	365.566	0.248	-0.496
-154.677	105.348	-0.145	-0.170
-153.662	-49.526	-0.156	-0.074
-152.647	192.725	0.290	0.436
-151.633	89.577	-0.142	0.158
-150.618	38.591	-0.558	-0.494
-149.604	95.020	0.515	-0.582
-148.589	-200.000	0.111	0.499
-147.574	65.298	-0.536	0.538
-146.560	122.901	0.199	-0.247
-145.545	-11.380	-0.324	-0.212
-144.531	-200.000	-0.033	-0.183
-143.516	130.946	0.821	1.045
-142.502	-200.000	0.019	-0.567
-141.487	-200.000	0.039	0.691
-140.472	-200.000	-0.046	-0.205
-139.458	17.000	-0.489	0.384
-138.443	-30.477	-0.130	0.073
-137.429	306.545	-0.287	0.530
-136.414	-200.000	0.025	-0.284
-135.399	-89.866	0.383	-0.111
-134.385	144.562	-0.239	0.317
-133.370	136.125	0.813	1.052
-132.356	-200.000	0.112	-0.518
-131.341	9.869	0.579	-0.436
-130.326	17.903	-0.364	-0.288
-129.312	-26.448	-0.150	0.087
-128.297	303.960	-0.114	0.210
-127.283	124.309	-0.302	0.377
-126.268	595.757	-0.089	-0.218
-125.253	489.469	-0.203	0.460
-124.239	-84.447	-0.440	-0.138
-123.224	-56.026	0.240	0.106
-122.210	408.279	-0.218	0.456
