DTS Sentinel unit serial number:	SN413079Multiplexer serial number:	ORYXHardware model number:	OX4-SRSoftware version number:	ORYX F/W v4.00 Oryx Data Collector v3.7.2.0data status	okinstallation	princeton_trtdifferential loss correction	single-endedforward channel	channel 4reverse channel	N/Adate	2019/09/18time	17:33:34forward acquisition time	60.00reverse acquisition time	0.00gamma	496.2192k internal	0.2287k external	0.2287temperature offset calibration	1.0013default loss term (dB/km)	0.3790temperature slope calibration	1.0000multiplexer offset coefficient	1.0000multiplexer slope coefficient	1.0000fibre end	0.00T internal ref (°C)	40.19T ext. ref 1 (°C)	0.90T ext. ref 2 (°C)	35.99length (m)	temperature (°C)	Stokes	anti-Stokes-747.200	515.225	-0.152	0.364
-746.185	355.311	-0.312	0.636
-745.171	-80.828	0.118	-0.040
-744.156	-84.823	0.216	-0.070
-743.142	71.892	0.199	-0.213
-742.127	-141.755	-0.143	-0.015
-741.112	549.189	-0.150	-0.368
-740.098	-102.912	0.292	0.071
-739.083	-48.886	-0.192	0.094
-738.069	393.424	0.094	0.200
-737.054	230.712	0.089	0.150
-736.039	-200.000	0.009	0.220
-735.025	133.332	0.114	0.151
-734.010	123.781	-0.145	-0.187
-732.996	51.336	-0.210	-0.205
-731.981	-34.693	-0.064	-0.036
-730.966	800.000	-0.060	-0.229
-729.952	-44.004	-0.045	0.023
-728.937	132.464	-0.246	0.325
-727.923	94.174	0.092	0.107
-726.908	237.827	0.167	0.283
-725.894	-150.075	-0.168	-0.013
-724.879	800.000	0.028	-0.084
-723.864	-67.086	0.149	0.060
-722.850	29.946	0.254	0.222
-721.835	-200.000	-0.288	-0.001
-720.821	-125.790	-0.251	0.039
-719.806	-84.625	0.271	-0.087
-718.791	-59.073	0.306	0.135
-717.777	190.514	-0.098	-0.152
-716.762	-200.000	-0.032	0.245
-715.748	33.036	-0.327	-0.290
-714.733	-200.000	-0.022	0.127
-713.718	32.433	0.349	-0.309
-712.704	-200.000	0.000	-0.319
-711.689	800.000	0.104	-0.301
-710.675	-19.510	0.218	-0.138
-709.660	482.874	0.056	0.131
-708.645	-81.385	-0.268	0.091
-707.631	-200.000	-0.005	-0.066
-706.616	-36.276	-0.184	-0.102
-705.602	-3.680	-0.115	0.082
-704.587	205.554	-0.096	0.153
-703.572	-41.705	-0.236	0.124
-702.558	-200.000	-0.051	-0.336
-701.543	-3.090	0.114	-0.081
-700.529	-135.203	-0.278	-0.034
-699.514	458.024	-0.165	-0.376
-698.499	-79.909	0.065	-0.022
-697.485	26.920	0.268	0.230
-696.470	97.354	-0.009	0.011
-695.456	-103.279	-0.270	-0.065
-694.441	-200.000	-0.000	-0.021
-693.426	-200.000	-0.003	-0.259
-692.412	82.482	-0.067	-0.075
-691.397	268.454	0.231	0.414
-690.383	698.837	0.130	0.351
-689.368	263.960	0.126	-0.225
-688.354	55.478	0.088	0.087
-687.339	-63.215	-0.464	-0.196
-686.324	-21.668	-0.136	-0.085
-685.310	387.504	-0.049	0.103
-684.295	16.923	-0.183	0.148
-683.281	800.000	-0.039	-0.130
-682.266	284.884	0.072	-0.133
-681.251	102.366	0.092	-0.110
-680.237	162.092	-0.198	-0.284
-679.222	149.635	0.140	0.194
-678.208	-164.442	-0.449	0.021
-677.193	125.171	-0.135	-0.175
-676.178	-100.896	0.152	-0.038
-675.164	299.723	0.069	-0.129
-674.149	133.774	0.144	-0.191
-673.135	275.904	-0.027	-0.049
-672.120	800.000	0.042	0.160
-671.105	800.000	0.083	-0.265
-670.091	634.025	-0.066	-0.171
-669.076	-6.711	0.118	0.082
-668.062	800.000	-0.051	-0.200
-667.047	-145.827	0.068	-0.006
-666.032	-8.136	-0.030	0.021
-665.018	184.092	-0.118	-0.179
-664.003	21.787	0.310	0.258
-662.989	155.068	-0.145	-0.205
-661.974	-128.533	-0.277	0.040
-660.959	-12.979	0.174	-0.116
-659.945	-91.469	0.216	-0.063
-658.930	289.213	-0.046	0.086
-657.916	120.876	0.194	0.247
-656.901	220.110	-0.090	-0.147
-655.886	74.798	0.208	0.223
-654.872	-165.833	0.096	-0.004
-653.857	-54.809	0.162	-0.075
-652.843	-35.419	0.437	0.242
-651.828	8.233	-0.272	0.209
-650.814	674.951	-0.060	-0.160
-649.799	-119.258	0.154	-0.027
-648.784	-32.182	-0.096	0.055
-647.770	786.682	-0.084	-0.235
-646.755	20.942	-0.124	-0.102
-645.741	-57.574	0.203	0.091
-644.726	-200.000	0.032	-0.196
-643.711	-87.286	0.306	-0.095
-642.697	-34.674	-0.285	-0.159
-641.682	-160.518	0.291	0.016
-640.668	-200.000	-0.070	-0.320
-639.653	26.204	-0.056	-0.048
-638.638	669.284	0.095	-0.251
-637.624	-86.370	-0.170	-0.053
-636.609	110.377	-0.105	0.129
-635.595	6.806	0.175	-0.133
-634.580	61.910	0.293	-0.299
-633.565	-32.719	-0.314	-0.179
-632.551	71.688	0.257	-0.272
-631.536	-86.525	0.318	0.100
-630.522	557.111	0.082	-0.201
-629.507	-87.961	-0.272	-0.083
-628.492	-200.000	-0.010	0.134
-627.478	-39.379	-0.171	-0.092
-626.463	50.720	0.186	-0.180
-625.449	65.000	0.135	0.139
-624.434	-155.894	-0.095	0.006
-623.419	366.751	0.062	-0.128
-622.405	-103.782	-0.166	-0.040
-621.390	-28.925	-0.094	-0.055
-620.376	-200.000	-0.032	0.250
-619.361	-5.491	-0.145	-0.102
-618.346	18.192	0.296	-0.241
-617.332	-200.000	0.002	-0.260
-616.317	489.172	0.100	-0.234
-615.303	196.076	-0.098	-0.153
-614.288	47.464	0.356	-0.338
-613.273	-29.514	0.217	0.126
-612.259	-200.000	0.035	0.338
-611.244	800.000	0.087	0.339
-610.230	-200.000	-0.045	0.381
-609.215	-151.010	-0.051	0.004
-608.201	800.000	-0.065	-0.191
-607.186	-74.655	-0.338	0.124
-606.171	407.063	-0.108	0.232
-605.157	-147.670	0.328	-0.028
-604.142	800.000	0.040	0.124
-603.128	-200.000	-0.024	0.143
-602.113	-43.018	0.313	-0.162
-601.098	-127.343	-0.191	-0.028
-600.084	-200.000	-0.004	-0.168
-599.069	-113.681	-0.172	-0.034
-598.055	-200.000	-0.051	0.305
-597.040	143.341	0.114	0.154
-596.025	96.528	-0.168	0.196
-595.011	51.703	0.057	0.055
-593.996	-141.206	0.138	0.014
-592.982	405.492	0.090	-0.193
-591.967	82.274	-0.243	-0.269
-590.952	74.504	0.224	-0.240
-589.938	296.912	0.158	0.296
-588.923	8.554	-0.208	-0.160
-587.909	331.560	-0.136	-0.268
-586.894	-200.000	0.033	-0.365
-585.879	-148.397	-0.196	0.016
-584.865	185.443	0.129	-0.196
-583.850	800.000	0.061	-0.253
-582.836	-80.815	-0.104	-0.035
-581.821	442.825	0.203	-0.454
-580.806	54.115	-0.171	-0.167
-579.792	363.483	0.138	-0.282
-578.777	800.000	-0.068	0.285
-577.763	-45.519	0.226	-0.114
-576.748	15.960	-0.089	-0.071
-575.733	-66.863	0.196	0.079
-574.719	-108.167	-0.287	-0.063
-573.704	193.022	-0.109	0.168
-572.690	112.050	-0.072	0.089
-571.675	704.851	-0.067	0.181
-570.661	24.139	0.150	0.126
-569.646	-200.000	0.011	-0.250
-568.631	-14.908	0.152	0.099
-567.617	-69.229	0.263	0.103
-566.602	-200.000	0.067	0.350
-565.588	-200.000	-0.043	-0.249
-564.573	22.318	-0.076	0.063
-563.558	-76.230	0.280	-0.101
-562.544	318.993	0.151	-0.292
-561.529	-200.000	-0.045	0.331
-560.515	-200.000	-0.020	0.256
-559.500	-200.000	-0.028	-0.222
-558.485	-200.000	-0.025	-0.158
-557.471	-84.772	-0.194	0.062
-556.456	-136.864	0.138	-0.016
-555.442	-59.932	0.059	-0.026
-554.427	116.192	-0.073	-0.092
-553.412	-33.663	-0.045	-0.025
-552.398	-51.437	-0.198	0.094
-551.383	800.000	0.047	-0.185
-550.369	152.994	0.080	-0.111
-549.354	417.428	0.168	0.366
-548.339	17.976	-0.288	0.234
-547.325	-116.129	-0.423	0.080
-546.310	199.028	0.137	0.213
-545.296	-71.291	-0.238	0.091
-544.281	-81.423	0.301	-0.101
-543.266	-124.413	-0.057	-0.009
-542.252	-200.000	0.008	0.100
-541.237	-153.079	-0.034	-0.002
-540.223	-57.281	0.129	-0.058
-539.208	-195.244	-0.204	0.002
-538.193	-200.000	-0.003	-0.179
-537.179	800.000	-0.105	-0.325
-536.164	-54.738	-0.069	0.032
-535.150	-125.919	-0.211	-0.032
-534.135	-140.553	-0.070	-0.007
-533.121	-37.609	0.114	-0.062
-532.106	63.067	0.015	-0.015
-531.091	-132.274	-0.046	-0.006
-530.077	-81.382	0.058	0.020
-529.062	-129.239	0.305	0.043
-528.048	-154.863	-0.178	-0.012
-527.033	800.000	-0.029	-0.099
-526.018	-200.000	-0.014	0.075
-525.004	800.000	0.052	-0.221
-523.989	-200.000	-0.040	-0.196
-522.975	-200.000	-0.053	0.497
-521.960	800.000	0.059	-0.260
-520.945	-200.000	-0.013	-0.411
-519.931	103.454	0.091	-0.108
-518.916	-91.710	-0.210	-0.061
-517.902	548.724	-0.064	-0.157
-516.887	-200.000	-0.022	0.197
-515.872	-113.886	-0.483	-0.095
-514.858	-74.907	-0.361	-0.132
-513.843	27.718	-0.119	0.102
-512.829	-63.396	0.483	-0.202
-511.814	353.326	-0.162	0.328
-510.799	26.286	-0.251	-0.213
-509.785	483.297	-0.061	0.142
-508.770	-144.833	-0.376	0.035
-507.756	7.278	0.097	-0.074
-506.741	87.007	0.232	-0.260
-505.726	6.565	0.170	0.128
-504.712	220.724	0.122	-0.199
-503.697	135.771	-0.217	0.288
-502.683	-200.000	0.057	0.320
-501.668	-132.764	-0.173	0.022
-500.653	744.144	0.200	-0.548
-499.639	-200.000	0.024	0.131
-498.624	-23.872	-0.132	-0.081
-497.610	-200.000	0.006	0.184
-496.595	713.876	0.065	0.176
-495.581	-200.000	0.028	-0.145
-494.566	-147.000	0.113	0.010
-493.551	-138.401	-0.412	0.046
-492.537	313.723	-0.118	-0.225
-491.522	650.179	0.084	0.219
-490.508	-200.000	0.002	0.013
-489.493	276.228	-0.064	-0.115
-488.478	150.941	-0.171	0.236
-487.464	-111.206	-0.348	0.072
-486.449	-69.382	0.061	0.024
-485.435	-200.000	-0.017	-0.166
-484.420	-200.000	-0.046	0.261
-483.405	-71.313	-0.163	-0.062
-482.391	-114.364	-0.184	0.036
-481.376	800.000	0.056	-0.175
-480.362	-200.000	-0.016	0.137
-479.347	800.000	0.032	-0.099
-478.332	-200.000	-0.006	0.317
-477.318	-200.000	0.016	-0.237
-476.303	-89.325	-0.100	0.030
-475.289	741.207	0.029	0.080
-474.274	800.000	-0.055	-0.171
-473.259	-200.000	-0.066	0.521
-472.245	-24.326	-0.069	-0.042
-471.230	-124.664	0.326	0.051
-470.216	800.000	-0.049	-0.182
-469.201	41.150	-0.016	0.015
-468.186	800.000	0.051	0.216
-467.172	-76.132	0.123	0.044
-466.157	-200.000	-0.002	0.102
-465.143	-72.803	0.257	0.096
-464.128	41.576	0.353	-0.325
-463.113	92.788	0.024	0.027
-462.099	800.000	-0.080	0.255
-461.084	101.719	0.070	0.083
-460.070	-143.059	-0.244	0.024
-459.055	667.341	0.065	-0.171
-458.040	-81.463	0.294	-0.098
-457.026	800.000	0.094	0.269
-456.011	-109.490	0.119	-0.025
-454.997	205.833	0.120	-0.189
-453.982	800.000	0.049	0.179
-452.968	-20.614	0.296	0.184
-451.953	-200.000	0.002	0.379
-450.938	-167.724	0.053	0.002
-449.924	238.307	0.077	-0.130
-448.909	254.062	-0.100	-0.174
-447.895	800.000	-0.059	0.189
-446.880	-128.122	-0.179	0.026
-445.865	-131.221	-0.284	0.038
-444.851	-29.479	-0.141	-0.081
-443.836	76.297	0.141	0.152
-442.822	-6.349	-0.261	0.180
-441.807	-14.673	0.116	0.076
-440.792	507.590	-0.040	-0.094
-439.778	39.889	-0.086	-0.078
-438.763	128.441	0.240	0.309
-437.749	65.018	-0.067	0.069
-436.734	-99.029	-0.158	-0.041
-435.719	96.107	-0.106	0.123
-434.705	-80.281	-0.140	0.047
-433.690	-137.157	0.149	-0.017
-432.676	215.122	0.293	-0.471
-431.661	140.780	-0.227	0.304
-430.646	-104.599	-0.065	-0.015
-429.632	-118.699	0.026	-0.005
-428.617	15.072	-0.197	0.157
-427.603	-79.102	-0.401	-0.138
-426.588	182.628	0.075	0.113
-425.573	44.784	0.163	0.152
-424.559	-83.476	-0.283	0.092
-423.544	-45.698	-0.104	0.052
-422.530	800.000	-0.032	-0.137
-421.515	-38.965	-0.036	-0.019
-420.500	-200.000	-0.015	-0.239
-419.486	560.368	-0.020	-0.050
-418.471	-153.028	0.275	0.020
-417.457	-95.923	-0.276	-0.075
-416.442	13.651	0.193	-0.152
-415.428	800.000	-0.067	-0.195
-414.413	-63.552	-0.073	-0.030
-413.398	-200.000	-0.011	-0.095
-412.384	16.509	0.283	0.227
-411.369	39.863	-0.183	0.166
-410.355	194.714	-0.264	-0.406
-409.340	-162.569	0.183	-0.009
-408.325	263.875	-0.145	-0.256
-407.311	-104.907	0.101	0.023
-406.296	800.000	0.057	0.212
-405.282	800.000	-0.077	0.295
-404.267	-170.291	-0.074	-0.003
-403.252	107.493	0.060	-0.072
-402.238	45.309	-0.238	-0.222
-401.223	-123.906	-0.030	-0.005
-400.209	102.504	0.051	-0.060
-399.194	-121.287	-0.295	0.050
-398.179	10.645	0.153	-0.118
-397.165	-200.000	0.001	-0.073
-396.150	139.354	0.223	0.297
-395.136	87.315	-0.196	-0.220
-394.121	800.000	-0.091	-0.274
-393.106	-200.000	-0.057	-0.256
-392.092	16.381	-0.328	0.262
-391.077	-151.204	-0.406	-0.031
-390.063	-200.000	-0.007	0.100
-389.048	611.463	0.031	0.079
-388.033	-74.088	-0.079	-0.029
-387.019	-200.000	0.086	0.406
-386.004	677.627	0.095	0.249
-384.990	800.000	-0.095	-0.321
-383.975	57.014	0.237	0.233
-382.960	-180.666	-0.154	0.003
-381.946	-40.953	0.210	0.110
-380.931	295.768	0.135	-0.249
-379.917	-106.074	0.273	-0.062
-378.902	-91.575	-0.383	-0.110
-377.888	-200.000	-0.018	-0.097
-376.873	-160.098	0.276	0.015
-375.858	-6.880	-0.528	-0.363
-374.844	-54.625	0.101	0.046
-373.829	-29.723	-0.289	-0.167
-372.815	293.245	0.034	0.063
-371.800	343.429	-0.024	0.048
-370.785	360.207	-0.083	0.168
-369.771	5.975	-0.320	-0.240
-368.756	160.420	0.042	-0.059
-367.742	-77.135	0.053	-0.019
-366.727	800.000	-0.050	0.159
-365.712	-200.000	-0.060	-0.307
-364.698	-200.000	0.051	0.368
-363.683	800.000	-0.058	0.181
-362.669	31.538	-0.104	0.090
-361.654	800.000	-0.030	-0.091
-360.639	28.417	0.340	0.291
-359.625	-200.000	0.014	-0.072
-358.610	22.996	0.111	0.092
-357.596	-134.600	0.450	0.055
-356.581	683.375	-0.032	-0.083
-355.566	-77.122	-0.031	-0.011
-354.552	90.415	0.123	-0.139
-353.537	266.802	0.082	0.144
-352.523	646.907	-0.094	0.242
-351.508	-200.000	0.001	-0.051
-350.493	800.000	0.058	0.216
-349.479	-151.242	0.215	-0.016
-348.464	131.152	0.232	-0.301
-347.450	575.483	0.033	0.082
-346.435	-200.000	0.002	0.150
-345.420	178.249	0.143	-0.210
-344.406	-148.687	-0.149	-0.012
-343.391	-89.496	0.211	-0.062
-342.377	148.131	-0.045	-0.062
-341.362	-38.290	-0.123	-0.066
-340.348	-200.000	0.036	-0.174
-339.333	800.000	-0.065	-0.197
-338.318	37.581	0.212	-0.190
-337.304	-164.203	-0.400	-0.019
-336.289	53.100	0.265	-0.256
-335.275	151.218	-0.121	0.166
-334.260	800.000	-0.013	0.042
-333.245	-97.894	-0.050	-0.013
-332.231	-200.000	-0.045	0.297
-331.216	-48.110	-0.107	-0.052
-330.202	-70.511	0.285	0.109
-329.187	-111.280	0.103	-0.021
-328.172	326.193	-0.087	0.169
-327.158	-139.098	0.473	-0.052
-326.143	164.223	0.097	-0.137
-325.129	-200.000	0.339	-0.001
-324.114	-39.595	-0.232	-0.122
-323.099	10.283	0.045	-0.034
-322.085	781.664	-0.125	0.345
-321.070	-21.061	0.119	0.074
-320.056	701.520	-0.077	-0.204
-319.041	-200.000	0.010	0.050
-318.026	-137.071	0.170	-0.020
-317.012	-65.072	0.066	-0.027
-315.997	34.094	0.068	-0.060
-314.983	-98.827	-0.261	0.067
-313.968	-80.479	0.164	-0.055
-312.953	-200.000	0.025	-0.207
-311.939	132.766	0.190	0.248
-310.924	461.392	-0.052	0.118
-309.910	-14.416	0.114	-0.074
-308.895	349.584	0.220	0.438
-307.880	-200.000	-0.016	-0.440
-306.866	617.897	0.020	-0.050
-305.851	-200.000	-0.005	0.222
-304.837	800.000	-0.050	0.146
-303.822	-85.031	0.215	0.068
-302.807	173.829	-0.157	0.229
-301.793	-44.930	-0.277	0.139
-300.778	-9.896	0.250	-0.168
-299.764	-81.286	0.324	-0.108
-298.749	-169.890	0.585	-0.021
-297.735	-200.000	0.008	-0.115
-296.720	-77.298	-0.214	0.075
-295.705	-18.787	0.160	0.101
-294.691	-200.000	0.037	0.256
-293.676	-200.000	0.009	0.187
-292.662	57.143	0.170	0.167
-291.647	9.838	0.086	-0.066
-290.632	-71.796	-0.283	0.106
-289.618	54.345	-0.151	-0.146
-288.603	57.911	0.048	0.047
-287.589	-70.442	-0.068	0.026
-286.574	-9.700	0.059	-0.039
-285.559	-200.000	-0.021	0.295
-284.545	349.096	0.011	-0.023
-283.530	101.843	0.227	0.266
-282.516	-75.740	-0.459	0.164
-281.501	-200.000	0.023	0.159
-280.486	92.277	0.150	0.170
-279.472	-48.989	-0.382	0.184
-278.457	31.569	0.166	-0.144
-277.443	-87.573	-0.344	0.105
-276.428	667.866	-0.068	-0.178
-275.413	716.013	-0.035	-0.094
-274.399	656.874	-0.039	-0.101
-273.384	109.643	0.163	0.197
-272.370	268.748	0.163	-0.287
-271.355	-10.988	0.078	0.052
-270.340	-107.601	0.120	-0.026
-269.326	-200.000	0.025	0.285
-268.311	-39.938	-0.173	0.091
-267.297	147.812	-0.078	0.106
-266.282	-17.671	0.121	0.076
-265.267	-146.365	0.098	-0.009
-264.253	49.567	0.183	0.174
-263.238	-144.504	-0.165	0.015
-262.224	209.177	0.036	0.057
-261.209	144.023	0.180	-0.242
-260.195	-83.481	-0.171	-0.055
-259.180	-76.073	-0.248	0.088
-258.165	138.821	0.081	-0.107
-257.151	-127.785	0.175	0.025
-256.136	70.238	-0.181	0.188
-255.122	-200.000	0.056	-0.453
-254.107	118.635	0.150	-0.186
-253.092	173.029	-0.148	-0.215
-252.078	-149.293	-0.488	0.039
-251.063	130.120	0.072	0.092
-250.049	402.160	0.107	0.227
-249.034	-200.000	0.064	0.367
-248.019	800.000	0.025	0.089
-247.005	800.000	-0.112	0.409
-245.990	-52.622	-0.160	0.074
-244.976	-164.741	0.067	0.003
-243.961	800.000	0.036	-0.145
-242.946	-200.000	0.014	0.285
-241.932	-124.360	0.203	-0.032
-240.917	800.000	-0.016	0.068
-239.903	-200.000	-0.063	-0.570
-238.888	-109.423	0.426	-0.091
-237.873	96.406	0.120	0.138
-236.859	-200.000	0.036	0.207
-235.844	-161.673	0.350	0.018
-234.830	5.081	-0.097	-0.072
-233.815	11.417	-0.195	0.151
-232.800	-97.523	-0.047	0.012
-231.786	407.548	0.025	-0.053
-230.771	-195.397	-0.288	0.002
-229.757	176.174	-0.100	0.146
-228.742	100.391	-0.159	-0.185
-227.727	-113.978	0.190	0.037
-226.713	800.000	-0.048	-0.162
-225.698	-46.020	0.322	-0.159
-224.684	-200.000	0.030	-0.185
-223.669	102.608	0.345	0.406
-222.655	-200.000	-0.014	0.280
-221.640	-35.416	0.286	0.156
-220.625	155.752	0.026	0.036
-219.611	800.000	0.071	-0.199
-218.596	-200.000	0.026	0.206
-217.582	128.455	0.160	0.204
-216.567	140.827	0.124	0.165
-215.552	-36.857	-0.114	0.062
-214.538	-114.164	-0.383	-0.074
-213.523	-200.000	-0.002	-0.060
-212.509	148.854	0.161	0.219
-211.494	-200.000	-0.024	-0.215
-210.479	79.973	-0.185	0.200
-209.465	-78.017	0.070	0.024
-208.450	-47.370	0.187	0.091
-207.436	105.380	-0.037	0.043
-206.421	-3.338	0.317	0.221
-205.406	-74.732	0.192	0.069
-204.392	20.007	0.160	0.130
-203.377	7.244	-0.151	-0.113
-202.363	-61.213	0.118	0.050
-201.348	-200.000	-0.014	0.077
-200.333	800.000	-0.042	-0.173
-199.319	-62.059	-0.439	0.184
-198.304	-85.988	-0.525	0.163
-197.290	800.000	0.075	-0.278
-196.275	539.655	0.061	-0.145
-195.260	70.163	-0.167	-0.174
-194.246	490.966	0.075	-0.171
-193.231	-26.487	0.045	0.027
-192.217	242.863	0.090	-0.152
-191.202	-200.000	-0.003	0.141
-190.187	-97.506	-0.213	0.056
-189.173	-200.000	-0.006	-0.167
-188.158	-200.000	0.062	-0.360
-187.144	-46.001	-0.312	0.154
-186.129	800.000	-0.136	-0.530
-185.114	800.000	-0.112	-0.365
-184.100	108.469	0.274	0.328
-183.085	-200.000	-0.001	0.286
-182.071	60.273	0.097	0.096
-181.056	144.464	-0.106	-0.142
-180.042	800.000	0.063	0.182
-179.027	134.822	0.166	-0.217
-178.012	-200.000	0.032	-0.198
-176.998	304.231	-0.112	-0.208
-175.983	-23.804	-0.191	-0.114
-174.969	95.501	-0.070	-0.081
-173.954	206.569	0.137	-0.214
-172.939	-136.315	0.040	0.005
-171.925	-200.000	0.031	0.273
-170.910	151.937	0.149	0.204
-169.896	-200.000	0.015	-0.073
-168.881	-16.656	0.139	0.089
-167.866	259.817	0.249	-0.432
-166.852	800.000	0.025	0.093
-165.837	-178.031	0.096	-0.002
-164.823	-49.653	0.140	0.067
-163.808	-154.808	0.269	-0.018
-162.793	-200.000	0.023	0.135
-161.779	-106.003	-0.516	-0.116
-160.764	-200.000	-0.028	0.298
-159.750	316.065	-0.059	0.112
-158.735	164.367	-0.122	0.172
-157.720	-41.366	0.252	-0.130
-156.706	165.077	-0.082	0.116
-155.691	-126.268	-0.183	0.027
-154.677	-134.429	-0.332	0.041
-153.662	-139.351	-0.115	-0.012
-152.647	-185.513	-0.259	-0.004
-151.633	96.616	0.053	0.061
-150.618	-200.000	-0.058	-0.510
-149.604	250.293	-0.070	-0.120
-148.589	-200.000	0.023	0.120
-147.574	131.047	-0.241	0.311
-146.560	327.503	-0.231	-0.445
-145.545	112.053	0.082	0.099
-144.531	146.653	0.094	0.127
-143.516	-73.021	0.075	-0.027
-142.502	800.000	0.105	0.291
-141.487	800.000	0.048	-0.157
-140.472	-10.258	0.225	-0.149
-139.458	-200.000	-0.015	-0.159
-138.443	800.000	-0.039	-0.112
-137.429	-108.503	-0.110	-0.024
-136.414	-122.905	-0.091	0.015
-135.399	-55.293	-0.236	0.106
-134.385	800.000	0.066	0.273
-133.370	209.237	-0.010	0.015
-132.356	-200.000	0.003	0.073
-131.341	-116.509	0.046	-0.009
-130.326	-99.140	0.130	-0.033
-129.312	-200.000	0.086	0.396
-128.297	800.000	-0.038	-0.115
-127.283	34.962	0.155	-0.136
-126.268	44.526	-0.203	-0.187
-125.253	48.581	-0.063	-0.059
-124.239	-200.000	-0.014	-0.121
-123.224	765.579	0.119	-0.324
-122.210	114.156	0.192	-0.234
