DTS Sentinel unit serial number:	SN413079Multiplexer serial number:	ORYXHardware model number:	OX4-SRSoftware version number:	ORYX F/W v4.00 Oryx Data Collector v3.7.2.0data status	okinstallation	princeton_trtdifferential loss correction	single-endedforward channel	channel 4reverse channel	N/Adate	2019/09/16time	20:53:35forward acquisition time	60.00reverse acquisition time	0.00gamma	496.2192k internal	0.2313k external	0.2313temperature offset calibration	0.9968default loss term (dB/km)	0.3790temperature slope calibration	1.0000multiplexer offset coefficient	1.0000multiplexer slope coefficient	1.0000fibre end	0.00T internal ref (°C)	32.19T ext. ref 1 (°C)	0.06T ext. ref 2 (°C)	25.50length (m)	temperature (°C)	Stokes	anti-Stokes-747.200	-63.614	-0.384	0.160
-746.185	-82.443	0.327	-0.108
-745.171	437.383	-0.104	0.230
-744.156	499.689	0.129	0.302
-743.142	705.745	-0.109	0.291
-742.127	271.310	0.160	0.287
-741.112	416.496	0.183	-0.396
-740.098	-79.669	0.128	-0.044
-739.083	121.491	0.228	0.288
-738.069	4.583	-0.167	0.124
-737.054	127.876	-0.107	-0.137
-736.039	-163.166	-0.162	0.008
-735.025	100.988	-0.035	0.042
-734.010	56.608	-0.211	0.208
-732.996	-58.979	-0.062	-0.027
-731.981	-69.705	-0.356	0.138
-730.966	95.268	-0.120	0.139
-729.952	400.038	-0.078	0.166
-728.937	14.676	0.061	-0.048
-727.923	-138.359	-0.158	0.018
-726.908	800.000	-0.120	-0.444
-725.894	-112.536	0.119	-0.024
-724.879	800.000	-0.045	0.126
-723.864	699.416	0.029	0.078
-722.850	-48.511	-0.389	-0.190
-721.835	-109.538	0.146	0.031
-720.821	-200.000	-0.031	-0.305
-719.806	-200.000	0.030	0.215
-718.791	-2.323	0.187	-0.133
-717.777	-42.168	-0.202	-0.105
-716.762	-200.000	0.016	-0.140
-715.748	110.548	0.034	-0.042
-714.733	800.000	0.047	0.155
-713.718	-63.551	0.108	-0.045
-712.704	100.867	-0.224	-0.264
-711.689	-57.094	-0.078	0.035
-710.675	800.000	-0.124	0.420
-709.660	-200.000	0.037	0.185
-708.645	-134.672	0.151	-0.019
-707.631	9.729	-0.046	-0.036
-706.616	198.667	-0.189	0.293
-705.602	-84.868	0.100	-0.032
-704.587	-0.052	-0.171	0.123
-703.572	123.905	0.141	-0.179
-702.558	28.919	0.115	-0.099
-701.543	-78.382	0.194	0.067
-700.529	800.000	-0.072	-0.269
-699.514	63.954	0.164	0.167
-698.499	-46.358	-0.266	-0.132
-697.485	-30.829	0.276	-0.158
-696.470	-0.494	-0.062	-0.045
-695.456	-52.291	0.313	0.147
-694.441	-73.386	-0.148	-0.055
-693.426	358.622	-0.135	0.273
-692.412	33.312	0.028	-0.024
-691.397	-100.247	0.137	0.035
-690.383	-200.000	0.061	-0.317
-689.368	-71.861	0.282	-0.106
-688.354	-200.000	-0.028	-0.156
-687.339	469.150	0.074	0.168
-686.324	-143.904	-0.194	0.019
-685.310	330.388	0.212	-0.414
-684.295	800.000	-0.030	0.090
-683.281	-153.486	-0.385	0.027
-682.266	50.470	-0.268	-0.256
-681.251	390.093	0.168	-0.353
-680.237	32.521	0.086	0.075
-679.222	800.000	0.104	0.450
-678.208	-132.629	0.334	-0.043
-677.193	93.128	0.050	-0.057
-676.178	66.868	0.284	0.292
-675.164	-200.000	-0.019	0.088
-674.149	282.459	0.098	0.177
-673.135	61.194	-0.104	-0.105
-672.120	66.463	0.112	-0.115
-671.105	-147.728	-0.203	0.017
-670.091	-0.507	-0.144	0.103
-669.076	-200.000	0.017	-0.397
-668.062	11.486	0.294	-0.228
-667.047	202.867	0.214	-0.335
-666.032	-159.696	-0.157	0.009
-665.018	-200.000	0.073	-0.345
-664.003	-200.000	-0.052	0.305
-662.989	-200.000	-0.007	-0.138
-661.974	800.000	0.088	0.283
-660.959	248.061	0.136	-0.232
-659.945	-54.971	0.368	0.168
-658.930	800.000	0.064	0.247
-657.916	234.476	-0.206	0.343
-656.901	197.944	0.097	0.150
-655.886	-20.076	0.101	-0.063
-654.872	-122.575	-0.490	-0.080
-653.857	-79.495	0.111	0.038
-652.843	-150.786	-0.251	-0.019
-651.828	-94.340	0.257	0.071
-650.814	-148.957	0.083	-0.007
-649.799	134.974	-0.170	0.223
-648.784	185.564	0.042	-0.063
-647.770	800.000	-0.072	0.243
-646.755	-200.000	0.009	0.234
-645.741	-112.966	0.194	-0.039
-644.726	-39.321	0.072	-0.038
-643.711	-183.844	-0.156	-0.003
-642.697	800.000	-0.080	-0.280
-641.682	-97.094	0.063	-0.017
-640.668	-65.251	0.240	0.098
-639.653	286.575	-0.151	-0.275
-638.638	-8.886	-0.104	0.071
-637.624	184.420	0.255	-0.381
-636.609	-109.199	-0.040	0.008
-635.595	-52.295	0.403	0.189
-634.580	-200.000	-0.037	0.301
-633.565	800.000	0.099	0.370
-632.551	-200.000	0.023	-0.175
-631.536	157.771	-0.076	-0.106
-630.522	-123.191	0.220	0.036
-629.507	698.421	-0.111	-0.296
-628.492	0.527	-0.050	0.036
-627.478	304.552	-0.268	-0.503
-626.463	54.478	-0.127	0.124
-625.449	101.890	-0.229	0.270
-624.434	169.024	-0.078	-0.112
-623.419	-122.721	-0.126	0.021
-622.405	-118.049	-0.182	-0.033
-621.390	87.652	0.122	-0.137
-620.376	-40.529	0.102	0.054
-619.361	-130.736	0.197	-0.027
-618.346	3.570	0.157	-0.116
-617.332	106.358	0.126	-0.151
-616.317	-138.908	-0.167	-0.018
-615.303	-74.100	-0.239	-0.087
-614.288	-76.686	-0.255	0.090
-613.273	800.000	0.096	0.301
-612.259	-165.576	0.151	-0.007
-611.244	-138.726	0.245	-0.027
-610.230	52.993	0.054	-0.052
-609.215	86.024	-0.082	-0.091
-608.201	-93.147	0.093	-0.026
-607.186	800.000	-0.074	0.273
-606.171	800.000	-0.035	-0.116
-605.157	122.556	-0.100	-0.126
-604.142	-79.380	-0.049	0.017
-603.128	-195.419	-0.079	-0.001
-602.113	-184.007	0.270	-0.005
-601.098	800.000	-0.032	-0.110
-600.084	361.944	0.078	-0.158
-599.069	-200.000	0.035	-0.271
-598.055	-71.174	0.218	-0.083
-597.040	-147.855	-0.007	-0.001
-596.025	0.287	0.105	0.076
-595.011	-33.637	-0.034	-0.019
-593.996	-63.796	-0.048	0.020
-592.982	346.897	0.044	-0.088
-591.967	72.366	-0.154	0.162
-590.952	-200.000	0.059	-0.386
-589.938	122.686	0.025	-0.031
-588.923	-200.000	-0.009	-0.047
-587.909	-121.551	0.170	-0.028
-586.894	-45.179	0.185	0.093
-585.879	-200.000	0.043	0.258
-584.865	800.000	0.025	0.086
-583.850	45.065	-0.175	0.162
-582.836	132.627	-0.121	0.157
-581.821	557.812	-0.094	0.229
-580.806	-92.329	0.068	-0.019
-579.792	-33.049	0.124	0.070
-578.777	-84.415	0.175	0.056
-577.763	800.000	0.022	-0.094
-576.748	800.000	0.011	-0.036
-575.733	800.000	-0.114	-0.356
-574.719	-200.000	0.009	0.073
-573.704	-131.118	0.325	-0.044
-572.690	-82.361	0.399	0.131
-571.675	-72.419	-0.238	0.089
-570.661	-141.003	0.067	-0.007
-569.646	50.179	0.069	-0.065
-568.631	372.456	0.091	-0.186
-567.617	-98.295	0.274	-0.071
-566.602	-64.737	0.246	0.100
-565.588	-200.000	-0.000	0.376
-564.573	-56.894	0.045	0.020
-563.558	-62.063	-0.168	-0.071
-562.544	85.629	-0.064	0.071
-561.529	-86.024	0.234	0.073
-560.515	-78.059	-0.254	0.088
-559.500	-92.447	-0.024	0.007
-558.485	-200.000	-0.037	0.184
-557.471	-145.096	0.392	-0.036
-556.456	66.906	0.089	-0.091
-555.442	-200.000	0.037	-0.190
-554.427	-55.627	-0.050	0.022
-553.412	-200.000	0.025	0.358
-552.398	-41.247	-0.085	-0.044
-551.383	126.220	-0.058	-0.074
-550.369	-86.486	0.286	-0.088
-549.354	-56.847	0.115	0.051
-548.339	800.000	0.097	-0.402
-547.325	-89.846	-0.113	-0.033
-546.310	800.000	0.095	-0.298
-545.296	-200.000	-0.026	-0.119
-544.281	-106.632	-0.271	-0.061
-543.266	-69.228	0.301	0.117
-542.252	432.214	0.083	-0.180
-541.237	800.000	-0.063	0.226
-540.223	41.860	-0.261	0.238
-539.208	28.234	-0.113	0.096
-538.193	287.066	0.201	0.365
-537.179	21.090	0.341	-0.278
-536.164	-42.977	-0.056	0.029
-535.150	480.175	-0.182	-0.415
-534.135	228.631	-0.085	0.139
-533.121	363.335	-0.148	0.299
-532.106	-33.754	-0.058	0.032
-531.091	-10.107	0.230	-0.154
-530.077	-113.736	0.059	-0.012
-529.062	-60.555	0.143	0.061
-528.048	21.287	-0.160	-0.131
-527.033	-109.377	-0.072	-0.015
-526.018	800.000	0.092	-0.340
-525.004	126.936	0.215	-0.273
-523.989	-187.532	0.321	-0.004
-522.975	135.273	0.151	-0.198
-521.960	-126.574	-0.198	0.030
-520.945	-37.664	-0.104	-0.056
-519.931	-2.090	0.203	-0.143
-518.916	-31.873	0.208	-0.117
-517.902	-42.909	-0.263	-0.134
-516.887	-100.010	-0.135	-0.034
-515.872	-200.000	-0.016	-0.148
-514.858	-41.286	0.083	-0.043
-513.843	2.533	0.021	-0.015
-512.829	-25.111	0.299	-0.178
-511.814	-140.331	0.130	-0.014
-510.799	86.420	-0.152	0.169
-509.785	81.267	-0.064	0.069
-508.770	-103.328	0.243	-0.057
-507.756	-77.864	-0.178	-0.062
-506.741	-145.456	-0.018	-0.002
-505.726	448.680	0.024	0.053
-504.712	-146.283	0.190	-0.017
-503.697	704.450	0.037	0.097
-502.683	-200.000	-0.008	-0.170
-501.668	495.928	-0.049	0.113
-500.653	-147.480	0.139	-0.012
-499.639	510.194	0.114	-0.266
-498.624	-200.000	0.016	-0.183
-497.610	160.218	-0.042	-0.059
-496.595	-27.195	0.207	-0.121
-495.581	-161.223	-0.136	0.007
-494.566	270.110	-0.162	0.285
-493.551	-200.000	-0.010	0.067
-492.537	52.952	-0.109	-0.104
-491.522	-125.723	0.317	-0.048
-490.508	-200.000	0.033	-0.161
-489.493	-200.000	0.012	-0.138
-488.478	-200.000	-0.032	-0.345
-487.464	-200.000	0.016	-0.109
-486.449	-200.000	0.004	0.210
-485.435	308.365	-0.125	0.234
-484.420	-200.000	0.026	0.138
-483.405	-200.000	-0.021	-0.308
-482.391	-11.023	-0.276	0.183
-481.376	-121.860	0.376	0.062
-480.362	-183.256	0.310	-0.005
-479.347	380.548	0.014	0.028
-478.332	0.496	-0.217	-0.156
-477.318	-51.515	0.281	-0.132
-476.303	135.095	0.247	0.322
-475.289	-80.551	-0.177	-0.059
-474.274	-39.525	-0.005	0.003
-473.259	259.869	-0.082	-0.142
-472.245	-117.991	-0.079	-0.014
-471.230	-200.000	0.018	0.247
-470.216	14.418	0.036	0.028
-469.201	7.207	-0.076	0.057
-468.186	-117.484	0.093	-0.017
-467.172	718.406	-0.210	0.561
-466.157	-64.165	-0.283	0.116
-465.143	19.659	-0.169	-0.136
-464.128	205.176	-0.090	-0.140
-463.113	106.888	0.131	0.156
-462.099	800.000	0.056	0.217
-461.084	-200.000	-0.049	0.240
-460.070	800.000	0.081	0.301
-459.055	-58.645	0.266	-0.115
-458.040	195.982	0.128	-0.195
-457.026	-200.000	0.041	-0.205
-456.011	64.402	-0.090	-0.091
-454.997	-37.436	0.381	0.204
-453.982	158.040	0.228	0.316
-452.968	800.000	0.065	-0.185
-451.953	375.694	0.109	-0.224
-450.938	115.714	-0.076	0.093
-449.924	45.244	0.081	0.075
-448.909	-157.119	-0.296	-0.018
-447.895	-18.562	0.137	0.086
-446.880	44.591	-0.187	0.172
-445.865	-200.000	-0.004	0.028
-444.851	3.597	0.149	0.109
-443.836	45.914	0.217	-0.201
-442.822	225.244	0.171	-0.277
-441.807	148.225	-0.041	0.056
-440.792	-52.282	0.195	0.091
-439.778	-200.000	-0.062	0.279
-438.763	736.003	0.017	-0.045
-437.749	-61.266	-0.363	0.153
-436.734	103.089	-0.098	-0.115
-435.719	194.653	-0.088	0.133
-434.705	800.000	-0.056	0.205
-433.690	99.893	-0.150	-0.174
-432.676	-200.000	0.031	-0.305
-431.661	-76.079	-0.223	0.079
-430.646	113.488	-0.217	0.264
-429.632	-200.000	0.055	-0.409
-428.617	-88.790	0.095	0.028
-427.603	800.000	-0.009	0.027
-426.588	-200.000	0.024	0.398
-425.573	64.614	-0.138	-0.139
-424.559	-87.021	0.287	-0.088
-423.544	-94.651	-0.162	0.044
-422.530	-52.206	-0.142	-0.066
-421.515	-169.925	-0.421	-0.015
-420.500	-28.817	0.142	0.082
-419.486	82.336	-0.217	-0.235
-418.471	-200.000	0.020	-0.244
-417.457	115.296	-0.134	-0.164
-416.442	-157.368	-0.086	0.005
-415.428	-4.937	-0.149	0.103
-414.413	153.493	-0.280	0.385
-413.398	-200.000	-0.011	0.084
-412.384	168.972	-0.296	-0.423
-411.369	-94.052	0.186	-0.051
-410.355	238.546	0.044	-0.073
-409.340	-200.000	-0.047	0.226
-408.325	418.503	-0.117	-0.250
-407.311	-27.780	-0.112	-0.065
-406.296	-85.693	0.170	0.053
-405.282	-179.256	-0.028	0.001
-404.267	-200.000	-0.014	-0.121
-403.252	-73.268	-0.219	-0.080
-402.238	-53.292	0.288	0.132
-401.223	-53.529	-0.209	0.096
-400.209	800.000	0.046	-0.160
-399.194	109.069	-0.120	0.144
-398.179	-200.000	-0.044	-0.211
-397.165	-200.000	-0.024	0.386
-396.150	90.024	-0.251	0.281
-395.136	-200.000	0.005	0.050
-394.121	124.874	0.078	0.099
-393.106	100.595	0.113	-0.131
-392.092	7.896	-0.084	0.063
-391.077	22.495	0.219	0.179
-390.063	-173.597	0.054	-0.002
-389.048	-200.000	-0.038	-0.300
-388.033	-200.000	-0.056	0.268
-387.019	47.449	-0.222	-0.207
-386.004	6.833	-0.274	-0.204
-384.990	-104.261	-0.182	0.042
-383.975	306.336	0.147	-0.273
-382.960	800.000	0.125	-0.360
-381.946	-200.000	-0.025	-0.199
-380.931	91.704	-0.197	0.222
-379.917	-105.967	0.059	0.013
-378.902	-97.145	-0.094	-0.025
-377.888	223.147	-0.215	0.346
-376.873	131.666	-0.243	0.312
-375.858	-82.202	0.102	0.033
-374.844	-84.469	-0.132	-0.042
-373.829	-200.000	0.004	-0.066
-372.815	-87.449	0.280	-0.085
-371.800	165.907	-0.203	-0.287
-370.785	-200.000	0.068	-0.421
-369.771	800.000	0.135	0.430
-368.756	-30.023	0.250	-0.142
-367.742	-107.601	-0.151	-0.033
-366.727	96.042	-0.086	-0.098
-365.712	800.000	-0.101	0.372
-364.698	-15.645	-0.130	-0.083
-363.683	-200.000	-0.029	0.153
-362.669	-200.000	0.008	0.187
-361.654	-161.051	0.323	-0.017
-360.639	27.945	0.119	0.100
-359.625	-200.000	-0.026	0.198
-358.610	75.080	0.032	-0.034
-357.596	-49.952	-0.199	0.094
-356.581	-82.752	0.082	-0.026
-355.566	238.165	-0.059	-0.097
-354.552	-69.079	0.357	-0.137
-353.537	0.750	-0.028	-0.020
-352.523	5.515	-0.217	-0.160
-351.508	-112.762	0.226	0.045
-350.493	-111.209	0.300	0.061
-349.479	800.000	0.016	0.058
-348.464	-139.158	0.130	-0.014
-347.450	-200.000	0.004	0.070
-346.435	-200.000	0.011	0.086
-345.420	800.000	0.031	0.121
-344.406	80.332	0.152	0.164
-343.391	-200.000	-0.037	0.303
-342.377	-131.732	-0.103	-0.013
-341.362	-65.309	0.254	0.102
-340.348	215.412	-0.115	0.182
-339.333	580.156	0.122	0.298
-338.318	800.000	0.063	-0.195
-337.304	-173.097	0.155	0.005
-336.289	656.279	0.022	0.058
-335.275	-27.060	-0.042	0.025
-334.260	-177.470	-0.225	0.006
-333.245	127.765	0.230	-0.292
-332.231	119.319	-0.168	0.207
-331.216	-52.609	0.206	0.095
-330.202	-200.000	-0.025	0.125
-329.187	-78.236	-0.381	0.130
-328.172	-148.442	-0.176	0.014
-327.158	1.854	-0.202	0.145
-326.143	-17.441	0.114	-0.071
-325.129	-172.323	0.107	0.003
-324.114	173.020	-0.233	0.334
-323.099	117.835	-0.130	-0.159
-322.085	-114.604	0.191	-0.037
-321.070	-42.266	-0.100	0.051
-320.056	21.704	-0.214	-0.174
-319.041	13.371	0.148	-0.115
-318.026	-200.000	0.030	0.255
-317.012	-58.602	-0.255	0.110
-315.997	33.183	0.279	0.241
-314.983	318.310	-0.097	-0.184
-313.968	281.369	0.063	-0.112
-312.953	157.684	0.154	0.213
-311.939	800.000	-0.037	-0.143
-310.924	61.823	-0.091	-0.091
-309.910	-30.375	-0.027	0.015
-308.895	-200.000	-0.019	-0.253
-307.880	5.655	0.053	-0.039
-306.866	494.352	0.114	0.260
-305.851	-200.000	-0.011	-0.218
-304.837	-92.969	0.280	0.078
-303.822	-86.255	0.154	-0.047
-302.807	403.293	-0.048	-0.101
-301.793	-87.171	-0.158	0.048
-300.778	-200.000	0.018	-0.316
-299.764	-200.000	-0.039	0.172
-298.749	114.074	0.041	-0.049
-297.735	-200.000	0.034	0.252
-296.720	-185.403	-0.272	0.004
-295.705	72.989	-0.130	-0.136
-294.691	-200.000	-0.053	-0.244
-293.676	-71.933	-0.180	0.067
-292.662	-97.176	-0.335	0.087
-291.647	18.663	0.224	-0.179
-290.632	-200.000	0.035	-0.177
-289.618	-103.795	-0.077	-0.018
-288.603	-29.617	0.232	0.132
-287.589	-200.000	-0.042	-0.215
-286.574	34.850	-0.166	-0.145
-285.559	-77.445	-0.262	-0.091
-284.545	-149.376	-0.137	-0.011
-283.530	48.488	-0.138	0.129
-282.516	800.000	-0.053	-0.218
-281.501	-200.000	-0.023	-0.431
-280.486	520.717	-0.214	-0.500
-279.472	-45.979	0.048	-0.024
-278.457	-42.913	-0.223	0.113
-277.443	-160.967	-0.210	0.011
-276.428	-161.364	0.170	0.009
-275.413	-200.000	0.018	0.140
-274.399	234.209	0.205	-0.336
-273.384	57.436	-0.061	0.060
-272.370	499.040	-0.058	0.134
-271.355	800.000	0.145	-0.413
-270.340	-200.000	0.061	-0.294
-269.326	-200.000	0.020	-0.122
-268.311	-200.000	-0.012	-0.264
-267.297	-10.404	-0.396	-0.261
-266.282	-200.000	-0.049	0.363
-265.267	48.890	-0.140	0.131
-264.253	9.876	0.060	0.045
-263.238	-2.694	0.105	0.073
-262.224	507.294	0.097	0.223
-261.209	-120.747	-0.239	0.040
-260.195	391.131	0.093	-0.192
-259.180	51.199	-0.276	-0.260
-258.165	-200.000	-0.003	-0.034
-257.151	750.544	0.025	0.068
-256.136	-44.597	-0.191	-0.095
-255.122	-108.128	-0.081	-0.017
-254.107	-135.419	-0.272	-0.032
-253.092	179.785	-0.164	0.240
-252.078	-200.000	0.037	-0.289
-251.063	-200.000	-0.016	0.142
-250.049	186.145	-0.042	-0.062
-249.034	604.449	0.073	0.181
-248.019	334.471	-0.065	0.125
-247.005	-81.900	0.218	0.071
-245.990	192.266	0.089	0.134
-244.976	-44.376	0.338	0.168
-243.961	800.000	0.043	0.131
-242.946	-77.008	-0.079	0.027
-241.932	71.584	-0.287	-0.297
-240.917	-79.677	0.296	0.099
-239.903	98.593	-0.120	0.138
-238.888	-17.234	0.214	0.134
-237.873	43.093	0.311	0.282
-236.859	-200.000	-0.048	0.286
-235.844	-200.000	0.002	0.027
-234.830	800.000	0.044	-0.136
-233.815	-60.440	0.187	-0.079
-232.800	800.000	-0.092	-0.335
-231.786	-70.907	-0.176	-0.066
-230.771	-55.970	0.101	0.045
-229.757	-114.683	0.158	0.030
-228.742	-148.704	-0.281	0.023
-227.727	800.000	-0.046	0.185
-226.713	800.000	0.120	-0.417
-225.698	116.900	0.059	-0.072
-224.684	367.039	0.036	0.072
-223.669	-200.000	-0.079	0.360
-222.655	153.774	0.181	0.247
-221.640	122.807	0.123	0.152
-220.625	560.660	0.167	0.400
-219.611	92.357	-0.131	0.146
-218.596	37.091	0.152	-0.134
-217.582	0.321	-0.235	0.166
-216.567	-100.154	0.081	-0.020
-215.552	91.870	-0.263	0.294
-214.538	6.582	0.316	0.234
-213.523	100.491	0.149	0.172
-212.509	141.936	0.066	-0.087
-211.494	314.038	0.146	0.273
-210.479	35.501	0.167	-0.146
-209.465	-90.067	0.234	-0.068
-208.450	1.146	0.090	-0.064
-207.436	-200.000	-0.017	-0.187
-206.421	12.624	-0.109	-0.084
-205.406	-200.000	-0.006	0.055
-204.392	-135.321	-0.178	-0.021
-203.377	-112.490	0.150	-0.030
-202.363	-57.362	-0.285	-0.124
-201.348	185.998	0.198	-0.292
-200.333	7.984	0.199	-0.149
-199.319	800.000	-0.131	-0.442
-198.304	123.141	-0.045	-0.055
-197.290	27.550	-0.140	0.117
-196.275	-15.352	0.179	-0.114
-195.260	326.855	-0.214	-0.407
-194.246	-13.708	-0.403	-0.259
-193.231	-27.557	-0.145	0.084
-192.217	59.838	0.222	0.218
-191.202	207.270	0.073	-0.114
-190.187	349.286	0.060	0.118
-189.173	-200.000	0.013	-0.193
-188.158	120.291	0.112	0.138
-187.144	-122.395	0.253	0.041
-186.129	-21.623	-0.176	-0.106
-185.114	74.026	-0.230	0.240
-184.100	800.000	0.009	-0.031
-183.085	-200.000	0.019	-0.195
-182.071	245.765	0.093	-0.155
-181.056	-63.132	-0.190	-0.078
-180.042	-22.309	-0.325	0.195
-179.027	-200.000	-0.041	-0.324
-178.012	321.616	-0.164	0.310
-176.998	69.617	-0.169	0.173
-175.983	125.519	-0.100	0.126
-174.969	-200.000	0.038	0.327
-173.954	-163.239	0.196	-0.009
-172.939	-152.171	-0.256	0.018
-171.925	133.665	-0.113	-0.145
-170.910	102.955	0.126	0.146
-169.896	-166.683	-0.152	0.006
-168.881	32.146	0.154	-0.132
-167.866	79.777	-0.213	-0.227
-166.852	276.818	-0.060	0.106
-165.837	-3.898	-0.124	-0.085
-164.823	800.000	0.074	-0.212
-163.808	-23.891	0.037	0.022
-162.793	800.000	-0.088	0.290
-161.779	215.222	-0.296	0.466
-160.764	-200.000	0.034	0.248
-159.750	403.571	-0.077	-0.160
-158.735	266.110	0.293	0.507
-157.720	-146.059	0.423	-0.037
-156.706	800.000	-0.082	-0.269
-155.691	638.942	-0.081	0.205
-154.677	-200.000	-0.019	0.386
-153.662	-200.000	0.036	0.209
-152.647	434.372	0.032	0.070
-151.633	-200.000	-0.015	-0.113
-150.618	-101.757	-0.228	-0.055
-149.604	-3.715	-0.083	-0.057
-148.589	-161.077	-0.066	0.003
-147.574	97.589	0.196	0.223
-146.560	-200.000	0.080	0.405
-145.545	-2.698	-0.168	0.116
-144.531	-37.843	-0.181	-0.096
-143.516	-113.530	0.079	0.015
-142.502	24.859	0.137	0.112
-141.487	-167.355	0.375	-0.015
-140.472	-200.000	0.004	-0.248
-139.458	-92.367	-0.141	-0.039
-138.443	553.594	0.064	-0.153
-137.429	-75.630	0.109	-0.039
-136.414	-200.000	0.021	0.267
-135.399	119.218	0.135	-0.165
-134.385	232.796	-0.047	-0.077
-133.370	44.331	-0.275	-0.250
-132.356	-200.000	0.046	-0.268
-131.341	-93.560	0.026	0.007
-130.326	15.412	-0.207	-0.161
-129.312	-11.369	0.173	-0.113
-128.297	800.000	0.035	0.141
-127.283	-35.077	0.307	0.166
-126.268	-181.365	0.129	-0.003
-125.253	-48.839	-0.282	-0.134
-124.239	-137.069	0.143	0.016
-123.224	-200.000	-0.002	0.114
-122.210	-114.075	0.306	0.059
-121.195	18.150	-0.286	-0.226
