DTS Sentinel unit serial number:	SN413079Multiplexer serial number:	ORYXHardware model number:	OX4-SRSoftware version number:	ORYX F/W v4.00 Oryx Data Collector v3.7.2.0data status	okinstallation	princeton_trtdifferential loss correction	single-endedforward channel	channel 4reverse channel	N/Adate	2019/09/13time	03:09:35forward acquisition time	60.00reverse acquisition time	0.00gamma	496.2192k internal	0.2319k external	0.2319temperature offset calibration	1.0196default loss term (dB/km)	0.3790temperature slope calibration	1.0000multiplexer offset coefficient	1.0000multiplexer slope coefficient	1.0000fibre end	0.00T internal ref (°C)	27.37T ext. ref 1 (°C)	4.07T ext. ref 2 (°C)	22.17length (m)	temperature (°C)	Stokes	anti-Stokes-747.200	-200.000	-0.025	0.260
-746.185	-31.883	0.241	0.136
-745.171	-154.083	0.253	0.017
-744.156	-200.000	-0.020	-0.141
-743.142	-4.744	0.214	-0.150
-742.127	-142.561	-0.248	-0.025
-741.112	20.220	0.181	-0.148
-740.098	-160.395	0.264	0.014
-739.083	-147.359	0.046	-0.004
-738.069	-113.036	-0.307	-0.061
-737.054	-200.000	0.009	0.345
-736.039	-200.000	0.002	-0.272
-735.025	99.833	0.142	0.166
-734.010	180.648	-0.154	-0.229
-732.996	-83.313	-0.087	0.028
-731.981	27.340	0.145	0.123
-730.966	-189.866	-0.202	-0.002
-729.952	53.036	-0.042	0.040
-728.937	800.000	0.038	0.120
-727.923	-109.869	-0.230	0.049
-726.908	99.158	0.030	-0.035
-725.894	-45.825	-0.219	0.109
-724.879	800.000	0.058	-0.193
-723.864	-108.847	-0.197	-0.043
-722.850	-200.000	-0.056	-0.423
-721.835	84.364	-0.187	-0.207
-720.821	604.994	0.021	0.052
-719.806	163.225	-0.146	0.208
-718.791	681.338	-0.054	-0.143
-717.777	-78.849	0.098	0.034
-716.762	-144.123	-0.322	0.030
-715.748	-113.383	-0.472	0.094
-714.733	-92.927	0.259	0.073
-713.718	-35.159	-0.408	-0.224
-712.704	800.000	0.044	-0.145
-711.689	83.847	0.179	0.197
-710.675	-35.669	-0.082	-0.045
-709.660	102.228	0.174	-0.205
-708.645	45.428	-0.296	-0.276
-707.631	150.646	0.306	-0.421
-706.616	13.725	-0.075	-0.059
-705.602	-165.096	0.317	0.014
-704.587	4.688	0.328	-0.243
-703.572	58.383	-0.176	-0.175
-702.558	-37.904	0.129	0.069
-701.543	-2.669	-0.239	-0.169
-700.529	-82.322	0.336	-0.111
-699.514	381.146	0.157	-0.326
-698.499	-114.354	0.466	0.091
-697.485	531.066	-0.051	0.121
-696.470	-142.830	-0.099	0.010
-695.456	753.679	-0.073	0.199
-694.441	-28.744	-0.193	-0.112
-693.426	-200.000	0.009	0.094
-692.412	-200.000	0.008	-0.528
-691.397	800.000	0.072	-0.224
-690.383	800.000	-0.010	0.033
-689.368	727.428	0.119	0.322
-688.354	-200.000	-0.020	0.122
-687.339	-24.329	-0.293	0.176
-686.324	73.925	0.097	-0.102
-685.310	303.220	0.122	-0.227
-684.295	167.912	0.145	-0.208
-683.281	-64.790	-0.151	-0.062
-682.266	-157.481	0.207	-0.013
-681.251	112.445	0.191	0.233
-680.237	-0.465	-0.143	0.103
-679.222	-200.000	-0.167	-0.000
-678.208	410.078	0.122	-0.260
-677.193	-111.097	-0.277	-0.057
-676.178	101.717	0.238	0.279
-675.164	-200.000	-0.091	0.437
-674.149	-85.581	0.114	0.036
-673.135	705.080	-0.035	0.094
-672.120	-46.932	-0.077	-0.038
-671.105	-176.316	-0.146	0.004
-670.091	-112.717	-0.016	0.003
-669.076	240.372	-0.171	-0.287
-668.062	800.000	0.045	0.150
-667.047	-144.348	-0.215	-0.020
-666.032	-40.317	0.157	-0.082
-665.018	96.050	-0.134	-0.155
-664.003	438.757	-0.055	-0.121
-662.989	-4.446	-0.107	-0.075
-661.974	-200.000	-0.023	-0.159
-660.959	49.882	0.244	-0.232
-659.945	-87.294	-0.292	0.089
-658.930	-200.000	0.095	-0.432
-657.916	234.848	-0.116	0.193
-656.901	77.501	0.197	-0.212
-655.886	-14.709	0.048	0.031
-654.872	-27.229	-0.070	0.041
-653.857	-82.768	-0.213	-0.069
-652.843	-54.278	-0.259	-0.118
-651.828	-39.703	-0.245	-0.129
-650.814	544.901	0.100	-0.242
-649.799	111.861	-0.115	-0.140
-648.784	17.437	-0.184	-0.148
-647.770	306.714	0.022	0.042
-646.755	-28.423	0.379	0.220
-645.741	-2.298	0.016	-0.011
-644.726	-96.233	-0.082	0.022
-643.711	-200.000	0.009	-0.107
-642.697	-103.516	0.494	0.117
-641.682	800.000	-0.073	-0.242
-640.668	-105.169	-0.189	0.043
-639.653	100.577	0.232	-0.271
-638.638	-138.753	0.278	-0.031
-637.624	-155.724	-0.320	0.021
-636.609	-52.750	-0.372	-0.173
-635.595	-69.262	0.182	0.070
-634.580	-107.785	-0.301	0.066
-633.565	800.000	-0.022	0.080
-632.551	-96.781	0.269	-0.071
-631.536	800.000	-0.058	-0.161
-630.522	333.596	0.059	-0.115
-629.507	-200.000	-0.013	-0.212
-628.492	2.014	0.101	-0.073
-627.478	413.331	-0.101	-0.216
-626.463	-115.941	-0.394	0.074
-625.449	239.818	0.109	-0.183
-624.434	38.620	0.141	0.127
-623.419	800.000	-0.041	0.167
-622.405	552.721	0.111	-0.270
-621.390	-200.000	0.039	0.264
-620.376	-200.000	0.025	-0.204
-619.361	96.885	0.070	-0.080
-618.346	47.166	0.172	0.161
-617.332	-200.000	-0.047	-0.224
-616.317	553.243	-0.051	-0.123
-615.303	66.117	0.282	0.288
-614.288	365.297	-0.081	-0.164
-613.273	29.304	-0.144	-0.123
-612.259	5.094	-0.218	-0.162
-611.244	298.651	0.103	0.191
-610.230	255.699	0.051	0.087
-609.215	6.509	-0.088	-0.066
-608.201	167.347	0.050	-0.072
-607.186	257.064	0.085	-0.147
-606.171	168.272	0.141	0.201
-605.157	303.525	-0.061	-0.113
-604.142	-110.353	-0.052	-0.011
-603.128	117.356	0.160	-0.197
-602.113	253.356	-0.184	-0.316
-601.098	-200.000	0.082	0.383
-600.084	-200.000	0.004	0.364
-599.069	-57.340	-0.181	-0.080
-598.055	-149.615	-0.338	0.027
-597.040	-24.541	-0.225	-0.135
-596.025	-200.000	-0.024	-0.298
-595.011	-200.000	-0.011	-0.155
-593.996	145.179	0.193	-0.259
-592.982	-60.547	-0.101	-0.043
-591.967	127.743	0.097	0.124
-590.952	406.865	-0.021	-0.044
-589.938	4.367	0.134	0.099
-588.923	-30.404	-0.090	-0.051
-587.909	-200.000	0.032	-0.202
-586.894	-200.000	0.003	0.058
-585.879	-91.351	0.122	0.035
-584.865	800.000	0.088	-0.281
-583.850	-103.826	-0.395	-0.093
-582.836	-114.415	-0.420	0.081
-581.821	-19.749	0.127	0.079
-580.806	712.806	0.063	0.167
-579.792	146.371	0.077	-0.104
-578.777	-32.986	0.047	-0.026
-577.763	67.321	0.485	0.498
-576.748	-200.000	-0.014	-0.183
-575.733	43.606	-0.243	-0.223
-574.719	-153.505	-0.300	-0.021
-573.704	-90.541	0.232	0.068
-572.690	758.157	0.053	-0.144
-571.675	-2.942	-0.114	0.080
-570.661	10.666	0.117	-0.089
-569.646	176.493	0.083	-0.122
-568.631	109.254	0.087	-0.105
-567.617	-39.554	0.190	-0.100
-566.602	-35.734	0.161	0.088
-565.588	345.534	-0.165	0.325
-564.573	79.567	0.199	0.215
-563.558	420.509	-0.012	-0.025
-562.544	44.882	0.084	-0.078
-561.529	-113.651	0.144	0.028
-560.515	-200.000	-0.013	-0.061
-559.500	47.531	0.173	-0.162
-558.485	-200.000	0.005	0.157
-557.471	800.000	0.086	0.328
-556.456	-200.000	-0.010	0.254
-555.442	18.614	-0.071	0.057
-554.427	-200.000	0.028	0.370
-553.412	-12.129	-0.160	0.105
-552.398	30.497	0.191	0.164
-551.383	60.646	-0.262	-0.260
-550.369	-69.628	0.117	-0.045
-549.354	117.243	0.115	-0.142
-548.339	422.780	-0.112	-0.242
-547.325	-0.407	-0.227	-0.162
-546.310	684.497	-0.123	0.322
-545.296	-102.735	-0.154	0.037
-544.281	800.000	0.094	0.342
-543.266	19.034	-0.072	0.058
-542.252	77.606	-0.185	0.198
-541.237	800.000	-0.104	0.427
-540.223	-200.000	0.024	0.144
-539.208	800.000	-0.093	-0.398
-538.193	-200.000	0.014	-0.137
-537.179	84.459	-0.214	0.234
-536.164	-120.668	0.503	0.085
-535.150	-200.000	-0.001	-0.118
-534.135	-200.000	-0.042	-0.194
-533.121	800.000	-0.076	-0.213
-532.106	47.619	-0.075	0.070
-531.091	752.097	0.176	0.476
-530.077	32.542	0.182	0.158
-529.062	-174.771	-0.120	-0.003
-528.048	-146.162	-0.256	-0.023
-527.033	-142.788	-0.226	0.022
-526.018	-73.842	0.256	-0.093
-525.004	800.000	-0.208	-0.600
-523.989	146.122	0.150	-0.202
-522.975	-86.012	-0.015	-0.005
-521.960	91.475	0.105	-0.119
-520.945	-28.598	0.148	-0.086
-519.931	-144.936	0.197	-0.018
-518.916	367.064	0.112	-0.226
-517.902	200.327	-0.129	-0.199
-516.887	654.467	-0.082	-0.210
-515.872	800.000	-0.005	-0.019
-514.858	-7.418	0.231	0.157
-513.843	118.138	-0.025	0.031
-512.829	-155.795	0.308	0.020
-511.814	-79.235	-0.094	0.032
-510.799	-30.260	0.081	-0.046
-509.785	-200.000	-0.055	-0.243
-508.770	-200.000	-0.018	-0.144
-507.756	8.868	-0.241	-0.182
-506.741	562.507	-0.099	-0.241
-505.726	-180.387	-0.139	-0.003
-504.712	396.122	0.045	0.095
-503.697	-200.000	0.007	-0.104
-502.683	107.577	-0.071	0.084
-501.668	-47.061	-0.094	0.046
-500.653	244.170	0.017	-0.028
-499.639	-90.403	0.377	-0.110
-498.624	163.405	0.183	0.259
-497.610	55.189	0.109	0.105
-496.595	127.347	-0.136	0.173
-495.581	685.970	-0.175	-0.458
-494.566	-167.904	-0.211	-0.008
-493.551	9.622	-0.121	-0.092
-492.537	800.000	0.138	-0.426
-491.522	-86.901	0.319	0.097
-490.508	-60.878	0.241	-0.102
-489.493	30.956	0.156	0.134
-488.478	800.000	0.029	0.105
-487.464	-200.000	0.012	-0.121
-486.449	800.000	-0.125	-0.452
-485.435	-200.000	-0.013	-0.266
-484.420	-200.000	0.055	0.332
-483.405	-164.981	0.137	0.006
-482.391	-73.585	0.221	0.081
-481.376	-110.066	0.422	0.088
-480.362	348.645	0.041	-0.081
-479.347	-200.000	0.053	0.234
-478.332	800.000	0.075	0.215
-477.318	-149.469	-0.094	0.007
-476.303	-146.241	0.332	0.029
-475.289	-200.000	0.037	0.265
-474.274	-85.268	-0.313	-0.098
-473.259	-82.967	0.171	-0.055
-472.245	220.904	-0.105	-0.169
-471.230	800.000	-0.120	0.363
-470.216	157.981	0.074	0.102
-469.201	-200.000	-0.009	0.176
-468.186	-200.000	-0.021	-0.126
-467.172	-200.000	0.033	0.404
-466.157	422.299	-0.037	-0.079
-465.143	-154.255	-0.291	-0.020
-464.128	-200.000	0.013	0.090
-463.113	-138.041	-0.402	0.045
-462.099	-99.516	-0.135	0.034
-461.084	-119.624	0.156	-0.027
-460.070	-58.511	-0.358	-0.155
-459.055	366.522	-0.086	-0.173
-458.040	800.000	-0.030	-0.124
-457.026	-200.000	0.025	-0.143
-456.011	-42.400	0.094	-0.048
-454.997	47.013	-0.204	-0.190
-453.982	800.000	-0.045	0.185
-452.968	96.464	0.074	-0.085
-451.953	0.615	-0.133	0.095
-450.938	186.143	0.229	0.341
-449.924	247.428	0.092	0.156
-448.909	370.706	-0.033	0.068
-447.895	396.626	0.057	-0.119
-446.880	-6.885	0.124	0.084
-445.865	6.501	0.262	-0.195
-444.851	-26.158	0.057	-0.034
-443.836	32.338	0.197	-0.170
-442.822	-200.000	-0.010	-0.430
-441.807	800.000	-0.021	-0.063
-440.792	-200.000	-0.024	0.483
-439.778	-98.954	-0.158	0.040
-438.763	-156.612	0.309	0.019
-437.749	-36.185	-0.302	0.163
-436.734	-175.317	0.153	0.004
-435.719	800.000	-0.025	-0.109
-434.705	136.427	-0.061	0.079
-433.690	-103.713	0.573	0.134
-432.676	50.084	-0.123	-0.116
-431.661	-17.916	-0.325	0.204
-430.646	-200.000	0.022	-0.314
-429.632	-22.819	-0.102	-0.062
-428.617	-79.894	-0.186	0.062
-427.603	-36.618	0.310	0.167
-426.588	600.425	-0.107	-0.264
-425.573	213.423	-0.052	-0.083
-424.559	-38.281	0.182	-0.096
-423.544	-34.460	0.341	-0.186
-422.530	-200.000	-0.003	0.182
-421.515	90.573	0.098	0.109
-420.500	-200.000	-0.019	-0.090
-419.486	-144.937	-0.104	0.009
-418.471	377.467	-0.185	-0.377
-417.457	-200.000	0.097	-0.536
-416.442	-127.071	-0.204	0.030
-415.428	-87.506	0.030	-0.009
-414.413	-57.298	0.082	0.036
-413.398	-121.757	-0.304	0.050
-412.384	-16.034	-0.254	-0.162
-411.369	-66.659	-0.194	0.077
-410.355	41.468	-0.152	-0.138
-409.340	92.157	-0.178	0.200
-408.325	31.750	-0.066	-0.057
-407.311	131.802	-0.159	-0.205
-406.296	-200.000	-0.009	0.153
-405.282	-45.595	0.252	-0.125
-404.267	-148.904	0.453	0.037
-403.252	93.155	0.309	0.349
-402.238	81.856	-0.282	0.304
-401.223	26.655	0.079	-0.066
-400.209	-123.352	0.319	0.051
-399.194	-200.000	-0.050	-0.219
-398.179	-200.000	-0.019	0.137
-397.165	348.940	-0.122	0.240
-396.150	24.146	-0.172	0.142
-395.136	275.795	0.108	0.191
-394.121	304.549	-0.060	0.111
-393.106	-148.362	0.331	0.027
-392.092	-200.000	0.012	0.077
-391.077	800.000	0.024	-0.099
-390.063	35.152	-0.130	-0.113
-389.048	95.034	0.122	0.139
-388.033	800.000	-0.064	-0.210
-387.019	-200.000	0.000	0.010
-386.004	-200.000	0.010	0.066
-384.990	-200.000	0.009	0.110
-383.975	2.825	0.123	0.089
-382.960	218.330	-0.076	0.121
-381.946	-108.741	0.143	-0.030
-380.931	-200.000	0.007	-0.095
-379.917	-122.580	0.251	-0.041
-378.902	-27.229	0.183	-0.106
-377.888	-200.000	-0.030	0.353
-376.873	-113.469	-0.154	0.030
-375.858	27.001	-0.062	-0.052
-374.844	-200.000	0.010	-0.074
-373.829	-65.492	0.128	0.051
-372.815	-200.000	-0.037	0.653
-371.800	-200.000	-0.043	0.277
-370.785	277.609	0.109	-0.193
-369.771	-27.846	-0.303	0.175
-368.756	149.473	0.290	0.391
-367.742	319.066	-0.074	0.139
-366.727	71.872	0.214	0.222
-365.712	-112.057	0.347	-0.070
-364.698	293.420	0.092	0.168
-363.683	-40.212	-0.298	-0.154
-362.669	-48.868	-0.051	0.024
-361.654	-200.000	0.032	0.186
-360.639	391.830	-0.094	-0.196
-359.625	-164.460	0.389	0.018
-358.610	206.167	-0.070	0.109
-357.596	81.058	-0.150	0.162
-356.581	162.811	0.115	0.161
-355.566	800.000	-0.011	-0.045
-354.552	-200.000	0.056	0.278
-353.537	14.549	-0.275	0.214
-352.523	-48.264	0.091	-0.044
-351.508	-19.248	0.314	-0.194
-350.493	-125.479	0.314	-0.048
-349.479	-200.000	-0.000	-0.156
-348.464	-101.982	0.242	-0.058
-347.450	-25.971	-0.189	0.111
-346.435	-25.714	0.162	-0.095
-345.420	29.459	-0.179	-0.151
-344.406	-85.727	-0.314	0.097
-343.391	-48.013	-0.102	-0.049
-342.377	-200.000	0.002	0.204
-341.362	800.000	-0.092	0.359
-340.348	339.496	-0.136	-0.264
-339.333	759.031	-0.038	-0.103
-338.318	630.164	-0.062	-0.156
-337.304	97.915	-0.087	-0.099
-336.289	800.000	-0.048	-0.177
-335.275	370.726	0.071	-0.143
-334.260	800.000	-0.034	0.130
-333.245	-129.971	-0.482	0.066
-332.231	-37.338	0.289	0.154
-331.216	800.000	-0.073	0.243
-330.202	800.000	-0.092	0.277
-329.187	800.000	0.058	-0.215
-328.172	103.564	0.147	0.172
-327.158	-142.910	0.116	0.011
-326.143	-106.541	0.125	-0.028
-325.129	-200.000	-0.032	0.296
-324.114	-59.759	-0.324	0.138
-323.099	127.044	0.164	0.207
-322.085	16.744	-0.144	-0.114
-321.070	4.397	0.079	0.058
-320.056	800.000	-0.071	-0.269
-319.041	70.571	-0.192	0.198
-318.026	-71.115	-0.358	0.134
-317.012	9.767	0.313	0.236
-315.997	23.522	-0.314	-0.257
-314.983	13.569	-0.308	0.238
-313.968	-138.092	-0.101	0.011
-312.953	800.000	0.082	-0.326
-311.939	-9.809	0.064	-0.042
-310.924	-131.686	0.174	-0.023
-309.910	800.000	0.086	-0.298
-308.895	385.116	-0.133	-0.273
-307.880	800.000	-0.047	0.176
-306.866	-200.000	0.024	0.184
-305.851	17.605	-0.084	-0.066
-304.837	618.229	0.057	0.143
-303.822	-60.922	-0.285	-0.120
-302.807	-141.315	0.225	-0.023
-301.793	-144.513	-0.111	-0.010
-300.778	674.218	-0.067	-0.172
-299.764	-77.421	0.192	-0.066
-298.749	-68.351	-0.202	-0.078
-297.735	-200.000	0.057	-0.253
-296.720	-200.000	0.010	0.408
-295.705	213.575	0.070	-0.110
-294.691	51.182	0.206	0.194
-293.676	-200.000	0.095	0.433
-292.662	276.319	0.063	0.111
-291.647	-160.549	-0.343	0.018
-290.632	98.001	0.159	0.182
-289.618	-200.000	-0.020	0.239
-288.603	-163.197	-0.290	0.014
-287.589	40.574	-0.183	0.164
-286.574	334.854	-0.088	-0.170
-285.559	-104.728	0.162	0.037
-284.545	-56.849	0.208	-0.091
-283.530	-138.215	0.419	0.046
-282.516	-200.000	0.056	0.425
-281.501	24.204	-0.043	0.035
-280.486	106.556	-0.213	-0.251
-279.472	-200.000	-0.028	-0.444
-278.457	800.000	0.033	0.128
-277.443	-82.180	-0.389	0.126
-276.428	416.786	0.068	-0.143
-275.413	-51.237	-0.287	0.134
-274.399	-92.418	0.210	-0.059
-273.384	6.017	-0.125	0.092
-272.370	-200.000	0.016	0.123
-271.355	47.850	0.229	-0.212
-270.340	-120.361	-0.377	-0.064
-269.326	-47.971	0.347	-0.166
-268.311	800.000	-0.098	-0.301
-267.297	800.000	-0.129	0.492
-266.282	-41.929	0.202	-0.103
-265.267	-51.474	-0.201	0.093
-264.253	-36.621	0.166	-0.089
-263.238	40.141	0.138	0.123
-262.224	298.146	0.111	-0.203
-261.209	-113.993	0.213	0.041
-260.195	192.345	-0.124	-0.186
-259.180	-5.273	-0.206	-0.141
-258.165	800.000	0.023	0.089
-257.151	-61.968	-0.131	-0.055
-256.136	311.570	-0.198	-0.369
-255.122	94.834	-0.075	0.084
-254.107	-200.000	0.019	0.140
-253.092	-200.000	-0.042	-0.455
-252.078	478.176	-0.099	-0.222
-251.063	-200.000	0.003	0.115
-250.049	-200.000	-0.013	0.405
-249.034	90.460	0.177	-0.197
-248.019	-117.411	-0.152	-0.027
-247.005	-200.000	-0.034	0.207
-245.990	218.790	0.134	-0.212
-244.976	160.054	0.108	-0.150
-243.961	338.310	0.088	-0.170
-242.946	-22.907	0.302	-0.181
-241.932	149.588	-0.187	0.251
-240.917	262.519	-0.141	-0.243
-239.903	-49.106	-0.296	0.140
-238.888	104.050	-0.108	-0.126
-237.873	241.342	-0.082	0.136
-236.859	-161.326	-0.260	0.013
-235.844	230.858	-0.214	-0.347
-234.830	-12.302	-0.122	-0.079
-233.815	-35.237	-0.216	-0.116
-232.800	76.004	-0.060	0.063
-231.786	-101.203	0.167	0.040
-230.771	-41.698	-0.129	0.066
-229.757	-50.067	0.063	0.030
-228.742	89.735	-0.219	-0.243
-227.727	-200.000	0.067	0.331
-226.713	-100.042	0.154	-0.038
-225.698	-65.529	0.117	0.047
-224.684	-200.000	-0.013	0.202
-223.669	114.220	0.152	-0.183
-222.655	-56.981	-0.059	0.026
-221.640	-120.542	-0.206	-0.035
-220.625	86.286	-0.235	0.257
-219.611	-65.393	0.240	0.096
-218.596	91.253	-0.168	0.187
-217.582	800.000	-0.039	-0.111
-216.567	-200.000	0.058	-0.271
-215.552	-200.000	0.020	0.176
-214.538	380.422	-0.027	-0.055
-213.523	29.069	-0.297	-0.249
-212.509	-200.000	0.000	0.105
-211.494	-166.359	0.127	-0.005
-210.479	-77.734	-0.053	-0.018
-209.465	253.822	-0.074	0.125
-208.450	800.000	0.049	0.167
-207.436	-131.534	-0.142	-0.018
-206.421	28.944	-0.265	-0.222
-205.406	61.142	-0.145	-0.143
-204.392	-13.487	-0.060	0.039
-203.377	11.200	0.058	-0.044
-202.363	-16.786	0.205	0.128
-201.348	-199.219	0.130	-0.001
-200.333	186.263	0.161	-0.238
-199.319	-58.590	-0.150	0.065
-198.304	45.277	0.130	0.119
-197.290	324.832	-0.154	-0.290
-196.275	-128.776	0.249	0.035
-195.260	-167.964	0.144	-0.006
-194.246	59.157	0.157	-0.153
-193.231	758.050	0.034	0.091
-192.217	5.532	0.096	0.070
-191.202	-10.648	-0.154	0.101
-190.187	56.650	-0.138	0.133
-189.173	-67.271	-0.299	-0.116
-188.158	0.160	0.145	0.102
-187.144	800.000	-0.089	-0.247
-186.129	-200.000	-0.009	0.081
-185.114	32.341	0.194	-0.166
-184.100	-19.109	0.086	-0.053
-183.085	-129.655	-0.142	-0.019
-182.071	-45.648	0.213	-0.104
-181.056	-200.000	-0.036	-0.238
-180.042	20.812	0.279	-0.224
-179.027	-200.000	-0.017	0.208
-178.012	-94.540	-0.318	0.086
-176.998	719.875	0.086	0.226
-175.983	95.451	-0.318	0.359
-174.969	-108.167	0.375	0.080
-173.954	-200.000	-0.018	-0.100
-172.939	-154.883	-0.108	-0.007
-171.925	-200.000	0.011	-0.061
-170.910	800.000	0.077	0.298
-169.896	-84.842	-0.373	0.116
-168.881	-126.293	0.441	0.065
-167.866	106.973	0.234	0.275
-166.852	-200.000	0.013	-0.089
-165.837	0.218	-0.244	-0.172
-164.823	-20.792	-0.074	-0.045
-163.808	14.476	0.153	0.118
-162.793	264.915	-0.180	0.310
-161.779	29.645	0.179	0.151
-160.764	-72.704	0.442	-0.161
-159.750	-200.000	0.004	-0.056
-158.735	-96.092	-0.200	-0.053
-157.720	436.756	-0.067	-0.143
-156.706	260.100	-0.139	-0.237
-155.691	-138.204	0.137	-0.015
-154.677	81.371	0.130	-0.139
-153.662	-121.173	0.081	0.013
-152.647	-34.981	0.299	0.161
-151.633	-1.367	-0.299	0.209
-150.618	-89.175	0.157	-0.046
-149.604	800.000	-0.068	-0.267
-148.589	299.105	0.121	-0.220
-147.574	-200.000	0.000	-0.074
-146.560	-200.000	-0.019	0.093
-145.545	258.310	0.069	0.117
-144.531	-121.445	-0.140	-0.023
-143.516	358.870	0.116	0.229
-142.502	-183.786	-0.147	-0.002
-141.487	115.076	-0.119	-0.143
-140.472	141.426	0.064	-0.083
-139.458	800.000	0.043	0.155
-138.443	-27.477	-0.211	-0.121
-137.429	391.479	-0.080	-0.164
-136.414	-200.000	-0.044	0.241
-135.399	104.366	0.047	-0.054
-134.385	-200.000	-0.012	0.275
-133.370	-161.946	-0.350	0.017
-132.356	800.000	-0.071	-0.235
-131.341	-200.000	0.006	-0.165
-130.326	-147.758	-0.182	0.015
-129.312	-200.000	0.031	0.345
-128.297	60.516	0.242	0.237
-127.283	800.000	0.093	0.314
-126.268	-38.373	0.293	-0.153
-125.253	-200.000	0.020	0.271
-124.239	75.468	-0.147	0.153
-123.224	-200.000	-0.024	0.377
-122.210	-13.743	-0.039	0.025
