DTS Sentinel unit serial number:	SN413079Multiplexer serial number:	ORYXHardware model number:	OX4-SRSoftware version number:	ORYX F/W v4.00 Oryx Data Collector v3.7.2.0data status	okinstallation	princeton_trtdifferential loss correction	single-endedforward channel	channel 4reverse channel	N/Adate	2019/09/17time	21:57:35forward acquisition time	60.00reverse acquisition time	0.00gamma	496.2192k internal	0.2329k external	0.2329temperature offset calibration	0.9996default loss term (dB/km)	0.3790temperature slope calibration	1.0000multiplexer offset coefficient	1.0000multiplexer slope coefficient	1.0000fibre end	0.00T internal ref (°C)	26.17T ext. ref 1 (°C)	0.18T ext. ref 2 (°C)	18.91length (m)	temperature (°C)	Stokes	anti-Stokes-747.200	-39.805	0.280	0.147
-746.185	98.558	-0.246	0.286
-745.171	368.135	0.056	0.113
-744.156	-51.426	-0.187	0.088
-743.142	143.524	0.124	-0.167
-742.127	-24.438	-0.277	-0.166
-741.112	97.512	0.040	-0.046
-740.098	44.055	-0.262	0.242
-739.083	645.422	-0.059	0.151
-738.069	252.519	0.120	-0.206
-737.054	-122.334	-0.262	0.043
-736.039	-200.000	-0.042	-0.513
-735.025	14.820	0.112	0.088
-734.010	107.304	0.141	-0.169
-732.996	-200.000	-0.044	-0.311
-731.981	-200.000	0.042	-0.197
-730.966	75.781	-0.172	0.183
-729.952	-200.000	-0.014	0.094
-728.937	198.240	0.124	-0.191
-727.923	-59.332	-0.119	0.052
-726.908	187.647	0.101	0.152
-725.894	108.380	-0.158	-0.189
-724.879	367.980	-0.136	-0.276
-723.864	-95.289	0.216	-0.059
-722.850	58.763	0.142	-0.140
-721.835	-94.797	0.065	-0.018
-720.821	800.000	-0.103	-0.291
-719.806	-143.220	-0.048	0.005
-718.791	800.000	0.056	-0.223
-717.777	-61.856	0.575	-0.242
-716.762	-97.807	-0.135	-0.035
-715.748	562.579	0.161	-0.393
-714.733	259.819	-0.080	-0.138
-713.718	-200.000	-0.023	0.137
-712.704	194.640	0.060	-0.092
-711.689	-93.348	-0.202	0.056
-710.675	800.000	-0.031	-0.135
-709.660	142.618	0.205	-0.274
-708.645	54.187	0.123	-0.119
-707.631	-200.000	-0.003	-0.165
-706.616	800.000	0.099	-0.276
-705.602	-125.014	-0.248	-0.038
-704.587	-200.000	-0.024	-0.139
-703.572	88.102	-0.062	-0.069
-702.558	19.565	-0.193	-0.156
-701.543	23.229	-0.144	0.119
-700.529	29.461	0.179	0.153
-699.514	41.102	0.043	0.039
-698.499	275.158	-0.202	-0.361
-697.485	800.000	-0.101	0.355
-696.470	-28.089	0.084	0.049
-695.456	-32.814	-0.063	-0.035
-694.441	139.582	0.121	-0.161
-693.426	-87.491	0.360	-0.110
-692.412	87.200	-0.296	-0.329
-691.397	4.599	0.089	0.066
-690.383	-200.000	0.002	-0.102
-689.368	800.000	-0.042	-0.132
-688.354	-200.000	0.033	0.444
-687.339	64.734	-0.034	-0.035
-686.324	102.794	-0.290	-0.341
-685.310	800.000	-0.064	-0.189
-684.295	321.022	-0.195	-0.372
-683.281	71.264	-0.127	0.133
-682.266	-66.122	0.103	-0.041
-681.251	-90.818	-0.122	0.035
-680.237	37.871	-0.029	-0.026
-679.222	227.795	-0.175	0.286
-678.208	-63.356	0.159	-0.066
-677.193	-54.024	0.251	0.115
-676.178	-139.862	0.157	0.017
-675.164	-167.984	-0.434	0.017
-674.149	-31.650	0.090	-0.051
-673.135	33.019	0.244	-0.213
-672.120	137.952	-0.132	-0.174
-671.105	-117.079	0.180	-0.033
-670.091	86.280	0.306	-0.339
-669.076	-4.063	0.252	-0.176
-668.062	-62.277	-0.092	0.039
-667.047	-28.821	-0.233	0.135
-666.032	-80.001	-0.119	-0.040
-665.018	-200.000	0.124	-0.577
-664.003	-149.983	-0.212	-0.017
-662.989	-110.946	-0.150	-0.031
-661.974	323.391	-0.031	0.060
-660.959	-138.044	-0.161	0.018
-659.945	93.607	-0.112	-0.128
-658.930	-90.144	0.068	-0.020
-657.916	-3.795	-0.218	-0.152
-656.901	-200.000	-0.009	0.210
-655.886	-200.000	0.064	-0.355
-654.872	-88.595	0.066	-0.020
-653.857	-86.799	0.192	0.059
-652.843	800.000	-0.062	0.188
-651.828	800.000	-0.093	0.355
-650.814	18.319	-0.242	0.194
-649.799	-200.000	-0.021	-0.129
-648.784	800.000	0.082	-0.308
-647.770	-200.000	-0.005	0.086
-646.755	536.409	-0.080	0.190
-645.741	458.380	0.057	0.127
-644.726	-102.001	-0.137	0.033
-643.711	41.259	0.163	0.148
-642.697	-82.457	-0.213	0.069
-641.682	171.352	0.080	0.116
-640.668	-93.257	0.232	0.065
-639.653	-102.032	-0.244	0.059
-638.638	103.087	0.300	-0.353
-637.624	-37.366	-0.227	-0.122
-636.609	-200.000	-0.006	-0.372
-635.595	-86.606	-0.126	0.039
-634.580	-63.543	-0.417	0.172
-633.565	-200.000	0.021	-0.096
-632.551	-75.765	-0.310	0.110
-631.536	23.810	0.330	-0.273
-630.522	-200.000	-0.059	-0.261
-629.507	584.266	0.136	-0.335
-628.492	-45.969	0.176	-0.087
-627.478	-123.703	-0.111	-0.018
-626.463	-93.278	0.212	-0.059
-625.449	485.473	0.096	-0.219
-624.434	69.862	0.176	-0.182
-623.419	800.000	-0.055	-0.162
-622.405	-70.959	0.284	0.107
-621.390	141.444	-0.074	0.099
-620.376	-113.917	0.295	0.058
-619.361	267.184	0.084	0.147
-618.346	-200.000	0.025	0.330
-617.332	194.024	0.146	-0.222
-616.317	-200.000	0.007	-0.209
-615.303	-62.847	-0.146	0.061
-614.288	-79.409	0.113	-0.038
-613.273	-90.588	-0.215	0.062
-612.259	-146.513	-0.163	-0.014
-611.244	120.466	-0.181	-0.225
-610.230	-121.316	0.268	-0.045
-609.215	-131.087	-0.326	0.044
-608.201	78.390	-0.138	0.148
-607.186	-54.638	0.175	-0.079
-606.171	-114.413	0.179	-0.035
-605.157	-114.609	-0.385	-0.074
-604.142	332.275	0.079	-0.153
-603.128	30.868	-0.131	-0.112
-602.113	-61.166	0.193	-0.082
-601.098	-69.134	0.318	-0.122
-600.084	-17.642	-0.352	-0.221
-599.069	-200.000	-0.079	0.412
-598.055	32.678	-0.020	-0.017
-597.040	17.647	-0.084	0.067
-596.025	739.815	-0.103	-0.278
-595.011	641.277	-0.082	-0.210
-593.996	594.080	0.095	-0.236
-592.982	-200.000	0.216	-0.001
-591.967	800.000	0.041	-0.145
-590.952	152.745	0.098	0.134
-589.938	177.993	0.017	0.025
-588.923	87.921	-0.091	0.101
-587.909	-200.000	-0.002	-0.036
-586.894	-114.126	-0.362	-0.070
-585.879	-200.000	-0.012	-0.148
-584.865	-200.000	-0.036	-0.188
-583.850	-63.517	-0.248	0.102
-582.836	800.000	0.039	0.160
-581.821	-27.697	0.125	0.073
-580.806	97.519	0.125	-0.144
-579.792	-69.381	-0.179	-0.069
-578.777	-149.128	0.263	-0.021
-577.763	746.531	-0.025	-0.068
-576.748	638.215	-0.076	-0.194
-575.733	-165.033	0.296	-0.013
-574.719	45.114	0.319	-0.295
-573.704	-200.000	-0.023	0.160
-572.690	800.000	-0.103	-0.350
-571.675	59.502	-0.195	-0.192
-570.661	-106.519	0.286	0.064
-569.646	-200.000	-0.017	0.249
-568.631	-142.638	-0.283	-0.028
-567.617	-78.429	-0.108	0.037
-566.602	-152.960	0.153	0.011
-565.588	296.759	-0.068	0.126
-564.573	800.000	-0.053	0.168
-563.558	162.666	-0.205	0.288
-562.544	-200.000	-0.001	0.266
-561.529	-200.000	0.040	-0.258
-560.515	88.058	0.119	0.132
-559.500	800.000	0.094	0.314
-558.485	293.104	0.083	0.152
-557.471	800.000	-0.082	-0.243
-556.456	-75.470	-0.292	0.104
-555.442	-80.808	-0.077	-0.026
-554.427	-114.870	-0.243	0.046
-553.412	-122.289	-0.181	-0.030
-552.398	199.829	0.182	0.279
-551.383	800.000	-0.056	0.197
-550.369	76.997	-0.081	-0.086
-549.354	516.806	0.091	-0.214
-548.339	375.060	-0.068	0.138
-547.325	232.339	0.068	0.111
-546.310	-126.432	-0.163	-0.024
-545.296	160.874	0.144	0.201
-544.281	-200.000	-0.081	0.385
-543.266	88.524	0.218	-0.242
-542.252	800.000	-0.078	-0.245
-541.237	-22.516	-0.265	-0.161
-540.223	149.370	-0.256	-0.347
-539.208	87.286	-0.199	-0.220
-538.193	439.859	-0.104	-0.227
-537.179	95.021	0.176	-0.200
-536.164	-200.000	-0.033	0.222
-535.150	-75.798	-0.181	0.064
-534.135	103.634	-0.311	-0.365
-533.121	-200.000	0.044	-0.231
-532.106	-168.302	-0.228	-0.009
-531.091	800.000	-0.030	-0.083
-530.077	5.863	-0.012	-0.009
-529.062	800.000	0.061	0.201
-528.048	-26.688	0.121	-0.071
-527.033	0.649	-0.130	-0.093
-526.018	93.684	0.199	-0.225
-525.004	-72.436	0.221	-0.082
-523.989	192.427	-0.094	0.142
-522.975	-162.353	-0.158	-0.008
-521.960	-200.000	-0.067	-0.340
-520.945	-63.732	-0.189	-0.078
-519.931	56.085	0.164	0.159
-518.916	-66.139	0.196	-0.078
-517.902	-103.450	-0.180	-0.042
-516.887	-114.096	0.206	-0.040
-515.872	800.000	0.050	0.211
-514.858	53.224	-0.128	0.122
-513.843	800.000	0.067	0.280
-512.829	-29.949	0.132	-0.075
-511.814	-200.000	-0.042	0.311
-510.799	800.000	0.049	0.154
-509.785	69.707	-0.117	-0.121
-508.770	-52.332	-0.102	-0.047
-507.756	345.744	0.128	-0.251
-506.741	-129.132	-0.240	-0.033
-505.726	-91.671	-0.267	-0.076
-504.712	-1.743	0.205	0.144
-503.697	-27.673	0.226	-0.131
-502.683	82.594	-0.317	0.344
-501.668	-122.528	0.152	-0.025
-500.653	800.000	-0.064	-0.201
-499.639	76.393	-0.217	-0.229
-498.624	800.000	-0.037	0.105
-497.610	-200.000	0.065	0.292
-496.595	10.988	-0.130	-0.099
-495.581	443.934	0.153	-0.334
-494.566	-133.328	-0.380	-0.048
-493.551	-35.757	-0.258	-0.139
-492.537	-54.176	-0.062	0.028
-491.522	-1.774	-0.210	-0.147
-490.508	779.999	-0.062	0.169
-489.493	-68.011	0.382	0.149
-488.478	160.197	-0.186	-0.259
-487.464	-30.715	0.023	0.013
-486.449	-120.774	0.322	-0.054
-485.435	-43.728	-0.236	-0.119
-484.420	-106.315	-0.094	-0.021
-483.405	206.123	0.206	0.320
-482.391	103.473	0.068	-0.079
-481.376	-200.000	0.039	0.174
-480.362	101.337	0.082	0.096
-479.347	-90.141	-0.378	-0.110
-478.332	2.016	0.234	-0.168
-477.318	-2.546	-0.171	0.119
-476.303	-66.936	-0.103	0.040
-475.289	285.942	-0.037	0.067
-474.274	-200.000	0.054	-0.277
-473.259	-94.893	-0.078	0.021
-472.245	134.896	0.080	-0.104
-471.230	-127.123	-0.306	-0.045
-470.216	-116.839	0.334	0.061
-469.201	-141.719	0.213	0.021
-468.186	-200.000	0.001	-0.125
-467.172	-125.860	0.262	-0.039
-466.157	-148.935	0.218	0.018
-465.143	-66.509	-0.435	-0.172
-464.128	-51.897	-0.058	0.027
-463.113	-134.699	0.156	0.019
-462.099	800.000	0.036	-0.102
-461.084	67.410	-0.112	-0.114
-460.070	92.740	0.053	-0.059
-459.055	96.586	0.105	-0.120
-458.040	-74.224	-0.274	0.099
-457.026	614.112	-0.039	-0.098
-456.011	356.208	-0.124	-0.245
-454.997	-78.083	-0.217	0.075
-453.982	-27.251	-0.313	-0.181
-452.968	-142.827	-0.148	0.014
-451.953	-154.573	0.159	0.011
-450.938	800.000	0.019	-0.078
-449.924	-93.286	0.200	0.055
-448.909	-200.000	-0.008	0.226
-447.895	800.000	0.100	0.362
-446.880	-200.000	0.022	-0.098
-445.865	-9.422	-0.091	-0.060
-444.851	-200.000	-0.037	0.230
-443.836	158.527	0.307	0.424
-442.822	-25.651	-0.096	-0.056
-441.807	-200.000	-0.046	-0.318
-440.792	-35.492	-0.319	-0.172
-439.778	-80.408	-0.148	-0.049
-438.763	-113.816	0.164	-0.032
-437.749	-148.762	-0.029	-0.002
-436.734	-165.816	0.307	0.013
-435.719	-200.000	0.003	-0.138
-434.705	-200.000	-0.012	-0.291
-433.690	800.000	0.123	0.426
-432.676	81.669	0.088	-0.094
-431.661	-141.266	0.143	-0.015
-430.646	50.663	0.084	0.079
-429.632	-200.000	-0.008	0.168
-428.617	157.035	-0.036	0.050
-427.603	43.235	0.134	-0.122
-426.588	6.703	0.506	0.375
-425.573	152.647	-0.108	0.147
-424.559	7.431	0.149	0.111
-423.544	-132.966	0.228	-0.029
-422.530	800.000	-0.095	-0.358
-421.515	77.437	-0.097	-0.103
-420.500	-85.184	0.093	-0.029
-419.486	318.526	0.080	0.151
-418.471	41.664	0.185	-0.167
-417.457	110.760	0.046	-0.055
-416.442	-82.630	-0.133	0.043
-415.428	87.428	-0.086	-0.095
-414.413	113.858	0.096	-0.116
-413.398	134.828	0.061	0.079
-412.384	449.994	0.024	-0.054
-411.369	-125.133	-0.266	0.041
-410.355	53.836	0.039	0.037
-409.340	-92.491	0.115	0.032
-408.325	800.000	0.162	0.543
-407.311	-3.855	-0.425	0.293
-406.296	-7.087	-0.090	0.061
-405.282	-49.831	-0.194	-0.092
-404.267	71.630	-0.101	0.105
-403.252	-130.281	0.214	-0.029
-402.238	-54.414	-0.138	-0.062
-401.223	-81.592	-0.296	0.097
-400.209	80.647	-0.217	0.233
-399.194	235.626	0.088	-0.144
-398.179	-14.765	0.234	-0.149
-397.165	-43.070	0.131	0.066
-396.150	-164.998	-0.291	0.013
-395.136	-59.409	0.227	-0.097
-394.121	-200.000	-0.015	0.387
-393.106	217.659	-0.087	0.137
-392.092	392.998	-0.113	0.233
-391.077	6.250	0.169	0.125
-390.063	103.707	-0.224	0.262
-389.048	-200.000	0.050	0.236
-388.033	-110.137	0.259	0.054
-387.019	111.358	-0.216	-0.259
-386.004	-4.630	-0.293	0.201
-384.990	-124.084	0.206	-0.032
-383.975	73.803	-0.250	-0.260
-382.960	-47.164	-0.365	0.177
-381.946	72.548	0.126	-0.131
-380.931	-200.000	0.009	-0.114
-379.917	-200.000	0.002	-0.149
-378.902	-159.558	0.212	-0.012
-377.888	-200.000	-0.002	-0.009
-376.873	277.872	0.056	-0.099
-375.858	-41.022	-0.214	-0.110
-374.844	-88.356	-0.178	-0.053
-373.829	10.565	0.113	-0.086
-372.815	146.426	0.094	-0.125
-371.800	406.908	0.099	-0.208
-370.785	8.202	-0.045	-0.034
-369.771	-163.797	0.092	0.004
-368.756	392.751	0.081	0.167
-367.742	-103.952	0.391	-0.091
-366.727	-43.517	-0.202	-0.101
-365.712	-34.352	-0.264	0.144
-364.698	-200.000	0.042	0.209
-363.683	-121.920	-0.133	-0.022
-362.669	39.582	0.015	0.014
-361.654	-126.105	0.069	-0.010
-360.639	-65.308	0.303	-0.121
-359.625	800.000	-0.036	0.106
-358.610	-100.018	-0.149	0.037
-357.596	20.813	0.280	0.225
-356.581	257.474	-0.100	-0.170
-355.566	-57.741	-0.208	0.091
-354.552	728.816	0.037	0.099
-353.537	34.774	-0.188	-0.164
-352.523	-200.000	0.027	0.163
-351.508	3.306	0.163	-0.118
-350.493	-118.394	-0.286	-0.050
-349.479	-12.306	-0.107	0.070
-348.464	13.099	0.071	0.055
-347.450	159.930	0.128	-0.177
-346.435	148.244	-0.237	0.318
-345.420	118.091	0.132	0.161
-344.406	31.449	-0.094	0.080
-343.391	-200.000	-0.052	-0.293
-342.377	-130.844	0.125	0.017
-341.362	-63.092	0.336	0.138
-340.348	-82.114	-0.272	-0.088
-339.333	111.015	-0.135	0.161
-338.318	229.200	0.117	0.190
-337.304	-200.000	0.041	-0.220
-336.289	26.199	-0.033	0.027
-335.275	202.446	0.046	0.070
-334.260	359.476	-0.060	0.119
-333.245	-200.000	0.021	0.292
-332.231	800.000	-0.199	-0.647
-331.216	-51.367	0.145	-0.067
-330.202	-200.000	0.030	-0.150
-329.187	6.366	0.171	-0.126
-328.172	-200.000	0.028	-0.237
-327.158	-147.153	-0.142	-0.012
-326.143	-96.946	-0.124	0.032
-325.129	113.610	0.072	-0.086
-324.114	793.417	-0.038	-0.105
-323.099	-200.000	0.020	-0.344
-322.085	44.572	-0.086	-0.078
-321.070	-104.802	0.435	0.099
-320.056	147.656	-0.109	0.145
-319.041	208.000	0.171	-0.264
-318.026	-45.925	-0.156	0.076
-317.012	370.604	-0.096	-0.192
-315.997	-46.853	0.254	0.123
-314.983	800.000	0.091	-0.265
-313.968	-28.712	0.229	0.131
-312.953	441.984	-0.162	-0.351
-311.939	800.000	0.035	-0.139
-310.924	481.945	0.117	0.263
-309.910	242.189	-0.247	0.409
-308.895	-20.193	0.087	0.053
-307.880	-33.435	0.208	0.114
-306.866	-97.755	0.271	-0.069
-305.851	137.367	-0.240	-0.311
-304.837	800.000	0.059	0.206
-303.822	800.000	0.010	0.040
-302.807	323.301	0.052	0.099
-301.793	-171.932	-0.234	-0.008
-300.778	-20.744	-0.209	-0.127
-299.764	-113.678	0.274	-0.053
-298.749	17.261	-0.081	0.064
-297.735	-200.000	-0.012	0.130
-296.720	-200.000	-0.050	0.286
-295.705	-121.579	-0.155	-0.025
-294.691	145.569	0.034	0.045
-293.676	-200.000	0.033	-0.209
-292.662	363.097	0.145	0.288
-291.647	29.792	0.164	0.138
-290.632	-3.454	-0.046	-0.032
-289.618	-200.000	0.042	0.419
-288.603	155.825	-0.115	0.157
-287.589	196.566	-0.053	0.080
-286.574	156.131	-0.104	-0.141
-285.559	92.105	-0.115	0.128
-284.545	-200.000	0.007	0.478
-283.530	12.861	-0.287	0.220
-282.516	162.608	-0.085	0.117
-281.501	-117.499	-0.130	0.023
-280.486	136.461	-0.284	0.366
-279.472	252.933	-0.060	-0.101
-278.457	17.742	-0.287	0.226
-277.443	-46.980	-0.193	-0.093
-276.428	800.000	-0.011	-0.049
-275.413	8.502	0.116	-0.086
-274.399	-94.017	0.182	-0.050
-273.384	-147.607	0.110	-0.009
-272.370	38.898	-0.261	-0.231
-271.355	-117.628	-0.297	-0.053
-270.340	-34.219	-0.154	0.083
-269.326	-51.015	0.346	-0.161
-268.311	40.560	0.284	0.253
-267.297	179.719	0.172	0.250
-266.282	-198.602	0.341	0.002
-265.267	-136.397	0.291	-0.033
-264.253	-71.128	-0.066	0.025
-263.238	-200.000	-0.067	-0.386
-262.224	-114.884	0.164	0.031
-261.209	194.630	-0.084	0.127
-260.195	80.733	0.174	0.185
-259.180	-88.115	-0.061	0.018
-258.165	-92.935	0.329	-0.091
-257.151	-61.011	-0.283	0.118
-256.136	-30.509	0.259	-0.145
-255.122	91.650	0.125	0.139
-254.107	-200.000	0.037	0.314
-253.092	345.365	0.138	0.268
-252.078	31.336	-0.290	-0.246
-251.063	410.853	0.170	-0.356
-250.049	-200.000	0.055	-0.357
-249.034	69.552	0.132	0.134
-248.019	800.000	-0.052	-0.155
-247.005	134.205	-0.132	0.169
-245.990	-200.000	0.039	0.394
-244.976	-57.723	0.078	0.034
-243.961	9.250	0.006	0.005
-242.946	-200.000	0.026	0.236
-241.932	5.541	-0.456	0.333
-240.917	800.000	-0.077	0.288
-239.903	322.305	0.158	-0.298
-238.888	-200.000	-0.016	-0.287
-237.873	-157.428	-0.035	-0.002
-236.859	-200.000	0.047	-0.485
-235.844	352.008	0.186	0.364
-234.830	-146.919	0.094	0.008
-233.815	42.759	0.202	0.182
-232.800	-55.771	-0.220	0.097
-231.786	377.206	0.167	0.336
-230.771	-200.000	0.024	0.375
-229.757	729.937	0.070	-0.184
-228.742	-200.000	0.012	0.516
-227.727	-200.000	-0.009	-0.053
-226.713	440.136	0.172	-0.372
-225.698	-11.760	0.164	0.106
-224.684	-7.778	-0.153	0.102
-223.669	-96.302	-0.190	0.050
-222.655	371.480	-0.046	0.092
-221.640	-84.783	0.121	-0.038
-220.625	-163.686	-0.074	0.003
-219.611	-163.059	-0.012	0.001
-218.596	800.000	0.061	-0.196
-217.582	115.614	0.129	-0.156
-216.567	-160.006	-0.575	-0.031
-215.552	276.128	0.133	-0.234
-214.538	800.000	0.133	0.443
-213.523	-20.179	0.067	0.041
-212.509	110.084	-0.057	-0.068
-211.494	-21.277	-0.177	0.107
-210.479	-125.079	-0.128	0.019
-209.465	-20.996	0.072	-0.043
-208.450	-200.000	0.042	0.362
-207.436	-200.000	-0.037	-0.164
-206.421	-13.060	-0.078	0.050
-205.406	800.000	-0.050	-0.184
-204.392	-200.000	0.050	0.260
-203.377	-94.439	-0.176	-0.047
-202.363	800.000	-0.054	-0.181
-201.348	-156.295	0.222	0.014
-200.333	-99.330	-0.002	0.001
-199.319	-48.171	0.174	0.083
-198.304	81.593	0.334	-0.356
-197.290	277.617	0.124	0.218
-196.275	13.019	0.213	0.162
-195.260	728.199	0.190	-0.500
-194.246	-15.919	-0.063	-0.039
-193.231	-200.000	-0.015	-0.074
-192.217	-65.476	0.387	0.153
-191.202	-104.721	0.306	0.069
-190.187	-19.325	0.284	0.173
-189.173	-118.908	0.121	-0.021
-188.158	366.003	0.113	0.224
-187.144	28.655	0.095	0.079
-186.129	42.391	-0.055	0.049
-185.114	-59.527	-0.317	0.134
-184.100	-200.000	-0.056	0.282
-183.085	177.244	0.069	-0.099
-182.071	-46.961	-0.209	0.101
-181.056	800.000	0.041	-0.129
-180.042	-44.499	0.373	-0.184
-179.027	-200.000	0.020	-0.089
-178.012	317.436	-0.024	0.045
-176.998	800.000	-0.052	0.178
-175.983	66.753	0.187	-0.187
-174.969	336.408	-0.196	-0.375
-173.954	-185.959	0.276	0.004
-172.939	158.825	-0.101	-0.138
-171.925	140.256	-0.101	-0.131
-170.910	320.478	-0.185	0.346
-169.896	-87.813	0.228	-0.068
-168.881	-200.000	-0.016	0.329
-167.866	-73.427	-0.185	-0.067
-166.852	-200.000	0.042	-0.284
-165.837	-2.373	0.202	0.140
-164.823	-162.378	-0.276	-0.014
-163.808	-109.758	-0.306	-0.063
-162.793	-200.000	0.005	0.029
-161.779	-194.927	0.232	-0.002
-160.764	-122.156	-0.400	-0.065
-159.750	406.955	0.133	-0.278
-158.735	138.544	0.005	-0.006
-157.720	-81.925	0.218	-0.070
-156.706	-200.000	-0.013	0.178
-155.691	572.705	-0.029	-0.069
-154.677	-116.898	0.437	0.079
-153.662	2.375	-0.084	-0.060
-152.647	-69.815	0.341	0.128
-151.633	711.253	-0.044	0.114
-150.618	-71.918	0.124	0.045
-149.604	-171.044	-0.413	0.014
-148.589	-85.418	-0.176	-0.054
-147.574	800.000	-0.117	-0.494
-146.560	-200.000	-0.024	-0.117
-145.545	-116.052	0.192	0.035
-144.531	459.389	-0.053	-0.115
-143.516	97.358	-0.099	0.112
-142.502	51.585	-0.010	0.010
-141.487	-167.237	0.097	0.004
-140.472	-22.733	0.199	-0.118
-139.458	-200.000	0.044	-0.228
-138.443	-115.565	0.259	0.048
-137.429	73.139	-0.231	0.238
-136.414	118.733	0.087	-0.105
-135.399	-82.865	0.261	-0.083
-134.385	-77.583	-0.363	-0.124
-133.370	-200.000	0.066	0.357
-132.356	4.049	-0.257	-0.185
-131.341	255.193	-0.094	-0.159
-130.326	-1.042	-0.144	0.100
-129.312	-46.204	-0.013	-0.006
-128.297	143.086	-0.316	0.413
-127.283	140.059	-0.065	0.084
-126.268	278.328	0.116	0.204
-125.253	41.102	0.163	-0.145
-124.239	-2.109	-0.136	-0.094
-123.224	78.668	0.226	-0.238
-122.210	-200.000	0.021	0.114
-121.195	800.000	0.077	-0.280
