DTS Sentinel unit serial number:	SN413079Multiplexer serial number:	ORYXHardware model number:	OX4-SRSoftware version number:	ORYX F/W v4.00 Oryx Data Collector v3.7.2.0data status	okinstallation	princeton_trtdifferential loss correction	single-endedforward channel	channel 4reverse channel	N/Adate	2019/09/17time	07:45:35forward acquisition time	60.00reverse acquisition time	0.00gamma	496.2192k internal	0.2320k external	0.2320temperature offset calibration	0.9984default loss term (dB/km)	0.3790temperature slope calibration	1.0000multiplexer offset coefficient	1.0000multiplexer slope coefficient	1.0000fibre end	0.00T internal ref (°C)	27.16T ext. ref 1 (°C)	0.13T ext. ref 2 (°C)	22.05length (m)	temperature (°C)	Stokes	anti-Stokes-747.200	-124.557	0.311	-0.049
-746.185	438.645	-0.230	-0.507
-745.171	41.470	-0.094	-0.086
-744.156	800.000	-0.058	0.195
-743.142	128.931	-0.181	0.234
-742.127	-200.000	-0.043	-0.266
-741.112	-20.762	0.165	0.102
-740.098	24.178	0.059	0.049
-739.083	-56.814	-0.465	0.208
-738.069	196.829	-0.311	0.479
-737.054	394.221	-0.090	-0.190
-736.039	-110.837	-0.360	0.075
-735.025	-2.780	0.070	-0.050
-734.010	-200.000	0.017	-0.160
-732.996	-5.767	0.264	-0.183
-731.981	-200.000	-0.001	0.051
-730.966	-27.372	0.197	-0.116
-729.952	210.734	-0.119	0.190
-728.937	-200.000	-0.020	-0.090
-727.923	800.000	0.096	0.282
-726.908	-87.913	-0.060	0.018
-725.894	-200.000	-0.006	0.145
-724.879	-143.535	-0.239	0.023
-723.864	-17.892	-0.225	0.142
-722.850	-200.000	0.013	-0.141
-721.835	-200.000	0.040	0.273
-720.821	800.000	-0.069	0.220
-719.806	-197.512	-0.170	0.001
-718.791	335.252	0.121	-0.237
-717.777	257.198	0.203	-0.353
-716.762	800.000	-0.131	0.380
-715.748	-200.000	0.022	0.226
-714.733	-172.214	0.224	0.007
-713.718	29.721	0.045	0.039
-712.704	-101.679	-0.271	0.066
-711.689	-41.557	-0.022	-0.011
-710.675	-155.396	-0.116	0.008
-709.660	225.040	-0.138	-0.225
-708.645	-143.955	-0.423	-0.040
-707.631	134.757	0.061	-0.080
-706.616	-79.767	0.132	0.045
-705.602	113.618	-0.187	0.230
-704.587	274.194	-0.097	0.173
-703.572	327.213	-0.127	0.246
-702.558	-7.140	0.191	-0.131
-701.543	71.665	-0.208	-0.218
-700.529	127.632	-0.103	0.132
-699.514	-39.111	0.117	-0.062
-698.499	-156.413	-0.353	-0.022
-697.485	800.000	0.200	0.584
-696.470	93.563	-0.139	-0.159
-695.456	400.269	-0.067	-0.142
-694.441	769.612	-0.089	0.244
-693.426	227.661	-0.196	-0.321
-692.412	-200.000	-0.074	-0.685
-691.397	-170.034	0.127	-0.005
-690.383	800.000	-0.050	-0.150
-689.368	66.387	0.181	0.186
-688.354	184.071	0.142	0.212
-687.339	74.508	-0.009	-0.010
-686.324	21.428	-0.102	0.084
-685.310	125.635	-0.288	-0.367
-684.295	-200.000	0.018	-0.259
-683.281	-200.000	0.005	-0.287
-682.266	800.000	0.063	-0.178
-681.251	-107.432	0.275	-0.061
-680.237	-200.000	-0.003	0.225
-679.222	-200.000	-0.036	-0.336
-678.208	-43.254	0.052	-0.027
-677.193	-142.015	0.467	0.047
-676.178	175.576	0.237	-0.347
-675.164	271.215	0.105	0.187
-674.149	-171.518	-0.310	-0.010
-673.135	-200.000	0.028	-0.142
-672.120	323.179	-0.056	0.108
-671.105	352.004	0.092	-0.184
-670.091	-81.475	-0.181	0.060
-669.076	217.327	-0.014	0.023
-668.062	91.192	0.087	0.099
-667.047	-18.657	-0.258	0.162
-666.032	-113.010	0.295	0.059
-665.018	800.000	0.131	0.374
-664.003	169.332	-0.068	0.098
-662.989	-200.000	0.010	0.449
-661.974	441.131	-0.170	-0.374
-660.959	149.033	0.232	0.317
-659.945	85.155	-0.177	0.196
-658.930	326.357	0.116	-0.223
-657.916	130.267	0.359	-0.463
-656.901	98.371	-0.176	-0.205
-655.886	312.209	-0.092	-0.175
-654.872	-144.099	0.176	0.017
-653.857	-106.492	-0.084	0.019
-652.843	-200.000	-0.029	-0.268
-651.828	-129.238	-0.169	-0.024
-650.814	94.330	0.194	0.222
-649.799	-200.000	0.015	-0.352
-648.784	-22.275	0.230	-0.140
-647.770	800.000	0.032	-0.126
-646.755	21.667	0.091	-0.075
-645.741	-152.504	-0.062	0.004
-644.726	-153.479	0.321	0.022
-643.711	-81.502	-0.202	-0.067
-642.697	-73.089	-0.083	-0.031
-641.682	-200.000	-0.022	0.481
-640.668	-46.364	0.126	0.063
-639.653	339.562	-0.119	-0.235
-638.638	-163.803	-0.116	-0.005
-637.624	543.629	0.076	-0.184
-636.609	159.145	0.178	0.250
-635.595	233.257	-0.121	-0.201
-634.580	161.128	-0.131	-0.184
-633.565	-113.003	-0.452	0.090
-632.551	20.550	0.255	0.208
-631.536	42.962	0.383	0.351
-630.522	-181.669	-0.337	0.007
-629.507	-41.520	-0.254	-0.131
-628.492	-137.557	-0.237	-0.027
-627.478	110.508	0.113	0.137
-626.463	39.359	0.267	-0.240
-625.449	655.384	-0.040	-0.103
-624.434	800.000	0.042	-0.134
-623.419	-200.000	-0.002	-0.101
-622.405	-93.726	-0.094	-0.026
-621.390	-72.761	0.102	0.038
-620.376	159.514	0.105	0.147
-619.361	-130.130	0.166	0.023
-618.346	-200.000	-0.037	-0.171
-617.332	234.789	0.137	-0.227
-616.317	-143.749	0.191	-0.018
-615.303	-144.653	-0.202	0.019
-614.288	6.068	-0.040	-0.030
-613.273	465.998	0.086	-0.193
-612.259	156.932	-0.114	-0.159
-611.244	-200.000	-0.177	0.001
-610.230	-94.602	-0.248	0.068
-609.215	-79.097	-0.236	-0.080
-608.201	422.722	-0.082	0.178
-607.186	-69.603	0.286	0.110
-606.171	-131.527	-0.660	0.088
-605.157	14.426	-0.037	-0.029
-604.142	-117.390	-0.033	-0.006
-603.128	31.660	0.147	0.127
-602.113	-27.627	-0.300	-0.175
-601.098	226.980	-0.175	-0.287
-600.084	-131.570	0.064	-0.008
-599.069	-92.330	-0.173	0.049
-598.055	-200.000	-0.073	0.490
-597.040	-29.633	0.172	-0.099
-596.025	-123.939	-0.242	-0.038
-595.011	180.353	0.150	-0.221
-593.996	38.417	-0.157	0.140
-592.982	-163.858	-0.379	0.018
-591.967	800.000	-0.045	-0.129
-590.952	-134.051	0.461	-0.057
-589.938	0.462	-0.377	0.271
-588.923	-13.916	-0.316	-0.205
-587.909	-159.628	-0.110	0.006
-586.894	511.988	-0.096	0.226
-585.879	-117.924	-0.259	0.047
-584.865	-18.741	-0.067	0.042
-583.850	119.228	-0.149	-0.185
-582.836	-89.347	0.039	0.011
-581.821	-28.419	-0.211	0.122
-580.806	-33.663	-0.253	-0.140
-579.792	705.076	-0.066	-0.174
-578.777	800.000	-0.105	0.304
-577.763	565.682	0.095	0.231
-576.748	800.000	-0.013	-0.050
-575.733	70.187	0.166	0.173
-574.719	-200.000	0.001	-0.262
-573.704	-148.157	-0.384	0.032
-572.690	-108.914	0.223	0.048
-571.675	-73.560	-0.324	0.119
-570.661	800.000	-0.055	0.203
-569.646	-90.963	-0.304	0.088
-568.631	-133.150	-0.183	0.023
-567.617	-200.000	0.010	0.283
-566.602	14.982	-0.130	0.102
-565.588	4.886	-0.178	-0.132
-564.573	-200.000	-0.076	-0.375
-563.558	24.976	0.150	-0.125
-562.544	-79.368	-0.178	0.060
-561.529	36.914	0.187	-0.166
-560.515	-5.596	-0.106	0.073
-559.500	-122.274	0.298	-0.049
-558.485	207.180	0.146	0.229
-557.471	125.334	0.067	0.085
-556.456	-166.168	0.198	-0.008
-555.442	-39.894	-0.321	-0.168
-554.427	-177.135	0.443	-0.011
-553.412	800.000	-0.074	0.289
-552.398	800.000	0.081	-0.355
-551.383	-54.101	0.163	0.074
-550.369	36.188	0.325	0.287
-549.354	-200.000	-0.034	-0.160
-548.339	153.067	-0.129	-0.178
-547.325	-49.621	0.154	-0.074
-546.310	332.775	-0.141	-0.274
-545.296	76.910	-0.168	0.179
-544.281	-97.495	0.378	0.098
-543.266	-68.694	-0.298	0.116
-542.252	216.782	-0.051	0.081
-541.237	-13.278	-0.360	0.235
-540.223	-200.000	0.021	0.138
-539.208	-72.967	0.210	0.077
-538.193	800.000	-0.085	-0.316
-537.179	76.200	-0.317	-0.337
-536.164	61.820	0.060	0.060
-535.150	136.897	0.186	-0.243
-534.135	637.147	0.086	-0.219
-533.121	25.275	-0.024	-0.020
-532.106	-197.471	-0.259	-0.002
-531.091	-40.558	0.136	-0.071
-530.077	-133.799	0.230	0.029
-529.062	800.000	0.044	0.191
-528.048	128.897	0.167	0.213
-527.033	-200.000	0.066	0.328
-526.018	-200.000	0.016	0.101
-525.004	-113.036	0.079	0.016
-523.989	800.000	0.042	0.130
-522.975	-57.532	0.226	-0.099
-521.960	32.811	0.147	0.128
-520.945	-57.523	-0.196	0.086
-519.931	-97.957	0.186	-0.048
-518.916	-136.790	0.102	0.012
-517.902	130.267	0.204	0.262
-516.887	138.639	-0.094	0.124
-515.872	20.194	-0.237	0.191
-514.858	-56.348	0.198	-0.088
-513.843	21.123	0.248	-0.201
-512.829	64.173	-0.089	0.090
-511.814	800.000	0.100	-0.318
-510.799	310.850	0.038	-0.071
-509.785	-61.248	0.347	0.147
-508.770	461.249	0.033	-0.073
-507.756	-37.673	0.126	-0.067
-506.741	-97.360	-0.234	-0.061
-505.726	800.000	-0.048	-0.172
-504.712	709.121	-0.062	0.165
-503.697	233.330	-0.091	-0.150
-502.683	-107.707	-0.086	0.019
-501.668	-200.000	-0.017	0.282
-500.653	-63.420	0.195	0.080
-499.639	800.000	-0.035	-0.118
-498.624	-12.696	-0.151	-0.099
-497.610	800.000	0.032	0.107
-496.595	84.336	-0.215	0.236
-495.581	800.000	-0.014	-0.056
-494.566	280.162	0.166	0.297
-493.551	259.223	0.109	0.189
-492.537	233.417	-0.167	0.275
-491.522	-62.543	0.197	0.082
-490.508	-168.553	-0.224	-0.009
-489.493	-44.610	0.384	0.192
-488.478	800.000	0.030	-0.111
-487.464	645.614	-0.089	0.229
-486.449	157.017	0.085	0.118
-485.435	381.534	-0.063	0.130
-484.420	-70.538	0.274	-0.104
-483.405	291.533	0.091	-0.166
-482.391	-75.521	-0.038	-0.013
-481.376	526.880	-0.022	-0.052
-480.362	800.000	0.063	-0.209
-479.347	14.067	-0.281	-0.219
-478.332	800.000	0.073	-0.287
-477.318	800.000	-0.116	0.354
-476.303	-135.772	-0.251	0.030
-475.289	-134.522	0.378	-0.046
-474.274	-1.312	0.234	-0.165
-473.259	-200.000	0.058	-0.366
-472.245	743.414	0.015	-0.039
-471.230	800.000	-0.022	0.077
-470.216	-45.465	0.102	0.051
-469.201	800.000	-0.097	0.407
-468.186	102.658	-0.131	-0.153
-467.172	-200.000	0.012	0.183
-466.157	800.000	-0.135	-0.399
-465.143	22.893	-0.074	0.061
-464.128	136.265	0.123	-0.160
-463.113	800.000	-0.052	-0.167
-462.099	109.382	0.072	0.086
-461.084	123.192	0.031	-0.039
-460.070	-48.789	0.286	-0.137
-459.055	-1.302	-0.321	-0.227
-458.040	-200.000	-0.019	0.129
-457.026	-200.000	-0.025	-0.210
-456.011	800.000	0.043	-0.162
-454.997	-131.577	0.179	0.024
-453.982	-200.000	0.061	0.438
-452.968	-136.503	0.253	0.029
-451.953	-132.867	-0.192	0.024
-450.938	800.000	0.021	-0.082
-449.924	65.380	0.144	0.145
-448.909	800.000	-0.088	0.258
-447.895	37.043	0.259	0.230
-446.880	800.000	-0.034	-0.145
-445.865	-200.000	-0.014	-0.088
-444.851	800.000	0.089	-0.276
-443.836	-200.000	0.002	0.083
-442.822	-128.415	-0.160	0.023
-441.807	-200.000	-0.015	-0.182
-440.792	-32.403	-0.201	0.112
-439.778	-49.392	0.340	0.162
-438.763	650.200	0.047	-0.120
-437.749	-22.468	0.236	-0.143
-436.734	-128.216	-0.293	-0.042
-435.719	800.000	0.067	-0.212
-434.705	114.486	-0.146	0.178
-433.690	-80.818	-0.384	0.128
-432.676	-55.640	0.092	0.041
-431.661	387.946	-0.150	0.309
-430.646	70.670	-0.235	0.243
-429.632	-200.000	-0.017	-0.079
-428.617	-45.583	0.207	0.102
-427.603	-7.165	0.192	-0.130
-426.588	-200.000	0.010	-0.113
-425.573	113.298	0.064	-0.078
-424.559	553.016	0.056	0.135
-423.544	34.008	-0.167	-0.145
-422.530	274.953	-0.072	0.127
-421.515	-26.848	0.049	0.029
-420.500	86.636	0.090	0.099
-419.486	260.566	0.053	-0.091
-418.471	-200.000	-0.018	-0.134
-417.457	143.671	0.145	0.192
-416.442	-200.000	0.011	0.330
-415.428	-158.893	-0.173	0.010
-414.413	11.893	0.068	-0.052
-413.398	-58.207	-0.079	0.034
-412.384	-200.000	0.012	-0.161
-411.369	119.431	0.117	-0.145
-410.355	287.060	0.139	-0.251
-409.340	38.019	0.191	-0.169
-408.325	60.629	0.060	-0.060
-407.311	22.503	-0.199	-0.162
-406.296	-122.277	0.137	0.022
-405.282	212.556	-0.051	-0.080
-404.267	215.007	-0.033	0.052
-403.252	800.000	-0.099	-0.338
-402.238	346.033	-0.102	0.200
-401.223	24.296	-0.303	-0.250
-400.209	-200.000	-0.021	0.098
-399.194	-96.755	-0.087	-0.023
-398.179	-40.407	-0.169	-0.088
-397.165	-118.765	-0.572	0.101
-396.150	-200.000	-0.048	0.243
-395.136	252.443	0.107	0.182
-394.121	-135.255	-0.365	0.044
-393.106	-74.088	0.140	-0.051
-392.092	189.814	-0.185	0.276
-391.077	-200.000	-0.009	-0.137
-390.063	-200.000	-0.027	0.164
-389.048	-34.245	0.136	-0.075
-388.033	-200.000	0.060	-0.346
-387.019	800.000	0.099	-0.274
-386.004	107.313	0.103	-0.122
-384.990	-110.459	0.372	-0.077
-383.975	-40.492	-0.288	-0.149
-382.960	19.054	0.264	-0.211
-381.946	156.671	0.166	0.229
-380.931	-129.348	0.027	-0.004
-379.917	800.000	0.062	-0.179
-378.902	-25.081	-0.073	0.043
-377.888	40.705	0.149	-0.134
-376.873	-200.000	-0.008	-0.529
-375.858	648.683	-0.101	-0.257
-374.844	-126.242	0.097	0.014
-373.829	-124.082	0.073	-0.011
-372.815	133.868	-0.092	-0.118
-371.800	214.563	0.164	-0.259
-370.785	800.000	-0.032	0.140
-369.771	-200.000	0.002	0.213
-368.756	220.575	-0.126	-0.201
-367.742	550.443	0.107	-0.256
-366.727	-40.850	-0.196	-0.101
-365.712	309.314	-0.124	-0.232
-364.698	-200.000	0.055	-0.352
-363.683	-153.963	-0.349	-0.024
-362.669	31.296	0.242	0.207
-361.654	412.094	-0.268	0.567
-360.639	-79.225	0.397	0.134
-359.625	-200.000	-0.119	0.521
-358.610	800.000	-0.106	0.378
-357.596	209.785	0.161	0.251
-356.581	800.000	-0.070	0.235
-355.566	-28.439	0.281	0.162
-354.552	800.000	-0.119	0.347
-353.537	18.745	-0.209	0.167
-352.523	-200.000	-0.019	0.305
-351.508	-200.000	-0.030	0.138
-350.493	-77.975	0.047	-0.016
-349.479	64.659	0.192	0.193
-348.464	582.933	-0.062	0.150
-347.450	95.663	-0.143	0.163
-346.435	-62.423	0.315	0.130
-345.420	-19.211	-0.268	0.166
-344.406	-129.798	0.149	0.020
-343.391	90.677	0.088	0.098
-342.377	57.201	0.248	0.241
-341.362	-12.377	-0.158	-0.103
-340.348	-200.000	-0.009	-0.049
-339.333	751.545	0.056	-0.150
-338.318	-27.375	-0.346	-0.200
-337.304	-2.611	0.225	-0.157
-336.289	53.172	0.185	-0.176
-335.275	-75.268	-0.213	0.076
-334.260	117.093	0.179	0.219
-333.245	28.835	-0.268	-0.226
-332.231	313.305	-0.047	-0.088
-331.216	-75.285	0.104	0.037
-330.202	-200.000	0.058	0.319
-329.187	-19.735	0.227	-0.140
-328.172	115.068	0.149	0.182
-327.158	-200.000	0.026	0.451
-326.143	708.563	-0.137	0.361
-325.129	-117.428	0.133	0.024
-324.114	-4.954	0.094	0.065
-323.099	-83.187	0.235	0.075
-322.085	453.676	-0.117	0.259
-321.070	-20.042	-0.232	-0.142
-320.056	-99.440	-0.302	0.076
-319.041	-78.070	-0.417	-0.143
-318.026	327.599	-0.043	0.082
-317.012	690.880	-0.156	0.406
-315.997	800.000	-0.069	-0.275
-314.983	800.000	0.126	-0.377
-313.968	-177.142	0.222	0.006
-312.953	61.849	0.087	-0.086
-311.939	800.000	-0.087	0.327
-310.924	21.646	0.053	0.043
-309.910	-124.489	-0.229	0.035
-308.895	-57.592	0.102	0.044
-307.880	-200.000	-0.008	0.040
-306.866	5.768	-0.283	-0.208
-305.851	0.518	0.084	-0.059
-304.837	109.219	0.040	-0.048
-303.822	-186.277	-0.276	-0.004
-302.807	217.471	0.166	0.264
-301.793	205.120	-0.128	-0.197
-300.778	800.000	-0.089	-0.369
-299.764	107.583	0.112	0.132
-298.749	-84.668	-0.078	-0.024
-297.735	458.412	0.052	0.116
-296.720	-149.961	0.451	0.035
-295.705	-92.282	0.139	-0.039
-294.691	106.390	-0.099	-0.117
-293.676	-75.083	-0.171	0.061
-292.662	137.447	-0.178	0.231
-291.647	-83.531	-0.245	0.078
-290.632	-81.186	0.264	0.087
-289.618	5.228	0.278	-0.204
-288.603	603.498	0.131	-0.324
-287.589	22.627	-0.059	-0.048
-286.574	-46.082	0.114	0.056
-285.559	-95.971	0.089	0.023
-284.545	-200.000	0.036	-0.274
-283.530	187.189	0.219	0.324
-282.516	500.295	0.080	-0.183
-281.501	-14.884	0.160	-0.102
-280.486	-200.000	-0.016	-0.260
-279.472	76.322	0.165	-0.173
-278.457	-126.889	0.198	-0.029
-277.443	-147.523	-0.089	0.007
-276.428	-200.000	-0.037	0.213
-275.413	-94.327	0.513	0.139
-274.399	-139.271	-0.283	0.030
-273.384	-200.000	0.008	-0.253
-272.370	91.622	0.109	0.122
-271.355	-37.203	-0.121	-0.064
-270.340	800.000	0.062	0.225
-269.326	-58.540	0.127	-0.055
-268.311	800.000	-0.070	0.246
-267.297	-93.159	0.236	0.065
-266.282	-111.914	-0.231	-0.046
-265.267	-179.725	-0.089	-0.002
-264.253	696.687	0.054	-0.142
-263.238	137.141	0.320	-0.416
-262.224	-129.146	-0.251	-0.035
-261.209	327.816	-0.141	-0.269
-260.195	-57.919	0.090	-0.039
-259.180	292.737	0.183	0.330
-258.165	75.323	-0.128	0.134
-257.151	243.565	-0.069	-0.115
-256.136	-139.097	0.200	-0.021
-255.122	-118.879	0.052	0.009
-254.107	268.248	0.101	0.176
-253.092	-4.235	0.251	-0.173
-252.078	-50.171	-0.081	0.038
-251.063	-200.000	-0.004	0.094
-250.049	-200.000	0.001	0.182
-249.034	-70.382	0.139	0.052
-248.019	-144.335	0.212	-0.020
-247.005	-82.985	-0.111	0.035
-245.990	-136.246	0.320	0.037
-244.976	800.000	0.100	-0.374
-243.961	-108.652	-0.243	-0.052
-242.946	-0.522	-0.087	-0.061
-241.932	173.819	-0.141	-0.202
-240.917	132.884	-0.134	0.172
-239.903	-147.742	0.378	-0.031
-238.888	-200.000	-0.065	-0.344
-237.873	49.168	-0.134	0.125
-236.859	-0.619	0.073	0.052
-235.844	-151.000	0.377	-0.028
-234.830	65.349	-0.165	0.165
-233.815	364.472	-0.066	-0.131
-232.800	-7.858	0.109	0.073
-231.786	-146.593	-0.122	-0.011
-230.771	-36.782	0.330	-0.176
-229.757	-97.040	-0.288	0.075
-228.742	388.770	0.122	0.251
-227.727	475.794	0.093	-0.209
-226.713	90.680	0.101	-0.112
-225.698	-143.877	0.082	-0.008
-224.684	-25.637	0.106	0.062
-223.669	-31.876	0.134	0.074
-222.655	-200.000	-0.062	-0.377
-221.640	-47.081	-0.362	0.175
-220.625	-200.000	-0.009	0.059
-219.611	800.000	-0.073	0.246
-218.596	-111.272	-0.421	0.085
-217.582	800.000	0.075	-0.324
-216.567	33.740	-0.203	-0.175
-215.552	646.761	0.034	0.086
-214.538	2.348	0.046	0.033
-213.523	-200.000	0.005	0.110
-212.509	-132.586	-0.141	0.018
-211.494	86.476	0.025	0.028
-210.479	-2.731	0.202	-0.140
-209.465	767.090	0.053	-0.142
-208.450	-102.499	0.177	0.042
-207.436	56.896	-0.028	-0.027
-206.421	115.345	-0.071	-0.085
-205.406	45.294	0.126	-0.115
-204.392	-65.433	0.119	-0.047
-203.377	702.335	0.065	-0.170
-202.363	-172.958	-0.340	0.010
-201.348	-95.728	0.304	-0.080
-200.333	12.594	0.209	-0.160
-199.319	-116.700	-0.287	0.052
-198.304	258.091	0.111	0.190
-197.290	-21.905	0.067	0.040
-196.275	-200.000	-0.010	-0.245
-195.260	-49.229	0.160	-0.076
-194.246	-200.000	0.022	0.100
-193.231	-200.000	-0.040	0.283
-192.217	-157.982	-0.176	0.010
-191.202	51.187	-0.228	0.214
-190.187	283.434	0.103	-0.183
-189.173	375.074	0.089	-0.180
-188.158	118.302	-0.072	0.088
-187.144	497.553	-0.086	0.196
-186.129	-5.148	0.129	0.088
-185.114	135.613	-0.051	-0.065
-184.100	800.000	-0.028	-0.105
-183.085	-200.000	0.025	-0.191
-182.071	1.383	0.121	-0.086
-181.056	-200.000	-0.014	0.189
-180.042	-103.341	-0.189	0.044
-179.027	189.873	-0.064	0.096
-178.012	156.021	-0.022	0.030
-176.998	101.637	0.182	-0.210
-175.983	-200.000	-0.018	-0.309
-174.969	-159.455	-0.296	-0.016
-173.954	17.974	0.231	0.182
-172.939	-90.993	-0.206	-0.059
-171.925	-200.000	0.002	0.127
-170.910	-39.976	-0.415	-0.214
-169.896	153.110	0.044	-0.060
-168.881	209.609	0.158	0.245
-167.866	226.116	0.175	0.280
-166.852	800.000	0.070	-0.254
-165.837	800.000	0.032	0.101
-164.823	800.000	-0.033	0.113
-163.808	-25.662	0.061	0.035
-162.793	-45.590	-0.145	-0.071
-161.779	-9.323	0.217	0.144
-160.764	-128.219	0.149	-0.021
-159.750	-200.000	-0.010	0.059
-158.735	-200.000	-0.026	-0.259
-157.720	-200.000	0.010	-0.052
-156.706	-200.000	-0.004	-0.176
-155.691	584.044	-0.128	-0.311
-154.677	-141.534	-0.134	0.013
-153.662	35.186	-0.200	-0.173
-152.647	-172.942	0.180	0.005
-151.633	198.355	0.117	0.177
-150.618	-200.000	-0.012	0.107
-149.604	800.000	-0.041	-0.150
-148.589	-200.000	0.040	0.466
-147.574	-200.000	-0.029	-0.199
-146.560	-52.308	-0.369	0.169
-145.545	800.000	0.085	0.234
-144.531	173.128	-0.106	0.151
-143.516	-32.091	-0.286	-0.158
-142.502	49.575	-0.171	-0.159
-141.487	435.795	-0.044	0.094
-140.472	4.603	0.246	0.178
-139.458	173.087	-0.141	-0.200
-138.443	-10.936	0.146	0.095
-137.429	-200.000	-0.005	0.244
-136.414	275.056	0.066	0.116
-135.399	287.160	-0.081	-0.145
-134.385	360.364	-0.188	0.372
-133.370	489.790	-0.063	-0.143
-132.356	292.309	0.035	0.063
-131.341	-43.896	-0.104	0.052
-130.326	800.000	-0.093	0.371
-129.312	45.057	-0.338	-0.308
-128.297	322.649	-0.120	0.225
-127.283	440.038	-0.101	0.218
-126.268	137.447	-0.143	0.185
-125.253	74.005	0.038	0.039
-124.239	-20.021	0.223	0.136
-123.224	591.162	0.084	-0.204
-122.210	-92.780	-0.302	-0.083
-121.195	34.068	-0.170	-0.146
