DTS Sentinel unit serial number:	SN413079Multiplexer serial number:	ORYXHardware model number:	OX4-SRSoftware version number:	ORYX F/W v4.00 Oryx Data Collector v3.7.2.0data status	okinstallation	princeton_trtdifferential loss correction	single-endedforward channel	channel 4reverse channel	N/Adate	2019/09/12time	12:15:11forward acquisition time	60.00reverse acquisition time	0.00gamma	496.2192k internal	0.2288k external	0.2288temperature offset calibration	1.0077default loss term (dB/km)	0.3790temperature slope calibration	1.0000multiplexer offset coefficient	1.0000multiplexer slope coefficient	1.0000fibre end	0.00T internal ref (°C)	40.62T ext. ref 1 (°C)	2.02T ext. ref 2 (°C)	35.47length (m)	temperature (°C)	Stokes	anti-Stokes-747.200	-200.000	-0.036	-0.364
-746.185	80.537	-0.363	0.400
-745.171	291.008	-0.089	-0.166
-744.156	281.475	0.077	0.141
-743.142	60.678	-0.118	0.120
-742.127	-200.000	-0.046	0.251
-741.112	-132.298	-0.178	-0.024
-740.098	-200.000	-0.007	0.356
-739.083	-69.817	0.100	0.039
-738.069	148.334	-0.262	0.362
-737.054	-141.551	-0.115	0.012
-736.039	235.239	0.068	0.115
-735.025	224.820	0.159	0.264
-734.010	96.732	-0.100	-0.118
-732.996	800.000	-0.083	-0.328
-731.981	-47.407	-0.199	-0.099
-730.966	-54.056	-0.063	0.029
-729.952	800.000	0.046	0.172
-728.937	-72.434	-0.060	0.023
-727.923	328.413	-0.096	0.188
-726.908	800.000	-0.032	0.140
-725.894	472.806	0.063	-0.146
-724.879	181.123	-0.168	0.253
-723.864	127.328	0.118	-0.153
-722.850	126.311	0.083	-0.107
-721.835	291.574	-0.114	0.213
-720.821	-94.916	0.240	-0.067
-719.806	-200.000	0.029	-0.152
-718.791	-124.751	-0.155	0.025
-717.777	800.000	-0.042	-0.149
-716.762	-130.795	-0.249	-0.034
-715.748	346.523	0.161	-0.324
-714.733	-120.978	0.494	-0.085
-713.718	73.906	-0.138	-0.148
-712.704	468.831	0.034	0.079
-711.689	-200.000	0.035	0.231
-710.675	368.861	-0.125	-0.259
-709.660	-69.924	-0.189	0.074
-708.645	77.594	0.144	0.158
-707.631	-200.000	-0.073	0.362
-706.616	-84.887	-0.179	0.058
-705.602	-83.197	0.283	0.093
-704.587	-200.000	-0.018	-0.252
-703.572	0.080	-0.081	-0.059
-702.558	-200.000	-0.043	-0.203
-701.543	92.431	-0.090	0.104
-700.529	53.730	0.144	-0.142
-699.514	-164.799	0.311	-0.014
-698.499	-142.875	-0.307	0.030
-697.485	213.185	-0.120	-0.193
-696.470	154.732	-0.112	0.157
-695.456	800.000	0.040	-0.114
-694.441	-193.494	-0.225	0.002
-693.426	11.254	-0.116	0.091
-692.412	708.088	0.153	0.415
-691.397	61.401	-0.040	0.041
-690.383	-200.000	-0.030	-0.179
-689.368	800.000	0.096	-0.279
-688.354	33.189	0.207	-0.183
-687.339	107.804	0.214	0.260
-686.324	604.945	-0.011	-0.028
-685.310	-151.328	-0.246	0.019
-684.295	447.684	-0.132	-0.296
-683.281	-200.000	-0.009	-0.268
-682.266	-200.000	0.010	-0.250
-681.251	-200.000	0.031	0.198
-680.237	-29.120	0.252	-0.148
-679.222	-36.998	-0.201	0.110
-678.208	-127.761	0.345	-0.051
-677.193	717.591	0.115	0.311
-676.178	-200.000	-0.014	-0.188
-675.164	177.181	-0.048	-0.072
-674.149	-86.530	0.205	0.064
-673.135	-39.262	-0.040	0.021
-672.120	203.960	0.074	-0.118
-671.105	28.682	0.144	-0.125
-670.091	-166.924	0.115	-0.005
-669.076	19.095	-0.104	0.085
-668.062	186.655	-0.106	0.162
-667.047	618.537	0.048	0.123
-666.032	-142.568	0.331	-0.033
-665.018	145.766	0.096	0.132
-664.003	800.000	-0.109	0.322
-662.989	24.579	-0.066	0.056
-661.974	108.879	-0.093	-0.113
-660.959	-106.482	-0.193	0.044
-659.945	-107.496	0.224	-0.050
-658.930	576.844	0.090	0.224
-657.916	529.632	0.141	0.340
-656.901	-74.960	0.132	-0.048
-655.886	800.000	0.107	-0.306
-654.872	-64.610	-0.188	0.078
-653.857	326.240	-0.160	-0.314
-652.843	176.971	-0.257	0.383
-651.828	587.026	-0.089	0.223
-650.814	-200.000	-0.031	0.179
-649.799	800.000	-0.113	0.400
-648.784	-58.398	-0.173	-0.077
-647.770	800.000	0.136	-0.397
-646.755	800.000	-0.060	-0.262
-645.741	70.576	-0.461	-0.487
-644.726	-47.597	-0.428	-0.212
-643.711	293.392	-0.202	-0.377
-642.697	130.648	-0.142	-0.186
-641.682	-200.000	-0.007	-0.200
-640.668	19.271	0.369	0.303
-639.653	27.716	0.086	0.074
-638.638	658.881	0.083	0.218
-637.624	-34.934	-0.059	-0.033
-636.609	11.642	-0.110	-0.086
-635.595	18.874	-0.201	-0.164
-634.580	-86.874	-0.304	0.095
-633.565	800.000	-0.077	0.343
-632.551	-119.213	-0.417	0.074
-631.536	564.248	0.056	-0.140
-630.522	171.200	0.365	-0.534
-629.507	-185.591	-0.617	-0.010
-628.492	-176.265	-0.112	0.003
-627.478	-88.209	-0.059	0.018
-626.463	-200.000	0.002	0.256
-625.449	-48.309	0.198	0.098
-624.434	800.000	-0.079	-0.286
-623.419	21.827	0.093	0.077
-622.405	-166.757	-0.118	-0.005
-621.390	7.865	-0.192	-0.146
-620.376	-72.450	0.152	0.057
-619.361	800.000	-0.070	-0.211
-618.346	147.690	-0.135	-0.185
-617.332	800.000	0.103	-0.302
-616.317	-88.518	-0.068	-0.021
-615.303	119.247	0.115	-0.145
-614.288	-114.238	-0.029	-0.006
-613.273	246.721	0.147	0.253
-612.259	-200.000	-0.028	-0.136
-611.244	800.000	-0.160	0.667
-610.230	221.053	-0.186	0.305
-609.215	-14.349	0.246	-0.162
-608.201	800.000	0.093	-0.268
-607.186	50.489	-0.258	-0.248
-606.171	104.243	0.177	-0.212
-605.157	76.685	-0.150	-0.162
-604.142	-200.000	0.022	-0.227
-603.128	800.000	-0.040	0.119
-602.113	-200.000	-0.005	0.219
-601.098	-44.270	-0.189	0.097
-600.084	-114.325	0.130	-0.026
-599.069	-200.000	-0.025	0.313
-598.055	-124.976	0.028	-0.004
-597.040	-138.329	0.373	0.042
-596.025	93.060	-0.335	0.386
-595.011	163.876	-0.187	0.268
-593.996	105.015	0.277	0.332
-592.982	86.393	0.108	0.121
-591.967	15.038	0.126	-0.101
-590.952	163.329	0.016	-0.024
-589.938	-38.676	-0.193	0.104
-588.923	-138.317	-0.180	-0.020
-587.909	-156.066	-0.235	-0.015
-586.894	24.245	-0.232	0.195
-585.879	800.000	0.057	-0.192
-584.865	-200.000	0.015	0.143
-583.850	37.929	-0.352	-0.319
-582.836	-141.610	0.084	0.009
-581.821	800.000	-0.053	-0.205
-580.806	-83.621	-0.196	-0.064
-579.792	62.177	-0.255	-0.259
-578.777	-200.000	0.008	-0.120
-577.763	488.332	-0.031	0.073
-576.748	-87.913	0.519	-0.159
-575.733	155.037	0.104	-0.145
-574.719	78.502	-0.157	-0.171
-573.704	-57.668	0.126	-0.056
-572.690	800.000	-0.061	-0.200
-571.675	324.016	-0.072	-0.141
-570.661	-200.000	0.047	0.380
-569.646	170.584	-0.202	0.295
-568.631	-200.000	0.020	-0.170
-567.617	-170.490	-0.484	0.017
-566.602	132.402	0.120	0.158
-565.588	-124.020	-0.261	0.042
-564.573	-33.238	0.062	0.035
-563.558	55.111	0.064	0.063
-562.544	295.487	-0.212	-0.395
-561.529	100.822	-0.098	0.116
-560.515	508.805	-0.054	0.127
-559.500	359.056	-0.227	0.462
-558.485	-54.560	-0.294	-0.136
-557.471	-97.552	-0.200	-0.053
-556.456	-56.060	-0.208	0.094
-555.442	391.175	0.140	-0.296
-554.427	146.291	0.202	-0.276
-553.412	148.457	0.109	-0.150
-552.398	112.653	0.154	0.190
-551.383	368.329	0.061	0.126
-550.369	29.078	-0.220	0.190
-549.354	-97.306	-0.069	0.018
-548.339	-200.000	-0.094	0.508
-547.325	253.066	-0.018	-0.031
-546.310	-132.518	0.200	0.026
-545.296	-50.438	0.156	0.075
-544.281	-187.320	-0.177	0.002
-543.266	519.715	-0.107	0.255
-542.252	800.000	-0.040	-0.153
-541.237	80.204	-0.243	-0.266
-540.223	-11.199	-0.032	-0.021
-539.208	739.400	-0.085	-0.232
-538.193	-141.345	-0.135	-0.014
-537.179	48.054	0.126	0.120
-536.164	-6.941	-0.149	0.103
-535.150	-133.803	0.237	-0.030
-534.135	-13.597	0.264	0.174
-533.121	-95.674	0.120	-0.033
-532.106	434.516	-0.120	0.265
-531.091	175.374	0.035	0.051
-530.077	-102.300	-0.114	-0.028
-529.062	51.977	0.121	0.117
-528.048	-200.000	0.003	0.177
-527.033	112.764	0.199	-0.245
-526.018	109.454	0.177	-0.216
-525.004	-52.515	0.245	0.115
-523.989	234.677	-0.154	0.258
-522.975	1.965	-0.123	-0.090
-521.960	800.000	0.099	0.308
-520.945	-96.657	0.214	-0.057
-519.931	-200.000	0.019	0.248
-518.916	800.000	-0.047	0.185
-517.902	-42.502	0.180	-0.093
-516.887	53.178	0.235	-0.229
-515.872	-200.000	-0.090	0.421
-514.858	-14.455	0.038	0.025
-513.843	-200.000	0.037	-0.167
-512.829	-124.029	-0.274	-0.044
-511.814	283.722	-0.118	-0.215
-510.799	36.563	0.175	0.157
-509.785	-178.608	-0.123	0.003
-508.770	-16.718	-0.118	-0.076
-507.756	722.509	0.065	0.176
-506.741	-200.000	0.031	-0.165
-505.726	800.000	0.118	-0.359
-504.712	-31.786	0.331	-0.189
-503.697	-24.060	-0.182	0.111
-502.683	5.581	-0.307	-0.230
-501.668	-75.310	-0.314	0.114
-500.653	-37.536	0.060	-0.033
-499.639	710.186	0.115	-0.308
-498.624	-200.000	0.055	0.589
-497.610	-200.000	-0.008	0.098
-496.595	59.259	0.077	0.077
-495.581	6.020	0.082	0.061
-494.566	-131.367	-0.155	0.021
-493.551	383.329	-0.238	-0.497
-492.537	-128.929	-0.241	-0.034
-491.522	3.297	0.060	-0.044
-490.508	112.734	-0.052	0.064
-489.493	78.058	0.275	-0.298
-488.478	-85.166	-0.086	0.027
-487.464	-14.894	0.178	0.116
-486.449	798.043	-0.025	-0.070
-485.435	-186.785	-0.037	-0.001
-484.420	800.000	0.064	0.203
-483.405	800.000	-0.243	-0.693
-482.391	159.251	0.109	0.155
-481.376	-5.295	-0.243	-0.169
-480.362	135.432	0.130	0.172
-479.347	-200.000	0.016	0.272
-478.332	800.000	-0.042	0.122
-477.318	81.188	0.157	0.172
-476.303	88.632	0.139	0.156
-475.289	-97.469	0.214	-0.056
-474.274	364.368	0.133	-0.272
-473.259	590.746	-0.159	0.399
-472.245	-28.834	0.003	-0.002
-471.230	103.835	0.212	-0.253
-470.216	298.630	0.053	0.100
-469.201	162.887	0.109	-0.155
-468.186	-49.897	0.384	0.185
-467.172	510.512	-0.070	0.166
-466.157	-200.000	-0.023	0.275
-465.143	-133.472	0.280	-0.036
-464.128	-200.000	0.046	0.230
-463.113	-40.338	0.146	-0.077
-462.099	800.000	-0.032	0.139
-461.084	-83.235	0.213	-0.069
-460.070	-37.367	0.197	-0.107
-459.055	-3.163	-0.273	-0.193
-458.040	84.034	-0.132	0.146
-457.026	-14.709	-0.385	0.251
-456.011	21.191	0.303	0.249
-454.997	-147.230	-0.160	0.014
-453.982	100.983	-0.096	0.113
-452.968	177.149	0.217	-0.320
-451.953	4.639	0.281	0.209
-450.938	714.224	0.083	-0.222
-449.924	2.497	-0.243	0.178
-448.909	82.820	-0.086	-0.094
-447.895	38.467	-0.269	0.243
-446.880	-200.000	0.042	0.264
-445.865	-8.665	0.110	0.075
-444.851	-117.676	-0.191	0.035
-443.836	68.344	-0.143	-0.149
-442.822	-3.407	0.148	0.105
-441.807	-39.388	-0.289	-0.153
-440.792	111.210	0.100	0.122
-439.778	14.800	0.321	0.255
-438.763	177.493	-0.123	0.181
-437.749	217.290	-0.136	-0.219
-436.734	263.612	0.068	0.120
-435.719	-33.070	-0.054	0.030
-434.705	-108.208	-0.248	0.054
-433.690	442.854	0.119	0.264
-432.676	321.303	-0.127	0.245
-431.661	180.103	-0.193	-0.286
-430.646	-86.250	0.119	-0.037
-429.632	40.075	-0.057	-0.052
-428.617	-81.208	-0.119	0.040
-427.603	-200.000	-0.010	0.182
-426.588	-81.318	-0.141	0.047
-425.573	208.907	0.292	0.463
-424.559	-173.960	-0.225	0.007
-423.544	-48.957	-0.154	-0.075
-422.530	-200.000	0.035	0.231
-421.515	800.000	-0.036	-0.119
-420.500	40.667	0.126	0.115
-419.486	336.664	0.164	-0.323
-418.471	77.939	0.168	-0.181
-417.457	187.541	-0.089	0.134
-416.442	31.921	-0.108	-0.095
-415.428	-62.022	-0.157	0.066
-414.413	-26.595	0.232	0.138
-413.398	800.000	0.077	0.233
-412.384	-200.000	0.030	0.156
-411.369	-200.000	0.050	-0.317
-410.355	-66.005	-0.343	0.139
-409.340	-106.272	-0.326	-0.074
-408.325	78.398	-0.066	-0.071
-407.311	140.795	-0.139	0.186
-406.296	73.625	0.222	-0.236
-405.282	181.869	0.068	0.101
-404.267	553.201	0.059	-0.144
-403.252	-92.502	0.227	0.065
-402.238	-49.307	-0.194	0.094
-401.223	106.516	-0.351	0.421
-400.209	653.565	-0.093	0.241
-399.194	-81.937	0.334	-0.111
-398.179	13.476	-0.283	0.222
-397.165	-141.191	0.144	0.015
-396.150	666.422	-0.051	0.134
-395.136	412.745	0.094	-0.202
-394.121	25.664	-0.115	0.097
-393.106	-142.446	0.124	0.012
-392.092	-200.000	-0.034	0.222
-391.077	144.343	0.307	-0.414
-390.063	-67.881	0.430	-0.170
-389.048	725.223	-0.100	0.270
-388.033	-106.890	0.216	-0.048
-387.019	-13.054	0.248	-0.163
-386.004	293.046	-0.126	-0.232
-384.990	800.000	0.095	-0.292
-383.975	89.416	-0.266	0.300
-382.960	13.316	0.114	-0.090
-381.946	587.110	-0.024	-0.060
-380.931	-94.573	0.151	-0.041
-379.917	584.447	-0.049	0.122
-378.902	452.884	0.162	-0.363
-377.888	-53.682	-0.134	0.062
-376.873	800.000	-0.013	0.053
-375.858	800.000	0.174	-0.525
-374.844	800.000	-0.072	0.208
-373.829	-200.000	-0.021	-0.341
-372.815	137.077	-0.209	-0.276
-371.800	144.859	0.057	-0.077
-370.785	82.784	-0.198	0.218
-369.771	-200.000	0.232	0.001
-368.756	365.994	0.073	-0.148
-367.742	68.167	-0.258	-0.266
-366.727	800.000	0.096	-0.415
-365.712	22.422	0.233	-0.193
-364.698	-27.681	0.042	0.025
-363.683	800.000	0.111	0.441
-362.669	-200.000	0.007	0.161
-361.654	166.781	-0.126	-0.180
-360.639	-200.000	-0.048	-0.247
-359.625	67.982	-0.262	0.270
-358.610	800.000	0.068	-0.238
-357.596	472.909	-0.022	0.050
-356.581	-45.938	0.237	0.118
-355.566	-166.705	-0.136	0.006
-354.552	15.692	0.096	0.076
-353.537	-200.000	0.024	0.261
-352.523	-55.230	0.393	-0.179
-351.508	337.865	-0.064	-0.126
-350.493	39.531	0.045	0.041
-349.479	800.000	0.104	-0.370
-348.464	-43.240	0.034	-0.017
-347.450	6.991	-0.159	-0.119
-346.435	-153.379	-0.169	0.012
-345.420	79.761	0.104	-0.113
-344.406	120.123	-0.125	-0.157
-343.391	124.185	-0.125	0.159
-342.377	-200.000	-0.005	-0.109
-341.362	-50.038	-0.322	-0.154
-340.348	-200.000	-0.034	-0.239
-339.333	-200.000	-0.063	-0.395
-338.318	-11.233	-0.124	0.082
-337.304	217.417	-0.036	-0.059
-336.289	10.692	-0.271	-0.208
-335.275	-130.679	-0.166	0.023
-334.260	-24.900	0.302	0.181
-333.245	-83.249	-0.117	-0.038
-332.231	800.000	-0.080	0.269
-331.216	538.508	0.138	0.331
-330.202	-112.865	-0.056	-0.011
-329.187	398.495	0.168	-0.355
-328.172	-80.070	0.378	-0.128
-327.158	-76.843	-0.300	-0.106
-326.143	333.940	0.023	0.044
-325.129	-102.661	-0.231	0.056
-324.114	-55.223	0.153	0.069
-323.099	-200.000	0.029	-0.141
-322.085	800.000	-0.102	-0.319
-321.070	546.938	0.153	-0.369
-320.056	6.665	-0.231	0.173
-319.041	-34.203	0.064	-0.036
-318.026	-200.000	-0.007	0.059
-317.012	-176.526	0.054	-0.001
-315.997	-143.282	-0.076	-0.007
-314.983	-117.476	-0.313	0.057
-313.968	30.874	0.068	0.059
-312.953	-82.518	0.147	-0.048
-311.939	400.534	0.205	-0.433
-310.924	-126.253	0.032	0.005
-309.910	104.182	0.170	0.202
-308.895	-43.933	-0.197	0.100
-307.880	98.311	-0.070	0.082
-306.866	93.087	-0.065	-0.074
-305.851	-99.943	-0.257	0.065
-304.837	-200.000	-0.004	0.032
-303.822	32.318	-0.051	0.045
-302.807	-111.689	0.133	-0.027
-301.793	-167.421	-0.162	0.007
-300.778	-177.599	0.335	-0.008
-299.764	800.000	0.063	-0.217
-298.749	457.472	0.103	0.231
-297.735	-105.781	0.118	0.027
-296.720	-59.280	0.148	0.064
-295.705	800.000	-0.030	-0.091
-294.691	-160.010	0.128	0.007
-293.676	200.041	-0.058	-0.089
-292.662	-145.838	-0.006	-0.001
-291.647	290.508	0.184	0.336
-290.632	-66.327	0.269	-0.108
-289.618	-147.337	0.173	0.015
-288.603	-127.722	0.212	-0.031
-287.589	-48.711	0.126	-0.061
-286.574	800.000	0.085	-0.282
-285.559	-200.000	-0.002	-0.012
-284.545	157.512	0.038	-0.053
-283.530	-53.373	0.187	0.086
-282.516	-170.079	0.068	-0.002
-281.501	-61.692	0.197	0.083
-280.486	-127.963	0.283	0.041
-279.472	-108.126	-0.194	0.042
-278.457	-0.592	0.162	-0.116
-277.443	800.000	-0.024	-0.091
-276.428	283.355	-0.088	0.159
-275.413	800.000	0.021	0.073
-274.399	-138.054	-0.117	0.013
-273.384	-149.102	-0.374	0.030
-272.370	294.679	0.091	-0.167
-271.355	-28.131	0.089	-0.052
-270.340	385.949	0.241	-0.501
-269.326	335.242	0.072	-0.140
-268.311	115.173	0.167	-0.205
-267.297	209.858	0.074	0.117
-266.282	149.114	-0.261	0.355
-265.267	-1.482	0.041	-0.029
-264.253	-200.000	-0.039	0.270
-263.238	-200.000	-0.007	-0.259
-262.224	468.595	-0.069	0.157
-261.209	429.361	-0.004	0.009
-260.195	351.683	0.099	-0.196
-259.180	81.384	-0.096	0.104
-258.165	-92.652	0.037	0.011
-257.151	-33.431	0.023	0.013
-256.136	-125.411	0.317	0.049
-255.122	-109.072	0.251	-0.054
-254.107	63.223	-0.107	0.108
-253.092	-200.000	-0.024	0.154
-252.078	-173.914	-0.142	0.004
-251.063	800.000	0.046	0.156
-250.049	-41.310	-0.095	-0.049
-249.034	171.337	0.043	-0.063
-248.019	-19.539	-0.095	-0.059
-247.005	800.000	0.066	0.253
-245.990	-56.673	0.323	-0.144
-244.976	519.303	-0.078	-0.184
-243.961	-150.764	-0.256	0.020
-242.946	800.000	-0.004	-0.013
-241.932	-64.677	-0.099	-0.041
-240.917	-51.319	-0.229	0.108
-239.903	362.557	0.130	0.262
-238.888	-119.377	0.117	0.020
-237.873	-106.312	0.096	-0.022
-236.859	2.033	-0.007	0.005
-235.844	-91.833	0.092	-0.026
-234.830	-200.000	0.000	-0.338
-233.815	-200.000	0.004	-0.023
-232.800	-200.000	-0.048	0.325
-231.786	-200.000	0.276	-0.001
-230.771	-200.000	0.042	-0.235
-229.757	-200.000	0.001	-0.171
-228.742	299.380	-0.007	-0.014
-227.727	-56.299	0.212	-0.095
-226.713	-4.421	0.272	0.189
-225.698	-11.797	0.069	0.046
-224.684	141.034	0.145	0.192
-223.669	-114.972	0.356	-0.068
-222.655	-178.477	-0.167	0.004
-221.640	-200.000	-0.005	0.055
-220.625	-200.000	-0.066	0.337
-219.611	6.654	0.111	-0.083
-218.596	-19.968	0.115	0.071
-217.582	-1.762	0.145	-0.103
-216.567	-129.409	0.014	0.002
-215.552	800.000	0.042	0.144
-214.538	-79.188	0.097	0.033
-213.523	158.703	-0.055	0.076
-212.509	-200.000	0.006	0.158
-211.494	800.000	0.020	0.066
-210.479	595.866	-0.045	-0.111
-209.465	57.270	-0.163	0.159
-208.450	-50.916	-0.232	0.109
-207.436	-5.513	0.294	0.203
-206.421	243.340	0.100	0.168
-205.406	6.067	-0.130	-0.097
-204.392	95.540	0.063	0.072
-203.377	-21.960	0.262	-0.160
-202.363	-200.000	0.063	-0.293
-201.348	487.911	-0.057	0.132
-200.333	-128.287	-0.040	0.006
-199.319	89.215	0.305	-0.341
-198.304	-121.776	0.363	-0.060
-197.290	127.100	-0.151	-0.192
-196.275	-200.000	-0.040	0.261
-195.260	800.000	0.070	0.243
-194.246	-172.710	-0.114	0.004
-193.231	-93.781	0.143	-0.040
-192.217	321.521	-0.115	0.219
-191.202	800.000	0.078	0.232
-190.187	83.301	-0.176	-0.192
-189.173	-200.000	-0.033	0.401
-188.158	-73.394	0.161	-0.059
-187.144	-50.532	-0.106	0.050
-186.129	135.604	-0.119	-0.155
-185.114	-171.749	0.110	0.004
-184.100	-200.000	-0.022	-0.375
-183.085	284.080	0.042	-0.076
-182.071	298.166	-0.138	-0.254
-181.056	800.000	0.078	0.298
-180.042	27.410	0.150	-0.127
-179.027	-200.000	0.004	0.206
-178.012	50.369	-0.148	0.140
-176.998	94.153	0.162	-0.184
-175.983	324.417	0.095	0.181
-174.969	-21.948	-0.061	0.037
-173.954	-200.000	0.071	-0.370
-172.939	110.758	0.113	-0.136
-171.925	800.000	-0.047	-0.150
-170.910	-94.404	-0.098	-0.027
-169.896	-31.332	-0.398	0.225
-168.881	-32.134	0.095	0.053
-167.866	4.833	0.144	0.106
-166.852	800.000	-0.215	0.658
-165.837	180.034	-0.078	-0.115
-164.823	96.159	0.134	0.153
-163.808	53.705	-0.107	0.103
-162.793	-200.000	0.016	-0.290
-161.779	300.485	-0.039	-0.071
-160.764	162.027	-0.143	0.201
-159.750	308.567	-0.134	0.251
-158.735	-200.000	0.044	0.359
-157.720	-102.309	-0.162	-0.039
-156.706	-57.169	0.249	-0.110
-155.691	194.222	0.126	-0.192
-154.677	800.000	0.076	0.221
-153.662	-84.856	0.062	0.020
-152.647	-200.000	-0.059	-0.620
-151.633	800.000	-0.008	0.032
-150.618	178.282	-0.181	0.265
-149.604	230.971	0.105	-0.172
-148.589	800.000	0.042	0.134
-147.574	-42.000	0.328	0.168
-146.560	-14.532	0.114	-0.073
-145.545	-30.259	-0.088	0.050
-144.531	-71.288	0.108	-0.040
-143.516	800.000	0.062	0.188
-142.502	152.165	-0.044	-0.059
-141.487	-79.158	0.184	0.063
-140.472	-68.607	-0.206	0.080
-139.458	-91.825	-0.332	0.094
-138.443	-10.300	-0.131	-0.087
-137.429	-86.132	-0.040	0.012
-136.414	-152.793	-0.178	0.013
-135.399	141.801	0.106	-0.141
-134.385	-3.330	-0.232	0.162
-133.370	506.599	-0.083	0.193
-132.356	-158.401	-0.248	-0.014
-131.341	119.215	-0.117	-0.145
-130.326	213.822	0.303	-0.480
-129.312	-61.784	0.149	0.062
-128.297	-200.000	0.019	0.168
-127.283	-200.000	-0.019	0.127
-126.268	-94.877	-0.146	-0.040
-125.253	278.628	-0.054	-0.096
-124.239	800.000	-0.064	-0.250
-123.224	-136.475	-0.091	0.011
-122.210	594.485	0.076	0.187
-121.195	-78.031	0.095	-0.033
-120.180	-129.018	0.222	0.031
