DTS Sentinel unit serial number:	SN413079Multiplexer serial number:	ORYXHardware model number:	OX4-SRSoftware version number:	ORYX F/W v4.00 Oryx Data Collector v3.7.2.0data status	okinstallation	princeton_trtdifferential loss correction	single-endedforward channel	channel 4reverse channel	N/Adate	2019/09/10time	23:27:11forward acquisition time	60.00reverse acquisition time	0.00gamma	496.2192k internal	0.2316k external	0.2316temperature offset calibration	0.9950default loss term (dB/km)	0.3790temperature slope calibration	1.0000multiplexer offset coefficient	1.0000multiplexer slope coefficient	1.0000fibre end	0.00T internal ref (°C)	29.73T ext. ref 1 (°C)	-0.31T ext. ref 2 (°C)	23.11length (m)	temperature (°C)	Stokes	anti-Stokes-747.200	-200.000	0.093	0.453
-746.185	-200.000	0.015	0.283
-745.171	-69.107	0.152	0.059
-744.156	-200.000	0.024	0.408
-743.142	-23.268	-0.174	0.106
-742.127	-192.888	0.254	-0.002
-741.112	-44.387	0.164	0.083
-740.098	800.000	-0.082	0.230
-739.083	-111.508	-0.340	0.070
-738.069	800.000	0.019	-0.082
-737.054	230.556	-0.097	-0.160
-736.039	506.352	0.107	-0.251
-735.025	-200.000	-0.003	0.206
-734.010	-33.928	-0.121	-0.068
-732.996	318.827	0.041	0.079
-731.981	-26.073	-0.116	0.069
-730.966	-85.928	-0.580	0.182
-729.952	-37.982	0.105	0.056
-728.937	395.237	-0.150	0.317
-727.923	-157.958	-0.112	0.007
-726.908	48.015	-0.191	0.181
-725.894	-123.731	-0.357	0.057
-724.879	-151.043	0.165	-0.013
-723.864	16.205	0.094	-0.075
-722.850	110.266	-0.130	0.158
-721.835	-200.000	0.037	-0.275
-720.821	-200.000	0.006	-0.234
-719.806	57.197	0.228	-0.225
-718.791	431.082	0.145	0.318
-717.777	594.257	-0.061	0.153
-716.762	-104.073	0.179	0.042
-715.748	-200.000	-0.026	-0.157
-714.733	310.554	0.126	0.239
-713.718	800.000	-0.141	-0.420
-712.704	-1.024	0.345	-0.247
-711.689	169.534	0.192	-0.277
-710.675	60.978	-0.186	-0.187
-709.660	-200.000	0.205	0.001
-708.645	275.936	0.116	-0.208
-707.631	-153.744	0.308	0.021
-706.616	-103.121	-0.134	-0.032
-705.602	69.214	-0.115	-0.120
-704.587	-25.836	0.297	-0.177
-703.572	208.443	0.096	-0.152
-702.558	84.109	-0.060	-0.067
-701.543	-200.000	0.008	-0.302
-700.529	-134.125	0.295	-0.037
-699.514	-174.532	0.198	-0.006
-698.499	-200.000	0.044	-0.300
-697.485	578.080	0.026	-0.065
-696.470	-32.358	-0.308	-0.174
-695.456	-12.011	-0.058	-0.039
-694.441	-25.106	0.083	0.050
-693.426	-33.566	-0.144	-0.080
-692.412	-200.000	0.001	0.018
-691.397	-80.404	-0.151	-0.051
-690.383	-200.000	0.003	-0.231
-689.368	800.000	-0.065	-0.270
-688.354	800.000	0.036	0.110
-687.339	-156.769	-0.132	0.008
-686.324	65.540	0.118	0.120
-685.310	-200.000	-0.021	-0.100
-684.295	800.000	-0.052	-0.160
-683.281	227.954	-0.065	-0.107
-682.266	-143.958	-0.040	-0.004
-681.251	-200.000	0.021	0.247
-680.237	40.285	-0.144	0.131
-679.222	-69.292	0.088	0.034
-678.208	800.000	0.038	-0.135
-677.193	277.767	-0.102	-0.183
-676.178	199.353	-0.116	0.179
-675.164	-139.017	0.325	-0.036
-674.149	-56.835	-0.178	-0.079
-673.135	-200.000	-0.013	-0.357
-672.120	-200.000	0.045	-0.256
-671.105	-16.212	-0.351	-0.225
-670.091	-130.260	0.278	0.038
-669.076	-164.580	0.248	-0.011
-668.062	-27.013	-0.361	-0.213
-667.047	-66.675	0.344	-0.138
-666.032	383.029	-0.080	-0.167
-665.018	-18.480	-0.277	-0.174
-664.003	800.000	0.067	0.264
-662.989	-14.800	-0.139	-0.090
-661.974	-200.000	-0.009	0.180
-660.959	-200.000	-0.047	-0.273
-659.945	-200.000	0.041	-0.356
-658.930	-27.041	-0.073	-0.043
-657.916	279.167	0.290	0.523
-656.901	800.000	0.132	-0.393
-655.886	-88.948	-0.131	0.039
-654.872	585.896	-0.072	-0.179
-653.857	-13.963	-0.234	0.152
-652.843	800.000	0.062	-0.201
-651.828	-156.364	-0.067	-0.004
-650.814	-200.000	0.004	-0.044
-649.799	119.031	0.070	-0.088
-648.784	-60.365	-0.296	0.127
-647.770	-34.723	0.306	-0.169
-646.755	589.981	0.102	-0.254
-645.741	-17.990	-0.457	-0.289
-644.726	-72.747	-0.597	-0.222
-643.711	800.000	-0.084	-0.243
-642.697	-170.732	0.091	0.003
-641.682	-133.077	-0.164	0.021
-640.668	-121.835	0.360	0.060
-639.653	-30.215	0.181	0.104
-638.638	138.381	0.144	0.190
-637.624	-151.929	-0.538	-0.040
-636.609	-200.000	-0.002	-0.300
-635.595	-200.000	-0.015	0.197
-634.580	350.208	-0.146	-0.291
-633.565	355.735	0.045	0.091
-632.551	-93.824	-0.177	-0.049
-631.536	-200.000	0.027	-0.224
-630.522	800.000	-0.125	0.366
-629.507	-200.000	0.006	0.101
-628.492	15.477	0.089	-0.071
-627.478	127.649	-0.084	0.107
-626.463	-78.134	0.321	-0.111
-625.449	-22.835	-0.205	-0.125
-624.434	-101.871	-0.150	0.037
-623.419	-200.000	-0.018	-0.149
-622.405	-200.000	-0.026	0.151
-621.390	-110.377	0.428	0.090
-620.376	-31.506	-0.345	-0.195
-619.361	193.091	-0.129	0.196
-618.346	33.799	-0.102	-0.090
-617.332	-84.144	-0.389	0.124
-616.317	50.944	-0.166	0.159
-615.303	264.832	-0.067	-0.118
-614.288	-163.654	-0.222	0.011
-613.273	-73.443	-0.278	0.102
-612.259	-200.000	0.063	-0.349
-611.244	-170.090	-0.483	-0.017
-610.230	-95.089	-0.308	-0.084
-609.215	-200.000	0.063	0.300
-608.201	-111.831	0.403	0.082
-607.186	73.947	0.153	-0.162
-606.171	-37.374	0.182	0.098
-605.157	800.000	0.031	-0.095
-604.142	13.911	0.061	-0.048
-603.128	-200.000	0.015	0.068
-602.113	357.963	-0.163	-0.329
-601.098	-200.000	0.014	0.238
-600.084	-200.000	-0.036	-0.300
-599.069	196.092	-0.084	0.128
-598.055	-32.241	0.280	-0.157
-597.040	-148.962	-0.329	0.027
-596.025	-16.998	0.302	-0.192
-595.011	-135.628	0.316	-0.038
-593.996	644.066	0.150	-0.385
-592.982	138.343	0.117	-0.154
-591.967	-200.000	0.022	0.260
-590.952	-30.365	-0.234	0.134
-589.938	-198.746	-0.019	-0.000
-588.923	-101.090	0.180	-0.044
-587.909	23.943	-0.278	0.231
-586.894	-55.275	0.103	0.047
-585.879	800.000	0.063	-0.193
-584.865	-36.407	-0.264	-0.143
-583.850	800.000	-0.075	-0.263
-582.836	-22.078	-0.281	0.172
-581.821	11.172	0.160	0.123
-580.806	56.269	-0.135	-0.132
-579.792	67.882	0.295	0.303
-578.777	-1.940	-0.293	-0.207
-577.763	800.000	-0.038	0.140
-576.748	492.788	0.051	-0.117
-575.733	136.128	-0.075	-0.099
-574.719	-71.920	-0.479	0.179
-573.704	-63.596	-0.193	0.080
-572.690	800.000	-0.039	0.133
-571.675	800.000	-0.066	0.264
-570.661	292.673	0.075	0.137
-569.646	108.799	-0.079	0.095
-568.631	800.000	-0.065	-0.216
-567.617	-142.784	0.090	-0.009
-566.602	-200.000	-0.010	0.127
-565.588	74.476	0.042	-0.045
-564.573	18.731	0.179	-0.144
-563.558	435.405	-0.076	-0.167
-562.544	-200.000	0.010	-0.173
-561.529	-29.849	0.196	0.112
-560.515	11.527	0.052	0.040
-559.500	8.945	-0.154	0.117
-558.485	577.478	0.030	-0.074
-557.471	800.000	0.058	0.165
-556.456	-78.791	-0.191	0.066
-555.442	-8.609	0.315	-0.212
-554.427	-190.127	0.354	-0.004
-553.412	-126.790	-0.271	-0.040
-552.398	-57.591	0.213	-0.094
-551.383	800.000	0.062	0.242
-550.369	-69.667	0.150	-0.058
-549.354	-200.000	0.296	0.001
-548.339	-200.000	-0.068	0.407
-547.325	-48.269	-0.126	0.061
-546.310	1.610	-0.228	0.165
-545.296	-200.000	-0.008	-0.104
-544.281	186.452	-0.074	0.111
-543.266	-74.585	0.173	-0.063
-542.252	245.985	-0.080	-0.135
-541.237	43.092	0.206	-0.189
-540.223	247.872	0.131	0.223
-539.208	-4.699	0.373	0.259
-538.193	-200.000	0.001	-0.016
-537.179	-89.411	-0.183	0.054
-536.164	126.185	0.201	0.255
-535.150	-79.141	-0.189	-0.064
-534.135	109.291	-0.112	-0.134
-533.121	16.048	-0.127	0.101
-532.106	-22.094	0.116	-0.071
-531.091	-200.000	0.003	-0.154
-530.077	449.287	-0.089	-0.197
-529.062	-115.539	-0.134	0.025
-528.048	-141.001	0.118	-0.012
-527.033	-163.098	0.203	0.010
-526.018	-96.947	-0.110	0.029
-525.004	800.000	-0.103	-0.329
-523.989	-200.000	0.079	-0.371
-522.975	-80.151	-0.155	-0.052
-521.960	706.418	-0.190	0.504
-520.945	-44.392	0.279	0.140
-519.931	-200.000	0.007	0.299
-518.916	-193.641	-0.732	0.006
-517.902	-5.476	-0.215	0.148
-516.887	382.927	-0.182	0.375
-515.872	-200.000	0.015	0.089
-514.858	800.000	0.069	-0.194
-513.843	-200.000	0.009	-0.485
-512.829	-200.000	0.003	0.188
-511.814	656.627	0.010	-0.027
-510.799	-37.103	0.298	0.160
-509.785	-200.000	0.044	-0.227
-508.770	-200.000	-0.002	-0.104
-507.756	-200.000	-0.041	0.222
-506.741	-82.802	-0.190	0.062
-505.726	-200.000	0.071	0.421
-504.712	-100.367	-0.239	-0.060
-503.697	92.488	-0.115	-0.130
-502.683	800.000	-0.036	0.122
-501.668	-200.000	0.009	-0.323
-500.653	323.424	-0.038	-0.074
-499.639	-133.661	0.093	0.012
-498.624	-87.118	0.371	-0.113
-497.610	-200.000	-0.251	0.001
-496.595	-156.415	0.155	0.010
-495.581	129.094	0.239	0.306
-494.566	102.010	-0.214	-0.250
-493.551	164.781	0.176	-0.248
-492.537	800.000	-0.056	-0.163
-491.522	800.000	-0.069	0.223
-490.508	60.961	-0.129	0.129
-489.493	-200.000	-0.019	-0.143
-488.478	-170.597	-0.219	0.008
-487.464	56.503	0.259	-0.253
-486.449	59.927	-0.290	-0.287
-485.435	-200.000	-0.002	-0.275
-484.420	-17.861	-0.079	-0.049
-483.405	511.321	-0.065	-0.152
-482.391	800.000	-0.016	0.055
-481.376	-61.782	-0.350	0.147
-480.362	800.000	-0.090	-0.314
-479.347	363.044	0.161	-0.324
-478.332	132.065	-0.075	-0.096
-477.318	-200.000	0.013	0.118
-476.303	26.381	-0.068	-0.057
-475.289	-179.246	0.131	-0.003
-474.274	-32.833	0.159	0.089
-473.259	-134.003	-0.276	0.034
-472.245	163.170	0.123	-0.174
-471.230	-103.085	0.367	0.087
-470.216	29.677	0.131	-0.111
-469.201	-200.000	-0.003	-0.263
-468.186	-65.878	-0.426	0.171
-467.172	-4.537	0.241	0.167
-466.157	-56.927	-0.308	-0.136
-465.143	-61.538	-0.079	-0.033
-464.128	-5.894	0.037	0.025
-463.113	-200.000	0.028	0.349
-462.099	163.975	0.163	0.230
-461.084	-76.866	0.358	0.125
-460.070	-200.000	-0.010	-0.120
-459.055	-200.000	0.017	0.274
-458.040	-86.202	-0.240	0.074
-457.026	205.131	0.151	-0.235
-456.011	24.520	-0.055	-0.046
-454.997	800.000	0.068	0.208
-453.982	-200.000	-0.007	0.227
-452.968	103.199	-0.060	0.070
-451.953	-200.000	0.042	0.292
-450.938	-40.864	0.064	0.033
-449.924	239.100	-0.098	-0.163
-448.909	-104.865	0.236	0.054
-447.895	7.835	-0.194	-0.146
-446.880	-131.236	-0.229	0.030
-445.865	-48.735	-0.107	0.051
-444.851	-130.920	0.243	-0.033
-443.836	71.979	-0.290	-0.302
-442.822	-200.000	0.025	-0.429
-441.807	-200.000	0.099	-0.440
-440.792	42.956	0.183	0.167
-439.778	401.032	0.281	0.590
-438.763	-41.074	-0.284	0.147
-437.749	253.043	-0.138	0.236
-436.734	800.000	0.026	0.092
-435.719	-56.482	0.256	-0.114
-434.705	304.371	0.018	0.034
-433.690	-200.000	-0.002	-0.137
-432.676	-66.193	0.204	0.081
-431.661	279.730	-0.218	0.389
-430.646	137.489	0.138	0.181
-429.632	-200.000	-0.021	-0.312
-428.617	236.546	0.114	0.189
-427.603	-52.687	0.065	0.030
-426.588	-200.000	-0.007	-0.089
-425.573	-78.767	0.310	-0.106
-424.559	-100.570	-0.398	-0.098
-423.544	142.631	-0.174	0.231
-422.530	-200.000	0.007	-0.090
-421.515	800.000	0.031	-0.102
-420.500	257.758	-0.138	0.237
-419.486	176.863	0.081	0.118
-418.471	-11.337	0.157	0.103
-417.457	-46.578	0.136	0.067
-416.442	-200.000	0.090	-0.000
-415.428	192.062	0.068	-0.103
-414.413	-75.920	0.199	0.070
-413.398	-108.871	-0.349	0.075
-412.384	-200.000	-0.026	-0.196
-411.369	317.113	-0.057	-0.108
-410.355	-200.000	0.042	-0.233
-409.340	-22.508	0.178	-0.108
-408.325	-44.433	0.402	0.201
-407.311	-158.113	-0.158	0.009
-406.296	23.509	-0.284	0.234
-405.282	255.460	-0.108	0.185
-404.267	-55.640	0.050	-0.022
-403.252	-92.759	0.215	-0.060
-402.238	-200.000	0.045	0.236
-401.223	-3.579	0.254	0.177
-400.209	69.096	-0.222	-0.228
-399.194	-88.738	-0.306	-0.091
-398.179	-34.904	-0.249	-0.136
-397.165	-200.000	-0.053	-0.244
-396.150	-200.000	-0.031	-0.497
-395.136	800.000	0.115	0.334
-394.121	152.368	0.178	0.242
-393.106	-84.915	0.236	-0.074
-392.092	-97.924	-0.217	-0.056
-391.077	498.975	0.106	-0.244
-390.063	651.361	0.053	0.137
-389.048	-200.000	-0.002	0.282
-388.033	34.036	0.056	0.048
-387.019	38.220	-0.111	0.099
-386.004	-200.000	-0.014	0.132
-384.990	178.200	-0.015	-0.021
-383.975	-58.863	-0.317	0.137
-382.960	-200.000	-0.016	-0.238
-381.946	-26.012	0.111	-0.065
-380.931	13.402	0.173	0.134
-379.917	-28.334	-0.109	0.063
-378.902	-93.100	0.247	-0.069
-377.888	-200.000	0.029	-0.182
-376.873	12.623	0.111	-0.085
-375.858	-200.000	0.044	-0.231
-374.844	-50.557	-0.180	-0.085
-373.829	-124.151	0.054	-0.008
-372.815	361.257	-0.121	-0.241
-371.800	-200.000	-0.008	0.140
-370.785	-36.602	-0.284	0.153
-369.771	800.000	-0.006	0.027
-368.756	224.290	0.084	0.136
-367.742	-180.494	0.081	0.002
-366.727	-110.184	0.226	0.047
-365.712	-33.235	-0.085	-0.047
-364.698	-155.773	-0.340	0.022
-363.683	466.443	-0.036	0.080
-362.669	800.000	-0.023	0.093
-361.654	59.547	0.123	-0.121
-360.639	-70.599	0.130	0.049
-359.625	-124.542	0.230	0.036
-358.610	800.000	0.004	-0.016
-357.596	67.644	-0.067	-0.069
-356.581	-19.944	-0.057	-0.035
-355.566	-200.000	0.016	-0.124
-354.552	497.353	-0.067	0.153
-353.537	160.058	-0.060	0.084
-352.523	144.291	-0.131	0.174
-351.508	-83.645	0.299	-0.095
-350.493	-71.257	-0.158	-0.059
-349.479	-200.000	0.014	0.266
-348.464	-60.513	-0.263	0.111
-347.450	52.949	0.130	-0.124
-346.435	800.000	0.065	-0.249
-345.420	-131.565	0.353	-0.046
-344.406	595.803	0.057	0.140
-343.391	-52.612	0.112	-0.052
-342.377	-25.558	0.084	0.049
-341.362	64.945	0.138	0.139
-340.348	-122.529	0.189	0.031
-339.333	298.221	-0.166	-0.304
-338.318	795.092	-0.054	0.149
-337.304	-200.000	-0.012	0.127
-336.289	-51.422	-0.140	-0.065
-335.275	166.475	-0.338	-0.477
-334.260	-200.000	0.050	-0.340
-333.245	281.126	0.024	-0.043
-332.231	467.405	0.063	0.141
-331.216	-82.366	-0.238	0.077
-330.202	-135.742	0.192	-0.023
-329.187	-200.000	-0.006	-0.098
-328.172	-58.292	-0.081	-0.035
-327.158	-111.232	-0.163	0.033
-326.143	58.839	-0.136	-0.133
-325.129	-48.482	0.329	-0.158
-324.114	20.273	0.212	0.170
-323.099	-42.606	-0.343	0.174
-322.085	14.981	-0.241	0.188
-321.070	656.608	0.086	-0.219
-320.056	68.092	-0.190	-0.194
-319.041	-99.447	0.062	0.015
-318.026	67.732	-0.196	0.199
-317.012	-67.511	-0.306	0.120
-315.997	584.194	-0.104	0.255
-314.983	-40.936	0.263	-0.135
-313.968	-21.491	0.112	-0.068
-312.953	96.842	0.054	0.061
-311.939	-103.892	-0.259	-0.060
-310.924	-86.504	-0.162	0.050
-309.910	221.104	0.108	-0.173
-308.895	39.897	-0.008	0.007
-307.880	60.431	0.249	0.245
-306.866	-200.000	0.026	-0.235
-305.851	346.037	0.053	-0.103
-304.837	11.972	0.145	0.111
-303.822	-107.721	0.091	-0.020
-302.807	-88.077	-0.188	0.056
-301.793	296.844	-0.128	-0.233
-300.778	321.488	0.112	0.212
-299.764	-200.000	0.026	0.404
-298.749	-113.380	0.509	0.100
-297.735	-200.000	0.049	-0.389
-296.720	205.972	-0.038	-0.059
-295.705	-200.000	0.020	0.320
-294.691	230.698	-0.131	0.213
-293.676	800.000	-0.060	-0.198
-292.662	-200.000	-0.018	-0.298
-291.647	-43.910	0.179	0.090
-290.632	800.000	0.029	-0.115
-289.618	-200.000	0.065	-0.335
-288.603	-162.995	0.205	-0.010
-287.589	-151.393	0.267	0.020
-286.574	-123.796	-0.164	0.026
-285.559	-166.657	0.227	0.009
-284.545	141.987	0.083	-0.110
-283.530	-12.851	0.165	0.107
-282.516	352.854	-0.115	-0.228
-281.501	-117.540	-0.157	-0.028
-280.486	34.002	-0.199	-0.172
-279.472	-103.258	0.209	-0.049
-278.457	-189.963	-0.393	-0.004
-277.443	-2.395	0.163	-0.114
-276.428	359.090	0.179	0.355
-275.413	-56.450	0.074	-0.033
-274.399	-7.307	0.331	0.223
-273.384	-161.393	0.324	0.017
-272.370	-171.526	-0.325	0.011
-271.355	-107.736	0.168	0.037
-270.340	-111.577	0.422	-0.085
-269.326	-84.237	-0.104	-0.033
-268.311	-104.645	0.355	0.081
-267.297	-200.000	-0.015	-0.437
-266.282	237.943	0.076	-0.126
-265.267	-115.661	0.160	0.030
-264.253	523.115	-0.126	0.294
-263.238	-200.000	0.111	0.000
-262.224	690.180	-0.083	-0.215
-261.209	186.054	0.211	0.311
-260.195	-107.441	0.230	0.050
-259.180	511.225	0.102	0.236
-258.165	55.284	0.169	-0.162
-257.151	226.290	0.145	-0.234
-256.136	-102.941	-0.167	0.039
-255.122	-145.461	0.353	-0.032
-254.107	28.659	-0.146	-0.123
-253.092	113.810	-0.168	0.203
-252.078	94.218	-0.109	-0.123
-251.063	206.084	0.113	0.174
-250.049	176.376	-0.139	-0.201
-249.034	-21.693	0.139	-0.084
-248.019	-0.886	-0.129	0.091
-247.005	223.408	-0.262	0.420
-245.990	-24.340	-0.296	-0.175
-244.976	-200.000	0.002	-0.037
-243.961	4.847	0.286	-0.209
-242.946	-200.000	0.029	-0.317
-241.932	800.000	0.096	0.282
-240.917	100.248	-0.134	0.155
-239.903	-200.000	-0.015	-0.239
-238.888	-1.775	-0.292	0.204
-237.873	800.000	-0.108	0.349
-236.859	70.684	-0.313	-0.322
-235.844	-200.000	-0.009	0.174
-234.830	57.664	0.086	0.084
-233.815	-200.000	0.028	-0.192
-232.800	102.818	0.194	0.225
-231.786	298.512	-0.161	0.295
-230.771	-6.855	0.050	-0.034
-229.757	800.000	0.063	0.260
-228.742	-0.492	0.135	0.095
-227.727	227.565	-0.070	-0.112
-226.713	-200.000	0.013	0.071
-225.698	-44.277	-0.213	0.106
-224.684	-27.536	0.256	0.148
-223.669	-163.865	-0.199	0.009
-222.655	10.848	0.309	0.234
-221.640	-51.968	0.297	0.137
-220.625	99.649	-0.128	-0.147
-219.611	-200.000	-0.033	-0.327
-218.596	800.000	0.046	0.188
-217.582	-104.684	-0.265	0.061
-216.567	-7.463	-0.422	0.283
-215.552	800.000	0.143	-0.591
-214.538	-125.368	-0.348	-0.053
-213.523	-96.220	0.122	0.032
-212.509	178.695	0.147	0.214
-211.494	24.084	0.099	0.081
-210.479	-200.000	0.128	0.559
-209.465	46.403	-0.264	0.242
-208.450	40.035	-0.180	0.161
-207.436	-200.000	0.065	-0.341
-206.421	-86.036	0.333	-0.102
-205.406	-132.457	0.335	-0.043
-204.392	800.000	-0.073	-0.312
-203.377	-66.779	-0.102	0.040
-202.363	94.077	-0.209	0.235
-201.348	121.629	0.108	-0.134
-200.333	251.287	0.258	0.435
-199.319	317.208	0.101	0.190
-198.304	-146.215	-0.179	0.016
-197.290	800.000	0.040	-0.117
-196.275	800.000	0.033	0.112
-195.260	800.000	-0.043	0.158
-194.246	-51.870	0.399	0.184
-193.231	-200.000	-0.011	0.191
-192.217	800.000	-0.127	-0.430
-191.202	-56.095	0.279	0.123
-190.187	50.676	0.130	0.122
-189.173	-137.736	0.110	-0.012
-188.158	79.702	-0.042	-0.045
-187.144	-141.426	-0.141	-0.014
-186.129	178.618	0.165	-0.239
-185.114	-108.168	-0.239	0.051
-184.100	503.472	-0.001	-0.003
-183.085	-87.241	-0.224	-0.067
-182.071	-76.489	0.048	0.017
-181.056	-136.224	-0.081	0.009
-180.042	-103.940	0.123	0.028
-179.027	-59.361	-0.047	0.020
-178.012	423.205	-0.024	-0.050
-176.998	75.074	0.194	-0.203
-175.983	-200.000	-0.008	-0.188
-174.969	135.275	0.151	0.195
-173.954	-91.180	0.068	0.019
-172.939	-200.000	0.028	-0.249
-171.925	-200.000	0.004	-0.028
-170.910	800.000	-0.020	0.060
-169.896	173.988	0.093	-0.134
-168.881	-20.389	0.425	0.259
-167.866	-200.000	0.022	-0.217
-166.852	29.507	-0.123	-0.104
-165.837	-200.000	0.005	-0.268
-164.823	-118.802	0.265	0.046
-163.808	-200.000	-0.037	0.425
-162.793	177.602	0.075	-0.108
-161.779	342.932	-0.105	-0.203
-160.764	800.000	-0.048	0.183
-159.750	112.626	-0.133	-0.159
-158.735	-9.287	-0.112	0.074
-157.720	-85.970	0.140	-0.043
-156.706	292.406	-0.043	0.077
-155.691	-131.820	-0.201	-0.026
-154.677	-75.460	0.251	0.089
-153.662	-200.000	-0.005	0.101
-152.647	555.053	-0.118	-0.280
-151.633	-137.737	-0.145	-0.016
-150.618	165.928	-0.197	0.275
-149.604	-24.446	0.333	-0.196
-148.589	-32.487	-0.217	0.120
-147.574	-60.474	-0.125	-0.053
-146.560	29.253	-0.023	-0.019
-145.545	222.267	0.246	0.392
-144.531	-88.256	0.378	0.112
-143.516	35.487	0.127	0.111
-142.502	-145.196	-0.424	-0.038
-141.487	-9.598	0.351	-0.231
-140.472	-11.909	-0.117	-0.076
-139.458	-28.071	-0.205	0.117
-138.443	-121.594	0.048	-0.008
-137.429	-100.982	-0.283	0.069
-136.414	-77.234	-0.123	-0.042
-135.399	-40.309	-0.138	-0.071
-134.385	-101.346	-0.120	-0.029
-133.370	19.939	0.377	0.301
-132.356	-200.000	-0.011	-0.202
-131.341	161.563	0.183	-0.254
-130.326	299.886	0.045	-0.081
-129.312	-200.000	-0.010	-0.135
-128.297	-200.000	0.064	0.340
-127.283	111.890	0.338	0.404
-126.268	-112.044	-0.340	-0.068
-125.253	428.628	-0.085	-0.181
-124.239	58.996	0.272	0.264
-123.224	-110.761	-0.217	-0.044
