DTS Sentinel unit serial number:	SN413079Multiplexer serial number:	ORYXHardware model number:	OX4-SRSoftware version number:	ORYX F/W v4.00 Oryx Data Collector v3.7.2.0data status	okinstallation	princeton_trtdifferential loss correction	single-endedforward channel	channel 4reverse channel	N/Adate	2019/09/17time	08:53:35forward acquisition time	60.00reverse acquisition time	0.00gamma	496.2192k internal	0.2316k external	0.2316temperature offset calibration	0.9978default loss term (dB/km)	0.3790temperature slope calibration	1.0000multiplexer offset coefficient	1.0000multiplexer slope coefficient	1.0000fibre end	0.00T internal ref (°C)	27.92T ext. ref 1 (°C)	0.14T ext. ref 2 (°C)	23.65length (m)	temperature (°C)	Stokes	anti-Stokes-747.200	168.860	-0.165	-0.238
-746.185	-52.465	-0.260	0.122
-745.171	-200.000	0.015	0.264
-744.156	-34.066	0.196	0.109
-743.142	-60.508	-0.131	0.056
-742.127	165.161	-0.105	-0.150
-741.112	12.579	-0.233	0.182
-740.098	46.430	0.402	0.377
-739.083	-100.763	0.243	0.061
-738.069	-175.918	-0.349	0.009
-737.054	95.184	-0.251	0.290
-736.039	414.475	-0.153	0.330
-735.025	34.338	0.257	0.227
-734.010	710.500	-0.069	-0.186
-732.996	64.749	0.271	-0.277
-731.981	-120.718	-0.261	0.045
-730.966	-200.000	0.048	-0.357
-729.952	-200.000	-0.011	-0.235
-728.937	-200.000	-0.014	-0.139
-727.923	74.211	-0.259	-0.275
-726.908	-64.545	-0.054	-0.022
-725.894	-200.000	-0.055	0.282
-724.879	694.652	-0.049	0.130
-723.864	-52.313	0.039	-0.018
-722.850	-200.000	-0.009	-0.253
-721.835	-155.847	-0.093	0.006
-720.821	165.850	0.196	-0.280
-719.806	53.924	0.285	-0.277
-718.791	15.437	-0.213	-0.169
-717.777	-10.718	0.092	-0.061
-716.762	113.270	-0.088	0.108
-715.748	182.758	-0.105	-0.156
-714.733	213.559	0.130	-0.208
-713.718	800.000	-0.113	-0.379
-712.704	454.775	0.072	-0.160
-711.689	582.594	0.097	0.240
-710.675	129.765	-0.253	-0.328
-709.660	180.580	-0.068	-0.102
-708.645	800.000	0.050	0.166
-707.631	29.458	0.287	-0.247
-706.616	-200.000	-0.019	-0.128
-705.602	-123.224	0.108	0.017
-704.587	-93.923	0.139	0.039
-703.572	-26.854	0.168	-0.100
-702.558	20.776	0.293	-0.240
-701.543	-88.225	-0.089	0.027
-700.529	-108.588	-0.187	-0.041
-699.514	-200.000	0.005	-0.169
-698.499	-52.669	-0.202	0.094
-697.485	800.000	-0.115	-0.443
-696.470	-21.342	0.171	-0.106
-695.456	174.140	0.037	0.055
-694.441	-200.000	0.012	0.067
-693.426	-111.059	-0.195	-0.040
-692.412	800.000	-0.066	-0.260
-691.397	96.154	-0.178	-0.206
-690.383	-169.936	-0.173	0.006
-689.368	-136.455	-0.142	-0.017
-688.354	800.000	0.120	-0.406
-687.339	133.968	-0.105	-0.138
-686.324	-39.673	0.274	-0.145
-685.310	14.888	-0.145	-0.114
-684.295	-73.494	-0.203	-0.075
-683.281	-88.974	0.030	-0.009
-682.266	346.175	-0.109	0.216
-681.251	245.112	-0.145	-0.246
-680.237	-200.000	-0.023	0.129
-679.222	38.980	0.064	-0.058
-678.208	-126.258	-0.128	0.019
-677.193	15.000	-0.298	0.236
-676.178	-43.053	0.115	-0.059
-675.164	56.941	-0.201	-0.198
-674.149	755.238	-0.061	0.166
-673.135	800.000	0.058	0.231
-672.120	-132.076	-0.136	0.018
-671.105	-122.018	0.104	0.017
-670.091	-144.101	-0.120	-0.011
-669.076	23.709	0.108	0.090
-668.062	416.473	0.034	-0.074
-667.047	-200.000	-0.022	-0.244
-666.032	-16.541	0.089	0.057
-665.018	196.656	0.029	-0.044
-664.003	-200.000	-0.005	0.114
-662.989	800.000	0.070	-0.297
-661.974	-200.000	-0.002	0.056
-660.959	94.172	-0.221	-0.253
-659.945	-91.609	0.147	0.042
-658.930	-200.000	0.008	0.242
-657.916	156.278	0.158	0.221
-656.901	-200.000	-0.007	-0.121
-655.886	290.729	0.036	-0.066
-654.872	800.000	0.024	0.084
-653.857	-200.000	-0.104	-0.664
-652.843	30.420	-0.096	-0.083
-651.828	-200.000	0.005	-0.153
-650.814	346.667	0.022	0.043
-649.799	-125.818	-0.199	0.030
-648.784	35.065	0.118	-0.105
-647.770	315.464	-0.159	-0.303
-646.755	147.552	-0.179	-0.243
-645.741	-2.546	-0.157	0.111
-644.726	41.365	0.061	0.055
-643.711	-99.035	0.333	0.085
-642.697	600.719	-0.024	0.061
-641.682	-133.567	-0.366	0.046
-640.668	1.422	0.150	0.109
-639.653	684.568	0.138	-0.363
-638.638	118.928	-0.200	0.249
-637.624	-200.000	0.005	-0.047
-636.609	241.769	-0.105	-0.177
-635.595	-125.003	-0.295	0.046
-634.580	681.868	0.062	-0.163
-633.565	11.330	0.179	0.138
-632.551	-200.000	-0.027	0.146
-631.536	-52.331	-0.092	0.043
-630.522	-80.257	-0.286	0.096
-629.507	-83.152	0.149	-0.048
-628.492	-59.447	-0.376	0.163
-627.478	-64.756	0.039	0.016
-626.463	37.312	0.137	0.123
-625.449	-200.000	-0.039	0.190
-624.434	-7.582	-0.176	-0.120
-623.419	-35.392	-0.059	0.032
-622.405	-73.866	0.371	-0.136
-621.390	-34.456	0.175	0.097
-620.376	-107.541	-0.014	0.003
-619.361	-134.094	-0.208	-0.026
-618.346	61.078	-0.220	0.220
-617.332	103.728	-0.133	-0.158
-616.317	137.864	0.132	0.174
-615.303	800.000	-0.111	-0.339
-614.288	413.905	0.113	-0.242
-613.273	-200.000	0.021	-0.147
-612.259	216.895	-0.148	0.237
-611.244	50.085	0.077	0.073
-610.230	-63.713	-0.220	0.091
-609.215	-27.747	-0.197	-0.115
-608.201	-113.653	0.351	0.069
-607.186	4.016	0.131	0.096
-606.171	-96.361	0.318	-0.085
-605.157	53.022	0.102	-0.099
-604.142	-148.317	-0.164	0.014
-603.128	245.372	0.135	-0.229
-602.113	-125.930	0.215	-0.033
-601.098	-87.994	0.239	0.072
-600.084	-200.000	0.003	-0.183
-599.069	-67.869	0.141	0.055
-598.055	413.668	0.045	-0.095
-597.040	-97.654	0.260	0.068
-596.025	-117.042	0.277	-0.051
-595.011	122.048	0.138	0.174
-593.996	-200.000	-0.015	-0.089
-592.982	31.701	-0.138	0.119
-591.967	-131.941	0.365	-0.048
-590.952	126.560	-0.156	-0.198
-589.938	-200.000	0.030	-0.292
-588.923	115.166	-0.094	0.116
-587.909	-106.141	0.192	-0.043
-586.894	133.916	0.114	-0.148
-585.879	800.000	0.029	-0.113
-584.865	-21.475	-0.274	-0.168
-583.850	35.820	0.191	0.169
-582.836	177.261	0.045	-0.066
-581.821	306.174	0.085	0.159
-580.806	-10.125	0.034	-0.023
-579.792	800.000	-0.014	0.056
-578.777	-106.982	0.283	-0.063
-577.763	276.260	-0.081	-0.145
-576.748	-52.749	-0.243	0.113
-575.733	-60.137	-0.284	0.122
-574.719	-200.000	-0.005	-0.195
-573.704	-16.505	-0.234	0.149
-572.690	53.053	0.190	0.183
-571.675	-85.902	-0.037	-0.011
-570.661	15.025	-0.232	0.183
-569.646	-111.999	0.146	0.030
-568.631	-21.573	0.044	0.027
-567.617	197.443	-0.257	-0.394
-566.602	-200.000	0.034	0.306
-565.588	26.197	0.331	-0.278
-564.573	204.062	0.157	0.245
-563.558	-34.460	0.255	-0.140
-562.544	-78.805	-0.262	-0.090
-561.529	-103.166	0.271	0.065
-560.515	528.083	0.206	0.489
-559.500	346.892	-0.091	0.180
-558.485	-19.795	0.194	0.121
-557.471	800.000	0.043	-0.122
-556.456	-195.933	-0.224	-0.002
-555.442	-162.517	-0.306	-0.015
-554.427	800.000	-0.066	0.272
-553.412	-55.501	0.074	-0.033
-552.398	800.000	-0.151	-0.431
-551.383	233.699	0.038	-0.063
-550.369	-33.581	0.155	0.086
-549.354	-200.000	0.008	0.149
-548.339	-200.000	0.023	-0.308
-547.325	488.069	0.087	-0.199
-546.310	422.844	-0.025	-0.054
-545.296	-24.024	-0.219	-0.132
-544.281	356.072	-0.041	0.082
-543.266	800.000	0.083	0.249
-542.252	29.707	0.292	-0.250
-541.237	-54.884	0.264	0.120
-540.223	-66.722	0.059	-0.023
-539.208	-72.259	0.025	0.009
-538.193	-125.255	0.349	-0.054
-537.179	109.176	-0.115	0.138
-536.164	-6.686	-0.271	0.186
-535.150	-200.000	0.046	0.335
-534.135	-200.000	0.042	0.219
-533.121	-126.729	-0.289	0.043
-532.106	-200.000	-0.049	-0.382
-531.091	-29.954	-0.288	0.164
-530.077	66.788	-0.148	-0.152
-529.062	-200.000	0.063	-0.316
-528.048	425.564	-0.135	0.292
-527.033	82.731	0.229	0.250
-526.018	-51.168	-0.466	-0.219
-525.004	77.956	0.116	0.124
-523.989	365.081	0.115	0.233
-522.975	-17.498	0.313	0.198
-521.960	-89.176	-0.095	-0.028
-520.945	-65.177	0.223	-0.090
-519.931	113.655	-0.088	0.108
-518.916	800.000	0.013	-0.039
-517.902	-200.000	0.012	0.122
-516.887	-26.515	-0.113	-0.066
-515.872	-13.812	-0.286	-0.186
-514.858	-175.842	-0.224	0.006
-513.843	-200.000	0.005	-0.047
-512.829	-45.981	0.169	-0.084
-511.814	-200.000	0.006	-0.075
-510.799	-149.433	-0.112	-0.009
-509.785	339.308	0.043	0.085
-508.770	-23.384	-0.109	-0.066
-507.756	-200.000	0.062	0.325
-506.741	-200.000	0.029	-0.204
-505.726	-13.709	0.190	0.123
-504.712	41.666	0.172	0.157
-503.697	-100.416	-0.119	0.030
-502.683	-99.652	0.201	-0.051
-501.668	-200.000	-0.019	0.196
-500.653	-200.000	0.009	-0.341
-499.639	241.983	-0.061	0.102
-498.624	800.000	0.076	0.261
-497.610	-82.192	-0.178	-0.058
-496.595	246.113	-0.154	0.259
-495.581	160.874	0.069	0.097
-494.566	-200.000	0.018	0.186
-493.551	-124.393	0.296	-0.046
-492.537	-140.818	-0.312	0.032
-491.522	800.000	0.041	-0.163
-490.508	-63.932	0.285	-0.117
-489.493	-71.549	-0.081	0.030
-488.478	233.575	0.147	0.243
-487.464	-45.683	-0.399	0.198
-486.449	484.416	-0.144	-0.329
-485.435	121.105	-0.281	-0.350
-484.420	540.676	0.158	0.377
-483.405	5.247	0.201	-0.148
-482.391	93.624	-0.241	-0.273
-481.376	800.000	-0.114	0.337
-480.362	192.558	0.110	-0.167
-479.347	256.214	0.110	-0.190
-478.332	-102.403	-0.101	-0.024
-477.318	18.544	-0.174	-0.139
-476.303	-13.928	0.318	0.206
-475.289	800.000	-0.059	0.204
-474.274	-98.979	-0.245	-0.062
-473.259	300.887	-0.118	0.219
-472.245	-46.740	0.120	0.059
-471.230	-200.000	-0.014	-0.239
-470.216	35.486	-0.197	0.173
-469.201	-75.757	-0.414	0.147
-468.186	166.981	0.186	-0.264
-467.172	26.063	0.087	0.073
-466.157	-30.651	-0.332	-0.188
-465.143	-200.000	-0.001	0.076
-464.128	12.250	0.079	-0.061
-463.113	-199.675	-0.109	-0.001
-462.099	800.000	0.039	0.129
-461.084	269.953	-0.108	0.190
-460.070	50.179	-0.020	-0.019
-459.055	800.000	-0.013	-0.047
-458.040	-45.405	0.138	0.068
-457.026	20.159	-0.144	-0.116
-456.011	-200.000	-0.037	-0.267
-454.997	-30.727	0.096	0.054
-453.982	134.500	-0.091	-0.118
-452.968	800.000	-0.035	-0.148
-451.953	-86.642	0.211	0.065
-450.938	97.674	-0.163	0.187
-449.924	-35.409	-0.091	0.050
-448.909	122.033	0.109	-0.137
-447.895	49.190	-0.146	-0.138
-446.880	-200.000	0.052	-0.260
-445.865	-8.089	0.137	0.092
-444.851	800.000	-0.048	0.164
-443.836	-76.253	0.352	-0.124
-442.822	-69.424	-0.169	0.065
-441.807	389.753	-0.018	-0.037
-440.792	142.482	0.044	-0.059
-439.778	-94.901	-0.283	0.077
-438.763	-27.812	-0.101	0.058
-437.749	246.378	-0.007	-0.012
-436.734	-92.568	-0.147	0.041
-435.719	-56.195	0.396	0.176
-434.705	-19.898	0.117	-0.073
-433.690	-200.000	-0.007	0.033
-432.676	-102.876	-0.177	-0.042
-431.661	29.063	-0.028	-0.023
-430.646	-176.384	-0.261	-0.007
-429.632	557.883	-0.085	0.206
-428.617	28.600	-0.255	0.216
-427.603	-99.835	-0.615	-0.154
-426.588	800.000	0.069	0.246
-425.573	-200.000	-0.024	-0.234
-424.559	-12.620	0.222	-0.145
-423.544	438.914	0.032	-0.070
-422.530	318.778	0.144	0.273
-421.515	94.361	-0.160	-0.182
-420.500	417.276	0.085	0.182
-419.486	800.000	0.054	-0.158
-418.471	-16.969	-0.145	0.092
-417.457	458.831	0.133	0.295
-416.442	398.213	-0.133	-0.279
-415.428	800.000	-0.056	0.170
-414.413	800.000	0.084	0.266
-413.398	119.786	-0.167	0.207
-412.384	-200.000	0.005	-0.246
-411.369	-113.627	-0.068	0.013
-410.355	-155.576	0.119	-0.008
-409.340	-61.101	0.215	-0.091
-408.325	128.623	-0.187	-0.238
-407.311	0.551	-0.093	0.066
-406.296	800.000	-0.023	0.079
-405.282	42.079	0.078	0.071
-404.267	-200.000	-0.018	0.092
-403.252	-200.000	-0.008	0.267
-402.238	-200.000	-0.013	0.243
-401.223	22.092	0.295	0.241
-400.209	-35.771	-0.267	0.145
-399.194	-180.937	0.247	0.005
-398.179	800.000	-0.156	-0.447
-397.165	800.000	0.034	-0.150
-396.150	-76.811	-0.057	-0.020
-395.136	-126.015	0.234	0.035
-394.121	108.615	-0.171	-0.203
-393.106	-37.937	-0.221	-0.117
-392.092	541.836	-0.070	-0.166
-391.077	-200.000	0.005	0.273
-390.063	-200.000	-0.029	0.144
-389.048	-61.855	0.225	0.094
-388.033	449.453	-0.139	0.307
-387.019	250.385	0.222	-0.377
-386.004	-200.000	0.045	-0.218
-384.990	-95.748	-0.384	0.102
-383.975	-81.183	-0.191	-0.063
-382.960	800.000	-0.036	-0.107
-381.946	553.373	0.089	-0.213
-380.931	273.614	-0.093	-0.165
-379.917	177.422	-0.226	0.329
-378.902	-200.000	0.005	-0.180
-377.888	-47.209	-0.011	0.005
-376.873	160.693	-0.163	0.227
-375.858	-102.048	-0.026	0.006
-374.844	800.000	-0.081	-0.235
-373.829	150.815	0.182	-0.247
-372.815	-24.767	-0.127	-0.075
-371.800	-4.498	0.310	0.214
-370.785	-200.000	-0.045	-0.240
-369.771	-32.398	-0.279	-0.156
-368.756	246.533	-0.115	0.194
-367.742	-139.870	-0.110	0.012
-366.727	-135.002	-0.277	-0.033
-365.712	94.965	0.308	-0.350
-364.698	-74.266	-0.349	-0.126
-363.683	-200.000	-0.036	0.234
-362.669	89.062	0.241	0.267
-361.654	800.000	0.036	0.115
-360.639	385.529	-0.072	0.148
-359.625	-37.114	0.191	0.102
-358.610	-114.764	0.107	-0.020
-357.596	-200.000	0.017	0.203
-356.581	800.000	-0.071	0.215
-355.566	160.047	0.174	-0.241
-354.552	-200.000	-0.026	-0.136
-353.537	-66.153	0.151	-0.060
-352.523	147.852	0.152	-0.204
-351.508	-200.000	-0.005	0.124
-350.493	735.119	-0.091	-0.244
-349.479	800.000	-0.086	-0.316
-348.464	19.775	-0.072	-0.058
-347.450	-119.036	0.338	0.059
-346.435	12.902	-0.045	-0.035
-345.420	48.516	-0.188	-0.176
-344.406	-103.613	-0.152	0.036
-343.391	-53.560	0.155	-0.071
-342.377	-57.806	-0.266	0.116
-341.362	162.609	-0.133	0.187
-340.348	142.683	-0.186	0.246
-339.333	443.864	0.097	-0.211
-338.318	-200.000	0.030	0.267
-337.304	-121.429	0.072	0.012
-336.289	179.726	-0.089	-0.131
-335.275	20.658	-0.286	-0.231
-334.260	-158.828	0.126	-0.007
-333.245	-200.000	-0.053	-0.287
-332.231	-76.741	-0.115	-0.040
-331.216	-134.443	0.317	0.039
-330.202	-200.000	-0.011	0.249
-329.187	-160.908	0.018	0.001
-328.172	-200.000	-0.000	-0.066
-327.158	-82.634	-0.055	0.018
-326.143	137.684	0.264	-0.345
-325.129	-200.000	0.006	0.142
-324.114	62.550	0.063	-0.063
-323.099	-77.383	-0.434	0.150
-322.085	-200.000	0.023	-0.113
-321.070	19.362	-0.034	0.027
-320.056	-76.469	0.123	-0.043
-319.041	139.169	0.027	0.035
-318.026	-30.170	0.116	0.066
-317.012	-76.663	0.376	0.131
-315.997	110.368	0.168	-0.201
-314.983	-200.000	-0.002	0.032
-313.968	224.664	-0.135	-0.217
-312.953	800.000	-0.061	-0.231
-311.939	-25.792	0.121	0.071
-310.924	800.000	-0.044	0.135
-309.910	-118.013	-0.349	0.062
-308.895	-85.046	0.439	0.137
-307.880	32.835	0.262	0.226
-306.866	-52.126	0.291	-0.135
-305.851	180.094	-0.032	-0.046
-304.837	-134.658	-0.168	-0.020
-303.822	-4.800	0.185	0.127
-302.807	-30.651	0.260	0.146
-301.793	93.084	0.259	-0.292
-300.778	-57.967	0.187	-0.081
-299.764	47.522	-0.056	-0.052
-298.749	-200.000	-0.011	0.118
-297.735	119.224	-0.186	0.230
-296.720	-27.586	0.243	-0.140
-295.705	-38.297	-0.099	-0.052
-294.691	-89.891	0.235	-0.068
-293.676	70.539	0.112	-0.116
-292.662	-104.491	0.114	-0.026
-291.647	-15.861	-0.111	-0.070
-290.632	800.000	-0.088	0.328
-289.618	115.584	-0.066	0.081
-288.603	-54.067	0.309	0.140
-287.589	50.063	-0.185	0.174
-286.574	-131.368	0.356	-0.047
-285.559	800.000	0.051	0.151
-284.545	-147.417	-0.495	0.042
-283.530	-56.953	0.204	-0.089
-282.516	69.188	0.163	-0.167
-281.501	-141.877	-0.282	-0.028
-280.486	-136.069	-0.236	-0.028
-279.472	-20.120	0.169	-0.104
-278.457	-97.920	-0.208	-0.053
-277.443	36.245	0.081	0.071
-276.428	-52.070	-0.289	-0.133
-275.413	-27.827	-0.293	-0.169
-274.399	-74.642	0.390	-0.140
-273.384	45.423	-0.152	-0.139
-272.370	-5.482	-0.177	-0.121
-271.355	161.431	0.088	0.123
-270.340	-88.846	-0.352	-0.104
-269.326	510.502	-0.197	-0.455
-268.311	-200.000	-0.006	0.112
-267.297	800.000	-0.037	-0.130
-266.282	-69.999	-0.136	-0.052
-265.267	139.789	0.045	0.059
-264.253	-160.660	-0.250	0.013
-263.238	-32.914	-0.164	0.091
-262.224	-200.000	-0.050	0.408
-261.209	-164.923	-0.515	-0.023
-260.195	21.531	0.158	0.128
-259.180	-164.468	-0.123	-0.006
-258.165	-200.000	0.036	-0.196
-257.151	357.594	-0.075	0.149
-256.136	-200.000	0.022	-0.279
-255.122	-200.000	0.046	-0.398
-254.107	-200.000	0.025	-0.112
-253.092	-143.754	-0.404	-0.038
-252.078	-17.760	-0.087	-0.054
-251.063	-64.981	-0.276	-0.111
-250.049	-7.416	-0.218	-0.146
-249.034	800.000	0.028	-0.089
-248.019	201.478	0.150	0.230
-247.005	298.916	-0.052	-0.094
-245.990	-96.619	0.181	-0.047
-244.976	-200.000	-0.036	0.342
-243.961	193.195	-0.101	-0.151
-242.946	800.000	-0.140	0.401
-241.932	-200.000	-0.021	0.375
-240.917	-131.448	-0.430	-0.056
-239.903	800.000	0.020	0.062
-238.888	-89.306	0.445	0.130
-237.873	-21.752	-0.097	-0.059
-236.859	23.130	0.296	0.242
-235.844	516.694	-0.079	0.183
-234.830	408.853	-0.148	-0.310
-233.815	800.000	0.059	-0.241
-232.800	-200.000	-0.021	0.351
-231.786	-66.842	0.124	-0.049
-230.771	800.000	0.032	-0.099
-229.757	604.389	0.123	0.304
-228.742	-97.353	0.288	-0.074
-227.727	800.000	0.068	0.276
-226.713	-96.648	-0.247	0.065
-225.698	19.651	0.227	-0.181
-224.684	7.264	0.236	-0.175
-223.669	-200.000	0.015	-0.081
-222.655	58.255	0.005	-0.005
-221.640	-177.623	-0.137	0.003
-220.625	800.000	-0.039	0.138
-219.611	170.187	-0.064	0.090
-218.596	76.014	-0.107	0.112
-217.582	68.442	0.145	0.147
-216.567	800.000	0.082	0.303
-215.552	-111.925	0.466	0.093
-214.538	-200.000	0.010	0.058
-213.523	-200.000	0.028	-0.287
-212.509	-70.923	0.311	-0.116
-211.494	-51.089	-0.356	-0.165
-210.479	82.962	0.059	0.063
-209.465	-200.000	-0.053	-0.234
-208.450	-9.996	-0.055	-0.036
-207.436	100.104	0.051	-0.058
-206.421	10.138	-0.112	-0.084
-205.406	111.475	0.033	-0.039
-204.392	-112.976	0.116	-0.023
-203.377	-200.000	-0.023	-0.349
-202.363	568.331	-0.021	0.052
-201.348	-200.000	-0.007	-0.039
-200.333	249.493	0.103	0.173
-199.319	643.714	-0.086	0.218
-198.304	800.000	-0.014	-0.042
-197.290	-13.637	0.240	0.154
-196.275	134.791	0.083	-0.107
-195.260	-21.950	0.301	-0.181
-194.246	328.465	0.119	0.226
-193.231	-200.000	-0.030	0.160
-192.217	270.975	-0.071	-0.124
-191.202	-119.648	-0.179	0.031
-190.187	-35.895	0.099	-0.053
-189.173	-200.000	0.030	0.223
-188.158	-141.273	0.359	-0.036
-187.144	-168.390	0.093	-0.004
-186.129	-200.000	-0.014	-0.125
-185.114	-120.862	-0.262	0.044
-184.100	-200.000	0.044	0.274
-183.085	238.561	-0.014	-0.024
-182.071	169.345	-0.167	-0.236
-181.056	42.594	0.161	-0.145
-180.042	77.471	0.071	-0.075
-179.027	-200.000	0.004	-0.033
-178.012	-95.417	-0.207	-0.055
-176.998	69.383	-0.105	0.107
-175.983	800.000	0.103	-0.313
-174.969	-103.766	0.246	-0.057
-173.954	-78.284	0.308	-0.105
-172.939	513.660	-0.079	0.182
-171.925	-200.000	0.009	-0.105
-170.910	-76.503	0.293	-0.102
-169.896	-11.786	0.042	-0.027
-168.881	-86.969	0.239	-0.072
-167.866	-200.000	-0.016	0.175
-166.852	-68.678	0.358	0.137
-165.837	139.372	0.255	0.332
-164.823	800.000	-0.106	0.459
-163.808	-60.460	0.156	0.065
-162.793	154.702	0.129	-0.175
-161.779	-65.428	0.063	-0.025
-160.764	-200.000	-0.021	0.229
-159.750	233.272	-0.184	0.300
-158.735	800.000	0.068	-0.206
-157.720	-57.643	-0.206	-0.089
-156.706	134.464	0.204	-0.262
-155.691	37.021	-0.091	0.080
-154.677	88.016	0.186	-0.204
-153.662	349.192	-0.061	-0.118
-152.647	-52.974	0.249	-0.113
-151.633	208.614	0.155	0.239
-150.618	-32.083	0.208	-0.115
-149.604	-34.557	0.114	-0.062
-148.589	800.000	0.058	-0.201
-147.574	-149.931	0.204	-0.016
-146.560	266.709	0.050	0.086
-145.545	449.500	0.172	-0.375
-144.531	-26.503	0.270	0.157
-143.516	23.022	0.102	-0.083
-142.502	371.879	0.178	0.358
-141.487	800.000	0.090	0.283
-140.472	-18.142	-0.121	-0.075
-139.458	110.885	-0.175	-0.208
-138.443	533.945	-0.114	0.267
-137.429	242.341	-0.211	0.350
-136.414	800.000	0.042	0.129
-135.399	125.209	0.168	-0.210
-134.385	-131.526	-0.300	-0.039
-133.370	69.475	-0.072	-0.073
-132.356	-23.364	-0.314	0.187
-131.341	636.671	0.174	0.437
-130.326	800.000	0.090	0.308
-129.312	129.322	0.075	0.095
-128.297	-200.000	0.052	-0.554
-127.283	-200.000	-0.011	0.201
-126.268	-67.520	0.085	0.033
-125.253	-30.883	-0.132	-0.074
-124.239	455.682	-0.047	0.103
-123.224	-60.944	-0.223	0.093
-122.210	-28.017	0.231	0.132
