DTS Sentinel unit serial number:	SN413079Multiplexer serial number:	ORYXHardware model number:	OX4-SRSoftware version number:	ORYX F/W v4.00 Oryx Data Collector v3.7.2.0data status	okinstallation	princeton_trtdifferential loss correction	single-endedforward channel	channel 4reverse channel	N/Adate	2019/09/19time	03:37:35forward acquisition time	60.00reverse acquisition time	0.00gamma	496.2192k internal	0.2340k external	0.2340temperature offset calibration	1.0031default loss term (dB/km)	0.3790temperature slope calibration	1.0000multiplexer offset coefficient	1.0000multiplexer slope coefficient	1.0000fibre end	0.00T internal ref (°C)	20.56T ext. ref 1 (°C)	0.65T ext. ref 2 (°C)	14.33length (m)	temperature (°C)	Stokes	anti-Stokes-747.200	2.286	0.158	-0.115
-746.185	-164.901	0.167	-0.008
-745.171	-11.209	-0.120	0.080
-744.156	40.697	-0.361	0.326
-743.142	167.815	-0.060	-0.086
-742.127	-200.000	0.013	0.148
-741.112	-41.765	0.253	-0.130
-740.098	-84.317	0.379	-0.120
-739.083	341.787	0.064	-0.125
-738.069	-87.109	-0.419	-0.128
-737.054	435.749	0.027	-0.058
-736.039	51.978	-0.149	0.142
-735.025	-200.000	-0.036	-0.187
-734.010	39.871	-0.298	-0.268
-732.996	-200.000	-0.002	-0.103
-731.981	67.813	-0.190	0.195
-730.966	-200.000	0.026	-0.136
-729.952	65.844	-0.154	0.157
-728.937	-200.000	0.019	0.131
-727.923	-18.196	-0.118	-0.074
-726.908	-73.685	0.065	-0.024
-725.894	54.308	-0.086	-0.083
-724.879	-165.614	0.410	0.018
-723.864	-200.000	-0.060	-0.274
-722.850	170.776	-0.045	0.064
-721.835	-113.205	-0.357	-0.070
-720.821	344.359	-0.087	0.172
-719.806	227.424	-0.147	-0.239
-718.791	-200.000	-0.029	-0.283
-717.777	67.079	0.033	0.033
-716.762	473.546	0.107	-0.241
-715.748	39.755	-0.146	0.131
-714.733	-50.140	0.242	0.115
-713.718	-200.000	0.009	-0.212
-712.704	320.406	-0.148	-0.281
-711.689	-200.000	-0.036	-0.168
-710.675	-55.102	-0.230	0.104
-709.660	-94.353	0.255	0.070
-708.645	-46.770	-0.115	-0.056
-707.631	116.935	0.190	-0.234
-706.616	-200.000	0.035	-0.297
-705.602	-200.000	-0.034	-0.368
-704.587	473.659	-0.034	-0.077
-703.572	-200.000	0.009	0.296
-702.558	160.914	0.030	0.041
-701.543	339.797	0.201	0.392
-700.529	-200.000	-0.004	0.216
-699.514	189.116	0.121	0.181
-698.499	228.540	0.109	-0.179
-697.485	-94.898	-0.319	-0.086
-696.470	123.656	0.062	0.078
-695.456	-75.343	-0.242	-0.086
-694.441	150.920	0.165	0.225
-693.426	404.660	0.039	0.083
-692.412	285.696	-0.166	0.300
-691.397	-200.000	-0.043	0.196
-690.383	-200.000	-0.036	0.275
-689.368	-143.768	0.335	0.032
-688.354	-100.747	-0.074	0.018
-687.339	137.640	0.219	-0.287
-686.324	800.000	0.021	0.092
-685.310	0.676	-0.069	0.049
-684.295	-196.530	0.196	-0.001
-683.281	-139.998	-0.420	0.044
-682.266	-200.000	-0.035	0.199
-681.251	126.645	0.014	0.018
-680.237	-200.000	0.417	-0.002
-679.222	20.363	0.042	-0.034
-678.208	-36.372	-0.096	-0.052
-677.193	339.150	-0.079	-0.154
-676.178	-36.770	-0.152	-0.081
-675.164	-168.417	0.311	0.012
-674.149	18.492	-0.132	0.106
-673.135	260.107	-0.289	0.499
-672.120	-78.788	-0.090	0.031
-671.105	-78.121	0.167	-0.057
-670.091	-141.208	0.128	0.013
-669.076	190.407	-0.358	-0.537
-668.062	96.774	-0.190	0.217
-667.047	704.702	-0.063	-0.166
-666.032	-125.025	0.224	0.034
-665.018	100.400	0.062	0.072
-664.003	-77.758	0.147	-0.051
-662.989	-200.000	-0.035	-0.244
-661.974	-114.731	0.063	-0.012
-660.959	-200.000	0.012	0.113
-659.945	-136.519	0.260	0.030
-658.930	139.086	-0.132	0.173
-657.916	-38.199	-0.497	0.263
-656.901	-200.000	0.026	0.119
-655.886	-57.052	-0.288	-0.127
-654.872	35.559	-0.310	0.272
-653.857	-121.759	0.112	-0.019
-652.843	800.000	-0.098	-0.280
-651.828	-47.020	0.300	-0.146
-650.814	-10.998	-0.104	-0.069
-649.799	19.655	0.182	-0.146
-648.784	-84.797	0.163	0.051
-647.770	-53.960	0.112	-0.051
-646.755	-69.983	0.074	0.028
-645.741	9.832	0.071	-0.054
-644.726	168.489	-0.166	0.237
-643.711	-70.111	0.336	0.128
-642.697	-42.503	0.058	0.030
-641.682	86.370	-0.134	0.148
-640.668	103.830	0.056	0.066
-639.653	-103.225	-0.032	0.007
-638.638	6.888	-0.086	0.064
-637.624	16.741	-0.221	0.175
-636.609	-200.000	-0.001	0.319
-635.595	-140.468	-0.352	0.037
-634.580	104.590	0.187	0.220
-633.565	52.681	0.230	-0.220
-632.551	-18.561	0.311	-0.194
-631.536	-200.000	-0.074	0.324
-630.522	-45.952	-0.310	-0.153
-629.507	-13.966	-0.199	0.128
-628.492	-103.384	-0.235	-0.055
-627.478	-169.867	-0.208	0.007
-626.463	-95.478	0.220	-0.059
-625.449	228.561	-0.037	-0.060
-624.434	61.389	-0.066	-0.065
-623.419	137.820	0.132	0.173
-622.405	180.089	-0.156	-0.228
-621.390	-124.099	0.209	-0.033
-620.376	268.278	0.206	-0.360
-619.361	479.958	0.012	0.027
-618.346	185.204	-0.108	-0.159
-617.332	87.259	-0.194	0.214
-616.317	800.000	-0.072	0.254
-615.303	-19.793	-0.058	-0.036
-614.288	-163.376	0.164	-0.008
-613.273	800.000	0.071	-0.223
-612.259	30.663	-0.168	0.143
-611.244	9.338	0.116	-0.088
-610.230	94.496	0.166	-0.188
-609.215	-29.554	0.091	0.052
-608.201	105.726	0.174	0.205
-607.186	-200.000	-0.047	0.418
-606.171	-26.224	0.462	0.271
-605.157	51.965	-0.254	0.241
-604.142	52.295	0.189	-0.179
-603.128	-181.236	-0.210	-0.004
-602.113	-7.460	0.143	0.096
-601.098	-116.761	-0.184	-0.034
-600.084	-67.917	0.502	-0.196
-599.069	-143.642	-0.271	0.026
-598.055	-200.000	-0.005	-0.041
-597.040	-200.000	-0.042	-0.187
-596.025	-19.342	-0.044	0.027
-595.011	-200.000	-0.001	0.227
-593.996	109.413	-0.026	0.030
-592.982	-43.332	0.299	-0.151
-591.967	80.826	-0.274	0.295
-590.952	-105.664	0.187	-0.042
-589.938	-137.262	-0.278	0.032
-588.923	-145.513	0.370	0.033
-587.909	-26.840	0.171	-0.099
-586.894	-184.737	-0.185	-0.003
-585.879	-200.000	0.008	-0.215
-584.865	800.000	-0.068	0.198
-583.850	116.928	-0.222	0.272
-582.836	82.918	0.127	-0.138
-581.821	9.571	0.489	-0.369
-580.806	-138.414	0.043	-0.005
-579.792	95.742	-0.358	0.407
-578.777	-2.606	0.208	-0.145
-577.763	55.873	-0.329	-0.317
-576.748	-34.687	-0.093	0.050
-575.733	-11.018	0.221	-0.146
-574.719	-35.162	-0.302	-0.164
-573.704	-200.000	0.038	-0.221
-572.690	800.000	0.028	-0.124
-571.675	-25.847	0.161	0.094
-570.661	-90.829	-0.290	-0.083
-569.646	152.108	0.137	-0.186
-568.631	-34.881	0.174	-0.095
-567.617	-40.941	0.090	0.046
-566.602	-146.660	-0.223	-0.019
-565.588	-200.000	-0.011	-0.055
-564.573	-6.158	-0.043	0.029
-563.558	-30.348	0.208	-0.117
-562.544	243.168	-0.205	0.342
-561.529	-22.482	-0.214	-0.129
-560.515	-11.085	-0.318	-0.209
-559.500	-200.000	-0.002	-0.152
-558.485	-200.000	-0.020	-0.175
-557.471	-64.980	0.242	-0.097
-556.456	-103.728	0.048	-0.011
-555.442	-70.574	-0.311	-0.117
-554.427	-200.000	-0.005	-0.150
-553.412	49.620	0.275	0.258
-552.398	7.797	0.263	0.196
-551.383	-200.000	-0.018	-0.255
-550.369	800.000	-0.044	-0.139
-549.354	235.046	0.051	-0.085
-548.339	102.058	-0.083	-0.097
-547.325	-97.604	0.112	-0.029
-546.310	68.604	0.120	0.122
-545.296	800.000	-0.062	0.191
-544.281	134.730	-0.122	0.158
-543.266	243.948	0.096	-0.161
-542.252	-200.000	-0.038	-0.173
-541.237	295.631	0.039	0.072
-540.223	-113.532	0.220	-0.043
-539.208	24.254	0.314	0.258
-538.193	-149.834	0.173	-0.013
-537.179	-128.360	-0.114	-0.016
-536.164	-62.015	-0.030	-0.013
-535.150	-200.000	0.024	-0.291
-534.135	73.752	0.166	-0.174
-533.121	-94.623	-0.032	0.009
-532.106	145.852	-0.135	0.179
-531.091	180.493	0.148	0.216
-530.077	-49.915	-0.379	0.179
-529.062	-200.000	-0.081	-0.488
-528.048	-169.646	-0.099	0.004
-527.033	447.905	-0.187	0.410
-526.018	-3.173	-0.220	0.153
-525.004	800.000	0.061	-0.251
-523.989	28.588	0.219	0.184
-522.975	-49.945	0.161	-0.076
-521.960	-200.000	0.043	-0.205
-520.945	800.000	0.056	0.220
-519.931	133.330	-0.048	0.061
-518.916	-98.843	-0.113	-0.029
-517.902	54.026	0.142	-0.136
-516.887	10.210	0.037	-0.028
-515.872	310.273	-0.131	-0.244
-514.858	-80.465	-0.350	-0.116
-513.843	9.899	0.194	0.146
-512.829	-57.429	0.119	-0.052
-511.814	187.695	0.197	-0.292
-510.799	266.613	0.110	-0.190
-509.785	-19.176	0.119	-0.073
-508.770	127.898	-0.068	-0.086
-507.756	294.187	0.201	-0.364
-506.741	121.682	-0.236	-0.292
-505.726	42.189	-0.242	0.218
-504.712	-128.459	0.273	0.039
-503.697	-104.689	0.080	-0.018
-502.683	-200.000	-0.028	-0.136
-501.668	-200.000	-0.018	0.220
-500.653	67.845	-0.169	-0.172
-499.639	-49.340	0.385	0.182
-498.624	33.404	0.089	0.077
-497.610	-157.975	0.396	0.023
-496.595	-65.994	0.126	-0.050
-495.581	-200.000	0.025	-0.168
-494.566	354.616	-0.048	-0.095
-493.551	800.000	-0.067	-0.240
-492.537	-200.000	-0.024	0.175
-491.522	27.893	0.180	0.150
-490.508	800.000	0.028	0.113
-489.493	-91.195	-0.186	0.053
-488.478	-75.892	-0.190	-0.067
-487.464	25.479	-0.153	0.126
-486.449	-164.189	-0.316	0.014
-485.435	167.750	-0.145	-0.204
-484.420	52.478	0.212	-0.201
-483.405	419.923	-0.119	-0.253
-482.391	213.124	0.062	0.097
-481.376	-200.000	-0.045	-0.252
-480.362	264.705	-0.031	-0.054
-479.347	-20.268	-0.155	0.095
-478.332	-200.000	-0.047	0.210
-477.318	-200.000	-0.039	-0.191
-476.303	-25.185	0.045	-0.027
-475.289	75.639	0.278	0.291
-474.274	-35.871	0.029	-0.015
-473.259	66.147	-0.055	-0.055
-472.245	150.926	0.089	0.120
-471.230	42.032	0.097	0.088
-470.216	-126.976	0.109	0.016
-469.201	-110.395	0.166	0.034
-468.186	800.000	0.088	0.328
-467.172	800.000	-0.087	0.299
-466.157	800.000	-0.031	-0.108
-465.143	354.807	-0.123	0.243
-464.128	278.052	-0.233	-0.411
-463.113	-200.000	0.011	-0.058
-462.099	800.000	0.085	0.324
-461.084	81.168	0.171	-0.183
-460.070	-21.832	-0.204	-0.123
-459.055	195.990	0.141	-0.212
-458.040	150.859	0.279	-0.375
-457.026	-143.337	-0.173	-0.016
-456.011	-14.921	-0.079	-0.050
-454.997	-122.899	-0.370	-0.059
-453.982	-81.317	0.242	0.079
-452.968	-9.491	-0.186	-0.123
-451.953	-62.658	-0.489	0.201
-450.938	98.933	-0.365	0.417
-449.924	800.000	0.062	-0.188
-448.909	-137.917	0.307	0.034
-447.895	7.364	-0.022	0.016
-446.880	0.296	0.007	0.005
-445.865	778.655	0.094	0.256
-444.851	-200.000	0.010	-0.101
-443.836	-34.641	-0.086	-0.047
-442.822	-200.000	0.002	-0.084
-441.807	-56.396	-0.241	-0.106
-440.792	21.936	0.073	-0.059
-439.778	-17.770	-0.225	0.140
-438.763	101.916	-0.202	-0.234
-437.749	602.214	0.115	-0.282
-436.734	-157.163	0.128	0.008
-435.719	71.236	0.269	0.276
-434.705	-45.178	0.138	0.068
-433.690	463.699	0.051	0.114
-432.676	-200.000	0.047	0.254
-431.661	-200.000	0.030	0.156
-430.646	9.391	0.187	0.140
-429.632	201.153	0.022	0.034
-428.617	-76.287	-0.214	-0.075
-427.603	-75.694	-0.069	0.024
-426.588	-141.483	0.368	0.037
-425.573	-200.000	0.052	0.275
-424.559	7.922	-0.047	0.035
-423.544	-112.105	-0.246	-0.049
-422.530	-137.154	-0.184	-0.021
-421.515	-200.000	0.026	0.277
-420.500	-200.000	0.037	-0.237
-419.486	-106.630	0.136	-0.030
-418.471	203.509	0.184	-0.282
-417.457	-200.000	0.027	-0.174
-416.442	-200.000	0.003	0.107
-415.428	8.507	0.222	-0.165
-414.413	179.456	0.018	0.027
-413.398	-200.000	-0.045	0.292
-412.384	-200.000	0.018	0.365
-411.369	-141.790	0.286	0.028
-410.355	-200.000	0.035	0.160
-409.340	332.150	0.130	-0.249
-408.325	-163.440	-0.056	-0.003
-407.311	800.000	0.070	0.291
-406.296	0.604	-0.168	0.119
-405.282	183.041	0.015	0.021
-404.267	-154.281	-0.149	-0.010
-403.252	-125.914	0.148	-0.022
-402.238	-200.000	0.003	-0.069
-401.223	42.237	0.059	-0.053
-400.209	226.893	-0.074	-0.119
-399.194	127.354	-0.060	-0.075
-398.179	-200.000	-0.004	0.021
-397.165	88.896	-0.123	0.135
-396.150	539.829	0.111	-0.260
-395.136	-200.000	-0.053	-0.272
-394.121	782.726	0.082	-0.222
-393.106	800.000	-0.036	0.124
-392.092	-200.000	-0.002	-0.080
-391.077	486.896	-0.208	-0.470
-390.063	800.000	-0.072	-0.213
-389.048	-102.005	-0.229	-0.055
-388.033	-105.139	-0.233	-0.053
-387.019	100.040	-0.215	-0.246
-386.004	-79.107	0.156	0.052
-384.990	800.000	-0.091	0.394
-383.975	69.792	-0.068	0.069
-382.960	159.044	0.276	-0.379
-381.946	-163.622	-0.114	-0.005
-380.931	23.692	0.145	0.118
-379.917	-10.608	-0.190	-0.125
-378.902	-135.549	0.176	-0.021
-377.888	800.000	-0.034	0.120
-376.873	552.246	0.066	-0.156
-375.858	-123.328	0.193	-0.030
-374.844	34.004	-0.189	0.163
-373.829	71.112	0.148	-0.152
-372.815	-200.000	0.037	-0.190
-371.800	21.256	-0.111	-0.089
-370.785	-200.000	-0.010	0.201
-369.771	397.877	-0.067	-0.139
-368.756	-97.645	-0.180	0.046
-367.742	12.735	0.277	-0.211
-366.727	-200.000	0.033	0.354
-365.712	374.475	0.075	0.151
-364.698	379.255	0.051	-0.103
-363.683	251.552	-0.059	-0.098
-362.669	82.138	-0.297	0.318
-361.654	-30.934	0.302	0.169
-360.639	-68.330	-0.030	-0.012
-359.625	128.929	-0.018	0.022
-358.610	125.460	-0.125	-0.156
-357.596	305.850	0.103	-0.189
-356.581	-200.000	0.041	-0.255
-355.566	165.322	-0.069	0.096
-354.552	-200.000	-0.005	0.103
-353.537	800.000	0.025	0.083
-352.523	-125.123	-0.227	-0.034
-351.508	-106.770	0.093	-0.020
-350.493	-64.403	-0.433	-0.174
-349.479	437.968	-0.039	0.084
-348.464	47.781	-0.319	0.294
-347.450	55.049	-0.074	0.071
-346.435	-200.000	-0.083	-0.371
-345.420	71.386	0.046	0.047
-344.406	402.912	-0.118	0.245
-343.391	270.386	0.264	0.458
-342.377	502.333	0.115	0.262
-341.362	242.840	0.192	0.318
-340.348	-134.536	0.276	0.033
-339.333	800.000	-0.071	0.246
-338.318	-67.839	-0.091	0.035
-337.304	-109.198	0.253	-0.053
-336.289	-200.000	-0.009	-0.123
-335.275	-200.000	-0.062	-0.541
-334.260	800.000	0.055	-0.169
-333.245	159.726	-0.019	0.027
-332.231	-27.363	-0.160	0.092
-331.216	-200.000	-0.028	-0.178
-330.202	-92.960	0.326	-0.090
-329.187	-200.000	0.069	-0.314
-328.172	-200.000	-0.017	0.252
-327.158	-164.107	-0.215	0.010
-326.143	-76.134	-0.212	-0.074
-325.129	-28.143	0.338	0.193
-324.114	-13.238	-0.248	0.159
-323.099	305.768	-0.102	-0.188
-322.085	-200.000	-0.038	-0.183
-321.070	-200.000	0.003	0.069
-320.056	-10.377	-0.270	-0.176
-319.041	498.899	0.037	0.084
-318.026	254.640	0.089	0.150
-317.012	-200.000	0.012	-0.162
-315.997	-200.000	-0.016	-0.083
-314.983	89.292	-0.140	0.153
-313.968	-102.310	-0.360	0.085
-312.953	-200.000	0.001	0.016
-311.939	421.333	-0.029	-0.062
-310.924	-74.742	0.342	-0.121
-309.910	-46.017	0.105	0.051
-308.895	-23.739	0.266	-0.157
-307.880	-35.726	0.109	0.058
-306.866	-80.050	-0.037	0.012
-305.851	-200.000	-0.039	-0.214
-304.837	-28.661	-0.091	0.052
-303.822	32.204	0.068	-0.058
-302.807	-95.842	-0.155	0.041
-301.793	-19.821	0.267	0.162
-300.778	-33.215	0.056	0.031
-299.764	-200.000	-0.007	0.087
-298.749	23.938	-0.110	0.090
-297.735	-107.347	-0.238	0.052
-296.720	-97.152	0.374	0.096
-295.705	-140.050	-0.323	-0.033
-294.691	-144.961	0.315	-0.028
-293.676	60.810	0.022	0.021
-292.662	-78.067	0.197	-0.067
-291.647	541.390	0.175	-0.412
-290.632	-200.000	0.007	0.094
-289.618	18.585	-0.197	0.155
-288.603	554.788	0.128	-0.304
-287.589	-9.345	0.222	-0.146
-286.574	-200.000	-0.030	0.195
-285.559	-200.000	0.003	0.258
-284.545	800.000	0.061	-0.225
-283.530	-1.930	0.246	0.170
-282.516	19.181	-0.441	-0.348
-281.501	265.859	-0.053	-0.091
-280.486	52.958	-0.052	-0.049
-279.472	800.000	0.063	0.237
-278.457	71.423	-0.120	0.123
-277.443	95.317	-0.126	-0.141
-276.428	359.742	0.179	0.352
-275.413	-200.000	0.088	0.520
-274.399	105.479	0.146	0.170
-273.384	-127.913	-0.424	-0.060
-272.370	-24.492	0.336	-0.197
-271.355	30.345	-0.115	0.097
-270.340	267.330	-0.199	0.343
-269.326	451.628	0.069	0.149
-268.311	-200.000	-0.027	0.151
-267.297	-127.692	0.379	0.054
-266.282	-200.000	-0.065	0.285
-265.267	-66.930	-0.241	0.094
-264.253	556.516	0.059	-0.140
-263.238	2.129	0.311	-0.221
-262.224	-107.498	-0.252	-0.054
-261.209	429.635	-0.033	-0.070
-260.195	32.282	0.174	-0.148
-259.180	-101.550	-0.290	-0.069
-258.165	79.651	-0.166	-0.175
-257.151	-94.855	0.215	0.057
-256.136	108.102	-0.062	0.072
-255.122	800.000	-0.051	0.212
-254.107	-58.272	0.300	-0.128
-253.092	82.977	0.054	0.058
-252.078	800.000	0.081	0.245
-251.063	800.000	-0.054	-0.211
-250.049	-121.103	-0.398	-0.066
-249.034	800.000	0.110	0.337
-248.019	-81.684	-0.263	-0.085
-247.005	161.982	0.237	0.327
-245.990	2.182	0.283	-0.201
-244.976	0.401	-0.047	-0.033
-243.961	185.258	-0.041	-0.059
-242.946	-200.000	0.000	0.049
-241.932	798.291	-0.065	0.175
-240.917	-45.969	0.181	0.088
-239.903	-2.821	-0.275	-0.189
-238.888	-200.000	0.008	0.379
-237.873	-67.600	0.216	0.083
-236.859	800.000	0.052	-0.141
-235.844	-200.000	0.039	0.326
-234.830	-200.000	0.026	-0.241
-233.815	-159.112	-0.168	-0.009
-232.800	293.047	0.024	-0.043
-231.786	-200.000	0.029	0.193
-230.771	428.113	-0.088	-0.187
-229.757	-86.888	0.143	0.043
-228.742	20.506	0.283	0.225
-227.727	-43.825	-0.316	0.156
-226.713	800.000	-0.052	0.153
-225.698	800.000	0.090	-0.292
-224.684	-140.830	0.227	0.023
-223.669	396.769	0.199	-0.407
-222.655	-31.971	-0.134	-0.074
-221.640	-200.000	-0.020	0.217
-220.625	275.959	-0.083	0.145
-219.611	-117.686	0.180	0.032
-218.596	800.000	-0.084	0.250
-217.582	-106.796	-0.495	0.108
-216.567	-76.511	0.087	0.030
-215.552	-142.828	-0.154	-0.015
-214.538	165.380	-0.104	-0.144
-213.523	800.000	-0.052	-0.198
-212.509	189.434	0.075	-0.110
-211.494	-200.000	-0.017	-0.129
-210.479	-18.597	0.354	-0.217
-209.465	-6.857	-0.039	0.026
-208.450	-106.088	-0.189	0.042
-207.436	164.334	-0.143	-0.198
-206.421	-25.998	-0.290	-0.167
-205.406	-143.500	0.280	-0.026
-204.392	-55.027	-0.174	-0.077
-203.377	60.662	-0.338	0.329
-202.363	-167.522	0.274	0.011
-201.348	555.560	0.023	0.055
-200.333	-66.703	-0.159	-0.062
-199.319	800.000	-0.043	-0.129
-198.304	-19.863	0.125	-0.076
-197.290	800.000	-0.053	0.213
-196.275	474.721	0.046	-0.101
-195.260	417.791	-0.114	-0.239
-194.246	112.622	0.098	0.116
-193.231	-38.345	-0.059	-0.031
-192.217	134.592	0.409	-0.520
-191.202	800.000	0.116	-0.360
-190.187	787.550	-0.151	-0.408
-189.173	6.525	-0.240	0.175
-188.158	54.991	-0.067	0.063
-187.144	-21.875	-0.184	0.110
-186.129	165.298	0.049	-0.068
-185.114	136.257	-0.030	0.039
-184.100	238.022	0.143	0.233
-183.085	160.940	0.237	0.325
-182.071	-165.759	-0.370	0.016
-181.056	120.992	0.069	0.084
-180.042	98.552	0.264	0.299
-179.027	-5.428	-0.336	0.226
-178.012	800.000	-0.059	0.171
-176.998	-98.477	0.316	0.079
-175.983	-123.757	0.210	-0.033
-174.969	-78.163	-0.121	-0.041
-173.954	800.000	-0.010	-0.032
-172.939	-108.467	0.024	-0.005
-171.925	-75.065	-0.078	-0.027
-170.910	-122.984	-0.270	0.043
-169.896	11.707	0.072	-0.054
-168.881	-112.176	-0.227	0.045
-167.866	161.259	-0.156	0.214
-166.852	-69.963	0.273	0.102
-165.837	-59.613	-0.289	0.122
-164.823	302.971	0.273	0.496
-163.808	-200.000	-0.008	0.159
-162.793	-73.428	0.200	0.072
-161.779	0.069	0.096	0.067
-160.764	800.000	-0.040	-0.157
-159.750	70.066	-0.242	-0.244
-158.735	-25.511	-0.172	-0.099
-157.720	-161.635	-0.034	0.002
-156.706	120.944	-0.123	-0.149
-155.691	-200.000	-0.048	0.217
-154.677	249.521	0.172	-0.286
-153.662	-188.716	-0.301	0.004
-152.647	52.110	0.048	-0.045
-151.633	10.501	-0.131	-0.098
-150.618	-91.361	0.062	0.017
-149.604	46.808	-0.245	-0.223
-148.589	-84.283	-0.336	-0.104
-147.574	800.000	-0.040	-0.168
-146.560	219.912	0.129	-0.202
-145.545	168.822	0.290	0.405
-144.531	207.996	-0.155	0.236
-143.516	446.306	0.127	0.273
-142.502	-200.000	-0.007	-0.248
-141.487	-177.674	-0.165	0.004
-140.472	-51.038	-0.321	-0.148
-139.458	-82.896	-0.296	-0.093
-138.443	228.606	0.193	-0.308
-137.429	107.142	0.027	0.031
-136.414	-200.000	0.005	-0.129
-135.399	2.692	-0.106	0.075
-134.385	102.274	0.174	-0.199
-133.370	-70.483	-0.154	0.057
-132.356	-200.000	0.015	-0.082
-131.341	-50.681	-0.243	-0.112
-130.326	-85.657	-0.122	0.037
-129.312	262.045	0.088	-0.149
-128.297	13.547	-0.207	-0.157
-127.283	108.934	-0.265	-0.310
-126.268	-125.038	-0.172	-0.026
-125.253	-58.003	-0.120	0.051
-124.239	-128.510	-0.166	-0.023
-123.224	-161.756	0.121	-0.006
-122.210	-200.000	-0.005	0.165
-121.195	-74.620	0.160	0.056
