DTS Sentinel unit serial number:	SN413079Multiplexer serial number:	ORYXHardware model number:	OX4-SRSoftware version number:	ORYX F/W v4.00 Oryx Data Collector v3.7.2.0data status	okinstallation	princeton_trtdifferential loss correction	single-endedforward channel	channel 4reverse channel	N/Adate	2019/09/12time	19:22:19forward acquisition time	15.00reverse acquisition time	0.00gamma	496.2192k internal	0.2308k external	0.2308temperature offset calibration	1.0147default loss term (dB/km)	0.3790temperature slope calibration	1.0000multiplexer offset coefficient	1.0000multiplexer slope coefficient	1.0000fibre end	0.00T internal ref (°C)	32.37T ext. ref 1 (°C)	3.22T ext. ref 2 (°C)	26.95length (m)	temperature (°C)	Stokes	anti-Stokes-747.200	-27.931	0.682	-0.402
-746.185	-200.000	0.019	-0.229
-745.171	-61.599	0.533	0.227
-744.156	73.138	-0.281	0.299
-743.142	-113.541	-0.734	0.146
-742.127	32.796	0.267	0.235
-741.112	-121.739	0.979	0.164
-740.098	114.669	-0.314	0.389
-739.083	289.496	-0.157	-0.289
-738.069	62.024	0.719	0.729
-737.054	-187.066	0.401	-0.006
-736.039	-69.150	0.476	0.186
-735.025	800.000	-0.179	-0.651
-734.010	586.867	-0.210	0.525
-732.996	55.034	0.560	0.549
-731.981	-141.833	0.422	-0.043
-730.966	10.225	-0.308	0.238
-729.952	-179.250	-0.710	-0.016
-728.937	-86.056	0.591	0.185
-727.923	-111.161	-0.529	-0.110
-726.908	-184.609	0.586	0.010
-725.894	800.000	0.300	0.861
-724.879	-200.000	0.020	0.686
-723.864	-150.188	0.489	-0.038
-722.850	-57.757	-0.504	0.224
-721.835	-153.006	0.522	-0.037
-720.821	386.732	0.514	1.079
-719.806	-200.000	-0.009	0.258
-718.791	216.280	0.216	0.349
-717.777	-10.647	-0.084	0.056
-716.762	-134.108	-0.464	0.058
-715.748	-200.000	0.010	0.626
-714.733	73.532	-0.363	0.386
-713.718	-118.316	0.204	-0.037
-712.704	800.000	-0.234	0.773
-711.689	-75.093	-0.554	0.201
-710.675	34.194	-0.646	-0.571
-709.660	190.562	0.291	0.444
-708.645	77.627	0.377	-0.407
-707.631	-141.320	-0.491	0.051
-706.616	-137.858	0.456	0.052
-705.602	-200.000	0.045	0.572
-704.587	321.757	0.288	-0.556
-703.572	-55.434	0.924	-0.421
-702.558	425.650	0.312	0.683
-701.543	-6.189	-0.356	-0.247
-700.529	-99.007	-0.698	-0.180
-699.514	-52.558	0.592	-0.278
-698.499	0.632	0.642	0.466
-697.485	61.585	-0.448	-0.452
-696.470	402.230	-0.169	-0.361
-695.456	-200.000	-0.145	-0.856
-694.441	-57.516	0.548	-0.244
-693.426	-82.472	-0.461	-0.152
-692.412	-109.816	-0.780	0.166
-691.397	-106.801	0.423	-0.095
-690.383	90.306	0.319	0.362
-689.368	322.300	-0.083	0.160
-688.354	-200.000	-0.054	-0.655
-687.339	800.000	-0.316	-0.960
-686.324	-200.000	0.117	-0.810
-685.310	-180.617	0.637	0.013
-684.295	800.000	0.086	-0.381
-683.281	-35.407	-0.256	0.141
-682.266	-1.641	-0.686	-0.490
-681.251	800.000	0.289	-0.930
-680.237	2.627	1.062	-0.780
-679.222	51.096	0.314	0.302
-678.208	800.000	0.078	0.271
-677.193	14.861	-0.596	-0.473
-676.178	15.616	-0.328	0.261
-675.164	-158.975	-0.153	0.009
-674.149	-101.720	-0.239	-0.059
-673.135	-168.784	-0.553	-0.021
-672.120	3.132	0.248	-0.183
-671.105	-1.872	0.854	-0.609
-670.091	800.000	-0.183	0.666
-669.076	800.000	0.007	-0.024
-668.062	800.000	0.070	0.230
-667.047	79.757	0.422	0.459
-666.032	800.000	0.307	-0.996
-665.018	493.295	-0.058	-0.135
-664.003	71.376	-0.219	-0.230
-662.989	433.845	0.192	0.421
-661.974	41.935	-0.670	-0.616
-660.959	-200.000	0.033	0.296
-659.945	-200.000	0.131	0.658
-658.930	51.089	0.198	-0.190
-657.916	-30.504	0.322	0.185
-656.901	381.840	-0.096	0.200
-655.886	168.916	0.566	0.817
-654.872	139.813	0.468	0.624
-653.857	543.086	-0.193	0.465
-652.843	800.000	-0.171	0.584
-651.828	-55.657	0.221	0.100
-650.814	-86.162	-1.039	-0.324
-649.799	-148.477	0.147	0.012
-648.784	-89.422	-0.809	0.241
-647.770	148.542	-0.482	0.660
-646.755	-132.470	-0.554	-0.072
-645.741	308.305	0.268	0.506
-644.726	306.975	-0.496	-0.936
-643.711	-73.336	-0.350	-0.130
-642.697	-167.198	0.846	-0.035
-641.682	-34.830	-0.540	0.299
-640.668	-41.461	-0.278	-0.145
-639.653	800.000	0.164	0.559
-638.638	-25.889	0.958	-0.571
-637.624	-200.000	0.077	0.367
-636.609	-200.000	0.075	1.625
-635.595	800.000	-0.086	0.348
-634.580	283.429	-0.311	0.566
-633.565	-110.561	-0.680	-0.142
-632.551	92.242	-0.412	-0.470
-631.536	-70.158	-0.232	-0.089
-630.522	-200.000	-0.120	0.575
-629.507	54.197	-0.416	-0.405
-628.492	-102.667	0.950	0.229
-627.478	-47.084	0.140	-0.069
-626.463	426.686	0.369	0.805
-625.449	-120.376	-0.438	0.075
-624.434	-119.346	0.285	0.050
-623.419	24.012	0.449	0.375
-622.405	42.148	-0.616	-0.566
-621.390	-114.594	0.146	0.028
-620.376	-69.572	-0.062	-0.024
-619.361	-64.752	0.725	0.297
-618.346	536.502	0.040	0.097
-617.332	456.464	-0.248	-0.557
-616.317	-69.497	0.830	-0.322
-615.303	-172.485	-0.921	0.030
-614.288	126.133	0.431	0.551
-613.273	-143.621	0.339	-0.033
-612.259	-36.509	-0.350	0.191
-611.244	-200.000	0.070	-0.570
-610.230	223.324	-0.069	-0.112
-609.215	-110.978	0.336	-0.070
-608.201	-42.802	-0.583	0.299
-607.186	115.060	-0.407	-0.503
-606.171	-43.200	-0.345	-0.176
-605.157	563.932	0.396	-0.968
-604.142	146.829	0.142	0.193
-603.128	109.378	0.294	0.356
-602.113	-98.328	-0.560	0.145
-601.098	309.759	-0.501	-0.948
-600.084	267.833	-0.388	-0.687
-599.069	-146.928	0.332	0.029
-598.055	645.618	-0.123	-0.319
-597.040	-200.000	-0.053	-0.409
-596.025	-200.000	-0.059	0.462
-595.011	800.000	0.157	0.492
-593.996	-64.745	-0.438	-0.179
-592.982	341.178	-0.087	0.171
-591.967	368.996	-0.413	0.845
-590.952	514.448	0.256	-0.602
-589.938	357.620	-0.080	0.161
-588.923	-200.000	1.033	-0.002
-587.909	7.183	-0.189	0.142
-586.894	22.878	-0.202	0.168
-585.879	-136.592	-0.769	0.090
-584.865	-200.000	0.086	-0.521
-583.850	538.475	0.306	-0.734
-582.836	-55.144	-0.205	0.093
-581.821	190.964	0.036	0.054
-580.806	-99.443	-0.351	0.089
-579.792	800.000	0.133	-0.581
-578.777	-192.467	-0.285	-0.003
-577.763	-57.135	-0.134	0.059
-576.748	147.844	-0.843	-1.148
-575.733	30.308	-1.033	0.891
-574.719	175.076	0.270	0.394
-573.704	162.326	-0.378	-0.536
-572.690	800.000	0.140	-0.447
-571.675	-100.676	0.695	-0.173
-570.661	800.000	0.063	-0.258
-569.646	173.735	0.387	0.564
-568.631	-9.478	-0.361	-0.243
-567.617	-200.000	-0.076	-0.427
-566.602	-110.857	0.614	-0.128
-565.588	192.307	0.030	0.046
-564.573	-70.025	-0.606	-0.233
-563.558	-139.322	-0.480	-0.052
-562.544	571.007	-0.385	0.946
-561.529	91.427	-0.824	0.935
-560.515	643.366	-0.225	0.578
-559.500	-200.000	0.377	0.001
-558.485	-200.000	0.086	-0.398
-557.471	143.889	0.051	0.069
-556.456	-4.067	-0.376	-0.263
-555.442	-116.041	-0.831	0.156
-554.427	-184.077	-0.451	0.008
-553.412	-200.000	0.003	-0.211
-552.398	-200.000	0.079	0.835
-551.383	-180.688	-0.356	0.007
-550.369	-200.000	0.023	0.814
-549.354	-200.000	-0.028	-0.262
-548.339	-200.000	-0.071	-0.630
-547.325	94.834	-0.316	0.363
-546.310	-78.442	0.484	0.167
-545.296	-200.000	-0.004	0.602
-544.281	-200.000	1.322	-0.006
-543.266	-41.715	0.670	-0.347
-542.252	118.890	0.393	0.489
-541.237	-200.000	0.156	-0.858
-540.223	561.196	0.061	-0.150
-539.208	-200.000	0.071	-0.407
-538.193	691.971	-0.244	0.645
-537.179	-55.086	0.911	-0.414
-536.164	211.518	0.034	-0.054
-535.150	396.312	-0.161	-0.338
-534.135	-200.000	-0.176	0.886
-533.121	68.374	-0.564	0.583
-532.106	-58.509	0.884	0.387
-531.091	-56.467	0.266	-0.119
-530.077	577.010	0.170	-0.419
-529.062	-90.077	-0.245	-0.072
-528.048	800.000	-0.059	-0.230
-527.033	-13.575	0.045	-0.029
-526.018	60.005	-0.416	-0.414
-525.004	-200.000	-0.027	-0.292
-523.989	520.636	0.203	-0.479
-522.975	458.803	-0.134	0.301
-521.960	137.896	0.540	0.712
-520.945	-200.000	0.017	-0.259
-519.931	91.998	0.803	-0.911
-518.916	-13.114	-0.509	-0.333
-517.902	2.928	0.275	0.201
-516.887	159.539	0.672	-0.942
-515.872	104.368	-0.543	-0.643
-514.858	-9.549	0.409	0.275
-513.843	247.602	0.458	0.780
-512.829	235.729	-0.539	-0.898
-511.814	800.000	0.151	0.448
-510.799	-79.678	0.314	-0.107
-509.785	328.725	-0.243	0.469
-508.770	-10.828	-0.388	-0.258
-507.756	-138.506	0.097	-0.011
-506.741	-43.923	0.493	0.249
-505.726	283.266	-0.229	-0.414
-504.712	206.126	-0.412	-0.646
-503.697	760.446	-0.150	0.409
-502.683	178.287	-0.404	0.594
-501.668	-98.002	-0.287	0.074
-500.653	-150.779	-0.661	-0.051
-499.639	-200.000	0.071	-0.507
-498.624	75.444	0.339	-0.360
-497.610	21.405	-0.411	-0.336
-496.595	-42.576	0.444	-0.228
-495.581	553.635	-0.195	0.473
-494.566	272.877	0.290	0.515
-493.551	800.000	0.294	0.839
-492.537	36.107	0.338	-0.299
-491.522	-183.179	0.132	0.002
-490.508	82.842	-0.453	-0.496
-489.493	220.997	-0.257	-0.415
-488.478	480.994	0.420	-0.960
-487.464	107.963	-0.368	-0.442
-486.449	89.044	0.227	0.254
-485.435	-138.669	-0.289	-0.032
-484.420	64.958	-0.757	0.769
-483.405	546.647	-0.153	-0.369
-482.391	174.309	-0.483	0.702
-481.376	-119.125	-0.789	0.139
-480.362	-16.832	0.195	-0.124
-479.347	800.000	-0.139	-0.420
-478.332	-200.000	-0.013	0.156
-477.318	4.998	-0.303	-0.225
-476.303	-200.000	0.059	-0.337
-475.289	800.000	-0.180	0.561
-474.274	-49.974	-0.172	0.082
-473.259	76.072	-0.220	-0.234
-472.245	-189.951	0.783	-0.009
-471.230	800.000	0.107	-0.458
-470.216	146.843	0.034	-0.046
-469.201	-175.014	-0.414	0.012
-468.186	-200.000	0.960	0.000
-467.172	-200.000	0.076	-0.712
-466.157	254.020	0.550	0.945
-465.143	257.109	-0.417	-0.720
-464.128	-39.765	0.522	0.274
-463.113	-140.280	0.729	-0.077
-462.099	-72.782	0.305	0.113
-461.084	110.367	0.077	-0.093
-460.070	-160.090	0.436	-0.024
-459.055	368.012	-0.237	-0.481
-458.040	281.365	0.150	0.270
-457.026	-34.048	0.780	0.431
-456.011	800.000	0.151	0.621
-454.997	573.499	-0.292	0.715
-453.982	-200.000	0.029	-0.442
-452.968	-28.395	-0.234	-0.136
-451.953	-136.189	0.289	0.034
-450.938	-56.043	-0.240	0.108
-449.924	800.000	-0.033	0.134
-448.909	5.333	0.596	-0.442
-447.895	-195.144	-0.629	0.005
-446.880	-62.393	-0.617	-0.258
-445.865	-143.061	1.001	0.097
-444.851	238.345	-0.242	-0.403
-443.836	134.783	0.343	-0.448
-442.822	-144.486	0.897	0.083
-441.807	134.456	0.226	-0.294
-440.792	-79.477	-0.256	-0.087
-439.778	38.476	0.358	-0.321
-438.763	-43.488	-0.336	-0.171
-437.749	158.379	0.282	0.393
-436.734	192.080	0.280	-0.424
-435.719	-176.211	-0.275	0.007
-434.705	800.000	-0.256	-0.999
-433.690	-146.834	1.175	-0.102
-432.676	-79.196	0.167	0.057
-431.661	187.965	-0.356	-0.534
-430.646	125.371	-0.099	0.125
-429.632	306.396	-0.398	-0.744
-428.617	-88.088	0.724	-0.218
-427.603	526.359	-0.020	-0.048
-426.588	-135.929	-0.615	0.073
-425.573	-200.000	-0.009	0.363
-424.559	-200.000	-0.068	0.550
-423.544	-200.000	0.010	-0.365
-422.530	-117.289	-0.630	0.115
-421.515	800.000	0.208	-0.855
-420.500	140.553	-0.250	0.331
-419.486	-84.887	0.818	0.258
-418.471	69.882	0.528	-0.546
-417.457	-146.546	-0.228	0.020
-416.442	384.096	-0.279	-0.577
-415.428	-24.532	0.443	0.265
-414.413	800.000	-0.077	-0.277
-413.398	-96.986	-0.555	0.146
-412.384	-131.421	-0.334	0.044
-411.369	-200.000	0.096	-1.081
-410.355	-200.000	-0.028	-0.233
-409.340	-60.727	-0.101	-0.043
-408.325	-200.000	-0.620	0.003
-407.311	-62.547	-0.269	0.112
-406.296	-112.023	-0.137	0.028
-405.282	-200.000	0.016	0.084
-404.267	330.807	0.089	0.173
-403.252	-54.582	-0.537	0.244
-402.238	126.634	-0.330	0.420
-401.223	-170.538	0.635	-0.022
-400.209	-34.506	0.717	0.394
-399.194	393.490	-0.322	0.672
-398.179	119.469	0.792	0.983
-397.165	429.815	-0.152	-0.330
-396.150	124.924	-0.433	-0.547
-395.136	-60.079	-0.599	-0.256
-394.121	-200.000	0.204	-1.044
-393.106	-25.723	-0.348	-0.206
-392.092	68.867	0.213	-0.219
-391.077	800.000	0.078	0.253
-390.063	-64.090	0.957	-0.392
-389.048	305.490	-0.119	-0.223
-388.033	-200.000	-0.041	-0.609
-387.019	800.000	-0.307	0.947
-386.004	-30.565	-0.424	-0.241
-384.990	-104.749	0.425	-0.098
-383.975	-81.214	-0.398	0.132
-382.960	361.788	0.374	-0.752
-381.946	-46.374	-0.846	0.416
-380.931	-53.009	0.562	-0.259
-379.917	-82.470	-0.767	-0.250
-378.902	246.105	-0.511	-0.863
-377.888	-117.835	0.109	-0.020
-376.873	215.177	-0.213	-0.338
-375.858	-200.000	0.001	-0.099
-374.844	-200.000	0.089	-0.511
-373.829	800.000	-0.155	-0.489
-372.815	-200.000	-0.031	0.394
-371.800	-79.397	0.379	0.128
-370.785	140.079	0.111	-0.146
-369.771	-53.311	-0.540	0.248
-368.756	-69.566	0.519	-0.199
-367.742	-142.611	-0.516	-0.051
-366.727	-200.000	-0.012	0.411
-365.712	-126.349	-0.725	-0.108
-364.698	-200.000	0.007	-0.050
-363.683	-200.000	0.131	-0.716
-362.669	7.349	-0.483	0.361
-361.654	-200.000	0.071	-0.429
-360.639	13.718	0.626	0.487
-359.625	427.177	0.269	0.581
-358.610	-51.224	0.687	-0.322
-357.596	800.000	-0.159	-0.595
-356.581	99.728	0.227	0.263
-355.566	-94.014	-0.245	-0.067
-354.552	-130.989	-0.131	0.018
-353.537	48.066	0.329	0.308
-352.523	-176.884	0.571	-0.014
-351.508	-200.000	0.072	0.778
-350.493	-99.918	-0.811	-0.203
-349.479	-130.832	0.449	0.060
-348.464	-200.000	-0.067	-0.678
-347.450	800.000	0.268	-0.804
-346.435	-200.000	0.048	-0.877
-345.420	800.000	0.076	-0.308
-344.406	187.358	0.773	-1.154
-343.391	-131.358	0.935	-0.124
-342.377	-54.259	-0.515	-0.234
-341.362	44.477	0.360	0.330
-340.348	512.886	-0.160	-0.373
-339.333	-80.534	-0.323	0.108
-338.318	7.954	-0.812	0.609
-337.304	-146.940	0.231	0.020
-336.289	220.462	-0.070	-0.112
-335.275	4.177	0.820	0.601
-334.260	-200.000	-0.119	0.829
-333.245	-45.289	-0.309	0.154
-332.231	-138.613	0.950	-0.104
-331.216	236.345	0.257	0.426
-330.202	-106.762	-0.241	-0.054
-329.187	148.035	-0.658	-0.888
-328.172	800.000	-0.083	-0.233
-327.158	-80.785	-0.680	-0.226
-326.143	-131.937	-0.186	0.024
-325.129	800.000	0.205	0.699
-324.114	195.335	0.254	0.386
-323.099	-200.000	0.093	-0.537
-322.085	-200.000	-0.109	0.515
-321.070	105.710	-0.035	-0.041
-320.056	30.012	-0.488	0.416
-319.041	83.845	0.412	-0.449
-318.026	171.008	0.412	-0.591
-317.012	-122.371	0.494	0.081
-315.997	-200.000	0.062	0.797
-314.983	-11.358	0.460	0.303
-313.968	450.517	0.456	-1.006
-312.953	405.149	0.449	-0.945
-311.939	-45.805	-0.166	0.082
-310.924	800.000	0.101	0.354
-309.910	-9.379	-0.717	0.479
-308.895	-20.207	-0.467	-0.288
-307.880	118.718	0.179	0.220
-306.866	409.043	0.066	0.140
-305.851	51.530	0.690	-0.655
-304.837	-34.256	0.130	0.071
-303.822	195.741	-0.343	-0.521
-302.807	800.000	-0.152	0.488
-301.793	305.465	0.381	0.706
-300.778	242.927	-0.126	0.211
-299.764	-180.378	-1.025	0.021
-298.749	-55.902	-0.377	-0.168
-297.735	-139.099	-0.529	-0.057
-296.720	800.000	0.124	-0.385
-295.705	311.737	0.146	-0.273
-294.691	-200.000	-0.017	0.232
-293.676	69.049	-0.032	0.033
-292.662	-200.000	0.055	-0.271
-291.647	130.979	-0.406	-0.520
-290.632	99.943	-0.214	0.248
-289.618	-51.945	-0.713	-0.331
-288.603	-68.542	0.657	0.254
-287.589	-170.905	0.192	0.007
-286.574	-62.563	0.767	-0.318
-285.559	-164.218	-0.155	0.007
-284.545	-5.046	0.379	0.261
-283.530	-200.000	-0.084	0.498
-282.516	212.763	0.255	0.401
-281.501	124.915	0.176	0.221
-280.486	-26.543	-0.377	-0.220
-279.472	158.429	0.128	0.177
-278.457	-21.561	0.387	0.235
-277.443	-130.559	0.116	-0.016
-276.428	-200.000	0.203	1.018
-275.413	735.192	-0.105	0.282
-274.399	193.574	-0.205	0.310
-273.384	-200.000	0.094	0.636
-272.370	183.233	-0.097	0.143
-271.355	259.626	0.321	-0.553
-270.340	4.266	0.450	0.329
-269.326	277.387	-0.276	-0.490
-268.311	164.856	-0.278	0.391
-267.297	-33.488	0.418	0.231
-266.282	-200.000	0.036	-0.317
-265.267	390.586	-0.287	0.593
-264.253	92.493	0.733	0.824
-263.238	81.075	-0.084	0.090
-262.224	-15.142	-0.080	0.051
-261.209	-28.136	-0.479	0.276
-260.195	800.000	0.142	0.494
-259.180	800.000	-0.060	0.195
-258.165	129.322	-0.415	-0.528
-257.151	-200.000	0.148	0.719
-256.136	-32.355	-0.646	0.360
-255.122	-124.932	0.901	0.138
-254.107	299.685	-0.291	-0.535
-253.092	-78.701	0.434	-0.148
-252.078	42.767	0.711	0.646
-251.063	-87.742	-0.364	0.110
-250.049	-27.943	-1.114	0.643
-249.034	-200.000	0.054	0.346
-248.019	-160.113	-1.098	-0.059
-247.005	-141.376	-0.443	-0.045
-245.990	800.000	-0.188	-0.550
-244.976	-200.000	0.054	0.398
-243.961	-200.000	0.051	0.307
-242.946	-200.000	-0.033	-0.347
-241.932	-38.278	-0.723	0.382
-240.917	-93.864	-0.439	0.120
-239.903	-79.662	0.759	-0.255
-238.888	-200.000	0.065	-0.584
-237.873	36.383	0.587	0.516
-236.859	92.401	-0.455	-0.511
-235.844	138.196	-0.271	-0.354
-234.830	-66.449	0.624	0.247
-233.815	-46.710	-0.398	0.194
-232.800	-200.000	0.001	0.458
-231.786	225.815	0.186	0.300
-230.771	-200.000	-0.065	-0.703
-229.757	-82.650	-0.967	-0.312
-228.742	682.925	-0.185	0.480
-227.727	79.476	0.500	-0.534
-226.713	425.921	-0.123	0.263
-225.698	285.441	-0.227	0.408
-224.684	-62.011	-0.364	0.152
-223.669	-200.000	0.129	1.221
-222.655	800.000	0.169	0.601
-221.640	-71.569	0.571	0.212
-220.625	70.837	0.158	0.163
-219.611	-42.180	0.546	-0.278
-218.596	108.281	-0.353	0.419
-217.582	-200.000	0.024	0.236
-216.567	-145.168	0.651	0.059
-215.552	800.000	0.211	0.728
-214.538	-37.602	-0.364	0.193
-213.523	-60.844	-0.574	-0.242
-212.509	258.524	-0.239	-0.410
-211.494	64.728	0.264	0.265
-210.479	24.029	-0.591	0.485
-209.465	-200.000	-0.063	-0.376
-208.450	-85.714	-0.713	0.220
-207.436	259.455	-0.283	-0.487
-206.421	-200.000	0.115	-0.567
-205.406	111.378	-0.490	0.588
-204.392	466.526	-0.036	0.080
-203.377	800.000	0.106	0.317
-202.363	-127.795	0.247	-0.035
-201.348	800.000	0.383	-1.394
-200.333	304.530	-0.461	0.851
-199.319	-61.113	0.350	-0.147
-198.304	24.859	-0.285	0.235
-197.290	-76.067	0.906	0.319
-196.275	-200.000	-0.121	0.677
-195.260	-63.840	-0.419	-0.171
-194.246	169.485	0.448	0.636
-193.231	37.830	-0.288	0.254
-192.217	788.628	0.284	0.777
-191.202	115.423	-0.633	0.770
-190.187	-54.244	1.139	-0.514
-189.173	29.002	0.486	-0.410
-188.158	102.607	0.227	0.264
-187.144	800.000	-0.296	0.828
-186.129	-79.283	-0.306	0.103
-185.114	-27.187	0.870	0.504
-184.100	48.816	0.771	-0.719
-183.085	-81.575	0.544	-0.178
-182.071	389.029	0.271	0.557
-181.056	-52.316	0.510	0.235
-180.042	555.790	0.161	-0.384
-179.027	10.300	0.331	0.250
-178.012	-200.000	0.026	-0.512
-176.998	-27.307	-0.126	0.073
-175.983	113.569	-0.221	0.267
-174.969	232.387	-0.146	-0.239
-173.954	87.642	-0.311	0.343
-172.939	-150.790	-0.372	-0.028
-171.925	328.963	-0.360	-0.687
-170.910	-154.240	0.855	0.057
-169.896	-49.186	0.522	-0.248
-168.881	522.666	-0.229	-0.534
-167.866	137.760	-0.661	-0.860
-166.852	-200.000	-0.000	-0.637
-165.837	124.682	0.083	0.104
-164.823	252.248	0.110	0.186
-163.808	800.000	-0.063	-0.184
-162.793	-125.051	0.314	0.048
-161.779	-126.880	1.043	0.153
-160.764	169.052	-0.204	0.289
-159.750	800.000	0.043	-0.133
-158.735	-200.000	-0.027	-0.207
-157.720	149.736	-0.295	0.397
-156.706	-200.000	0.075	0.574
-155.691	341.527	0.215	0.417
-154.677	-200.000	-0.018	0.272
-153.662	483.099	0.236	-0.532
-152.647	424.155	-0.118	-0.253
-151.633	257.187	-0.247	0.421
-150.618	-95.616	-0.187	-0.050
-149.604	7.549	0.283	-0.210
-148.589	-18.933	-0.126	0.078
-147.574	46.849	-0.169	0.156
-146.560	-180.769	1.106	0.022
-145.545	263.230	-0.385	-0.665
-144.531	-200.000	-0.027	-0.191
-143.516	-118.717	0.700	0.122
-142.502	611.734	-0.237	-0.588
-141.487	218.663	0.478	-0.758
-140.472	-72.306	-0.485	-0.178
-139.458	-21.379	0.355	-0.215
-138.443	-112.699	0.184	-0.036
-137.429	-39.173	-0.526	-0.274
-136.414	-98.452	-1.375	-0.349
-135.399	-140.441	-0.390	0.040
-134.385	-17.156	0.170	-0.106
-133.370	-200.000	0.022	0.520
-132.356	254.566	0.506	0.859
-131.341	356.875	0.327	-0.646
-130.326	150.019	0.250	0.336
-129.312	-1.289	-0.596	0.418
-128.297	220.589	0.312	-0.497
-127.283	-200.000	-0.040	0.536
-126.268	-141.895	-0.381	0.038
-125.253	-200.000	0.209	-0.950
-124.239	-116.816	-0.509	-0.093
-123.224	-124.898	-0.301	0.046
-122.210	-35.567	1.044	0.562
-121.195	74.669	-0.553	0.577
