DTS Sentinel unit serial number:	SN413079Multiplexer serial number:	ORYXHardware model number:	OX4-SRSoftware version number:	ORYX F/W v4.00 Oryx Data Collector v3.7.2.0data status	okinstallation	princeton_trtdifferential loss correction	single-endedforward channel	channel 4reverse channel	N/Adate	2019/09/15time	05:21:35forward acquisition time	60.00reverse acquisition time	0.00gamma	496.2192k internal	0.2312k external	0.2312temperature offset calibration	1.0035default loss term (dB/km)	0.3790temperature slope calibration	1.0000multiplexer offset coefficient	1.0000multiplexer slope coefficient	1.0000fibre end	0.00T internal ref (°C)	30.59T ext. ref 1 (°C)	4.79T ext. ref 2 (°C)	25.61length (m)	temperature (°C)	Stokes	anti-Stokes-747.200	-200.000	0.024	0.130
-746.185	-200.000	-0.007	0.053
-745.171	77.706	-0.086	-0.093
-744.156	437.806	-0.076	0.168
-743.142	22.336	0.209	-0.173
-742.127	-150.197	0.359	0.028
-741.112	89.068	-0.144	0.162
-740.098	234.969	0.157	0.262
-739.083	-122.650	0.349	-0.057
-738.069	559.577	-0.026	0.065
-737.054	-200.000	0.007	0.054
-736.039	278.530	-0.157	0.284
-735.025	-50.468	-0.094	0.045
-734.010	-129.553	-0.165	-0.023
-732.996	49.081	-0.160	-0.153
-731.981	40.485	-0.193	-0.176
-730.966	-95.127	-0.218	0.060
-729.952	-37.592	-0.315	-0.170
-728.937	-30.012	-0.083	0.048
-727.923	1.907	-0.062	-0.045
-726.908	8.215	-0.254	0.194
-725.894	623.867	-0.141	-0.362
-724.879	-92.157	-0.089	0.026
-723.864	122.651	-0.156	-0.198
-722.850	-200.000	0.034	-0.410
-721.835	-200.000	0.148	0.001
-720.821	-200.000	-0.068	0.310
-719.806	-200.000	0.044	0.229
-718.791	-92.591	-0.157	-0.045
-717.777	-3.896	-0.227	-0.160
-716.762	332.223	-0.068	0.133
-715.748	-154.484	-0.224	0.015
-714.733	325.357	-0.171	0.331
-713.718	-115.111	-0.351	0.068
-712.704	66.491	0.069	-0.071
-711.689	-71.367	0.155	0.059
-710.675	-6.371	-0.335	-0.232
-709.660	30.954	-0.159	0.138
-708.645	467.172	0.072	-0.165
-707.631	-200.000	-0.011	-0.537
-706.616	191.777	-0.174	-0.266
-705.602	101.345	0.132	-0.156
-704.587	11.548	-0.066	-0.052
-703.572	-86.414	-0.195	0.061
-702.558	421.417	-0.098	0.213
-701.543	-97.539	0.224	0.059
-700.529	656.205	-0.055	0.143
-699.514	800.000	-0.089	0.377
-698.499	-58.273	-0.137	0.060
-697.485	-74.330	-0.108	0.040
-696.470	3.879	-0.261	0.193
-695.456	403.556	-0.083	-0.178
-694.441	3.875	0.032	-0.024
-693.426	-67.538	0.229	-0.091
-692.412	-3.973	-0.223	0.156
-691.397	-76.268	-0.257	0.092
-690.383	-94.701	-0.255	0.070
-689.368	-200.000	-0.007	0.192
-688.354	-61.183	-0.194	-0.083
-687.339	-200.000	-0.042	-0.202
-686.324	312.797	-0.055	-0.105
-685.310	285.996	0.007	0.013
-684.295	122.771	0.201	-0.255
-683.281	-141.880	0.253	-0.026
-682.266	130.515	-0.045	-0.059
-681.251	-96.718	-0.210	0.056
-680.237	453.745	-0.073	0.164
-679.222	-135.521	0.140	0.017
-678.208	800.000	0.044	-0.137
-677.193	112.481	0.218	-0.267
-676.178	-200.000	0.029	0.195
-675.164	-200.000	-0.020	-0.348
-674.149	127.962	0.188	0.242
-673.135	-167.630	0.134	-0.005
-672.120	-154.736	0.279	0.019
-671.105	372.723	-0.108	-0.222
-670.091	-141.410	-0.195	-0.020
-669.076	-30.069	0.222	-0.128
-668.062	191.131	0.102	0.155
-667.047	29.952	0.137	-0.118
-666.032	20.205	0.102	-0.083
-665.018	800.000	-0.051	0.151
-664.003	181.954	-0.184	-0.274
-662.989	-200.000	0.076	-0.489
-661.974	-119.877	-0.430	0.075
-660.959	-81.630	0.185	0.062
-659.945	800.000	-0.068	0.261
-658.930	-97.835	-0.324	-0.085
-657.916	-26.466	0.171	0.101
-656.901	250.040	-0.089	0.152
-655.886	196.617	-0.204	-0.315
-654.872	-50.657	-0.054	-0.026
-653.857	-22.832	-0.272	-0.166
-652.843	-48.508	-0.111	0.054
-651.828	-152.810	0.346	0.025
-650.814	-65.847	0.184	-0.074
-649.799	628.738	0.093	0.239
-648.784	800.000	0.073	-0.316
-647.770	-4.311	-0.138	0.097
-646.755	-14.509	-0.334	-0.217
-645.741	2.330	0.144	-0.105
-644.726	-67.453	-0.045	0.018
-643.711	268.708	0.072	0.127
-642.697	-71.177	-0.215	-0.082
-641.682	800.000	0.021	-0.071
-640.668	302.111	-0.114	0.214
-639.653	221.787	0.129	0.209
-638.638	137.177	0.070	0.092
-637.624	-113.969	-0.407	0.080
-636.609	-135.375	-0.198	0.024
-635.595	800.000	0.056	-0.170
-634.580	800.000	0.102	-0.397
-633.565	158.163	0.167	-0.234
-632.551	800.000	-0.124	-0.361
-631.536	-107.498	0.147	0.033
-630.522	203.905	-0.120	0.188
-629.507	800.000	0.050	0.215
-628.492	29.359	-0.123	-0.106
-627.478	-110.066	-0.175	-0.037
-626.463	-83.668	-0.220	0.071
-625.449	-200.000	-0.002	-0.364
-624.434	800.000	0.078	-0.282
-623.419	800.000	-0.079	-0.224
-622.405	-185.420	-0.158	-0.002
-621.390	290.599	0.096	0.176
-620.376	478.076	0.124	0.284
-619.361	-200.000	-0.007	0.075
-618.346	-103.001	0.208	-0.050
-617.332	-87.360	-0.150	0.046
-616.317	800.000	0.065	-0.200
-615.303	-65.106	0.396	0.161
-614.288	-104.702	-0.318	0.074
-613.273	104.038	-0.049	-0.059
-612.259	800.000	0.024	0.085
-611.244	56.304	-0.243	0.239
-610.230	9.589	0.157	0.120
-609.215	-200.000	-0.100	0.472
-608.201	800.000	0.032	0.113
-607.186	-200.000	-0.052	0.386
-606.171	800.000	0.021	0.089
-605.157	3.659	-0.443	-0.326
-604.142	584.968	0.068	0.170
-603.128	303.254	-0.282	-0.528
-602.113	35.462	-0.301	0.266
-601.098	6.607	-0.162	0.121
-600.084	-200.000	-0.014	0.105
-599.069	-200.000	0.072	0.324
-598.055	207.194	-0.098	-0.154
-597.040	-200.000	0.008	0.194
-596.025	39.083	-0.233	-0.210
-595.011	-26.368	0.190	0.113
-593.996	-13.341	-0.374	0.245
-592.982	650.637	0.034	0.088
-591.967	271.743	-0.041	0.072
-590.952	241.553	-0.119	0.200
-589.938	800.000	0.005	-0.015
-588.923	289.404	-0.130	-0.237
-587.909	800.000	-0.094	0.268
-586.894	345.401	-0.085	0.169
-585.879	140.146	-0.114	0.151
-584.865	30.468	0.082	0.071
-583.850	-76.762	-0.198	-0.070
-582.836	113.292	0.154	-0.188
-581.821	-119.164	-0.233	0.041
-580.806	-149.411	-0.195	0.016
-579.792	-46.881	0.177	0.087
-578.777	-200.000	0.017	-0.197
-577.763	-145.569	0.242	-0.022
-576.748	-80.363	0.192	0.065
-575.733	724.090	0.177	-0.477
-574.719	205.447	-0.168	0.263
-573.704	88.617	-0.141	0.158
-572.690	-26.695	0.399	-0.235
-571.675	442.498	-0.044	0.096
-570.661	-17.733	-0.516	0.326
-569.646	-153.417	-0.262	0.018
-568.631	157.185	-0.025	0.035
-567.617	328.440	0.058	-0.112
-566.602	29.751	-0.104	-0.090
-565.588	800.000	-0.059	-0.175
-564.573	-42.141	-0.290	0.149
-563.558	800.000	-0.035	0.115
-562.544	-132.187	-0.065	0.008
-561.529	102.969	0.068	0.080
-560.515	-200.000	-0.018	0.098
-559.500	800.000	0.094	-0.278
-558.485	800.000	0.054	-0.189
-557.471	-200.000	-0.000	0.116
-556.456	-200.000	0.016	-0.075
-555.442	334.582	0.178	0.348
-554.427	800.000	0.044	-0.127
-553.412	-200.000	0.002	-0.048
-552.398	-42.623	0.290	0.149
-551.383	-66.955	-0.155	0.062
-550.369	-77.426	0.153	-0.053
-549.354	-138.822	-0.120	-0.013
-548.339	7.528	-0.227	0.171
-547.325	-156.196	0.275	0.017
-546.310	610.670	-0.074	-0.187
-545.296	174.049	-0.254	-0.370
-544.281	-6.719	0.032	-0.022
-543.266	47.512	-0.338	-0.318
-542.252	-200.000	0.029	-0.328
-541.237	-200.000	-0.037	-0.368
-540.223	41.941	-0.142	-0.129
-539.208	800.000	-0.049	-0.165
-538.193	-84.739	-0.210	-0.067
-537.179	-147.914	-0.243	0.020
-536.164	-200.000	-0.021	-0.289
-535.150	372.128	0.204	-0.417
-534.135	-60.931	-0.103	0.044
-533.121	-108.045	0.209	0.046
-532.106	-200.000	0.052	-0.369
-531.091	800.000	-0.104	0.315
-530.077	580.780	-0.002	-0.006
-529.062	207.330	0.157	0.246
-528.048	-10.134	0.266	-0.178
-527.033	151.627	0.123	0.168
-526.018	-196.920	0.197	-0.001
-525.004	-200.000	-0.050	-0.518
-523.989	321.097	-0.125	0.239
-522.975	-200.000	0.028	-0.141
-521.960	369.023	-0.110	0.223
-520.945	-115.283	-0.153	-0.029
-519.931	608.320	0.056	-0.141
-518.916	-200.000	-0.286	0.000
-517.902	102.668	0.190	0.224
-516.887	40.377	0.027	0.025
-515.872	445.111	-0.123	0.272
-514.858	-52.161	0.313	-0.146
-513.843	-26.038	0.145	-0.086
-512.829	-200.000	-0.006	0.676
-511.814	-68.746	0.259	0.101
-510.799	137.360	0.021	0.028
-509.785	800.000	0.023	-0.091
-508.770	55.241	0.055	0.054
-507.756	800.000	0.122	0.360
-506.741	-167.406	0.230	0.009
-505.726	-200.000	-0.005	0.050
-504.712	-200.000	0.011	-0.248
-503.697	-122.149	-0.246	-0.041
-502.683	-200.000	0.024	-0.262
-501.668	3.117	-0.110	-0.080
-500.653	-200.000	-0.021	0.171
-499.639	-60.976	0.087	0.037
-498.624	-200.000	0.023	-0.114
-497.610	378.016	0.109	-0.224
-496.595	-200.000	-0.043	-0.229
-495.581	800.000	0.029	0.095
-494.566	-146.649	0.047	0.004
-493.551	-27.912	0.113	0.066
-492.537	116.474	-0.058	0.071
-491.522	800.000	-0.050	0.209
-490.508	410.708	-0.070	0.150
-489.493	50.583	-0.005	-0.005
-488.478	299.770	-0.129	0.238
-487.464	443.642	0.097	0.213
-486.449	107.626	0.156	-0.187
-485.435	-141.455	-0.119	-0.012
-484.420	-39.715	0.050	0.026
-483.405	800.000	0.009	-0.029
-482.391	800.000	-0.035	0.122
-481.376	-76.122	-0.219	-0.078
-480.362	10.168	0.278	-0.212
-479.347	72.806	-0.170	0.178
-478.332	-55.289	0.209	0.094
-477.318	433.537	-0.132	0.289
-476.303	800.000	0.098	-0.297
-475.289	-200.000	0.010	-0.131
-474.274	-200.000	-0.092	0.468
-473.259	310.035	0.048	-0.090
-472.245	-126.714	0.193	-0.029
-471.230	-41.038	0.197	-0.102
-470.216	-200.000	0.067	-0.380
-469.201	179.755	-0.066	-0.097
-468.186	168.510	-0.032	-0.046
-467.172	-67.511	0.360	-0.142
-466.157	-200.000	-0.000	0.008
-465.143	69.297	0.245	-0.253
-464.128	-7.950	-0.043	0.029
-463.113	-60.911	0.263	-0.112
-462.099	501.058	0.067	-0.155
-461.084	8.258	0.287	0.216
-460.070	34.485	-0.146	0.128
-459.055	-36.920	0.258	-0.139
-458.040	-8.793	-0.048	-0.032
-457.026	84.848	-0.162	0.178
-456.011	4.980	-0.121	-0.089
-454.997	621.339	-0.102	0.258
-453.982	-200.000	0.028	0.172
-452.968	-162.889	0.166	-0.008
-451.953	-112.428	0.204	0.041
-450.938	90.024	-0.130	-0.146
-449.924	96.343	0.129	0.148
-448.909	3.674	-0.191	-0.140
-447.895	-200.000	0.080	0.361
-446.880	-4.603	-0.160	-0.111
-445.865	19.119	0.261	-0.210
-444.851	542.527	-0.024	-0.058
-443.836	27.851	-0.214	0.181
-442.822	-101.144	0.342	-0.084
-441.807	27.006	0.065	-0.054
-440.792	96.512	0.151	0.174
-439.778	509.352	0.112	0.260
-438.763	763.914	0.021	0.057
-437.749	-69.453	0.109	0.042
-436.734	691.944	-0.116	0.304
-435.719	-102.516	-0.058	0.014
-434.705	70.520	-0.150	-0.155
-433.690	-26.824	0.167	-0.098
-432.676	-200.000	0.018	0.144
-431.661	203.739	-0.069	0.108
-430.646	318.658	-0.065	-0.124
-429.632	57.221	0.226	-0.221
-428.617	-22.039	-0.128	-0.078
-427.603	800.000	-0.069	0.275
-426.588	800.000	-0.089	0.303
-425.573	-200.000	-0.003	-0.044
-424.559	442.979	0.055	-0.121
-423.544	-112.602	0.193	0.038
-422.530	6.385	-0.218	-0.162
-421.515	800.000	-0.055	0.173
-420.500	107.991	-0.034	0.041
-419.486	-200.000	-0.044	-0.416
-418.471	44.546	0.182	0.168
-417.457	6.450	-0.120	-0.090
-416.442	-116.779	0.218	-0.040
-415.428	125.204	-0.152	0.192
-414.413	-114.421	0.193	0.037
-413.398	39.932	0.074	-0.067
-412.384	-200.000	0.009	-0.080
-411.369	-118.406	-0.058	0.010
-410.355	182.905	0.193	0.285
-409.340	800.000	-0.040	-0.124
-408.325	28.839	-0.117	0.099
-407.311	93.682	-0.313	-0.355
-406.296	-85.719	0.309	0.096
-405.282	27.636	-0.318	-0.268
-404.267	272.450	0.025	0.045
-403.252	108.506	0.219	0.262
-402.238	-125.496	-0.198	-0.030
-401.223	-40.157	-0.271	-0.142
-400.209	22.467	0.223	0.182
-399.194	-72.780	-0.149	-0.055
-398.179	-200.000	0.080	-0.378
-397.165	49.998	0.033	-0.031
-396.150	-200.000	0.038	0.383
-395.136	20.624	-0.158	0.128
-394.121	33.112	-0.230	-0.199
-393.106	-164.932	-0.280	0.013
-392.092	265.037	-0.042	0.073
-391.077	243.966	-0.080	-0.135
-390.063	15.877	0.074	-0.058
-389.048	-65.746	-0.045	0.018
-388.033	-13.918	-0.139	0.090
-387.019	375.901	-0.040	-0.081
-386.004	158.817	-0.039	-0.055
-384.990	-121.607	0.284	0.047
-383.975	-75.865	-0.086	-0.030
-382.960	374.561	0.085	-0.174
-381.946	-96.404	-0.314	0.083
-380.931	34.521	-0.129	0.113
-379.917	-66.678	0.225	-0.089
-378.902	-200.000	0.036	0.312
-377.888	-9.289	0.408	0.273
-376.873	775.465	0.062	0.168
-375.858	325.559	-0.079	-0.152
-374.844	-148.933	-0.354	-0.029
-373.829	-123.476	0.350	0.056
-372.815	415.439	-0.142	-0.302
-371.800	-101.386	0.074	0.018
-370.785	800.000	-0.044	-0.164
-369.771	-155.324	-0.302	0.020
-368.756	-55.717	0.326	-0.146
-367.742	-14.987	0.060	0.038
-366.727	-105.937	-0.425	0.096
-365.712	-68.131	0.305	-0.119
-364.698	-200.000	0.050	0.223
-363.683	174.810	0.037	-0.053
-362.669	-85.675	0.090	-0.028
-361.654	-1.525	0.287	-0.202
-360.639	-148.131	0.022	-0.002
-359.625	-138.274	-0.257	-0.028
-358.610	-51.472	0.224	0.105
-357.596	140.784	-0.106	-0.141
-356.581	-45.707	-0.156	0.077
-355.566	-27.531	-0.138	0.080
-354.552	-122.702	0.166	0.027
-353.537	-37.945	-0.139	0.074
-352.523	-200.000	-0.012	-0.166
-351.508	23.185	0.185	-0.152
-350.493	-75.075	0.407	0.146
-349.479	52.026	-0.183	0.174
-348.464	410.740	-0.105	0.222
-347.450	71.436	0.112	-0.116
-346.435	-118.802	0.311	-0.055
-345.420	9.361	-0.236	-0.178
-344.406	-102.543	-0.106	0.025
-343.391	-200.000	0.021	-0.305
-342.377	200.541	-0.074	0.114
-341.362	-140.746	0.442	0.046
-340.348	-138.018	0.284	0.032
-339.333	800.000	0.027	0.089
-338.318	196.449	0.029	-0.045
-337.304	97.879	0.080	0.092
-336.289	-200.000	-0.009	0.105
-335.275	-4.020	0.242	-0.168
-334.260	-91.858	-0.205	0.058
-333.245	4.579	0.090	0.066
-332.231	-85.564	0.092	0.029
-331.216	240.709	0.098	0.164
-330.202	105.746	-0.017	-0.020
-329.187	363.577	-0.058	-0.116
-328.172	-58.064	-0.437	-0.190
-327.158	239.849	0.110	-0.183
-326.143	-200.000	0.016	-0.191
-325.129	-200.000	-0.101	-0.654
-324.114	66.652	-0.079	-0.080
-323.099	-40.790	0.354	-0.183
-322.085	-200.000	0.001	-0.236
-321.070	-30.652	-0.139	-0.078
-320.056	-109.558	0.133	0.028
-319.041	-159.575	-0.148	0.008
-318.026	65.048	0.173	-0.174
-317.012	179.691	-0.099	0.144
-315.997	-87.258	0.284	0.086
-314.983	558.007	0.075	-0.180
-313.968	376.433	-0.037	0.075
-312.953	-61.350	-0.191	0.080
-311.939	-60.188	0.271	-0.115
-310.924	-186.479	0.159	0.002
-309.910	-200.000	0.008	0.061
-308.895	122.399	0.086	0.108
-307.880	-200.000	0.016	0.107
-306.866	-30.402	-0.283	-0.160
-305.851	179.706	0.049	-0.071
-304.837	70.787	-0.158	0.163
-303.822	142.422	-0.214	0.284
-302.807	-60.793	-0.166	0.070
-301.793	392.690	-0.108	0.224
-300.778	-32.416	-0.070	0.039
-299.764	-66.145	-0.267	0.106
-298.749	-200.000	-0.034	-0.282
-297.735	111.316	0.180	-0.216
-296.720	38.452	0.207	0.184
-295.705	290.668	-0.134	0.243
-294.691	-69.853	-0.317	-0.121
-293.676	320.383	-0.054	0.103
-292.662	15.543	-0.232	-0.182
-291.647	102.523	0.070	-0.082
-290.632	190.073	0.067	-0.101
-289.618	-200.000	0.062	0.379
-288.603	248.797	-0.127	0.215
-287.589	-200.000	-0.017	0.094
-286.574	-200.000	-0.001	-0.301
-285.559	-139.922	0.178	0.019
-284.545	1.864	-0.278	-0.200
-283.530	-200.000	0.023	0.114
-282.516	165.055	-0.020	0.028
-281.501	116.048	-0.122	0.149
-280.486	9.934	0.192	-0.145
-279.472	-200.000	0.042	-0.195
-278.457	78.800	-0.139	-0.149
-277.443	-101.331	0.178	-0.043
-276.428	800.000	0.124	0.344
-275.413	227.816	-0.094	0.153
-274.399	-200.000	-0.073	0.433
-273.384	-200.000	-0.037	0.324
-272.370	72.389	-0.049	0.051
-271.355	-200.000	-0.008	-0.060
-270.340	544.277	0.065	-0.154
-269.326	-200.000	0.034	0.177
-268.311	-29.925	-0.282	-0.160
-267.297	214.511	0.109	-0.172
-266.282	7.145	-0.052	-0.039
-265.267	-200.000	-0.047	0.328
-264.253	268.562	0.050	0.087
-263.238	89.455	0.088	-0.098
-262.224	-49.147	-0.183	0.087
-261.209	800.000	-0.038	0.108
-260.195	-159.653	-0.318	0.018
-259.180	-74.162	0.052	0.019
-258.165	800.000	-0.028	-0.105
-257.151	31.804	0.227	0.194
-256.136	-91.700	-0.276	0.078
-255.122	92.615	-0.173	-0.195
-254.107	800.000	-0.075	0.240
-253.092	3.281	0.294	-0.213
-252.078	800.000	-0.045	-0.152
-251.063	-200.000	0.001	0.141
-250.049	-139.333	0.146	0.016
-249.034	-200.000	0.018	0.125
-248.019	-200.000	0.033	-0.557
-247.005	33.932	-0.133	-0.115
-245.990	-82.747	-0.128	0.041
-244.976	-188.657	0.127	-0.002
-243.961	-163.395	0.157	0.007
-242.946	282.149	0.067	-0.120
-241.932	-114.265	0.154	-0.030
-240.917	-86.478	-0.071	-0.022
-239.903	-107.420	0.113	-0.025
-238.888	800.000	-0.103	-0.308
-237.873	34.188	0.154	-0.134
-236.859	52.163	0.210	-0.200
-235.844	-200.000	0.002	0.412
-234.830	-114.771	0.217	0.041
-233.815	800.000	0.024	-0.092
-232.800	434.834	0.051	0.110
-231.786	521.733	-0.089	0.208
-230.771	307.407	0.023	-0.042
-229.757	724.122	0.131	-0.347
-228.742	-106.348	0.128	0.028
-227.727	208.084	0.235	0.365
-226.713	-200.000	0.051	-0.247
-225.698	107.517	0.029	-0.035
-224.684	221.274	0.074	-0.119
-223.669	-167.843	-0.315	0.012
-222.655	25.828	0.121	0.101
-221.640	206.826	-0.085	-0.132
-220.625	742.211	-0.096	0.256
-219.611	214.957	-0.068	-0.107
-218.596	-38.131	-0.045	-0.024
-217.582	-114.646	-0.187	-0.036
-216.567	-146.214	0.196	-0.017
-215.552	-148.137	0.253	0.021
-214.538	101.565	0.183	-0.212
-213.523	65.909	0.371	0.373
-212.509	-200.000	0.070	-0.339
-211.494	-138.407	0.086	-0.009
-210.479	111.475	-0.137	0.164
-209.465	-152.011	0.238	0.017
-208.450	-30.061	-0.093	0.052
-207.436	-121.083	-0.176	-0.029
-206.421	800.000	-0.046	0.194
-205.406	-200.000	0.001	-0.092
-204.392	-200.000	-0.012	-0.256
-203.377	800.000	0.096	-0.369
-202.363	800.000	-0.044	0.142
-201.348	-200.000	0.006	-0.236
-200.333	615.052	0.103	-0.257
-199.319	-175.927	0.091	0.002
-198.304	-200.000	0.036	0.399
-197.290	464.722	-0.045	0.100
-196.275	-200.000	-0.115	0.001
-195.260	108.208	0.046	0.054
-194.246	-37.094	0.061	-0.032
-193.231	161.206	0.077	0.107
-192.217	760.841	-0.101	0.273
-191.202	206.388	0.087	-0.134
-190.187	37.815	0.021	-0.018
-189.173	-10.378	0.197	-0.129
-188.158	376.519	0.120	0.242
-187.144	-200.000	0.021	0.185
-186.129	486.441	-0.084	-0.190
-185.114	91.187	-0.107	-0.119
-184.100	-148.920	-0.075	-0.006
-183.085	-70.202	0.124	-0.047
-182.071	164.703	0.253	0.354
-181.056	800.000	-0.105	0.371
-180.042	170.182	0.179	0.254
-179.027	240.339	0.064	-0.106
-178.012	71.292	0.028	-0.029
-176.998	-112.327	-0.097	-0.019
-175.983	-200.000	0.007	-0.518
-174.969	-200.000	-0.037	0.282
-173.954	800.000	0.057	-0.189
-172.939	-59.683	-0.263	-0.112
-171.925	-15.897	-0.147	0.093
-170.910	-98.394	-0.077	0.020
-169.896	800.000	0.090	0.296
-168.881	-200.000	0.036	0.233
-167.866	-200.000	0.010	0.199
-166.852	-66.255	0.164	0.065
-165.837	-46.973	-0.175	-0.085
-164.823	221.447	-0.081	0.130
-163.808	9.817	-0.300	-0.226
-162.793	-200.000	0.019	0.000
-161.779	-183.117	0.291	0.005
-160.764	-85.552	0.272	-0.084
-159.750	613.127	0.130	-0.324
-158.735	-84.437	0.064	0.020
-157.720	18.690	0.181	0.144
-156.706	149.959	-0.170	-0.228
-155.691	-200.000	-0.069	-0.334
-154.677	-106.330	-0.407	-0.090
-153.662	-200.000	0.002	0.397
-152.647	405.119	-0.051	0.107
-151.633	-200.000	0.026	-0.185
-150.618	-80.920	0.101	-0.033
-149.604	635.900	-0.084	0.211
-148.589	-200.000	-0.015	0.171
-147.574	-58.607	0.187	0.080
-146.560	-200.000	0.026	0.334
-145.545	-200.000	-0.001	0.252
-144.531	-53.084	0.274	-0.125
-143.516	390.931	-0.031	-0.064
-142.502	-67.833	-0.244	0.095
-141.487	-200.000	-0.001	0.101
-140.472	5.480	-0.122	0.089
-139.458	153.020	-0.118	-0.160
-138.443	800.000	0.044	-0.178
-137.429	89.959	-0.137	-0.152
-136.414	-200.000	0.019	0.154
-135.399	-97.893	0.209	0.054
-134.385	-31.981	0.302	0.168
-133.370	133.840	0.229	0.294
-132.356	-3.506	0.319	-0.220
-131.341	-200.000	0.017	-0.172
-130.326	50.702	0.160	0.151
-129.312	405.218	-0.089	0.185
-128.297	800.000	-0.015	-0.046
-127.283	191.580	-0.206	-0.308
-126.268	-200.000	-0.003	0.250
-125.253	77.522	0.062	0.065
-124.239	96.459	-0.039	0.044
-123.224	-200.000	0.009	0.220
-122.210	-200.000	-0.003	0.199
-121.195	-200.000	-0.054	0.268
-120.180	-135.992	-0.156	-0.018
