DTS Sentinel unit serial number:	SN413079Multiplexer serial number:	ORYXHardware model number:	OX4-SRSoftware version number:	ORYX F/W v4.00 Oryx Data Collector v3.7.2.0data status	okinstallation	princeton_trtdifferential loss correction	single-endedforward channel	channel 4reverse channel	N/Adate	2019/09/11time	02:47:11forward acquisition time	60.00reverse acquisition time	0.00gamma	496.2192k internal	0.2317k external	0.2317temperature offset calibration	0.9947default loss term (dB/km)	0.3790temperature slope calibration	1.0000multiplexer offset coefficient	1.0000multiplexer slope coefficient	1.0000fibre end	0.00T internal ref (°C)	29.25T ext. ref 1 (°C)	-0.30T ext. ref 2 (°C)	23.32length (m)	temperature (°C)	Stokes	anti-Stokes-747.200	-50.116	0.295	0.142
-746.185	-163.291	-0.412	0.020
-745.171	-149.830	0.259	-0.021
-744.156	-200.000	0.007	0.342
-743.142	-167.841	0.072	0.003
-742.127	800.000	0.025	0.092
-741.112	99.042	0.244	0.285
-740.098	371.261	0.024	-0.050
-739.083	285.480	-0.098	-0.179
-738.069	800.000	-0.098	0.358
-737.054	-105.837	-0.013	0.003
-736.039	-200.000	-0.005	-0.076
-735.025	250.011	0.028	-0.048
-734.010	56.497	-0.232	-0.229
-732.996	-67.867	-0.467	-0.185
-731.981	614.035	0.058	-0.147
-730.966	-200.000	0.038	0.373
-729.952	18.751	0.048	0.039
-728.937	782.535	0.136	-0.378
-727.923	800.000	-0.040	-0.153
-726.908	466.942	-0.172	-0.391
-725.894	355.678	0.075	-0.150
-724.879	512.376	-0.018	-0.043
-723.864	-61.755	0.356	-0.151
-722.850	-200.000	0.000	-0.098
-721.835	-32.724	0.105	-0.059
-720.821	-44.080	-0.212	-0.108
-719.806	-200.000	-0.069	-0.350
-718.791	-200.000	-0.009	0.160
-717.777	-98.920	0.183	-0.047
-716.762	800.000	0.062	-0.175
-715.748	-200.000	-0.014	-0.102
-714.733	-200.000	0.036	-0.430
-713.718	484.117	0.060	0.138
-712.704	-39.666	0.070	-0.037
-711.689	-42.168	0.197	-0.102
-710.675	-200.000	-0.017	0.238
-709.660	-33.299	-0.300	-0.168
-708.645	-120.970	0.120	-0.020
-707.631	-200.000	0.043	0.298
-706.616	-97.514	-0.265	0.070
-705.602	244.230	-0.162	-0.275
-704.587	-179.671	-0.044	-0.001
-703.572	-56.579	-0.070	0.031
-702.558	-91.661	0.141	-0.041
-701.543	53.320	-0.131	-0.127
-700.529	800.000	-0.114	0.349
-699.514	-152.359	0.410	0.030
-698.499	141.457	-0.183	-0.245
-697.485	360.854	0.157	-0.319
-696.470	-200.000	-0.018	-0.211
-695.456	-200.000	-0.012	-0.057
-694.441	-65.437	-0.225	0.092
-693.426	224.951	-0.042	-0.068
-692.412	-200.000	-0.009	0.088
-691.397	-193.608	-0.285	0.002
-690.383	-69.081	-0.141	-0.055
-689.368	-168.845	0.147	0.006
-688.354	-114.831	0.310	-0.060
-687.339	-100.927	-0.134	-0.033
-686.324	-188.244	-0.296	-0.004
-685.310	119.525	-0.070	0.088
-684.295	583.303	0.078	-0.193
-683.281	41.550	-0.171	0.156
-682.266	-93.430	0.243	0.068
-681.251	73.879	-0.256	-0.272
-680.237	-200.000	0.005	-0.183
-679.222	5.236	-0.196	-0.146
-678.208	-75.066	-0.413	-0.149
-677.193	-164.120	0.119	0.006
-676.178	-91.173	-0.272	-0.079
-675.164	-69.179	0.182	0.071
-674.149	120.494	0.068	-0.085
-673.135	800.000	0.017	0.048
-672.120	-99.749	0.194	0.049
-671.105	-200.000	-0.014	-0.250
-670.091	-21.797	-0.242	-0.149
-669.076	527.557	-0.067	0.160
-668.062	-118.115	-0.422	0.076
-667.047	800.000	0.032	0.114
-666.032	-7.208	0.275	-0.188
-665.018	52.192	-0.120	0.115
-664.003	-55.555	-0.194	0.088
-662.989	-143.558	-0.064	0.006
-661.974	511.060	0.052	-0.121
-660.959	-149.603	0.139	0.011
-659.945	319.432	-0.052	-0.100
-658.930	293.379	-0.081	0.149
-657.916	-11.119	-0.162	-0.108
-656.901	-40.910	-0.295	0.154
-655.886	176.788	-0.075	-0.110
-654.872	800.000	0.031	-0.089
-653.857	413.546	-0.098	-0.211
-652.843	92.356	0.132	-0.151
-651.828	61.636	-0.156	-0.156
-650.814	32.269	0.376	-0.327
-649.799	-127.494	0.136	-0.020
-648.784	-87.837	-0.287	0.087
-647.770	54.871	-0.139	-0.136
-646.755	-94.619	0.178	-0.049
-645.741	-158.783	0.045	-0.003
-644.726	-91.719	0.121	0.035
-643.711	-164.552	-0.218	0.010
-642.697	-84.408	-0.567	0.181
-641.682	-200.000	-0.029	0.205
-640.668	-200.000	0.065	-0.379
-639.653	15.795	0.110	-0.088
-638.638	-34.734	-0.070	-0.039
-637.624	207.535	-0.236	-0.371
-636.609	800.000	0.087	-0.291
-635.595	-99.845	0.523	0.132
-634.580	-62.657	-0.164	-0.069
-633.565	-44.409	-0.087	0.044
-632.551	-120.758	-0.193	0.033
-631.536	-200.000	0.013	0.212
-630.522	128.728	0.051	-0.065
-629.507	221.437	-0.074	-0.121
-628.492	-200.000	0.037	0.170
-627.478	-76.299	-0.393	-0.139
-626.463	-36.948	0.137	0.074
-625.449	-8.800	0.053	-0.036
-624.434	261.606	0.059	-0.103
-623.419	-25.673	0.240	-0.143
-622.405	-194.849	0.278	0.002
-621.390	17.383	0.199	-0.160
-620.376	424.531	-0.160	-0.347
-619.361	-54.537	0.235	-0.107
-618.346	-6.270	-0.127	-0.087
-617.332	-78.185	-0.258	0.089
-616.317	554.071	0.107	0.259
-615.303	353.318	0.074	-0.148
-614.288	45.741	-0.238	0.221
-613.273	-20.797	-0.311	0.192
-612.259	198.404	-0.228	-0.351
-611.244	-47.616	-0.042	-0.021
-610.230	-200.000	0.011	0.074
-609.215	-58.144	0.173	-0.076
-608.201	151.131	-0.054	-0.074
-607.186	-146.959	-0.105	0.009
-606.171	128.144	-0.134	0.171
-605.157	-46.719	0.323	-0.159
-604.142	72.717	0.264	-0.278
-603.128	113.119	-0.121	0.148
-602.113	-164.404	-0.298	0.014
-601.098	236.949	-0.200	-0.333
-600.084	-144.626	-0.208	-0.019
-599.069	41.892	-0.143	0.131
-598.055	89.557	-0.132	0.148
-597.040	73.246	-0.225	-0.237
-596.025	800.000	0.003	-0.011
-595.011	281.729	0.089	-0.160
-593.996	-200.000	-0.054	-0.260
-592.982	-95.308	-0.320	-0.087
-591.967	45.396	-0.318	-0.295
-590.952	-48.139	-0.167	0.081
-589.938	-149.098	0.159	0.013
-588.923	-78.307	-0.131	0.045
-587.909	-69.418	-0.381	-0.147
-586.894	-45.241	-0.085	-0.042
-585.879	-148.212	-0.213	0.018
-584.865	-36.243	-0.054	0.030
-583.850	435.044	-0.093	0.204
-582.836	99.651	-0.207	0.241
-581.821	528.818	-0.108	0.257
-580.806	-7.360	0.138	0.094
-579.792	180.578	0.121	-0.179
-578.777	187.073	-0.054	0.081
-577.763	-191.562	0.315	-0.003
-576.748	-177.437	0.159	0.004
-575.733	140.114	0.077	-0.103
-574.719	186.759	0.293	0.439
-573.704	296.827	-0.178	-0.328
-572.690	6.591	-0.064	-0.048
-571.675	-154.612	0.025	-0.002
-570.661	-148.411	0.092	0.008
-569.646	-48.789	-0.224	0.108
-568.631	800.000	-0.101	0.381
-567.617	217.235	-0.128	0.205
-566.602	800.000	0.052	0.156
-565.588	-10.168	-0.321	-0.214
-564.573	800.000	0.038	0.111
-563.558	-81.877	0.271	-0.089
-562.544	727.688	-0.120	0.321
-561.529	800.000	-0.091	-0.281
-560.515	800.000	-0.089	0.330
-559.500	-56.755	-0.206	0.092
-558.485	-115.049	0.226	-0.043
-557.471	5.021	-0.113	-0.083
-556.456	44.998	-0.046	-0.042
-555.442	646.481	-0.055	-0.141
-554.427	42.439	0.301	0.275
-553.412	-84.770	-0.146	-0.046
-552.398	-78.165	0.402	-0.139
-551.383	-105.090	-0.251	-0.058
-550.369	82.243	0.182	-0.198
-549.354	16.214	-0.271	-0.215
-548.339	177.352	0.100	0.146
-547.325	-37.027	-0.077	-0.041
-546.310	39.578	0.235	-0.212
-545.296	183.997	-0.033	-0.049
-544.281	-200.000	-0.043	-0.234
-543.266	-4.641	0.065	0.045
-542.252	-54.846	-0.421	0.191
-541.237	381.048	0.082	-0.169
-540.223	-200.000	-0.013	0.067
-539.208	12.110	-0.078	0.060
-538.193	-56.988	0.140	0.062
-537.179	-195.835	-0.157	0.001
-536.164	110.445	-0.144	-0.174
-535.150	-200.000	0.008	0.168
-534.135	-200.000	-0.001	-0.133
-533.121	-73.496	0.289	-0.106
-532.106	-81.810	0.226	0.074
-531.091	121.942	-0.109	0.136
-530.077	316.129	-0.145	-0.274
-529.062	-21.576	0.382	0.234
-528.048	103.072	0.102	0.121
-527.033	-3.796	-0.394	-0.275
-526.018	-107.687	-0.185	0.041
-525.004	-200.000	0.040	0.259
-523.989	107.049	0.177	-0.211
-522.975	62.709	0.147	-0.148
-521.960	46.098	-0.260	0.242
-520.945	800.000	0.031	-0.136
-519.931	-146.606	0.108	-0.009
-518.916	800.000	0.107	-0.411
-517.902	800.000	0.053	-0.155
-516.887	179.224	-0.128	0.188
-515.872	53.393	-0.062	0.060
-514.858	65.941	0.157	-0.160
-513.843	-153.312	-0.154	-0.011
-512.829	-95.384	-0.150	-0.040
-511.814	-200.000	0.003	0.077
-510.799	156.590	0.066	-0.091
-509.785	-192.604	0.183	0.002
-508.770	96.700	0.178	0.204
-507.756	-170.592	-0.066	0.002
-506.741	100.103	0.176	-0.205
-505.726	-12.051	-0.139	-0.091
-504.712	70.450	0.084	0.087
-503.697	-200.000	0.016	-0.119
-502.683	-76.554	-0.188	0.066
-501.668	-23.765	-0.108	0.065
-500.653	-180.621	-0.211	-0.004
-499.639	-24.722	0.206	-0.123
-498.624	-13.453	0.109	0.071
-497.610	800.000	0.045	-0.182
-496.595	-162.549	-0.217	-0.011
-495.581	205.416	0.176	-0.274
-494.566	271.779	0.097	-0.172
-493.551	-60.950	0.034	0.014
-492.537	111.679	-0.226	-0.274
-491.522	176.274	-0.326	-0.474
-490.508	104.998	0.171	0.203
-489.493	151.167	0.220	0.300
-488.478	-140.847	-0.258	0.027
-487.464	62.821	0.110	-0.110
-486.449	-111.782	-0.188	0.038
-485.435	-70.760	-0.235	-0.089
-484.420	-102.549	-0.087	-0.021
-483.405	-37.165	-0.292	-0.157
-482.391	-104.553	-0.445	0.103
-481.376	-200.000	-0.044	0.235
-480.362	77.643	0.241	0.257
-479.347	-20.418	0.462	0.284
-478.332	800.000	-0.026	-0.098
-477.318	75.973	0.109	-0.116
-476.303	-200.000	0.032	-0.316
-475.289	-92.671	-0.247	0.069
-474.274	-70.820	-0.009	-0.003
-473.259	-111.204	-0.098	-0.020
-472.245	800.000	0.056	0.184
-471.230	-71.122	0.159	-0.060
-470.216	72.835	0.055	0.057
-469.201	-67.146	0.310	-0.122
-468.186	68.794	-0.250	0.257
-467.172	-31.448	-0.387	0.218
-466.157	-200.000	0.013	0.127
-465.143	-200.000	0.012	0.199
-464.128	-200.000	-0.023	0.110
-463.113	-200.000	-0.008	0.125
-462.099	-61.253	0.290	0.122
-461.084	67.285	0.125	-0.128
-460.070	-155.502	-0.191	-0.012
-459.055	204.564	-0.165	-0.256
-458.040	-81.341	0.179	0.059
-457.026	-125.213	0.158	0.024
-456.011	59.063	-0.077	-0.076
-454.997	-120.655	-0.065	0.011
-453.982	-200.000	0.009	0.175
-452.968	800.000	-0.101	-0.398
-451.953	-30.227	0.229	-0.130
-450.938	141.805	-0.106	-0.141
-449.924	-154.827	-0.290	-0.019
-448.909	14.263	0.044	-0.034
-447.895	-85.431	0.110	0.034
-446.880	-115.753	0.567	0.106
-445.865	-15.857	0.039	-0.025
-444.851	33.903	-0.144	0.125
-443.836	245.648	-0.182	0.306
-442.822	-200.000	-0.015	0.099
-441.807	40.387	-0.089	0.080
-440.792	800.000	-0.156	-0.631
-439.778	199.826	-0.279	0.428
-438.763	32.973	-0.144	-0.125
-437.749	-31.595	-0.182	0.102
-436.734	800.000	0.045	0.183
-435.719	19.363	0.370	0.297
-434.705	160.402	-0.174	0.243
-433.690	69.493	0.223	0.230
-432.676	22.501	0.159	-0.130
-431.661	-200.000	-0.036	-0.193
-430.646	450.889	0.065	-0.144
-429.632	800.000	0.034	0.119
-428.617	-71.612	-0.098	0.037
-427.603	-121.586	0.122	0.020
-426.588	-200.000	0.019	0.229
-425.573	-5.811	0.237	0.163
-424.559	-110.451	0.227	-0.047
-423.544	800.000	-0.070	0.233
-422.530	-200.000	-0.051	0.470
-421.515	247.722	0.069	0.117
-420.500	-25.503	-0.082	0.049
-419.486	659.227	-0.080	0.206
-418.471	-200.000	0.025	0.119
-417.457	312.622	0.035	0.066
-416.442	96.034	-0.141	0.161
-415.428	-200.000	0.000	-0.175
-414.413	75.150	-0.219	-0.231
-413.398	45.225	0.134	0.124
-412.384	312.704	-0.025	0.046
-411.369	-78.710	-0.350	0.120
-410.355	-200.000	0.001	-0.161
-409.340	267.699	0.313	0.547
-408.325	-200.000	0.018	-0.103
-407.311	-178.251	-0.345	0.008
-406.296	24.905	0.119	0.099
-405.282	-60.634	0.318	-0.135
-404.267	-89.619	0.330	0.097
-403.252	-200.000	-0.025	0.257
-402.238	-105.234	0.104	0.024
-401.223	174.270	0.089	-0.129
-400.209	59.179	0.054	0.053
-399.194	-200.000	0.032	0.211
-398.179	459.922	0.028	-0.062
-397.165	303.897	0.076	0.141
-396.150	-2.994	0.358	0.249
-395.136	-60.496	-0.100	0.042
-394.121	35.436	-0.284	-0.249
-393.106	546.119	0.052	-0.123
-392.092	-200.000	0.038	0.283
-391.077	-95.006	0.364	0.098
-390.063	-87.580	0.412	0.124
-389.048	15.087	-0.129	0.101
-388.033	-200.000	-0.053	0.516
-387.019	-200.000	-0.031	-0.195
-386.004	-200.000	0.009	-0.058
-384.990	383.506	0.081	-0.167
-383.975	-200.000	0.004	-0.395
-382.960	139.292	0.074	0.097
-381.946	-56.546	0.203	-0.090
-380.931	389.097	-0.031	-0.063
-379.917	546.035	-0.150	-0.358
-378.902	800.000	0.064	-0.228
-377.888	450.149	-0.014	-0.032
-376.873	71.367	-0.209	-0.216
-375.858	-200.000	0.002	-0.124
-374.844	-200.000	-0.007	-0.121
-373.829	-59.455	0.032	-0.014
-372.815	-89.522	-0.279	0.082
-371.800	408.368	-0.156	-0.330
-370.785	66.993	-0.164	-0.167
-369.771	71.330	-0.051	-0.053
-368.756	55.973	-0.192	0.186
-367.742	565.399	0.175	0.423
-366.727	77.284	0.339	0.359
-365.712	68.364	0.234	-0.239
-364.698	-106.792	-0.555	-0.123
-363.683	52.901	-0.229	0.218
-362.669	-200.000	-0.038	-0.214
-361.654	-200.000	0.047	0.430
-360.639	800.000	0.084	-0.236
-359.625	-200.000	-0.018	0.292
-358.610	132.963	0.038	0.049
-357.596	248.024	-0.143	-0.241
-356.581	-32.203	-0.054	-0.030
-355.566	800.000	0.128	-0.484
-354.552	209.539	-0.273	-0.426
-353.537	800.000	0.008	0.035
-352.523	-179.242	-0.198	0.004
-351.508	16.480	0.090	0.071
-350.493	38.508	-0.304	-0.270
-349.479	-112.354	-0.104	-0.021
-348.464	508.042	0.148	0.343
-347.450	-132.454	-0.099	-0.013
-346.435	-17.288	0.212	0.133
-345.420	171.630	0.086	-0.122
-344.406	426.754	-0.141	-0.303
-343.391	458.239	0.056	-0.124
-342.377	236.373	0.008	0.014
-341.362	19.773	-0.049	-0.039
-340.348	126.888	0.235	-0.297
-339.333	-200.000	0.041	-0.266
-338.318	132.137	0.150	0.192
-337.304	-54.107	-0.146	0.066
-336.289	-47.253	0.119	0.058
-335.275	-200.000	-0.050	0.220
-334.260	117.342	-0.251	0.308
-333.245	-27.063	-0.125	-0.073
-332.231	-40.643	-0.083	-0.043
-331.216	800.000	-0.061	-0.263
-330.202	800.000	-0.007	-0.029
-329.187	-80.728	0.271	0.090
-328.172	15.576	-0.159	0.125
-327.158	-110.738	0.439	0.090
-326.143	182.631	0.071	-0.104
-325.129	66.871	-0.223	-0.226
-324.114	132.261	-0.111	0.143
-323.099	515.349	-0.072	-0.167
-322.085	-180.266	0.310	0.006
-321.070	97.292	0.264	-0.302
-320.056	-114.673	0.202	0.038
-319.041	580.748	0.070	-0.171
-318.026	800.000	-0.104	-0.422
-317.012	-163.412	0.196	-0.009
-315.997	7.748	0.419	-0.312
-314.983	105.724	0.120	0.142
-313.968	89.415	-0.129	0.143
-312.953	579.953	0.039	0.096
-311.939	-110.819	0.236	-0.049
-310.924	-200.000	0.034	-0.216
-309.910	14.306	0.068	-0.053
-308.895	800.000	0.097	-0.333
-307.880	41.773	-0.058	0.053
-306.866	-198.969	-0.371	-0.002
-305.851	-51.990	0.293	0.136
-304.837	-72.839	0.203	-0.074
-303.822	249.848	0.060	-0.101
-302.807	-127.622	-0.114	0.016
-301.793	-109.831	-0.286	0.060
-300.778	101.663	0.195	0.227
-299.764	6.153	-0.078	-0.058
-298.749	485.860	0.073	0.165
-297.735	96.879	0.223	-0.254
-296.720	-11.011	0.202	-0.133
-295.705	286.463	-0.077	0.138
-294.691	-200.000	0.010	0.185
-293.676	-200.000	-0.039	0.310
-292.662	-96.012	-0.165	0.044
-291.647	15.722	0.121	-0.095
-290.632	-122.979	-0.197	0.031
-289.618	-1.342	0.126	0.088
-288.603	-56.189	-0.257	0.114
-287.589	23.832	0.329	-0.269
-286.574	47.166	-0.179	0.166
-285.559	-10.452	-0.251	-0.165
-284.545	-159.381	-0.231	-0.013
-283.530	-15.059	0.213	0.136
-282.516	92.314	0.091	-0.102
-281.501	63.475	0.264	-0.263
-280.486	-200.000	-0.007	0.172
-279.472	-200.000	0.025	-0.210
-278.457	29.765	0.106	-0.090
-277.443	129.836	-0.160	-0.204
-276.428	-200.000	0.002	-0.054
-275.413	-72.579	0.156	-0.057
-274.399	34.262	-0.031	-0.027
-273.384	800.000	0.109	0.417
-272.370	75.211	0.213	-0.224
-271.355	-71.055	-0.159	-0.059
-270.340	81.620	-0.012	-0.013
-269.326	198.592	0.211	-0.321
-268.311	-200.000	-0.019	-0.110
-267.297	-200.000	-0.016	0.235
-266.282	-82.886	0.272	0.087
-265.267	800.000	0.058	0.235
-264.253	173.012	-0.154	0.221
-263.238	142.443	0.284	0.375
-262.224	-200.000	-0.001	0.068
-261.209	-184.861	0.100	0.002
-260.195	800.000	-0.043	0.134
-259.180	5.135	-0.095	-0.070
-258.165	800.000	0.028	-0.104
-257.151	-122.221	0.625	-0.102
-256.136	12.899	0.033	0.026
-255.122	772.569	0.159	-0.431
-254.107	112.217	-0.136	-0.163
-253.092	-82.148	0.307	0.099
-252.078	-94.213	0.203	0.055
-251.063	-162.475	0.140	-0.007
-250.049	100.540	0.110	0.127
-249.034	171.078	0.020	0.028
-248.019	800.000	-0.016	0.070
-247.005	-200.000	0.009	0.206
-245.990	-41.106	-0.267	0.137
-244.976	61.195	0.055	0.054
-243.961	-105.302	-0.412	-0.093
-242.946	207.636	0.113	-0.174
-241.932	-200.000	-0.030	0.358
-240.917	101.737	0.124	-0.143
-239.903	-200.000	-0.011	-0.144
-238.888	800.000	0.030	0.088
-237.873	370.000	-0.036	0.073
-236.859	-200.000	0.024	-0.162
-235.844	-79.346	-0.163	0.055
-234.830	16.419	-0.159	0.124
-233.815	800.000	-0.110	-0.376
-232.800	28.432	-0.023	-0.019
-231.786	95.317	0.103	-0.117
-230.771	-113.918	-0.288	0.056
-229.757	706.522	0.075	0.196
-228.742	-56.520	-0.156	-0.069
-227.727	43.359	-0.252	-0.228
-226.713	-95.139	-0.015	0.004
-225.698	108.641	0.211	0.251
-224.684	-131.758	0.411	0.053
-223.669	-79.326	0.146	0.049
-222.655	-39.748	0.154	0.080
-221.640	-91.427	0.140	-0.040
-220.625	-31.372	-0.366	0.204
-219.611	-91.160	-0.349	-0.099
-218.596	33.249	0.206	0.177
-217.582	793.117	-0.186	0.508
-216.567	-200.000	0.037	-0.309
-215.552	117.360	-0.151	0.184
-214.538	800.000	0.089	-0.348
-213.523	-91.532	0.178	0.050
-212.509	268.052	0.126	0.219
-211.494	800.000	-0.057	0.213
-210.479	-32.419	0.162	-0.090
-209.465	-36.925	0.167	0.089
-208.450	-100.885	-0.157	0.038
-207.436	-200.000	-0.005	0.175
-206.421	204.324	-0.008	-0.013
-205.406	-200.000	-0.006	-0.126
-204.392	-7.925	0.344	-0.230
-203.377	65.175	-0.079	0.079
-202.363	-59.758	-0.223	-0.095
-201.348	-200.000	0.004	-0.031
-200.333	800.000	-0.090	0.287
-199.319	-8.510	0.335	-0.223
-198.304	-138.284	0.283	0.031
-197.290	425.579	-0.183	0.390
-196.275	252.005	-0.082	-0.139
-195.260	-200.000	0.031	-0.148
-194.246	235.326	0.245	-0.401
-193.231	343.299	0.185	-0.359
-192.217	-82.407	-0.088	0.028
-191.202	58.925	-0.080	0.078
-190.187	-59.125	-0.126	-0.054
-189.173	15.922	-0.209	-0.163
-188.158	-151.863	0.387	-0.028
-187.144	21.110	0.122	-0.098
-186.129	53.208	0.038	0.036
-185.114	412.308	-0.032	0.067
-184.100	1.517	-0.300	0.214
-183.085	800.000	-0.051	0.180
-182.071	74.127	0.100	0.104
-181.056	-55.228	-0.196	-0.087
-180.042	-41.444	-0.184	0.094
-179.027	-24.379	0.311	0.184
-178.012	731.748	0.170	0.449
-176.998	-200.000	-0.004	0.020
-175.983	-133.014	0.254	-0.032
-174.969	-89.157	-0.067	0.019
-173.954	-200.000	-0.043	0.266
-172.939	415.210	0.138	0.292
-171.925	-200.000	0.009	0.220
-170.910	800.000	-0.083	-0.314
-169.896	-20.986	0.042	0.026
-168.881	-110.107	0.227	0.047
-167.866	-88.792	-0.168	-0.049
-166.852	65.072	-0.207	0.207
-165.837	7.519	0.109	-0.080
-164.823	-10.863	0.048	-0.031
-163.808	-4.256	0.093	-0.064
-162.793	-200.000	0.008	-0.038
-161.779	-136.854	0.298	-0.034
-160.764	-200.000	0.018	0.153
-159.750	-200.000	0.040	0.190
-158.735	-74.802	-0.242	-0.086
-157.720	63.485	-0.114	0.113
-156.706	-138.662	-0.160	-0.017
-155.691	-1.146	-0.199	-0.139
-154.677	106.726	-0.228	-0.267
-153.662	-200.000	0.044	-0.228
-152.647	800.000	-0.120	0.350
-151.633	-200.000	0.067	0.380
-150.618	-200.000	0.003	0.160
-149.604	407.480	-0.135	0.281
-148.589	-69.287	-0.247	0.094
-147.574	-10.363	0.166	-0.109
-146.560	19.248	-0.260	-0.206
-145.545	212.623	-0.165	-0.258
-144.531	-200.000	-0.011	0.221
-143.516	158.618	-0.272	0.373
-142.502	-43.883	-0.068	-0.034
-141.487	-154.844	-0.058	0.004
-140.472	37.815	-0.111	-0.097
-139.458	419.261	0.085	0.179
-138.443	181.099	0.053	0.077
-137.429	362.495	0.040	-0.079
-136.414	-66.948	0.080	0.031
-135.399	641.483	-0.051	0.128
-134.385	800.000	-0.093	-0.281
-133.370	271.799	0.170	0.296
-132.356	-200.000	-0.022	0.118
-131.341	-42.050	0.132	0.067
-130.326	706.467	-0.075	-0.196
-129.312	-200.000	0.033	-0.171
-128.297	87.064	0.219	-0.239
-127.283	-200.000	0.015	0.273
-126.268	52.957	-0.035	0.033
-125.253	98.044	0.252	0.287
-124.239	-163.916	0.233	-0.011
-123.224	110.594	-0.095	-0.113
-122.210	-119.578	0.147	0.025
-121.195	76.398	0.186	-0.194
