DTS Sentinel unit serial number:	SN413079Multiplexer serial number:	ORYXHardware model number:	OX4-SRSoftware version number:	ORYX F/W v4.00 Oryx Data Collector v3.7.2.0data status	okinstallation	princeton_trtdifferential loss correction	single-endedforward channel	channel 4reverse channel	N/Adate	2019/09/12time	19:14:19forward acquisition time	15.00reverse acquisition time	0.00gamma	496.2192k internal	0.2308k external	0.2308temperature offset calibration	1.0144default loss term (dB/km)	0.3790temperature slope calibration	1.0000multiplexer offset coefficient	1.0000multiplexer slope coefficient	1.0000fibre end	0.00T internal ref (°C)	32.56T ext. ref 1 (°C)	3.24T ext. ref 2 (°C)	27.07length (m)	temperature (°C)	Stokes	anti-Stokes-747.200	-20.757	0.322	0.201
-746.185	-155.957	-0.676	-0.044
-745.171	-200.000	-0.019	0.609
-744.156	-72.563	-0.482	0.181
-743.142	-61.133	0.439	0.188
-742.127	66.871	-0.276	0.286
-741.112	455.339	0.072	-0.163
-740.098	301.500	-0.402	0.755
-739.083	73.075	0.301	0.320
-738.069	-53.312	0.131	0.061
-737.054	800.000	0.205	0.663
-736.039	-71.407	-0.602	-0.229
-735.025	41.614	0.730	0.672
-734.010	-49.642	-0.590	0.285
-732.996	11.903	-0.877	0.684
-731.981	40.311	-0.172	0.157
-730.966	419.666	-0.107	-0.233
-729.952	-200.000	0.032	-0.531
-728.937	-200.000	-0.006	-0.291
-727.923	-21.494	0.730	-0.452
-726.908	74.611	0.384	-0.411
-725.894	-118.720	-0.794	0.142
-724.879	207.029	0.212	0.336
-723.864	231.138	-0.528	0.878
-722.850	-200.000	0.020	0.491
-721.835	-82.980	-0.266	0.087
-720.821	-83.591	0.384	-0.125
-719.806	-41.514	-0.309	0.162
-718.791	-200.000	-0.070	-0.536
-717.777	800.000	-0.108	-0.325
-716.762	94.349	-0.389	0.448
-715.748	-200.000	-0.087	1.015
-714.733	-81.956	0.419	-0.139
-713.718	-200.000	0.118	-0.661
-712.704	-200.000	0.071	0.415
-711.689	800.000	-0.082	0.354
-710.675	-200.000	-0.054	0.329
-709.660	-115.148	-0.260	-0.050
-708.645	-23.030	-0.469	0.287
-707.631	-137.643	0.627	0.072
-706.616	99.887	-0.291	0.343
-705.602	4.365	-0.629	-0.468
-704.587	-71.526	0.449	-0.171
-703.572	-24.954	0.444	0.268
-702.558	-200.000	-0.071	0.315
-701.543	-200.000	0.098	-0.590
-700.529	6.429	-0.140	0.105
-699.514	114.789	0.638	-0.789
-698.499	-174.496	0.685	0.020
-697.485	-183.319	0.267	0.005
-696.470	104.522	0.080	-0.095
-695.456	-19.586	-0.541	0.340
-694.441	-82.616	0.938	0.308
-693.426	-57.514	-0.306	0.136
-692.412	-111.691	-0.501	0.103
-691.397	-200.000	-0.041	0.535
-690.383	-44.366	-0.501	0.255
-689.368	-126.437	0.588	-0.089
-688.354	-53.636	-0.418	0.194
-687.339	50.420	0.202	-0.194
-686.324	-83.014	-0.700	0.229
-685.310	800.000	-0.020	-0.086
-684.295	-86.748	0.359	0.111
-683.281	-200.000	-0.025	-0.595
-682.266	-161.152	0.593	-0.031
-681.251	-200.000	0.088	-0.412
-680.237	28.233	-0.533	0.456
-679.222	-156.772	-0.465	-0.029
-678.208	251.142	0.147	-0.254
-677.193	107.365	-0.144	-0.174
-676.178	59.164	-0.087	-0.086
-675.164	800.000	0.155	0.540
-674.149	-171.721	0.427	0.014
-673.135	197.407	0.114	0.177
-672.120	56.542	0.721	-0.711
-671.105	-98.126	-0.687	0.179
-670.091	-89.145	-0.340	-0.102
-669.076	35.173	-0.310	0.275
-668.062	-79.706	-1.258	-0.430
-667.047	800.000	0.074	-0.217
-666.032	-200.000	0.074	0.351
-665.018	-166.418	-1.004	-0.043
-664.003	268.718	-0.109	-0.194
-662.989	37.646	0.664	-0.597
-661.974	-92.644	-0.429	0.122
-660.959	-148.225	1.013	-0.085
-659.945	-200.000	-0.126	-0.641
-658.930	-35.937	-0.648	-0.355
-657.916	800.000	0.123	-0.480
-656.901	-63.593	0.463	-0.193
-655.886	-58.557	-0.094	-0.041
-654.872	301.300	-0.059	0.110
-653.857	-90.458	0.864	-0.253
-652.843	319.044	-0.164	-0.314
-651.828	101.480	-0.559	-0.660
-650.814	800.000	-0.196	-0.558
-649.799	382.495	0.398	-0.829
-648.784	-200.000	0.021	-0.305
-647.770	552.084	0.154	-0.375
-646.755	109.345	-0.323	-0.392
-645.741	-53.703	-0.231	-0.107
-644.726	-15.208	0.215	-0.139
-643.711	187.400	-0.569	0.859
-642.697	-6.593	-0.386	-0.266
-641.682	389.283	0.086	0.179
-640.668	-200.000	0.053	-0.388
-639.653	-1.114	-0.251	0.180
-638.638	157.857	-0.171	0.240
-637.624	-16.885	0.771	-0.493
-636.609	44.628	-0.900	-0.837
-635.595	241.483	0.417	-0.706
-634.580	432.066	-0.190	0.416
-633.565	321.200	-0.067	0.128
-632.551	36.343	-0.314	0.281
-631.536	15.910	-0.104	-0.083
-630.522	-63.177	0.722	-0.301
-629.507	-134.225	-0.163	-0.020
-628.492	-41.185	0.348	0.182
-627.478	187.909	-0.049	-0.074
-626.463	-107.776	0.664	-0.146
-625.449	800.000	-0.101	-0.364
-624.434	157.586	0.115	0.161
-623.419	-90.462	-0.543	-0.159
-622.405	-0.888	0.248	0.178
-621.390	-200.000	-0.063	-0.450
-620.376	136.472	0.592	-0.781
-619.361	-31.893	0.397	-0.225
-618.346	-113.665	-0.669	0.132
-617.332	0.694	0.534	0.386
-616.317	-200.000	0.032	-0.986
-615.303	58.387	-0.256	0.254
-614.288	-200.000	0.017	0.230
-613.273	800.000	-0.287	0.835
-612.259	-200.000	-0.154	-0.735
-611.244	-171.022	1.291	0.044
-610.230	584.231	-0.044	-0.110
-609.215	202.916	-0.303	-0.473
-608.201	137.179	-0.361	0.477
-607.186	-128.837	-0.375	0.053
-606.171	-17.275	-0.249	-0.158
-605.157	153.496	0.053	-0.073
-604.142	175.847	-0.335	0.491
-603.128	161.891	0.410	0.581
-602.113	-169.905	-0.460	0.017
-601.098	-83.463	-0.310	-0.100
-600.084	800.000	-0.070	-0.257
-599.069	-200.000	-0.031	-0.480
-598.055	117.824	-0.436	-0.543
-597.040	0.725	0.154	0.112
-596.025	199.679	-0.016	-0.025
-595.011	499.982	0.282	-0.657
-593.996	117.356	-0.337	0.418
-592.982	-94.299	-0.330	-0.091
-591.967	42.179	-0.345	0.317
-590.952	-173.959	0.142	-0.004
-589.938	139.167	0.178	-0.236
-588.923	-20.523	1.115	0.692
-587.909	-96.420	0.476	-0.127
-586.894	79.874	0.064	-0.069
-585.879	800.000	0.283	-0.992
-584.865	800.000	0.170	0.744
-583.850	-130.326	0.344	-0.047
-582.836	-175.710	0.483	-0.013
-581.821	-200.000	0.155	-0.782
-580.806	559.811	-0.318	-0.776
-579.792	-200.000	-0.001	0.098
-578.777	52.710	-0.237	0.229
-577.763	800.000	0.227	-0.894
-576.748	-46.421	-0.368	0.183
-575.733	65.105	0.540	0.551
-574.719	-108.408	-0.425	0.093
-573.704	-173.353	0.924	0.028
-572.690	104.918	-0.177	-0.211
-571.675	-7.713	-0.092	-0.063
-570.661	86.301	0.080	-0.089
-569.646	21.865	-0.558	0.459
-568.631	-87.351	0.634	0.194
-567.617	-101.197	-0.426	-0.105
-566.602	-116.686	0.513	0.095
-565.588	-141.246	0.114	0.012
-564.573	-132.298	0.518	-0.068
-563.558	800.000	-0.078	-0.308
-562.544	327.760	-0.200	0.386
-561.529	-200.000	0.025	0.216
-560.515	-8.641	0.336	0.228
-559.500	-200.000	0.079	0.661
-558.485	-200.000	0.007	0.061
-557.471	72.045	0.372	0.390
-556.456	165.960	-0.244	-0.348
-555.442	-200.000	0.023	-0.314
-554.427	525.580	-0.278	0.660
-553.412	126.681	-0.383	-0.490
-552.398	704.496	0.148	0.395
-551.383	800.000	-0.115	0.509
-550.369	800.000	0.140	-0.434
-549.354	-105.941	-0.471	0.107
-548.339	800.000	0.078	-0.336
-547.325	-49.885	0.537	-0.257
-546.310	-87.128	-0.312	0.096
-545.296	136.897	0.201	0.265
-544.281	-130.107	0.844	0.116
-543.266	-200.000	-0.096	0.450
-542.252	-9.511	0.313	-0.210
-541.237	382.430	-0.171	-0.355
-540.223	115.728	0.552	-0.680
-539.208	-80.394	0.165	-0.055
-538.193	14.189	0.509	-0.400
-537.179	17.857	-0.931	-0.747
-536.164	-39.148	0.639	-0.338
-535.150	800.000	0.177	-0.544
-534.135	435.080	0.109	-0.240
-533.121	-168.606	1.043	-0.040
-532.106	-99.433	-0.455	0.116
-531.091	-52.365	-0.672	0.313
-530.077	-151.336	-0.585	0.044
-529.062	-48.541	0.345	0.167
-528.048	-157.933	-0.675	0.040
-527.033	-200.000	0.029	0.848
-526.018	-172.277	-0.297	0.010
-525.004	-2.707	-0.364	0.256
-523.989	-200.000	0.009	-0.380
-522.975	-38.295	0.114	-0.061
-521.960	33.394	0.588	-0.514
-520.945	-134.083	0.719	-0.089
-519.931	135.591	-0.077	-0.100
-518.916	-169.220	1.016	-0.038
-517.902	-155.244	0.378	-0.025
-516.887	80.415	-0.591	0.641
-515.872	-89.542	0.250	-0.074
-514.858	-50.004	-0.369	0.176
-513.843	180.840	0.324	-0.479
-512.829	-129.144	0.579	0.081
-511.814	-118.087	0.676	-0.122
-510.799	27.545	0.667	0.565
-509.785	69.988	-0.035	-0.036
-508.770	-80.355	0.715	0.241
-507.756	-111.217	0.562	-0.116
-506.741	-197.327	-0.466	0.003
-505.726	32.678	0.286	-0.249
-504.712	-49.779	-0.998	-0.478
-503.697	-34.924	-0.227	-0.125
-502.683	-38.391	-1.093	-0.582
-501.668	-200.000	0.010	-0.099
-500.653	-84.957	-0.872	0.275
-499.639	-67.051	-0.451	0.179
-498.624	54.358	-0.794	-0.770
-497.610	32.955	0.773	0.674
-496.595	81.459	-0.190	-0.207
-495.581	-200.000	-0.114	0.667
-494.566	-91.469	-0.293	-0.084
-493.551	-75.263	0.164	0.059
-492.537	-200.000	-0.037	-0.278
-491.522	89.322	0.129	-0.145
-490.508	800.000	-0.133	-0.401
-489.493	-200.000	-0.020	0.378
-488.478	-120.764	0.771	0.131
-487.464	-78.208	-0.206	0.071
-486.449	-190.312	0.823	0.009
-485.435	24.402	-0.270	-0.224
-484.420	-139.712	-0.465	0.050
-483.405	-7.296	-0.851	0.580
-482.391	-144.862	-0.903	-0.083
-481.376	-108.730	-0.333	0.072
-480.362	-200.000	-0.086	-0.559
-479.347	23.035	0.507	0.419
-478.332	208.870	0.354	0.557
-477.318	800.000	-0.057	0.200
-476.303	-200.000	-0.095	-0.662
-475.289	-12.837	-0.683	-0.447
-474.274	-200.000	-0.037	-0.579
-473.259	714.686	0.131	0.349
-472.245	-200.000	0.229	1.190
-471.230	-120.429	-0.234	-0.040
-470.216	-87.639	-0.311	-0.094
-469.201	-141.270	0.473	0.048
-468.186	-200.000	0.104	-0.689
-467.172	-130.683	0.774	-0.105
-466.157	-14.477	-0.346	0.224
-465.143	-75.352	0.760	-0.272
-464.128	-128.057	-0.356	-0.051
-463.113	-200.000	0.142	0.679
-462.099	-123.625	-0.328	-0.052
-461.084	2.167	-0.330	0.239
-460.070	-200.000	-0.066	-0.346
-459.055	-200.000	0.042	-0.743
-458.040	-136.859	-0.761	0.088
-457.026	7.019	-0.809	0.606
-456.011	19.511	0.647	0.523
-454.997	800.000	0.277	0.846
-453.982	-200.000	-0.043	0.564
-452.968	-200.000	0.733	-0.001
-451.953	-193.078	-0.765	0.007
-450.938	44.521	0.051	0.047
-449.924	-52.992	-0.637	-0.295
-448.909	-49.818	-0.521	-0.249
-447.895	260.241	-0.029	0.051
-446.880	119.725	-0.604	-0.752
-445.865	165.517	-0.403	-0.572
-444.851	359.447	-0.289	-0.581
-443.836	138.245	0.450	0.592
-442.822	-51.963	-0.889	0.415
-441.807	331.967	-0.423	-0.820
-440.792	16.617	0.435	-0.346
-439.778	71.183	0.250	0.260
-438.763	-107.771	-0.415	0.091
-437.749	-162.445	0.527	0.026
-436.734	-200.000	-0.180	0.811
-435.719	92.092	0.232	0.263
-434.705	171.778	-0.169	-0.244
-433.690	-60.987	-0.368	0.156
-432.676	800.000	0.125	-0.403
-431.661	-200.000	0.018	0.563
-430.646	-200.000	0.011	0.355
-429.632	-169.983	0.862	0.031
-428.617	-57.037	-0.213	-0.094
-427.603	800.000	0.147	0.411
-426.588	260.003	0.206	-0.357
-425.573	-80.921	0.622	-0.207
-424.559	-200.000	0.108	0.717
-423.544	46.559	-0.322	0.300
-422.530	-46.319	0.924	-0.456
-421.515	-119.179	1.050	-0.184
-420.500	36.928	-0.304	0.270
-419.486	-114.728	0.126	0.024
-418.471	408.421	0.230	-0.487
-417.457	-200.000	-0.083	-0.882
-416.442	-32.766	0.354	0.198
-415.428	58.518	-0.704	0.693
-414.413	-86.031	0.723	0.224
-413.398	591.901	-0.180	0.447
-412.384	52.399	-0.114	0.109
-411.369	265.801	-0.401	-0.702
-410.355	630.840	-0.111	0.282
-409.340	607.878	-0.017	-0.043
-408.325	-200.000	0.111	-0.544
-407.311	222.667	-0.251	-0.405
-406.296	-200.000	-0.004	-0.541
-405.282	-116.282	0.605	-0.112
-404.267	-124.111	0.415	0.065
-403.252	-146.276	-0.298	0.026
-402.238	120.905	0.213	-0.265
-401.223	-86.451	0.446	0.137
-400.209	-137.251	-0.094	-0.011
-399.194	-136.730	0.948	0.110
-398.179	-68.500	0.194	-0.075
-397.165	-119.070	0.538	0.094
-396.150	47.931	-0.207	-0.194
-395.136	21.118	0.481	0.391
-394.121	-63.349	-0.586	0.242
-393.106	226.229	-0.063	-0.102
-392.092	-181.925	0.379	0.007
-391.077	119.475	-0.319	-0.396
-390.063	-200.000	-0.036	-0.926
-389.048	62.205	-0.306	-0.306
-388.033	-61.843	0.392	-0.164
-387.019	301.851	-0.687	-1.273
-386.004	9.173	0.420	0.318
-384.990	-18.584	-0.599	0.375
-383.975	40.644	0.708	0.639
-382.960	-200.000	-0.021	-0.242
-381.946	505.534	0.172	-0.399
-380.931	466.274	-0.230	0.516
-379.917	-89.215	0.517	-0.153
-378.902	-200.000	-0.106	-0.599
-377.888	61.621	-0.177	-0.176
-376.873	106.764	-0.104	0.123
-375.858	-200.000	-0.028	-0.193
-374.844	415.410	-0.101	0.216
-373.829	690.427	-0.161	-0.423
-372.815	800.000	-0.156	-0.569
-371.800	-149.112	0.183	0.015
-370.785	518.908	-0.172	-0.405
-369.771	561.501	0.167	-0.404
-368.756	-200.000	0.045	0.609
-367.742	800.000	0.157	-0.490
-366.727	250.036	0.118	0.201
-365.712	-200.000	0.068	-0.697
-364.698	-62.030	1.168	0.488
-363.683	308.220	-0.254	-0.474
-362.669	-200.000	-0.000	0.623
-361.654	-117.078	-0.160	-0.029
-360.639	-66.760	-0.581	0.230
-359.625	-102.640	0.274	0.065
-358.610	800.000	-0.272	0.806
-357.596	-60.155	-0.182	-0.078
-356.581	417.159	-0.320	-0.683
-355.566	-69.388	0.525	-0.201
-354.552	-200.000	0.015	-0.519
-353.537	-59.103	1.077	0.465
-352.523	785.932	0.263	0.723
-351.508	21.891	0.129	-0.105
-350.493	-104.620	0.677	0.156
-349.479	361.417	-0.211	-0.424
-348.464	-11.737	0.625	0.410
-347.450	-200.000	0.036	-0.395
-346.435	-200.000	0.127	0.676
-345.420	140.419	0.333	0.440
-344.406	-200.000	-0.021	-0.215
-343.391	800.000	-0.242	0.706
-342.377	108.793	-0.246	-0.294
-341.362	800.000	-0.235	-1.013
-340.348	536.065	-0.192	0.455
-339.333	381.461	0.439	0.903
-338.318	-167.078	-0.624	0.025
-337.304	112.981	-0.139	0.169
-336.289	72.803	-0.503	-0.525
-335.275	68.872	-0.420	-0.431
-334.260	112.126	0.533	-0.645
-333.245	-82.418	0.566	-0.184
-332.231	-144.142	-1.334	-0.125
-331.216	715.620	0.275	-0.729
-330.202	-101.868	-0.416	-0.101
-329.187	800.000	-0.162	0.551
-328.172	-27.126	0.823	-0.480
-327.158	428.809	-0.282	-0.609
-326.143	-155.146	-0.835	0.055
-325.129	216.683	0.321	0.510
-324.114	469.205	-0.185	0.416
-323.099	-200.000	0.105	-0.599
-322.085	315.425	0.187	0.353
-321.070	-200.000	-0.021	0.853
-320.056	-200.000	-0.003	-0.197
-319.041	160.843	-0.467	0.652
-318.026	-200.000	0.023	0.388
-317.012	-75.133	-0.379	0.135
-315.997	596.382	0.082	-0.203
-314.983	-200.000	-0.109	-0.728
-313.968	800.000	0.257	-0.791
-312.953	140.354	-0.854	1.126
-311.939	-138.109	0.855	0.095
-310.924	-130.202	0.599	0.081
-309.910	-200.000	0.049	0.564
-308.895	22.219	0.239	0.195
-307.880	107.921	0.281	0.334
-306.866	433.188	0.320	-0.695
-305.851	25.609	0.156	0.130
-304.837	366.309	-0.218	0.439
-303.822	17.358	-0.589	0.467
-302.807	68.471	0.124	0.127
-301.793	84.027	0.510	0.557
-300.778	800.000	0.213	0.905
-299.764	-200.000	0.048	0.338
-298.749	58.370	0.126	0.124
-297.735	505.849	-0.081	-0.188
-296.720	4.607	0.685	0.502
-295.705	86.274	-0.613	-0.675
-294.691	425.210	-0.261	-0.561
-293.676	-200.000	0.111	-0.786
-292.662	130.793	-0.522	-0.669
-291.647	-200.000	0.006	0.404
-290.632	-200.000	-0.144	0.885
-289.618	-122.557	0.193	0.031
-288.603	-48.000	-0.516	0.249
-287.589	68.873	0.211	-0.217
-286.574	-136.551	-1.052	-0.122
-285.559	645.149	0.154	-0.393
-284.545	-55.746	0.447	0.200
-283.530	179.705	0.272	-0.398
-282.516	-88.922	0.430	0.127
-281.501	800.000	0.303	-1.022
-280.486	-47.770	-0.167	0.081
-279.472	-200.000	0.147	1.001
-278.457	124.075	-0.312	-0.391
-277.443	136.439	0.452	0.589
-276.428	93.467	-0.626	-0.707
-275.413	292.813	-0.109	0.197
-274.399	-54.953	-0.499	-0.225
-273.384	122.775	-0.370	0.462
-272.370	800.000	-0.108	-0.370
-271.355	800.000	0.127	0.541
-270.340	245.743	-0.219	-0.368
-269.326	159.242	0.543	0.753
-268.311	145.848	-0.727	0.973
-267.297	-53.699	-1.029	-0.469
-266.282	-61.659	-0.198	0.083
-265.267	-200.000	0.141	0.815
-264.253	-152.137	-0.518	0.037
-263.238	607.425	0.383	0.953
-262.224	-73.165	-0.584	0.213
-261.209	48.958	-0.537	0.503
-260.195	13.203	-0.295	0.228
-259.180	800.000	-0.056	0.174
-258.165	678.073	0.055	0.142
-257.151	56.604	-0.238	0.231
-256.136	-157.837	1.090	0.064
-255.122	-133.967	-0.268	-0.033
-254.107	228.427	-0.066	-0.107
-253.092	42.738	0.151	0.137
-252.078	-92.715	-0.282	0.079
-251.063	-200.000	0.035	0.672
-250.049	-55.654	-0.659	0.294
-249.034	-200.000	-0.060	-0.757
-248.019	153.654	-0.272	-0.371
-247.005	21.791	0.431	0.350
-245.990	79.201	0.600	0.641
-244.976	-6.436	0.571	-0.388
-243.961	458.857	-0.223	-0.494
-242.946	222.908	-0.365	0.587
-241.932	-37.927	0.334	0.177
-240.917	-75.313	-0.264	0.094
-239.903	162.407	0.205	0.286
-238.888	233.677	0.273	0.448
-237.873	47.751	0.757	0.704
-236.859	-22.017	-0.375	0.227
-235.844	-3.237	0.317	0.220
-234.830	128.690	0.076	-0.096
-233.815	-7.613	-0.351	0.236
-232.800	4.627	-0.449	0.329
-231.786	-40.364	-0.450	-0.233
-230.771	56.819	0.089	0.087
-229.757	-33.838	-0.563	0.309
-228.742	49.988	0.194	-0.182
-227.727	176.910	0.275	-0.399
-226.713	-78.273	0.418	-0.143
-225.698	-37.077	-0.263	-0.140
-224.684	99.116	0.456	-0.525
-223.669	-32.253	-0.684	0.380
-222.655	67.366	0.430	0.437
-221.640	16.475	-0.315	-0.247
-220.625	800.000	0.031	0.105
-219.611	-80.484	-0.567	0.188
-218.596	-47.897	-0.464	-0.224
-217.582	141.078	-0.211	-0.277
-216.567	-79.051	0.711	-0.240
-215.552	-200.000	0.119	0.776
-214.538	136.280	0.470	0.610
-213.523	18.648	-0.182	0.145
-212.509	196.000	-0.909	-1.376
-211.494	65.496	-0.108	-0.108
-210.479	-165.246	-0.435	0.019
-209.465	-200.000	0.167	1.163
-208.450	-200.000	0.094	0.511
-207.436	16.847	-0.508	0.400
-206.421	90.560	-0.318	-0.355
-205.406	100.684	0.285	-0.330
-204.392	-200.000	-0.001	-0.473
-203.377	800.000	0.145	0.530
-202.363	-129.143	-0.498	-0.069
-201.348	52.563	-0.403	-0.383
-200.333	-143.424	0.982	0.093
-199.319	-37.133	-0.792	-0.422
-198.304	-71.798	0.769	0.285
-197.290	-164.844	-0.588	0.026
-196.275	577.690	-0.097	0.236
-195.260	-69.124	-0.773	-0.296
-194.246	-64.800	0.546	-0.220
-193.231	418.595	0.445	-0.946
-192.217	800.000	0.177	-0.584
-191.202	-155.450	-0.708	0.046
-190.187	102.881	0.149	0.173
-189.173	247.708	-0.279	-0.469
-188.158	166.463	-0.200	-0.282
-187.144	7.082	0.653	0.484
-186.129	-21.500	-0.189	-0.115
-185.114	-127.260	0.656	0.095
-184.100	-12.369	0.605	-0.393
-183.085	656.195	0.277	-0.707
-182.071	-194.901	0.429	0.003
-181.056	-38.820	-0.757	-0.397
-180.042	-111.934	-0.248	-0.050
-179.027	159.364	-0.203	-0.281
-178.012	-53.460	-0.357	0.162
-176.998	0.802	-0.595	-0.424
-175.983	800.000	-0.247	-0.756
-174.969	616.424	0.223	0.556
-173.954	800.000	0.082	0.323
-172.939	-83.579	-0.694	-0.221
-171.925	-116.075	0.287	0.053
-170.910	-158.097	0.742	0.043
-169.896	-200.000	-0.071	1.197
-168.881	-101.653	0.155	-0.037
-167.866	-104.778	-0.451	0.103
-166.852	578.703	-0.336	0.816
-165.837	222.337	0.406	-0.650
-164.823	8.786	-0.263	0.197
-163.808	-200.000	-0.102	0.669
-162.793	800.000	-0.132	0.567
-161.779	247.381	0.209	0.351
-160.764	23.906	-0.630	0.516
-159.750	63.228	0.353	-0.352
-158.735	-13.278	-0.657	0.424
-157.720	292.646	-0.393	0.711
-156.706	-158.255	0.522	-0.030
-155.691	-4.669	0.532	-0.364
-154.677	539.902	0.297	-0.702
-153.662	-164.164	0.623	0.029
-152.647	800.000	-0.177	0.630
-151.633	4.230	-0.356	-0.259
-150.618	398.192	0.131	-0.273
-149.604	800.000	-0.187	-0.556
-148.589	80.932	0.407	0.436
-147.574	-17.781	-1.015	-0.633
-146.560	30.105	-0.707	0.599
-145.545	502.641	-0.327	-0.751
-144.531	79.786	0.213	0.227
-143.516	79.138	-0.611	0.649
-142.502	-73.939	0.403	-0.145
-141.487	290.510	-0.362	0.652
-140.472	151.077	0.170	-0.229
-139.458	473.343	0.159	0.356
-138.443	26.411	0.571	0.474
-137.429	-200.000	-0.147	1.020
-136.414	-8.255	-0.430	-0.287
-135.399	800.000	-0.068	0.288
-134.385	-107.585	-0.853	-0.185
-133.370	437.135	0.173	0.373
-132.356	800.000	-0.134	-0.407
-131.341	596.888	-0.218	-0.535
-130.326	131.914	0.438	0.559
-129.312	-103.478	-0.092	-0.021
-128.297	-38.881	0.469	0.245
-127.283	168.748	-0.616	-0.871
-126.268	800.000	0.195	0.726
-125.253	800.000	0.135	-0.401
-124.239	-84.667	-0.565	-0.177
-123.224	-82.682	-0.422	-0.136
-122.210	-87.427	0.490	-0.147
-121.195	800.000	-0.085	0.305
