DTS Sentinel unit serial number:	SN413079Multiplexer serial number:	ORYXHardware model number:	OX4-SRSoftware version number:	ORYX F/W v4.00 Oryx Data Collector v3.7.2.0data status	okinstallation	princeton_trtdifferential loss correction	single-endedforward channel	channel 4reverse channel	N/Adate	2019/09/13time	15:01:34forward acquisition time	60.00reverse acquisition time	0.00gamma	496.2192k internal	0.2295k external	0.2295temperature offset calibration	1.0213default loss term (dB/km)	0.3790temperature slope calibration	1.0000multiplexer offset coefficient	1.0000multiplexer slope coefficient	1.0000fibre end	0.00T internal ref (°C)	35.62T ext. ref 1 (°C)	4.71T ext. ref 2 (°C)	30.92length (m)	temperature (°C)	Stokes	anti-Stokes-747.200	-27.159	0.218	0.130
-746.185	800.000	-0.039	0.126
-745.171	124.140	0.220	0.283
-744.156	-88.151	-0.311	0.095
-743.142	-60.230	0.235	0.102
-742.127	800.000	0.127	0.389
-741.112	274.249	0.155	0.281
-740.098	-80.669	-0.326	0.111
-739.083	-200.000	0.019	0.197
-738.069	-18.755	-0.142	0.091
-737.054	1.433	0.361	-0.265
-736.039	10.593	-0.208	-0.162
-735.025	-63.280	0.178	-0.075
-734.010	-79.684	-0.202	0.070
-732.996	506.480	-0.129	-0.306
-731.981	-55.136	-0.375	-0.172
-730.966	-31.615	-0.041	-0.024
-729.952	22.007	-0.206	-0.172
-728.937	800.000	0.042	-0.122
-727.923	27.240	0.109	0.094
-726.908	36.419	-0.209	-0.188
-725.894	18.695	-0.168	-0.137
-724.879	-200.000	-0.055	0.263
-723.864	286.389	0.123	0.226
-722.850	29.135	0.279	0.242
-721.835	-152.103	0.202	0.015
-720.821	-118.483	-0.150	-0.027
-719.806	577.173	0.097	-0.243
-718.791	-97.405	0.139	0.037
-717.777	-39.542	0.039	-0.021
-716.762	-200.000	-0.030	-0.227
-715.748	-91.509	-0.266	-0.078
-714.733	-166.851	-0.104	0.004
-713.718	-110.751	-0.156	0.033
-712.704	-80.763	-0.309	0.105
-711.689	137.799	0.136	0.182
-710.675	-96.355	-0.080	-0.022
-709.660	-200.000	-0.054	0.296
-708.645	-84.771	0.077	0.025
-707.631	296.989	-0.074	-0.138
-706.616	-65.327	0.036	-0.015
-705.602	-200.000	0.016	0.202
-704.587	-38.768	-0.060	-0.033
-703.572	797.085	-0.050	-0.141
-702.558	-96.387	0.130	-0.035
-701.543	83.943	-0.101	-0.112
-700.529	-15.737	-0.129	-0.084
-699.514	800.000	0.051	0.171
-698.499	-128.511	-0.301	-0.044
-697.485	432.940	-0.192	-0.426
-696.470	-84.601	-0.425	0.137
-695.456	-87.574	0.222	0.068
-694.441	641.428	-0.099	-0.258
-693.426	-38.365	-0.016	-0.009
-692.412	-118.783	0.190	-0.034
-691.397	-20.005	0.076	0.048
-690.383	-112.462	-0.360	-0.073
-689.368	776.081	0.113	0.316
-688.354	-100.950	-0.188	-0.047
-687.339	-200.000	-0.010	-0.139
-686.324	-189.249	-0.201	0.002
-685.310	-55.861	-0.317	-0.144
-684.295	-97.352	0.039	-0.010
-683.281	-141.566	-0.065	-0.007
-682.266	-200.000	0.022	-0.169
-681.251	79.770	0.047	0.052
-680.237	-140.637	-0.062	0.007
-679.222	-95.905	0.014	0.004
-678.208	149.026	0.093	0.128
-677.193	404.950	-0.100	-0.216
-676.178	264.968	-0.202	0.359
-675.164	-140.436	-0.306	0.032
-674.149	674.407	0.085	-0.224
-673.135	3.529	0.115	-0.085
-672.120	-200.000	0.019	-0.118
-671.105	320.119	0.122	-0.236
-670.091	418.790	0.226	-0.493
-669.076	800.000	-0.045	-0.177
-668.062	96.607	-0.065	-0.076
-667.047	-200.000	0.022	-0.319
-666.032	-19.426	-0.269	-0.170
-665.018	409.661	-0.031	0.067
-664.003	169.927	-0.037	-0.054
-662.989	-176.197	0.111	0.003
-661.974	-144.864	-0.157	-0.015
-660.959	473.658	-0.063	-0.146
-659.945	65.351	0.195	-0.201
-658.930	-200.000	0.022	0.235
-657.916	61.089	0.245	0.248
-656.901	432.357	-0.088	0.194
-655.886	-61.526	-0.047	-0.020
-654.872	402.310	0.072	-0.154
-653.857	37.580	-0.030	-0.027
-652.843	-71.448	-0.187	0.071
-651.828	-82.929	0.257	-0.084
-650.814	56.112	0.142	-0.140
-649.799	-99.890	-0.134	-0.034
-648.784	-200.000	-0.011	-0.139
-647.770	-88.062	-0.374	-0.114
-646.755	-82.839	-0.028	0.009
-645.741	-55.300	0.150	0.069
-644.726	-66.794	-0.376	-0.151
-643.711	-110.319	-0.060	0.013
-642.697	275.532	0.088	0.159
-641.682	800.000	0.073	0.240
-640.668	-104.665	-0.238	-0.056
-639.653	-145.431	0.179	-0.016
-638.638	-200.000	-0.049	-0.327
-637.624	33.592	-0.310	0.274
-636.609	45.559	-0.157	-0.148
-635.595	312.938	0.097	0.185
-634.580	-11.265	-0.287	-0.193
-633.565	-72.501	-0.297	0.112
-632.551	-64.235	-0.183	-0.076
-631.536	23.384	-0.052	-0.044
-630.522	-162.371	-0.126	-0.006
-629.507	417.346	-0.064	0.138
-628.492	-96.639	-0.075	0.020
-627.478	-120.148	0.156	-0.027
-626.463	-131.729	-0.342	0.046
-625.449	29.089	-0.287	-0.248
-624.434	21.301	0.067	0.056
-623.419	24.522	0.076	-0.064
-622.405	120.728	0.288	-0.365
-621.390	46.463	-0.099	0.094
-620.376	114.945	-0.038	0.048
-619.361	-200.000	-0.002	0.213
-618.346	-25.629	0.084	-0.050
-617.332	-75.323	-0.169	0.061
-616.317	-200.000	0.007	-0.126
-615.303	-200.000	-0.027	-0.175
-614.288	-71.118	0.126	-0.048
-613.273	19.460	0.208	-0.170
-612.259	-43.646	-0.032	0.016
-611.244	-200.000	-0.053	-0.406
-610.230	-200.000	0.001	-0.249
-609.215	800.000	0.041	-0.154
-608.201	18.905	0.081	-0.066
-607.186	-200.000	-0.077	-0.350
-606.171	-129.924	0.133	0.019
-605.157	-200.000	-0.033	0.237
-604.142	-200.000	0.020	-0.096
-603.128	800.000	0.032	-0.094
-602.113	597.461	0.095	-0.239
-601.098	-32.619	0.340	-0.192
-600.084	-200.000	-0.023	0.139
-599.069	-121.993	-0.015	0.002
-598.055	267.939	-0.063	-0.111
-597.040	-1.840	-0.133	0.095
-596.025	44.350	0.232	-0.217
-595.011	219.073	0.169	-0.274
-593.996	278.540	0.019	0.035
-592.982	16.231	-0.326	0.262
-591.967	-200.000	-0.014	-0.340
-590.952	309.762	-0.071	0.135
-589.938	213.207	0.085	0.137
-588.923	84.026	-0.164	-0.182
-587.909	-110.403	0.247	0.052
-586.894	-96.677	-0.265	0.071
-585.879	-144.725	-0.335	-0.031
-584.865	800.000	-0.037	-0.119
-583.850	43.855	-0.043	-0.040
-582.836	-112.734	-0.130	-0.026
-581.821	-24.357	-0.251	-0.152
-580.806	163.156	-0.088	-0.126
-579.792	-60.201	0.160	-0.069
-578.777	16.631	-0.021	0.017
-577.763	570.201	-0.090	0.222
-576.748	-43.655	-0.182	0.093
-575.733	85.693	-0.169	0.188
-574.719	209.153	0.153	-0.243
-573.704	-4.065	-0.235	-0.166
-572.690	800.000	0.030	0.121
-571.675	9.725	0.178	-0.137
-570.661	112.764	-0.159	-0.196
-569.646	-19.547	-0.218	0.137
-568.631	800.000	0.056	0.214
-567.617	136.226	0.060	0.079
-566.602	-24.791	0.089	-0.054
-565.588	-51.533	-0.127	-0.060
-564.573	-3.752	0.385	0.272
-563.558	101.292	0.196	-0.232
-562.544	-81.692	-0.175	0.058
-561.529	-58.950	-0.185	0.081
-560.515	-106.617	-0.249	-0.056
-559.500	-10.853	0.158	-0.106
-558.485	-200.000	0.020	-0.493
-557.471	781.463	-0.110	-0.307
-556.456	-200.000	0.030	0.361
-555.442	800.000	0.062	0.194
-554.427	-200.000	-0.056	-0.279
-553.412	26.629	0.261	-0.221
-552.398	-200.000	0.026	0.214
-551.383	506.381	-0.057	-0.135
-550.369	-90.000	-0.067	0.020
-549.354	-200.000	0.024	-0.202
-548.339	181.417	-0.067	0.100
-547.325	30.409	0.332	-0.287
-546.310	-86.836	0.201	-0.062
-545.296	800.000	0.105	-0.316
-544.281	-13.334	0.178	-0.117
-543.266	64.036	-0.063	0.064
-542.252	-150.719	0.337	-0.026
-541.237	-79.871	0.342	-0.117
-540.223	800.000	-0.005	-0.022
-539.208	-21.975	-0.074	-0.046
-538.193	-151.445	0.436	0.033
-537.179	19.494	0.254	0.207
-536.164	-149.133	-0.286	-0.023
-535.150	-13.355	-0.175	0.115
-534.135	62.071	-0.311	0.315
-533.121	53.840	-0.168	-0.164
-532.106	-44.404	-0.154	0.078
-531.091	399.066	-0.046	-0.097
-530.077	-19.648	0.194	-0.122
-529.062	-47.914	0.148	-0.073
-528.048	2.496	0.217	0.159
-527.033	-200.000	-0.035	0.178
-526.018	154.700	0.063	-0.088
-525.004	-21.630	0.294	0.182
-523.989	-24.118	0.174	0.105
-522.975	34.200	0.147	0.130
-521.960	-200.000	-0.012	-0.317
-520.945	418.322	0.068	-0.148
-519.931	800.000	-0.041	-0.127
-518.916	-7.966	0.210	-0.144
-517.902	-130.815	-0.397	-0.054
-516.887	-160.320	0.128	-0.007
-515.872	308.173	-0.031	0.058
-514.858	-9.526	0.186	-0.126
-513.843	-40.131	0.067	-0.035
-512.829	240.652	-0.167	0.282
-511.814	217.654	-0.098	0.159
-510.799	-200.000	-0.061	0.278
-509.785	-25.479	-0.106	0.063
-508.770	165.809	-0.186	0.266
-507.756	376.517	-0.112	0.233
-506.741	-200.000	0.072	0.331
-505.726	-200.000	0.072	-0.441
-504.712	-171.988	0.338	-0.011
-503.697	130.543	0.147	-0.191
-502.683	90.738	0.155	0.176
-501.668	-200.000	0.025	0.310
-500.653	-129.029	0.496	0.070
-499.639	284.130	-0.045	0.082
-498.624	-145.309	0.285	0.026
-497.610	258.437	-0.074	0.129
-496.595	-94.678	-0.268	-0.074
-495.581	10.075	0.255	-0.196
-494.566	-200.000	-0.012	0.138
-493.551	94.264	-0.039	-0.045
-492.537	-63.712	-0.276	-0.114
-491.522	-132.511	-0.232	-0.030
-490.508	800.000	0.082	-0.233
-489.493	180.577	-0.147	0.218
-488.478	-200.000	-0.025	-0.381
-487.464	-88.198	-0.228	0.069
-486.449	-200.000	-0.010	-0.213
-485.435	255.905	-0.052	0.091
-484.420	-37.258	-0.162	-0.087
-483.405	800.000	-0.027	0.109
-482.391	-200.000	-0.045	0.369
-481.376	348.387	-0.074	-0.147
-480.362	89.871	0.300	0.339
-479.347	-200.000	0.016	-0.184
-478.332	36.268	0.132	-0.118
-477.318	-32.519	0.314	0.177
-476.303	-200.000	0.007	-0.056
-475.289	271.769	0.070	-0.125
-474.274	-69.453	0.309	0.120
-473.259	-200.000	0.031	-0.195
-472.245	-56.236	0.113	-0.051
-471.230	217.408	-0.069	0.111
-470.216	-5.772	-0.074	0.051
-469.201	-200.000	-0.062	-0.446
-468.186	-200.000	0.004	0.156
-467.172	645.551	0.097	0.250
-466.157	800.000	0.091	-0.338
-465.143	49.360	-0.129	-0.122
-464.128	-71.012	-0.432	0.164
-463.113	211.811	-0.102	0.163
-462.099	-32.004	-0.262	-0.149
-461.084	678.857	-0.134	-0.353
-460.070	800.000	-0.032	0.092
-459.055	247.226	0.064	0.110
-458.040	800.000	-0.028	0.114
-457.026	-93.960	0.079	0.022
-456.011	800.000	-0.060	-0.173
-454.997	68.314	0.148	-0.153
-453.982	357.983	0.090	-0.182
-452.968	144.679	0.096	-0.129
-451.953	41.097	-0.233	-0.212
-450.938	-200.000	-0.004	-0.026
-449.924	135.158	-0.079	0.104
-448.909	800.000	0.078	0.302
-447.895	93.672	-0.169	0.194
-446.880	-200.000	-0.024	0.264
-445.865	5.780	-0.293	-0.219
-444.851	-9.166	0.043	0.029
-443.836	-151.415	-0.061	0.005
-442.822	-181.462	0.205	0.004
-441.807	379.923	0.056	-0.116
-440.792	-200.000	-0.040	0.286
-439.778	-200.000	-0.015	0.207
-438.763	692.621	0.063	0.166
-437.749	-7.064	0.067	0.046
-436.734	-72.367	-0.062	0.023
-435.719	-200.000	0.024	-0.160
-434.705	-200.000	-0.024	-0.320
-433.690	-200.000	-0.005	0.318
-432.676	-200.000	-0.276	0.000
-431.661	132.049	0.071	-0.093
-430.646	-26.514	-0.272	-0.161
-429.632	27.750	0.261	0.222
-428.617	-200.000	-0.027	0.319
-427.603	97.788	0.065	0.075
-426.588	66.415	0.031	-0.032
-425.573	12.736	0.248	-0.194
-424.559	-149.625	-0.256	-0.020
-423.544	-200.000	-0.040	0.284
-422.530	-59.640	-0.119	-0.052
-421.515	295.552	0.032	-0.058
-420.500	-62.157	-0.318	0.134
-419.486	195.181	0.188	0.288
-418.471	-200.000	0.039	-0.184
-417.457	13.322	-0.164	-0.129
-416.442	26.563	-0.054	0.046
-415.428	-200.000	-0.023	0.213
-414.413	-200.000	-0.017	-0.351
-413.398	-69.274	0.071	0.028
-412.384	-173.721	0.102	-0.003
-411.369	-95.220	0.148	0.040
-410.355	-35.819	0.262	-0.143
-409.340	24.159	-0.122	-0.102
-408.325	280.089	0.105	0.190
-407.311	800.000	0.005	0.015
-406.296	190.122	0.060	-0.091
-405.282	216.348	-0.056	-0.090
-404.267	-20.683	0.095	-0.059
-403.252	-1.184	0.147	0.105
-402.238	5.710	-0.074	0.055
-401.223	-200.000	0.014	0.397
-400.209	225.534	0.086	-0.140
-399.194	267.255	-0.123	0.217
-398.179	-109.742	0.259	0.055
-397.165	38.175	-0.122	0.110
-396.150	-200.000	0.068	-0.307
-395.136	-149.875	0.276	0.022
-394.121	111.371	0.032	0.039
-393.106	235.018	0.164	0.273
-392.092	-26.563	0.238	-0.141
-391.077	-200.000	-0.013	-0.092
-390.063	-68.333	-0.096	-0.038
-389.048	86.852	0.203	0.226
-388.033	568.130	-0.204	-0.499
-387.019	179.986	0.243	-0.359
-386.004	-200.000	0.109	0.000
-384.990	206.924	0.121	0.190
-383.975	-200.000	0.004	0.213
-382.960	-116.350	-0.227	-0.042
-381.946	130.822	0.125	-0.161
-380.931	-30.011	0.141	-0.081
-379.917	-132.878	-0.011	0.001
-378.902	-28.679	0.137	0.080
-377.888	-108.974	-0.232	-0.050
-376.873	-162.477	-0.256	0.013
-375.858	-113.577	-0.170	0.033
-374.844	-80.600	-0.214	-0.072
-373.829	800.000	0.064	0.232
-372.815	800.000	-0.023	0.063
-371.800	800.000	0.026	-0.104
-370.785	-200.000	-0.039	-0.250
-369.771	95.357	0.175	0.201
-368.756	-200.000	-0.013	-0.106
-367.742	56.967	-0.027	-0.026
-366.727	108.353	-0.103	0.124
-365.712	-200.000	0.026	0.485
-364.698	-29.652	0.219	0.126
-363.683	800.000	-0.082	-0.302
-362.669	314.706	0.093	0.176
-361.654	800.000	-0.041	0.135
-360.639	-134.916	0.378	0.046
-359.625	578.711	0.104	0.256
-358.610	800.000	-0.082	-0.229
-357.596	503.613	0.083	0.193
-356.581	198.185	-0.089	-0.137
-355.566	-11.053	-0.146	0.097
-354.552	-200.000	0.067	0.351
-353.537	-70.026	-0.203	-0.078
-352.523	800.000	-0.060	-0.232
-351.508	83.294	-0.211	0.232
-350.493	-62.260	0.071	-0.030
-349.479	-138.790	0.156	-0.017
-348.464	217.727	0.162	-0.260
-347.450	404.736	0.058	-0.123
-346.435	-12.960	0.424	-0.278
-345.420	-152.871	0.115	0.008
-344.406	-78.031	0.112	0.039
-343.391	150.760	0.251	0.343
-342.377	81.618	-0.046	0.050
-341.362	94.131	0.198	0.226
-340.348	-180.218	0.371	0.008
-339.333	-121.878	0.287	-0.048
-338.318	92.038	-0.100	0.113
-337.304	98.553	0.188	0.218
-336.289	30.919	-0.183	0.158
-335.275	318.172	0.051	-0.097
-334.260	-199.165	-0.220	0.001
-333.245	800.000	-0.115	0.323
-332.231	-6.736	-0.123	-0.084
-331.216	52.892	-0.183	0.176
-330.202	-82.148	0.211	-0.069
-329.187	286.229	0.032	-0.058
-328.172	5.752	0.144	-0.107
-327.158	-34.076	-0.150	-0.083
-326.143	510.205	-0.079	-0.184
-325.129	214.162	-0.111	0.177
-324.114	-138.673	-0.175	-0.019
-323.099	239.764	-0.088	-0.147
-322.085	6.081	-0.165	-0.123
-321.070	129.452	-0.034	0.044
-320.056	448.033	0.239	0.530
-319.041	122.483	0.255	-0.321
-318.026	297.943	-0.083	0.153
-317.012	127.915	0.044	-0.057
-315.997	-105.355	0.315	-0.072
-314.983	-200.000	-0.018	-0.130
-313.968	688.631	0.094	0.248
-312.953	-35.354	0.298	0.163
-311.939	378.117	-0.128	-0.263
-310.924	-163.290	-0.254	0.012
-309.910	779.027	0.056	-0.155
-308.895	114.182	0.094	0.115
-307.880	-76.665	-0.403	0.142
-306.866	-151.420	0.443	0.033
-305.851	-200.000	-0.033	-0.238
-304.837	-200.000	0.029	0.379
-303.822	-59.061	0.171	0.074
-302.807	170.354	-0.059	-0.085
-301.793	-200.000	0.020	0.104
-300.778	-200.000	-0.011	-0.183
-299.764	21.293	-0.359	-0.293
-298.749	81.106	-0.086	0.094
-297.735	-200.000	0.052	0.238
-296.720	-136.382	0.313	-0.037
-295.705	-10.967	0.234	-0.155
-294.691	-152.745	0.159	-0.011
-293.676	-86.965	0.061	0.019
-292.662	757.901	-0.085	-0.231
-291.647	-159.716	0.420	-0.023
-290.632	-7.315	0.347	-0.236
-289.618	-200.000	-0.016	-0.237
-288.603	-93.196	0.205	0.057
-287.589	-23.313	-0.114	0.069
-286.574	-40.118	0.152	0.080
-285.559	-61.625	-0.077	-0.032
-284.545	238.841	0.143	0.239
-283.530	800.000	0.031	0.087
-282.516	-200.000	0.040	0.231
-281.501	-110.755	-0.254	0.053
-280.486	94.477	0.181	-0.206
-279.472	76.587	0.045	-0.047
-278.457	-200.000	0.052	-0.273
-277.443	-3.756	0.263	0.184
-276.428	-101.657	-0.025	-0.006
-275.413	607.916	0.034	-0.085
-274.399	-119.509	-0.214	-0.037
-273.384	-200.000	0.024	-0.186
-272.370	-200.000	-0.036	0.292
-271.355	-55.591	-0.182	0.082
-270.340	800.000	0.068	0.266
-269.326	-200.000	0.012	0.122
-268.311	148.758	0.083	-0.112
-267.297	-63.965	0.262	0.107
-266.282	-200.000	0.007	0.328
-265.267	53.706	-0.354	-0.341
-264.253	-200.000	-0.036	-0.248
-263.238	31.116	-0.149	0.129
-262.224	-157.465	-0.193	0.012
-261.209	-34.265	-0.242	0.133
-260.195	-65.028	0.157	-0.064
-259.180	284.266	-0.128	0.231
-258.165	-200.000	-0.061	-0.337
-257.151	-29.107	0.192	0.111
-256.136	114.243	0.052	-0.064
-255.122	-141.163	-0.279	-0.029
-254.107	64.414	0.305	-0.308
-253.092	79.157	0.251	0.270
-252.078	41.874	-0.252	0.229
-251.063	-109.748	0.211	0.044
-250.049	35.952	-0.177	-0.156
-249.034	-44.971	-0.264	-0.132
-248.019	-200.000	0.001	-0.216
-247.005	-200.000	-0.008	0.272
-245.990	126.711	-0.129	-0.164
-244.976	-102.297	-0.192	-0.046
-243.961	-35.842	0.287	0.156
-242.946	-200.000	0.063	0.336
-241.932	-83.102	0.131	-0.042
-240.917	-24.830	-0.302	0.180
-239.903	308.405	0.080	0.150
-238.888	-200.000	0.071	0.343
-237.873	661.671	0.082	-0.212
-236.859	-172.950	0.196	0.006
-235.844	123.708	-0.110	-0.138
-234.830	-65.852	0.264	-0.106
-233.815	95.123	-0.388	-0.443
-232.800	36.679	0.179	-0.158
-231.786	49.114	-0.201	-0.189
-230.771	-47.879	-0.117	0.057
-229.757	-37.228	-0.254	0.136
-228.742	417.120	0.069	0.147
-227.727	-125.693	0.317	0.048
-226.713	36.717	-0.200	-0.177
-225.698	-105.288	-0.194	0.044
-224.684	133.475	0.295	-0.382
-223.669	230.331	-0.039	0.064
-222.655	288.770	0.021	-0.038
-221.640	570.150	0.082	0.199
-220.625	-59.424	-0.232	-0.100
-219.611	-79.694	-0.060	0.020
-218.596	-83.392	0.281	-0.090
-217.582	339.719	0.118	-0.231
-216.567	-57.314	-0.355	-0.156
-215.552	800.000	-0.088	-0.370
-214.538	-30.000	-0.043	0.024
-213.523	-200.000	0.044	-0.269
-212.509	-200.000	0.008	-0.073
-211.494	-0.719	-0.033	0.024
-210.479	606.485	-0.087	0.218
-209.465	-2.951	0.127	0.089
-208.450	105.287	-0.224	0.265
-207.436	800.000	0.031	-0.094
-206.421	464.320	-0.172	0.385
-205.406	-92.270	-0.422	-0.119
-204.392	-72.320	0.280	0.104
-203.377	-127.723	-0.272	-0.039
-202.363	114.665	-0.190	0.232
-201.348	-62.929	0.107	-0.044
-200.333	-135.096	-0.311	0.038
-199.319	800.000	-0.064	0.180
-198.304	-143.656	-0.438	0.042
-197.290	800.000	-0.092	0.265
-196.275	-67.180	0.249	-0.098
-195.260	142.712	0.122	0.163
-194.246	250.577	0.089	0.151
-193.231	-200.000	0.024	0.407
-192.217	-51.476	0.152	0.071
-191.202	-20.092	0.195	0.120
-190.187	34.300	-0.081	-0.071
-189.173	800.000	-0.056	-0.203
-188.158	288.802	-0.118	0.213
-187.144	377.758	-0.133	0.273
-186.129	-136.408	-0.024	-0.003
-185.114	-149.424	-0.286	0.023
-184.100	130.232	-0.125	0.160
-183.085	-200.000	0.008	-0.420
-182.071	-200.000	0.015	-0.184
-181.056	-27.058	0.110	0.064
-180.042	-200.000	0.018	-0.309
-179.027	413.139	-0.087	-0.184
-178.012	-81.745	-0.448	-0.147
-176.998	119.361	0.224	0.277
-175.983	201.760	0.091	0.139
-174.969	800.000	0.010	-0.029
-173.954	-200.000	0.005	0.358
-172.939	110.607	0.071	0.085
-171.925	-107.030	-0.314	-0.069
-170.910	52.815	-0.102	-0.097
-169.896	-69.187	0.251	0.097
-168.881	558.357	0.020	0.048
-167.866	138.379	-0.088	0.115
-166.852	-200.000	0.006	0.151
-165.837	800.000	-0.052	0.170
-164.823	4.225	0.279	0.204
-163.808	800.000	-0.070	-0.231
-162.793	356.407	-0.074	0.146
-161.779	-200.000	0.001	-0.144
-160.764	-99.453	0.317	0.080
-159.750	-39.149	-0.275	0.144
-158.735	-76.614	0.077	-0.027
-157.720	427.753	-0.071	-0.153
-156.706	85.296	-0.156	0.171
-155.691	-162.902	0.107	-0.005
-154.677	-43.537	0.097	0.049
-153.662	92.633	-0.128	0.144
-152.647	-169.111	-0.174	-0.006
-151.633	-200.000	-0.019	-0.226
-150.618	226.833	0.283	-0.459
-149.604	-21.478	-0.155	-0.094
-148.589	114.801	-0.190	0.231
-147.574	-21.806	-0.230	-0.139
-146.560	-139.649	-0.204	0.022
-145.545	7.143	-0.359	-0.268
-144.531	-70.183	0.125	-0.047
-143.516	220.479	-0.108	-0.173
-142.502	-200.000	-0.041	0.325
-141.487	176.413	0.149	0.217
-140.472	-200.000	-0.052	0.289
-139.458	496.139	-0.065	0.149
-138.443	-35.051	0.257	0.140
-137.429	800.000	-0.076	0.274
-136.414	-35.937	0.044	0.024
-135.399	382.212	-0.104	-0.214
-134.385	-174.330	-0.413	0.012
-133.370	235.355	0.052	-0.085
-132.356	254.335	-0.029	0.049
-131.341	-200.000	0.039	-0.250
-130.326	-37.601	0.301	-0.160
-129.312	-68.492	-0.137	0.053
-128.297	800.000	-0.021	-0.088
-127.283	800.000	-0.018	0.061
-126.268	-62.771	-0.175	-0.072
-125.253	-126.265	0.325	0.048
-124.239	-63.770	0.181	0.074
-123.224	250.092	0.135	-0.229
-122.210	18.001	0.222	0.177
-121.195	-2.877	0.131	0.091
