DTS Sentinel unit serial number:	SN413079Multiplexer serial number:	ORYXHardware model number:	OX4-SRSoftware version number:	ORYX F/W v4.00 Oryx Data Collector v3.7.2.0data status	okinstallation	princeton_trtdifferential loss correction	single-endedforward channel	channel 4reverse channel	N/Adate	2019/09/17time	19:45:35forward acquisition time	60.00reverse acquisition time	0.00gamma	496.2192k internal	0.2310k external	0.2310temperature offset calibration	0.9982default loss term (dB/km)	0.3790temperature slope calibration	1.0000multiplexer offset coefficient	1.0000multiplexer slope coefficient	1.0000fibre end	0.00T internal ref (°C)	34.86T ext. ref 1 (°C)	0.23T ext. ref 2 (°C)	24.19length (m)	temperature (°C)	Stokes	anti-Stokes-747.200	-153.749	-0.319	0.022
-746.185	81.894	-0.120	0.132
-745.171	65.565	0.141	0.145
-744.156	800.000	0.087	0.248
-743.142	24.779	0.058	0.049
-742.127	-113.650	-0.121	-0.024
-741.112	-64.902	0.354	-0.146
-740.098	99.575	-0.219	0.258
-739.083	800.000	-0.051	0.183
-738.069	-200.000	0.004	0.034
-737.054	-200.000	0.056	-0.275
-736.039	654.938	-0.033	0.087
-735.025	17.655	0.375	0.303
-734.010	-19.438	-0.278	0.175
-732.996	198.246	-0.063	-0.098
-731.981	57.278	0.218	0.216
-730.966	-159.164	-0.321	0.018
-729.952	276.055	-0.062	-0.112
-728.937	105.108	-0.196	-0.235
-727.923	800.000	-0.060	0.240
-726.908	-137.485	-0.071	-0.008
-725.894	774.646	0.106	0.295
-724.879	-24.634	-0.156	-0.094
-723.864	-200.000	-0.014	-0.104
-722.850	-200.000	0.016	-0.185
-721.835	110.753	0.084	0.102
-720.821	-49.413	-0.351	0.170
-719.806	-84.636	-0.245	-0.078
-718.791	-95.177	0.212	0.058
-717.777	145.758	-0.125	-0.170
-716.762	437.518	-0.148	-0.327
-715.748	-150.197	0.358	-0.028
-714.733	-30.618	-0.271	0.156
-713.718	-200.000	-0.020	0.242
-712.704	-200.000	0.043	0.262
-711.689	-161.877	-0.362	0.019
-710.675	-200.000	-0.035	0.227
-709.660	-31.258	0.347	-0.198
-708.645	-74.293	-0.251	0.092
-707.631	152.527	-0.325	-0.450
-706.616	193.855	-0.095	0.146
-705.602	216.229	0.025	0.041
-704.587	800.000	0.111	-0.396
-703.572	630.526	-0.104	0.268
-702.558	-121.293	-0.152	-0.026
-701.543	-11.374	-0.148	-0.099
-700.529	-8.160	-0.160	0.109
-699.514	382.687	0.035	-0.073
-698.499	-73.275	-0.038	-0.014
-697.485	232.813	-0.069	0.116
-696.470	565.767	0.141	0.346
-695.456	-91.114	-0.299	-0.087
-694.441	-3.551	-0.191	0.134
-693.426	697.522	0.012	-0.032
-692.412	-200.000	-0.017	0.174
-691.397	277.517	-0.232	0.419
-690.383	800.000	-0.057	-0.176
-689.368	-54.101	0.219	0.101
-688.354	-15.543	-0.259	-0.168
-687.339	703.766	0.223	0.595
-686.324	-84.149	-0.272	0.087
-685.310	412.278	-0.103	-0.222
-684.295	181.246	-0.113	-0.168
-683.281	-88.754	-0.148	-0.044
-682.266	562.401	-0.144	-0.353
-681.251	-72.361	-0.309	0.116
-680.237	-55.615	0.088	-0.040
-679.222	-59.477	-0.092	0.040
-678.208	800.000	-0.092	-0.285
-677.193	800.000	-0.074	0.227
-676.178	-46.936	-0.414	-0.205
-675.164	-200.000	-0.007	-0.364
-674.149	50.861	0.219	-0.210
-673.135	762.368	0.011	-0.031
-672.120	-122.056	-0.273	-0.045
-671.105	215.712	0.077	0.124
-670.091	-138.106	-0.339	-0.038
-669.076	-200.000	0.002	-0.079
-668.062	-122.540	0.260	-0.043
-667.047	-12.616	-0.167	-0.111
-666.032	306.399	-0.146	-0.275
-665.018	13.691	0.223	0.175
-664.003	-120.419	0.139	0.024
-662.989	-200.000	-0.015	-0.284
-661.974	-131.475	-0.142	0.019
-660.959	160.006	-0.095	-0.134
-659.945	94.159	0.087	-0.100
-658.930	-60.977	-0.233	-0.100
-657.916	-134.219	-0.171	0.021
-656.901	210.191	-0.115	-0.183
-655.886	-200.000	-0.043	-0.339
-654.872	335.406	-0.109	-0.215
-653.857	-62.182	-0.229	0.097
-652.843	769.032	-0.159	0.437
-651.828	-200.000	0.051	0.338
-650.814	212.915	0.057	0.092
-649.799	62.697	0.206	-0.208
-648.784	11.855	0.095	-0.074
-647.770	124.894	0.099	0.126
-646.755	218.665	0.078	0.126
-645.741	200.770	0.108	0.168
-644.726	-200.000	0.001	-0.323
-643.711	355.020	-0.113	0.228
-642.697	-44.559	0.148	-0.075
-641.682	-200.000	0.002	-0.163
-640.668	427.028	0.121	0.265
-639.653	-20.071	-0.147	-0.092
-638.638	800.000	0.114	0.361
-637.624	20.471	0.137	0.112
-636.609	513.269	-0.136	0.320
-635.595	800.000	-0.052	0.206
-634.580	95.299	-0.059	-0.068
-633.565	107.670	-0.142	-0.171
-632.551	104.592	-0.153	-0.183
-631.536	-30.662	-0.222	-0.127
-630.522	-200.000	-0.018	0.125
-629.507	-126.614	0.177	0.027
-628.492	-79.989	-0.258	0.088
-627.478	800.000	-0.048	0.138
-626.463	-200.000	-0.023	0.184
-625.449	-200.000	-0.054	-0.271
-624.434	777.971	0.051	-0.140
-623.419	74.889	-0.106	-0.112
-622.405	-29.252	0.241	0.140
-621.390	50.742	0.173	0.165
-620.376	45.776	-0.262	-0.245
-619.361	-42.706	-0.253	0.130
-618.346	-200.000	0.094	0.424
-617.332	-88.834	-0.235	-0.071
-616.317	84.864	-0.183	-0.203
-615.303	145.075	0.242	-0.327
-614.288	-107.508	-0.316	-0.070
-613.273	-126.668	0.175	-0.026
-612.259	-200.000	0.005	-0.148
-611.244	276.071	-0.079	-0.143
-610.230	-34.652	-0.348	0.192
-609.215	328.890	0.189	-0.367
-608.201	207.098	-0.068	0.107
-607.186	340.989	0.079	-0.156
-606.171	-200.000	-0.007	-0.083
-605.157	-155.362	0.467	-0.031
-604.142	-173.989	0.257	0.008
-603.128	-165.717	-0.164	-0.007
-602.113	13.793	-0.076	0.060
-601.098	-89.044	-0.215	-0.064
-600.084	402.568	-0.038	0.082
-599.069	476.559	0.116	0.264
-598.055	-100.875	0.161	0.040
-597.040	-2.076	0.245	0.174
-596.025	4.823	-0.108	-0.080
-595.011	58.530	0.234	0.232
-593.996	-122.579	0.275	0.045
-592.982	-200.000	-0.011	-0.180
-591.967	-200.000	0.053	-0.498
-590.952	-22.155	0.037	-0.023
-589.938	-200.000	0.007	0.205
-588.923	-22.780	0.117	0.071
-587.909	-141.755	-0.183	-0.019
-586.894	8.899	0.399	-0.304
-585.879	-200.000	0.018	0.253
-584.865	42.824	0.182	-0.168
-583.850	800.000	-0.077	0.216
-582.836	197.822	-0.114	-0.176
-581.821	-102.293	0.377	-0.091
-580.806	-28.954	0.085	-0.049
-579.792	-46.507	-0.107	-0.053
-578.777	-200.000	-0.114	0.510
-577.763	-46.305	0.164	-0.081
-576.748	-43.561	-0.347	-0.177
-575.733	370.054	0.063	0.129
-574.719	74.829	-0.102	-0.109
-573.704	605.266	-0.185	-0.464
-572.690	-60.992	-0.239	-0.102
-571.675	-32.014	-0.204	0.115
-570.661	-119.050	-0.246	-0.044
-569.646	-200.000	0.010	-0.238
-568.631	138.738	0.108	-0.144
-567.617	800.000	0.131	-0.427
-566.602	-200.000	0.026	-0.116
-565.588	419.681	0.097	0.209
-564.573	800.000	-0.065	-0.244
-563.558	-200.000	0.005	-0.207
-562.544	-32.871	-0.141	0.079
-561.529	-102.442	-0.121	0.029
-560.515	-200.000	0.014	-0.137
-559.500	-200.000	-0.009	-0.170
-558.485	-200.000	-0.012	0.141
-557.471	123.550	0.150	-0.189
-556.456	199.087	0.060	-0.093
-555.442	-63.292	0.258	0.107
-554.427	-200.000	-0.019	0.127
-553.412	-43.274	-0.180	0.092
-552.398	-93.610	-0.318	-0.089
-551.383	-200.000	0.075	-0.422
-550.369	23.199	-0.314	-0.260
-549.354	-113.112	-0.079	-0.016
-548.339	-12.920	0.172	-0.113
-547.325	800.000	0.046	-0.172
-546.310	-139.473	-0.247	-0.027
-545.296	-114.723	0.230	0.044
-544.281	-107.741	-0.103	-0.023
-543.266	-88.066	0.157	-0.047
-542.252	-200.000	-0.015	-0.131
-541.237	593.043	0.021	-0.051
-540.223	-150.619	-0.271	-0.021
-539.208	-200.000	-0.098	0.445
-538.193	-33.600	-0.106	0.059
-537.179	385.611	-0.042	-0.087
-536.164	251.129	0.045	-0.076
-535.150	800.000	-0.060	0.188
-534.135	349.349	-0.079	0.157
-533.121	-1.475	0.087	0.062
-532.106	219.214	-0.122	0.197
-531.091	704.284	-0.032	-0.086
-530.077	-200.000	-0.059	0.319
-529.062	-200.000	-0.009	-0.357
-528.048	-160.182	-0.103	0.006
-527.033	156.510	0.149	0.207
-526.018	-200.000	0.010	-0.230
-525.004	-9.156	0.205	0.138
-523.989	800.000	-0.050	-0.208
-522.975	-28.754	-0.221	-0.128
-521.960	-84.571	-0.241	-0.076
-520.945	17.512	-0.166	0.133
-519.931	-153.328	-0.278	-0.019
-518.916	-200.000	0.046	-0.287
-517.902	-105.022	0.211	0.049
-516.887	-122.261	-0.134	-0.022
-515.872	-148.333	-0.176	-0.015
-514.858	263.350	0.055	0.096
-513.843	-125.417	-0.129	0.020
-512.829	42.328	-0.068	0.062
-511.814	12.139	-0.229	-0.178
-510.799	-91.253	0.126	-0.036
-509.785	-38.411	0.214	-0.114
-508.770	-102.040	0.107	-0.026
-507.756	-200.000	-0.001	0.301
-506.741	20.701	-0.011	-0.009
-505.726	-200.000	-0.015	-0.155
-504.712	40.650	0.184	0.167
-503.697	-60.793	0.160	-0.068
-502.683	36.480	0.241	0.214
-501.668	-16.084	-0.331	0.212
-500.653	151.824	0.204	0.279
-499.639	220.529	-0.010	0.017
-498.624	-78.905	-0.057	-0.020
-497.610	-111.238	0.121	0.025
-496.595	-139.070	0.104	-0.011
-495.581	-59.586	0.162	-0.070
-494.566	-200.000	0.002	0.121
-493.551	253.854	0.032	-0.056
-492.537	-77.951	0.232	0.081
-491.522	212.250	-0.246	0.389
-490.508	-111.553	0.150	-0.031
-489.493	800.000	0.028	-0.109
-488.478	387.978	-0.052	-0.109
-487.464	-200.000	-0.022	0.141
-486.449	-108.356	-0.133	-0.029
-485.435	-130.509	-0.161	-0.022
-484.420	230.212	-0.076	-0.125
-483.405	-57.757	-0.187	0.082
-482.391	800.000	0.084	-0.354
-481.376	514.063	-0.060	-0.142
-480.362	-200.000	-0.020	0.150
-479.347	-200.000	0.011	0.118
-478.332	52.646	0.099	0.095
-477.318	-51.500	-0.099	-0.047
-476.303	380.485	-0.155	-0.320
-475.289	-35.742	0.357	0.195
-474.274	51.041	0.244	-0.232
-473.259	28.947	0.061	0.052
-472.245	-200.000	0.079	-0.469
-471.230	-78.555	0.132	-0.045
-470.216	99.463	-0.278	-0.323
-469.201	-200.000	0.039	-0.252
-468.186	-157.670	-0.450	-0.027
-467.172	764.701	0.013	-0.034
-466.157	463.272	-0.071	-0.160
-465.143	800.000	-0.028	0.118
-464.128	245.912	0.160	0.271
-463.113	-21.017	-0.229	-0.141
-462.099	-71.636	-0.056	0.021
-461.084	186.149	-0.210	-0.314
-460.070	631.792	-0.110	0.281
-459.055	-59.825	-0.188	0.081
-458.040	794.764	-0.032	0.090
-457.026	-156.010	0.021	-0.001
-456.011	190.542	0.143	-0.215
-454.997	800.000	0.087	-0.316
-453.982	800.000	-0.035	0.108
-452.968	-182.896	-0.196	0.004
-451.953	-200.000	-0.025	0.118
-450.938	-81.420	0.082	0.027
-449.924	-146.986	-0.080	-0.007
-448.909	75.545	0.207	0.220
-447.895	-98.646	-0.220	0.056
-446.880	240.872	0.046	-0.077
-445.865	-102.676	0.293	0.070
-444.851	-33.384	-0.282	-0.157
-443.836	-158.048	0.112	0.007
-442.822	15.380	0.126	0.099
-441.807	-109.095	0.279	0.060
-440.792	-122.802	0.180	0.029
-439.778	179.797	-0.120	0.177
-438.763	526.469	0.175	-0.413
-437.749	80.742	0.216	0.234
-436.734	-33.186	0.110	-0.061
-435.719	262.384	-0.174	-0.303
-434.705	800.000	-0.011	-0.041
-433.690	-193.817	-0.327	-0.003
-432.676	508.204	0.130	-0.304
-431.661	-135.806	0.271	-0.032
-430.646	-200.000	0.015	0.110
-429.632	-111.688	-0.261	-0.053
-428.617	-35.028	0.429	-0.234
-427.603	309.363	0.043	-0.080
-426.588	-115.594	0.236	0.045
-425.573	330.067	0.167	-0.323
-424.559	-140.573	-0.241	0.025
-423.544	93.495	0.049	0.055
-422.530	-200.000	-0.057	-0.279
-421.515	800.000	-0.045	0.161
-420.500	-98.641	-0.297	0.076
-419.486	-94.338	-0.450	-0.123
-418.471	-200.000	0.051	0.322
-417.457	128.605	0.029	0.037
-416.442	678.329	0.056	0.147
-415.428	-66.051	0.088	-0.035
-414.413	-57.927	-0.320	-0.140
-413.398	65.798	0.181	-0.184
-412.384	142.466	0.107	0.142
-411.369	17.064	0.130	0.104
-410.355	-200.000	-0.030	-0.252
-409.340	-139.167	-0.471	0.051
-408.325	-121.727	0.110	0.018
-407.311	-96.757	0.084	-0.022
-406.296	230.074	-0.042	0.069
-405.282	-92.380	0.150	0.042
-404.267	34.085	-0.015	-0.013
-403.252	-34.950	0.085	-0.046
-402.238	120.084	0.240	0.299
-401.223	61.212	-0.161	0.160
-400.209	661.836	0.076	-0.197
-399.194	-77.961	-0.157	-0.054
-398.179	-0.956	-0.181	-0.129
-397.165	-200.000	0.005	-0.134
-396.150	167.336	0.116	0.166
-395.136	-49.433	-0.083	-0.040
-394.121	-101.792	0.099	-0.024
-393.106	800.000	0.089	-0.303
-392.092	510.965	0.106	-0.246
-391.077	-173.273	0.057	-0.002
-390.063	-16.675	-0.158	-0.100
-389.048	-200.000	0.028	-0.135
-388.033	93.281	-0.026	-0.029
-387.019	800.000	0.074	0.219
-386.004	-66.403	-0.381	0.152
-384.990	191.676	0.060	0.091
-383.975	800.000	-0.071	0.301
-382.960	-13.418	0.255	0.165
-381.946	-200.000	-0.015	0.146
-380.931	-152.962	-0.241	-0.017
-379.917	-64.624	-0.083	0.034
-378.902	-200.000	0.036	-0.235
-377.888	-200.000	0.007	0.056
-376.873	-200.000	0.032	-0.158
-375.858	23.828	-0.209	0.173
-374.844	195.942	-0.145	0.221
-373.829	-66.790	0.072	0.029
-372.815	-98.856	0.304	0.077
-371.800	671.785	-0.041	0.106
-370.785	-200.000	0.017	-0.273
-369.771	-94.337	0.105	0.029
-368.756	-24.929	-0.219	0.130
-367.742	-7.450	-0.204	0.138
-366.727	-200.000	0.005	0.053
-365.712	-7.086	-0.264	-0.180
-364.698	800.000	0.125	-0.366
-363.683	91.191	0.301	0.338
-362.669	477.468	-0.113	-0.255
-361.654	-61.235	-0.096	0.041
-360.639	-41.226	0.363	-0.187
-359.625	800.000	-0.138	-0.419
-358.610	-200.000	-0.001	0.142
-357.596	-105.518	0.332	0.075
-356.581	-27.146	-0.495	-0.289
-355.566	-140.912	0.111	0.011
-354.552	-116.046	-0.026	-0.005
-353.537	-50.113	0.294	0.140
-352.523	-200.000	0.015	0.204
-351.508	112.117	-0.098	0.118
-350.493	110.367	-0.353	0.425
-349.479	13.394	0.194	0.151
-348.464	-16.243	0.224	-0.142
-347.450	-200.000	0.060	-0.368
-346.435	800.000	0.112	0.312
-345.420	295.983	0.048	0.089
-344.406	7.109	0.243	0.181
-343.391	-84.667	-0.193	-0.061
-342.377	-15.383	-0.333	-0.213
-341.362	34.307	-0.273	-0.238
-340.348	10.806	-0.254	-0.194
-339.333	-200.000	-0.034	0.167
-338.318	47.932	-0.152	0.142
-337.304	66.092	-0.097	0.099
-336.289	697.288	0.148	0.389
-335.275	-200.000	-0.002	0.386
-334.260	-88.287	-0.201	-0.060
-333.245	-109.317	-0.034	-0.007
-332.231	206.665	-0.247	-0.385
-331.216	-200.000	0.008	0.053
-330.202	580.352	0.139	-0.341
-329.187	76.357	0.014	-0.015
-328.172	-174.260	-0.090	-0.003
-327.158	-77.368	0.271	-0.094
-326.143	-118.688	-0.074	-0.013
-325.129	197.133	-0.103	-0.157
-324.114	-45.898	-0.124	0.061
-323.099	13.642	0.341	0.264
-322.085	800.000	0.034	0.102
-321.070	-135.889	-0.422	-0.050
-320.056	652.217	-0.157	0.401
-319.041	-115.830	-0.279	-0.052
-318.026	718.697	-0.068	0.180
-317.012	-200.000	0.017	0.157
-315.997	-155.186	0.306	0.020
-314.983	-12.351	0.228	-0.149
-313.968	-116.004	-0.453	0.084
-312.953	797.635	-0.129	0.354
-311.939	-200.000	0.017	-0.106
-310.924	-200.000	0.019	0.145
-309.910	-9.617	-0.374	0.249
-308.895	84.853	-0.219	-0.240
-307.880	35.865	-0.153	-0.134
-306.866	313.783	0.204	0.383
-305.851	800.000	0.059	-0.201
-304.837	-200.000	0.000	-0.293
-303.822	-14.320	-0.243	-0.156
-302.807	-200.000	0.011	0.272
-301.793	621.485	0.100	-0.252
-300.778	-200.000	-0.035	-0.278
-299.764	415.936	-0.083	0.177
-298.749	-2.589	0.159	0.111
-297.735	43.392	0.127	0.116
-296.720	48.520	0.251	0.235
-295.705	-26.254	0.194	-0.114
-294.691	-200.000	-0.012	0.190
-293.676	-33.774	0.121	0.067
-292.662	389.360	-0.119	0.246
-291.647	217.491	-0.215	0.341
-290.632	-8.354	0.122	-0.082
-289.618	-200.000	0.005	-0.142
-288.603	-200.000	0.018	0.088
-287.589	-136.583	0.099	0.011
-286.574	67.834	0.163	0.167
-285.559	-149.543	0.197	-0.016
-284.545	36.998	-0.295	-0.260
-283.530	800.000	0.017	0.050
-282.516	-165.449	0.055	-0.002
-281.501	-88.694	0.359	-0.106
-280.486	277.507	-0.097	-0.171
-279.472	-97.424	0.092	-0.024
-278.457	-200.000	-0.001	0.037
-277.443	-14.238	-0.163	0.105
-276.428	-200.000	0.022	0.273
-275.413	45.001	0.077	0.071
-274.399	-107.425	-0.186	0.041
-273.384	800.000	-0.154	0.442
-272.370	-66.015	-0.133	-0.053
-271.355	27.751	-0.335	-0.281
-270.340	-68.378	0.368	0.142
-269.326	-200.000	0.002	0.312
-268.311	267.347	0.105	-0.182
-267.297	-96.113	-0.028	0.007
-266.282	354.192	-0.128	0.253
-265.267	344.247	-0.093	0.182
-264.253	-80.280	-0.215	0.072
-263.238	72.472	-0.231	0.241
-262.224	-15.585	0.137	-0.087
-261.209	-51.091	-0.180	-0.084
-260.195	395.792	0.058	0.121
-259.180	-99.660	-0.315	0.079
-258.165	-110.741	0.377	-0.078
-257.151	44.610	0.075	0.069
-256.136	-53.110	0.154	-0.070
-255.122	17.454	-0.159	-0.126
-254.107	800.000	0.038	-0.124
-253.092	258.699	-0.077	0.133
-252.078	-48.809	-0.219	-0.105
-251.063	46.569	0.095	-0.088
-250.049	37.942	-0.105	-0.093
-249.034	415.818	-0.005	0.010
-248.019	53.166	-0.113	-0.108
-247.005	-31.507	-0.205	0.115
-245.990	-200.000	0.024	0.228
-244.976	-50.403	0.130	0.061
-243.961	-200.000	0.025	-0.167
-242.946	-40.113	0.309	0.160
-241.932	2.595	0.261	0.188
-240.917	-63.715	-0.198	-0.081
-239.903	426.551	0.024	-0.052
-238.888	-92.113	0.286	-0.081
-237.873	800.000	-0.023	-0.069
-236.859	-112.502	0.286	0.057
-235.844	-52.102	0.049	0.023
-234.830	800.000	0.063	0.205
-233.815	-107.218	0.210	-0.046
-232.800	122.185	0.183	-0.227
-231.786	25.205	-0.169	0.140
-230.771	-200.000	-0.045	0.296
-229.757	111.047	-0.218	-0.261
-228.742	-13.363	0.348	-0.225
-227.727	-118.032	-0.487	0.087
-226.713	-100.152	-0.253	0.063
-225.698	-68.821	-0.245	0.094
-224.684	800.000	-0.066	-0.231
-223.669	402.198	0.130	0.273
-222.655	-51.057	0.030	-0.014
-221.640	-164.931	0.298	-0.013
-220.625	300.583	0.087	-0.160
-219.611	59.755	-0.142	-0.139
-218.596	-200.000	0.010	-0.345
-217.582	388.614	0.072	-0.147
-216.567	-200.000	-0.063	-0.422
-215.552	39.743	-0.274	-0.245
-214.538	-200.000	0.021	0.348
-213.523	98.871	-0.152	-0.174
-212.509	791.324	0.114	0.311
-211.494	-152.643	0.268	-0.019
-210.479	-155.888	0.217	-0.014
-209.465	-69.392	0.355	-0.136
-208.450	-113.438	0.217	-0.042
-207.436	-200.000	0.007	0.077
-206.421	-181.217	0.313	-0.006
-205.406	315.487	0.085	-0.159
-204.392	-121.835	0.286	-0.047
-203.377	-53.379	0.220	0.100
-202.363	45.576	0.079	0.073
-201.348	-114.472	0.336	-0.064
-200.333	701.660	-0.120	-0.313
-199.319	-28.846	-0.278	0.159
-198.304	130.034	-0.113	0.144
-197.290	-200.000	-0.009	0.367
-196.275	633.134	0.147	0.371
-195.260	-48.832	0.167	0.080
-194.246	-200.000	0.007	0.069
-193.231	-200.000	-0.031	0.152
-192.217	-101.342	0.204	-0.050
-191.202	249.003	-0.046	0.077
-190.187	-166.265	-0.126	-0.005
-189.173	359.255	-0.044	0.087
-188.158	-200.000	0.010	0.255
-187.144	-142.889	0.028	-0.003
-186.129	-80.172	-0.220	-0.073
-185.114	-151.480	-0.522	-0.038
-184.100	215.683	-0.065	-0.102
-183.085	-66.750	0.122	-0.048
-182.071	324.330	-0.075	0.143
-181.056	-200.000	-0.024	0.122
-180.042	157.157	-0.347	0.476
-179.027	-98.972	0.542	0.137
-178.012	26.055	0.036	-0.030
-176.998	-73.165	0.539	0.196
-175.983	-200.000	0.026	-0.133
-174.969	-51.950	0.133	-0.061
-173.954	67.871	-0.124	0.126
-172.939	-94.902	-0.203	-0.055
-171.925	800.000	-0.048	0.163
-170.910	-111.232	0.088	0.018
-169.896	-105.099	0.234	0.053
-168.881	234.056	-0.044	0.071
-167.866	73.235	-0.112	0.116
-166.852	800.000	-0.084	0.240
-165.837	190.344	0.133	-0.199
-164.823	-200.000	0.038	-0.239
-163.808	-200.000	-0.002	-0.198
-162.793	216.246	0.209	-0.330
-161.779	-59.875	0.208	-0.088
-160.764	-200.000	0.009	-0.124
-159.750	-200.000	-0.041	-0.214
-158.735	-200.000	-0.074	0.371
-157.720	-154.257	0.225	0.015
-156.706	187.189	0.148	0.218
-155.691	800.000	0.064	0.183
-154.677	-7.239	0.192	-0.129
-153.662	-200.000	0.007	-0.186
-152.647	-120.023	0.342	0.058
-151.633	133.497	-0.048	0.062
-150.618	-1.500	0.199	-0.139
-149.604	55.042	-0.139	0.134
-148.589	75.815	-0.050	0.053
-147.574	57.332	-0.065	0.063
-146.560	800.000	0.031	0.106
-145.545	253.392	0.129	-0.219
-144.531	800.000	0.057	0.209
-143.516	-46.719	0.238	-0.116
-142.502	-179.957	-0.100	-0.002
-141.487	-70.350	-0.207	-0.078
-140.472	-200.000	0.024	-0.111
-139.458	-31.173	0.062	-0.035
-138.443	156.046	-0.089	0.122
-137.429	-145.916	-0.300	-0.026
-136.414	-11.355	-0.196	0.128
-135.399	800.000	0.083	-0.253
-134.385	800.000	0.058	0.203
-133.370	-108.001	-0.168	0.036
-132.356	-200.000	-0.000	-0.286
-131.341	305.174	0.202	0.372
-130.326	-96.591	-0.213	0.056
-129.312	624.902	0.040	-0.101
-128.297	-49.266	-0.038	0.018
-127.283	800.000	0.086	0.264
-126.268	146.577	-0.097	0.130
-125.253	144.673	-0.176	0.233
-124.239	-96.656	-0.129	-0.034
-123.224	-54.508	-0.396	0.178
