DTS Sentinel unit serial number:	SN413079Multiplexer serial number:	ORYXHardware model number:	OX4-SRSoftware version number:	ORYX F/W v4.00 Oryx Data Collector v3.7.2.0data status	okinstallation	princeton_trtdifferential loss correction	single-endedforward channel	channel 4reverse channel	N/Adate	2019/09/18time	18:25:34forward acquisition time	60.00reverse acquisition time	0.00gamma	496.2192k internal	0.2294k external	0.2294temperature offset calibration	1.0018default loss term (dB/km)	0.3790temperature slope calibration	1.0000multiplexer offset coefficient	1.0000multiplexer slope coefficient	1.0000fibre end	0.00T internal ref (°C)	38.55T ext. ref 1 (°C)	0.93T ext. ref 2 (°C)	31.25length (m)	temperature (°C)	Stokes	anti-Stokes-747.200	-200.000	-0.055	0.307
-746.185	-200.000	-0.030	0.184
-745.171	301.402	-0.158	0.299
-744.156	35.771	0.140	0.125
-743.142	-114.059	0.401	-0.079
-742.127	143.304	-0.230	0.313
-741.112	-138.767	-0.170	0.019
-740.098	-200.000	0.018	0.204
-739.083	101.591	0.156	0.185
-738.069	243.335	-0.182	0.312
-737.054	308.062	-0.049	0.094
-736.039	285.166	-0.133	0.245
-735.025	507.225	0.146	0.346
-734.010	-125.150	-0.119	-0.019
-732.996	-19.571	-0.210	-0.133
-731.981	800.000	-0.073	-0.298
-730.966	-175.381	-0.329	0.009
-729.952	101.964	0.068	0.081
-728.937	172.121	-0.174	-0.256
-727.923	-53.614	-0.258	-0.120
-726.908	-54.786	-0.176	0.081
-725.894	367.871	-0.083	0.172
-724.879	81.330	-0.195	0.216
-723.864	42.175	-0.107	0.099
-722.850	73.006	-0.069	-0.074
-721.835	214.793	0.114	0.185
-720.821	-21.832	-0.046	0.028
-719.806	-200.000	0.007	0.082
-718.791	178.862	0.060	-0.090
-717.777	-118.305	0.133	-0.024
-716.762	-138.244	0.180	0.020
-715.748	-102.443	-0.227	0.056
-714.733	-62.783	-0.230	-0.097
-713.718	222.329	0.163	0.268
-712.704	147.290	-0.090	0.123
-711.689	470.867	0.140	0.322
-710.675	-200.000	-0.060	0.271
-709.660	434.341	-0.033	-0.074
-708.645	-104.974	0.205	-0.048
-707.631	-0.410	-0.206	-0.149
-706.616	-200.000	-0.002	-0.067
-705.602	72.862	-0.198	-0.211
-704.587	800.000	-0.063	-0.236
-703.572	725.780	0.159	-0.433
-702.558	17.087	-0.380	-0.308
-701.543	222.337	-0.205	-0.337
-700.529	130.159	-0.047	-0.061
-699.514	-200.000	-0.028	-0.182
-698.499	-124.085	0.296	-0.047
-697.485	800.000	-0.092	-0.283
-696.470	238.596	0.081	0.138
-695.456	114.003	-0.074	0.092
-694.441	724.204	0.053	-0.146
-693.426	-184.013	-0.272	-0.005
-692.412	90.337	-0.142	-0.162
-691.397	-127.324	0.249	0.037
-690.383	137.498	0.220	-0.294
-689.368	20.686	0.099	0.082
-688.354	-121.368	-0.378	-0.064
-687.339	-134.278	-0.146	-0.018
-686.324	-173.920	0.088	-0.003
-685.310	-200.000	-0.044	-0.262
-684.295	-79.986	-0.309	0.106
-683.281	-110.290	-0.469	-0.100
-682.266	-103.850	0.088	0.021
-681.251	334.964	-0.134	-0.264
-680.237	-200.000	-0.216	0.000
-679.222	-116.268	-0.258	-0.049
-678.208	51.637	-0.175	0.170
-677.193	-138.112	0.164	-0.019
-676.178	800.000	-0.024	-0.101
-675.164	-175.532	0.135	-0.004
-674.149	576.787	0.065	0.163
-673.135	130.065	-0.336	0.439
-672.120	103.478	-0.082	0.098
-671.105	800.000	0.028	-0.091
-670.091	-53.840	-0.358	0.166
-669.076	-200.000	-0.008	0.406
-668.062	-200.000	0.012	0.266
-667.047	203.333	0.137	-0.216
-666.032	-47.928	-0.165	-0.081
-665.018	-200.000	-0.029	0.133
-664.003	-129.807	-0.284	0.040
-662.989	697.442	-0.097	0.259
-661.974	-114.247	0.154	-0.030
-660.959	-79.482	-0.148	0.051
-659.945	-31.402	-0.130	0.074
-658.930	400.941	-0.047	-0.101
-657.916	222.040	0.019	0.031
-656.901	644.625	-0.180	-0.467
-655.886	-109.749	-0.475	-0.102
-654.872	213.525	0.119	-0.192
-653.857	277.886	-0.117	0.212
-652.843	-85.824	0.403	-0.127
-651.828	-26.780	-0.056	0.033
-650.814	-65.882	0.058	-0.023
-649.799	800.000	-0.068	-0.269
-648.784	100.981	-0.116	-0.137
-647.770	-200.000	-0.025	-0.122
-646.755	800.000	-0.016	0.070
-645.741	-200.000	0.002	0.179
-644.726	71.029	-0.016	0.017
-643.711	54.711	-0.055	-0.054
-642.697	-10.346	-0.232	0.157
-641.682	6.007	-0.034	0.026
-640.668	85.924	-0.173	-0.194
-639.653	435.058	0.115	-0.255
-638.638	-6.758	0.030	-0.021
-637.624	-140.483	-0.092	0.010
-636.609	-71.123	0.100	-0.038
-635.595	133.087	-0.131	0.173
-634.580	139.284	-0.225	-0.301
-633.565	-109.855	-0.355	-0.076
-632.551	23.908	-0.048	-0.041
-631.536	-82.606	-0.083	-0.027
-630.522	274.243	-0.049	0.088
-629.507	379.624	-0.074	-0.155
-628.492	203.388	0.156	-0.245
-627.478	-97.167	0.235	0.063
-626.463	-140.035	-0.162	-0.017
-625.449	-15.813	-0.134	-0.087
-624.434	-12.910	-0.088	-0.059
-623.419	-116.677	0.148	0.028
-622.405	-47.800	-0.266	0.131
-621.390	-16.266	-0.165	-0.107
-620.376	-137.432	-0.267	-0.031
-619.361	-14.190	-0.393	-0.258
-618.346	17.945	-0.345	0.280
-617.332	-200.000	-0.008	0.117
-616.317	-200.000	-0.023	0.115
-615.303	-200.000	0.013	0.102
-614.288	-65.512	-0.293	-0.120
-613.273	64.723	-0.082	0.084
-612.259	239.632	0.150	-0.254
-611.244	-129.267	-0.182	-0.026
-610.230	564.582	0.045	-0.111
-609.215	-65.729	0.126	0.051
-608.201	43.876	0.172	0.160
-607.186	5.725	-0.201	0.151
-606.171	-200.000	-0.048	-0.230
-605.157	-87.149	0.131	0.041
-604.142	139.741	-0.189	-0.254
-603.128	-21.616	0.006	0.004
-602.113	-64.335	0.389	-0.161
-601.098	-89.070	-0.300	0.090
-600.084	-104.295	0.139	0.033
-599.069	-200.000	-0.053	-0.353
-598.055	-8.990	0.124	-0.084
-597.040	188.225	-0.040	-0.061
-596.025	-200.000	-0.024	-0.320
-595.011	724.587	0.019	0.053
-593.996	-200.000	0.003	-0.224
-592.982	-118.475	0.161	-0.029
-591.967	-200.000	-0.051	0.403
-590.952	-200.000	0.030	0.233
-589.938	51.452	0.095	0.092
-588.923	102.474	-0.166	0.197
-587.909	-149.669	-0.125	-0.010
-586.894	-200.000	-0.004	-0.323
-585.879	-139.114	0.449	0.049
-584.865	800.000	-0.027	0.118
-583.850	31.272	-0.233	-0.203
-582.836	547.127	0.113	-0.275
-581.821	800.000	0.052	0.218
-580.806	-200.000	0.014	0.251
-579.792	-197.145	-0.107	0.001
-578.777	-85.278	-0.174	0.055
-577.763	53.012	0.136	-0.132
-576.748	-200.000	0.010	0.133
-575.733	-38.998	-0.242	0.130
-574.719	-200.000	0.008	0.070
-573.704	184.282	0.066	-0.099
-572.690	-187.086	-0.276	-0.004
-571.675	537.874	0.055	0.132
-570.661	-111.178	-0.071	0.015
-569.646	497.776	0.034	0.080
-568.631	246.476	-0.057	0.098
-567.617	-6.694	0.247	0.171
-566.602	-115.028	-0.267	0.051
-565.588	79.464	0.137	-0.149
-564.573	54.931	0.128	0.125
-563.558	-101.528	-0.225	-0.056
-562.544	-200.000	-0.042	-0.340
-561.529	-119.146	0.314	0.056
-560.515	-200.000	0.018	0.167
-559.500	-200.000	0.000	-0.139
-558.485	137.694	0.253	0.336
-557.471	800.000	0.072	0.303
-556.456	4.647	0.347	-0.259
-555.442	24.240	-0.174	0.146
-554.427	520.800	0.107	0.255
-553.412	-137.320	0.184	-0.021
-552.398	-83.063	-0.172	0.056
-551.383	121.135	-0.224	0.283
-550.369	352.187	-0.106	-0.212
-549.354	24.364	0.154	0.129
-548.339	-68.901	-0.203	0.080
-547.325	143.257	0.063	0.085
-546.310	-60.435	0.242	0.104
-545.296	-153.768	-0.263	-0.018
-544.281	-200.000	0.002	0.133
-543.266	-200.000	-0.000	-0.079
-542.252	-200.000	0.025	-0.179
-541.237	-45.555	-0.085	0.043
-540.223	-200.000	0.032	-0.292
-539.208	800.000	0.023	-0.082
-538.193	55.360	0.216	-0.212
-537.179	-27.069	-0.120	-0.071
-536.164	-13.321	-0.231	0.152
-535.150	-176.435	0.393	0.010
-534.135	-10.206	-0.220	-0.148
-533.121	-9.451	-0.247	-0.167
-532.106	-200.000	-0.023	0.133
-531.091	33.978	0.199	-0.176
-530.077	-22.156	0.064	0.039
-529.062	642.615	0.151	-0.390
-528.048	800.000	0.050	-0.161
-527.033	175.758	0.065	0.095
-526.018	86.480	-0.143	0.160
-525.004	800.000	-0.067	0.270
-523.989	-200.000	0.011	0.205
-522.975	134.485	0.022	-0.029
-521.960	68.650	0.123	0.128
-520.945	216.623	-0.008	-0.013
-519.931	127.400	-0.305	-0.392
-518.916	42.792	0.130	0.120
-517.902	-200.000	-0.035	0.288
-516.887	-131.003	-0.152	0.021
-515.872	555.071	0.069	0.169
-514.858	-200.000	-0.005	-0.089
-513.843	-146.977	0.024	0.002
-512.829	-86.944	0.157	-0.048
-511.814	7.589	-0.090	0.068
-510.799	-127.824	0.235	-0.034
-509.785	-32.137	0.054	-0.030
-508.770	-168.960	-0.341	-0.013
-507.756	-128.870	0.242	0.034
-506.741	85.480	0.028	0.031
-505.726	800.000	-0.065	0.244
-504.712	-122.347	0.140	-0.023
-503.697	-200.000	-0.078	-0.451
-502.683	-124.100	0.475	-0.076
-501.668	-51.828	-0.061	0.029
-500.653	386.986	-0.115	0.241
-499.639	240.580	-0.050	-0.084
-498.624	800.000	-0.088	0.285
-497.610	-200.000	0.028	-0.236
-496.595	-70.757	-0.179	-0.068
-495.581	575.638	0.080	-0.198
-494.566	268.145	0.062	-0.109
-493.551	-165.691	0.386	0.017
-492.537	-178.156	-0.296	0.007
-491.522	800.000	0.078	-0.296
-490.508	-155.557	-0.161	0.010
-489.493	800.000	0.047	0.142
-488.478	-14.358	0.113	0.073
-487.464	70.737	-0.070	-0.073
-486.449	-128.176	0.117	0.017
-485.435	-43.964	-0.384	0.195
-484.420	321.252	0.082	0.158
-483.405	800.000	-0.044	-0.194
-482.391	-83.764	-0.079	-0.025
-481.376	-4.728	0.194	-0.135
-480.362	-85.444	0.228	-0.072
-479.347	-63.366	0.068	0.028
-478.332	-18.103	0.166	-0.105
-477.318	155.102	0.259	-0.360
-476.303	620.622	0.065	-0.166
-475.289	-141.852	-0.288	-0.029
-474.274	-67.887	-0.137	-0.054
-473.259	-10.523	0.169	-0.113
-472.245	160.070	0.183	-0.258
-471.230	760.742	-0.034	0.092
-470.216	-0.910	-0.199	-0.143
-469.201	-200.000	0.011	0.077
-468.186	183.399	0.109	-0.163
-467.172	512.490	0.103	-0.242
-466.157	800.000	-0.043	0.129
-465.143	281.678	0.187	0.339
-464.128	27.935	-0.067	0.058
-463.113	-168.944	-0.344	-0.013
-462.099	-200.000	-0.019	0.195
-461.084	61.502	0.126	-0.127
-460.070	-90.683	0.109	0.032
-459.055	-200.000	-0.057	0.329
-458.040	-200.000	-0.066	0.320
-457.026	-12.536	-0.091	-0.060
-456.011	16.884	-0.272	0.218
-454.997	-200.000	-0.027	0.206
-453.982	-115.163	-0.163	-0.031
-452.968	265.479	-0.208	-0.366
-451.953	-103.026	0.366	-0.088
-450.938	-36.730	-0.185	0.101
-449.924	-200.000	-0.030	0.132
-448.909	62.968	0.138	0.140
-447.895	299.387	-0.165	0.307
-446.880	-10.553	0.173	0.116
-445.865	800.000	-0.057	0.203
-444.851	-200.000	0.015	-0.101
-443.836	56.146	-0.347	-0.341
-442.822	-6.342	-0.262	0.180
-441.807	4.502	0.144	0.107
-440.792	800.000	-0.036	-0.140
-439.778	109.622	-0.077	-0.093
-438.763	146.297	0.065	0.088
-437.749	35.271	0.176	-0.156
-436.734	75.671	-0.129	-0.137
-435.719	-105.597	0.256	-0.059
-434.705	-28.755	-0.193	0.112
-433.690	67.658	0.237	-0.245
-432.676	86.615	-0.093	-0.103
-431.661	800.000	-0.014	-0.038
-430.646	-119.723	-0.151	-0.026
-429.632	-200.000	-0.055	-0.533
-428.617	-40.028	-0.236	-0.125
-427.603	-200.000	0.003	-0.159
-426.588	-200.000	0.021	-0.303
-425.573	53.183	0.118	0.114
-424.559	-200.000	-0.029	0.228
-423.544	28.386	0.255	0.218
-422.530	-200.000	-0.017	-0.089
-421.515	341.288	-0.122	-0.240
-420.500	65.623	0.178	0.182
-419.486	-200.000	0.034	0.252
-418.471	82.299	0.120	-0.131
-417.457	-31.371	0.231	0.131
-416.442	63.536	-0.106	-0.107
-415.428	631.306	0.045	0.114
-414.413	683.290	0.047	-0.124
-413.398	46.034	-0.232	-0.217
-412.384	800.000	-0.064	-0.208
-411.369	66.743	0.064	-0.066
-410.355	382.614	-0.053	-0.111
-409.340	-8.106	0.153	0.104
-408.325	52.548	0.147	-0.142
-407.311	41.152	-0.204	0.186
-406.296	-200.000	-0.083	0.368
-405.282	-131.758	0.425	0.056
-404.267	-165.860	0.167	-0.007
-403.252	-25.625	0.159	0.095
-402.238	-67.409	0.343	0.136
-401.223	-134.282	-0.247	-0.031
-400.209	601.547	-0.094	0.235
-399.194	622.962	0.050	0.126
-398.179	-168.997	-0.122	-0.005
-397.165	-200.000	-0.015	-0.248
-396.150	800.000	-0.010	0.040
-395.136	-200.000	-0.028	0.325
-394.121	-113.699	0.248	-0.049
-393.106	-200.000	-0.101	0.000
-392.092	-138.542	-0.242	0.027
-391.077	565.551	0.075	0.183
-390.063	-66.342	-0.040	0.016
-389.048	184.107	0.132	0.198
-388.033	578.549	-0.095	0.233
-387.019	83.758	0.110	0.121
-386.004	-5.826	0.153	0.105
-384.990	148.775	-0.238	0.324
-383.975	-8.089	0.155	0.106
-382.960	-200.000	0.048	0.337
-381.946	-200.000	0.009	0.047
-380.931	99.334	-0.142	0.166
-379.917	800.000	-0.087	-0.303
-378.902	800.000	0.029	-0.099
-377.888	414.903	-0.206	-0.442
-376.873	-120.689	-0.082	0.014
-375.858	800.000	-0.012	0.050
-374.844	-159.845	0.047	0.003
-373.829	800.000	0.026	0.096
-372.815	-200.000	0.007	-0.179
-371.800	800.000	-0.022	-0.064
-370.785	-132.946	-0.223	0.029
-369.771	-165.310	-0.251	-0.011
-368.756	800.000	0.057	-0.220
-367.742	63.043	0.274	-0.276
-366.727	-16.877	0.503	-0.320
-365.712	-123.658	0.405	0.065
-364.698	-69.952	-0.102	0.039
-363.683	-0.633	0.243	0.174
-362.669	377.474	-0.108	-0.223
-361.654	-107.426	-0.293	0.065
-360.639	101.494	-0.184	0.216
-359.625	185.653	-0.168	0.252
-358.610	56.916	0.221	-0.217
-357.596	-76.091	0.176	-0.063
-356.581	328.297	-0.131	-0.253
-355.566	23.682	-0.105	-0.087
-354.552	82.492	0.274	-0.299
-353.537	800.000	-0.027	-0.103
-352.523	9.822	0.242	-0.185
-351.508	-87.905	-0.028	0.008
-350.493	42.199	0.323	-0.295
-349.479	-200.000	-0.020	-0.145
-348.464	382.246	0.062	-0.129
-347.450	-7.817	0.350	-0.238
-346.435	-10.309	0.039	0.026
-345.420	-107.787	0.521	0.114
-344.406	-83.097	-0.336	0.109
-343.391	-143.080	0.323	-0.031
-342.377	135.862	0.131	0.171
-341.362	-200.000	0.004	0.073
-340.348	68.494	-0.318	0.328
-339.333	56.412	0.151	0.147
-338.318	-200.000	0.034	0.188
-337.304	-54.932	0.172	-0.078
-336.289	249.228	0.073	-0.125
-335.275	800.000	-0.023	-0.093
-334.260	-167.031	-0.149	-0.006
-333.245	714.153	-0.052	0.139
-332.231	41.932	-0.165	0.151
-331.216	-81.611	0.245	0.081
-330.202	-30.458	0.223	0.127
-329.187	-187.845	-0.385	0.005
-328.172	-5.345	-0.134	0.093
-327.158	395.922	-0.281	-0.591
-326.143	-99.146	-0.252	0.064
-325.129	-66.256	-0.098	-0.039
-324.114	-178.596	0.228	0.005
-323.099	-69.808	-0.210	0.081
-322.085	-37.994	-0.091	-0.049
-321.070	-128.377	0.307	0.044
-320.056	103.904	-0.130	0.153
-319.041	800.000	0.017	0.047
-318.026	-170.379	-0.154	0.005
-317.012	-52.802	-0.037	0.017
-315.997	-85.581	0.280	0.088
-314.983	-200.000	0.001	-0.037
-313.968	-200.000	0.005	-0.244
-312.953	7.609	0.162	0.122
-311.939	-91.132	0.204	0.059
-310.924	-200.000	-0.003	0.175
-309.910	74.273	0.045	0.048
-308.895	347.298	-0.065	0.128
-307.880	61.771	0.021	0.021
-306.866	-55.302	0.245	-0.111
-305.851	669.998	0.129	0.335
-304.837	-200.000	0.024	0.170
-303.822	-110.000	-0.410	0.086
-302.807	-200.000	-0.010	0.278
-301.793	27.470	-0.103	0.087
-300.778	-76.153	-0.255	0.091
-299.764	-200.000	0.041	-0.399
-298.749	297.845	-0.121	-0.223
-297.735	800.000	0.084	0.327
-296.720	461.383	-0.078	0.176
-295.705	601.069	-0.103	-0.258
-294.691	-111.269	-0.027	0.006
-293.676	657.556	-0.072	0.185
-292.662	-200.000	0.084	-0.495
-291.647	708.437	0.092	0.244
-290.632	19.453	0.157	0.127
-289.618	800.000	0.066	0.187
-288.603	-64.885	0.139	0.057
-287.589	-91.049	-0.228	0.066
-286.574	77.396	-0.144	0.154
-285.559	-29.247	-0.293	-0.168
-284.545	373.246	0.054	0.111
-283.530	-56.651	0.287	0.128
-282.516	-81.747	0.231	0.076
-281.501	29.948	0.087	-0.074
-280.486	-200.000	0.055	-0.309
-279.472	742.267	-0.107	-0.290
-278.457	-71.269	-0.048	0.018
-277.443	460.184	0.010	0.023
-276.428	-200.000	0.011	0.266
-275.413	769.793	-0.135	0.369
-274.399	69.464	-0.156	0.162
-273.384	252.319	0.128	-0.219
-272.370	411.846	0.126	-0.269
-271.355	399.185	0.080	0.168
-270.340	800.000	0.046	-0.177
-269.326	-180.218	-0.265	0.006
-268.311	-3.217	0.029	-0.020
-267.297	189.816	-0.083	0.125
-266.282	800.000	0.075	-0.246
-265.267	297.054	-0.184	-0.339
-264.253	-200.000	0.021	0.259
-263.238	-120.450	-0.360	-0.061
-262.224	-22.976	-0.177	-0.107
-261.209	-200.000	-0.021	-0.232
-260.195	666.118	-0.063	0.164
-259.180	-54.126	0.068	-0.031
-258.165	-135.442	0.240	0.029
-257.151	-126.341	0.044	0.007
-256.136	-135.892	-0.336	-0.040
-255.122	36.169	-0.291	0.257
-254.107	523.208	0.063	-0.148
-253.092	800.000	0.136	-0.434
-252.078	479.405	0.016	0.037
-251.063	-112.077	-0.280	0.056
-250.049	-200.000	0.000	0.101
-249.034	131.428	0.045	-0.058
-248.019	-157.089	-0.291	0.018
-247.005	800.000	0.114	0.362
-245.990	800.000	-0.056	-0.207
-244.976	351.339	-0.137	0.272
-243.961	-157.225	-0.205	-0.012
-242.946	335.700	-0.044	0.086
-241.932	385.716	0.115	0.238
-240.917	-102.858	-0.295	0.070
-239.903	-113.550	0.147	-0.029
-238.888	-60.346	0.311	0.133
-237.873	-87.802	0.379	0.115
-236.859	-200.000	-0.083	-0.454
-235.844	-100.035	0.320	-0.080
-234.830	17.459	0.319	0.254
-233.815	-20.831	0.160	-0.099
-232.800	69.771	-0.203	-0.209
-231.786	19.348	0.054	0.043
-230.771	-200.000	-0.006	-0.123
-229.757	11.493	0.036	-0.027
-228.742	398.116	-0.101	-0.212
-227.727	-59.008	-0.122	0.053
-226.713	-92.943	0.157	0.044
-225.698	255.059	-0.079	0.135
-224.684	470.364	0.087	0.196
-223.669	-121.615	0.282	-0.047
-222.655	-200.000	0.040	0.221
-221.640	-43.863	-0.078	-0.039
-220.625	86.399	0.112	0.124
-219.611	-200.000	0.016	0.190
-218.596	-200.000	0.008	0.045
-217.582	-200.000	-0.009	0.119
-216.567	-8.337	-0.402	0.271
-215.552	-65.794	0.173	0.070
-214.538	51.026	-0.184	-0.175
-213.523	800.000	0.026	0.115
-212.509	-200.000	-0.024	0.214
-211.494	119.809	-0.146	-0.181
-210.479	800.000	-0.022	0.072
-209.465	-47.465	0.145	0.071
-208.450	74.366	0.173	0.182
-207.436	-116.761	0.225	-0.041
-206.421	463.944	-0.033	-0.074
-205.406	147.751	-0.164	0.221
-204.392	5.735	-0.287	-0.213
-203.377	800.000	0.145	-0.574
-202.363	-101.680	0.200	-0.049
-201.348	354.752	0.038	-0.076
-200.333	35.587	0.193	-0.170
-199.319	-193.738	0.403	0.003
-198.304	382.519	0.092	-0.190
-197.290	120.749	-0.257	-0.320
-196.275	69.963	-0.107	-0.111
-195.260	769.777	-0.050	0.136
-194.246	-86.927	0.045	0.014
-193.231	129.335	0.178	0.227
-192.217	142.228	0.077	-0.103
-191.202	-127.031	-0.197	0.029
-190.187	-81.215	-0.063	-0.021
-189.173	-200.000	-0.008	-0.110
-188.158	455.149	-0.085	0.189
-187.144	-131.100	0.165	-0.022
-186.129	-93.251	0.289	0.080
-185.114	-113.719	-0.282	-0.055
-184.100	-200.000	0.021	-0.337
-183.085	657.016	0.086	0.220
-182.071	130.350	-0.096	0.123
-181.056	-174.562	0.083	-0.002
-180.042	-200.000	0.006	0.107
-179.027	2.659	0.172	0.125
-178.012	-6.089	-0.368	-0.251
-176.998	95.569	-0.267	0.304
-175.983	-99.166	-0.421	0.106
-174.969	-1.496	0.064	-0.045
-173.954	6.496	0.067	-0.050
-172.939	4.561	-0.175	-0.129
-171.925	68.264	0.273	0.280
-170.910	-38.924	0.197	-0.104
-169.896	-4.630	0.137	-0.095
-168.881	-155.813	-0.061	0.004
-167.866	-100.421	0.383	-0.095
-166.852	800.000	0.054	0.179
-165.837	-83.270	0.205	-0.066
-164.823	-144.579	0.215	0.020
-163.808	-135.251	-0.378	0.045
-162.793	-114.994	0.079	0.015
-161.779	186.396	0.234	-0.349
-160.764	166.268	-0.095	0.135
-159.750	-37.336	0.320	-0.171
-158.735	33.539	-0.089	0.078
-157.720	800.000	-0.026	0.095
-156.706	6.399	-0.181	0.135
-155.691	-44.186	-0.044	0.022
-154.677	-200.000	-0.033	-0.285
-153.662	-27.895	-0.169	0.098
-152.647	-200.000	-0.045	0.486
-151.633	-56.394	0.372	-0.165
-150.618	344.449	0.046	0.091
-149.604	264.827	0.056	0.097
-148.589	-48.628	-0.239	-0.115
-147.574	21.385	0.119	-0.096
-146.560	304.317	0.055	0.102
-145.545	255.147	0.266	-0.455
-144.531	18.225	0.246	-0.197
-143.516	800.000	-0.048	0.165
-142.502	251.696	0.136	0.232
-141.487	800.000	0.017	-0.062
-140.472	24.028	0.184	0.151
-139.458	137.053	0.152	0.198
-138.443	-12.966	-0.179	0.116
-137.429	-160.838	-0.266	0.014
-136.414	717.112	-0.055	-0.147
-135.399	-200.000	0.012	-0.215
-134.385	-140.953	0.039	-0.004
-133.370	-200.000	-0.005	0.095
-132.356	89.140	-0.182	-0.202
-131.341	443.510	0.042	-0.091
-130.326	-115.621	0.055	-0.010
-129.312	-69.061	-0.109	0.042
-128.297	-73.032	0.384	0.141
-127.283	-200.000	0.012	0.182
-126.268	-93.469	0.125	-0.035
-125.253	-200.000	-0.081	-0.398
-124.239	176.462	0.111	0.162
-123.224	-55.780	-0.069	0.031
-122.210	49.831	-0.059	0.055
-121.195	-197.582	0.128	-0.001
