DTS Sentinel unit serial number:	SN413079Multiplexer serial number:	ORYXHardware model number:	OX4-SRSoftware version number:	ORYX F/W v4.00 Oryx Data Collector v3.7.2.0data status	okinstallation	princeton_trtdifferential loss correction	single-endedforward channel	channel 4reverse channel	N/Adate	2019/09/18time	06:57:35forward acquisition time	60.00reverse acquisition time	0.00gamma	496.2192k internal	0.2332k external	0.2332temperature offset calibration	1.0002default loss term (dB/km)	0.3790temperature slope calibration	1.0000multiplexer offset coefficient	1.0000multiplexer slope coefficient	1.0000fibre end	0.00T internal ref (°C)	23.19T ext. ref 1 (°C)	0.20T ext. ref 2 (°C)	17.08length (m)	temperature (°C)	Stokes	anti-Stokes-747.200	-200.000	0.011	-0.127
-746.185	-200.000	0.002	0.011
-745.171	186.484	0.094	0.140
-744.156	-113.966	0.317	-0.062
-743.142	800.000	-0.039	0.143
-742.127	-200.000	-0.030	0.447
-741.112	294.637	0.085	0.157
-740.098	17.021	-0.179	-0.142
-739.083	-7.950	0.110	-0.074
-738.069	165.692	-0.102	0.145
-737.054	-200.000	0.007	0.079
-736.039	55.838	-0.171	0.167
-735.025	-179.311	0.427	0.010
-734.010	-123.286	0.158	0.025
-732.996	13.001	-0.220	-0.171
-731.981	-200.000	0.001	0.315
-730.966	-43.733	0.113	-0.057
-729.952	-200.000	0.039	-0.182
-728.937	-200.000	-0.119	-0.000
-727.923	167.612	-0.253	0.362
-726.908	-200.000	0.000	-0.070
-725.894	-146.314	-0.284	-0.025
-724.879	-23.034	0.198	-0.120
-723.864	25.526	-0.164	-0.137
-722.850	800.000	-0.088	0.313
-721.835	163.699	-0.182	-0.257
-720.821	86.559	-0.060	0.067
-719.806	-76.277	-0.197	0.070
-718.791	-71.444	-0.189	-0.071
-717.777	-200.000	-0.045	0.235
-716.762	248.801	-0.056	0.095
-715.748	-31.831	-0.271	0.153
-714.733	87.059	0.117	0.130
-713.718	-115.451	0.278	0.053
-712.704	-17.145	0.158	0.100
-711.689	8.437	0.093	-0.070
-710.675	-25.699	0.095	-0.056
-709.660	-83.578	0.226	0.073
-708.645	38.384	0.111	0.099
-707.631	218.413	-0.176	0.282
-706.616	37.631	0.179	0.159
-705.602	-50.423	0.370	0.176
-704.587	-200.000	0.012	0.086
-703.572	18.630	0.211	-0.170
-702.558	-70.985	0.082	0.031
-701.543	-51.460	-0.193	-0.091
-700.529	112.071	0.180	-0.218
-699.514	-86.576	0.233	-0.072
-698.499	-86.326	-0.035	-0.011
-697.485	305.865	0.054	0.100
-696.470	-200.000	-0.056	0.342
-695.456	111.090	-0.027	0.033
-694.441	-94.824	0.063	-0.017
-693.426	-121.344	0.576	0.096
-692.412	365.696	0.053	-0.108
-691.397	-81.145	0.244	0.081
-690.383	136.103	-0.205	-0.268
-689.368	-181.584	0.193	0.004
-688.354	129.457	0.083	0.107
-687.339	-118.996	-0.341	0.060
-686.324	-177.497	0.158	0.004
-685.310	-200.000	0.022	0.209
-684.295	287.056	-0.055	0.100
-683.281	710.286	0.054	-0.143
-682.266	-26.326	0.224	0.132
-681.251	-200.000	0.027	-0.152
-680.237	-200.000	-0.044	0.207
-679.222	-200.000	0.008	-0.077
-678.208	-3.551	0.199	-0.139
-677.193	236.031	0.082	-0.135
-676.178	278.954	-0.118	-0.211
-675.164	-200.000	0.040	0.203
-674.149	-200.000	0.021	0.440
-673.135	47.486	-0.031	-0.029
-672.120	42.442	-0.061	0.056
-671.105	-102.870	-0.031	0.007
-670.091	-43.054	-0.204	-0.104
-669.076	-89.149	-0.195	-0.058
-668.062	-200.000	0.008	0.207
-667.047	77.098	-0.177	0.188
-666.032	85.986	-0.166	-0.183
-665.018	800.000	-0.070	0.263
-664.003	-200.000	0.006	0.273
-662.989	233.447	-0.113	-0.186
-661.974	-200.000	0.029	0.201
-660.959	-81.064	-0.224	0.074
-659.945	-200.000	0.030	-0.151
-658.930	-200.000	0.018	-0.190
-657.916	-200.000	0.022	-0.570
-656.901	-118.223	0.049	-0.009
-655.886	15.300	0.142	-0.112
-654.872	332.854	-0.127	0.246
-653.857	-17.819	-0.418	0.263
-652.843	-75.711	-0.231	0.082
-651.828	74.077	-0.051	-0.053
-650.814	-37.081	0.144	-0.077
-649.799	58.917	-0.184	0.181
-648.784	15.484	-0.148	-0.116
-647.770	-200.000	-0.004	0.111
-646.755	61.482	-0.251	-0.250
-645.741	-126.129	0.332	-0.050
-644.726	167.013	-0.200	0.284
-643.711	-128.916	0.080	0.011
-642.697	800.000	-0.069	-0.273
-641.682	185.074	-0.046	0.068
-640.668	-200.000	0.066	0.344
-639.653	133.078	0.031	-0.040
-638.638	-45.797	0.081	-0.040
-637.624	-85.185	-0.385	-0.121
-636.609	-200.000	0.032	-0.323
-635.595	576.546	0.210	0.514
-634.580	52.606	0.196	-0.187
-633.565	174.008	-0.130	-0.189
-632.551	32.014	0.146	-0.126
-631.536	-139.575	-0.172	-0.018
-630.522	800.000	-0.060	-0.188
-629.507	-200.000	0.015	-0.159
-628.492	7.659	0.065	-0.049
-627.478	-77.044	-0.134	-0.047
-626.463	100.755	0.111	0.129
-625.449	5.507	0.169	-0.125
-624.434	-108.936	0.150	0.032
-623.419	172.226	0.286	-0.412
-622.405	-42.467	-0.106	-0.054
-621.390	21.357	0.277	0.225
-620.376	-43.607	0.201	-0.102
-619.361	-82.710	0.103	0.033
-618.346	-109.622	-0.319	0.067
-617.332	-59.831	-0.209	-0.090
-616.317	-200.000	-0.048	-0.368
-615.303	800.000	0.115	0.323
-614.288	800.000	-0.069	0.294
-613.273	-61.085	-0.294	-0.124
-612.259	-200.000	0.016	0.123
-611.244	-101.621	-0.214	-0.052
-610.230	-92.362	-0.298	-0.084
-609.215	-19.456	0.191	-0.118
-608.201	4.818	0.130	-0.096
-607.186	122.088	-0.239	0.299
-606.171	44.357	0.275	0.253
-605.157	-200.000	-0.021	-0.103
-604.142	170.273	0.183	-0.262
-603.128	402.743	-0.080	0.168
-602.113	-200.000	0.014	-0.149
-601.098	-53.138	0.211	0.097
-600.084	-200.000	0.034	0.412
-599.069	-55.842	0.253	-0.113
-598.055	143.413	0.102	0.136
-597.040	-94.029	0.184	-0.051
-596.025	430.837	-0.131	-0.283
-595.011	-30.993	-0.201	0.113
-593.996	-149.627	0.127	0.010
-592.982	800.000	-0.059	-0.223
-591.967	800.000	-0.052	-0.198
-590.952	-141.829	-0.222	0.022
-589.938	-57.342	-0.316	0.139
-588.923	-38.963	-0.251	-0.132
-587.909	-131.024	0.417	0.056
-586.894	-12.971	-0.295	-0.192
-585.879	800.000	0.098	0.366
-584.865	-200.000	-0.023	0.127
-583.850	523.587	-0.065	0.152
-582.836	313.308	0.029	0.054
-581.821	-34.770	-0.365	-0.199
-580.806	-200.000	0.030	0.322
-579.792	137.515	-0.020	-0.027
-578.777	800.000	-0.074	0.205
-577.763	-123.409	-0.354	-0.056
-576.748	94.290	-0.080	-0.091
-575.733	48.194	-0.163	0.153
-574.719	-55.922	-0.092	0.041
-573.704	274.271	-0.122	-0.216
-572.690	-100.471	-0.149	0.037
-571.675	-200.000	0.060	0.341
-570.661	-151.674	-0.145	-0.011
-569.646	-81.536	-0.031	0.010
-568.631	800.000	-0.047	0.132
-567.617	297.961	-0.205	-0.376
-566.602	800.000	-0.008	-0.024
-565.588	-96.566	-0.305	-0.080
-564.573	18.214	-0.175	0.139
-563.558	-119.922	0.310	0.053
-562.544	800.000	0.029	-0.110
-561.529	-72.571	-0.251	-0.092
-560.515	-200.000	0.011	-0.126
-559.500	-114.456	0.174	0.033
-558.485	-200.000	-0.018	0.329
-557.471	225.914	-0.018	-0.030
-556.456	800.000	-0.063	0.194
-555.442	-125.623	0.127	-0.019
-554.427	-200.000	0.000	0.288
-553.412	-69.588	-0.301	-0.115
-552.398	-76.946	-0.149	-0.052
-551.383	365.986	0.168	-0.338
-550.369	800.000	0.074	-0.323
-549.354	78.267	0.135	0.144
-548.339	156.045	0.090	0.123
-547.325	39.365	-0.148	0.132
-546.310	338.048	0.153	-0.296
-545.296	-81.577	0.143	0.047
-544.281	185.874	-0.205	0.304
-543.266	438.745	-0.030	-0.065
-542.252	-71.542	0.237	-0.088
-541.237	-149.679	-0.193	0.015
-540.223	305.976	-0.119	0.220
-539.208	-200.000	0.017	-0.438
-538.193	163.065	-0.125	0.175
-537.179	-200.000	0.028	0.139
-536.164	800.000	0.169	0.570
-535.150	-126.773	0.401	0.059
-534.135	86.601	0.062	-0.068
-533.121	-200.000	0.250	-0.001
-532.106	-119.798	0.182	-0.031
-531.091	800.000	-0.057	0.196
-530.077	268.542	-0.107	-0.187
-529.062	-200.000	-0.024	-0.327
-528.048	522.089	0.047	-0.111
-527.033	800.000	-0.043	-0.150
-526.018	-138.918	0.277	-0.030
-525.004	-179.370	-0.124	0.003
-523.989	-141.910	0.113	-0.011
-522.975	-156.619	-0.258	-0.016
-521.960	338.482	-0.134	0.261
-520.945	-200.000	0.017	-0.362
-519.931	-200.000	-0.048	0.221
-518.916	-85.769	0.183	0.057
-517.902	-64.690	0.284	0.115
-516.887	-19.963	-0.133	0.082
-515.872	800.000	-0.095	-0.310
-514.858	-139.624	-0.232	0.025
-513.843	414.343	0.098	0.207
-512.829	-200.000	0.004	0.370
-511.814	-50.080	-0.149	0.071
-510.799	22.594	-0.100	-0.081
-509.785	-89.285	-0.252	-0.074
-508.770	-143.069	-0.358	0.034
-507.756	96.042	-0.235	0.267
-506.741	800.000	0.080	0.275
-505.726	800.000	-0.053	-0.208
-504.712	44.665	-0.071	0.065
-503.697	90.093	0.234	-0.261
-502.683	296.642	-0.084	-0.154
-501.668	385.250	-0.091	0.188
-500.653	-100.535	0.249	-0.061
-499.639	-22.466	0.367	-0.222
-498.624	-133.141	-0.398	0.050
-497.610	-200.000	-0.109	-0.502
-496.595	0.440	-0.118	0.084
-495.581	27.790	-0.349	0.292
-494.566	347.315	-0.070	0.138
-493.551	15.337	-0.239	0.187
-492.537	800.000	0.082	0.276
-491.522	-200.000	-0.003	0.124
-490.508	192.560	0.082	-0.123
-489.493	14.837	-0.183	-0.142
-488.478	-160.189	0.325	0.018
-487.464	224.804	-0.096	-0.154
-486.449	-173.677	0.022	0.001
-485.435	-112.896	0.101	-0.020
-484.420	391.939	-0.126	0.262
-483.405	507.520	-0.214	-0.494
-482.391	-129.587	0.373	-0.051
-481.376	139.798	-0.093	0.122
-480.362	5.455	-0.102	-0.075
-479.347	677.349	0.077	0.199
-478.332	-138.609	-0.298	-0.033
-477.318	800.000	0.062	-0.211
-476.303	-60.881	-0.093	-0.039
-475.289	404.465	0.034	0.072
-474.274	-176.004	0.519	0.014
-473.259	-129.204	0.216	0.030
-472.245	-108.084	-0.208	-0.045
-471.230	93.069	0.140	-0.158
-470.216	-139.685	0.258	0.027
-469.201	-200.000	-0.013	0.069
-468.186	-16.573	0.117	0.074
-467.172	-122.219	-0.042	0.007
-466.157	800.000	-0.106	-0.326
-465.143	-116.458	-0.156	0.029
-464.128	479.620	0.051	-0.114
-463.113	-26.935	0.403	0.234
-462.099	606.717	-0.051	0.125
-461.084	-125.256	0.228	0.035
-460.070	125.082	0.185	-0.232
-459.055	-133.367	-0.353	-0.044
-458.040	173.546	0.213	0.305
-457.026	88.970	-0.119	-0.131
-456.011	-200.000	0.042	0.371
-454.997	-76.371	-0.330	-0.115
-453.982	-27.505	0.317	0.183
-452.968	13.814	-0.413	-0.319
-451.953	-200.000	-0.003	0.112
-450.938	-200.000	-0.015	0.189
-449.924	-200.000	0.013	0.242
-448.909	-112.429	0.198	-0.039
-447.895	-14.842	-0.138	-0.088
-446.880	-106.882	-0.320	0.071
-445.865	-135.095	-0.412	-0.049
-444.851	15.239	-0.205	-0.159
-443.836	-75.202	0.278	0.099
-442.822	-82.844	0.277	0.089
-441.807	74.728	0.115	0.120
-440.792	51.384	0.020	0.019
-439.778	123.587	0.158	-0.197
-438.763	-150.217	0.384	0.030
-437.749	-27.465	0.323	0.187
-436.734	108.085	-0.381	-0.451
-435.719	275.716	-0.160	-0.283
-434.705	-64.931	0.339	0.136
-433.690	267.405	0.107	0.186
-432.676	-119.359	0.235	-0.041
-431.661	-129.875	0.254	-0.035
-430.646	-150.679	-0.274	0.021
-429.632	256.481	0.082	-0.140
-428.617	-15.989	0.308	0.195
-427.603	-126.194	0.315	0.047
-426.588	-22.702	-0.376	-0.226
-425.573	800.000	0.066	0.224
-424.559	-130.207	-0.135	0.018
-423.544	28.948	-0.121	0.102
-422.530	-200.000	-0.026	-0.190
-421.515	-99.363	0.177	0.044
-420.500	-59.110	-0.227	0.097
-419.486	110.830	0.212	-0.253
-418.471	-87.788	-0.110	0.033
-417.457	-78.490	0.335	0.114
-416.442	-182.299	-0.104	-0.002
-415.428	-200.000	0.035	0.253
-414.413	-200.000	-0.040	-0.296
-413.398	-74.677	-0.077	0.027
-412.384	-200.000	0.006	0.107
-411.369	-79.658	-0.354	-0.119
-410.355	90.773	0.174	-0.193
-409.340	18.252	-0.118	-0.094
-408.325	-200.000	0.024	-0.196
-407.311	800.000	0.068	-0.225
-406.296	-38.984	-0.141	0.074
-405.282	-8.799	0.100	0.066
-404.267	800.000	-0.038	0.131
-403.252	-200.000	-0.210	-0.001
-402.238	440.712	0.069	-0.150
-401.223	-84.677	-0.198	0.062
-400.209	-73.300	0.348	0.126
-399.194	800.000	0.057	0.200
-398.179	-200.000	0.029	0.152
-397.165	-44.175	-0.039	-0.020
-396.150	-200.000	-0.019	-0.237
-395.136	-200.000	-0.004	-0.221
-394.121	-15.497	0.043	-0.027
-393.106	-200.000	-0.029	-0.195
-392.092	119.459	-0.103	-0.127
-391.077	-200.000	0.009	-0.187
-390.063	43.299	-0.045	-0.040
-389.048	172.015	0.108	0.154
-388.033	191.582	-0.095	0.142
-387.019	-153.215	-0.100	-0.007
-386.004	-196.791	-0.410	0.003
-384.990	501.683	0.153	0.349
-383.975	-200.000	-0.003	-0.080
-382.960	-200.000	-0.009	0.060
-381.946	571.130	-0.129	0.313
-380.931	-19.758	0.332	0.204
-379.917	-200.000	0.019	0.135
-378.902	-104.826	0.227	-0.052
-377.888	53.771	-0.218	0.207
-376.873	-27.879	-0.402	0.231
-375.858	800.000	-0.097	-0.318
-374.844	-200.000	-0.007	0.060
-373.829	281.326	-0.145	0.257
-372.815	-147.293	-0.358	-0.030
-371.800	800.000	0.027	-0.087
-370.785	-200.000	-0.019	-0.154
-369.771	163.206	-0.131	-0.182
-368.756	636.852	0.133	-0.334
-367.742	158.431	0.033	0.045
-366.727	-200.000	0.034	0.193
-365.712	800.000	-0.143	-0.423
-364.698	-72.001	-0.298	-0.110
-363.683	800.000	0.069	-0.238
-362.669	16.156	-0.062	-0.049
-361.654	2.594	-0.109	-0.078
-360.639	705.320	0.050	0.131
-359.625	-110.103	0.194	0.040
-358.610	54.640	0.064	0.061
-357.596	-200.000	-0.024	0.124
-356.581	-200.000	-0.005	-0.056
-355.566	393.589	0.174	-0.359
-354.552	273.578	0.008	-0.013
-353.537	642.933	0.052	-0.131
-352.523	-172.972	-0.287	0.009
-351.508	-44.469	0.263	0.130
-350.493	-152.659	-0.436	-0.031
-349.479	485.659	0.029	-0.066
-348.464	-70.554	-0.094	-0.035
-347.450	59.258	-0.134	-0.130
-346.435	673.398	-0.096	0.247
-345.420	-92.591	0.346	0.096
-344.406	378.152	0.122	0.248
-343.391	-200.000	-0.004	0.101
-342.377	-78.671	-0.301	0.102
-341.362	800.000	0.043	-0.120
-340.348	-78.852	-0.198	-0.067
-339.333	506.904	0.089	0.204
-338.318	800.000	-0.054	-0.219
-337.304	-200.000	0.052	-0.307
-336.289	70.228	0.176	0.180
-335.275	800.000	0.060	0.217
-334.260	127.930	-0.163	0.206
-333.245	800.000	-0.056	0.159
-332.231	175.106	-0.186	-0.267
-331.216	-200.000	-0.006	-0.253
-330.202	-200.000	0.011	0.064
-329.187	-13.247	0.131	-0.084
-328.172	349.213	0.019	0.038
-327.158	362.152	-0.065	0.128
-326.143	-165.250	-0.124	-0.005
-325.129	-200.000	-0.016	0.173
-324.114	-200.000	0.019	-0.421
-323.099	420.026	-0.059	-0.125
-322.085	-200.000	0.022	0.274
-321.070	800.000	0.030	-0.115
-320.056	218.462	0.106	-0.167
-319.041	176.711	0.116	0.167
-318.026	-47.970	0.195	-0.093
-317.012	-25.405	-0.116	-0.068
-315.997	800.000	-0.014	0.058
-314.983	182.704	-0.176	0.256
-313.968	351.494	-0.075	-0.146
-312.953	-116.276	0.095	-0.017
-311.939	16.815	-0.102	0.080
-310.924	-45.308	-0.158	-0.077
-309.910	-137.744	0.118	0.013
-308.895	-119.835	-0.179	-0.031
-307.880	800.000	-0.098	-0.339
-306.866	-83.692	-0.094	-0.030
-305.851	33.403	-0.282	0.242
-304.837	24.185	-0.232	0.189
-303.822	417.722	0.041	0.086
-302.807	-118.178	0.245	0.043
-301.793	-81.608	-0.182	-0.059
-300.778	-122.300	0.323	0.052
-299.764	-200.000	0.000	-0.004
-298.749	-46.756	0.124	-0.060
-297.735	-65.496	0.152	0.060
-296.720	800.000	0.100	0.373
-295.705	21.424	0.256	0.206
-294.691	147.562	0.169	-0.225
-293.676	-1.626	0.311	0.216
-292.662	-138.262	-0.283	-0.031
-291.647	3.370	0.127	0.091
-290.632	184.662	0.114	0.167
-289.618	167.014	0.148	-0.208
-288.603	-105.939	0.316	0.070
-287.589	17.373	-0.153	-0.120
-286.574	97.382	-0.172	0.195
-285.559	276.797	0.127	0.223
-284.545	-95.898	-0.187	-0.049
-283.530	-46.012	-0.123	0.060
-282.516	-199.881	0.266	-0.001
-281.501	-200.000	-0.038	0.169
-280.486	568.064	0.148	-0.355
-279.472	442.496	0.045	0.098
-278.457	-77.256	0.090	-0.031
-277.443	3.141	0.099	0.071
-276.428	-104.719	0.135	0.031
-275.413	564.218	0.091	-0.217
-274.399	252.327	-0.101	0.169
-273.384	25.818	0.157	0.129
-272.370	-113.734	-0.168	-0.032
-271.355	43.893	-0.253	-0.229
-270.340	-47.271	0.148	-0.071
-269.326	-37.954	-0.224	0.118
-268.311	-142.073	0.177	0.017
-267.297	-127.701	-0.181	0.026
-266.282	55.723	-0.145	-0.139
-265.267	-34.427	0.296	0.160
-264.253	800.000	-0.084	0.237
-263.238	422.179	-0.135	-0.286
-262.224	446.480	-0.060	-0.129
-261.209	800.000	-0.069	0.270
-260.195	26.010	-0.195	-0.161
-259.180	-25.765	0.301	0.175
-258.165	169.094	0.149	0.210
-257.151	-200.000	0.012	0.102
-256.136	-200.000	0.064	0.279
-255.122	-200.000	0.047	-0.218
-254.107	341.800	0.086	-0.165
-253.092	130.670	0.044	0.056
-252.078	260.254	0.053	-0.091
-251.063	189.269	-0.089	0.132
-250.049	-87.005	0.081	0.024
-249.034	37.431	-0.052	0.045
-248.019	-77.110	-0.534	-0.184
-247.005	340.888	0.117	0.226
-245.990	96.713	0.312	0.352
-244.976	800.000	-0.069	-0.255
-243.961	-90.171	0.178	0.051
-242.946	800.000	0.084	0.247
-241.932	-43.369	0.327	-0.163
-240.917	353.853	-0.111	0.218
-239.903	-105.424	0.107	0.024
-238.888	263.311	0.072	0.124
-237.873	800.000	0.106	0.333
-236.859	215.770	0.164	0.256
-235.844	-93.746	0.266	0.072
-234.830	-102.455	0.216	-0.051
-233.815	0.446	0.181	0.128
-232.800	-89.275	0.209	0.061
-231.786	106.641	-0.185	0.217
-230.771	113.458	0.145	-0.174
-229.757	693.728	0.060	0.155
-228.742	-200.000	0.006	-0.215
-227.727	246.035	0.057	0.095
-226.713	-105.241	-0.281	0.063
-225.698	64.330	0.261	-0.260
-224.684	128.087	-0.170	-0.213
-223.669	356.197	0.175	-0.344
-222.655	-1.758	-0.290	0.202
-221.640	630.259	-0.155	-0.387
-220.625	286.730	0.166	-0.295
-219.611	-200.000	-0.037	0.177
-218.596	800.000	-0.122	-0.421
-217.582	-200.000	-0.013	-0.074
-216.567	2.538	0.282	-0.201
-215.552	-200.000	0.005	-0.129
-214.538	236.016	0.097	-0.158
-213.523	800.000	0.061	-0.240
-212.509	-18.701	0.259	0.159
-211.494	373.023	0.175	-0.351
-210.479	-200.000	-0.051	0.224
-209.465	-115.533	-0.185	-0.034
-208.450	61.597	0.270	-0.265
-207.436	-74.715	-0.240	-0.085
-206.421	240.198	-0.196	-0.322
-205.406	-200.000	0.022	0.251
-204.392	-155.179	0.257	0.017
-203.377	800.000	-0.046	-0.151
-202.363	-170.147	-0.223	0.008
-201.348	189.239	-0.031	0.046
-200.333	-200.000	0.011	0.113
-199.319	800.000	-0.105	-0.295
-198.304	-41.067	-0.342	0.174
-197.290	-116.070	0.350	-0.064
-196.275	-29.527	-0.049	0.028
-195.260	-175.238	-0.251	-0.007
-194.246	16.171	0.097	0.075
-193.231	800.000	0.061	0.255
-192.217	31.296	0.146	-0.123
-191.202	-13.439	-0.211	0.134
-190.187	119.156	-0.041	-0.050
-189.173	79.289	0.221	-0.233
-188.158	-200.000	0.012	-0.068
-187.144	-95.874	0.068	-0.018
-186.129	82.360	0.181	-0.193
-185.114	-200.000	-0.040	0.188
-184.100	49.571	0.093	-0.086
-183.085	-64.796	0.320	0.128
-182.071	571.563	0.060	-0.143
-181.056	220.873	0.193	-0.304
-180.042	-70.126	0.108	-0.040
-179.027	-102.003	-0.222	-0.053
-178.012	-188.628	0.166	-0.002
-176.998	-200.000	0.006	0.087
-175.983	-200.000	0.060	-0.324
-174.969	135.202	-0.016	-0.021
-173.954	-68.888	0.226	-0.086
-172.939	455.035	0.091	-0.199
-171.925	56.122	-0.233	-0.222
-170.910	-183.098	0.475	-0.008
-169.896	-144.287	-0.266	0.024
-168.881	-200.000	0.002	0.202
-167.866	800.000	-0.034	-0.114
-166.852	800.000	-0.097	-0.363
-165.837	174.946	-0.039	0.055
-164.823	-73.839	0.069	0.025
-163.808	-92.006	-0.123	-0.034
-162.793	-105.116	0.251	0.056
-161.779	-113.929	0.386	0.074
-160.764	800.000	-0.167	0.461
-159.750	299.757	-0.291	0.528
-158.735	294.640	0.170	-0.306
-157.720	-13.052	-0.166	0.106
-156.706	-200.000	-0.048	0.314
-155.691	478.660	0.093	-0.207
-154.677	468.652	0.187	0.413
-153.662	-200.000	-0.026	0.254
-152.647	-129.064	-0.213	0.029
-151.633	76.105	-0.267	-0.278
-150.618	-3.219	-0.196	0.134
-149.604	800.000	0.091	0.255
-148.589	-200.000	-0.045	-0.259
-147.574	-126.480	-0.102	-0.015
-146.560	8.976	0.158	-0.117
-145.545	-200.000	0.005	-0.243
-144.531	221.014	0.145	0.228
-143.516	-97.376	0.076	0.019
-142.502	-93.718	0.187	0.051
-141.487	485.470	-0.078	-0.176
-140.472	-82.548	0.276	-0.088
-139.458	-18.442	-0.555	-0.340
-138.443	-1.159	0.107	0.074
-137.429	28.366	0.254	0.211
-136.414	-150.433	-0.171	0.013
-135.399	-150.988	0.395	0.029
-134.385	-56.245	-0.223	-0.098
-133.370	-134.258	-0.435	-0.053
-132.356	131.310	0.108	0.137
-131.341	-38.553	0.086	0.045
-130.326	-200.000	-0.048	-0.230
-129.312	800.000	0.125	-0.348
-128.297	-79.583	-0.272	-0.090
-127.283	118.634	0.069	0.084
-126.268	-156.405	-0.486	-0.030
-125.253	216.939	0.160	0.250
-124.239	-187.663	-0.116	0.001
-123.224	-200.000	-0.034	0.250
-122.210	488.846	0.052	0.116
-121.195	162.545	0.127	-0.175
