DTS Sentinel unit serial number:	SN413079Multiplexer serial number:	ORYXHardware model number:	OX4-SRSoftware version number:	ORYX F/W v4.00 Oryx Data Collector v3.7.2.0data status	okinstallation	princeton_trtdifferential loss correction	single-endedforward channel	channel 4reverse channel	N/Adate	2019/09/18time	04:37:35forward acquisition time	60.00reverse acquisition time	0.00gamma	496.2192k internal	0.2331k external	0.2331temperature offset calibration	0.9998default loss term (dB/km)	0.3790temperature slope calibration	1.0000multiplexer offset coefficient	1.0000multiplexer slope coefficient	1.0000fibre end	0.00T internal ref (°C)	23.37T ext. ref 1 (°C)	0.18T ext. ref 2 (°C)	17.63length (m)	temperature (°C)	Stokes	anti-Stokes-747.200	-23.546	0.201	0.121
-746.185	-151.825	-0.429	-0.032
-745.171	-200.000	0.034	-0.361
-744.156	-200.000	0.114	0.000
-743.142	310.180	-0.118	-0.223
-742.127	30.241	-0.331	0.284
-741.112	-74.946	0.171	0.062
-740.098	193.073	-0.068	0.104
-739.083	-154.173	-0.266	0.018
-738.069	-124.260	-0.042	0.007
-737.054	-19.044	0.078	-0.049
-736.039	-38.670	-0.280	-0.149
-735.025	1.306	0.295	-0.213
-734.010	800.000	0.054	0.195
-732.996	-45.360	0.200	0.100
-731.981	-56.966	0.250	0.111
-730.966	147.472	-0.101	0.136
-729.952	-59.421	-0.198	0.086
-728.937	-123.883	-0.457	0.072
-727.923	-32.164	-0.051	0.028
-726.908	-123.043	-0.051	-0.008
-725.894	72.749	-0.224	0.235
-724.879	-19.772	-0.160	0.100
-723.864	-32.633	0.344	0.193
-722.850	-18.455	0.141	0.088
-721.835	-88.246	0.601	0.181
-720.821	-94.531	-0.182	0.050
-719.806	324.934	0.065	-0.125
-718.791	-200.000	-0.051	0.270
-717.777	54.866	-0.035	-0.034
-716.762	-21.749	-0.098	-0.060
-715.748	274.797	-0.099	-0.176
-714.733	53.042	-0.233	-0.224
-713.718	558.414	-0.106	-0.257
-712.704	800.000	-0.111	0.392
-711.689	-8.445	0.219	-0.148
-710.675	129.451	-0.104	0.133
-709.660	800.000	-0.092	-0.266
-708.645	91.293	-0.223	-0.251
-707.631	121.389	0.055	0.069
-706.616	499.042	-0.070	0.161
-705.602	-39.846	-0.079	-0.041
-704.587	-4.848	-0.135	-0.094
-703.572	-200.000	-0.048	-0.308
-702.558	102.892	0.097	-0.114
-701.543	-105.066	0.084	-0.019
-700.529	-57.527	0.194	0.085
-699.514	-123.837	0.248	0.039
-698.499	-200.000	-0.080	-0.594
-697.485	-76.103	-0.386	-0.137
-696.470	15.370	0.054	0.042
-695.456	-200.000	0.055	0.254
-694.441	-200.000	-0.097	-0.448
-693.426	-4.563	0.142	0.098
-692.412	-65.068	-0.046	0.019
-691.397	-59.526	0.172	-0.074
-690.383	22.412	0.195	0.160
-689.368	-200.000	-0.006	-0.371
-688.354	-183.807	0.183	-0.003
-687.339	-143.841	0.126	-0.012
-686.324	-200.000	-0.071	-0.318
-685.310	-132.659	-0.376	0.048
-684.295	682.302	0.087	-0.227
-683.281	-165.801	-0.249	-0.011
-682.266	-200.000	-0.026	-0.293
-681.251	800.000	0.073	-0.261
-680.237	-134.037	-0.085	-0.011
-679.222	64.039	0.093	0.094
-678.208	74.611	-0.204	0.215
-677.193	93.361	0.074	0.085
-676.178	478.508	-0.025	0.057
-675.164	800.000	0.055	-0.230
-674.149	100.974	0.267	0.311
-673.135	96.210	0.181	-0.208
-672.120	-104.774	0.212	-0.049
-671.105	-57.778	0.309	0.136
-670.091	-34.011	-0.410	-0.226
-669.076	-200.000	0.139	0.000
-668.062	-62.460	-0.293	-0.122
-667.047	-149.623	-0.335	0.026
-666.032	211.679	-0.132	0.209
-665.018	800.000	0.035	-0.152
-664.003	-20.654	0.112	0.069
-662.989	-200.000	0.050	0.314
-661.974	-126.981	0.086	0.013
-660.959	559.753	-0.011	-0.028
-659.945	-143.884	0.171	0.016
-658.930	-61.230	0.267	0.113
-657.916	-57.122	0.405	-0.179
-656.901	-31.021	-0.161	-0.091
-655.886	-162.764	0.257	-0.013
-654.872	-147.216	-0.477	0.041
-653.857	76.478	-0.202	0.215
-652.843	-187.965	0.177	0.002
-651.828	422.835	-0.091	-0.196
-650.814	-200.000	-0.035	-0.233
-649.799	4.276	0.136	-0.100
-648.784	-126.929	-0.222	-0.033
-647.770	648.097	0.085	-0.219
-646.755	239.676	-0.166	-0.278
-645.741	-128.791	-0.120	0.017
-644.726	800.000	-0.085	-0.292
-643.711	800.000	0.067	-0.251
-642.697	29.168	-0.112	0.095
-641.682	-200.000	-0.002	-0.294
-640.668	547.784	0.110	0.264
-639.653	-200.000	-0.020	0.359
-638.638	-176.723	-0.125	0.003
-637.624	-149.132	0.166	0.013
-636.609	74.626	-0.337	-0.355
-635.595	-28.832	-0.093	0.054
-634.580	111.282	-0.107	0.129
-633.565	-200.000	0.030	-0.156
-632.551	698.232	0.064	-0.168
-631.536	507.951	-0.033	-0.076
-630.522	-95.299	0.209	0.056
-629.507	-96.297	0.044	-0.012
-628.492	-137.807	0.166	-0.019
-627.478	55.268	-0.069	-0.066
-626.463	788.255	-0.066	0.182
-625.449	800.000	0.052	-0.171
-624.434	65.922	0.161	0.163
-623.419	167.288	0.174	0.248
-622.405	778.213	0.097	0.266
-621.390	-200.000	0.019	0.139
-620.376	-145.586	0.333	0.030
-619.361	-37.758	-0.278	0.148
-618.346	63.715	0.181	-0.182
-617.332	-14.163	0.181	-0.117
-616.317	-152.852	-0.361	-0.026
-615.303	-130.510	-0.226	0.031
-614.288	-55.386	-0.275	-0.123
-613.273	245.511	0.199	-0.336
-612.259	-92.815	0.211	-0.059
-611.244	-104.262	0.153	-0.035
-610.230	800.000	0.029	-0.105
-609.215	14.273	-0.150	-0.117
-608.201	50.017	0.144	0.136
-607.186	-37.305	-0.354	0.189
-606.171	-101.953	0.096	0.023
-605.157	-57.474	0.047	-0.021
-604.142	800.000	-0.006	0.022
-603.128	800.000	-0.022	-0.082
-602.113	800.000	0.100	0.342
-601.098	411.503	-0.046	0.097
-600.084	-200.000	0.043	-0.365
-599.069	-154.683	-0.397	-0.026
-598.055	-58.262	0.303	0.132
-597.040	-32.737	0.317	0.176
-596.025	-83.257	-0.315	0.101
-595.011	-180.722	-0.508	-0.010
-593.996	-67.360	-0.064	-0.025
-592.982	200.524	-0.037	-0.057
-591.967	-40.836	0.102	0.053
-590.952	-59.027	0.196	0.084
-589.938	-200.000	0.005	-0.023
-588.923	800.000	-0.030	-0.129
-587.909	77.285	0.037	0.040
-586.894	-118.337	0.295	0.052
-585.879	-129.149	0.145	-0.020
-584.865	-200.000	0.037	-0.287
-583.850	97.865	0.069	-0.080
-582.836	150.391	-0.092	-0.124
-581.821	-5.568	-0.291	0.200
-580.806	-8.872	0.225	0.151
-579.792	-2.098	-0.195	0.137
-578.777	-61.120	0.203	-0.086
-577.763	-74.613	-0.037	-0.013
-576.748	-71.359	0.374	0.140
-575.733	138.204	0.192	0.252
-574.719	800.000	-0.063	0.264
-573.704	-72.001	-0.208	-0.077
-572.690	121.442	-0.075	-0.094
-571.675	800.000	-0.104	0.432
-570.661	19.074	0.063	-0.051
-569.646	119.308	0.080	0.098
-568.631	30.370	-0.154	-0.131
-567.617	-56.870	-0.220	-0.097
-566.602	207.343	-0.118	0.184
-565.588	-157.088	-0.496	-0.030
-564.573	-71.263	0.147	-0.055
-563.558	159.566	-0.080	-0.111
-562.544	-23.080	-0.276	0.166
-561.529	530.061	0.032	0.075
-560.515	-49.471	0.230	-0.110
-559.500	-83.960	0.175	0.056
-558.485	-41.691	0.099	-0.051
-557.471	-200.000	0.084	0.407
-556.456	-125.507	0.268	-0.041
-555.442	61.319	-0.250	-0.248
-554.427	-200.000	-0.015	-0.085
-553.412	56.986	0.264	-0.257
-552.398	-200.000	-0.006	-0.103
-551.383	-171.082	0.239	0.008
-550.369	-36.793	-0.132	-0.071
-549.354	800.000	0.089	-0.332
-548.339	-7.201	0.168	0.114
-547.325	132.463	0.313	0.404
-546.310	25.381	0.210	-0.175
-545.296	-124.265	-0.346	0.054
-544.281	100.651	-0.224	0.260
-543.266	-164.206	-0.118	0.005
-542.252	-32.707	0.384	-0.213
-541.237	338.294	-0.070	-0.135
-540.223	-33.798	-0.140	0.077
-539.208	-99.802	-0.216	0.054
-538.193	-180.129	0.148	-0.003
-537.179	-200.000	0.016	-0.179
-536.164	-200.000	-0.019	-0.237
-535.150	554.363	-0.056	0.135
-534.135	601.611	-0.172	-0.427
-533.121	-200.000	-0.071	-0.321
-532.106	66.443	0.149	-0.151
-531.091	128.828	-0.101	-0.128
-530.077	419.890	-0.176	-0.375
-529.062	89.822	-0.261	0.291
-528.048	450.034	-0.030	0.065
-527.033	-135.769	0.203	-0.024
-526.018	-116.137	-0.312	0.058
-525.004	-116.071	0.256	-0.048
-523.989	800.000	-0.110	-0.357
-522.975	-200.000	0.007	-0.548
-521.960	24.613	0.203	0.168
-520.945	-137.428	-0.298	0.034
-519.931	800.000	0.023	0.070
-518.916	78.051	0.118	0.126
-517.902	157.941	-0.138	0.191
-516.887	208.587	0.106	-0.165
-515.872	5.833	-0.072	0.053
-514.858	-200.000	-0.039	-0.289
-513.843	800.000	-0.066	0.221
-512.829	-75.863	0.191	-0.068
-511.814	278.292	0.065	-0.115
-510.799	-113.518	-0.270	-0.053
-509.785	418.768	0.106	-0.226
-508.770	15.492	0.072	-0.056
-507.756	138.391	0.062	-0.081
-506.741	80.569	0.322	-0.346
-505.726	-13.794	-0.278	-0.179
-504.712	-71.757	-0.252	0.094
-503.697	14.634	-0.243	0.189
-502.683	-105.772	-0.196	-0.044
-501.668	-97.924	0.313	0.081
-500.653	-110.736	0.444	-0.091
-499.639	359.902	-0.102	0.203
-498.624	-113.380	0.014	0.003
-497.610	800.000	-0.088	0.278
-496.595	-200.000	0.019	-0.127
-495.581	334.192	0.159	0.307
-494.566	-84.496	0.299	0.094
-493.551	-87.104	-0.397	0.120
-492.537	604.781	0.016	0.040
-491.522	-15.897	0.255	-0.162
-490.508	687.376	0.067	-0.176
-489.493	-43.275	-0.153	0.077
-488.478	800.000	-0.042	0.157
-487.464	434.036	-0.076	-0.165
-486.449	-171.398	0.359	-0.012
-485.435	-91.379	-0.277	-0.079
-484.420	-200.000	-0.009	-0.046
-483.405	-107.240	-0.359	0.079
-482.391	-200.000	0.022	0.398
-481.376	56.040	0.150	0.145
-480.362	51.229	0.135	-0.128
-479.347	-110.580	0.361	-0.074
-478.332	-200.000	0.006	0.134
-477.318	55.444	0.208	-0.201
-476.303	-30.951	0.153	-0.086
-475.289	98.273	0.065	-0.075
-474.274	137.673	0.163	-0.213
-473.259	102.538	0.193	-0.225
-472.245	36.740	-0.157	-0.138
-471.230	-121.272	-0.145	0.024
-470.216	-147.067	-0.224	0.019
-469.201	-138.671	-0.230	0.025
-468.186	99.714	0.140	-0.161
-467.172	-94.398	0.112	0.030
-466.157	-3.145	-0.225	-0.156
-465.143	296.026	-0.185	-0.338
-464.128	-171.502	-0.262	0.009
-463.113	11.190	0.129	0.098
-462.099	-98.496	-0.251	-0.064
-461.084	7.098	-0.059	0.044
-460.070	-21.124	-0.222	-0.135
-459.055	341.100	-0.132	-0.257
-458.040	-36.429	0.106	-0.057
-457.026	-200.000	0.030	0.266
-456.011	-200.000	0.020	0.203
-454.997	-200.000	0.022	-0.241
-453.982	203.702	0.035	0.053
-452.968	-200.000	-0.047	-0.217
-451.953	13.869	-0.124	-0.096
-450.938	215.274	-0.121	-0.191
-449.924	101.095	-0.134	-0.155
-448.909	266.113	-0.106	0.185
-447.895	59.996	0.311	0.306
-446.880	62.731	-0.154	0.153
-445.865	174.982	-0.169	-0.243
-444.851	334.661	0.198	0.382
-443.836	149.070	0.122	-0.164
-442.822	-47.425	-0.120	-0.058
-441.807	800.000	-0.043	-0.140
-440.792	72.493	-0.067	-0.069
-439.778	-119.611	-0.047	0.008
-438.763	-37.585	-0.120	0.064
-437.749	154.073	-0.132	-0.180
-436.734	-9.147	0.070	-0.047
-435.719	-26.292	-0.164	0.096
-434.705	370.022	0.114	-0.229
-433.690	193.534	-0.088	0.133
-432.676	115.319	0.251	0.305
-431.661	-200.000	-0.001	0.300
-430.646	228.433	0.212	-0.343
-429.632	231.340	0.146	0.238
-428.617	-105.098	0.155	0.035
-427.603	-32.034	0.129	0.072
-426.588	-87.822	-0.455	0.136
-425.573	-200.000	0.009	-0.215
-424.559	-107.076	-0.196	-0.043
-423.544	-39.792	-0.082	0.043
-422.530	-171.907	-0.046	0.001
-421.515	-102.563	0.134	-0.032
-420.500	524.022	0.091	-0.212
-419.486	3.921	-0.051	-0.037
-418.471	-45.611	0.320	0.158
-417.457	516.326	-0.126	0.294
-416.442	-77.832	0.290	0.099
-415.428	-127.370	-0.235	0.034
-414.413	171.678	-0.184	-0.262
-413.398	232.651	0.085	-0.138
-412.384	-30.331	0.140	0.079
-411.369	-40.183	0.183	0.095
-410.355	94.883	0.095	0.107
-409.340	-136.353	0.457	-0.053
-408.325	-77.601	-0.334	-0.115
-407.311	0.772	-0.082	-0.058
-406.296	-200.000	0.035	0.333
-405.282	-56.943	0.127	0.056
-404.267	79.984	0.197	-0.210
-403.252	202.912	0.131	0.201
-402.238	346.362	0.146	-0.286
-401.223	-100.666	0.345	0.085
-400.209	-115.579	-0.424	-0.079
-399.194	120.413	0.216	-0.266
-398.179	-143.445	-0.077	-0.007
-397.165	-73.320	-0.192	0.070
-396.150	292.524	0.111	0.200
-395.136	-83.075	-0.282	-0.090
-394.121	800.000	0.091	-0.349
-393.106	800.000	-0.072	0.244
-392.092	-146.593	0.303	0.026
-391.077	-152.342	-0.476	-0.034
-390.063	92.262	0.128	0.144
-389.048	-15.466	0.439	0.278
-388.033	-200.000	-0.064	-0.358
-387.019	-200.000	-0.026	-0.123
-386.004	57.500	-0.241	-0.233
-384.990	800.000	0.052	0.159
-383.975	-147.447	-0.122	0.010
-382.960	-200.000	-0.025	0.120
-381.946	-57.281	-0.199	0.087
-380.931	-200.000	-0.021	0.100
-379.917	800.000	0.067	0.268
-378.902	-200.000	-0.043	0.278
-377.888	2.755	0.376	0.270
-376.873	-68.889	0.021	-0.008
-375.858	-99.168	-0.147	-0.037
-374.844	-162.919	-0.260	-0.013
-373.829	-200.000	0.006	-0.316
-372.815	-200.000	-0.026	-0.326
-371.800	782.318	0.070	0.190
-370.785	366.996	-0.115	-0.231
-369.771	-200.000	-0.026	0.205
-368.756	465.994	-0.070	-0.154
-367.742	217.483	0.122	0.193
-366.727	800.000	-0.012	0.039
-365.712	-170.183	0.334	-0.012
-364.698	-85.673	0.204	-0.063
-363.683	115.025	-0.172	0.208
-362.669	237.044	0.032	0.053
-361.654	23.763	-0.173	0.141
-360.639	-23.869	0.434	0.258
-359.625	-75.670	-0.446	0.157
-358.610	-111.283	0.156	-0.032
-357.596	-200.000	-0.062	0.364
-356.581	-67.876	-0.297	-0.115
-355.566	14.805	0.313	-0.242
-354.552	800.000	0.045	0.180
-353.537	46.988	0.079	-0.073
-352.523	699.783	-0.074	-0.193
-351.508	55.199	0.073	-0.070
-350.493	-170.857	-0.304	0.010
-349.479	633.843	0.132	0.332
-348.464	92.970	-0.134	-0.150
-347.450	-120.809	0.179	-0.030
-346.435	36.795	-0.017	0.015
-345.420	-167.776	-0.190	0.007
-344.406	173.612	0.291	0.415
-343.391	-63.450	-0.301	-0.123
-342.377	-53.905	0.352	-0.159
-341.362	622.607	-0.001	-0.003
-340.348	-146.264	-0.259	0.022
-339.333	800.000	-0.063	0.236
-338.318	126.610	0.177	0.223
-337.304	-150.533	0.110	0.008
-336.289	-121.477	-0.290	-0.048
-335.275	-101.129	-0.259	-0.063
-334.260	800.000	0.056	0.207
-333.245	-68.018	-0.075	-0.029
-332.231	-200.000	0.042	-0.219
-331.216	-144.566	-0.216	-0.020
-330.202	69.123	-0.321	0.327
-329.187	413.416	-0.023	-0.048
-328.172	180.020	0.041	-0.060
-327.158	-53.118	0.282	-0.128
-326.143	-132.104	-0.085	-0.011
-325.129	-200.000	0.013	0.136
-324.114	-200.000	-0.021	-0.183
-323.099	-91.987	-0.311	-0.087
-322.085	-19.406	0.181	-0.111
-321.070	-162.056	-0.402	0.020
-320.056	124.153	-0.206	0.257
-319.041	-79.027	-0.178	-0.060
-318.026	-10.004	-0.164	0.108
-317.012	-60.613	0.100	0.042
-315.997	-147.279	-0.306	0.026
-314.983	-200.000	-0.049	0.251
-313.968	-53.617	0.128	-0.058
-312.953	337.874	-0.023	-0.045
-311.939	65.941	0.302	-0.303
-310.924	52.119	-0.277	0.261
-309.910	443.262	-0.148	-0.321
-308.895	-155.581	-0.403	-0.026
-307.880	-119.316	-0.553	0.095
-306.866	800.000	0.071	0.264
-305.851	-200.000	-0.023	0.218
-304.837	-172.044	0.325	0.010
-303.822	800.000	0.063	0.225
-302.807	800.000	0.057	-0.246
-301.793	129.693	-0.240	0.304
-300.778	96.166	-0.096	0.109
-299.764	-111.703	0.388	0.078
-298.749	140.266	0.091	0.118
-297.735	366.404	0.090	-0.180
-296.720	-32.222	0.042	0.023
-295.705	-8.914	0.062	-0.041
-294.691	117.949	0.082	-0.100
-293.676	-200.000	0.040	-0.208
-292.662	800.000	0.070	0.191
-291.647	800.000	-0.036	-0.145
-290.632	-200.000	-0.021	-0.203
-289.618	75.891	0.239	0.250
-288.603	236.904	0.083	-0.136
-287.589	-113.606	-0.131	0.025
-286.574	67.247	0.117	0.118
-285.559	190.273	-0.171	-0.254
-284.545	-200.000	-0.001	0.040
-283.530	-101.070	0.221	-0.054
-282.516	-38.694	0.361	0.189
-281.501	-200.000	0.019	0.287
-280.486	698.265	-0.041	-0.106
-279.472	142.687	-0.153	0.201
-278.457	-40.817	-0.074	-0.038
-277.443	204.844	0.220	-0.338
-276.428	22.231	0.097	0.078
-275.413	740.677	-0.097	0.259
-274.399	800.000	0.099	0.320
-273.384	800.000	-0.074	-0.242
-272.370	-86.802	0.141	0.043
-271.355	32.911	-0.210	-0.179
-270.340	-107.793	0.287	-0.062
-269.326	-12.342	0.223	0.144
-268.311	-200.000	-0.004	0.114
-267.297	-76.281	0.370	0.129
-266.282	-200.000	-0.003	0.028
-265.267	213.667	0.073	-0.114
-264.253	-65.283	-0.148	0.059
-263.238	-17.867	-0.482	-0.299
-262.224	-118.560	0.237	0.041
-261.209	355.286	0.110	-0.217
-260.195	-106.433	-0.149	-0.033
-259.180	-82.027	0.211	0.068
-258.165	-158.384	0.163	-0.009
-257.151	-200.000	-0.031	0.134
-256.136	99.122	0.110	0.126
-255.122	671.549	-0.165	0.423
-254.107	-21.365	0.193	-0.116
-253.092	-63.004	0.291	0.119
-252.078	-166.691	-0.113	0.005
-251.063	-62.835	-0.160	-0.065
-250.049	116.488	0.151	0.182
-249.034	148.462	0.208	0.277
-248.019	-72.555	0.007	-0.003
-247.005	234.113	0.083	0.136
-245.990	-200.000	0.053	-0.365
-244.976	-7.881	-0.130	-0.087
-243.961	113.399	0.060	0.072
-242.946	5.036	-0.293	-0.213
-241.932	-44.369	0.149	-0.073
-240.917	800.000	-0.131	-0.369
-239.903	15.640	-0.247	0.191
-238.888	129.860	0.160	-0.202
-237.873	198.396	0.074	0.111
-236.859	657.632	0.126	-0.319
-235.844	6.967	0.163	-0.120
-234.830	800.000	0.079	0.217
-233.815	254.537	-0.096	-0.161
-232.800	-200.000	0.017	0.087
-231.786	367.600	0.042	0.083
-230.771	56.528	0.351	0.336
-229.757	-200.000	-0.016	-0.220
-228.742	800.000	0.069	0.297
-227.727	-200.000	0.029	0.133
-226.713	-3.592	-0.386	-0.265
-225.698	800.000	0.071	-0.205
-224.684	18.565	0.293	0.231
-223.669	-200.000	0.012	-0.217
-222.655	-85.743	-0.163	0.050
-221.640	800.000	-0.088	0.279
-220.625	800.000	0.100	-0.363
-219.611	216.449	-0.105	0.164
-218.596	-78.508	-0.318	0.107
-217.582	-113.555	0.234	-0.045
-216.567	572.331	-0.106	-0.254
-215.552	22.860	-0.240	-0.194
-214.538	-113.287	0.295	-0.057
-213.523	-141.802	-0.141	-0.014
-212.509	-21.899	0.149	-0.089
-211.494	-106.384	-0.312	0.069
-210.479	83.616	-0.048	-0.051
-209.465	60.634	-0.173	-0.169
-208.450	-200.000	-0.048	-0.238
-207.436	-60.660	0.210	0.088
-206.421	168.623	0.068	-0.096
-205.406	-2.596	0.231	0.159
-204.392	800.000	0.107	-0.389
-203.377	616.971	0.035	-0.086
-202.363	-83.244	-0.071	-0.022
-201.348	800.000	0.079	0.263
-200.333	-124.196	0.231	0.036
-199.319	800.000	0.019	0.058
-198.304	588.871	-0.039	-0.094
-197.290	90.460	-0.208	0.229
-196.275	-200.000	0.063	0.328
-195.260	-30.743	-0.186	0.104
-194.246	679.573	-0.068	-0.174
-193.231	-200.000	0.031	0.232
-192.217	-90.857	0.064	-0.018
-191.202	800.000	0.025	-0.086
-190.187	800.000	0.021	0.061
-189.173	-147.187	-0.065	-0.005
-188.158	-100.578	-0.165	0.040
-187.144	217.486	0.201	0.315
-186.129	-126.916	0.165	-0.024
-185.114	507.544	-0.116	-0.266
-184.100	725.807	-0.044	0.117
-183.085	800.000	0.106	0.313
-182.071	-200.000	-0.004	-0.040
-181.056	498.782	0.075	-0.171
-180.042	-90.079	-0.085	-0.024
-179.027	-200.000	0.008	0.128
-178.012	-16.331	0.185	0.116
-176.998	190.154	-0.104	0.154
-175.983	-51.670	0.219	-0.101
-174.969	800.000	-0.066	-0.241
-173.954	-53.492	-0.336	0.151
-172.939	518.438	-0.104	0.239
-171.925	-200.000	-0.010	0.252
-170.910	-197.157	-0.284	0.002
-169.896	-200.000	-0.006	0.201
-168.881	237.146	0.076	0.125
-167.866	22.620	0.143	0.115
-166.852	379.936	0.106	-0.213
-165.837	-0.093	0.207	-0.145
-164.823	-200.000	0.005	0.119
-163.808	-95.730	0.122	0.032
-162.793	121.260	0.182	-0.223
-161.779	16.195	-0.247	0.192
-160.764	-49.321	-0.208	0.098
-159.750	800.000	-0.099	0.286
-158.735	800.000	0.055	-0.187
-157.720	261.681	-0.118	0.202
-156.706	197.477	0.113	-0.170
-155.691	-25.031	-0.066	0.039
-154.677	39.773	0.136	-0.120
-153.662	-11.047	0.065	0.042
-152.647	36.208	-0.106	-0.092
-151.633	327.872	0.105	-0.199
-150.618	-57.581	-0.121	-0.052
-149.604	52.436	-0.258	0.242
-148.589	-200.000	-0.080	0.482
-147.574	800.000	-0.136	0.379
-146.560	-74.681	-0.094	-0.033
-145.545	288.774	0.056	0.100
-144.531	25.738	-0.075	0.061
-143.516	461.704	-0.047	-0.102
-142.502	169.407	0.118	0.165
-141.487	347.304	-0.034	0.066
-140.472	9.595	0.199	0.148
-139.458	89.147	-0.128	0.140
-138.443	617.913	0.082	-0.203
-137.429	-79.055	-0.200	0.067
-136.414	-48.339	0.213	-0.101
-135.399	-91.602	-0.219	0.061
-134.385	450.994	-0.060	0.129
-133.370	363.204	0.019	0.038
-132.356	-200.000	-0.048	-0.281
-131.341	-37.652	0.391	-0.205
-130.326	40.487	-0.144	-0.127
-129.312	-88.446	0.137	0.040
-128.297	-200.000	-0.040	-0.452
-127.283	76.008	-0.075	-0.078
-126.268	18.421	-0.271	0.213
-125.253	12.145	0.165	0.125
-124.239	24.886	0.153	0.125
-123.224	45.122	-0.066	-0.060
-122.210	-200.000	0.008	0.062
-121.195	14.433	0.201	0.154
