DTS Sentinel unit serial number:	SN413079Multiplexer serial number:	ORYXHardware model number:	OX4-SRSoftware version number:	ORYX F/W v4.00 Oryx Data Collector v3.7.2.0data status	okinstallation	princeton_trtdifferential loss correction	single-endedforward channel	channel 4reverse channel	N/Adate	2019/09/16time	01:53:35forward acquisition time	60.00reverse acquisition time	0.00gamma	496.2192k internal	0.2322k external	0.2322temperature offset calibration	0.9970default loss term (dB/km)	0.3790temperature slope calibration	1.0000multiplexer offset coefficient	1.0000multiplexer slope coefficient	1.0000fibre end	0.00T internal ref (°C)	27.39T ext. ref 1 (°C)	10.05T ext. ref 2 (°C)	22.33length (m)	temperature (°C)	Stokes	anti-Stokes-747.200	304.711	-0.138	0.258
-746.185	800.000	-0.119	0.349
-745.171	-151.282	-0.240	-0.018
-744.156	216.655	-0.063	0.101
-743.142	800.000	-0.068	0.234
-742.127	-156.644	0.167	-0.010
-741.112	280.542	0.115	-0.208
-740.098	529.867	-0.231	0.550
-739.083	-67.729	0.282	0.112
-738.069	714.584	-0.046	0.124
-737.054	-50.495	0.250	0.119
-736.039	206.266	-0.028	0.044
-735.025	140.779	0.146	0.194
-734.010	-95.153	0.214	-0.058
-732.996	-90.014	-0.275	0.081
-731.981	-200.000	-0.074	-0.416
-730.966	800.000	-0.033	0.143
-729.952	561.307	-0.065	0.159
-728.937	-200.000	-0.002	0.069
-727.923	29.851	-0.028	-0.024
-726.908	-200.000	0.026	-0.119
-725.894	-11.219	-0.268	0.179
-724.879	-17.135	-0.301	-0.192
-723.864	198.882	-0.172	-0.265
-722.850	800.000	-0.009	0.037
-721.835	0.896	-0.243	-0.176
-720.821	800.000	0.045	-0.196
-719.806	-44.396	-0.290	-0.147
-718.791	-200.000	-0.032	0.145
-717.777	29.021	-0.278	-0.238
-716.762	-131.364	-0.730	-0.098
-715.748	111.075	-0.020	0.024
-714.733	-58.695	0.053	0.023
-713.718	425.820	-0.084	0.183
-712.704	-200.000	0.019	-0.131
-711.689	158.430	-0.118	0.165
-710.675	-200.000	0.010	-0.159
-709.660	800.000	0.062	-0.247
-708.645	-4.071	0.316	0.221
-707.631	-51.853	-0.116	-0.055
-706.616	0.633	0.199	-0.144
-705.602	-200.000	0.021	0.102
-704.587	501.675	0.015	-0.034
-703.572	-131.711	0.297	0.039
-702.558	19.553	-0.090	0.073
-701.543	20.981	-0.246	0.201
-700.529	715.583	-0.067	0.178
-699.514	32.003	-0.154	-0.133
-698.499	-200.000	-0.020	-0.335
-697.485	-78.942	0.199	0.068
-696.470	800.000	0.083	-0.248
-695.456	145.833	-0.166	-0.224
-694.441	31.893	-0.406	-0.353
-693.426	76.346	-0.141	0.151
-692.412	293.619	-0.049	0.091
-691.397	-101.247	0.179	-0.044
-690.383	-53.136	0.084	0.039
-689.368	128.459	0.028	0.036
-688.354	49.116	0.101	-0.096
-687.339	510.468	0.135	-0.316
-686.324	-108.766	0.359	0.078
-685.310	-200.000	0.020	-0.220
-684.295	-130.819	-0.266	0.036
-683.281	44.315	0.317	0.294
-682.266	-61.627	0.271	0.115
-681.251	-138.332	-0.275	-0.031
-680.237	82.845	0.204	0.223
-679.222	-92.870	0.341	0.096
-678.208	81.256	0.122	-0.133
-677.193	-95.100	0.122	0.033
-676.178	-106.966	-0.262	0.058
-675.164	315.371	-0.175	-0.333
-674.149	-200.000	0.010	-0.150
-673.135	800.000	-0.050	0.163
-672.120	-83.183	-0.320	0.104
-671.105	7.837	0.096	-0.073
-670.091	-157.902	0.415	0.025
-669.076	301.669	0.047	0.088
-668.062	-136.223	-0.155	0.018
-667.047	-13.243	0.305	0.199
-666.032	283.402	0.073	-0.133
-665.018	-148.317	-0.219	-0.018
-664.003	-138.705	-0.246	-0.027
-662.989	47.496	-0.074	-0.069
-661.974	155.649	-0.153	-0.212
-660.959	40.529	-0.360	-0.327
-659.945	191.705	-0.163	-0.248
-658.930	69.528	-0.111	-0.115
-657.916	-129.498	-0.466	-0.065
-656.901	58.964	0.074	-0.073
-655.886	209.303	0.187	0.295
-654.872	-25.286	-0.163	0.097
-653.857	-32.443	-0.082	-0.046
-652.843	-200.000	-0.035	0.236
-651.828	106.379	0.187	-0.224
-650.814	144.694	-0.156	0.210
-649.799	-200.000	-0.007	-0.037
-648.784	-159.203	0.203	0.012
-647.770	126.690	0.060	0.076
-646.755	-137.499	-0.323	0.037
-645.741	712.477	0.077	-0.207
-644.726	22.801	-0.282	-0.233
-643.711	-200.000	-0.014	0.256
-642.697	132.246	0.073	-0.094
-641.682	193.910	-0.059	0.090
-640.668	-100.541	0.201	-0.050
-639.653	-122.679	-0.065	0.011
-638.638	364.269	0.152	0.308
-637.624	-200.000	-0.023	0.150
-636.609	-200.000	0.027	0.427
-635.595	-113.804	-0.173	0.034
-634.580	800.000	-0.065	-0.198
-633.565	-76.291	-0.083	-0.029
-632.551	-200.000	0.011	-0.236
-631.536	-41.604	0.189	-0.098
-630.522	33.811	-0.137	0.120
-629.507	-105.568	-0.207	0.047
-628.492	800.000	0.080	0.248
-627.478	-127.152	-0.142	-0.021
-626.463	74.819	0.235	0.249
-625.449	37.653	0.184	-0.164
-624.434	800.000	0.029	-0.082
-623.419	148.049	0.076	-0.103
-622.405	102.339	0.129	0.151
-621.390	3.002	0.135	-0.099
-620.376	208.697	0.058	-0.091
-619.361	224.589	0.132	0.215
-618.346	-118.337	0.290	-0.052
-617.332	-58.699	-0.303	0.132
-616.317	601.905	-0.085	-0.213
-615.303	800.000	-0.032	-0.090
-614.288	368.013	-0.019	0.039
-613.273	-123.116	-0.196	0.032
-612.259	-68.483	-0.232	-0.091
-611.244	494.866	0.130	0.301
-610.230	6.440	0.140	0.104
-609.215	-59.201	-0.321	0.139
-608.201	-44.557	-0.219	-0.110
-607.186	76.107	-0.050	-0.054
-606.171	-200.000	-0.008	-0.174
-605.157	-61.159	0.245	-0.104
-604.142	-119.362	0.082	0.014
-603.128	800.000	0.056	0.212
-602.113	800.000	0.037	-0.157
-601.098	214.979	-0.120	-0.191
-600.084	409.576	0.091	-0.194
-599.069	23.971	0.013	-0.011
-598.055	800.000	0.055	0.159
-597.040	-58.239	-0.185	-0.081
-596.025	-115.514	0.392	-0.074
-595.011	49.329	0.115	-0.109
-593.996	-60.248	-0.279	0.119
-592.982	-200.000	-0.006	-0.049
-591.967	-200.000	-0.046	0.224
-590.952	-113.072	-0.145	0.029
-589.938	-200.000	-0.032	-0.387
-588.923	502.269	0.178	0.414
-587.909	-200.000	-0.042	-0.259
-586.894	164.779	-0.093	-0.132
-585.879	-46.124	0.127	-0.063
-584.865	27.396	-0.233	-0.196
-583.850	480.872	-0.180	0.411
-582.836	-200.000	0.032	0.333
-581.821	-200.000	0.021	0.167
-580.806	-40.473	0.215	0.112
-579.792	800.000	0.073	0.227
-578.777	-9.643	-0.092	-0.061
-577.763	-18.631	0.171	0.107
-576.748	-128.894	0.212	-0.030
-575.733	-200.000	0.086	-0.505
-574.719	-200.000	0.076	0.423
-573.704	-57.740	-0.152	0.067
-572.690	454.924	-0.138	0.308
-571.675	-200.000	0.056	-0.450
-570.661	-55.044	0.201	0.091
-569.646	140.079	0.112	0.148
-568.631	800.000	-0.024	-0.065
-567.617	49.039	-0.204	0.193
-566.602	17.580	-0.256	-0.205
-565.588	-160.159	0.181	-0.010
-564.573	-97.677	0.068	0.018
-563.558	-53.153	-0.128	0.059
-562.544	-149.424	0.139	0.011
-561.529	149.928	-0.098	-0.133
-560.515	54.835	0.275	-0.267
-559.500	285.461	0.108	-0.196
-558.485	10.871	0.252	0.193
-557.471	-78.001	-0.140	0.048
-556.456	-200.000	-0.018	-0.364
-555.442	-200.000	0.018	-0.086
-554.427	-59.065	-0.496	-0.215
-553.412	111.289	0.195	-0.236
-552.398	-35.882	0.148	0.080
-551.383	-200.000	-0.004	0.030
-550.369	44.584	0.193	0.178
-549.354	-200.000	-0.027	0.151
-548.339	-18.998	0.157	0.098
-547.325	-200.000	-0.004	-0.287
-546.310	800.000	-0.006	0.027
-545.296	-97.599	-0.122	0.032
-544.281	-126.369	-0.287	-0.043
-543.266	-200.000	0.029	-0.210
-542.252	-192.662	0.279	-0.003
-541.237	-200.000	-0.004	-0.072
-540.223	-200.000	-0.005	-0.102
-539.208	23.704	0.146	0.121
-538.193	-54.752	0.175	-0.079
-537.179	-114.021	-0.100	-0.019
-536.164	-14.250	0.301	-0.194
-535.150	578.234	0.184	-0.451
-534.135	-200.000	0.011	0.127
-533.121	102.384	0.093	-0.109
-532.106	-36.340	-0.218	-0.118
-531.091	-57.360	0.157	0.069
-530.077	-103.859	0.060	0.014
-529.062	-102.688	0.141	0.034
-528.048	558.323	0.103	-0.248
-527.033	-31.405	-0.108	-0.061
-526.018	190.126	0.082	0.123
-525.004	-125.715	-0.228	0.035
-523.989	-43.911	0.237	-0.119
-522.975	-122.644	-0.120	-0.020
-521.960	24.938	0.151	0.126
-520.945	62.181	-0.037	0.037
-519.931	-24.089	0.124	-0.074
-518.916	271.055	0.080	-0.142
-517.902	268.241	-0.078	-0.137
-516.887	-200.000	0.004	0.033
-515.872	4.125	0.280	0.205
-514.858	800.000	0.018	0.074
-513.843	193.608	0.110	-0.166
-512.829	194.388	0.041	-0.063
-511.814	84.719	0.046	-0.051
-510.799	800.000	0.058	-0.234
-509.785	-135.878	-0.076	0.009
-508.770	-26.405	-0.277	-0.163
-507.756	-7.907	-0.204	-0.138
-506.741	800.000	0.082	0.248
-505.726	304.737	0.073	0.136
-504.712	-129.382	0.077	-0.011
-503.697	121.625	0.247	-0.309
-502.683	68.784	-0.338	-0.348
-501.668	4.508	-0.063	0.046
-500.653	-200.000	-0.006	0.156
-499.639	-200.000	0.064	0.372
-498.624	-137.813	-0.133	0.015
-497.610	-37.260	0.219	-0.117
-496.595	27.285	-0.167	0.140
-495.581	-78.449	-0.298	-0.102
-494.566	11.808	-0.184	-0.141
-493.551	-8.730	0.134	-0.090
-492.537	-35.609	-0.073	0.040
-491.522	-85.821	0.489	0.152
-490.508	14.163	0.082	-0.064
-489.493	253.972	0.173	-0.296
-488.478	-200.000	-0.003	0.312
-487.464	68.097	-0.161	0.165
-486.449	147.685	-0.252	-0.340
-485.435	-130.906	-0.280	-0.037
-484.420	112.816	0.170	0.206
-483.405	-95.810	0.142	-0.038
-482.391	-94.437	-0.238	-0.065
-481.376	171.119	-0.002	0.003
-480.362	800.000	-0.019	-0.052
-479.347	-200.000	-0.013	-0.297
-478.332	-149.044	-0.193	-0.016
-477.318	291.662	0.065	0.118
-476.303	-200.000	0.010	0.065
-475.289	-200.000	0.017	0.118
-474.274	220.659	-0.131	-0.210
-473.259	-44.667	0.307	0.153
-472.245	-77.166	0.180	0.063
-471.230	-1.470	0.082	-0.057
-470.216	159.310	0.127	-0.177
-469.201	90.805	-0.099	-0.111
-468.186	-25.449	-0.102	-0.060
-467.172	33.066	-0.036	0.031
-466.157	205.330	0.021	-0.033
-465.143	83.817	0.229	-0.250
-464.128	-186.112	-0.258	-0.004
-463.113	-94.371	0.150	0.041
-462.099	-7.428	-0.235	0.159
-461.084	-116.913	-0.163	0.030
-460.070	170.312	0.268	-0.384
-459.055	-200.000	0.017	0.075
-458.040	577.085	0.041	0.099
-457.026	-5.349	-0.258	-0.177
-456.011	365.353	-0.120	0.241
-454.997	104.835	0.062	-0.073
-453.982	149.440	0.150	0.203
-452.968	-200.000	-0.021	0.188
-451.953	800.000	-0.039	0.109
-450.938	-200.000	0.051	0.355
-449.924	-133.988	-0.127	0.016
-448.909	-200.000	0.023	0.163
-447.895	65.617	0.067	-0.067
-446.880	-12.989	-0.209	0.136
-445.865	478.105	-0.080	0.180
-444.851	314.328	0.033	-0.061
-443.836	-200.000	0.022	0.138
-442.822	225.323	0.132	-0.213
-441.807	3.397	-0.203	0.148
-440.792	-144.230	0.320	0.030
-439.778	90.234	0.187	-0.209
-438.763	517.689	-0.056	-0.132
-437.749	-200.000	-0.019	-0.108
-436.734	95.155	0.305	0.346
-435.719	3.199	0.329	-0.239
-434.705	800.000	-0.010	-0.036
-433.690	21.435	0.142	-0.115
-432.676	-93.704	-0.043	-0.012
-431.661	-42.529	0.308	0.157
-430.646	134.913	-0.031	0.040
-429.632	-200.000	-0.017	-0.298
-428.617	313.649	-0.184	-0.345
-427.603	105.007	0.032	-0.038
-426.588	-158.745	0.364	-0.021
-425.573	-96.797	-0.325	0.085
-424.559	-102.920	-0.120	0.028
-423.544	367.082	0.125	0.251
-422.530	800.000	-0.072	0.272
-421.515	67.873	0.396	0.404
-420.500	44.180	-0.145	0.133
-419.486	41.759	-0.245	-0.222
-418.471	-59.658	-0.356	-0.152
-417.457	-200.000	0.335	-0.000
-416.442	16.048	0.236	-0.185
-415.428	285.821	-0.056	-0.101
-414.413	136.097	-0.296	-0.384
-413.398	447.099	-0.092	-0.203
-412.384	56.018	-0.136	-0.131
-411.369	-119.241	0.087	-0.015
-410.355	-86.727	-0.361	0.110
-409.340	-72.728	-0.332	0.122
-408.325	800.000	-0.089	0.250
-407.311	113.654	-0.116	0.140
-406.296	25.573	0.173	-0.143
-405.282	21.998	0.187	0.152
-404.267	158.568	0.174	0.241
-403.252	-30.162	-0.218	0.124
-402.238	-152.293	-0.245	0.018
-401.223	800.000	-0.035	0.133
-400.209	-92.459	0.217	-0.061
-399.194	110.554	-0.173	0.207
-398.179	-146.838	0.151	-0.013
-397.165	127.851	0.105	-0.132
-396.150	135.627	-0.119	0.155
-395.136	-200.000	-0.083	-0.387
-394.121	314.141	0.073	-0.138
-393.106	-200.000	-0.009	0.074
-392.092	-200.000	-0.025	0.352
-391.077	-8.406	-0.303	-0.203
-390.063	-30.496	0.229	-0.129
-389.048	-200.000	0.003	0.040
-388.033	92.899	0.226	0.255
-387.019	-195.569	-0.500	0.004
-386.004	-103.313	0.247	0.058
-384.990	-95.057	0.112	-0.030
-383.975	52.866	0.172	0.164
-382.960	173.255	-0.054	0.077
-381.946	2.497	0.038	-0.028
-380.931	542.014	-0.133	0.317
-379.917	-12.975	0.103	-0.067
-378.902	-140.508	0.224	0.023
-377.888	103.964	-0.350	0.410
-376.873	-200.000	0.050	0.242
-375.858	190.245	0.055	-0.082
-374.844	-154.761	-0.489	0.032
-373.829	-27.295	-0.276	-0.160
-372.815	110.621	0.163	-0.195
-371.800	-52.237	0.280	-0.129
-370.785	29.586	-0.076	-0.064
-369.771	800.000	0.052	-0.163
-368.756	-200.000	-0.003	-0.019
-367.742	505.436	0.018	0.043
-366.727	-63.623	0.178	0.073
-365.712	-87.452	0.481	0.145
-364.698	800.000	0.088	0.260
-363.683	-134.747	0.206	0.025
-362.669	-17.176	0.086	0.054
-361.654	235.932	0.161	-0.265
-360.639	-1.356	0.236	0.166
-359.625	-81.179	0.358	-0.118
-358.610	14.922	-0.218	-0.170
-357.596	7.417	-0.238	0.177
-356.581	-80.323	0.191	0.064
-355.566	-200.000	-0.046	0.375
-354.552	-200.000	-0.048	0.224
-353.537	-22.431	0.293	-0.176
-352.523	800.000	-0.068	-0.190
-351.508	-31.661	0.096	0.054
-350.493	-17.863	-0.227	0.141
-349.479	-200.000	0.022	0.345
-348.464	-123.392	-0.125	0.020
-347.450	-25.669	0.112	-0.066
-346.435	89.033	0.413	0.457
-345.420	54.594	0.109	-0.104
-344.406	-200.000	-0.003	-0.194
-343.391	-106.660	0.098	-0.022
-342.377	-200.000	0.061	-0.278
-341.362	-89.197	-0.441	0.129
-340.348	-85.722	0.148	0.046
-339.333	14.133	0.171	-0.132
-338.318	216.243	0.104	0.164
-337.304	-97.838	0.248	-0.064
-336.289	-118.150	0.119	-0.021
-335.275	84.674	0.171	0.186
-334.260	208.533	0.090	-0.140
-333.245	67.180	-0.118	0.120
-332.231	-200.000	0.005	0.307
-331.216	114.299	-0.089	0.108
-330.202	-200.000	-0.003	-0.030
-329.187	-200.000	0.017	0.112
-328.172	250.559	-0.096	-0.162
-327.158	-33.905	0.186	0.102
-326.143	218.909	0.099	-0.157
-325.129	-44.816	-0.127	0.063
-324.114	-117.631	0.158	0.028
-323.099	58.096	-0.351	-0.342
-322.085	-133.507	-0.158	-0.020
-321.070	147.849	-0.167	-0.223
-320.056	141.412	-0.148	0.195
-319.041	652.495	-0.175	0.445
-318.026	-5.865	-0.304	0.207
-317.012	-200.000	-0.021	-0.103
-315.997	287.492	-0.088	0.159
-314.983	213.353	0.181	0.284
-313.968	-115.031	0.042	-0.008
-312.953	-200.000	0.002	0.199
-311.939	-69.227	0.237	-0.091
-310.924	42.040	-0.034	-0.030
-309.910	-49.790	0.300	0.142
-308.895	-200.000	-0.039	0.244
-307.880	-140.505	0.133	-0.014
-306.866	482.247	-0.098	0.222
-305.851	282.473	-0.042	-0.075
-304.837	-52.163	0.217	-0.100
-303.822	800.000	-0.079	-0.288
-302.807	136.290	-0.155	-0.201
-301.793	-53.790	-0.153	-0.069
-300.778	-65.614	0.197	0.078
-299.764	51.032	0.129	-0.121
-298.749	729.774	-0.060	-0.159
-297.735	159.929	-0.128	-0.177
-296.720	-6.213	0.111	-0.075
-295.705	11.876	-0.095	0.073
-294.691	38.846	-0.111	0.099
-293.676	-200.000	0.037	0.179
-292.662	17.837	0.186	0.147
-291.647	0.912	-0.132	0.094
-290.632	448.888	-0.105	0.229
-289.618	44.419	0.102	-0.093
-288.603	-11.131	0.072	0.047
-287.589	-1.734	-0.281	0.197
-286.574	800.000	-0.062	-0.189
-285.559	-104.615	-0.214	-0.049
-284.545	140.538	-0.030	-0.039
-283.530	-200.000	-0.037	0.278
-282.516	-30.047	0.246	-0.139
-281.501	148.295	0.026	-0.035
-280.486	42.769	-0.292	-0.264
-279.472	-46.513	0.165	0.080
-278.457	-200.000	0.060	0.339
-277.443	-96.979	0.363	0.094
-276.428	268.180	-0.181	-0.315
-275.413	-200.000	0.073	0.466
-274.399	177.545	0.070	0.101
-273.384	3.675	-0.252	-0.182
-272.370	-139.771	-0.336	0.035
-271.355	-200.000	-0.007	0.099
-270.340	16.996	0.230	-0.181
-269.326	-200.000	-0.006	-0.163
-268.311	361.711	0.052	0.104
-267.297	36.637	-0.022	-0.019
-266.282	259.823	-0.180	-0.308
-265.267	120.933	0.067	-0.082
-264.253	-200.000	-0.081	-0.362
-263.238	-48.732	0.153	0.073
-262.224	81.752	0.106	0.114
-261.209	-200.000	-0.037	0.249
-260.195	-115.369	-0.184	-0.034
-259.180	-92.167	0.018	0.005
-258.165	133.374	-0.056	0.072
-257.151	-71.959	-0.123	-0.045
-256.136	-135.034	0.322	-0.038
-255.122	288.718	0.163	-0.293
-254.107	-76.984	-0.225	-0.078
-253.092	800.000	0.160	0.489
-252.078	-26.260	-0.164	0.096
-251.063	-69.653	-0.190	0.072
-250.049	259.152	-0.151	-0.259
-249.034	194.638	0.203	-0.305
-248.019	-72.052	0.061	-0.022
-247.005	-200.000	0.000	0.041
-245.990	-200.000	-0.005	-0.052
-244.976	674.166	0.193	0.495
-243.961	-18.209	0.124	0.077
-242.946	-200.000	0.003	0.053
-241.932	-200.000	0.064	-0.338
-240.917	-59.419	0.099	-0.042
-239.903	800.000	0.034	0.144
-238.888	-96.856	-0.188	-0.049
-237.873	800.000	-0.048	-0.170
-236.859	-200.000	-0.002	0.026
-235.844	-200.000	0.041	0.187
-234.830	64.362	0.180	-0.179
-233.815	-106.259	-0.133	-0.029
-232.800	-17.118	0.169	-0.106
-231.786	-25.502	-0.376	0.220
-230.771	306.166	-0.170	0.312
-229.757	20.057	0.276	-0.220
-228.742	458.699	-0.229	-0.504
-227.727	12.319	-0.248	-0.189
-226.713	-110.267	-0.113	-0.023
-225.698	214.013	0.122	0.191
-224.684	-200.000	-0.011	0.068
-223.669	298.634	-0.077	-0.139
-222.655	111.164	-0.260	-0.310
-221.640	-49.321	-0.228	0.108
-220.625	-200.000	0.079	0.461
-219.611	85.295	0.207	0.224
-218.596	776.608	0.066	-0.178
-217.582	398.623	-0.148	-0.307
-216.567	-46.254	0.081	-0.039
-215.552	751.432	-0.012	0.032
-214.538	800.000	0.061	0.212
-213.523	99.708	-0.256	0.294
-212.509	-144.323	-0.197	-0.018
-211.494	18.262	-0.151	-0.119
-210.479	118.997	-0.262	0.320
-209.465	800.000	0.020	0.083
-208.450	-19.501	0.269	-0.165
-207.436	-50.563	-0.177	-0.083
-206.421	-200.000	0.061	0.502
-205.406	-8.008	-0.169	-0.113
-204.392	325.535	-0.135	0.255
-203.377	-71.839	-0.311	0.115
-202.363	-135.889	0.147	0.017
-201.348	800.000	-0.054	-0.230
-200.333	170.979	-0.105	0.149
-199.319	-200.000	-0.020	0.238
-198.304	-27.529	-0.232	-0.134
-197.290	-106.330	-0.319	-0.071
-196.275	-121.749	-0.476	0.078
-195.260	-200.000	-0.036	0.193
-194.246	728.174	-0.072	-0.191
-193.231	-200.000	-0.002	-0.162
-192.217	-200.000	0.086	-0.397
-191.202	304.481	-0.043	0.079
-190.187	352.521	-0.026	0.050
-189.173	-168.451	-0.315	-0.012
-188.158	-86.307	0.540	0.164
-187.144	-43.795	0.271	0.135
-186.129	-200.000	0.031	-0.221
-185.114	-153.548	0.203	0.014
-184.100	-146.431	0.376	0.032
-183.085	-200.000	-0.044	0.245
-182.071	603.588	0.145	-0.356
-181.056	18.133	-0.174	-0.137
-180.042	23.983	-0.110	-0.090
-179.027	-105.288	0.034	-0.008
-178.012	-136.224	0.236	-0.027
-176.998	1.491	-0.424	0.301
-175.983	800.000	0.008	-0.032
-174.969	-129.955	0.362	-0.049
-173.954	800.000	-0.060	0.195
-172.939	-200.000	0.010	-0.153
-171.925	440.409	0.040	-0.086
-170.910	112.135	-0.172	-0.205
-169.896	-200.000	-0.014	-0.061
-168.881	36.493	-0.048	-0.042
-167.866	800.000	0.077	-0.212
-166.852	-62.932	-0.367	-0.150
-165.837	-46.670	0.348	-0.168
-164.823	-200.000	-0.068	-0.295
-163.808	-25.781	-0.345	0.201
-162.793	84.053	-0.307	0.331
-161.779	-14.820	-0.309	0.196
-160.764	-109.666	0.290	0.060
-159.750	-200.000	0.004	-0.077
-158.735	184.182	-0.212	-0.311
-157.720	-141.384	0.140	-0.014
-156.706	-31.965	-0.276	-0.153
-155.691	51.968	0.181	-0.170
-154.677	800.000	-0.097	-0.344
-153.662	-200.000	-0.039	-0.183
-152.647	800.000	-0.047	-0.178
-151.633	93.976	0.090	-0.100
-150.618	-35.379	-0.238	0.128
-149.604	-200.000	0.029	-0.292
-148.589	-17.443	0.290	0.180
-147.574	101.738	0.185	-0.213
-146.560	800.000	-0.084	-0.311
-145.545	-136.188	0.143	-0.017
-144.531	-93.067	-0.057	-0.016
-143.516	-49.060	0.167	0.079
-142.502	545.399	-0.096	-0.226
-141.487	800.000	0.013	0.052
-140.472	-200.000	0.027	0.169
-139.458	-136.742	0.524	0.060
-138.443	-76.907	-0.151	-0.052
-137.429	800.000	-0.128	0.483
-136.414	-37.407	0.159	-0.084
-135.399	-62.380	0.305	0.125
-134.385	-60.149	0.159	-0.067
-133.370	-200.000	-0.019	0.227
-132.356	-67.025	0.152	-0.059
-131.341	-111.722	-0.294	-0.059
-130.326	163.693	-0.085	-0.118
-129.312	-66.834	-0.203	0.079
-128.297	800.000	-0.057	-0.198
-127.283	-173.315	0.111	-0.003
-126.268	220.567	-0.209	-0.331
-125.253	361.217	-0.114	-0.225
-124.239	-200.000	-0.066	-0.308
-123.224	-185.958	-0.056	0.001
-122.210	388.077	-0.082	0.168
-121.195	-200.000	0.003	0.120
