DTS Sentinel unit serial number:	SN413079Multiplexer serial number:	ORYXHardware model number:	OX4-SRSoftware version number:	ORYX F/W v4.00 Oryx Data Collector v3.7.2.0data status	okinstallation	princeton_trtdifferential loss correction	single-endedforward channel	channel 4reverse channel	N/Adate	2019/09/13time	07:57:35forward acquisition time	60.00reverse acquisition time	0.00gamma	496.2192k internal	0.2320k external	0.2320temperature offset calibration	1.0194default loss term (dB/km)	0.3790temperature slope calibration	1.0000multiplexer offset coefficient	1.0000multiplexer slope coefficient	1.0000fibre end	0.00T internal ref (°C)	26.78T ext. ref 1 (°C)	4.23T ext. ref 2 (°C)	23.11length (m)	temperature (°C)	Stokes	anti-Stokes-747.200	58.934	0.037	-0.037
-746.185	-6.760	-0.428	0.295
-745.171	-112.907	0.284	-0.057
-744.156	-40.622	-0.200	0.105
-743.142	-148.399	0.296	-0.025
-742.127	183.874	-0.237	0.355
-741.112	-2.379	-0.198	-0.141
-740.098	3.595	-0.092	-0.068
-739.083	-133.380	-0.161	0.021
-738.069	-200.000	-0.020	-0.134
-737.054	-200.000	-0.011	-0.149
-736.039	155.345	-0.107	0.150
-735.025	-150.128	-0.188	-0.015
-734.010	-125.731	-0.156	-0.024
-732.996	-32.721	0.347	0.195
-731.981	-54.866	-0.460	-0.210
-730.966	50.536	-0.235	-0.225
-729.952	-200.000	0.032	0.168
-728.937	58.477	-0.175	0.173
-727.923	-115.947	-0.180	-0.034
-726.908	73.592	-0.135	-0.143
-725.894	9.984	0.066	-0.051
-724.879	-83.697	-0.211	0.068
-723.864	-200.000	0.026	-0.201
-722.850	-150.787	0.216	-0.017
-721.835	-80.457	-0.256	-0.086
-720.821	42.825	-0.091	0.084
-719.806	-139.765	-0.203	0.022
-718.791	113.370	0.128	-0.157
-717.777	63.270	-0.173	0.175
-716.762	157.994	-0.129	-0.180
-715.748	-200.000	0.006	0.108
-714.733	-200.000	0.001	-0.027
-713.718	-200.000	0.036	-0.196
-712.704	-93.397	-0.056	-0.016
-711.689	114.046	-0.059	-0.073
-710.675	317.949	0.130	-0.248
-709.660	430.446	-0.042	-0.091
-708.645	167.782	-0.063	0.090
-707.631	34.464	-0.022	-0.019
-706.616	144.902	0.016	0.022
-705.602	800.000	-0.046	-0.129
-704.587	-200.000	0.003	0.122
-703.572	-200.000	-0.004	0.152
-702.558	-16.072	0.079	0.051
-701.543	-129.053	-0.136	-0.019
-700.529	2.042	0.262	0.191
-699.514	-121.973	-0.434	-0.072
-698.499	-174.323	-0.226	-0.007
-697.485	-28.794	-0.120	-0.070
-696.470	-200.000	0.020	0.370
-695.456	-119.397	0.174	0.031
-694.441	800.000	0.008	-0.034
-693.426	-200.000	0.047	-0.280
-692.412	-200.000	-0.001	-0.142
-691.397	165.257	0.026	0.037
-690.383	-104.621	-0.130	0.030
-689.368	-7.804	-0.136	0.093
-688.354	374.222	-0.042	0.086
-687.339	-76.192	-0.321	0.114
-686.324	-94.160	0.330	0.091
-685.310	-61.229	-0.166	-0.071
-684.295	125.283	0.155	0.198
-683.281	-82.388	-0.306	-0.100
-682.266	731.018	-0.064	-0.172
-681.251	-69.792	0.310	0.119
-680.237	800.000	-0.035	0.132
-679.222	-0.470	-0.129	-0.092
-678.208	-10.930	0.148	0.099
-677.193	697.440	-0.148	-0.393
-676.178	-200.000	-0.000	0.140
-675.164	-67.698	0.110	0.044
-674.149	-65.669	0.347	-0.140
-673.135	48.897	-0.062	-0.059
-672.120	-200.000	0.006	-0.337
-671.105	31.650	-0.214	0.185
-670.091	-200.000	0.008	-0.377
-669.076	521.723	0.055	-0.130
-668.062	800.000	-0.101	0.379
-667.047	-12.391	0.223	0.147
-666.032	-34.526	-0.124	-0.068
-665.018	-200.000	-0.042	-0.225
-664.003	48.808	0.067	-0.063
-662.989	370.602	-0.083	-0.170
-661.974	-200.000	0.029	0.176
-660.959	-91.349	-0.035	0.010
-659.945	-7.847	0.102	0.069
-658.930	-20.883	0.229	-0.142
-657.916	-88.554	-0.188	-0.056
-656.901	-100.779	0.278	0.069
-655.886	-200.000	0.016	0.076
-654.872	496.905	0.150	-0.348
-653.857	399.133	0.044	0.092
-652.843	-200.000	-0.020	0.239
-651.828	-46.431	-0.231	0.114
-650.814	-81.036	-0.315	-0.105
-649.799	-23.622	-0.123	0.074
-648.784	70.676	0.251	0.262
-647.770	-200.000	-0.023	0.207
-646.755	181.064	0.265	-0.392
-645.741	364.643	-0.153	-0.310
-644.726	536.622	0.090	0.216
-643.711	800.000	0.046	0.143
-642.697	-105.242	-0.313	-0.072
-641.682	417.560	-0.115	0.247
-640.668	-200.000	-0.030	-0.178
-639.653	239.775	-0.076	-0.128
-638.638	-200.000	0.034	-0.213
-637.624	246.189	0.075	0.128
-636.609	-200.000	-0.054	0.318
-635.595	-57.619	0.257	0.113
-634.580	60.736	-0.108	-0.108
-633.565	-104.786	0.066	-0.015
-632.551	-82.593	0.228	-0.074
-631.536	-200.000	-0.085	-0.392
-630.522	-6.877	0.333	-0.228
-629.507	-93.427	-0.157	-0.044
-628.492	161.330	0.268	-0.377
-627.478	800.000	-0.087	0.249
-626.463	-200.000	0.077	-0.418
-625.449	-200.000	-0.027	0.132
-624.434	345.642	-0.130	0.258
-623.419	366.769	-0.208	-0.422
-622.405	-200.000	-0.012	0.172
-621.390	-125.680	-0.152	-0.023
-620.376	-200.000	-0.024	-0.202
-619.361	-12.404	-0.078	-0.051
-618.346	89.266	0.100	0.113
-617.332	-200.000	0.028	0.193
-616.317	-62.934	0.198	0.083
-615.303	-45.931	0.101	-0.050
-614.288	125.684	-0.308	-0.391
-613.273	300.829	-0.063	-0.117
-612.259	71.422	-0.393	-0.410
-611.244	-23.538	-0.240	0.145
-610.230	-137.859	0.359	-0.040
-609.215	60.595	-0.109	-0.109
-608.201	69.588	-0.171	0.178
-607.186	-15.352	0.320	0.206
-606.171	259.292	0.047	0.081
-605.157	800.000	0.003	-0.010
-604.142	-200.000	0.036	-0.161
-603.128	-82.806	0.109	-0.035
-602.113	-200.000	-0.026	0.285
-601.098	-130.811	-0.171	0.023
-600.084	800.000	-0.047	0.166
-599.069	-68.866	0.293	0.114
-598.055	155.684	0.166	-0.230
-597.040	108.035	-0.076	-0.092
-596.025	-32.697	-0.408	0.228
-595.011	383.724	0.110	0.227
-593.996	-200.000	0.053	-0.260
-592.982	103.517	0.174	0.206
-591.967	-4.687	0.210	-0.146
-590.952	389.971	-0.180	-0.376
-589.938	-200.000	-0.019	0.149
-588.923	211.685	0.183	-0.290
-587.909	204.411	-0.121	-0.189
-586.894	800.000	-0.056	0.228
-585.879	118.118	-0.197	0.244
-584.865	51.983	0.088	0.085
-583.850	-128.443	0.257	-0.037
-582.836	800.000	-0.090	0.274
-581.821	-45.511	0.261	0.130
-580.806	-130.437	-0.339	-0.046
-579.792	317.483	-0.082	0.157
-578.777	-77.506	0.262	0.091
-577.763	-120.002	0.119	-0.021
-576.748	800.000	-0.046	0.203
-575.733	6.242	-0.058	0.043
-574.719	-115.605	-0.255	-0.048
-573.704	-80.620	0.133	-0.045
-572.690	-185.506	-0.286	-0.004
-571.675	131.072	0.121	0.156
-570.661	46.767	-0.141	0.132
-569.646	-80.996	0.120	0.040
-568.631	57.070	-0.097	-0.095
-567.617	-115.922	0.126	-0.024
-566.602	-78.453	-0.135	0.046
-565.588	-162.042	-0.472	0.024
-564.573	394.638	0.066	0.139
-563.558	-82.908	-0.096	0.031
-562.544	3.748	0.122	-0.089
-561.529	-108.622	-0.029	0.006
-560.515	-200.000	0.034	-0.318
-559.500	207.230	0.063	0.098
-558.485	776.396	-0.096	0.263
-557.471	2.434	0.207	0.150
-556.456	-200.000	-0.004	0.035
-555.442	-132.901	0.101	-0.013
-554.427	-133.473	-0.409	0.052
-553.412	-164.208	0.307	-0.014
-552.398	-200.000	-0.014	-0.350
-551.383	-126.998	0.123	0.018
-550.369	800.000	-0.082	0.244
-549.354	800.000	0.059	-0.191
-548.339	-29.278	-0.218	0.125
-547.325	-39.493	-0.185	-0.097
-546.310	186.653	-0.111	0.166
-545.296	-114.223	-0.182	-0.035
-544.281	183.181	0.244	0.362
-543.266	-200.000	-0.028	-0.258
-542.252	99.970	0.072	-0.084
-541.237	-89.373	-0.116	0.034
-540.223	260.920	0.082	0.142
-539.208	800.000	0.143	-0.506
-538.193	-200.000	0.039	0.255
-537.179	257.183	-0.160	0.276
-536.164	176.859	-0.154	-0.225
-535.150	800.000	-0.093	-0.297
-534.135	-101.476	0.470	0.115
-533.121	-200.000	-0.003	0.032
-532.106	-69.948	0.124	-0.047
-531.091	78.245	0.074	0.079
-530.077	91.532	0.028	-0.031
-529.062	-96.818	-0.342	0.090
-528.048	-200.000	-0.027	-0.381
-527.033	-153.624	-0.165	-0.011
-526.018	800.000	-0.072	-0.241
-525.004	-0.559	0.248	-0.176
-523.989	118.146	0.064	0.079
-522.975	23.548	0.296	-0.244
-521.960	-200.000	-0.046	-0.366
-520.945	-26.706	-0.180	-0.106
-519.931	-174.995	0.124	0.003
-518.916	-200.000	0.005	-0.119
-517.902	-62.649	0.191	-0.079
-516.887	103.200	-0.333	-0.392
-515.872	-124.769	0.276	-0.043
-514.858	-54.469	0.282	0.128
-513.843	2.204	0.242	0.175
-512.829	8.202	-0.231	-0.174
-511.814	-49.092	0.212	-0.102
-510.799	800.000	-0.022	-0.086
-509.785	-94.044	-0.206	0.057
-508.770	-45.805	-0.194	0.096
-507.756	151.636	-0.089	-0.122
-506.741	-96.349	0.192	-0.051
-505.726	-30.775	0.012	-0.007
-504.712	-141.015	0.403	0.041
-503.697	217.398	0.128	-0.204
-502.683	107.292	-0.073	-0.087
-501.668	150.521	-0.167	-0.227
-500.653	-84.263	-0.248	-0.079
-499.639	-200.000	0.058	0.346
-498.624	654.563	-0.071	0.183
-497.610	4.663	-0.198	-0.145
-496.595	-200.000	-0.009	0.197
-495.581	35.998	0.057	0.050
-494.566	146.436	0.088	-0.119
-493.551	-22.074	-0.153	-0.093
-492.537	800.000	-0.031	0.109
-491.522	653.081	-0.114	-0.294
-490.508	-126.935	-0.195	0.029
-489.493	-179.717	-0.168	-0.004
-488.478	-141.809	-0.214	0.022
-487.464	-200.000	0.049	-0.250
-486.449	-49.977	0.268	-0.127
-485.435	-136.501	0.326	0.038
-484.420	-10.079	-0.285	-0.190
-483.405	492.130	-0.060	0.137
-482.391	800.000	-0.079	-0.281
-481.376	369.344	0.067	-0.135
-480.362	-200.000	0.027	-0.198
-479.347	-90.907	-0.124	0.036
-478.332	-48.989	-0.022	0.010
-477.318	-28.381	-0.111	0.064
-476.303	-60.351	0.374	0.159
-475.289	169.422	0.133	-0.190
-474.274	1.597	-0.199	0.144
-473.259	620.220	-0.046	-0.115
-472.245	-200.000	-0.017	-0.150
-471.230	-86.692	0.065	0.020
-470.216	-151.195	0.323	0.024
-469.201	-200.000	-0.003	-0.123
-468.186	-63.375	0.089	0.036
-467.172	-154.598	-0.248	-0.017
-466.157	800.000	0.033	0.144
-465.143	128.919	-0.062	-0.078
-464.128	-39.151	0.198	-0.104
-463.113	-58.463	0.267	-0.116
-462.099	-104.075	-0.262	0.061
-461.084	-200.000	-0.003	-0.091
-460.070	-67.592	-0.428	0.168
-459.055	-200.000	0.020	-0.150
-458.040	-200.000	-0.000	0.411
-457.026	-200.000	0.077	-0.355
-456.011	-11.549	-0.249	-0.164
-454.997	800.000	0.061	0.242
-453.982	800.000	-0.008	0.023
-452.968	-167.753	-0.250	-0.010
-451.953	-12.854	-0.289	0.188
-450.938	-4.156	0.206	-0.143
-449.924	-61.420	-0.065	0.027
-448.909	800.000	0.048	-0.162
-447.895	-19.056	-0.137	-0.085
-446.880	-146.009	0.138	-0.012
-445.865	353.358	-0.032	-0.063
-444.851	658.398	-0.066	-0.168
-443.836	111.579	0.126	0.151
-442.822	84.138	-0.094	0.103
-441.807	-47.845	0.255	-0.124
-440.792	800.000	0.047	0.201
-439.778	73.148	0.067	-0.070
-438.763	-184.747	-0.357	0.006
-437.749	103.632	-0.254	0.298
-436.734	359.989	0.148	0.296
-435.719	-146.487	0.235	0.020
-434.705	-200.000	0.040	0.320
-433.690	-71.672	0.276	0.103
-432.676	-90.876	0.151	-0.043
-431.661	-200.000	-0.019	0.180
-430.646	-0.042	0.146	-0.104
-429.632	-19.231	0.442	-0.274
-428.617	200.031	-0.114	-0.175
-427.603	77.826	-0.052	-0.056
-426.588	633.012	-0.058	0.148
-425.573	-5.286	-0.222	0.153
-424.559	101.002	-0.141	0.163
-423.544	-107.906	-0.281	-0.061
-422.530	437.344	-0.030	0.065
-421.515	-72.537	-0.486	0.179
-420.500	175.431	-0.168	-0.243
-419.486	-62.695	0.444	0.184
-418.471	-47.749	-0.410	0.199
-417.457	-89.752	0.201	0.059
-416.442	-82.227	0.291	0.095
-415.428	-200.000	0.025	0.133
-414.413	174.296	0.087	-0.125
-413.398	-79.142	-0.371	0.126
-412.384	-6.373	-0.418	-0.285
-411.369	461.345	-0.054	0.121
-410.355	66.010	-0.262	0.266
-409.340	-173.936	-0.177	0.005
-408.325	-57.032	-0.040	-0.017
-407.311	-62.765	-0.101	-0.042
-406.296	102.526	0.131	-0.153
-405.282	-200.000	0.010	-0.046
-404.267	594.722	-0.151	-0.374
-403.252	-58.875	-0.243	-0.105
-402.238	-37.692	0.210	-0.112
-401.223	-200.000	-0.020	-0.091
-400.209	404.998	0.017	0.035
-399.194	47.932	0.141	0.132
-398.179	723.898	-0.051	0.136
-397.165	-200.000	-0.039	-0.192
-396.150	-83.835	0.119	-0.038
-395.136	-20.258	0.244	-0.150
-394.121	800.000	-0.080	-0.274
-393.106	-159.912	-0.274	-0.015
-392.092	-191.871	0.009	0.000
-391.077	115.776	-0.049	-0.060
-390.063	140.662	0.145	0.190
-389.048	-200.000	-0.015	-0.103
-388.033	-112.998	0.071	0.014
-387.019	-200.000	-0.036	-0.174
-386.004	46.166	-0.254	0.235
-384.990	19.034	0.184	-0.147
-383.975	417.205	0.071	0.150
-382.960	-49.045	-0.219	0.104
-381.946	274.916	0.033	-0.058
-380.931	-83.460	-0.244	0.078
-379.917	102.163	0.068	0.079
-378.902	213.368	0.102	0.161
-377.888	-200.000	-0.037	-0.183
-376.873	5.369	-0.085	0.062
-375.858	-49.242	0.149	-0.071
-374.844	-88.437	0.100	0.030
-373.829	800.000	-0.013	-0.053
-372.815	73.089	-0.126	-0.132
-371.800	800.000	0.048	-0.180
-370.785	-25.560	-0.290	0.171
-369.771	34.313	-0.094	-0.081
-368.756	-144.438	0.489	-0.045
-367.742	9.765	0.022	-0.017
-366.727	-7.409	-0.072	0.049
-365.712	-200.000	0.032	0.184
-364.698	-112.473	-0.557	0.111
-363.683	-0.618	0.104	-0.074
-362.669	-33.616	-0.133	-0.073
-361.654	-39.283	-0.148	-0.077
-360.639	275.020	0.047	0.083
-359.625	-103.884	0.292	0.068
-358.610	763.767	-0.017	-0.046
-357.596	98.000	-0.118	0.135
-356.581	140.724	-0.275	0.362
-355.566	225.933	0.353	0.570
-354.552	-63.276	-0.217	-0.089
-353.537	95.720	-0.172	0.195
-352.523	37.939	-0.047	0.041
-351.508	6.139	-0.222	-0.164
-350.493	-93.721	0.299	-0.082
-349.479	61.472	-0.148	0.147
-348.464	166.465	-0.156	0.220
-347.450	-54.491	0.080	0.036
-346.435	-53.043	0.067	-0.031
-345.420	-200.000	0.004	0.202
-344.406	582.806	-0.095	0.233
-343.391	800.000	0.035	0.136
-342.377	-200.000	-0.057	0.387
-341.362	-200.000	0.010	0.244
-340.348	-200.000	0.015	-0.185
-339.333	731.191	0.083	0.222
-338.318	-171.728	-0.231	0.008
-337.304	-116.136	0.201	0.037
-336.289	49.845	0.278	0.261
-335.275	81.422	-0.157	0.169
-334.260	800.000	-0.058	-0.225
-333.245	335.272	0.099	-0.191
-332.231	-200.000	-0.039	-0.224
-331.216	800.000	0.091	-0.266
-330.202	379.410	0.079	-0.161
-329.187	63.557	0.058	0.058
-328.172	91.883	0.096	0.107
-327.158	152.574	0.232	-0.316
-326.143	-200.000	-0.001	-0.117
-325.129	-200.000	0.013	-0.212
-324.114	-142.541	0.329	-0.032
-323.099	334.362	-0.079	0.153
-322.085	-60.224	0.212	-0.090
-321.070	153.721	-0.122	-0.167
-320.056	800.000	-0.087	0.273
-319.041	580.522	0.135	0.329
-318.026	-200.000	0.028	0.141
-317.012	259.357	0.052	0.090
-315.997	-99.801	0.430	0.107
-314.983	-7.633	0.111	-0.075
-313.968	72.648	-0.232	-0.240
-312.953	219.492	0.060	-0.096
-311.939	408.475	-0.045	-0.095
-310.924	86.752	0.104	0.114
-309.910	-200.000	0.027	-0.150
-308.895	-200.000	-0.046	0.262
-307.880	105.125	0.081	0.096
-306.866	423.834	-0.138	-0.296
-305.851	800.000	0.048	0.164
-304.837	77.550	0.241	-0.255
-303.822	23.257	-0.182	-0.149
-302.807	101.409	-0.110	-0.128
-301.793	-21.458	-0.123	0.075
-300.778	-106.537	-0.210	-0.046
-299.764	-200.000	-0.007	-0.289
-298.749	-166.182	0.149	0.006
-297.735	387.152	-0.040	-0.082
-296.720	-80.677	0.441	0.146
-295.705	57.078	0.156	0.152
-294.691	757.194	-0.066	-0.178
-293.676	-67.799	0.209	-0.081
-292.662	108.258	-0.107	0.127
-291.647	-93.606	0.142	-0.039
-290.632	-161.933	0.249	-0.013
-289.618	-200.000	-0.030	-0.153
-288.603	270.994	-0.133	-0.233
-287.589	24.105	0.097	0.079
-286.574	122.440	-0.129	-0.160
-285.559	474.598	-0.057	-0.129
-284.545	800.000	-0.066	0.214
-283.530	-100.355	0.356	-0.088
-282.516	-200.000	-0.044	-0.235
-281.501	-22.980	-0.099	0.059
-280.486	479.397	0.022	0.050
-279.472	800.000	-0.005	0.016
-278.457	-200.000	-0.024	-0.283
-277.443	-33.987	-0.153	-0.083
-276.428	-113.401	0.058	-0.011
-275.413	411.033	-0.030	0.063
-274.399	327.205	0.193	0.367
-273.384	-1.445	-0.079	0.055
-272.370	281.829	0.086	0.152
-271.355	-200.000	0.007	0.312
-270.340	185.863	-0.174	-0.256
-269.326	-200.000	-0.026	-0.135
-268.311	-69.714	0.146	-0.055
-267.297	-94.899	0.461	-0.124
-266.282	800.000	0.080	0.229
-265.267	231.551	-0.060	-0.098
-264.253	800.000	0.020	-0.064
-263.238	-75.332	0.186	0.066
-262.224	208.840	0.077	-0.120
-261.209	-72.119	0.053	-0.020
-260.195	-72.461	-0.342	0.126
-259.180	-200.000	0.061	-0.319
-258.165	38.036	-0.059	0.052
-257.151	24.728	-0.184	0.151
-256.136	229.168	-0.144	0.233
-255.122	-96.297	0.340	0.089
-254.107	-200.000	0.036	0.368
-253.092	102.171	-0.141	-0.163
-252.078	-200.000	-0.074	-0.384
-251.063	-4.945	0.162	0.111
-250.049	-142.302	-0.262	0.026
-249.034	0.259	-0.051	-0.036
-248.019	110.319	-0.185	-0.220
-247.005	-75.638	-0.085	-0.030
-245.990	-83.566	-0.062	-0.020
-244.976	-89.609	-0.173	0.050
-243.961	-60.598	-0.338	0.142
-242.946	-200.000	0.014	0.131
-241.932	-200.000	-0.013	-0.147
-240.917	136.704	-0.133	-0.172
-239.903	309.541	0.110	0.204
-238.888	-200.000	0.017	0.286
-237.873	-200.000	-0.022	0.157
-236.859	13.866	0.160	0.124
-235.844	-200.000	0.060	-0.283
-234.830	380.427	-0.106	0.216
-233.815	-72.513	0.163	-0.060
-232.800	-200.000	0.040	0.340
-231.786	312.671	-0.156	0.291
-230.771	8.033	0.264	0.196
-229.757	-80.044	0.074	-0.025
-228.742	52.150	-0.191	0.180
-227.727	800.000	0.059	-0.204
-226.713	70.296	-0.166	-0.170
-225.698	-19.405	-0.191	-0.117
-224.684	509.602	-0.123	0.283
-223.669	-35.820	0.324	0.174
-222.655	414.140	0.045	0.096
-221.640	89.490	0.074	-0.082
-220.625	-200.000	-0.023	-0.206
-219.611	-200.000	-0.008	-0.152
-218.596	614.469	-0.041	0.101
-217.582	800.000	-0.062	0.254
-216.567	800.000	0.105	-0.378
-215.552	252.562	-0.071	0.120
-214.538	442.140	-0.073	0.159
-213.523	75.480	0.047	0.049
-212.509	-200.000	0.001	0.153
-211.494	301.334	-0.048	-0.088
-210.479	-46.195	-0.073	-0.036
-209.465	-89.472	0.244	-0.071
-208.450	28.074	-0.212	-0.177
-207.436	-116.504	0.094	0.017
-206.421	-200.000	0.013	-0.097
-205.406	140.557	0.146	-0.191
-204.392	-99.131	0.182	-0.045
-203.377	-200.000	0.008	0.087
-202.363	-120.282	-0.316	-0.053
-201.348	-135.877	-0.272	0.032
-200.333	800.000	0.030	0.109
-199.319	37.742	-0.154	0.136
-198.304	-179.662	-0.208	0.004
-197.290	412.797	-0.243	-0.511
-196.275	-78.684	0.296	0.100
-195.260	-200.000	-0.011	0.181
-194.246	-92.484	0.423	0.118
-193.231	-83.271	0.240	-0.076
-192.217	800.000	-0.114	0.322
-191.202	-88.092	0.144	-0.043
-190.187	37.859	0.189	0.166
-189.173	50.778	-0.164	-0.154
-188.158	-128.865	0.413	-0.058
-187.144	-93.026	-0.433	0.119
-186.129	800.000	0.038	0.138
-185.114	-78.153	0.239	-0.081
-184.100	-159.742	-0.242	0.013
-183.085	330.090	0.010	-0.019
-182.071	-76.914	0.107	-0.037
-181.056	11.623	0.311	0.236
-180.042	153.294	0.030	-0.041
-179.027	203.467	-0.175	0.268
-178.012	-108.998	0.174	-0.037
-176.998	-135.650	-0.082	-0.010
-175.983	800.000	-0.085	0.369
-174.969	26.425	0.242	-0.200
-173.954	539.378	-0.114	-0.268
-172.939	211.571	0.171	0.266
-171.925	177.471	-0.057	0.082
-170.910	90.157	-0.110	-0.122
-169.896	21.776	0.449	0.361
-168.881	-200.000	-0.005	0.119
-167.866	-45.924	-0.284	-0.138
-166.852	143.673	0.047	-0.061
-165.837	-55.557	-0.208	-0.092
-164.823	633.873	0.091	0.229
-163.808	-120.154	-0.248	0.042
-162.793	20.493	0.139	-0.111
-161.779	-87.516	-0.299	-0.089
-160.764	-114.509	0.141	0.027
-159.750	158.343	0.134	0.184
-158.735	119.620	0.121	0.148
-157.720	258.818	0.234	0.398
-156.706	651.187	0.106	-0.269
-155.691	800.000	0.099	-0.270
-154.677	196.307	0.126	0.189
-153.662	120.081	0.310	-0.380
-152.647	-200.000	0.046	0.285
-151.633	800.000	-0.064	-0.243
-150.618	24.821	0.178	-0.146
-149.604	-200.000	-0.008	0.329
-148.589	-60.098	-0.146	-0.062
-147.574	-146.674	0.045	-0.004
-146.560	348.799	0.118	-0.230
-145.545	800.000	0.030	0.085
-144.531	63.744	-0.068	-0.067
-143.516	-59.588	-0.019	-0.008
-142.502	-82.445	-0.082	0.026
-141.487	389.786	-0.096	0.196
-140.472	-101.008	0.148	-0.036
-139.458	-115.388	-0.127	0.024
-138.443	774.479	-0.119	0.320
-137.429	-60.849	-0.172	0.072
-136.414	163.254	-0.095	-0.132
-135.399	-178.599	-0.222	0.005
-134.385	-200.000	-0.074	0.505
-133.370	19.172	-0.122	-0.096
-132.356	41.012	0.051	0.046
-131.341	-156.831	0.474	0.029
-130.326	800.000	0.058	0.199
-129.312	9.040	0.202	0.151
-128.297	47.164	0.308	0.283
-127.283	-200.000	-0.006	-0.362
-126.268	95.287	-0.206	-0.232
-125.253	-28.555	-0.210	0.119
-124.239	312.932	0.118	0.219
-123.224	344.327	0.141	0.273
-122.210	-64.138	0.045	-0.018
