DTS Sentinel unit serial number:	SN413079Multiplexer serial number:	ORYXHardware model number:	OX4-SRSoftware version number:	ORYX F/W v4.00 Oryx Data Collector v3.7.2.0data status	okinstallation	princeton_trtdifferential loss correction	single-endedforward channel	channel 4reverse channel	N/Adate	2019/09/18time	15:17:35forward acquisition time	60.00reverse acquisition time	0.00gamma	496.2192k internal	0.2297k external	0.2297temperature offset calibration	1.0002default loss term (dB/km)	0.3790temperature slope calibration	1.0000multiplexer offset coefficient	1.0000multiplexer slope coefficient	1.0000fibre end	0.00T internal ref (°C)	35.64T ext. ref 1 (°C)	0.75T ext. ref 2 (°C)	32.80length (m)	temperature (°C)	Stokes	anti-Stokes-747.200	65.912	-0.156	0.162
-746.185	800.000	0.129	0.473
-745.171	-33.602	-0.125	0.070
-744.156	800.000	-0.068	0.228
-743.142	148.251	-0.096	-0.133
-742.127	71.771	0.079	0.084
-741.112	-43.819	-0.094	-0.048
-740.098	-200.000	-0.010	0.206
-739.083	-32.548	0.178	0.101
-738.069	800.000	-0.145	0.429
-737.054	-200.000	0.001	-0.118
-736.039	-55.554	-0.126	-0.058
-735.025	800.000	0.131	0.425
-734.010	319.013	-0.110	0.213
-732.996	76.976	-0.236	-0.256
-731.981	49.980	-0.272	-0.262
-730.966	25.801	0.139	-0.118
-729.952	-179.974	-0.227	-0.005
-728.937	-134.383	0.076	-0.010
-727.923	800.000	-0.085	-0.355
-726.908	115.165	0.058	0.072
-725.894	298.090	-0.020	-0.038
-724.879	-7.774	-0.366	0.253
-723.864	103.977	0.074	-0.089
-722.850	800.000	0.045	0.195
-721.835	36.705	0.281	-0.253
-720.821	-108.738	0.352	-0.077
-719.806	-21.731	-0.388	0.241
-718.791	14.787	-0.157	0.126
-717.777	11.939	0.240	-0.189
-716.762	-200.000	-0.006	0.174
-715.748	438.525	0.108	0.241
-714.733	-158.825	-0.211	0.012
-713.718	-10.150	0.189	-0.128
-712.704	-95.763	-0.426	0.116
-711.689	-88.013	0.326	-0.100
-710.675	11.225	0.280	0.218
-709.660	-122.476	-0.375	-0.062
-708.645	49.556	-0.192	0.184
-707.631	3.368	-0.022	0.016
-706.616	112.671	-0.332	-0.410
-705.602	-16.957	-0.190	0.123
-704.587	800.000	0.071	-0.201
-703.572	709.552	0.050	-0.135
-702.558	121.023	0.090	-0.114
-701.543	800.000	0.098	0.410
-700.529	-1.041	0.220	0.159
-699.514	-149.285	0.444	-0.036
-698.499	-176.531	-0.356	-0.009
-697.485	-200.000	0.031	-0.261
-696.470	-200.000	0.024	-0.180
-695.456	395.119	0.071	-0.152
-694.441	-89.676	-0.175	0.052
-693.426	-132.644	-0.135	-0.018
-692.412	-79.985	-0.435	-0.149
-691.397	89.791	0.143	-0.163
-690.383	-1.984	-0.221	-0.159
-689.368	800.000	0.069	0.265
-688.354	482.786	-0.056	-0.129
-687.339	-172.811	0.235	-0.007
-686.324	-2.673	0.241	-0.172
-685.310	-148.616	-0.357	0.030
-684.295	219.589	-0.135	0.220
-683.281	-29.186	-0.282	-0.165
-682.266	-118.884	0.135	0.024
-681.251	-5.522	0.041	-0.029
-680.237	703.977	-0.053	0.142
-679.222	-121.934	-0.102	0.017
-678.208	55.848	0.357	0.353
-677.193	-57.434	0.106	0.048
-676.178	71.360	-0.225	0.238
-675.164	-200.000	-0.047	-0.237
-674.149	238.251	0.186	0.314
-673.135	-116.981	0.135	-0.025
-672.120	-200.000	-0.004	0.335
-671.105	-6.727	0.051	0.036
-670.091	-119.739	-0.267	0.047
-669.076	380.493	0.073	-0.152
-668.062	143.877	-0.097	0.132
-667.047	-14.502	0.310	-0.203
-666.032	-24.106	0.043	0.026
-665.018	592.043	-0.088	-0.222
-664.003	134.287	0.052	-0.069
-662.989	23.575	0.089	-0.075
-661.974	22.024	-0.218	0.181
-660.959	-89.144	-0.449	-0.135
-659.945	800.000	-0.047	-0.141
-658.930	-200.000	-0.004	0.249
-657.916	-118.070	0.273	-0.050
-656.901	-74.853	-0.141	-0.052
-655.886	800.000	0.112	-0.379
-654.872	71.175	0.159	-0.168
-653.857	-9.715	-0.266	-0.180
-652.843	-70.992	-0.052	-0.020
-651.828	-104.717	-0.324	-0.076
-650.814	24.638	0.159	-0.134
-649.799	-49.298	-0.456	-0.221
-648.784	-52.810	0.321	-0.150
-647.770	104.961	-0.078	-0.094
-646.755	-84.359	-0.396	-0.127
-645.741	-18.250	-0.318	-0.203
-644.726	246.558	0.038	0.065
-643.711	-145.493	0.110	0.010
-642.697	528.992	-0.068	-0.163
-641.682	-100.382	-0.077	0.019
-640.668	800.000	0.101	-0.285
-639.653	229.157	0.104	0.173
-638.638	-12.884	-0.120	0.079
-637.624	-133.212	-0.095	-0.012
-636.609	-62.191	-0.117	-0.049
-635.595	-65.940	-0.412	0.168
-634.580	-69.365	0.111	0.043
-633.565	84.673	0.135	-0.151
-632.551	391.303	0.171	-0.362
-631.536	227.170	0.230	0.380
-630.522	-200.000	0.019	0.244
-629.507	181.300	-0.073	-0.109
-628.492	592.129	-0.110	-0.277
-627.478	-85.385	-0.150	0.047
-626.463	43.549	0.013	0.012
-625.449	-90.278	-0.469	-0.138
-624.434	26.518	-0.031	-0.027
-623.419	-59.153	0.161	0.070
-622.405	800.000	-0.099	0.391
-621.390	-200.000	0.009	0.216
-620.376	-41.427	-0.181	-0.095
-619.361	-17.140	0.396	0.254
-618.346	-74.207	0.108	0.040
-617.332	-200.000	-0.029	0.171
-616.317	20.570	-0.309	-0.254
-615.303	-35.115	0.075	-0.042
-614.288	292.677	0.157	-0.291
-613.273	-1.914	-0.079	0.056
-612.259	-114.918	0.179	-0.035
-611.244	640.125	-0.081	-0.209
-610.230	489.205	-0.163	-0.378
-609.215	119.577	0.164	-0.206
-608.201	800.000	0.096	0.285
-607.186	-103.304	-0.256	-0.061
-606.171	96.638	-0.123	-0.143
-605.157	784.822	0.079	0.220
-604.142	416.596	-0.061	0.132
-603.128	-76.039	0.055	-0.020
-602.113	87.222	0.092	-0.103
-601.098	-200.000	0.005	0.278
-600.084	43.874	0.111	0.103
-599.069	-200.000	0.011	0.340
-598.055	130.282	-0.267	-0.347
-597.040	800.000	-0.148	-0.422
-596.025	-96.068	-0.050	0.013
-595.011	304.475	-0.053	-0.101
-593.996	59.936	-0.194	0.195
-592.982	-115.691	-0.297	0.057
-591.967	128.504	0.133	0.171
-590.952	43.941	-0.122	0.113
-589.938	-164.852	0.159	0.007
-588.923	-82.605	0.141	-0.046
-587.909	-200.000	-0.001	0.086
-586.894	-30.957	-0.112	0.064
-585.879	-200.000	0.232	-0.001
-584.865	-188.722	-0.214	0.003
-583.850	-200.000	-0.028	0.185
-582.836	27.405	-0.076	0.065
-581.821	-132.520	0.161	0.021
-580.806	-115.288	-0.100	0.019
-579.792	-27.811	0.363	-0.213
-578.777	152.748	-0.154	-0.213
-577.763	40.117	-0.050	-0.046
-576.748	-45.910	0.267	-0.134
-575.733	452.931	-0.168	0.377
-574.719	-7.382	0.166	0.114
-573.704	-179.085	-0.178	-0.004
-572.690	-119.179	0.076	0.013
-571.675	-196.554	0.202	-0.001
-570.661	-200.000	-0.005	0.078
-569.646	-100.668	-0.121	0.030
-568.631	-200.000	-0.020	-0.368
-567.617	2.148	0.159	-0.116
-566.602	661.092	0.007	-0.019
-565.588	-26.370	-0.079	0.047
-564.573	-119.260	-0.149	-0.026
-563.558	-141.321	0.152	-0.016
-562.544	-90.414	0.338	-0.099
-561.529	800.000	-0.077	-0.227
-560.515	158.006	-0.118	-0.165
-559.500	-200.000	-0.023	0.112
-558.485	244.141	-0.055	-0.093
-557.471	-139.476	0.054	0.006
-556.456	175.198	-0.142	0.209
-555.442	127.885	-0.142	0.183
-554.427	60.206	0.085	-0.085
-553.412	800.000	-0.023	0.072
-552.398	118.363	-0.191	-0.239
-551.383	800.000	-0.083	-0.257
-550.369	-8.643	0.006	0.004
-549.354	15.610	0.185	0.148
-548.339	-29.193	-0.364	-0.211
-547.325	-91.291	0.223	-0.065
-546.310	-200.000	0.053	0.269
-545.296	141.373	-0.168	-0.225
-544.281	-200.000	-0.009	0.066
-543.266	800.000	-0.051	0.205
-542.252	-200.000	-0.004	-0.313
-541.237	-200.000	0.103	-0.465
-540.223	-200.000	0.017	0.116
-539.208	127.456	-0.026	0.034
-538.193	800.000	-0.050	-0.183
-537.179	-200.000	-0.004	0.068
-536.164	180.581	-0.153	-0.227
-535.150	17.304	0.160	-0.129
-534.135	-198.639	0.079	-0.000
-533.121	-97.226	0.121	0.032
-532.106	-200.000	-0.018	-0.135
-531.091	42.475	0.291	-0.268
-530.077	-25.971	0.192	-0.114
-529.062	-61.618	0.168	-0.072
-528.048	-200.000	0.013	0.287
-527.033	123.948	-0.174	0.221
-526.018	-149.553	-0.378	0.030
-525.004	-61.916	-0.237	-0.100
-523.989	-200.000	-0.074	-0.349
-522.975	7.220	-0.065	-0.049
-521.960	258.025	-0.049	-0.086
-520.945	76.397	-0.238	-0.255
-519.931	267.983	-0.085	-0.150
-518.916	48.026	-0.114	0.108
-517.902	302.762	-0.122	0.229
-516.887	36.460	0.059	0.052
-515.872	-21.519	-0.367	-0.226
-514.858	64.994	0.142	-0.145
-513.843	-200.000	-0.032	-0.179
-512.829	-200.000	-0.059	0.386
-511.814	-144.824	-0.189	0.018
-510.799	-200.000	0.039	0.219
-509.785	800.000	0.041	-0.173
-508.770	800.000	0.077	-0.255
-507.756	144.857	-0.142	0.192
-506.741	577.366	-0.033	0.082
-505.726	-5.268	0.254	0.177
-504.712	800.000	-0.062	0.216
-503.697	-200.000	-0.043	0.225
-502.683	161.475	-0.084	-0.119
-501.668	650.044	0.119	0.309
-500.653	-200.000	0.019	0.246
-499.639	-63.377	0.042	-0.018
-498.624	105.467	0.322	0.385
-497.610	20.327	-0.278	-0.227
-496.595	88.171	0.146	0.164
-495.581	-46.840	0.298	-0.147
-494.566	220.090	-0.027	0.043
-493.551	15.355	0.240	0.190
-492.537	0.002	-0.273	0.197
-491.522	-60.679	0.052	-0.022
-490.508	-191.376	0.048	-0.000
-489.493	-200.000	-0.395	0.002
-488.478	788.841	-0.039	-0.108
-487.464	-114.274	-0.133	0.026
-486.449	70.766	0.050	0.052
-485.435	-6.585	0.271	-0.187
-484.420	-9.216	0.152	0.103
-483.405	-14.148	0.109	0.071
-482.391	209.941	-0.068	0.108
-481.376	108.480	0.157	-0.189
-480.362	20.489	0.149	0.122
-479.347	63.071	0.077	0.077
-478.332	23.386	-0.206	0.171
-477.318	-116.428	-0.439	0.082
-476.303	-200.000	-0.054	-0.372
-475.289	400.512	0.122	-0.259
-474.274	-200.000	-0.003	0.110
-473.259	-101.739	-0.204	-0.050
-472.245	637.567	0.159	-0.408
-471.230	800.000	0.100	0.364
-470.216	-29.364	-0.077	0.045
-469.201	-63.915	-0.411	-0.170
-468.186	-119.875	0.134	-0.023
-467.172	48.921	0.134	-0.127
-466.157	-163.880	0.193	-0.009
-465.143	267.561	-0.141	0.250
-464.128	-141.306	0.089	-0.009
-463.113	-165.469	0.144	0.006
-462.099	48.468	-0.134	-0.127
-461.084	154.988	-0.137	-0.191
-460.070	-101.859	0.046	0.011
-459.055	-63.169	0.120	-0.050
-458.040	800.000	-0.032	-0.115
-457.026	310.400	-0.073	0.138
-456.011	-31.425	0.110	-0.062
-454.997	-76.601	-0.284	0.101
-453.982	17.334	-0.081	-0.065
-452.968	-200.000	-0.050	0.283
-451.953	-93.475	-0.208	0.058
-450.938	-30.324	-0.135	0.078
-449.924	-200.000	-0.030	-0.175
-448.909	-119.611	-0.463	0.081
-447.895	-200.000	-0.018	-0.316
-446.880	-88.344	0.307	-0.093
-445.865	-200.000	0.034	-0.172
-444.851	-21.914	0.449	0.275
-443.836	-30.687	0.127	0.073
-442.822	-86.553	-0.167	-0.052
-441.807	346.479	-0.135	0.268
-440.792	421.360	-0.037	-0.081
-439.778	505.935	-0.128	0.299
-438.763	5.824	0.400	-0.298
-437.749	557.174	-0.117	0.284
-436.734	-200.000	0.001	-0.219
-435.719	800.000	-0.070	0.301
-434.705	609.143	-0.167	0.421
-433.690	800.000	0.073	-0.263
-432.676	119.210	-0.112	0.140
-431.661	800.000	-0.095	-0.308
-430.646	-200.000	-0.017	0.139
-429.632	-200.000	0.011	0.049
-428.617	-53.946	-0.283	0.130
-427.603	171.496	-0.112	0.162
-426.588	-106.933	0.127	-0.028
-425.573	158.221	-0.096	-0.134
-424.559	-156.119	-0.138	-0.009
-423.544	53.944	0.245	-0.238
-422.530	-22.770	-0.244	0.149
-421.515	800.000	-0.023	-0.091
-420.500	296.813	-0.158	-0.292
-419.486	800.000	0.141	-0.405
-418.471	-14.716	0.227	0.147
-417.457	267.665	0.070	0.123
-416.442	125.699	-0.269	0.343
-415.428	800.000	0.091	-0.274
-414.413	70.301	-0.159	-0.166
-413.398	434.441	0.144	-0.316
-412.384	169.788	-0.153	0.221
-411.369	800.000	0.071	0.221
-410.355	-90.098	-0.278	0.082
-409.340	-75.782	-0.374	0.134
-408.325	-128.637	-0.098	0.014
-407.311	169.202	0.200	0.288
-406.296	-79.071	0.165	-0.057
-405.282	-77.841	0.219	0.076
-404.267	123.573	0.086	0.109
-403.252	24.394	0.161	0.134
-402.238	52.401	0.200	0.192
-401.223	30.087	0.136	-0.117
-400.209	-75.197	-0.048	-0.017
-399.194	-200.000	0.003	0.072
-398.179	-70.402	0.104	0.040
-397.165	-200.000	0.022	0.141
-396.150	292.691	0.096	-0.177
-395.136	800.000	0.062	-0.182
-394.121	-55.555	0.126	-0.057
-393.106	-200.000	-0.013	-0.065
-392.092	59.211	-0.222	0.220
-391.077	-200.000	0.042	-0.297
-390.063	-47.001	0.078	-0.038
-389.048	-200.000	0.017	0.184
-388.033	-76.096	0.260	-0.092
-387.019	315.716	-0.063	0.119
-386.004	-200.000	-0.010	0.363
-384.990	-45.289	0.418	0.209
-383.975	-52.201	-0.333	-0.156
-382.960	63.741	0.113	0.115
-381.946	-45.602	0.159	-0.079
-380.931	546.322	-0.165	0.398
-379.917	800.000	0.080	0.309
-378.902	-200.000	-0.023	-0.107
-377.888	-95.971	-0.227	0.061
-376.873	-200.000	-0.007	-0.282
-375.858	71.234	0.213	0.223
-374.844	-64.404	-0.182	0.075
-373.829	800.000	0.086	0.279
-372.815	-174.809	0.140	0.004
-371.800	426.901	0.062	-0.135
-370.785	104.992	-0.194	-0.230
-369.771	-84.590	0.293	0.093
-368.756	-200.000	0.084	-0.430
-367.742	48.882	0.247	-0.233
-366.727	800.000	-0.009	-0.027
-365.712	211.436	-0.032	-0.051
-364.698	23.300	-0.073	-0.060
-363.683	-80.133	0.137	-0.046
-362.669	161.046	0.165	0.232
-361.654	-51.795	-0.255	0.120
-360.639	-181.924	-0.057	-0.001
-359.625	-200.000	0.013	-0.138
-358.610	112.662	-0.151	0.184
-357.596	-115.106	-0.110	-0.021
-356.581	-200.000	-0.069	0.380
-355.566	1.560	0.042	-0.031
-354.552	-200.000	0.056	-0.289
-353.537	193.484	0.124	-0.189
-352.523	-200.000	0.014	-0.281
-351.508	-200.000	-0.007	-0.179
-350.493	-200.000	0.001	0.023
-349.479	-200.000	-0.063	-0.369
-348.464	-200.000	0.025	0.282
-347.450	541.505	0.128	-0.308
-346.435	-30.317	0.147	-0.084
-345.420	94.204	0.134	-0.153
-344.406	800.000	-0.019	0.078
-343.391	800.000	0.037	0.104
-342.377	-112.630	-0.432	-0.086
-341.362	74.255	0.057	-0.060
-340.348	101.483	-0.065	0.076
-339.333	82.801	0.276	0.302
-338.318	79.986	0.288	-0.312
-337.304	-175.408	0.141	-0.004
-336.289	135.425	0.080	-0.104
-335.275	-159.722	0.104	0.006
-334.260	-159.684	-0.228	-0.013
-333.245	226.566	-0.247	-0.403
-332.231	145.737	-0.144	0.193
-331.216	-11.921	-0.175	-0.115
-330.202	13.797	0.173	-0.135
-329.187	201.860	-0.016	0.025
-328.172	121.942	0.158	-0.198
-327.158	-95.977	0.275	-0.073
-326.143	800.000	-0.057	0.167
-325.129	11.704	0.113	-0.087
-324.114	-200.000	-0.004	0.074
-323.099	-121.004	-0.125	0.021
-322.085	447.134	0.145	0.320
-321.070	410.074	0.032	-0.068
-320.056	40.692	-0.051	0.046
-319.041	-65.520	-0.131	-0.053
-318.026	30.758	-0.133	0.114
-317.012	-43.714	0.335	-0.169
-315.997	110.720	0.113	-0.136
-314.983	208.926	0.143	-0.224
-313.968	544.468	-0.142	-0.342
-312.953	-46.370	0.274	-0.135
-311.939	-24.193	-0.095	-0.057
-310.924	-26.910	0.264	-0.155
-309.910	-48.247	-0.112	0.054
-308.895	-47.458	0.165	-0.081
-307.880	120.907	0.077	-0.096
-306.866	152.982	-0.125	-0.171
-305.851	-84.578	-0.150	0.048
-304.837	-73.037	-0.039	-0.014
-303.822	102.015	0.195	0.228
-302.807	-200.000	-0.070	0.344
-301.793	-77.505	0.355	0.124
-300.778	-84.816	-0.159	-0.050
-299.764	-19.028	0.247	-0.154
-298.749	-81.570	0.238	0.078
-297.735	-31.934	0.221	-0.124
-296.720	-117.167	0.222	0.041
-295.705	150.233	-0.169	-0.231
-294.691	74.771	-0.152	-0.161
-293.676	-200.000	0.039	-0.335
-292.662	69.832	0.182	-0.188
-291.647	76.207	-0.200	0.212
-290.632	-200.000	0.009	0.193
-289.618	800.000	0.021	-0.074
-288.603	321.533	-0.037	0.070
-287.589	-83.512	-0.125	0.040
-286.574	-166.915	0.213	0.009
-285.559	-200.000	0.223	-0.001
-284.545	-200.000	-0.040	0.271
-283.530	800.000	0.046	0.137
-282.516	39.806	-0.026	0.023
-281.501	-87.752	0.291	-0.088
-280.486	-11.484	-0.215	-0.142
-279.472	800.000	-0.072	0.252
-278.457	800.000	0.013	0.055
-277.443	-200.000	-0.042	-0.275
-276.428	151.986	0.143	0.195
-275.413	131.817	0.168	-0.217
-274.399	-13.036	0.376	-0.245
-273.384	-200.000	-0.080	-0.523
-272.370	470.641	-0.056	0.127
-271.355	-200.000	-0.039	0.317
-270.340	211.234	-0.094	-0.148
-269.326	-65.312	0.253	-0.102
-268.311	-23.306	-0.164	-0.099
-267.297	78.016	-0.281	0.300
-266.282	373.533	0.167	0.340
-265.267	254.696	0.185	0.318
-264.253	35.131	-0.197	0.173
-263.238	496.305	0.066	-0.152
-262.224	800.000	0.060	0.227
-261.209	105.462	-0.150	0.177
-260.195	-200.000	-0.066	-0.344
-259.180	-200.000	-0.031	0.156
-258.165	-24.899	0.073	-0.043
-257.151	164.111	0.195	0.276
-256.136	47.773	0.235	-0.220
-255.122	-110.968	-0.168	0.035
-254.107	731.107	0.175	0.469
-253.092	-200.000	0.057	-0.638
-252.078	425.336	-0.162	-0.349
-251.063	-127.524	0.326	0.047
-250.049	800.000	-0.074	0.219
-249.034	-76.824	0.396	0.139
-248.019	-23.650	-0.183	0.110
-247.005	-46.287	-0.211	-0.104
-245.990	-66.813	0.166	0.066
-244.976	86.085	-0.116	-0.128
-243.961	-28.452	0.093	-0.054
-242.946	591.473	-0.130	0.322
-241.932	-200.000	-0.005	0.305
-240.917	-200.000	0.046	0.228
-239.903	153.351	0.169	0.232
-238.888	-9.176	-0.100	-0.067
-237.873	652.552	0.140	-0.360
-236.859	-51.474	0.291	0.136
-235.844	-90.704	0.295	-0.085
-234.830	-200.000	-0.002	-0.108
-233.815	510.465	0.056	0.131
-232.800	135.718	0.129	0.168
-231.786	144.240	0.108	0.144
-230.771	-200.000	-0.003	-0.108
-229.757	164.813	0.058	0.083
-228.742	194.015	0.216	0.327
-227.727	98.776	-0.136	-0.157
-226.713	-200.000	-0.003	0.166
-225.698	-27.277	-0.184	0.107
-224.684	34.366	-0.243	-0.212
-223.669	568.917	0.136	0.330
-222.655	506.489	-0.094	-0.218
-221.640	-82.325	-0.041	0.013
-220.625	-111.716	-0.451	0.091
-219.611	-200.000	0.007	0.190
-218.596	157.576	-0.159	0.221
-217.582	800.000	-0.019	0.056
-216.567	507.391	0.089	-0.206
-215.552	212.365	-0.056	0.089
-214.538	-21.796	0.101	0.062
-213.523	-200.000	-0.019	0.125
-212.509	-33.952	-0.120	-0.066
-211.494	94.331	0.261	-0.296
-210.479	115.235	-0.176	0.215
-209.465	-200.000	0.016	-0.188
-208.450	422.092	0.164	-0.351
-207.436	210.323	-0.145	-0.228
-206.421	-9.219	-0.056	0.037
-205.406	93.275	0.243	0.275
-204.392	-200.000	0.007	0.292
-203.377	67.690	0.009	0.009
-202.363	800.000	0.079	0.239
-201.348	-90.919	0.054	-0.015
-200.333	626.313	0.051	-0.128
-199.319	-29.584	0.115	0.066
-198.304	-40.191	-0.379	-0.197
-197.290	100.160	0.124	-0.144
-196.275	-37.933	-0.268	-0.142
-195.260	84.889	0.092	0.101
-194.246	-200.000	0.003	0.069
-193.231	300.158	0.135	-0.249
-192.217	-95.455	-0.211	0.056
-191.202	266.818	0.101	0.176
-190.187	-77.620	-0.143	-0.049
-189.173	-79.162	0.471	-0.160
-188.158	237.789	-0.146	-0.243
-187.144	221.453	0.067	-0.108
-186.129	209.337	-0.131	-0.205
-185.114	-117.788	-0.143	0.026
-184.100	536.683	-0.102	0.242
-183.085	-156.236	-0.061	0.004
-182.071	-57.181	0.122	0.054
-181.056	-81.230	0.209	0.069
-180.042	-71.624	0.090	0.033
-179.027	-134.412	0.344	0.042
-178.012	-39.022	0.152	0.080
-176.998	701.914	-0.184	0.485
-175.983	800.000	-0.207	0.572
-174.969	-98.477	0.031	-0.008
-173.954	193.787	-0.126	0.190
-172.939	31.345	0.376	0.322
-171.925	-122.585	-0.260	-0.042
-170.910	-87.603	-0.397	-0.120
-169.896	-33.360	-0.087	-0.048
-168.881	-76.168	0.235	0.083
-167.866	800.000	-0.046	0.171
-166.852	151.318	-0.056	0.077
-165.837	243.759	-0.041	0.069
-164.823	-50.824	0.026	-0.012
-163.808	158.628	0.146	0.202
-162.793	-64.236	-0.035	0.014
-161.779	83.607	-0.066	-0.072
-160.764	-200.000	-0.024	-0.152
-159.750	-200.000	-0.021	0.356
-158.735	-40.593	-0.258	-0.133
-157.720	-127.005	-0.231	-0.034
-156.706	191.885	0.037	-0.056
-155.691	-82.214	-0.158	-0.051
-154.677	-113.044	-0.270	-0.053
-153.662	-114.827	0.155	-0.030
-152.647	232.297	-0.175	-0.286
-151.633	241.613	-0.049	-0.081
-150.618	-200.000	-0.017	-0.244
-149.604	168.420	0.093	0.132
-148.589	-159.850	-0.043	0.002
-147.574	296.685	-0.124	0.227
-146.560	800.000	-0.102	0.312
-145.545	800.000	0.077	0.317
-144.531	-200.000	-0.009	-0.112
-143.516	538.036	0.082	0.195
-142.502	550.959	0.127	0.304
-141.487	800.000	0.033	-0.120
-140.472	-147.229	0.208	0.018
-139.458	97.571	-0.148	0.170
-138.443	-153.304	0.175	-0.012
-137.429	531.670	-0.093	-0.219
-136.414	-135.941	0.106	-0.012
-135.399	800.000	-0.093	0.264
-134.385	-52.707	-0.357	0.164
-133.370	-55.053	0.068	-0.030
-132.356	-48.146	-0.234	0.113
-131.341	367.424	0.070	-0.142
-130.326	257.977	-0.149	-0.256
-129.312	-81.001	0.096	-0.032
-128.297	-131.175	-0.103	-0.014
-127.283	-36.176	0.151	0.081
-126.268	800.000	-0.061	0.231
-125.253	313.171	0.095	0.179
-124.239	-8.972	-0.179	0.120
-123.224	266.375	-0.118	-0.206
-122.210	-1.016	0.098	0.069
-121.195	-99.328	0.322	-0.081
