DTS Sentinel unit serial number:	SN413079Multiplexer serial number:	ORYXHardware model number:	OX4-SRSoftware version number:	ORYX F/W v4.00 Oryx Data Collector v3.7.2.0data status	okinstallation	princeton_trtdifferential loss correction	single-endedforward channel	channel 4reverse channel	N/Adate	2019/09/17time	01:41:35forward acquisition time	60.00reverse acquisition time	0.00gamma	496.2192k internal	0.2313k external	0.2313temperature offset calibration	0.9975default loss term (dB/km)	0.3790temperature slope calibration	1.0000multiplexer offset coefficient	1.0000multiplexer slope coefficient	1.0000fibre end	0.00T internal ref (°C)	29.56T ext. ref 1 (°C)	0.12T ext. ref 2 (°C)	24.54length (m)	temperature (°C)	Stokes	anti-Stokes-747.200	-19.392	-0.278	0.175
-746.185	188.212	-0.049	-0.075
-745.171	-34.428	-0.196	-0.109
-744.156	35.191	0.050	-0.044
-743.142	52.745	0.257	0.249
-742.127	38.541	-0.365	0.330
-741.112	-78.228	0.026	-0.009
-740.098	-117.925	-0.099	-0.018
-739.083	26.666	-0.158	-0.134
-738.069	134.077	0.167	0.220
-737.054	126.751	-0.045	-0.057
-736.039	-22.940	-0.045	0.028
-735.025	52.775	0.181	-0.176
-734.010	32.237	-0.223	-0.195
-732.996	-39.737	-0.294	-0.156
-731.981	-200.000	-0.005	-0.176
-730.966	-81.707	0.131	0.044
-729.952	29.067	-0.084	-0.072
-728.937	-200.000	0.030	-0.168
-727.923	652.222	0.092	-0.238
-726.908	12.621	-0.307	-0.240
-725.894	-0.355	0.234	0.168
-724.879	96.185	-0.132	0.153
-723.864	800.000	0.047	0.158
-722.850	-200.000	0.021	-0.318
-721.835	-200.000	0.010	0.192
-720.821	-200.000	0.005	-0.169
-719.806	8.384	-0.146	-0.111
-718.791	99.541	-0.017	-0.020
-717.777	-183.869	0.369	0.006
-716.762	-148.336	0.377	-0.031
-715.748	-85.446	-0.175	0.055
-714.733	-182.084	-0.071	-0.001
-713.718	32.372	0.430	0.376
-712.704	-9.012	0.146	0.099
-711.689	-70.223	-0.110	0.042
-710.675	26.734	0.067	-0.057
-709.660	-200.000	-0.023	0.201
-708.645	39.050	0.067	-0.060
-707.631	520.734	0.118	-0.280
-706.616	13.880	-0.206	-0.162
-705.602	44.444	0.060	-0.056
-704.587	133.983	-0.126	-0.165
-703.572	378.756	-0.175	0.364
-702.558	33.019	-0.238	-0.209
-701.543	177.895	-0.184	-0.271
-700.529	111.779	-0.060	0.073
-699.514	-58.888	0.156	0.068
-698.499	-24.913	-0.076	0.046
-697.485	54.891	0.163	0.160
-696.470	800.000	-0.050	-0.171
-695.456	-163.351	0.084	-0.004
-694.441	-200.000	0.093	-0.471
-693.426	-110.714	-0.199	-0.042
-692.412	800.000	0.062	-0.253
-691.397	-200.000	0.074	-0.367
-690.383	278.022	0.155	-0.279
-689.368	140.623	-0.308	0.412
-688.354	-34.100	-0.379	-0.211
-687.339	-86.261	0.168	-0.052
-686.324	-3.394	0.185	-0.130
-685.310	-21.382	0.296	-0.183
-684.295	391.421	0.090	-0.190
-683.281	-200.000	-0.015	-0.160
-682.266	-200.000	0.010	-0.304
-681.251	469.094	0.053	-0.119
-680.237	-94.300	0.185	0.051
-679.222	-66.950	-0.433	-0.173
-678.208	304.083	0.232	-0.436
-677.193	751.910	-0.069	-0.188
-676.178	-60.847	-0.153	-0.066
-675.164	-82.057	-0.274	0.090
-674.149	800.000	0.094	0.331
-673.135	800.000	0.057	-0.202
-672.120	708.097	-0.032	-0.087
-671.105	-119.075	0.171	0.030
-670.091	249.642	0.105	0.181
-669.076	-200.000	0.036	-0.261
-668.062	-63.200	0.074	-0.031
-667.047	-200.000	-0.040	-0.306
-666.032	-200.000	0.049	-0.224
-665.018	-24.664	-0.049	0.030
-664.003	143.054	0.113	0.152
-662.989	-3.125	-0.361	0.255
-661.974	78.956	-0.033	-0.036
-660.959	687.596	0.024	0.063
-659.945	164.726	-0.118	-0.169
-658.930	24.992	-0.212	0.178
-657.916	-200.000	-0.017	0.127
-656.901	-126.059	0.280	0.042
-655.886	152.990	0.142	0.197
-654.872	87.109	0.136	0.151
-653.857	800.000	0.087	-0.374
-652.843	29.191	-0.135	0.116
-651.828	-195.677	-0.301	0.002
-650.814	-183.296	0.095	-0.002
-649.799	177.072	0.099	0.146
-648.784	27.512	0.072	0.061
-647.770	43.236	0.207	0.191
-646.755	21.869	0.317	0.261
-645.741	-98.876	0.136	0.035
-644.726	-200.000	0.053	0.357
-643.711	43.153	0.089	0.082
-642.697	183.625	0.110	0.165
-641.682	-96.808	-0.347	-0.092
-640.668	53.058	0.310	0.300
-639.653	-39.635	0.069	-0.036
-638.638	-200.000	0.001	-0.102
-637.624	-200.000	0.044	-0.280
-636.609	177.238	0.118	-0.174
-635.595	-65.321	0.311	-0.126
-634.580	448.735	0.050	-0.110
-633.565	-7.497	0.031	0.021
-632.551	470.038	-0.115	-0.262
-631.536	399.693	-0.094	0.198
-630.522	-66.781	-0.323	0.129
-629.507	59.675	-0.303	-0.302
-628.492	273.307	-0.069	-0.123
-627.478	-34.971	-0.216	0.119
-626.463	-200.000	-0.004	0.154
-625.449	-200.000	-0.064	-0.361
-624.434	201.566	-0.204	-0.317
-623.419	-200.000	-0.028	-0.391
-622.405	800.000	-0.016	-0.046
-621.390	-132.874	-0.194	-0.025
-620.376	-118.645	0.057	-0.010
-619.361	-124.221	-0.222	-0.035
-618.346	-48.704	-0.201	0.098
-617.332	50.860	-0.029	0.028
-616.317	110.710	-0.089	0.108
-615.303	45.092	-0.198	-0.184
-614.288	25.336	-0.193	0.162
-613.273	-68.973	0.149	-0.058
-612.259	-200.000	0.017	-0.172
-611.244	107.370	-0.170	-0.204
-610.230	-200.000	-0.025	-0.314
-609.215	800.000	0.092	0.259
-608.201	-117.047	-0.256	0.047
-607.186	22.196	-0.133	-0.110
-606.171	123.824	0.192	0.244
-605.157	531.958	-0.081	0.194
-604.142	13.163	0.188	-0.147
-603.128	800.000	-0.054	-0.154
-602.113	-200.000	0.043	-0.602
-601.098	485.582	-0.169	0.389
-600.084	44.485	0.091	-0.085
-599.069	-114.178	0.208	-0.041
-598.055	-112.063	0.175	0.036
-597.040	223.491	0.203	0.330
-596.025	-44.057	0.126	-0.064
-595.011	-92.042	0.240	0.068
-593.996	-9.503	-0.174	0.117
-592.982	126.633	0.344	0.439
-591.967	-200.000	0.023	-0.547
-590.952	-200.000	-0.035	0.192
-589.938	-15.898	0.038	-0.024
-588.923	275.273	-0.106	0.190
-587.909	721.909	0.050	-0.134
-586.894	138.470	0.110	0.145
-585.879	526.350	0.168	-0.399
-584.865	73.194	-0.174	-0.183
-583.850	-38.088	0.354	-0.189
-582.836	35.943	-0.053	0.047
-581.821	95.759	-0.199	-0.230
-580.806	82.359	-0.020	-0.022
-579.792	-200.000	0.054	-0.369
-578.777	525.354	-0.025	0.060
-577.763	10.048	0.163	-0.125
-576.748	-200.000	-0.069	0.326
-575.733	800.000	0.067	0.295
-574.719	172.823	0.149	0.216
-573.704	-200.000	0.018	0.108
-572.690	-34.486	-0.121	0.067
-571.675	-4.224	0.298	-0.208
-570.661	101.086	0.085	0.100
-569.646	-71.299	-0.228	0.086
-568.631	-103.094	-0.247	-0.059
-567.617	-200.000	0.042	0.369
-566.602	-100.195	0.211	-0.053
-565.588	-140.489	-0.268	-0.028
-564.573	431.102	-0.065	-0.142
-563.558	-200.000	0.076	0.397
-562.544	-62.677	-0.153	0.064
-561.529	-126.453	0.173	0.026
-560.515	-46.772	-0.438	0.216
-559.500	-131.678	-0.094	0.012
-558.485	262.960	-0.191	-0.334
-557.471	59.133	0.096	0.096
-556.456	584.610	0.041	-0.101
-555.442	-200.000	-0.012	0.317
-554.427	-200.000	-0.014	0.139
-553.412	-97.649	0.152	0.040
-552.398	11.613	0.252	-0.194
-551.383	385.277	0.108	0.225
-550.369	-11.594	0.086	-0.057
-549.354	-124.705	0.159	-0.025
-548.339	73.259	-0.227	0.240
-547.325	-51.806	0.308	0.144
-546.310	-200.000	0.050	-0.350
-545.296	315.776	0.083	-0.158
-544.281	-200.000	-0.021	-0.177
-543.266	-26.334	0.298	0.176
-542.252	19.183	-0.110	-0.089
-541.237	186.912	-0.109	0.163
-540.223	-200.000	0.001	0.304
-539.208	41.178	-0.377	-0.343
-538.193	800.000	0.084	0.276
-537.179	438.689	-0.118	0.258
-536.164	-26.491	0.124	-0.073
-535.150	-19.259	0.168	0.105
-534.135	-46.668	0.091	0.045
-533.121	-46.593	0.111	0.055
-532.106	-110.166	0.344	0.072
-531.091	-200.000	0.031	-0.187
-530.077	447.985	0.130	-0.287
-529.062	-25.777	-0.336	0.199
-528.048	91.582	-0.157	-0.178
-527.033	11.850	-0.298	-0.230
-526.018	160.924	-0.233	0.327
-525.004	800.000	-0.070	0.195
-523.989	-105.171	-0.153	0.035
-522.975	-31.410	0.188	-0.107
-521.960	-97.736	-0.412	-0.107
-520.945	-135.652	0.200	0.024
-519.931	515.507	-0.088	0.206
-518.916	-36.489	-0.254	0.138
-517.902	127.523	0.183	-0.233
-516.887	800.000	-0.085	-0.314
-515.872	-200.000	-0.013	-0.115
-514.858	772.183	0.067	-0.183
-513.843	-49.692	0.198	-0.094
-512.829	-120.525	-0.330	0.056
-511.814	-101.977	-0.347	-0.084
-510.799	-88.841	-0.332	0.099
-509.785	-200.000	0.002	-0.033
-508.770	61.563	-0.174	0.174
-507.756	-6.502	0.166	-0.114
-506.741	-135.049	-0.194	0.024
-505.726	122.274	-0.080	-0.100
-504.712	800.000	-0.110	-0.419
-503.697	800.000	0.029	-0.109
-502.683	-200.000	-0.021	-0.380
-501.668	800.000	0.052	0.204
-500.653	-200.000	0.006	-0.063
-499.639	31.092	-0.123	-0.106
-498.624	166.241	-0.281	0.400
-497.610	156.906	-0.047	-0.065
-496.595	542.339	0.049	-0.116
-495.581	223.540	0.043	-0.070
-494.566	76.760	-0.238	0.254
-493.551	-116.982	-0.201	-0.037
-492.537	179.216	0.063	0.093
-491.522	-118.735	0.224	0.040
-490.508	33.996	-0.214	0.187
-489.493	-200.000	0.010	-0.062
-488.478	-200.000	0.002	-0.091
-487.464	63.718	0.074	0.075
-486.449	800.000	0.059	0.260
-485.435	-48.632	0.198	-0.095
-484.420	262.963	-0.106	-0.184
-483.405	227.709	-0.033	0.054
-482.391	-200.000	0.022	0.112
-481.376	-107.976	-0.345	-0.075
-480.362	197.445	-0.240	-0.368
-479.347	-200.000	0.007	-0.209
-478.332	800.000	0.066	0.275
-477.318	-200.000	0.265	-0.001
-476.303	4.486	-0.221	0.163
-475.289	-200.000	0.021	-0.108
-474.274	-9.574	-0.343	0.230
-473.259	-102.192	0.224	-0.054
-472.245	-66.081	0.059	-0.024
-471.230	-200.000	0.000	0.298
-470.216	-200.000	0.038	0.247
-469.201	12.755	0.185	-0.143
-468.186	-200.000	0.053	-0.293
-467.172	-107.491	0.094	0.021
-466.157	89.815	0.390	0.437
-465.143	236.344	0.047	-0.077
-464.128	192.284	0.194	-0.294
-463.113	-131.459	-0.281	-0.037
-462.099	177.604	-0.022	-0.032
-461.084	-105.186	0.505	0.116
-460.070	-200.000	-0.047	0.389
-459.055	-200.000	0.030	-0.295
-458.040	-55.981	-0.183	-0.082
-457.026	-200.000	0.019	0.481
-456.011	-114.015	0.437	0.085
-454.997	-0.981	0.196	0.139
-453.982	112.305	-0.111	0.135
-452.968	449.052	-0.039	-0.086
-451.953	135.991	-0.231	0.302
-450.938	-142.265	-0.184	-0.018
-449.924	64.625	-0.133	0.134
-448.909	37.289	-0.135	-0.120
-447.895	23.500	0.196	-0.161
-446.880	-87.039	0.177	-0.054
-445.865	167.381	-0.096	0.137
-444.851	552.975	-0.058	-0.139
-443.836	-138.444	0.217	-0.024
-442.822	10.679	0.144	-0.110
-441.807	45.566	0.256	0.237
-440.792	108.021	0.166	-0.199
-439.778	-142.682	0.134	0.013
-438.763	230.800	-0.141	0.232
-437.749	-200.000	-0.290	0.001
-436.734	89.879	-0.204	0.228
-435.719	135.017	0.148	0.193
-434.705	-130.679	0.147	0.020
-433.690	-80.002	0.090	0.030
-432.676	47.357	-0.191	-0.178
-431.661	-45.771	-0.030	-0.015
-430.646	124.836	-0.170	-0.214
-429.632	-27.860	0.136	-0.079
-428.617	16.295	0.084	0.066
-427.603	-108.923	0.319	0.068
-426.588	-43.011	0.267	-0.136
-425.573	800.000	-0.076	-0.216
-424.559	-6.576	-0.131	0.089
-423.544	76.738	0.144	0.153
-422.530	-200.000	-0.021	-0.417
-421.515	-200.000	0.042	-0.259
-420.500	800.000	-0.096	-0.395
-419.486	-15.972	0.072	0.046
-418.471	-58.159	-0.112	0.049
-417.457	232.860	-0.007	-0.012
-416.442	-200.000	-0.023	-0.277
-415.428	68.794	-0.079	0.082
-414.413	61.520	0.063	0.062
-413.398	-154.836	-0.384	0.025
-412.384	800.000	-0.067	-0.277
-411.369	-67.064	0.044	0.017
-410.355	-200.000	0.007	-0.052
-409.340	618.801	0.050	0.126
-408.325	-57.380	-0.059	0.026
-407.311	-120.019	0.232	-0.040
-406.296	-63.034	0.152	0.063
-405.282	488.179	0.130	0.297
-404.267	-124.134	-0.200	0.031
-403.252	180.682	0.117	0.172
-402.238	-83.704	-0.139	0.044
-401.223	-200.000	0.015	-0.251
-400.209	-200.000	-0.034	0.276
-399.194	-128.870	-0.121	-0.017
-398.179	362.638	0.126	0.253
-397.165	121.444	0.177	-0.221
-396.150	-9.086	-0.043	0.029
-395.136	684.215	-0.155	0.404
-394.121	800.000	-0.045	0.137
-393.106	-148.517	0.278	0.023
-392.092	-80.179	-0.081	-0.027
-391.077	-98.542	0.172	0.044
-390.063	-132.001	-0.380	-0.050
-389.048	40.377	0.146	0.131
-388.033	-197.249	-0.207	0.001
-387.019	149.795	0.053	0.072
-386.004	-101.368	-0.140	0.034
-384.990	-200.000	0.023	-0.248
-383.975	765.484	0.096	-0.262
-382.960	-31.686	0.224	-0.126
-381.946	123.700	-0.210	-0.263
-380.931	-101.200	-0.527	-0.129
-379.917	112.637	-0.138	0.167
-378.902	155.942	0.051	0.070
-377.888	-200.000	-0.029	0.190
-376.873	-200.000	0.028	-0.172
-375.858	-34.405	-0.188	0.103
-374.844	-146.881	-0.065	0.006
-373.829	-200.000	-0.092	-0.532
-372.815	-200.000	-0.039	-0.192
-371.800	47.011	-0.096	-0.089
-370.785	800.000	0.073	-0.223
-369.771	-200.000	-0.013	-0.128
-368.756	-83.063	-0.289	-0.093
-367.742	-48.081	0.141	-0.068
-366.727	-126.875	-0.349	0.051
-365.712	-68.214	0.132	-0.051
-364.698	0.392	0.174	-0.124
-363.683	-53.875	-0.140	0.064
-362.669	-200.000	0.015	-0.322
-361.654	-41.833	0.211	-0.108
-360.639	800.000	0.082	-0.247
-359.625	-61.499	0.011	-0.005
-358.610	1.239	0.267	0.191
-357.596	6.917	-0.260	0.194
-356.581	-151.693	-0.252	-0.019
-355.566	99.781	0.123	0.142
-354.552	-10.868	-0.061	0.041
-353.537	-18.471	-0.025	-0.016
-352.523	-200.000	0.036	-0.306
-351.508	97.263	-0.101	-0.115
-350.493	-135.389	-0.298	-0.036
-349.479	103.218	0.235	0.275
-348.464	39.565	-0.079	0.071
-347.450	300.056	-0.085	-0.157
-346.435	-75.714	0.135	0.048
-345.420	-113.998	-0.155	0.030
-344.406	-165.047	0.109	0.005
-343.391	-110.648	0.169	0.035
-342.377	-200.000	-0.027	-0.150
-341.362	-100.895	-0.236	-0.058
-340.348	34.119	0.136	0.118
-339.333	-71.119	-0.190	-0.071
-338.318	-117.260	0.065	-0.012
-337.304	26.044	0.069	-0.057
-336.289	248.940	0.093	-0.157
-335.275	58.434	0.227	-0.222
-334.260	-200.000	0.017	0.079
-333.245	-145.810	0.137	-0.012
-332.231	-82.772	0.091	0.029
-331.216	-200.000	-0.011	-0.237
-330.202	-29.616	0.146	-0.083
-329.187	-200.000	0.004	-0.029
-328.172	-116.762	-0.188	-0.034
-327.158	10.667	0.216	-0.164
-326.143	-141.073	-0.182	0.019
-325.129	-87.773	0.276	0.083
-324.114	-47.366	-0.217	0.105
-323.099	-200.000	-0.018	0.134
-322.085	800.000	-0.063	0.230
-321.070	-200.000	-0.034	0.196
-320.056	59.426	0.205	-0.201
-319.041	-80.281	-0.447	-0.149
-318.026	445.518	0.049	-0.108
-317.012	4.757	0.151	-0.111
-315.997	80.191	-0.151	-0.162
-314.983	-77.033	-0.361	0.126
-313.968	739.921	0.093	-0.249
-312.953	-128.894	-0.223	0.031
-311.939	-200.000	0.004	0.065
-310.924	800.000	0.113	0.368
-309.910	800.000	-0.087	0.345
-308.895	-17.246	-0.164	0.103
-307.880	24.037	-0.070	-0.058
-306.866	-168.095	0.259	0.010
-305.851	-103.276	0.160	-0.038
-304.837	800.000	-0.017	-0.067
-303.822	-106.046	-0.274	-0.061
-302.807	-158.052	-0.147	-0.009
-301.793	-103.973	-0.108	0.025
-300.778	-68.254	0.272	-0.106
-299.764	115.395	0.158	-0.192
-298.749	-98.958	0.222	0.056
-297.735	161.843	-0.120	-0.168
-296.720	2.611	-0.145	0.105
-295.705	-76.394	0.343	0.120
-294.691	-8.588	0.262	-0.176
-293.676	-121.139	0.151	0.025
-292.662	45.294	-0.195	-0.180
-291.647	-182.198	-0.212	0.004
-290.632	-64.922	0.270	-0.109
-289.618	62.326	-0.374	0.372
-288.603	78.437	-0.143	0.152
-287.589	455.589	0.045	-0.099
-286.574	82.753	0.083	-0.090
-285.559	-200.000	-0.058	0.268
-284.545	118.956	-0.191	-0.235
-283.530	-91.439	-0.171	-0.049
-282.516	254.047	0.097	-0.166
-281.501	-200.000	0.024	-0.254
-280.486	645.474	0.136	-0.347
-279.472	234.574	0.121	0.199
-278.457	-5.161	-0.154	0.105
-277.443	-57.567	0.172	-0.075
-276.428	132.348	0.120	0.154
-275.413	-105.148	-0.156	-0.035
-274.399	-114.249	0.257	-0.049
-273.384	-200.000	-0.025	0.255
-272.370	-96.615	0.113	0.030
-271.355	-200.000	-0.006	-0.125
-270.340	-51.291	-0.380	0.177
-269.326	-127.972	0.298	0.043
-268.311	7.696	0.296	0.221
-267.297	-27.742	0.340	0.196
-266.282	-72.033	0.240	-0.089
-265.267	-178.403	-0.207	-0.005
-264.253	19.754	0.322	-0.258
-263.238	-200.000	0.024	0.123
-262.224	147.002	-0.313	0.419
-261.209	1.043	-0.102	0.073
-260.195	10.605	-0.292	-0.221
-259.180	33.502	0.123	-0.106
-258.165	-72.364	0.195	0.072
-257.151	-45.459	-0.080	0.040
-256.136	-89.869	-0.219	-0.064
-255.122	-200.000	0.017	0.263
-254.107	-200.000	-0.002	-0.207
-253.092	-200.000	-0.015	0.566
-252.078	-45.521	-0.024	-0.012
-251.063	80.523	0.240	0.257
-250.049	14.623	0.094	0.073
-249.034	798.665	-0.045	-0.123
-248.019	114.560	-0.175	-0.212
-247.005	-119.484	0.345	-0.059
-245.990	288.036	-0.166	0.299
-244.976	49.280	-0.210	-0.196
-243.961	14.704	0.159	-0.123
-242.946	-200.000	0.023	0.259
-241.932	800.000	-0.071	0.292
-240.917	317.176	0.141	-0.265
-239.903	-200.000	0.032	0.177
-238.888	-200.000	-0.048	-0.366
-237.873	-200.000	0.050	0.233
-236.859	800.000	-0.079	0.283
-235.844	80.305	0.067	-0.071
-234.830	-158.871	-0.069	-0.004
-233.815	-95.169	-0.339	-0.091
-232.800	800.000	-0.073	-0.204
-231.786	118.873	0.101	-0.124
-230.771	84.040	-0.236	-0.256
-229.757	-97.648	0.191	0.049
-228.742	-200.000	0.011	-0.102
-227.727	-155.895	0.174	-0.011
-226.713	223.569	0.061	-0.098
-225.698	-36.458	0.347	0.186
-224.684	-46.137	-0.126	-0.062
-223.669	-8.467	0.222	-0.148
-222.655	625.708	0.162	-0.405
-221.640	-117.225	-0.302	-0.055
-220.625	-185.578	0.203	0.003
-219.611	183.430	0.050	-0.074
-218.596	29.052	-0.138	-0.116
-217.582	-200.000	-0.026	0.143
-216.567	-97.806	-0.235	0.060
-215.552	-200.000	-0.059	0.299
-214.538	-110.131	0.091	0.019
-213.523	-84.651	0.289	0.091
-212.509	-200.000	-0.021	0.279
-211.494	-200.000	-0.025	-0.155
-210.479	116.361	-0.089	-0.108
-209.465	2.715	0.015	-0.011
-208.450	800.000	0.081	-0.327
-207.436	-200.000	0.036	0.338
-206.421	184.348	-0.073	0.108
-205.406	-200.000	-0.001	0.028
-204.392	-21.178	0.182	0.111
-203.377	580.797	0.061	0.150
-202.363	64.752	-0.077	0.077
-201.348	800.000	0.046	-0.148
-200.333	800.000	-0.047	0.150
-199.319	-200.000	0.047	0.373
-198.304	-106.946	0.234	0.051
-197.290	-63.981	0.095	-0.039
-196.275	351.471	-0.119	0.235
-195.260	-160.117	-0.090	0.005
-194.246	6.902	0.100	-0.074
-193.231	-131.084	0.065	0.009
-192.217	-54.024	0.118	-0.053
-191.202	320.994	-0.015	0.028
-190.187	800.000	0.063	-0.248
-189.173	259.442	0.081	-0.138
-188.158	-200.000	0.054	-0.297
-187.144	800.000	-0.075	0.275
-186.129	59.922	0.068	-0.067
-185.114	-145.155	0.210	0.019
-184.100	-56.833	-0.433	0.190
-183.085	-119.339	0.174	-0.030
-182.071	218.769	-0.106	-0.168
-181.056	-131.168	0.230	0.030
-180.042	-111.644	0.072	-0.014
-179.027	619.482	0.185	0.462
-178.012	50.240	0.177	0.166
-176.998	-182.541	-0.311	-0.006
-175.983	245.063	0.150	-0.250
-174.969	134.923	-0.124	0.160
-173.954	-200.000	-0.006	0.128
-172.939	-200.000	-0.038	0.176
-171.925	-73.911	-0.139	-0.050
-170.910	418.288	0.069	0.146
-169.896	65.083	-0.116	-0.116
-168.881	428.380	0.010	0.022
-167.866	-78.217	-0.055	-0.019
-166.852	645.810	-0.170	-0.431
-165.837	-44.793	-0.380	0.188
-164.823	56.150	0.198	0.191
-163.808	47.467	-0.132	-0.122
-162.793	250.671	0.241	0.406
-161.779	301.746	0.025	-0.046
-160.764	551.187	-0.137	-0.326
-159.750	4.020	0.036	-0.026
-158.735	-51.014	-0.013	-0.006
-157.720	-52.786	0.185	0.084
-156.706	-71.140	-0.135	0.050
-155.691	-200.000	0.007	-0.167
-154.677	319.336	0.105	-0.197
-153.662	169.674	-0.132	0.188
-152.647	38.507	0.309	0.273
-151.633	-200.000	-0.010	0.156
-150.618	800.000	-0.034	-0.110
-149.604	113.251	-0.133	0.160
-148.589	800.000	-0.152	-0.500
-147.574	800.000	-0.097	0.279
-146.560	800.000	0.014	0.042
-145.545	800.000	0.033	0.128
-144.531	31.836	0.121	-0.103
-143.516	-54.242	-0.186	0.084
-142.502	220.197	0.178	-0.282
-141.487	318.896	-0.066	-0.125
-140.472	234.012	0.203	0.331
-139.458	-200.000	-0.033	-0.298
-138.443	27.896	-0.115	-0.096
-137.429	-200.000	-0.002	-0.171
-136.414	-67.584	0.273	0.106
-135.399	-106.131	0.158	0.035
-134.385	87.900	0.140	-0.154
-133.370	800.000	-0.051	-0.151
-132.356	126.317	0.072	0.090
-131.341	223.540	0.179	0.285
-130.326	533.710	-0.047	0.109
-129.312	-200.000	0.038	-0.280
-128.297	800.000	0.015	0.054
-127.283	50.578	0.153	-0.143
-126.268	800.000	-0.049	-0.206
-125.253	-200.000	0.027	-0.153
-124.239	-174.905	0.181	0.005
-123.224	-200.000	-0.028	0.270
-122.210	408.656	0.047	-0.098
-121.195	465.466	-0.058	0.129
