DTS Sentinel unit serial number:	SN413079Multiplexer serial number:	ORYXHardware model number:	OX4-SRSoftware version number:	ORYX F/W v4.00 Oryx Data Collector v3.7.2.0data status	okinstallation	princeton_trtdifferential loss correction	single-endedforward channel	channel 4reverse channel	N/Adate	2019/09/16time	03:49:35forward acquisition time	60.00reverse acquisition time	0.00gamma	496.2192k internal	0.2321k external	0.2321temperature offset calibration	0.9975default loss term (dB/km)	0.3790temperature slope calibration	1.0000multiplexer offset coefficient	1.0000multiplexer slope coefficient	1.0000fibre end	0.00T internal ref (°C)	27.55T ext. ref 1 (°C)	10.66T ext. ref 2 (°C)	21.63length (m)	temperature (°C)	Stokes	anti-Stokes-747.200	67.318	0.167	0.172
-746.185	224.461	0.068	0.111
-745.171	59.274	-0.033	0.033
-744.156	146.170	0.040	0.054
-743.142	123.866	-0.185	-0.235
-742.127	-200.000	0.020	0.136
-741.112	800.000	-0.052	0.164
-740.098	-116.838	-0.016	0.003
-739.083	-179.571	-0.267	0.006
-738.069	-200.000	-0.020	0.356
-737.054	-55.709	-0.349	0.158
-736.039	305.849	-0.199	0.374
-735.025	-38.209	0.438	0.235
-734.010	-101.152	-0.314	-0.078
-732.996	800.000	-0.035	-0.100
-731.981	10.672	0.183	-0.141
-730.966	-200.000	-0.010	-0.135
-729.952	10.605	-0.239	0.184
-728.937	-3.638	-0.048	-0.034
-727.923	31.855	0.107	-0.093
-726.908	399.201	0.122	-0.258
-725.894	356.294	-0.084	0.170
-724.879	-200.000	0.041	-0.222
-723.864	-51.794	0.398	0.187
-722.850	-17.706	0.205	-0.130
-721.835	-92.266	-0.170	-0.049
-720.821	96.631	0.125	0.145
-719.806	728.445	0.110	-0.298
-718.791	-122.390	0.079	-0.013
-717.777	-200.000	-0.007	-0.162
-716.762	-58.854	-0.101	-0.044
-715.748	-200.000	-0.021	-0.273
-714.733	-87.335	-0.062	-0.019
-713.718	-68.807	-0.150	0.059
-712.704	-185.736	-0.384	-0.006
-711.689	43.335	0.124	0.114
-710.675	-79.307	-0.013	-0.004
-709.660	-200.000	0.041	0.199
-708.645	-200.000	-0.035	-0.164
-707.631	-200.000	-0.029	-0.340
-706.616	-116.576	-0.247	0.046
-705.602	-177.239	-0.133	-0.003
-704.587	344.420	-0.121	-0.239
-703.572	-200.000	0.002	0.204
-702.558	58.581	0.130	-0.129
-701.543	-37.233	-0.157	0.085
-700.529	186.038	0.061	-0.091
-699.514	-71.508	0.100	-0.038
-698.499	105.717	0.105	-0.125
-697.485	44.940	-0.321	-0.298
-696.470	73.870	-0.230	0.243
-695.456	-64.324	0.163	-0.067
-694.441	64.523	-0.224	-0.227
-693.426	-28.688	0.200	0.116
-692.412	-83.341	-0.357	-0.116
-691.397	-70.922	-0.224	0.085
-690.383	148.076	-0.074	-0.100
-689.368	800.000	0.073	0.277
-688.354	41.192	0.075	0.068
-687.339	27.467	0.107	-0.091
-686.324	14.048	-0.284	-0.223
-685.310	351.907	0.144	0.287
-684.295	800.000	0.140	-0.613
-683.281	-200.000	0.013	-0.216
-682.266	-73.759	-0.145	-0.053
-681.251	244.043	0.074	0.126
-680.237	-200.000	0.066	-0.374
-679.222	-200.000	0.040	-0.240
-678.208	-68.400	0.182	0.071
-677.193	-200.000	0.024	0.134
-676.178	-200.000	-0.070	0.339
-675.164	270.108	0.059	0.105
-674.149	800.000	-0.118	0.379
-673.135	351.520	0.148	0.296
-672.120	440.876	0.122	-0.269
-671.105	-91.519	0.250	-0.072
-670.091	-200.000	0.006	0.139
-669.076	47.256	0.019	-0.018
-668.062	27.123	-0.274	-0.232
-667.047	-34.558	0.306	-0.169
-666.032	358.958	-0.198	-0.398
-665.018	-94.519	0.238	0.065
-664.003	11.481	-0.423	-0.327
-662.989	-3.674	-0.150	0.105
-661.974	-200.000	-0.036	-0.196
-660.959	95.819	-0.165	0.190
-659.945	800.000	-0.083	0.276
-658.930	-30.986	0.177	-0.101
-657.916	-89.364	-0.323	0.096
-656.901	-83.979	-0.272	0.087
-655.886	-80.703	0.224	-0.075
-654.872	800.000	-0.095	-0.372
-653.857	800.000	0.049	-0.145
-652.843	602.950	-0.060	-0.150
-651.828	219.723	0.077	-0.124
-650.814	-200.000	0.016	0.128
-649.799	-200.000	0.046	-0.358
-648.784	-188.405	-0.463	0.006
-647.770	86.079	0.210	-0.233
-646.755	-69.256	0.071	-0.027
-645.741	20.315	0.033	-0.027
-644.726	-58.243	0.116	0.051
-643.711	-103.795	-0.191	-0.045
-642.697	-127.898	0.370	-0.054
-641.682	-117.765	-0.213	0.038
-640.668	198.658	0.024	-0.037
-639.653	148.792	-0.128	0.174
-638.638	-153.643	-0.249	-0.017
-637.624	-200.000	0.033	0.203
-636.609	-27.682	-0.301	-0.176
-635.595	-200.000	-0.007	0.169
-634.580	-31.870	-0.185	0.105
-633.565	-46.241	-0.525	0.260
-632.551	-200.000	-0.001	-0.170
-631.536	-200.000	-0.008	-0.076
-630.522	74.066	-0.413	-0.436
-629.507	172.644	0.009	-0.013
-628.492	-200.000	0.019	-0.164
-627.478	-200.000	0.001	-0.217
-626.463	-170.996	-0.037	-0.001
-625.449	-85.232	0.265	0.083
-624.434	5.389	0.101	-0.075
-623.419	-200.000	0.020	0.129
-622.405	-174.612	-0.256	-0.007
-621.390	345.340	-0.331	-0.654
-620.376	345.623	0.064	-0.127
-619.361	10.463	-0.122	0.094
-618.346	491.851	0.133	0.305
-617.332	-68.614	0.293	-0.114
-616.317	35.666	0.192	-0.170
-615.303	-200.000	0.024	-0.175
-614.288	190.280	0.065	0.099
-613.273	109.109	0.238	0.286
-612.259	-151.801	0.095	-0.007
-611.244	-83.893	0.294	0.094
-610.230	-200.000	0.022	-0.198
-609.215	68.464	0.091	-0.094
-608.201	-118.323	0.199	0.036
-607.186	-56.759	-0.337	0.150
-606.171	174.384	-0.162	-0.236
-605.157	800.000	0.059	0.171
-604.142	-15.525	-0.204	-0.131
-603.128	-104.373	-0.272	0.063
-602.113	-30.028	0.178	-0.102
-601.098	161.046	-0.061	-0.086
-600.084	177.677	0.174	-0.255
-599.069	-200.000	0.011	-0.147
-598.055	800.000	0.054	0.219
-597.040	-85.836	0.091	0.028
-596.025	-135.068	0.200	0.024
-595.011	45.505	0.126	-0.117
-593.996	-200.000	-0.008	-0.235
-592.982	-86.243	0.219	-0.068
-591.967	447.214	0.154	-0.340
-590.952	109.011	-0.200	0.240
-589.938	-200.000	-0.048	-0.263
-588.923	-176.730	-0.322	0.008
-587.909	144.657	-0.240	0.322
-586.894	-81.083	-0.136	0.045
-585.879	-200.000	0.003	-0.035
-584.865	-72.079	0.255	-0.095
-583.850	-200.000	-0.012	0.222
-582.836	800.000	-0.085	-0.286
-581.821	-177.563	0.269	0.007
-580.806	-8.376	-0.071	0.048
-579.792	800.000	0.122	-0.401
-578.777	573.066	-0.056	0.137
-577.763	-1.017	-0.301	-0.214
-576.748	79.340	0.165	0.177
-575.733	61.321	0.295	0.295
-574.719	46.369	-0.140	0.130
-573.704	496.187	0.044	0.102
-572.690	395.129	-0.109	-0.228
-571.675	54.791	-0.259	0.251
-570.661	-132.379	0.285	0.037
-569.646	-89.519	-0.484	0.143
-568.631	-108.939	-0.161	-0.035
-567.617	-139.574	0.248	0.027
-566.602	-200.000	0.058	-0.259
-565.588	-105.046	-0.374	0.086
-564.573	86.324	0.201	-0.222
-563.558	-38.706	0.216	0.115
-562.544	-45.291	-0.231	0.115
-561.529	-79.943	0.223	0.075
-560.515	-92.450	-0.113	0.032
-559.500	-200.000	0.015	0.351
-558.485	-92.891	0.424	-0.119
-557.471	67.587	-0.200	-0.205
-556.456	800.000	0.023	0.082
-555.442	574.928	-0.070	0.171
-554.427	70.303	0.157	-0.163
-553.412	-200.000	0.054	-0.290
-552.398	-92.861	0.314	0.088
-551.383	407.450	0.183	0.389
-550.369	-101.717	-0.431	0.105
-549.354	-61.730	0.270	0.113
-548.339	152.676	-0.143	-0.196
-547.325	-61.154	0.250	-0.106
-546.310	-196.108	-0.078	0.001
-545.296	-76.244	-0.092	0.033
-544.281	-148.512	0.214	-0.018
-543.266	53.648	-0.017	-0.016
-542.252	-17.645	-0.164	0.104
-541.237	-16.492	-0.468	0.297
-540.223	-1.031	-0.196	-0.139
-539.208	22.443	-0.211	0.173
-538.193	-148.586	-0.132	0.011
-537.179	-200.000	0.031	-0.182
-536.164	350.661	-0.182	0.361
-535.150	25.392	0.179	0.149
-534.135	-200.000	-0.031	-0.188
-533.121	63.042	0.265	0.266
-532.106	549.786	-0.162	0.389
-531.091	-200.000	0.004	-0.120
-530.077	800.000	-0.085	-0.352
-529.062	430.935	0.082	-0.177
-528.048	127.331	-0.314	0.399
-527.033	-104.258	0.323	0.075
-526.018	-200.000	0.179	-0.001
-525.004	-104.032	0.288	0.067
-523.989	-84.845	-0.091	-0.029
-522.975	-200.000	-0.049	-0.262
-521.960	-200.000	-0.007	0.332
-520.945	51.560	-0.082	-0.078
-519.931	-91.359	-0.241	-0.069
-518.916	800.000	0.086	0.308
-517.902	244.358	-0.048	0.080
-516.887	-28.937	-0.402	0.231
-515.872	45.310	-0.118	-0.109
-514.858	-119.438	0.155	-0.027
-513.843	-200.000	0.042	-0.335
-512.829	144.192	0.137	-0.183
-511.814	611.935	0.103	-0.258
-510.799	-39.700	-0.205	0.108
-509.785	-200.000	0.007	0.198
-508.770	-200.000	-0.007	0.145
-507.756	-200.000	0.014	-0.487
-506.741	296.341	-0.048	-0.088
-505.726	61.581	-0.059	-0.059
-504.712	56.348	-0.029	-0.029
-503.697	-22.317	-0.200	-0.121
-502.683	800.000	0.074	-0.221
-501.668	800.000	0.030	0.104
-500.653	76.139	0.246	-0.261
-499.639	-84.206	-0.080	-0.025
-498.624	433.370	0.018	0.039
-497.610	85.262	0.362	0.398
-496.595	-21.730	0.574	-0.350
-495.581	14.831	-0.309	0.242
-494.566	-200.000	0.002	-0.040
-493.551	219.632	-0.087	-0.139
-492.537	-100.388	0.340	0.084
-491.522	-190.769	0.088	-0.001
-490.508	-26.263	0.295	0.173
-489.493	-200.000	-0.002	0.052
-488.478	-200.000	-0.023	-0.178
-487.464	329.724	-0.109	-0.211
-486.449	-200.000	-0.004	-0.313
-485.435	-44.385	0.085	-0.043
-484.420	-160.445	-0.308	-0.017
-483.405	-168.494	0.327	-0.012
-482.391	-82.356	0.235	-0.076
-481.376	-200.000	-0.002	0.061
-480.362	-156.406	-0.063	-0.004
-479.347	66.715	0.069	0.070
-478.332	39.232	-0.347	-0.311
-477.318	-62.081	0.097	0.041
-476.303	800.000	-0.078	0.278
-475.289	-125.906	-0.283	0.043
-474.274	-200.000	-0.012	0.392
-473.259	131.982	-0.032	-0.042
-472.245	49.321	0.137	-0.129
-471.230	-79.804	0.175	-0.059
-470.216	800.000	0.079	-0.295
-469.201	52.595	0.351	-0.335
-468.186	74.657	0.061	0.064
-467.172	176.909	0.088	-0.128
-466.157	432.961	-0.123	0.267
-465.143	199.082	0.054	0.083
-464.128	800.000	0.066	-0.212
-463.113	-192.740	-0.053	-0.000
-462.099	-200.000	0.043	0.613
-461.084	-88.770	0.320	-0.095
-460.070	283.500	-0.173	0.311
-459.055	41.628	0.188	-0.171
-458.040	211.756	0.112	0.176
-457.026	440.983	-0.060	-0.132
-456.011	66.717	0.201	-0.204
-454.997	418.045	-0.129	-0.276
-453.982	-200.000	-0.108	-0.491
-452.968	-200.000	0.002	0.076
-451.953	-2.057	0.187	0.131
-450.938	-21.043	0.312	-0.191
-449.924	-122.728	-0.237	0.038
-448.909	605.881	0.120	0.298
-447.895	536.940	0.051	0.121
-446.880	-0.872	-0.093	-0.066
-445.865	18.147	-0.186	0.148
-444.851	-160.147	0.240	0.013
-443.836	-133.891	0.228	0.028
-442.822	213.330	0.031	0.048
-441.807	326.176	0.098	-0.188
-440.792	-61.201	0.054	0.023
-439.778	-3.497	0.240	-0.167
-438.763	125.247	0.087	-0.109
-437.749	-131.106	-0.109	-0.014
-436.734	-71.738	0.131	0.049
-435.719	251.071	0.080	0.136
-434.705	340.702	0.104	0.202
-433.690	-121.297	-0.267	0.045
-432.676	-200.000	-0.009	0.179
-431.661	-126.502	0.004	-0.001
-430.646	-200.000	-0.023	0.237
-429.632	145.909	-0.145	-0.194
-428.617	294.789	-0.046	0.084
-427.603	0.335	-0.299	-0.213
-426.588	-142.693	-0.212	0.021
-425.573	-115.621	0.217	-0.041
-424.559	-95.664	0.324	-0.087
-423.544	-81.866	-0.411	-0.134
-422.530	-119.276	-0.099	-0.017
-421.515	74.041	0.316	0.331
-420.500	522.056	-0.045	-0.105
-419.486	800.000	0.060	0.212
-418.471	-21.194	0.239	-0.146
-417.457	-44.287	-0.384	0.192
-416.442	800.000	-0.094	0.349
-415.428	683.122	-0.085	0.220
-414.413	-98.361	-0.297	0.076
-413.398	92.291	0.120	0.135
-412.384	335.066	-0.161	-0.312
-411.369	800.000	-0.025	-0.079
-410.355	-200.000	-0.023	0.194
-409.340	-200.000	0.006	-0.260
-408.325	15.540	0.122	0.095
-407.311	133.998	-0.051	0.066
-406.296	28.357	-0.223	0.188
-405.282	-179.549	0.207	-0.005
-404.267	322.021	-0.050	-0.095
-403.252	-36.480	0.202	-0.108
-402.238	-200.000	0.018	-0.154
-401.223	128.990	0.280	0.357
-400.209	-168.630	0.291	-0.011
-399.194	131.874	-0.054	-0.070
-398.179	167.028	0.146	0.207
-397.165	17.493	-0.152	-0.121
-396.150	-36.517	-0.077	-0.041
-395.136	142.654	-0.200	0.265
-394.121	800.000	-0.039	0.117
-393.106	0.754	0.331	-0.236
-392.092	-131.120	0.175	-0.023
-391.077	380.122	0.034	0.069
-390.063	-200.000	-0.003	0.022
-389.048	-80.310	-0.179	0.060
-388.033	800.000	0.108	0.344
-387.019	800.000	0.033	0.095
-386.004	-123.362	-0.372	0.059
-384.990	-134.743	0.140	-0.017
-383.975	403.774	-0.083	0.175
-382.960	-42.085	0.317	-0.162
-381.946	523.788	0.090	0.211
-380.931	-131.473	0.367	-0.048
-379.917	29.629	-0.252	0.213
-378.902	241.301	0.124	-0.207
-377.888	7.878	-0.192	-0.144
-376.873	514.425	0.026	0.059
-375.858	-56.730	0.179	-0.079
-374.844	-200.000	-0.024	-0.243
-373.829	-14.223	0.149	0.096
-372.815	95.601	-0.122	-0.139
-371.800	28.757	-0.064	0.054
-370.785	409.958	-0.224	0.472
-369.771	92.044	-0.071	0.079
-368.756	39.248	-0.095	-0.084
-367.742	800.000	0.045	-0.168
-366.727	-35.733	-0.228	-0.123
-365.712	453.653	0.180	-0.398
-364.698	4.875	-0.263	-0.192
-363.683	270.533	0.151	-0.264
-362.669	-67.091	0.118	-0.046
-361.654	800.000	-0.035	-0.120
-360.639	-161.921	0.322	0.016
-359.625	-200.000	-0.042	0.218
-358.610	-71.978	-0.128	-0.047
-357.596	800.000	-0.105	0.289
-356.581	-91.292	-0.273	0.078
-355.566	53.769	0.159	-0.152
-354.552	-200.000	-0.001	0.094
-353.537	800.000	-0.068	0.230
-352.523	-200.000	0.006	-0.100
-351.508	-127.788	-0.120	0.017
-350.493	-90.084	-0.088	0.026
-349.479	-38.373	-0.091	-0.048
-348.464	-200.000	0.063	-0.346
-347.450	-7.518	0.213	0.144
-346.435	-42.861	0.434	0.220
-345.420	384.309	-0.078	0.159
-344.406	-192.737	-0.236	0.002
-343.391	156.785	-0.139	-0.191
-342.377	41.321	0.069	0.062
-341.362	-200.000	0.026	-0.276
-340.348	-76.044	-0.096	0.034
-339.333	68.691	-0.197	0.201
-338.318	-37.582	0.192	0.102
-337.304	46.022	-0.049	0.045
-336.289	-200.000	-0.001	-0.115
-335.275	-110.538	0.156	-0.032
-334.260	-200.000	-0.012	-0.088
-333.245	-55.798	-0.161	0.071
-332.231	-118.819	-0.128	-0.022
-331.216	-22.481	0.109	-0.066
-330.202	-200.000	0.052	0.311
-329.187	105.602	-0.145	0.171
-328.172	-14.665	-0.169	0.108
-327.158	800.000	0.070	-0.287
-326.143	59.573	-0.064	0.062
-325.129	-156.510	-0.089	-0.006
-324.114	-62.336	-0.450	-0.186
-323.099	-67.372	-0.064	-0.025
-322.085	-184.253	-0.303	0.005
-321.070	33.000	-0.184	0.159
-320.056	-30.336	0.129	0.073
-319.041	6.041	0.252	-0.185
-318.026	-173.111	-0.362	-0.011
-317.012	-106.351	0.210	-0.047
-315.997	114.582	-0.221	0.268
-314.983	-200.000	0.058	0.281
-313.968	284.141	-0.075	-0.134
-312.953	-46.270	0.299	0.146
-311.939	-1.732	-0.180	-0.126
-310.924	-200.000	-0.024	0.241
-309.910	-200.000	0.056	-0.277
-308.895	44.633	0.151	-0.138
-307.880	101.544	0.046	-0.053
-306.866	169.252	0.160	0.226
-305.851	-94.640	-0.397	0.107
-304.837	-104.682	-0.193	-0.044
-303.822	800.000	-0.110	-0.408
-302.807	-137.780	-0.286	-0.032
-301.793	247.932	-0.085	-0.142
-300.778	61.341	0.167	-0.165
-299.764	-103.899	0.073	0.017
-298.749	-86.241	-0.171	0.052
-297.735	65.613	0.128	-0.129
-296.720	-32.977	-0.183	0.101
-295.705	800.000	-0.070	0.217
-294.691	-161.308	-0.007	-0.000
-293.676	-150.962	0.382	-0.029
-292.662	43.037	-0.218	-0.198
-291.647	-114.696	-0.184	-0.035
-290.632	-200.000	-0.006	-0.316
-289.618	252.968	-0.110	-0.186
-288.603	136.853	-0.041	-0.053
-287.589	-78.970	0.111	-0.037
-286.574	-200.000	-0.030	0.255
-285.559	44.845	-0.195	-0.178
-284.545	759.519	-0.104	-0.279
-283.530	-60.945	-0.297	-0.125
-282.516	23.821	0.250	0.205
-281.501	-33.522	0.328	-0.180
-280.486	-62.423	-0.162	-0.067
-279.472	-97.981	-0.076	-0.019
-278.457	249.423	-0.123	-0.208
-277.443	54.245	-0.067	-0.064
-276.428	-200.000	-0.040	0.332
-275.413	161.337	-0.153	0.212
-274.399	-127.846	-0.412	0.059
-273.384	-80.371	0.182	-0.060
-272.370	90.172	0.224	-0.249
-271.355	-102.255	0.061	0.015
-270.340	-126.430	-0.131	0.019
-269.326	-25.524	0.204	0.119
-268.311	-174.794	0.192	-0.005
-267.297	800.000	0.049	0.138
-266.282	-125.305	0.294	-0.045
-265.267	-74.966	-0.254	0.090
-264.253	-200.000	-0.012	-0.248
-263.238	-69.942	0.388	-0.147
-262.224	594.278	0.032	0.079
-261.209	-126.998	0.133	-0.019
-260.195	800.000	0.055	0.192
-259.180	-200.000	-0.001	0.044
-258.165	151.563	0.180	0.243
-257.151	-200.000	-0.015	-0.198
-256.136	434.973	0.069	-0.148
-255.122	-44.476	0.121	0.060
-254.107	-58.793	0.200	-0.086
-253.092	-10.436	0.220	0.144
-252.078	7.270	0.032	0.024
-251.063	-33.187	0.295	-0.162
-250.049	-123.712	-0.303	-0.048
-249.034	-200.000	-0.016	0.079
-248.019	-58.324	-0.164	-0.071
-247.005	-80.031	0.197	0.065
-245.990	-75.433	0.149	-0.053
-244.976	15.659	0.140	-0.109
-243.961	800.000	-0.022	0.095
-242.946	-122.870	-0.317	-0.051
-241.932	-73.601	-0.098	0.035
-240.917	-122.400	0.098	-0.016
-239.903	800.000	0.024	0.101
-238.888	134.016	0.240	-0.308
-237.873	-36.618	-0.092	0.049
-236.859	-78.292	-0.156	0.053
-235.844	262.562	-0.082	0.141
-234.830	-150.430	-0.104	0.008
-233.815	-36.076	0.283	0.151
-232.800	134.209	0.110	-0.141
-231.786	-200.000	-0.048	0.320
-230.771	800.000	0.064	0.253
-229.757	421.348	0.114	-0.241
-228.742	117.452	0.259	-0.316
-227.727	-114.702	0.443	0.084
-226.713	597.954	-0.115	0.283
-225.698	592.472	0.067	-0.164
-224.684	-25.883	-0.230	0.134
-223.669	-155.160	-0.194	0.013
-222.655	-50.225	-0.193	0.090
-221.640	-200.000	-0.019	0.335
-220.625	83.186	-0.110	0.118
-219.611	748.635	0.060	-0.160
-218.596	-62.341	0.201	0.083
-217.582	-200.000	-0.002	0.056
-216.567	122.581	-0.104	0.128
-215.552	47.458	0.164	-0.151
-214.538	420.630	0.086	-0.183
-213.523	-32.899	0.210	-0.115
-212.509	110.705	-0.148	0.176
-211.494	-200.000	-0.045	0.244
-210.479	-19.573	-0.270	0.166
-209.465	51.752	-0.079	0.074
-208.450	-136.047	0.174	0.020
-207.436	96.256	0.115	0.130
-206.421	800.000	-0.051	-0.142
-205.406	-200.000	0.006	-0.361
-204.392	-147.363	-0.255	0.021
-203.377	-110.640	0.058	-0.012
-202.363	-31.477	0.131	-0.073
-201.348	117.773	-0.053	-0.065
-200.333	-200.000	-0.005	0.329
-199.319	-182.434	-0.238	-0.004
-198.304	-94.491	0.376	0.101
-197.290	175.165	-0.137	-0.197
-196.275	151.476	0.075	0.101
-195.260	-188.125	-0.109	-0.001
-194.246	86.654	0.030	-0.032
-193.231	800.000	0.017	-0.055
-192.217	-72.244	-0.427	-0.157
-191.202	214.731	0.093	-0.145
-190.187	525.798	-0.058	0.135
-189.173	276.744	-0.088	0.155
-188.158	-200.000	-0.010	-0.306
-187.144	71.790	-0.139	-0.143
-186.129	-98.819	-0.098	-0.025
-185.114	169.888	0.115	0.163
-184.100	-121.353	-0.175	0.029
-183.085	-160.419	-0.125	0.007
-182.071	-200.000	-0.027	0.471
-181.056	-200.000	0.000	-0.215
-180.042	-200.000	-0.018	0.376
-179.027	159.698	0.161	0.222
-178.012	188.590	-0.161	0.238
-176.998	-117.279	0.402	-0.072
-175.983	472.438	-0.146	-0.326
-174.969	219.455	0.053	-0.084
-173.954	-93.078	0.556	-0.153
-172.939	-51.641	-0.219	-0.101
-171.925	-161.842	0.188	-0.009
-170.910	297.416	0.122	-0.222
-169.896	-200.000	-0.020	0.228
-168.881	-132.795	-0.436	0.055
-167.866	-3.868	0.275	-0.188
-166.852	-124.406	0.370	-0.057
-165.837	-176.716	-0.179	-0.005
-164.823	-200.000	-0.036	-0.177
-163.808	800.000	0.073	-0.275
-162.793	430.695	-0.031	-0.066
-161.779	68.156	-0.212	0.215
-160.764	-64.233	0.077	0.031
-159.750	96.126	0.101	0.114
-158.735	-21.421	-0.232	0.140
-157.720	35.181	-0.317	0.275
-156.706	-200.000	0.006	0.419
-155.691	-200.000	-0.011	0.376
-154.677	-63.617	-0.183	-0.074
-153.662	17.577	-0.066	0.052
-152.647	-191.434	0.361	-0.004
-151.633	800.000	-0.004	-0.012
-150.618	-200.000	-0.055	0.325
-149.604	-200.000	0.131	0.000
-148.589	-117.417	0.204	-0.037
-147.574	800.000	0.033	-0.118
-146.560	41.599	0.105	-0.094
-145.545	-111.060	-0.360	-0.073
-144.531	800.000	-0.076	0.282
-143.516	-37.437	-0.192	0.101
-142.502	331.528	0.057	0.109
-141.487	-131.046	-0.086	-0.011
-140.472	-200.000	0.022	0.170
-139.458	-15.761	0.100	0.063
-138.443	391.475	0.035	0.073
-137.429	48.238	0.149	-0.138
-136.414	800.000	0.081	0.238
-135.399	260.138	-0.113	-0.193
-134.385	-200.000	0.039	-0.332
-133.370	97.658	0.216	0.245
-132.356	-75.933	-0.140	-0.049
-131.341	150.442	-0.046	-0.061
-130.326	23.446	-0.250	0.203
-129.312	-58.294	-0.274	-0.118
-128.297	-30.317	-0.076	0.042
-127.283	-143.435	-0.246	0.023
-126.268	209.058	-0.241	0.372
-125.253	-85.908	0.063	-0.019
-124.239	-200.000	-0.008	-0.121
-123.224	168.871	0.201	0.283
-122.210	-94.493	0.198	-0.053
