DTS Sentinel unit serial number:	SN413079Multiplexer serial number:	ORYXHardware model number:	OX4-SRSoftware version number:	ORYX F/W v4.00 Oryx Data Collector v3.7.2.0data status	okinstallation	princeton_trtdifferential loss correction	single-endedforward channel	channel 4reverse channel	N/Adate	2019/09/13time	16:13:34forward acquisition time	60.00reverse acquisition time	0.00gamma	496.2192k internal	0.2296k external	0.2296temperature offset calibration	1.0214default loss term (dB/km)	0.3790temperature slope calibration	1.0000multiplexer offset coefficient	1.0000multiplexer slope coefficient	1.0000fibre end	0.00T internal ref (°C)	34.81T ext. ref 1 (°C)	4.84T ext. ref 2 (°C)	31.54length (m)	temperature (°C)	Stokes	anti-Stokes-747.200	383.267	0.026	0.055
-746.185	67.157	-0.114	0.119
-745.171	46.704	0.157	-0.149
-744.156	-51.503	0.203	-0.097
-743.142	800.000	0.038	0.154
-742.127	-108.606	-0.109	0.024
-741.112	-64.096	-0.102	-0.043
-740.098	567.534	-0.120	0.297
-739.083	41.638	0.291	0.269
-738.069	-97.203	0.172	0.046
-737.054	800.000	0.043	0.127
-736.039	-144.658	-0.181	-0.017
-735.025	-174.365	-0.308	-0.009
-734.010	-122.962	-0.206	-0.034
-732.996	183.873	0.250	-0.378
-731.981	-200.000	-0.039	-0.199
-730.966	-200.000	0.027	0.269
-729.952	632.929	0.073	-0.188
-728.937	-157.752	0.113	-0.007
-727.923	-81.489	-0.301	0.101
-726.908	520.750	-0.057	0.136
-725.894	-43.971	-0.202	0.104
-724.879	800.000	0.068	0.257
-723.864	-165.302	-0.261	0.012
-722.850	-110.591	-0.247	0.052
-721.835	466.776	-0.159	-0.365
-720.821	-200.000	0.028	0.241
-719.806	-97.252	0.145	0.039
-718.791	-159.884	-0.309	0.017
-717.777	-8.653	-0.185	-0.127
-716.762	41.643	-0.185	0.171
-715.748	75.788	0.105	0.113
-714.733	800.000	-0.041	0.178
-713.718	-70.288	-0.371	-0.144
-712.704	-200.000	-0.009	-0.145
-711.689	562.094	0.097	-0.239
-710.675	112.504	0.074	-0.091
-709.660	-200.000	-0.022	-0.323
-708.645	69.955	0.052	0.055
-707.631	-25.876	0.160	0.096
-706.616	1.747	-0.046	-0.034
-705.602	-175.341	0.455	-0.013
-704.587	-66.207	-0.281	0.114
-703.572	-200.000	-0.069	-0.463
-702.558	-109.548	0.065	-0.014
-701.543	-200.000	0.020	-0.229
-700.529	-12.555	0.059	0.039
-699.514	-63.012	-0.099	-0.042
-698.499	240.774	0.108	-0.184
-697.485	-88.540	-0.121	-0.037
-696.470	-58.025	-0.126	0.056
-695.456	-18.049	-0.116	0.074
-694.441	-10.783	0.183	0.123
-693.426	-149.967	-0.170	-0.013
-692.412	-190.938	0.192	0.002
-691.397	788.657	0.012	0.035
-690.383	667.326	-0.115	0.302
-689.368	800.000	-0.094	-0.349
-688.354	-171.722	-0.092	0.003
-687.339	-200.000	0.047	-0.403
-686.324	15.560	0.145	-0.116
-685.310	163.344	0.073	-0.104
-684.295	-1.313	0.231	-0.166
-683.281	-90.292	0.223	-0.066
-682.266	-18.175	-0.048	0.031
-681.251	-62.892	-0.106	-0.045
-680.237	-200.000	0.030	-0.153
-679.222	236.935	-0.076	-0.128
-678.208	-200.000	0.064	0.317
-677.193	-200.000	0.009	0.106
-676.178	-200.000	0.025	-0.120
-675.164	-176.576	-0.158	0.004
-674.149	588.099	-0.041	0.103
-673.135	28.158	-0.170	-0.147
-672.120	-200.000	-0.003	-0.156
-671.105	-200.000	0.020	-0.256
-670.091	-14.464	-0.255	0.167
-669.076	287.104	0.021	-0.039
-668.062	654.138	-0.097	-0.253
-667.047	-153.411	-0.306	0.022
-666.032	-52.860	-0.125	0.059
-665.018	-66.341	-0.273	-0.110
-664.003	741.038	0.140	-0.384
-662.989	270.932	0.179	-0.320
-661.974	800.000	-0.069	-0.223
-660.959	39.067	0.186	-0.170
-659.945	168.390	0.102	0.148
-658.930	111.121	-0.092	-0.113
-657.916	-186.139	0.270	-0.004
-656.901	-108.015	0.219	-0.048
-655.886	215.306	-0.056	-0.090
-654.872	-62.024	-0.246	0.105
-653.857	-183.501	-0.102	-0.002
-652.843	-76.041	-0.421	0.152
-651.828	154.280	0.142	-0.199
-650.814	288.376	0.035	-0.065
-649.799	103.274	0.084	0.100
-648.784	298.378	-0.088	0.164
-647.770	800.000	-0.090	0.263
-646.755	-200.000	0.006	-0.153
-645.741	52.437	0.245	-0.238
-644.726	132.229	0.067	0.088
-643.711	-115.619	0.299	-0.057
-642.697	-200.000	-0.001	0.341
-641.682	-130.043	0.104	0.015
-640.668	-92.590	0.060	0.017
-639.653	800.000	0.132	-0.390
-638.638	-106.924	-0.120	-0.027
-637.624	-200.000	-0.023	-0.188
-636.609	-124.102	0.278	-0.044
-635.595	385.187	0.156	-0.328
-634.580	-166.546	-0.115	-0.005
-633.565	193.697	-0.099	0.153
-632.551	-200.000	-0.020	-0.428
-631.536	-35.552	0.226	-0.125
-630.522	-200.000	0.015	-0.111
-629.507	-115.527	-0.236	-0.045
-628.492	-85.738	0.313	0.099
-627.478	-104.331	-0.237	-0.056
-626.463	25.545	-0.320	-0.271
-625.449	-200.000	0.023	-0.226
-624.434	-57.446	-0.338	0.151
-623.419	800.000	-0.070	-0.222
-622.405	121.764	-0.250	0.318
-621.390	-200.000	0.033	-0.406
-620.376	456.255	0.051	-0.114
-619.361	-130.009	0.200	0.028
-618.346	-141.198	-0.057	-0.006
-617.332	-105.241	-0.329	-0.076
-616.317	433.544	-0.061	0.135
-615.303	-35.999	-0.386	-0.212
-614.288	111.132	0.174	-0.213
-613.273	-56.187	0.115	0.052
-612.259	282.695	-0.091	0.165
-611.244	-137.727	0.295	-0.034
-610.230	800.000	0.040	-0.116
-609.215	175.042	0.107	-0.158
-608.201	7.089	-0.164	0.124
-607.186	-200.000	0.042	-0.221
-606.171	-132.314	0.133	-0.017
-605.157	-71.217	-0.167	-0.064
-604.142	800.000	0.101	0.305
-603.128	-173.406	0.136	-0.004
-602.113	-200.000	0.029	0.199
-601.098	371.669	0.114	0.236
-600.084	-68.718	-0.185	-0.073
-599.069	0.751	-0.121	0.088
-598.055	121.523	-0.186	-0.235
-597.040	-112.339	-0.039	0.008
-596.025	-88.228	0.129	-0.039
-595.011	126.598	0.122	0.157
-593.996	697.318	-0.088	-0.234
-592.982	-45.631	0.394	-0.198
-591.967	-200.000	-0.002	-0.053
-590.952	-72.318	-0.117	-0.044
-589.938	84.553	-0.043	-0.048
-588.923	800.000	-0.033	0.123
-587.909	-7.345	-0.117	0.080
-586.894	154.328	-0.108	0.151
-585.879	-68.539	0.128	-0.050
-584.865	-140.970	0.279	-0.029
-583.850	-200.000	-0.008	0.161
-582.836	68.489	0.172	0.179
-581.821	32.988	0.149	-0.131
-580.806	-200.000	0.007	-0.058
-579.792	54.093	0.178	-0.174
-578.777	188.524	0.143	0.217
-577.763	-137.771	0.299	-0.034
-576.748	-200.000	0.013	-0.266
-575.733	245.857	-0.025	-0.043
-574.719	-42.473	-0.308	-0.159
-573.704	118.392	0.046	-0.058
-572.690	-58.026	0.159	0.071
-571.675	79.631	0.182	-0.198
-570.661	-16.912	-0.085	-0.055
-569.646	203.488	-0.225	0.353
-568.631	-9.437	0.128	-0.087
-567.617	97.757	-0.094	-0.110
-566.602	-81.905	0.180	-0.060
-565.588	-150.867	0.494	-0.038
-564.573	-65.748	0.232	0.094
-563.558	4.813	0.246	-0.184
-562.544	-200.000	-0.044	0.227
-561.529	148.688	0.137	-0.187
-560.515	-73.140	-0.214	-0.079
-559.500	81.845	0.125	0.137
-558.485	416.797	-0.121	-0.262
-557.471	-115.191	0.061	-0.012
-556.456	63.737	0.211	-0.215
-555.442	-3.301	-0.052	-0.037
-554.427	-156.391	-0.215	-0.014
-553.412	508.810	0.114	-0.269
-552.398	269.850	0.122	0.218
-551.383	-42.455	0.324	-0.168
-550.369	-200.000	0.007	-0.103
-549.354	-150.889	0.201	0.015
-548.339	-78.421	0.042	-0.015
-547.325	-133.675	0.088	-0.011
-546.310	-14.918	-0.157	-0.102
-545.296	69.821	0.182	-0.190
-544.281	-200.000	-0.045	-0.293
-543.266	-200.000	-0.078	-0.468
-542.252	18.158	-0.290	0.235
-541.237	49.928	-0.145	0.138
-540.223	-142.380	0.139	0.014
-539.208	-67.090	0.302	0.121
-538.193	-171.081	-0.413	0.014
-537.179	-200.000	-0.015	-0.353
-536.164	72.318	0.036	0.038
-535.150	800.000	-0.039	0.141
-534.135	33.436	0.256	0.226
-533.121	800.000	-0.079	0.326
-532.106	501.321	-0.021	-0.050
-531.091	-113.701	-0.421	0.083
-530.077	-56.239	-0.256	-0.115
-529.062	138.354	-0.052	-0.070
-528.048	212.339	0.214	-0.342
-527.033	-87.927	-0.088	-0.027
-526.018	49.893	-0.108	-0.103
-525.004	315.102	0.040	0.076
-523.989	-94.807	0.393	0.108
-522.975	355.437	0.110	0.221
-521.960	56.968	0.281	-0.277
-520.945	-22.493	0.099	0.061
-519.931	126.391	-0.158	0.203
-518.916	70.009	0.163	-0.171
-517.902	-151.583	0.081	0.006
-516.887	135.285	0.113	-0.149
-515.872	68.840	-0.035	-0.037
-514.858	800.000	-0.032	0.099
-513.843	-47.182	0.205	0.101
-512.829	-200.000	0.034	-0.189
-511.814	-103.073	0.252	0.060
-510.799	-52.908	0.073	-0.034
-509.785	-14.541	-0.214	-0.139
-508.770	352.476	-0.009	-0.018
-507.756	800.000	-0.054	0.227
-506.741	-69.853	0.161	-0.062
-505.726	-39.568	0.094	0.050
-504.712	-18.329	-0.270	0.171
-503.697	800.000	-0.035	-0.141
-502.683	169.682	0.099	-0.143
-501.668	800.000	-0.042	-0.170
-500.653	-157.126	0.123	0.008
-499.639	-200.000	0.070	-0.341
-498.624	-200.000	-0.051	-0.306
-497.610	800.000	-0.015	0.061
-496.595	-33.350	0.200	0.112
-495.581	-200.000	0.003	-0.180
-494.566	275.379	-0.047	-0.085
-493.551	103.496	-0.177	-0.210
-492.537	248.818	0.091	-0.155
-491.522	-47.665	-0.068	-0.033
-490.508	-138.657	-0.450	-0.050
-489.493	90.600	-0.188	-0.213
-488.478	-85.240	0.092	-0.029
-487.464	-200.000	0.008	-0.097
-486.449	800.000	-0.053	0.182
-485.435	-174.957	0.205	-0.006
-484.420	-77.811	0.110	0.038
-483.405	-65.145	0.096	0.039
-482.391	48.159	-0.120	-0.114
-481.376	128.810	0.186	0.239
-480.362	800.000	-0.019	-0.063
-479.347	-80.586	-0.197	0.066
-478.332	-145.222	-0.199	0.018
-477.318	-57.952	0.151	-0.067
-476.303	-65.972	-0.041	0.017
-475.289	236.714	0.100	0.167
-474.274	-200.000	0.001	0.386
-473.259	-52.172	-0.400	-0.188
-472.245	781.847	-0.185	-0.511
-471.230	422.171	0.106	0.229
-470.216	-39.943	0.346	0.183
-469.201	800.000	-0.073	0.294
-468.186	-30.938	0.122	0.070
-467.172	-200.000	-0.016	0.342
-466.157	228.114	0.128	0.210
-465.143	272.372	-0.032	0.057
-464.128	-50.199	0.154	0.074
-463.113	2.113	-0.257	-0.187
-462.099	23.076	-0.086	-0.071
-461.084	-54.536	0.122	-0.056
-460.070	-53.965	0.291	-0.134
-459.055	199.620	0.110	-0.171
-458.040	-97.799	-0.499	-0.130
-457.026	23.733	-0.254	0.212
-456.011	-47.416	-0.127	0.063
-454.997	-12.438	-0.109	-0.072
-453.982	800.000	0.052	0.170
-452.968	267.589	-0.095	0.168
-451.953	443.282	0.061	0.136
-450.938	-168.567	0.261	0.010
-449.924	-113.457	0.118	0.023
-448.909	-37.538	0.137	0.074
-447.895	-200.000	-0.040	-0.228
-446.880	181.820	-0.084	-0.124
-445.865	-125.583	-0.541	-0.083
-444.851	-129.118	0.179	0.025
-443.836	-132.802	0.149	0.019
-442.822	-200.000	-0.018	0.123
-441.807	-81.682	0.056	0.019
-440.792	-200.000	-0.024	0.140
-439.778	60.749	0.120	0.120
-438.763	164.117	0.105	0.150
-437.749	-94.663	0.250	-0.069
-436.734	-139.238	0.224	-0.024
-435.719	-79.379	-0.055	0.019
-434.705	-113.880	-0.163	-0.032
-433.690	200.104	-0.149	0.231
-432.676	196.185	0.128	-0.197
-431.661	48.947	0.063	-0.060
-430.646	-48.359	0.178	0.087
-429.632	466.393	-0.103	0.232
-428.617	-146.492	-0.245	-0.022
-427.603	309.077	0.078	-0.148
-426.588	-200.000	0.022	0.268
-425.573	-34.813	0.066	0.036
-424.559	546.407	-0.079	-0.190
-423.544	-101.710	0.244	0.060
-422.530	1.351	-0.129	-0.094
-421.515	-64.713	0.495	0.202
-420.500	-99.254	-0.297	0.076
-419.486	-166.079	-0.387	-0.017
-418.471	190.437	-0.261	-0.395
-417.457	144.202	0.201	0.270
-416.442	-200.000	-0.046	0.237
-415.428	16.796	0.172	0.137
-414.413	-13.465	-0.093	-0.061
-413.398	734.407	0.070	-0.188
-412.384	457.167	-0.127	-0.284
-411.369	-138.507	0.151	-0.017
-410.355	-200.000	0.000	-0.319
-409.340	-69.135	-0.139	0.054
-408.325	800.000	0.012	-0.053
-407.311	-129.787	-0.192	0.027
-406.296	-200.000	-0.048	0.276
-405.282	-140.811	0.104	-0.011
-404.267	800.000	-0.091	-0.358
-403.252	-200.000	0.057	-0.270
-402.238	197.221	-0.192	-0.295
-401.223	-129.057	-0.181	-0.025
-400.209	99.170	-0.073	0.085
-399.194	-42.846	-0.160	0.082
-398.179	-110.937	-0.181	0.037
-397.165	-41.429	0.289	0.150
-396.150	23.602	0.084	0.070
-395.136	0.343	0.158	0.114
-394.121	193.885	-0.139	-0.212
-393.106	-200.000	-0.032	-0.383
-392.092	800.000	-0.036	-0.150
-391.077	-149.763	-0.212	0.017
-390.063	-200.000	0.008	0.150
-389.048	275.702	-0.259	0.463
-388.033	369.746	-0.097	0.197
-387.019	126.217	0.054	0.069
-386.004	216.761	0.089	-0.143
-384.990	112.076	-0.087	0.106
-383.975	-41.878	-0.341	0.176
-382.960	-88.029	-0.275	0.083
-381.946	585.117	0.071	0.176
-380.931	248.141	0.074	0.127
-379.917	-26.339	0.079	0.047
-378.902	800.000	0.037	0.115
-377.888	775.404	-0.095	0.261
-376.873	106.411	0.144	0.172
-375.858	-123.741	-0.053	-0.008
-374.844	-106.646	-0.346	0.078
-373.829	352.866	0.104	0.208
-372.815	351.131	0.114	-0.228
-371.800	-53.454	-0.291	0.134
-370.785	286.655	0.031	-0.056
-369.771	146.150	-0.205	0.277
-368.756	242.937	0.140	0.236
-367.742	389.525	-0.177	0.370
-366.727	-200.000	-0.012	-0.248
-365.712	544.347	0.123	0.296
-364.698	-133.041	0.099	-0.013
-363.683	-32.188	0.248	0.139
-362.669	7.337	-0.293	0.221
-361.654	231.160	-0.008	-0.013
-360.639	148.191	-0.163	0.222
-359.625	-200.000	0.003	0.145
-358.610	98.783	-0.278	0.323
-357.596	-200.000	0.082	0.460
-356.581	-134.405	-0.144	0.018
-355.566	202.889	0.152	0.237
-354.552	800.000	-0.012	0.043
-353.537	239.919	-0.114	0.191
-352.523	-200.000	-0.034	0.355
-351.508	-123.646	-0.151	0.024
-350.493	-104.001	0.250	0.059
-349.479	320.693	-0.058	0.111
-348.464	-200.000	0.018	-0.095
-347.450	603.191	-0.070	0.176
-346.435	-116.506	-0.174	-0.032
-345.420	800.000	0.057	0.225
-344.406	-151.322	-0.174	0.013
-343.391	800.000	-0.016	-0.060
-342.377	-0.782	-0.238	0.170
-341.362	-200.000	0.009	0.094
-340.348	-122.974	0.320	0.052
-339.333	168.503	0.065	-0.093
-338.318	800.000	0.063	-0.198
-337.304	22.373	0.143	0.117
-336.289	800.000	0.100	0.417
-335.275	-200.000	0.005	0.221
-334.260	-48.528	-0.040	-0.019
-333.245	-30.393	-0.116	0.066
-332.231	-20.964	-0.473	-0.291
-331.216	-200.000	-0.026	0.208
-330.202	-70.491	0.076	0.029
-329.187	11.893	-0.177	-0.137
-328.172	-45.769	0.213	-0.106
-327.158	-32.066	0.103	-0.058
-326.143	157.887	0.070	-0.097
-325.129	-126.773	-0.353	-0.052
-324.114	-112.027	0.081	-0.016
-323.099	-112.091	-0.243	-0.049
-322.085	127.718	-0.040	0.051
-321.070	1.324	0.070	0.051
-320.056	123.480	-0.325	0.409
-319.041	-50.620	0.263	-0.125
-318.026	151.989	-0.064	0.087
-317.012	-130.678	0.088	0.012
-315.997	396.707	-0.161	0.338
-314.983	800.000	-0.039	-0.133
-313.968	-57.604	-0.083	-0.037
-312.953	124.400	0.078	0.099
-311.939	-18.319	-0.219	-0.138
-310.924	800.000	0.044	-0.145
-309.910	552.171	0.112	-0.271
-308.895	-61.452	0.399	-0.168
-307.880	711.512	0.064	-0.170
-306.866	-153.756	0.225	0.016
-305.851	207.810	0.178	0.279
-304.837	64.828	-0.135	-0.137
-303.822	28.988	-0.138	0.117
-302.807	189.667	-0.188	0.283
-301.793	-88.637	0.197	0.059
-300.778	64.074	-0.191	0.193
-299.764	-200.000	-0.331	-0.001
-298.749	-200.000	0.047	0.242
-297.735	-158.787	-0.444	0.025
-296.720	-113.964	0.340	-0.066
-295.705	337.719	-0.133	-0.260
-294.691	800.000	-0.108	-0.346
-293.676	511.339	0.129	-0.302
-292.662	-108.278	-0.086	-0.019
-291.647	-200.000	-0.077	0.359
-290.632	-63.817	-0.105	0.043
-289.618	-200.000	-0.007	0.046
-288.603	18.875	0.170	-0.137
-287.589	181.409	0.030	-0.044
-286.574	-114.815	0.210	0.040
-285.559	394.477	-0.090	0.188
-284.545	352.489	0.049	-0.098
-283.530	54.762	-0.330	-0.320
-282.516	-87.853	0.074	0.022
-281.501	-200.000	0.020	0.091
-280.486	-200.000	0.020	0.149
-279.472	-118.984	0.176	-0.031
-278.457	257.648	0.133	-0.230
-277.443	5.313	-0.214	-0.158
-276.428	-129.358	-0.215	0.030
-275.413	-200.000	-0.114	0.000
-274.399	-6.725	-0.109	-0.074
-273.384	41.057	-0.056	0.051
-272.370	-187.292	-0.249	0.003
-271.355	-200.000	0.020	-0.159
-270.340	372.735	0.118	-0.240
-269.326	-115.489	-0.214	-0.040
-268.311	112.348	0.229	0.278
-267.297	-112.514	-0.255	-0.051
-266.282	551.966	0.082	-0.197
-265.267	-113.758	0.327	0.064
-264.253	80.629	-0.224	0.242
-263.238	-41.843	-0.387	0.199
-262.224	5.460	0.138	0.102
-261.209	60.709	-0.187	0.186
-260.195	141.112	-0.090	0.119
-259.180	-168.514	0.252	0.010
-258.165	182.720	0.159	-0.235
-257.151	307.854	-0.174	-0.325
-256.136	-122.816	0.244	0.040
-255.122	800.000	-0.063	0.178
-254.107	236.964	-0.134	-0.223
-253.092	184.118	0.095	-0.140
-252.078	-9.851	-0.137	-0.091
-251.063	103.446	-0.044	0.052
-250.049	-46.387	0.113	0.055
-249.034	86.567	0.204	0.225
-248.019	125.936	-0.101	0.128
-247.005	-99.837	0.208	0.052
-245.990	-55.123	-0.243	0.110
-244.976	699.436	0.095	-0.250
-243.961	-99.244	0.099	-0.025
-242.946	498.497	-0.131	-0.303
-241.932	168.181	-0.059	-0.084
-240.917	-22.111	-0.166	-0.101
-239.903	-200.000	-0.034	0.157
-238.888	-105.259	-0.249	0.057
-237.873	189.972	0.094	-0.142
-236.859	160.785	-0.138	0.193
-235.844	800.000	-0.092	-0.290
-234.830	203.577	-0.120	-0.186
-233.815	-111.385	-0.239	-0.049
-232.800	100.839	0.134	0.156
-231.786	-35.661	0.169	0.092
-230.771	-33.722	-0.302	-0.167
-229.757	34.169	0.052	0.045
-228.742	19.849	-0.052	-0.042
-227.727	-200.000	-0.001	-0.052
-226.713	98.949	-0.175	-0.202
-225.698	-101.043	0.345	0.085
-224.684	-45.149	0.040	-0.020
-223.669	-200.000	-0.017	-0.085
-222.655	18.801	-0.104	-0.083
-221.640	-74.023	-0.276	0.100
-220.625	-200.000	-0.017	0.145
-219.611	106.661	0.128	-0.152
-218.596	-108.648	-0.323	0.069
-217.582	-16.126	-0.266	-0.169
-216.567	-200.000	0.071	-0.321
-215.552	131.812	0.278	-0.358
-214.538	-200.000	0.043	-0.379
-213.523	-200.000	-0.020	0.115
-212.509	-200.000	0.031	-0.150
-211.494	644.747	0.055	-0.140
-210.479	-159.914	-0.051	0.003
-209.465	102.860	0.153	0.180
-208.450	-200.000	-0.047	0.462
-207.436	-185.425	0.308	0.005
-206.421	-146.531	0.369	0.032
-205.406	800.000	0.086	-0.241
-204.392	-192.298	0.125	-0.001
-203.377	219.118	-0.129	0.206
-202.363	69.913	0.208	0.215
-201.348	233.851	0.246	0.405
-200.333	310.933	0.094	0.175
-199.319	254.184	0.043	0.073
-198.304	-80.847	0.367	-0.122
-197.290	-200.000	-0.011	0.198
-196.275	190.484	0.117	-0.176
-195.260	-183.797	-0.269	0.005
-194.246	-200.000	-0.028	0.265
-193.231	68.034	-0.200	-0.205
-192.217	800.000	-0.024	0.076
-191.202	706.988	0.006	0.015
-190.187	-175.208	0.215	0.006
-189.173	-32.496	0.047	0.026
-188.158	-0.256	-0.141	-0.100
-187.144	-78.049	0.149	0.051
-186.129	-74.214	0.099	-0.036
-185.114	-105.127	0.162	-0.037
-184.100	-157.308	0.267	0.016
-183.085	66.778	0.109	-0.111
-182.071	65.023	-0.156	0.157
-181.056	751.305	0.086	-0.232
-180.042	-102.875	0.081	0.019
-179.027	-200.000	0.005	0.169
-178.012	293.447	-0.058	-0.105
-176.998	-82.552	-0.172	0.056
-175.983	-142.520	-0.076	0.007
-174.969	77.902	-0.074	-0.079
-173.954	-142.128	0.300	0.030
-172.939	-22.053	0.110	0.067
-171.925	-200.000	-0.011	0.063
-170.910	251.186	-0.044	0.075
-169.896	147.734	-0.063	-0.085
-168.881	-31.633	-0.052	-0.029
-167.866	800.000	0.046	-0.200
-166.852	-72.649	-0.509	0.188
-165.837	-200.000	0.026	-0.504
-164.823	-106.233	-0.148	0.033
-163.808	-200.000	0.011	0.136
-162.793	-87.794	0.323	0.097
-161.779	-200.000	-0.026	-0.294
-160.764	175.582	-0.029	0.042
-159.750	800.000	-0.065	0.274
-158.735	-43.602	0.086	0.043
-157.720	52.163	0.198	-0.188
-156.706	-200.000	0.018	0.263
-155.691	-36.988	0.343	0.184
-154.677	492.494	-0.050	-0.114
-153.662	100.636	0.097	0.113
-152.647	-37.518	-0.036	0.019
-151.633	188.080	0.186	-0.278
-150.618	-103.856	0.273	-0.064
-149.604	800.000	0.018	0.076
-148.589	-7.489	0.298	0.201
-147.574	-13.038	-0.256	-0.166
-146.560	201.254	0.120	-0.184
-145.545	47.076	-0.089	0.083
-144.531	-68.329	0.301	0.117
-143.516	-158.261	-0.239	0.014
-142.502	-176.505	0.275	0.007
-141.487	-200.000	-0.056	-0.246
-140.472	800.000	0.016	0.068
-139.458	-200.000	-0.044	0.317
-138.443	44.481	0.104	0.095
-137.429	-36.573	0.264	-0.142
-136.414	-119.019	-0.311	-0.054
-135.399	298.054	-0.135	-0.248
-134.385	-200.000	-0.019	0.305
-133.370	-19.048	0.143	0.089
-132.356	49.732	-0.126	0.118
-131.341	800.000	-0.051	-0.155
-130.326	361.616	0.132	0.263
-129.312	-65.713	-0.458	0.183
-128.297	-120.438	0.218	-0.037
-127.283	-39.387	-0.356	-0.186
-126.268	-0.985	0.166	-0.117
-125.253	435.686	0.060	-0.130
-124.239	-99.028	0.254	-0.064
-123.224	-57.201	-0.205	-0.090
-122.210	800.000	0.014	-0.043
