DTS Sentinel unit serial number:	SN413079Multiplexer serial number:	ORYXHardware model number:	OX4-SRSoftware version number:	ORYX F/W v4.00 Oryx Data Collector v3.7.2.0data status	okinstallation	princeton_trtdifferential loss correction	single-endedforward channel	channel 4reverse channel	N/Adate	2019/09/13time	19:41:34forward acquisition time	60.00reverse acquisition time	0.00gamma	496.2192k internal	0.2316k external	0.2316temperature offset calibration	1.0145default loss term (dB/km)	0.3790temperature slope calibration	1.0000multiplexer offset coefficient	1.0000multiplexer slope coefficient	1.0000fibre end	0.00T internal ref (°C)	30.34T ext. ref 1 (°C)	3.39T ext. ref 2 (°C)	24.35length (m)	temperature (°C)	Stokes	anti-Stokes-747.200	-200.000	-0.004	-0.232
-746.185	601.649	0.072	-0.180
-745.171	56.271	0.228	-0.224
-744.156	-112.514	-0.078	-0.016
-743.142	340.533	0.085	0.168
-742.127	800.000	-0.095	0.276
-741.112	800.000	0.159	0.524
-740.098	515.605	0.131	0.310
-739.083	-138.984	0.426	0.047
-738.069	800.000	-0.031	0.088
-737.054	-84.082	0.194	-0.062
-736.039	-88.568	-0.240	-0.072
-735.025	323.343	0.112	0.216
-734.010	800.000	0.057	-0.168
-732.996	35.069	-0.196	-0.174
-731.981	-105.302	0.273	0.063
-730.966	-36.996	0.268	-0.146
-729.952	399.237	-0.142	-0.302
-728.937	-92.928	0.274	-0.077
-727.923	-98.779	-0.132	0.034
-726.908	737.572	-0.065	-0.177
-725.894	272.553	-0.163	-0.290
-724.879	-50.529	0.433	0.207
-723.864	82.655	0.148	0.162
-722.850	-39.589	-0.148	-0.078
-721.835	447.204	-0.022	-0.048
-720.821	800.000	0.128	-0.437
-719.806	432.863	0.193	-0.423
-718.791	-200.000	0.198	0.000
-717.777	42.156	-0.193	0.178
-716.762	800.000	0.048	-0.148
-715.748	-200.000	-0.026	-0.214
-714.733	723.464	-0.102	0.276
-713.718	426.520	-0.234	-0.510
-712.704	-21.982	0.067	-0.041
-711.689	-200.000	-0.043	0.255
-710.675	-35.977	0.362	0.198
-709.660	-66.738	0.049	-0.020
-708.645	-51.803	-0.362	0.171
-707.631	-200.000	-0.012	-0.149
-706.616	-200.000	0.002	-0.115
-705.602	-58.532	0.271	0.119
-704.587	800.000	0.127	-0.492
-703.572	286.426	0.099	-0.181
-702.558	209.516	0.050	-0.079
-701.543	18.369	0.146	-0.118
-700.529	154.797	-0.123	0.171
-699.514	-122.191	-0.386	-0.064
-698.499	-81.709	-0.345	0.114
-697.485	-147.729	0.255	-0.022
-696.470	-10.823	-0.090	-0.060
-695.456	-200.000	-0.041	0.285
-694.441	-28.595	-0.188	-0.109
-693.426	526.081	0.075	0.178
-692.412	-62.138	-0.163	0.069
-691.397	744.551	-0.073	0.199
-690.383	-25.559	0.077	0.046
-689.368	58.141	0.135	0.134
-688.354	-200.000	-0.013	-0.272
-687.339	-118.346	-0.419	0.075
-686.324	-0.561	0.086	-0.062
-685.310	-12.832	0.096	-0.063
-684.295	-102.803	-0.147	0.035
-683.281	800.000	0.042	0.147
-682.266	-71.442	0.088	0.033
-681.251	194.852	0.132	0.202
-680.237	193.739	-0.038	-0.057
-679.222	8.717	-0.207	0.157
-678.208	22.383	0.268	0.221
-677.193	-2.845	0.170	0.120
-676.178	548.503	-0.044	0.107
-675.164	-92.748	0.185	-0.052
-674.149	9.703	-0.127	0.097
-673.135	40.100	0.207	0.188
-672.120	78.013	0.084	-0.091
-671.105	454.039	0.010	-0.022
-670.091	-119.507	-0.246	0.043
-669.076	-75.888	0.098	-0.035
-668.062	479.065	0.020	0.046
-667.047	183.125	-0.251	0.375
-666.032	-60.379	-0.219	0.094
-665.018	800.000	-0.087	-0.363
-664.003	800.000	-0.021	0.089
-662.989	7.873	0.108	-0.082
-661.974	-200.000	-0.022	0.289
-660.959	-123.237	-0.298	0.048
-659.945	-67.512	-0.054	-0.021
-658.930	61.215	0.259	0.260
-657.916	172.097	-0.046	-0.066
-656.901	-140.445	-0.258	-0.027
-655.886	267.577	0.170	-0.301
-654.872	-3.610	0.019	0.013
-653.857	-200.000	-0.024	0.178
-652.843	547.795	0.053	-0.127
-651.828	800.000	0.054	-0.194
-650.814	-17.637	-0.290	-0.184
-649.799	-29.703	-0.260	0.150
-648.784	800.000	0.093	0.365
-647.770	185.824	0.049	-0.073
-646.755	800.000	-0.058	-0.175
-645.741	193.345	0.163	0.248
-644.726	94.943	0.262	-0.301
-643.711	-46.736	-0.177	-0.088
-642.697	800.000	0.128	0.361
-641.682	-200.000	0.046	-0.374
-640.668	-93.339	-0.179	0.050
-639.653	19.440	-0.106	0.086
-638.638	-33.919	-0.321	0.178
-637.624	-200.000	-0.007	-0.058
-636.609	580.592	0.085	0.210
-635.595	340.828	0.058	-0.115
-634.580	-75.160	-0.141	-0.051
-633.565	-200.000	-0.030	0.192
-632.551	-200.000	-0.019	-0.091
-631.536	42.620	-0.125	-0.114
-630.522	-200.000	0.008	0.066
-629.507	800.000	0.056	-0.165
-628.492	399.078	0.157	0.331
-627.478	-118.254	-0.154	-0.028
-626.463	20.552	-0.116	-0.095
-625.449	264.676	0.074	-0.130
-624.434	-181.142	0.192	0.004
-623.419	630.891	0.065	0.166
-622.405	-37.072	-0.359	-0.194
-621.390	132.041	0.111	-0.144
-620.376	-62.204	-0.295	-0.124
-619.361	-12.093	-0.140	0.092
-618.346	-200.000	0.119	0.001
-617.332	-52.032	-0.120	-0.056
-616.317	194.324	-0.222	-0.339
-615.303	-200.000	0.006	-0.211
-614.288	300.537	0.126	-0.234
-613.273	-87.379	-0.179	0.055
-612.259	-200.000	0.038	0.341
-611.244	-200.000	-0.028	0.224
-610.230	-29.943	-0.071	-0.041
-609.215	333.199	-0.074	-0.145
-608.201	72.818	-0.289	0.304
-607.186	-25.853	-0.120	0.071
-606.171	-200.000	-0.030	-0.251
-605.157	60.623	-0.078	0.077
-604.142	-113.838	0.320	-0.063
-603.128	800.000	-0.010	0.040
-602.113	153.820	-0.071	0.098
-601.098	180.775	0.062	0.091
-600.084	-200.000	-0.016	0.196
-599.069	-200.000	0.019	0.310
-598.055	-200.000	-0.037	-0.284
-597.040	-200.000	0.010	-0.159
-596.025	-40.753	-0.302	0.157
-595.011	9.073	0.198	0.151
-593.996	204.442	-0.145	0.226
-592.982	21.645	0.076	0.062
-591.967	210.561	0.071	0.112
-590.952	81.065	0.119	-0.129
-589.938	403.784	-0.078	-0.166
-588.923	12.672	-0.166	0.129
-587.909	-200.000	-0.022	-0.164
-586.894	57.199	-0.149	-0.147
-585.879	4.523	0.098	-0.072
-584.865	-200.000	0.003	-0.272
-583.850	-149.046	0.253	-0.020
-582.836	-183.961	0.040	-0.001
-581.821	-60.308	-0.126	-0.054
-580.806	-98.398	0.107	-0.028
-579.792	-200.000	0.015	-0.168
-578.777	-21.805	-0.350	0.215
-577.763	800.000	-0.043	-0.174
-576.748	-200.000	-0.034	0.239
-575.733	-82.119	-0.290	-0.095
-574.719	27.674	-0.262	0.222
-573.704	-104.377	0.300	0.070
-572.690	330.267	-0.074	0.143
-571.675	-114.972	0.260	-0.050
-570.661	121.090	0.119	0.149
-569.646	800.000	0.107	-0.335
-568.631	55.777	0.241	-0.235
-567.617	98.804	0.078	-0.090
-566.602	-200.000	0.021	0.121
-565.588	16.810	0.262	-0.209
-564.573	-65.659	-0.302	0.122
-563.558	2.862	-0.163	0.119
-562.544	231.416	0.073	-0.120
-561.529	-62.841	0.189	0.079
-560.515	107.039	0.288	-0.344
-559.500	800.000	0.011	-0.044
-558.485	-101.789	0.245	0.060
-557.471	-200.000	-0.000	0.221
-556.456	-173.064	-0.045	0.001
-555.442	144.119	0.159	-0.213
-554.427	244.694	-0.189	0.320
-553.412	78.737	-0.123	0.132
-552.398	-200.000	-0.030	-0.236
-551.383	-139.316	0.108	0.012
-550.369	-200.000	0.040	-0.416
-549.354	67.699	-0.166	0.170
-548.339	-26.265	0.118	0.070
-547.325	-45.769	-0.216	-0.107
-546.310	482.888	0.214	-0.489
-545.296	310.840	-0.114	-0.215
-544.281	-200.000	0.092	0.440
-543.266	170.960	-0.078	-0.112
-542.252	-184.590	-0.169	-0.003
-541.237	-171.967	-0.200	0.007
-540.223	131.230	0.380	-0.491
-539.208	46.810	-0.306	-0.285
-538.193	-151.873	0.372	-0.027
-537.179	149.282	-0.025	0.033
-536.164	68.780	0.018	-0.019
-535.150	270.533	-0.111	-0.196
-534.135	-124.228	-0.379	-0.060
-533.121	-58.996	0.204	-0.088
-532.106	-153.042	-0.058	0.004
-531.091	-35.534	0.144	-0.079
-530.077	-42.738	0.266	0.136
-529.062	-200.000	-0.034	-0.509
-528.048	56.706	0.236	-0.230
-527.033	183.170	0.085	-0.127
-526.018	369.604	-0.035	-0.070
-525.004	181.394	-0.108	-0.160
-523.989	-200.000	0.000	-0.115
-522.975	-103.444	-0.273	-0.065
-521.960	198.696	-0.182	-0.280
-520.945	800.000	0.109	-0.333
-519.931	-14.619	0.287	0.186
-518.916	-85.542	0.248	0.077
-517.902	-60.960	-0.030	0.013
-516.887	800.000	-0.028	0.115
-515.872	-200.000	-0.068	-0.365
-514.858	5.780	-0.212	-0.158
-513.843	-200.000	-0.016	0.283
-512.829	135.693	0.077	-0.101
-511.814	-40.723	-0.275	-0.143
-510.799	-16.751	0.101	0.064
-509.785	344.286	0.168	0.330
-508.770	-21.620	0.186	-0.114
-507.756	-200.000	0.039	0.211
-506.741	800.000	-0.040	0.172
-505.726	-42.437	0.121	-0.062
-504.712	4.555	0.278	0.205
-503.697	800.000	0.025	0.091
-502.683	-109.392	-0.260	-0.055
-501.668	233.946	-0.142	-0.234
-500.653	-21.771	-0.297	0.181
-499.639	52.353	-0.079	-0.076
-498.624	106.481	0.107	0.127
-497.610	188.925	0.037	-0.055
-496.595	177.429	0.034	0.050
-495.581	-27.433	-0.181	0.105
-494.566	61.387	-0.077	-0.077
-493.551	800.000	0.087	-0.344
-492.537	-75.679	0.323	-0.115
-491.522	63.746	0.113	-0.114
-490.508	-30.693	-0.228	0.130
-489.493	-134.528	0.144	0.018
-488.478	791.750	-0.074	-0.205
-487.464	593.460	-0.216	-0.536
-486.449	141.531	-0.269	-0.357
-485.435	381.235	-0.212	0.436
-484.420	406.433	-0.074	0.156
-483.405	-200.000	-0.011	-0.134
-482.391	-122.664	0.197	-0.032
-481.376	-200.000	-0.007	0.103
-480.362	800.000	-0.039	-0.163
-479.347	800.000	0.102	-0.316
-478.332	-125.978	0.527	0.079
-477.318	-49.947	0.185	0.088
-476.303	-36.840	0.525	-0.283
-475.289	-54.958	0.206	-0.093
-474.274	-116.230	0.151	-0.028
-473.259	-129.110	-0.198	-0.028
-472.245	-124.516	-0.223	-0.035
-471.230	-157.865	-0.151	-0.009
-470.216	-13.464	-0.087	-0.056
-469.201	-29.971	-0.214	0.122
-468.186	-200.000	-0.015	-0.152
-467.172	57.147	0.027	-0.027
-466.157	800.000	-0.025	-0.078
-465.143	279.802	-0.186	0.334
-464.128	114.555	-0.045	0.055
-463.113	-200.000	-0.043	0.201
-462.099	-21.619	0.230	0.141
-461.084	-62.513	0.184	0.077
-460.070	-200.000	-0.003	-0.243
-459.055	692.240	-0.057	0.149
-458.040	800.000	0.018	0.078
-457.026	144.461	0.186	0.249
-456.011	249.789	0.104	-0.177
-454.997	800.000	-0.105	-0.320
-453.982	-123.111	-0.392	0.063
-452.968	-200.000	0.018	-0.233
-451.953	96.008	-0.124	0.142
-450.938	-122.694	-0.132	-0.021
-449.924	800.000	0.040	0.143
-448.909	-110.639	0.142	-0.029
-447.895	297.670	-0.094	-0.173
-446.880	800.000	0.043	0.179
-445.865	488.644	-0.051	-0.117
-444.851	4.550	0.210	0.155
-443.836	110.802	-0.071	0.086
-442.822	694.978	-0.085	-0.223
-441.807	800.000	0.020	-0.085
-440.792	-200.000	-0.041	0.337
-439.778	153.796	0.185	-0.253
-438.763	-177.539	-0.070	-0.002
-437.749	-200.000	0.037	0.338
-436.734	800.000	-0.155	0.467
-435.719	485.323	0.039	-0.089
-434.705	-200.000	0.022	-0.308
-433.690	-172.599	0.005	-0.000
-432.676	10.326	0.380	0.289
-431.661	-124.488	-0.236	0.037
-430.646	-2.384	-0.326	-0.229
-429.632	-31.248	0.149	-0.084
-428.617	-88.096	0.116	-0.035
-427.603	800.000	0.105	0.314
-426.588	-200.000	-0.020	-0.174
-425.573	-52.186	-0.096	0.044
-424.559	-122.083	-0.175	0.029
-423.544	6.613	0.067	0.050
-422.530	-50.294	-0.113	-0.053
-421.515	-200.000	0.010	0.182
-420.500	800.000	-0.037	-0.116
-419.486	-109.456	-0.285	0.060
-418.471	-200.000	-0.020	-0.115
-417.457	-95.472	-0.256	0.069
-416.442	-82.849	-0.178	0.057
-415.428	21.602	0.149	-0.121
-414.413	128.599	0.132	-0.169
-413.398	-200.000	0.001	0.206
-412.384	213.005	0.063	-0.099
-411.369	-87.090	0.185	-0.056
-410.355	35.538	-0.105	-0.093
-409.340	-200.000	-0.113	-0.534
-408.325	-59.599	0.060	0.026
-407.311	12.862	-0.227	0.175
-406.296	-176.139	0.228	0.006
-405.282	61.515	-0.065	0.064
-404.267	-85.119	0.261	-0.082
-403.252	-200.000	0.013	0.315
-402.238	-167.858	0.036	-0.001
-401.223	-182.240	-0.215	-0.004
-400.209	490.192	0.194	0.443
-399.194	41.042	-0.148	-0.134
-398.179	-107.953	-0.186	0.040
-397.165	-150.699	0.244	-0.019
-396.150	-200.000	-0.029	0.313
-395.136	82.596	-0.136	0.148
-394.121	-103.776	0.187	-0.044
-393.106	-32.347	0.110	-0.061
-392.092	-101.247	-0.105	0.026
-391.077	-161.776	0.321	-0.016
-390.063	-199.062	0.287	0.002
-389.048	53.821	-0.259	0.249
-388.033	-200.000	-0.022	0.277
-387.019	-154.683	0.252	0.017
-386.004	-200.000	0.026	-0.418
-384.990	-200.000	-0.013	0.070
-383.975	264.148	-0.057	-0.099
-382.960	800.000	0.126	0.424
-381.946	383.588	0.035	0.072
-380.931	-101.255	0.189	-0.046
-379.917	57.500	-0.097	-0.094
-378.902	71.663	-0.108	0.112
-377.888	-147.961	-0.153	-0.013
-376.873	-200.000	0.002	0.111
-375.858	140.916	0.098	0.129
-374.844	-100.392	0.219	0.054
-373.829	1.008	-0.242	-0.173
-372.815	318.332	0.086	-0.162
-371.800	-76.891	-0.160	0.056
-370.785	-200.000	-0.010	-0.331
-369.771	0.153	0.173	-0.123
-368.756	-34.025	-0.410	0.225
-367.742	228.774	0.069	-0.113
-366.727	120.064	-0.091	-0.113
-365.712	51.752	0.109	-0.104
-364.698	-200.000	-0.020	0.154
-363.683	236.955	0.067	0.110
-362.669	113.510	0.230	-0.279
-361.654	800.000	-0.061	0.196
-360.639	14.415	-0.217	0.169
-359.625	800.000	0.022	-0.071
-358.610	21.889	0.196	-0.159
-357.596	96.523	-0.029	-0.034
-356.581	115.457	0.021	-0.025
-355.566	-91.947	-0.089	0.025
-354.552	-200.000	-0.046	0.324
-353.537	9.164	0.249	-0.188
-352.523	-142.142	-0.383	0.038
-351.508	-85.763	-0.213	0.066
-350.493	-200.000	-0.005	0.083
-349.479	114.356	0.221	0.268
-348.464	12.453	-0.215	-0.165
-347.450	29.542	0.217	0.184
-346.435	-200.000	0.032	-0.167
-345.420	141.698	0.064	0.084
-344.406	-10.708	-0.104	-0.069
-343.391	-31.128	-0.068	0.038
-342.377	84.060	0.165	-0.180
-341.362	-200.000	0.035	0.382
-340.348	245.739	-0.078	0.132
-339.333	-77.024	-0.222	0.077
-338.318	72.591	0.360	-0.374
-337.304	-65.646	-0.263	-0.105
-336.289	131.292	0.127	0.162
-335.275	415.369	-0.116	-0.247
-334.260	-200.000	-0.155	0.000
-333.245	-33.680	0.371	0.204
-332.231	87.265	0.082	-0.090
-331.216	-200.000	-0.008	0.162
-330.202	-200.000	0.009	-0.067
-329.187	453.761	-0.091	-0.201
-328.172	-200.000	0.007	-0.358
-327.158	23.374	-0.279	-0.228
-326.143	-27.235	0.071	-0.041
-325.129	69.235	0.224	-0.230
-324.114	800.000	-0.068	-0.273
-323.099	-134.854	0.245	-0.030
-322.085	-22.656	-0.100	0.060
-321.070	800.000	0.023	0.087
-320.056	-200.000	0.034	-0.241
-319.041	306.432	0.054	0.100
-318.026	273.833	-0.146	0.257
-317.012	-76.253	-0.363	0.127
-315.997	95.912	0.233	-0.265
-314.983	-200.000	-0.014	0.071
-313.968	-154.529	-0.078	0.005
-312.953	25.242	-0.193	0.160
-311.939	-151.107	-0.164	-0.012
-310.924	29.775	0.276	0.234
-309.910	-63.262	0.202	0.083
-308.895	-183.093	-0.314	0.006
-307.880	489.143	0.083	0.189
-306.866	-182.071	0.091	-0.002
-305.851	187.280	0.124	-0.185
-304.837	800.000	0.043	0.120
-303.822	-200.000	0.055	-0.275
-302.807	-8.375	-0.032	-0.022
-301.793	39.999	-0.227	0.203
-300.778	252.051	0.142	-0.241
-299.764	-58.383	0.095	0.041
-298.749	800.000	-0.085	0.314
-297.735	-14.957	0.243	0.155
-296.720	-200.000	0.006	-0.117
-295.705	-200.000	-0.002	-0.154
-294.691	-200.000	-0.020	0.106
-293.676	404.500	0.096	-0.201
-292.662	-200.000	-0.059	-0.282
-291.647	298.189	-0.131	0.239
-290.632	800.000	-0.074	-0.217
-289.618	402.629	-0.122	0.255
-288.603	-32.400	-0.146	0.081
-287.589	-67.878	-0.211	0.082
-286.574	-200.000	-0.014	0.255
-285.559	-108.074	0.082	-0.018
-284.545	-106.087	-0.203	-0.045
-283.530	-200.000	-0.003	0.020
-282.516	800.000	0.051	0.156
-281.501	214.306	0.048	-0.075
-280.486	36.276	0.084	-0.074
-279.472	-200.000	-0.039	0.192
-278.457	800.000	0.056	0.189
-277.443	710.015	-0.050	-0.132
-276.428	-88.568	0.299	-0.089
-275.413	-200.000	-0.018	0.246
-274.399	800.000	-0.027	0.101
-273.384	-50.117	0.386	0.182
-272.370	66.187	0.012	0.012
-271.355	33.160	-0.157	-0.135
-270.340	283.212	-0.153	0.273
-269.326	-200.000	-0.045	-0.306
-268.311	458.111	0.061	0.136
-267.297	-200.000	-0.005	0.350
-266.282	-200.000	-0.031	-0.136
-265.267	-200.000	0.049	-0.246
-264.253	800.000	-0.028	0.098
-263.238	-195.563	0.570	0.004
-262.224	-92.247	-0.316	-0.089
-261.209	-200.000	0.005	0.154
-260.195	-135.144	-0.030	-0.004
-259.180	-200.000	-0.075	-0.403
-258.165	-146.871	0.255	0.022
-257.151	-152.937	0.327	0.023
-256.136	-134.241	0.128	-0.016
-255.122	747.714	0.042	0.112
-254.107	-163.672	0.321	0.015
-253.092	51.995	0.232	0.220
-252.078	800.000	0.066	0.196
-251.063	800.000	0.056	0.194
-250.049	-24.403	-0.340	-0.201
-249.034	214.303	0.030	-0.047
-248.019	734.705	-0.106	0.283
-247.005	-77.609	0.189	0.065
-245.990	12.885	-0.121	-0.093
-244.976	47.878	0.160	-0.148
-243.961	-55.250	-0.161	0.072
-242.946	-68.143	-0.205	0.079
-241.932	-200.000	-0.025	-0.165
-240.917	55.266	0.247	0.237
-239.903	-54.046	0.092	0.042
-238.888	-185.424	0.438	0.007
-237.873	5.835	-0.121	0.089
-236.859	130.458	-0.072	-0.092
-235.844	-200.000	-0.021	-0.122
-234.830	-116.107	0.301	0.056
-233.815	78.633	-0.169	-0.179
-232.800	-72.487	-0.093	0.034
-231.786	179.817	0.092	-0.134
-230.771	-118.040	0.014	0.003
-229.757	451.575	-0.090	-0.198
-228.742	-200.000	-0.003	0.308
-227.727	7.816	-0.377	0.280
-226.713	113.326	-0.192	0.231
-225.698	225.581	0.190	-0.305
-224.684	88.320	0.066	0.072
-223.669	97.585	0.151	-0.172
-222.655	800.000	0.101	0.326
-221.640	105.978	0.023	-0.027
-220.625	105.034	0.111	0.130
-219.611	800.000	0.053	-0.154
-218.596	21.081	-0.082	-0.066
-217.582	-200.000	-0.026	-0.161
-216.567	524.059	-0.065	0.151
-215.552	-120.573	0.446	0.075
-214.538	-121.855	-0.059	-0.010
-213.523	-54.886	0.312	0.140
-212.509	-24.555	0.182	0.107
-211.494	-192.869	-0.222	0.002
-210.479	81.326	-0.229	-0.246
-209.465	-31.268	-0.169	-0.094
-208.450	1.801	-0.080	-0.057
-207.436	-153.756	-0.395	0.027
-206.421	285.310	0.064	0.114
-205.406	-129.714	-0.216	0.030
-204.392	-200.000	-0.033	-0.169
-203.377	222.007	-0.139	0.222
-202.363	800.000	0.082	0.326
-201.348	-49.645	0.334	-0.158
-200.333	-200.000	0.030	0.229
-199.319	-23.292	0.244	0.145
-198.304	28.277	-0.142	0.119
-197.290	433.700	0.046	0.100
-196.275	-200.000	-0.042	-0.198
-195.260	32.451	-0.166	-0.142
-194.246	-200.000	-0.045	0.310
-193.231	315.274	-0.054	0.100
-192.217	-19.815	0.269	-0.165
-191.202	653.974	-0.068	0.174
-190.187	206.621	-0.077	-0.119
-189.173	144.323	-0.323	-0.427
-188.158	370.516	-0.180	-0.361
-187.144	-89.424	0.212	-0.062
-186.129	-200.000	-0.046	0.233
-185.114	127.605	-0.054	0.068
-184.100	-135.879	0.186	-0.022
-183.085	-31.957	-0.071	0.039
-182.071	104.765	-0.169	0.197
-181.056	-5.708	-0.195	-0.132
-180.042	-111.227	0.091	0.019
-179.027	265.137	-0.040	0.069
-178.012	-77.177	-0.195	0.067
-176.998	72.504	0.214	-0.221
-175.983	75.419	0.079	0.083
-174.969	-140.174	0.215	-0.022
-173.954	409.747	-0.039	0.082
-172.939	-108.530	-0.168	0.036
-171.925	-200.000	0.001	-0.023
-170.910	-96.908	0.173	0.045
-169.896	257.936	-0.191	0.326
-168.881	-200.000	-0.003	-0.087
-167.866	-190.458	-0.373	-0.004
-166.852	-60.980	0.606	-0.254
-165.837	-200.000	0.016	-0.385
-164.823	480.708	-0.085	0.191
-163.808	-30.146	-0.183	0.103
-162.793	753.415	-0.120	0.321
-161.779	301.657	-0.150	0.274
-160.764	289.127	-0.026	-0.047
-159.750	148.264	0.072	-0.096
-158.735	-103.812	0.320	0.074
-157.720	66.236	0.176	-0.177
-156.706	800.000	-0.066	0.198
-155.691	722.046	-0.092	0.242
-154.677	-200.000	0.014	0.168
-153.662	20.443	-0.259	0.207
-152.647	-26.977	0.201	-0.116
-151.633	566.934	-0.101	0.243
-150.618	536.045	-0.126	0.296
-149.604	-67.895	-0.090	0.035
-148.589	508.419	-0.021	-0.048
-147.574	486.996	-0.090	-0.204
-146.560	-179.577	0.155	-0.003
-145.545	-45.371	-0.313	-0.154
-144.531	166.229	0.121	0.169
-143.516	-200.000	-0.020	0.211
-142.502	-119.871	0.376	-0.064
-141.487	45.443	-0.148	-0.135
-140.472	41.241	-0.119	0.107
-139.458	-72.510	0.091	-0.033
-138.443	-168.524	0.190	0.007
-137.429	133.809	-0.275	0.353
-136.414	-97.413	-0.431	0.111
-135.399	84.698	-0.325	0.352
-134.385	-200.000	0.013	0.159
-133.370	-48.519	0.504	-0.240
-132.356	800.000	0.064	0.223
-131.341	43.343	-0.136	-0.123
-130.326	1.690	-0.321	-0.228
-129.312	55.562	-0.033	-0.031
-128.297	800.000	-0.092	-0.337
-127.283	-57.543	0.212	-0.092
-126.268	76.015	0.102	0.107
-125.253	157.827	-0.054	0.074
-124.239	-111.597	-0.195	-0.039
-123.224	-184.343	0.146	0.002
-122.210	-200.000	0.009	0.090
-121.195	0.524	0.175	0.123
