DTS Sentinel unit serial number:	SN413079Multiplexer serial number:	ORYXHardware model number:	OX4-SRSoftware version number:	ORYX F/W v4.00 Oryx Data Collector v3.7.2.0data status	okinstallation	princeton_trtdifferential loss correction	single-endedforward channel	channel 4reverse channel	N/Adate	2019/09/17time	05:29:34forward acquisition time	60.00reverse acquisition time	0.00gamma	496.2192k internal	0.2313k external	0.2313temperature offset calibration	0.9984default loss term (dB/km)	0.3790temperature slope calibration	1.0000multiplexer offset coefficient	1.0000multiplexer slope coefficient	1.0000fibre end	0.00T internal ref (°C)	29.25T ext. ref 1 (°C)	0.14T ext. ref 2 (°C)	23.26length (m)	temperature (°C)	Stokes	anti-Stokes-747.200	355.482	0.034	0.069
-746.185	791.229	-0.127	0.353
-745.171	-200.000	0.077	0.391
-744.156	-134.052	-0.211	0.027
-743.142	264.079	0.091	-0.161
-742.127	575.411	0.249	0.616
-741.112	800.000	-0.036	0.108
-740.098	-98.932	0.175	-0.045
-739.083	36.045	-0.160	0.143
-738.069	-158.155	0.210	-0.012
-737.054	168.224	0.073	0.106
-736.039	-66.547	-0.052	0.021
-735.025	-200.000	-0.014	0.247
-734.010	-96.249	-0.444	0.119
-732.996	-200.000	0.000	-0.441
-731.981	-200.000	0.009	-0.046
-730.966	75.973	-0.177	-0.190
-729.952	130.303	-0.028	-0.036
-728.937	-31.646	-0.036	-0.021
-727.923	101.897	-0.155	0.183
-726.908	147.415	-0.230	-0.313
-725.894	800.000	0.084	0.246
-724.879	-200.000	-0.058	0.304
-723.864	-167.130	-0.047	-0.002
-722.850	-9.154	-0.168	0.114
-721.835	336.097	-0.013	-0.026
-720.821	800.000	-0.073	0.214
-719.806	30.773	-0.103	0.089
-718.791	800.000	-0.118	-0.379
-717.777	131.057	0.148	-0.193
-716.762	227.861	-0.139	-0.229
-715.748	200.596	0.202	-0.314
-714.733	800.000	0.050	0.164
-713.718	-200.000	-0.037	-0.200
-712.704	23.984	0.010	0.008
-711.689	800.000	0.080	-0.225
-710.675	-138.337	-0.312	-0.035
-709.660	-140.415	0.274	-0.029
-708.645	-56.558	0.059	0.026
-707.631	-46.073	-0.514	0.257
-706.616	800.000	-0.030	0.128
-705.602	71.817	0.193	-0.203
-704.587	800.000	0.069	-0.205
-703.572	40.715	-0.176	-0.161
-702.558	-200.000	0.179	-0.000
-701.543	-133.293	-0.460	-0.059
-700.529	-200.000	-0.102	-0.568
-699.514	-99.658	-0.102	-0.026
-698.499	800.000	-0.083	-0.316
-697.485	13.084	0.167	-0.131
-696.470	56.340	-0.172	-0.170
-695.456	-200.000	-0.024	-0.237
-694.441	89.772	0.147	0.166
-693.426	-200.000	0.001	-0.106
-692.412	-102.237	-0.144	-0.035
-691.397	-66.181	-0.198	0.080
-690.383	533.841	0.029	-0.070
-689.368	11.431	0.202	-0.156
-688.354	-200.000	-0.006	-0.243
-687.339	17.153	-0.229	-0.183
-686.324	-200.000	-0.008	-0.331
-685.310	399.865	-0.033	-0.070
-684.295	-61.872	-0.243	0.103
-683.281	-200.000	0.019	-0.382
-682.266	227.850	0.134	-0.221
-681.251	-79.466	0.154	-0.053
-680.237	-63.548	0.223	0.093
-679.222	-168.417	-0.229	0.009
-678.208	-200.000	-0.026	-0.143
-677.193	375.725	0.116	-0.240
-676.178	800.000	-0.069	-0.240
-675.164	-30.623	-0.256	-0.147
-674.149	-193.120	0.338	0.003
-673.135	53.546	-0.037	-0.036
-672.120	-108.899	0.103	-0.022
-671.105	4.623	0.103	0.076
-670.091	194.980	0.152	0.233
-669.076	126.210	0.096	0.123
-668.062	-113.582	0.231	-0.046
-667.047	484.435	-0.037	0.084
-666.032	-5.803	-0.161	-0.111
-665.018	-41.053	0.319	-0.167
-664.003	-160.188	0.137	-0.007
-662.989	169.782	0.117	-0.169
-661.974	-200.000	-0.067	-0.306
-660.959	109.264	-0.424	-0.514
-659.945	87.407	-0.263	-0.294
-658.930	-11.175	0.196	0.131
-657.916	272.108	0.140	0.250
-656.901	55.309	0.108	-0.105
-655.886	459.645	-0.274	0.616
-654.872	274.856	0.039	0.070
-653.857	-1.822	-0.159	-0.113
-652.843	363.873	-0.110	0.223
-651.828	120.262	0.161	-0.202
-650.814	43.701	-0.357	-0.331
-649.799	-25.221	-0.133	0.080
-648.784	800.000	-0.042	0.123
-647.770	-123.908	0.019	-0.003
-646.755	79.779	0.163	0.177
-645.741	-78.052	-0.302	0.105
-644.726	-118.569	-0.331	-0.059
-643.711	-153.939	-0.362	0.025
-642.697	800.000	0.096	-0.346
-641.682	57.394	0.100	-0.098
-640.668	8.697	-0.316	-0.240
-639.653	-162.026	-0.223	0.011
-638.638	-29.302	0.164	-0.095
-637.624	-200.000	-0.011	-0.055
-636.609	-32.325	0.076	-0.043
-635.595	-200.000	-0.023	0.309
-634.580	-200.000	0.014	-0.337
-633.565	800.000	-0.038	-0.166
-632.551	46.861	0.170	0.160
-631.536	800.000	-0.069	0.207
-630.522	185.519	0.171	-0.256
-629.507	94.726	-0.158	0.182
-628.492	617.596	-0.055	-0.138
-627.478	-84.750	-0.220	0.070
-626.463	62.811	-0.167	0.169
-625.449	224.326	0.107	0.175
-624.434	-160.811	-0.203	-0.011
-623.419	296.629	-0.085	-0.157
-622.405	5.438	-0.070	0.052
-621.390	-26.539	-0.207	-0.122
-620.376	-60.740	-0.252	0.108
-619.361	-113.988	-0.145	-0.028
-618.346	23.945	-0.069	-0.058
-617.332	-14.169	0.065	-0.042
-616.317	800.000	-0.038	-0.109
-615.303	15.284	0.132	0.104
-614.288	-92.416	-0.328	-0.093
-613.273	424.312	-0.073	-0.158
-612.259	124.430	0.153	-0.194
-611.244	-62.876	0.056	-0.023
-610.230	76.399	0.130	0.139
-609.215	-5.917	0.161	-0.111
-608.201	-200.000	-0.002	-0.123
-607.186	56.684	-0.089	-0.087
-606.171	11.517	-0.371	0.287
-605.157	-48.482	0.116	0.056
-604.142	-9.498	0.092	-0.062
-603.128	-147.810	-0.031	-0.003
-602.113	-97.986	0.188	0.049
-601.098	67.142	-0.127	-0.131
-600.084	-44.170	0.159	-0.081
-599.069	290.793	-0.144	-0.264
-598.055	207.301	-0.109	0.172
-597.040	167.505	-0.127	-0.182
-596.025	800.000	0.044	0.155
-595.011	-200.000	0.010	0.131
-593.996	444.364	0.081	0.179
-592.982	800.000	0.078	-0.268
-591.967	153.079	0.214	0.295
-590.952	172.706	0.087	-0.126
-589.938	241.238	-0.196	-0.330
-588.923	250.012	-0.132	0.226
-587.909	-200.000	0.002	-0.186
-586.894	72.345	0.179	-0.188
-585.879	-35.257	0.167	0.092
-584.865	-200.000	-0.069	-0.470
-583.850	70.798	-0.096	0.100
-582.836	43.631	0.272	0.251
-581.821	-55.656	-0.086	0.039
-580.806	8.979	-0.242	0.184
-579.792	-61.586	0.384	-0.162
-578.777	-48.878	-0.041	0.020
-577.763	800.000	0.116	-0.471
-576.748	800.000	0.083	0.267
-575.733	487.463	-0.130	-0.298
-574.719	14.689	0.158	-0.124
-573.704	-200.000	0.007	0.058
-572.690	8.891	-0.187	0.142
-571.675	-97.935	-0.503	-0.131
-570.661	434.407	-0.058	-0.127
-569.646	200.350	0.199	-0.309
-568.631	-12.158	-0.302	0.199
-567.617	-95.885	0.182	-0.049
-566.602	-155.825	0.170	-0.011
-565.588	-89.674	-0.327	-0.097
-564.573	198.471	0.154	-0.238
-563.558	-200.000	-0.467	-0.001
-562.544	800.000	-0.052	-0.206
-561.529	-200.000	-0.020	-0.101
-560.515	-13.729	-0.164	0.107
-559.500	18.206	-0.304	-0.244
-558.485	280.230	0.022	-0.040
-557.471	-114.113	0.429	-0.083
-556.456	-48.507	0.332	0.161
-555.442	323.565	-0.078	-0.150
-554.427	800.000	0.047	-0.187
-553.412	320.837	-0.144	0.275
-552.398	-93.219	0.259	-0.073
-551.383	109.774	-0.070	0.085
-550.369	181.231	0.150	-0.222
-549.354	211.907	0.049	0.078
-548.339	10.265	0.080	-0.062
-547.325	53.838	0.234	-0.226
-546.310	-17.855	0.158	0.100
-545.296	8.855	-0.332	-0.252
-544.281	308.224	-0.141	-0.265
-543.266	-200.000	0.055	-0.298
-542.252	89.811	0.176	-0.198
-541.237	9.297	0.123	0.094
-540.223	-200.000	0.005	-0.301
-539.208	800.000	0.060	-0.207
-538.193	-186.587	-0.067	-0.001
-537.179	66.528	-0.120	-0.123
-536.164	-137.492	-0.277	-0.031
-535.150	-112.488	-0.162	0.032
-534.135	-88.169	-0.060	-0.018
-533.121	-49.757	-0.359	-0.172
-532.106	127.355	-0.248	-0.316
-531.091	-148.647	0.088	0.007
-530.077	-77.297	0.183	-0.064
-529.062	-102.776	-0.222	0.053
-528.048	130.622	0.168	-0.217
-527.033	-200.000	0.005	0.059
-526.018	800.000	0.061	-0.190
-525.004	-123.164	0.346	-0.056
-523.989	203.309	-0.100	-0.155
-522.975	-128.955	-0.244	-0.034
-521.960	-200.000	-0.006	-0.343
-520.945	92.917	0.250	0.283
-519.931	65.142	-0.103	-0.104
-518.916	-27.065	0.177	-0.104
-517.902	298.603	-0.092	0.170
-516.887	-200.000	-0.021	-0.099
-515.872	-101.564	-0.067	0.016
-514.858	-81.970	0.362	0.119
-513.843	-200.000	-0.042	0.413
-512.829	-14.861	0.232	0.150
-511.814	-85.847	0.140	-0.044
-510.799	152.266	-0.208	-0.285
-509.785	800.000	-0.053	0.163
-508.770	-74.367	0.037	0.013
-507.756	465.643	-0.063	0.143
-506.741	62.462	0.071	-0.071
-505.726	800.000	0.032	0.097
-504.712	62.407	-0.112	-0.113
-503.697	-200.000	0.019	-0.240
-502.683	-43.204	0.187	-0.095
-501.668	-200.000	-0.010	0.064
-500.653	205.258	0.202	0.314
-499.639	800.000	0.075	-0.285
-498.624	-87.578	0.174	0.053
-497.610	-200.000	-0.004	0.023
-496.595	-77.085	-0.096	0.034
-495.581	-68.079	-0.274	0.107
-494.566	314.898	0.039	-0.075
-493.551	-37.593	-0.322	-0.172
-492.537	84.848	0.196	0.215
-491.522	94.981	-0.075	0.085
-490.508	-42.287	-0.145	0.074
-489.493	-83.441	0.094	-0.030
-488.478	800.000	-0.039	-0.149
-487.464	34.265	-0.383	-0.335
-486.449	-32.990	-0.121	-0.068
-485.435	-116.112	0.251	0.047
-484.420	-27.701	-0.197	0.115
-483.405	-74.288	0.223	-0.081
-482.391	-200.000	0.011	0.275
-481.376	326.411	0.030	-0.058
-480.362	135.168	0.183	0.238
-479.347	70.722	0.099	0.103
-478.332	10.082	-0.042	0.032
-477.318	-16.196	0.309	-0.197
-476.303	-200.000	0.044	-0.271
-475.289	168.914	0.115	0.165
-474.274	-135.577	-0.379	-0.045
-473.259	426.769	-0.080	0.174
-472.245	-121.008	-0.178	0.030
-471.230	-60.842	0.051	0.022
-470.216	800.000	0.100	0.398
-469.201	800.000	0.056	-0.185
-468.186	-200.000	0.055	-0.337
-467.172	276.305	-0.236	-0.421
-466.157	20.631	-0.079	0.064
-465.143	-55.307	-0.377	-0.170
-464.128	295.701	-0.053	0.098
-463.113	-200.000	-0.033	0.237
-462.099	-16.461	-0.064	0.041
-461.084	19.602	0.172	0.139
-460.070	292.489	0.132	-0.242
-459.055	800.000	-0.093	0.399
-458.040	78.932	-0.180	0.193
-457.026	125.657	0.032	0.040
-456.011	800.000	0.076	-0.245
-454.997	445.687	-0.116	-0.255
-453.982	-200.000	0.048	-0.228
-452.968	124.743	0.047	0.060
-451.953	190.363	-0.132	0.198
-450.938	-149.973	-0.276	-0.022
-449.924	8.485	0.078	0.059
-448.909	-144.125	0.441	-0.041
-447.895	-50.282	-0.427	0.202
-446.880	28.176	0.106	-0.090
-445.865	-200.000	-0.005	-0.043
-444.851	252.874	-0.092	0.157
-443.836	231.453	-0.092	-0.151
-442.822	-163.063	0.155	-0.007
-441.807	800.000	0.078	-0.307
-440.792	776.366	0.034	0.093
-439.778	-200.000	0.033	-0.459
-438.763	7.016	0.038	-0.028
-437.749	-191.066	-0.330	-0.003
-436.734	-54.946	0.265	-0.120
-435.719	-200.000	-0.140	-0.000
-434.705	-200.000	0.021	0.107
-433.690	-93.781	-0.218	-0.060
-432.676	29.424	0.100	0.085
-431.661	475.577	0.099	0.224
-430.646	71.728	-0.097	-0.101
-429.632	197.365	-0.019	-0.029
-428.617	348.799	0.049	0.097
-427.603	-200.000	0.011	-0.209
-426.588	450.549	0.166	-0.367
-425.573	416.848	0.106	0.227
-424.559	283.556	0.172	0.309
-423.544	-200.000	-0.030	0.213
-422.530	19.806	-0.139	-0.112
-421.515	620.212	-0.155	0.391
-420.500	800.000	0.085	-0.245
-419.486	3.158	-0.266	-0.194
-418.471	800.000	-0.070	-0.232
-417.457	800.000	-0.091	0.303
-416.442	-200.000	-0.032	0.258
-415.428	425.981	0.035	0.075
-414.413	-61.252	0.143	-0.060
-413.398	-27.556	-0.082	0.048
-412.384	-0.770	0.043	-0.030
-411.369	420.205	0.114	0.245
-410.355	-200.000	0.023	-0.175
-409.340	681.100	-0.129	-0.337
-408.325	95.859	-0.105	0.120
-407.311	65.115	0.226	0.228
-406.296	82.788	0.189	0.205
-405.282	-200.000	-0.025	-0.169
-404.267	-98.925	0.165	0.042
-403.252	-200.000	0.032	-0.176
-402.238	-91.856	-0.124	-0.035
-401.223	89.150	0.240	-0.268
-400.209	-200.000	0.043	0.514
-399.194	-98.876	0.199	0.051
-398.179	-25.162	-0.215	0.127
-397.165	-200.000	-0.032	0.369
-396.150	86.776	-0.061	-0.068
-395.136	-200.000	0.019	0.416
-394.121	-167.989	-0.434	0.017
-393.106	147.956	-0.157	0.212
-392.092	-200.000	-0.010	0.140
-391.077	153.548	0.070	-0.096
-390.063	-124.163	0.409	-0.064
-389.048	99.415	-0.071	-0.083
-388.033	509.920	0.043	0.101
-387.019	-34.291	0.213	0.117
-386.004	137.880	0.125	-0.163
-384.990	-3.185	0.185	0.129
-383.975	-200.000	0.115	0.000
-382.960	29.115	0.114	0.097
-381.946	-200.000	0.015	0.125
-380.931	118.249	-0.196	-0.241
-379.917	374.876	-0.223	-0.454
-378.902	384.724	0.128	-0.264
-377.888	-133.914	-0.174	-0.022
-376.873	52.737	0.268	0.256
-375.858	-61.932	-0.399	-0.167
-374.844	33.355	-0.147	0.127
-373.829	-200.000	0.003	-0.335
-372.815	101.479	0.170	0.198
-371.800	-200.000	0.024	-0.313
-370.785	-85.745	0.197	0.061
-369.771	356.039	-0.064	-0.127
-368.756	109.302	-0.263	0.315
-367.742	-200.000	0.002	-0.089
-366.727	5.369	-0.160	-0.118
-365.712	-20.568	-0.075	-0.046
-364.698	4.103	0.059	0.043
-363.683	196.990	-0.084	0.128
-362.669	90.192	0.285	0.318
-361.654	-114.245	-0.226	-0.044
-360.639	-63.601	0.356	0.146
-359.625	-18.024	0.217	0.136
-358.610	222.241	0.082	0.131
-357.596	-36.599	-0.364	-0.195
-356.581	-189.970	0.209	0.002
-355.566	-30.978	-0.134	-0.076
-354.552	529.920	0.064	-0.151
-353.537	-95.816	-0.455	0.121
-352.523	-99.501	-0.243	-0.061
-351.508	173.307	0.124	0.178
-350.493	800.000	-0.118	0.330
-349.479	-200.000	-0.051	0.302
-348.464	-128.260	0.223	-0.032
-347.450	-200.000	0.027	-0.125
-346.435	-200.000	-0.052	-0.375
-345.420	-200.000	0.066	0.300
-344.406	-200.000	-0.022	0.149
-343.391	521.746	0.030	0.070
-342.377	-200.000	0.020	0.289
-341.362	-193.977	-0.206	0.002
-340.348	26.039	0.056	0.047
-339.333	104.096	-0.101	-0.118
-338.318	-200.000	-0.018	-0.085
-337.304	-4.296	0.309	0.214
-336.289	-129.855	0.177	0.024
-335.275	18.536	-0.203	0.162
-334.260	-137.774	0.126	0.014
-333.245	152.090	0.056	-0.076
-332.231	-15.763	-0.164	0.104
-331.216	138.058	0.177	-0.231
-330.202	131.893	-0.096	-0.123
-329.187	-55.932	0.079	-0.035
-328.172	800.000	-0.017	-0.049
-327.158	800.000	0.052	0.163
-326.143	235.584	0.158	0.260
-325.129	-44.688	0.423	0.211
-324.114	-83.307	-0.057	0.018
-323.099	-114.148	0.026	-0.005
-322.085	740.234	0.063	-0.168
-321.070	-53.521	0.185	0.084
-320.056	-99.451	-0.191	0.048
-319.041	-43.574	-0.081	-0.041
-318.026	-139.057	-0.354	-0.038
-317.012	-113.794	0.442	-0.086
-315.997	345.656	-0.120	0.234
-314.983	42.547	-0.075	0.068
-313.968	-173.302	0.126	0.004
-312.953	-98.961	-0.116	-0.029
-311.939	800.000	-0.048	0.191
-310.924	139.422	0.080	0.105
-309.910	164.721	-0.139	-0.195
-308.895	232.334	-0.233	-0.382
-307.880	-30.364	0.036	-0.020
-306.866	-200.000	-0.007	0.247
-305.851	-200.000	-0.003	0.228
-304.837	800.000	0.100	0.341
-303.822	-35.091	-0.231	0.126
-302.807	-200.000	-0.050	-0.224
-301.793	222.506	0.022	-0.035
-300.778	245.553	0.050	0.084
-299.764	-136.676	0.103	-0.012
-298.749	-121.484	-0.258	0.043
-297.735	800.000	0.076	0.236
-296.720	-9.287	-0.151	-0.101
-295.705	-57.101	0.069	0.030
-294.691	30.894	-0.184	0.157
-293.676	-56.847	0.218	-0.096
-292.662	-158.948	0.454	-0.026
-291.647	-138.422	-0.520	-0.057
-290.632	800.000	0.057	-0.204
-289.618	26.100	0.262	0.218
-288.603	800.000	0.087	0.324
-287.589	-200.000	-0.084	-0.488
-286.574	800.000	-0.018	0.062
-285.559	-163.003	0.172	0.008
-284.545	15.708	-0.193	-0.151
-283.530	72.851	-0.237	0.247
-282.516	-75.550	0.063	-0.022
-281.501	175.257	-0.079	-0.114
-280.486	-130.979	0.550	-0.073
-279.472	800.000	0.012	-0.050
-278.457	406.228	-0.068	-0.143
-277.443	315.158	0.236	-0.443
-276.428	145.163	-0.208	0.278
-275.413	-3.948	-0.384	0.265
-274.399	-150.152	0.028	-0.002
-273.384	281.250	-0.199	0.355
-272.370	797.240	0.057	0.156
-271.355	-31.578	-0.161	-0.090
-270.340	-200.000	0.038	-0.183
-269.326	-57.081	-0.217	-0.095
-268.311	800.000	-0.032	0.096
-267.297	115.914	0.284	-0.346
-266.282	23.772	-0.096	0.079
-265.267	-133.592	0.074	0.009
-264.253	-142.631	-0.206	-0.020
-263.238	800.000	-0.060	-0.206
-262.224	-195.350	-0.190	0.001
-261.209	174.239	0.182	0.262
-260.195	-200.000	0.000	-0.148
-259.180	793.872	0.085	-0.232
-258.165	-95.542	-0.333	0.089
-257.151	61.938	0.134	0.133
-256.136	7.710	0.081	-0.061
-255.122	-25.450	-0.219	-0.129
-254.107	-158.206	-0.424	0.025
-253.092	25.323	0.350	0.290
-252.078	-41.436	-0.169	0.087
-251.063	101.590	0.135	0.157
-250.049	308.027	0.115	0.213
-249.034	-60.173	0.030	0.013
-248.019	-106.946	0.394	-0.087
-247.005	21.141	-0.097	0.078
-245.990	325.592	-0.057	0.108
-244.976	-104.644	-0.213	0.049
-243.961	-123.604	0.203	-0.032
-242.946	-200.000	-0.003	0.168
-241.932	-200.000	0.367	0.002
-240.917	-92.869	-0.192	-0.053
-239.903	4.102	0.127	-0.093
-238.888	347.126	-0.193	-0.377
-237.873	27.247	0.163	0.136
-236.859	33.168	0.196	-0.169
-235.844	-82.995	0.393	-0.126
-234.830	-200.000	0.035	0.159
-233.815	697.127	0.151	0.394
-232.800	254.817	0.202	0.344
-231.786	-94.650	-0.069	-0.019
-230.771	-200.000	-0.013	0.479
-229.757	-3.508	-0.376	0.260
-228.742	89.949	0.128	0.142
-227.727	84.268	0.294	0.320
-226.713	-95.311	0.401	-0.107
-225.698	-200.000	-0.041	-0.314
-224.684	345.912	-0.121	-0.237
-223.669	-106.902	0.295	-0.065
-222.655	-87.196	-0.079	0.024
-221.640	-49.475	0.089	0.042
-220.625	342.939	-0.066	0.129
-219.611	-200.000	-0.049	-0.221
-218.596	-89.731	0.334	-0.097
-217.582	64.156	0.092	0.092
-216.567	-162.123	0.035	0.002
-215.552	800.000	-0.084	-0.278
-214.538	-200.000	-0.003	0.242
-213.523	134.630	0.049	-0.063
-212.509	-200.000	-0.012	0.219
-211.494	26.244	0.048	0.040
-210.479	135.645	0.061	0.079
-209.465	171.701	0.065	0.093
-208.450	47.373	0.259	-0.239
-207.436	117.302	0.058	0.070
-206.421	-90.978	0.217	0.062
-205.406	88.263	0.045	0.049
-204.392	714.400	-0.057	0.150
-203.377	800.000	-0.074	0.249
-202.363	-111.130	-0.462	0.094
-201.348	-14.243	-0.278	-0.178
-200.333	-114.348	0.338	-0.065
-199.319	-181.376	0.315	0.006
-198.304	499.600	-0.093	-0.213
-197.290	-114.828	-0.105	0.020
-196.275	-7.148	0.247	-0.166
-195.260	-200.000	-0.015	0.140
-194.246	-69.772	-0.253	-0.096
-193.231	800.000	-0.018	-0.050
-192.217	145.236	0.148	-0.197
-191.202	-200.000	0.060	0.296
-190.187	-131.277	-0.224	0.029
-189.173	40.950	0.032	-0.028
-188.158	152.965	0.163	0.221
-187.144	-200.000	-0.002	0.318
-186.129	-141.607	0.127	0.013
-185.114	-68.488	-0.196	0.075
-184.100	93.212	-0.101	-0.114
-183.085	-164.058	0.327	0.015
-182.071	-131.990	0.086	-0.011
-181.056	-135.943	0.106	-0.012
-180.042	800.000	0.063	-0.222
-179.027	-87.831	0.357	0.107
-178.012	162.469	-0.101	-0.140
-176.998	-130.804	0.317	0.042
-175.983	-47.048	0.106	0.051
-174.969	106.423	-0.128	-0.151
-173.954	-39.160	0.083	-0.043
-172.939	254.953	0.095	0.161
-171.925	-200.000	0.013	-0.265
-170.910	479.230	0.082	-0.184
-169.896	42.289	-0.112	0.101
-168.881	-22.052	0.102	-0.061
-167.866	190.947	-0.378	-0.563
-166.852	43.037	-0.451	0.408
-165.837	325.292	0.135	0.256
-164.823	-145.953	-0.288	0.025
-163.808	285.752	0.162	-0.289
-162.793	-163.161	0.259	0.012
-161.779	-200.000	-0.001	0.123
-160.764	-14.798	0.078	-0.050
-159.750	233.949	0.109	-0.178
-158.735	179.099	-0.096	0.139
-157.720	-25.847	0.308	0.180
-156.706	800.000	-0.084	0.305
-155.691	800.000	0.103	0.371
-154.677	-5.185	-0.102	-0.069
-153.662	-148.236	-0.270	-0.022
-152.647	800.000	-0.087	0.322
-151.633	-12.570	0.280	0.181
-150.618	-200.000	-0.030	-0.246
-149.604	115.096	0.166	0.201
-148.589	-24.493	-0.164	0.097
-147.574	771.555	0.124	0.335
-146.560	800.000	0.052	0.160
-145.545	-93.951	0.201	0.055
-144.531	20.800	0.179	0.144
-143.516	11.998	0.068	-0.052
-142.502	-200.000	-0.074	-0.409
-141.487	-2.966	0.150	-0.103
-140.472	-143.495	-0.084	0.008
-139.458	26.377	-0.174	-0.144
-138.443	800.000	-0.026	-0.074
-137.429	19.220	-0.072	0.057
-136.414	-106.158	-0.161	-0.036
-135.399	-87.740	0.348	0.104
-134.385	100.656	0.237	0.273
-133.370	26.623	0.398	0.330
-132.356	-200.000	-0.035	0.392
-131.341	131.280	0.336	0.427
-130.326	-200.000	-0.009	0.243
-129.312	-200.000	0.011	0.399
-128.297	-35.004	0.221	0.120
-127.283	800.000	0.054	-0.167
-126.268	-200.000	-0.035	-0.323
-125.253	98.490	-0.064	0.073
-124.239	-200.000	-0.027	-0.131
-123.224	800.000	-0.024	0.088
-122.210	-87.025	0.154	-0.046
-121.195	-200.000	-0.010	0.068
-120.180	800.000	-0.066	0.227
