DTS Sentinel unit serial number:	SN413079Multiplexer serial number:	ORYXHardware model number:	OX4-SRSoftware version number:	ORYX F/W v4.00 Oryx Data Collector v3.7.2.0data status	okinstallation	princeton_trtdifferential loss correction	single-endedforward channel	channel 4reverse channel	N/Adate	2019/09/18time	23:29:35forward acquisition time	60.00reverse acquisition time	0.00gamma	496.2192k internal	0.2334k external	0.2334temperature offset calibration	1.0030default loss term (dB/km)	0.3790temperature slope calibration	1.0000multiplexer offset coefficient	1.0000multiplexer slope coefficient	1.0000fibre end	0.00T internal ref (°C)	23.69T ext. ref 1 (°C)	0.76T ext. ref 2 (°C)	16.69length (m)	temperature (°C)	Stokes	anti-Stokes-747.200	158.050	0.120	0.167
-746.185	-27.135	0.069	0.040
-745.171	-62.987	-0.282	0.117
-744.156	26.243	-0.288	0.242
-743.142	-163.015	-0.220	0.011
-742.127	-73.633	-0.326	0.119
-741.112	-200.000	0.037	0.387
-740.098	-9.069	-0.165	0.111
-739.083	255.988	-0.126	-0.217
-738.069	800.000	-0.075	0.223
-737.054	-133.297	-0.066	0.008
-736.039	-32.995	0.063	0.035
-735.025	-200.000	-0.020	0.426
-734.010	248.282	-0.258	-0.439
-732.996	-42.417	-0.188	0.096
-731.981	-155.187	-0.114	0.007
-730.966	-63.810	-0.216	-0.089
-729.952	20.374	0.138	0.112
-728.937	-113.113	0.304	0.060
-727.923	63.004	-0.144	0.145
-726.908	-200.000	-0.002	0.099
-725.894	149.714	-0.103	0.140
-724.879	-124.726	0.152	-0.024
-723.864	-104.917	-0.067	0.015
-722.850	800.000	0.072	0.280
-721.835	800.000	-0.144	0.408
-720.821	800.000	-0.083	-0.310
-719.806	44.060	0.222	-0.204
-718.791	2.629	0.061	0.045
-717.777	18.564	-0.008	0.006
-716.762	-52.464	0.182	0.084
-715.748	800.000	-0.081	-0.355
-714.733	-122.742	-0.376	-0.061
-713.718	-200.000	0.035	-0.175
-712.704	-200.000	-0.051	-0.228
-711.689	-109.817	0.121	0.025
-710.675	-87.279	-0.104	0.032
-709.660	-68.225	-0.587	0.229
-708.645	302.785	0.132	-0.244
-707.631	-200.000	0.028	0.122
-706.616	23.478	-0.128	0.106
-705.602	-82.444	0.164	-0.053
-704.587	-11.772	-0.410	0.270
-703.572	365.820	-0.077	0.157
-702.558	-73.840	-0.349	-0.127
-701.543	-200.000	-0.038	0.170
-700.529	19.307	0.338	-0.272
-699.514	-84.539	-0.349	-0.111
-698.499	254.833	-0.031	0.053
-697.485	-48.406	-0.202	-0.098
-696.470	13.747	0.128	0.100
-695.456	-200.000	0.018	0.123
-694.441	-62.927	0.134	-0.055
-693.426	-15.909	-0.208	-0.133
-692.412	55.893	0.132	0.129
-691.397	-45.592	-0.106	0.053
-690.383	57.036	0.102	0.100
-689.368	403.279	-0.048	-0.102
-688.354	800.000	-0.140	-0.412
-687.339	615.747	0.063	-0.159
-686.324	-39.094	-0.329	0.174
-685.310	-0.718	0.118	0.084
-684.295	185.229	-0.087	0.130
-683.281	220.584	0.201	-0.324
-682.266	-200.000	-0.054	-0.262
-681.251	-101.873	-0.198	-0.048
-680.237	-92.267	-0.302	0.086
-679.222	48.139	-0.374	0.351
-678.208	-200.000	-0.006	0.236
-677.193	234.823	-0.111	0.183
-676.178	163.223	0.149	0.210
-675.164	440.343	0.079	-0.172
-674.149	-80.737	0.026	0.009
-673.135	-200.000	0.030	-0.337
-672.120	391.293	0.125	-0.260
-671.105	380.399	-0.172	-0.353
-670.091	-131.617	-0.085	0.011
-669.076	-147.481	0.082	-0.007
-668.062	800.000	0.079	0.297
-667.047	154.545	-0.213	0.292
-666.032	-155.290	0.073	0.005
-665.018	-25.082	-0.111	0.066
-664.003	-200.000	0.000	0.447
-662.989	16.232	-0.317	0.251
-661.974	800.000	-0.096	0.332
-660.959	-200.000	0.007	-0.167
-659.945	-77.452	0.198	-0.069
-658.930	-66.564	-0.191	-0.076
-657.916	-90.872	0.121	-0.035
-656.901	-143.067	-0.177	0.017
-655.886	-62.109	0.112	-0.047
-654.872	-157.047	0.201	-0.012
-653.857	-81.766	0.267	0.088
-652.843	-112.580	0.382	0.076
-651.828	26.684	0.089	-0.074
-650.814	300.180	-0.081	0.149
-649.799	-104.874	-0.281	0.065
-648.784	384.404	0.114	-0.235
-647.770	-200.000	-0.010	0.090
-646.755	470.675	-0.145	-0.325
-645.741	143.402	-0.331	0.442
-644.726	56.259	0.167	0.162
-643.711	-84.979	-0.255	-0.080
-642.697	-189.892	-0.215	0.002
-641.682	-200.000	0.003	0.250
-640.668	-24.310	-0.201	-0.120
-639.653	28.073	0.116	-0.098
-638.638	121.194	0.159	-0.198
-637.624	-200.000	-0.036	0.481
-636.609	-107.442	-0.169	-0.037
-635.595	191.074	-0.181	0.272
-634.580	139.289	0.078	0.103
-633.565	120.266	-0.242	0.301
-632.551	-115.367	0.198	-0.037
-631.536	800.000	-0.034	-0.136
-630.522	-134.790	0.202	0.025
-629.507	800.000	0.027	-0.103
-628.492	71.982	-0.078	0.081
-627.478	800.000	-0.054	0.183
-626.463	-85.777	-0.179	0.056
-625.449	-200.000	0.025	0.348
-624.434	-6.913	0.390	-0.265
-623.419	800.000	-0.020	0.079
-622.405	-140.310	0.446	0.047
-621.390	800.000	0.026	0.090
-620.376	-200.000	-0.030	-0.212
-619.361	800.000	0.093	-0.358
-618.346	-200.000	-0.016	-0.293
-617.332	432.404	-0.193	-0.418
-616.317	-200.000	0.010	-0.315
-615.303	-133.562	-0.122	-0.015
-614.288	40.057	0.287	0.258
-613.273	-200.000	-0.022	0.258
-612.259	63.633	0.197	0.197
-611.244	-103.882	0.320	-0.075
-610.230	256.399	-0.060	0.103
-609.215	627.219	0.078	-0.198
-608.201	800.000	-0.072	-0.276
-607.186	22.407	0.184	0.150
-606.171	-83.123	-0.162	-0.052
-605.157	-10.756	-0.079	0.052
-604.142	-117.203	-0.111	-0.020
-603.128	-200.000	-0.009	-0.101
-602.113	105.848	-0.010	-0.012
-601.098	-96.619	0.383	-0.101
-600.084	-14.157	-0.115	0.074
-599.069	-200.000	-0.024	-0.341
-598.055	-129.968	0.170	-0.023
-597.040	-200.000	0.003	0.094
-596.025	752.463	0.052	0.140
-595.011	-200.000	-0.030	0.188
-593.996	-200.000	0.015	0.315
-592.982	758.971	0.067	0.181
-591.967	-103.636	0.076	-0.018
-590.952	297.300	0.225	-0.412
-589.938	-200.000	-0.002	0.129
-588.923	-49.304	0.226	0.108
-587.909	-120.597	0.137	0.023
-586.894	-185.973	-0.202	0.003
-585.879	21.008	-0.140	0.114
-584.865	-200.000	0.037	0.275
-583.850	116.814	-0.096	-0.117
-582.836	-200.000	0.015	-0.072
-581.821	800.000	-0.030	0.083
-580.806	91.758	-0.105	-0.118
-579.792	800.000	-0.019	-0.062
-578.777	541.345	0.125	0.296
-577.763	47.348	-0.237	-0.220
-576.748	800.000	0.062	-0.188
-575.733	-56.823	-0.163	0.072
-574.719	8.923	0.119	-0.090
-573.704	366.016	0.013	0.025
-572.690	98.227	0.162	-0.186
-571.675	-99.114	-0.143	-0.036
-570.661	-51.183	0.044	0.021
-569.646	-85.577	-0.092	0.029
-568.631	-153.164	-0.350	-0.024
-567.617	-111.739	-0.329	-0.067
-566.602	-99.383	-0.191	-0.048
-565.588	-62.420	-0.191	-0.079
-564.573	-200.000	-0.037	0.292
-563.558	-18.419	0.118	-0.074
-562.544	-80.557	0.274	-0.091
-561.529	171.805	0.137	0.196
-560.515	127.181	0.304	0.385
-559.500	-21.727	0.033	-0.020
-558.485	-71.737	-0.154	-0.057
-557.471	-27.698	-0.097	0.056
-556.456	-135.197	-0.284	-0.034
-555.442	-200.000	0.037	-0.288
-554.427	800.000	0.067	0.263
-553.412	-163.405	0.329	0.016
-552.398	-200.000	0.091	0.421
-551.383	27.264	-0.104	-0.087
-550.369	409.816	0.034	0.073
-549.354	800.000	0.064	0.180
-548.339	-200.000	0.074	-0.334
-547.325	-200.000	-0.020	-0.119
-546.310	118.360	-0.135	-0.167
-545.296	800.000	0.033	0.116
-544.281	-120.298	0.052	-0.009
-543.266	800.000	-0.036	-0.131
-542.252	-15.474	-0.158	0.101
-541.237	15.897	-0.204	-0.160
-540.223	-87.893	0.365	0.110
-539.208	16.921	-0.119	-0.094
-538.193	-136.299	-0.299	0.035
-537.179	53.592	-0.073	-0.070
-536.164	384.508	-0.120	0.247
-535.150	-132.076	-0.271	0.035
-534.135	445.478	0.198	-0.434
-533.121	-104.064	-0.318	0.074
-532.106	93.288	0.110	-0.124
-531.091	66.375	0.086	-0.087
-530.077	-2.840	-0.068	0.047
-529.062	212.710	-0.097	0.153
-528.048	200.203	0.120	-0.184
-527.033	800.000	-0.052	-0.217
-526.018	124.648	0.181	-0.227
-525.004	-29.827	0.056	0.032
-523.989	218.376	-0.108	-0.171
-522.975	-24.588	0.057	0.034
-521.960	-142.534	-0.416	0.041
-520.945	800.000	0.068	-0.287
-519.931	800.000	-0.088	-0.246
-518.916	121.441	0.070	-0.087
-517.902	-14.130	-0.363	0.233
-516.887	800.000	-0.054	-0.205
-515.872	-89.697	0.164	0.048
-514.858	-4.198	-0.244	0.168
-513.843	243.730	-0.078	0.131
-512.829	42.125	0.041	-0.037
-511.814	454.039	-0.100	0.221
-510.799	20.524	-0.463	0.373
-509.785	9.676	0.307	-0.232
-508.770	-129.695	0.312	-0.043
-507.756	-12.275	-0.207	-0.135
-506.741	800.000	-0.046	-0.134
-505.726	355.549	0.086	0.170
-504.712	-52.896	-0.246	-0.113
-503.697	-82.441	0.344	0.111
-502.683	-110.119	0.145	-0.030
-501.668	-7.377	0.213	-0.144
-500.653	-91.786	0.177	0.050
-499.639	-21.917	0.128	0.077
-498.624	10.668	0.258	0.196
-497.610	-86.797	-0.098	-0.030
-496.595	-143.888	0.222	0.021
-495.581	-144.064	-0.359	0.034
-494.566	800.000	0.008	-0.035
-493.551	289.501	-0.064	-0.116
-492.537	-27.668	-0.063	0.036
-491.522	-92.069	-0.225	-0.063
-490.508	194.640	0.142	0.215
-489.493	-30.540	0.131	-0.074
-488.478	-60.073	0.042	0.018
-487.464	50.521	-0.211	-0.199
-486.449	-106.194	0.313	0.070
-485.435	-200.000	-0.007	-0.062
-484.420	-200.000	-0.000	0.203
-483.405	-110.660	0.520	0.107
-482.391	9.917	-0.108	0.081
-481.376	-90.169	-0.309	-0.089
-480.362	82.234	0.283	0.305
-479.347	-144.192	-0.128	0.012
-478.332	-29.905	-0.191	0.108
-477.318	-28.667	-0.219	0.126
-476.303	452.297	0.122	-0.268
-475.289	-7.324	0.069	-0.046
-474.274	125.831	-0.239	-0.300
-473.259	-58.004	0.348	0.151
-472.245	-79.578	-0.157	0.053
-471.230	-24.265	-0.132	0.079
-470.216	-130.001	0.216	-0.029
-469.201	-137.283	-0.322	-0.036
-468.186	-5.796	0.140	-0.096
-467.172	-200.000	-0.005	0.200
-466.157	381.983	-0.097	0.198
-465.143	-165.352	-0.320	0.014
-464.128	-200.000	0.016	0.211
-463.113	-200.000	-0.001	-0.368
-462.099	518.819	-0.059	0.137
-461.084	-48.938	-0.161	0.077
-460.070	-71.388	0.351	-0.131
-459.055	105.193	0.139	0.163
-458.040	-123.333	-0.500	0.079
-457.026	-136.699	-0.252	0.029
-456.011	4.761	-0.159	-0.116
-454.997	56.913	0.128	0.124
-453.982	-36.644	0.056	0.030
-452.968	-200.000	0.048	0.334
-451.953	321.479	-0.147	-0.278
-450.938	166.926	0.203	-0.286
-449.924	-200.000	-0.005	0.192
-448.909	-135.488	-0.395	-0.047
-447.895	-91.379	-0.234	-0.067
-446.880	-49.628	-0.124	0.059
-445.865	-42.440	-0.194	-0.098
-444.851	-200.000	0.010	0.187
-443.836	-52.137	-0.230	0.106
-442.822	-63.929	0.163	-0.066
-441.807	451.057	0.040	0.088
-440.792	85.877	-0.108	-0.118
-439.778	-8.992	-0.305	-0.203
-438.763	-121.723	0.356	0.058
-437.749	-91.977	-0.257	0.072
-436.734	-40.438	-0.253	-0.130
-435.719	-200.000	0.042	0.346
-434.705	-200.000	0.051	-0.271
-433.690	-200.000	0.002	-0.133
-432.676	-94.791	-0.234	-0.063
-431.661	-200.000	-0.071	0.323
-430.646	-73.154	-0.281	0.102
-429.632	800.000	-0.009	-0.025
-428.617	18.445	0.287	-0.228
-427.603	325.193	-0.195	-0.370
-426.588	-18.522	-0.242	0.150
-425.573	-5.825	0.188	-0.128
-424.559	-111.185	-0.177	-0.036
-423.544	21.426	-0.158	0.127
-422.530	-200.000	-0.078	-0.346
-421.515	800.000	-0.033	0.130
-420.500	17.467	-0.163	0.129
-419.486	68.348	0.055	0.056
-418.471	-136.517	0.459	-0.053
-417.457	-43.694	-0.168	-0.084
-416.442	11.479	0.160	-0.122
-415.428	70.423	0.147	-0.151
-414.413	-72.804	-0.214	-0.078
-413.398	-200.000	0.010	-0.162
-412.384	150.269	-0.060	-0.081
-411.369	-200.000	-0.008	-0.134
-410.355	-120.875	0.363	-0.061
-409.340	233.261	0.174	-0.283
-408.325	-149.379	-0.043	0.003
-407.311	-200.000	-0.007	0.280
-406.296	299.262	0.019	0.035
-405.282	83.992	-0.107	-0.116
-404.267	800.000	-0.039	0.121
-403.252	-58.022	-0.127	0.055
-402.238	800.000	-0.043	-0.130
-401.223	-176.649	0.219	0.006
-400.209	-83.958	0.107	-0.034
-399.194	-83.381	-0.079	0.025
-398.179	-116.193	-0.263	0.048
-397.165	23.673	-0.200	-0.163
-396.150	573.924	-0.130	-0.315
-395.136	12.544	-0.160	0.122
-394.121	705.485	-0.118	-0.310
-393.106	119.852	0.026	-0.031
-392.092	-77.254	0.038	0.013
-391.077	-127.253	0.152	-0.022
-390.063	90.643	0.110	-0.122
-389.048	133.447	0.162	0.208
-388.033	202.241	0.084	0.129
-387.019	-83.149	0.196	-0.062
-386.004	800.000	-0.051	0.142
-384.990	-47.321	-0.117	-0.056
-383.975	59.348	0.064	0.063
-382.960	-174.772	-0.341	0.010
-381.946	-200.000	-0.008	-0.047
-380.931	-200.000	-0.024	0.331
-379.917	-36.363	0.208	-0.111
-378.902	107.381	-0.307	-0.362
-377.888	102.952	0.087	-0.102
-376.873	-200.000	-0.038	0.427
-375.858	130.253	0.179	0.228
-374.844	-200.000	-0.070	-0.435
-373.829	-42.935	-0.169	0.085
-372.815	-200.000	-0.007	-0.032
-371.800	-114.544	-0.360	0.068
-370.785	-55.298	0.422	0.188
-369.771	800.000	-0.029	-0.123
-368.756	369.511	-0.138	0.277
-367.742	39.377	0.221	0.196
-366.727	-99.861	-0.238	0.059
-365.712	88.324	0.248	-0.273
-364.698	157.554	0.152	0.208
-363.683	389.764	0.120	0.246
-362.669	-55.847	0.237	0.105
-361.654	375.887	-0.103	0.209
-360.639	-70.377	0.287	0.108
-359.625	-163.374	-0.195	0.009
-358.610	-29.668	0.166	0.094
-357.596	44.793	0.100	0.091
-356.581	748.606	-0.065	-0.175
-355.566	597.923	-0.106	0.261
-354.552	-200.000	0.043	0.271
-353.537	-176.706	-0.388	0.010
-352.523	800.000	-0.043	-0.143
-351.508	695.209	0.147	0.381
-350.493	-94.360	-0.149	-0.040
-349.479	42.330	-0.239	-0.215
-348.464	63.582	-0.325	0.323
-347.450	66.821	0.254	0.256
-346.435	120.763	0.095	-0.117
-345.420	-97.086	0.228	-0.059
-344.406	-200.000	0.059	0.316
-343.391	800.000	-0.011	-0.034
-342.377	322.811	0.103	-0.195
-341.362	-25.308	0.268	-0.157
-340.348	361.757	-0.029	-0.057
-339.333	800.000	0.095	0.354
-338.318	463.351	0.134	0.297
-337.304	-107.166	0.184	-0.040
-336.289	-116.127	0.265	-0.049
-335.275	-57.840	0.030	0.013
-334.260	-139.877	-0.090	0.009
-333.245	118.870	-0.165	0.202
-332.231	98.261	-0.151	0.172
-331.216	6.079	0.303	-0.222
-330.202	800.000	-0.104	-0.300
-329.187	-200.000	0.006	0.227
-328.172	225.792	-0.188	-0.302
-327.158	189.548	0.175	-0.260
-326.143	-50.272	0.377	-0.176
-325.129	-200.000	-0.020	0.252
-324.114	13.964	-0.124	-0.096
-323.099	114.138	-0.047	-0.057
-322.085	-200.000	-0.006	0.195
-321.070	-42.441	0.140	0.071
-320.056	344.520	0.081	0.157
-319.041	115.692	-0.248	-0.300
-318.026	581.708	-0.032	-0.078
-317.012	-97.470	0.262	-0.067
-315.997	129.339	0.290	0.367
-314.983	-58.489	0.120	-0.051
-313.968	-200.000	-0.028	-0.305
-312.953	-92.649	-0.441	-0.122
-311.939	-46.446	0.247	0.120
-310.924	-158.075	-0.192	-0.011
-309.910	-32.181	-0.122	0.067
-308.895	-59.274	0.165	0.070
-307.880	7.999	0.068	-0.050
-306.866	93.187	0.157	0.175
-305.851	76.410	0.023	-0.025
-304.837	40.948	-0.197	-0.176
-303.822	-82.431	-0.146	0.047
-302.807	301.885	-0.147	-0.269
-301.793	800.000	0.099	0.400
-300.778	-200.000	-0.034	0.203
-299.764	176.917	0.204	0.292
-298.749	486.420	-0.180	0.404
-297.735	154.943	-0.133	0.181
-296.720	76.909	-0.034	-0.036
-295.705	52.560	0.104	0.098
-294.691	-91.833	0.291	0.082
-293.676	340.139	0.145	-0.280
-292.662	-79.560	0.268	-0.089
-291.647	559.557	-0.049	0.117
-290.632	-26.951	-0.212	-0.122
-289.618	-10.780	0.338	0.221
-288.603	-82.746	0.388	-0.124
-287.589	800.000	-0.051	-0.196
-286.574	58.941	-0.105	-0.102
-285.559	101.396	0.068	0.078
-284.545	-125.315	-0.182	0.027
-283.530	-73.719	0.155	0.056
-282.516	-45.528	-0.063	0.031
-281.501	800.000	0.133	-0.499
-280.486	494.316	0.123	-0.279
-279.472	-200.000	-0.020	-0.394
-278.457	18.885	-0.391	-0.309
-277.443	-200.000	-0.035	-0.258
-276.428	-172.968	-0.636	-0.019
-275.413	800.000	-0.090	-0.272
-274.399	56.883	-0.129	0.124
-273.384	82.802	0.041	0.044
-272.370	166.099	-0.100	-0.140
-271.355	708.462	0.160	0.417
-270.340	-200.000	0.085	0.378
-269.326	-200.000	-0.091	0.000
-268.311	-110.036	-0.149	0.031
-267.297	261.797	-0.122	-0.208
-266.282	2.703	0.183	0.131
-265.267	60.734	0.313	0.306
-264.253	185.333	0.166	0.244
-263.238	-52.638	-0.294	0.134
-262.224	-200.000	0.337	0.001
-261.209	6.087	0.060	0.044
-260.195	27.183	-0.239	-0.198
-259.180	-166.042	-0.054	0.002
-258.165	59.002	-0.063	-0.061
-257.151	401.433	-0.046	0.095
-256.136	-200.000	0.020	-0.294
-255.122	533.602	0.023	0.054
-254.107	10.619	0.132	0.099
-253.092	-88.098	0.170	-0.050
-252.078	77.650	-0.105	0.111
-251.063	288.120	0.009	-0.016
-250.049	-11.009	0.348	0.226
-249.034	624.494	-0.172	0.427
-248.019	73.285	0.045	-0.047
-247.005	-132.251	0.401	-0.051
-245.990	-200.000	-0.012	-0.097
-244.976	48.877	0.102	0.095
-243.961	555.734	0.059	-0.139
-242.946	-200.000	-0.002	-0.141
-241.932	-149.944	-0.145	-0.011
-240.917	-200.000	-0.073	-0.341
-239.903	91.684	0.200	-0.221
-238.888	344.960	0.072	-0.140
-237.873	-9.251	-0.105	0.069
-236.859	542.547	0.194	-0.456
-235.844	381.751	-0.118	0.238
-234.830	-29.546	-0.089	0.050
-233.815	-98.673	0.246	0.062
-232.800	-119.992	-0.264	0.045
-231.786	66.221	0.282	-0.282
-230.771	-86.328	0.304	0.092
-229.757	187.289	0.050	0.074
-228.742	-97.752	0.046	-0.012
-227.727	-122.529	-0.233	0.037
-226.713	-200.000	-0.236	0.000
-225.698	33.824	-0.117	-0.100
-224.684	92.722	-0.116	0.129
-223.669	-90.021	-0.058	-0.017
-222.655	-177.529	0.163	0.004
-221.640	-200.000	-0.033	0.256
-220.625	55.471	-0.023	-0.022
-219.611	-75.544	0.041	0.014
-218.596	800.000	0.058	0.167
-217.582	-200.000	-0.002	0.153
-216.567	-200.000	-0.048	0.301
-215.552	139.143	0.256	-0.331
-214.538	150.226	0.217	-0.291
-213.523	-85.675	-0.149	-0.045
-212.509	-200.000	-0.002	0.280
-211.494	-200.000	0.011	0.092
-210.479	-82.799	-0.334	0.106
-209.465	-176.123	0.274	-0.007
-208.450	800.000	0.042	0.165
-207.436	96.796	-0.170	0.192
-206.421	60.906	-0.165	-0.161
-205.406	-83.839	0.399	-0.125
-204.392	47.391	-0.270	-0.248
-203.377	578.707	0.140	-0.338
-202.363	206.563	-0.102	-0.156
-201.348	-42.591	0.260	0.130
-200.333	458.919	-0.030	0.065
-199.319	-200.000	0.046	-0.218
-198.304	502.809	0.088	-0.201
-197.290	18.880	-0.141	0.111
-196.275	-108.568	-0.191	0.040
-195.260	-86.546	0.341	-0.103
-194.246	99.155	-0.166	0.188
-193.231	-83.467	-0.181	-0.057
-192.217	-47.878	0.225	-0.107
-191.202	-84.976	-0.475	-0.147
-190.187	800.000	0.085	0.316
-189.173	162.544	0.204	0.281
-188.158	-28.571	0.363	0.206
-187.144	-151.954	0.132	0.010
-186.129	-200.000	-0.029	-0.214
-185.114	-129.171	0.238	0.033
-184.100	-102.487	0.253	0.060
-183.085	-83.844	0.324	-0.102
-182.071	-13.256	-0.177	0.113
-181.056	-4.686	0.224	0.152
-180.042	149.174	-0.127	-0.170
-179.027	-200.000	-0.024	-0.384
-178.012	-72.102	0.299	-0.109
-176.998	-60.774	0.112	0.047
-175.983	800.000	-0.049	-0.195
-174.969	-24.093	-0.273	-0.160
-173.954	800.000	-0.092	0.267
-172.939	258.774	0.052	-0.088
-171.925	-56.286	-0.134	-0.058
-170.910	-20.213	-0.220	-0.133
-169.896	547.789	-0.062	0.146
-168.881	-200.000	0.034	0.183
-167.866	-153.237	-0.254	-0.017
-166.852	-162.263	-0.336	-0.016
-165.837	161.623	0.105	-0.145
-164.823	-69.880	0.367	-0.137
-163.808	610.102	0.105	0.257
-162.793	-200.000	0.002	0.209
-161.779	401.892	-0.181	-0.373
-160.764	-71.839	0.330	-0.121
-159.750	-130.366	0.159	-0.021
-158.735	51.946	0.256	-0.240
-157.720	-94.352	0.258	-0.069
-156.706	-62.103	-0.189	-0.077
-155.691	-200.000	-0.016	0.132
-154.677	-200.000	-0.031	0.258
-153.662	41.554	0.219	-0.195
-152.647	-115.588	-0.353	-0.065
-151.633	79.732	0.099	-0.104
-150.618	-43.242	-0.290	0.144
-149.604	-100.846	0.029	0.007
-148.589	-91.025	0.090	-0.026
-147.574	111.484	-0.180	0.213
-146.560	13.758	-0.197	0.150
-145.545	-200.000	-0.014	0.078
-144.531	-52.402	0.204	-0.093
-143.516	-125.946	0.424	0.063
-142.502	294.103	-0.167	-0.300
-141.487	-30.650	-0.133	-0.074
-140.472	800.000	0.078	-0.295
-139.458	-198.827	-0.208	-0.001
-138.443	800.000	-0.022	-0.076
-137.429	-74.608	0.240	-0.085
-136.414	-168.674	0.279	-0.010
-135.399	206.966	0.058	0.089
-134.385	61.129	0.177	-0.173
-133.370	-140.196	-0.174	0.018
-132.356	-13.200	0.185	0.118
-131.341	106.466	0.181	0.211
-130.326	800.000	-0.024	-0.098
-129.312	155.485	-0.104	0.140
-128.297	223.257	-0.131	0.208
-127.283	12.700	0.225	0.170
-126.268	204.762	0.017	0.026
-125.253	651.172	-0.119	0.298
-124.239	-12.985	0.243	-0.155
-123.224	-37.053	-0.161	-0.085
-122.210	92.184	-0.087	0.096
-121.195	25.042	0.035	-0.028
