DTS Sentinel unit serial number:	SN413079Multiplexer serial number:	ORYXHardware model number:	OX4-SRSoftware version number:	ORYX F/W v4.00 Oryx Data Collector v3.7.2.0data status	okinstallation	princeton_trtdifferential loss correction	single-endedforward channel	channel 4reverse channel	N/Adate	2019/09/19time	08:57:35forward acquisition time	60.00reverse acquisition time	0.00gamma	496.2192k internal	0.2339k external	0.2339temperature offset calibration	1.0018default loss term (dB/km)	0.3790temperature slope calibration	1.0000multiplexer offset coefficient	1.0000multiplexer slope coefficient	1.0000fibre end	0.00T internal ref (°C)	21.39T ext. ref 1 (°C)	0.59T ext. ref 2 (°C)	17.47length (m)	temperature (°C)	Stokes	anti-Stokes-747.200	-200.000	0.056	-0.499
-746.185	289.751	-0.069	0.126
-745.171	-52.205	0.189	0.088
-744.156	-106.373	-0.231	-0.052
-743.142	544.573	0.010	-0.023
-742.127	179.540	-0.235	0.345
-741.112	97.394	-0.099	-0.113
-740.098	242.377	-0.126	-0.211
-739.083	87.819	0.117	0.130
-738.069	2.934	-0.023	-0.017
-737.054	-103.573	-0.055	0.013
-736.039	-153.700	-0.238	0.016
-735.025	-200.000	-0.012	-0.088
-734.010	-101.578	-0.070	0.017
-732.996	-200.000	-0.012	-0.124
-731.981	-126.104	0.204	-0.031
-730.966	-200.000	-0.002	-0.169
-729.952	-65.210	-0.084	-0.034
-728.937	188.032	-0.046	-0.069
-727.923	-77.934	-0.423	-0.146
-726.908	-106.372	-0.128	-0.029
-725.894	634.250	0.111	-0.283
-724.879	347.546	-0.196	0.386
-723.864	-200.000	-0.011	-0.192
-722.850	-200.000	-0.033	-0.242
-721.835	800.000	-0.039	-0.140
-720.821	86.247	-0.241	-0.266
-719.806	262.334	-0.037	0.064
-718.791	-200.000	0.012	0.080
-717.777	-22.486	-0.015	0.009
-716.762	800.000	-0.085	0.271
-715.748	16.530	0.105	0.083
-714.733	19.635	0.077	0.062
-713.718	68.892	-0.079	0.081
-712.704	800.000	0.126	-0.444
-711.689	72.361	0.167	-0.174
-710.675	463.259	-0.028	0.064
-709.660	-200.000	0.003	-0.289
-708.645	800.000	-0.019	-0.056
-707.631	-64.841	0.241	0.098
-706.616	158.311	0.157	-0.218
-705.602	-200.000	-0.011	0.160
-704.587	-171.624	0.051	0.002
-703.572	-64.662	0.236	0.096
-702.558	-157.333	-0.276	0.017
-701.543	-137.101	-0.094	0.011
-700.529	800.000	-0.018	-0.067
-699.514	-128.403	0.066	-0.009
-698.499	85.944	-0.049	0.054
-697.485	-61.257	0.203	0.086
-696.470	-200.000	0.028	0.204
-695.456	-49.585	0.118	0.056
-694.441	-28.962	0.102	-0.059
-693.426	-200.000	0.007	-0.054
-692.412	88.964	-0.217	-0.241
-691.397	-200.000	0.008	0.125
-690.383	-174.611	-0.175	-0.005
-689.368	-60.159	-0.156	0.067
-688.354	200.112	0.062	-0.095
-687.339	466.030	-0.092	0.207
-686.324	123.984	-0.094	0.118
-685.310	122.951	-0.206	0.258
-684.295	-200.000	-0.035	0.180
-683.281	-139.781	-0.213	0.023
-682.266	0.250	-0.250	-0.178
-681.251	-64.099	0.122	-0.050
-680.237	-90.325	-0.458	-0.133
-679.222	-95.269	-0.193	0.052
-678.208	164.735	-0.180	-0.254
-677.193	-200.000	-0.037	-0.276
-676.178	204.803	0.116	-0.180
-675.164	-200.000	0.065	-0.306
-674.149	-200.000	-0.077	-0.423
-673.135	107.563	0.176	0.210
-672.120	-34.552	-0.335	-0.183
-671.105	-173.504	-0.214	-0.006
-670.091	31.083	-0.223	-0.191
-669.076	-12.438	0.239	-0.156
-668.062	-113.383	-0.080	0.016
-667.047	37.607	0.063	0.056
-666.032	-108.789	0.243	-0.052
-665.018	800.000	0.093	-0.275
-664.003	-123.194	-0.027	-0.004
-662.989	-167.068	-0.151	-0.006
-661.974	658.273	-0.040	-0.103
-660.959	-21.691	-0.203	-0.124
-659.945	-124.046	-0.176	-0.028
-658.930	-200.000	0.012	-0.138
-657.916	-83.168	0.281	-0.090
-656.901	54.801	-0.040	0.039
-655.886	-65.601	0.199	-0.080
-654.872	123.855	0.039	0.049
-653.857	45.966	0.219	-0.202
-652.843	800.000	0.123	-0.355
-651.828	428.744	-0.189	-0.409
-650.814	800.000	-0.123	0.343
-649.799	-75.843	-0.273	-0.097
-648.784	-55.208	-0.196	0.088
-647.770	-6.758	0.292	-0.198
-646.755	800.000	0.034	-0.128
-645.741	92.162	-0.210	0.236
-644.726	-200.000	0.005	-0.152
-643.711	120.275	-0.188	-0.233
-642.697	-93.624	-0.357	-0.098
-641.682	44.707	0.116	-0.107
-640.668	202.640	-0.117	-0.181
-639.653	9.778	0.200	0.152
-638.638	123.677	0.024	-0.030
-637.624	138.586	0.056	-0.073
-636.609	572.509	0.157	0.383
-635.595	12.807	-0.103	0.080
-634.580	-31.938	0.244	0.136
-633.565	800.000	0.029	0.097
-632.551	45.847	0.293	-0.270
-631.536	-95.723	-0.025	0.007
-630.522	166.223	0.057	-0.081
-629.507	-89.566	0.181	0.053
-628.492	-17.107	0.030	-0.019
-627.478	-106.526	-0.089	0.020
-626.463	-200.000	0.064	-0.311
-625.449	-34.755	-0.193	0.105
-624.434	-200.000	-0.003	-0.228
-623.419	-200.000	0.056	-0.388
-622.405	233.819	-0.108	-0.178
-621.390	282.703	-0.289	0.517
-620.376	-200.000	0.008	-0.217
-619.361	96.317	-0.158	-0.180
-618.346	-144.487	0.198	0.018
-617.332	32.220	-0.042	0.036
-616.317	250.436	0.167	0.284
-615.303	119.289	-0.119	0.147
-614.288	-200.000	-0.060	0.282
-613.273	-200.000	-0.006	0.058
-612.259	31.536	-0.203	-0.174
-611.244	-44.605	0.215	-0.107
-610.230	-200.000	-0.054	-0.331
-609.215	171.234	0.149	0.213
-608.201	237.708	0.013	0.022
-607.186	800.000	-0.011	-0.044
-606.171	-146.324	0.059	0.005
-605.157	14.804	-0.024	-0.019
-604.142	89.106	-0.130	-0.145
-603.128	-200.000	0.007	-0.154
-602.113	-65.145	0.408	-0.164
-601.098	-132.613	-0.162	0.021
-600.084	218.227	-0.156	0.248
-599.069	459.666	0.077	0.170
-598.055	-137.237	-0.107	-0.012
-597.040	26.047	0.017	-0.014
-596.025	-145.592	-0.227	0.020
-595.011	144.899	-0.166	-0.221
-593.996	106.971	0.052	-0.062
-592.982	-200.000	-0.020	-0.315
-591.967	217.779	-0.155	-0.247
-590.952	193.214	-0.074	-0.111
-589.938	-23.536	-0.188	0.112
-588.923	12.668	-0.150	-0.115
-587.909	-60.170	-0.139	0.059
-586.894	-200.000	-0.012	-0.369
-585.879	-127.987	-0.253	-0.036
-584.865	-14.595	-0.209	0.134
-583.850	699.700	0.134	0.352
-582.836	-118.274	-0.144	0.026
-581.821	-34.944	-0.251	-0.137
-580.806	256.342	0.064	-0.109
-579.792	-200.000	-0.016	-0.099
-578.777	688.176	-0.058	0.152
-577.763	43.489	0.258	0.235
-576.748	-21.873	-0.045	0.027
-575.733	-80.238	0.210	-0.070
-574.719	-36.389	0.017	0.009
-573.704	148.705	0.184	0.248
-572.690	93.985	0.232	0.262
-571.675	80.638	-0.103	-0.111
-570.661	524.138	0.077	0.182
-569.646	6.970	-0.120	0.089
-568.631	-200.000	-0.006	-0.183
-567.617	-16.584	-0.352	0.222
-566.602	-8.689	0.208	0.139
-565.588	-126.239	0.172	-0.026
-564.573	-200.000	0.057	-0.252
-563.558	-43.087	-0.149	-0.075
-562.544	110.869	0.274	0.329
-561.529	-111.683	-0.234	-0.047
-560.515	800.000	-0.050	0.175
-559.500	-105.863	-0.028	-0.006
-558.485	22.003	-0.261	0.212
-557.471	-200.000	-0.021	0.369
-556.456	-16.188	-0.232	-0.147
-555.442	-61.122	0.316	-0.133
-554.427	4.677	-0.227	-0.166
-553.412	-59.286	0.164	-0.070
-552.398	421.767	0.084	-0.180
-551.383	62.650	-0.145	0.145
-550.369	-200.000	-0.007	0.266
-549.354	-200.000	0.050	-0.323
-548.339	130.207	0.238	0.304
-547.325	34.101	-0.137	0.119
-546.310	-200.000	0.100	-0.574
-545.296	800.000	0.175	-0.629
-544.281	584.292	0.090	0.221
-543.266	-149.550	-0.193	-0.015
-542.252	-16.964	0.057	0.036
-541.237	-132.176	-0.163	-0.021
-540.223	-175.438	0.080	-0.002
-539.208	65.092	0.122	-0.123
-538.193	-109.336	0.140	-0.029
-537.179	-19.898	0.150	-0.092
-536.164	259.582	-0.099	0.169
-535.150	268.559	-0.083	-0.144
-534.135	-95.896	0.120	0.032
-533.121	-12.017	0.232	-0.151
-532.106	-97.751	0.175	0.045
-531.091	-22.757	-0.124	0.075
-530.077	-10.620	-0.220	0.145
-529.062	22.991	-0.121	-0.099
-528.048	503.036	0.149	0.343
-527.033	221.237	-0.048	-0.076
-526.018	1.351	-0.220	0.157
-525.004	-106.962	-0.181	-0.040
-523.989	800.000	0.085	0.358
-522.975	-27.051	-0.310	-0.180
-521.960	62.963	0.083	-0.083
-520.945	-32.569	0.165	-0.091
-519.931	-107.188	0.352	0.077
-518.916	310.347	0.125	0.232
-517.902	-61.716	-0.186	0.077
-516.887	-200.000	-0.038	0.238
-515.872	-200.000	0.037	0.225
-514.858	-55.330	-0.127	0.057
-513.843	5.094	0.230	0.169
-512.829	251.379	0.010	0.017
-511.814	-200.000	-0.013	-0.256
-510.799	-161.630	-0.156	-0.008
-509.785	68.275	-0.259	-0.264
-508.770	75.199	-0.134	-0.141
-507.756	-33.939	0.105	0.057
-506.741	347.473	-0.048	0.094
-505.726	-124.433	-0.275	0.043
-504.712	546.539	0.130	0.309
-503.697	-9.210	-0.171	-0.114
-502.683	-200.000	-0.002	0.072
-501.668	-122.292	-0.152	0.025
-500.653	107.602	0.038	0.045
-499.639	-55.511	0.100	-0.045
-498.624	104.033	-0.145	0.170
-497.610	-38.588	0.339	0.178
-496.595	92.989	0.265	0.297
-495.581	-200.000	0.028	0.147
-494.566	800.000	-0.048	-0.138
-493.551	-99.593	0.114	-0.028
-492.537	-57.858	-0.210	0.091
-491.522	-7.214	-0.045	-0.030
-490.508	-88.987	0.607	0.179
-489.493	-200.000	-0.021	-0.124
-488.478	297.287	-0.062	-0.113
-487.464	800.000	0.081	0.337
-486.449	76.348	-0.098	0.103
-485.435	562.870	0.111	0.268
-484.420	-27.460	0.234	-0.135
-483.405	157.029	0.243	-0.334
-482.391	513.083	0.153	-0.354
-481.376	-102.165	-0.235	0.056
-480.362	-179.157	0.499	0.011
-479.347	97.729	-0.096	-0.110
-478.332	-133.750	-0.092	-0.011
-477.318	-200.000	0.015	0.115
-476.303	392.486	0.053	0.108
-475.289	800.000	-0.056	0.162
-474.274	-76.226	-0.289	-0.101
-473.259	482.013	-0.038	0.086
-472.245	-64.380	0.201	-0.081
-471.230	-33.224	-0.015	0.008
-470.216	-153.998	0.192	-0.013
-469.201	-24.035	-0.068	-0.040
-468.186	27.157	-0.173	-0.144
-467.172	768.504	-0.078	-0.210
-466.157	71.643	0.122	-0.126
-465.143	-149.296	-0.087	0.007
-464.128	-200.000	0.105	-0.565
-463.113	-67.283	-0.026	-0.010
-462.099	-184.106	-0.023	0.000
-461.084	216.534	-0.042	-0.066
-460.070	-88.610	0.238	-0.070
-459.055	96.408	-0.042	0.048
-458.040	9.742	-0.259	-0.195
-457.026	-98.698	-0.391	-0.099
-456.011	126.637	-0.075	-0.094
-454.997	-67.517	-0.349	0.136
-453.982	571.761	0.048	-0.116
-452.968	453.247	-0.042	-0.092
-451.953	698.598	0.138	0.360
-450.938	115.617	-0.035	-0.043
-449.924	-200.000	0.228	-0.001
-448.909	-163.910	0.473	0.022
-447.895	30.854	-0.169	-0.144
-446.880	-79.657	0.191	0.064
-445.865	-148.195	0.182	-0.015
-444.851	-39.619	0.139	0.072
-443.836	800.000	0.009	0.040
-442.822	475.578	0.104	-0.233
-441.807	584.415	0.039	-0.094
-440.792	-5.723	0.157	0.106
-439.778	-119.256	0.146	-0.025
-438.763	-72.746	-0.406	-0.148
-437.749	6.853	-0.202	-0.149
-436.734	256.271	-0.101	-0.172
-435.719	44.751	-0.181	-0.165
-434.705	-85.526	0.294	0.091
-433.690	641.321	-0.076	-0.193
-432.676	800.000	-0.043	0.175
-431.661	-200.000	-0.029	0.140
-430.646	-171.837	-0.235	0.008
-429.632	37.396	-0.175	0.154
-428.617	-31.475	0.192	-0.107
-427.603	13.709	-0.477	0.368
-426.588	800.000	-0.115	0.334
-425.573	-200.000	0.002	-0.154
-424.559	218.710	0.191	0.302
-423.544	252.315	-0.051	0.086
-422.530	-200.000	-0.002	0.172
-421.515	437.704	0.095	0.204
-420.500	213.512	0.062	-0.097
-419.486	-1.530	-0.370	0.259
-418.471	99.306	0.141	-0.161
-417.457	109.012	-0.386	-0.458
-416.442	-76.512	0.349	0.121
-415.428	-14.106	-0.133	0.085
-414.413	-68.746	-0.067	-0.026
-413.398	-200.000	-0.016	0.394
-412.384	-200.000	-0.030	-0.154
-411.369	-39.953	0.156	-0.081
-410.355	369.168	0.164	0.328
-409.340	130.193	0.088	-0.112
-408.325	360.011	-0.088	-0.174
-407.311	-103.175	0.341	0.080
-406.296	800.000	0.080	0.348
-405.282	-93.092	-0.290	0.080
-404.267	29.137	-0.123	-0.103
-403.252	-200.000	0.022	-0.110
-402.238	-160.121	-0.256	-0.014
-401.223	159.728	0.033	0.045
-400.209	-33.216	-0.070	0.039
-399.194	37.916	0.209	0.184
-398.179	59.279	-0.119	-0.116
-397.165	-46.927	-0.091	-0.044
-396.150	-58.497	0.215	-0.092
-395.136	-200.000	0.000	-0.155
-394.121	744.273	-0.023	-0.061
-393.106	270.769	-0.061	-0.106
-392.092	-61.758	-0.144	-0.060
-391.077	-111.545	-0.248	0.050
-390.063	70.990	-0.005	-0.005
-389.048	-200.000	0.037	0.203
-388.033	-55.984	0.168	0.074
-387.019	-73.746	-0.323	-0.116
-386.004	121.156	-0.085	-0.105
-384.990	277.408	0.193	-0.340
-383.975	-57.077	0.245	-0.107
-382.960	3.371	-0.134	0.097
-381.946	671.150	-0.118	-0.302
-380.931	367.565	0.143	-0.286
-379.917	136.593	0.125	-0.162
-378.902	-200.000	0.013	-0.342
-377.888	66.332	-0.145	0.146
-376.873	0.063	0.186	0.131
-375.858	-200.000	0.043	0.357
-374.844	-33.246	-0.262	0.143
-373.829	800.000	-0.048	-0.170
-372.815	146.681	-0.144	-0.192
-371.800	-123.384	-0.134	0.021
-370.785	800.000	-0.068	0.281
-369.771	-168.000	0.202	-0.008
-368.756	-63.036	-0.148	0.060
-367.742	-70.413	0.232	-0.087
-366.727	229.236	-0.134	0.217
-365.712	-161.346	0.340	0.017
-364.698	-132.190	-0.100	0.013
-363.683	-189.803	0.088	-0.001
-362.669	-123.307	0.270	-0.043
-361.654	-50.853	0.130	-0.060
-360.639	-80.410	0.338	-0.112
-359.625	-151.386	-0.215	-0.016
-358.610	23.719	-0.256	-0.208
-357.596	39.259	0.321	-0.284
-356.581	-80.305	-0.156	0.052
-355.566	800.000	-0.139	-0.382
-354.552	-15.667	0.352	0.222
-353.537	800.000	-0.093	0.316
-352.523	551.672	-0.102	0.241
-351.508	136.680	0.202	-0.260
-350.493	800.000	-0.127	-0.361
-349.479	94.534	-0.192	-0.216
-348.464	156.593	0.203	0.277
-347.450	-36.010	-0.154	-0.082
-346.435	13.447	0.154	0.118
-345.420	416.168	0.148	0.311
-344.406	-163.293	0.382	0.018
-343.391	82.641	-0.024	-0.026
-342.377	800.000	-0.089	0.382
-341.362	-82.771	-0.158	-0.051
-340.348	16.686	0.156	-0.122
-339.333	-50.734	0.063	-0.029
-338.318	-200.000	-0.021	-0.316
-337.304	517.810	-0.118	0.271
-336.289	212.499	0.034	-0.053
-335.275	-14.711	-0.276	0.175
-334.260	42.625	-0.301	0.270
-333.245	98.840	0.267	-0.304
-332.231	125.752	0.075	0.093
-331.216	800.000	-0.046	0.178
-330.202	-200.000	-0.072	0.497
-329.187	-76.949	-0.122	0.042
-328.172	-22.838	0.118	0.070
-327.158	147.361	0.244	-0.325
-326.143	800.000	0.097	-0.315
-325.129	-174.249	-0.100	0.003
-324.114	-140.568	-0.153	0.016
-323.099	192.703	-0.155	-0.230
-322.085	-73.752	-0.124	-0.045
-321.070	-200.000	0.019	-0.515
-320.056	86.891	-0.042	0.046
-319.041	-77.313	0.218	-0.075
-318.026	800.000	0.050	0.148
-317.012	0.659	0.231	0.163
-315.997	216.930	-0.068	-0.107
-314.983	-162.539	-0.164	-0.008
-313.968	-69.928	-0.189	0.071
-312.953	-200.000	0.006	-0.198
-311.939	134.230	0.174	-0.223
-310.924	800.000	-0.056	-0.168
-309.910	697.760	0.021	0.055
-308.895	-35.811	-0.192	-0.103
-307.880	800.000	0.066	0.277
-306.866	-79.004	-0.097	-0.033
-305.851	2.158	0.325	-0.232
-304.837	8.674	-0.072	-0.054
-303.822	51.755	-0.229	-0.215
-302.807	320.109	0.196	-0.368
-301.793	-129.126	0.257	-0.035
-300.778	-200.000	0.040	0.290
-299.764	-129.576	-0.131	-0.018
-298.749	-129.864	-0.170	0.023
-297.735	-200.000	0.022	-0.130
-296.720	-200.000	-0.011	-0.055
-295.705	-50.054	-0.463	-0.216
-294.691	170.818	0.088	0.124
-293.676	523.933	0.068	0.158
-292.662	-128.542	0.329	-0.046
-291.647	-187.329	-0.151	0.002
-290.632	316.750	-0.083	0.155
-289.618	108.749	0.234	0.276
-288.603	-57.077	-0.188	-0.082
-287.589	435.995	-0.051	-0.109
-286.574	-200.000	0.042	0.298
-285.559	-200.000	-0.009	-0.105
-284.545	-61.171	-0.166	-0.069
-283.530	52.097	-0.135	-0.127
-282.516	6.867	-0.108	0.079
-281.501	-200.000	-0.025	-0.252
-280.486	52.158	0.279	0.262
-279.472	-89.850	-0.133	0.038
-278.457	-18.517	0.354	-0.217
-277.443	57.650	-0.099	-0.095
-276.428	-72.961	-0.304	0.110
-275.413	-200.000	-0.011	0.159
-274.399	-37.620	0.425	0.223
-273.384	-170.917	-0.055	-0.002
-272.370	74.361	-0.165	-0.171
-271.355	-143.274	0.305	-0.029
-270.340	-200.000	-0.021	-0.433
-269.326	800.000	-0.029	0.100
-268.311	-176.220	-0.261	0.007
-267.297	1.499	0.097	0.069
-266.282	-20.064	-0.292	-0.177
-265.267	-87.737	0.233	-0.069
-264.253	84.626	-0.117	0.126
-263.238	-48.736	-0.060	0.028
-262.224	139.828	0.221	0.286
-261.209	542.182	0.091	-0.213
-260.195	16.600	0.048	-0.037
-259.180	-23.200	0.164	0.097
-258.165	240.958	-0.125	0.205
-257.151	800.000	-0.060	0.203
-256.136	-200.000	-0.001	0.047
-255.122	-180.127	-0.232	-0.005
-254.107	-200.000	-0.009	-0.190
-253.092	-69.662	0.232	-0.087
-252.078	34.580	-0.209	0.180
-251.063	9.027	-0.037	0.028
-250.049	383.155	-0.061	-0.123
-249.034	-87.876	0.455	0.135
-248.019	-134.491	0.032	-0.004
-247.005	-140.618	-0.443	0.045
-245.990	64.648	0.312	-0.310
-244.976	515.879	0.055	0.127
-243.961	451.833	0.156	-0.338
-242.946	-154.205	0.227	0.015
-241.932	129.082	-0.023	-0.029
-240.917	-86.356	0.190	0.058
-239.903	-133.523	-0.261	-0.032
-238.888	-99.929	-0.189	-0.046
-237.873	99.987	0.318	0.363
-236.859	367.154	-0.158	0.314
-235.844	62.779	0.253	0.249
-234.830	-79.365	0.158	-0.053
-233.815	21.991	-0.370	-0.296
-232.800	555.485	0.089	-0.210
-231.786	264.180	-0.121	0.208
-230.771	324.799	0.025	0.047
-229.757	248.895	0.087	0.145
-228.742	-198.292	-0.144	0.001
-227.727	-193.655	0.295	-0.002
-226.713	366.490	0.108	-0.213
-225.698	-200.000	-0.004	-0.180
-224.684	-156.996	-0.379	-0.023
-223.669	800.000	-0.052	-0.207
-222.655	-33.239	0.122	0.067
-221.640	-43.243	-0.253	-0.126
-220.625	-200.000	-0.031	0.288
-219.611	-85.518	0.472	0.144
-218.596	83.005	-0.106	0.114
-217.582	-200.000	-0.008	0.094
-216.567	-83.503	0.088	0.028
-215.552	-60.226	-0.217	0.091
-214.538	-63.089	-0.325	0.132
-213.523	-39.602	-0.271	-0.139
-212.509	223.781	-0.085	-0.135
-211.494	33.475	-0.223	0.190
-210.479	-58.581	0.214	0.091
-209.465	83.904	0.117	0.126
-208.450	-101.723	0.356	0.085
-207.436	-31.365	0.359	0.198
-206.421	44.177	-0.190	0.171
-205.406	800.000	0.042	-0.149
-204.392	83.839	0.205	-0.220
-203.377	800.000	-0.034	-0.105
-202.363	800.000	0.020	0.081
-201.348	112.684	-0.111	0.132
-200.333	-10.118	-0.288	0.188
-199.319	161.755	-0.065	0.090
-198.304	-37.878	-0.087	0.045
-197.290	-113.010	-0.390	-0.076
-196.275	174.031	-0.146	0.207
-195.260	-24.487	0.209	0.122
-194.246	-93.631	-0.161	-0.044
-193.231	-58.001	-0.073	-0.031
-192.217	800.000	-0.047	0.144
-191.202	101.592	-0.286	-0.327
-190.187	-0.662	0.254	0.177
-189.173	-200.000	-0.001	0.298
-188.158	-33.619	-0.085	0.046
-187.144	154.069	0.213	-0.287
-186.129	-154.143	0.396	-0.026
-185.114	-156.338	-0.076	-0.005
-184.100	-68.170	0.347	0.132
-183.085	-96.503	-0.227	-0.059
-182.071	41.449	-0.181	0.161
-181.056	800.000	-0.087	-0.236
-180.042	251.712	-0.211	0.353
-179.027	47.705	0.277	-0.254
-178.012	43.974	0.127	0.114
-176.998	670.141	0.097	0.247
-175.983	-100.110	-0.308	-0.075
-174.969	78.512	0.169	0.178
-173.954	138.658	-0.164	0.212
-172.939	170.075	0.046	0.065
-171.925	-82.043	0.249	-0.080
-170.910	524.964	-0.122	0.281
-169.896	446.739	0.095	-0.205
-168.881	800.000	0.031	0.097
-167.866	-199.044	0.209	-0.001
-166.852	-134.111	-0.224	-0.027
-165.837	-131.184	0.262	-0.034
-164.823	-200.000	-0.019	0.165
-163.808	279.412	-0.128	-0.223
-162.793	188.365	0.204	-0.299
-161.779	220.168	0.214	-0.337
-160.764	33.130	-0.141	0.120
-159.750	74.755	-0.062	0.064
-158.735	231.621	0.097	-0.155
-157.720	-160.626	0.061	0.003
-156.706	-136.168	0.179	-0.021
-155.691	-113.581	0.232	0.044
-154.677	79.595	0.050	-0.052
-153.662	-19.645	0.153	0.093
-152.647	-186.841	-0.072	-0.001
-151.633	297.055	0.155	0.279
-150.618	-200.000	0.007	-0.098
-149.604	-41.371	0.371	-0.187
-148.589	416.752	0.131	0.274
-147.574	741.450	0.031	0.081
-146.560	-134.122	-0.087	-0.010
-145.545	-82.225	-0.156	-0.050
-144.531	800.000	-0.072	0.250
-143.516	32.942	-0.206	0.174
-142.502	-200.000	-0.023	0.213
-141.487	-105.834	0.135	-0.030
-140.472	133.118	-0.088	0.111
-139.458	-200.000	0.003	-0.199
-138.443	-23.631	-0.337	-0.198
-137.429	516.942	-0.149	-0.342
-136.414	-25.961	-0.337	0.194
-135.399	-55.607	0.292	0.128
-134.385	-9.561	0.241	-0.157
-133.370	-30.947	-0.285	-0.157
-132.356	-164.832	-0.147	-0.006
-131.341	-21.343	0.192	-0.115
-130.326	153.003	-0.062	-0.082
-129.312	-166.048	-0.066	-0.003
-128.297	-134.282	0.097	-0.012
-127.283	-193.378	0.391	-0.003
-126.268	49.926	-0.090	-0.083
-125.253	-58.120	0.290	-0.124
-124.239	-39.158	-0.248	0.128
-123.224	-200.000	0.015	0.236
-122.210	-96.546	0.322	0.083
