DTS Sentinel unit serial number:	SN413079Multiplexer serial number:	ORYXHardware model number:	OX4-SRSoftware version number:	ORYX F/W v4.00 Oryx Data Collector v3.7.2.0data status	okinstallation	princeton_trtdifferential loss correction	single-endedforward channel	channel 4reverse channel	N/Adate	2019/09/14time	03:13:34forward acquisition time	60.00reverse acquisition time	0.00gamma	496.2192k internal	0.2323k external	0.2323temperature offset calibration	1.0131default loss term (dB/km)	0.3790temperature slope calibration	1.0000multiplexer offset coefficient	1.0000multiplexer slope coefficient	1.0000fibre end	0.00T internal ref (°C)	26.62T ext. ref 1 (°C)	3.26T ext. ref 2 (°C)	21.67length (m)	temperature (°C)	Stokes	anti-Stokes-747.200	34.555	0.385	-0.339
-746.185	-200.000	-0.000	-0.043
-745.171	719.977	-0.087	0.232
-744.156	-14.900	0.066	0.043
-743.142	226.078	0.084	-0.137
-742.127	517.799	-0.150	0.355
-741.112	-200.000	-0.005	-0.194
-740.098	-93.416	-0.547	0.153
-739.083	800.000	0.074	-0.297
-738.069	-200.000	-0.008	0.196
-737.054	-102.310	-0.255	0.062
-736.039	-136.957	-0.493	0.057
-735.025	800.000	-0.032	0.121
-734.010	-200.000	-0.014	-0.198
-732.996	-182.234	-0.353	0.007
-731.981	-145.092	-0.327	0.030
-730.966	533.216	0.083	0.198
-729.952	-68.619	-0.304	-0.119
-728.937	-200.000	0.054	0.245
-727.923	-66.174	-0.255	0.102
-726.908	-80.518	-0.043	-0.014
-725.894	-180.411	-0.525	-0.011
-724.879	-200.000	0.013	-0.244
-723.864	41.882	0.167	-0.153
-722.850	-62.138	-0.171	0.072
-721.835	-200.000	-0.039	0.203
-720.821	462.747	-0.046	-0.104
-719.806	-200.000	-0.025	-0.291
-718.791	566.211	-0.220	0.538
-717.777	-200.000	0.003	0.052
-716.762	-124.888	0.363	0.056
-715.748	-114.015	-0.279	-0.055
-714.733	-17.106	-0.137	-0.087
-713.718	198.648	-0.117	-0.181
-712.704	-200.000	0.022	-0.126
-711.689	800.000	-0.090	-0.273
-710.675	-200.000	-0.002	-0.278
-709.660	-200.000	-0.004	-0.262
-708.645	-79.700	-0.356	0.121
-707.631	-132.095	0.081	-0.011
-706.616	-200.000	-0.007	0.084
-705.602	-127.751	0.179	-0.026
-704.587	800.000	-0.110	0.307
-703.572	-130.164	-0.336	0.046
-702.558	-52.236	0.167	-0.078
-701.543	-104.498	0.209	0.049
-700.529	3.824	-0.238	0.175
-699.514	10.026	-0.264	0.202
-698.499	-168.436	-0.345	0.013
-697.485	-122.783	0.134	0.022
-696.470	118.297	-0.204	-0.253
-695.456	-177.967	-0.294	0.007
-694.441	56.544	-0.241	0.236
-693.426	337.333	0.128	-0.250
-692.412	-200.000	0.020	-0.302
-691.397	649.113	0.105	-0.270
-690.383	148.343	-0.290	-0.394
-689.368	-138.522	0.186	-0.021
-688.354	11.611	-0.429	-0.331
-687.339	161.425	-0.075	-0.106
-686.324	235.542	0.293	-0.487
-685.310	28.490	-0.304	-0.259
-684.295	359.124	0.086	-0.173
-683.281	-150.473	-0.093	-0.007
-682.266	198.164	-0.074	0.113
-681.251	-200.000	0.014	0.095
-680.237	-128.649	-0.187	0.027
-679.222	22.045	-0.125	-0.103
-678.208	193.552	-0.032	-0.049
-677.193	91.259	0.272	0.307
-676.178	-99.276	0.157	0.040
-675.164	800.000	-0.074	-0.265
-674.149	71.885	-0.067	0.070
-673.135	-30.668	-0.356	-0.203
-672.120	194.377	0.123	0.188
-671.105	-159.916	0.280	-0.015
-670.091	-200.000	-0.012	-0.088
-669.076	64.341	-0.313	-0.317
-668.062	-124.860	0.195	-0.030
-667.047	196.624	-0.096	0.148
-666.032	559.160	-0.046	-0.113
-665.018	355.860	0.029	-0.059
-664.003	-113.023	-0.202	-0.040
-662.989	-160.691	0.221	0.012
-661.974	-158.393	-0.180	-0.011
-660.959	-32.616	-0.150	0.084
-659.945	-108.714	0.252	-0.054
-658.930	-200.000	0.027	-0.299
-657.916	-128.150	0.252	-0.036
-656.901	-98.672	-0.160	0.041
-655.886	-200.000	0.064	0.329
-654.872	-112.208	0.346	-0.070
-653.857	48.498	-0.123	-0.116
-652.843	-191.127	-0.338	0.004
-651.828	61.883	-0.142	-0.143
-650.814	-96.409	0.081	0.022
-649.799	-174.030	-0.166	-0.005
-648.784	85.943	-0.180	-0.199
-647.770	-17.894	-0.222	-0.140
-646.755	658.949	0.053	0.138
-645.741	152.318	-0.029	0.040
-644.726	134.566	0.118	-0.154
-643.711	89.273	0.123	-0.138
-642.697	-93.653	-0.124	-0.034
-641.682	-15.823	0.291	0.186
-640.668	800.000	0.058	-0.166
-639.653	-200.000	-0.024	0.264
-638.638	14.284	0.250	-0.196
-637.624	-76.266	0.304	-0.108
-636.609	-138.090	-0.283	-0.032
-635.595	51.730	-0.252	0.241
-634.580	-34.690	0.136	-0.075
-633.565	376.936	0.116	0.238
-632.551	-200.000	0.000	-0.071
-631.536	59.655	0.099	-0.098
-630.522	-69.964	-0.118	0.045
-629.507	-43.023	0.152	0.077
-628.492	393.177	-0.035	-0.073
-627.478	-200.000	0.000	-0.214
-626.463	136.232	0.128	0.168
-625.449	-200.000	0.047	-0.257
-624.434	60.291	0.268	0.267
-623.419	175.115	0.077	0.111
-622.405	336.518	0.074	-0.144
-621.390	302.846	0.112	-0.208
-620.376	483.974	0.104	-0.238
-619.361	151.647	-0.196	0.268
-618.346	800.000	-0.058	-0.235
-617.332	-200.000	-0.015	-0.458
-616.317	-93.895	0.355	0.098
-615.303	-2.142	0.309	-0.218
-614.288	377.365	-0.113	-0.232
-613.273	10.474	0.232	0.177
-612.259	-112.080	0.158	-0.032
-611.244	-16.303	-0.176	-0.112
-610.230	800.000	-0.065	-0.273
-609.215	800.000	-0.102	-0.348
-608.201	800.000	-0.023	-0.085
-607.186	-5.483	0.223	0.154
-606.171	-173.073	0.227	-0.007
-605.157	-123.598	0.061	0.010
-604.142	-190.129	-0.110	-0.001
-603.128	-200.000	0.019	-0.140
-602.113	55.629	0.144	-0.141
-601.098	36.058	-0.150	-0.133
-600.084	278.792	-0.166	-0.297
-599.069	-76.272	0.119	0.042
-598.055	-69.598	-0.323	-0.124
-597.040	-200.000	0.023	0.117
-596.025	386.893	-0.106	0.219
-595.011	13.299	-0.345	0.268
-593.996	12.323	0.126	0.097
-592.982	-200.000	-0.013	0.082
-591.967	349.431	-0.177	0.351
-590.952	-33.099	-0.177	-0.099
-589.938	-155.185	0.102	-0.007
-588.923	-108.211	0.111	-0.024
-587.909	129.928	0.062	-0.080
-586.894	800.000	-0.035	-0.145
-585.879	-200.000	-0.032	0.163
-584.865	-116.430	-0.146	0.027
-583.850	-101.832	-0.209	0.051
-582.836	539.882	-0.172	-0.411
-581.821	-23.776	0.015	0.009
-580.806	242.867	0.094	-0.158
-579.792	800.000	-0.068	-0.229
-578.777	-6.156	0.278	0.191
-577.763	800.000	0.036	-0.149
-576.748	36.845	0.098	0.087
-575.733	800.000	0.134	0.373
-574.719	-200.000	0.015	0.090
-573.704	192.730	-0.159	-0.241
-572.690	29.104	0.226	-0.192
-571.675	423.865	-0.029	0.063
-570.661	-200.000	0.005	0.071
-569.646	-61.370	-0.247	0.104
-568.631	-39.209	0.147	0.077
-567.617	-70.220	0.451	-0.172
-566.602	27.628	0.283	-0.239
-565.588	46.542	0.066	0.062
-564.573	1.313	-0.106	0.076
-563.558	-27.439	0.264	0.154
-562.544	-117.016	-0.377	-0.069
-561.529	-49.439	0.227	-0.109
-560.515	-65.574	-0.229	-0.092
-559.500	405.484	0.144	0.304
-558.485	50.531	-0.409	-0.388
-557.471	-112.890	0.391	0.078
-556.456	-200.000	0.026	0.223
-555.442	-90.766	-0.413	-0.120
-554.427	-200.000	0.035	-0.410
-553.412	-200.000	-0.016	-0.080
-552.398	-12.969	0.168	0.110
-551.383	646.181	-0.052	-0.133
-550.369	-79.989	-0.308	-0.104
-549.354	20.901	0.153	0.124
-548.339	800.000	0.017	0.073
-547.325	11.488	0.161	0.123
-546.310	800.000	-0.098	0.316
-545.296	22.920	-0.332	-0.273
-544.281	800.000	-0.113	-0.352
-543.266	-200.000	-0.001	0.126
-542.252	254.653	0.261	-0.447
-541.237	800.000	-0.096	0.342
-540.223	-47.756	-0.294	0.143
-539.208	230.293	-0.175	0.287
-538.193	-50.116	0.214	0.101
-537.179	-83.419	0.112	-0.036
-536.164	800.000	-0.049	0.192
-535.150	-92.118	-0.316	-0.090
-534.135	-200.000	-0.021	-0.382
-533.121	92.452	-0.315	-0.355
-532.106	65.687	0.299	-0.304
-531.091	800.000	-0.145	0.408
-530.077	105.454	0.110	0.131
-529.062	6.062	-0.215	-0.160
-528.048	-200.000	0.062	-0.302
-527.033	1.894	0.154	-0.111
-526.018	-4.288	0.072	-0.050
-525.004	-33.263	0.087	0.048
-523.989	-126.885	-0.214	-0.032
-522.975	-114.526	-0.078	0.015
-521.960	-133.295	-0.086	0.011
-520.945	-104.835	0.257	-0.059
-519.931	-55.940	0.396	0.177
-518.916	800.000	-0.088	0.322
-517.902	59.901	-0.034	0.034
-516.887	800.000	-0.103	0.302
-515.872	-58.898	-0.029	0.013
-514.858	685.407	-0.062	-0.162
-513.843	-74.646	-0.096	-0.034
-512.829	106.578	-0.097	0.115
-511.814	168.125	-0.116	-0.165
-510.799	57.562	0.054	0.052
-509.785	495.420	0.114	-0.262
-508.770	58.412	-0.227	-0.223
-507.756	33.374	0.172	-0.149
-506.741	800.000	-0.059	0.193
-505.726	-59.319	0.264	-0.114
-504.712	373.498	-0.154	-0.314
-503.697	-200.000	-0.006	-0.245
-502.683	-200.000	-0.005	-0.116
-501.668	67.339	0.233	0.237
-500.653	156.496	0.074	0.102
-499.639	113.558	0.029	-0.036
-498.624	504.400	-0.045	-0.104
-497.610	-127.348	0.225	0.033
-496.595	-152.316	-0.079	-0.006
-495.581	-121.127	0.085	-0.014
-494.566	121.128	0.011	0.014
-493.551	-200.000	0.237	0.001
-492.537	642.898	0.066	0.169
-491.522	106.607	0.190	0.225
-490.508	9.771	-0.237	0.180
-489.493	-70.646	0.255	-0.096
-488.478	800.000	-0.050	0.141
-487.464	67.966	-0.210	0.215
-486.449	444.188	0.055	0.120
-485.435	-200.000	-0.020	0.100
-484.420	88.496	0.129	-0.144
-483.405	-38.413	-0.237	-0.125
-482.391	-62.275	-0.277	-0.116
-481.376	-200.000	-0.038	-0.389
-480.362	-99.541	-0.340	0.085
-479.347	204.146	-0.103	0.159
-478.332	-2.048	-0.184	0.129
-477.318	-46.475	-0.147	0.072
-476.303	-10.340	0.328	-0.218
-475.289	-200.000	0.075	0.344
-474.274	-200.000	0.059	0.539
-473.259	-145.108	0.287	-0.026
-472.245	-6.959	-0.347	-0.236
-471.230	115.006	0.127	0.155
-470.216	295.303	-0.155	0.283
-469.201	252.541	-0.127	-0.216
-468.186	-200.000	-0.082	-0.607
-467.172	492.684	-0.121	0.277
-466.157	44.966	-0.189	-0.174
-465.143	775.914	-0.061	-0.166
-464.128	-108.182	-0.213	0.046
-463.113	446.563	0.192	0.421
-462.099	-66.543	-0.162	0.064
-461.084	-89.449	0.246	-0.072
-460.070	11.080	-0.030	0.023
-459.055	-138.762	-0.325	0.035
-458.040	235.672	-0.096	-0.158
-457.026	800.000	0.014	-0.040
-456.011	-121.467	0.046	-0.008
-454.997	800.000	0.026	0.076
-453.982	-137.898	0.261	-0.029
-452.968	-140.307	-0.207	0.022
-451.953	92.543	0.160	0.180
-450.938	74.649	0.249	-0.262
-449.924	-200.000	-0.025	-0.122
-448.909	-200.000	-0.037	-0.200
-447.895	37.833	-0.106	-0.094
-446.880	361.145	0.053	-0.105
-445.865	-31.333	-0.025	-0.014
-444.851	-86.339	0.223	0.069
-443.836	-116.910	-0.332	0.061
-442.822	13.108	-0.121	0.094
-441.807	440.910	0.076	-0.166
-440.792	-114.960	-0.123	-0.023
-439.778	-200.000	0.067	-0.393
-438.763	-122.925	-0.168	-0.027
-437.749	-100.952	0.185	0.045
-436.734	157.473	-0.233	-0.322
-435.719	147.326	0.076	0.103
-434.705	800.000	0.037	-0.144
-433.690	-114.451	-0.246	0.047
-432.676	-76.578	-0.333	-0.117
-431.661	152.413	-0.116	0.159
-430.646	100.381	0.183	-0.212
-429.632	261.271	0.084	-0.146
-428.617	-85.683	-0.264	0.082
-427.603	-75.460	0.107	-0.038
-426.588	-24.958	-0.191	0.113
-425.573	-200.000	0.016	0.080
-424.559	-200.000	0.054	-0.250
-423.544	106.170	-0.260	0.308
-422.530	-20.726	-0.383	0.235
-421.515	325.313	-0.117	-0.223
-420.500	-8.699	0.096	0.064
-419.486	-128.743	0.253	0.036
-418.471	386.358	0.058	0.119
-417.457	114.130	0.093	0.113
-416.442	427.472	-0.147	-0.315
-415.428	-200.000	-0.024	-0.111
-414.413	800.000	0.090	-0.252
-413.398	194.367	0.146	0.221
-412.384	-153.575	-0.471	0.032
-411.369	88.795	-0.079	-0.088
-410.355	-81.486	0.266	0.087
-409.340	450.153	-0.090	0.198
-408.325	800.000	0.027	-0.105
-407.311	50.722	0.239	0.226
-406.296	227.001	0.086	0.139
-405.282	228.447	-0.015	-0.024
-404.267	-35.708	0.227	0.123
-403.252	-200.000	0.021	0.252
-402.238	800.000	-0.021	-0.062
-401.223	-133.834	-0.162	-0.020
-400.209	-50.976	-0.573	-0.268
-399.194	-58.568	0.290	0.126
-398.179	-200.000	-0.051	-0.304
-397.165	-12.500	0.372	-0.242
-396.150	-123.902	-0.134	0.021
-395.136	800.000	-0.125	0.363
-394.121	706.462	-0.098	-0.258
-393.106	-200.000	0.069	0.306
-392.092	-90.873	0.084	0.024
-391.077	-200.000	-0.064	-0.289
-390.063	25.291	0.172	0.142
-389.048	24.188	0.278	-0.228
-388.033	79.095	0.066	-0.070
-387.019	75.200	-0.164	0.172
-386.004	-131.850	0.139	-0.018
-384.990	16.785	-0.300	-0.236
-383.975	-99.694	-0.345	0.086
-382.960	-96.555	-0.165	0.043
-381.946	800.000	0.067	0.280
-380.931	249.131	-0.040	0.068
-379.917	-20.482	-0.109	-0.067
-378.902	800.000	0.103	-0.290
-377.888	-61.485	-0.433	-0.181
-376.873	-28.664	-0.137	0.079
-375.858	-175.748	0.271	0.007
-374.844	369.421	-0.129	0.260
-373.829	-61.402	0.150	0.063
-372.815	-200.000	0.001	0.038
-371.800	800.000	0.077	0.229
-370.785	155.329	0.052	0.071
-369.771	91.173	0.250	0.279
-368.756	434.210	-0.097	-0.211
-367.742	-200.000	0.005	-0.141
-366.727	-77.110	-0.054	0.019
-365.712	-21.960	-0.112	0.068
-364.698	325.763	-0.121	-0.230
-363.683	-200.000	-0.015	-0.298
-362.669	800.000	0.094	0.340
-361.654	150.575	-0.183	0.247
-360.639	203.960	0.057	-0.088
-359.625	12.723	0.112	0.086
-358.610	403.143	-0.062	0.131
-357.596	-44.709	0.202	-0.100
-356.581	0.521	0.213	-0.152
-355.566	-41.993	-0.178	-0.091
-354.552	-64.180	0.316	0.128
-353.537	124.283	0.035	0.043
-352.523	-30.835	0.150	-0.084
-351.508	30.586	0.200	-0.170
-350.493	-200.000	-0.027	-0.309
-349.479	800.000	0.060	0.174
-348.464	78.362	-0.070	0.075
-347.450	-200.000	-0.003	0.442
-346.435	-13.582	-0.126	0.081
-345.420	-117.925	-0.230	-0.041
-344.406	-33.488	0.097	0.053
-343.391	800.000	-0.038	0.150
-342.377	-200.000	-0.039	-0.230
-341.362	687.290	0.009	-0.023
-340.348	-166.709	-0.181	-0.007
-339.333	-64.363	-0.267	-0.108
-338.318	34.552	0.221	-0.192
-337.304	-85.623	0.423	-0.131
-336.289	-92.729	0.087	0.024
-335.275	-200.000	-0.050	0.243
-334.260	171.698	0.071	-0.101
-333.245	-121.463	0.429	-0.071
-332.231	-200.000	-0.013	0.247
-331.216	-188.474	0.465	0.006
-330.202	125.756	0.187	-0.235
-329.187	-68.904	0.198	0.076
-328.172	-200.000	-0.019	0.183
-327.158	185.230	-0.023	0.034
-326.143	-115.393	-0.216	0.040
-325.129	-200.000	0.012	0.181
-324.114	-200.000	0.006	-0.059
-323.099	-53.485	0.313	-0.142
-322.085	97.736	-0.097	0.111
-321.070	579.911	-0.045	-0.109
-320.056	-116.381	0.206	-0.038
-319.041	-28.505	-0.171	0.098
-318.026	-200.000	-0.000	-0.006
-317.012	-200.000	0.030	-0.291
-315.997	163.338	0.160	-0.223
-314.983	-23.181	-0.254	-0.152
-313.968	6.066	-0.215	-0.158
-312.953	761.940	-0.030	-0.082
-311.939	128.372	0.174	-0.220
-310.924	107.728	-0.084	-0.099
-309.910	-138.849	0.250	-0.027
-308.895	-200.000	0.003	-0.055
-307.880	-200.000	0.037	-0.252
-306.866	800.000	0.042	-0.165
-305.851	-127.650	-0.074	0.011
-304.837	449.847	-0.188	-0.412
-303.822	800.000	0.027	-0.091
-302.807	-17.565	0.061	0.038
-301.793	-100.519	-0.333	0.082
-300.778	-82.571	-0.139	-0.045
-299.764	-129.054	0.086	-0.012
-298.749	145.045	0.099	-0.131
-297.735	130.481	-0.101	-0.128
-296.720	-25.588	-0.221	0.130
-295.705	-195.471	-0.299	0.002
-294.691	800.000	0.046	-0.185
-293.676	35.097	0.110	0.096
-292.662	800.000	-0.059	0.181
-291.647	-200.000	-0.028	-0.152
-290.632	443.840	-0.035	0.077
-289.618	397.821	0.089	-0.184
-288.603	423.751	0.084	0.178
-287.589	214.003	-0.019	-0.029
-286.574	-106.760	-0.143	0.032
-285.559	129.429	-0.115	-0.146
-284.545	800.000	-0.034	0.112
-283.530	659.862	0.091	0.233
-282.516	39.044	-0.109	0.097
-281.501	31.543	-0.091	-0.077
-280.486	130.551	-0.080	0.102
-279.472	800.000	-0.024	0.066
-278.457	245.542	0.100	0.168
-277.443	-200.000	0.021	0.135
-276.428	-147.372	-0.395	-0.033
-275.413	472.750	-0.020	-0.045
-274.399	-93.693	-0.181	0.050
-273.384	-200.000	-0.002	0.068
-272.370	-192.397	0.237	0.002
-271.355	322.156	0.089	0.168
-270.340	-200.000	-0.230	0.001
-269.326	-37.037	-0.124	0.066
-268.311	87.176	0.193	-0.211
-267.297	800.000	0.060	-0.175
-266.282	-200.000	-0.030	0.280
-265.267	227.518	0.119	0.191
-264.253	557.008	-0.075	0.178
-263.238	718.966	0.055	-0.145
-262.224	-0.371	-0.059	-0.042
-261.209	-200.000	0.033	-0.191
-260.195	465.170	-0.021	-0.047
-259.180	-73.795	0.264	-0.095
-258.165	575.312	-0.183	0.442
-257.151	-137.337	-0.238	-0.027
-256.136	123.571	0.102	0.127
-255.122	23.369	-0.153	0.125
-254.107	-37.041	0.127	-0.067
-253.092	449.137	-0.100	-0.218
-252.078	5.997	-0.213	0.156
-251.063	702.155	0.032	0.085
-250.049	31.898	-0.212	-0.181
-249.034	-110.853	0.167	-0.034
-248.019	679.202	-0.039	0.101
-247.005	-115.944	0.125	-0.023
-245.990	-144.829	-0.193	-0.018
-244.976	-101.640	0.076	0.018
-243.961	-41.238	0.212	-0.108
-242.946	-23.572	0.317	-0.188
-241.932	-151.651	0.302	-0.022
-240.917	-135.011	-0.250	0.030
-239.903	6.632	0.014	-0.010
-238.888	800.000	-0.066	0.258
-237.873	760.230	0.037	0.100
-236.859	-200.000	0.006	-0.182
-235.844	1.891	0.332	-0.237
-234.830	453.002	0.068	-0.150
-233.815	-144.583	-0.166	-0.015
-232.800	-200.000	-0.003	0.184
-231.786	293.909	-0.095	0.172
-230.771	-40.988	0.094	0.048
-229.757	151.522	-0.292	0.393
-228.742	99.865	0.096	-0.110
-227.727	9.054	-0.227	-0.170
-226.713	-83.238	-0.193	0.061
-225.698	-200.000	-0.029	0.267
-224.684	-200.000	-0.035	0.339
-223.669	87.122	-0.242	0.265
-222.655	-200.000	0.040	0.347
-221.640	-17.410	-0.159	0.099
-220.625	47.856	0.232	0.215
-219.611	-102.461	-0.113	-0.027
-218.596	-56.516	0.154	0.068
-217.582	-200.000	-0.011	0.138
-216.567	-106.507	0.275	0.061
-215.552	604.743	0.091	0.225
-214.538	-102.020	-0.215	0.051
-213.523	-120.920	-0.227	0.038
-212.509	-106.641	0.280	0.062
-211.494	191.261	0.210	0.312
-210.479	-109.583	-0.062	-0.013
-209.465	47.498	0.356	-0.329
-208.450	157.603	0.246	0.336
-207.436	-200.000	0.026	0.198
-206.421	206.422	-0.040	0.062
-205.406	139.028	-0.161	0.209
-204.392	800.000	0.125	-0.444
-203.377	800.000	-0.055	0.156
-202.363	-9.080	0.224	-0.148
-201.348	71.439	0.092	0.095
-200.333	-158.361	0.122	-0.007
-199.319	-200.000	-0.050	0.375
-198.304	-84.573	0.194	0.060
-197.290	73.636	0.310	0.321
-196.275	-59.182	-0.232	0.099
-195.260	800.000	-0.096	-0.347
-194.246	15.156	0.197	0.152
-193.231	42.550	0.122	0.109
-192.217	-200.000	-0.021	-0.219
-191.202	-200.000	-0.012	-0.273
-190.187	-36.944	-0.147	0.078
-189.173	-200.000	0.061	0.267
-188.158	32.761	0.146	0.125
-187.144	-51.890	-0.295	-0.136
-186.129	-200.000	-0.005	0.027
-185.114	800.000	0.051	0.165
-184.100	10.391	0.293	-0.220
-183.085	295.775	-0.209	0.378
-182.071	-125.652	0.122	0.018
-181.056	-146.004	-0.166	0.015
-180.042	-116.627	0.089	0.016
-179.027	-200.000	0.018	0.087
-178.012	-4.086	0.207	0.142
-176.998	-58.416	0.502	-0.216
-175.983	-200.000	-0.037	0.430
-174.969	800.000	-0.052	0.206
-173.954	17.124	-0.105	-0.082
-172.939	747.486	0.081	0.216
-171.925	7.842	-0.291	0.216
-170.910	-78.326	0.225	0.076
-169.896	231.750	-0.116	-0.188
-168.881	-54.751	0.400	-0.179
-167.866	-43.069	-0.141	0.070
-166.852	218.029	0.068	-0.107
-165.837	42.519	0.101	-0.091
-164.823	800.000	0.029	0.099
-163.808	789.799	-0.061	0.167
-162.793	-93.626	-0.126	0.034
-161.779	356.667	0.062	0.122
-160.764	529.658	0.105	0.245
-159.750	140.813	-0.059	-0.077
-158.735	33.514	-0.226	-0.194
-157.720	169.824	0.068	0.096
-156.706	-31.163	0.039	0.021
-155.691	1.836	-0.180	-0.128
-154.677	-40.017	-0.170	-0.087
-153.662	-135.778	-0.132	-0.015
-152.647	-42.198	0.147	-0.074
-151.633	-54.196	-0.082	0.037
-150.618	-200.000	0.019	-0.084
-149.604	34.334	-0.124	0.107
-148.589	489.951	-0.060	-0.136
-147.574	-123.010	-0.166	-0.026
-146.560	-47.897	-0.320	0.153
-145.545	-200.000	0.025	-0.208
-144.531	-200.000	-0.013	-0.106
-143.516	-200.000	-0.111	-0.491
-142.502	551.819	0.006	0.015
-141.487	800.000	-0.065	-0.186
-140.472	-200.000	0.074	0.386
-139.458	-140.218	-0.149	0.015
-138.443	-200.000	0.076	-0.360
-137.429	-97.556	-0.280	-0.072
-136.414	341.446	0.057	0.110
-135.399	560.642	-0.030	-0.073
-134.385	96.525	-0.149	-0.168
-133.370	-13.625	0.131	-0.084
-132.356	-200.000	-0.025	-0.157
-131.341	-200.000	-0.006	0.210
-130.326	633.468	0.142	0.355
-129.312	-158.942	0.437	-0.025
-128.297	28.003	-0.428	0.356
-127.283	557.310	-0.091	0.217
-126.268	-200.000	-0.005	0.157
-125.253	-200.000	-0.000	0.236
-124.239	-15.177	0.229	0.144
-123.224	-116.946	-0.179	0.032
-122.210	-73.416	0.185	0.067
