DTS Sentinel unit serial number:	SN413079Multiplexer serial number:	ORYXHardware model number:	OX4-SRSoftware version number:	ORYX F/W v4.00 Oryx Data Collector v3.7.2.0data status	okinstallation	princeton_trtdifferential loss correction	single-endedforward channel	channel 4reverse channel	N/Adate	2019/09/10time	22:31:10forward acquisition time	60.00reverse acquisition time	0.00gamma	496.2192k internal	0.2316k external	0.2316temperature offset calibration	0.9949default loss term (dB/km)	0.3790temperature slope calibration	1.0000multiplexer offset coefficient	1.0000multiplexer slope coefficient	1.0000fibre end	0.00T internal ref (°C)	30.33T ext. ref 1 (°C)	-0.29T ext. ref 2 (°C)	23.76length (m)	temperature (°C)	Stokes	anti-Stokes-747.200	-77.442	-0.126	-0.044
-746.185	800.000	-0.119	-0.373
-745.171	-27.212	-0.051	-0.030
-744.156	-103.064	-0.223	-0.054
-743.142	-200.000	0.008	0.041
-742.127	-160.648	-0.432	0.023
-741.112	-113.643	-0.205	0.041
-740.098	-122.252	0.333	0.055
-739.083	196.761	0.042	-0.065
-738.069	504.136	-0.166	0.388
-737.054	455.786	-0.005	0.012
-736.039	-133.303	-0.350	-0.045
-735.025	800.000	0.065	0.199
-734.010	-78.214	-0.386	0.134
-732.996	800.000	-0.008	-0.034
-731.981	-170.664	0.361	0.013
-730.966	49.606	-0.133	0.127
-729.952	247.711	-0.068	0.117
-728.937	-200.000	-0.010	-0.155
-727.923	-121.875	-0.283	0.047
-726.908	-200.000	0.011	0.099
-725.894	-96.167	-0.109	0.029
-724.879	-62.554	-0.419	-0.176
-723.864	-50.373	0.086	0.041
-722.850	374.536	0.070	-0.144
-721.835	-92.254	-0.284	-0.081
-720.821	-200.000	-0.044	-0.331
-719.806	-200.000	0.063	0.291
-718.791	-26.258	-0.067	0.040
-717.777	-200.000	0.013	-0.092
-716.762	102.830	0.066	-0.079
-715.748	12.645	-0.015	-0.012
-714.733	-200.000	-0.031	-0.223
-713.718	16.641	-0.229	-0.183
-712.704	329.333	0.079	-0.154
-711.689	-61.978	-0.109	0.046
-710.675	800.000	-0.037	-0.150
-709.660	293.178	-0.089	0.165
-708.645	800.000	0.085	0.324
-707.631	800.000	-0.175	-0.492
-706.616	679.491	-0.025	-0.066
-705.602	-135.968	0.186	0.022
-704.587	4.216	-0.189	-0.140
-703.572	-123.534	-0.062	-0.010
-702.558	382.435	-0.048	-0.101
-701.543	-200.000	-0.010	-0.065
-700.529	363.942	0.142	0.288
-699.514	-87.410	-0.112	0.034
-698.499	800.000	0.131	-0.369
-697.485	-18.145	0.126	0.080
-696.470	800.000	-0.026	-0.084
-695.456	-17.614	-0.620	-0.394
-694.441	-38.771	-0.249	0.133
-693.426	800.000	0.035	0.133
-692.412	7.877	-0.362	0.274
-691.397	-134.870	-0.506	0.062
-690.383	70.268	0.117	0.122
-689.368	332.664	0.069	-0.135
-688.354	-15.449	0.080	0.051
-687.339	-22.768	-0.252	-0.154
-686.324	-142.996	0.196	-0.019
-685.310	-125.297	-0.477	0.074
-684.295	-73.663	-0.182	-0.067
-683.281	-119.135	0.103	-0.018
-682.266	-67.751	-0.236	-0.093
-681.251	-76.957	-0.254	-0.090
-680.237	800.000	-0.007	0.027
-679.222	-69.791	0.097	-0.037
-678.208	180.403	0.107	-0.159
-677.193	-65.583	0.194	0.079
-676.178	592.363	0.123	-0.308
-675.164	153.694	0.133	0.184
-674.149	800.000	0.056	0.196
-673.135	800.000	0.020	-0.088
-672.120	-59.881	-0.162	-0.070
-671.105	128.830	0.228	0.294
-670.091	800.000	-0.060	0.189
-669.076	282.373	-0.117	-0.212
-668.062	-153.288	-0.369	0.026
-667.047	174.110	0.068	0.099
-666.032	-77.002	-0.197	-0.070
-665.018	390.001	-0.155	0.324
-664.003	46.824	-0.168	0.158
-662.989	74.207	-0.271	-0.288
-661.974	59.585	-0.105	-0.104
-660.959	800.000	-0.036	-0.104
-659.945	-183.438	-0.166	0.003
-658.930	-200.000	-0.041	-0.186
-657.916	-200.000	-0.025	-0.184
-656.901	-56.052	0.189	-0.085
-655.886	-169.438	0.282	-0.010
-654.872	-46.336	0.259	0.129
-653.857	243.880	-0.231	0.391
-652.843	441.353	0.038	0.084
-651.828	-13.010	-0.235	0.154
-650.814	231.658	0.097	0.160
-649.799	-200.000	-0.038	0.261
-648.784	42.672	-0.413	0.380
-647.770	140.792	-0.080	0.107
-646.755	-159.936	0.389	-0.021
-645.741	-81.257	-0.120	0.040
-644.726	-32.836	0.224	0.125
-643.711	-141.040	-0.154	-0.016
-642.697	-113.337	0.157	0.031
-641.682	-200.000	-0.046	-0.564
-640.668	-72.211	0.426	0.159
-639.653	-73.771	-0.066	-0.024
-638.638	-95.113	0.248	0.067
-637.624	-89.224	-0.147	-0.044
-636.609	800.000	0.043	0.129
-635.595	138.736	0.149	0.198
-634.580	-200.000	0.008	0.168
-633.565	272.692	0.043	-0.077
-632.551	-56.946	-0.265	-0.118
-631.536	-138.086	-0.293	-0.033
-630.522	160.642	0.072	-0.101
-629.507	357.584	0.025	-0.050
-628.492	-117.549	-0.133	-0.024
-627.478	64.862	-0.174	-0.177
-626.463	157.961	-0.061	-0.086
-625.449	81.930	0.146	-0.159
-624.434	300.755	-0.133	-0.247
-623.419	-11.190	-0.178	-0.118
-622.405	-80.012	0.224	0.076
-621.390	800.000	-0.035	0.116
-620.376	-200.000	-0.025	0.242
-619.361	-200.000	-0.012	0.117
-618.346	-87.290	-0.142	-0.044
-617.332	566.935	0.083	0.202
-616.317	-145.449	0.180	0.016
-615.303	-11.486	-0.193	-0.128
-614.288	-143.488	-0.323	0.031
-613.273	135.249	-0.057	0.075
-612.259	-18.342	-0.183	0.116
-611.244	42.761	0.228	-0.210
-610.230	29.097	-0.251	0.215
-609.215	-56.515	0.224	0.100
-608.201	22.929	0.039	-0.033
-607.186	800.000	0.052	-0.158
-606.171	132.977	-0.167	-0.218
-605.157	68.033	0.104	0.108
-604.142	-124.054	-0.093	0.015
-603.128	369.996	-0.065	0.133
-602.113	-130.893	0.255	0.034
-601.098	-154.630	-0.315	-0.021
-600.084	800.000	-0.016	0.066
-599.069	-78.767	0.155	-0.053
-598.055	242.231	-0.127	-0.215
-597.040	132.166	0.156	-0.203
-596.025	-115.379	0.376	-0.071
-595.011	-8.431	-0.185	0.125
-593.996	166.279	0.182	0.260
-592.982	-129.506	0.235	-0.033
-591.967	156.713	0.043	-0.060
-590.952	93.062	-0.112	-0.127
-589.938	193.664	0.128	0.195
-588.923	173.909	0.052	0.075
-587.909	-27.248	-0.328	-0.192
-586.894	-69.215	0.144	-0.056
-585.879	800.000	-0.024	-0.073
-584.865	-200.000	-0.040	0.182
-583.850	225.156	-0.169	0.275
-582.836	38.287	0.155	-0.139
-581.821	692.657	-0.114	-0.300
-580.806	-126.113	-0.052	0.008
-579.792	-200.000	-0.000	0.417
-578.777	-200.000	0.126	0.610
-577.763	765.364	0.089	0.244
-576.748	384.003	-0.165	-0.342
-575.733	-156.499	-0.037	-0.002
-574.719	186.115	-0.119	-0.179
-573.704	800.000	0.082	-0.276
-572.690	800.000	0.055	0.213
-571.675	56.648	0.255	0.250
-570.661	661.425	0.064	-0.167
-569.646	-56.939	-0.272	0.121
-568.631	33.982	-0.177	-0.155
-567.617	-166.883	0.250	-0.010
-566.602	800.000	0.120	-0.455
-565.588	75.744	-0.086	-0.092
-564.573	-123.092	-0.170	-0.027
-563.558	800.000	0.154	-0.540
-562.544	149.677	-0.159	0.216
-561.529	-62.010	-0.535	-0.225
-560.515	-70.346	0.412	-0.157
-559.500	12.666	-0.184	0.143
-558.485	28.728	0.166	-0.141
-557.471	16.726	0.268	-0.214
-556.456	-200.000	0.064	-0.305
-555.442	800.000	0.043	-0.124
-554.427	-35.511	0.270	0.147
-553.412	260.411	0.200	-0.348
-552.398	-92.813	-0.406	0.114
-551.383	160.863	-0.138	-0.193
-550.369	-83.582	0.167	0.054
-549.354	-200.000	0.055	-0.243
-548.339	35.682	-0.244	0.215
-547.325	245.300	-0.185	-0.312
-546.310	-158.671	-0.284	0.016
-545.296	-91.566	-0.185	0.053
-544.281	-152.044	0.202	0.015
-543.266	-11.849	-0.176	-0.116
-542.252	-83.956	-0.091	-0.029
-541.237	-14.789	0.195	-0.126
-540.223	-94.825	-0.231	-0.063
-539.208	223.687	-0.011	0.017
-538.193	598.887	-0.085	0.211
-537.179	117.050	-0.051	0.063
-536.164	800.000	-0.108	-0.303
-535.150	328.871	0.033	0.065
-534.135	71.631	0.253	0.264
-533.121	-200.000	-0.030	-0.524
-532.106	-200.000	-0.036	-0.269
-531.091	180.475	0.128	-0.189
-530.077	99.521	-0.287	-0.333
-529.062	-126.403	-0.146	0.022
-528.048	218.792	0.075	0.121
-527.033	223.803	0.170	0.275
-526.018	747.006	-0.085	-0.230
-525.004	-124.109	-0.291	0.046
-523.989	440.363	0.042	-0.092
-522.975	-70.262	0.201	-0.077
-521.960	-162.617	0.142	-0.007
-520.945	221.760	-0.137	-0.221
-519.931	18.714	-0.133	0.107
-518.916	-149.834	-0.359	-0.028
-517.902	-109.658	0.058	-0.012
-516.887	96.525	0.076	0.087
-515.872	-99.215	0.115	0.029
-514.858	264.526	0.091	0.159
-513.843	279.926	-0.046	0.083
-512.829	800.000	-0.048	-0.179
-511.814	-200.000	0.024	0.262
-510.799	37.580	0.242	-0.215
-509.785	130.531	-0.162	-0.208
-508.770	-200.000	0.003	0.062
-507.756	-200.000	-0.023	-0.111
-506.741	117.141	-0.239	-0.295
-505.726	-200.000	-0.013	0.115
-504.712	-108.689	0.208	0.045
-503.697	-51.039	-0.090	0.042
-502.683	-24.321	0.127	-0.076
-501.668	32.344	-0.034	-0.030
-500.653	142.599	-0.053	0.070
-499.639	681.068	0.139	-0.363
-498.624	453.430	0.084	-0.188
-497.610	-54.144	-0.492	0.224
-496.595	-87.757	-0.124	0.037
-495.581	8.001	0.066	-0.050
-494.566	68.757	-0.245	0.252
-493.551	-32.328	-0.141	0.079
-492.537	524.942	-0.133	-0.313
-491.522	-47.493	-0.054	0.026
-490.508	25.897	0.312	0.261
-489.493	800.000	-0.020	-0.056
-488.478	-200.000	-0.017	0.250
-487.464	1.463	-0.312	0.225
-486.449	-179.528	0.383	-0.008
-485.435	-16.316	0.336	-0.214
-484.420	400.741	0.091	-0.191
-483.405	-200.000	-0.038	-0.199
-482.391	66.307	0.114	0.117
-481.376	800.000	-0.066	-0.217
-480.362	176.700	0.205	-0.299
-479.347	-200.000	-0.054	-0.335
-478.332	-200.000	0.018	-0.432
-477.318	210.017	-0.141	-0.222
-476.303	-43.592	-0.211	0.107
-475.289	118.741	0.129	-0.159
-474.274	34.570	-0.185	-0.162
-473.259	800.000	0.107	0.363
-472.245	-92.908	0.295	-0.083
-471.230	-43.166	0.175	-0.089
-470.216	800.000	0.078	0.222
-469.201	-7.911	-0.157	-0.106
-468.186	-64.634	0.093	0.038
-467.172	230.903	-0.110	0.181
-466.157	-200.000	-0.005	0.201
-465.143	224.625	-0.119	-0.192
-464.128	800.000	-0.052	-0.191
-463.113	117.877	-0.118	0.146
-462.099	-34.932	0.310	0.169
-461.084	-54.034	-0.373	-0.170
-460.070	-72.052	0.420	0.156
-459.055	162.297	-0.141	0.198
-458.040	0.771	0.242	0.174
-457.026	2.171	-0.151	-0.109
-456.011	86.414	0.244	-0.270
-454.997	800.000	0.119	0.349
-453.982	-93.709	-0.184	-0.051
-452.968	72.435	0.070	0.073
-451.953	800.000	-0.085	-0.321
-450.938	800.000	-0.078	-0.259
-449.924	22.122	-0.287	-0.234
-448.909	169.263	0.126	-0.180
-447.895	-101.713	0.056	0.014
-446.880	800.000	0.075	0.236
-445.865	-200.000	-0.008	-0.160
-444.851	-14.243	-0.316	0.204
-443.836	800.000	0.056	-0.199
-442.822	-75.945	0.210	0.074
-441.807	-74.098	-0.471	0.171
-440.792	-93.546	0.195	-0.054
-439.778	358.450	-0.110	-0.219
-438.763	708.975	-0.083	0.219
-437.749	800.000	0.046	-0.180
-436.734	51.596	0.104	0.099
-435.719	-125.625	-0.220	0.033
-434.705	-200.000	-0.002	-0.070
-433.690	36.943	0.353	-0.312
-432.676	-31.129	0.155	0.087
-431.661	59.193	-0.108	0.107
-430.646	59.326	-0.133	0.131
-429.632	-200.000	0.033	0.231
-428.617	117.148	-0.125	-0.154
-427.603	-200.000	0.028	-0.248
-426.588	800.000	0.112	0.369
-425.573	-200.000	-0.011	0.203
-424.559	-200.000	-0.018	0.200
-423.544	160.424	-0.181	0.253
-422.530	800.000	-0.070	-0.194
-421.515	-31.313	0.193	-0.109
-420.500	800.000	-0.058	0.174
-419.486	800.000	0.028	-0.123
-418.471	179.005	0.159	-0.233
-417.457	-100.138	-0.142	0.035
-416.442	0.451	0.171	-0.122
-415.428	-161.587	0.389	-0.020
-414.413	-200.000	-0.015	0.135
-413.398	180.892	0.073	-0.107
-412.384	-60.918	-0.164	0.069
-411.369	-112.557	-0.374	0.075
-410.355	-149.009	0.266	0.021
-409.340	538.158	0.110	-0.262
-408.325	800.000	-0.018	-0.074
-407.311	71.542	0.152	0.158
-406.296	24.903	-0.218	0.181
-405.282	800.000	-0.038	0.130
-404.267	421.744	0.063	0.134
-403.252	152.204	0.084	0.114
-402.238	56.626	0.164	-0.160
-401.223	-200.000	-0.007	0.228
-400.209	-52.391	0.313	-0.145
-399.194	-67.444	0.195	0.076
-398.179	443.235	0.062	-0.136
-397.165	800.000	-0.024	-0.076
-396.150	-200.000	-0.004	0.108
-395.136	-40.026	0.135	0.071
-394.121	-78.109	0.169	0.058
-393.106	-200.000	0.047	-0.351
-392.092	-166.838	-0.294	0.012
-391.077	800.000	0.105	0.303
-390.063	13.857	-0.161	0.125
-389.048	-107.849	0.065	0.014
-388.033	7.878	-0.041	-0.030
-387.019	728.977	-0.050	0.134
-386.004	-200.000	-0.001	-0.175
-384.990	-131.483	0.397	0.052
-383.975	254.621	0.087	0.149
-382.960	464.879	-0.110	0.246
-381.946	-15.239	0.241	0.154
-380.931	241.885	0.115	-0.192
-379.917	14.096	0.230	-0.179
-378.902	-115.478	0.214	-0.040
-377.888	28.659	0.262	-0.221
-376.873	800.000	-0.037	-0.126
-375.858	-69.370	0.360	0.138
-374.844	275.984	0.103	0.183
-373.829	-200.000	0.009	-0.049
-372.815	-55.299	0.411	0.184
-371.800	-0.729	-0.220	-0.155
-370.785	36.160	0.218	0.192
-369.771	223.675	-0.199	0.320
-368.756	-8.589	-0.107	-0.072
-367.742	-200.000	0.022	0.234
-366.727	116.207	-0.190	0.233
-365.712	154.988	-0.104	-0.142
-364.698	-200.000	0.031	0.300
-363.683	-90.449	-0.361	-0.104
-362.669	186.517	-0.035	-0.052
-361.654	461.205	-0.045	-0.099
-360.639	-114.265	0.072	-0.014
-359.625	-28.947	0.199	-0.114
-358.610	-142.578	-0.110	0.011
-357.596	0.139	-0.245	0.174
-356.581	136.506	-0.046	-0.060
-355.566	800.000	0.053	0.154
-354.552	178.745	0.119	-0.174
-353.537	512.575	-0.118	0.274
-352.523	-139.126	-0.208	0.022
-351.508	138.175	0.036	-0.048
-350.493	-200.000	-0.030	-0.228
-349.479	41.691	0.315	0.284
-348.464	-200.000	0.075	0.468
-347.450	-169.833	-0.069	0.002
-346.435	-200.000	0.006	0.434
-345.420	-200.000	-0.008	-0.207
-344.406	388.118	-0.062	-0.128
-343.391	800.000	0.045	0.173
-342.377	-200.000	-0.088	0.468
-341.362	-2.907	-0.348	0.243
-340.348	0.058	0.026	-0.019
-339.333	-79.094	0.033	-0.011
-338.318	43.134	-0.051	0.046
-337.304	-200.000	0.010	0.194
-336.289	23.335	0.184	0.151
-335.275	-26.579	-0.193	0.113
-334.260	-31.406	-0.159	-0.089
-333.245	-200.000	0.010	0.224
-332.231	-126.825	0.222	-0.033
-331.216	800.000	-0.057	0.165
-330.202	-71.119	-0.322	0.121
-329.187	-62.835	-0.289	0.119
-328.172	-28.414	-0.321	-0.184
-327.158	-147.650	0.385	0.032
-326.143	-104.317	-0.012	-0.003
-325.129	-200.000	-0.003	0.153
-324.114	-69.831	-0.223	-0.085
-323.099	-153.472	0.261	0.018
-322.085	7.091	-0.148	0.110
-321.070	-29.812	0.219	0.124
-320.056	42.866	-0.188	0.171
-319.041	-132.494	0.219	0.028
-318.026	86.544	-0.042	-0.046
-317.012	35.735	-0.150	0.131
-315.997	-64.123	0.140	0.057
-314.983	800.000	-0.084	0.331
-313.968	11.893	0.206	0.158
-312.953	-53.126	-0.030	0.014
-311.939	28.204	-0.090	-0.076
-310.924	582.375	-0.100	-0.243
-309.910	-128.137	0.048	-0.007
-308.895	353.732	0.092	-0.182
-307.880	-200.000	-0.361	0.002
-306.866	61.790	-0.144	-0.142
-305.851	-1.491	-0.229	0.161
-304.837	-92.297	-0.167	-0.047
-303.822	-200.000	0.013	-0.241
-302.807	34.251	0.280	0.243
-301.793	-28.844	-0.083	0.048
-300.778	-200.000	-0.018	0.182
-299.764	381.412	-0.105	0.214
-298.749	-73.882	-0.065	0.024
-297.735	-114.557	0.249	-0.048
-296.720	-200.000	0.002	-0.223
-295.705	-200.000	0.007	-0.117
-294.691	800.000	0.076	0.260
-293.676	-135.798	-0.187	-0.022
-292.662	483.557	-0.062	-0.140
-291.647	265.292	-0.089	-0.155
-290.632	800.000	0.020	-0.055
-289.618	7.743	-0.271	0.202
-288.603	27.010	-0.100	-0.084
-287.589	426.629	-0.061	-0.130
-286.574	233.237	-0.058	-0.095
-285.559	-39.307	0.208	0.109
-284.545	35.874	0.172	0.151
-283.530	-41.523	0.155	-0.079
-282.516	66.895	0.089	0.090
-281.501	-52.060	0.354	-0.164
-280.486	800.000	0.120	0.502
-279.472	-52.325	0.031	-0.014
-278.457	49.859	0.180	-0.169
-277.443	-120.903	-0.209	0.035
-276.428	-30.184	0.418	-0.236
-275.413	313.803	0.073	-0.136
-274.399	-162.468	-0.028	-0.001
-273.384	-99.218	0.114	0.029
-272.370	-87.976	0.350	-0.105
-271.355	-200.000	-0.014	-0.091
-270.340	42.376	-0.295	-0.267
-269.326	-82.485	0.085	0.027
-268.311	364.245	0.095	0.190
-267.297	-144.242	0.522	-0.048
-266.282	-37.934	-0.190	0.100
-265.267	36.035	-0.325	0.285
-264.253	-200.000	-0.039	0.233
-263.238	-200.000	-0.044	0.197
-262.224	-92.726	0.536	-0.149
-261.209	239.054	-0.135	0.223
-260.195	-114.128	0.248	0.048
-259.180	800.000	-0.043	-0.175
-258.165	118.835	-0.190	-0.233
-257.151	-168.519	-0.206	-0.008
-256.136	405.356	0.136	-0.285
-255.122	34.886	-0.121	-0.105
-254.107	111.497	0.159	0.190
-253.092	800.000	-0.024	-0.081
-252.078	-200.000	0.061	-0.408
-251.063	-200.000	0.044	-0.209
-250.049	-187.916	0.223	-0.003
-249.034	-26.781	-0.152	0.089
-248.019	257.933	0.209	-0.358
-247.005	2.305	-0.117	-0.084
-245.990	168.142	-0.054	0.077
-244.976	170.696	0.156	0.221
-243.961	-37.838	0.046	0.024
-242.946	-200.000	-0.001	0.150
-241.932	-117.644	-0.170	0.030
-240.917	-84.312	-0.259	0.082
-239.903	260.780	0.189	0.324
-238.888	131.751	0.165	0.210
-237.873	33.566	0.202	-0.174
-236.859	-105.699	0.194	-0.044
-235.844	58.328	0.222	0.216
-234.830	425.215	-0.014	0.030
-233.815	-35.421	0.085	0.046
-232.800	-104.347	0.143	-0.033
-231.786	-157.644	-0.207	0.012
-230.771	10.163	0.025	0.019
-229.757	-200.000	-0.021	-0.171
-228.742	-92.331	0.147	-0.041
-227.727	36.421	-0.163	0.143
-226.713	-10.009	-0.250	-0.165
-225.698	-200.000	0.021	0.153
-224.684	-184.428	0.153	-0.002
-223.669	646.903	0.164	0.417
-222.655	-38.968	-0.185	-0.097
-221.640	800.000	0.019	-0.069
-220.625	104.367	0.106	-0.123
-219.611	220.768	-0.037	-0.059
-218.596	-152.493	0.367	0.026
-217.582	-145.794	0.163	-0.014
-216.567	-94.128	-0.271	-0.074
-215.552	322.633	0.011	-0.020
-214.538	-99.404	-0.110	0.027
-213.523	-200.000	0.006	-0.091
-212.509	-1.826	0.081	0.057
-211.494	-200.000	0.021	-0.201
-210.479	198.816	-0.063	0.096
-209.465	-77.126	-0.127	-0.044
-208.450	197.308	-0.151	0.228
-207.436	176.135	-0.066	0.095
-206.421	-200.000	-0.013	-0.210
-205.406	602.145	-0.102	0.252
-204.392	20.923	-0.120	-0.096
-203.377	171.006	-0.229	0.325
-202.363	-118.177	-0.062	0.011
-201.348	800.000	-0.097	-0.293
-200.333	-200.000	0.022	0.102
-199.319	800.000	0.056	-0.209
-198.304	145.191	-0.133	-0.177
-197.290	157.784	0.003	-0.004
-196.275	-26.454	0.125	0.072
-195.260	-66.439	-0.090	-0.036
-194.246	-113.341	0.041	-0.008
-193.231	9.762	-0.395	-0.297
-192.217	72.690	-0.226	-0.233
-191.202	-173.719	-0.128	-0.004
-190.187	800.000	-0.016	-0.059
-189.173	165.289	0.095	0.134
-188.158	164.522	-0.083	0.116
-187.144	800.000	0.024	0.092
-186.129	245.520	-0.108	-0.180
-185.114	-46.436	0.388	-0.189
-184.100	-103.370	0.124	-0.029
-183.085	-200.000	0.003	0.143
-182.071	164.985	0.149	0.208
-181.056	-35.531	0.059	-0.032
-180.042	-65.142	0.283	0.113
-179.027	-28.132	-0.228	-0.131
-178.012	126.282	-0.017	-0.021
-176.998	242.435	-0.120	-0.199
-175.983	2.675	0.273	0.196
-174.969	-200.000	-0.002	-0.091
-173.954	-44.146	-0.121	0.060
-172.939	39.624	-0.211	0.187
-171.925	75.232	-0.260	0.271
-170.910	-200.000	0.008	0.276
-169.896	-26.881	-0.148	-0.086
-168.881	223.331	-0.067	0.107
-167.866	189.185	-0.158	0.235
-166.852	-20.489	-0.100	0.061
-165.837	-200.000	0.017	-0.212
-164.823	-132.093	0.352	-0.045
-163.808	-76.932	-0.343	-0.119
-162.793	256.439	0.062	-0.105
-161.779	-34.528	0.123	-0.067
-160.764	288.125	-0.154	-0.275
-159.750	-138.251	0.421	0.046
-158.735	382.172	0.120	-0.244
-157.720	-120.891	-0.235	-0.039
-156.706	-74.841	0.151	0.054
-155.691	-3.651	-0.154	0.106
-154.677	-200.000	-0.035	-0.290
-153.662	-100.099	-0.086	0.021
-152.647	-162.562	-0.148	0.007
-151.633	196.667	-0.118	0.177
-150.618	800.000	-0.055	-0.172
-149.604	81.707	0.123	0.132
-148.589	254.710	-0.113	-0.192
-147.574	-90.683	-0.364	0.104
-146.560	-36.178	0.192	0.102
-145.545	43.657	0.076	-0.068
-144.531	212.719	-0.101	0.158
-143.516	455.455	0.139	-0.306
-142.502	23.430	-0.206	0.167
-141.487	-12.643	-0.266	-0.172
-140.472	1.927	-0.076	-0.054
-139.458	248.710	0.140	0.235
-138.443	800.000	0.199	-0.598
-137.429	-151.070	-0.208	0.015
-136.414	128.858	0.078	-0.098
-135.399	181.224	0.109	0.159
-134.385	-120.980	0.295	0.049
-133.370	-138.034	-0.195	-0.021
-132.356	23.502	0.403	-0.328
-131.341	760.666	0.027	0.073
-130.326	-74.247	0.199	-0.071
-129.312	-149.244	0.555	-0.044
-128.297	800.000	0.088	0.250
-127.283	258.757	-0.048	-0.082
-126.268	-200.000	0.019	-0.106
-125.253	-57.746	-0.085	-0.037
-124.239	166.539	-0.162	0.227
-123.224	-136.835	0.453	0.051
-122.210	-200.000	-0.018	-0.211
-121.195	150.183	-0.200	0.268
