DTS Sentinel unit serial number:	SN413079Multiplexer serial number:	ORYXHardware model number:	OX4-SRSoftware version number:	ORYX F/W v4.00 Oryx Data Collector v3.7.2.0data status	okinstallation	princeton_trtdifferential loss correction	single-endedforward channel	channel 4reverse channel	N/Adate	2019/09/12time	05:27:11forward acquisition time	60.00reverse acquisition time	0.00gamma	496.2192k internal	0.2309k external	0.2309temperature offset calibration	1.0063default loss term (dB/km)	0.3790temperature slope calibration	1.0000multiplexer offset coefficient	1.0000multiplexer slope coefficient	1.0000fibre end	0.00T internal ref (°C)	31.92T ext. ref 1 (°C)	1.63T ext. ref 2 (°C)	27.39length (m)	temperature (°C)	Stokes	anti-Stokes-747.200	138.839	0.064	0.086
-746.185	-100.577	0.206	-0.052
-745.171	85.536	-0.293	0.327
-744.156	445.237	-0.173	0.386
-743.142	800.000	-0.056	0.165
-742.127	270.827	-0.102	0.183
-741.112	314.064	0.122	-0.233
-740.098	-89.935	-0.170	-0.050
-739.083	129.581	0.083	0.107
-738.069	-76.457	-0.168	0.060
-737.054	-153.010	0.192	0.014
-736.039	28.770	-0.247	-0.213
-735.025	347.284	0.140	0.280
-734.010	3.719	-0.049	0.036
-732.996	400.265	0.164	-0.349
-731.981	-112.380	-0.328	-0.067
-730.966	395.693	0.150	0.317
-729.952	122.309	-0.130	-0.165
-728.937	800.000	-0.021	0.091
-727.923	15.826	-0.343	-0.274
-726.908	-76.889	-0.302	-0.107
-725.894	-200.000	-0.037	-0.363
-724.879	-113.902	-0.191	-0.038
-723.864	230.591	-0.075	0.124
-722.850	-40.532	0.229	0.120
-721.835	202.320	-0.081	-0.126
-720.821	-96.284	-0.182	0.049
-719.806	-200.000	-0.024	-0.336
-718.791	-137.212	0.136	-0.016
-717.777	-96.550	-0.128	0.034
-716.762	-115.552	0.078	-0.015
-715.748	-200.000	-0.059	-0.277
-714.733	800.000	-0.062	0.224
-713.718	-146.473	-0.253	-0.022
-712.704	800.000	-0.021	-0.078
-711.689	-135.708	-0.392	-0.047
-710.675	-200.000	-0.021	-0.186
-709.660	480.881	-0.018	-0.041
-708.645	242.513	0.239	-0.406
-707.631	18.189	-0.339	-0.275
-706.616	353.311	-0.196	0.395
-705.602	-61.250	-0.096	-0.041
-704.587	14.585	0.267	0.212
-703.572	-85.344	0.336	-0.106
-702.558	9.209	0.107	-0.082
-701.543	358.171	0.126	0.254
-700.529	307.227	0.056	-0.105
-699.514	353.888	-0.176	-0.355
-698.499	-9.984	0.243	-0.164
-697.485	-16.839	0.111	-0.071
-696.470	-200.000	0.006	0.311
-695.456	-66.238	-0.141	-0.057
-694.441	149.227	-0.056	0.077
-693.426	-11.590	0.030	-0.020
-692.412	-25.590	-0.336	-0.201
-691.397	142.718	-0.122	0.165
-690.383	-10.628	-0.161	0.108
-689.368	96.569	-0.069	-0.081
-688.354	129.951	0.290	0.377
-687.339	318.525	0.098	0.188
-686.324	94.197	0.099	0.114
-685.310	-200.000	0.053	0.240
-684.295	451.642	-0.142	-0.317
-683.281	-200.000	0.056	0.276
-682.266	2.181	0.139	0.102
-681.251	214.167	-0.109	0.175
-680.237	-200.000	-0.263	0.000
-679.222	-176.542	0.132	-0.003
-678.208	29.190	-0.223	-0.192
-677.193	800.000	0.058	0.178
-676.178	64.661	-0.257	-0.262
-675.164	-200.000	-0.013	-0.096
-674.149	-44.743	-0.112	0.057
-673.135	409.034	0.120	0.257
-672.120	83.426	0.177	-0.195
-671.105	683.397	0.033	0.088
-670.091	-78.706	0.178	-0.062
-669.076	10.978	-0.294	-0.228
-668.062	-59.305	0.409	-0.178
-667.047	318.114	-0.037	-0.072
-666.032	679.429	-0.106	0.281
-665.018	-107.654	0.271	-0.060
-664.003	94.775	-0.300	0.345
-662.989	-13.260	-0.253	0.167
-661.974	-78.427	-0.182	-0.063
-660.959	-153.075	-0.066	0.005
-659.945	-50.907	0.359	-0.171
-658.930	7.296	-0.089	-0.067
-657.916	-28.213	-0.065	-0.038
-656.901	227.585	0.010	-0.017
-655.886	-16.944	-0.159	-0.102
-654.872	53.263	0.073	-0.071
-653.857	-172.099	-0.207	0.007
-652.843	-200.000	-0.003	-0.220
-651.828	-75.060	-0.169	0.061
-650.814	-136.523	-0.172	-0.020
-649.799	34.791	-0.141	0.125
-648.784	-85.364	0.130	-0.041
-647.770	800.000	-0.107	0.312
-646.755	-95.644	0.309	0.084
-645.741	-12.520	-0.110	-0.073
-644.726	777.872	-0.042	-0.115
-643.711	-3.002	-0.232	0.164
-642.697	18.170	0.175	0.141
-641.682	-37.058	0.434	0.235
-640.668	10.855	-0.009	0.007
-639.653	-93.501	0.066	-0.019
-638.638	258.760	-0.093	-0.163
-637.624	-167.454	0.087	0.004
-636.609	-70.613	-0.178	0.068
-635.595	-71.814	-0.104	0.039
-634.580	-29.786	-0.164	0.095
-633.565	422.529	0.177	-0.384
-632.551	-200.000	-0.018	0.118
-631.536	-170.483	0.492	-0.017
-630.522	13.238	0.142	-0.111
-629.507	214.102	-0.295	0.472
-628.492	800.000	0.052	0.146
-627.478	-200.000	0.016	0.257
-626.463	-136.577	-0.074	0.009
-625.449	99.712	-0.323	-0.379
-624.434	-37.652	0.030	-0.016
-623.419	-200.000	0.003	0.036
-622.405	-29.551	0.126	0.073
-621.390	-116.430	0.390	0.073
-620.376	-200.000	0.014	-0.357
-619.361	619.255	-0.118	0.299
-618.346	-75.098	-0.186	-0.067
-617.332	165.556	0.200	0.286
-616.317	-200.000	-0.008	0.109
-615.303	-144.564	0.157	-0.015
-614.288	-200.000	0.029	-0.244
-613.273	-68.110	0.153	0.060
-612.259	800.000	-0.043	0.144
-611.244	-101.494	-0.184	-0.045
-610.230	-93.439	-0.374	-0.105
-609.215	-97.143	0.200	-0.053
-608.201	47.935	0.201	0.190
-607.186	-39.437	-0.267	-0.141
-606.171	800.000	-0.079	-0.258
-605.157	-200.000	0.001	-0.046
-604.142	203.229	-0.164	-0.256
-603.128	-45.560	0.233	-0.117
-602.113	364.049	-0.113	0.230
-601.098	800.000	0.080	0.338
-600.084	-200.000	-0.049	0.242
-599.069	99.469	-0.080	-0.094
-598.055	77.721	0.100	0.108
-597.040	-51.315	-0.148	0.070
-596.025	380.683	0.216	0.447
-595.011	-94.650	-0.251	0.069
-593.996	800.000	-0.075	-0.216
-592.982	280.731	0.062	-0.111
-591.967	-200.000	0.004	-0.171
-590.952	-200.000	0.030	0.172
-589.938	151.346	-0.099	-0.137
-588.923	-49.395	0.357	-0.172
-587.909	-46.485	-0.058	-0.029
-586.894	-40.932	-0.162	-0.084
-585.879	-186.597	0.065	-0.001
-584.865	-149.184	0.178	-0.014
-583.850	-78.119	-0.290	-0.101
-582.836	-81.232	0.076	0.025
-581.821	-200.000	0.054	-0.344
-580.806	722.988	-0.061	-0.164
-579.792	420.311	0.090	-0.195
-578.777	-128.020	-0.030	-0.004
-577.763	-68.255	-0.023	0.009
-576.748	200.602	-0.091	-0.141
-575.733	6.506	0.056	-0.042
-574.719	531.718	-0.086	0.205
-573.704	47.166	0.092	-0.087
-572.690	-26.679	-0.238	0.140
-571.675	693.340	-0.050	-0.132
-570.661	-57.213	-0.409	0.182
-569.646	-24.356	0.205	-0.123
-568.631	-50.152	0.203	-0.097
-567.617	254.944	-0.118	0.205
-566.602	-142.896	0.306	-0.030
-565.588	44.291	-0.029	0.027
-564.573	-69.927	-0.083	0.032
-563.558	-200.000	-0.005	0.102
-562.544	-200.000	0.003	-0.040
-561.529	-54.914	0.319	0.145
-560.515	-200.000	-0.038	-0.264
-559.500	98.171	0.121	0.140
-558.485	-176.451	-0.285	-0.007
-557.471	-200.000	0.051	-0.303
-556.456	-92.562	-0.188	0.053
-555.442	-124.950	-0.192	-0.030
-554.427	755.694	0.107	-0.292
-553.412	84.347	0.093	0.103
-552.398	193.320	-0.099	-0.151
-551.383	-18.792	0.257	0.161
-550.369	131.434	0.076	0.099
-549.354	800.000	0.138	0.387
-548.339	-152.418	0.229	-0.017
-547.325	800.000	0.041	0.161
-546.310	551.224	-0.138	-0.334
-545.296	-32.005	0.289	0.163
-544.281	800.000	-0.086	0.248
-543.266	-21.836	0.106	-0.065
-542.252	800.000	-0.032	-0.108
-541.237	-61.776	0.216	-0.091
-540.223	78.189	0.118	0.127
-539.208	-92.973	-0.034	0.010
-538.193	595.846	-0.203	0.507
-537.179	-200.000	0.038	0.263
-536.164	31.668	-0.314	-0.272
-535.150	211.920	-0.137	-0.218
-534.135	83.326	-0.113	-0.124
-533.121	-108.895	-0.131	-0.028
-532.106	-168.270	-0.077	-0.003
-531.091	-200.000	0.023	0.175
-530.077	170.343	-0.177	-0.256
-529.062	-115.313	-0.254	0.048
-528.048	-135.503	-0.089	0.011
-527.033	-113.994	-0.370	0.072
-526.018	-56.920	-0.230	0.103
-525.004	-119.115	-0.015	-0.003
-523.989	-118.648	0.237	0.042
-522.975	73.385	0.194	-0.205
-521.960	800.000	-0.020	-0.070
-520.945	126.150	0.297	-0.378
-519.931	281.602	-0.064	-0.116
-518.916	27.780	0.187	-0.158
-517.902	-124.541	-0.179	-0.028
-516.887	-21.688	0.286	0.175
-515.872	375.926	-0.113	-0.232
-514.858	-125.845	-0.224	-0.034
-513.843	-200.000	-0.030	-0.238
-512.829	-127.834	-0.143	-0.021
-511.814	-133.217	-0.075	-0.010
-510.799	-29.576	-0.176	-0.101
-509.785	119.515	0.222	0.277
-508.770	-80.292	0.177	-0.060
-507.756	-50.010	-0.139	-0.066
-506.741	309.654	0.057	0.108
-505.726	-60.893	0.268	0.114
-504.712	36.964	-0.111	-0.098
-503.697	113.229	-0.147	-0.180
-502.683	-8.454	0.232	-0.157
-501.668	44.141	-0.158	-0.145
-500.653	800.000	-0.011	-0.038
-499.639	-200.000	0.052	-0.356
-498.624	-136.572	-0.318	0.037
-497.610	-65.308	-0.152	0.061
-496.595	-200.000	-0.005	0.262
-495.581	224.570	0.085	-0.138
-494.566	42.134	0.192	-0.176
-493.551	-28.405	-0.176	0.102
-492.537	800.000	0.069	-0.250
-491.522	-110.528	-0.038	0.008
-490.508	-159.158	0.223	-0.013
-489.493	-122.920	0.091	-0.015
-488.478	-108.920	-0.307	-0.066
-487.464	419.902	0.124	-0.267
-486.449	800.000	0.071	-0.220
-485.435	-104.546	0.197	-0.046
-484.420	680.039	0.066	0.174
-483.405	800.000	-0.047	-0.184
-482.391	-26.384	0.046	-0.027
-481.376	-200.000	-0.053	-0.277
-480.362	616.114	-0.141	-0.357
-479.347	-123.014	-0.082	-0.013
-478.332	-69.435	-0.129	-0.050
-477.318	-143.440	-0.145	0.014
-476.303	-118.793	0.227	-0.040
-475.289	89.750	0.104	-0.117
-474.274	-200.000	-0.030	-0.305
-473.259	800.000	-0.103	-0.321
-472.245	0.473	0.171	0.123
-471.230	2.541	0.124	-0.090
-470.216	21.857	0.237	-0.194
-469.201	-200.000	-0.012	0.053
-468.186	88.759	0.111	0.124
-467.172	-5.996	0.154	0.106
-466.157	800.000	-0.042	-0.139
-465.143	316.195	-0.097	0.184
-464.128	800.000	-0.065	0.188
-463.113	-24.167	-0.358	-0.215
-462.099	-148.036	0.023	0.002
-461.084	82.341	-0.156	-0.171
-460.070	-60.974	0.078	0.033
-459.055	-52.006	-0.223	-0.104
-458.040	-37.133	0.056	-0.030
-457.026	84.288	-0.187	-0.205
-456.011	50.698	-0.156	0.148
-454.997	81.004	-0.147	0.160
-453.982	-1.873	0.158	-0.111
-452.968	-105.852	0.287	-0.065
-451.953	42.824	-0.122	-0.112
-450.938	-74.195	0.331	0.120
-449.924	-24.803	-0.108	-0.064
-448.909	-54.794	0.229	-0.104
-447.895	-200.000	-0.054	-0.396
-446.880	-95.901	0.432	0.116
-445.865	294.889	-0.043	-0.080
-444.851	452.471	0.286	-0.634
-443.836	-39.366	0.440	-0.232
-442.822	-139.940	0.234	0.025
-441.807	-54.507	0.168	-0.076
-440.792	640.574	0.028	-0.073
-439.778	137.949	0.188	0.247
-438.763	499.511	-0.097	-0.224
-437.749	-45.728	-0.315	-0.157
-436.734	324.844	-0.079	-0.152
-435.719	-103.490	-0.283	-0.067
-434.705	-200.000	-0.063	-0.496
-433.690	543.363	0.072	0.173
-432.676	35.603	0.213	-0.188
-431.661	-136.756	0.319	-0.037
-430.646	-98.279	0.111	-0.029
-429.632	-49.102	0.062	0.030
-428.617	58.697	0.020	-0.020
-427.603	-191.697	-0.070	0.001
-426.588	-116.542	-0.195	-0.036
-425.573	749.598	-0.026	-0.069
-424.559	-7.414	0.249	0.169
-423.544	-40.130	0.232	0.121
-422.530	-200.000	-0.009	-0.058
-421.515	-36.924	-0.373	-0.201
-420.500	406.668	-0.124	-0.263
-419.486	663.275	0.084	0.216
-418.471	800.000	0.043	0.120
-417.457	286.165	-0.084	0.152
-416.442	321.379	0.160	-0.305
-415.428	800.000	0.089	-0.272
-414.413	144.829	0.113	0.152
-413.398	-108.508	-0.275	0.059
-412.384	221.235	0.083	-0.134
-411.369	-200.000	0.015	0.219
-410.355	-98.255	0.133	-0.034
-409.340	-7.368	0.113	0.077
-408.325	-139.916	0.419	0.044
-407.311	-200.000	-0.060	0.304
-406.296	34.572	-0.248	-0.218
-405.282	-119.050	0.448	0.079
-404.267	-114.720	0.101	0.019
-403.252	-200.000	0.028	0.268
-402.238	-151.266	0.237	0.018
-401.223	-104.733	-0.090	-0.021
-400.209	25.460	-0.066	0.055
-399.194	-132.062	-0.190	-0.025
-398.179	-117.521	-0.363	0.066
-397.165	-121.107	-0.167	0.028
-396.150	305.618	0.082	0.153
-395.136	329.967	-0.011	0.021
-394.121	774.357	-0.050	0.136
-393.106	25.514	-0.051	0.043
-392.092	-105.790	-0.281	0.064
-391.077	800.000	0.048	0.137
-390.063	-42.105	0.270	-0.138
-389.048	37.278	0.328	-0.291
-388.033	64.169	0.053	-0.054
-387.019	275.664	0.038	0.068
-386.004	800.000	-0.065	-0.201
-384.990	800.000	-0.078	-0.219
-383.975	250.304	-0.120	0.203
-382.960	117.741	0.229	0.282
-381.946	535.161	-0.119	-0.282
-380.931	-81.212	0.221	0.073
-379.917	77.181	-0.126	0.134
-378.902	-200.000	-0.015	-0.214
-377.888	211.113	-0.120	-0.189
-376.873	-10.216	0.140	0.093
-375.858	-200.000	-0.013	0.088
-374.844	-70.314	-0.151	-0.057
-373.829	-58.695	-0.169	0.073
-372.815	-200.000	-0.009	0.132
-371.800	760.865	-0.109	0.297
-370.785	-49.805	-0.286	0.136
-369.771	-200.000	-0.074	0.401
-368.756	800.000	0.036	0.158
-367.742	-96.132	0.253	-0.067
-366.727	133.189	0.119	-0.154
-365.712	-34.323	0.451	0.248
-364.698	-200.000	-0.001	-0.042
-363.683	800.000	-0.027	0.088
-362.669	800.000	-0.076	0.304
-361.654	33.074	0.135	0.117
-360.639	-104.121	-0.128	0.030
-359.625	65.148	-0.062	0.063
-358.610	275.008	-0.097	0.172
-357.596	-67.358	-0.088	-0.035
-356.581	0.909	-0.396	-0.284
-355.566	41.209	-0.279	-0.253
-354.552	-200.000	0.040	-0.301
-353.537	382.767	0.047	0.097
-352.523	-30.829	-0.205	-0.116
-351.508	-200.000	0.016	-0.228
-350.493	44.960	0.156	-0.144
-349.479	118.334	-0.107	-0.132
-348.464	800.000	-0.056	0.228
-347.450	-61.267	0.161	-0.068
-346.435	139.637	0.113	0.149
-345.420	180.352	-0.212	-0.310
-344.406	420.298	-0.141	-0.302
-343.391	-141.763	-0.195	0.020
-342.377	-117.744	0.330	-0.059
-341.362	800.000	-0.041	0.154
-340.348	87.515	0.200	0.221
-339.333	-70.090	0.303	-0.115
-338.318	-26.363	0.174	-0.102
-337.304	-200.000	0.039	0.205
-336.289	14.941	-0.191	0.149
-335.275	-200.000	0.022	0.190
-334.260	18.594	-0.060	-0.048
-333.245	-200.000	0.051	0.230
-332.231	-200.000	0.009	0.069
-331.216	0.197	-0.207	-0.148
-330.202	-72.645	-0.169	-0.062
-329.187	-200.000	0.010	0.141
-328.172	175.419	-0.049	0.071
-327.158	-69.882	0.133	0.051
-326.143	-10.614	0.219	0.145
-325.129	-152.116	0.127	-0.009
-324.114	-92.797	0.224	0.063
-323.099	153.124	-0.158	-0.216
-322.085	-132.936	-0.122	0.016
-321.070	728.793	0.113	-0.303
-320.056	-160.138	0.110	-0.006
-319.041	-78.338	-0.164	-0.056
-318.026	-200.000	0.292	0.000
-317.012	634.476	0.059	-0.150
-315.997	94.718	0.170	-0.193
-314.983	-200.000	-0.045	0.273
-313.968	-200.000	-0.077	-0.599
-312.953	-123.174	-0.504	0.081
-311.939	-177.690	-0.167	-0.004
-310.924	-65.596	-0.220	0.088
-309.910	27.778	-0.111	0.093
-308.895	-44.166	-0.208	-0.104
-307.880	-143.266	0.034	0.003
-306.866	-115.023	-0.239	0.045
-305.851	-110.825	-0.367	-0.076
-304.837	-200.000	0.036	-0.200
-303.822	119.703	0.040	0.049
-302.807	415.199	-0.103	0.219
-301.793	-8.464	-0.426	-0.286
-300.778	19.111	0.157	0.126
-299.764	90.432	-0.185	-0.207
-298.749	87.911	0.085	-0.094
-297.735	-168.194	0.206	0.008
-296.720	800.000	-0.033	-0.109
-295.705	800.000	0.055	-0.191
-294.691	-200.000	0.011	-0.280
-293.676	777.709	-0.059	0.160
-292.662	-144.686	-0.475	0.044
-291.647	195.916	-0.070	-0.106
-290.632	-66.475	0.537	-0.213
-289.618	52.729	-0.014	0.013
-288.603	-35.761	0.344	0.186
-287.589	800.000	0.054	-0.216
-286.574	800.000	-0.071	0.229
-285.559	-200.000	-0.045	0.345
-284.545	397.742	0.077	0.161
-283.530	-111.069	0.341	0.070
-282.516	800.000	-0.028	0.092
-281.501	-17.276	-0.196	0.123
-280.486	800.000	-0.047	-0.193
-279.472	642.523	-0.092	-0.234
-278.457	729.527	0.132	0.352
-277.443	-28.474	-0.183	0.105
-276.428	625.808	0.062	-0.157
-275.413	-10.201	-0.333	-0.221
-274.399	-2.299	0.122	0.085
-273.384	-200.000	-0.026	-0.219
-272.370	532.805	0.136	0.322
-271.355	-125.829	-0.247	-0.037
-270.340	314.396	0.073	-0.138
-269.326	60.476	-0.140	-0.139
-268.311	800.000	0.012	0.045
-267.297	-112.210	0.058	0.012
-266.282	595.794	-0.118	0.292
-265.267	-62.608	-0.131	-0.054
-264.253	-140.670	0.053	0.005
-263.238	66.698	0.128	0.130
-262.224	439.395	-0.094	0.204
-261.209	331.581	-0.086	0.165
-260.195	-19.663	-0.047	-0.029
-259.180	-200.000	0.068	-0.316
-258.165	-148.919	-0.081	0.006
-257.151	88.248	-0.202	0.224
-256.136	-75.507	0.166	0.059
-255.122	-98.410	-0.198	-0.051
-254.107	-10.928	-0.077	-0.051
-253.092	49.718	0.443	0.416
-252.078	-200.000	0.018	0.130
-251.063	-138.430	-0.215	-0.024
-250.049	800.000	-0.073	0.252
-249.034	-86.841	-0.397	0.121
-248.019	-99.193	-0.042	0.010
-247.005	-200.000	-0.023	-0.130
-245.990	-200.000	0.040	-0.226
-244.976	800.000	0.038	-0.115
-243.961	-200.000	0.014	-0.166
-242.946	800.000	0.142	0.418
-241.932	70.202	-0.219	0.225
-240.917	-22.038	-0.077	0.047
-239.903	3.990	-0.092	0.067
-238.888	-200.000	0.002	0.087
-237.873	-113.171	-0.134	-0.026
-236.859	3.422	0.277	-0.201
-235.844	-200.000	-0.013	-0.093
-234.830	-43.892	-0.283	0.142
-233.815	-1.509	-0.406	0.285
-232.800	38.897	-0.559	-0.498
-231.786	197.223	0.090	-0.137
-230.771	-116.257	0.256	-0.047
-229.757	37.384	-0.056	-0.050
-228.742	680.369	0.149	-0.386
-227.727	139.816	0.054	-0.070
-226.713	-63.321	0.289	0.118
-225.698	-186.512	-0.086	-0.001
-224.684	800.000	-0.051	-0.216
-223.669	795.312	0.089	-0.243
-222.655	-79.395	-0.151	-0.051
-221.640	-200.000	0.036	-0.157
-220.625	-200.000	0.030	0.167
-219.611	-6.137	0.607	0.413
-218.596	-51.608	-0.153	-0.071
-217.582	-200.000	0.008	0.258
-216.567	40.795	0.225	0.202
-215.552	216.166	-0.231	0.366
-214.538	224.549	-0.194	0.312
-213.523	-200.000	-0.019	-0.233
-212.509	267.322	-0.073	0.127
-211.494	348.339	-0.063	0.124
-210.479	-57.650	0.083	-0.036
-209.465	800.000	0.047	-0.188
-208.450	646.341	-0.087	0.222
-207.436	-200.000	-0.013	0.224
-206.421	-131.787	-0.096	-0.012
-205.406	-84.092	0.261	0.082
-204.392	24.475	0.191	-0.157
-203.377	27.233	-0.339	-0.283
-202.363	354.983	0.243	0.482
-201.348	-81.753	0.178	0.058
-200.333	800.000	0.064	0.203
-199.319	-111.078	0.162	-0.033
-198.304	-85.582	0.239	-0.074
-197.290	-43.300	0.147	0.074
-196.275	-200.000	0.019	0.114
-195.260	-91.325	-0.104	-0.030
-194.246	-200.000	0.002	0.059
-193.231	6.795	-0.425	0.315
-192.217	-169.342	-0.319	0.012
-191.202	-114.386	-0.222	-0.042
-190.187	-74.771	0.130	-0.047
-189.173	720.302	0.120	0.318
-188.158	-17.888	-0.210	0.131
-187.144	194.142	0.170	0.256
-186.129	-200.000	0.020	0.130
-185.114	46.979	-0.075	0.069
-184.100	649.581	0.063	0.159
-183.085	2.781	0.020	0.014
-182.071	-114.910	0.290	0.055
-181.056	-131.370	-0.414	0.055
-180.042	-52.463	-0.198	0.091
-179.027	103.682	0.166	0.194
-178.012	657.033	0.017	0.043
-176.998	82.446	0.052	0.056
-175.983	458.970	0.113	0.249
-174.969	142.118	-0.046	0.061
-173.954	12.901	-0.231	-0.177
-172.939	-88.739	0.203	0.060
-171.925	42.330	-0.114	0.103
-170.910	-200.000	-0.029	0.378
-169.896	-145.314	-0.170	0.015
-168.881	-111.166	0.293	-0.060
-167.866	-76.857	-0.174	-0.061
-166.852	-50.268	0.291	-0.137
-165.837	54.199	-0.092	0.088
-164.823	-200.000	0.051	0.295
-163.808	-105.965	0.403	0.090
-162.793	93.591	0.098	0.110
-161.779	-38.319	0.147	-0.077
-160.764	101.772	0.035	0.041
-159.750	-75.781	-0.173	0.061
-158.735	-200.000	0.005	0.186
-157.720	266.253	0.069	0.120
-156.706	-31.436	0.171	-0.096
-155.691	-138.898	-0.094	0.010
-154.677	354.780	0.075	-0.149
-153.662	-36.558	-0.081	0.043
-152.647	-55.800	0.375	-0.166
-151.633	800.000	0.137	0.389
-150.618	-131.528	-0.234	-0.031
-149.604	52.868	0.174	0.165
-148.589	198.169	-0.041	-0.062
-147.574	117.251	0.043	0.052
-146.560	-200.000	-0.011	0.062
-145.545	-92.413	-0.155	-0.043
-144.531	-100.071	0.057	0.014
-143.516	-104.992	-0.413	-0.094
-142.502	35.140	-0.230	0.200
-141.487	-200.000	0.006	-0.113
-140.472	26.907	-0.147	0.123
-139.458	-174.126	0.229	0.007
-138.443	-74.380	-0.045	0.016
-137.429	800.000	0.046	-0.136
-136.414	10.469	0.048	0.036
-135.399	-56.586	0.167	0.073
-134.385	-61.957	0.423	0.176
-133.370	48.183	0.166	-0.154
-132.356	-200.000	0.031	-0.176
-131.341	27.070	-0.182	-0.152
-130.326	291.049	-0.107	0.192
-129.312	56.371	-0.304	0.293
-128.297	-200.000	-0.064	0.342
-127.283	-109.336	0.523	-0.110
-126.268	-125.386	-0.494	-0.075
-125.253	-180.197	0.339	0.007
-124.239	800.000	0.026	-0.101
-123.224	17.299	0.122	0.096
-122.210	-26.773	-0.277	0.161
-121.195	-200.000	0.019	0.183
