DTS Sentinel unit serial number:	SN413079Multiplexer serial number:	ORYXHardware model number:	OX4-SRSoftware version number:	ORYX F/W v4.00 Oryx Data Collector v3.7.2.0data status	okinstallation	princeton_trtdifferential loss correction	single-endedforward channel	channel 4reverse channel	N/Adate	2019/09/14time	22:29:35forward acquisition time	60.00reverse acquisition time	0.00gamma	496.2192k internal	0.2306k external	0.2306temperature offset calibration	1.0064default loss term (dB/km)	0.3790temperature slope calibration	1.0000multiplexer offset coefficient	1.0000multiplexer slope coefficient	1.0000fibre end	0.00T internal ref (°C)	32.56T ext. ref 1 (°C)	4.70T ext. ref 2 (°C)	27.54length (m)	temperature (°C)	Stokes	anti-Stokes-747.200	-64.447	-0.489	-0.202
-746.185	800.000	0.097	0.396
-745.171	632.424	0.008	-0.021
-744.156	532.034	0.087	0.210
-743.142	215.234	0.092	0.149
-742.127	25.570	-0.143	0.121
-741.112	10.292	0.087	0.068
-740.098	306.064	-0.265	0.502
-739.083	31.746	-0.094	-0.082
-738.069	800.000	0.015	0.046
-737.054	318.728	-0.121	0.234
-736.039	-172.216	-0.295	-0.010
-735.025	800.000	0.041	-0.159
-734.010	314.773	-0.145	-0.277
-732.996	-200.000	0.050	-0.323
-731.981	800.000	0.101	0.302
-730.966	333.448	-0.196	0.386
-729.952	-147.313	-0.178	-0.015
-728.937	99.712	-0.172	-0.203
-727.923	-200.000	-0.031	-0.346
-726.908	9.710	-0.123	0.095
-725.894	-110.289	0.071	-0.015
-724.879	800.000	-0.105	-0.380
-723.864	573.576	-0.040	0.100
-722.850	3.479	0.130	-0.096
-721.835	-200.000	-0.030	0.142
-720.821	-75.128	-0.080	0.029
-719.806	-83.930	-0.164	0.053
-718.791	576.244	-0.083	-0.205
-717.777	-200.000	-0.034	-0.183
-716.762	-132.079	-0.208	-0.027
-715.748	344.712	0.060	0.120
-714.733	311.579	0.073	-0.139
-713.718	-113.406	-0.251	0.050
-712.704	-200.000	0.004	-0.114
-711.689	-74.870	0.244	0.089
-710.675	87.669	-0.194	-0.219
-709.660	-67.386	-0.176	0.070
-708.645	-9.422	-0.194	0.132
-707.631	-58.561	0.422	0.186
-706.616	381.309	0.081	-0.169
-705.602	-147.202	0.233	0.020
-704.587	-172.205	0.179	-0.006
-703.572	399.740	-0.092	0.196
-702.558	-169.248	0.329	-0.012
-701.543	-105.802	-0.128	-0.029
-700.529	-65.144	-0.080	-0.033
-699.514	-13.284	0.316	0.209
-698.499	-200.000	-0.045	-0.214
-697.485	-200.000	0.064	-0.291
-696.470	54.508	0.107	-0.105
-695.456	-140.893	-0.021	0.002
-694.441	97.098	-0.019	-0.022
-693.426	35.975	-0.166	0.148
-692.412	-108.427	-0.455	-0.100
-691.397	278.731	0.024	0.043
-690.383	34.660	-0.090	-0.080
-689.368	-141.045	-0.386	0.040
-688.354	90.493	-0.153	0.173
-687.339	-180.362	0.406	-0.009
-686.324	142.836	0.268	0.361
-685.310	-33.748	0.154	0.086
-684.295	100.735	-0.116	-0.137
-683.281	418.504	0.073	0.158
-682.266	36.972	-0.272	0.244
-681.251	-200.000	-0.021	-0.211
-680.237	-62.279	0.140	0.059
-679.222	800.000	0.029	-0.080
-678.208	532.853	-0.093	-0.222
-677.193	-40.552	-0.095	-0.050
-676.178	-23.809	-0.137	0.083
-675.164	800.000	-0.028	-0.112
-674.149	-42.261	0.030	0.015
-673.135	-200.000	-0.027	-0.386
-672.120	-42.795	-0.036	-0.019
-671.105	174.274	0.184	-0.269
-670.091	386.213	-0.109	-0.228
-669.076	-200.000	-0.030	-0.238
-668.062	-200.000	0.008	0.266
-667.047	155.906	-0.129	0.181
-666.032	-48.002	0.032	-0.015
-665.018	-47.401	0.068	0.033
-664.003	-149.137	0.355	0.029
-662.989	-200.000	-0.005	-0.175
-661.974	628.346	0.067	-0.171
-660.959	200.097	0.156	0.244
-659.945	-145.482	0.037	0.003
-658.930	-200.000	-0.020	-0.094
-657.916	-107.191	-0.225	-0.050
-656.901	-169.054	-0.329	-0.012
-655.886	81.357	0.228	-0.250
-654.872	356.975	-0.127	0.257
-653.857	292.604	0.125	-0.231
-652.843	642.973	-0.130	0.335
-651.828	166.874	-0.101	0.145
-650.814	-2.567	-0.211	0.150
-649.799	425.624	0.058	-0.127
-648.784	-41.244	-0.216	-0.113
-647.770	-122.826	-0.087	0.014
-646.755	-47.018	-0.142	0.070
-645.741	183.531	-0.133	0.199
-644.726	800.000	-0.021	0.086
-643.711	501.574	0.051	-0.120
-642.697	85.031	-0.138	-0.153
-641.682	172.278	-0.219	-0.318
-640.668	-85.249	-0.510	-0.161
-639.653	-67.600	-0.198	-0.079
-638.638	-200.000	0.000	-0.311
-637.624	126.518	-0.184	-0.236
-636.609	-136.003	-0.177	-0.021
-635.595	15.844	-0.145	-0.115
-634.580	81.570	0.269	0.295
-633.565	-66.498	-0.091	0.037
-632.551	484.015	-0.066	-0.153
-631.536	-101.673	-0.015	0.004
-630.522	79.820	-0.167	-0.181
-629.507	114.668	-0.125	-0.154
-628.492	6.626	0.193	-0.146
-627.478	40.468	0.147	-0.134
-626.463	9.668	-0.152	0.117
-625.449	204.322	0.072	0.113
-624.434	-52.081	-0.211	0.099
-623.419	-74.653	0.111	-0.040
-622.405	-127.416	-0.039	0.006
-621.390	-79.170	0.100	0.034
-620.376	-14.371	-0.043	-0.028
-619.361	70.303	-0.262	-0.274
-618.346	117.739	0.122	-0.152
-617.332	179.616	0.027	0.040
-616.317	54.366	0.054	-0.053
-615.303	31.421	0.135	0.117
-614.288	81.713	-0.061	-0.066
-613.273	-50.953	0.120	-0.057
-612.259	353.485	-0.069	-0.138
-611.244	800.000	-0.066	0.222
-610.230	64.482	-0.290	-0.296
-609.215	492.384	0.080	-0.185
-608.201	-155.857	-0.356	0.023
-607.186	395.557	-0.092	0.195
-606.171	-34.101	0.273	0.152
-605.157	800.000	0.063	0.185
-604.142	147.199	0.078	0.106
-603.128	-72.098	-0.258	-0.097
-602.113	480.403	-0.089	0.203
-601.098	-109.381	0.146	0.031
-600.084	800.000	-0.055	-0.172
-599.069	105.377	0.112	-0.134
-598.055	91.448	0.082	0.094
-597.040	-29.069	0.230	-0.134
-596.025	-200.000	-0.003	0.058
-595.011	7.023	-0.148	-0.111
-593.996	-39.623	-0.114	-0.060
-592.982	-36.292	0.181	-0.099
-591.967	221.587	0.137	0.223
-590.952	-68.200	-0.103	-0.040
-589.938	-7.353	0.139	0.095
-588.923	-24.948	-0.169	-0.101
-587.909	-147.550	0.066	0.006
-586.894	116.588	-0.188	0.233
-585.879	572.454	0.072	0.179
-584.865	84.414	0.141	0.156
-583.850	-40.445	-0.038	-0.020
-582.836	800.000	-0.025	-0.074
-581.821	214.874	-0.176	-0.282
-580.806	-96.453	-0.217	0.058
-579.792	-200.000	0.050	-0.348
-578.777	92.833	0.109	0.124
-577.763	50.262	-0.164	0.157
-576.748	800.000	0.040	-0.141
-575.733	-96.054	-0.295	0.079
-574.719	41.706	-0.137	-0.125
-573.704	203.971	0.179	0.281
-572.690	50.774	0.194	0.186
-571.675	-200.000	0.018	0.089
-570.661	192.604	0.075	-0.115
-569.646	227.622	0.163	-0.268
-568.631	-200.000	-0.027	0.280
-567.617	444.165	-0.039	-0.087
-566.602	-146.608	-0.087	0.008
-565.588	-54.796	-0.162	0.074
-564.573	19.350	0.055	-0.045
-563.558	800.000	-0.091	0.291
-562.544	-109.806	0.229	0.049
-561.529	-145.474	-0.344	0.031
-560.515	2.640	-0.197	-0.144
-559.500	627.019	-0.092	0.235
-558.485	-200.000	-0.067	0.000
-557.471	-200.000	0.018	0.095
-556.456	-35.593	0.017	0.010
-555.442	-138.780	0.104	0.011
-554.427	-7.437	0.139	0.095
-553.412	-200.000	-0.055	-0.293
-552.398	800.000	-0.123	-0.414
-551.383	493.796	0.178	-0.412
-550.369	-106.345	-0.362	-0.082
-549.354	-164.901	0.269	-0.012
-548.339	150.584	0.080	0.110
-547.325	-86.391	0.321	-0.100
-546.310	220.518	-0.161	-0.261
-545.296	-27.849	0.152	0.089
-544.281	501.924	0.206	0.481
-543.266	800.000	0.082	0.247
-542.252	-145.000	-0.122	0.011
-541.237	682.241	0.133	0.349
-540.223	571.263	-0.029	0.070
-539.208	-200.000	-0.010	0.078
-538.193	-136.698	0.164	0.019
-537.179	-14.095	0.183	0.119
-536.164	-200.000	-0.033	-0.152
-535.150	-200.000	-0.003	-0.411
-534.135	-200.000	-0.426	-0.001
-533.121	47.223	-0.203	-0.191
-532.106	-200.000	-0.006	0.151
-531.091	173.314	0.125	-0.182
-530.077	-184.952	-0.125	-0.002
-529.062	-200.000	0.035	0.155
-528.048	6.815	-0.098	0.074
-527.033	737.812	-0.077	-0.208
-526.018	-36.923	-0.144	-0.078
-525.004	-147.976	-0.184	0.015
-523.989	39.890	-0.157	-0.142
-522.975	-150.966	-0.193	-0.015
-521.960	800.000	-0.040	-0.174
-520.945	-11.635	0.053	-0.035
-519.931	84.034	-0.074	0.081
-518.916	286.055	-0.081	0.147
-517.902	285.625	0.141	0.257
-516.887	80.655	-0.236	-0.256
-515.872	137.919	0.192	0.253
-514.858	85.068	-0.157	0.174
-513.843	-155.379	-0.289	-0.019
-512.829	-12.237	-0.130	0.086
-511.814	-125.014	0.279	0.043
-510.799	215.033	0.246	-0.394
-509.785	84.009	-0.131	0.145
-508.770	22.592	0.066	0.055
-507.756	92.526	-0.121	-0.138
-506.741	-200.000	-0.047	0.209
-505.726	-57.292	-0.130	-0.058
-504.712	-129.501	-0.227	-0.032
-503.697	57.558	0.113	-0.111
-502.683	108.803	0.119	-0.144
-501.668	800.000	0.117	-0.383
-500.653	250.980	0.023	0.039
-499.639	-108.767	-0.017	-0.004
-498.624	-64.947	0.313	0.128
-497.610	-39.062	-0.408	-0.216
-496.595	294.755	0.165	-0.304
-495.581	-200.000	0.008	0.040
-494.566	-200.000	0.016	-0.273
-493.551	-159.416	0.270	-0.015
-492.537	3.515	0.333	-0.245
-491.522	46.381	-0.037	0.035
-490.508	188.365	-0.161	0.242
-489.493	139.411	-0.018	0.024
-488.478	-200.000	0.024	-0.109
-487.464	-75.376	0.304	0.109
-486.449	249.349	-0.103	-0.175
-485.435	8.091	0.282	-0.213
-484.420	-46.678	-0.211	-0.104
-483.405	556.914	0.093	0.225
-482.391	-127.171	0.216	0.032
-481.376	-47.421	0.188	-0.092
-480.362	150.145	0.260	-0.355
-479.347	630.594	-0.060	0.152
-478.332	178.925	0.210	0.309
-477.318	331.788	-0.064	0.124
-476.303	263.059	0.222	0.388
-475.289	29.860	-0.083	0.071
-474.274	-141.764	0.098	-0.010
-473.259	129.727	-0.222	-0.285
-472.245	329.655	-0.301	-0.582
-471.230	290.090	0.060	0.110
-470.216	-13.532	-0.163	0.106
-469.201	145.222	0.148	-0.199
-468.186	79.765	0.093	0.101
-467.172	-97.430	0.385	-0.101
-466.157	332.732	0.109	-0.213
-465.143	48.148	-0.082	-0.078
-464.128	-47.541	-0.059	-0.029
-463.113	338.175	0.083	-0.162
-462.099	-119.672	0.130	-0.023
-461.084	52.076	0.209	0.201
-460.070	19.513	0.272	0.220
-459.055	-200.000	-0.025	0.147
-458.040	-49.950	0.082	-0.039
-457.026	11.617	0.130	-0.100
-456.011	48.587	-0.215	-0.203
-454.997	-164.078	0.148	-0.007
-453.982	800.000	-0.075	0.332
-452.968	-15.225	-0.173	0.111
-451.953	-132.104	-0.091	-0.012
-450.938	377.763	-0.029	-0.060
-449.924	-200.000	-0.061	-0.279
-448.909	-95.453	0.252	-0.068
-447.895	-48.915	-0.267	-0.129
-446.880	436.890	0.071	-0.156
-445.865	369.865	0.149	0.303
-444.851	88.691	0.092	-0.103
-443.836	602.031	0.041	0.103
-442.822	-61.462	-0.252	-0.107
-441.807	-17.170	-0.069	0.044
-440.792	-200.000	-0.007	-0.157
-439.778	-89.428	0.357	-0.106
-438.763	90.479	0.145	0.163
-437.749	-200.000	0.015	-0.383
-436.734	-35.857	-0.149	0.081
-435.719	-200.000	0.084	0.437
-434.705	60.777	0.185	0.185
-433.690	586.946	0.110	0.272
-432.676	-171.541	-0.362	-0.012
-431.661	-31.605	-0.144	0.081
-430.646	-33.211	0.342	-0.191
-429.632	-119.491	-0.134	0.023
-428.617	719.083	-0.041	-0.110
-427.603	-75.984	-0.271	0.096
-426.588	234.929	0.040	-0.067
-425.573	-86.213	0.092	0.028
-424.559	-135.180	0.311	0.038
-423.544	800.000	-0.033	0.129
-422.530	308.664	-0.188	0.352
-421.515	0.213	0.221	0.159
-420.500	20.788	-0.105	0.085
-419.486	-138.233	0.312	-0.035
-418.471	7.991	-0.163	-0.123
-417.457	65.104	0.166	-0.169
-416.442	81.645	-0.195	-0.212
-415.428	239.043	-0.141	-0.236
-414.413	800.000	-0.019	-0.078
-413.398	80.658	-0.160	0.173
-412.384	82.505	-0.189	-0.206
-411.369	138.640	-0.035	0.047
-410.355	-148.120	0.315	0.026
-409.340	-102.157	0.138	-0.033
-408.325	116.427	0.150	0.185
-407.311	364.885	0.068	0.138
-406.296	427.665	0.062	-0.134
-405.282	800.000	-0.035	0.137
-404.267	263.020	0.101	0.176
-403.252	-14.534	0.239	0.154
-402.238	-200.000	0.010	0.177
-401.223	-128.570	0.129	-0.018
-400.209	187.522	0.063	-0.094
-399.194	-175.425	-0.297	0.008
-398.179	-200.000	0.016	0.101
-397.165	800.000	-0.038	-0.124
-396.150	800.000	-0.058	-0.167
-395.136	-200.000	0.017	-0.076
-394.121	800.000	-0.072	0.310
-393.106	-6.546	0.026	0.018
-392.092	-200.000	-0.010	-0.241
-391.077	-29.253	0.195	-0.112
-390.063	800.000	0.041	0.130
-389.048	800.000	0.066	0.217
-388.033	-101.819	-0.409	-0.099
-387.019	7.788	0.089	0.067
-386.004	14.429	0.191	-0.149
-384.990	-30.424	0.141	-0.080
-383.975	-200.000	0.046	0.215
-382.960	-70.606	-0.146	-0.055
-381.946	-53.935	0.222	0.101
-380.931	31.161	-0.067	0.058
-379.917	9.976	-0.086	-0.066
-378.902	-123.884	-0.264	0.042
-377.888	-98.720	-0.305	-0.078
-376.873	765.507	0.165	-0.450
-375.858	-200.000	-0.075	-0.344
-374.844	-50.862	0.205	-0.097
-373.829	-1.873	0.366	-0.258
-372.815	-112.223	0.049	0.010
-371.800	245.703	-0.088	-0.148
-370.785	-135.669	0.077	-0.009
-369.771	-103.751	-0.089	-0.021
-368.756	121.335	-0.190	-0.237
-367.742	-200.000	-0.031	0.274
-366.727	87.027	-0.145	0.160
-365.712	800.000	-0.032	-0.101
-364.698	-117.607	0.099	-0.018
-363.683	58.105	-0.021	0.021
-362.669	-26.487	-0.349	-0.205
-361.654	-10.334	0.141	-0.094
-360.639	-95.686	0.182	0.049
-359.625	112.354	-0.105	-0.127
-358.610	800.000	-0.132	-0.439
-357.596	-83.320	0.179	-0.058
-356.581	-144.497	0.390	0.036
-355.566	-143.499	-0.550	0.053
-354.552	-123.673	-0.219	-0.035
-353.537	151.939	0.039	-0.053
-352.523	155.530	0.142	-0.197
-351.508	6.851	0.098	0.073
-350.493	-54.807	0.152	0.069
-349.479	-200.000	-0.033	-0.254
-348.464	-29.271	0.183	-0.105
-347.450	106.330	0.097	-0.115
-346.435	114.993	0.090	0.110
-345.420	168.622	-0.026	-0.037
-344.406	800.000	-0.072	-0.251
-343.391	-200.000	0.030	0.268
-342.377	-200.000	-0.004	0.274
-341.362	-200.000	-0.082	0.000
-340.348	551.942	-0.074	-0.179
-339.333	-116.679	-0.115	-0.021
-338.318	-200.000	-0.033	-0.199
-337.304	-99.739	-0.176	0.044
-336.289	-115.781	-0.395	-0.074
-335.275	-15.912	-0.276	0.176
-334.260	76.596	-0.099	0.105
-333.245	-35.625	0.179	0.097
-332.231	115.168	0.037	0.045
-331.216	28.089	0.163	-0.137
-330.202	-21.838	0.132	0.080
-329.187	-157.056	0.028	-0.002
-328.172	364.120	0.120	-0.242
-327.158	-38.484	-0.095	-0.050
-326.143	-200.000	0.008	0.093
-325.129	-127.721	0.052	0.007
-324.114	-200.000	-0.003	0.102
-323.099	7.477	-0.310	-0.232
-322.085	-200.000	-0.026	0.466
-321.070	502.172	-0.068	0.156
-320.056	655.994	-0.075	0.194
-319.041	583.548	0.124	0.304
-318.026	154.398	0.223	-0.306
-317.012	-100.521	0.354	-0.088
-315.997	-200.000	-0.002	0.055
-314.983	-77.723	0.523	-0.181
-313.968	-87.341	0.198	-0.060
-312.953	-200.000	0.113	-0.511
-311.939	119.309	-0.084	0.103
-310.924	144.539	-0.131	0.175
-309.910	-200.000	-0.046	-0.271
-308.895	-61.824	0.317	-0.133
-307.880	-10.210	0.277	-0.184
-306.866	250.006	-0.176	0.298
-305.851	186.879	-0.080	0.119
-304.837	-200.000	-0.032	-0.155
-303.822	348.236	0.027	-0.054
-302.807	154.589	-0.128	0.176
-301.793	95.102	0.178	-0.203
-300.778	461.031	0.078	0.173
-299.764	800.000	0.063	0.212
-298.749	-200.000	-0.008	0.231
-297.735	103.044	-0.247	0.289
-296.720	-45.281	0.400	0.199
-295.705	-200.000	0.006	-0.177
-294.691	800.000	0.043	0.177
-293.676	-200.000	0.003	0.156
-292.662	135.055	0.124	0.161
-291.647	-32.863	-0.193	0.107
-290.632	-115.541	0.216	-0.041
-289.618	-95.654	0.210	0.056
-288.603	-162.144	-0.164	0.008
-287.589	259.595	-0.194	0.334
-286.574	-110.773	-0.366	-0.076
-285.559	-96.722	0.212	0.056
-284.545	-138.871	0.099	-0.011
-283.530	363.781	0.096	-0.193
-282.516	277.161	-0.080	0.143
-281.501	-200.000	-0.027	-0.178
-280.486	84.545	-0.108	-0.118
-279.472	-200.000	-0.039	-0.190
-278.457	543.487	0.081	-0.193
-277.443	-14.888	0.039	-0.025
-276.428	-100.086	-0.122	0.030
-275.413	-2.531	-0.238	0.166
-274.399	800.000	0.056	0.218
-273.384	365.079	0.049	-0.099
-272.370	144.723	0.027	-0.036
-271.355	-33.467	-0.313	-0.173
-270.340	-200.000	-0.017	0.084
-269.326	800.000	0.036	0.133
-268.311	14.407	-0.130	-0.101
-267.297	-200.000	0.007	0.286
-266.282	141.885	0.207	0.274
-265.267	800.000	-0.093	0.268
-264.253	-39.866	-0.127	-0.066
-263.238	450.423	0.199	0.438
-262.224	-200.000	-0.010	0.448
-261.209	-36.417	-0.197	0.106
-260.195	-121.845	0.215	-0.035
-259.180	-135.904	0.094	-0.011
-258.165	-160.863	-0.173	0.009
-257.151	-65.337	0.066	-0.026
-256.136	-200.000	-0.051	0.271
-255.122	14.248	0.194	0.151
-254.107	92.810	0.045	0.051
-253.092	-200.000	-0.017	-0.090
-252.078	110.789	0.068	-0.082
-251.063	-97.466	-0.305	-0.079
-250.049	800.000	-0.041	-0.135
-249.034	2.393	0.239	-0.172
-248.019	-51.335	-0.123	0.057
-247.005	268.443	-0.005	0.009
-245.990	-42.283	0.211	0.108
-244.976	-62.745	0.326	0.135
-243.961	-200.000	0.036	0.271
-242.946	800.000	-0.052	-0.159
-241.932	800.000	-0.081	0.352
-240.917	-5.069	-0.189	0.130
-239.903	111.849	-0.119	0.144
-238.888	301.350	-0.161	0.296
-237.873	-12.005	0.400	0.262
-236.859	45.414	-0.179	0.165
-235.844	57.969	-0.029	0.028
-234.830	-71.276	0.222	0.083
-233.815	-84.550	0.209	0.066
-232.800	-189.626	-0.129	0.001
-231.786	3.136	-0.180	0.131
-230.771	800.000	-0.019	-0.066
-229.757	-200.000	0.004	0.126
-228.742	66.302	-0.210	0.213
-227.727	527.842	-0.061	-0.144
-226.713	17.990	-0.144	0.115
-225.698	-156.663	0.040	0.002
-224.684	240.346	0.165	-0.273
-223.669	-114.401	0.017	-0.003
-222.655	-81.926	-0.197	-0.064
-221.640	800.000	0.007	-0.022
-220.625	-200.000	-0.034	-0.177
-219.611	26.152	-0.274	-0.228
-218.596	-200.000	0.018	0.117
-217.582	-200.000	-0.021	0.166
-216.567	-75.415	-0.071	-0.025
-215.552	160.325	-0.230	0.319
-214.538	38.397	-0.118	-0.104
-213.523	-200.000	0.049	-0.213
-212.509	426.534	0.071	-0.152
-211.494	-68.013	0.184	-0.072
-210.479	110.536	0.225	0.270
-209.465	28.636	0.195	0.164
-208.450	-200.000	-0.017	0.092
-207.436	-81.615	0.313	-0.102
-206.421	-0.388	0.187	0.133
-205.406	87.772	0.276	-0.305
-204.392	-99.857	0.247	0.062
-203.377	800.000	0.034	-0.095
-202.363	193.873	-0.012	0.019
-201.348	149.883	-0.067	0.091
-200.333	29.012	-0.233	0.197
-199.319	-200.000	-0.093	-0.469
-198.304	-200.000	-0.032	-0.163
-197.290	-118.173	-0.062	-0.011
-196.275	-125.296	-0.272	0.041
-195.260	56.961	-0.054	-0.052
-194.246	-200.000	0.004	-0.094
-193.231	74.624	-0.038	-0.040
-192.217	257.423	0.026	-0.045
-191.202	438.592	0.052	0.114
-190.187	-102.490	0.252	-0.060
-189.173	175.920	-0.114	0.165
-188.158	104.184	0.105	0.123
-187.144	-123.915	-0.083	-0.013
-186.129	800.000	0.024	-0.072
-185.114	-93.935	0.303	-0.083
-184.100	-43.959	0.169	0.085
-183.085	-86.189	-0.066	0.020
-182.071	32.100	-0.217	0.186
-181.056	25.865	-0.106	0.088
-180.042	-158.840	-0.118	0.007
-179.027	-137.834	-0.284	0.032
-178.012	-90.542	-0.206	-0.059
-176.998	132.602	0.247	0.317
-175.983	148.624	0.060	-0.081
-174.969	800.000	0.028	-0.109
-173.954	-122.766	0.233	0.038
-172.939	407.203	-0.123	-0.260
-171.925	-200.000	-0.020	-0.125
-170.910	320.811	-0.116	0.219
-169.896	-200.000	0.032	0.145
-168.881	-60.995	-0.219	0.092
-167.866	-27.853	-0.055	-0.032
-166.852	-79.589	0.175	-0.059
-165.837	-82.033	-0.092	0.030
-164.823	33.357	-0.157	-0.136
-163.808	-200.000	-0.010	0.286
-162.793	-15.961	0.177	0.112
-161.779	-200.000	0.035	0.179
-160.764	-140.624	-0.111	-0.011
-159.750	-55.906	-0.102	-0.045
-158.735	12.980	-0.101	0.077
-157.720	12.852	0.158	0.121
-156.706	-200.000	-0.039	0.361
-155.691	21.275	-0.122	-0.099
-154.677	209.367	0.111	-0.172
-153.662	722.811	0.042	-0.111
-152.647	127.995	0.208	-0.263
-151.633	-98.580	0.116	0.029
-150.618	70.490	-0.157	0.161
-149.604	-200.000	-0.005	-0.052
-148.589	204.521	-0.170	-0.262
-147.574	310.069	-0.020	0.037
-146.560	1.867	-0.149	0.107
-145.545	73.033	0.153	-0.159
-144.531	331.066	0.165	-0.317
-143.516	-200.000	-0.010	-0.187
-142.502	-110.148	0.313	0.065
-141.487	372.304	0.030	-0.061
-140.472	145.105	0.212	-0.282
-139.458	342.243	-0.026	0.050
-138.443	88.188	0.143	0.157
-137.429	162.779	-0.156	0.217
-136.414	-60.204	0.176	-0.075
-135.399	-200.000	-0.006	0.174
-134.385	216.941	-0.198	-0.313
-133.370	800.000	0.116	0.388
-132.356	13.243	-0.224	-0.172
-131.341	-21.901	0.110	-0.066
-130.326	-60.445	-0.279	-0.118
-129.312	800.000	0.057	0.163
-128.297	397.373	0.011	0.024
-127.283	236.715	0.242	0.398
-126.268	-98.155	0.185	-0.047
-125.253	-120.702	0.226	0.038
-124.239	-41.999	-0.146	-0.074
-123.224	274.541	0.041	-0.071
-122.210	120.768	-0.158	0.195
-121.195	-200.000	0.021	-0.202
