DTS Sentinel unit serial number:	SN413079Multiplexer serial number:	ORYXHardware model number:	OX4-SRSoftware version number:	ORYX F/W v4.00 Oryx Data Collector v3.7.2.0data status	okinstallation	princeton_trtdifferential loss correction	single-endedforward channel	channel 4reverse channel	N/Adate	2019/09/16time	04:33:34forward acquisition time	60.00reverse acquisition time	0.00gamma	496.2192k internal	0.2322k external	0.2322temperature offset calibration	0.9977default loss term (dB/km)	0.3790temperature slope calibration	1.0000multiplexer offset coefficient	1.0000multiplexer slope coefficient	1.0000fibre end	0.00T internal ref (°C)	27.25T ext. ref 1 (°C)	10.85T ext. ref 2 (°C)	21.36length (m)	temperature (°C)	Stokes	anti-Stokes-747.200	70.558	-0.120	0.125
-746.185	-7.393	-0.221	0.151
-745.171	-45.014	0.144	0.073
-744.156	-200.000	0.016	0.353
-743.142	-18.535	0.191	-0.121
-742.127	237.079	-0.193	0.324
-741.112	800.000	-0.029	-0.124
-740.098	90.591	-0.077	0.087
-739.083	614.785	0.109	-0.277
-738.069	114.704	0.248	0.305
-737.054	-200.000	-0.024	-0.193
-736.039	-200.000	-0.031	-0.245
-735.025	98.384	0.170	0.198
-734.010	611.177	-0.113	-0.286
-732.996	-200.000	-0.071	-0.529
-731.981	-200.000	-0.010	0.104
-730.966	503.994	-0.064	-0.149
-729.952	42.273	-0.209	-0.192
-728.937	136.418	-0.180	-0.237
-727.923	-182.682	-0.475	-0.009
-726.908	75.319	-0.133	-0.142
-725.894	-200.000	-0.026	-0.136
-724.879	127.534	0.164	-0.210
-723.864	-161.707	0.324	-0.017
-722.850	-37.862	0.267	0.143
-721.835	-200.000	0.041	0.389
-720.821	103.301	-0.071	-0.084
-719.806	-200.000	0.082	-0.000
-718.791	-77.459	0.117	0.041
-717.777	-108.481	0.323	0.070
-716.762	-69.920	-0.173	0.067
-715.748	800.000	-0.076	-0.230
-714.733	112.981	0.184	-0.225
-713.718	43.126	0.239	-0.220
-712.704	471.019	0.172	-0.390
-711.689	332.703	0.109	0.212
-710.675	-144.717	-0.086	-0.008
-709.660	-200.000	0.044	-0.269
-708.645	800.000	0.069	0.256
-707.631	-90.545	-0.311	0.091
-706.616	125.507	-0.238	-0.303
-705.602	603.514	-0.114	-0.287
-704.587	-137.614	-0.099	-0.011
-703.572	-152.645	-0.074	-0.005
-702.558	-200.000	0.035	0.273
-701.543	128.994	-0.223	0.287
-700.529	166.745	-0.057	0.082
-699.514	765.528	-0.132	0.363
-698.499	800.000	0.083	-0.340
-697.485	-200.000	-0.062	0.364
-696.470	-165.281	-0.232	0.010
-695.456	-200.000	-0.018	0.309
-694.441	1.601	-0.236	0.171
-693.426	-122.887	0.247	-0.040
-692.412	-115.854	-0.325	0.061
-691.397	2.401	0.180	0.132
-690.383	-117.277	-0.267	-0.049
-689.368	-76.464	-0.226	-0.080
-688.354	28.063	-0.026	0.022
-687.339	-200.000	-0.002	-0.037
-686.324	90.319	-0.048	-0.054
-685.310	-111.047	0.140	-0.029
-684.295	-120.226	-0.274	0.047
-683.281	800.000	0.024	0.089
-682.266	54.686	-0.258	0.251
-681.251	591.226	0.116	-0.288
-680.237	235.656	0.051	0.085
-679.222	556.454	0.183	-0.445
-678.208	343.815	-0.038	-0.075
-677.193	151.031	-0.228	-0.313
-676.178	129.235	-0.098	-0.126
-675.164	590.291	-0.038	-0.095
-674.149	-90.340	0.239	-0.070
-673.135	-22.700	-0.291	-0.177
-672.120	97.541	0.109	-0.126
-671.105	-101.512	0.160	-0.039
-670.091	-56.905	-0.331	-0.147
-669.076	183.610	-0.078	-0.116
-668.062	93.610	0.182	-0.208
-667.047	-0.728	0.033	0.023
-666.032	-171.051	0.219	0.007
-665.018	-131.202	0.094	-0.013
-664.003	-77.581	-0.169	-0.059
-662.989	694.583	-0.080	-0.210
-661.974	10.429	0.126	-0.096
-660.959	800.000	-0.069	0.264
-659.945	-2.114	0.074	0.053
-658.930	800.000	0.051	-0.200
-657.916	-200.000	0.019	-0.148
-656.901	-200.000	-0.043	0.202
-655.886	-69.720	-0.270	-0.104
-654.872	-30.834	0.087	0.050
-653.857	30.353	0.116	0.100
-652.843	-41.310	0.178	-0.092
-651.828	-200.000	-0.035	-0.293
-650.814	800.000	-0.076	-0.236
-649.799	-63.685	0.201	-0.083
-648.784	-145.652	-0.345	0.031
-647.770	-57.955	0.032	0.014
-646.755	-102.168	-0.302	-0.073
-645.741	-200.000	0.006	-0.033
-644.726	59.220	0.164	0.163
-643.711	-91.019	0.216	-0.062
-642.697	289.950	0.072	0.132
-641.682	-39.978	-0.225	0.118
-640.668	265.484	0.084	0.148
-639.653	-82.877	0.157	0.051
-638.638	-75.251	-0.083	-0.030
-637.624	-107.942	0.096	-0.021
-636.609	54.407	-0.154	-0.150
-635.595	-175.850	0.091	0.002
-634.580	800.000	-0.069	0.252
-633.565	-67.837	-0.133	0.052
-632.551	800.000	0.073	-0.256
-631.536	-64.832	-0.231	0.094
-630.522	-148.378	-0.184	-0.015
-629.507	138.537	0.142	-0.188
-628.492	-31.290	0.158	0.089
-627.478	756.968	-0.122	0.333
-626.463	-125.554	-0.175	0.027
-625.449	-71.523	0.205	0.077
-624.434	60.962	-0.077	-0.077
-623.419	-85.145	0.202	-0.064
-622.405	-125.326	0.329	-0.051
-621.390	-96.440	0.240	-0.064
-620.376	137.953	0.256	-0.337
-619.361	-102.961	-0.241	-0.057
-618.346	207.626	-0.041	-0.064
-617.332	408.219	-0.134	0.285
-616.317	173.906	0.190	0.275
-615.303	-57.996	0.111	0.049
-614.288	169.583	-0.111	0.160
-613.273	281.751	-0.059	0.107
-612.259	-200.000	-0.019	0.083
-611.244	69.899	-0.180	-0.187
-610.230	123.375	-0.173	-0.218
-609.215	-128.558	0.216	0.031
-608.201	-12.091	-0.250	0.164
-607.186	800.000	-0.046	0.157
-606.171	-53.994	-0.264	0.121
-605.157	270.602	-0.044	-0.077
-604.142	-105.699	-0.221	0.050
-603.128	658.853	-0.067	0.174
-602.113	258.291	0.109	0.188
-601.098	426.354	-0.087	0.189
-600.084	50.482	0.271	0.257
-599.069	8.064	0.110	-0.083
-598.055	284.156	-0.131	-0.237
-597.040	325.489	-0.084	-0.161
-596.025	310.463	0.034	-0.065
-595.011	-200.000	0.021	0.165
-593.996	603.260	-0.030	0.075
-592.982	-120.085	-0.162	-0.028
-591.967	-200.000	-0.018	-0.200
-590.952	60.447	0.279	-0.278
-589.938	-4.540	-0.201	-0.140
-588.923	564.423	0.033	-0.080
-587.909	46.413	0.023	-0.021
-586.894	227.395	-0.095	-0.154
-585.879	800.000	0.058	0.201
-584.865	-119.913	-0.315	0.054
-583.850	93.015	-0.125	-0.142
-582.836	94.158	-0.226	-0.258
-581.821	109.193	-0.036	-0.043
-580.806	228.875	-0.144	0.236
-579.792	125.930	0.163	-0.206
-578.777	124.694	0.135	0.171
-577.763	-6.296	-0.339	-0.233
-576.748	-11.480	-0.086	-0.057
-575.733	-200.000	-0.017	-0.139
-574.719	-200.000	-0.000	-0.202
-573.704	310.942	0.112	0.211
-572.690	800.000	-0.019	0.076
-571.675	-162.248	0.169	0.008
-570.661	-93.322	-0.305	-0.085
-569.646	800.000	0.009	0.026
-568.631	-35.257	-0.260	0.142
-567.617	-200.000	0.053	-0.452
-566.602	-24.759	0.157	0.094
-565.588	161.170	-0.075	0.106
-564.573	800.000	-0.059	-0.213
-563.558	-93.988	0.024	0.007
-562.544	142.442	-0.082	0.109
-561.529	210.406	-0.136	-0.214
-560.515	-40.169	-0.135	0.071
-559.500	-92.385	0.071	-0.020
-558.485	-64.426	-0.038	-0.015
-557.471	34.710	0.224	0.196
-556.456	-200.000	-0.025	0.149
-555.442	-34.714	0.256	0.140
-554.427	-92.098	-0.094	0.027
-553.412	78.909	0.127	0.137
-552.398	-200.000	0.041	0.199
-551.383	17.767	-0.187	-0.150
-550.369	613.622	0.057	-0.143
-549.354	72.534	-0.176	0.184
-548.339	-13.486	-0.101	-0.066
-547.325	4.854	-0.118	0.087
-546.310	27.220	-0.179	-0.150
-545.296	-200.000	0.027	-0.391
-544.281	218.192	-0.068	0.109
-543.266	-200.000	0.057	-0.280
-542.252	70.536	0.276	-0.286
-541.237	244.399	-0.135	-0.228
-540.223	-116.456	0.185	0.034
-539.208	325.865	-0.058	-0.111
-538.193	-33.418	0.124	-0.069
-537.179	-35.928	-0.170	-0.092
-536.164	-200.000	-0.055	-0.309
-535.150	-200.000	0.060	-0.324
-534.135	-97.824	-0.218	-0.056
-533.121	111.529	0.058	0.070
-532.106	-146.496	-0.127	-0.011
-531.091	174.292	-0.125	-0.181
-530.077	177.035	-0.118	0.172
-529.062	114.802	0.141	-0.172
-528.048	-100.320	0.134	-0.033
-527.033	-200.000	0.015	-0.116
-526.018	-82.608	-0.237	0.077
-525.004	-102.219	-0.185	-0.044
-523.989	-136.589	-0.130	0.015
-522.975	408.741	-0.079	0.167
-521.960	157.342	0.186	0.258
-520.945	201.644	-0.224	-0.346
-519.931	-200.000	0.024	-0.184
-518.916	326.533	-0.063	-0.122
-517.902	-200.000	0.035	0.264
-516.887	-200.000	-0.028	-0.155
-515.872	-119.144	0.012	-0.002
-514.858	11.800	-0.172	-0.132
-513.843	118.136	0.129	0.159
-512.829	-109.590	0.096	0.020
-511.814	1.573	-0.023	0.016
-510.799	110.022	-0.153	0.184
-509.785	591.814	0.107	-0.264
-508.770	-55.156	-0.293	-0.132
-507.756	22.508	0.308	0.253
-506.741	800.000	0.002	-0.009
-505.726	-24.953	0.125	0.074
-504.712	4.207	0.406	0.298
-503.697	6.153	-0.070	0.052
-502.683	-150.190	0.145	-0.011
-501.668	-200.000	-0.001	-0.054
-500.653	-200.000	-0.019	-0.145
-499.639	-175.264	0.148	-0.004
-498.624	-200.000	-0.006	0.239
-497.610	-4.537	-0.298	-0.206
-496.595	307.192	0.066	-0.124
-495.581	-77.034	-0.168	-0.058
-494.566	-200.000	0.015	-0.200
-493.551	-120.253	0.211	-0.036
-492.537	223.501	-0.130	-0.210
-491.522	-15.647	0.161	0.103
-490.508	133.501	-0.225	-0.292
-489.493	800.000	0.115	-0.327
-488.478	-73.075	0.062	-0.023
-487.464	75.270	0.176	-0.186
-486.449	800.000	0.072	-0.263
-485.435	800.000	-0.043	-0.164
-484.420	-151.503	0.268	0.020
-483.405	-110.797	0.274	-0.057
-482.391	-35.685	0.102	0.055
-481.376	-200.000	0.012	0.206
-480.362	-200.000	0.003	0.167
-479.347	25.505	-0.053	-0.044
-478.332	232.680	0.054	0.089
-477.318	-108.198	0.309	-0.067
-476.303	1.245	-0.091	0.066
-475.289	800.000	-0.066	0.201
-474.274	101.484	-0.077	0.089
-473.259	-193.780	0.236	0.002
-472.245	46.244	0.206	-0.191
-471.230	-74.221	-0.251	0.091
-470.216	7.049	-0.116	0.087
-469.201	47.391	-0.113	0.106
-468.186	6.761	-0.126	-0.094
-467.172	-64.223	0.299	0.122
-466.157	109.571	0.108	-0.130
-465.143	54.324	0.180	0.173
-464.128	231.354	0.058	-0.094
-463.113	-56.211	-0.131	-0.058
-462.099	-34.826	-0.148	0.081
-461.084	-116.624	0.363	-0.067
-460.070	-79.808	0.135	-0.045
-459.055	143.879	-0.077	-0.102
-458.040	-136.909	-0.373	-0.043
-457.026	-152.703	0.205	0.015
-456.011	-61.811	0.212	-0.089
-454.997	-82.222	-0.190	-0.062
-453.982	-62.403	-0.204	-0.085
-452.968	-61.104	0.263	-0.111
-451.953	-200.000	0.016	-0.259
-450.938	-200.000	0.043	-0.281
-449.924	-133.593	-0.291	0.036
-448.909	-51.771	0.337	-0.157
-447.895	-128.978	-0.209	-0.029
-446.880	-21.923	-0.419	-0.255
-445.865	153.713	0.136	0.187
-444.851	-61.172	-0.116	-0.049
-443.836	313.326	-0.100	-0.188
-442.822	481.520	-0.185	-0.419
-441.807	800.000	-0.066	-0.193
-440.792	-64.143	0.290	-0.118
-439.778	-200.000	0.001	0.105
-438.763	307.714	0.076	-0.141
-437.749	-160.322	-0.233	-0.013
-436.734	800.000	-0.036	-0.149
-435.719	178.742	-0.142	0.208
-434.705	-105.981	0.250	0.056
-433.690	106.771	0.209	0.247
-432.676	-38.252	0.443	-0.234
-431.661	-131.320	-0.154	0.020
-430.646	659.761	-0.129	0.331
-429.632	798.418	0.109	0.299
-428.617	-136.944	-0.069	-0.008
-427.603	78.407	-0.163	0.173
-426.588	-200.000	0.053	0.333
-425.573	800.000	0.112	-0.398
-424.559	51.206	-0.107	0.102
-423.544	-161.830	-0.188	0.010
-422.530	234.451	-0.008	-0.014
-421.515	22.585	-0.380	-0.310
-420.500	6.329	-0.206	-0.152
-419.486	-63.251	-0.159	0.066
-418.471	89.922	-0.277	-0.308
-417.457	284.477	-0.082	0.147
-416.442	-159.645	-0.071	-0.004
-415.428	677.542	-0.035	-0.091
-414.413	-67.462	-0.085	-0.033
-413.398	800.000	0.072	0.286
-412.384	127.373	0.162	0.205
-411.369	212.212	0.223	0.350
-410.355	800.000	-0.034	0.114
-409.340	-79.530	-0.168	0.057
-408.325	-57.930	-0.126	-0.055
-407.311	-200.000	-0.002	-0.161
-406.296	-128.183	0.603	0.086
-405.282	-32.861	0.345	0.191
-404.267	-200.000	-0.005	-0.178
-403.252	292.736	0.149	-0.270
-402.238	153.290	-0.162	-0.221
-401.223	82.005	-0.030	0.033
-400.209	18.714	-0.151	-0.120
-399.194	-66.334	0.262	-0.104
-398.179	-113.193	-0.179	-0.035
-397.165	-36.545	0.137	-0.074
-396.150	-62.410	-0.125	0.052
-395.136	350.150	0.102	-0.201
-394.121	24.878	-0.300	-0.248
-393.106	485.242	0.043	-0.098
-392.092	-133.565	0.078	-0.010
-391.077	75.878	-0.251	-0.265
-390.063	-118.536	-0.294	0.052
-389.048	119.821	-0.175	0.216
-388.033	-35.413	-0.186	-0.101
-387.019	-144.917	0.288	-0.026
-386.004	133.583	-0.180	0.233
-384.990	220.970	-0.047	0.075
-383.975	162.820	0.050	-0.070
-382.960	140.374	0.118	0.155
-381.946	-29.332	-0.341	-0.194
-380.931	-153.749	0.353	-0.024
-379.917	800.000	0.075	0.285
-378.902	-200.000	0.015	-0.165
-377.888	5.097	-0.204	0.150
-376.873	-50.706	-0.335	-0.157
-375.858	146.666	0.245	0.328
-374.844	-121.904	0.168	-0.028
-373.829	-36.290	0.244	0.131
-372.815	531.489	0.037	0.087
-371.800	121.328	-0.073	-0.091
-370.785	199.398	0.086	-0.131
-369.771	-132.424	0.257	0.033
-368.756	144.271	0.152	-0.202
-367.742	-200.000	-0.045	-0.333
-366.727	248.790	0.099	0.167
-365.712	-132.510	-0.209	-0.027
-364.698	-114.109	-0.159	0.031
-363.683	143.493	0.051	-0.068
-362.669	317.075	0.114	-0.214
-361.654	229.693	-0.087	-0.141
-360.639	-200.000	-0.007	-0.299
-359.625	-143.913	0.337	0.032
-358.610	0.139	-0.269	-0.191
-357.596	-115.681	0.362	0.068
-356.581	270.959	-0.067	0.117
-355.566	-200.000	-0.013	0.078
-354.552	-84.323	-0.268	-0.084
-353.537	800.000	0.056	0.233
-352.523	7.511	0.250	0.186
-351.508	262.029	-0.040	-0.069
-350.493	19.934	0.067	0.053
-349.479	-200.000	0.004	0.205
-348.464	-87.227	-0.154	0.047
-347.450	158.489	0.085	-0.118
-346.435	-200.000	0.004	-0.183
-345.420	-200.000	0.017	0.343
-344.406	800.000	-0.103	-0.321
-343.391	165.175	0.163	-0.230
-342.377	-69.051	-0.157	-0.060
-341.362	274.465	-0.099	0.175
-340.348	797.129	0.098	0.267
-339.333	-4.120	-0.138	0.095
-338.318	-100.668	0.082	0.020
-337.304	-192.897	-0.289	-0.003
-336.289	-200.000	-0.094	0.424
-335.275	-4.523	0.097	0.067
-334.260	170.959	0.062	0.088
-333.245	-200.000	0.007	0.310
-332.231	406.472	-0.067	0.140
-331.216	314.510	0.114	0.213
-330.202	27.961	0.274	-0.229
-329.187	-64.069	-0.286	0.116
-328.172	-97.820	-0.361	0.093
-327.158	310.723	-0.104	0.195
-326.143	-67.577	0.121	0.047
-325.129	-200.000	-0.004	0.085
-324.114	84.728	0.146	0.159
-323.099	-1.654	0.181	0.127
-322.085	16.399	-0.150	-0.118
-321.070	560.393	0.029	-0.069
-320.056	8.537	0.159	0.119
-319.041	132.220	0.236	-0.302
-318.026	-90.601	-0.257	-0.074
-317.012	800.000	0.079	0.283
-315.997	291.936	0.145	0.262
-314.983	379.317	-0.041	-0.084
-313.968	175.598	-0.124	0.179
-312.953	800.000	-0.085	-0.353
-311.939	-112.138	-0.102	-0.020
-310.924	49.574	0.135	0.126
-309.910	-32.219	0.578	0.321
-308.895	410.527	0.110	0.232
-307.880	-186.016	0.291	-0.004
-306.866	15.482	-0.268	-0.209
-305.851	21.973	0.095	-0.077
-304.837	80.640	-0.252	0.269
-303.822	785.714	-0.035	0.095
-302.807	87.216	0.179	-0.197
-301.793	-200.000	-0.010	-0.138
-300.778	321.790	0.119	0.226
-299.764	-118.047	-0.221	0.039
-298.749	115.879	-0.080	0.098
-297.735	291.614	0.146	-0.263
-296.720	-48.485	0.222	0.106
-295.705	800.000	0.084	-0.313
-294.691	249.512	-0.228	-0.383
-293.676	-146.920	-0.129	0.011
-292.662	214.323	-0.148	0.233
-291.647	33.115	0.336	-0.289
-290.632	103.489	-0.038	-0.045
-289.618	-150.268	-0.048	-0.004
-288.603	-200.000	0.000	-0.402
-287.589	-135.686	0.134	-0.016
-286.574	-46.617	0.461	-0.224
-285.559	118.585	-0.075	-0.092
-284.545	-200.000	0.015	-0.159
-283.530	119.004	0.166	-0.204
-282.516	311.974	-0.144	0.269
-281.501	800.000	0.044	0.150
-280.486	269.649	-0.125	0.218
-279.472	800.000	-0.028	-0.120
-278.457	-81.673	-0.254	0.083
-277.443	800.000	0.048	0.180
-276.428	-115.649	-0.171	0.032
-275.413	-162.288	-0.176	-0.009
-274.399	-101.249	-0.252	-0.061
-273.384	-200.000	0.004	0.039
-272.370	-57.594	0.073	0.032
-271.355	48.678	-0.197	-0.183
-270.340	-177.309	-0.124	-0.003
-269.326	-54.187	0.099	0.045
-268.311	14.028	0.192	0.148
-267.297	-200.000	0.015	-0.197
-266.282	-13.127	-0.206	0.133
-265.267	-200.000	-0.006	-0.179
-264.253	373.421	-0.076	0.154
-263.238	31.456	-0.131	0.112
-262.224	138.273	0.085	-0.110
-261.209	-67.391	-0.436	0.170
-260.195	-72.657	0.192	0.070
-259.180	-97.435	0.336	0.087
-258.165	431.814	0.256	0.551
-257.151	800.000	0.059	0.184
-256.136	130.888	0.218	0.277
-255.122	-200.000	-0.040	0.184
-254.107	800.000	-0.064	-0.247
-253.092	511.795	-0.076	0.176
-252.078	800.000	0.079	0.239
-251.063	-200.000	-0.008	0.402
-250.049	138.375	-0.109	-0.142
-249.034	17.991	0.073	-0.058
-248.019	-200.000	0.005	-0.080
-247.005	-93.840	-0.054	0.015
-245.990	152.227	-0.037	-0.050
-244.976	-128.857	-0.070	-0.010
-243.961	-25.706	-0.117	0.068
-242.946	800.000	-0.077	0.220
-241.932	-200.000	-0.003	0.216
-240.917	167.351	0.150	0.212
-239.903	-33.173	-0.320	-0.175
-238.888	184.184	0.067	0.098
-237.873	326.127	-0.063	-0.120
-236.859	55.129	-0.047	0.045
-235.844	-200.000	0.085	-0.777
-234.830	-54.373	-0.219	-0.099
-233.815	138.695	0.052	0.068
-232.800	-85.389	0.126	0.039
-231.786	-106.711	-0.083	0.018
-230.771	-134.725	0.524	0.063
-229.757	-200.000	-0.036	-0.188
-228.742	673.247	-0.064	0.165
-227.727	-159.991	0.188	0.010
-226.713	138.429	0.161	-0.209
-225.698	-78.799	-0.304	-0.103
-224.684	-200.000	0.031	-0.282
-223.669	110.895	0.065	-0.077
-222.655	-162.695	0.073	-0.004
-221.640	163.715	-0.042	0.059
-220.625	-200.000	0.004	-0.291
-219.611	84.750	-0.205	-0.223
-218.596	800.000	0.100	0.410
-217.582	175.422	-0.206	0.296
-216.567	-200.000	0.052	0.273
-215.552	-86.663	0.499	-0.151
-214.538	-90.665	0.270	0.077
-213.523	193.284	0.098	0.147
-212.509	22.823	-0.165	0.134
-211.494	17.014	0.204	0.160
-210.479	177.984	-0.164	0.236
-209.465	-70.601	-0.099	-0.037
-208.450	-165.035	0.467	-0.021
-207.436	161.130	-0.133	-0.183
-206.421	-200.000	-0.074	0.340
-205.406	28.691	-0.145	-0.121
-204.392	-200.000	-0.044	0.247
-203.377	5.461	-0.232	-0.169
-202.363	-30.655	0.482	0.270
-201.348	-200.000	-0.002	0.602
-200.333	-109.240	-0.027	-0.006
-199.319	203.370	0.106	0.162
-198.304	-200.000	-0.061	-0.378
-197.290	48.286	0.270	-0.250
-196.275	-147.100	0.210	-0.018
-195.260	204.244	0.113	0.173
-194.246	-36.590	0.115	0.061
-193.231	-114.097	0.276	-0.053
-192.217	756.857	-0.108	0.290
-191.202	-200.000	-0.037	-0.178
-190.187	800.000	0.060	0.240
-189.173	336.932	-0.070	0.134
-188.158	443.282	-0.090	-0.194
-187.144	-88.302	-0.265	-0.079
-186.129	-191.084	-0.098	-0.001
-185.114	46.098	0.315	0.288
-184.100	800.000	-0.039	-0.110
-183.085	1.165	0.175	-0.124
-182.071	553.892	-0.126	-0.300
-181.056	-149.283	-0.166	0.013
-180.042	800.000	0.071	0.267
-179.027	136.078	-0.261	-0.336
-178.012	33.322	0.127	0.109
-176.998	86.049	0.173	0.188
-175.983	-57.814	-0.210	0.091
-174.969	-61.051	0.179	0.074
-173.954	635.502	0.128	0.321
-172.939	-107.386	0.107	0.023
-171.925	800.000	0.101	0.338
-170.910	-200.000	0.000	-0.045
-169.896	-157.653	0.108	-0.006
-168.881	-100.594	0.050	-0.012
-167.866	-21.601	-0.283	0.170
-166.852	-200.000	-0.054	-0.300
-165.837	-108.048	0.426	-0.091
-164.823	-74.440	-0.135	0.048
-163.808	-200.000	0.007	0.124
-162.793	-200.000	-0.020	0.180
-161.779	-64.502	-0.208	0.084
-160.764	112.243	0.185	0.221
-159.750	56.501	0.056	0.054
-158.735	-178.320	0.305	0.007
-157.720	142.319	0.096	0.126
-156.706	24.903	-0.183	-0.150
-155.691	120.014	-0.160	-0.196
-154.677	517.382	-0.109	-0.252
-153.662	252.611	-0.049	0.082
-152.647	-177.737	-0.364	-0.009
-151.633	-91.135	0.191	0.054
-150.618	-180.781	0.299	-0.006
-149.604	346.529	-0.157	0.305
-148.589	-19.141	0.159	0.097
-147.574	800.000	-0.052	-0.208
-146.560	-117.099	-0.180	-0.032
-145.545	75.296	0.152	0.158
-144.531	-200.000	-0.032	-0.148
-143.516	-46.541	0.106	-0.051
-142.502	-115.263	-0.289	-0.054
-141.487	25.790	0.122	0.100
-140.472	27.238	-0.259	-0.215
-139.458	-87.725	0.088	0.026
-138.443	316.037	0.097	0.180
-137.429	-200.000	0.001	0.150
-136.414	-26.479	-0.125	0.072
-135.399	248.588	-0.116	-0.194
-134.385	-31.704	-0.090	-0.050
-133.370	-87.957	0.284	0.084
-132.356	-200.000	0.008	0.107
-131.341	-200.000	-0.022	0.131
-130.326	800.000	-0.086	-0.265
-129.312	-200.000	0.009	0.390
-128.297	-200.000	0.036	-0.186
-127.283	190.418	-0.077	0.114
-126.268	-139.379	0.194	0.021
-125.253	-87.741	-0.158	0.047
-124.239	69.889	0.262	0.266
-123.224	-200.000	-0.027	-0.184
-122.210	-103.725	-0.263	0.061
