DTS Sentinel unit serial number:	SN413079Multiplexer serial number:	ORYXHardware model number:	OX4-SRSoftware version number:	ORYX F/W v4.00 Oryx Data Collector v3.7.2.0data status	okinstallation	princeton_trtdifferential loss correction	single-endedforward channel	channel 4reverse channel	N/Adate	2019/09/16time	17:29:35forward acquisition time	60.00reverse acquisition time	0.00gamma	496.2192k internal	0.2297k external	0.2297temperature offset calibration	0.9944default loss term (dB/km)	0.3790temperature slope calibration	1.0000multiplexer offset coefficient	1.0000multiplexer slope coefficient	1.0000fibre end	0.00T internal ref (°C)	38.52T ext. ref 1 (°C)	15.47T ext. ref 2 (°C)	32.47length (m)	temperature (°C)	Stokes	anti-Stokes-747.200	-85.793	0.342	0.108
-746.185	117.738	0.104	0.131
-745.171	741.670	0.115	0.314
-744.156	-45.322	-0.455	-0.231
-743.142	256.461	-0.046	-0.081
-742.127	-200.000	-0.048	0.491
-741.112	-157.644	-0.323	-0.020
-740.098	-24.799	-0.182	0.111
-739.083	66.405	0.162	0.168
-738.069	196.781	0.126	0.197
-737.054	-50.257	0.119	0.057
-736.039	-64.312	-0.259	-0.108
-735.025	-21.243	0.279	0.174
-734.010	800.000	0.086	-0.294
-732.996	4.069	-0.169	0.127
-731.981	-140.877	-0.022	0.002
-730.966	81.260	-0.048	0.053
-729.952	-96.648	0.084	-0.022
-728.937	-67.001	-0.214	0.086
-727.923	691.971	-0.063	0.169
-726.908	91.545	0.167	-0.192
-725.894	145.582	-0.057	-0.077
-724.879	-21.021	-0.096	0.060
-723.864	800.000	-0.060	0.178
-722.850	800.000	0.045	-0.184
-721.835	221.585	-0.156	0.256
-720.821	-200.000	-0.010	0.181
-719.806	117.302	-0.022	0.028
-718.791	-200.000	-0.016	-0.233
-717.777	179.625	-0.167	0.250
-716.762	53.696	-0.181	0.177
-715.748	236.283	0.245	-0.414
-714.733	-200.000	0.022	-0.354
-713.718	508.370	0.053	0.126
-712.704	-200.000	0.033	-0.305
-711.689	210.851	-0.037	0.060
-710.675	-200.000	-0.055	0.469
-709.660	-123.330	-0.303	0.049
-708.645	7.121	0.180	0.137
-707.631	-200.000	-0.059	-0.382
-706.616	-29.744	-0.187	-0.109
-705.602	114.085	-0.129	-0.160
-704.587	-191.042	-0.190	0.002
-703.572	-113.152	0.180	-0.036
-702.558	-186.371	-0.186	-0.003
-701.543	359.075	0.042	0.086
-700.529	-200.000	0.016	0.202
-699.514	-33.183	-0.086	-0.049
-698.499	55.461	0.225	0.222
-697.485	192.931	-0.029	0.045
-696.470	-200.000	-0.070	0.598
-695.456	-200.000	-0.030	0.290
-694.441	248.081	0.078	-0.135
-693.426	-200.000	0.037	-0.323
-692.412	800.000	0.138	-0.443
-691.397	450.375	0.136	0.306
-690.383	198.035	-0.118	-0.184
-689.368	405.998	-0.158	0.339
-688.354	-108.750	-0.176	-0.039
-687.339	113.383	-0.072	-0.089
-686.324	-146.904	0.247	0.022
-685.310	47.364	0.161	-0.153
-684.295	-133.640	-0.140	-0.018
-683.281	404.326	-0.076	0.164
-682.266	-200.000	-0.004	-0.228
-681.251	-200.000	-0.083	-0.562
-680.237	-93.866	-0.455	-0.128
-679.222	800.000	0.095	-0.322
-678.208	800.000	0.020	-0.058
-677.193	-200.000	0.010	0.321
-676.178	-88.904	0.393	0.119
-675.164	-82.924	-0.129	0.042
-674.149	-119.762	-0.181	0.032
-673.135	-56.090	-0.327	-0.148
-672.120	5.520	0.340	-0.255
-671.105	119.092	0.100	-0.126
-670.091	-104.209	0.197	0.047
-669.076	316.919	-0.126	-0.242
-668.062	-125.796	0.279	-0.043
-667.047	-171.699	0.463	-0.016
-666.032	55.105	0.047	-0.046
-665.018	-200.000	0.011	-0.148
-664.003	613.351	-0.056	0.142
-662.989	13.385	0.155	-0.122
-661.974	-74.196	-0.203	-0.075
-660.959	-67.632	0.319	-0.127
-659.945	-21.957	0.112	-0.069
-658.930	44.666	0.072	-0.067
-657.916	-53.095	0.239	-0.112
-656.901	-200.000	0.014	-0.279
-655.886	-200.000	-0.001	0.217
-654.872	188.730	0.064	-0.098
-653.857	-140.265	0.183	-0.020
-652.843	-81.043	0.114	0.039
-651.828	800.000	0.054	-0.209
-650.814	218.954	0.060	-0.097
-649.799	165.252	0.174	0.251
-648.784	-146.877	0.164	-0.014
-647.770	-200.000	-0.089	-0.481
-646.755	-93.029	-0.109	0.031
-645.741	800.000	0.066	0.282
-644.726	-134.488	0.281	-0.035
-643.711	183.484	0.031	0.047
-642.697	-74.389	0.168	-0.062
-641.682	-200.000	-0.016	-0.290
-640.668	800.000	-0.102	0.288
-639.653	-11.102	-0.144	-0.096
-638.638	-70.716	-0.372	-0.143
-637.624	293.579	-0.194	0.361
-636.609	800.000	-0.057	0.215
-635.595	-58.445	0.039	-0.017
-634.580	489.441	-0.070	0.163
-633.565	210.003	-0.105	-0.168
-632.551	180.068	0.268	-0.400
-631.536	67.465	-0.070	-0.073
-630.522	-149.960	-0.319	-0.025
-629.507	61.743	-0.142	-0.144
-628.492	295.439	-0.068	0.127
-627.478	-17.462	0.312	-0.200
-626.463	-62.701	0.139	0.059
-625.449	-109.967	-0.103	-0.022
-624.434	800.000	-0.076	-0.255
-623.419	365.705	-0.142	0.292
-622.405	800.000	0.126	-0.452
-621.390	-54.660	0.172	0.079
-620.376	-166.372	-0.141	0.006
-619.361	-32.993	-0.385	-0.217
-618.346	118.704	-0.329	-0.413
-617.332	-200.000	0.007	0.232
-616.317	-18.034	0.210	-0.134
-615.303	564.991	0.102	0.251
-614.288	-5.141	0.071	-0.050
-613.273	478.282	-0.114	0.262
-612.259	-6.611	0.078	-0.054
-611.244	5.666	-0.194	-0.146
-610.230	-130.111	-0.298	0.041
-609.215	415.215	-0.042	-0.090
-608.201	13.710	0.194	0.153
-607.186	-184.834	-0.070	0.001
-606.171	-49.782	0.199	0.096
-605.157	-24.667	-0.179	0.108
-604.142	-127.738	-0.337	0.049
-603.128	-107.435	0.272	0.061
-602.113	97.658	0.118	0.138
-601.098	-42.449	-0.233	-0.121
-600.084	138.075	-0.085	-0.113
-599.069	-200.000	0.040	0.402
-598.055	-200.000	0.027	0.431
-597.040	42.164	0.099	0.092
-596.025	127.745	-0.122	-0.157
-595.011	-99.302	-0.271	0.070
-593.996	-54.917	-0.229	-0.105
-592.982	134.376	-0.108	-0.143
-591.967	329.757	0.061	0.119
-590.952	87.817	0.104	-0.117
-589.938	-200.000	0.008	-0.189
-588.923	-200.000	-0.035	0.182
-587.909	83.985	0.185	-0.205
-586.894	35.332	0.135	0.120
-585.879	800.000	0.042	-0.155
-584.865	-85.499	0.115	-0.036
-583.850	800.000	-0.057	0.240
-582.836	323.003	0.271	0.525
-581.821	-180.612	-0.367	-0.008
-580.806	-8.134	0.120	-0.082
-579.792	46.803	0.249	0.235
-578.777	81.406	0.153	0.168
-577.763	172.742	0.017	0.025
-576.748	97.920	-0.068	0.080
-575.733	-86.948	-0.309	-0.096
-574.719	-31.506	0.117	0.067
-573.704	-167.428	-0.130	0.005
-572.690	800.000	0.052	-0.199
-571.675	-107.732	0.174	0.039
-570.661	-92.400	0.391	-0.112
-569.646	-200.000	0.034	-0.195
-568.631	800.000	-0.045	0.195
-567.617	-71.615	-0.201	0.076
-566.602	-200.000	-0.005	-0.129
-565.588	-5.987	-0.248	0.172
-564.573	39.366	0.157	0.142
-563.558	-112.295	0.030	0.006
-562.544	-200.000	0.017	0.125
-561.529	658.433	-0.139	0.362
-560.515	-61.043	-0.095	0.040
-559.500	-72.742	0.517	-0.193
-558.485	-200.000	0.000	-0.018
-557.471	295.180	-0.081	0.150
-556.456	-200.000	-0.018	0.156
-555.442	-78.454	-0.021	0.007
-554.427	-69.248	0.323	0.126
-553.412	28.755	0.051	-0.044
-552.398	227.172	0.068	-0.112
-551.383	380.603	-0.100	0.207
-550.369	-200.000	0.004	0.152
-549.354	-200.000	0.001	-0.044
-548.339	-94.558	0.282	-0.078
-547.325	278.297	0.104	0.188
-546.310	-51.998	-0.099	-0.047
-545.296	-200.000	0.031	-0.182
-544.281	800.000	-0.069	0.228
-543.266	-200.000	-0.041	-0.333
-542.252	-12.181	0.278	-0.184
-541.237	-112.515	-0.066	0.013
-540.223	800.000	0.099	-0.388
-539.208	-98.815	0.162	0.042
-538.193	-200.000	0.021	-0.097
-537.179	320.382	-0.029	-0.056
-536.164	-56.624	0.072	-0.032
-535.150	-67.559	0.443	0.176
-534.135	-200.000	0.032	-0.313
-533.121	292.156	-0.131	-0.242
-532.106	31.175	0.171	-0.149
-531.091	323.094	0.089	-0.171
-530.077	-148.059	-0.275	0.023
-529.062	-61.645	-0.118	-0.050
-528.048	-15.511	0.048	0.031
-527.033	132.185	0.038	-0.049
-526.018	800.000	0.074	-0.229
-525.004	800.000	-0.060	-0.180
-523.989	-23.985	0.030	-0.018
-522.975	-95.444	-0.121	-0.033
-521.960	16.421	0.183	-0.146
-520.945	-64.456	-0.186	0.077
-519.931	11.042	0.275	-0.213
-518.916	-142.014	0.191	0.019
-517.902	201.797	-0.041	-0.064
-516.887	-193.347	0.193	-0.002
-515.872	664.781	0.032	-0.084
-514.858	-129.005	-0.070	-0.010
-513.843	-74.205	-0.370	0.135
-512.829	56.544	0.075	-0.074
-511.814	-32.279	0.140	0.079
-510.799	16.615	-0.268	0.215
-509.785	-122.739	-0.125	-0.020
-508.770	343.610	0.091	0.180
-507.756	662.393	0.055	-0.143
-506.741	-171.286	0.369	0.013
-505.726	-200.000	-0.026	-0.150
-504.712	300.490	0.067	0.125
-503.697	-3.003	-0.279	-0.197
-502.683	-50.658	0.229	0.109
-501.668	-10.438	0.305	0.205
-500.653	-52.891	-0.215	0.100
-499.639	724.963	0.053	0.142
-498.624	800.000	-0.081	0.325
-497.610	10.018	-0.131	0.100
-496.595	-88.340	0.056	-0.017
-495.581	-61.021	-0.136	-0.058
-494.566	800.000	-0.054	0.187
-493.551	-12.863	-0.157	-0.104
-492.537	800.000	-0.003	0.009
-491.522	800.000	0.050	-0.178
-490.508	94.811	0.191	-0.219
-489.493	148.539	0.091	-0.125
-488.478	-99.889	0.172	0.044
-487.464	-199.817	-0.187	-0.001
-486.449	-131.433	0.139	-0.019
-485.435	290.056	0.084	-0.154
-484.420	-142.146	0.072	-0.007
-483.405	151.488	-0.130	0.180
-482.391	-200.000	-0.006	-0.258
-481.376	-69.513	-0.459	-0.178
-480.362	-65.651	0.066	-0.027
-479.347	52.975	0.072	0.070
-478.332	800.000	0.025	-0.092
-477.318	286.686	-0.130	0.238
-476.303	124.250	-0.092	0.116
-475.289	800.000	-0.041	-0.177
-474.274	800.000	0.068	-0.299
-473.259	98.881	-0.123	-0.143
-472.245	-200.000	-0.000	0.226
-471.230	365.828	0.083	0.169
-470.216	-200.000	0.013	0.249
-469.201	50.663	0.013	0.013
-468.186	-129.874	-0.097	0.013
-467.172	-11.706	-0.035	0.023
-466.157	128.977	-0.099	0.128
-465.143	-168.675	0.203	-0.008
-464.128	-159.575	0.256	-0.014
-463.113	-200.000	-0.055	-0.274
-462.099	-200.000	-0.015	0.222
-461.084	800.000	0.079	0.315
-460.070	39.473	0.109	-0.099
-459.055	-7.404	-0.217	0.148
-458.040	-96.425	-0.086	0.023
-457.026	602.607	-0.071	0.179
-456.011	-122.975	-0.458	-0.074
-454.997	22.061	-0.116	0.096
-453.982	-200.000	0.032	0.290
-452.968	-79.274	-0.101	0.035
-451.953	80.740	-0.351	-0.382
-450.938	-111.893	0.147	0.030
-449.924	310.813	-0.053	0.100
-448.909	-33.309	-0.135	0.075
-447.895	-118.557	-0.261	-0.047
-446.880	-200.000	0.026	-0.283
-445.865	-200.000	0.038	-0.235
-444.851	-27.656	0.186	0.109
-443.836	627.323	0.148	-0.378
-442.822	19.871	-0.309	-0.251
-441.807	635.110	-0.102	-0.260
-440.792	67.354	-0.273	-0.281
-439.778	302.861	0.128	0.239
-438.763	92.885	-0.247	0.282
-437.749	-200.000	0.017	-0.276
-436.734	259.293	-0.073	0.126
-435.719	-20.039	-0.310	0.193
-434.705	-120.168	-0.300	-0.052
-433.690	800.000	0.058	0.230
-432.676	-142.708	0.245	0.024
-431.661	648.552	0.102	0.263
-430.646	-21.352	-0.127	-0.078
-429.632	44.294	0.224	-0.208
-428.617	130.319	0.203	-0.263
-427.603	-21.997	0.227	-0.139
-426.588	88.979	0.062	0.069
-425.573	219.045	-0.086	-0.139
-424.559	800.000	-0.034	-0.102
-423.544	29.338	-0.042	0.036
-422.530	-123.819	0.212	0.034
-421.515	17.763	-0.196	0.157
-420.500	-39.369	0.108	-0.057
-419.486	249.516	0.191	-0.326
-418.471	-200.000	0.079	-0.483
-417.457	54.577	0.180	-0.175
-416.442	86.472	0.102	0.114
-415.428	83.113	-0.181	-0.199
-414.413	44.849	-0.130	0.120
-413.398	159.890	0.065	-0.092
-412.384	-16.495	0.074	0.047
-411.369	321.367	0.045	-0.087
-410.355	-136.154	-0.136	-0.016
-409.340	-128.602	0.091	-0.013
-408.325	398.812	0.103	-0.216
-407.311	-16.834	0.064	0.041
-406.296	94.983	0.056	-0.065
-405.282	-54.447	0.308	-0.141
-404.267	-89.586	-0.157	-0.047
-403.252	277.265	-0.075	0.135
-402.238	622.765	0.077	0.197
-401.223	800.000	0.041	-0.163
-400.209	9.802	-0.139	-0.107
-399.194	-200.000	-0.041	0.327
-398.179	-200.000	0.014	-0.335
-397.165	225.931	-0.036	0.058
-396.150	-113.248	0.230	0.046
-395.136	232.043	0.133	-0.220
-394.121	-75.386	-0.169	-0.061
-393.106	0.006	-0.195	-0.140
-392.092	-16.689	-0.075	0.048
-391.077	120.474	0.102	0.127
-390.063	-61.521	0.268	-0.114
-389.048	-83.962	-0.295	-0.095
-388.033	-192.151	-0.194	0.002
-387.019	314.383	0.058	-0.109
-386.004	800.000	0.086	0.338
-384.990	-200.000	0.036	0.268
-383.975	155.944	-0.255	0.354
-382.960	141.940	-0.108	0.144
-381.946	-33.079	-0.133	-0.074
-380.931	-200.000	-0.027	0.233
-379.917	231.439	0.221	-0.365
-378.902	-3.940	-0.354	-0.247
-377.888	-167.040	-0.139	-0.006
-376.873	86.690	0.182	0.202
-375.858	393.299	0.046	0.097
-374.844	28.073	-0.021	-0.018
-373.829	-200.000	0.006	0.080
-372.815	-169.281	0.338	-0.013
-371.800	-1.416	0.167	-0.119
-370.785	-139.693	0.052	0.006
-369.771	-125.316	-0.120	-0.018
-368.756	-58.969	0.165	-0.072
-367.742	-200.000	-0.000	-0.042
-366.727	-20.015	0.108	0.067
-365.712	59.894	0.171	-0.170
-364.698	65.862	-0.226	-0.231
-363.683	-122.475	0.419	-0.069
-362.669	-200.000	0.010	-0.166
-361.654	-59.291	0.252	0.109
-360.639	-62.223	-0.031	0.013
-359.625	-67.630	-0.122	-0.048
-358.610	386.384	-0.081	0.168
-357.596	390.376	-0.039	0.081
-356.581	155.701	0.124	0.171
-355.566	154.343	0.099	-0.137
-354.552	-200.000	0.011	0.437
-353.537	-200.000	-0.047	0.335
-352.523	-109.941	0.396	-0.083
-351.508	800.000	0.018	-0.074
-350.493	-69.271	0.345	0.133
-349.479	-200.000	-0.008	-0.076
-348.464	-128.557	-0.277	-0.039
-347.450	-71.477	-0.045	0.017
-346.435	657.139	0.111	-0.286
-345.420	22.526	0.178	0.147
-344.406	15.334	0.069	0.054
-343.391	28.786	0.016	0.014
-342.377	35.961	0.068	0.060
-341.362	800.000	0.131	0.380
-340.348	-43.213	-0.242	0.123
-339.333	-36.841	-0.210	0.113
-338.318	385.416	0.012	-0.024
-337.304	-58.715	0.245	0.107
-336.289	13.597	0.174	0.136
-335.275	-200.000	-0.006	0.158
-334.260	8.697	0.220	0.167
-333.245	-200.000	0.033	0.177
-332.231	-200.000	-0.016	-0.224
-331.216	-200.000	0.001	-0.011
-330.202	-85.260	0.369	0.116
-329.187	800.000	0.032	-0.134
-328.172	44.108	0.155	-0.143
-327.158	-2.983	-0.211	0.148
-326.143	142.996	-0.171	0.228
-325.129	74.174	-0.389	0.411
-324.114	800.000	0.070	0.196
-323.099	232.972	0.112	-0.185
-322.085	82.579	-0.248	0.270
-321.070	-117.504	-0.151	0.027
-320.056	800.000	0.085	-0.249
-319.041	304.393	0.080	-0.150
-318.026	-18.864	-0.092	-0.058
-317.012	-200.000	-0.042	-0.379
-315.997	-46.142	-0.269	-0.133
-314.983	-67.583	-0.255	-0.100
-313.968	54.561	-0.112	-0.109
-312.953	229.766	-0.148	-0.243
-311.939	-102.354	-0.351	-0.085
-310.924	-89.687	-0.143	0.042
-309.910	-200.000	-0.013	0.471
-308.895	587.387	-0.099	-0.244
-307.880	-200.000	-0.061	0.335
-306.866	-200.000	0.051	0.399
-305.851	-200.000	0.010	0.056
-304.837	268.917	0.108	0.191
-303.822	227.922	-0.089	0.146
-302.807	-200.000	-0.067	-0.390
-301.793	-163.688	0.112	0.005
-300.778	-96.765	-0.263	0.069
-299.764	112.531	-0.107	-0.130
-298.749	-6.002	0.216	-0.149
-297.735	126.727	0.178	-0.227
-296.720	370.977	0.140	-0.285
-295.705	40.882	-0.060	-0.054
-294.691	800.000	-0.058	0.217
-293.676	800.000	-0.026	-0.084
-292.662	-20.318	-0.130	0.080
-291.647	-41.269	0.260	-0.134
-290.632	-117.829	-0.354	0.064
-289.618	166.126	-0.071	-0.101
-288.603	-132.033	0.169	-0.022
-287.589	429.442	0.097	0.211
-286.574	-45.773	0.151	-0.075
-285.559	-122.654	-0.277	-0.045
-284.545	379.126	0.128	0.262
-283.530	-65.099	-0.145	-0.059
-282.516	103.295	0.120	0.142
-281.501	754.468	0.151	-0.410
-280.486	-147.118	0.352	-0.030
-279.472	154.461	-0.192	-0.265
-278.457	-110.793	0.147	-0.030
-277.443	60.033	0.180	-0.178
-276.428	85.461	0.211	-0.232
-275.413	102.172	-0.097	-0.114
-274.399	-106.923	-0.254	-0.056
-273.384	-128.130	0.382	0.055
-272.370	-43.010	-0.192	-0.098
-271.355	675.054	-0.070	-0.183
-270.340	-200.000	0.045	0.328
-269.326	284.798	0.176	0.318
-268.311	61.280	0.154	0.154
-267.297	411.565	-0.021	-0.045
-266.282	164.490	0.087	-0.123
-265.267	-148.624	0.128	0.010
-264.253	35.963	-0.244	-0.216
-263.238	-106.960	0.122	-0.027
-262.224	202.958	-0.104	0.162
-261.209	-65.730	-0.144	-0.058
-260.195	27.776	-0.112	-0.094
-259.180	-137.758	-0.237	0.027
-258.165	-200.000	-0.013	0.089
-257.151	-200.000	0.015	0.349
-256.136	231.046	-0.070	-0.114
-255.122	24.256	-0.081	0.067
-254.107	-134.790	0.153	-0.019
-253.092	-67.243	-0.261	0.103
-252.078	-81.999	0.202	-0.066
-251.063	570.570	-0.151	-0.369
-250.049	800.000	0.082	-0.292
-249.034	-200.000	-0.019	0.331
-248.019	21.522	-0.123	-0.100
-247.005	800.000	0.016	-0.058
-245.990	-200.000	0.004	0.069
-244.976	41.177	-0.083	0.075
-243.961	-200.000	-0.074	-0.340
-242.946	4.187	-0.149	-0.109
-241.932	-102.058	-0.134	0.032
-240.917	87.838	-0.209	0.232
-239.903	676.127	0.058	0.151
-238.888	166.418	-0.109	-0.155
-237.873	-37.771	0.229	0.122
-236.859	14.675	-0.090	-0.071
-235.844	-77.406	-0.195	-0.068
-234.830	107.463	0.099	0.118
-233.815	800.000	-0.168	-0.642
-232.800	800.000	-0.044	0.136
-231.786	-100.078	-0.115	-0.029
-230.771	300.922	0.041	0.076
-229.757	89.253	0.242	0.270
-228.742	-200.000	-0.012	-0.174
-227.727	-200.000	0.011	-0.087
-226.713	510.817	-0.180	-0.420
-225.698	-114.144	-0.259	0.050
-224.684	-49.508	0.197	0.094
-223.669	-100.475	0.013	-0.003
-222.655	800.000	-0.040	0.126
-221.640	-106.794	-0.327	0.073
-220.625	114.077	0.107	0.131
-219.611	29.430	-0.256	-0.218
-218.596	-68.573	-0.250	0.097
-217.582	-171.734	0.255	0.008
-216.567	-200.000	-0.003	0.090
-215.552	-95.329	0.253	-0.068
-214.538	-200.000	0.003	0.057
-213.523	108.877	0.196	-0.235
-212.509	202.975	0.066	0.103
-211.494	-200.000	0.038	0.299
-210.479	208.295	0.126	-0.197
-209.465	-26.007	0.130	-0.077
-208.450	152.039	0.199	-0.271
-207.436	800.000	0.057	-0.205
-206.421	313.949	0.085	-0.159
-205.406	800.000	-0.066	0.183
-204.392	-20.845	0.158	0.097
-203.377	288.579	0.163	0.296
-202.363	-6.556	-0.328	-0.223
-201.348	-200.000	0.010	0.068
-200.333	-26.504	-0.121	0.071
-199.319	-200.000	0.061	0.301
-198.304	98.814	0.049	-0.057
-197.290	72.441	-0.180	0.187
-196.275	-90.482	-0.205	0.059
-195.260	-91.833	0.131	0.037
-194.246	208.832	0.207	-0.324
-193.231	571.728	0.106	-0.258
-192.217	2.918	-0.173	0.126
-191.202	-200.000	-0.024	0.162
-190.187	-134.906	-0.250	-0.030
-189.173	-54.609	0.107	-0.048
-188.158	159.664	-0.205	0.285
-187.144	-200.000	-0.006	-0.106
-186.129	54.453	-0.276	0.266
-185.114	98.769	-0.081	0.093
-184.100	-200.000	-0.152	-0.001
-183.085	131.237	0.231	0.296
-182.071	103.191	0.144	-0.169
-181.056	-62.524	-0.048	-0.020
-180.042	800.000	0.045	0.168
-179.027	46.758	0.223	-0.207
-178.012	-108.933	0.206	-0.044
-176.998	-200.000	-0.008	-0.211
-175.983	-124.314	0.203	0.032
-174.969	-48.040	0.349	-0.169
-173.954	-200.000	0.164	0.000
-172.939	96.117	-0.118	0.134
-171.925	800.000	-0.045	0.190
-170.910	-116.085	-0.191	0.036
-169.896	420.858	0.042	0.090
-168.881	-173.299	-0.164	0.005
-167.866	800.000	-0.092	-0.265
-166.852	-142.527	-0.154	0.015
-165.837	163.107	-0.175	0.246
-164.823	67.326	-0.319	0.325
-163.808	114.933	0.146	0.178
-162.793	800.000	0.043	-0.164
-161.779	-64.900	0.340	-0.137
-160.764	-200.000	-0.055	0.328
-159.750	187.764	-0.196	-0.292
-158.735	-5.508	0.172	0.118
-157.720	-92.555	-0.035	-0.010
-156.706	38.989	0.080	-0.071
-155.691	77.357	0.061	0.064
-154.677	724.407	-0.137	0.364
-153.662	-18.950	0.201	0.125
-152.647	-200.000	0.010	0.118
-151.633	12.838	0.324	0.250
-150.618	-200.000	-0.028	-0.196
-149.604	-85.239	0.059	0.018
-148.589	-13.559	-0.182	0.118
-147.574	378.468	-0.093	-0.191
-146.560	166.261	0.110	0.155
-145.545	800.000	0.115	-0.339
-144.531	-200.000	-0.024	-0.168
-143.516	107.379	0.074	-0.088
-142.502	414.443	-0.039	-0.082
-141.487	173.079	-0.242	0.347
-140.472	43.160	0.232	-0.211
-139.458	-76.789	-0.265	-0.092
-138.443	-179.351	-0.070	-0.002
-137.429	490.932	0.071	0.163
-136.414	21.616	0.137	-0.111
-135.399	-68.895	-0.373	-0.144
-134.385	122.325	0.168	-0.210
-133.370	800.000	-0.005	0.018
-132.356	-37.849	-0.177	-0.094
-131.341	-200.000	-0.037	0.438
-130.326	85.517	0.150	0.164
-129.312	763.771	0.199	-0.539
-128.297	114.331	-0.187	0.228
-127.283	191.670	0.173	0.260
-126.268	25.801	0.047	-0.039
-125.253	259.073	-0.144	-0.248
-124.239	-200.000	-0.002	0.060
-123.224	-200.000	0.048	0.294
-122.210	-200.000	-0.002	0.213
-121.195	-200.000	0.029	-0.205
