DTS Sentinel unit serial number:	SN413079Multiplexer serial number:	ORYXHardware model number:	OX4-SRSoftware version number:	ORYX F/W v4.00 Oryx Data Collector v3.7.2.0data status	okinstallation	princeton_trtdifferential loss correction	single-endedforward channel	channel 4reverse channel	N/Adate	2019/09/15time	19:57:35forward acquisition time	60.00reverse acquisition time	0.00gamma	496.2192k internal	0.2307k external	0.2307temperature offset calibration	0.9928default loss term (dB/km)	0.3790temperature slope calibration	1.0000multiplexer offset coefficient	1.0000multiplexer slope coefficient	1.0000fibre end	0.00T internal ref (°C)	35.97T ext. ref 1 (°C)	7.53T ext. ref 2 (°C)	26.62length (m)	temperature (°C)	Stokes	anti-Stokes-747.200	-57.279	0.197	0.088
-746.185	-63.830	-0.215	0.090
-745.171	-34.425	0.222	-0.123
-744.156	65.937	-0.268	0.276
-743.142	121.866	-0.048	-0.061
-742.127	128.720	0.315	0.408
-741.112	-200.000	0.004	0.118
-740.098	145.579	0.091	0.123
-739.083	82.181	0.021	-0.023
-738.069	-48.507	-0.193	-0.095
-737.054	27.391	0.032	0.027
-736.039	515.221	0.122	0.289
-735.025	800.000	-0.046	0.185
-734.010	359.668	0.082	-0.167
-732.996	800.000	0.004	-0.013
-731.981	-200.000	0.007	-0.064
-730.966	7.560	-0.204	0.155
-729.952	800.000	-0.023	0.070
-728.937	402.411	0.049	0.105
-727.923	190.019	0.217	-0.331
-726.908	19.142	-0.392	-0.319
-725.894	-150.742	-0.308	0.024
-724.879	-186.696	0.186	-0.003
-723.864	-126.909	-0.196	-0.029
-722.850	800.000	-0.066	0.249
-721.835	2.514	-0.213	0.156
-720.821	-200.000	0.009	-0.248
-719.806	32.784	-0.116	-0.102
-718.791	-101.831	-0.208	-0.051
-717.777	-102.856	0.064	0.015
-716.762	76.502	-0.100	0.107
-715.748	310.000	-0.057	0.108
-714.733	-59.477	-0.396	0.173
-713.718	-24.945	-0.295	-0.178
-712.704	187.558	-0.145	-0.220
-711.689	-200.000	-0.036	-0.189
-710.675	-16.354	-0.200	0.129
-709.660	-62.939	0.262	-0.110
-708.645	-121.896	0.164	0.027
-707.631	-200.000	0.023	0.107
-706.616	-22.435	-0.148	-0.091
-705.602	-200.000	-0.042	-0.252
-704.587	-200.000	0.008	0.094
-703.572	-200.000	0.076	-0.353
-702.558	59.252	0.174	-0.174
-701.543	-51.636	-0.166	0.078
-700.529	-71.971	-0.226	0.085
-699.514	-3.454	0.063	0.044
-698.499	-79.817	0.193	0.066
-697.485	287.660	0.093	0.170
-696.470	88.436	-0.160	-0.180
-695.456	354.272	-0.144	-0.291
-694.441	206.742	0.066	0.104
-693.426	440.017	-0.078	-0.174
-692.412	800.000	0.097	-0.298
-691.397	53.019	-0.015	0.014
-690.383	40.945	0.015	0.014
-689.368	-17.708	-0.149	-0.095
-688.354	-200.000	0.043	-0.333
-687.339	-200.000	-0.001	-0.058
-686.324	-81.260	0.398	0.133
-685.310	800.000	0.052	-0.208
-684.295	-88.739	0.162	-0.049
-683.281	-103.716	-0.232	-0.055
-682.266	176.422	-0.028	-0.041
-681.251	230.096	-0.147	-0.244
-680.237	-200.000	-0.037	0.212
-679.222	-65.609	-0.327	0.133
-678.208	235.417	0.097	0.162
-677.193	-39.111	-0.263	-0.140
-676.178	-200.000	0.018	0.172
-675.164	-106.027	-0.368	0.084
-674.149	63.426	-0.144	0.146
-673.135	-200.000	0.080	0.454
-672.120	-135.174	0.313	0.038
-671.105	-90.183	-0.109	-0.032
-670.091	-200.000	0.002	0.118
-669.076	14.148	-0.264	-0.209
-668.062	-200.000	-0.050	-0.253
-667.047	800.000	0.028	0.112
-666.032	-200.000	0.010	0.134
-665.018	755.883	-0.084	-0.231
-664.003	134.675	-0.143	0.188
-662.989	-200.000	0.021	0.119
-661.974	-19.274	0.249	0.157
-660.959	723.552	0.080	0.217
-659.945	1.242	-0.045	-0.033
-658.930	800.000	-0.082	0.324
-657.916	-124.994	-0.062	0.010
-656.901	-200.000	-0.023	-0.131
-655.886	500.531	0.131	-0.306
-654.872	144.935	0.268	-0.363
-653.857	-200.000	-0.017	-0.295
-652.843	800.000	0.136	0.459
-651.828	28.310	-0.124	0.106
-650.814	800.000	-0.056	-0.218
-649.799	-86.657	-0.053	-0.016
-648.784	-200.000	-0.034	-0.336
-647.770	115.414	0.030	0.037
-646.755	41.312	-0.289	0.265
-645.741	27.020	-0.252	0.214
-644.726	-117.620	0.191	-0.035
-643.711	-96.306	-0.256	-0.069
-642.697	800.000	-0.030	-0.096
-641.682	114.525	-0.096	0.119
-640.668	3.087	-0.277	-0.204
-639.653	-122.225	0.216	-0.036
-638.638	141.873	-0.265	-0.356
-637.624	800.000	0.058	-0.214
-636.609	61.408	-0.205	0.206
-635.595	71.831	-0.114	0.120
-634.580	380.046	-0.108	-0.224
-633.565	-70.859	-0.196	0.075
-632.551	-36.915	0.094	0.051
-631.536	126.949	-0.238	-0.305
-630.522	686.252	-0.117	-0.310
-629.507	151.295	0.198	0.272
-628.492	91.353	0.252	-0.286
-627.478	51.105	0.424	-0.407
-626.463	47.393	0.164	-0.155
-625.449	-6.218	0.173	0.120
-624.434	-65.793	0.331	-0.134
-623.419	83.974	0.169	-0.186
-622.405	43.498	-0.318	0.295
-621.390	-200.000	-0.010	-0.172
-620.376	-200.000	0.075	0.354
-619.361	41.751	0.121	-0.111
-618.346	70.965	-0.163	-0.171
-617.332	1.144	-0.143	-0.104
-616.317	800.000	-0.016	0.058
-615.303	-50.106	-0.317	0.152
-614.288	23.528	-0.086	0.071
-613.273	251.259	0.119	0.205
-612.259	-196.531	-0.141	0.001
-611.244	-75.502	-0.157	0.057
-610.230	43.860	-0.372	0.344
-609.215	51.982	0.175	0.168
-608.201	7.558	0.287	0.217
-607.186	-1.494	0.133	-0.095
-606.171	800.000	0.116	-0.393
-605.157	172.268	0.114	0.165
-604.142	97.092	-0.334	-0.387
-603.128	-73.275	-0.076	-0.028
-602.113	-174.939	-0.170	-0.005
-601.098	-200.000	0.006	0.195
-600.084	13.641	0.217	-0.171
-599.069	-115.895	-0.325	0.061
-598.055	227.219	0.142	-0.233
-597.040	789.430	-0.126	0.349
-596.025	127.829	-0.128	0.164
-595.011	40.695	-0.041	0.037
-593.996	-200.000	-0.039	-0.268
-592.982	107.589	0.049	-0.058
-591.967	229.027	-0.168	0.276
-590.952	77.107	0.188	0.202
-589.938	230.454	0.082	-0.135
-588.923	800.000	-0.073	-0.264
-587.909	-200.000	-0.003	0.459
-586.894	-200.000	0.001	0.107
-585.879	124.579	0.117	0.149
-584.865	84.585	-0.064	-0.070
-583.850	-98.098	0.101	-0.026
-582.836	-55.447	0.309	0.140
-581.821	280.775	-0.147	0.266
-580.806	-139.731	0.231	0.025
-579.792	-180.484	0.046	-0.001
-578.777	-47.542	-0.244	-0.120
-577.763	-200.000	-0.027	-0.207
-576.748	377.524	-0.143	0.295
-575.733	26.384	-0.047	0.040
-574.719	-134.167	0.157	0.020
-573.704	8.976	0.158	0.121
-572.690	800.000	-0.015	0.043
-571.675	800.000	0.005	-0.022
-570.661	305.126	0.029	-0.054
-569.646	-61.278	-0.291	-0.124
-568.631	-39.493	-0.371	0.196
-567.617	153.787	0.115	-0.159
-566.602	108.948	-0.140	-0.169
-565.588	45.351	-0.037	0.034
-564.573	532.466	-0.116	-0.278
-563.558	176.955	-0.091	-0.133
-562.544	572.215	-0.013	-0.031
-561.529	-18.077	0.268	0.169
-560.515	800.000	0.087	-0.276
-559.500	-200.000	-0.017	-0.146
-558.485	79.827	-0.131	0.142
-557.471	428.973	-0.052	-0.114
-556.456	43.789	0.260	0.240
-555.442	-183.978	-0.162	0.003
-554.427	-57.514	-0.205	0.091
-553.412	-171.543	0.055	0.002
-552.398	-105.979	-0.104	0.024
-551.383	-120.509	0.232	0.040
-550.369	54.759	-0.226	0.220
-549.354	1.907	0.184	-0.134
-548.339	83.600	-0.036	-0.040
-547.325	800.000	0.033	0.099
-546.310	712.818	0.009	-0.025
-545.296	-148.067	0.238	0.020
-544.281	-146.868	0.473	0.041
-543.266	144.164	0.071	0.096
-542.252	-115.226	0.270	0.052
-541.237	-200.000	0.005	0.277
-540.223	18.437	0.043	0.035
-539.208	800.000	-0.058	-0.193
-538.193	-136.635	-0.256	0.030
-537.179	-2.878	0.240	-0.169
-536.164	48.639	0.283	0.268
-535.150	95.707	0.187	0.215
-534.135	670.800	0.091	0.237
-533.121	123.688	-0.092	-0.117
-532.106	-200.000	0.068	-0.476
-531.091	-42.323	0.319	-0.164
-530.077	-66.472	-0.113	-0.045
-529.062	-19.760	0.152	-0.095
-528.048	94.070	-0.131	-0.150
-527.033	-112.901	0.100	0.020
-526.018	800.000	0.130	-0.520
-525.004	11.954	-0.194	-0.150
-523.989	58.675	-0.363	0.359
-522.975	-70.162	-0.394	0.151
-521.960	-75.519	-0.335	-0.120
-520.945	-164.279	0.107	0.005
-519.931	-200.000	-0.014	0.335
-518.916	-200.000	-0.013	-0.058
-517.902	-200.000	-0.001	-0.100
-516.887	800.000	0.016	-0.066
-515.872	22.784	-0.096	0.079
-514.858	-200.000	-0.003	0.070
-513.843	23.471	-0.054	0.045
-512.829	-77.628	-0.153	-0.053
-511.814	593.470	-0.021	-0.053
-510.799	-122.346	0.092	0.015
-509.785	-153.259	0.320	0.023
-508.770	-200.000	0.081	0.398
-507.756	76.096	0.192	0.205
-506.741	109.897	0.138	-0.167
-505.726	340.510	-0.062	-0.122
-504.712	172.778	-0.087	-0.126
-503.697	-175.027	0.317	0.009
-502.683	19.047	-0.117	0.095
-501.668	43.002	-0.248	-0.228
-500.653	-200.000	-0.005	0.455
-499.639	-4.734	-0.025	0.017
-498.624	-194.241	0.280	-0.002
-497.610	121.078	0.183	-0.229
-496.595	-67.208	0.131	-0.052
-495.581	-200.000	0.016	0.106
-494.566	-116.620	0.079	-0.015
-493.551	-200.000	-0.007	0.080
-492.537	-200.000	-0.006	-0.092
-491.522	-146.004	0.414	-0.037
-490.508	39.326	0.087	-0.079
-489.493	-160.630	-0.110	-0.006
-488.478	-131.726	-0.236	0.031
-487.464	800.000	-0.069	-0.244
-486.449	-200.000	-0.002	-0.312
-485.435	123.250	-0.089	-0.113
-484.420	-66.497	-0.288	-0.115
-483.405	800.000	0.106	0.314
-482.391	44.634	0.163	0.151
-481.376	8.956	-0.141	0.107
-480.362	74.628	0.223	-0.236
-479.347	239.566	-0.158	0.264
-478.332	-0.118	-0.255	0.183
-477.318	-200.000	0.009	-0.156
-476.303	-57.565	-0.158	0.070
-475.289	226.525	-0.267	-0.435
-474.274	145.445	0.186	-0.251
-473.259	-200.000	0.026	-0.155
-472.245	-50.235	0.128	0.061
-471.230	-56.256	-0.076	-0.034
-470.216	-5.398	-0.080	-0.055
-469.201	-200.000	-0.025	0.216
-468.186	-53.168	0.104	-0.048
-467.172	-63.798	-0.309	-0.127
-466.157	255.544	0.094	0.162
-465.143	-61.501	-0.268	-0.113
-464.128	156.102	-0.167	-0.232
-463.113	176.561	-0.078	0.114
-462.099	-165.297	-0.226	-0.010
-461.084	205.048	-0.111	-0.173
-460.070	238.528	-0.191	0.320
-459.055	-28.890	0.097	0.056
-458.040	143.988	-0.240	-0.322
-457.026	258.239	0.063	-0.109
-456.011	-129.842	0.240	0.033
-454.997	-200.000	-0.031	0.193
-453.982	-36.614	0.156	-0.084
-452.968	-44.556	-0.078	0.039
-451.953	800.000	0.066	-0.189
-450.938	47.277	-0.251	0.235
-449.924	673.755	-0.146	-0.381
-448.909	-200.000	-0.053	-0.556
-447.895	-71.873	-0.051	-0.019
-446.880	2.924	0.181	0.132
-445.865	-200.000	-0.009	-0.207
-444.851	-77.932	0.156	0.054
-443.836	-83.416	-0.056	-0.018
-442.822	-125.659	-0.250	0.038
-441.807	10.100	0.295	-0.225
-440.792	-83.744	-0.086	0.028
-439.778	-155.162	0.087	0.006
-438.763	-117.921	0.128	0.023
-437.749	-59.295	-0.233	0.101
-436.734	-139.018	-0.057	0.006
-435.719	-70.979	0.114	-0.043
-434.705	-110.206	0.101	-0.021
-433.690	-90.637	-0.082	-0.024
-432.676	455.604	-0.124	0.277
-431.661	-21.629	0.240	0.147
-430.646	800.000	-0.049	0.196
-429.632	-23.869	0.173	0.104
-428.617	-200.000	0.014	-0.083
-427.603	-200.000	0.007	-0.127
-426.588	149.469	-0.130	0.177
-425.573	49.315	-0.085	0.080
-424.559	-200.000	-0.002	0.213
-423.544	-200.000	-0.008	0.131
-422.530	277.859	0.025	-0.045
-421.515	322.290	-0.244	-0.466
-420.500	-160.437	-0.152	0.008
-419.486	78.382	-0.115	-0.124
-418.471	-98.697	-0.208	0.053
-417.457	22.417	-0.154	0.126
-416.442	-56.735	-0.180	-0.080
-415.428	162.404	-0.031	-0.043
-414.413	-200.000	0.001	-0.176
-413.398	800.000	-0.056	0.196
-412.384	298.879	-0.103	0.190
-411.369	-200.000	-0.011	-0.241
-410.355	800.000	-0.057	0.221
-409.340	-200.000	-0.036	0.241
-408.325	-200.000	0.034	0.206
-407.311	-104.689	-0.138	-0.032
-406.296	-200.000	0.005	0.164
-405.282	130.009	-0.151	0.194
-404.267	-65.200	0.120	0.049
-403.252	800.000	0.109	-0.374
-402.238	73.900	0.129	-0.136
-401.223	-144.693	-0.086	-0.008
-400.209	800.000	-0.118	-0.398
-399.194	721.458	-0.060	0.160
-398.179	-111.881	0.104	-0.021
-397.165	-200.000	0.015	0.199
-396.150	-136.536	0.210	-0.024
-395.136	212.325	0.069	-0.108
-394.121	-200.000	0.053	0.298
-393.106	-90.991	-0.188	0.054
-392.092	-3.455	-0.053	-0.037
-391.077	397.225	-0.122	0.255
-390.063	763.276	0.093	0.254
-389.048	93.716	0.223	-0.254
-388.033	-189.697	-0.104	0.001
-387.019	-82.720	0.050	-0.016
-386.004	-56.727	0.109	-0.048
-384.990	-162.613	0.284	-0.014
-383.975	-151.661	0.143	0.011
-382.960	-86.690	-0.457	0.140
-381.946	-45.757	-0.070	0.035
-380.931	306.208	0.082	0.153
-379.917	-200.000	0.003	0.185
-378.902	-80.979	-0.456	0.151
-377.888	-200.000	-0.048	0.269
-376.873	-112.227	0.511	-0.103
-375.858	-65.603	0.380	-0.153
-374.844	127.951	-0.215	-0.274
-373.829	-6.790	-0.151	0.103
-372.815	-200.000	0.064	0.328
-371.800	108.463	0.118	0.141
-370.785	-200.000	0.014	0.124
-369.771	89.356	-0.186	0.208
-368.756	69.220	-0.245	0.252
-367.742	-183.483	-0.299	-0.005
-366.727	-200.000	-0.015	-0.453
-365.712	800.000	0.028	0.081
-364.698	-59.946	0.068	-0.029
-363.683	212.700	0.034	0.054
-362.669	125.452	0.077	0.098
-361.654	-23.061	0.157	0.095
-360.639	-32.092	-0.117	0.065
-359.625	800.000	0.072	0.222
-358.610	-200.000	-0.020	0.139
-357.596	94.865	0.173	-0.197
-356.581	7.574	-0.093	0.070
-355.566	800.000	0.073	-0.230
-354.552	-120.068	0.123	0.021
-353.537	800.000	-0.057	-0.242
-352.523	-80.826	-0.307	0.102
-351.508	703.184	0.040	0.105
-350.493	-48.814	-0.204	0.098
-349.479	33.265	0.112	-0.098
-348.464	-131.597	-0.297	0.039
-347.450	-157.096	0.576	-0.035
-346.435	800.000	-0.037	0.110
-345.420	169.355	0.222	-0.317
-344.406	37.906	0.165	0.147
-343.391	12.182	-0.174	-0.134
-342.377	56.073	0.281	-0.273
-341.362	800.000	0.067	0.268
-340.348	-10.984	-0.166	0.109
-339.333	180.867	-0.013	0.020
-338.318	800.000	-0.089	0.299
-337.304	-200.000	-0.008	-0.131
-336.289	189.864	-0.108	0.162
-335.275	600.049	0.124	-0.308
-334.260	-173.968	0.159	-0.005
-333.245	-200.000	0.081	0.509
-332.231	-23.974	-0.228	-0.136
-331.216	-200.000	0.050	0.295
-330.202	217.268	0.094	0.149
-329.187	-19.617	-0.085	0.053
-328.172	448.907	0.085	0.187
-327.158	-74.356	-0.249	-0.090
-326.143	-89.457	0.270	0.079
-325.129	-7.404	-0.220	0.149
-324.114	-200.000	0.013	0.108
-323.099	-188.748	0.374	-0.005
-322.085	-28.671	-0.180	0.104
-321.070	-100.024	0.284	-0.071
-320.056	-57.802	-0.068	0.030
-319.041	-99.412	-0.134	0.034
-318.026	76.152	0.246	0.261
-317.012	-82.969	-0.117	-0.038
-315.997	16.997	-0.061	0.048
-314.983	-200.000	0.000	0.259
-313.968	-91.798	0.221	-0.063
-312.953	36.639	-0.154	-0.136
-311.939	800.000	-0.086	0.273
-310.924	-14.309	0.056	0.036
-309.910	-200.000	0.012	-0.064
-308.895	-64.762	0.175	0.071
-307.880	-73.596	-0.196	-0.072
-306.866	13.241	0.228	-0.176
-305.851	800.000	-0.065	-0.181
-304.837	105.177	-0.080	0.094
-303.822	14.504	0.030	0.023
-302.807	-29.347	0.213	0.122
-301.793	-200.000	-0.038	-0.183
-300.778	-116.893	0.105	-0.019
-299.764	-69.030	0.311	-0.120
-298.749	-130.698	0.163	-0.022
-297.735	-200.000	0.150	0.000
-296.720	76.660	-0.029	0.030
-295.705	-200.000	-0.005	0.023
-294.691	-33.411	-0.108	-0.060
-293.676	-200.000	-0.003	0.332
-292.662	-60.614	-0.170	0.072
-291.647	-20.358	0.406	-0.249
-290.632	-87.656	0.046	-0.014
-289.618	-99.761	-0.144	-0.036
-288.603	-75.526	-0.300	-0.106
-287.589	-29.809	0.096	-0.055
-286.574	164.445	0.196	-0.276
-285.559	148.518	-0.092	-0.124
-284.545	470.530	0.019	-0.042
-283.530	-58.609	-0.092	0.040
-282.516	-175.186	0.237	0.007
-281.501	272.260	0.091	-0.159
-280.486	-85.874	-0.304	-0.094
-279.472	378.098	0.036	0.074
-278.457	800.000	0.056	-0.234
-277.443	52.294	-0.068	0.065
-276.428	-200.000	0.014	-0.358
-275.413	118.690	0.146	-0.180
-274.399	-113.278	0.072	0.014
-273.384	54.301	-0.102	0.098
-272.370	-122.412	-0.098	0.016
-271.355	-148.846	0.041	-0.003
-270.340	-50.805	-0.174	-0.082
-269.326	-86.394	0.274	-0.084
-268.311	753.574	-0.048	-0.130
-267.297	-200.000	0.033	-0.334
-266.282	-159.990	0.185	-0.010
-265.267	36.713	0.008	-0.007
-264.253	3.355	0.249	0.181
-263.238	-107.198	-0.118	-0.026
-262.224	158.458	-0.232	-0.321
-261.209	-200.000	-0.025	0.296
-260.195	-60.155	-0.081	0.034
-259.180	-1.020	-0.170	0.120
-258.165	800.000	0.115	-0.355
-257.151	-52.062	-0.196	0.091
-256.136	-200.000	-0.004	0.047
-255.122	363.620	0.039	0.078
-254.107	-180.914	-0.345	-0.007
-253.092	-200.000	0.012	0.082
-252.078	-194.276	-0.035	-0.000
-251.063	-200.000	0.015	-0.165
-250.049	-200.000	0.052	0.228
-249.034	-200.000	0.014	-0.189
-248.019	-121.292	-0.118	-0.020
-247.005	-63.536	-0.245	0.100
-245.990	800.000	-0.018	-0.075
-244.976	-40.909	0.167	-0.086
-243.961	-187.098	0.151	-0.002
-242.946	22.553	0.178	0.145
-241.932	-90.345	0.173	0.050
-240.917	7.056	0.283	0.210
-239.903	117.151	0.044	-0.054
-238.888	-45.716	0.368	-0.181
-237.873	-200.000	-0.056	-0.379
-236.859	-200.000	-0.007	0.177
-235.844	-54.392	0.140	-0.063
-234.830	111.585	0.149	0.179
-233.815	-110.030	0.340	0.071
-232.800	-112.802	-0.132	-0.026
-231.786	27.639	0.023	-0.020
-230.771	-122.631	0.095	0.015
-229.757	-200.000	0.020	-0.142
-228.742	-12.750	-0.229	-0.149
-227.727	-63.836	-0.123	0.050
-226.713	8.833	-0.083	-0.063
-225.698	-85.477	0.312	-0.097
-224.684	-68.230	-0.284	0.110
-223.669	115.123	0.042	-0.051
-222.655	-200.000	-0.062	-0.470
-221.640	-30.627	-0.155	-0.088
-220.625	-200.000	-0.045	-0.370
-219.611	-165.050	-0.114	0.005
-218.596	-171.046	-0.208	0.007
-217.582	-200.000	-0.012	0.074
-216.567	-200.000	-0.016	-0.079
-215.552	182.897	-0.080	0.118
-214.538	-200.000	0.041	0.207
-213.523	513.184	0.035	-0.081
-212.509	-103.247	-0.156	-0.037
-211.494	-32.206	-0.266	0.148
-210.479	800.000	-0.037	-0.116
-209.465	417.323	0.133	-0.282
-208.450	-200.000	0.029	0.426
-207.436	701.686	-0.092	0.241
-206.421	800.000	0.034	0.113
-205.406	21.882	-0.360	-0.292
-204.392	-105.426	0.089	-0.020
-203.377	-98.205	0.337	-0.086
-202.363	13.946	0.078	0.060
-201.348	-200.000	0.048	-0.267
-200.333	800.000	0.021	-0.071
-199.319	-164.343	0.078	-0.004
-198.304	-200.000	-0.084	-0.377
-197.290	76.781	-0.054	0.057
-196.275	279.200	-0.067	0.119
-195.260	65.246	-0.081	-0.082
-194.246	160.293	0.125	0.173
-193.231	364.947	-0.137	0.274
-192.217	-83.736	-0.215	0.068
-191.202	308.287	0.051	-0.094
-190.187	-134.196	0.136	0.017
-189.173	92.355	-0.108	-0.121
-188.158	-34.445	0.404	0.220
-187.144	-160.510	-0.014	0.001
-186.129	457.209	0.087	-0.193
-185.114	-170.190	0.236	0.008
-184.100	399.764	0.067	0.140
-183.085	25.933	-0.212	0.176
-182.071	-200.000	0.019	-0.352
-181.056	-119.961	-0.102	0.017
-180.042	-200.000	-0.047	0.217
-179.027	-79.309	0.325	-0.110
-178.012	-86.564	0.273	-0.083
-176.998	-60.044	0.178	0.076
-175.983	-55.984	-0.276	-0.122
-174.969	-200.000	0.033	0.163
-173.954	-200.000	-0.039	0.501
-172.939	92.548	0.118	-0.132
-171.925	-154.857	0.256	0.017
-170.910	-116.524	0.092	-0.017
-169.896	-200.000	0.013	0.102
-168.881	76.252	0.401	-0.423
-167.866	800.000	0.026	0.099
-166.852	568.104	-0.148	0.357
-165.837	-37.433	0.256	0.136
-164.823	359.973	0.093	-0.185
-163.808	-200.000	0.001	0.237
-162.793	-132.185	-0.316	0.041
-161.779	800.000	-0.048	0.145
-160.764	-200.000	0.029	0.471
-159.750	800.000	0.050	-0.154
-158.735	-200.000	-0.004	-0.357
-157.720	106.778	-0.051	0.061
-156.706	34.312	-0.016	0.014
-155.691	57.974	0.060	0.059
-154.677	-29.262	-0.060	0.034
-153.662	-174.054	-0.109	-0.003
-152.647	41.080	-0.127	-0.114
-151.633	-96.257	0.263	-0.069
-150.618	-40.140	-0.283	0.146
-149.604	-29.614	0.216	-0.123
-148.589	-16.271	-0.105	0.066
-147.574	-53.389	-0.256	-0.117
-146.560	70.681	-0.045	-0.046
-145.545	67.496	-0.033	0.034
-144.531	56.602	0.186	0.180
-143.516	-144.783	-0.170	0.015
-142.502	17.784	-0.198	0.156
-141.487	-167.075	-0.134	0.005
-140.472	800.000	0.067	-0.225
-139.458	394.975	0.056	0.115
-138.443	-69.427	0.186	0.071
-137.429	-5.642	-0.141	0.096
-136.414	25.618	0.152	0.126
-135.399	-200.000	-0.024	-0.123
-134.385	-122.294	0.191	0.031
-133.370	800.000	-0.033	-0.118
-132.356	-93.097	-0.270	-0.075
-131.341	-200.000	0.007	0.263
-130.326	-69.123	0.029	-0.011
-129.312	800.000	-0.084	-0.331
-128.297	800.000	0.147	0.489
-127.283	-200.000	-0.006	0.237
-126.268	-187.570	-0.260	0.003
-125.253	89.676	-0.088	0.098
-124.239	7.176	0.113	0.084
-123.224	-142.310	-0.335	-0.033
-122.210	-41.800	0.413	-0.210
-121.195	-96.979	0.165	-0.043
