DTS Sentinel unit serial number:	SN413079Multiplexer serial number:	ORYXHardware model number:	OX4-SRSoftware version number:	ORYX F/W v4.00 Oryx Data Collector v3.7.2.0data status	okinstallation	princeton_trtdifferential loss correction	single-endedforward channel	channel 4reverse channel	N/Adate	2019/09/14time	13:37:34forward acquisition time	60.00reverse acquisition time	0.00gamma	496.2192k internal	0.2293k external	0.2293temperature offset calibration	1.0153default loss term (dB/km)	0.3790temperature slope calibration	1.0000multiplexer offset coefficient	1.0000multiplexer slope coefficient	1.0000fibre end	0.00T internal ref (°C)	37.92T ext. ref 1 (°C)	4.92T ext. ref 2 (°C)	32.71length (m)	temperature (°C)	Stokes	anti-Stokes-747.200	-163.249	0.230	-0.011
-746.185	9.265	-0.357	0.276
-745.171	-30.737	0.095	-0.055
-744.156	-64.082	0.275	-0.115
-743.142	800.000	0.053	0.219
-742.127	-200.000	-0.047	0.318
-741.112	-15.074	-0.143	-0.094
-740.098	-200.000	-0.039	0.320
-739.083	395.946	0.091	0.195
-738.069	-200.000	-0.032	0.371
-737.054	-200.000	0.056	0.281
-736.039	-157.491	-0.221	0.014
-735.025	-200.000	-0.012	-0.204
-734.010	-200.000	0.016	0.168
-732.996	800.000	0.087	-0.261
-731.981	56.664	0.082	-0.081
-730.966	-33.754	-0.192	-0.108
-729.952	-200.000	0.058	0.280
-728.937	-62.314	-0.104	0.044
-727.923	-16.729	0.149	0.096
-726.908	-200.000	-0.026	0.275
-725.894	1.958	-0.108	0.080
-724.879	800.000	-0.057	0.166
-723.864	-67.161	0.259	0.104
-722.850	139.077	-0.108	-0.145
-721.835	-200.000	0.017	-0.134
-720.821	-38.426	0.115	0.062
-719.806	263.752	-0.271	-0.481
-718.791	-105.453	-0.239	-0.055
-717.777	-126.882	0.269	0.041
-716.762	502.489	0.095	0.226
-715.748	-200.000	-0.034	-0.323
-714.733	27.511	-0.127	-0.109
-713.718	-15.080	-0.421	0.276
-712.704	-130.397	-0.189	0.026
-711.689	90.875	0.098	-0.112
-710.675	-200.000	-0.004	0.274
-709.660	800.000	-0.037	0.105
-708.645	217.350	0.181	-0.295
-707.631	79.008	-0.242	-0.265
-706.616	-116.992	0.054	0.010
-705.602	9.675	0.118	0.092
-704.587	44.211	-0.080	-0.075
-703.572	-41.090	0.157	0.083
-702.558	-12.309	-0.132	0.088
-701.543	-61.034	0.256	-0.111
-700.529	-158.118	-0.265	0.016
-699.514	-166.290	-0.133	-0.006
-698.499	129.592	-0.062	0.081
-697.485	54.139	0.192	-0.189
-696.470	-200.000	0.033	-0.290
-695.456	800.000	-0.080	-0.332
-694.441	-147.382	0.305	0.026
-693.426	171.714	-0.273	-0.400
-692.412	455.464	0.060	0.135
-691.397	7.692	-0.099	-0.076
-690.383	48.331	-0.113	-0.108
-689.368	-200.000	-0.006	0.122
-688.354	-174.579	-0.448	0.013
-687.339	-79.068	0.148	0.051
-686.324	-57.365	0.304	0.136
-685.310	-200.000	0.014	0.227
-684.295	129.333	-0.150	0.196
-683.281	-138.695	0.236	-0.026
-682.266	67.098	0.113	-0.117
-681.251	-200.000	-0.059	-0.311
-680.237	-200.000	0.005	0.101
-679.222	764.898	-0.022	-0.062
-678.208	36.025	0.160	0.143
-677.193	81.439	0.036	0.040
-676.178	-200.000	0.002	-0.081
-675.164	-200.000	-0.020	-0.410
-674.149	-135.066	0.119	-0.015
-673.135	323.851	0.070	0.137
-672.120	415.941	-0.107	0.233
-671.105	-200.000	0.047	-0.286
-670.091	-200.000	-0.004	-0.077
-669.076	800.000	-0.081	0.288
-668.062	-200.000	0.004	-0.058
-667.047	-83.048	-0.113	0.037
-666.032	124.279	0.158	0.202
-665.018	800.000	0.066	-0.289
-664.003	-145.037	0.187	-0.017
-662.989	-35.040	-0.140	-0.078
-661.974	-200.000	0.050	-0.405
-660.959	474.269	-0.014	-0.033
-659.945	-30.764	-0.228	-0.131
-658.930	-200.000	0.023	0.242
-657.916	136.128	0.136	-0.181
-656.901	-17.332	0.224	-0.144
-655.886	218.447	0.117	-0.190
-654.872	37.576	0.042	0.038
-653.857	-200.000	-0.014	-0.380
-652.843	800.000	0.060	0.255
-651.828	-57.389	-0.347	0.156
-650.814	-1.565	-0.186	-0.134
-649.799	307.235	-0.054	0.103
-648.784	3.853	-0.180	0.134
-647.770	36.093	0.351	-0.315
-646.755	800.000	-0.128	0.555
-645.741	-3.094	-0.154	-0.109
-644.726	800.000	0.016	-0.049
-643.711	128.968	0.178	-0.231
-642.697	-105.352	-0.259	-0.060
-641.682	-6.495	-0.167	-0.116
-640.668	-200.000	-0.006	0.144
-639.653	-56.399	-0.284	0.128
-638.638	-122.006	0.078	-0.013
-637.624	80.388	-0.133	0.146
-636.609	1.475	0.259	-0.190
-635.595	20.543	-0.026	-0.021
-634.580	800.000	-0.064	-0.233
-633.565	-10.048	-0.073	0.049
-632.551	-200.000	0.000	0.064
-631.536	-81.872	-0.102	-0.034
-630.522	163.315	0.159	0.228
-629.507	-168.164	0.330	0.013
-628.492	-7.748	0.234	-0.161
-627.478	-200.000	-0.000	0.018
-626.463	-37.910	0.358	-0.194
-625.449	-200.000	-0.036	-0.416
-624.434	-200.000	0.018	0.218
-623.419	-17.491	0.235	0.151
-622.405	-118.677	-0.086	0.015
-621.390	-41.539	-0.138	0.072
-620.376	118.379	-0.087	0.109
-619.361	-88.466	-0.338	0.103
-618.346	-97.624	-0.080	0.021
-617.332	243.691	0.126	0.215
-616.317	90.062	0.142	-0.162
-615.303	-200.000	0.006	0.040
-614.288	-107.516	-0.039	-0.009
-613.273	20.969	0.269	-0.222
-612.259	800.000	-0.061	-0.212
-611.244	93.032	-0.103	0.118
-610.230	218.269	0.188	-0.305
-609.215	-40.583	0.091	0.048
-608.201	111.147	-0.139	0.170
-607.186	29.615	-0.225	-0.195
-606.171	-9.847	-0.185	-0.125
-605.157	432.904	-0.110	-0.243
-604.142	-10.869	0.256	-0.172
-603.128	18.058	-0.126	-0.102
-602.113	15.335	-0.210	-0.168
-601.098	-12.327	-0.088	0.058
-600.084	-21.333	0.045	0.028
-599.069	-188.353	-0.162	0.002
-598.055	800.000	-0.044	0.191
-597.040	-6.750	0.079	-0.054
-596.025	-61.825	0.169	-0.072
-595.011	36.009	-0.150	0.134
-593.996	-56.004	-0.063	-0.029
-592.982	96.153	-0.139	0.162
-591.967	-45.551	0.251	0.126
-590.952	800.000	0.026	-0.092
-589.938	47.555	0.178	0.169
-588.923	-200.000	-0.010	-0.135
-587.909	-200.000	-0.001	-0.111
-586.894	211.708	-0.041	0.065
-585.879	16.366	0.199	-0.160
-584.865	6.055	-0.325	-0.245
-583.850	-125.677	-0.248	0.038
-582.836	-49.862	-0.029	-0.014
-581.821	182.374	-0.104	-0.156
-580.806	357.043	-0.144	0.292
-579.792	-30.926	-0.204	0.117
-578.777	-200.000	0.028	-0.378
-577.763	800.000	0.081	-0.227
-576.748	121.386	0.205	-0.259
-575.733	46.698	0.182	-0.171
-574.719	18.897	-0.203	-0.166
-573.704	800.000	0.087	0.256
-572.690	251.065	-0.179	0.309
-571.675	393.243	-0.172	-0.365
-570.661	566.698	0.123	-0.303
-569.646	-76.012	0.294	-0.106
-568.631	-143.107	0.115	-0.011
-567.617	29.650	0.230	-0.199
-566.602	800.000	0.006	-0.024
-565.588	-113.198	0.242	-0.048
-564.573	230.389	-0.187	0.310
-563.558	724.311	0.113	0.307
-562.544	-109.330	-0.063	-0.013
-561.529	158.248	-0.056	0.079
-560.515	-36.597	0.266	-0.146
-559.500	122.140	-0.008	-0.010
-558.485	-200.000	-0.000	0.115
-557.471	800.000	0.116	-0.489
-556.456	301.175	-0.014	0.026
-555.442	-14.034	-0.076	0.050
-554.427	-200.000	0.024	0.136
-553.412	744.263	-0.078	0.213
-552.398	-200.000	0.008	-0.134
-551.383	241.592	-0.079	0.134
-550.369	800.000	0.009	0.028
-549.354	363.863	-0.240	-0.490
-548.339	74.824	-0.106	0.113
-547.325	90.577	0.069	-0.078
-546.310	241.980	0.233	-0.395
-545.296	314.985	0.154	-0.294
-544.281	-137.511	-0.428	-0.049
-543.266	60.319	0.138	0.138
-542.252	-200.000	0.032	0.240
-541.237	-45.217	0.105	-0.053
-540.223	800.000	-0.041	0.167
-539.208	800.000	0.090	0.282
-538.193	-89.770	-0.314	0.093
-537.179	620.160	0.071	-0.180
-536.164	-37.282	0.104	-0.056
-535.150	800.000	-0.074	-0.320
-534.135	-108.423	-0.193	-0.042
-533.121	-11.021	0.220	0.148
-532.106	-200.000	0.018	-0.365
-531.091	-116.984	0.211	0.039
-530.077	-200.000	-0.012	-0.098
-529.062	387.884	-0.038	0.081
-528.048	206.935	-0.052	0.082
-527.033	154.554	-0.179	0.249
-526.018	-38.228	0.217	0.117
-525.004	-103.711	-0.300	-0.071
-523.989	-39.514	0.209	0.111
-522.975	-6.709	0.048	0.033
-521.960	87.258	0.091	0.102
-520.945	-36.054	0.125	-0.068
-519.931	-200.000	0.016	0.277
-518.916	378.795	0.004	0.009
-517.902	-200.000	-0.037	0.291
-516.887	48.682	-0.209	-0.199
-515.872	-200.000	-0.019	0.199
-514.858	447.083	0.064	0.143
-513.843	-200.000	0.334	0.001
-512.829	230.566	0.161	0.268
-511.814	39.498	-0.107	-0.097
-510.799	-108.059	0.199	-0.044
-509.785	20.604	0.056	0.046
-508.770	-50.848	0.052	0.025
-507.756	-172.673	-0.237	0.008
-506.741	800.000	-0.097	-0.372
-505.726	-115.999	-0.133	0.025
-504.712	105.274	-0.174	0.208
-503.697	800.000	-0.084	0.280
-502.683	-105.538	0.222	-0.051
-501.668	-121.702	0.298	0.050
-500.653	-165.645	-0.174	-0.008
-499.639	-200.000	0.003	0.113
-498.624	74.542	-0.073	0.078
-497.610	800.000	-0.080	0.230
-496.595	29.171	0.075	0.065
-495.581	226.405	-0.175	-0.288
-494.566	-16.334	0.193	0.124
-493.551	119.260	0.057	-0.072
-492.537	-200.000	-0.013	0.129
-491.522	-200.000	0.006	0.260
-490.508	221.490	0.137	0.224
-489.493	-151.099	0.321	-0.024
-488.478	-121.403	-0.289	-0.049
-487.464	320.685	0.094	0.180
-486.449	403.438	0.041	0.087
-485.435	-97.462	0.137	0.036
-484.420	-129.293	0.176	0.025
-483.405	-64.545	-0.083	0.034
-482.391	-4.400	-0.125	-0.087
-481.376	509.894	-0.098	0.231
-480.362	-160.488	-0.335	-0.018
-479.347	66.627	-0.070	-0.072
-478.332	-64.352	-0.179	0.074
-477.318	-200.000	0.046	-0.314
-476.303	-200.000	0.110	-0.532
-475.289	-140.097	0.445	0.047
-474.274	-200.000	-0.008	-0.154
-473.259	-200.000	0.036	0.199
-472.245	-129.014	-0.096	-0.014
-471.230	363.094	-0.094	0.192
-470.216	-18.080	-0.221	0.140
-469.201	-200.000	-0.008	-0.227
-468.186	-164.918	-0.074	-0.003
-467.172	97.662	-0.183	0.213
-466.157	-11.235	-0.201	0.134
-465.143	-16.214	-0.095	-0.061
-464.128	-200.000	-0.019	0.108
-463.113	-200.000	-0.019	-0.357
-462.099	-200.000	-0.021	-0.312
-461.084	-94.474	0.404	-0.111
-460.070	-79.922	-0.228	-0.078
-459.055	-200.000	0.021	0.151
-458.040	32.684	0.222	-0.194
-457.026	-85.772	0.276	-0.087
-456.011	-200.000	0.041	-0.642
-454.997	7.079	-0.136	-0.103
-453.982	24.821	-0.272	-0.228
-452.968	800.000	0.016	0.050
-451.953	-200.000	-0.079	0.386
-450.938	112.655	-0.154	0.189
-449.924	260.688	-0.089	0.156
-448.909	66.201	-0.276	-0.283
-447.895	-58.859	0.319	0.140
-446.880	-114.299	0.155	0.030
-445.865	-200.000	0.061	-0.329
-444.851	-83.692	-0.402	0.130
-443.836	753.987	0.133	0.364
-442.822	270.741	-0.211	-0.375
-441.807	370.773	-0.019	0.040
-440.792	-4.404	-0.374	-0.262
-439.778	454.153	0.002	0.004
-438.763	-106.713	-0.299	0.067
-437.749	-200.000	0.042	-0.251
-436.734	-200.000	-0.211	0.001
-435.719	192.854	0.075	-0.115
-434.705	800.000	0.050	0.173
-433.690	140.516	-0.155	0.207
-432.676	315.479	0.186	-0.355
-431.661	-200.000	-0.004	0.080
-430.646	-97.228	-0.089	-0.024
-429.632	-200.000	-0.006	0.126
-428.617	29.400	0.143	-0.123
-427.603	-200.000	-0.080	0.363
-426.588	800.000	0.047	-0.137
-425.573	210.973	0.123	0.195
-424.559	146.068	-0.155	0.210
-423.544	0.720	-0.170	0.123
-422.530	-73.498	0.244	-0.090
-421.515	55.364	-0.361	0.353
-420.500	-61.818	-0.282	0.119
-419.486	800.000	0.049	0.156
-418.471	800.000	0.091	0.267
-417.457	-200.000	-0.029	-0.218
-416.442	-82.552	-0.285	0.093
-415.428	63.503	-0.070	0.071
-414.413	-14.748	-0.464	0.301
-413.398	800.000	-0.051	0.214
-412.384	-132.143	0.305	-0.040
-411.369	800.000	-0.038	0.169
-410.355	-28.791	0.040	0.023
-409.340	-178.094	0.258	-0.006
-408.325	800.000	-0.126	-0.433
-407.311	-67.151	0.147	0.058
-406.296	14.709	-0.100	-0.079
-405.282	-200.000	-0.003	0.182
-404.267	-14.650	0.369	-0.240
-403.252	-115.017	-0.446	0.086
-402.238	65.510	0.025	0.025
-401.223	166.159	-0.205	0.293
-400.209	-200.000	0.004	0.186
-399.194	-29.292	0.022	0.013
-398.179	-107.385	0.100	-0.022
-397.165	-200.000	0.013	-0.437
-396.150	-171.815	0.215	-0.007
-395.136	-200.000	0.029	0.445
-394.121	103.622	-0.076	0.090
-393.106	800.000	-0.010	0.037
-392.092	-62.868	0.179	0.075
-391.077	-200.000	0.015	-0.135
-390.063	-94.369	-0.383	0.106
-389.048	69.997	-0.231	0.241
-388.033	272.327	-0.112	0.199
-387.019	79.968	-0.271	0.293
-386.004	52.295	0.175	-0.168
-384.990	113.401	-0.170	-0.208
-383.975	800.000	0.017	-0.072
-382.960	-151.093	0.351	0.027
-381.946	109.372	0.129	-0.156
-380.931	385.572	0.156	-0.324
-379.917	-27.966	-0.140	-0.082
-378.902	155.234	0.172	0.239
-377.888	349.279	-0.150	0.298
-376.873	-69.710	0.229	0.088
-375.858	429.641	0.041	-0.090
-374.844	-84.169	-0.183	0.059
-373.829	103.226	-0.219	0.259
-372.815	151.446	-0.123	0.169
-371.800	208.776	-0.134	0.212
-370.785	121.746	0.149	0.187
-369.771	567.658	0.082	-0.200
-368.756	54.066	-0.193	-0.187
-367.742	-22.973	0.184	0.112
-366.727	47.076	0.095	-0.089
-365.712	-42.483	0.184	-0.095
-364.698	43.632	-0.209	0.193
-363.683	12.056	-0.139	0.108
-362.669	60.647	0.251	0.251
-361.654	-200.000	0.034	0.215
-360.639	-87.468	0.358	0.109
-359.625	800.000	0.061	-0.193
-358.610	163.813	0.062	0.088
-357.596	800.000	0.025	0.090
-356.581	41.854	-0.166	-0.152
-355.566	-64.167	0.233	-0.096
-354.552	36.351	-0.054	0.048
-353.537	71.993	0.264	-0.277
-352.523	800.000	-0.030	0.109
-351.508	-100.673	-0.154	0.038
-350.493	-200.000	-0.014	-0.266
-349.479	-115.209	0.165	0.031
-348.464	-73.537	0.133	-0.049
-347.450	-142.336	-0.194	-0.019
-346.435	-78.552	-0.179	0.062
-345.420	-159.978	-0.181	-0.010
-344.406	-200.000	0.001	0.168
-343.391	148.207	-0.108	-0.146
-342.377	31.352	-0.204	-0.176
-341.362	129.432	-0.171	-0.220
-340.348	-200.000	0.011	0.067
-339.333	-128.874	0.019	-0.003
-338.318	122.767	-0.306	-0.385
-337.304	-34.929	-0.233	-0.128
-336.289	-49.209	-0.117	-0.056
-335.275	41.393	-0.166	-0.151
-334.260	-189.517	-0.249	-0.003
-333.245	70.204	-0.179	0.186
-332.231	216.040	0.193	0.309
-331.216	-113.329	-0.157	-0.031
-330.202	-17.009	-0.295	0.187
-329.187	659.182	-0.189	0.488
-328.172	122.476	-0.092	-0.115
-327.158	662.294	-0.060	-0.156
-326.143	-131.450	-0.238	0.032
-325.129	18.421	0.215	-0.173
-324.114	800.000	-0.045	-0.173
-323.099	167.923	-0.150	0.215
-322.085	455.826	-0.081	-0.180
-321.070	-17.062	-0.155	-0.098
-320.056	130.087	0.245	0.315
-319.041	-123.393	0.157	0.025
-318.026	-64.615	0.059	0.024
-317.012	360.869	0.079	-0.159
-315.997	-74.079	0.036	0.013
-314.983	-200.000	0.004	-0.253
-313.968	106.187	-0.081	-0.096
-312.953	-131.768	0.224	0.029
-311.939	-12.226	0.342	-0.225
-310.924	-140.017	-0.215	0.023
-309.910	-200.000	0.007	-0.192
-308.895	-200.000	-0.042	0.258
-307.880	193.476	0.135	-0.205
-306.866	-39.203	0.132	0.070
-305.851	222.541	-0.027	0.043
-304.837	-36.258	-0.275	0.149
-303.822	-100.840	-0.340	0.084
-302.807	-130.027	0.303	-0.042
-301.793	-200.000	-0.016	-0.244
-300.778	-200.000	0.021	0.360
-299.764	-20.440	0.059	0.036
-298.749	132.699	-0.051	0.066
-297.735	20.285	-0.067	-0.055
-296.720	-84.198	0.126	-0.040
-295.705	-186.581	0.274	0.004
-294.691	-200.000	-0.022	-0.106
-293.676	-200.000	-0.039	-0.253
-292.662	800.000	0.046	0.127
-291.647	-145.509	0.218	-0.020
-290.632	-200.000	-0.014	-0.106
-289.618	41.273	0.170	0.155
-288.603	-200.000	-0.041	-0.207
-287.589	-200.000	-0.043	-0.197
-286.574	44.441	-0.237	-0.219
-285.559	-74.062	-0.163	-0.059
-284.545	460.615	0.089	0.200
-283.530	-90.896	0.108	0.031
-282.516	-64.583	-0.164	-0.067
-281.501	-96.269	-0.242	-0.064
-280.486	5.689	-0.100	0.074
-279.472	800.000	-0.102	-0.382
-278.457	-38.132	-0.110	0.059
-277.443	10.053	-0.196	-0.149
-276.428	-90.940	-0.087	-0.025
-275.413	180.516	0.117	-0.172
-274.399	-121.284	0.690	-0.116
-273.384	-133.011	0.591	-0.075
-272.370	44.858	-0.177	0.163
-271.355	271.111	-0.102	0.180
-270.340	118.223	-0.052	0.064
-269.326	800.000	0.085	0.328
-268.311	-121.188	-0.115	-0.019
-267.297	-127.939	-0.204	-0.029
-266.282	53.018	0.219	0.210
-265.267	-17.399	0.055	-0.035
-264.253	-200.000	-0.010	0.257
-263.238	9.552	0.109	-0.083
-262.224	-200.000	0.019	0.278
-261.209	-2.698	-0.213	-0.150
-260.195	-200.000	0.041	-0.213
-259.180	447.427	-0.090	-0.198
-258.165	632.287	-0.018	0.045
-257.151	800.000	-0.047	0.166
-256.136	232.342	0.186	-0.307
-255.122	-116.699	0.295	-0.054
-254.107	239.078	-0.313	-0.522
-253.092	-144.476	-0.104	0.010
-252.078	111.058	0.238	0.288
-251.063	-200.000	0.006	0.293
-250.049	-200.000	-0.027	0.208
-249.034	-54.069	-0.288	-0.132
-248.019	-96.800	0.242	0.064
-247.005	-200.000	0.076	0.342
-245.990	-111.365	-0.229	-0.047
-244.976	-25.701	0.129	-0.076
-243.961	-118.139	0.167	0.030
-242.946	-200.000	-0.008	0.292
-241.932	800.000	-0.067	0.192
-240.917	-200.000	-0.012	0.203
-239.903	800.000	-0.090	-0.355
-238.888	484.097	-0.013	-0.030
-237.873	800.000	0.074	0.315
-236.859	-79.572	-0.204	-0.069
-235.844	-88.278	0.221	0.066
-234.830	37.010	0.271	0.241
-233.815	800.000	0.078	0.276
-232.800	-166.780	0.206	-0.009
-231.786	741.077	-0.111	-0.298
-230.771	-97.651	-0.347	0.090
-229.757	-147.779	0.173	0.015
-228.742	357.879	0.105	0.211
-227.727	688.653	0.093	0.244
-226.713	-86.311	-0.126	0.039
-225.698	-150.253	0.534	-0.041
-224.684	-25.150	0.192	-0.114
-223.669	-104.934	0.339	-0.078
-222.655	-78.598	0.311	-0.107
-221.640	314.151	-0.115	-0.217
-220.625	-44.439	-0.226	-0.114
-219.611	-102.724	-0.173	0.041
-218.596	-94.749	-0.122	0.033
-217.582	-166.740	0.243	0.010
-216.567	620.831	0.176	-0.445
-215.552	11.997	0.226	-0.174
-214.538	361.939	0.062	-0.124
-213.523	-200.000	0.034	0.365
-212.509	-200.000	-0.004	0.068
-211.494	54.450	0.074	-0.072
-210.479	76.196	-0.084	-0.090
-209.465	63.607	-0.105	-0.105
-208.450	-15.317	0.056	0.036
-207.436	-200.000	0.082	-0.398
-206.421	-83.364	0.538	-0.173
-205.406	110.387	-0.244	0.293
-204.392	-200.000	0.040	0.395
-203.377	800.000	-0.033	0.098
-202.363	-130.624	-0.074	-0.010
-201.348	-200.000	-0.022	0.154
-200.333	116.272	0.201	0.247
-199.319	51.254	0.061	-0.058
-198.304	-116.785	-0.122	-0.022
-197.290	77.100	0.237	0.252
-196.275	178.672	-0.141	-0.206
-195.260	-61.665	-0.067	-0.028
-194.246	-132.694	-0.185	-0.024
-193.231	83.959	0.123	0.135
-192.217	-102.314	-0.201	0.048
-191.202	-141.927	0.147	-0.015
-190.187	195.694	-0.108	0.165
-189.173	542.121	0.065	0.156
-188.158	-200.000	0.013	-0.061
-187.144	-84.323	-0.222	0.070
-186.129	-15.574	-0.228	-0.146
-185.114	-167.108	0.189	-0.008
-184.100	49.605	-0.271	0.255
-183.085	-200.000	0.046	-0.382
-182.071	-200.000	-0.006	-0.324
-181.056	-200.000	0.014	-0.190
-180.042	-171.329	0.330	-0.011
-179.027	373.621	-0.063	0.129
-178.012	-3.653	0.292	0.203
-176.998	-200.000	0.026	0.335
-175.983	36.681	-0.317	0.281
-174.969	-35.368	-0.238	-0.129
-173.954	137.985	0.063	-0.082
-172.939	125.800	-0.067	-0.085
-171.925	-105.090	0.164	-0.038
-170.910	270.557	0.128	0.226
-169.896	-200.000	-0.026	-0.132
-168.881	-131.613	0.219	-0.029
-167.866	-172.712	0.098	-0.003
-166.852	491.423	0.032	0.074
-165.837	-44.907	0.163	0.081
-164.823	800.000	0.100	-0.397
-163.808	584.283	0.009	-0.023
-162.793	-172.255	0.199	-0.006
-161.779	-6.204	0.159	-0.108
-160.764	-63.807	0.135	-0.055
-159.750	-200.000	0.031	-0.271
-158.735	-16.550	0.287	-0.182
-157.720	269.869	-0.146	0.256
-156.706	-90.587	0.147	0.043
-155.691	-157.839	-0.189	0.011
-154.677	-200.000	0.026	-0.244
-153.662	-139.455	0.158	0.017
-152.647	240.119	0.136	-0.227
-151.633	151.278	0.058	-0.079
-150.618	-56.068	-0.210	-0.094
-149.604	-200.000	0.027	-0.339
-148.589	-114.736	0.302	-0.058
-147.574	-146.174	0.271	-0.024
-146.560	800.000	-0.037	0.134
-145.545	-200.000	0.027	-0.143
-144.531	740.595	0.129	0.347
-143.516	86.787	0.205	0.227
-142.502	110.635	0.050	0.060
-141.487	-200.000	0.016	-0.139
-140.472	121.768	0.132	0.164
-139.458	440.314	0.077	0.167
-138.443	148.220	-0.084	-0.113
-137.429	44.537	0.184	-0.169
-136.414	-200.000	0.001	0.040
-135.399	-41.336	-0.039	0.020
-134.385	81.255	-0.051	0.055
-133.370	-83.085	0.459	-0.148
-132.356	-200.000	-0.005	0.027
-131.341	800.000	-0.086	-0.297
-130.326	6.448	0.181	-0.134
-129.312	-200.000	-0.010	-0.054
-128.297	-110.157	-0.299	0.062
-127.283	248.968	0.079	0.133
-126.268	-137.115	0.185	0.021
-125.253	800.000	0.038	-0.139
-124.239	-74.704	0.167	-0.060
-123.224	267.993	0.119	0.208
-122.210	381.202	0.031	-0.064
