DTS Sentinel unit serial number:	SN413079Multiplexer serial number:	ORYXHardware model number:	OX4-SRSoftware version number:	ORYX F/W v4.00 Oryx Data Collector v3.7.2.0data status	okinstallation	princeton_trtdifferential loss correction	single-endedforward channel	channel 4reverse channel	N/Adate	2019/09/17time	18:49:35forward acquisition time	60.00reverse acquisition time	0.00gamma	496.2192k internal	0.2286k external	0.2286temperature offset calibration	0.9985default loss term (dB/km)	0.3790temperature slope calibration	1.0000multiplexer offset coefficient	1.0000multiplexer slope coefficient	1.0000fibre end	0.00T internal ref (°C)	41.86T ext. ref 1 (°C)	0.32T ext. ref 2 (°C)	31.46length (m)	temperature (°C)	Stokes	anti-Stokes-747.200	-200.000	-0.013	0.151
-746.185	-54.495	0.399	-0.185
-745.171	71.552	-0.152	-0.162
-744.156	-200.000	-0.021	-0.133
-743.142	-15.201	0.261	-0.171
-742.127	-50.684	-0.359	0.173
-741.112	-21.634	-0.157	0.098
-740.098	-135.213	-0.116	0.014
-739.083	61.355	-0.113	0.115
-738.069	9.062	-0.040	-0.031
-737.054	-127.153	-0.318	-0.048
-736.039	210.610	-0.119	0.192
-735.025	72.463	-0.056	-0.060
-734.010	209.731	0.121	-0.194
-732.996	23.702	-0.246	-0.208
-731.981	-8.002	-0.301	-0.208
-730.966	76.844	0.132	0.144
-729.952	85.169	-0.114	-0.128
-728.937	-74.946	-0.147	0.054
-727.923	-21.367	0.262	0.164
-726.908	-114.526	0.188	-0.037
-725.894	-3.249	0.192	0.137
-724.879	691.267	-0.071	-0.191
-723.864	-200.000	0.013	0.074
-722.850	-59.853	-0.135	-0.059
-721.835	800.000	-0.083	0.312
-720.821	413.432	0.049	0.107
-719.806	-200.000	-0.060	0.508
-718.791	245.583	-0.106	0.183
-717.777	-11.474	0.254	-0.171
-716.762	104.438	-0.098	-0.118
-715.748	-41.056	0.110	-0.058
-714.733	-106.037	-0.387	0.089
-713.718	105.833	-0.160	0.194
-712.704	-119.533	-0.378	-0.067
-711.689	-43.122	-0.198	0.103
-710.675	-103.270	0.241	0.058
-709.660	-200.000	-0.040	0.229
-708.645	-62.545	0.182	0.077
-707.631	-104.455	0.260	-0.062
-706.616	-21.046	0.384	0.241
-705.602	-67.650	-0.258	0.104
-704.587	-66.999	0.418	0.169
-703.572	-84.492	0.180	-0.058
-702.558	365.627	-0.144	-0.298
-701.543	-116.830	0.181	-0.034
-700.529	-120.553	0.153	-0.027
-699.514	-28.725	0.116	-0.068
-698.499	119.564	0.049	0.062
-697.485	41.867	-0.442	0.410
-696.470	-187.077	-0.307	-0.004
-695.456	-200.000	0.022	-0.393
-694.441	113.583	0.176	0.219
-693.426	387.499	0.107	-0.227
-692.412	-77.457	-0.222	0.079
-691.397	-200.000	-0.001	0.171
-690.383	60.285	-0.106	-0.107
-689.368	-13.991	0.039	0.026
-688.354	-200.000	-0.024	0.171
-687.339	-200.000	-0.033	0.155
-686.324	23.149	-0.212	0.178
-685.310	800.000	-0.092	-0.340
-684.295	800.000	0.107	0.324
-683.281	-45.019	0.287	-0.146
-682.266	41.790	-0.183	-0.169
-681.251	435.528	-0.107	0.238
-680.237	800.000	0.044	0.135
-679.222	-67.876	0.205	-0.082
-678.208	-200.000	-0.041	-0.247
-677.193	-200.000	0.083	-0.380
-676.178	-71.642	0.296	-0.113
-675.164	-90.653	-0.261	-0.077
-674.149	352.149	-0.173	0.350
-673.135	81.349	0.088	-0.098
-672.120	-56.965	-0.244	0.110
-671.105	743.230	-0.040	0.109
-670.091	142.377	0.173	0.234
-669.076	-99.086	0.292	-0.076
-668.062	-106.436	0.189	-0.043
-667.047	-147.667	-0.289	-0.025
-666.032	-200.000	-0.040	0.189
-665.018	395.928	-0.176	0.376
-664.003	-42.923	-0.074	-0.039
-662.989	800.000	0.116	-0.370
-661.974	-53.575	0.076	0.036
-660.959	-118.798	0.206	-0.037
-659.945	-113.455	0.182	-0.037
-658.930	-68.898	-0.401	0.158
-657.916	686.843	0.015	-0.039
-656.901	800.000	0.038	-0.163
-655.886	-1.254	0.135	0.097
-654.872	779.635	-0.056	0.157
-653.857	-106.198	0.155	0.036
-652.843	-105.273	0.139	-0.032
-651.828	-200.000	-0.014	0.323
-650.814	-61.226	0.301	0.130
-649.799	-200.000	-0.012	0.463
-648.784	298.200	0.064	0.121
-647.770	-130.435	-0.191	-0.026
-646.755	-63.738	-0.118	0.050
-645.741	-6.230	-0.174	-0.121
-644.726	-139.085	0.209	-0.023
-643.711	-200.000	0.001	0.290
-642.697	-5.775	-0.137	0.096
-641.682	12.780	0.101	-0.080
-640.668	227.490	-0.332	-0.552
-639.653	31.103	-0.071	-0.062
-638.638	311.294	0.190	0.364
-637.624	-144.787	0.155	-0.015
-636.609	-200.000	-0.004	-0.016
-635.595	800.000	0.058	0.250
-634.580	-59.496	-0.430	-0.189
-633.565	-123.834	-0.301	-0.049
-632.551	-51.280	-0.111	0.053
-631.536	-0.066	0.090	-0.065
-630.522	800.000	-0.038	-0.134
-629.507	221.554	-0.057	0.093
-628.492	147.513	-0.155	0.213
-627.478	-41.426	0.328	-0.173
-626.463	-200.000	0.095	-0.490
-625.449	237.892	-0.121	-0.206
-624.434	-120.674	-0.384	-0.066
-623.419	240.479	0.106	-0.181
-622.405	-141.508	0.123	0.013
-621.390	276.388	-0.085	0.154
-620.376	-88.074	-0.086	-0.026
-619.361	93.040	-0.138	0.159
-618.346	255.286	0.090	0.157
-617.332	55.464	-0.199	-0.197
-616.317	171.132	-0.068	-0.099
-615.303	493.262	0.171	0.401
-614.288	-200.000	0.007	-0.072
-613.273	47.652	0.159	0.152
-612.259	-67.208	-0.206	0.083
-611.244	-108.051	0.026	-0.006
-610.230	531.483	0.169	-0.409
-609.215	-32.287	-0.164	-0.093
-608.201	-200.000	-0.009	0.292
-607.186	-200.000	0.007	-0.307
-606.171	-200.000	-0.034	-0.155
-605.157	495.887	0.062	0.145
-604.142	-5.371	0.380	-0.266
-603.128	293.490	0.092	0.171
-602.113	800.000	0.111	0.313
-601.098	-174.207	0.111	-0.003
-600.084	-24.918	0.218	0.132
-599.069	-200.000	-0.037	-0.174
-598.055	83.763	0.358	0.399
-597.040	161.709	0.194	-0.277
-596.025	-200.000	-0.003	0.240
-595.011	135.628	0.058	0.077
-593.996	48.543	-0.238	-0.228
-592.982	109.166	0.059	-0.072
-591.967	55.901	-0.029	0.029
-590.952	221.640	0.132	-0.216
-589.938	-52.598	0.311	-0.146
-588.923	320.495	-0.042	0.082
-587.909	-200.000	0.014	0.463
-586.894	-73.799	0.268	0.099
-585.879	-39.836	0.110	-0.059
-584.865	-165.397	-0.358	0.016
-583.850	-54.781	-0.183	0.084
-582.836	-111.234	-0.149	0.031
-581.821	800.000	-0.012	-0.033
-580.806	247.830	0.234	0.403
-579.792	-115.023	0.070	-0.014
-578.777	37.052	-0.180	-0.162
-577.763	-200.000	0.019	-0.148
-576.748	-200.000	-0.031	-0.221
-575.733	-144.403	-0.093	0.009
-574.719	-200.000	0.097	-0.456
-573.704	-55.669	0.104	0.047
-572.690	-44.593	0.176	-0.090
-571.675	-200.000	-0.006	0.112
-570.661	-132.873	0.117	-0.015
-569.646	505.791	-0.092	-0.217
-568.631	-128.258	0.330	0.048
-567.617	-88.170	-0.345	0.105
-566.602	-200.000	-0.027	-0.151
-565.588	51.475	-0.172	0.167
-564.573	-21.732	-0.259	-0.160
-563.558	-53.122	0.256	-0.120
-562.544	-188.485	-0.375	-0.005
-561.529	-59.758	0.195	0.085
-560.515	178.070	0.083	0.124
-559.500	-165.471	-0.242	-0.011
-558.485	26.585	0.166	-0.141
-557.471	78.681	-0.259	0.282
-556.456	-200.000	-0.042	-0.443
-555.442	2.034	-0.131	-0.096
-554.427	-85.381	-0.224	0.071
-553.412	-24.139	-0.110	-0.067
-552.398	392.796	-0.063	-0.134
-551.383	-89.215	0.243	0.073
-550.369	-125.835	0.108	0.017
-549.354	-131.310	0.147	-0.020
-548.339	150.420	0.130	0.179
-547.325	-58.876	0.185	-0.082
-546.310	-164.804	-0.350	-0.016
-545.296	68.994	0.107	0.111
-544.281	-120.268	-0.066	-0.011
-543.266	-200.000	0.023	-0.105
-542.252	-200.000	0.041	0.247
-541.237	-5.896	-0.075	-0.052
-540.223	800.000	-0.073	-0.297
-539.208	61.773	-0.119	0.120
-538.193	121.935	-0.240	-0.304
-537.179	-195.010	-0.295	-0.002
-536.164	800.000	0.069	0.251
-535.150	-67.194	0.181	0.073
-534.135	569.411	0.009	-0.023
-533.121	-104.873	0.148	-0.035
-532.106	72.641	0.110	0.117
-531.091	-77.161	0.379	-0.134
-530.077	-115.669	-0.206	0.039
-529.062	-200.000	-0.045	0.382
-528.048	205.234	0.103	0.162
-527.033	-136.344	-0.099	0.012
-526.018	396.889	0.127	0.271
-525.004	-71.008	-0.053	-0.020
-523.989	-200.000	0.013	0.105
-522.975	-200.000	0.014	-0.108
-521.960	-200.000	0.000	0.013
-520.945	-1.811	-0.077	0.055
-519.931	773.298	0.073	0.202
-518.916	-89.579	0.165	-0.049
-517.902	800.000	-0.201	0.577
-516.887	75.895	0.205	0.220
-515.872	-200.000	-0.030	-0.217
-514.858	376.366	-0.030	0.062
-513.843	800.000	-0.079	0.230
-512.829	365.460	-0.025	-0.052
-511.814	800.000	0.029	0.085
-510.799	72.588	0.150	0.159
-509.785	100.653	0.060	-0.071
-508.770	-21.649	-0.265	-0.164
-507.756	-179.653	0.107	0.002
-506.741	121.380	0.086	0.109
-505.726	-156.392	-0.093	0.006
-504.712	800.000	-0.109	0.342
-503.697	63.440	-0.198	-0.201
-502.683	-103.726	0.574	0.137
-501.668	-146.230	-0.289	0.026
-500.653	612.682	-0.081	-0.205
-499.639	301.200	-0.203	0.382
-498.624	25.193	-0.138	0.116
-497.610	34.262	0.298	0.264
-496.595	-200.000	-0.029	-0.152
-495.581	98.136	0.288	0.337
-494.566	-107.705	0.129	-0.029
-493.551	-21.664	-0.332	0.206
-492.537	-200.000	0.013	-0.108
-491.522	-6.053	-0.195	0.136
-490.508	-33.294	-0.306	0.172
-489.493	329.144	0.098	-0.191
-488.478	-200.000	0.001	-0.047
-487.464	-132.136	-0.390	-0.051
-486.449	-61.932	0.104	0.044
-485.435	31.811	0.155	0.136
-484.420	-49.303	-0.126	0.061
-483.405	-90.803	0.245	-0.072
-482.391	-200.000	0.019	-0.085
-481.376	-81.795	-0.225	-0.075
-480.362	135.233	-0.153	0.202
-479.347	-167.756	-0.062	0.003
-478.332	-80.862	-0.315	-0.106
-477.318	-38.109	0.319	0.172
-476.303	40.661	-0.123	-0.112
-475.289	-88.115	-0.286	-0.087
-474.274	800.000	-0.112	0.400
-473.259	-28.797	-0.171	0.100
-472.245	-18.372	-0.099	0.063
-471.230	-144.129	0.337	-0.032
-470.216	10.348	-0.301	0.233
-469.201	-48.015	-0.167	-0.082
-468.186	-99.741	-0.287	0.073
-467.172	-200.000	-0.008	0.167
-466.157	265.340	-0.077	0.136
-465.143	147.929	-0.162	-0.222
-464.128	-65.109	-0.222	-0.091
-463.113	-103.362	0.298	-0.071
-462.099	-10.298	0.331	-0.223
-461.084	78.171	0.106	-0.114
-460.070	44.853	0.179	-0.167
-459.055	-30.502	0.221	-0.127
-458.040	-0.180	-0.133	-0.096
-457.026	-41.070	-0.075	-0.039
-456.011	-23.522	0.368	-0.224
-454.997	402.419	-0.055	-0.118
-453.982	-175.933	-0.371	-0.010
-452.968	800.000	0.062	-0.214
-451.953	-200.000	-0.006	0.067
-450.938	133.124	0.077	-0.101
-449.924	-17.886	-0.103	-0.066
-448.909	-128.912	0.232	-0.033
-447.895	33.546	-0.085	0.075
-446.880	211.121	-0.145	0.232
-445.865	-22.319	-0.494	0.304
-444.851	-127.975	-0.128	-0.019
-443.836	595.473	0.077	0.194
-442.822	8.175	-0.148	-0.113
-441.807	-60.227	-0.315	-0.136
-440.792	-169.959	0.249	0.009
-439.778	-117.067	0.174	-0.032
-438.763	406.000	0.158	-0.339
-437.749	800.000	-0.057	-0.198
-436.734	269.665	0.091	-0.161
-435.719	329.572	-0.020	-0.039
-434.705	132.733	-0.040	-0.052
-433.690	101.493	0.311	0.368
-432.676	-141.365	0.254	0.026
-431.661	800.000	-0.037	-0.132
-430.646	-200.000	-0.025	0.192
-429.632	-4.951	-0.412	-0.288
-428.617	-74.394	0.159	-0.058
-427.603	18.986	-0.224	0.182
-426.588	653.651	-0.128	0.334
-425.573	-157.594	0.261	0.016
-424.559	800.000	0.054	0.199
-423.544	-200.000	-0.001	0.373
-422.530	-46.548	-0.343	0.170
-421.515	-86.639	-0.125	-0.039
-420.500	-200.000	-0.060	0.000
-419.486	800.000	-0.113	-0.348
-418.471	31.058	0.110	0.095
-417.457	-50.001	0.111	0.053
-416.442	588.154	0.088	-0.220
-415.428	-200.000	-0.045	-0.214
-414.413	203.401	-0.100	-0.156
-413.398	102.927	-0.191	-0.227
-412.384	22.771	-0.230	-0.191
-411.369	800.000	-0.038	-0.148
-410.355	-200.000	-0.013	0.304
-409.340	315.434	0.152	-0.290
-408.325	143.007	0.078	-0.105
-407.311	-200.000	0.055	0.256
-406.296	56.849	0.175	0.173
-405.282	-80.029	0.178	0.061
-404.267	90.791	0.036	-0.041
-403.252	-44.357	-0.057	-0.029
-402.238	399.055	-0.141	-0.299
-401.223	509.198	0.147	0.345
-400.209	-47.090	-0.221	0.109
-399.194	800.000	-0.081	0.292
-398.179	-60.152	-0.225	-0.097
-397.165	-116.122	-0.101	0.019
-396.150	71.512	0.162	0.170
-395.136	19.725	-0.119	-0.097
-394.121	206.591	0.151	-0.237
-393.106	109.575	0.166	-0.201
-392.092	-200.000	-0.015	0.212
-391.077	216.091	0.027	0.043
-390.063	-10.592	0.116	0.077
-389.048	800.000	0.058	0.173
-388.033	-200.000	-0.001	-0.030
-387.019	-127.197	-0.037	0.005
-386.004	-200.000	-0.019	-0.178
-384.990	-169.708	-0.286	0.010
-383.975	800.000	-0.089	0.249
-382.960	-4.331	0.149	-0.104
-381.946	-76.250	-0.152	-0.054
-380.931	145.681	-0.226	0.306
-379.917	77.638	0.130	0.140
-378.902	-43.949	-0.280	-0.143
-377.888	-1.135	-0.162	0.116
-376.873	233.468	0.125	-0.208
-375.858	185.278	0.117	-0.175
-374.844	32.175	0.063	0.055
-373.829	-6.111	0.090	0.062
-372.815	-111.364	-0.259	0.053
-371.800	78.835	-0.069	-0.075
-370.785	-200.000	-0.214	0.001
-369.771	140.729	-0.133	-0.178
-368.756	-200.000	-0.031	-0.261
-367.742	-200.000	-0.006	-0.050
-366.727	96.930	0.202	0.234
-365.712	155.752	0.088	-0.123
-364.698	66.458	-0.183	-0.188
-363.683	-200.000	-0.028	0.145
-362.669	-200.000	-0.075	0.370
-361.654	-49.400	0.161	-0.078
-360.639	800.000	0.036	0.137
-359.625	162.461	0.023	-0.033
-358.610	318.376	0.178	-0.341
-357.596	67.709	-0.119	-0.123
-356.581	-25.209	-0.121	-0.072
-355.566	-167.388	-0.014	0.001
-354.552	800.000	-0.056	0.246
-353.537	363.510	-0.039	0.079
-352.523	415.075	-0.052	0.111
-351.508	273.165	-0.073	-0.130
-350.493	800.000	-0.055	-0.170
-349.479	800.000	-0.018	0.069
-348.464	54.630	-0.058	0.056
-347.450	342.901	0.185	0.365
-346.435	-200.000	0.014	-0.166
-345.420	-72.386	0.062	0.023
-344.406	800.000	0.031	-0.113
-343.391	-18.510	-0.187	-0.118
-342.377	-200.000	0.332	-0.001
-341.362	107.001	0.093	-0.111
-340.348	-43.023	-0.184	0.094
-339.333	23.937	0.183	0.152
-338.318	-17.123	0.132	-0.084
-337.304	800.000	-0.135	-0.384
-336.289	62.865	0.101	0.102
-335.275	-200.000	-0.008	0.284
-334.260	-101.972	-0.428	-0.104
-333.245	644.098	-0.094	-0.242
-332.231	-50.702	0.224	0.106
-331.216	-200.000	0.004	-0.206
-330.202	-102.180	-0.328	-0.080
-329.187	-11.885	-0.109	0.072
-328.172	155.776	-0.061	-0.085
-327.158	-200.000	0.010	-0.292
-326.143	-200.000	-0.021	0.139
-325.129	-93.946	0.254	-0.070
-324.114	-139.307	0.088	-0.010
-323.099	7.617	0.094	0.071
-322.085	52.513	0.154	-0.149
-321.070	-98.615	-0.195	0.050
-320.056	-17.884	0.017	-0.010
-319.041	-200.000	-0.029	-0.228
-318.026	409.812	-0.042	0.090
-317.012	587.685	0.133	-0.331
-315.997	-140.223	0.221	-0.023
-314.983	-65.113	-0.125	0.051
-313.968	63.227	0.227	0.229
-312.953	83.836	0.188	0.207
-311.939	-30.860	0.119	-0.068
-310.924	-200.000	0.001	-0.196
-309.910	118.101	-0.135	0.168
-308.895	-200.000	0.033	0.191
-307.880	-25.310	-0.162	-0.097
-306.866	-95.889	0.409	0.110
-305.851	-49.999	0.131	0.063
-304.837	145.002	-0.191	0.258
-303.822	800.000	0.130	-0.364
-302.807	-188.657	0.285	0.004
-301.793	35.008	-0.285	-0.252
-300.778	-46.586	-0.182	-0.090
-299.764	306.297	-0.050	0.094
-298.749	-131.093	-0.441	-0.059
-297.735	-46.334	0.357	0.177
-296.720	44.780	-0.145	0.135
-295.705	12.739	0.138	-0.107
-294.691	-200.000	0.026	0.152
-293.676	381.591	-0.119	-0.246
-292.662	-73.188	-0.284	-0.105
-291.647	307.274	-0.099	0.185
-290.632	800.000	0.026	0.083
-289.618	-40.467	-0.042	-0.022
-288.603	206.506	0.187	0.294
-287.589	376.665	-0.186	0.382
-286.574	114.784	0.119	0.146
-285.559	800.000	0.100	-0.368
-284.545	265.055	-0.114	-0.200
-283.530	86.148	-0.174	0.193
-282.516	-131.542	0.152	-0.020
-281.501	34.597	-0.161	-0.142
-280.486	800.000	0.095	-0.286
-279.472	289.663	0.101	0.185
-278.457	-200.000	-0.043	-0.194
-277.443	70.232	0.147	-0.153
-276.428	-200.000	-0.013	-0.394
-275.413	-105.845	-0.257	0.058
-274.399	-13.958	0.130	-0.084
-273.384	265.885	0.179	-0.314
-272.370	-200.000	-0.002	0.037
-271.355	-200.000	0.016	0.278
-270.340	-65.477	-0.165	-0.067
-269.326	-200.000	0.025	0.255
-268.311	-200.000	-0.015	0.361
-267.297	-131.472	0.350	0.047
-266.282	-67.615	0.141	-0.056
-265.267	-70.035	0.240	-0.092
-264.253	281.059	-0.058	0.105
-263.238	-200.000	0.012	0.291
-262.224	-200.000	-0.005	-0.039
-261.209	-200.000	-0.020	-0.245
-260.195	9.994	0.158	0.121
-259.180	-125.805	0.185	-0.028
-258.165	2.237	0.196	0.143
-257.151	-200.000	-0.001	0.258
-256.136	-31.680	-0.039	-0.022
-255.122	619.998	0.034	0.086
-254.107	617.913	-0.111	-0.281
-253.092	-77.857	0.258	0.090
-252.078	-54.923	-0.092	0.042
-251.063	470.406	-0.126	-0.285
-250.049	-99.141	-0.444	0.113
-249.034	-170.091	0.388	-0.014
-248.019	-200.000	0.017	-0.127
-247.005	-200.000	0.041	-0.332
-245.990	-120.500	-0.115	0.020
-244.976	-99.546	-0.030	0.008
-243.961	-59.285	0.289	-0.125
-242.946	-200.000	-0.009	0.051
-241.932	-118.765	-0.240	-0.042
-240.917	147.870	0.049	-0.067
-239.903	79.933	-0.178	-0.192
-238.888	21.077	0.053	-0.043
-237.873	41.275	0.139	-0.127
-236.859	-11.621	0.339	-0.224
-235.844	800.000	0.072	-0.294
-234.830	559.648	-0.051	-0.124
-233.815	82.993	0.022	-0.024
-232.800	-3.496	0.098	0.069
-231.786	219.167	-0.169	0.272
-230.771	-200.000	-0.025	-0.317
-229.757	800.000	-0.027	0.114
-228.742	-148.414	0.109	0.009
-227.727	-33.785	0.259	-0.143
-226.713	-200.000	0.002	0.246
-225.698	-149.838	-0.232	-0.018
-224.684	-200.000	-0.023	-0.246
-223.669	140.169	0.041	-0.054
-222.655	98.577	-0.122	0.141
-221.640	-12.423	0.275	0.181
-220.625	-7.585	0.171	0.117
-219.611	800.000	0.069	0.205
-218.596	408.286	-0.056	-0.118
-217.582	800.000	0.079	-0.246
-216.567	-163.918	-0.312	-0.015
-215.552	800.000	-0.026	0.082
-214.538	-200.000	-0.091	-0.402
-213.523	339.777	-0.209	0.410
-212.509	159.142	0.013	-0.018
-211.494	-51.367	0.201	0.094
-210.479	-200.000	0.001	-0.220
-209.465	-8.138	0.257	-0.174
-208.450	-108.876	-0.078	0.017
-207.436	-200.000	-0.029	0.152
-206.421	-10.097	0.425	-0.284
-205.406	74.005	0.071	-0.075
-204.392	-157.995	0.322	-0.019
-203.377	-200.000	0.029	-0.161
-202.363	-147.408	-0.454	-0.039
-201.348	130.139	0.050	0.064
-200.333	-101.629	0.346	0.084
-199.319	45.291	0.232	-0.215
-198.304	-176.835	-0.440	-0.011
-197.290	-50.077	-0.128	-0.061
-196.275	-200.000	-0.001	0.294
-195.260	272.485	-0.164	0.291
-194.246	67.113	-0.157	-0.161
-193.231	-92.608	-0.077	0.022
-192.217	-7.568	0.117	0.080
-191.202	131.155	0.095	0.123
-190.187	-177.881	0.299	0.007
-189.173	307.755	-0.125	-0.234
-188.158	-88.304	0.169	-0.051
-187.144	-108.652	0.068	-0.015
-186.129	439.602	0.028	-0.060
-185.114	-200.000	-0.032	0.291
-184.100	-200.000	0.019	0.091
-183.085	-160.640	-0.292	-0.016
-182.071	-171.829	0.278	-0.009
-181.056	-71.815	0.081	-0.030
-180.042	-44.390	0.164	0.082
-179.027	-200.000	0.007	0.244
-178.012	-7.207	0.110	0.075
-176.998	171.394	-0.139	-0.201
-175.983	218.532	-0.263	-0.422
-174.969	-200.000	-0.023	0.199
-173.954	-123.495	0.408	-0.065
-172.939	-200.000	-0.007	-0.055
-171.925	29.224	0.076	0.065
-170.910	800.000	-0.013	0.049
-169.896	85.614	-0.208	0.230
-168.881	376.669	0.080	-0.163
-167.866	-200.000	0.023	-0.217
-166.852	-87.897	0.239	0.072
-165.837	-149.459	0.208	0.017
-164.823	54.212	0.219	0.211
-163.808	-200.000	0.011	-0.108
-162.793	166.921	0.089	-0.126
-161.779	73.334	-0.045	0.047
-160.764	50.408	-0.286	0.271
-159.750	-69.295	0.063	0.024
-158.735	-74.656	0.182	0.066
-157.720	58.880	0.083	0.081
-156.706	-41.315	-0.134	-0.069
-155.691	800.000	-0.085	0.235
-154.677	176.162	0.244	-0.356
-153.662	269.925	0.064	0.112
-152.647	-75.794	0.056	-0.020
-151.633	85.707	0.128	-0.141
-150.618	800.000	0.068	0.224
-149.604	504.763	0.157	-0.364
-148.589	-200.000	-0.070	-0.356
-147.574	-62.433	0.432	-0.180
-146.560	156.846	-0.077	-0.107
-145.545	233.877	0.084	0.138
-144.531	-21.317	0.142	0.087
-143.516	-140.373	0.430	0.045
-142.502	800.000	0.086	-0.337
-141.487	101.846	0.201	-0.235
-140.472	85.128	0.200	0.220
-139.458	191.996	0.115	-0.174
-138.443	331.687	-0.044	0.085
-137.429	189.712	0.128	-0.192
-136.414	800.000	-0.085	0.241
-135.399	-56.363	0.087	-0.039
-134.385	-200.000	0.013	-0.116
-133.370	-7.975	-0.408	0.276
-132.356	-200.000	-0.002	0.121
-131.341	800.000	-0.061	0.233
-130.326	800.000	-0.103	-0.304
-129.312	-3.032	0.224	-0.156
-128.297	-96.328	-0.128	-0.034
-127.283	61.481	0.034	-0.034
-126.268	-92.645	0.118	-0.033
-125.253	60.978	-0.146	-0.145
-124.239	514.898	0.146	0.341
-123.224	23.380	-0.219	-0.180
-122.210	-33.070	0.038	0.021
