DTS Sentinel unit serial number:	SN413079Multiplexer serial number:	ORYXHardware model number:	OX4-SRSoftware version number:	ORYX F/W v4.00 Oryx Data Collector v3.7.2.0data status	okinstallation	princeton_trtdifferential loss correction	single-endedforward channel	channel 4reverse channel	N/Adate	2019/09/18time	06:33:35forward acquisition time	60.00reverse acquisition time	0.00gamma	496.2192k internal	0.2332k external	0.2332temperature offset calibration	0.9997default loss term (dB/km)	0.3790temperature slope calibration	1.0000multiplexer offset coefficient	1.0000multiplexer slope coefficient	1.0000fibre end	0.00T internal ref (°C)	23.25T ext. ref 1 (°C)	0.19T ext. ref 2 (°C)	17.30length (m)	temperature (°C)	Stokes	anti-Stokes-747.200	-116.625	0.129	-0.024
-746.185	800.000	0.096	0.294
-745.171	-61.636	0.327	0.138
-744.156	410.290	0.134	0.286
-743.142	212.786	-0.085	-0.135
-742.127	33.781	-0.204	0.178
-741.112	740.999	0.024	-0.065
-740.098	-18.861	-0.153	-0.096
-739.083	85.294	0.323	0.356
-738.069	158.991	-0.173	0.243
-737.054	-130.583	0.336	0.046
-736.039	-63.808	0.089	0.037
-735.025	-92.369	0.200	0.057
-734.010	30.916	-0.129	-0.111
-732.996	636.951	0.173	-0.441
-731.981	-200.000	0.012	0.082
-730.966	569.651	-0.131	0.320
-729.952	-200.000	-0.009	-0.365
-728.937	-47.332	0.183	0.089
-727.923	800.000	0.063	-0.228
-726.908	1.554	0.059	0.043
-725.894	800.000	0.104	0.327
-724.879	-83.715	0.172	-0.055
-723.864	35.696	0.142	0.126
-722.850	185.455	-0.140	-0.209
-721.835	370.678	-0.085	-0.174
-720.821	-185.287	-0.137	-0.002
-719.806	-9.111	0.285	-0.191
-718.791	7.515	-0.256	0.193
-717.777	77.061	-0.083	-0.089
-716.762	-114.842	-0.133	0.025
-715.748	342.592	-0.083	0.163
-714.733	650.598	-0.116	-0.299
-713.718	28.319	-0.366	-0.311
-712.704	281.741	0.051	-0.091
-711.689	800.000	-0.073	-0.234
-710.675	106.101	0.121	0.144
-709.660	-39.385	0.210	-0.110
-708.645	-97.244	-0.180	0.047
-707.631	800.000	0.048	-0.176
-706.616	-154.968	0.265	-0.018
-705.602	193.023	-0.145	-0.220
-704.587	93.900	0.234	-0.266
-703.572	-200.000	-0.009	-0.061
-702.558	554.086	0.067	-0.162
-701.543	-157.577	-0.024	0.001
-700.529	668.754	-0.062	0.162
-699.514	-173.464	-0.131	0.004
-698.499	-106.809	-0.208	-0.046
-697.485	77.579	0.052	-0.056
-696.470	-30.908	-0.193	0.110
-695.456	800.000	-0.054	0.178
-694.441	176.339	-0.070	0.102
-693.426	76.377	0.142	-0.151
-692.412	-200.000	0.012	-0.171
-691.397	125.762	0.105	0.133
-690.383	214.947	0.078	-0.124
-689.368	6.848	-0.411	0.308
-688.354	127.973	-0.118	-0.150
-687.339	-11.965	-0.078	0.051
-686.324	-102.039	-0.326	0.079
-685.310	-96.526	-0.182	-0.048
-684.295	-109.400	-0.192	0.041
-683.281	-200.000	0.017	-0.179
-682.266	78.650	0.423	-0.454
-681.251	111.824	0.089	-0.108
-680.237	172.157	0.081	-0.117
-679.222	-200.000	-0.374	-0.001
-678.208	-95.596	-0.246	0.066
-677.193	232.349	0.048	0.080
-676.178	-200.000	-0.024	-0.193
-675.164	295.956	0.057	0.104
-674.149	-129.501	0.131	-0.018
-673.135	-16.648	0.266	-0.169
-672.120	-200.000	0.179	-0.001
-671.105	194.537	0.075	-0.114
-670.091	613.282	0.072	-0.180
-669.076	287.212	-0.115	0.208
-668.062	258.939	-0.067	-0.116
-667.047	-200.000	0.007	-0.145
-666.032	-148.287	0.331	-0.027
-665.018	-200.000	-0.033	0.294
-664.003	95.891	-0.115	0.132
-662.989	180.796	-0.247	-0.364
-661.974	94.465	0.112	-0.127
-660.959	-6.861	-0.253	-0.173
-659.945	26.069	0.116	0.097
-658.930	-72.125	0.246	0.092
-657.916	51.407	-0.247	-0.236
-656.901	113.864	-0.154	0.188
-655.886	-68.265	0.159	-0.062
-654.872	402.436	-0.206	-0.435
-653.857	75.133	-0.201	0.212
-652.843	6.225	-0.286	0.213
-651.828	-37.202	0.269	-0.144
-650.814	-200.000	-0.019	-0.213
-649.799	-200.000	-0.071	-0.405
-648.784	-104.132	0.054	-0.012
-647.770	-5.320	-0.376	-0.259
-646.755	676.116	0.073	-0.190
-645.741	800.000	0.027	-0.098
-644.726	-36.460	0.041	0.022
-643.711	51.208	-0.155	-0.148
-642.697	-129.886	-0.139	0.019
-641.682	-86.056	0.071	0.022
-640.668	-125.973	0.225	-0.034
-639.653	107.716	-0.155	0.185
-638.638	104.876	-0.015	0.018
-637.624	147.861	-0.116	0.157
-636.609	-200.000	-0.036	0.236
-635.595	25.722	-0.080	0.067
-634.580	-132.061	-0.191	0.025
-633.565	-73.303	0.156	0.057
-632.551	-160.634	-0.301	-0.016
-631.536	-191.359	0.243	0.002
-630.522	-132.013	0.195	-0.025
-629.507	21.333	0.032	0.026
-628.492	-98.995	0.061	0.015
-627.478	-200.000	0.001	0.190
-626.463	159.987	-0.144	-0.200
-625.449	800.000	-0.141	-0.484
-624.434	-151.006	0.208	-0.016
-623.419	499.112	0.062	0.143
-622.405	22.671	-0.163	-0.134
-621.390	-15.823	0.066	-0.042
-620.376	12.684	-0.197	-0.153
-619.361	-16.375	-0.005	0.003
-618.346	800.000	0.029	0.101
-617.332	-30.570	-0.293	0.166
-616.317	-18.464	-0.314	0.196
-615.303	-173.132	-0.142	-0.004
-614.288	800.000	-0.066	-0.253
-613.273	-76.294	0.491	0.173
-612.259	298.008	-0.122	0.225
-611.244	-21.452	0.093	-0.057
-610.230	701.826	-0.103	0.272
-609.215	297.570	-0.112	0.207
-608.201	-108.851	0.182	-0.039
-607.186	682.839	0.076	0.199
-606.171	-84.052	0.248	0.079
-605.157	72.352	-0.214	-0.223
-604.142	-200.000	0.015	0.166
-603.128	-112.431	-0.322	-0.064
-602.113	173.374	-0.098	-0.141
-601.098	-149.808	0.188	0.015
-600.084	-200.000	-0.037	0.255
-599.069	125.868	0.022	0.027
-598.055	66.652	-0.193	-0.196
-597.040	212.886	-0.079	-0.125
-596.025	-200.000	0.006	-0.068
-595.011	254.653	-0.199	-0.340
-593.996	-200.000	-0.025	-0.126
-592.982	532.670	0.068	-0.160
-591.967	284.821	0.067	-0.120
-590.952	-149.502	-0.182	-0.014
-589.938	-37.528	-0.111	-0.059
-588.923	671.261	-0.044	-0.114
-587.909	-74.591	-0.434	-0.156
-586.894	-200.000	0.024	0.219
-585.879	-101.506	-0.119	-0.029
-584.865	33.205	-0.285	-0.247
-583.850	-103.921	-0.241	0.056
-582.836	30.220	-0.130	0.111
-581.821	-76.461	0.176	-0.062
-580.806	-200.000	-0.020	-0.197
-579.792	800.000	0.115	-0.376
-578.777	-99.376	-0.150	0.038
-577.763	-113.649	0.119	0.023
-576.748	-69.321	-0.086	0.033
-575.733	-78.152	-0.215	0.074
-574.719	-96.761	-0.087	0.023
-573.704	800.000	0.073	0.225
-572.690	69.650	0.161	0.166
-571.675	174.031	0.046	0.066
-570.661	-200.000	0.001	0.197
-569.646	259.811	-0.137	-0.236
-568.631	12.724	-0.212	0.164
-567.617	254.416	-0.071	0.121
-566.602	-200.000	0.069	-0.461
-565.588	-89.330	-0.102	0.030
-564.573	-200.000	-0.052	0.268
-563.558	-126.404	-0.120	0.018
-562.544	-103.178	0.153	-0.036
-561.529	195.613	0.054	-0.083
-560.515	-101.835	0.387	-0.094
-559.500	28.543	-0.188	0.159
-558.485	464.371	-0.151	-0.336
-557.471	154.753	0.061	-0.083
-556.456	-2.417	0.161	-0.112
-555.442	-12.713	-0.157	0.102
-554.427	-93.525	0.253	0.070
-553.412	442.407	-0.155	-0.339
-552.398	-200.000	0.007	0.288
-551.383	213.121	-0.066	0.104
-550.369	-166.878	0.063	-0.003
-549.354	-71.563	-0.221	-0.082
-548.339	-56.555	0.207	0.091
-547.325	-81.505	-0.189	-0.062
-546.310	-38.736	0.391	0.206
-545.296	252.916	0.010	0.017
-544.281	160.700	0.092	-0.129
-543.266	-58.330	0.220	0.095
-542.252	-184.406	0.421	-0.007
-541.237	-36.443	-0.154	-0.083
-540.223	-132.820	-0.217	-0.028
-539.208	-49.769	0.107	0.051
-538.193	426.913	-0.107	0.231
-537.179	-200.000	0.006	-0.052
-536.164	800.000	0.095	-0.315
-535.150	800.000	-0.023	0.076
-534.135	-176.202	-0.440	0.012
-533.121	224.407	-0.010	-0.017
-532.106	-200.000	0.046	-0.236
-531.091	-74.759	0.373	-0.134
-530.077	138.838	0.095	-0.125
-529.062	-54.131	0.070	-0.032
-528.048	-58.508	-0.071	-0.031
-527.033	3.991	0.157	0.115
-526.018	-157.539	0.193	0.012
-525.004	85.889	-0.148	-0.162
-523.989	542.812	-0.079	0.187
-522.975	388.953	-0.054	-0.111
-521.960	800.000	0.078	-0.317
-520.945	-200.000	0.024	0.120
-519.931	-168.596	-0.354	0.013
-518.916	-50.049	0.268	0.127
-517.902	800.000	0.031	-0.122
-516.887	296.701	-0.188	0.344
-515.872	23.131	0.021	0.017
-514.858	-200.000	0.026	-0.584
-513.843	-30.753	0.166	0.093
-512.829	359.741	-0.198	-0.394
-511.814	-19.002	-0.023	0.014
-510.799	164.909	0.080	-0.113
-509.785	-200.000	-0.090	0.433
-508.770	-58.058	0.149	-0.065
-507.756	-100.502	0.271	0.067
-506.741	23.125	-0.251	0.206
-505.726	-200.000	-0.047	-0.253
-504.712	221.191	0.136	-0.218
-503.697	9.997	-0.028	-0.021
-502.683	-74.922	-0.222	0.079
-501.668	-109.537	-0.279	0.059
-500.653	136.584	-0.130	0.170
-499.639	-200.000	0.090	-0.480
-498.624	431.318	0.088	0.190
-497.610	-54.608	-0.228	-0.103
-496.595	-200.000	0.007	-0.195
-495.581	160.200	-0.090	0.124
-494.566	800.000	0.060	0.175
-493.551	324.944	0.061	-0.116
-492.537	-200.000	-0.017	-0.129
-491.522	96.061	0.370	0.421
-490.508	-69.568	-0.126	-0.048
-489.493	-31.565	0.214	-0.120
-488.478	800.000	-0.034	0.099
-487.464	-93.674	-0.033	0.009
-486.449	61.279	-0.207	0.204
-485.435	800.000	0.092	0.298
-484.420	-200.000	0.017	0.137
-483.405	-86.547	-0.209	-0.064
-482.391	-156.971	0.278	-0.017
-481.376	128.992	-0.304	0.386
-480.362	89.459	-0.067	0.074
-479.347	19.472	0.157	-0.125
-478.332	200.343	-0.204	0.313
-477.318	-200.000	-0.038	-0.219
-476.303	80.279	0.187	0.200
-475.289	-171.795	-0.226	0.007
-474.274	89.792	0.128	-0.142
-473.259	-42.225	-0.210	0.107
-472.245	-77.048	0.203	-0.071
-471.230	422.063	0.091	0.195
-470.216	-76.886	-0.129	-0.045
-469.201	-21.015	-0.070	0.043
-468.186	-6.709	0.204	0.138
-467.172	-152.767	0.261	0.018
-466.157	224.926	0.063	-0.101
-465.143	-142.043	0.211	0.021
-464.128	-200.000	-0.006	-0.327
-463.113	182.940	0.018	0.027
-462.099	277.712	-0.151	-0.267
-461.084	-200.000	0.054	-0.364
-460.070	-185.133	-0.132	0.002
-459.055	-200.000	0.007	-0.058
-458.040	-99.930	-0.387	0.096
-457.026	237.299	0.139	0.229
-456.011	701.088	0.079	-0.207
-454.997	12.185	-0.029	-0.022
-453.982	327.940	0.087	-0.167
-452.968	800.000	0.021	0.085
-451.953	33.576	0.307	0.266
-450.938	-72.959	-0.148	-0.054
-449.924	113.122	-0.099	0.119
-448.909	219.388	-0.160	0.255
-447.895	800.000	-0.081	0.239
-446.880	-120.585	-0.611	0.103
-445.865	151.879	0.161	-0.218
-444.851	-113.911	-0.356	0.069
-443.836	-27.175	0.137	-0.080
-442.822	31.358	-0.280	0.239
-441.807	95.279	-0.258	0.293
-440.792	227.008	0.137	-0.222
-439.778	86.290	0.145	-0.159
-438.763	16.095	0.169	0.132
-437.749	-43.025	-0.072	-0.036
-436.734	330.515	-0.053	0.102
-435.719	110.477	0.136	0.163
-434.705	282.210	-0.046	-0.083
-433.690	800.000	0.055	0.199
-432.676	-16.640	-0.134	-0.084
-431.661	6.013	-0.124	-0.091
-430.646	141.172	0.237	-0.312
-429.632	-61.181	0.213	0.089
-428.617	57.609	0.102	0.099
-427.603	-200.000	0.054	-0.253
-426.588	-200.000	0.085	-0.545
-425.573	-21.963	-0.038	0.023
-424.559	-17.227	-0.237	0.148
-423.544	-103.572	0.230	-0.054
-422.530	27.766	0.135	0.113
-421.515	183.696	0.043	0.063
-420.500	-200.000	0.061	-0.303
-419.486	2.536	0.071	-0.051
-418.471	12.630	-0.182	0.140
-417.457	74.537	0.284	-0.297
-416.442	800.000	-0.093	-0.377
-415.428	20.189	0.255	-0.204
-414.413	270.307	0.078	0.136
-413.398	-86.233	0.252	0.077
-412.384	-154.665	0.196	-0.013
-411.369	-47.244	0.202	0.098
-410.355	-153.078	0.227	0.016
-409.340	-2.903	-0.126	-0.088
-408.325	225.896	-0.116	-0.187
-407.311	-140.422	0.151	-0.016
-406.296	305.044	-0.118	0.217
-405.282	-83.330	0.149	-0.047
-404.267	450.179	-0.090	0.198
-403.252	800.000	-0.044	-0.141
-402.238	800.000	-0.023	0.075
-401.223	51.611	0.079	0.075
-400.209	-103.765	0.291	0.068
-399.194	705.898	-0.027	0.071
-398.179	1.064	-0.068	-0.049
-397.165	-49.002	0.179	-0.085
-396.150	475.889	0.191	0.428
-395.136	-99.878	-0.248	0.062
-394.121	32.442	-0.246	-0.211
-393.106	-200.000	-0.031	0.162
-392.092	-69.274	0.108	-0.041
-391.077	800.000	-0.024	0.071
-390.063	-195.487	-0.210	-0.002
-389.048	800.000	0.023	0.074
-388.033	38.294	0.125	-0.110
-387.019	-114.404	-0.157	-0.030
-386.004	-44.932	-0.052	-0.026
-384.990	69.138	-0.215	-0.219
-383.975	-99.484	-0.225	-0.056
-382.960	800.000	-0.056	-0.222
-381.946	19.394	0.096	-0.077
-380.931	-126.006	0.109	-0.016
-379.917	-200.000	0.003	-0.273
-378.902	453.180	0.034	0.075
-377.888	-82.821	0.159	-0.051
-376.873	338.767	-0.064	0.123
-375.858	-40.722	0.162	-0.083
-374.844	-200.000	0.038	0.438
-373.829	-49.985	0.281	-0.132
-372.815	800.000	-0.052	-0.211
-371.800	-200.000	-0.013	0.375
-370.785	-200.000	-0.042	0.264
-369.771	-181.894	-0.084	0.002
-368.756	551.954	0.043	0.103
-367.742	93.555	-0.261	0.293
-366.727	-97.299	0.078	-0.020
-365.712	200.183	-0.206	-0.313
-364.698	-14.258	0.299	0.191
-363.683	17.430	0.132	0.104
-362.669	130.625	0.160	0.204
-361.654	-200.000	0.172	0.000
-360.639	178.719	0.005	-0.007
-359.625	-41.878	0.122	-0.062
-358.610	153.875	0.155	0.211
-357.596	75.874	0.237	0.248
-356.581	287.690	0.115	-0.206
-355.566	-6.407	0.192	-0.130
-354.552	-143.396	-0.265	-0.025
-353.537	413.751	-0.007	-0.014
-352.523	489.248	0.130	0.293
-351.508	373.724	-0.077	0.155
-350.493	-200.000	0.003	0.204
-349.479	475.456	0.048	-0.107
-348.464	248.236	-0.207	-0.347
-347.450	-169.789	-0.114	-0.004
-346.435	-154.142	0.234	0.016
-345.420	334.279	-0.174	0.333
-344.406	-200.000	-0.015	-0.336
-343.391	84.027	-0.079	-0.086
-342.377	36.588	0.063	0.055
-341.362	133.319	-0.162	0.208
-340.348	-200.000	-0.006	0.091
-339.333	-92.977	-0.230	0.064
-338.318	47.463	0.112	0.103
-337.304	-200.000	-0.064	-0.327
-336.289	57.520	-0.161	0.156
-335.275	-38.395	0.188	0.099
-334.260	-134.659	-0.336	0.040
-333.245	-88.742	0.309	0.091
-332.231	0.055	-0.182	0.129
-331.216	-104.030	0.082	-0.019
-330.202	-154.901	0.063	0.004
-329.187	470.988	0.086	0.191
-328.172	-200.000	0.013	-0.066
-327.158	-51.418	0.113	-0.052
-326.143	218.216	0.069	-0.110
-325.129	800.000	0.122	0.387
-324.114	800.000	0.021	0.061
-323.099	800.000	0.032	0.098
-322.085	-79.304	-0.160	-0.054
-321.070	784.677	-0.031	0.083
-320.056	-200.000	-0.017	-0.197
-319.041	402.337	0.067	0.139
-318.026	7.373	0.122	-0.090
-317.012	235.751	-0.090	-0.148
-315.997	100.499	-0.331	0.381
-314.983	-58.917	0.149	-0.064
-313.968	163.081	0.059	-0.083
-312.953	248.059	-0.113	0.189
-311.939	245.110	-0.078	-0.129
-310.924	133.328	-0.230	0.295
-309.910	37.495	-0.101	0.088
-308.895	223.715	-0.129	0.206
-307.880	114.172	0.215	0.259
-306.866	800.000	-0.051	-0.153
-305.851	-33.040	-0.186	-0.102
-304.837	-112.411	-0.344	-0.068
-303.822	193.057	0.138	0.207
-302.807	49.561	0.131	0.122
-301.793	-15.913	0.208	-0.131
-300.778	-141.447	0.273	-0.027
-299.764	119.164	0.163	-0.199
-298.749	-200.000	0.023	-0.293
-297.735	-128.172	0.277	-0.039
-296.720	800.000	-0.037	0.109
-295.705	800.000	-0.070	-0.202
-294.691	32.464	-0.365	0.312
-293.676	-59.858	-0.122	-0.052
-292.662	-200.000	0.013	-0.186
-291.647	-32.883	0.035	0.019
-290.632	472.315	-0.135	-0.301
-289.618	-37.353	0.037	0.019
-288.603	-84.325	-0.213	-0.067
-287.589	-36.132	0.057	0.030
-286.574	-12.190	0.143	-0.092
-285.559	-54.258	-0.137	-0.062
-284.545	-200.000	-0.168	-0.000
-283.530	-40.821	-0.104	-0.053
-282.516	-100.702	-0.397	0.097
-281.501	-141.770	0.392	-0.039
-280.486	-69.453	0.321	0.122
-279.472	-159.313	-0.169	-0.009
-278.457	-38.283	0.058	-0.030
-277.443	800.000	-0.065	0.186
-276.428	-93.621	0.137	0.037
-275.413	-29.823	0.045	-0.025
-274.399	519.975	0.132	0.305
-273.384	-127.104	0.212	0.031
-272.370	-200.000	0.009	0.183
-271.355	-124.267	-0.131	0.020
-270.340	-40.035	-0.356	-0.183
-269.326	800.000	0.087	0.319
-268.311	487.126	0.061	0.137
-267.297	-8.032	-0.151	0.100
-266.282	-45.454	0.295	0.145
-265.267	2.540	-0.177	-0.127
-264.253	-1.476	0.387	0.270
-263.238	-120.198	0.144	-0.024
-262.224	219.451	0.153	0.243
-261.209	800.000	-0.089	0.252
-260.195	-200.000	-0.021	0.285
-259.180	-141.191	-0.121	0.012
-258.165	-50.135	0.246	0.115
-257.151	172.175	0.086	0.122
-256.136	800.000	-0.064	-0.240
-255.122	-23.560	-0.058	0.035
-254.107	-200.000	0.001	0.106
-253.092	-72.926	0.295	-0.107
-252.078	-110.169	-0.194	0.040
-251.063	-162.007	0.069	-0.003
-250.049	-200.000	-0.017	-0.297
-249.034	24.766	-0.249	-0.203
-248.019	-200.000	0.035	-0.157
-247.005	800.000	-0.113	0.344
-245.990	-51.713	-0.236	-0.109
-244.976	-117.010	-0.191	0.034
-243.961	-158.389	-0.103	0.006
-242.946	264.413	-0.187	-0.322
-241.932	185.995	0.133	0.196
-240.917	-108.428	0.217	-0.046
-239.903	800.000	-0.055	0.172
-238.888	-120.299	-0.237	-0.040
-237.873	85.441	0.119	-0.129
-236.859	-108.532	0.129	0.027
-235.844	22.377	0.174	-0.141
-234.830	69.458	-0.096	-0.098
-233.815	-108.611	0.222	0.047
-232.800	-123.254	0.287	0.045
-231.786	-200.000	-0.040	-0.196
-230.771	-200.000	-0.007	0.105
-229.757	176.368	0.136	-0.194
-228.742	800.000	-0.060	-0.163
-227.727	-2.875	0.303	0.209
-226.713	800.000	0.068	-0.244
-225.698	-146.775	0.473	0.040
-224.684	-48.272	0.055	0.026
-223.669	-189.996	0.353	-0.004
-222.655	37.830	-0.063	-0.055
-221.640	-111.764	0.113	-0.023
-220.625	275.349	-0.147	0.257
-219.611	122.464	0.066	0.081
-218.596	-141.352	0.390	-0.039
-217.582	-70.791	-0.247	0.092
-216.567	132.747	-0.199	-0.253
-215.552	-92.337	0.032	-0.009
-214.538	-200.000	0.045	-0.414
-213.523	154.522	0.153	-0.207
-212.509	4.691	-0.018	-0.013
-211.494	-200.000	-0.010	-0.149
-210.479	-200.000	0.008	-0.124
-209.465	-157.763	-0.009	0.001
-208.450	44.792	-0.173	0.157
-207.436	800.000	0.048	-0.180
-206.421	263.133	-0.067	0.115
-205.406	38.526	-0.199	-0.175
-204.392	49.735	0.088	-0.082
-203.377	-23.974	0.125	0.073
-202.363	160.981	0.236	0.325
-201.348	-47.702	-0.216	-0.103
-200.333	460.869	0.141	0.309
-199.319	-200.000	-0.038	-0.181
-198.304	-200.000	0.009	-0.215
-197.290	800.000	-0.076	0.209
-196.275	625.698	-0.086	0.213
-195.260	-200.000	0.004	-0.362
-194.246	64.982	-0.062	0.061
-193.231	-161.944	-0.138	-0.007
-192.217	55.025	0.164	0.156
-191.202	-200.000	0.061	0.343
-190.187	-200.000	-0.098	0.484
-189.173	0.183	0.145	-0.102
-188.158	172.025	0.105	0.149
-187.144	-4.596	0.163	-0.111
-186.129	66.970	-0.160	-0.160
-185.114	-200.000	-0.019	0.263
-184.100	-149.906	-0.059	0.005
-183.085	-51.261	-0.071	0.033
-182.071	83.943	-0.169	-0.181
-181.056	-71.652	-0.221	0.081
-180.042	-60.928	0.134	-0.056
-179.027	96.220	-0.166	-0.187
-178.012	110.166	0.033	0.040
-176.998	-42.165	-0.094	-0.047
-175.983	-200.000	0.002	-0.288
-174.969	114.468	-0.316	-0.378
-173.954	800.000	0.110	-0.305
-172.939	7.046	-0.117	-0.086
-171.925	114.758	0.292	-0.351
-170.910	394.966	0.228	-0.468
-169.896	-43.128	-0.069	0.035
-168.881	32.206	0.169	0.144
-167.866	-181.314	-0.114	0.002
-166.852	-68.816	0.370	0.141
-165.837	-95.441	-0.219	0.058
-164.823	-9.305	-0.220	-0.145
-163.808	-86.561	0.364	-0.110
-162.793	-200.000	0.001	-0.342
-161.779	263.290	0.077	0.131
-160.764	-200.000	0.000	0.223
-159.750	-87.663	-0.032	0.009
-158.735	800.000	-0.068	0.290
-157.720	-90.858	-0.223	0.063
-156.706	-7.078	0.307	-0.205
-155.691	-88.595	0.114	-0.033
-154.677	-13.632	-0.244	0.155
-153.662	-200.000	-0.036	0.281
-152.647	-44.241	-0.172	0.085
-151.633	-66.159	0.186	0.073
-150.618	800.000	0.082	0.283
-149.604	-200.000	0.029	0.529
-148.589	172.269	0.104	0.148
-147.574	-135.357	0.161	0.019
-146.560	37.460	-0.305	0.266
-145.545	-56.198	-0.147	-0.064
-144.531	128.080	0.113	-0.141
-143.516	-71.400	-0.055	0.020
-142.502	-111.178	-0.143	0.029
-141.487	266.457	-0.030	0.051
-140.472	800.000	-0.037	-0.134
-139.458	800.000	0.145	0.545
-138.443	3.318	0.256	-0.183
-137.429	800.000	0.071	-0.200
-136.414	31.708	-0.075	0.063
-135.399	-47.384	0.122	0.058
-134.385	-147.990	-0.095	-0.008
-133.370	-129.327	0.251	0.034
-132.356	-58.258	0.160	0.068
-131.341	-96.733	0.263	-0.068
-130.326	315.413	-0.112	-0.208
-129.312	-137.941	0.187	-0.020
-128.297	-49.579	-0.225	-0.105
-127.283	-200.000	0.006	0.037
-126.268	-66.889	0.090	-0.035
-125.253	225.368	0.069	0.110
-124.239	123.706	0.234	-0.288
-123.224	96.818	-0.117	0.131
-122.210	84.194	-0.101	-0.108
-121.195	33.548	0.286	-0.244
-120.180	170.451	0.215	0.302
