DTS Sentinel unit serial number:	SN413079Multiplexer serial number:	ORYXHardware model number:	OX4-SRSoftware version number:	ORYX F/W v4.00 Oryx Data Collector v3.7.2.0data status	okinstallation	princeton_trtdifferential loss correction	single-endedforward channel	channel 4reverse channel	N/Adate	2019/09/15time	19:01:34forward acquisition time	60.00reverse acquisition time	0.00gamma	496.2192k internal	0.2287k external	0.2287temperature offset calibration	0.9921default loss term (dB/km)	0.3790temperature slope calibration	1.0000multiplexer offset coefficient	1.0000multiplexer slope coefficient	1.0000fibre end	0.00T internal ref (°C)	42.00T ext. ref 1 (°C)	7.03T ext. ref 2 (°C)	31.53length (m)	temperature (°C)	Stokes	anti-Stokes-747.200	376.195	-0.100	0.210
-746.185	10.831	0.224	-0.176
-745.171	363.124	-0.088	0.182
-744.156	-8.296	-0.225	0.155
-743.142	-200.000	-0.087	-0.410
-742.127	-200.000	-0.061	0.385
-741.112	96.738	0.090	-0.106
-740.098	366.289	-0.163	0.338
-739.083	656.784	0.194	0.512
-738.069	-200.000	0.005	0.160
-737.054	-200.000	-0.033	-0.169
-736.039	-89.192	-0.298	-0.090
-735.025	800.000	-0.130	-0.436
-734.010	800.000	0.057	-0.228
-732.996	40.588	-0.312	-0.288
-731.981	-200.000	0.056	-0.258
-730.966	-102.276	-0.108	0.027
-729.952	53.532	-0.184	-0.181
-728.937	-200.000	0.005	-0.068
-727.923	-113.405	-0.127	0.026
-726.908	-49.200	-0.055	0.027
-725.894	-69.153	-0.238	0.094
-724.879	153.344	-0.020	0.028
-723.864	108.466	-0.212	-0.259
-722.850	-124.754	-0.351	-0.056
-721.835	512.739	0.076	0.181
-720.821	517.882	0.004	0.010
-719.806	149.248	0.027	0.038
-718.791	-112.654	-0.301	-0.061
-717.777	36.139	-0.192	-0.174
-716.762	-96.729	-0.183	-0.049
-715.748	-200.000	-0.034	0.172
-714.733	-38.431	0.139	-0.075
-713.718	-102.981	-0.132	-0.032
-712.704	-111.357	0.127	0.027
-711.689	-124.296	-0.074	-0.012
-710.675	-81.716	-0.059	0.020
-709.660	419.589	0.077	0.170
-708.645	-46.896	0.154	0.077
-707.631	-200.000	0.010	-0.140
-706.616	393.353	-0.073	-0.155
-705.602	-200.000	0.029	0.330
-704.587	281.911	-0.130	0.238
-703.572	-200.000	-0.031	-0.282
-702.558	-200.000	-0.003	-0.135
-701.543	-137.248	0.302	0.035
-700.529	-87.765	0.462	-0.143
-699.514	105.886	0.120	0.145
-698.499	85.417	0.088	-0.098
-697.485	230.632	0.083	-0.140
-696.470	800.000	-0.135	-0.385
-695.456	-200.000	0.031	-0.308
-694.441	42.118	-0.104	-0.097
-693.426	119.975	-0.124	-0.158
-692.412	174.979	-0.153	-0.226
-691.397	296.253	0.110	0.206
-690.383	-92.729	-0.328	-0.094
-689.368	800.000	-0.055	0.236
-688.354	-46.488	-0.115	0.058
-687.339	-200.000	0.055	-0.285
-686.324	781.750	0.067	-0.188
-685.310	263.874	-0.042	0.075
-684.295	8.552	0.224	-0.173
-683.281	-200.000	0.009	0.070
-682.266	44.910	-0.127	-0.119
-681.251	-72.225	-0.280	-0.106
-680.237	69.639	0.179	-0.189
-679.222	194.496	0.019	-0.029
-678.208	88.311	0.172	0.196
-677.193	160.734	-0.027	0.038
-676.178	800.000	-0.127	-0.431
-675.164	314.223	-0.050	0.097
-674.149	800.000	0.093	-0.286
-673.135	80.403	0.051	-0.056
-672.120	-167.985	0.066	0.003
-671.105	800.000	0.058	-0.189
-670.091	24.256	-0.126	0.107
-669.076	-55.926	-0.145	0.066
-668.062	-136.455	-0.380	0.045
-667.047	-13.022	0.140	0.093
-666.032	448.142	0.047	0.107
-665.018	-26.585	0.115	0.069
-664.003	800.000	0.057	0.172
-662.989	-15.966	0.291	-0.189
-661.974	-15.911	0.284	0.185
-660.959	-130.563	-0.215	0.030
-659.945	-73.536	-0.195	0.073
-658.930	-78.543	-0.160	-0.056
-657.916	-200.000	0.004	0.044
-656.901	511.176	0.105	0.250
-655.886	33.994	-0.147	-0.131
-654.872	800.000	0.040	0.115
-653.857	-53.601	0.098	-0.046
-652.843	-200.000	0.004	0.152
-651.828	59.151	0.287	-0.288
-650.814	148.187	0.043	-0.059
-649.799	800.000	-0.067	0.298
-648.784	-200.000	0.054	-0.270
-647.770	227.748	-0.065	0.108
-646.755	800.000	-0.034	-0.142
-645.741	-163.482	-0.351	0.017
-644.726	-200.000	-0.021	0.197
-643.711	-200.000	0.014	-0.352
-642.697	17.539	0.186	0.151
-641.682	-186.242	0.143	-0.002
-640.668	268.478	-0.109	-0.196
-639.653	-138.962	-0.406	0.045
-638.638	210.681	-0.279	-0.448
-637.624	-124.373	-0.273	-0.044
-636.609	-126.218	-0.259	0.040
-635.595	57.813	0.128	-0.128
-634.580	746.673	-0.046	0.126
-633.565	-145.389	-0.402	-0.037
-632.551	363.733	-0.154	-0.315
-631.536	800.000	0.042	0.184
-630.522	-83.128	-0.399	-0.131
-629.507	-5.039	-0.298	-0.209
-628.492	3.936	0.080	-0.060
-627.478	-200.000	-0.002	0.130
-626.463	103.523	-0.279	-0.334
-625.449	800.000	-0.069	0.197
-624.434	162.575	0.163	-0.233
-623.419	-200.000	0.010	-0.096
-622.405	-125.902	-0.196	-0.030
-621.390	-15.938	0.148	0.096
-620.376	-108.478	-0.138	0.030
-619.361	-114.033	0.165	-0.033
-618.346	71.450	-0.233	-0.247
-617.332	23.357	0.080	-0.067
-616.317	57.469	-0.216	0.216
-615.303	447.125	-0.054	-0.120
-614.288	800.000	-0.073	0.208
-613.273	800.000	0.045	-0.144
-612.259	2.347	-0.216	-0.159
-611.244	-9.392	0.210	-0.143
-610.230	800.000	0.028	0.081
-609.215	-18.191	-0.243	-0.155
-608.201	-57.730	-0.142	0.064
-607.186	738.905	0.046	-0.125
-606.171	21.285	-0.319	0.264
-605.157	-63.871	0.098	-0.041
-604.142	110.546	0.115	-0.141
-603.128	232.938	0.064	0.108
-602.113	-140.945	0.120	-0.013
-601.098	-131.599	-0.235	0.032
-600.084	800.000	0.062	-0.209
-599.069	-200.000	-0.009	-0.084
-598.055	-5.973	0.103	-0.072
-597.040	230.643	0.122	0.204
-596.025	-186.644	0.247	-0.004
-595.011	-134.990	0.084	-0.010
-593.996	17.792	0.288	-0.233
-592.982	800.000	0.062	-0.239
-591.967	-102.491	-0.052	0.013
-590.952	452.757	0.073	-0.164
-589.938	236.988	0.088	0.149
-588.923	-149.964	-0.262	0.021
-587.909	-43.626	0.156	0.080
-586.894	-128.836	0.177	0.025
-585.879	-182.845	0.275	-0.005
-584.865	-200.000	-0.004	-0.026
-583.850	707.258	0.079	-0.211
-582.836	108.204	0.113	-0.137
-581.821	178.589	0.098	0.146
-580.806	800.000	-0.046	0.165
-579.792	-154.285	0.512	0.035
-578.777	750.063	-0.021	0.059
-577.763	230.093	-0.060	-0.099
-576.748	-27.585	0.219	-0.130
-575.733	132.536	-0.131	-0.172
-574.719	177.909	-0.201	0.298
-573.704	-8.206	-0.114	-0.078
-572.690	-13.732	-0.459	-0.302
-571.675	55.202	0.208	0.205
-570.661	800.000	0.113	0.400
-569.646	-101.745	0.480	0.118
-568.631	-153.184	-0.161	-0.011
-567.617	132.533	-0.163	-0.214
-566.602	-200.000	-0.044	0.262
-565.588	-88.713	-0.330	-0.100
-564.573	-78.030	0.102	0.036
-563.558	-87.459	-0.132	-0.041
-562.544	-38.189	-0.168	-0.091
-561.529	-200.000	-0.045	-0.333
-560.515	558.176	0.047	-0.115
-559.500	-150.120	-0.122	0.010
-558.485	-119.823	0.083	0.014
-557.471	-200.000	-0.022	0.129
-556.456	800.000	-0.045	0.128
-555.442	-35.648	-0.146	-0.080
-554.427	-200.000	0.027	-0.167
-553.412	-200.000	-0.024	-0.194
-552.398	-67.222	0.300	0.120
-551.383	548.235	0.083	0.202
-550.369	43.394	-0.181	0.168
-549.354	86.384	0.051	0.057
-548.339	-152.008	0.117	0.009
-547.325	231.405	-0.205	0.341
-546.310	109.192	-0.066	-0.081
-545.296	-140.629	-0.183	-0.019
-544.281	96.494	0.228	0.266
-543.266	251.867	-0.182	-0.315
-542.252	-3.679	-0.079	0.056
-541.237	358.753	-0.071	0.144
-540.223	800.000	0.045	0.160
-539.208	524.051	0.035	-0.084
-538.193	57.929	-0.201	-0.200
-537.179	9.895	-0.191	-0.147
-536.164	-200.000	-0.034	0.168
-535.150	-49.168	0.245	0.119
-534.135	-200.000	-0.019	0.508
-533.121	-97.721	0.096	0.025
-532.106	-200.000	-0.013	0.384
-531.091	-149.711	-0.104	-0.008
-530.077	800.000	0.067	-0.227
-529.062	-122.966	-0.256	-0.042
-528.048	582.066	0.051	0.128
-527.033	136.015	-0.219	-0.290
-526.018	800.000	-0.093	0.398
-525.004	-71.816	0.345	0.131
-523.989	184.506	0.093	0.140
-522.975	-72.746	0.209	-0.078
-521.960	-100.174	-0.170	-0.043
-520.945	800.000	-0.052	-0.195
-519.931	203.135	-0.087	0.136
-518.916	-200.000	-0.049	-0.218
-517.902	69.413	0.143	0.149
-516.887	800.000	-0.066	-0.276
-515.872	326.528	0.030	-0.059
-514.858	-37.307	-0.227	-0.123
-513.843	-200.000	-0.017	-0.139
-512.829	-170.999	0.141	-0.005
-511.814	800.000	0.096	-0.335
-510.799	299.083	0.055	-0.102
-509.785	800.000	-0.166	-0.530
-508.770	-200.000	-0.222	-0.000
-507.756	-38.802	-0.182	-0.097
-506.741	38.635	-0.036	-0.033
-505.726	-200.000	0.007	0.147
-504.712	108.904	-0.161	-0.196
-503.697	18.604	-0.195	0.158
-502.683	-3.554	-0.200	0.142
-501.668	19.871	-0.163	0.133
-500.653	69.966	-0.109	-0.114
-499.639	-200.000	-0.034	-0.239
-498.624	518.518	-0.026	-0.061
-497.610	-200.000	-0.010	-0.403
-496.595	137.319	-0.048	0.063
-495.581	-200.000	0.053	-0.262
-494.566	4.803	-0.129	-0.096
-493.551	-200.000	0.021	-0.148
-492.537	-20.982	-0.141	-0.088
-491.522	325.060	0.118	-0.229
-490.508	255.386	-0.021	-0.037
-489.493	-200.000	-0.018	-0.508
-488.478	548.701	-0.068	-0.167
-487.464	800.000	0.085	0.331
-486.449	-154.383	-0.065	-0.004
-485.435	-89.164	-0.260	-0.078
-484.420	-108.804	-0.261	0.057
-483.405	357.717	0.084	0.170
-482.391	471.267	0.105	0.240
-481.376	95.172	-0.191	0.220
-480.362	-200.000	-0.004	-0.251
-479.347	-200.000	0.010	0.354
-478.332	800.000	0.055	-0.178
-477.318	-112.909	0.134	-0.027
-476.303	113.176	0.106	-0.131
-475.289	-200.000	0.048	-0.221
-474.274	-75.917	-0.214	-0.077
-473.259	233.802	-0.078	0.130
-472.245	-100.178	0.227	0.057
-471.230	-169.278	-0.244	0.009
-470.216	-16.595	0.081	0.052
-469.201	-43.753	0.082	0.042
-468.186	-120.825	-0.192	-0.033
-467.172	13.259	0.232	0.182
-466.157	74.394	0.176	-0.188
-465.143	-23.785	-0.119	0.072
-464.128	-172.217	0.173	-0.006
-463.113	-200.000	0.007	0.034
-462.099	100.700	0.040	-0.048
-461.084	218.744	-0.216	-0.350
-460.070	-114.060	-0.254	-0.050
-459.055	800.000	0.029	-0.103
-458.040	800.000	-0.014	-0.044
-457.026	530.490	-0.165	-0.395
-456.011	-82.936	0.139	-0.046
-454.997	274.059	-0.137	-0.246
-453.982	-200.000	-0.010	0.045
-452.968	-22.931	-0.198	-0.121
-451.953	-200.000	0.027	-0.336
-450.938	-113.237	0.101	0.020
-449.924	800.000	0.012	0.036
-448.909	222.519	-0.089	-0.145
-447.895	-121.232	0.219	-0.037
-446.880	-98.144	0.046	-0.012
-445.865	151.715	0.196	0.271
-444.851	40.324	-0.054	0.050
-443.836	800.000	0.020	0.075
-442.822	-137.088	0.116	-0.013
-441.807	-102.330	0.343	-0.084
-440.792	-200.000	-0.068	-0.421
-439.778	84.514	-0.059	-0.065
-438.763	454.482	-0.043	0.098
-437.749	-46.329	0.204	0.101
-436.734	800.000	-0.094	0.304
-435.719	190.209	-0.021	0.032
-434.705	230.424	0.139	-0.231
-433.690	-154.251	-0.262	-0.018
-432.676	89.248	0.090	-0.102
-431.661	4.949	0.209	-0.156
-430.646	-200.000	0.014	-0.223
-429.632	544.656	-0.050	0.121
-428.617	-47.811	0.181	-0.089
-427.603	-200.000	-0.020	0.194
-426.588	800.000	0.152	0.455
-425.573	468.552	0.064	-0.145
-424.559	148.380	0.224	-0.306
-423.544	87.479	-0.063	0.071
-422.530	-34.059	0.119	0.066
-421.515	-36.891	0.252	0.137
-420.500	110.566	-0.086	-0.105
-419.486	132.011	-0.176	0.230
-418.471	-11.949	-0.119	-0.079
-417.457	42.044	0.182	-0.167
-416.442	-25.732	0.018	0.011
-415.428	194.558	-0.136	0.209
-414.413	-26.851	-0.319	0.189
-413.398	114.864	-0.235	-0.290
-412.384	39.048	-0.346	-0.313
-411.369	176.551	0.073	0.107
-410.355	628.929	0.062	-0.159
-409.340	800.000	0.023	0.082
-408.325	-167.629	-0.183	0.007
-407.311	-121.207	0.224	-0.038
-406.296	-31.334	-0.149	0.085
-405.282	-55.071	-0.178	0.081
-404.267	-125.521	0.256	0.039
-403.252	45.179	0.120	0.112
-402.238	47.862	-0.006	0.006
-401.223	800.000	0.080	0.288
-400.209	-85.762	0.218	0.068
-399.194	26.033	-0.026	-0.022
-398.179	88.947	0.032	0.037
-397.165	-200.000	0.005	0.030
-396.150	231.841	-0.092	0.153
-395.136	65.235	-0.184	0.188
-394.121	-200.000	-0.048	0.270
-393.106	340.474	0.103	-0.203
-392.092	-15.200	0.126	0.082
-391.077	-200.000	-0.028	-0.476
-390.063	17.670	0.171	-0.137
-389.048	800.000	0.073	-0.226
-388.033	-200.000	-0.016	0.217
-387.019	-146.274	-0.048	-0.004
-386.004	-200.000	-0.019	0.214
-384.990	-1.547	0.181	0.129
-383.975	-86.756	0.086	-0.027
-382.960	154.459	-0.213	0.295
-381.946	-141.523	0.331	0.034
-380.931	-47.977	0.193	-0.094
-379.917	-78.137	-0.113	-0.039
-378.902	34.172	-0.222	0.196
-377.888	81.140	0.127	-0.138
-376.873	-103.430	-0.163	0.039
-375.858	-5.647	0.268	0.186
-374.844	-131.396	-0.154	-0.021
-373.829	-89.371	0.069	-0.021
-372.815	199.995	0.050	0.078
-371.800	412.471	-0.160	-0.344
-370.785	-69.358	0.256	-0.099
-369.771	-83.037	0.307	0.100
-368.756	-137.998	-0.167	0.019
-367.742	800.000	0.016	-0.058
-366.727	-79.478	-0.213	0.073
-365.712	31.638	0.070	-0.061
-364.698	-80.156	0.228	0.077
-363.683	-55.489	0.117	-0.053
-362.669	-19.572	-0.194	0.121
-361.654	-19.089	0.292	-0.183
-360.639	-200.000	-0.001	-0.073
-359.625	-78.516	-0.305	-0.106
-358.610	-200.000	0.156	0.704
-357.596	-200.000	-0.019	0.170
-356.581	63.120	0.108	0.109
-355.566	-124.111	0.139	0.022
-354.552	15.236	0.164	-0.130
-353.537	193.024	-0.150	0.229
-352.523	104.508	0.212	0.252
-351.508	-200.000	0.022	0.240
-350.493	-56.841	0.172	-0.077
-349.479	-200.000	0.022	-0.399
-348.464	443.332	-0.125	-0.278
-347.450	-134.033	0.275	-0.034
-346.435	-121.564	-0.288	0.048
-345.420	178.401	-0.157	0.231
-344.406	-115.719	-0.035	0.007
-343.391	242.067	0.115	0.193
-342.377	-80.106	0.300	0.101
-341.362	-68.463	0.244	-0.096
-340.348	205.435	-0.107	-0.168
-339.333	-117.813	0.302	-0.055
-338.318	61.049	-0.023	-0.023
-337.304	-200.000	0.029	0.346
-336.289	41.953	-0.221	0.202
-335.275	-117.612	0.290	-0.053
-334.260	-200.000	-0.017	0.152
-333.245	21.385	-0.177	0.145
-332.231	82.213	-0.081	-0.088
-331.216	403.087	0.064	-0.136
-330.202	-55.351	-0.141	0.064
-329.187	148.395	-0.369	0.502
-328.172	92.710	0.204	0.232
-327.158	164.354	0.186	-0.265
-326.143	165.003	-0.097	-0.139
-325.129	800.000	-0.030	-0.109
-324.114	18.478	-0.190	0.154
-323.099	119.981	-0.195	-0.244
-322.085	-40.768	0.091	0.048
-321.070	218.499	-0.230	0.370
-320.056	313.785	0.043	-0.082
-319.041	255.105	-0.138	0.239
-318.026	800.000	-0.051	0.162
-317.012	-145.885	0.172	0.015
-315.997	-200.000	0.091	-0.000
-314.983	-78.936	0.114	0.039
-313.968	-61.135	0.094	0.040
-312.953	-5.519	-0.096	-0.066
-311.939	339.256	-0.116	-0.228
-310.924	102.369	-0.128	0.151
-309.910	-83.957	-0.258	0.083
-308.895	-200.000	0.015	0.161
-307.880	-200.000	-0.042	-0.261
-306.866	-23.895	0.127	-0.076
-305.851	37.756	-0.243	0.218
-304.837	-65.754	-0.141	0.057
-303.822	146.589	-0.133	0.181
-302.807	97.135	0.076	0.087
-301.793	-56.235	-0.086	-0.038
-300.778	-112.179	-0.213	0.043
-299.764	-200.000	-0.023	0.346
-298.749	333.221	0.079	0.153
-297.735	-135.264	-0.216	-0.026
-296.720	-200.000	0.082	0.557
-295.705	-44.347	0.336	0.170
-294.691	-200.000	0.002	-0.215
-293.676	-200.000	-0.049	0.326
-292.662	-129.565	0.167	-0.023
-291.647	-200.000	-0.016	-0.194
-290.632	800.000	0.085	-0.273
-289.618	-7.409	-0.075	0.051
-288.603	184.646	0.083	-0.124
-287.589	7.474	0.152	0.115
-286.574	-200.000	-0.037	0.204
-285.559	-152.481	0.043	-0.003
-284.545	238.375	-0.174	0.292
-283.530	-156.174	-0.330	-0.021
-282.516	-70.356	0.120	-0.046
-281.501	-99.031	0.208	0.053
-280.486	-200.000	0.008	0.066
-279.472	120.261	0.177	-0.221
-278.457	800.000	-0.030	0.115
-277.443	-60.817	-0.218	-0.093
-276.428	10.048	-0.190	0.145
-275.413	-81.924	-0.032	0.011
-274.399	800.000	0.054	0.155
-273.384	385.396	-0.071	0.147
-272.370	-200.000	-0.034	-0.184
-271.355	800.000	-0.109	-0.316
-270.340	190.819	0.152	-0.231
-269.326	-34.377	0.150	-0.083
-268.311	210.456	-0.144	0.228
-267.297	708.250	0.098	-0.260
-266.282	-200.000	-0.024	-0.157
-265.267	-75.459	0.209	0.075
-264.253	225.462	-0.051	0.083
-263.238	800.000	0.010	0.031
-262.224	-96.386	0.170	-0.045
-261.209	800.000	-0.111	0.366
-260.195	800.000	-0.088	-0.340
-259.180	-112.156	0.453	-0.092
-258.165	-79.793	0.101	0.034
-257.151	258.885	-0.038	0.066
-256.136	1.900	0.127	-0.092
-255.122	-188.277	0.419	-0.005
-254.107	-53.957	0.324	-0.149
-253.092	565.707	-0.109	0.266
-252.078	-144.210	0.184	-0.017
-251.063	25.558	-0.050	-0.042
-250.049	32.106	-0.164	-0.142
-249.034	77.037	-0.098	0.105
-248.019	128.018	-0.132	0.168
-247.005	-96.711	-0.107	0.028
-245.990	9.965	-0.059	0.045
-244.976	182.414	0.026	0.038
-243.961	296.591	0.036	-0.066
-242.946	-126.263	0.287	0.043
-241.932	47.178	0.019	0.018
-240.917	-95.807	0.345	-0.093
-239.903	800.000	0.056	-0.233
-238.888	78.761	-0.063	-0.068
-237.873	218.267	-0.203	-0.326
-236.859	417.290	-0.016	0.034
-235.844	636.676	0.087	-0.221
-234.830	-165.630	-0.184	-0.008
-233.815	-76.330	0.205	-0.073
-232.800	-114.571	0.229	0.044
-231.786	-166.981	-0.107	0.004
-230.771	-200.000	0.015	0.341
-229.757	56.611	0.329	-0.322
-228.742	-200.000	-0.019	-0.149
-227.727	799.742	-0.048	-0.133
-226.713	267.524	-0.060	0.106
-225.698	-113.619	0.430	0.085
-224.684	222.778	0.063	-0.102
-223.669	-141.482	0.116	0.012
-222.655	-200.000	0.027	-0.168
-221.640	16.166	0.244	0.193
-220.625	-200.000	-0.074	-0.334
-219.611	-200.000	-0.002	-0.170
-218.596	800.000	-0.033	0.106
-217.582	22.860	-0.069	-0.057
-216.567	-25.468	0.267	0.159
-215.552	28.428	0.068	-0.057
-214.538	618.705	0.093	0.236
-213.523	800.000	0.065	-0.255
-212.509	43.423	0.270	0.248
-211.494	-200.000	0.001	-0.027
-210.479	-200.000	-0.052	-0.252
-209.465	-88.268	0.131	0.039
-208.450	-72.358	0.041	-0.015
-207.436	800.000	0.064	0.251
-206.421	-132.784	0.253	0.032
-205.406	159.020	0.035	0.048
-204.392	506.381	-0.079	0.185
-203.377	-144.831	0.269	0.025
-202.363	-83.701	-0.002	0.001
-201.348	-200.000	-0.030	0.200
-200.333	140.330	-0.051	-0.067
-199.319	26.908	0.037	-0.031
-198.304	-200.000	-0.000	-0.135
-197.290	50.428	0.135	0.128
-196.275	326.530	-0.172	0.330
-195.260	-76.753	0.212	0.074
-194.246	-180.924	0.146	-0.003
-193.231	666.671	-0.075	-0.195
-192.217	-78.637	0.320	0.110
-191.202	-51.148	-0.302	-0.142
-190.187	-126.680	0.166	-0.025
-189.173	132.452	-0.281	-0.363
-188.158	72.279	0.179	0.187
-187.144	81.191	-0.230	0.249
-186.129	-142.209	0.085	-0.008
-185.114	-51.715	-0.102	0.048
-184.100	64.731	0.093	0.094
-183.085	800.000	-0.028	-0.115
-182.071	-159.949	0.335	0.018
-181.056	800.000	-0.104	0.307
-180.042	266.797	0.050	0.088
-179.027	35.315	-0.113	0.099
-178.012	-200.000	-0.035	0.389
-176.998	-200.000	0.002	0.326
-175.983	-89.438	0.093	-0.028
-174.969	19.265	0.305	-0.245
-173.954	83.077	0.284	-0.310
-172.939	359.308	-0.041	-0.082
-171.925	-200.000	0.001	-0.044
-170.910	-73.788	-0.338	-0.123
-169.896	541.603	0.009	0.020
-168.881	-26.659	-0.132	0.077
-167.866	800.000	0.094	-0.294
-166.852	-200.000	0.004	-0.405
-165.837	48.586	0.296	0.278
-164.823	800.000	-0.036	-0.124
-163.808	-200.000	-0.033	0.347
-162.793	209.431	-0.109	0.172
-161.779	38.502	-0.071	0.063
-160.764	-78.817	-0.100	-0.034
-159.750	7.630	-0.253	0.190
-158.735	-200.000	0.036	0.274
-157.720	261.768	-0.183	-0.318
-156.706	504.205	-0.038	0.087
-155.691	37.294	0.105	0.093
-154.677	302.090	-0.080	0.148
-153.662	-3.068	-0.153	0.107
-152.647	184.869	0.207	0.307
-151.633	-35.777	-0.420	0.228
-150.618	-85.517	0.152	-0.048
-149.604	-28.249	-0.110	0.064
-148.589	55.457	-0.077	-0.074
-147.574	-200.000	-0.057	-0.000
-146.560	221.877	0.094	0.151
-145.545	16.779	-0.166	0.131
-144.531	50.966	-0.248	0.235
-143.516	85.449	0.197	0.216
-142.502	94.436	0.149	0.170
-141.487	-200.000	0.008	0.143
-140.472	-27.731	0.122	0.071
-139.458	203.779	-0.131	0.203
-138.443	-200.000	0.051	0.328
-137.429	-200.000	0.014	0.094
-136.414	140.607	-0.230	-0.304
-135.399	141.733	0.340	-0.451
-134.385	-65.896	0.285	0.114
-133.370	-19.190	0.034	-0.021
-132.356	417.086	0.112	0.240
-131.341	800.000	0.072	0.209
-130.326	111.367	0.131	0.158
-129.312	-200.000	-0.051	0.276
-128.297	-63.358	-0.182	0.075
-127.283	17.256	0.183	-0.145
-126.268	-200.000	-0.012	0.083
-125.253	-108.724	-0.275	-0.059
-124.239	-200.000	-0.047	0.284
-123.224	530.756	0.110	-0.261
-122.210	-103.357	0.134	-0.032
-121.195	-200.000	-0.016	0.281
