DTS Sentinel unit serial number:	SN413079Multiplexer serial number:	ORYXHardware model number:	OX4-SRSoftware version number:	ORYX F/W v4.00 Oryx Data Collector v3.7.2.0data status	okinstallation	princeton_trtdifferential loss correction	single-endedforward channel	channel 4reverse channel	N/Adate	2019/09/17time	13:57:35forward acquisition time	60.00reverse acquisition time	0.00gamma	496.2192k internal	0.2297k external	0.2297temperature offset calibration	0.9988default loss term (dB/km)	0.3790temperature slope calibration	1.0000multiplexer offset coefficient	1.0000multiplexer slope coefficient	1.0000fibre end	0.00T internal ref (°C)	35.47T ext. ref 1 (°C)	0.41T ext. ref 2 (°C)	32.52length (m)	temperature (°C)	Stokes	anti-Stokes-747.200	289.987	0.140	0.260
-746.185	12.221	-0.106	0.083
-745.171	269.902	-0.024	0.042
-744.156	-19.335	-0.273	0.173
-743.142	71.453	0.257	0.272
-742.127	339.564	0.033	0.065
-741.112	-82.973	0.057	0.019
-740.098	-70.643	0.089	0.034
-739.083	800.000	-0.011	-0.036
-738.069	-48.899	0.258	-0.126
-737.054	448.618	0.116	0.261
-736.039	228.754	-0.090	0.149
-735.025	-41.555	-0.065	0.034
-734.010	-138.598	-0.362	0.041
-732.996	-45.152	-0.275	0.140
-731.981	103.697	-0.180	0.216
-730.966	37.184	-0.160	-0.145
-729.952	-61.004	0.168	0.072
-728.937	-117.912	-0.270	0.049
-727.923	-157.287	0.111	0.007
-726.908	473.401	0.111	-0.255
-725.894	800.000	-0.028	0.111
-724.879	-8.562	-0.007	-0.005
-723.864	-200.000	-0.038	0.247
-722.850	16.511	-0.041	-0.033
-721.835	-119.409	0.482	0.085
-720.821	800.000	0.130	0.391
-719.806	-45.363	-0.222	0.112
-718.791	196.670	0.086	0.134
-717.777	-83.380	0.187	0.061
-716.762	24.463	-0.062	0.053
-715.748	-200.000	0.030	0.410
-714.733	303.942	-0.134	-0.253
-713.718	782.161	0.128	0.357
-712.704	-79.954	0.311	0.106
-711.689	290.355	0.109	-0.203
-710.675	422.965	0.092	0.201
-709.660	-26.487	-0.229	-0.137
-708.645	-160.054	0.343	0.019
-707.631	-16.400	0.333	-0.215
-706.616	150.120	0.121	0.168
-705.602	-54.727	-0.073	-0.033
-704.587	102.336	-0.047	0.057
-703.572	-197.506	0.135	-0.001
-702.558	101.545	0.177	-0.210
-701.543	-200.000	-0.001	0.033
-700.529	-127.058	-0.138	0.021
-699.514	160.374	0.078	0.111
-698.499	51.708	-0.248	-0.240
-697.485	82.389	0.255	-0.282
-696.470	800.000	-0.036	-0.129
-695.456	-107.290	-0.329	-0.074
-694.441	-116.453	-0.215	-0.040
-693.426	320.963	-0.123	-0.239
-692.412	-86.795	0.222	0.069
-691.397	-24.460	0.153	-0.093
-690.383	315.663	-0.042	0.080
-689.368	-138.734	0.158	0.018
-688.354	-37.451	-0.111	0.060
-687.339	-93.705	-0.354	-0.099
-686.324	800.000	0.008	-0.023
-685.310	800.000	0.036	0.150
-684.295	503.987	0.053	-0.124
-683.281	103.890	-0.119	-0.142
-682.266	-72.490	0.214	0.081
-681.251	-108.727	0.361	-0.079
-680.237	-62.298	-0.304	-0.129
-679.222	-200.000	0.016	0.135
-678.208	76.307	-0.279	-0.301
-677.193	-84.069	-0.165	-0.053
-676.178	800.000	0.073	-0.242
-675.164	800.000	0.017	-0.064
-674.149	374.839	-0.206	-0.428
-673.135	-200.000	-0.016	-0.467
-672.120	-200.000	0.019	-0.215
-671.105	-69.161	-0.031	0.012
-670.091	109.868	-0.086	-0.105
-669.076	46.305	0.223	-0.211
-668.062	800.000	0.071	0.221
-667.047	-2.517	-0.043	-0.031
-666.032	-156.063	0.112	-0.007
-665.018	-181.375	-0.183	-0.004
-664.003	735.477	-0.112	-0.305
-662.989	-81.685	0.137	-0.046
-661.974	-160.005	-0.188	-0.010
-660.959	-104.813	0.183	0.043
-659.945	-135.223	-0.271	-0.033
-658.930	48.573	-0.189	0.180
-657.916	-78.051	-0.216	0.076
-656.901	-33.336	-0.072	0.041
-655.886	800.000	-0.065	0.250
-654.872	2.073	0.110	0.081
-653.857	-111.486	0.033	-0.007
-652.843	-3.343	0.129	-0.091
-651.828	-126.034	0.139	-0.021
-650.814	343.363	-0.157	0.313
-649.799	105.245	0.291	-0.349
-648.784	-200.000	-0.289	0.001
-647.770	47.410	-0.142	0.135
-646.755	143.267	-0.214	-0.289
-645.741	-42.996	-0.274	0.142
-644.726	-200.000	-0.034	0.281
-643.711	-25.572	0.013	0.008
-642.697	-127.781	0.180	-0.026
-641.682	-104.232	-0.214	-0.051
-640.668	-8.186	0.301	-0.206
-639.653	156.543	-0.076	-0.107
-638.638	25.214	0.220	-0.186
-637.624	48.659	0.072	0.069
-636.609	-77.244	0.087	-0.031
-635.595	121.765	-0.075	0.096
-634.580	-177.226	-0.248	0.006
-633.565	800.000	-0.035	-0.150
-632.551	-200.000	-0.008	0.193
-631.536	509.852	-0.050	-0.119
-630.522	-200.000	-0.009	0.296
-629.507	-35.473	-0.223	-0.123
-628.492	174.627	-0.125	-0.184
-627.478	184.810	-0.096	0.145
-626.463	-131.417	-0.245	0.033
-625.449	-51.759	-0.213	-0.101
-624.434	-200.000	-0.034	-0.217
-623.419	-69.772	0.253	-0.098
-622.405	-200.000	-0.035	-0.410
-621.390	256.720	0.105	-0.183
-620.376	-113.142	-0.141	-0.028
-619.361	-200.000	0.032	0.164
-618.346	25.886	-0.270	0.228
-617.332	-200.000	0.026	-0.462
-616.317	800.000	-0.096	-0.288
-615.303	800.000	0.031	0.126
-614.288	591.670	0.008	0.021
-613.273	114.551	-0.183	-0.227
-612.259	800.000	-0.060	-0.247
-611.244	-200.000	0.011	-0.379
-610.230	-95.609	0.257	-0.070
-609.215	-113.936	-0.363	0.072
-608.201	-132.387	-0.110	0.014
-607.186	457.475	0.051	-0.114
-606.171	-200.000	-0.007	0.260
-605.157	-57.850	-0.169	0.075
-604.142	-1.463	-0.380	0.272
-603.128	27.924	0.048	-0.041
-602.113	329.660	0.071	0.138
-601.098	800.000	-0.043	0.162
-600.084	800.000	0.069	0.200
-599.069	59.134	-0.158	-0.158
-598.055	-133.082	-0.346	0.045
-597.040	121.841	0.106	-0.135
-596.025	147.519	-0.159	-0.217
-595.011	800.000	-0.051	0.191
-593.996	38.295	-0.115	-0.104
-592.982	509.094	0.099	-0.234
-591.967	134.823	0.019	0.025
-590.952	-108.268	-0.226	-0.050
-589.938	-173.151	-0.149	0.005
-588.923	-200.000	0.033	-0.239
-587.909	-200.000	-0.009	0.124
-586.894	520.184	-0.039	-0.092
-585.879	-200.000	0.009	0.198
-584.865	206.813	-0.063	0.100
-583.850	-39.241	-0.069	-0.037
-582.836	128.468	0.096	0.123
-581.821	-117.214	-0.326	-0.060
-580.806	-48.853	-0.122	-0.059
-579.792	-51.336	0.302	0.143
-578.777	-200.000	-0.012	-0.341
-577.763	-200.000	-0.020	-0.244
-576.748	-200.000	-0.016	-0.083
-575.733	55.255	0.247	-0.242
-574.719	245.408	-0.136	0.232
-573.704	52.138	0.096	-0.093
-572.690	-200.000	0.066	-0.315
-571.675	81.240	-0.170	-0.186
-570.661	800.000	0.061	0.189
-569.646	-88.007	0.288	-0.088
-568.631	-200.000	0.024	-0.205
-567.617	800.000	0.084	0.301
-566.602	372.708	-0.071	-0.147
-565.588	363.137	-0.107	-0.217
-564.573	-101.188	0.282	-0.070
-563.558	-7.899	0.307	-0.210
-562.544	800.000	-0.074	0.243
-561.529	-38.932	0.244	0.131
-560.515	-101.275	-0.131	0.033
-559.500	207.541	0.215	-0.340
-558.485	-200.000	0.030	0.161
-557.471	264.718	-0.234	0.413
-556.456	61.597	0.091	0.092
-555.442	-200.000	-0.007	0.034
-554.427	-38.516	-0.415	-0.222
-553.412	-9.392	-0.321	-0.217
-552.398	-200.000	-0.023	-0.130
-551.383	1.060	0.295	0.214
-550.369	493.843	0.072	-0.167
-549.354	800.000	0.063	-0.225
-548.339	4.069	0.162	0.120
-547.325	-180.963	-0.194	-0.004
-546.310	47.842	-0.088	0.083
-545.296	-163.473	-0.072	0.003
-544.281	-200.000	0.013	-0.225
-543.266	93.620	-0.051	0.058
-542.252	1.190	-0.128	0.093
-541.237	-136.314	0.095	-0.011
-540.223	29.400	-0.212	0.183
-539.208	1.851	0.366	0.267
-538.193	85.156	-0.087	0.097
-537.179	542.346	-0.116	0.281
-536.164	-200.000	-0.032	-0.330
-535.150	-4.804	-0.240	0.168
-534.135	-102.433	-0.102	0.025
-533.121	-110.293	-0.078	0.016
-532.106	165.019	0.136	-0.194
-531.091	-154.779	-0.469	0.031
-530.077	-74.554	-0.315	-0.115
-529.062	-130.486	0.319	-0.044
-528.048	10.167	0.059	0.045
-527.033	60.007	0.262	0.262
-526.018	800.000	0.026	0.093
-525.004	50.487	-0.004	-0.004
-523.989	292.666	-0.154	0.284
-522.975	21.246	0.068	0.056
-521.960	27.120	0.215	-0.183
-520.945	-59.941	-0.169	-0.073
-519.931	-120.577	0.277	-0.048
-518.916	-28.153	0.077	0.045
-517.902	123.480	0.115	-0.146
-516.887	-200.000	0.047	-0.566
-515.872	-123.349	-0.357	-0.058
-514.858	-78.601	0.182	-0.063
-513.843	-193.080	-0.221	0.002
-512.829	800.000	0.083	-0.277
-511.814	-20.578	0.105	0.065
-510.799	800.000	-0.104	-0.328
-509.785	-76.986	0.290	-0.103
-508.770	-16.238	0.212	-0.136
-507.756	-101.804	-0.156	0.038
-506.741	-200.000	0.005	0.029
-505.726	458.189	0.170	0.383
-504.712	479.051	0.162	0.372
-503.697	-26.270	0.073	0.044
-502.683	80.831	-0.024	-0.026
-501.668	-200.000	-0.016	0.075
-500.653	-200.000	0.042	0.197
-499.639	-200.000	0.052	-0.282
-498.624	669.790	0.028	0.073
-497.610	58.047	0.070	-0.070
-496.595	800.000	0.103	0.340
-495.581	-99.050	0.140	0.036
-494.566	291.360	0.089	-0.165
-493.551	800.000	-0.034	-0.149
-492.537	43.858	0.046	0.043
-491.522	-200.000	0.038	-0.518
-490.508	-14.837	0.120	-0.078
-489.493	595.959	-0.079	0.198
-488.478	-139.317	-0.165	-0.018
-487.464	800.000	-0.027	-0.111
-486.449	51.352	0.104	0.100
-485.435	-48.884	-0.262	-0.127
-484.420	-59.773	-0.339	0.147
-483.405	-98.139	0.295	0.077
-482.391	-37.037	-0.106	0.058
-481.376	800.000	0.089	0.371
-480.362	547.291	0.086	0.209
-479.347	-103.838	0.133	0.032
-478.332	-45.298	0.058	0.029
-477.318	222.305	0.105	0.170
-476.303	-151.622	-0.183	0.014
-475.289	39.624	-0.143	-0.130
-474.274	292.252	0.061	-0.113
-473.259	-157.113	-0.416	0.026
-472.245	-177.330	-0.079	0.002
-471.230	172.249	-0.235	-0.341
-470.216	-104.650	0.230	-0.054
-469.201	-200.000	-0.041	0.248
-468.186	-200.000	-0.033	0.256
-467.172	71.672	-0.141	0.148
-466.157	12.025	0.226	-0.176
-465.143	-42.053	0.066	-0.034
-464.128	384.427	0.147	-0.306
-463.113	-111.579	0.118	-0.024
-462.099	769.538	-0.062	0.170
-461.084	-49.989	0.225	-0.108
-460.070	-157.615	0.277	-0.017
-459.055	800.000	0.013	-0.038
-458.040	-102.627	0.150	0.036
-457.026	96.930	0.123	0.142
-456.011	800.000	0.096	0.278
-454.997	-137.178	0.154	-0.018
-453.982	60.046	-0.156	-0.155
-452.968	800.000	-0.031	-0.101
-451.953	-127.130	-0.205	0.030
-450.938	-200.000	-0.000	0.470
-449.924	800.000	-0.078	-0.334
-448.909	-200.000	0.057	-0.366
-447.895	113.494	-0.276	-0.339
-446.880	236.674	0.016	0.027
-445.865	-43.237	-0.321	-0.164
-444.851	-66.755	0.191	0.076
-443.836	-44.882	-0.135	0.068
-442.822	-114.409	0.282	0.055
-441.807	-200.000	0.043	-0.213
-440.792	-11.210	0.120	0.080
-439.778	-200.000	-0.024	0.108
-438.763	800.000	0.018	0.052
-437.749	-200.000	0.002	-0.097
-436.734	-160.200	-0.018	-0.001
-435.719	303.675	0.116	-0.218
-434.705	800.000	-0.039	0.168
-433.690	-20.236	-0.029	-0.018
-432.676	800.000	0.038	-0.127
-431.661	-156.831	-0.335	0.021
-430.646	-77.351	-0.041	0.014
-429.632	72.429	-0.153	0.161
-428.617	-92.120	-0.142	0.041
-427.603	40.500	0.217	0.197
-426.588	800.000	0.061	0.254
-425.573	118.535	0.164	-0.204
-424.559	-118.766	0.051	-0.009
-423.544	761.642	-0.034	0.093
-422.530	743.755	0.112	0.303
-421.515	-193.251	0.263	-0.002
-420.500	-153.217	-0.035	0.002
-419.486	-25.809	-0.203	-0.121
-418.471	569.810	-0.088	0.216
-417.457	225.805	0.074	-0.121
-416.442	-7.280	0.226	-0.155
-415.428	-200.000	0.004	0.022
-414.413	475.609	0.034	-0.076
-413.398	143.447	-0.128	-0.172
-412.384	10.438	-0.209	0.161
-411.369	-163.386	0.138	-0.007
-410.355	-200.000	-0.003	0.186
-409.340	-60.201	-0.233	0.100
-408.325	-133.308	-0.111	0.014
-407.311	-200.000	-0.015	-0.105
-406.296	52.234	0.021	0.020
-405.282	-29.467	-0.185	0.107
-404.267	-200.000	-0.128	-0.000
-403.252	-161.046	0.235	-0.012
-402.238	-146.913	0.468	0.041
-401.223	-44.059	0.257	0.130
-400.209	800.000	0.011	0.031
-399.194	28.299	0.263	0.224
-398.179	-5.639	-0.285	0.197
-397.165	29.225	-0.073	0.062
-396.150	366.846	-0.055	0.112
-395.136	34.376	0.348	-0.306
-394.121	121.114	-0.170	-0.213
-393.106	250.519	-0.057	0.097
-392.092	-50.347	-0.112	0.053
-391.077	15.544	0.222	0.176
-390.063	-96.622	0.134	0.036
-389.048	-124.452	0.186	0.029
-388.033	-200.000	-0.060	-0.350
-387.019	-145.639	0.260	-0.023
-386.004	-200.000	-0.008	0.126
-384.990	-200.000	0.050	0.344
-383.975	410.302	-0.063	0.135
-382.960	646.166	0.104	0.267
-381.946	-91.841	0.038	0.011
-380.931	-106.662	-0.140	-0.031
-379.917	23.993	-0.148	0.123
-378.902	-178.350	-0.342	0.008
-377.888	800.000	-0.014	0.054
-376.873	-88.231	0.273	-0.082
-375.858	-140.574	0.432	-0.045
-374.844	-93.724	-0.609	-0.169
-373.829	5.480	-0.073	0.054
-372.815	-135.322	0.189	-0.023
-371.800	-30.455	-0.158	-0.090
-370.785	-166.493	-0.279	0.012
-369.771	250.739	0.091	-0.156
-368.756	349.107	-0.139	0.276
-367.742	-116.954	-0.118	0.022
-366.727	-7.850	0.066	-0.045
-365.712	-107.729	-0.114	0.025
-364.698	-98.044	0.515	0.133
-363.683	-4.866	0.118	0.082
-362.669	-200.000	0.036	0.312
-361.654	-31.094	-0.188	-0.107
-360.639	107.713	0.135	-0.162
-359.625	-143.236	-0.476	0.046
-358.610	-93.590	0.196	-0.054
-357.596	800.000	0.063	0.186
-356.581	-164.629	-0.051	-0.002
-355.566	-53.900	-0.337	-0.155
-354.552	137.949	0.048	0.063
-353.537	75.339	-0.181	-0.192
-352.523	-101.180	0.292	0.072
-351.508	-92.332	0.233	-0.066
-350.493	-91.781	-0.196	0.056
-349.479	11.666	0.291	0.225
-348.464	45.327	-0.308	-0.286
-347.450	-143.920	0.195	-0.018
-346.435	-59.388	-0.245	-0.106
-345.420	204.802	-0.070	0.109
-344.406	-94.422	0.248	0.068
-343.391	-32.875	0.163	-0.091
-342.377	89.479	-0.134	-0.151
-341.362	669.594	0.128	0.334
-340.348	-147.841	-0.423	-0.036
-339.333	4.735	-0.280	-0.207
-338.318	-22.105	0.185	0.113
-337.304	-91.060	0.229	-0.066
-336.289	-96.296	0.148	0.039
-335.275	-66.930	0.048	0.019
-334.260	800.000	-0.059	-0.199
-333.245	508.862	0.031	-0.072
-332.231	11.104	0.265	-0.204
-331.216	348.758	0.142	0.282
-330.202	9.605	-0.244	-0.186
-329.187	-154.272	-0.448	-0.030
-328.172	-66.430	0.140	-0.056
-327.158	93.090	-0.118	0.134
-326.143	348.149	0.085	0.169
-325.129	-38.680	0.215	0.114
-324.114	-20.254	-0.195	0.121
-323.099	-48.606	-0.075	0.036
-322.085	156.562	-0.126	-0.175
-321.070	-88.242	-0.113	-0.034
-320.056	-200.000	0.025	-0.120
-319.041	-112.861	-0.096	0.019
-318.026	-151.476	0.134	0.010
-317.012	142.667	-0.096	0.129
-315.997	-83.237	0.150	0.049
-314.983	-45.082	-0.213	0.106
-313.968	132.639	0.059	-0.077
-312.953	46.122	0.359	-0.334
-311.939	-48.046	0.105	0.051
-310.924	184.056	0.047	-0.071
-309.910	-15.763	0.175	0.112
-308.895	143.618	0.101	-0.136
-307.880	765.409	-0.120	0.327
-306.866	167.589	0.212	0.303
-305.851	-9.122	-0.024	-0.016
-304.837	-128.608	0.101	0.014
-303.822	-97.250	-0.115	-0.030
-302.807	224.007	0.074	-0.120
-301.793	-52.763	-0.205	0.095
-300.778	650.870	-0.022	0.056
-299.764	483.408	-0.098	0.223
-298.749	704.683	0.047	-0.124
-297.735	363.737	-0.108	-0.219
-296.720	45.300	0.205	-0.189
-295.705	241.273	-0.187	0.313
-294.691	79.508	0.169	-0.182
-293.676	-200.000	-0.042	-0.282
-292.662	-133.869	0.092	-0.012
-291.647	-44.804	0.387	-0.194
-290.632	-200.000	-0.067	0.436
-289.618	-94.795	0.410	0.112
-288.603	15.206	-0.174	0.137
-287.589	106.699	0.081	-0.096
-286.574	-62.836	-0.045	0.019
-285.559	-122.197	-0.356	0.058
-284.545	-132.107	-0.203	0.026
-283.530	382.638	-0.043	-0.088
-282.516	-1.645	-0.095	0.067
-281.501	-16.818	0.176	0.112
-280.486	505.870	-0.014	-0.033
-279.472	262.081	0.026	0.045
-278.457	-55.506	0.134	0.060
-277.443	-76.048	0.215	0.076
-276.428	-130.472	0.283	-0.038
-275.413	-6.741	-0.438	0.299
-274.399	-166.357	0.410	-0.017
-273.384	-200.000	-0.023	0.193
-272.370	113.369	-0.197	0.239
-271.355	800.000	0.034	0.124
-270.340	-156.443	0.198	0.012
-269.326	-84.505	0.342	0.108
-268.311	800.000	0.021	-0.070
-267.297	-200.000	0.030	-0.198
-266.282	8.718	-0.088	0.066
-265.267	269.623	-0.101	0.178
-264.253	145.890	-0.094	0.126
-263.238	23.051	-0.056	0.046
-262.224	800.000	0.065	0.261
-261.209	308.914	0.107	-0.201
-260.195	-200.000	-0.055	-0.287
-259.180	-18.469	-0.306	0.191
-258.165	-177.706	0.150	-0.004
-257.151	92.314	0.208	0.234
-256.136	112.089	0.134	0.162
-255.122	-84.377	-0.301	0.095
-254.107	699.939	0.081	0.214
-253.092	199.891	0.053	0.082
-252.078	-75.086	-0.164	0.059
-251.063	-98.462	-0.053	0.014
-250.049	-130.737	0.245	-0.033
-249.034	300.781	0.091	-0.168
-248.019	-200.000	0.007	-0.079
-247.005	94.887	0.301	-0.343
-245.990	235.085	-0.094	-0.155
-244.976	-10.440	0.300	0.199
-243.961	-200.000	-0.002	-0.032
-242.946	121.460	0.206	0.257
-241.932	11.173	0.054	-0.041
-240.917	788.712	0.128	-0.352
-239.903	124.335	-0.138	-0.173
-238.888	-55.350	0.263	-0.118
-237.873	800.000	0.044	-0.151
-236.859	-109.680	-0.199	0.042
-235.844	-200.000	0.053	0.242
-234.830	-28.994	0.253	0.146
-233.815	-150.301	0.129	0.010
-232.800	-141.205	-0.084	-0.009
-231.786	71.527	-0.050	0.052
-230.771	492.455	-0.050	-0.116
-229.757	122.870	-0.175	0.219
-228.742	-85.626	-0.119	-0.037
-227.727	116.596	-0.172	-0.211
-226.713	-23.562	-0.054	-0.032
-225.698	-144.346	0.336	-0.031
-224.684	772.892	0.090	0.245
-223.669	245.940	0.118	-0.199
-222.655	800.000	0.093	0.288
-221.640	251.846	-0.202	0.344
-220.625	-18.753	-0.102	0.064
-219.611	-72.154	0.228	-0.084
-218.596	-32.043	0.183	0.102
-217.582	-92.807	-0.152	-0.043
-216.567	167.602	0.320	-0.456
-215.552	-59.998	0.032	0.014
-214.538	67.489	0.098	0.100
-213.523	-52.263	0.382	0.177
-212.509	569.685	0.040	0.097
-211.494	-94.360	0.289	-0.079
-210.479	-19.077	-0.069	0.043
-209.465	-85.282	-0.188	0.059
-208.450	255.882	0.180	0.308
-207.436	-200.000	0.021	0.190
-206.421	-130.945	-0.298	0.040
-205.406	676.349	-0.098	0.254
-204.392	800.000	-0.071	-0.233
-203.377	50.506	-0.100	0.095
-202.363	800.000	0.075	-0.292
-201.348	-192.308	0.258	0.002
-200.333	-200.000	0.013	-0.174
-199.319	-191.753	-0.142	0.001
-198.304	124.845	-0.173	-0.218
-197.290	450.672	0.075	0.165
-196.275	-200.000	-0.015	-0.099
-195.260	-55.128	-0.315	0.142
-194.246	45.497	-0.295	-0.272
-193.231	-140.182	-0.371	0.039
-192.217	-144.698	-0.117	-0.011
-191.202	73.795	0.123	0.128
-190.187	86.102	0.250	0.275
-189.173	136.095	-0.022	0.029
-188.158	-128.215	-0.171	0.024
-187.144	399.708	0.265	-0.555
-186.129	289.718	-0.060	-0.108
-185.114	-200.000	0.021	0.295
-184.100	-102.237	-0.105	0.025
-183.085	-200.000	0.043	-0.266
-182.071	111.917	0.071	-0.085
-181.056	-21.079	-0.137	-0.084
-180.042	187.853	-0.159	-0.237
-179.027	-72.706	-0.127	-0.047
-178.012	-38.933	-0.220	0.116
-176.998	-12.871	0.415	-0.270
-175.983	-200.000	-0.035	-0.347
-174.969	528.785	0.121	-0.286
-173.954	-165.770	0.197	0.008
-172.939	-22.172	0.146	0.088
-171.925	-73.378	-0.241	0.088
-170.910	26.439	-0.197	-0.164
-169.896	130.899	0.170	0.218
-168.881	39.993	-0.066	-0.059
-167.866	87.031	0.077	-0.085
-166.852	414.096	0.058	-0.122
-165.837	-5.695	-0.305	-0.208
-164.823	154.988	-0.345	0.474
-163.808	-103.106	-0.250	-0.059
-162.793	800.000	0.012	-0.048
-161.779	-44.952	0.176	-0.088
-160.764	-156.835	-0.059	-0.004
-159.750	800.000	0.045	0.188
-158.735	-164.454	0.233	-0.011
-157.720	112.083	0.225	0.272
-156.706	-200.000	-0.004	0.153
-155.691	-120.702	-0.450	0.076
-154.677	-50.776	0.232	0.109
-153.662	153.566	-0.180	0.246
-152.647	-200.000	-0.004	-0.076
-151.633	-31.587	-0.077	-0.043
-150.618	-101.818	-0.062	0.015
-149.604	-177.479	0.420	0.010
-148.589	54.980	-0.137	-0.132
-147.574	-68.997	0.162	0.062
-146.560	-200.000	0.051	-0.262
-145.545	110.886	0.107	-0.128
-144.531	408.762	0.139	-0.294
-143.516	-41.373	0.275	0.142
-142.502	800.000	0.090	-0.277
-141.487	-66.520	-0.428	0.169
-140.472	383.582	-0.196	0.403
-139.458	478.740	0.090	0.203
-138.443	800.000	-0.043	-0.149
-137.429	219.059	-0.081	-0.128
-136.414	800.000	-0.026	0.072
-135.399	247.374	0.126	0.211
-134.385	-91.988	0.128	-0.036
-133.370	-200.000	-0.023	0.189
-132.356	-200.000	-0.002	0.249
-131.341	28.902	0.046	0.039
-130.326	113.417	-0.112	0.135
-129.312	-94.070	0.222	-0.061
-128.297	256.546	0.089	0.152
-127.283	752.652	-0.092	-0.247
-126.268	13.277	-0.301	-0.233
-125.253	-200.000	0.023	-0.331
-124.239	-35.408	0.110	0.060
-123.224	422.838	-0.097	-0.207
-122.210	41.528	0.170	0.153
-121.195	-67.104	0.235	0.092
