DTS Sentinel unit serial number:	SN413079Multiplexer serial number:	ORYXHardware model number:	OX4-SRSoftware version number:	ORYX F/W v4.00 Oryx Data Collector v3.7.2.0data status	okinstallation	princeton_trtdifferential loss correction	single-endedforward channel	channel 4reverse channel	N/Adate	2019/09/12time	10:55:11forward acquisition time	60.00reverse acquisition time	0.00gamma	496.2192k internal	0.2293k external	0.2293temperature offset calibration	1.0069default loss term (dB/km)	0.3790temperature slope calibration	1.0000multiplexer offset coefficient	1.0000multiplexer slope coefficient	1.0000fibre end	0.00T internal ref (°C)	38.19T ext. ref 1 (°C)	1.92T ext. ref 2 (°C)	36.55length (m)	temperature (°C)	Stokes	anti-Stokes-747.200	800.000	-0.030	0.106
-746.185	-200.000	-0.035	0.353
-745.171	228.259	-0.042	-0.070
-744.156	604.554	-0.072	0.184
-743.142	-200.000	0.091	-0.412
-742.127	-139.147	0.405	-0.045
-741.112	-200.000	0.010	0.082
-740.098	-21.839	-0.203	0.126
-739.083	-14.394	0.151	0.099
-738.069	66.551	-0.231	0.240
-737.054	-200.000	0.009	-0.192
-736.039	-61.756	-0.155	-0.066
-735.025	-89.349	-0.069	-0.021
-734.010	66.022	0.113	0.117
-732.996	-57.271	-0.074	-0.033
-731.981	13.858	0.426	0.339
-730.966	674.722	0.120	-0.319
-729.952	149.854	-0.192	-0.266
-728.937	-61.583	0.141	-0.061
-727.923	188.100	-0.048	0.073
-726.908	112.143	-0.158	-0.195
-725.894	800.000	-0.060	0.209
-724.879	129.868	0.148	0.193
-723.864	-149.743	0.232	0.019
-722.850	-9.435	-0.341	0.232
-721.835	94.878	0.185	-0.215
-720.821	-200.000	-0.033	-0.423
-719.806	-200.000	0.055	-0.329
-718.791	-99.823	0.135	-0.035
-717.777	380.649	0.070	-0.146
-716.762	-93.352	-0.428	0.121
-715.748	-56.550	-0.182	0.082
-714.733	-175.155	0.287	-0.008
-713.718	-145.952	0.384	0.035
-712.704	54.807	0.175	0.172
-711.689	109.114	0.150	-0.184
-710.675	-131.057	-0.149	0.020
-709.660	-200.000	0.001	-0.023
-708.645	-61.909	-0.047	-0.020
-707.631	721.454	-0.118	-0.320
-706.616	433.164	0.040	-0.088
-705.602	-53.812	-0.227	0.106
-704.587	-200.000	0.079	-0.355
-703.572	119.699	0.305	-0.385
-702.558	-114.464	-0.561	0.110
-701.543	-200.000	0.007	-0.158
-700.529	800.000	-0.111	-0.373
-699.514	107.297	-0.088	0.106
-698.499	153.184	-0.040	-0.056
-697.485	-145.874	-0.148	-0.013
-696.470	-175.940	0.371	-0.010
-695.456	178.853	0.051	-0.077
-694.441	-200.000	-0.018	-0.251
-693.426	-44.812	0.098	0.050
-692.412	20.972	0.134	-0.111
-691.397	800.000	-0.062	0.196
-690.383	-71.696	0.370	0.141
-689.368	558.852	0.111	-0.274
-688.354	696.508	-0.070	0.188
-687.339	62.582	0.246	0.251
-686.324	45.385	0.053	-0.050
-685.310	-146.491	0.231	0.021
-684.295	-131.646	-0.254	0.034
-683.281	-77.921	0.118	0.041
-682.266	55.649	0.154	-0.152
-681.251	28.399	0.062	0.053
-680.237	-200.000	-0.022	-0.272
-679.222	1.342	-0.161	0.118
-678.208	145.906	0.149	-0.204
-677.193	57.614	-0.215	-0.214
-676.178	-200.000	0.052	0.277
-675.164	29.233	0.195	0.169
-674.149	153.909	-0.065	-0.091
-673.135	-133.857	-0.147	0.019
-672.120	-159.084	-0.306	0.018
-671.105	-135.733	0.197	-0.024
-670.091	-200.000	0.006	0.075
-669.076	-30.979	0.177	0.102
-668.062	-200.000	0.009	-0.367
-667.047	11.504	-0.152	0.119
-666.032	800.000	0.154	0.522
-665.018	219.234	0.096	0.156
-664.003	-12.805	-0.101	-0.067
-662.989	-45.731	-0.196	0.099
-661.974	-88.344	-0.153	0.047
-660.959	-130.545	-0.041	-0.006
-659.945	-62.454	-0.302	0.128
-658.930	-18.606	-0.074	-0.047
-657.916	124.929	0.191	-0.245
-656.901	407.328	-0.017	-0.036
-655.886	12.971	0.040	0.031
-654.872	81.964	0.192	-0.212
-653.857	-87.970	0.105	-0.032
-652.843	88.972	-0.059	-0.067
-651.828	800.000	-0.033	-0.132
-650.814	627.866	0.043	0.110
-649.799	19.553	-0.281	-0.231
-648.784	-200.000	0.003	0.311
-647.770	265.390	-0.085	-0.151
-646.755	-200.000	0.019	0.242
-645.741	81.062	0.120	-0.132
-644.726	236.823	0.158	-0.267
-643.711	-200.000	0.006	0.069
-642.697	-200.000	-0.011	0.058
-641.682	-6.721	0.154	0.107
-640.668	-53.621	-0.214	0.100
-639.653	145.658	0.066	-0.090
-638.638	-26.816	-0.181	-0.108
-637.624	-52.462	0.437	0.206
-636.609	177.898	-0.063	0.093
-635.595	195.128	-0.012	0.019
-634.580	-140.762	0.156	-0.016
-633.565	76.761	0.147	-0.159
-632.551	28.988	0.293	-0.253
-631.536	-141.924	0.344	0.035
-630.522	-200.000	-0.022	-0.141
-629.507	440.392	0.055	0.121
-628.492	-114.127	0.343	-0.068
-627.478	800.000	-0.035	-0.116
-626.463	-69.428	0.089	0.035
-625.449	1.493	-0.314	0.230
-624.434	3.183	-0.403	-0.299
-623.419	-122.314	0.145	-0.024
-622.405	-116.849	-0.531	0.099
-621.390	-69.372	-0.183	-0.072
-620.376	800.000	0.073	-0.217
-619.361	-200.000	0.001	-0.580
-618.346	48.827	0.267	-0.255
-617.332	800.000	0.102	-0.374
-616.317	-112.560	-0.287	0.058
-615.303	-18.243	0.278	-0.177
-614.288	-162.266	-0.337	0.017
-613.273	249.387	-0.151	0.260
-612.259	56.142	-0.122	-0.121
-611.244	29.423	0.067	-0.058
-610.230	41.685	-0.276	-0.254
-609.215	25.752	-0.055	0.047
-608.201	-200.000	-0.028	-0.176
-607.186	-107.684	0.242	0.054
-606.171	-119.682	0.151	-0.026
-605.157	267.664	0.204	0.363
-604.142	107.131	-0.073	0.088
-603.128	608.185	0.073	-0.185
-602.113	-9.145	0.273	0.186
-601.098	-133.474	-0.186	-0.024
-600.084	-69.216	0.344	0.135
-599.069	-200.000	0.028	-0.307
-598.055	21.369	-0.286	0.236
-597.040	369.045	0.133	0.273
-596.025	-16.850	0.136	0.088
-595.011	-49.177	0.319	0.155
-593.996	-92.547	0.203	-0.058
-592.982	800.000	0.068	-0.199
-591.967	-127.775	0.261	-0.038
-590.952	129.874	-0.070	0.091
-589.938	-56.773	-0.232	0.104
-588.923	-13.879	0.108	0.071
-587.909	130.012	-0.227	-0.296
-586.894	-200.000	-0.026	-0.196
-585.879	376.231	-0.147	0.305
-584.865	-200.000	-0.023	0.470
-583.850	-114.135	0.080	0.016
-582.836	-3.590	-0.091	-0.065
-581.821	800.000	0.047	0.177
-580.806	-200.000	0.043	0.241
-579.792	18.730	0.135	-0.110
-578.777	50.569	-0.203	0.195
-577.763	-90.509	0.168	0.049
-576.748	-200.000	0.002	-0.061
-575.733	-200.000	0.012	-0.125
-574.719	15.315	0.195	-0.156
-573.704	108.972	-0.050	-0.061
-572.690	521.839	-0.086	0.205
-571.675	61.850	-0.088	-0.089
-570.661	-100.469	-0.187	-0.047
-569.646	54.289	-0.051	0.050
-568.631	178.305	0.206	0.305
-567.617	273.554	-0.100	-0.180
-566.602	88.621	0.077	-0.087
-565.588	20.811	0.201	-0.165
-564.573	-200.000	0.031	-0.245
-563.558	-200.000	-0.012	0.093
-562.544	131.726	-0.153	0.199
-561.529	-24.095	0.014	-0.008
-560.515	-37.237	-0.337	-0.183
-559.500	-200.000	0.000	-0.041
-558.485	-57.734	0.142	-0.063
-557.471	-38.599	0.086	0.046
-556.456	88.299	-0.304	0.343
-555.442	151.920	0.121	0.167
-554.427	-90.507	0.419	0.123
-553.412	-200.000	0.013	0.200
-552.398	800.000	0.064	-0.234
-551.383	314.690	0.033	-0.064
-550.369	800.000	0.004	-0.014
-549.354	-22.253	0.245	-0.151
-548.339	74.426	-0.110	0.117
-547.325	81.273	0.085	-0.093
-546.310	800.000	0.073	-0.266
-545.296	-36.153	0.088	0.048
-544.281	-40.165	0.082	0.043
-543.266	-200.000	0.007	0.171
-542.252	186.022	-0.181	-0.273
-541.237	38.000	-0.168	0.152
-540.223	377.622	0.104	0.215
-539.208	-200.000	-0.027	-0.384
-538.193	-48.187	0.219	-0.107
-537.179	489.922	-0.074	0.171
-536.164	32.635	-0.115	-0.101
-535.150	36.380	-0.189	-0.169
-534.135	-200.000	-0.338	-0.001
-533.121	-33.705	-0.109	-0.061
-532.106	26.570	0.115	0.098
-531.091	247.564	0.135	0.231
-530.077	-200.000	-0.008	0.212
-529.062	358.013	0.109	0.221
-528.048	-28.149	0.171	0.100
-527.033	-60.456	-0.297	-0.128
-526.018	58.391	-0.112	-0.111
-525.004	53.051	-0.156	0.151
-523.989	-200.000	-0.009	0.204
-522.975	-200.000	0.009	-0.180
-521.960	60.047	-0.082	-0.082
-520.945	-200.000	-0.038	-0.292
-519.931	-119.389	-0.379	0.067
-518.916	-138.595	-0.297	-0.033
-517.902	-88.656	0.221	-0.067
-516.887	142.873	-0.076	0.102
-515.872	-200.000	-0.018	0.116
-514.858	-50.624	0.033	0.016
-513.843	748.621	-0.131	-0.359
-512.829	93.223	0.140	-0.161
-511.814	-200.000	-0.059	0.275
-510.799	132.558	-0.072	0.094
-509.785	27.352	-0.295	-0.252
-508.770	800.000	0.044	-0.131
-507.756	145.495	-0.171	0.232
-506.741	145.560	0.222	-0.302
-505.726	-200.000	0.002	0.140
-504.712	343.376	-0.122	0.242
-503.697	-124.426	0.346	-0.055
-502.683	-200.000	0.026	-0.269
-501.668	13.830	-0.269	-0.212
-500.653	311.620	0.132	0.251
-499.639	-162.038	-0.046	-0.002
-498.624	-86.632	0.135	0.042
-497.610	70.669	0.020	-0.020
-496.595	-146.533	-0.122	0.011
-495.581	-133.934	0.228	0.029
-494.566	38.918	0.124	0.113
-493.551	213.619	-0.091	0.146
-492.537	-200.000	-0.036	-0.482
-491.522	-106.205	-0.101	-0.023
-490.508	-78.103	0.216	0.075
-489.493	-36.915	-0.141	-0.077
-488.478	412.562	-0.042	-0.091
-487.464	-10.406	-0.025	0.016
-486.449	257.473	-0.075	0.131
-485.435	-81.541	-0.498	0.166
-484.420	749.196	0.105	-0.287
-483.405	199.090	-0.275	0.427
-482.391	-149.462	0.287	0.023
-481.376	800.000	-0.027	0.118
-480.362	-152.264	0.242	-0.018
-479.347	800.000	0.038	0.111
-478.332	-86.846	0.252	-0.078
-477.318	105.664	0.058	-0.070
-476.303	800.000	0.116	-0.343
-475.289	-140.158	-0.207	0.022
-474.274	223.798	-0.050	0.081
-473.259	-53.009	-0.186	0.087
-472.245	-5.435	-0.233	0.162
-471.230	-33.736	0.086	0.048
-470.216	-114.777	-0.151	0.029
-469.201	64.838	-0.153	-0.156
-468.186	-200.000	0.049	0.290
-467.172	-33.473	0.104	-0.058
-466.157	-84.920	-0.024	-0.008
-465.143	800.000	-0.115	-0.399
-464.128	-8.958	0.199	0.135
-463.113	427.559	0.026	-0.056
-462.099	-72.596	0.295	-0.110
-461.084	800.000	-0.066	0.224
-460.070	-105.298	-0.039	-0.009
-459.055	-97.611	-0.354	-0.093
-458.040	-104.662	-0.063	0.015
-457.026	340.888	0.103	0.203
-456.011	-200.000	-0.000	-0.126
-454.997	335.349	0.213	0.418
-453.982	800.000	0.062	0.206
-452.968	-39.718	0.233	0.123
-451.953	29.754	-0.319	-0.275
-450.938	-39.310	0.172	0.092
-449.924	-89.747	0.286	-0.085
-448.909	-52.925	-0.335	0.156
-447.895	-139.236	-0.285	-0.031
-446.880	-33.388	0.026	0.015
-445.865	21.793	0.116	0.095
-444.851	304.272	-0.149	-0.279
-443.836	-123.186	0.207	-0.034
-442.822	800.000	0.050	0.152
-441.807	116.831	-0.240	0.298
-440.792	207.991	0.191	-0.301
-439.778	-200.000	0.013	0.087
-438.763	235.570	-0.191	0.319
-437.749	503.868	-0.148	-0.346
-436.734	190.972	-0.158	-0.241
-435.719	-139.281	0.283	-0.031
-434.705	-200.000	-0.026	-0.307
-433.690	-128.030	-0.270	0.039
-432.676	-200.000	0.005	-0.055
-431.661	-200.000	0.070	-0.393
-430.646	-59.875	-0.075	-0.033
-429.632	62.466	-0.350	0.354
-428.617	-54.019	0.178	0.082
-427.603	-0.496	0.180	-0.129
-426.588	-65.957	0.226	-0.091
-425.573	-128.196	-0.140	0.020
-424.559	-13.383	0.170	0.111
-423.544	-118.919	0.485	-0.086
-422.530	-200.000	-0.015	-0.314
-421.515	-10.982	-0.284	0.190
-420.500	325.626	-0.031	-0.061
-419.486	-200.000	0.013	0.166
-418.471	-72.609	-0.056	-0.021
-417.457	-128.964	-0.112	0.016
-416.442	-155.140	0.099	0.007
-415.428	-200.000	-0.007	-0.244
-414.413	-45.678	0.130	-0.065
-413.398	-147.673	0.216	0.018
-412.384	-200.000	-0.069	-0.575
-411.369	-200.000	-0.018	0.092
-410.355	16.421	0.157	-0.125
-409.340	174.401	0.131	0.192
-408.325	-200.000	-0.025	0.277
-407.311	-92.898	0.028	0.008
-406.296	-90.972	0.143	0.041
-405.282	-69.337	-0.173	-0.067
-404.267	-200.000	-0.013	0.092
-403.252	42.808	-0.057	-0.052
-402.238	565.792	0.063	-0.154
-401.223	-168.254	0.040	0.002
-400.209	-64.052	-0.137	-0.056
-399.194	-200.000	-0.011	-0.090
-398.179	-59.989	0.157	0.068
-397.165	800.000	0.051	-0.144
-396.150	-124.913	-0.099	0.015
-395.136	-27.721	0.217	-0.127
-394.121	167.268	0.237	-0.340
-393.106	-200.000	-0.019	-0.121
-392.092	-156.601	-0.393	-0.025
-391.077	24.245	-0.140	-0.117
-390.063	-46.156	-0.261	0.130
-389.048	-25.839	0.015	-0.009
-388.033	-147.881	-0.048	0.004
-387.019	-84.575	0.172	-0.055
-386.004	-121.507	0.088	0.015
-384.990	-51.672	-0.088	-0.041
-383.975	57.473	-0.239	0.236
-382.960	20.290	-0.068	0.055
-381.946	178.132	-0.136	0.200
-380.931	56.206	0.194	-0.190
-379.917	-103.571	0.133	-0.032
-378.902	800.000	0.010	-0.039
-377.888	131.731	-0.137	-0.178
-376.873	-183.330	0.079	-0.001
-375.858	119.127	0.256	-0.320
-374.844	72.671	0.313	-0.330
-373.829	-86.634	-0.191	0.059
-372.815	-169.400	0.306	-0.011
-371.800	-200.000	-0.001	0.166
-370.785	75.410	0.052	0.056
-369.771	-200.000	-0.070	0.373
-368.756	158.047	0.129	0.180
-367.742	-101.623	0.355	0.087
-366.727	393.521	-0.103	0.216
-365.712	96.448	-0.066	0.076
-364.698	-89.404	-0.411	-0.122
-363.683	-153.880	0.132	0.009
-362.669	-200.000	0.014	0.110
-361.654	-200.000	0.011	-0.352
-360.639	-51.522	-0.060	0.028
-359.625	-200.000	-0.039	-0.266
-358.610	0.731	-0.133	0.096
-357.596	-200.000	-0.034	0.292
-356.581	50.643	-0.335	0.320
-355.566	29.614	-0.142	0.122
-354.552	-200.000	0.062	0.283
-353.537	800.000	0.127	0.406
-352.523	-200.000	-0.109	-0.543
-351.508	-175.155	-0.245	0.007
-350.493	800.000	0.025	-0.104
-349.479	800.000	0.136	-0.393
-348.464	-28.393	-0.426	-0.248
-347.450	-170.930	-0.185	-0.006
-346.435	249.504	-0.063	0.107
-345.420	71.083	-0.063	0.065
-344.406	19.276	-0.172	-0.139
-343.391	-18.888	0.270	0.170
-342.377	-200.000	0.008	-0.102
-341.362	483.898	-0.093	0.214
-340.348	110.389	0.211	0.255
-339.333	538.018	-0.067	0.161
-338.318	543.726	-0.062	-0.149
-337.304	800.000	0.059	0.234
-336.289	-200.000	-0.021	0.185
-335.275	74.792	0.130	0.138
-334.260	-139.448	0.554	0.060
-333.245	-200.000	-0.014	-0.095
-332.231	-200.000	-0.006	0.026
-331.216	-78.082	0.269	-0.093
-330.202	366.743	0.160	0.324
-329.187	800.000	0.043	0.187
-328.172	-65.727	-0.228	0.092
-327.158	800.000	0.034	-0.106
-326.143	-42.921	0.392	0.200
-325.129	229.737	-0.005	-0.008
-324.114	-28.341	0.316	-0.184
-323.099	-200.000	-0.030	0.166
-322.085	-41.332	-0.464	0.241
-321.070	-8.732	-0.079	-0.053
-320.056	-29.724	-0.143	0.082
-319.041	769.068	-0.095	0.261
-318.026	-46.511	-0.034	0.017
-317.012	-94.196	0.408	-0.112
-315.997	800.000	-0.121	-0.383
-314.983	-96.186	0.282	0.075
-313.968	169.596	0.140	0.202
-312.953	119.915	0.111	-0.139
-311.939	81.280	-0.180	-0.195
-310.924	800.000	-0.058	-0.176
-309.910	-92.354	0.200	-0.057
-308.895	-11.990	-0.110	0.072
-307.880	-23.038	-0.180	-0.109
-306.866	191.830	-0.199	0.301
-305.851	43.846	0.115	0.106
-304.837	-71.532	-0.170	0.064
-303.822	250.835	-0.032	0.055
-302.807	75.204	-0.188	-0.199
-301.793	287.385	0.091	0.165
-300.778	-200.000	0.034	-0.394
-299.764	-24.706	-0.196	-0.117
-298.749	-17.922	-0.060	0.038
-297.735	281.975	-0.048	0.087
-296.720	-200.000	0.003	-0.035
-295.705	-200.000	0.006	-0.378
-294.691	-191.079	0.329	0.003
-293.676	-91.066	-0.316	-0.091
-292.662	-200.000	0.025	0.114
-291.647	399.351	0.112	0.235
-290.632	-0.732	0.243	0.173
-289.618	-200.000	0.048	0.249
-288.603	46.516	0.333	0.311
-287.589	-5.746	0.271	0.187
-286.574	800.000	0.059	-0.239
-285.559	17.401	-0.069	0.055
-284.545	-23.699	-0.272	-0.164
-283.530	132.585	0.120	-0.156
-282.516	73.180	0.198	0.208
-281.501	-200.000	0.039	0.175
-280.486	113.582	0.055	-0.067
-279.472	-200.000	-0.014	0.213
-278.457	519.724	0.024	-0.057
-277.443	-16.331	0.123	-0.079
-276.428	800.000	-0.044	-0.181
-275.413	59.593	0.278	0.276
-274.399	9.163	0.289	0.219
-273.384	-200.000	-0.001	-0.313
-272.370	-200.000	-0.010	0.103
-271.355	118.583	0.078	-0.097
-270.340	724.518	0.025	-0.067
-269.326	-121.158	-0.482	-0.081
-268.311	18.622	-0.179	-0.144
-267.297	506.407	-0.128	-0.297
-266.282	580.428	0.131	0.322
-265.267	800.000	0.097	-0.374
-264.253	-200.000	-0.009	-0.156
-263.238	-200.000	0.052	0.319
-262.224	532.624	-0.043	-0.103
-261.209	347.587	0.245	-0.484
-260.195	-59.114	0.069	-0.030
-259.180	-38.091	-0.116	0.062
-258.165	300.468	0.090	0.167
-257.151	-114.120	0.077	0.015
-256.136	-26.426	-0.192	0.113
-255.122	-17.069	0.221	0.140
-254.107	379.344	0.192	0.395
-253.092	-200.000	0.005	0.050
-252.078	175.352	0.106	-0.154
-251.063	-200.000	-0.015	-0.198
-250.049	-196.380	-0.393	0.003
-249.034	79.010	-0.111	0.119
-248.019	800.000	-0.083	-0.351
-247.005	-28.796	0.197	-0.114
-245.990	-75.970	0.197	-0.070
-244.976	25.518	0.205	0.171
-243.961	-149.299	0.132	0.011
-242.946	-12.606	-0.236	-0.154
-241.932	-200.000	0.034	-0.180
-240.917	-200.000	0.059	-0.287
-239.903	-75.045	-0.177	-0.063
-238.888	11.802	-0.247	-0.190
-237.873	702.366	0.015	0.040
-236.859	800.000	-0.012	-0.047
-235.844	800.000	0.061	-0.190
-234.830	-134.910	0.216	-0.026
-233.815	-96.309	-0.156	-0.042
-232.800	50.745	-0.137	0.130
-231.786	176.193	0.228	0.332
-230.771	371.630	0.141	0.288
-229.757	-30.068	-0.053	-0.030
-228.742	318.753	-0.010	0.018
-227.727	-38.331	-0.173	-0.092
-226.713	-24.775	-0.280	0.167
-225.698	-41.456	-0.154	-0.079
-224.684	206.523	-0.022	0.034
-223.669	343.038	-0.155	-0.304
-222.655	147.971	-0.101	-0.136
-221.640	-200.000	0.073	-0.503
-220.625	24.818	-0.232	0.192
-219.611	-30.978	0.108	0.061
-218.596	33.217	0.018	-0.015
-217.582	-143.316	0.217	-0.021
-216.567	485.799	-0.099	0.225
-215.552	-200.000	-0.021	-0.180
-214.538	101.359	0.173	-0.201
-213.523	60.726	0.230	0.229
-212.509	350.055	0.079	-0.157
-211.494	-80.888	-0.265	0.088
-210.479	-101.130	-0.098	-0.024
-209.465	-70.168	0.344	-0.131
-208.450	800.000	0.019	0.063
-207.436	-78.601	-0.230	-0.079
-206.421	-68.439	-0.255	0.099
-205.406	800.000	0.093	-0.291
-204.392	-114.900	0.129	0.025
-203.377	-133.742	-0.232	0.029
-202.363	-44.244	0.237	0.119
-201.348	33.484	-0.203	-0.177
-200.333	-38.696	-0.075	0.040
-199.319	150.200	-0.113	0.154
-198.304	800.000	0.098	0.316
-197.290	247.250	-0.212	-0.358
-196.275	-145.320	-0.373	0.034
-195.260	78.293	-0.128	0.137
-194.246	-83.595	0.167	-0.054
-193.231	105.324	-0.161	0.190
-192.217	-200.000	-0.063	0.481
-191.202	-200.000	0.038	-0.240
-190.187	-52.695	-0.420	-0.194
-189.173	-72.071	-0.151	0.056
-188.158	-36.720	-0.069	0.037
-187.144	-138.158	-0.183	0.020
-186.129	58.109	-0.196	0.192
-185.114	-97.594	0.263	-0.068
-184.100	-79.027	0.139	0.047
-183.085	-136.487	-0.152	0.018
-182.071	-200.000	0.010	0.333
-181.056	-200.000	0.060	0.292
-180.042	-124.730	-0.125	0.019
-179.027	-159.964	-0.047	0.003
-178.012	108.655	-0.074	0.088
-176.998	800.000	-0.019	0.068
-175.983	-107.957	-0.063	-0.014
-174.969	-147.304	-0.234	-0.020
-173.954	22.153	0.205	-0.168
-172.939	710.564	0.024	0.063
-171.925	-8.062	-0.072	-0.048
-170.910	-98.375	0.177	0.045
-169.896	-146.235	-0.240	-0.021
-168.881	-29.789	-0.330	0.188
-167.866	800.000	-0.050	0.189
-166.852	133.600	0.256	-0.331
-165.837	800.000	-0.046	-0.144
-164.823	-78.941	-0.083	-0.028
-163.808	186.745	0.071	0.105
-162.793	-188.459	0.176	-0.002
-161.779	-200.000	0.035	0.394
-160.764	-97.951	-0.138	-0.036
-159.750	-25.557	0.169	-0.100
-158.735	25.946	0.120	-0.100
-157.720	800.000	-0.021	0.084
-156.706	218.787	0.163	0.260
-155.691	-110.751	0.065	0.013
-154.677	-200.000	0.023	0.122
-153.662	-200.000	0.030	0.278
-152.647	-143.946	0.317	-0.030
-151.633	-112.667	0.159	-0.032
-150.618	-33.542	0.273	-0.151
-149.604	-17.299	0.093	0.058
-148.589	137.821	0.210	0.275
-147.574	-18.809	-0.175	0.109
-146.560	684.881	-0.075	0.194
-145.545	46.072	-0.035	-0.032
-144.531	188.566	-0.222	-0.332
-143.516	626.620	-0.065	0.164
-142.502	258.396	-0.170	0.293
-141.487	-200.000	-0.030	-0.244
-140.472	-149.022	0.144	-0.012
-139.458	-48.757	0.113	-0.054
-138.443	-200.000	0.003	-0.042
-137.429	-57.732	0.077	-0.034
-136.414	800.000	0.066	-0.216
-135.399	172.437	-0.294	-0.423
-134.385	249.970	-0.031	-0.052
-133.370	800.000	0.112	0.376
-132.356	-15.982	0.227	0.144
-131.341	182.648	-0.225	-0.332
-130.326	36.587	0.126	-0.111
-129.312	62.762	-0.095	-0.095
-128.297	76.218	-0.218	-0.230
-127.283	-200.000	-0.017	0.177
-126.268	194.662	0.399	0.605
-125.253	455.427	-0.126	0.278
-124.239	-26.716	-0.049	-0.029
-123.224	-13.611	-0.135	0.087
-122.210	-80.616	-0.219	-0.073
-121.195	-154.532	-0.079	-0.005
