DTS Sentinel unit serial number:	SN413079Multiplexer serial number:	ORYXHardware model number:	OX4-SRSoftware version number:	ORYX F/W v4.00 Oryx Data Collector v3.7.2.0data status	okinstallation	princeton_trtdifferential loss correction	single-endedforward channel	channel 4reverse channel	N/Adate	2019/09/16time	01:37:34forward acquisition time	60.00reverse acquisition time	0.00gamma	496.2192k internal	0.2322k external	0.2322temperature offset calibration	0.9970default loss term (dB/km)	0.3790temperature slope calibration	1.0000multiplexer offset coefficient	1.0000multiplexer slope coefficient	1.0000fibre end	0.00T internal ref (°C)	27.31T ext. ref 1 (°C)	9.95T ext. ref 2 (°C)	22.19length (m)	temperature (°C)	Stokes	anti-Stokes-747.200	27.472	0.134	-0.114
-746.185	-103.985	-0.259	-0.061
-745.171	208.657	0.009	0.014
-744.156	-200.000	-0.032	0.197
-743.142	-105.861	0.091	0.021
-742.127	30.904	-0.202	0.175
-741.112	-21.185	-0.189	0.117
-740.098	69.303	0.337	0.350
-739.083	350.462	0.049	-0.097
-738.069	-200.000	0.050	0.356
-737.054	-70.800	-0.103	-0.039
-736.039	-172.941	-0.148	-0.005
-735.025	-36.073	0.371	-0.203
-734.010	121.659	-0.249	0.314
-732.996	-37.399	-0.416	-0.224
-731.981	-95.742	-0.062	0.017
-730.966	152.602	-0.199	0.274
-729.952	-156.208	-0.384	0.024
-728.937	-118.211	-0.443	0.080
-727.923	800.000	-0.098	0.300
-726.908	-200.000	-0.023	-0.116
-725.894	-119.730	-0.143	-0.025
-724.879	-200.000	0.032	-0.172
-723.864	41.246	-0.054	-0.049
-722.850	777.091	0.040	0.111
-721.835	-200.000	-0.011	0.270
-720.821	-76.373	0.158	-0.056
-719.806	-61.495	-0.106	-0.045
-718.791	155.741	0.189	-0.263
-717.777	40.673	-0.089	-0.081
-716.762	-53.481	-0.358	-0.165
-715.748	-130.574	-0.218	-0.030
-714.733	800.000	0.029	-0.091
-713.718	-48.469	0.307	0.149
-712.704	92.080	-0.017	-0.019
-711.689	-37.483	0.203	-0.109
-710.675	800.000	-0.095	-0.279
-709.660	-28.647	0.172	-0.100
-708.645	-200.000	-0.035	-0.192
-707.631	649.918	-0.122	0.315
-706.616	33.093	-0.071	0.062
-705.602	64.029	0.058	-0.058
-704.587	-200.000	-0.038	-0.387
-703.572	18.806	0.213	0.172
-702.558	38.278	-0.156	0.140
-701.543	-40.334	-0.044	-0.023
-700.529	-77.977	-0.097	-0.034
-699.514	338.413	0.128	-0.251
-698.499	800.000	0.005	0.021
-697.485	-18.242	-0.199	0.125
-696.470	711.315	-0.124	-0.332
-695.456	47.160	0.266	-0.249
-694.441	110.421	0.021	0.026
-693.426	606.548	-0.125	0.314
-692.412	308.108	0.096	-0.180
-691.397	-200.000	-0.011	-0.175
-690.383	13.238	-0.079	-0.062
-689.368	193.402	-0.152	-0.232
-688.354	-200.000	0.022	-0.303
-687.339	55.230	0.235	-0.229
-686.324	-200.000	0.011	-0.171
-685.310	543.850	0.134	-0.323
-684.295	477.458	-0.119	-0.271
-683.281	264.495	-0.157	-0.276
-682.266	-124.864	0.133	-0.021
-681.251	-58.604	-0.364	0.159
-680.237	37.662	0.149	-0.133
-679.222	112.838	-0.120	0.146
-678.208	450.046	-0.082	0.182
-677.193	800.000	-0.018	0.057
-676.178	359.682	-0.214	0.430
-675.164	276.340	-0.215	-0.384
-674.149	-200.000	0.017	0.203
-673.135	800.000	0.122	-0.365
-672.120	31.824	-0.424	-0.368
-671.105	-93.920	0.046	-0.013
-670.091	-200.000	-0.005	0.083
-669.076	800.000	0.055	-0.236
-668.062	-54.233	-0.035	-0.016
-667.047	-144.359	-0.050	0.005
-666.032	180.428	-0.143	0.212
-665.018	173.137	0.190	-0.276
-664.003	-125.582	-0.073	-0.011
-662.989	564.500	-0.213	-0.520
-661.974	-90.967	-0.175	-0.051
-660.959	74.122	-0.133	-0.140
-659.945	31.502	-0.030	0.026
-658.930	31.064	-0.145	-0.125
-657.916	-24.762	0.253	0.152
-656.901	284.315	-0.201	-0.364
-655.886	-126.850	-0.376	0.056
-654.872	703.743	0.132	0.350
-653.857	-18.582	-0.140	-0.088
-652.843	800.000	0.054	-0.176
-651.828	-132.381	-0.265	-0.034
-650.814	9.909	-0.230	0.175
-649.799	7.485	-0.324	-0.244
-648.784	491.619	0.071	0.163
-647.770	494.030	0.093	-0.215
-646.755	-81.220	0.469	-0.156
-645.741	24.653	0.212	-0.177
-644.726	158.142	-0.167	-0.232
-643.711	-200.000	-0.019	-0.197
-642.697	73.066	-0.170	-0.178
-641.682	-85.304	0.555	0.174
-640.668	-40.348	-0.187	-0.098
-639.653	-40.617	0.131	-0.068
-638.638	-55.840	-0.034	0.015
-637.624	177.730	0.212	0.311
-636.609	800.000	-0.087	-0.257
-635.595	-130.318	-0.089	-0.012
-634.580	-43.766	-0.180	0.091
-633.565	-40.555	0.052	-0.027
-632.551	-200.000	-0.023	-0.214
-631.536	-200.000	-0.014	-0.205
-630.522	170.810	0.060	-0.086
-629.507	-200.000	-0.004	-0.042
-628.492	800.000	-0.053	-0.188
-627.478	-200.000	-0.010	0.075
-626.463	-200.000	-0.012	-0.088
-625.449	800.000	-0.125	0.379
-624.434	-124.094	-0.252	0.040
-623.419	-71.681	-0.090	-0.034
-622.405	-64.652	0.324	-0.132
-621.390	-59.666	0.316	0.136
-620.376	-39.245	0.118	0.063
-619.361	337.110	-0.052	-0.101
-618.346	6.358	-0.114	-0.085
-617.332	26.382	0.079	0.067
-616.317	444.431	0.036	-0.079
-615.303	-55.590	0.115	-0.052
-614.288	-182.510	-0.319	0.006
-613.273	-200.000	-0.026	-0.240
-612.259	-107.018	0.082	-0.018
-611.244	-108.024	0.366	-0.080
-610.230	196.505	-0.119	0.183
-609.215	225.286	0.211	0.344
-608.201	-77.276	0.135	-0.047
-607.186	-190.585	-0.037	0.000
-606.171	-70.810	-0.059	-0.022
-605.157	-140.559	-0.295	0.031
-604.142	46.508	-0.172	0.160
-603.128	-8.226	0.116	0.078
-602.113	593.338	0.069	0.171
-601.098	-5.135	-0.167	-0.115
-600.084	-200.000	-0.042	-0.201
-599.069	50.529	-0.125	0.119
-598.055	800.000	-0.073	0.319
-597.040	-120.395	0.098	-0.017
-596.025	167.788	0.087	-0.124
-595.011	-195.954	-0.195	-0.001
-593.996	-186.620	0.445	0.006
-592.982	-93.291	-0.260	0.072
-591.967	-200.000	-0.023	-0.335
-590.952	84.741	-0.187	-0.205
-589.938	225.174	0.179	-0.291
-588.923	262.693	-0.255	-0.444
-587.909	272.955	-0.267	-0.474
-586.894	30.254	-0.281	-0.241
-585.879	-183.155	0.123	0.002
-584.865	332.232	-0.032	-0.062
-583.850	800.000	0.092	-0.259
-582.836	325.747	0.075	-0.144
-581.821	558.016	0.130	-0.315
-580.806	-200.000	0.007	-0.198
-579.792	-92.858	-0.166	0.046
-578.777	800.000	0.080	0.263
-577.763	-100.668	-0.201	-0.050
-576.748	-200.000	-0.026	0.213
-575.733	-91.991	0.084	-0.024
-574.719	49.492	0.240	-0.227
-573.704	-161.956	-0.245	0.012
-572.690	-93.017	-0.138	0.039
-571.675	-144.058	0.410	-0.039
-570.661	-38.622	0.237	-0.125
-569.646	-82.462	0.181	0.059
-568.631	-142.516	0.067	-0.007
-567.617	-1.958	-0.075	0.053
-566.602	173.463	0.126	0.183
-565.588	-108.692	-0.343	-0.074
-564.573	4.997	-0.032	-0.024
-563.558	-200.000	0.017	-0.292
-562.544	-20.871	0.178	0.110
-561.529	595.922	-0.070	0.173
-560.515	-52.429	0.210	0.097
-559.500	45.668	0.072	-0.066
-558.485	-128.617	0.102	-0.014
-557.471	-47.250	0.258	-0.126
-556.456	131.781	-0.052	-0.067
-555.442	-200.000	0.006	-0.090
-554.427	-103.009	-0.407	0.097
-553.412	800.000	-0.143	0.570
-552.398	800.000	-0.112	0.377
-551.383	-49.791	0.245	0.117
-550.369	-200.000	-0.034	-0.348
-549.354	-78.276	-0.216	0.075
-548.339	147.870	-0.295	-0.398
-547.325	-20.775	0.248	-0.153
-546.310	-118.564	-0.266	0.047
-545.296	-25.763	-0.064	0.038
-544.281	223.828	0.085	0.138
-543.266	-200.000	-0.023	-0.225
-542.252	-92.837	0.121	0.034
-541.237	421.733	-0.133	0.287
-540.223	-61.889	0.221	-0.093
-539.208	-146.628	-0.057	-0.005
-538.193	-7.609	-0.128	0.087
-537.179	-200.000	-0.021	0.134
-536.164	11.978	-0.170	0.131
-535.150	-68.822	0.188	0.073
-534.135	-52.249	0.444	-0.206
-533.121	166.110	-0.214	-0.303
-532.106	800.000	0.016	-0.060
-531.091	-144.007	-0.257	-0.024
-530.077	223.491	0.133	0.214
-529.062	-90.063	-0.060	-0.018
-528.048	-200.000	-0.032	-0.156
-527.033	-78.547	0.228	0.078
-526.018	175.999	0.075	-0.109
-525.004	391.302	-0.054	-0.111
-523.989	-200.000	-0.054	0.333
-522.975	-12.373	0.042	-0.028
-521.960	-123.092	-0.024	-0.004
-520.945	-100.599	-0.195	-0.048
-519.931	411.279	0.066	-0.141
-518.916	120.136	-0.246	0.305
-517.902	-200.000	-0.006	0.185
-516.887	-88.003	-0.226	-0.068
-515.872	-200.000	0.046	-0.216
-514.858	55.627	-0.230	-0.223
-513.843	385.309	0.076	-0.156
-512.829	-58.689	0.275	-0.119
-511.814	166.227	0.149	-0.212
-510.799	71.260	-0.209	-0.217
-509.785	55.797	-0.157	-0.153
-508.770	483.117	-0.100	-0.227
-507.756	81.969	-0.077	0.084
-506.741	-200.000	-0.005	-0.040
-505.726	-153.976	0.397	0.027
-504.712	800.000	0.024	0.083
-503.697	-121.746	-0.450	0.074
-502.683	-11.649	0.252	-0.166
-501.668	401.101	0.145	0.305
-500.653	219.768	-0.156	0.251
-499.639	-94.859	-0.182	-0.049
-498.624	12.055	0.040	-0.031
-497.610	-143.302	-0.185	0.018
-496.595	-200.000	-0.011	0.138
-495.581	21.878	-0.118	-0.097
-494.566	150.162	0.000	0.001
-493.551	-35.694	0.369	-0.200
-492.537	-103.075	0.179	0.042
-491.522	139.250	0.083	0.110
-490.508	0.446	0.132	-0.094
-489.493	-143.822	-0.296	0.028
-488.478	260.519	-0.140	0.242
-487.464	-148.579	-0.248	0.020
-486.449	-157.113	-0.103	-0.006
-485.435	-142.466	-0.281	0.028
-484.420	-200.000	-0.038	0.236
-483.405	4.229	0.136	-0.100
-482.391	-5.017	-0.146	0.101
-481.376	88.241	-0.042	0.046
-480.362	104.627	-0.194	-0.229
-479.347	-60.994	0.269	-0.114
-478.332	-200.000	0.014	-0.170
-477.318	51.444	-0.189	0.179
-476.303	137.652	-0.089	0.116
-475.289	7.652	0.104	-0.078
-474.274	84.858	-0.108	-0.118
-473.259	800.000	-0.102	0.326
-472.245	800.000	-0.025	0.085
-471.230	35.749	-0.196	-0.172
-470.216	616.566	0.096	-0.242
-469.201	-7.165	-0.143	0.097
-468.186	-29.777	0.290	0.165
-467.172	800.000	-0.071	0.249
-466.157	-127.798	0.095	-0.014
-465.143	-51.817	-0.059	0.027
-464.128	127.359	-0.068	0.086
-463.113	-200.000	-0.021	0.194
-462.099	-200.000	-0.036	-0.432
-461.084	751.842	0.041	0.111
-460.070	577.576	-0.062	0.152
-459.055	589.033	-0.057	-0.140
-458.040	112.551	-0.061	0.074
-457.026	800.000	-0.065	0.224
-456.011	100.303	0.099	-0.115
-454.997	49.633	-0.236	0.222
-453.982	216.732	-0.093	0.148
-452.968	4.598	-0.103	0.075
-451.953	-78.684	-0.202	-0.069
-450.938	-97.807	0.334	-0.086
-449.924	-200.000	0.008	0.282
-448.909	58.767	-0.185	-0.181
-447.895	106.709	0.179	-0.212
-446.880	-70.306	0.329	0.125
-445.865	16.871	-0.223	-0.176
-444.851	-200.000	0.040	0.251
-443.836	114.253	-0.183	-0.223
-442.822	114.293	0.047	0.057
-441.807	-200.000	-0.035	0.409
-440.792	800.000	-0.096	0.376
-439.778	212.197	0.092	-0.145
-438.763	-8.312	0.047	0.031
-437.749	-200.000	-0.002	-0.011
-436.734	-200.000	-0.001	-0.221
-435.719	-122.940	0.073	0.012
-434.705	7.336	-0.196	0.146
-433.690	-200.000	0.033	0.564
-432.676	-140.612	0.168	-0.017
-431.661	28.910	-0.142	0.120
-430.646	62.645	0.150	0.149
-429.632	36.716	0.226	-0.199
-428.617	800.000	0.055	-0.196
-427.603	-123.174	0.108	-0.017
-426.588	-104.749	-0.227	0.052
-425.573	67.023	0.216	0.219
-424.559	770.823	0.140	-0.380
-423.544	-62.085	0.188	-0.078
-422.530	216.140	0.092	-0.146
-421.515	312.206	-0.042	0.078
-420.500	-200.000	0.009	-0.131
-419.486	-71.216	-0.250	0.094
-418.471	93.266	0.126	-0.142
-417.457	-200.000	-0.025	-0.436
-416.442	800.000	0.035	0.123
-415.428	123.113	-0.238	0.297
-414.413	534.842	0.137	0.324
-413.398	-129.804	-0.151	-0.021
-412.384	438.899	0.048	-0.104
-411.369	749.119	-0.100	0.268
-410.355	-100.628	-0.194	0.048
-409.340	-200.000	-0.041	0.196
-408.325	657.574	0.139	0.356
-407.311	-200.000	-0.026	0.320
-406.296	-33.262	-0.213	0.118
-405.282	-67.214	-0.127	0.050
-404.267	-56.119	0.350	0.155
-403.252	333.405	0.021	-0.040
-402.238	391.234	-0.105	0.217
-401.223	-160.694	0.110	-0.006
-400.209	-25.286	-0.268	-0.158
-399.194	475.488	0.079	0.179
-398.179	800.000	0.018	0.071
-397.165	737.569	-0.082	-0.220
-396.150	164.021	0.019	0.027
-395.136	800.000	-0.052	0.169
-394.121	-131.920	-0.196	0.025
-393.106	-74.139	0.020	0.007
-392.092	170.881	-0.230	-0.329
-391.077	-126.717	0.161	0.024
-390.063	800.000	0.061	-0.202
-389.048	-79.573	0.072	0.024
-388.033	-111.557	-0.235	0.048
-387.019	-38.587	-0.186	0.098
-386.004	-200.000	-0.015	-0.095
-384.990	302.744	0.079	0.145
-383.975	-200.000	-0.033	-0.337
-382.960	228.709	0.152	-0.247
-381.946	-200.000	0.008	-0.047
-380.931	-200.000	-0.062	-0.273
-379.917	-105.434	0.321	0.073
-378.902	-126.017	0.456	-0.068
-377.888	172.061	0.103	-0.148
-376.873	37.503	-0.132	-0.117
-375.858	-38.787	0.161	-0.085
-374.844	800.000	-0.066	-0.187
-373.829	73.810	0.049	0.051
-372.815	-97.816	0.298	-0.077
-371.800	-73.590	-0.142	-0.052
-370.785	-65.176	0.090	0.036
-369.771	-200.000	0.030	0.181
-368.756	-117.360	-0.344	-0.062
-367.742	-27.138	0.239	0.139
-366.727	473.309	0.190	0.425
-365.712	49.295	-0.338	0.317
-364.698	-53.150	0.185	-0.085
-363.683	-80.129	-0.054	0.018
-362.669	109.144	-0.020	0.024
-361.654	800.000	0.120	-0.349
-360.639	-134.300	-0.142	-0.017
-359.625	167.175	0.110	-0.156
-358.610	333.039	-0.136	0.262
-357.596	800.000	0.082	-0.247
-356.581	404.367	-0.026	0.055
-355.566	-18.399	0.146	-0.091
-354.552	800.000	-0.123	0.363
-353.537	-200.000	-0.027	-0.155
-352.523	409.977	0.063	0.134
-351.508	182.300	-0.167	0.245
-350.493	-129.074	0.146	-0.020
-349.479	297.013	-0.056	-0.103
-348.464	455.795	0.116	0.256
-347.450	162.854	0.139	0.194
-346.435	-72.746	-0.382	-0.140
-345.420	281.156	0.043	-0.077
-344.406	-151.142	0.291	-0.022
-343.391	-74.487	0.253	0.091
-342.377	-107.629	0.536	-0.116
-341.362	-6.089	0.290	0.197
-340.348	21.104	-0.118	0.095
-339.333	-200.000	-0.099	-0.456
-338.318	10.267	0.276	0.209
-337.304	800.000	-0.081	0.233
-336.289	-200.000	-0.001	0.431
-335.275	-200.000	0.047	0.447
-334.260	45.360	0.199	0.182
-333.245	-70.068	-0.196	-0.074
-332.231	800.000	-0.053	-0.198
-331.216	-130.459	0.379	0.051
-330.202	-89.178	0.140	0.041
-329.187	-140.817	-0.102	0.010
-328.172	-99.350	-0.305	-0.077
-327.158	-162.250	0.781	-0.039
-326.143	-200.000	-0.003	0.080
-325.129	800.000	0.054	0.194
-324.114	571.160	0.081	0.195
-323.099	156.576	-0.088	0.120
-322.085	130.615	-0.137	0.175
-321.070	170.050	-0.131	-0.186
-320.056	-200.000	0.009	0.156
-319.041	-176.494	0.216	-0.006
-318.026	800.000	0.115	-0.347
-317.012	-30.358	-0.033	-0.019
-315.997	89.241	0.146	0.161
-314.983	-140.255	0.456	0.047
-313.968	233.701	-0.254	-0.415
-312.953	46.872	-0.231	-0.213
-311.939	-198.258	-0.163	-0.001
-310.924	-88.773	-0.327	-0.097
-309.910	162.026	-0.026	0.037
-308.895	-63.817	-0.068	-0.027
-307.880	-108.237	0.110	0.024
-306.866	-53.718	0.216	-0.098
-305.851	62.901	0.224	-0.222
-304.837	-200.000	-0.041	-0.330
-303.822	-192.446	0.133	-0.001
-302.807	-55.176	-0.226	-0.101
-301.793	71.131	0.084	-0.086
-300.778	210.220	-0.199	0.311
-299.764	-92.449	0.258	0.072
-298.749	800.000	0.054	-0.200
-297.735	75.305	0.176	0.184
-296.720	-200.000	0.048	-0.343
-295.705	-147.810	0.138	-0.011
-294.691	800.000	-0.075	0.217
-293.676	24.207	0.418	0.343
-292.662	-108.572	0.126	0.027
-291.647	-13.304	-0.337	0.217
-290.632	-200.000	-0.022	0.302
-289.618	233.488	0.150	0.244
-288.603	13.658	-0.179	0.138
-287.589	-200.000	0.023	0.206
-286.574	31.540	-0.183	-0.156
-285.559	57.339	-0.126	0.122
-284.545	23.149	-0.147	0.120
-283.530	14.784	-0.159	-0.123
-282.516	-200.000	0.017	0.100
-281.501	-6.686	0.021	0.014
-280.486	-25.180	-0.387	0.227
-279.472	66.825	0.090	0.091
-278.457	39.747	-0.220	0.196
-277.443	800.000	-0.111	-0.323
-276.428	77.167	-0.070	-0.074
-275.413	-160.075	0.171	-0.009
-274.399	111.854	0.125	-0.150
-273.384	-16.043	0.395	0.249
-272.370	347.405	0.171	-0.334
-271.355	-36.957	-0.167	-0.089
-270.340	-200.000	-0.001	0.076
-269.326	14.905	0.213	-0.165
-268.311	-188.844	0.201	-0.002
-267.297	16.204	-0.185	0.144
-266.282	258.609	0.077	-0.131
-265.267	139.748	0.184	-0.241
-264.253	672.852	0.142	0.365
-263.238	-4.424	-0.104	0.072
-262.224	-200.000	0.027	-0.267
-261.209	792.097	-0.112	-0.306
-260.195	-183.591	-0.041	0.001
-259.180	28.816	-0.150	0.126
-258.165	171.740	0.119	-0.169
-257.151	144.299	-0.039	-0.051
-256.136	521.480	-0.005	-0.012
-255.122	-200.000	0.011	0.216
-254.107	-29.949	0.334	0.188
-253.092	-1.696	-0.129	0.090
-252.078	602.776	-0.094	0.232
-251.063	-101.243	0.183	0.044
-250.049	37.226	-0.170	-0.149
-249.034	375.524	-0.037	0.076
-248.019	23.937	0.234	0.191
-247.005	-200.000	-0.000	-0.020
-245.990	36.382	-0.125	-0.109
-244.976	-29.310	0.259	-0.147
-243.961	-99.130	0.404	0.101
-242.946	-6.739	-0.153	0.103
-241.932	199.448	-0.173	0.263
-240.917	118.592	0.210	0.256
-239.903	800.000	-0.037	-0.131
-238.888	-54.688	-0.151	-0.068
-237.873	162.499	0.223	-0.309
-236.859	-200.000	0.040	-0.316
-235.844	800.000	0.077	0.264
-234.830	800.000	0.076	0.265
-233.815	44.246	-0.129	-0.117
-232.800	-141.662	-0.120	-0.012
-231.786	45.999	-0.048	0.044
-230.771	-46.191	-0.244	0.119
-229.757	34.849	-0.300	0.260
-228.742	396.176	0.105	0.217
-227.727	-89.193	0.019	-0.006
-226.713	52.679	-0.104	-0.098
-225.698	430.951	0.165	-0.354
-224.684	435.491	0.037	0.080
-223.669	-78.926	0.187	0.063
-222.655	800.000	-0.072	-0.263
-221.640	444.752	0.050	0.109
-220.625	-132.762	-0.252	-0.032
-219.611	28.315	0.190	-0.159
-218.596	31.881	-0.214	0.183
-217.582	-200.000	-0.064	-0.307
-216.567	-200.000	-0.013	0.157
-215.552	-150.114	-0.131	0.010
-214.538	-0.445	-0.198	-0.139
-213.523	240.922	0.105	0.173
-212.509	30.060	0.112	0.095
-211.494	441.330	-0.188	0.408
-210.479	24.556	0.103	-0.085
-209.465	-200.000	-0.225	-0.001
-208.450	124.711	-0.124	0.154
-207.436	22.826	0.103	0.083
-206.421	-9.436	0.134	0.088
-205.406	-48.681	0.156	-0.074
-204.392	-0.658	0.168	-0.118
-203.377	16.242	-0.362	0.282
-202.363	358.725	0.134	0.264
-201.348	-200.000	-0.088	-0.475
-200.333	-200.000	-0.034	0.217
-199.319	4.422	0.292	0.212
-198.304	354.567	0.103	-0.202
-197.290	55.520	-0.238	-0.228
-196.275	-181.644	0.152	0.003
-195.260	-200.000	-0.030	-0.372
-194.246	-126.389	0.287	-0.042
-193.231	91.845	-0.240	0.267
-192.217	146.098	-0.231	-0.306
-191.202	59.231	-0.218	0.212
-190.187	-200.000	0.010	-0.495
-189.173	800.000	-0.072	0.268
-188.158	285.394	0.123	-0.220
-187.144	-115.015	-0.052	-0.010
-186.129	-200.000	-0.008	-0.166
-185.114	176.444	-0.154	-0.221
-184.100	20.042	0.075	0.059
-183.085	-120.834	-0.255	-0.042
-182.071	-136.094	0.114	-0.013
-181.056	-46.584	0.033	0.016
-180.042	800.000	-0.040	-0.151
-179.027	626.494	-0.047	0.116
-178.012	162.298	-0.041	-0.057
-176.998	-200.000	-0.015	-0.432
-175.983	20.846	0.158	0.126
-174.969	138.148	-0.171	-0.221
-173.954	-143.377	-0.226	-0.021
-172.939	55.071	-0.057	-0.054
-171.925	42.188	-0.344	0.309
-170.910	105.317	0.138	0.160
-169.896	314.030	0.099	-0.184
-168.881	441.608	0.180	0.390
-167.866	-83.700	-0.261	0.082
-166.852	-59.395	0.130	-0.055
-165.837	-27.293	-0.134	0.077
-164.823	-6.985	-0.238	0.160
-163.808	48.916	0.080	-0.074
-162.793	800.000	-0.055	-0.204
-161.779	-118.850	-0.124	-0.022
-160.764	-198.330	0.269	-0.002
-159.750	800.000	-0.061	-0.179
-158.735	-38.645	-0.207	0.108
-157.720	94.709	0.083	-0.093
-156.706	-200.000	0.005	-0.107
-155.691	-142.345	-0.267	-0.026
-154.677	800.000	0.014	-0.051
-153.662	-43.562	-0.116	0.058
-152.647	-42.400	0.094	-0.047
-151.633	-90.967	0.333	0.095
-150.618	226.496	0.048	0.077
-149.604	-132.146	0.082	0.010
-148.589	-104.337	0.111	0.025
-147.574	800.000	-0.012	-0.047
-146.560	2.328	-0.108	0.077
-145.545	161.975	-0.134	-0.185
-144.531	500.013	-0.078	-0.177
-143.516	-92.951	-0.311	-0.086
-142.502	-62.792	-0.246	0.101
-141.487	87.865	0.076	0.083
-140.472	-200.000	0.016	0.160
-139.458	-64.587	0.176	-0.071
-138.443	-188.979	-0.602	-0.007
-137.429	-87.915	0.315	0.093
-136.414	-200.000	0.011	-0.160
-135.399	-163.937	0.438	0.020
-134.385	-68.979	0.115	-0.044
-133.370	-12.338	0.212	0.137
-132.356	562.885	0.076	-0.182
-131.341	-161.107	0.033	-0.002
-130.326	366.266	0.013	-0.026
-129.312	-101.115	-0.168	0.041
-128.297	152.986	0.106	-0.142
-127.283	-200.000	0.016	-0.102
-126.268	451.658	-0.033	0.072
-125.253	17.923	-0.154	-0.121
-124.239	100.441	0.165	0.188
-123.224	-200.000	0.019	-0.095
-122.210	85.104	0.147	0.159
