DTS Sentinel unit serial number:	SN413079Multiplexer serial number:	ORYXHardware model number:	OX4-SRSoftware version number:	ORYX F/W v4.00 Oryx Data Collector v3.7.2.0data status	okinstallation	princeton_trtdifferential loss correction	single-endedforward channel	channel 4reverse channel	N/Adate	2019/09/18time	23:25:35forward acquisition time	60.00reverse acquisition time	0.00gamma	496.2192k internal	0.2334k external	0.2334temperature offset calibration	1.0031default loss term (dB/km)	0.3790temperature slope calibration	1.0000multiplexer offset coefficient	1.0000multiplexer slope coefficient	1.0000fibre end	0.00T internal ref (°C)	23.77T ext. ref 1 (°C)	0.78T ext. ref 2 (°C)	16.79length (m)	temperature (°C)	Stokes	anti-Stokes-747.200	-186.191	-0.048	-0.001
-746.185	-200.000	-0.030	0.144
-745.171	-99.355	-0.231	-0.059
-744.156	685.200	0.054	0.143
-743.142	-12.195	-0.022	-0.014
-742.127	800.000	-0.084	0.265
-741.112	-83.134	0.186	0.060
-740.098	115.450	-0.149	0.183
-739.083	270.969	0.183	0.324
-738.069	-75.337	0.344	0.123
-737.054	-183.417	0.197	0.003
-736.039	-154.811	-0.289	0.019
-735.025	541.365	0.135	-0.323
-734.010	365.128	0.080	-0.161
-732.996	64.749	0.107	0.109
-731.981	271.899	-0.190	-0.336
-730.966	632.475	0.022	0.057
-729.952	107.882	0.140	-0.168
-728.937	-200.000	0.029	-0.310
-727.923	-9.650	-0.152	-0.101
-726.908	-66.870	-0.054	-0.021
-725.894	-141.803	0.173	-0.017
-724.879	541.750	-0.045	-0.108
-723.864	800.000	-0.058	0.205
-722.850	-56.338	-0.156	-0.069
-721.835	-200.000	0.022	-0.196
-720.821	-69.035	-0.112	-0.043
-719.806	147.592	0.324	0.439
-718.791	-200.000	0.003	-0.036
-717.777	800.000	-0.050	-0.192
-716.762	-13.850	-0.286	-0.186
-715.748	-185.224	-0.335	-0.005
-714.733	-69.447	-0.132	0.051
-713.718	1.606	0.352	-0.254
-712.704	-85.066	0.119	0.038
-711.689	-200.000	0.046	-0.204
-710.675	326.302	0.040	-0.077
-709.660	-200.000	0.041	-0.234
-708.645	-200.000	-0.051	-0.234
-707.631	49.371	-0.221	0.209
-706.616	-200.000	-0.011	-0.203
-705.602	41.975	0.097	-0.089
-704.587	96.648	-0.300	-0.345
-703.572	-121.991	-0.394	-0.065
-702.558	170.336	-0.046	0.066
-701.543	201.020	0.389	-0.601
-700.529	-200.000	0.059	-0.276
-699.514	-86.553	0.086	0.026
-698.499	471.431	-0.110	-0.249
-697.485	-99.271	0.146	-0.037
-696.470	800.000	-0.024	-0.076
-695.456	-58.668	0.146	0.063
-694.441	800.000	0.093	0.263
-693.426	625.678	-0.019	-0.049
-692.412	265.265	0.127	-0.223
-691.397	733.099	-0.065	-0.175
-690.383	-51.282	0.070	-0.033
-689.368	-5.040	0.212	-0.146
-688.354	800.000	-0.104	-0.428
-687.339	800.000	0.040	-0.162
-686.324	134.885	0.132	0.172
-685.310	-15.761	-0.349	-0.223
-684.295	53.070	-0.180	-0.173
-683.281	-156.544	0.306	0.019
-682.266	-125.483	-0.151	0.023
-681.251	3.497	0.202	-0.148
-680.237	-138.942	-0.219	0.024
-679.222	124.352	0.183	-0.230
-678.208	-200.000	0.000	-0.019
-677.193	-13.840	0.212	0.137
-676.178	-108.493	-0.426	0.092
-675.164	51.941	-0.265	0.253
-674.149	-52.778	-0.106	-0.049
-673.135	-200.000	0.000	-0.255
-672.120	67.502	0.321	-0.328
-671.105	-65.355	-0.397	0.160
-670.091	-16.706	-0.155	-0.098
-669.076	87.429	0.104	-0.115
-668.062	-15.593	0.168	-0.107
-667.047	64.205	-0.106	-0.106
-666.032	-89.139	0.272	-0.080
-665.018	-169.469	0.270	0.010
-664.003	-23.313	0.245	0.148
-662.989	-200.000	-0.040	0.211
-661.974	-183.626	-0.390	0.007
-660.959	-38.730	-0.263	-0.139
-659.945	-30.839	-0.099	-0.056
-658.930	-200.000	-0.055	-0.256
-657.916	751.693	0.023	0.062
-656.901	108.327	-0.138	-0.165
-655.886	-106.439	-0.188	0.042
-654.872	410.494	-0.099	-0.211
-653.857	-200.000	-0.038	-0.185
-652.843	-200.000	-0.027	0.255
-651.828	175.350	-0.091	0.131
-650.814	28.686	-0.465	-0.394
-649.799	76.653	0.157	0.167
-648.784	-39.953	-0.304	0.159
-647.770	14.785	-0.346	-0.271
-646.755	-105.902	-0.249	0.056
-645.741	11.707	0.058	0.044
-644.726	-200.000	-0.001	-0.037
-643.711	-153.930	-0.239	0.016
-642.697	120.112	-0.169	0.210
-641.682	68.613	-0.075	0.077
-640.668	-28.029	0.213	-0.123
-639.653	-16.744	0.374	0.237
-638.638	586.629	-0.036	0.088
-637.624	69.307	-0.202	0.208
-636.609	800.000	0.115	0.366
-635.595	800.000	-0.108	0.350
-634.580	-200.000	0.015	-0.096
-633.565	19.220	-0.331	0.266
-632.551	-144.970	0.086	-0.008
-631.536	303.786	-0.005	0.010
-630.522	-78.152	0.104	-0.036
-629.507	117.691	-0.146	-0.180
-628.492	800.000	0.091	0.350
-627.478	8.037	-0.288	-0.216
-626.463	-152.883	0.418	0.030
-625.449	-162.267	-0.311	-0.016
-624.434	-98.896	0.215	-0.055
-623.419	-82.990	-0.104	0.034
-622.405	-22.440	-0.322	-0.195
-621.390	800.000	0.101	-0.378
-620.376	75.522	-0.278	-0.294
-619.361	-200.000	0.018	0.088
-618.346	274.674	0.090	0.159
-617.332	800.000	0.079	-0.260
-616.317	800.000	-0.091	-0.396
-615.303	71.278	-0.212	0.220
-614.288	505.621	-0.027	-0.063
-613.273	41.693	-0.328	-0.297
-612.259	591.010	-0.104	-0.258
-611.244	-133.758	0.486	-0.061
-610.230	-200.000	0.000	-0.382
-609.215	-161.571	-0.499	-0.026
-608.201	82.131	-0.115	-0.125
-607.186	800.000	0.086	-0.244
-606.171	145.924	0.136	0.183
-605.157	162.579	0.062	-0.087
-604.142	-200.000	0.025	0.168
-603.128	161.281	-0.143	-0.200
-602.113	-153.066	-0.326	0.023
-601.098	800.000	-0.124	0.434
-600.084	276.672	0.032	0.058
-599.069	693.676	-0.066	-0.172
-598.055	9.538	0.363	-0.275
-597.040	-63.222	-0.121	-0.050
-596.025	594.566	0.060	-0.148
-595.011	800.000	-0.050	-0.145
-593.996	13.549	-0.056	-0.043
-592.982	-200.000	-0.004	0.192
-591.967	-12.520	-0.102	0.067
-590.952	242.768	-0.050	0.084
-589.938	370.898	0.235	0.475
-588.923	-56.781	-0.275	-0.122
-587.909	-21.006	-0.299	0.183
-586.894	231.542	-0.127	-0.207
-585.879	800.000	0.092	-0.267
-584.865	800.000	-0.064	0.186
-583.850	-200.000	-0.047	0.232
-582.836	-200.000	0.003	-0.176
-581.821	-23.210	0.047	-0.028
-580.806	435.822	-0.104	-0.226
-579.792	-200.000	0.003	-0.186
-578.777	61.321	0.268	-0.266
-577.763	-194.154	-0.131	-0.001
-576.748	-123.380	-0.221	0.035
-575.733	411.859	-0.142	0.302
-574.719	-128.482	-0.396	0.056
-573.704	2.076	0.130	-0.094
-572.690	-83.446	0.259	0.083
-571.675	6.943	-0.196	-0.146
-570.661	712.870	-0.121	0.319
-569.646	-29.574	0.247	-0.141
-568.631	250.430	0.144	0.245
-567.617	45.284	-0.093	-0.086
-566.602	-200.000	-0.031	0.227
-565.588	800.000	0.075	-0.244
-564.573	-14.333	0.107	-0.069
-563.558	-154.526	-0.093	0.006
-562.544	270.386	0.093	-0.162
-561.529	-200.000	0.052	-0.350
-560.515	-114.662	-0.077	0.015
-559.500	257.953	0.019	-0.032
-558.485	800.000	0.116	0.333
-557.471	146.150	-0.048	-0.065
-556.456	101.667	0.061	0.071
-555.442	208.057	-0.165	-0.258
-554.427	-18.634	-0.320	0.199
-553.412	-26.184	0.211	0.124
-552.398	4.877	-0.241	-0.177
-551.383	-176.075	-0.030	-0.001
-550.369	-200.000	-0.023	0.126
-549.354	7.327	0.184	0.137
-548.339	-2.670	0.090	-0.063
-547.325	800.000	-0.062	-0.197
-546.310	-71.409	0.185	0.069
-545.296	47.160	0.066	0.062
-544.281	474.774	0.029	0.066
-543.266	-94.290	0.398	0.109
-542.252	160.175	-0.162	-0.226
-541.237	-73.430	-0.099	-0.036
-540.223	248.279	-0.096	-0.162
-539.208	-145.585	-0.498	-0.045
-538.193	-30.311	0.192	-0.109
-537.179	-200.000	0.030	0.283
-536.164	-9.594	0.077	0.051
-535.150	59.318	-0.180	-0.176
-534.135	-80.087	0.185	0.062
-533.121	13.288	0.169	-0.130
-532.106	-4.578	0.306	-0.211
-531.091	-99.365	0.118	-0.030
-530.077	-60.165	-0.204	-0.087
-529.062	59.109	0.322	-0.315
-528.048	-200.000	0.035	0.174
-527.033	782.248	-0.047	0.129
-526.018	-91.723	0.215	0.061
-525.004	-200.000	0.029	0.220
-523.989	-104.418	-0.219	0.051
-522.975	290.102	0.041	0.075
-521.960	134.044	-0.094	0.121
-520.945	-200.000	0.075	0.376
-519.931	-123.886	0.178	-0.028
-518.916	83.098	0.282	0.305
-517.902	-43.698	-0.526	0.264
-516.887	-86.135	-0.043	-0.013
-515.872	55.743	0.232	0.224
-514.858	751.021	0.063	0.170
-513.843	-119.340	0.392	-0.068
-512.829	-100.997	0.257	0.063
-511.814	-200.000	-0.031	-0.290
-510.799	177.537	0.097	-0.141
-509.785	-14.367	0.145	-0.093
-508.770	-200.000	-0.004	0.154
-507.756	-48.326	-0.209	0.100
-506.741	-200.000	-0.011	0.375
-505.726	-200.000	0.023	0.370
-504.712	-200.000	0.064	0.374
-503.697	-75.063	0.103	-0.037
-502.683	-96.956	-0.263	-0.069
-501.668	421.753	-0.080	-0.171
-500.653	-70.018	0.198	-0.075
-499.639	800.000	0.026	0.078
-498.624	-17.180	0.011	0.007
-497.610	-78.262	-0.122	0.042
-496.595	244.936	-0.076	0.127
-495.581	511.226	-0.077	-0.179
-494.566	-142.357	0.148	-0.015
-493.551	-200.000	0.027	-0.306
-492.537	-56.633	-0.220	0.097
-491.522	262.535	0.086	-0.148
-490.508	-192.628	-0.359	-0.003
-489.493	800.000	0.043	-0.119
-488.478	-200.000	-0.008	-0.225
-487.464	800.000	-0.057	0.202
-486.449	800.000	-0.064	-0.179
-485.435	-200.000	0.019	-0.102
-484.420	-148.918	-0.465	0.037
-483.405	-164.354	0.097	-0.004
-482.391	122.564	-0.071	-0.088
-481.376	800.000	0.067	0.213
-480.362	69.506	0.289	-0.296
-479.347	38.801	-0.219	-0.194
-478.332	800.000	-0.036	-0.155
-477.318	43.439	0.272	-0.247
-476.303	-111.045	0.089	-0.018
-475.289	-5.550	-0.298	-0.203
-474.274	80.898	-0.098	-0.105
-473.259	-14.259	0.123	0.079
-472.245	-200.000	-0.018	0.200
-471.230	483.941	-0.058	-0.132
-470.216	800.000	0.005	0.016
-469.201	-43.349	0.404	-0.203
-468.186	200.102	0.229	0.350
-467.172	259.061	0.086	0.148
-466.157	-119.034	0.168	0.029
-465.143	31.867	-0.135	0.116
-464.128	-97.197	0.414	-0.107
-463.113	12.208	0.272	0.208
-462.099	-132.485	-0.548	0.070
-461.084	-80.878	0.278	-0.092
-460.070	800.000	0.052	0.170
-459.055	-200.000	0.006	0.031
-458.040	34.041	0.232	-0.201
-457.026	-25.338	-0.157	0.092
-456.011	-200.000	-0.023	-0.234
-454.997	-200.000	0.054	-0.310
-453.982	-200.000	0.007	-0.049
-452.968	747.597	0.077	-0.206
-451.953	800.000	0.077	-0.262
-450.938	-19.119	0.205	-0.126
-449.924	361.510	0.111	0.222
-448.909	274.649	-0.060	0.105
-447.895	800.000	-0.057	-0.207
-446.880	-85.119	-0.044	0.014
-445.865	-164.019	0.104	-0.005
-444.851	148.414	-0.177	-0.237
-443.836	-27.014	-0.300	0.174
-442.822	513.298	-0.050	0.115
-441.807	-151.729	0.163	-0.012
-440.792	-200.000	0.022	-0.242
-439.778	47.498	0.153	-0.142
-438.763	-200.000	0.023	0.142
-437.749	-40.996	-0.220	0.113
-436.734	-71.171	0.120	0.045
-435.719	-93.569	-0.215	-0.059
-434.705	-21.965	0.147	0.089
-433.690	800.000	-0.070	-0.244
-432.676	800.000	0.095	-0.330
-431.661	-44.191	-0.292	0.146
-430.646	-42.922	0.150	-0.075
-429.632	-80.766	-0.338	0.112
-428.617	260.263	-0.099	0.170
-427.603	-25.331	0.196	0.115
-426.588	-200.000	-0.024	0.137
-425.573	-200.000	-0.031	0.394
-424.559	271.785	0.056	-0.097
-423.544	333.356	0.082	-0.156
-422.530	21.936	-0.108	0.088
-421.515	76.388	0.361	-0.379
-420.500	305.279	-0.087	0.160
-419.486	800.000	-0.124	-0.378
-418.471	369.685	-0.056	-0.112
-417.457	800.000	0.042	-0.164
-416.442	-62.575	-0.118	-0.049
-415.428	-200.000	-0.051	0.290
-414.413	84.772	0.414	-0.450
-413.398	-72.934	-0.394	-0.144
-412.384	-200.000	-0.002	-0.098
-411.369	-121.989	-0.234	0.038
-410.355	179.987	-0.183	0.266
-409.340	272.446	-0.167	0.293
-408.325	-200.000	-0.013	0.259
-407.311	-34.914	-0.155	0.084
-406.296	-84.631	0.099	0.031
-405.282	420.165	-0.066	-0.139
-404.267	82.872	0.143	-0.154
-403.252	596.694	0.088	0.217
-402.238	-105.494	0.116	-0.026
-401.223	409.209	0.025	0.053
-400.209	357.244	-0.219	0.432
-399.194	-13.386	-0.192	0.123
-398.179	-87.741	0.224	-0.067
-397.165	-20.038	-0.151	0.092
-396.150	-103.753	0.266	0.062
-395.136	226.485	0.192	-0.309
-394.121	3.704	-0.031	0.022
-393.106	274.359	0.065	-0.114
-392.092	113.249	-0.226	-0.272
-391.077	290.389	0.124	0.224
-390.063	25.120	0.128	-0.105
-389.048	200.729	0.064	-0.097
-388.033	-200.000	0.008	0.165
-387.019	730.979	-0.118	-0.313
-386.004	440.323	0.089	0.192
-384.990	149.643	-0.088	0.118
-383.975	23.488	0.084	0.068
-382.960	13.750	0.141	0.108
-381.946	550.812	0.078	-0.185
-380.931	-70.359	0.099	0.037
-379.917	12.845	0.197	-0.151
-378.902	213.674	0.062	-0.097
-377.888	-172.889	0.175	0.005
-376.873	-200.000	-0.012	-0.074
-375.858	-69.171	0.236	-0.090
-374.844	-90.309	0.059	0.017
-373.829	-92.268	-0.132	0.037
-372.815	800.000	-0.066	-0.189
-371.800	-30.127	-0.157	-0.088
-370.785	-30.913	-0.297	0.166
-369.771	86.279	-0.050	0.054
-368.756	-130.865	-0.086	-0.011
-367.742	-127.438	0.540	-0.078
-366.727	-85.207	0.128	0.040
-365.712	-44.259	0.123	-0.061
-364.698	13.653	0.173	-0.133
-363.683	-192.742	-0.331	0.003
-362.669	-200.000	0.038	0.179
-361.654	459.788	-0.172	0.380
-360.639	110.739	0.105	0.126
-359.625	-83.070	0.140	-0.045
-358.610	-97.198	0.118	0.030
-357.596	11.268	-0.086	-0.065
-356.581	45.621	0.221	0.202
-355.566	21.190	-0.221	-0.178
-354.552	-43.892	-0.279	-0.139
-353.537	-90.191	-0.174	0.050
-352.523	800.000	0.080	0.240
-351.508	-94.068	-0.270	-0.073
-350.493	-28.808	0.107	-0.061
-349.479	800.000	0.082	0.274
-348.464	-200.000	0.004	-0.113
-347.450	-139.216	-0.106	0.011
-346.435	-200.000	-0.028	0.216
-345.420	-3.673	-0.065	0.045
-344.406	-136.679	-0.233	0.027
-343.391	-200.000	-0.000	-0.079
-342.377	133.139	-0.141	-0.181
-341.362	-80.704	0.194	-0.064
-340.348	-17.213	-0.218	-0.136
-339.333	-57.295	0.300	0.131
-338.318	800.000	-0.048	-0.156
-337.304	595.842	0.126	-0.309
-336.289	-106.637	-0.134	-0.030
-335.275	-200.000	0.038	-0.191
-334.260	-121.936	-0.319	-0.052
-333.245	-59.745	-0.303	0.128
-332.231	136.714	0.138	-0.178
-331.216	-200.000	-0.015	0.247
-330.202	-19.450	0.384	-0.235
-329.187	-200.000	-0.037	0.308
-328.172	-1.651	-0.200	-0.140
-327.158	-200.000	-0.107	0.526
-326.143	800.000	0.024	0.093
-325.129	800.000	-0.009	-0.034
-324.114	414.958	-0.078	-0.165
-323.099	-172.748	0.183	0.006
-322.085	-200.000	-0.009	-0.086
-321.070	-90.647	0.040	0.011
-320.056	-200.000	0.016	-0.083
-319.041	332.765	0.112	-0.213
-318.026	-57.815	0.164	-0.071
-317.012	-200.000	-0.024	0.233
-315.997	298.643	0.070	-0.127
-314.983	-59.039	-0.219	0.094
-313.968	155.927	-0.146	0.199
-312.953	-42.840	-0.170	0.085
-311.939	-89.793	0.095	0.027
-310.924	109.417	0.125	-0.148
-309.910	800.000	0.036	-0.122
-308.895	599.430	0.171	-0.419
-307.880	-59.539	-0.211	-0.089
-306.866	-108.999	0.438	-0.092
-305.851	190.043	0.084	-0.124
-304.837	125.706	0.245	0.305
-303.822	252.942	0.139	0.234
-302.807	-26.391	0.381	-0.221
-301.793	-143.386	0.139	0.013
-300.778	-124.286	-0.202	0.031
-299.764	-1.762	-0.093	0.065
-298.749	-19.316	0.284	0.174
-297.735	175.848	-0.156	-0.224
-296.720	-53.998	0.210	0.095
-295.705	146.682	-0.089	0.118
-294.691	196.617	0.038	-0.057
-293.676	-153.193	-0.177	0.012
-292.662	278.333	-0.096	0.168
-291.647	-128.464	0.108	0.015
-290.632	101.753	-0.124	-0.143
-289.618	-200.000	-0.007	-0.219
-288.603	430.415	-0.200	0.428
-287.589	-106.001	-0.182	-0.040
-286.574	128.836	0.109	0.138
-285.559	-114.535	0.090	0.017
-284.545	-200.000	0.006	-0.141
-283.530	-200.000	-0.052	-0.315
-282.516	-200.000	0.060	-0.266
-281.501	386.318	-0.070	-0.144
-280.486	-19.470	0.018	0.011
-279.472	763.403	-0.033	0.087
-278.457	-5.187	-0.092	0.062
-277.443	-200.000	0.013	0.214
-276.428	-67.977	0.357	0.137
-275.413	800.000	-0.020	-0.069
-274.399	800.000	-0.096	-0.270
-273.384	-128.907	-0.079	0.011
-272.370	-15.053	0.343	0.217
-271.355	513.974	0.067	0.154
-270.340	-123.141	0.197	-0.031
-269.326	-199.704	-0.052	0.000
-268.311	49.910	-0.144	0.134
-267.297	-39.693	0.188	-0.097
-266.282	-34.793	0.091	0.049
-265.267	103.368	-0.113	-0.131
-264.253	800.000	-0.073	-0.246
-263.238	-200.000	-0.024	-0.239
-262.224	132.009	0.079	-0.100
-261.209	-27.938	-0.193	0.110
-260.195	191.158	0.171	0.254
-259.180	446.866	0.088	0.190
-258.165	-83.523	0.217	-0.069
-257.151	24.055	-0.136	-0.111
-256.136	-200.000	-0.030	0.140
-255.122	186.429	-0.114	0.167
-254.107	-82.774	-0.256	-0.082
-253.092	-171.751	-0.061	-0.002
-252.078	800.000	-0.021	-0.079
-251.063	174.580	0.131	0.187
-250.049	-200.000	0.028	-0.154
-249.034	-200.000	-0.049	0.235
-248.019	-64.750	0.213	-0.085
-247.005	43.144	0.208	-0.187
-245.990	353.847	0.245	0.480
-244.976	-154.745	-0.126	0.008
-243.961	-43.092	0.334	0.167
-242.946	154.434	0.089	0.121
-241.932	-200.000	-0.020	-0.166
-240.917	33.190	0.083	-0.071
-239.903	110.280	-0.134	-0.159
-238.888	-180.519	0.115	0.002
-237.873	800.000	0.065	-0.226
-236.859	-124.694	0.089	-0.014
-235.844	800.000	-0.094	0.316
-234.830	-81.891	0.213	-0.069
-233.815	-123.506	0.341	-0.053
-232.800	136.437	0.315	-0.404
-231.786	800.000	0.036	-0.131
-230.771	-88.203	-0.071	-0.021
-229.757	-75.732	-0.377	-0.132
-228.742	541.912	0.166	0.390
-227.727	-162.877	-0.112	0.005
-226.713	-51.721	-0.160	0.073
-225.698	743.594	-0.019	-0.049
-224.684	229.920	0.070	-0.113
-223.669	2.705	-0.353	-0.252
-222.655	162.195	0.152	0.210
-221.640	94.143	-0.075	-0.083
-220.625	573.669	-0.086	-0.206
-219.611	-119.199	-0.182	-0.031
-218.596	-96.175	-0.219	0.057
-217.582	-142.665	-0.354	-0.034
-216.567	429.595	-0.076	-0.161
-215.552	-124.921	0.376	0.057
-214.538	-185.207	-0.381	-0.006
-213.523	204.250	-0.118	-0.180
-212.509	-9.277	0.218	-0.144
-211.494	-200.000	-0.028	-0.143
-210.479	-84.452	-0.432	-0.134
-209.465	-200.000	-0.033	0.208
-208.450	-104.472	0.182	0.041
-207.436	175.212	0.157	0.223
-206.421	163.084	-0.043	-0.060
-205.406	-200.000	0.061	0.278
-204.392	80.195	0.064	-0.068
-203.377	13.163	-0.143	-0.109
-202.363	-118.066	0.207	0.036
-201.348	21.762	-0.192	-0.154
-200.333	445.818	0.043	0.093
-199.319	641.107	-0.074	0.186
-198.304	130.230	0.168	0.211
-197.290	-92.380	-0.072	-0.020
-196.275	-127.338	-0.162	0.023
-195.260	43.247	-0.176	-0.158
-194.246	-143.366	-0.142	-0.013
-193.231	83.765	-0.281	0.301
-192.217	800.000	0.143	0.455
-191.202	-200.000	-0.035	0.171
-190.187	-200.000	0.000	0.338
-189.173	124.653	-0.132	0.163
-188.158	-126.288	0.109	-0.016
-187.144	58.890	-0.232	-0.224
-186.129	-86.308	0.289	-0.087
-185.114	-155.905	0.153	-0.010
-184.100	-17.385	-0.223	0.138
-183.085	-200.000	-0.029	0.232
-182.071	482.829	0.119	-0.266
-181.056	-109.913	0.231	-0.048
-180.042	99.382	-0.144	0.163
-179.027	800.000	0.094	0.318
-178.012	455.172	-0.045	0.098
-176.998	31.409	0.105	-0.089
-175.983	289.190	0.033	-0.059
-174.969	-90.044	-0.059	0.017
-173.954	78.585	0.080	-0.084
-172.939	117.914	0.029	-0.035
-171.925	-200.000	-0.001	0.079
-170.910	28.686	-0.198	0.165
-169.896	-200.000	0.020	0.095
-168.881	-91.429	-0.124	0.035
-167.866	-177.326	0.148	-0.004
-166.852	710.332	0.156	-0.406
-165.837	-45.723	-0.389	0.189
-164.823	-55.093	0.218	-0.096
-163.808	-7.021	0.321	-0.214
-162.793	348.066	0.094	-0.181
-161.779	787.389	0.144	0.389
-160.764	-135.140	-0.275	0.032
-159.750	258.727	0.094	0.160
-158.735	138.820	-0.061	0.079
-157.720	-1.823	0.190	0.131
-156.706	-56.266	-0.266	-0.116
-155.691	-19.636	0.213	0.129
-154.677	-200.000	0.002	0.263
-153.662	-112.502	0.225	0.044
-152.647	-200.000	-0.002	-0.150
-151.633	-200.000	0.006	0.048
-150.618	131.259	0.143	-0.181
-149.604	23.162	0.216	0.174
-148.589	-200.000	0.034	0.184
-147.574	-200.000	0.029	0.218
-146.560	800.000	-0.095	0.316
-145.545	-200.000	-0.007	0.052
-144.531	39.638	-0.064	0.056
-143.516	-113.063	-0.189	0.037
-142.502	32.266	-0.328	-0.278
-141.487	92.983	-0.118	-0.131
-140.472	-40.115	-0.135	0.069
-139.458	198.551	0.028	-0.043
-138.443	138.059	0.092	0.118
-137.429	327.384	0.119	-0.224
-136.414	-62.247	0.139	-0.057
-135.399	800.000	0.114	0.331
-134.385	732.454	-0.137	-0.359
-133.370	-125.465	0.216	0.032
-132.356	-28.940	-0.306	0.173
-131.341	-124.909	0.158	0.024
-130.326	609.401	0.175	0.429
-129.312	800.000	-0.095	0.313
-128.297	800.000	-0.057	-0.216
-127.283	1.237	0.286	-0.202
-126.268	-163.578	-0.101	-0.005
-125.253	111.459	-0.190	-0.224
-124.239	144.082	0.164	-0.215
-123.224	-43.429	-0.538	-0.267
-122.210	50.548	0.076	0.071
