DTS Sentinel unit serial number:	SN413079Multiplexer serial number:	ORYXHardware model number:	OX4-SRSoftware version number:	ORYX F/W v4.00 Oryx Data Collector v3.7.2.0data status	okinstallation	princeton_trtdifferential loss correction	single-endedforward channel	channel 4reverse channel	N/Adate	2019/09/15time	04:21:34forward acquisition time	60.00reverse acquisition time	0.00gamma	496.2192k internal	0.2310k external	0.2310temperature offset calibration	1.0029default loss term (dB/km)	0.3790temperature slope calibration	1.0000multiplexer offset coefficient	1.0000multiplexer slope coefficient	1.0000fibre end	0.00T internal ref (°C)	30.89T ext. ref 1 (°C)	4.62T ext. ref 2 (°C)	25.63length (m)	temperature (°C)	Stokes	anti-Stokes-747.200	-56.975	0.060	-0.027
-746.185	800.000	-0.088	0.322
-745.171	-139.584	0.251	-0.027
-744.156	-200.000	-0.008	0.408
-743.142	127.085	0.180	-0.232
-742.127	-89.246	-0.332	-0.099
-741.112	167.081	0.200	-0.288
-740.098	-121.822	-0.116	0.019
-739.083	209.271	-0.089	0.142
-738.069	-70.851	-0.214	0.082
-737.054	800.000	-0.073	-0.282
-736.039	-38.500	-0.220	-0.118
-735.025	55.568	0.038	0.037
-734.010	-156.935	-0.135	0.008
-732.996	-162.904	-0.206	0.010
-731.981	185.490	0.135	0.203
-730.966	-49.067	0.083	-0.040
-729.952	-102.017	-0.238	-0.058
-728.937	74.731	-0.094	-0.100
-727.923	255.761	-0.063	-0.110
-726.908	130.167	-0.147	-0.191
-725.894	-144.932	0.040	0.004
-724.879	-200.000	-0.009	-0.095
-723.864	-136.697	-0.314	-0.037
-722.850	69.297	0.160	0.168
-721.835	25.570	-0.194	0.164
-720.821	335.006	-0.074	0.146
-719.806	800.000	-0.068	0.219
-718.791	-92.881	0.098	-0.028
-717.777	-200.000	0.020	-0.288
-716.762	375.016	0.204	-0.421
-715.748	373.116	0.207	-0.426
-714.733	-103.283	-0.218	0.052
-713.718	-200.000	0.027	0.203
-712.704	266.606	0.076	0.135
-711.689	276.666	0.096	0.173
-710.675	-123.278	0.142	-0.023
-709.660	-200.000	-0.040	0.250
-708.645	-21.789	-0.231	0.142
-707.631	55.579	-0.191	-0.188
-706.616	-200.000	0.038	-0.311
-705.602	-79.263	-0.093	-0.032
-704.587	312.904	0.187	-0.356
-703.572	-200.000	0.028	-0.208
-702.558	-147.925	-0.185	0.016
-701.543	272.814	0.081	-0.145
-700.529	-200.000	0.035	0.301
-699.514	-53.407	0.078	0.036
-698.499	-31.876	-0.156	-0.089
-697.485	399.775	0.103	0.219
-696.470	-2.697	0.219	-0.156
-695.456	-42.047	-0.276	-0.143
-694.441	48.403	-0.142	-0.135
-693.426	593.770	-0.084	0.210
-692.412	17.463	0.257	-0.207
-691.397	800.000	-0.128	-0.390
-690.383	-185.043	-0.247	0.004
-689.368	132.927	0.181	0.237
-688.354	204.442	-0.071	-0.112
-687.339	-130.864	-0.233	0.032
-686.324	25.877	-0.100	0.084
-685.310	-79.640	-0.117	0.040
-684.295	5.811	0.271	-0.203
-683.281	800.000	-0.050	0.203
-682.266	-200.000	-0.007	-0.077
-681.251	675.133	-0.062	0.163
-680.237	-137.927	-0.016	-0.002
-679.222	52.468	-0.261	-0.252
-678.208	175.020	0.223	-0.328
-677.193	-42.767	-0.056	0.029
-676.178	88.584	-0.168	-0.189
-675.164	-200.000	-0.003	-0.210
-674.149	-200.000	0.043	-0.207
-673.135	263.647	-0.162	-0.286
-672.120	146.718	-0.097	-0.132
-671.105	2.183	-0.316	0.232
-670.091	-59.500	-0.128	-0.056
-669.076	-200.000	-0.028	-0.492
-668.062	-146.877	0.326	0.028
-667.047	-11.181	-0.082	-0.055
-666.032	135.880	0.023	0.030
-665.018	109.730	0.082	0.100
-664.003	285.045	-0.073	-0.133
-662.989	-119.454	-0.153	0.027
-661.974	800.000	-0.048	-0.153
-660.959	578.811	-0.015	-0.036
-659.945	410.652	-0.067	0.143
-658.930	-18.998	0.155	0.097
-657.916	204.862	-0.300	-0.471
-656.901	315.768	0.048	-0.092
-655.886	3.867	0.189	0.139
-654.872	12.026	0.150	-0.116
-653.857	176.733	0.064	-0.095
-652.843	69.300	-0.248	-0.259
-651.828	189.519	0.192	-0.291
-650.814	277.521	0.142	-0.255
-649.799	-133.503	-0.144	0.018
-648.784	384.830	-0.034	0.070
-647.770	359.246	-0.123	0.250
-646.755	-78.769	-0.102	-0.035
-645.741	109.736	-0.112	0.136
-644.726	642.676	0.014	-0.037
-643.711	-200.000	-0.011	-0.070
-642.697	219.670	-0.076	-0.122
-641.682	-200.000	0.023	-0.154
-640.668	6.996	-0.087	0.066
-639.653	800.000	-0.132	-0.412
-638.638	-200.000	0.006	-0.047
-637.624	293.282	0.067	0.124
-636.609	23.655	-0.134	-0.111
-635.595	22.103	-0.193	-0.160
-634.580	-109.749	-0.240	0.051
-633.565	-125.326	0.232	-0.036
-632.551	-57.542	0.475	0.211
-631.536	-200.000	-0.029	0.220
-630.522	-26.919	-0.164	-0.097
-629.507	-107.557	-0.048	0.011
-628.492	117.640	0.194	-0.242
-627.478	800.000	0.018	-0.066
-626.463	-150.879	-0.295	-0.023
-625.449	-6.901	-0.071	0.049
-624.434	50.512	-0.289	0.276
-623.419	-36.883	0.263	0.143
-622.405	155.730	0.032	0.045
-621.390	800.000	0.068	-0.246
-620.376	-112.803	0.123	-0.025
-619.361	627.404	0.071	0.180
-618.346	153.410	-0.083	0.115
-617.332	78.834	-0.153	-0.166
-616.317	-76.383	0.285	0.101
-615.303	-56.515	0.215	0.097
-614.288	90.089	-0.099	0.112
-613.273	800.000	-0.077	0.265
-612.259	-89.279	0.143	0.043
-611.244	18.765	-0.212	-0.171
-610.230	-65.888	-0.092	0.037
-609.215	309.204	-0.052	-0.097
-608.201	-46.732	-0.410	-0.203
-607.186	379.768	0.051	0.105
-606.171	-200.000	0.023	0.187
-605.157	-1.440	0.208	-0.148
-604.142	-200.000	0.039	-0.414
-603.128	-161.711	0.229	-0.012
-602.113	106.926	-0.127	0.153
-601.098	-38.149	0.110	-0.059
-600.084	800.000	0.056	-0.192
-599.069	800.000	0.117	0.329
-598.055	239.231	-0.173	-0.290
-597.040	193.650	-0.053	-0.081
-596.025	800.000	0.057	-0.189
-595.011	-112.494	-0.040	-0.008
-593.996	24.005	0.172	0.143
-592.982	-200.000	0.002	0.015
-591.967	55.992	-0.160	-0.156
-590.952	800.000	-0.037	-0.122
-589.938	-130.294	0.279	-0.038
-588.923	-110.750	-0.523	-0.109
-587.909	35.773	-0.123	0.109
-586.894	-200.000	0.023	-0.292
-585.879	-200.000	-0.021	0.176
-584.865	-200.000	-0.012	0.206
-583.850	-20.239	-0.061	-0.038
-582.836	53.539	-0.213	0.207
-581.821	88.958	-0.173	0.194
-580.806	312.963	0.096	0.182
-579.792	68.809	-0.175	0.181
-578.777	281.977	-0.077	0.140
-577.763	134.073	-0.243	-0.317
-576.748	-200.000	0.014	-0.129
-575.733	60.622	0.038	0.038
-574.719	800.000	-0.054	-0.161
-573.704	-196.071	-0.089	-0.001
-572.690	308.698	-0.132	-0.248
-571.675	-89.640	0.364	0.108
-570.661	-200.000	-0.018	0.154
-569.646	-3.385	-0.244	-0.171
-568.631	800.000	-0.034	0.125
-567.617	53.650	-0.079	-0.076
-566.602	-150.766	-0.299	0.023
-565.588	485.975	0.130	-0.298
-564.573	-5.895	0.094	0.065
-563.558	39.821	0.103	-0.093
-562.544	-22.772	0.175	-0.106
-561.529	96.478	0.107	-0.124
-560.515	-5.556	-0.215	0.149
-559.500	332.393	0.163	-0.318
-558.485	130.585	0.044	0.057
-557.471	800.000	0.102	0.427
-556.456	800.000	-0.058	0.165
-555.442	-120.763	-0.302	-0.051
-554.427	-200.000	0.018	-0.318
-553.412	1.287	0.212	0.154
-552.398	-173.976	0.072	-0.002
-551.383	-121.149	0.229	-0.039
-550.369	105.389	0.084	-0.101
-549.354	800.000	0.061	0.261
-548.339	-95.402	-0.223	0.060
-547.325	-129.255	0.373	-0.052
-546.310	-19.259	0.192	0.120
-545.296	-18.079	-0.148	0.093
-544.281	-154.292	0.274	-0.019
-543.266	-200.000	0.033	0.405
-542.252	29.566	-0.075	-0.065
-541.237	327.302	0.165	-0.318
-540.223	-167.292	0.086	0.003
-539.208	-42.088	0.161	-0.083
-538.193	-200.000	0.033	-0.225
-537.179	-137.619	0.345	0.039
-536.164	-77.469	0.114	-0.040
-535.150	76.411	-0.112	-0.120
-534.135	171.401	0.086	0.125
-533.121	-42.829	0.048	0.025
-532.106	162.492	0.119	-0.168
-531.091	228.593	0.139	-0.228
-530.077	-200.000	0.009	0.359
-529.062	-96.327	-0.520	0.139
-528.048	13.749	0.193	0.151
-527.033	800.000	0.102	0.330
-526.018	800.000	0.092	0.258
-525.004	176.234	0.121	0.177
-523.989	113.832	-0.296	0.362
-522.975	535.915	-0.050	-0.119
-521.960	-200.000	0.038	0.174
-520.945	-140.745	0.263	-0.027
-519.931	60.824	0.215	0.214
-518.916	62.929	0.056	0.057
-517.902	-66.604	0.181	0.072
-516.887	800.000	0.079	-0.235
-515.872	-73.502	0.065	-0.024
-514.858	-21.585	-0.107	-0.065
-513.843	-181.425	-0.222	0.004
-512.829	30.618	0.183	-0.158
-511.814	-81.081	0.176	0.059
-510.799	800.000	0.034	-0.133
-509.785	8.970	0.162	0.123
-508.770	292.986	0.005	0.010
-507.756	-200.000	0.032	0.182
-506.741	675.523	-0.076	0.199
-505.726	-30.744	-0.103	-0.059
-504.712	-135.367	-0.237	-0.028
-503.697	-114.298	-0.136	-0.026
-502.683	150.988	-0.097	-0.133
-501.668	-151.842	-0.357	0.026
-500.653	175.525	0.183	-0.267
-499.639	97.639	-0.039	-0.045
-498.624	54.519	-0.315	-0.306
-497.610	286.923	0.020	0.036
-496.595	-105.883	-0.234	0.053
-495.581	146.003	-0.053	0.071
-494.566	225.040	0.198	-0.323
-493.551	-25.618	-0.081	-0.048
-492.537	-31.798	0.336	0.189
-491.522	-70.896	-0.097	0.037
-490.508	337.905	-0.109	-0.213
-489.493	-200.000	0.022	-0.171
-488.478	-160.128	0.212	-0.012
-487.464	300.818	0.150	-0.279
-486.449	312.602	-0.071	-0.133
-485.435	-120.553	-0.141	0.024
-484.420	75.318	0.215	0.228
-483.405	-36.733	-0.085	-0.046
-482.391	-42.504	0.207	-0.106
-481.376	-44.609	0.201	0.101
-480.362	-74.116	-0.277	0.101
-479.347	-159.525	-0.439	0.025
-478.332	-69.807	-0.090	-0.034
-477.318	-174.802	0.217	0.006
-476.303	411.600	-0.070	0.150
-475.289	36.089	0.151	0.134
-474.274	34.826	-0.061	-0.054
-473.259	-114.984	-0.262	0.050
-472.245	-124.542	0.206	0.032
-471.230	-31.313	-0.203	0.115
-470.216	-200.000	-0.034	0.464
-469.201	181.614	-0.012	0.018
-468.186	-27.808	0.152	0.089
-467.172	-124.406	0.371	0.058
-466.157	800.000	-0.068	0.194
-465.143	-96.370	-0.245	-0.065
-464.128	-200.000	-0.039	-0.229
-463.113	-133.804	-0.026	0.003
-462.099	-200.000	0.008	0.097
-461.084	551.964	-0.105	0.254
-460.070	-80.351	-0.309	0.104
-459.055	-96.897	0.305	0.080
-458.040	-147.801	0.224	0.019
-457.026	-10.216	0.202	0.135
-456.011	-200.000	0.069	-0.611
-454.997	441.522	-0.157	-0.345
-453.982	-67.592	-0.193	0.076
-452.968	-193.993	0.133	-0.001
-451.953	88.193	0.236	-0.263
-450.938	-200.000	0.041	-0.311
-449.924	-51.105	-0.182	-0.086
-448.909	-35.201	0.105	-0.057
-447.895	-116.318	-0.101	-0.019
-446.880	-200.000	0.004	-0.206
-445.865	-99.198	0.227	-0.058
-444.851	-65.507	0.029	0.012
-443.836	566.170	0.101	-0.247
-442.822	-120.371	0.119	0.020
-441.807	269.360	-0.042	0.074
-440.792	-113.683	0.286	-0.056
-439.778	56.806	0.069	-0.068
-438.763	-200.000	0.055	-0.275
-437.749	-44.254	-0.360	0.181
-436.734	800.000	-0.030	0.131
-435.719	-41.140	0.102	0.053
-434.705	128.799	0.187	-0.239
-433.690	-200.000	0.013	0.280
-432.676	69.730	-0.205	-0.212
-431.661	175.983	0.127	0.185
-430.646	-200.000	0.147	-0.688
-429.632	9.228	0.166	0.126
-428.617	14.413	0.151	-0.118
-427.603	214.200	0.104	-0.165
-426.588	146.751	0.120	0.162
-425.573	24.923	0.056	0.047
-424.559	-79.943	0.159	-0.053
-423.544	252.477	-0.047	0.081
-422.530	156.409	0.157	0.218
-421.515	-164.506	-0.345	-0.016
-420.500	78.342	-0.084	0.090
-419.486	-124.019	-0.244	0.039
-418.471	558.989	0.122	0.295
-417.457	151.307	-0.070	-0.096
-416.442	-130.835	0.234	0.032
-415.428	308.357	-0.108	0.202
-414.413	-200.000	0.013	0.094
-413.398	-200.000	-0.007	0.194
-412.384	-122.147	0.249	-0.041
-411.369	-14.231	-0.198	-0.128
-410.355	-200.000	0.009	-0.158
-409.340	-81.949	-0.160	0.052
-408.325	97.608	-0.260	-0.299
-407.311	495.435	0.068	-0.157
-406.296	-200.000	-0.006	0.083
-405.282	-49.777	-0.190	-0.090
-404.267	23.334	0.166	0.137
-403.252	117.863	0.245	0.303
-402.238	59.897	-0.313	0.310
-401.223	593.407	0.219	-0.542
-400.209	116.277	-0.180	-0.221
-399.194	-200.000	0.001	-0.085
-398.179	-200.000	-0.030	0.155
-397.165	2.772	0.083	0.060
-396.150	-50.531	0.194	-0.092
-395.136	-200.000	-0.011	0.174
-394.121	-2.667	0.121	-0.085
-393.106	-34.612	-0.116	0.063
-392.092	800.000	0.063	-0.257
-391.077	-139.302	-0.267	-0.029
-390.063	147.298	0.080	0.108
-389.048	-16.047	-0.071	-0.045
-388.033	105.263	-0.317	0.375
-387.019	800.000	-0.046	-0.190
-386.004	39.795	0.160	-0.144
-384.990	149.381	-0.056	0.075
-383.975	625.375	0.123	0.310
-382.960	-152.476	-0.235	0.017
-381.946	335.372	0.127	-0.246
-380.931	490.702	-0.180	0.413
-379.917	250.562	0.165	0.280
-378.902	-182.651	-0.035	-0.001
-377.888	-4.896	-0.202	0.139
-376.873	717.721	0.061	-0.162
-375.858	363.199	0.038	0.077
-374.844	-83.226	0.340	-0.109
-373.829	101.185	-0.088	0.103
-372.815	-38.790	0.345	-0.182
-371.800	-177.761	-0.347	0.008
-370.785	285.440	0.104	0.188
-369.771	9.129	0.295	0.223
-368.756	800.000	-0.066	0.275
-367.742	163.836	0.351	0.495
-366.727	-148.094	0.240	-0.020
-365.712	114.211	-0.073	-0.089
-364.698	665.262	-0.107	0.277
-363.683	-36.284	0.271	-0.146
-362.669	-17.256	-0.067	-0.042
-361.654	-200.000	-0.016	-0.167
-360.639	209.021	-0.033	0.052
-359.625	-35.011	0.213	0.116
-358.610	-200.000	0.006	0.205
-357.596	12.988	0.029	0.022
-356.581	-60.926	-0.138	0.059
-355.566	-75.855	0.114	0.041
-354.552	-200.000	-0.013	-0.182
-353.537	-200.000	-0.031	-0.161
-352.523	51.089	0.188	0.178
-351.508	739.897	-0.042	0.114
-350.493	-16.934	0.211	-0.133
-349.479	-116.902	-0.294	-0.054
-348.464	11.530	-0.109	-0.084
-347.450	289.065	-0.092	-0.166
-346.435	800.000	0.039	0.164
-345.420	-138.524	0.272	-0.030
-344.406	800.000	-0.063	0.246
-343.391	122.811	0.087	-0.108
-342.377	117.661	-0.374	0.460
-341.362	-85.469	0.079	0.025
-340.348	120.351	0.017	-0.022
-339.333	800.000	0.023	-0.065
-338.318	237.684	0.151	0.250
-337.304	-88.371	-0.115	0.034
-336.289	-1.841	0.177	0.125
-335.275	78.162	-0.098	-0.105
-334.260	-107.637	-0.053	-0.012
-333.245	800.000	0.016	-0.056
-332.231	-38.466	0.108	-0.057
-331.216	42.952	-0.056	0.051
-330.202	778.495	-0.083	0.228
-329.187	117.649	-0.179	0.221
-328.172	-107.095	0.233	-0.051
-327.158	483.364	-0.132	0.301
-326.143	347.530	0.119	-0.234
-325.129	17.113	0.017	0.014
-324.114	228.956	0.157	0.255
-323.099	-200.000	-0.029	0.349
-322.085	-100.364	-0.167	0.041
-321.070	-200.000	0.031	-0.201
-320.056	-12.701	0.207	0.135
-319.041	-113.709	0.092	0.018
-318.026	442.260	0.152	-0.333
-317.012	-25.612	0.032	-0.019
-315.997	17.676	0.326	-0.259
-314.983	60.043	0.095	-0.094
-313.968	101.247	-0.062	0.072
-312.953	-165.348	-0.269	-0.012
-311.939	-161.898	0.118	-0.006
-310.924	150.303	0.052	-0.070
-309.910	-110.353	-0.222	-0.046
-308.895	-35.145	-0.141	-0.077
-307.880	437.418	0.072	-0.157
-306.866	33.422	-0.221	-0.192
-305.851	-200.000	-0.048	-0.239
-304.837	-119.390	-0.168	-0.029
-303.822	-200.000	-0.040	0.249
-302.807	-137.720	0.182	0.020
-301.793	425.409	-0.130	-0.279
-300.778	86.898	-0.102	0.112
-299.764	-200.000	-0.012	0.457
-298.749	-200.000	-0.017	-0.220
-297.735	-85.753	-0.128	-0.040
-296.720	800.000	-0.021	-0.085
-295.705	-57.079	-0.602	-0.265
-294.691	105.638	-0.018	0.022
-293.676	800.000	0.079	0.245
-292.662	-158.479	0.173	0.010
-291.647	21.644	-0.112	0.091
-290.632	-147.420	0.138	0.012
-289.618	369.018	-0.023	-0.046
-288.603	174.603	-0.321	-0.463
-287.589	-122.448	-0.207	-0.034
-286.574	21.888	-0.253	-0.206
-285.559	62.550	0.362	-0.361
-284.545	567.827	0.050	-0.121
-283.530	66.236	-0.018	0.018
-282.516	-200.000	0.091	-0.587
-281.501	-200.000	-0.027	0.172
-280.486	-4.255	0.090	0.062
-279.472	-139.113	-0.308	0.033
-278.457	-200.000	-0.042	0.248
-277.443	-93.466	-0.227	-0.063
-276.428	140.944	0.058	0.077
-275.413	-200.000	-0.015	0.171
-274.399	-62.514	0.330	0.137
-273.384	-3.272	0.158	-0.110
-272.370	-200.000	-0.014	0.105
-271.355	-200.000	-0.003	0.381
-270.340	-98.899	-0.200	-0.051
-269.326	4.827	-0.131	-0.096
-268.311	800.000	0.031	-0.091
-267.297	232.319	0.201	-0.329
-266.282	98.372	0.116	0.134
-265.267	30.867	-0.175	0.149
-264.253	-149.475	0.072	-0.006
-263.238	-57.053	-0.068	-0.030
-262.224	-86.840	-0.059	0.018
-261.209	13.511	0.401	0.310
-260.195	-95.135	-0.326	0.088
-259.180	-36.073	0.055	0.030
-258.165	-133.997	-0.112	-0.014
-257.151	38.168	0.041	0.036
-256.136	87.692	-0.193	0.213
-255.122	-49.134	0.194	-0.092
-254.107	-146.393	0.236	0.021
-253.092	-200.000	0.008	-0.105
-252.078	-200.000	0.013	0.138
-251.063	45.670	0.248	-0.228
-250.049	-200.000	-0.003	-0.122
-249.034	-25.692	-0.177	0.104
-248.019	131.714	-0.100	-0.128
-247.005	-108.794	0.191	0.041
-245.990	181.842	-0.229	0.336
-244.976	-65.191	0.186	0.075
-243.961	-114.652	-0.388	0.074
-242.946	227.386	0.045	0.072
-241.932	-96.355	0.353	0.093
-240.917	800.000	-0.048	-0.160
-239.903	54.117	0.262	-0.251
-238.888	-87.364	0.126	-0.038
-237.873	442.730	-0.039	0.086
-236.859	-65.648	-0.156	-0.062
-235.844	-200.000	0.029	-0.197
-234.830	800.000	0.084	-0.240
-233.815	-200.000	0.014	0.338
-232.800	-148.810	-0.106	0.009
-231.786	-200.000	0.027	-0.355
-230.771	-98.416	0.252	0.064
-229.757	201.843	0.091	-0.140
-228.742	800.000	-0.092	0.291
-227.727	306.360	-0.133	-0.246
-226.713	-8.322	-0.130	0.087
-225.698	-114.276	0.078	0.015
-224.684	53.409	-0.107	-0.102
-223.669	-29.181	0.185	0.106
-222.655	800.000	-0.067	-0.186
-221.640	-43.221	-0.347	-0.175
-220.625	-74.085	-0.222	0.080
-219.611	-59.946	0.082	0.035
-218.596	-108.245	0.158	-0.034
-217.582	-62.358	0.347	-0.144
-216.567	133.315	0.175	-0.225
-215.552	-40.279	-0.256	-0.132
-214.538	39.019	0.378	-0.337
-213.523	-26.730	0.435	-0.253
-212.509	-102.395	-0.224	-0.053
-211.494	-200.000	-0.040	0.358
-210.479	1.055	-0.197	-0.140
-209.465	-138.235	-0.212	0.023
-208.450	800.000	0.013	-0.056
-207.436	363.282	0.095	0.190
-206.421	-194.813	0.302	0.002
-205.406	-200.000	0.048	-0.291
-204.392	195.896	-0.139	-0.210
-203.377	-81.174	-0.039	-0.013
-202.363	-74.690	-0.128	-0.046
-201.348	-200.000	0.049	0.218
-200.333	204.622	-0.315	0.486
-199.319	800.000	-0.021	-0.089
-198.304	100.278	-0.174	0.201
-197.290	-200.000	0.018	0.152
-196.275	-136.818	-0.154	0.018
-195.260	-135.172	-0.230	0.027
-194.246	-103.956	0.141	0.033
-193.231	780.299	0.060	0.164
-192.217	-63.687	-0.235	-0.096
-191.202	800.000	-0.076	-0.242
-190.187	800.000	0.073	-0.244
-189.173	-72.129	0.309	-0.114
-188.158	800.000	-0.008	0.024
-187.144	-34.997	0.078	-0.042
-186.129	-200.000	0.007	0.155
-185.114	-112.628	-0.355	0.070
-184.100	78.705	0.210	0.223
-183.085	-49.503	-0.285	0.135
-182.071	-25.710	-0.279	0.164
-181.056	118.678	-0.186	0.229
-180.042	46.646	-0.287	0.265
-179.027	800.000	0.157	-0.481
-178.012	362.643	0.104	0.208
-176.998	-30.235	-0.212	0.119
-175.983	439.801	0.122	0.265
-174.969	-92.593	0.057	0.016
-173.954	122.480	-0.075	-0.093
-172.939	-146.627	-0.171	-0.015
-171.925	13.931	0.068	0.052
-170.910	-9.853	-0.258	0.170
-169.896	-78.633	0.101	0.034
-168.881	99.618	0.118	-0.135
-167.866	-200.000	-0.010	0.158
-166.852	-47.837	0.120	0.058
-165.837	194.243	0.169	-0.254
-164.823	339.067	0.070	0.136
-163.808	511.037	-0.105	-0.244
-162.793	-35.479	-0.113	-0.061
-161.779	-12.769	-0.205	0.133
-160.764	-53.854	-0.113	-0.051
-159.750	-200.000	-0.060	-0.269
-158.735	395.112	0.137	-0.284
-157.720	-14.216	-0.095	-0.061
-156.706	800.000	-0.060	0.182
-155.691	145.402	0.267	-0.355
-154.677	78.522	-0.299	-0.317
-153.662	111.599	0.088	-0.106
-152.647	0.973	-0.086	0.061
-151.633	-77.445	0.268	0.092
-150.618	50.378	-0.066	0.062
-149.604	49.133	0.101	0.094
-148.589	57.136	0.075	0.073
-147.574	-29.364	0.114	0.065
-146.560	-1.163	-0.106	-0.074
-145.545	-200.000	0.003	0.038
-144.531	800.000	0.070	-0.234
-143.516	800.000	0.093	-0.340
-142.502	461.753	-0.100	-0.222
-141.487	-30.127	0.240	-0.135
-140.472	-200.000	0.008	-0.033
-139.458	20.011	-0.209	0.167
-138.443	-200.000	0.028	-0.223
-137.429	517.889	0.105	0.245
-136.414	60.363	-0.198	-0.195
-135.399	-16.694	-0.084	0.053
-134.385	-26.545	-0.120	0.070
-133.370	18.577	-0.258	-0.204
-132.356	40.066	-0.062	-0.056
-131.341	92.910	0.272	-0.305
-130.326	707.807	-0.046	0.122
-129.312	-200.000	-0.058	0.577
-128.297	-153.630	-0.417	0.029
-127.283	10.767	-0.131	-0.099
-126.268	-200.000	-0.013	0.389
-125.253	137.726	0.205	0.266
-124.239	-0.973	-0.102	0.072
-123.224	10.709	0.265	0.201
-122.210	322.463	0.048	-0.090
-121.195	28.053	0.037	0.031
-120.180	-200.000	0.033	0.175
