DTS Sentinel unit serial number:	SN413079Multiplexer serial number:	ORYXHardware model number:	OX4-SRSoftware version number:	ORYX F/W v4.00 Oryx Data Collector v3.7.2.0data status	okinstallation	princeton_trtdifferential loss correction	single-endedforward channel	channel 4reverse channel	N/Adate	2019/09/17time	00:17:35forward acquisition time	60.00reverse acquisition time	0.00gamma	496.2192k internal	0.2313k external	0.2313temperature offset calibration	0.9976default loss term (dB/km)	0.3790temperature slope calibration	1.0000multiplexer offset coefficient	1.0000multiplexer slope coefficient	1.0000fibre end	0.00T internal ref (°C)	29.52T ext. ref 1 (°C)	0.09T ext. ref 2 (°C)	23.65length (m)	temperature (°C)	Stokes	anti-Stokes-747.200	800.000	0.028	-0.118
-746.185	97.551	0.023	-0.027
-745.171	800.000	0.021	-0.092
-744.156	225.917	-0.242	0.398
-743.142	-14.393	0.068	0.045
-742.127	-200.000	-0.037	0.443
-741.112	-200.000	0.036	0.183
-740.098	91.618	0.041	0.047
-739.083	160.488	0.023	0.033
-738.069	775.308	-0.063	0.174
-737.054	224.677	0.108	-0.177
-736.039	81.517	-0.193	-0.211
-735.025	13.975	0.182	0.143
-734.010	-200.000	0.017	0.193
-732.996	203.245	0.103	0.162
-731.981	-200.000	0.023	0.469
-730.966	800.000	-0.073	-0.213
-729.952	-77.027	0.135	-0.048
-728.937	-200.000	-0.043	-0.392
-727.923	-32.038	-0.071	-0.040
-726.908	-200.000	-0.059	-0.332
-725.894	-200.000	-0.017	-0.083
-724.879	-101.600	-0.090	0.022
-723.864	-40.798	-0.232	0.122
-722.850	68.430	0.283	-0.294
-721.835	-81.221	0.310	-0.104
-720.821	800.000	-0.054	-0.169
-719.806	-97.812	-0.138	0.036
-718.791	7.621	-0.342	0.260
-717.777	-118.988	-0.242	-0.043
-716.762	674.343	0.113	0.298
-715.748	30.576	-0.167	0.144
-714.733	-4.941	0.101	-0.071
-713.718	-200.000	-0.014	0.077
-712.704	-76.870	0.149	-0.053
-711.689	754.363	-0.156	-0.428
-710.675	-132.832	-0.458	0.059
-709.660	800.000	-0.119	-0.366
-708.645	-200.000	-0.025	-0.146
-707.631	170.744	-0.079	-0.115
-706.616	114.716	-0.045	-0.056
-705.602	382.915	-0.108	0.225
-704.587	-200.000	-0.029	0.320
-703.572	-124.730	-0.273	-0.043
-702.558	10.981	-0.229	-0.177
-701.543	-200.000	-0.030	-0.185
-700.529	-141.833	0.128	0.013
-699.514	65.744	-0.056	0.057
-698.499	67.315	-0.108	-0.111
-697.485	-28.179	-0.080	-0.047
-696.470	800.000	-0.089	-0.267
-695.456	279.619	-0.119	-0.215
-694.441	551.274	-0.132	-0.321
-693.426	-21.094	0.291	0.180
-692.412	11.201	-0.140	0.108
-691.397	-105.650	0.104	0.024
-690.383	-200.000	0.072	-0.325
-689.368	478.658	0.099	0.227
-688.354	-85.093	-0.143	0.045
-687.339	-135.050	-0.209	0.026
-686.324	387.842	-0.221	-0.462
-685.310	133.316	-0.173	0.226
-684.295	-52.190	-0.380	-0.178
-683.281	-3.456	-0.286	-0.201
-682.266	-29.426	-0.066	-0.038
-681.251	3.345	0.023	-0.017
-680.237	-159.750	0.291	0.016
-679.222	-38.252	0.062	-0.033
-678.208	-200.000	-0.001	0.185
-677.193	-107.694	-0.201	-0.044
-676.178	147.002	0.153	-0.209
-675.164	441.879	0.057	-0.126
-674.149	-20.058	-0.400	-0.249
-673.135	800.000	-0.130	0.435
-672.120	800.000	-0.036	0.110
-671.105	68.042	-0.090	-0.093
-670.091	-64.225	0.093	-0.039
-669.076	-43.605	-0.368	-0.188
-668.062	-200.000	0.012	0.307
-667.047	-200.000	0.076	-0.349
-666.032	-72.736	0.096	0.036
-665.018	-62.806	-0.072	0.030
-664.003	267.634	0.074	-0.131
-662.989	649.088	-0.072	0.186
-661.974	127.251	-0.074	-0.095
-660.959	-184.419	0.240	-0.004
-659.945	414.661	-0.128	-0.276
-658.930	-87.806	0.100	-0.030
-657.916	97.513	-0.308	-0.358
-656.901	600.525	-0.059	0.149
-655.886	-150.854	-0.289	0.022
-654.872	-32.824	0.131	-0.074
-653.857	-47.498	0.057	-0.028
-652.843	-200.000	0.021	-0.245
-651.828	-7.514	0.189	0.129
-650.814	2.098	-0.157	-0.115
-649.799	133.448	-0.058	-0.076
-648.784	281.639	0.094	0.170
-647.770	71.048	-0.144	-0.151
-646.755	-200.000	-0.003	0.018
-645.741	-199.443	0.271	-0.001
-644.726	64.330	-0.078	-0.079
-643.711	12.586	-0.190	-0.148
-642.697	31.497	-0.078	-0.067
-641.682	-200.000	0.000	-0.037
-640.668	-5.789	0.135	0.093
-639.653	186.071	-0.253	-0.380
-638.638	218.107	-0.068	0.110
-637.624	103.265	-0.144	-0.170
-636.609	121.342	0.067	-0.084
-635.595	-93.125	-0.137	0.038
-634.580	-200.000	0.006	-0.109
-633.565	-200.000	0.013	-0.061
-632.551	-82.828	-0.260	-0.085
-631.536	92.069	0.139	-0.158
-630.522	-101.859	0.345	-0.084
-629.507	-46.327	0.289	-0.143
-628.492	-67.922	-0.069	-0.027
-627.478	-159.354	0.264	0.015
-626.463	194.166	-0.080	0.122
-625.449	-57.331	0.159	-0.071
-624.434	-98.570	-0.165	0.042
-623.419	-115.964	0.471	0.089
-622.405	-115.474	0.193	-0.037
-621.390	78.365	-0.155	0.167
-620.376	800.000	0.110	-0.328
-619.361	-200.000	0.052	-0.331
-618.346	690.816	0.096	-0.253
-617.332	56.187	0.151	-0.148
-616.317	-112.537	0.121	-0.024
-615.303	41.854	-0.124	-0.114
-614.288	-132.143	0.273	0.036
-613.273	-118.666	0.085	0.015
-612.259	-200.000	-0.021	0.324
-611.244	370.064	0.052	0.106
-610.230	-159.666	-0.062	0.003
-609.215	661.846	0.104	0.270
-608.201	-109.155	0.056	-0.012
-607.186	191.657	-0.081	-0.123
-606.171	-200.000	0.005	0.064
-605.157	-159.278	-0.476	-0.027
-604.142	62.410	0.143	0.144
-603.128	-43.927	-0.169	-0.086
-602.113	-75.389	-0.071	0.025
-601.098	-200.000	-0.009	-0.190
-600.084	12.551	-0.223	0.174
-599.069	293.360	0.134	0.247
-598.055	-8.874	0.303	-0.204
-597.040	-180.031	0.079	0.002
-596.025	748.188	-0.040	0.108
-595.011	-141.044	-0.193	-0.020
-593.996	800.000	-0.115	-0.351
-592.982	-23.542	0.076	-0.046
-591.967	-12.996	-0.449	-0.294
-590.952	117.242	-0.270	-0.335
-589.938	326.434	0.192	-0.371
-588.923	6.535	0.193	-0.145
-587.909	-12.067	-0.174	-0.115
-586.894	-68.538	0.118	0.046
-585.879	-200.000	0.047	0.350
-584.865	36.855	-0.090	0.081
-583.850	449.538	-0.049	-0.109
-582.836	-200.000	-0.058	0.305
-581.821	-44.845	-0.219	0.110
-580.806	-136.603	0.064	0.007
-579.792	0.339	0.122	-0.088
-578.777	-128.170	-0.122	0.018
-577.763	-200.000	-0.006	0.288
-576.748	-108.843	-0.185	0.040
-575.733	-200.000	0.042	0.264
-574.719	-95.122	-0.120	-0.033
-573.704	-131.970	-0.108	0.014
-572.690	213.945	-0.084	-0.133
-571.675	-37.466	-0.091	0.049
-570.661	196.951	-0.142	-0.218
-569.646	-6.528	0.182	0.125
-568.631	800.000	0.081	0.255
-567.617	-57.960	-0.233	0.102
-566.602	800.000	-0.094	0.402
-565.588	-128.817	0.279	-0.040
-564.573	-126.826	-0.174	0.026
-563.558	-146.738	0.149	-0.013
-562.544	203.437	0.163	0.254
-561.529	-200.000	0.015	-0.283
-560.515	199.390	0.046	-0.071
-559.500	-98.985	0.079	-0.020
-558.485	-200.000	0.011	-0.255
-557.471	-45.163	-0.201	0.101
-556.456	-53.093	0.211	0.097
-555.442	378.600	0.067	-0.138
-554.427	-52.771	0.398	-0.185
-553.412	-32.836	-0.066	-0.037
-552.398	-62.107	-0.095	0.040
-551.383	261.697	-0.145	0.252
-550.369	32.446	-0.147	-0.128
-549.354	236.874	0.057	0.095
-548.339	-43.890	-0.229	-0.116
-547.325	-200.000	0.005	-0.311
-546.310	-200.000	0.018	0.091
-545.296	-195.394	0.085	0.001
-544.281	522.858	0.045	-0.106
-543.266	-200.000	-0.023	0.286
-542.252	460.800	0.075	0.169
-541.237	-67.187	-0.107	-0.043
-540.223	130.732	-0.040	0.051
-539.208	-200.000	-0.014	0.281
-538.193	-200.000	-0.001	-0.314
-537.179	-79.846	-0.193	-0.065
-536.164	45.027	-0.076	0.070
-535.150	-161.088	0.291	0.015
-534.135	-23.829	-0.257	-0.155
-533.121	-200.000	0.064	0.364
-532.106	-121.978	-0.394	-0.065
-531.091	-22.888	-0.224	0.136
-530.077	-115.920	0.143	0.027
-529.062	-16.364	0.122	0.078
-528.048	-2.882	0.104	-0.073
-527.033	20.906	0.097	0.079
-526.018	-139.647	-0.326	0.035
-525.004	-103.452	0.380	0.090
-523.989	-200.000	0.012	-0.168
-522.975	156.775	-0.230	-0.319
-521.960	800.000	-0.039	0.127
-520.945	178.084	0.124	-0.181
-519.931	-140.019	-0.190	-0.020
-518.916	-200.000	0.014	-0.116
-517.902	-200.000	-0.008	-0.136
-516.887	131.507	0.223	0.289
-515.872	-200.000	-0.034	-0.153
-514.858	-100.399	-0.071	-0.018
-513.843	-200.000	-0.026	0.114
-512.829	800.000	-0.061	-0.235
-511.814	-169.723	-0.173	0.006
-510.799	-67.588	0.161	0.064
-509.785	-0.163	0.008	0.006
-508.770	453.512	-0.179	0.398
-507.756	268.206	-0.151	0.265
-506.741	0.252	0.101	0.072
-505.726	-16.740	-0.144	0.092
-504.712	-172.420	-0.273	-0.009
-503.697	354.058	-0.302	0.603
-502.683	35.147	-0.139	0.122
-501.668	208.419	0.085	0.133
-500.653	36.678	0.053	-0.047
-499.639	31.267	0.105	0.091
-498.624	800.000	0.017	0.068
-497.610	46.817	-0.149	-0.139
-496.595	-200.000	0.006	0.191
-495.581	-113.530	0.086	0.017
-494.566	436.116	-0.068	0.148
-493.551	171.729	-0.248	0.357
-492.537	-54.115	0.297	0.136
-491.522	-200.000	-0.006	-0.189
-490.508	534.311	0.094	0.225
-489.493	-26.011	0.144	-0.085
-488.478	-31.784	-0.165	-0.093
-487.464	125.433	-0.287	-0.363
-486.449	800.000	-0.015	-0.057
-485.435	-200.000	-0.086	0.413
-484.420	408.740	-0.133	-0.282
-483.405	-148.149	-0.303	0.025
-482.391	-32.689	-0.280	-0.156
-481.376	-71.932	0.277	0.104
-480.362	-139.308	0.129	-0.014
-479.347	-57.010	-0.116	-0.051
-478.332	800.000	0.016	-0.051
-477.318	-148.195	0.294	0.024
-476.303	286.212	0.181	-0.328
-475.289	151.722	0.149	0.204
-474.274	-24.081	-0.180	-0.108
-473.259	-87.830	0.128	0.039
-472.245	109.471	-0.077	-0.093
-471.230	-146.402	-0.090	0.008
-470.216	166.157	-0.220	0.312
-469.201	105.928	0.110	0.131
-468.186	713.455	0.063	-0.168
-467.172	-82.838	-0.133	-0.043
-466.157	268.982	0.137	-0.241
-465.143	319.870	-0.237	0.452
-464.128	-15.619	0.175	-0.112
-463.113	-200.000	0.002	-0.047
-462.099	-200.000	-0.004	0.279
-461.084	517.265	0.078	-0.184
-460.070	-70.718	0.213	-0.081
-459.055	614.245	-0.032	0.080
-458.040	53.548	0.118	0.113
-457.026	800.000	-0.055	-0.229
-456.011	-200.000	0.038	-0.208
-454.997	640.959	0.063	-0.161
-453.982	-53.052	0.114	-0.052
-452.968	288.585	-0.057	0.103
-451.953	689.080	-0.067	0.175
-450.938	310.081	0.036	-0.068
-449.924	-200.000	-0.003	0.161
-448.909	65.843	-0.206	0.209
-447.895	-108.679	0.341	0.073
-446.880	-200.000	0.073	-0.365
-445.865	-200.000	-0.021	-0.278
-444.851	800.000	0.067	-0.222
-443.836	492.881	-0.009	0.021
-442.822	25.730	0.141	0.118
-441.807	75.704	0.180	-0.191
-440.792	41.169	-0.092	0.083
-439.778	-34.301	-0.330	-0.181
-438.763	77.705	-0.237	0.253
-437.749	-47.324	0.157	-0.077
-436.734	800.000	-0.066	0.226
-435.719	317.252	0.171	-0.324
-434.705	215.486	-0.177	0.282
-433.690	-67.836	0.482	0.189
-432.676	160.900	0.153	0.214
-431.661	-200.000	0.035	0.383
-430.646	-65.794	0.532	0.213
-429.632	148.742	-0.141	0.191
-428.617	800.000	-0.087	0.256
-427.603	353.732	0.123	0.245
-426.588	466.751	-0.030	-0.068
-425.573	-111.166	-0.304	0.062
-424.559	800.000	0.067	0.257
-423.544	-47.589	0.113	-0.055
-422.530	-200.000	-0.003	-0.194
-421.515	-161.720	0.040	-0.002
-420.500	180.961	-0.242	-0.356
-419.486	-107.795	0.046	0.010
-418.471	268.055	0.059	0.103
-417.457	-11.796	0.162	-0.106
-416.442	689.830	0.112	-0.292
-415.428	12.500	0.334	0.258
-414.413	-200.000	-0.010	-0.248
-413.398	273.424	0.158	-0.280
-412.384	783.213	0.098	-0.269
-411.369	-164.527	-0.105	0.005
-410.355	-46.982	-0.244	-0.119
-409.340	800.000	0.072	0.259
-408.325	150.686	-0.162	-0.220
-407.311	386.781	-0.042	0.087
-406.296	206.507	0.009	-0.014
-405.282	18.839	0.101	0.081
-404.267	-200.000	-0.069	0.437
-403.252	-171.155	0.317	0.011
-402.238	-200.000	-0.005	-0.117
-401.223	243.932	-0.114	-0.192
-400.209	-200.000	-0.071	0.404
-399.194	-200.000	-0.022	-0.201
-398.179	-6.867	0.144	0.098
-397.165	216.153	-0.210	0.334
-396.150	-101.731	-0.385	-0.093
-395.136	-200.000	0.012	0.150
-394.121	239.753	-0.169	0.282
-393.106	-200.000	-0.072	-0.324
-392.092	-176.168	0.075	0.002
-391.077	-150.970	-0.435	0.033
-390.063	-27.005	0.228	0.133
-389.048	800.000	0.058	-0.170
-388.033	-129.039	-0.229	-0.032
-387.019	137.713	-0.145	0.189
-386.004	34.334	0.340	-0.297
-384.990	-117.700	-0.621	0.112
-383.975	-200.000	0.010	0.105
-382.960	55.436	0.202	0.195
-381.946	-20.998	0.038	0.023
-380.931	800.000	-0.037	0.127
-379.917	-67.038	-0.376	0.148
-378.902	-147.610	-0.188	-0.016
-377.888	-200.000	-0.018	0.081
-376.873	38.988	0.138	0.123
-375.858	-200.000	-0.001	-0.157
-374.844	-54.675	-0.116	0.052
-373.829	-68.323	0.389	-0.151
-372.815	-42.527	0.170	0.087
-371.800	-200.000	-0.055	0.459
-370.785	-60.425	-0.212	0.090
-369.771	-49.502	-0.053	0.025
-368.756	-200.000	-0.005	-0.289
-367.742	800.000	0.022	-0.067
-366.727	-119.233	0.313	-0.055
-365.712	-173.122	0.065	0.002
-364.698	278.500	0.058	-0.104
-363.683	-99.806	0.392	-0.098
-362.669	800.000	-0.077	0.247
-361.654	-200.000	0.021	-0.135
-360.639	-74.966	0.154	0.055
-359.625	193.904	-0.096	-0.146
-358.610	-200.000	-0.006	-0.075
-357.596	-200.000	0.019	-0.219
-356.581	-59.706	0.158	-0.067
-355.566	-200.000	0.020	0.226
-354.552	-73.055	-0.343	0.126
-353.537	-200.000	0.028	0.252
-352.523	204.307	-0.152	-0.235
-351.508	-200.000	-0.013	-0.135
-350.493	753.658	-0.070	-0.189
-349.479	160.434	-0.197	-0.275
-348.464	119.622	0.228	-0.281
-347.450	-25.780	-0.214	-0.126
-346.435	20.357	-0.138	0.111
-345.420	-72.905	0.098	0.036
-344.406	-200.000	-0.004	0.114
-343.391	800.000	-0.035	0.114
-342.377	-200.000	0.039	-0.338
-341.362	122.686	-0.135	0.169
-340.348	-78.979	0.138	0.047
-339.333	58.810	-0.189	-0.185
-338.318	-119.260	-0.231	0.040
-337.304	-104.195	0.191	0.044
-336.289	407.622	-0.051	-0.107
-335.275	44.468	0.101	-0.092
-334.260	-5.084	-0.386	-0.265
-333.245	-200.000	0.051	-0.373
-332.231	-124.347	-0.191	-0.030
-331.216	-161.836	0.376	0.019
-330.202	-41.028	0.268	0.138
-329.187	800.000	-0.133	0.388
-328.172	243.418	-0.201	-0.337
-327.158	21.471	0.213	-0.173
-326.143	-9.631	0.338	-0.224
-325.129	-83.111	-0.164	0.053
-324.114	-200.000	0.026	-0.191
-323.099	25.670	-0.312	0.259
-322.085	93.672	-0.170	0.192
-321.070	131.935	-0.052	0.067
-320.056	-25.908	0.118	0.069
-319.041	228.987	-0.066	-0.108
-318.026	-200.000	0.036	-0.226
-317.012	-200.000	-0.061	0.366
-315.997	20.748	0.252	0.204
-314.983	-60.181	0.065	0.027
-313.968	453.321	0.112	0.248
-312.953	-134.316	-0.325	0.040
-311.939	135.820	0.063	-0.082
-310.924	409.601	-0.094	-0.198
-309.910	-37.026	0.259	-0.138
-308.895	119.328	0.089	-0.109
-307.880	-200.000	-0.034	-0.380
-306.866	-60.418	0.103	-0.044
-305.851	75.333	0.237	-0.249
-304.837	72.051	-0.015	-0.015
-303.822	-4.266	-0.215	0.148
-302.807	-200.000	0.022	0.268
-301.793	800.000	-0.012	-0.034
-300.778	440.964	-0.020	-0.045
-299.764	-200.000	0.040	0.225
-298.749	-29.914	-0.093	-0.053
-297.735	-200.000	-0.053	0.510
-296.720	-200.000	-0.006	0.081
-295.705	-133.379	-0.132	0.017
-294.691	800.000	-0.066	0.211
-293.676	-26.368	-0.033	0.019
-292.662	496.984	-0.029	-0.067
-291.647	-200.000	-0.043	-0.437
-290.632	449.491	0.106	-0.233
-289.618	-24.877	0.177	0.105
-288.603	93.960	-0.067	-0.076
-287.589	118.597	0.055	-0.068
-286.574	800.000	0.062	-0.249
-285.559	-200.000	-0.056	0.591
-284.545	182.139	0.119	0.175
-283.530	-45.672	0.068	0.034
-282.516	800.000	0.041	-0.166
-281.501	800.000	0.100	0.281
-280.486	232.319	0.160	0.262
-279.472	718.465	-0.021	-0.054
-278.457	-85.780	0.264	-0.082
-277.443	-200.000	0.099	-0.475
-276.428	85.301	0.221	-0.242
-275.413	-95.369	0.175	-0.047
-274.399	-103.570	0.141	-0.033
-273.384	112.211	-0.148	-0.178
-272.370	465.562	0.133	-0.296
-271.355	-44.592	0.170	0.085
-270.340	-112.457	0.213	0.042
-269.326	428.068	0.100	0.215
-268.311	-2.670	-0.244	-0.170
-267.297	348.629	0.042	0.083
-266.282	27.737	0.264	0.221
-265.267	79.364	-0.070	0.075
-264.253	121.822	-0.191	-0.237
-263.238	-72.994	-0.087	0.032
-262.224	-65.117	0.414	0.166
-261.209	-200.000	-0.025	0.184
-260.195	-167.198	0.476	0.019
-259.180	-44.325	-0.060	-0.030
-258.165	-200.000	-0.001	0.168
-257.151	800.000	-0.055	0.231
-256.136	-63.495	0.212	0.087
-255.122	-200.000	0.040	0.247
-254.107	-130.614	0.350	-0.047
-253.092	92.698	-0.044	0.050
-252.078	-159.162	0.290	-0.016
-251.063	99.099	-0.167	-0.192
-250.049	-200.000	0.060	-0.271
-249.034	-171.504	0.106	-0.004
-248.019	-200.000	-0.030	0.303
-247.005	-72.090	-0.417	0.154
-245.990	-200.000	0.024	-0.161
-244.976	58.472	0.276	0.270
-243.961	86.673	0.114	-0.125
-242.946	-200.000	-0.009	-0.327
-241.932	226.722	-0.057	-0.091
-240.917	800.000	-0.034	-0.135
-239.903	18.442	0.145	-0.115
-238.888	158.483	0.268	0.370
-237.873	-200.000	0.017	0.291
-236.859	220.795	0.064	0.101
-235.844	123.670	-0.126	0.157
-234.830	43.737	0.132	0.120
-233.815	-62.403	0.143	-0.059
-232.800	-116.745	-0.255	0.047
-231.786	-200.000	0.005	-0.023
-230.771	-88.966	-0.188	0.055
-229.757	-2.926	0.032	0.022
-228.742	-99.140	-0.030	-0.008
-227.727	-112.300	-0.266	-0.053
-226.713	81.796	-0.085	0.092
-225.698	-16.815	0.088	0.055
-224.684	424.223	-0.080	0.171
-223.669	800.000	0.069	0.245
-222.655	-172.239	-0.067	0.002
-221.640	485.520	0.027	0.061
-220.625	-200.000	-0.092	-0.423
-219.611	513.208	0.116	-0.268
-218.596	-91.821	-0.243	0.068
-217.582	-98.983	0.249	0.063
-216.567	-200.000	-0.010	-0.143
-215.552	-106.818	0.136	-0.030
-214.538	-76.353	0.101	0.035
-213.523	-200.000	-0.018	0.176
-212.509	351.327	0.115	0.226
-211.494	557.264	0.064	-0.153
-210.479	486.045	-0.042	-0.095
-209.465	-52.510	-0.258	0.118
-208.450	-200.000	-0.018	-0.186
-207.436	-200.000	0.027	-0.141
-206.421	189.151	0.021	0.031
-205.406	-35.016	-0.124	-0.067
-204.392	-84.038	-0.253	-0.080
-203.377	-115.149	-0.018	0.003
-202.363	800.000	0.098	-0.331
-201.348	-33.110	-0.135	0.074
-200.333	-150.018	-0.191	-0.015
-199.319	-200.000	0.016	-0.129
-198.304	-200.000	0.034	-0.191
-197.290	-115.444	-0.114	-0.021
-196.275	-71.908	0.102	0.038
-195.260	78.048	-0.140	0.149
-194.246	-121.934	0.163	0.027
-193.231	-125.307	0.127	-0.019
-192.217	-173.082	0.217	-0.007
-191.202	307.061	-0.039	-0.073
-190.187	428.308	-0.043	0.091
-189.173	-33.317	0.297	0.163
-188.158	146.329	-0.163	-0.217
-187.144	33.430	-0.043	0.037
-186.129	774.218	-0.116	-0.314
-185.114	99.093	-0.179	0.205
-184.100	800.000	0.026	-0.105
-183.085	-156.168	-0.023	-0.001
-182.071	-200.000	-0.009	-0.048
-181.056	-200.000	0.033	0.190
-180.042	-200.000	0.070	-0.344
-179.027	6.658	0.105	0.077
-178.012	-200.000	0.015	-0.114
-176.998	-7.922	-0.238	-0.159
-175.983	-71.285	-0.167	0.062
-174.969	96.238	0.079	0.089
-173.954	-161.833	-0.302	-0.015
-172.939	11.812	-0.114	0.087
-171.925	800.000	0.033	-0.092
-170.910	-56.691	-0.256	-0.112
-169.896	-108.248	-0.329	0.070
-168.881	-116.988	-0.199	0.036
-167.866	44.124	-0.284	-0.258
-166.852	800.000	0.080	-0.328
-165.837	226.695	-0.239	0.384
-164.823	-67.505	0.298	-0.116
-163.808	-28.846	0.163	-0.093
-162.793	130.895	-0.350	0.446
-161.779	-200.000	-0.035	-0.348
-160.764	-200.000	0.018	-0.293
-159.750	70.459	0.246	0.252
-158.735	-200.000	0.049	0.258
-157.720	-200.000	0.010	0.176
-156.706	-200.000	0.004	-0.110
-155.691	7.409	0.252	0.186
-154.677	-71.626	0.269	-0.099
-153.662	74.362	-0.072	-0.075
-152.647	40.266	0.282	-0.251
-151.633	-200.000	-0.309	-0.001
-150.618	-94.412	-0.105	0.028
-149.604	-123.310	0.050	-0.008
-148.589	-10.491	-0.138	-0.091
-147.574	471.827	0.073	-0.162
-146.560	-24.293	0.037	0.022
-145.545	-55.950	-0.208	-0.092
-144.531	136.189	-0.047	0.060
-143.516	119.242	-0.045	0.055
-142.502	-84.216	-0.326	-0.102
-141.487	529.531	0.097	-0.226
-140.472	-62.245	-0.122	0.050
-139.458	-200.000	0.001	0.322
-138.443	304.708	0.212	0.390
-137.429	-7.022	-0.398	-0.267
-136.414	107.304	0.296	0.349
-135.399	-138.324	0.265	0.029
-134.385	-148.060	0.254	-0.021
-133.370	32.188	0.136	-0.116
-132.356	73.221	0.090	-0.093
-131.341	153.480	0.130	-0.176
-130.326	21.310	-0.231	0.186
-129.312	-106.910	0.441	0.097
-128.297	-64.785	-0.187	-0.075
-127.283	79.148	-0.231	-0.245
-126.268	90.062	-0.087	-0.097
-125.253	321.103	-0.131	0.247
-124.239	-200.000	0.040	0.354
-123.224	-77.816	-0.147	-0.050
-122.210	-200.000	0.030	0.274
