DTS Sentinel unit serial number:	SN413079Multiplexer serial number:	ORYXHardware model number:	OX4-SRSoftware version number:	ORYX F/W v4.00 Oryx Data Collector v3.7.2.0data status	okinstallation	princeton_trtdifferential loss correction	single-endedforward channel	channel 4reverse channel	N/Adate	2019/09/14time	02:09:34forward acquisition time	60.00reverse acquisition time	0.00gamma	496.2192k internal	0.2323k external	0.2323temperature offset calibration	1.0131default loss term (dB/km)	0.3790temperature slope calibration	1.0000multiplexer offset coefficient	1.0000multiplexer slope coefficient	1.0000fibre end	0.00T internal ref (°C)	26.50T ext. ref 1 (°C)	3.20T ext. ref 2 (°C)	21.48length (m)	temperature (°C)	Stokes	anti-Stokes-747.200	-75.298	0.248	0.089
-746.185	329.919	-0.141	0.273
-745.171	-37.518	0.125	0.067
-744.156	-41.761	0.118	-0.061
-743.142	-101.859	0.193	0.047
-742.127	70.372	-0.154	0.161
-741.112	-126.323	0.166	0.025
-740.098	400.303	-0.104	0.220
-739.083	-91.050	-0.106	0.031
-738.069	800.000	-0.176	0.660
-737.054	800.000	0.026	0.116
-736.039	-86.959	-0.176	-0.054
-735.025	-84.783	0.105	-0.033
-734.010	-197.055	0.211	0.001
-732.996	-77.340	-0.276	-0.097
-731.981	-14.912	-0.053	-0.034
-730.966	513.349	0.022	0.052
-729.952	126.476	0.103	-0.132
-728.937	-200.000	0.001	-0.302
-727.923	34.689	-0.188	0.166
-726.908	581.442	-0.031	-0.078
-725.894	408.790	0.132	-0.282
-724.879	75.080	-0.137	-0.145
-723.864	-79.636	0.116	0.039
-722.850	-61.085	-0.315	0.134
-721.835	134.121	0.004	-0.005
-720.821	148.281	-0.107	0.146
-719.806	420.250	-0.123	0.265
-718.791	-200.000	0.002	0.022
-717.777	-200.000	0.008	-0.075
-716.762	707.660	0.022	-0.059
-715.748	385.910	0.159	-0.331
-714.733	-200.000	-0.026	-0.248
-713.718	-160.004	-0.421	0.023
-712.704	9.718	0.147	-0.112
-711.689	-109.868	-0.422	0.089
-710.675	-150.760	-0.343	0.026
-709.660	-200.000	-0.003	-0.120
-708.645	668.578	-0.031	0.080
-707.631	-101.959	-0.268	-0.065
-706.616	280.929	0.107	-0.193
-705.602	81.225	0.109	0.119
-704.587	800.000	-0.064	-0.258
-703.572	-86.847	0.228	-0.070
-702.558	-70.871	-0.246	-0.094
-701.543	-37.538	0.126	-0.068
-700.529	-75.931	0.172	0.061
-699.514	-124.650	-0.331	-0.052
-698.499	52.552	-0.127	0.122
-697.485	-109.755	0.219	-0.046
-696.470	-154.278	-0.222	-0.015
-695.456	-119.189	0.218	-0.038
-694.441	235.536	0.146	0.244
-693.426	-200.000	-0.044	-0.207
-692.412	-105.775	-0.271	-0.062
-691.397	78.518	-0.059	0.063
-690.383	449.527	0.119	0.264
-689.368	-28.217	-0.307	-0.179
-688.354	617.449	0.072	0.181
-687.339	159.509	0.124	-0.173
-686.324	761.084	0.180	0.491
-685.310	-105.791	0.109	-0.025
-684.295	-31.325	-0.314	0.178
-683.281	13.467	-0.193	0.150
-682.266	403.724	-0.107	0.226
-681.251	6.226	0.197	-0.147
-680.237	356.860	-0.207	-0.416
-679.222	268.463	0.177	0.312
-678.208	311.968	0.090	-0.169
-677.193	-16.369	-0.284	-0.182
-676.178	244.408	-0.116	-0.197
-675.164	-24.190	0.035	0.021
-674.149	284.275	0.051	-0.093
-673.135	-82.135	-0.050	0.016
-672.120	-147.832	-0.581	-0.049
-671.105	198.332	-0.084	-0.130
-670.091	-118.092	-0.383	0.069
-669.076	-108.868	-0.087	0.019
-668.062	285.420	0.026	-0.047
-667.047	-70.551	0.217	-0.083
-666.032	240.944	-0.161	0.271
-665.018	-170.954	-0.204	0.007
-664.003	-176.301	0.241	-0.006
-662.989	-200.000	0.017	-0.378
-661.974	-69.440	-0.102	0.039
-660.959	246.049	0.146	0.248
-659.945	-113.227	-0.054	-0.011
-658.930	-200.000	-0.020	0.128
-657.916	-172.511	-0.248	0.008
-656.901	-149.452	-0.402	-0.032
-655.886	-136.648	0.362	-0.042
-654.872	21.945	0.128	0.105
-653.857	-0.444	-0.344	-0.246
-652.843	-93.369	0.107	0.030
-651.828	61.613	-0.164	-0.164
-650.814	-50.498	-0.154	-0.073
-649.799	-11.675	-0.133	0.088
-648.784	-84.416	0.085	0.027
-647.770	335.314	-0.162	0.315
-646.755	-200.000	0.046	-0.224
-645.741	165.754	-0.027	0.038
-644.726	-153.268	-0.259	-0.018
-643.711	166.460	0.021	0.030
-642.697	-200.000	-0.015	0.205
-641.682	221.853	-0.203	0.329
-640.668	65.132	-0.240	-0.244
-639.653	800.000	-0.007	-0.020
-638.638	357.025	-0.129	0.259
-637.624	-39.939	-0.284	-0.149
-636.609	62.144	0.111	-0.111
-635.595	345.618	-0.059	-0.116
-634.580	-89.313	-0.277	0.082
-633.565	-83.874	0.101	-0.032
-632.551	299.083	-0.058	-0.107
-631.536	-145.338	-0.290	-0.026
-630.522	225.270	-0.143	-0.233
-629.507	-45.489	-0.106	0.053
-628.492	81.130	0.124	-0.134
-627.478	716.162	-0.035	-0.093
-626.463	-57.586	0.220	0.097
-625.449	-125.072	0.156	0.024
-624.434	-40.319	0.166	-0.087
-623.419	78.090	-0.328	0.351
-622.405	-69.889	-0.148	-0.057
-621.390	-169.869	-0.225	-0.008
-620.376	134.153	0.170	-0.221
-619.361	-159.905	-0.458	0.025
-618.346	45.152	-0.136	0.126
-617.332	-200.000	0.004	-0.235
-616.317	-42.330	0.115	0.059
-615.303	220.832	-0.151	-0.243
-614.288	-200.000	-0.004	0.128
-613.273	-133.795	-0.294	-0.037
-612.259	175.231	0.207	0.301
-611.244	102.615	0.025	0.029
-610.230	71.733	-0.122	0.128
-609.215	131.322	0.172	0.223
-608.201	106.091	-0.112	-0.133
-607.186	800.000	0.121	0.357
-606.171	-200.000	0.045	-0.373
-605.157	800.000	0.101	-0.308
-604.142	46.926	0.128	0.119
-603.128	-47.717	-0.095	0.046
-602.113	153.705	-0.266	-0.366
-601.098	266.359	0.054	0.095
-600.084	-200.000	0.041	-0.337
-599.069	10.951	0.077	-0.059
-598.055	-200.000	-0.038	0.294
-597.040	-200.000	-0.015	-0.205
-596.025	-88.575	-0.182	0.054
-595.011	-200.000	-0.027	-0.154
-593.996	-38.615	0.262	0.139
-592.982	-200.000	0.017	-0.248
-591.967	41.427	-0.160	-0.146
-590.952	32.084	-0.233	-0.202
-589.938	-200.000	0.007	0.228
-588.923	42.352	-0.045	-0.041
-587.909	8.962	-0.249	0.188
-586.894	800.000	-0.052	-0.190
-585.879	800.000	0.128	-0.434
-584.865	97.405	0.147	0.169
-583.850	-50.648	-0.066	-0.031
-582.836	332.864	0.105	-0.204
-581.821	271.704	0.242	0.428
-580.806	-32.021	0.128	0.072
-579.792	307.779	0.225	0.422
-578.777	29.953	-0.314	0.268
-577.763	-200.000	0.023	-0.134
-576.748	-102.183	-0.253	0.061
-575.733	-38.388	-0.264	-0.140
-574.719	-200.000	-0.013	0.227
-573.704	-59.763	0.099	0.042
-572.690	-200.000	0.049	0.242
-571.675	-114.079	-0.155	-0.030
-570.661	422.497	-0.016	0.034
-569.646	-200.000	0.002	-0.057
-568.631	722.874	-0.070	-0.188
-567.617	-200.000	-0.034	0.271
-566.602	36.275	-0.114	0.100
-565.588	22.063	-0.272	-0.222
-564.573	800.000	-0.008	0.023
-563.558	-54.664	0.039	0.018
-562.544	43.763	-0.142	-0.130
-561.529	-11.837	-0.127	-0.083
-560.515	707.242	0.080	0.212
-559.500	350.552	-0.107	0.211
-558.485	-32.732	0.309	0.172
-557.471	-131.008	0.168	-0.022
-556.456	800.000	-0.026	0.085
-555.442	39.962	-0.030	0.027
-554.427	-95.878	0.216	0.058
-553.412	293.535	-0.108	0.198
-552.398	-33.995	-0.199	0.110
-551.383	-186.866	-0.305	-0.004
-550.369	26.787	0.170	-0.142
-549.354	-51.220	-0.112	0.053
-548.339	-67.436	-0.203	0.080
-547.325	-200.000	-0.026	0.207
-546.310	-200.000	-0.053	-0.325
-545.296	-200.000	0.003	-0.052
-544.281	-122.251	0.338	-0.055
-543.266	-136.553	-0.242	-0.028
-542.252	-18.737	-0.174	-0.109
-541.237	-200.000	-0.009	0.180
-540.223	158.282	-0.124	0.173
-539.208	28.415	0.080	0.068
-538.193	357.797	0.058	-0.117
-537.179	-138.310	0.461	-0.051
-536.164	12.808	-0.139	-0.108
-535.150	800.000	0.052	-0.198
-534.135	309.131	0.028	-0.052
-533.121	43.515	-0.112	0.102
-532.106	-118.082	0.138	-0.025
-531.091	230.276	0.040	0.066
-530.077	139.708	-0.017	-0.023
-529.062	-200.000	-0.034	-0.275
-528.048	184.528	0.020	-0.030
-527.033	280.428	-0.143	-0.256
-526.018	-64.091	0.142	-0.058
-525.004	-64.115	-0.427	0.174
-523.989	-32.624	-0.193	0.107
-522.975	218.089	-0.062	0.100
-521.960	37.356	0.143	-0.127
-520.945	-65.859	0.193	-0.077
-519.931	800.000	-0.113	0.392
-518.916	-19.188	-0.096	-0.060
-517.902	81.448	0.104	-0.112
-516.887	-200.000	0.008	-0.146
-515.872	-54.626	-0.211	-0.096
-514.858	-118.469	-0.104	0.018
-513.843	-116.495	0.213	-0.039
-512.829	205.569	0.124	0.193
-511.814	-14.085	0.024	0.016
-510.799	800.000	0.035	-0.141
-509.785	-72.859	0.241	0.089
-508.770	-200.000	-0.040	-0.206
-507.756	-200.000	0.008	-0.132
-506.741	-200.000	0.004	0.433
-505.726	229.674	-0.066	0.109
-504.712	19.851	0.113	0.091
-503.697	32.763	0.291	-0.252
-502.683	800.000	-0.040	0.155
-501.668	-85.632	0.173	-0.054
-500.653	800.000	0.062	0.247
-499.639	-179.200	-0.118	-0.003
-498.624	-71.095	-0.254	-0.095
-497.610	150.570	0.139	0.189
-496.595	364.959	-0.125	0.252
-495.581	33.924	0.179	0.156
-494.566	-53.594	0.279	0.128
-493.551	-200.000	-0.041	-0.346
-492.537	90.239	0.216	-0.241
-491.522	-200.000	0.069	-0.395
-490.508	-26.430	0.164	-0.096
-489.493	-139.182	-0.127	0.014
-488.478	-184.628	0.163	-0.003
-487.464	60.685	-0.112	0.111
-486.449	-129.627	-0.405	0.056
-485.435	-49.002	0.113	0.054
-484.420	600.880	-0.103	-0.255
-483.405	-64.760	-0.111	-0.045
-482.391	-39.482	0.307	-0.161
-481.376	-200.000	0.013	-0.482
-480.362	171.582	0.093	-0.134
-479.347	73.659	0.261	0.273
-478.332	-6.182	-0.189	0.129
-477.318	68.182	0.153	0.157
-476.303	-200.000	-0.058	0.298
-475.289	264.193	0.185	0.322
-474.274	557.485	-0.094	-0.226
-473.259	-176.201	-0.307	0.008
-472.245	-95.570	0.576	-0.154
-471.230	800.000	0.065	-0.247
-470.216	-79.505	-0.177	-0.060
-469.201	75.541	0.141	0.149
-468.186	-200.000	0.053	0.276
-467.172	-200.000	-0.012	0.261
-466.157	164.138	0.232	0.327
-465.143	-200.000	-0.019	-0.277
-464.128	369.677	-0.072	-0.147
-463.113	-200.000	-0.030	-0.250
-462.099	-105.638	0.166	0.038
-461.084	-127.644	-0.440	0.064
-460.070	-62.534	-0.330	-0.137
-459.055	-47.624	0.100	0.048
-458.040	-200.000	0.073	-0.466
-457.026	73.646	-0.140	-0.146
-456.011	-70.263	0.324	-0.123
-454.997	762.162	0.117	0.318
-453.982	-200.000	0.026	0.146
-452.968	109.192	-0.292	-0.349
-451.953	139.387	-0.206	0.271
-450.938	74.718	0.118	0.124
-449.924	23.799	-0.048	-0.039
-448.909	51.794	-0.118	0.112
-447.895	448.148	-0.040	-0.089
-446.880	-39.224	0.171	-0.090
-445.865	-13.159	-0.279	0.181
-444.851	258.664	-0.058	0.100
-443.836	-100.422	0.239	-0.059
-442.822	72.370	0.154	-0.160
-441.807	-200.000	0.019	-0.183
-440.792	-45.892	0.206	0.102
-439.778	41.239	0.173	0.156
-438.763	-86.778	0.118	0.036
-437.749	-140.234	0.068	-0.007
-436.734	-156.489	0.237	0.015
-435.719	-74.668	0.245	0.088
-434.705	-200.000	-0.009	-0.339
-433.690	87.636	-0.298	-0.329
-432.676	-51.647	0.206	-0.096
-431.661	-114.037	0.132	-0.025
-430.646	-74.922	-0.061	-0.022
-429.632	-108.802	-0.044	-0.009
-428.617	24.146	0.146	0.120
-427.603	-137.928	0.132	0.015
-426.588	107.601	0.248	0.294
-425.573	13.838	-0.243	0.188
-424.559	0.487	-0.267	-0.190
-423.544	-8.902	0.048	-0.032
-422.530	-88.264	0.336	-0.100
-421.515	-98.492	0.197	0.050
-420.500	-96.908	0.185	0.048
-419.486	586.208	-0.108	-0.264
-418.471	-123.572	0.258	0.041
-417.457	-71.670	0.285	0.106
-416.442	193.622	-0.214	-0.323
-415.428	205.637	0.151	-0.234
-414.413	-34.791	0.252	-0.137
-413.398	-18.005	-0.037	0.023
-412.384	-75.027	0.252	-0.090
-411.369	-80.930	0.024	0.008
-410.355	-200.000	-0.008	-0.224
-409.340	-67.169	-0.138	0.054
-408.325	39.531	0.158	0.141
-407.311	-42.550	-0.233	-0.119
-406.296	-108.635	-0.202	0.043
-405.282	-37.467	0.291	0.155
-404.267	-200.000	-0.007	-0.040
-403.252	46.356	-0.241	0.223
-402.238	70.863	0.135	0.140
-401.223	-140.721	-0.348	-0.036
-400.209	-200.000	0.006	-0.063
-399.194	121.486	-0.097	0.121
-398.179	-46.000	0.338	-0.166
-397.165	-67.532	-0.019	-0.008
-396.150	-176.674	-0.103	-0.003
-395.136	-11.954	-0.056	-0.037
-394.121	-90.134	-0.107	-0.031
-393.106	-200.000	-0.018	0.085
-392.092	-48.146	-0.077	-0.037
-391.077	-48.326	-0.267	-0.128
-390.063	800.000	0.054	0.154
-389.048	-157.397	-0.172	-0.010
-388.033	221.940	-0.036	-0.057
-387.019	186.824	0.249	0.370
-386.004	-1.250	0.185	-0.130
-384.990	800.000	-0.067	0.213
-383.975	-112.597	-0.240	0.048
-382.960	-200.000	0.018	0.087
-381.946	-144.265	-0.161	-0.015
-380.931	-32.997	-0.057	0.032
-379.917	402.442	-0.029	0.061
-378.902	-7.299	-0.223	-0.151
-377.888	-200.000	-0.000	-0.011
-376.873	-147.625	0.068	0.006
-375.858	-41.153	0.185	0.095
-374.844	-200.000	-0.057	-0.000
-373.829	215.534	0.141	0.223
-372.815	63.408	0.297	0.297
-371.800	-200.000	-0.011	-0.097
-370.785	800.000	0.071	0.242
-369.771	-200.000	0.037	0.166
-368.756	126.114	0.299	-0.376
-367.742	-57.529	-0.102	-0.045
-366.727	276.436	0.160	0.284
-365.712	665.821	0.068	0.175
-364.698	-200.000	-0.277	-0.000
-363.683	167.004	-0.136	0.192
-362.669	-163.669	0.119	-0.006
-361.654	22.685	0.089	0.073
-360.639	124.465	-0.116	-0.145
-359.625	800.000	0.073	0.243
-358.610	-200.000	0.005	0.157
-357.596	800.000	-0.075	0.305
-356.581	-80.899	-0.374	-0.123
-355.566	-126.763	0.223	-0.033
-354.552	800.000	0.021	0.087
-353.537	184.139	0.042	-0.061
-352.523	-35.836	0.472	0.254
-351.508	466.307	-0.034	0.076
-350.493	-200.000	0.001	0.200
-349.479	-92.907	0.122	-0.034
-348.464	568.831	-0.065	-0.156
-347.450	-7.753	0.138	-0.093
-346.435	-200.000	0.009	0.060
-345.420	337.307	-0.081	0.157
-344.406	-200.000	0.052	0.286
-343.391	296.687	0.018	0.033
-342.377	-200.000	0.024	-0.118
-341.362	-41.064	-0.063	-0.032
-340.348	38.343	0.142	-0.126
-339.333	8.983	-0.201	0.150
-338.318	-71.910	-0.055	0.020
-337.304	-68.956	-0.178	-0.068
-336.289	296.529	-0.046	0.084
-335.275	-113.419	0.574	-0.112
-334.260	40.137	-0.104	0.093
-333.245	-63.222	0.243	0.100
-332.231	47.779	0.289	-0.268
-331.216	-200.000	0.011	-0.211
-330.202	-200.000	0.052	-0.399
-329.187	5.370	-0.220	-0.161
-328.172	-56.752	0.358	-0.157
-327.158	-37.914	-0.217	-0.115
-326.143	103.728	-0.078	-0.091
-325.129	77.187	-0.067	0.070
-324.114	800.000	-0.115	0.396
-323.099	63.160	-0.256	0.255
-322.085	-150.166	0.280	-0.022
-321.070	405.242	-0.088	0.184
-320.056	-140.066	-0.149	0.016
-319.041	-82.097	0.103	0.034
-318.026	76.917	0.035	0.037
-317.012	371.625	0.072	-0.146
-315.997	-149.392	0.163	-0.013
-314.983	-15.116	0.231	0.147
-313.968	-102.701	0.252	0.060
-312.953	429.889	0.166	-0.356
-311.939	-131.555	0.129	-0.017
-310.924	-147.031	0.013	-0.001
-309.910	63.289	0.265	0.264
-308.895	356.764	-0.027	0.054
-307.880	800.000	0.133	0.374
-306.866	-158.210	0.125	-0.007
-305.851	-200.000	0.047	-0.288
-304.837	51.718	0.151	0.143
-303.822	-200.000	0.002	-0.247
-302.807	85.977	-0.075	-0.082
-301.793	406.934	0.118	-0.248
-300.778	248.897	0.010	0.017
-299.764	-29.984	-0.210	0.119
-298.749	800.000	0.077	0.333
-297.735	-77.895	0.278	0.095
-296.720	-56.922	0.313	0.137
-295.705	36.058	-0.122	0.106
-294.691	-200.000	0.051	-0.272
-293.676	665.736	-0.100	-0.257
-292.662	80.137	-0.143	0.153
-291.647	-200.000	0.031	0.144
-290.632	72.025	-0.074	0.076
-289.618	-156.457	-0.330	-0.020
-288.603	800.000	0.043	0.167
-287.589	18.807	-0.105	-0.083
-286.574	143.913	-0.075	-0.099
-285.559	62.006	-0.081	-0.080
-284.545	-200.000	-0.020	-0.188
-283.530	105.550	-0.276	0.323
-282.516	-40.157	-0.193	-0.100
-281.501	800.000	0.030	0.090
-280.486	40.922	0.194	-0.174
-279.472	253.361	0.156	0.264
-278.457	800.000	0.043	0.128
-277.443	-200.000	-0.032	0.145
-276.428	800.000	0.086	-0.250
-275.413	71.113	0.053	0.054
-274.399	464.598	-0.098	-0.217
-273.384	-200.000	-0.023	-0.151
-272.370	-200.000	0.039	0.172
-271.355	670.636	-0.009	-0.024
-270.340	12.253	0.175	-0.134
-269.326	127.679	-0.107	-0.135
-268.311	400.564	0.208	-0.432
-267.297	-147.954	-0.185	-0.015
-266.282	-61.885	0.069	0.029
-265.267	526.479	-0.091	0.212
-264.253	-104.867	-0.270	-0.061
-263.238	-200.000	-0.020	-0.160
-262.224	169.826	0.190	0.269
-261.209	108.674	0.060	0.071
-260.195	800.000	0.046	-0.188
-259.180	800.000	0.033	-0.105
-258.165	800.000	-0.078	0.267
-257.151	-106.871	-0.176	0.039
-256.136	95.135	-0.133	0.150
-255.122	-60.976	-0.145	0.061
-254.107	211.695	-0.152	0.237
-253.092	446.478	-0.080	-0.174
-252.078	-200.000	0.045	0.214
-251.063	-159.548	0.164	-0.009
-250.049	53.214	-0.087	0.082
-249.034	800.000	0.126	0.356
-248.019	109.366	-0.262	-0.310
-247.005	-127.763	-0.236	0.034
-245.990	-36.567	-0.301	0.160
-244.976	-130.580	0.451	0.060
-243.961	-115.220	0.200	0.038
-242.946	800.000	0.134	-0.368
-241.932	-144.243	-0.297	0.027
-240.917	-200.000	0.025	0.130
-239.903	128.079	0.103	-0.129
-238.888	-113.756	-0.072	0.014
-237.873	-6.411	0.347	-0.235
-236.859	-134.524	-0.181	-0.022
-235.844	62.423	0.136	-0.135
-234.830	695.574	-0.008	-0.021
-233.815	-173.734	-0.348	0.010
-232.800	734.632	-0.058	0.154
-231.786	-32.087	-0.150	-0.083
-230.771	361.330	-0.045	-0.090
-229.757	-200.000	0.033	0.223
-228.742	-200.000	0.024	-0.425
-227.727	-141.349	-0.101	-0.010
-226.713	-200.000	-0.031	-0.304
-225.698	-77.662	0.234	0.080
-224.684	182.503	-0.170	0.247
-223.669	70.828	-0.109	0.112
-222.655	-22.100	-0.089	-0.053
-221.640	106.886	0.153	-0.180
-220.625	-106.014	0.139	-0.031
-219.611	-200.000	-0.048	-0.361
-218.596	71.389	0.116	0.119
-217.582	800.000	0.071	0.265
-216.567	-8.193	-0.048	-0.032
-215.552	-92.477	-0.037	0.010
-214.538	-112.043	-0.202	0.040
-213.523	-144.804	-0.168	-0.015
-212.509	-5.251	-0.221	-0.150
-211.494	343.369	0.132	-0.256
-210.479	-136.416	0.216	0.025
-209.465	800.000	-0.033	0.118
-208.450	-74.478	0.286	0.102
-207.436	-22.319	-0.230	0.138
-206.421	176.744	-0.113	-0.162
-205.406	211.407	-0.140	-0.218
-204.392	-25.820	0.306	-0.179
-203.377	-39.715	-0.197	0.102
-202.363	-200.000	0.106	-0.479
-201.348	155.086	-0.111	-0.152
-200.333	-71.169	0.236	0.088
-199.319	-87.245	-0.071	-0.021
-198.304	800.000	0.052	-0.184
-197.290	5.454	-0.242	0.176
-196.275	-6.839	-0.085	0.057
-195.260	-143.152	-0.168	-0.016
-194.246	-200.000	-0.023	0.373
-193.231	296.127	-0.098	-0.177
-192.217	-200.000	-0.008	-0.128
-191.202	311.971	-0.059	0.109
-190.187	326.652	-0.182	-0.345
-189.173	299.069	-0.098	-0.178
-188.158	-63.830	-0.195	-0.079
-187.144	41.731	-0.172	0.154
-186.129	37.617	-0.119	-0.105
-185.114	-74.568	-0.187	-0.067
-184.100	25.416	0.257	-0.211
-183.085	-118.451	0.121	0.021
-182.071	-19.417	0.239	-0.147
-181.056	800.000	0.054	-0.161
-180.042	800.000	0.053	-0.198
-179.027	80.416	-0.138	0.146
-178.012	247.111	0.071	0.118
-176.998	-200.000	-0.032	0.186
-175.983	800.000	0.078	0.289
-174.969	-78.545	0.119	-0.040
-173.954	77.934	-0.159	-0.167
-172.939	33.264	-0.175	0.150
-171.925	-175.804	-0.351	-0.009
-170.910	-200.000	0.002	-0.063
-169.896	-200.000	0.018	-0.195
-168.881	-115.779	0.205	0.038
-167.866	56.491	-0.166	0.160
-166.852	-200.000	-0.068	-0.329
-165.837	271.834	-0.157	-0.273
-164.823	372.917	0.049	0.098
-163.808	-165.913	0.386	0.016
-162.793	-200.000	0.032	0.186
-161.779	-148.106	0.221	-0.018
-160.764	800.000	0.051	0.153
-159.750	-61.511	0.121	-0.050
-158.735	-110.633	0.180	0.037
-157.720	-114.906	-0.228	0.043
-156.706	305.601	-0.060	0.110
-155.691	-200.000	0.006	0.132
-154.677	-100.726	0.370	-0.090
-153.662	434.410	-0.109	0.235
-152.647	-42.555	0.094	-0.047
-151.633	-154.858	0.177	-0.012
-150.618	800.000	-0.050	0.180
-149.604	-200.000	0.003	0.362
-148.589	800.000	0.063	-0.242
-147.574	490.411	0.079	0.179
-146.560	-200.000	0.015	0.222
-145.545	461.986	-0.080	-0.177
-144.531	103.761	-0.139	-0.161
-143.516	36.484	-0.077	-0.067
-142.502	-200.000	-0.032	0.269
-141.487	-65.306	-0.376	-0.149
-140.472	80.687	0.191	-0.203
-139.458	60.577	0.266	0.260
-138.443	-53.989	-0.202	-0.091
-137.429	-29.954	0.216	0.122
-136.414	800.000	-0.045	-0.161
-135.399	-123.021	0.163	0.026
-134.385	763.448	-0.100	-0.268
-133.370	-200.000	-0.006	0.123
-132.356	85.659	0.061	0.066
-131.341	800.000	-0.084	-0.270
-130.326	-178.951	-0.368	0.008
-129.312	-0.775	0.092	-0.064
-128.297	-131.978	0.232	0.030
-127.283	22.601	-0.254	0.205
-126.268	281.653	-0.075	0.132
-125.253	50.193	0.165	-0.153
-124.239	140.901	-0.134	-0.174
-123.224	-37.281	-0.197	-0.104
-122.210	-200.000	0.060	0.413
