DTS Sentinel unit serial number:	SN413079Multiplexer serial number:	ORYXHardware model number:	OX4-SRSoftware version number:	ORYX F/W v4.00 Oryx Data Collector v3.7.2.0data status	okinstallation	princeton_trtdifferential loss correction	single-endedforward channel	channel 4reverse channel	N/Adate	2019/09/14time	21:17:35forward acquisition time	60.00reverse acquisition time	0.00gamma	496.2192k internal	0.2306k external	0.2306temperature offset calibration	1.0080default loss term (dB/km)	0.3790temperature slope calibration	1.0000multiplexer offset coefficient	1.0000multiplexer slope coefficient	1.0000fibre end	0.00T internal ref (°C)	33.00T ext. ref 1 (°C)	4.78T ext. ref 2 (°C)	27.77length (m)	temperature (°C)	Stokes	anti-Stokes-747.200	4.805	-0.250	0.187
-746.185	-104.422	-0.285	-0.067
-745.171	-21.299	0.220	0.137
-744.156	-200.000	0.047	0.271
-743.142	379.417	-0.007	0.014
-742.127	-200.000	-0.065	0.478
-741.112	16.979	0.078	0.063
-740.098	118.566	-0.049	-0.061
-739.083	328.243	-0.067	0.130
-738.069	-200.000	0.007	0.446
-737.054	-200.000	0.020	0.137
-736.039	-70.804	-0.196	-0.075
-735.025	-105.662	0.167	-0.039
-734.010	136.818	0.273	-0.363
-732.996	-151.517	-0.467	0.035
-731.981	-108.954	-0.308	0.067
-730.966	-150.102	0.310	-0.024
-729.952	-28.811	-0.310	-0.181
-728.937	-57.787	0.107	0.048
-727.923	-134.198	-0.358	-0.045
-726.908	200.948	0.108	-0.169
-725.894	30.814	0.225	-0.196
-724.879	800.000	0.029	0.122
-723.864	800.000	-0.027	0.083
-722.850	-189.758	-0.140	-0.002
-721.835	-13.085	-0.130	-0.086
-720.821	-103.217	0.101	0.024
-719.806	143.522	0.090	-0.122
-718.791	-4.140	-0.156	-0.110
-717.777	58.694	0.128	-0.128
-716.762	95.856	-0.151	-0.175
-715.748	-158.135	-0.150	-0.009
-714.733	-200.000	0.031	0.170
-713.718	-147.451	0.199	-0.017
-712.704	-172.291	0.164	-0.005
-711.689	238.358	0.150	-0.253
-710.675	800.000	-0.051	-0.158
-709.660	-110.302	0.246	-0.052
-708.645	131.510	-0.200	0.261
-707.631	173.566	0.155	-0.228
-706.616	-149.178	0.108	0.009
-705.602	-69.528	-0.173	0.067
-704.587	97.037	0.148	-0.173
-703.572	-106.593	-0.577	-0.131
-702.558	-15.849	0.407	0.264
-701.543	243.217	-0.124	-0.211
-700.529	-66.418	0.110	0.044
-699.514	34.359	-0.113	0.100
-698.499	-77.180	-0.203	-0.072
-697.485	9.616	0.165	-0.127
-696.470	37.417	-0.326	-0.294
-695.456	-46.159	0.298	-0.149
-694.441	-101.586	0.289	0.071
-693.426	-200.000	-0.005	-0.084
-692.412	-78.627	0.365	0.127
-691.397	183.294	0.089	0.134
-690.383	-200.000	-0.043	-0.429
-689.368	205.008	-0.112	0.177
-688.354	16.864	0.082	-0.066
-687.339	-124.346	-0.121	0.019
-686.324	-146.986	0.308	-0.027
-685.310	40.384	0.127	0.116
-684.295	800.000	-0.109	-0.429
-683.281	-105.896	0.285	-0.065
-682.266	-200.000	-0.013	-0.277
-681.251	-127.056	-0.204	-0.030
-680.237	255.960	-0.130	0.226
-679.222	-118.246	-0.245	-0.044
-678.208	48.802	0.102	-0.097
-677.193	-161.973	-0.533	-0.027
-676.178	21.037	0.078	0.064
-675.164	-200.000	0.000	0.190
-674.149	156.505	-0.231	0.324
-673.135	586.091	0.035	0.086
-672.120	212.047	-0.140	-0.225
-671.105	-52.865	0.300	-0.140
-670.091	-200.000	-0.001	-0.054
-669.076	-21.396	-0.112	-0.069
-668.062	-63.150	0.213	-0.089
-667.047	800.000	0.093	-0.303
-666.032	342.599	-0.081	0.162
-665.018	106.302	-0.281	0.338
-664.003	47.544	-0.249	-0.235
-662.989	46.873	0.118	0.111
-661.974	21.744	-0.215	-0.177
-660.959	-58.545	0.129	-0.057
-659.945	800.000	0.053	-0.206
-658.930	-142.254	0.027	-0.003
-657.916	-200.000	0.048	-0.396
-656.901	-68.565	0.136	-0.053
-655.886	800.000	-0.046	0.136
-654.872	355.404	-0.053	0.106
-653.857	165.094	0.018	-0.026
-652.843	176.122	-0.040	-0.058
-651.828	1.283	-0.239	-0.174
-650.814	-200.000	0.023	0.169
-649.799	-66.154	-0.212	-0.086
-648.784	172.080	-0.237	0.345
-647.770	-138.665	-0.115	-0.013
-646.755	2.577	-0.327	0.240
-645.741	573.153	0.017	-0.041
-644.726	9.028	0.048	-0.037
-643.711	800.000	-0.105	-0.363
-642.697	13.717	-0.094	-0.074
-641.682	800.000	-0.045	-0.176
-640.668	354.231	0.124	-0.249
-639.653	-48.869	-0.377	-0.183
-638.638	674.260	-0.025	0.065
-637.624	800.000	0.099	0.409
-636.609	-162.875	-0.084	0.004
-635.595	152.025	-0.050	-0.069
-634.580	6.835	-0.088	-0.067
-633.565	-100.540	0.245	-0.061
-632.551	-131.151	-0.045	0.006
-631.536	-200.000	-0.023	0.202
-630.522	550.996	-0.067	-0.163
-629.507	-76.567	0.194	-0.069
-628.492	8.163	-0.334	-0.254
-627.478	5.881	-0.028	-0.021
-626.463	-63.218	-0.325	0.136
-625.449	456.493	-0.062	-0.140
-624.434	-200.000	-0.023	0.283
-623.419	63.295	0.040	-0.040
-622.405	17.711	0.260	-0.209
-621.390	-131.847	-0.211	0.028
-620.376	-6.517	-0.140	0.097
-619.361	-94.714	0.082	0.023
-618.346	1.082	-0.183	-0.133
-617.332	167.562	-0.302	-0.434
-616.317	60.526	0.193	0.194
-615.303	-39.688	0.322	0.171
-614.288	-115.998	-0.099	0.019
-613.273	-171.138	0.381	0.013
-612.259	168.170	-0.139	0.201
-611.244	-200.000	0.004	0.142
-610.230	-56.872	-0.429	-0.192
-609.215	-6.448	0.041	-0.028
-608.201	135.569	-0.106	-0.139
-607.186	-85.912	-0.069	-0.022
-606.171	-13.098	-0.340	0.223
-605.157	-200.000	-0.014	0.217
-604.142	-200.000	0.074	-0.340
-603.128	-80.001	0.300	-0.102
-602.113	183.601	-0.123	-0.185
-601.098	235.951	0.214	0.358
-600.084	-40.167	-0.431	-0.227
-599.069	800.000	-0.063	-0.218
-598.055	-95.962	-0.331	-0.089
-597.040	23.090	-0.043	-0.036
-596.025	-200.000	-0.015	-0.170
-595.011	-94.098	0.164	-0.046
-593.996	-50.396	-0.178	0.085
-592.982	-200.000	0.010	-0.107
-591.967	-16.808	-0.211	0.135
-590.952	800.000	-0.080	0.279
-589.938	431.299	0.099	-0.216
-588.923	5.630	-0.231	-0.173
-587.909	-5.473	-0.181	0.125
-586.894	800.000	-0.027	0.117
-585.879	-107.195	0.206	-0.046
-584.865	4.430	0.029	0.021
-583.850	606.552	0.066	0.165
-582.836	-15.480	-0.123	0.079
-581.821	270.486	0.144	-0.257
-580.806	349.705	-0.150	-0.299
-579.792	-55.590	0.248	-0.112
-578.777	475.563	0.026	0.059
-577.763	-200.000	-0.024	-0.124
-576.748	592.560	0.120	-0.301
-575.733	46.711	0.214	-0.201
-574.719	8.250	-0.231	0.175
-573.704	87.897	-0.250	0.280
-572.690	-200.000	-0.166	0.001
-571.675	163.424	0.157	0.222
-570.661	112.025	0.040	-0.049
-569.646	46.812	0.045	-0.042
-568.631	329.849	-0.192	0.373
-567.617	800.000	-0.053	-0.219
-566.602	128.925	0.191	0.246
-565.588	-106.309	-0.135	-0.031
-564.573	130.223	0.063	-0.082
-563.558	-200.000	0.001	0.196
-562.544	156.764	-0.092	-0.128
-561.529	-127.533	0.155	-0.023
-560.515	-77.367	-0.115	0.040
-559.500	-128.445	0.342	0.049
-558.485	56.387	-0.293	-0.288
-557.471	-96.742	-0.135	-0.036
-556.456	54.242	0.127	-0.123
-555.442	-146.926	-0.107	0.009
-554.427	245.368	-0.068	0.115
-553.412	-200.000	0.009	-0.129
-552.398	800.000	0.046	0.154
-551.383	-155.090	-0.170	0.011
-550.369	-122.006	-0.217	-0.036
-549.354	-200.000	0.033	0.249
-548.339	-200.000	0.002	0.240
-547.325	-200.000	0.016	0.118
-546.310	-200.000	-0.023	-0.219
-545.296	203.488	-0.055	0.086
-544.281	47.278	-0.228	-0.214
-543.266	131.471	-0.229	0.297
-542.252	800.000	-0.084	0.242
-541.237	26.035	-0.073	-0.061
-540.223	-200.000	0.024	-0.375
-539.208	10.141	-0.188	0.144
-538.193	800.000	-0.034	-0.124
-537.179	81.482	0.131	-0.143
-536.164	3.172	0.177	0.130
-535.150	212.740	-0.111	0.177
-534.135	-33.213	-0.150	0.084
-533.121	-26.824	0.116	-0.069
-532.106	-104.385	-0.216	-0.050
-531.091	800.000	-0.025	0.072
-530.077	-106.743	0.414	-0.093
-529.062	416.264	0.083	0.178
-528.048	-20.046	0.149	-0.093
-527.033	0.603	-0.106	-0.077
-526.018	60.230	0.060	-0.060
-525.004	88.708	-0.129	-0.145
-523.989	-200.000	0.008	0.185
-522.975	107.090	-0.125	-0.149
-521.960	53.253	-0.212	-0.204
-520.945	800.000	0.034	0.095
-519.931	51.645	-0.058	0.056
-518.916	291.169	-0.085	-0.157
-517.902	-200.000	0.041	0.319
-516.887	-42.013	-0.491	-0.254
-515.872	-71.752	0.416	0.156
-514.858	89.663	-0.119	-0.134
-513.843	800.000	0.062	-0.183
-512.829	474.711	-0.238	0.542
-511.814	800.000	-0.026	0.106
-510.799	150.675	0.035	-0.048
-509.785	88.966	-0.193	-0.217
-508.770	-200.000	-0.025	-0.292
-507.756	41.276	-0.208	0.189
-506.741	-81.125	0.228	-0.076
-505.726	-200.000	-0.018	0.113
-504.712	-62.634	0.559	0.234
-503.697	135.534	-0.225	0.295
-502.683	-133.041	0.297	0.038
-501.668	-112.042	0.232	-0.047
-500.653	-198.936	0.111	-0.001
-499.639	603.437	0.146	-0.367
-498.624	800.000	-0.028	-0.111
-497.610	-49.808	-0.059	-0.028
-496.595	-200.000	0.007	0.275
-495.581	-79.466	-0.136	0.046
-494.566	-200.000	0.041	0.223
-493.551	-72.140	0.267	-0.100
-492.537	361.059	-0.113	0.228
-491.522	-200.000	-0.033	0.411
-490.508	-31.562	0.060	-0.034
-489.493	374.591	-0.048	-0.099
-488.478	145.601	-0.052	-0.070
-487.464	6.529	-0.210	-0.157
-486.449	-94.732	-0.209	-0.057
-485.435	-64.697	0.145	-0.059
-484.420	800.000	0.035	-0.139
-483.405	-105.851	0.083	0.019
-482.391	-200.000	0.391	0.001
-481.376	623.487	0.138	0.349
-480.362	-200.000	0.054	0.279
-479.347	800.000	-0.041	-0.153
-478.332	-71.491	0.091	-0.034
-477.318	191.199	0.221	0.334
-476.303	-35.952	0.136	-0.074
-475.289	-179.732	0.184	0.004
-474.274	-200.000	0.037	-0.175
-473.259	164.094	0.119	0.169
-472.245	-200.000	-0.009	0.210
-471.230	688.812	0.086	0.225
-470.216	76.657	0.251	0.268
-469.201	157.119	0.216	-0.300
-468.186	-105.782	-0.172	0.039
-467.172	800.000	-0.059	-0.226
-466.157	511.285	0.035	0.082
-465.143	-200.000	0.057	0.263
-464.128	-200.000	0.012	-0.144
-463.113	28.854	-0.261	-0.222
-462.099	-127.138	-0.115	-0.017
-461.084	-117.822	-0.339	0.061
-460.070	308.427	0.186	-0.350
-459.055	-74.157	0.079	-0.029
-458.040	-98.261	0.188	-0.049
-457.026	171.609	0.082	-0.119
-456.011	86.399	-0.182	-0.202
-454.997	220.090	-0.128	0.206
-453.982	512.754	0.057	0.134
-452.968	49.978	0.241	-0.229
-451.953	617.307	-0.056	-0.141
-450.938	-1.680	-0.336	0.238
-449.924	323.876	-0.090	-0.172
-448.909	-148.097	0.351	-0.029
-447.895	-7.040	0.040	-0.028
-446.880	-200.000	0.013	-0.212
-445.865	-200.000	-0.023	0.136
-444.851	174.922	-0.213	0.310
-443.836	-200.000	0.139	-0.000
-442.822	124.094	0.108	0.136
-441.807	12.849	-0.063	-0.049
-440.792	-200.000	-0.020	-0.117
-439.778	-70.948	0.152	0.058
-438.763	190.432	0.038	-0.057
-437.749	330.299	-0.029	-0.056
-436.734	-200.000	0.016	-0.137
-435.719	196.303	0.230	-0.352
-434.705	-101.193	-0.328	0.081
-433.690	-130.638	-0.217	0.029
-432.676	-161.223	-0.037	0.002
-431.661	217.919	0.074	-0.119
-430.646	800.000	0.045	-0.166
-429.632	800.000	-0.081	-0.295
-428.617	73.649	0.155	0.163
-427.603	-9.040	0.162	0.109
-426.588	800.000	0.030	-0.116
-425.573	504.302	-0.065	-0.152
-424.559	49.604	0.099	-0.094
-423.544	152.794	-0.133	0.183
-422.530	800.000	-0.079	0.346
-421.515	704.246	-0.084	0.223
-420.500	100.497	0.324	0.378
-419.486	800.000	0.053	0.230
-418.471	800.000	-0.037	0.113
-417.457	302.198	0.095	-0.177
-416.442	-200.000	-0.019	0.102
-415.428	-187.405	-0.221	-0.003
-414.413	800.000	0.030	0.123
-413.398	-104.427	0.251	-0.058
-412.384	325.195	0.065	-0.124
-411.369	768.665	0.108	-0.295
-410.355	-200.000	-0.030	0.158
-409.340	106.344	0.071	-0.085
-408.325	62.310	-0.061	0.061
-407.311	107.006	-0.192	-0.229
-406.296	-100.115	0.129	-0.032
-405.282	-17.933	-0.284	0.179
-404.267	104.107	0.090	-0.106
-403.252	-44.187	-0.090	0.045
-402.238	-42.852	0.209	0.107
-401.223	800.000	0.087	0.372
-400.209	-200.000	-0.030	0.147
-399.194	-200.000	-0.027	0.430
-398.179	-200.000	-0.035	0.262
-397.165	-70.012	0.108	0.041
-396.150	-82.290	0.429	-0.140
-395.136	800.000	0.044	-0.123
-394.121	70.298	-0.125	0.129
-393.106	-92.084	-0.266	0.075
-392.092	-23.487	-0.234	-0.141
-391.077	-35.064	0.194	-0.106
-390.063	94.040	0.177	-0.202
-389.048	26.448	-0.084	0.071
-388.033	800.000	-0.014	-0.045
-387.019	-200.000	0.019	-0.313
-386.004	-133.727	-0.411	-0.051
-384.990	-200.000	-0.022	-0.133
-383.975	246.869	-0.180	-0.304
-382.960	328.155	-0.096	0.184
-381.946	800.000	-0.055	-0.227
-380.931	-179.263	0.207	-0.005
-379.917	-98.199	-0.318	0.082
-378.902	20.908	0.007	0.006
-377.888	-200.000	-0.025	-0.181
-376.873	-107.892	0.127	-0.028
-375.858	26.888	-0.067	0.056
-374.844	-17.568	0.188	0.118
-373.829	-200.000	0.011	0.098
-372.815	-185.239	0.104	0.002
-371.800	205.166	-0.113	-0.176
-370.785	-65.057	0.191	-0.077
-369.771	-0.380	0.303	-0.216
-368.756	-43.164	-0.188	-0.096
-367.742	193.132	0.174	-0.263
-366.727	-64.479	-0.468	0.191
-365.712	144.948	0.023	-0.030
-364.698	800.000	-0.037	0.114
-363.683	-100.924	0.325	-0.080
-362.669	-11.149	0.169	-0.111
-361.654	-45.573	-0.176	0.088
-360.639	800.000	0.009	-0.031
-359.625	-133.847	0.368	0.046
-358.610	227.266	0.137	0.223
-357.596	-52.494	0.103	-0.048
-356.581	145.416	0.155	0.207
-355.566	-30.276	0.197	0.112
-354.552	167.096	0.024	-0.035
-353.537	800.000	0.028	-0.120
-352.523	-200.000	-0.010	0.311
-351.508	-112.513	-0.085	-0.017
-350.493	116.411	0.094	-0.115
-349.479	-121.067	0.071	-0.012
-348.464	-200.000	0.021	0.183
-347.450	-91.162	0.326	-0.094
-346.435	39.708	-0.114	-0.103
-345.420	373.046	0.058	0.118
-344.406	-0.654	0.103	-0.073
-343.391	-61.834	-0.257	0.108
-342.377	-76.594	0.193	-0.068
-341.362	-20.996	0.158	0.097
-340.348	-81.714	-0.130	0.043
-339.333	12.722	0.191	0.148
-338.318	-95.559	0.258	-0.069
-337.304	-171.905	-0.104	-0.003
-336.289	-200.000	0.024	-0.222
-335.275	169.899	-0.106	-0.152
-334.260	-200.000	-0.029	0.215
-333.245	-200.000	0.021	-0.155
-332.231	-159.802	-0.107	0.006
-331.216	-142.933	-0.055	0.005
-330.202	23.846	0.091	0.075
-329.187	70.477	-0.259	-0.268
-328.172	661.176	-0.108	-0.278
-327.158	30.146	0.434	0.371
-326.143	203.935	0.245	0.380
-325.129	280.785	-0.082	0.147
-324.114	73.116	0.201	-0.210
-323.099	12.690	0.119	-0.092
-322.085	-15.476	0.168	0.107
-321.070	800.000	0.064	-0.259
-320.056	-1.725	0.230	-0.162
-319.041	536.989	-0.104	0.248
-318.026	800.000	0.035	-0.115
-317.012	55.983	0.091	0.088
-315.997	-51.153	0.139	-0.065
-314.983	-104.879	-0.194	-0.044
-313.968	21.483	0.303	0.246
-312.953	117.462	-0.064	-0.078
-311.939	-125.423	0.186	0.028
-310.924	800.000	0.055	-0.155
-309.910	-59.232	-0.187	0.081
-308.895	-200.000	0.086	0.381
-307.880	-41.672	-0.151	-0.077
-306.866	-200.000	0.000	-0.091
-305.851	-200.000	-0.041	-0.205
-304.837	164.110	0.229	0.323
-303.822	-14.481	-0.128	0.082
-302.807	125.510	0.125	-0.158
-301.793	74.789	0.225	-0.236
-300.778	-89.944	-0.067	-0.020
-299.764	-200.000	-0.037	-0.256
-298.749	6.575	-0.057	-0.042
-297.735	-121.211	-0.537	0.090
-296.720	-200.000	-0.009	-0.072
-295.705	64.972	0.101	-0.102
-294.691	6.925	-0.151	-0.113
-293.676	107.406	-0.347	0.412
-292.662	800.000	0.069	0.276
-291.647	-61.231	0.213	-0.090
-290.632	800.000	0.084	-0.252
-289.618	-136.587	0.167	-0.019
-288.603	-73.334	-0.154	0.056
-287.589	-134.038	-0.254	-0.031
-286.574	-200.000	-0.029	0.252
-285.559	-120.903	0.259	-0.044
-284.545	-200.000	0.051	-0.347
-283.530	72.069	-0.270	-0.281
-282.516	89.558	0.100	0.111
-281.501	800.000	0.044	-0.178
-280.486	-200.000	0.003	0.216
-279.472	-115.629	-0.316	-0.059
-278.457	-200.000	0.004	0.087
-277.443	-200.000	0.033	-0.237
-276.428	-144.004	-0.239	0.022
-275.413	-68.339	-0.215	0.083
-274.399	-200.000	0.035	0.202
-273.384	44.838	0.207	0.190
-272.370	-39.487	-0.149	0.078
-271.355	-39.219	0.198	-0.104
-270.340	-200.000	0.086	0.379
-269.326	-200.000	0.013	0.062
-268.311	-38.793	0.477	-0.251
-267.297	800.000	-0.074	-0.285
-266.282	-96.782	-0.273	-0.072
-265.267	17.938	0.210	0.167
-264.253	280.660	-0.112	-0.201
-263.238	800.000	-0.061	0.208
-262.224	-200.000	-0.024	0.198
-261.209	-7.568	-0.178	0.120
-260.195	16.766	0.195	-0.154
-259.180	-200.000	0.071	0.345
-258.165	-79.930	-0.170	0.057
-257.151	-200.000	-0.018	-0.082
-256.136	-141.360	0.152	0.015
-255.122	800.000	-0.115	-0.495
-254.107	-200.000	-0.056	0.597
-253.092	-49.226	-0.117	0.056
-252.078	-135.104	0.312	-0.038
-251.063	83.736	-0.178	0.194
-250.049	-25.681	-0.171	-0.101
-249.034	-200.000	-0.012	-0.176
-248.019	-78.705	-0.200	-0.068
-247.005	68.315	0.356	0.364
-245.990	291.560	-0.158	-0.287
-244.976	800.000	-0.120	0.364
-243.961	-158.652	0.197	0.011
-242.946	254.801	0.085	-0.145
-241.932	608.439	0.019	-0.047
-240.917	-104.763	0.418	-0.096
-239.903	-200.000	-0.001	-0.065
-238.888	800.000	-0.088	-0.252
-237.873	-200.000	0.034	-0.258
-236.859	-147.163	0.319	-0.027
-235.844	-200.000	-0.041	0.313
-234.830	-39.139	0.303	0.159
-233.815	381.290	0.085	-0.175
-232.800	418.592	-0.137	-0.292
-231.786	-95.572	-0.358	0.096
-230.771	800.000	-0.063	-0.195
-229.757	-171.975	0.275	-0.009
-228.742	-200.000	-0.010	-0.320
-227.727	-40.010	-0.126	-0.065
-226.713	674.176	0.015	-0.038
-225.698	-162.615	0.042	0.002
-224.684	-200.000	-0.012	-0.083
-223.669	99.380	-0.261	-0.301
-222.655	-61.943	0.153	-0.064
-221.640	308.393	0.139	-0.259
-220.625	-127.334	0.221	0.032
-219.611	323.678	0.045	0.085
-218.596	-200.000	0.016	0.312
-217.582	-133.522	-0.337	0.042
-216.567	224.102	0.057	-0.092
-215.552	25.405	0.209	-0.173
-214.538	244.395	0.039	0.065
-213.523	328.951	0.134	0.257
-212.509	-136.143	-0.261	-0.030
-211.494	-33.402	-0.334	-0.184
-210.479	-166.908	-0.152	0.006
-209.465	-200.000	0.004	-0.122
-208.450	154.551	0.154	0.210
-207.436	800.000	0.073	-0.307
-206.421	-88.460	0.214	-0.064
-205.406	-138.901	-0.226	-0.024
-204.392	-140.345	-0.215	-0.022
-203.377	-110.270	-0.280	0.058
-202.363	-43.707	-0.147	-0.074
-201.348	24.243	-0.228	0.188
-200.333	-38.376	0.324	-0.171
-199.319	-43.072	-0.059	-0.030
-198.304	-57.199	0.135	-0.059
-197.290	-68.805	-0.166	-0.064
-196.275	-4.044	0.364	0.251
-195.260	-120.123	0.356	-0.061
-194.246	0.326	-0.260	0.185
-193.231	67.212	-0.038	0.039
-192.217	35.412	0.082	0.071
-191.202	-72.984	0.320	-0.117
-190.187	-46.876	0.307	0.149
-189.173	-100.562	0.234	-0.058
-188.158	-200.000	0.038	-0.167
-187.144	800.000	-0.059	0.252
-186.129	-200.000	-0.091	0.499
-185.114	-19.462	0.135	-0.083
-184.100	-65.920	0.469	0.186
-183.085	-54.843	0.150	-0.067
-182.071	114.386	-0.033	0.039
-181.056	-105.225	-0.334	-0.076
-180.042	26.613	0.143	-0.119
-179.027	16.177	-0.218	0.171
-178.012	203.996	0.087	-0.135
-176.998	-200.000	-0.019	-0.210
-175.983	-107.060	-0.212	-0.047
-174.969	-28.062	-0.267	0.154
-173.954	67.375	0.122	-0.124
-172.939	-200.000	0.033	0.235
-171.925	-79.343	-0.187	0.063
-170.910	10.303	0.411	0.311
-169.896	-200.000	0.002	0.233
-168.881	489.884	-0.059	0.135
-167.866	2.791	-0.136	0.098
-166.852	800.000	-0.043	0.165
-165.837	-200.000	-0.047	0.208
-164.823	796.923	0.045	-0.124
-163.808	-18.643	-0.130	-0.081
-162.793	-200.000	0.003	-0.128
-161.779	-53.830	-0.070	0.032
-160.764	-56.413	-0.047	-0.021
-159.750	-100.801	0.150	-0.037
-158.735	71.312	-0.346	-0.357
-157.720	-200.000	0.053	0.279
-156.706	258.913	0.085	0.145
-155.691	58.706	-0.086	0.084
-154.677	-156.402	-0.107	-0.007
-153.662	-200.000	-0.077	-0.467
-152.647	358.476	0.049	0.098
-151.633	800.000	-0.022	0.069
-150.618	-143.611	-0.053	0.005
-149.604	149.641	-0.059	0.080
-148.589	79.016	-0.263	0.280
-147.574	-200.000	-0.026	-0.188
-146.560	-200.000	0.031	0.178
-145.545	-140.452	-0.057	0.006
-144.531	800.000	-0.084	-0.326
-143.516	-125.384	-0.149	0.023
-142.502	56.801	0.119	0.115
-141.487	32.798	-0.074	0.063
-140.472	606.342	0.093	-0.231
-139.458	-200.000	-0.017	0.182
-138.443	-16.931	0.270	0.169
-137.429	35.432	-0.356	-0.310
-136.414	-133.101	-0.210	0.026
-135.399	-133.573	0.354	-0.044
-134.385	-86.443	-0.081	0.025
-133.370	193.099	0.120	-0.180
-132.356	-119.045	0.038	0.007
-131.341	32.161	0.145	-0.125
-130.326	-101.199	-0.095	-0.023
-129.312	-200.000	-0.028	0.194
-128.297	-75.992	0.351	0.123
-127.283	419.653	0.069	0.147
-126.268	67.958	0.169	0.172
-125.253	-45.033	-0.397	-0.196
-124.239	-200.000	-0.009	0.149
-123.224	569.379	0.075	0.182
-122.210	-42.978	-0.348	-0.175
