DTS Sentinel unit serial number:	SN413079Multiplexer serial number:	ORYXHardware model number:	OX4-SRSoftware version number:	ORYX F/W v4.00 Oryx Data Collector v3.7.2.0data status	okinstallation	princeton_trtdifferential loss correction	single-endedforward channel	channel 4reverse channel	N/Adate	2019/09/14time	07:53:35forward acquisition time	60.00reverse acquisition time	0.00gamma	496.2192k internal	0.2321k external	0.2321temperature offset calibration	1.0132default loss term (dB/km)	0.3790temperature slope calibration	1.0000multiplexer offset coefficient	1.0000multiplexer slope coefficient	1.0000fibre end	0.00T internal ref (°C)	26.58T ext. ref 1 (°C)	3.52T ext. ref 2 (°C)	23.40length (m)	temperature (°C)	Stokes	anti-Stokes-747.200	-92.825	0.289	0.082
-746.185	-133.727	-0.217	-0.027
-745.171	800.000	0.030	-0.108
-744.156	-131.492	-0.378	0.050
-743.142	107.752	-0.059	-0.071
-742.127	-62.705	-0.276	0.116
-741.112	-200.000	-0.009	-0.315
-740.098	32.617	-0.241	0.210
-739.083	49.852	0.213	-0.203
-738.069	117.288	0.173	0.215
-737.054	20.022	0.069	-0.056
-736.039	-66.816	0.264	0.106
-735.025	-52.511	0.214	0.100
-734.010	34.499	0.272	-0.240
-732.996	-157.116	0.189	-0.012
-731.981	474.228	0.109	-0.249
-730.966	49.019	-0.140	0.133
-729.952	-128.715	-0.623	0.089
-728.937	50.984	-0.230	-0.220
-727.923	611.533	-0.128	0.324
-726.908	-30.978	-0.241	0.138
-725.894	-96.687	-0.239	0.064
-724.879	301.061	0.172	-0.322
-723.864	800.000	0.126	0.353
-722.850	-200.000	-0.031	-0.208
-721.835	43.514	-0.213	0.196
-720.821	-2.640	-0.135	-0.095
-719.806	-200.000	-0.008	-0.098
-718.791	-200.000	0.011	0.113
-717.777	12.125	-0.072	0.056
-716.762	-21.958	-0.176	-0.108
-715.748	-200.000	0.017	-0.187
-714.733	-200.000	0.031	0.251
-713.718	-10.472	-0.172	0.115
-712.704	-58.948	0.481	0.210
-711.689	-5.043	0.229	0.159
-710.675	-89.202	0.060	-0.018
-709.660	-200.000	-0.021	-0.301
-708.645	438.204	-0.199	-0.437
-707.631	-42.846	-0.158	-0.081
-706.616	-200.000	-0.003	0.030
-705.602	800.000	0.047	-0.158
-704.587	-200.000	-0.006	0.130
-703.572	85.550	0.207	-0.229
-702.558	800.000	-0.139	-0.573
-701.543	196.725	-0.171	0.264
-700.529	80.153	0.299	0.324
-699.514	510.356	0.033	0.076
-698.499	800.000	-0.065	-0.282
-697.485	153.623	0.085	0.117
-696.470	16.098	-0.217	0.172
-695.456	-200.000	0.008	-0.181
-694.441	-200.000	-0.027	0.181
-693.426	-100.015	-0.344	-0.087
-692.412	800.000	-0.099	-0.281
-691.397	254.037	-0.159	0.274
-690.383	321.863	-0.156	0.299
-689.368	-200.000	-0.014	0.084
-688.354	63.216	-0.142	-0.144
-687.339	539.497	0.112	-0.270
-686.324	800.000	-0.080	-0.291
-685.310	-42.593	-0.108	0.056
-684.295	-40.579	-0.105	-0.055
-683.281	-120.375	-0.322	0.055
-682.266	65.685	-0.148	-0.151
-681.251	-143.733	0.134	0.013
-680.237	11.814	-0.061	0.048
-679.222	51.989	0.267	-0.256
-678.208	-200.000	-0.034	0.266
-677.193	-101.836	-0.171	0.042
-676.178	-44.443	-0.182	0.092
-675.164	180.024	0.103	0.153
-674.149	-196.173	-0.076	0.001
-673.135	800.000	0.104	-0.339
-672.120	-96.772	0.102	0.027
-671.105	-200.000	-0.050	0.287
-670.091	-143.756	0.274	-0.026
-669.076	-11.011	-0.261	-0.174
-668.062	-200.000	-0.018	0.084
-667.047	94.023	0.178	0.203
-666.032	-200.000	-0.040	-0.374
-665.018	-74.703	0.251	0.091
-664.003	51.854	-0.122	-0.117
-662.989	-200.000	-0.020	-0.108
-661.974	604.092	-0.012	-0.031
-660.959	101.976	-0.147	0.173
-659.945	-19.456	0.250	-0.156
-658.930	437.801	0.170	0.374
-657.916	724.554	-0.060	-0.162
-656.901	431.903	-0.051	0.111
-655.886	-76.869	-0.168	-0.059
-654.872	8.430	-0.286	-0.217
-653.857	88.819	0.133	-0.149
-652.843	800.000	0.016	0.064
-651.828	-125.197	0.521	0.080
-650.814	-126.328	0.076	0.011
-649.799	800.000	-0.028	0.103
-648.784	95.128	0.055	0.064
-647.770	138.853	0.109	-0.144
-646.755	50.805	-0.032	-0.030
-645.741	33.534	0.058	0.050
-644.726	-64.196	-0.354	0.145
-643.711	-77.218	0.091	0.032
-642.697	8.273	0.082	-0.062
-641.682	-98.042	0.135	0.035
-640.668	-176.217	0.133	0.003
-639.653	-47.224	-0.116	0.057
-638.638	41.787	-0.169	0.154
-637.624	214.879	0.117	-0.186
-636.609	-200.000	-0.029	0.531
-635.595	800.000	0.016	-0.064
-634.580	30.744	0.182	0.157
-633.565	-125.031	0.280	-0.043
-632.551	800.000	-0.006	-0.021
-631.536	-43.456	-0.193	-0.098
-630.522	228.744	0.248	-0.408
-629.507	-200.000	-0.016	0.317
-628.492	-193.384	0.247	0.002
-627.478	-2.348	-0.160	-0.113
-626.463	224.047	0.174	-0.284
-625.449	118.183	-0.186	-0.230
-624.434	-131.409	-0.144	0.019
-623.419	-130.644	0.217	0.029
-622.405	-41.201	0.242	-0.126
-621.390	43.062	-0.077	-0.070
-620.376	11.859	0.051	-0.039
-619.361	386.509	-0.109	0.225
-618.346	77.480	0.184	-0.197
-617.332	355.912	0.121	-0.242
-616.317	-200.000	0.018	-0.275
-615.303	-83.364	-0.366	-0.118
-614.288	800.000	-0.029	-0.102
-613.273	-104.132	0.296	-0.069
-612.259	-17.551	-0.092	-0.058
-611.244	-200.000	-0.012	-0.142
-610.230	124.058	0.050	0.063
-609.215	-142.676	0.318	0.031
-608.201	-200.000	0.083	0.459
-607.186	-63.348	-0.279	-0.115
-606.171	163.342	-0.129	-0.182
-605.157	85.470	0.211	0.233
-604.142	800.000	0.027	0.104
-603.128	800.000	-0.090	0.297
-602.113	-200.000	-0.002	0.140
-601.098	86.609	-0.327	-0.363
-600.084	-56.488	0.143	0.064
-599.069	-121.013	-0.181	-0.031
-598.055	-97.003	0.125	0.033
-597.040	800.000	-0.044	0.126
-596.025	-58.874	0.185	-0.080
-595.011	-51.241	-0.088	0.041
-593.996	-41.407	-0.193	-0.100
-592.982	-110.298	-0.043	-0.009
-591.967	-200.000	0.037	0.275
-590.952	-200.000	0.034	0.611
-589.938	-169.530	-0.107	-0.004
-588.923	-131.914	-0.190	-0.025
-587.909	88.698	0.307	-0.343
-586.894	61.550	-0.168	-0.168
-585.879	92.792	-0.205	-0.233
-584.865	-13.793	-0.175	0.114
-583.850	-200.000	-0.001	-0.120
-582.836	504.896	0.071	-0.166
-581.821	179.437	-0.086	-0.126
-580.806	-70.998	-0.146	0.055
-579.792	-18.654	0.083	-0.052
-578.777	-200.000	-0.014	0.071
-577.763	97.893	0.134	-0.155
-576.748	-40.981	0.227	-0.118
-575.733	-153.871	-0.195	-0.013
-574.719	-86.685	-0.221	-0.068
-573.704	-64.574	0.197	-0.080
-572.690	169.311	-0.064	-0.092
-571.675	-136.204	-0.199	-0.023
-570.661	800.000	0.061	-0.266
-569.646	-70.569	0.175	0.067
-568.631	-95.968	0.248	0.066
-567.617	289.579	-0.096	-0.174
-566.602	-58.272	-0.203	0.089
-565.588	-39.939	0.259	0.136
-564.573	-108.942	0.360	0.077
-563.558	800.000	0.057	-0.187
-562.544	-40.147	0.308	0.161
-561.529	431.259	0.010	0.021
-560.515	66.877	0.023	0.024
-559.500	-200.000	0.029	-0.402
-558.485	-167.306	0.562	-0.023
-557.471	-102.479	-0.116	0.028
-556.456	-200.000	0.001	-0.063
-555.442	13.833	0.133	0.104
-554.427	-162.011	-0.195	0.010
-553.412	-200.000	-0.051	0.416
-552.398	-37.182	0.119	0.064
-551.383	-39.093	0.063	0.033
-550.369	-153.469	0.308	-0.021
-549.354	-83.019	0.216	0.070
-548.339	514.592	0.121	-0.284
-547.325	425.246	-0.026	-0.056
-546.310	225.753	-0.043	-0.069
-545.296	-114.381	0.216	0.042
-544.281	-200.000	-0.008	-0.109
-543.266	-88.678	-0.197	0.059
-542.252	14.884	0.100	0.079
-541.237	-29.102	0.061	-0.035
-540.223	59.978	-0.102	0.101
-539.208	250.319	-0.063	0.107
-538.193	-175.759	0.124	-0.003
-537.179	800.000	-0.065	0.234
-536.164	48.597	-0.191	-0.179
-535.150	189.372	-0.131	-0.196
-534.135	145.666	-0.030	0.040
-533.121	430.111	0.115	-0.249
-532.106	800.000	-0.014	-0.043
-531.091	-123.532	-0.242	0.039
-530.077	-146.637	0.027	0.002
-529.062	-122.199	0.089	-0.015
-528.048	3.761	-0.229	-0.168
-527.033	242.421	-0.093	-0.156
-526.018	21.909	0.107	0.087
-525.004	-200.000	-0.042	0.299
-523.989	800.000	-0.051	0.218
-522.975	-200.000	-0.040	-0.205
-521.960	282.683	0.142	0.256
-520.945	159.698	0.107	-0.150
-519.931	-57.988	0.244	0.107
-518.916	539.097	-0.187	-0.446
-517.902	-121.386	-0.355	-0.059
-516.887	-2.771	-0.068	-0.048
-515.872	-111.907	-0.181	0.037
-514.858	-200.000	-0.037	-0.403
-513.843	-200.000	-0.014	0.284
-512.829	-144.898	-0.171	0.016
-511.814	-5.178	-0.293	-0.202
-510.799	-200.000	0.010	-0.541
-509.785	316.098	-0.123	-0.232
-508.770	-53.627	-0.456	-0.209
-507.756	-101.154	0.150	0.037
-506.741	374.452	0.053	-0.107
-505.726	-97.240	-0.368	-0.096
-504.712	800.000	-0.027	-0.090
-503.697	161.405	-0.142	0.199
-502.683	-200.000	-0.078	0.403
-501.668	-85.630	0.289	0.090
-500.653	490.704	0.215	0.493
-499.639	-145.973	-0.218	0.019
-498.624	-200.000	-0.063	0.282
-497.610	-37.856	-0.121	-0.064
-496.595	-43.042	0.169	0.086
-495.581	92.497	-0.144	0.163
-494.566	-152.660	0.427	0.030
-493.551	-39.419	-0.077	-0.041
-492.537	436.903	0.083	0.181
-491.522	800.000	0.101	-0.433
-490.508	-36.761	-0.164	0.088
-489.493	280.304	-0.130	0.232
-488.478	128.214	-0.114	-0.145
-487.464	332.183	-0.182	-0.351
-486.449	-160.636	-0.038	0.002
-485.435	42.382	-0.116	-0.105
-484.420	-152.386	0.429	-0.031
-483.405	-28.403	-0.268	0.155
-482.391	-29.445	-0.180	-0.103
-481.376	353.076	-0.152	-0.302
-480.362	-188.746	-0.273	0.003
-479.347	-200.000	-0.012	-0.263
-478.332	-75.954	0.080	-0.028
-477.318	182.534	-0.036	-0.053
-476.303	-200.000	0.006	-0.435
-475.289	261.784	0.059	0.103
-474.274	249.254	-0.056	-0.095
-473.259	38.353	0.077	0.069
-472.245	399.136	0.050	0.106
-471.230	800.000	-0.019	-0.069
-470.216	-200.000	-0.029	-0.376
-469.201	-200.000	0.044	-0.253
-468.186	341.388	-0.079	-0.154
-467.172	-90.278	-0.102	0.030
-466.157	800.000	0.024	-0.083
-465.143	-112.781	0.105	0.021
-464.128	-23.866	-0.102	0.061
-463.113	-88.887	0.151	0.045
-462.099	97.395	0.157	0.180
-461.084	-200.000	0.040	0.187
-460.070	-108.317	-0.243	0.052
-459.055	-135.031	0.220	0.026
-458.040	-98.410	0.384	-0.098
-457.026	-200.000	0.008	0.213
-456.011	-200.000	0.025	-0.247
-454.997	797.422	0.095	0.261
-453.982	153.205	0.099	-0.135
-452.968	309.232	0.097	0.182
-451.953	24.634	0.082	0.068
-450.938	-27.428	0.122	0.071
-449.924	-154.032	-0.097	-0.007
-448.909	85.027	0.100	0.109
-447.895	72.743	-0.111	0.116
-446.880	-35.458	-0.123	0.067
-445.865	67.096	-0.170	-0.173
-444.851	-95.822	0.261	0.069
-443.836	137.759	0.139	-0.182
-442.822	140.965	0.038	0.050
-441.807	-44.824	0.157	-0.078
-440.792	-80.513	0.306	-0.102
-439.778	139.521	0.085	-0.112
-438.763	-134.179	0.268	-0.033
-437.749	100.495	-0.219	0.254
-436.734	-104.028	0.105	0.024
-435.719	120.019	-0.011	0.013
-434.705	-62.408	-0.195	-0.081
-433.690	-122.084	0.118	-0.019
-432.676	-114.767	0.330	0.063
-431.661	-159.971	0.080	-0.004
-430.646	-200.000	-0.042	-0.369
-429.632	-200.000	-0.015	0.163
-428.617	-46.079	0.184	0.091
-427.603	-56.976	0.148	0.065
-426.588	-161.193	0.338	-0.018
-425.573	244.961	-0.070	0.117
-424.559	-106.213	0.367	-0.082
-423.544	-159.431	0.071	0.004
-422.530	-145.924	-0.105	0.009
-421.515	534.340	0.036	-0.084
-420.500	800.000	-0.013	0.054
-419.486	-200.000	-0.016	0.396
-418.471	40.306	-0.200	-0.180
-417.457	-7.423	0.290	0.196
-416.442	-89.769	0.108	-0.031
-415.428	91.232	0.230	-0.258
-414.413	42.571	0.159	0.144
-413.398	90.397	-0.117	0.131
-412.384	-200.000	0.003	-0.300
-411.369	-200.000	-0.023	0.136
-410.355	388.433	-0.106	0.220
-409.340	-92.363	0.134	0.038
-408.325	-200.000	-0.007	0.051
-407.311	-200.000	0.009	-0.369
-406.296	-98.902	-0.253	0.064
-405.282	-48.252	0.196	0.094
-404.267	-165.440	0.328	-0.014
-403.252	-200.000	0.001	-0.296
-402.238	-113.879	-0.145	0.028
-401.223	91.533	-0.199	0.223
-400.209	34.464	0.269	-0.235
-399.194	-200.000	-0.019	0.147
-398.179	41.054	-0.148	0.134
-397.165	124.630	0.130	0.163
-396.150	-82.166	0.198	-0.064
-395.136	-155.175	-0.336	-0.022
-394.121	-200.000	0.032	-0.288
-393.106	191.876	0.141	-0.212
-392.092	-127.185	-0.282	-0.041
-391.077	-32.258	0.241	0.134
-390.063	-200.000	-0.076	0.578
-389.048	-200.000	-0.018	-0.366
-388.033	743.961	-0.076	0.205
-387.019	-118.936	0.123	0.021
-386.004	50.772	0.081	0.076
-384.990	-117.082	0.243	0.044
-383.975	-200.000	0.042	-0.245
-382.960	-175.757	-0.164	0.004
-381.946	-53.974	-0.246	-0.112
-380.931	-65.948	-0.044	0.017
-379.917	-153.824	0.461	-0.031
-378.902	96.398	-0.121	-0.137
-377.888	-29.293	-0.162	-0.093
-376.873	682.863	-0.115	-0.300
-375.858	-182.486	-0.157	-0.003
-374.844	-16.796	-0.197	-0.124
-373.829	-1.795	0.333	-0.233
-372.815	-161.445	-0.186	0.010
-371.800	128.362	-0.096	-0.122
-370.785	34.017	-0.239	0.207
-369.771	800.000	0.066	0.224
-368.756	-93.361	0.241	-0.067
-367.742	274.619	0.117	0.206
-366.727	-94.863	-0.244	0.066
-365.712	-12.363	0.283	-0.184
-364.698	136.533	-0.191	0.248
-363.683	-1.131	0.266	0.187
-362.669	35.918	-0.100	0.088
-361.654	-56.142	-0.169	-0.075
-360.639	100.064	-0.175	0.202
-359.625	-95.110	-0.397	0.107
-358.610	800.000	-0.049	0.167
-357.596	-200.000	0.038	0.280
-356.581	-46.121	-0.024	0.012
-355.566	-135.421	0.276	0.033
-354.552	382.356	-0.073	-0.149
-353.537	27.955	0.121	0.101
-352.523	-85.013	0.350	0.109
-351.508	790.934	0.043	0.116
-350.493	-82.352	0.157	-0.051
-349.479	-31.717	-0.203	0.113
-348.464	-6.473	-0.111	-0.075
-347.450	-141.411	-0.346	-0.035
-346.435	8.194	-0.051	-0.038
-345.420	474.361	-0.015	0.034
-344.406	-200.000	-0.038	0.214
-343.391	-200.000	-0.047	0.217
-342.377	-72.699	-0.115	-0.042
-341.362	403.019	-0.027	0.056
-340.348	65.476	-0.188	-0.190
-339.333	-61.546	0.242	-0.101
-338.318	147.035	0.181	-0.242
-337.304	-43.158	-0.313	-0.158
-336.289	-200.000	0.080	-0.000
-335.275	800.000	-0.045	0.139
-334.260	-132.686	0.187	0.024
-333.245	-52.039	-0.268	-0.124
-332.231	-24.885	-0.098	0.058
-331.216	800.000	0.015	-0.047
-330.202	800.000	0.129	0.372
-329.187	-200.000	-0.051	-0.352
-328.172	-62.930	0.044	0.018
-327.158	800.000	-0.032	-0.106
-326.143	-200.000	0.046	-0.415
-325.129	-200.000	-0.005	-0.387
-324.114	-154.142	-0.195	-0.013
-323.099	-4.318	0.172	-0.118
-322.085	-58.494	-0.188	0.081
-321.070	22.813	-0.039	0.032
-320.056	-76.228	0.313	0.110
-319.041	56.582	0.320	-0.310
-318.026	754.554	0.099	0.265
-317.012	-45.956	-0.302	-0.148
-315.997	800.000	0.036	-0.118
-314.983	-159.494	0.283	0.016
-313.968	800.000	-0.061	0.241
-312.953	82.192	-0.156	0.168
-311.939	-82.238	-0.243	-0.079
-310.924	-200.000	0.001	-0.125
-309.910	-200.000	-0.001	-0.178
-308.895	127.409	-0.250	0.315
-307.880	-105.971	-0.257	0.058
-306.866	-87.335	-0.196	-0.059
-305.851	9.012	0.102	0.076
-304.837	-55.182	-0.037	0.017
-303.822	704.988	0.065	0.171
-302.807	800.000	-0.110	0.338
-301.793	674.052	-0.021	-0.054
-300.778	800.000	-0.100	0.289
-299.764	-200.000	-0.004	0.259
-298.749	800.000	-0.078	-0.263
-297.735	187.623	-0.104	-0.154
-296.720	800.000	-0.023	-0.088
-295.705	135.785	-0.021	-0.027
-294.691	520.185	-0.072	-0.169
-293.676	109.779	-0.106	0.126
-292.662	-0.315	-0.122	0.086
-291.647	324.561	0.052	0.098
-290.632	-34.922	0.219	0.119
-289.618	48.833	-0.069	0.064
-288.603	159.748	-0.263	0.364
-287.589	-142.749	-0.235	-0.023
-286.574	-200.000	0.024	0.137
-285.559	-109.760	0.154	-0.032
-284.545	-120.087	-0.273	0.046
-283.530	800.000	0.038	-0.131
-282.516	-2.635	-0.220	-0.153
-281.501	-200.000	0.081	0.460
-280.486	-127.437	-0.112	-0.016
-279.472	-82.233	-0.323	-0.104
-278.457	276.969	0.163	-0.287
-277.443	800.000	0.141	0.465
-276.428	800.000	0.120	-0.330
-275.413	46.965	-0.287	-0.265
-274.399	800.000	0.141	-0.401
-273.384	-200.000	-0.026	-0.265
-272.370	-6.421	-0.093	0.063
-271.355	-183.425	-0.169	0.003
-270.340	-3.121	-0.268	-0.186
-269.326	-200.000	0.014	0.120
-268.311	-165.500	0.132	0.006
-267.297	-200.000	0.099	0.593
-266.282	99.266	0.296	0.339
-265.267	60.820	-0.145	0.142
-264.253	-200.000	-0.042	-0.220
-263.238	-183.933	-0.181	-0.003
-262.224	-90.446	-0.038	0.011
-261.209	-35.833	0.148	-0.080
-260.195	165.846	-0.196	0.275
-259.180	800.000	-0.059	0.193
-258.165	312.398	-0.119	0.221
-257.151	800.000	-0.062	0.191
-256.136	-116.644	-0.219	-0.040
-255.122	67.855	0.157	0.159
-254.107	800.000	-0.050	0.139
-253.092	-200.000	0.025	-0.127
-252.078	519.899	0.053	0.124
-251.063	-38.263	0.328	0.173
-250.049	378.776	-0.200	0.405
-249.034	-200.000	-0.007	-0.037
-248.019	-27.286	0.233	-0.134
-247.005	-65.991	-0.508	0.201
-245.990	-7.216	-0.288	-0.194
-244.976	-200.000	-0.047	0.238
-243.961	2.220	-0.115	-0.083
-242.946	-181.769	-0.128	-0.002
-241.932	535.044	0.065	-0.152
-240.917	-128.253	0.154	0.022
-239.903	-130.513	0.281	0.038
-238.888	90.779	0.276	0.306
-237.873	-31.843	0.176	-0.098
-236.859	11.304	-0.170	0.129
-235.844	-29.180	0.216	-0.123
-234.830	-165.559	-0.298	0.013
-233.815	-159.582	-0.120	0.007
-232.800	-23.876	-0.297	-0.176
-231.786	-20.252	0.167	-0.102
-230.771	-200.000	-0.035	-0.348
-229.757	42.675	-0.158	0.143
-228.742	-143.881	-0.183	0.017
-227.727	787.909	-0.097	-0.265
-226.713	71.480	-0.332	-0.342
-225.698	-65.205	0.199	0.079
-224.684	-200.000	0.065	0.336
-223.669	-124.130	-0.163	-0.025
-222.655	-109.768	-0.097	0.020
-221.640	-190.756	0.105	-0.001
-220.625	-75.887	0.225	0.079
-219.611	-141.446	0.091	0.009
-218.596	800.000	-0.056	0.177
-217.582	800.000	0.133	-0.403
-216.567	376.688	0.102	-0.206
-215.552	-74.813	0.150	-0.053
-214.538	-200.000	-0.004	-0.068
-213.523	-200.000	-0.019	0.218
-212.509	18.535	-0.220	0.174
-211.494	-200.000	-0.003	0.143
-210.479	55.696	0.052	-0.050
-209.465	38.874	-0.185	-0.164
-208.450	351.003	-0.098	-0.192
-207.436	-97.363	0.333	0.086
-206.421	1.026	0.098	0.069
-205.406	800.000	0.057	0.229
-204.392	-200.000	-0.010	0.187
-203.377	-51.622	-0.143	0.066
-202.363	-139.456	0.241	-0.026
-201.348	-27.673	-0.328	-0.188
-200.333	-109.833	0.486	0.101
-199.319	12.901	0.402	0.308
-198.304	800.000	-0.049	-0.137
-197.290	-51.575	-0.047	-0.022
-196.275	-200.000	0.043	-0.453
-195.260	-7.774	-0.137	-0.092
-194.246	800.000	-0.024	-0.098
-193.231	-131.402	0.167	0.022
-192.217	-142.119	0.267	0.026
-191.202	-200.000	0.032	-0.235
-190.187	-156.959	-0.166	0.010
-189.173	-56.034	0.063	-0.028
-188.158	-147.370	-0.162	0.014
-187.144	54.035	0.105	-0.100
-186.129	-137.067	-0.019	-0.002
-185.114	-200.000	-0.070	0.424
-184.100	-150.770	-0.277	-0.021
-183.085	800.000	0.101	-0.290
-182.071	-151.961	-0.221	0.016
-181.056	156.712	-0.061	0.083
-180.042	215.498	0.228	0.357
-179.027	800.000	-0.093	0.392
-178.012	-200.000	0.063	-0.308
-176.998	-137.880	-0.031	-0.003
-175.983	800.000	0.027	0.115
-174.969	-200.000	-0.007	0.285
-173.954	-157.083	0.104	-0.006
-172.939	-166.068	-0.249	0.010
-171.925	-17.003	0.361	-0.225
-170.910	-122.808	0.132	-0.021
-169.896	267.340	0.085	0.147
-168.881	48.656	0.231	0.214
-167.866	-100.804	0.295	0.072
-166.852	-63.448	-0.033	0.013
-165.837	7.101	-0.094	-0.069
-164.823	19.089	0.006	0.005
-163.808	-33.263	-0.166	-0.091
-162.793	354.922	-0.167	-0.328
-161.779	-60.944	0.198	-0.083
-160.764	-200.000	-0.005	0.218
-159.750	-86.776	-0.229	0.069
-158.735	451.402	-0.032	-0.070
-157.720	-140.989	0.236	-0.024
-156.706	-200.000	0.013	0.170
-155.691	28.916	-0.396	0.332
-154.677	-54.922	0.285	0.127
-153.662	-163.596	-0.084	-0.004
-152.647	-52.197	-0.262	-0.120
-151.633	-72.285	0.321	-0.117
-150.618	-143.734	-0.238	-0.022
-149.604	-101.518	0.327	-0.078
-148.589	359.875	-0.274	0.542
-147.574	72.201	-0.073	-0.075
-146.560	-119.859	-0.177	-0.030
-145.545	503.464	-0.093	-0.213
-144.531	123.495	0.270	-0.335
-143.516	2.508	-0.313	-0.224
-142.502	6.719	-0.091	0.067
-141.487	324.114	0.071	0.133
-140.472	-200.000	-0.021	-0.385
-139.458	91.155	0.185	-0.205
-138.443	-131.007	-0.450	-0.059
-137.429	109.011	0.132	0.156
-136.414	-12.931	-0.177	-0.114
-135.399	650.965	0.014	-0.036
-134.385	197.887	-0.260	-0.393
-133.370	-20.706	-0.103	0.062
-132.356	-156.951	0.117	0.007
-131.341	-125.381	0.265	0.040
-130.326	-137.981	-0.276	0.030
-129.312	800.000	-0.040	-0.125
-128.297	117.118	0.076	0.093
-127.283	800.000	-0.109	0.306
-126.268	-112.597	-0.181	-0.036
-125.253	-161.419	0.199	-0.010
-124.239	585.249	0.154	0.374
-123.224	800.000	-0.132	0.365
