DTS Sentinel unit serial number:	SN413079Multiplexer serial number:	ORYXHardware model number:	OX4-SRSoftware version number:	ORYX F/W v4.00 Oryx Data Collector v3.7.2.0data status	okinstallation	princeton_trtdifferential loss correction	single-endedforward channel	channel 4reverse channel	N/Adate	2019/09/11time	02:23:10forward acquisition time	60.00reverse acquisition time	0.00gamma	496.2192k internal	0.2317k external	0.2317temperature offset calibration	0.9951default loss term (dB/km)	0.3790temperature slope calibration	1.0000multiplexer offset coefficient	1.0000multiplexer slope coefficient	1.0000fibre end	0.00T internal ref (°C)	29.20T ext. ref 1 (°C)	-0.31T ext. ref 2 (°C)	23.56length (m)	temperature (°C)	Stokes	anti-Stokes-747.200	-97.171	-0.044	-0.012
-746.185	-108.510	0.402	0.088
-745.171	166.043	-0.264	0.379
-744.156	-200.000	0.019	0.100
-743.142	267.253	-0.092	0.164
-742.127	65.573	-0.125	0.128
-741.112	-200.000	-0.005	0.054
-740.098	-96.040	-0.541	-0.146
-739.083	545.561	0.091	0.220
-738.069	800.000	0.116	0.355
-737.054	97.893	-0.015	-0.018
-736.039	-65.708	0.194	-0.079
-735.025	198.059	0.174	0.268
-734.010	-5.967	-0.191	-0.132
-732.996	3.946	-0.304	0.225
-731.981	-200.000	-0.063	-0.287
-730.966	-8.088	0.082	-0.056
-729.952	-130.605	-0.354	0.048
-728.937	800.000	0.042	-0.137
-727.923	21.154	-0.474	-0.390
-726.908	-40.808	-0.104	0.054
-725.894	800.000	-0.091	0.332
-724.879	11.101	-0.191	0.148
-723.864	6.922	-0.214	0.161
-722.850	-82.022	-0.267	-0.088
-721.835	51.294	-0.154	-0.148
-720.821	-157.303	0.126	0.008
-719.806	-200.000	0.017	-0.098
-718.791	94.788	0.238	0.274
-717.777	-52.622	0.132	-0.062
-716.762	575.122	-0.011	-0.026
-715.748	-80.264	-0.146	0.049
-714.733	800.000	-0.024	-0.069
-713.718	158.939	-0.233	-0.327
-712.704	-200.000	-0.027	0.200
-711.689	-119.634	-0.103	-0.018
-710.675	13.769	-0.124	-0.097
-709.660	-159.669	-0.355	0.020
-708.645	319.400	0.065	-0.124
-707.631	-35.445	0.156	-0.085
-706.616	-200.000	0.053	-0.250
-705.602	4.750	-0.230	0.171
-704.587	800.000	-0.030	-0.087
-703.572	70.004	-0.061	-0.063
-702.558	-175.802	-0.401	-0.011
-701.543	457.115	0.045	-0.102
-700.529	-200.000	-0.068	0.352
-699.514	-143.277	-0.206	0.020
-698.499	-82.283	0.169	-0.056
-697.485	-119.246	-0.077	0.014
-696.470	122.241	-0.206	0.260
-695.456	209.544	0.053	-0.084
-694.441	44.412	-0.337	-0.313
-693.426	-200.000	0.002	0.120
-692.412	156.025	-0.082	0.114
-691.397	-200.000	-0.026	-0.289
-690.383	297.162	-0.052	0.096
-689.368	226.862	0.195	0.319
-688.354	-100.869	-0.185	0.046
-687.339	200.204	-0.221	-0.343
-686.324	0.261	-0.173	-0.124
-685.310	375.496	0.092	-0.189
-684.295	29.528	-0.247	0.213
-683.281	47.289	-0.212	0.199
-682.266	204.427	-0.017	-0.027
-681.251	304.562	0.042	-0.078
-680.237	800.000	0.082	-0.281
-679.222	-183.579	0.207	-0.004
-678.208	230.764	-0.219	-0.362
-677.193	-136.765	0.231	-0.027
-676.178	65.214	-0.149	-0.152
-675.164	-33.131	-0.081	-0.045
-674.149	174.267	0.126	0.183
-673.135	3.497	-0.363	-0.267
-672.120	-123.894	-0.265	0.042
-671.105	-169.907	0.202	-0.007
-670.091	-200.000	0.020	0.170
-669.076	122.103	-0.063	0.080
-668.062	191.362	-0.233	0.354
-667.047	-128.775	0.141	0.020
-666.032	60.539	0.147	-0.147
-665.018	68.937	-0.101	0.105
-664.003	73.525	-0.119	0.126
-662.989	-85.706	-0.203	0.064
-661.974	118.657	-0.108	0.135
-660.959	178.843	-0.158	-0.233
-659.945	-76.444	-0.194	0.069
-658.930	-200.000	-0.054	-0.292
-657.916	228.704	-0.077	-0.127
-656.901	136.874	0.048	0.064
-655.886	800.000	0.094	0.289
-654.872	-181.176	0.275	-0.006
-653.857	-172.710	0.163	0.005
-652.843	-118.975	0.260	0.046
-651.828	125.332	-0.116	0.147
-650.814	-200.000	-0.004	-0.236
-649.799	-95.274	-0.236	-0.064
-648.784	-33.495	-0.327	-0.182
-647.770	178.345	-0.074	-0.109
-646.755	-200.000	-0.054	0.000
-645.741	-200.000	-0.016	-0.090
-644.726	-56.674	0.210	0.094
-643.711	-46.301	-0.204	0.101
-642.697	303.190	-0.108	0.202
-641.682	-200.000	0.020	0.133
-640.668	149.979	0.153	-0.210
-639.653	-77.348	-0.397	-0.139
-638.638	279.236	-0.024	-0.044
-637.624	295.466	-0.253	-0.467
-636.609	46.329	0.209	0.196
-635.595	100.659	-0.180	0.210
-634.580	495.217	0.129	0.299
-633.565	-200.000	-0.041	0.189
-632.551	-122.250	-0.250	-0.041
-631.536	-45.635	-0.226	-0.113
-630.522	262.577	-0.097	0.169
-629.507	-200.000	-0.019	0.298
-628.492	-72.858	-0.187	0.069
-627.478	77.320	0.164	-0.176
-626.463	111.642	-0.138	-0.168
-625.449	22.265	0.285	0.234
-624.434	56.162	-0.092	-0.090
-623.419	-145.527	-0.177	0.016
-622.405	564.217	-0.052	-0.128
-621.390	-70.320	0.180	-0.069
-620.376	-7.416	-0.118	0.080
-619.361	-30.543	-0.240	-0.137
-618.346	-56.182	0.344	0.154
-617.332	31.580	-0.061	-0.053
-616.317	-200.000	0.007	0.173
-615.303	-200.000	-0.018	-0.164
-614.288	-73.208	-0.136	-0.050
-613.273	-12.366	0.057	0.038
-612.259	99.726	-0.123	0.144
-611.244	-15.086	0.242	0.156
-610.230	-200.000	0.017	-0.123
-609.215	-200.000	0.063	0.461
-608.201	62.051	-0.244	-0.245
-607.186	-17.808	0.297	-0.187
-606.171	-89.444	0.151	-0.045
-605.157	-72.412	-0.269	0.100
-604.142	117.416	-0.102	-0.126
-603.128	-7.855	-0.164	0.111
-602.113	-127.762	-0.272	0.040
-601.098	-93.922	-0.250	-0.069
-600.084	91.854	0.156	-0.177
-599.069	31.452	-0.035	-0.031
-598.055	287.841	0.056	-0.102
-597.040	-89.462	-0.086	-0.025
-596.025	127.626	0.127	-0.162
-595.011	-200.000	0.033	-0.510
-593.996	-160.577	0.358	0.019
-592.982	-200.000	0.028	0.269
-591.967	-200.000	-0.005	0.358
-590.952	-67.642	0.226	-0.089
-589.938	140.931	-0.199	-0.265
-588.923	-82.553	0.155	-0.051
-587.909	149.123	-0.135	0.184
-586.894	37.953	-0.110	0.099
-585.879	800.000	-0.021	0.069
-584.865	280.558	0.087	-0.157
-583.850	61.209	0.125	0.125
-582.836	-80.913	-0.020	0.007
-581.821	134.628	-0.025	-0.032
-580.806	-167.416	0.194	0.008
-579.792	-200.000	0.002	-0.166
-578.777	77.220	-0.015	-0.016
-577.763	-200.000	0.028	-0.149
-576.748	1.273	-0.341	-0.246
-575.733	800.000	-0.096	-0.381
-574.719	-199.887	-0.240	-0.001
-573.704	-40.114	-0.164	-0.086
-572.690	227.223	-0.134	-0.218
-571.675	-146.722	-0.205	-0.018
-570.661	-9.446	-0.164	0.110
-569.646	-69.065	0.073	-0.028
-568.631	-87.166	0.100	0.031
-567.617	3.165	0.150	0.110
-566.602	15.954	0.299	-0.237
-565.588	64.985	-0.229	-0.232
-564.573	-200.000	-0.002	-0.232
-563.558	19.884	0.198	0.160
-562.544	-39.539	-0.137	-0.072
-561.529	-94.981	0.225	0.061
-560.515	-72.477	-0.197	0.073
-559.500	-200.000	0.014	0.192
-558.485	120.970	-0.125	-0.157
-557.471	-47.351	-0.259	0.127
-556.456	216.587	0.181	0.289
-555.442	-200.000	0.002	0.123
-554.427	800.000	-0.040	0.137
-553.412	266.750	-0.115	0.202
-552.398	481.411	-0.096	0.219
-551.383	-200.000	0.008	-0.055
-550.369	790.348	-0.040	-0.111
-549.354	30.967	0.131	-0.113
-548.339	-63.838	-0.098	-0.040
-547.325	95.598	-0.205	-0.235
-546.310	128.286	-0.295	-0.377
-545.296	-153.672	0.221	-0.015
-544.281	-75.026	-0.316	-0.114
-543.266	15.555	-0.139	-0.109
-542.252	800.000	0.078	0.243
-541.237	-101.466	0.231	0.057
-540.223	-189.250	-0.027	-0.000
-539.208	800.000	0.074	-0.273
-538.193	39.041	-0.168	-0.151
-537.179	31.842	-0.183	0.158
-536.164	-27.949	-0.277	0.161
-535.150	-104.453	0.268	0.062
-534.135	-123.417	-0.120	0.019
-533.121	-127.084	0.241	0.036
-532.106	598.871	-0.136	0.340
-531.091	800.000	0.047	-0.139
-530.077	-200.000	0.037	-0.411
-529.062	51.938	0.175	-0.167
-528.048	-19.542	0.146	0.091
-527.033	596.858	-0.022	0.054
-526.018	748.499	-0.083	-0.224
-525.004	-184.083	0.118	-0.002
-523.989	-90.003	-0.271	-0.079
-522.975	184.466	0.058	-0.087
-521.960	-71.339	0.144	0.054
-520.945	-115.127	0.445	0.085
-519.931	800.000	-0.143	0.424
-518.916	-155.232	-0.333	0.022
-517.902	-200.000	0.035	-0.229
-516.887	19.787	-0.162	0.131
-515.872	-120.447	0.194	0.033
-514.858	800.000	0.009	-0.026
-513.843	20.722	0.178	0.144
-512.829	-36.167	0.024	-0.013
-511.814	52.345	-0.128	-0.123
-510.799	-200.000	-0.048	0.328
-509.785	-98.924	0.320	0.081
-508.770	-66.975	-0.302	0.120
-507.756	220.742	0.181	-0.291
-506.741	-200.000	0.012	-0.164
-505.726	689.932	0.140	0.366
-504.712	223.065	-0.109	-0.176
-503.697	-105.154	0.094	-0.022
-502.683	-200.000	-0.004	-0.368
-501.668	66.936	-0.094	0.096
-500.653	-106.078	-0.162	-0.037
-499.639	-200.000	-0.512	0.002
-498.624	351.667	-0.134	-0.266
-497.610	-200.000	0.004	-0.400
-496.595	-200.000	-0.034	0.210
-495.581	-200.000	-0.027	-0.154
-494.566	-12.765	-0.212	-0.138
-493.551	48.557	0.090	0.084
-492.537	-77.771	-0.227	0.079
-491.522	381.248	-0.047	0.096
-490.508	-114.246	0.197	-0.038
-489.493	-190.352	0.403	0.004
-488.478	245.745	-0.036	-0.061
-487.464	-158.714	-0.323	-0.019
-486.449	79.261	0.147	0.158
-485.435	800.000	0.041	0.127
-484.420	-151.174	-0.368	0.028
-483.405	41.096	0.236	0.213
-482.391	-113.477	-0.066	-0.013
-481.376	-200.000	-0.012	0.112
-480.362	17.078	-0.381	-0.302
-479.347	-54.147	-0.231	0.105
-478.332	100.654	-0.109	-0.127
-477.318	-200.000	0.040	0.423
-476.303	402.775	0.045	0.094
-475.289	-200.000	0.041	0.218
-474.274	493.163	0.199	-0.456
-473.259	800.000	-0.109	-0.425
-472.245	531.055	0.177	0.420
-471.230	151.341	-0.112	-0.152
-470.216	-91.040	0.089	-0.026
-469.201	694.295	-0.084	0.220
-468.186	56.548	-0.103	0.100
-467.172	-10.252	-0.167	-0.111
-466.157	-200.000	0.060	0.370
-465.143	-58.265	-0.149	-0.065
-464.128	-200.000	0.021	0.214
-463.113	109.911	0.081	-0.098
-462.099	133.654	-0.272	-0.353
-461.084	-99.606	-0.116	-0.029
-460.070	-7.768	0.089	-0.060
-459.055	349.937	0.156	-0.309
-458.040	314.879	-0.121	-0.229
-457.026	371.820	0.004	-0.009
-456.011	-200.000	0.012	0.112
-454.997	800.000	-0.038	-0.143
-453.982	-41.713	-0.165	-0.085
-452.968	122.036	0.160	0.200
-451.953	5.573	0.100	-0.074
-450.938	-200.000	0.007	-0.094
-449.924	421.551	0.060	0.128
-448.909	-25.140	0.234	0.139
-447.895	-200.000	0.016	0.296
-446.880	-62.589	0.220	0.091
-445.865	47.813	-0.271	-0.254
-444.851	-200.000	0.272	-0.001
-443.836	-105.419	0.286	-0.065
-442.822	76.705	0.117	-0.125
-441.807	-115.007	0.174	0.033
-440.792	12.831	0.151	-0.116
-439.778	-121.188	0.301	-0.050
-438.763	-200.000	0.047	0.282
-437.749	215.311	0.199	0.316
-436.734	-41.035	-0.164	-0.085
-435.719	-144.337	-0.197	0.018
-434.705	-53.513	0.389	-0.178
-433.690	-175.762	-0.250	-0.007
-432.676	-200.000	0.075	-0.351
-431.661	464.684	0.063	0.140
-430.646	-151.476	-0.100	0.007
-429.632	799.042	0.039	0.107
-428.617	-143.555	0.123	-0.012
-427.603	-200.000	-0.005	0.266
-426.588	184.474	0.117	-0.173
-425.573	-86.712	0.297	-0.091
-424.559	-87.479	-0.188	-0.057
-423.544	-68.385	0.168	0.065
-422.530	731.107	0.064	0.172
-421.515	-131.070	0.356	0.047
-420.500	135.485	0.188	0.244
-419.486	191.208	-0.126	0.190
-418.471	-88.357	0.114	-0.034
-417.457	25.630	-0.259	0.216
-416.442	-7.749	0.141	0.095
-415.428	441.737	-0.143	0.312
-414.413	-28.172	0.081	-0.047
-413.398	75.776	-0.206	0.218
-412.384	-21.534	0.096	0.059
-411.369	286.824	-0.068	-0.122
-410.355	69.783	-0.195	0.200
-409.340	100.861	0.033	0.039
-408.325	-200.000	-0.066	-0.310
-407.311	-137.078	-0.281	-0.032
-406.296	-53.780	-0.053	0.024
-405.282	-128.039	-0.237	0.034
-404.267	460.122	0.260	-0.578
-403.252	-116.441	0.118	0.022
-402.238	-60.236	-0.084	-0.036
-401.223	-64.030	-0.176	0.072
-400.209	-43.017	0.176	-0.089
-399.194	95.824	-0.013	-0.015
-398.179	757.630	0.055	-0.149
-397.165	800.000	0.005	-0.017
-396.150	40.770	-0.130	-0.117
-395.136	69.676	0.227	0.234
-394.121	-200.000	0.015	0.359
-393.106	53.318	-0.067	-0.064
-392.092	-200.000	0.004	-0.254
-391.077	-105.682	0.156	-0.035
-390.063	800.000	-0.054	0.234
-389.048	-200.000	0.071	0.450
-388.033	276.417	-0.113	-0.201
-387.019	-11.463	0.111	0.073
-386.004	-61.033	0.152	0.064
-384.990	36.188	-0.236	0.207
-383.975	800.000	0.057	-0.172
-382.960	457.019	0.045	0.100
-381.946	-200.000	0.020	0.185
-380.931	220.303	0.101	0.162
-379.917	261.033	0.129	-0.223
-378.902	-85.096	0.159	0.050
-377.888	-200.000	-0.023	0.181
-376.873	22.166	-0.088	-0.072
-375.858	161.679	0.100	0.139
-374.844	-95.740	0.328	0.088
-373.829	-200.000	0.045	-0.281
-372.815	-65.720	-0.351	0.140
-371.800	26.979	0.029	-0.024
-370.785	-123.891	-0.233	0.037
-369.771	100.646	-0.197	-0.228
-368.756	-44.469	0.145	-0.073
-367.742	149.357	0.080	0.109
-366.727	-200.000	0.031	-0.219
-365.712	-200.000	0.029	-0.214
-364.698	282.088	-0.131	-0.234
-363.683	800.000	0.053	-0.227
-362.669	-170.377	0.179	-0.006
-361.654	-200.000	-0.039	-0.437
-360.639	-64.668	-0.104	0.042
-359.625	-200.000	0.017	0.132
-358.610	60.490	-0.251	-0.248
-357.596	-89.732	-0.226	-0.066
-356.581	-63.271	-0.343	0.141
-355.566	-66.275	0.077	0.031
-354.552	400.880	0.051	-0.106
-353.537	-66.825	-0.118	0.046
-352.523	97.394	0.153	0.175
-351.508	152.238	0.157	0.213
-350.493	517.139	-0.068	-0.160
-349.479	-153.534	0.086	-0.006
-348.464	-63.625	0.529	0.216
-347.450	-174.382	-0.257	0.007
-346.435	430.874	0.133	0.287
-345.420	105.642	-0.243	-0.287
-344.406	146.331	0.082	-0.110
-343.391	441.635	-0.045	-0.099
-342.377	0.274	-0.165	-0.117
-341.362	-52.466	-0.077	0.036
-340.348	73.378	-0.030	-0.031
-339.333	-34.808	-0.189	-0.103
-338.318	141.218	0.209	0.275
-337.304	-103.318	0.276	0.065
-336.289	63.038	0.259	-0.259
-335.275	800.000	-0.067	0.256
-334.260	-22.498	0.306	-0.185
-333.245	-68.840	-0.126	-0.048
-332.231	-118.918	0.386	0.068
-331.216	-200.000	0.032	0.168
-330.202	-200.000	0.030	0.200
-329.187	-200.000	-0.010	0.091
-328.172	-200.000	-0.020	0.162
-327.158	165.780	0.185	0.261
-326.143	-59.038	-0.162	0.070
-325.129	211.655	-0.151	0.237
-324.114	-102.416	0.188	-0.045
-323.099	800.000	0.154	0.512
-322.085	-37.698	0.076	0.040
-321.070	177.299	-0.104	0.151
-320.056	237.943	0.187	0.309
-319.041	-100.727	-0.118	-0.029
-318.026	228.742	0.102	-0.165
-317.012	6.529	0.154	-0.114
-315.997	-200.000	0.022	-0.180
-314.983	109.120	0.157	0.187
-313.968	800.000	0.070	-0.201
-312.953	243.183	0.107	0.178
-311.939	-200.000	-0.013	0.479
-310.924	-67.873	-0.118	0.046
-309.910	673.347	0.172	-0.443
-308.895	-159.499	-0.074	0.004
-307.880	-60.089	-0.055	-0.023
-306.866	-200.000	-0.044	-0.234
-305.851	27.574	-0.118	0.098
-304.837	220.352	0.111	-0.177
-303.822	-58.509	-0.231	0.100
-302.807	-177.949	-0.319	-0.008
-301.793	-139.478	-0.122	-0.013
-300.778	-126.708	-0.282	0.041
-299.764	-139.426	0.153	-0.016
-298.749	-107.496	-0.184	-0.040
-297.735	179.101	0.101	-0.147
-296.720	55.577	0.067	-0.064
-295.705	4.895	-0.149	-0.109
-294.691	800.000	-0.045	0.157
-293.676	490.193	0.132	0.301
-292.662	126.061	-0.224	0.282
-291.647	-50.535	-0.307	-0.144
-290.632	-103.520	0.337	0.079
-289.618	800.000	-0.103	-0.314
-288.603	0.215	-0.162	-0.115
-287.589	544.151	0.116	0.276
-286.574	800.000	-0.067	-0.209
-285.559	-9.567	-0.076	-0.051
-284.545	68.646	0.218	-0.223
-283.530	358.904	-0.125	-0.249
-282.516	-194.677	0.357	0.003
-281.501	800.000	0.108	-0.326
-280.486	92.510	0.171	-0.191
-279.472	357.300	-0.171	-0.339
-278.457	-64.586	0.111	0.045
-277.443	-185.224	-0.228	0.004
-276.428	89.318	0.178	0.197
-275.413	-51.157	-0.081	0.038
-274.399	0.973	0.120	-0.085
-273.384	-200.000	-0.055	-0.297
-272.370	-102.206	0.316	0.075
-271.355	663.872	-0.137	-0.350
-270.340	800.000	-0.042	-0.132
-269.326	194.420	-0.072	0.109
-268.311	79.884	-0.135	0.144
-267.297	-60.283	0.124	-0.053
-266.282	-46.038	0.101	0.049
-265.267	800.000	-0.149	-0.528
-264.253	-46.308	-0.215	0.105
-263.238	-200.000	-0.011	0.420
-262.224	-200.000	0.054	0.334
-261.209	-97.354	-0.332	-0.086
-260.195	-200.000	0.021	-0.215
-259.180	-159.427	0.399	-0.022
-258.165	-109.334	-0.234	-0.049
-257.151	-80.592	-0.476	-0.157
-256.136	5.353	0.096	-0.070
-255.122	800.000	0.054	0.211
-254.107	279.147	-0.188	0.333
-253.092	525.703	0.075	0.174
-252.078	-200.000	-0.008	-0.184
-251.063	-94.677	-0.135	0.036
-250.049	98.573	0.091	-0.104
-249.034	19.862	-0.069	0.055
-248.019	206.332	0.107	0.166
-247.005	-200.000	0.001	0.335
-245.990	60.838	-0.159	0.156
-244.976	-12.270	-0.053	-0.034
-243.961	599.653	-0.053	0.131
-242.946	-151.160	-0.149	0.011
-241.932	448.743	-0.058	0.127
-240.917	761.999	0.140	-0.378
-239.903	-42.187	-0.252	-0.128
-238.888	-111.390	0.265	-0.054
-237.873	-81.267	-0.305	0.100
-236.859	800.000	-0.063	-0.247
-235.844	-200.000	0.000	-0.129
-234.830	277.971	-0.115	-0.204
-233.815	66.159	0.228	0.229
-232.800	-89.037	0.240	0.071
-231.786	100.566	0.248	-0.285
-230.771	62.949	-0.108	0.107
-229.757	-200.000	0.012	0.104
-228.742	329.327	0.097	-0.185
-227.727	-23.280	0.123	-0.074
-226.713	310.505	0.064	0.120
-225.698	-107.210	0.132	0.029
-224.684	800.000	-0.086	-0.350
-223.669	-94.985	-0.271	-0.073
-222.655	-69.807	-0.079	0.030
-221.640	-133.616	-0.352	-0.044
-220.625	800.000	-0.036	-0.108
-219.611	-139.218	0.150	0.016
-218.596	606.634	-0.101	-0.249
-217.582	358.244	0.045	-0.090
-216.567	-110.080	0.378	-0.078
-215.552	654.550	-0.199	0.508
-214.538	800.000	-0.073	-0.233
-213.523	208.599	0.126	-0.195
-212.509	-84.464	0.413	-0.129
-211.494	800.000	-0.009	0.035
-210.479	106.975	0.161	-0.190
-209.465	164.651	0.115	0.160
-208.450	585.877	-0.031	0.075
-207.436	800.000	-0.083	-0.288
-206.421	147.424	-0.117	0.156
-205.406	-44.386	0.181	0.090
-204.392	-56.655	-0.312	-0.137
-203.377	-200.000	0.049	-0.279
-202.363	-125.011	0.372	-0.057
-201.348	-89.926	0.065	0.019
-200.333	-200.000	-0.051	0.250
-199.319	436.387	0.131	0.283
-198.304	800.000	0.020	0.068
-197.290	800.000	0.036	-0.121
-196.275	800.000	-0.065	-0.266
-195.260	-114.668	0.289	0.055
-194.246	-170.269	-0.354	-0.012
-193.231	-58.737	-0.279	-0.120
-192.217	800.000	0.056	0.175
-191.202	142.632	0.210	-0.277
-190.187	-135.106	0.418	-0.050
-189.173	15.691	0.114	0.089
-188.158	56.534	0.250	0.241
-187.144	-175.316	0.241	-0.007
-186.129	30.422	-0.048	-0.040
-185.114	-1.548	0.243	0.170
-184.100	434.274	0.050	-0.109
-183.085	492.015	0.132	0.300
-182.071	-188.823	-0.168	0.002
-181.056	-47.595	-0.284	0.137
-180.042	-114.496	0.108	-0.020
-179.027	641.569	0.098	-0.248
-178.012	-23.910	-0.192	-0.114
-176.998	121.416	-0.239	0.295
-175.983	-114.188	0.152	-0.029
-174.969	-72.944	0.125	0.045
-173.954	800.000	-0.172	0.588
-172.939	-121.325	0.105	-0.017
-171.925	89.735	-0.112	0.123
-170.910	-154.029	0.124	-0.008
-169.896	-200.000	0.016	0.217
-168.881	800.000	-0.101	0.308
-167.866	82.228	0.057	0.062
-166.852	-200.000	0.008	0.318
-165.837	-86.278	0.199	0.061
-164.823	0.964	0.133	0.094
-163.808	189.494	-0.182	0.270
-162.793	204.768	0.203	-0.312
-161.779	-80.842	-0.045	0.015
-160.764	-139.670	0.148	-0.016
-159.750	-77.536	0.111	0.038
-158.735	-29.887	0.351	0.198
-157.720	41.052	0.231	-0.207
-156.706	33.087	-0.084	0.072
-155.691	168.245	0.182	0.257
-154.677	-25.503	-0.143	-0.084
-153.662	-166.503	0.340	0.014
-152.647	-84.034	-0.031	-0.010
-151.633	36.676	-0.061	-0.054
-150.618	629.681	0.125	-0.314
-149.604	208.018	0.057	0.088
-148.589	70.300	-0.228	0.233
-147.574	-69.749	-0.325	0.123
-146.560	334.347	-0.212	-0.407
-145.545	-125.625	0.259	0.039
-144.531	182.976	-0.195	-0.285
-143.516	383.487	0.111	0.225
-142.502	-150.983	0.281	-0.021
-141.487	185.021	-0.249	0.365
-140.472	-120.587	0.178	0.030
-139.458	61.994	0.164	-0.161
-138.443	-149.036	0.172	-0.014
-137.429	129.175	0.168	-0.212
-136.414	605.342	0.048	0.118
-135.399	648.123	-0.119	0.300
-134.385	-139.597	0.243	-0.026
-133.370	-3.218	-0.263	0.181
-132.356	-99.724	0.086	0.021
-131.341	0.200	0.167	-0.118
-130.326	18.582	-0.315	-0.249
-129.312	-36.290	0.205	0.109
-128.297	-155.614	0.483	0.031
-127.283	-138.075	-0.454	-0.050
-126.268	-33.213	-0.154	0.084
-125.253	-69.712	0.242	0.091
-124.239	-149.038	-0.405	0.032
-123.224	-42.905	0.139	0.070
-122.210	-127.909	0.039	-0.006
-121.195	155.920	0.055	-0.075
