DTS Sentinel unit serial number:	SN413079Multiplexer serial number:	ORYXHardware model number:	OX4-SRSoftware version number:	ORYX F/W v4.00 Oryx Data Collector v3.7.2.0data status	okinstallation	princeton_trtdifferential loss correction	single-endedforward channel	channel 4reverse channel	N/Adate	2019/09/18time	16:21:34forward acquisition time	60.00reverse acquisition time	0.00gamma	496.2192k internal	0.2290k external	0.2290temperature offset calibration	1.0009default loss term (dB/km)	0.3790temperature slope calibration	1.0000multiplexer offset coefficient	1.0000multiplexer slope coefficient	1.0000fibre end	0.00T internal ref (°C)	38.78T ext. ref 1 (°C)	0.84T ext. ref 2 (°C)	35.44length (m)	temperature (°C)	Stokes	anti-Stokes-747.200	-22.333	0.231	0.143
-746.185	-200.000	0.080	0.372
-745.171	800.000	0.099	0.311
-744.156	-200.000	0.094	0.462
-743.142	-110.679	0.110	-0.023
-742.127	-14.533	-0.113	-0.074
-741.112	-23.424	-0.264	-0.163
-740.098	800.000	-0.069	0.238
-739.083	-49.443	0.086	0.042
-738.069	-90.722	0.183	-0.054
-737.054	-105.267	-0.028	0.007
-736.039	-94.791	0.124	-0.034
-735.025	-60.510	0.040	-0.017
-734.010	54.934	-0.131	0.129
-732.996	-67.316	-0.151	0.061
-731.981	363.733	-0.069	-0.142
-730.966	-200.000	-0.015	0.162
-729.952	-200.000	-0.002	-0.114
-728.937	-200.000	0.072	0.402
-727.923	-85.023	0.305	0.098
-726.908	-67.330	-0.176	-0.071
-725.894	241.079	-0.178	0.304
-724.879	608.384	-0.120	0.307
-723.864	-166.734	0.364	0.015
-722.850	379.603	0.034	0.072
-721.835	-23.130	0.165	0.102
-720.821	174.665	-0.149	-0.221
-719.806	45.569	-0.165	-0.156
-718.791	-200.000	-0.069	-0.470
-717.777	165.687	-0.243	-0.352
-716.762	-170.948	-0.118	-0.004
-715.748	194.524	0.051	-0.079
-714.733	481.678	0.028	-0.065
-713.718	-75.063	-0.035	0.013
-712.704	800.000	-0.087	-0.259
-711.689	78.931	0.151	0.165
-710.675	153.288	-0.122	0.171
-709.660	-61.704	-0.026	0.011
-708.645	-92.173	0.080	-0.023
-707.631	800.000	0.141	-0.415
-706.616	450.796	0.033	-0.074
-705.602	-71.174	0.200	0.077
-704.587	800.000	0.024	0.086
-703.572	11.795	0.313	0.246
-702.558	185.386	0.150	0.228
-701.543	211.009	-0.169	-0.272
-700.529	2.322	0.142	-0.105
-699.514	-62.373	-0.187	-0.080
-698.499	231.290	0.079	0.133
-697.485	-182.321	-0.312	-0.006
-696.470	82.160	0.122	0.135
-695.456	48.242	0.103	-0.099
-694.441	46.673	-0.048	-0.045
-693.426	-200.000	0.034	0.186
-692.412	38.795	-0.355	0.324
-691.397	291.681	0.115	0.214
-690.383	-200.000	-0.016	-0.103
-689.368	-11.779	0.206	0.138
-688.354	189.460	0.071	0.108
-687.339	-102.137	-0.270	-0.067
-686.324	151.546	-0.056	-0.078
-685.310	789.896	-0.090	0.253
-684.295	-145.645	0.063	-0.006
-683.281	57.827	0.254	0.254
-682.266	-29.642	-0.182	-0.106
-681.251	-131.051	0.200	0.027
-680.237	-136.188	0.315	0.038
-679.222	-65.828	-0.091	-0.037
-678.208	117.314	0.129	-0.163
-677.193	153.288	0.144	-0.201
-676.178	124.519	-0.024	-0.031
-675.164	-49.454	0.041	-0.020
-674.149	-200.000	-0.002	0.215
-673.135	0.271	-0.174	-0.127
-672.120	-38.836	-0.118	0.063
-671.105	352.732	0.103	0.208
-670.091	-74.134	-0.133	0.049
-669.076	295.944	0.133	-0.248
-668.062	-125.219	-0.325	0.051
-667.047	-5.224	0.143	0.100
-666.032	-20.975	0.267	0.167
-665.018	13.191	0.133	0.105
-664.003	-37.120	-0.189	0.103
-662.989	-131.940	-0.200	-0.027
-661.974	602.734	-0.016	0.042
-660.959	622.627	0.087	-0.223
-659.945	-109.062	-0.065	-0.014
-658.930	800.000	0.070	-0.204
-657.916	637.203	0.069	0.180
-656.901	-83.057	-0.131	-0.043
-655.886	-34.735	0.104	0.058
-654.872	347.372	-0.129	-0.259
-653.857	-200.000	0.011	-0.048
-652.843	-57.673	-0.118	-0.053
-651.828	-120.288	-0.139	-0.024
-650.814	-151.703	0.325	0.024
-649.799	-70.198	0.065	-0.025
-648.784	800.000	0.088	-0.322
-647.770	417.235	0.040	0.087
-646.755	-17.009	0.191	-0.123
-645.741	-200.000	-0.014	-0.346
-644.726	-19.638	-0.045	0.028
-643.711	393.249	-0.099	-0.211
-642.697	55.155	-0.064	-0.063
-641.682	800.000	-0.041	-0.180
-640.668	-40.767	0.169	0.089
-639.653	-159.766	0.169	0.010
-638.638	-20.323	0.238	-0.149
-637.624	-85.943	-0.161	0.051
-636.609	-4.556	0.062	0.044
-635.595	-200.000	-0.017	-0.151
-634.580	38.463	-0.173	0.157
-633.565	-83.932	-0.020	-0.007
-632.551	36.773	0.192	0.173
-631.536	-200.000	-0.059	0.468
-630.522	-119.594	0.107	-0.019
-629.507	800.000	-0.073	-0.254
-628.492	800.000	-0.045	0.127
-627.478	800.000	0.023	-0.074
-626.463	-34.663	-0.206	-0.115
-625.449	-152.328	-0.278	0.020
-624.434	25.706	-0.219	-0.186
-623.419	110.495	0.053	-0.065
-622.405	-65.370	0.096	0.040
-621.390	-200.000	0.030	0.168
-620.376	-60.798	-0.152	0.065
-619.361	300.231	0.171	0.322
-618.346	302.118	0.049	-0.093
-617.332	-125.822	0.265	-0.041
-616.317	800.000	0.053	0.175
-615.303	-134.376	0.289	0.036
-614.288	-155.462	0.054	-0.004
-613.273	24.091	-0.127	-0.107
-612.259	-200.000	-0.024	-0.236
-611.244	141.616	-0.158	0.214
-610.230	233.314	-0.147	0.246
-609.215	95.000	0.197	-0.229
-608.201	-154.426	0.223	-0.015
-607.186	-145.701	-0.165	0.015
-606.171	-20.823	-0.186	0.116
-605.157	-200.000	0.183	0.001
-604.142	11.639	-0.117	0.092
-603.128	-60.386	0.116	-0.050
-602.113	239.267	0.046	-0.078
-601.098	26.055	-0.283	-0.240
-600.084	-53.142	-0.238	-0.111
-599.069	-121.182	-0.242	-0.041
-598.055	315.732	-0.198	-0.381
-597.040	-200.000	-0.001	-0.198
-596.025	800.000	-0.038	-0.129
-595.011	-72.844	-0.116	-0.044
-593.996	124.306	0.104	0.133
-592.982	800.000	0.045	-0.163
-591.967	140.467	0.092	-0.124
-590.952	126.633	-0.162	0.209
-589.938	164.210	-0.199	-0.286
-588.923	800.000	0.085	-0.266
-587.909	116.616	0.208	-0.259
-586.894	511.099	-0.064	-0.151
-585.879	-6.524	0.100	0.069
-584.865	-200.000	0.030	0.237
-583.850	482.378	0.123	-0.285
-582.836	-200.000	0.074	-0.365
-581.821	-87.971	-0.031	-0.009
-580.806	-20.961	-0.169	-0.105
-579.792	609.121	-0.083	0.212
-578.777	-73.987	0.320	0.118
-577.763	-46.098	-0.115	0.058
-576.748	43.498	-0.056	-0.052
-575.733	302.121	-0.144	0.272
-574.719	-200.000	0.024	0.295
-573.704	59.047	-0.141	0.142
-572.690	-85.403	0.130	0.041
-571.675	-63.069	-0.180	-0.076
-570.661	-200.000	0.002	-0.245
-569.646	441.433	-0.053	0.118
-568.631	-200.000	-0.032	-0.355
-567.617	-200.000	-0.036	-0.266
-566.602	-69.731	0.081	-0.031
-565.588	54.639	-0.209	0.205
-564.573	-200.000	0.022	0.196
-563.558	-200.000	-0.000	0.084
-562.544	219.515	0.216	-0.352
-561.529	-200.000	-0.007	-0.108
-560.515	102.029	0.028	-0.034
-559.500	54.099	-0.061	-0.059
-558.485	108.332	-0.064	-0.078
-557.471	602.420	-0.137	-0.348
-556.456	-113.913	0.250	0.049
-555.442	-200.000	-0.011	0.473
-554.427	46.067	0.132	-0.124
-553.412	-29.853	-0.323	0.187
-552.398	800.000	-0.094	-0.385
-551.383	800.000	0.109	-0.409
-550.369	-181.744	-0.234	-0.005
-549.354	-64.020	-0.154	0.064
-548.339	609.452	0.172	0.436
-547.325	-200.000	0.002	-0.073
-546.310	-39.835	-0.053	0.028
-545.296	-138.939	-0.208	0.023
-544.281	-200.000	0.007	-0.089
-543.266	-71.908	0.318	0.120
-542.252	-200.000	0.043	0.337
-541.237	-80.950	-0.170	-0.057
-540.223	103.583	-0.143	0.170
-539.208	800.000	-0.015	-0.061
-538.193	-20.631	-0.313	0.195
-537.179	-54.849	0.276	0.126
-536.164	11.736	-0.119	-0.093
-535.150	-157.287	-0.051	0.003
-534.135	382.086	-0.028	-0.059
-533.121	53.719	0.116	-0.113
-532.106	711.500	-0.183	0.493
-531.091	68.460	0.100	-0.104
-530.077	89.211	0.239	0.270
-529.062	800.000	-0.068	-0.191
-528.048	-108.016	-0.218	-0.048
-527.033	-25.845	-0.069	0.041
-526.018	-131.985	0.188	-0.025
-525.004	238.715	-0.195	-0.329
-523.989	800.000	0.048	0.207
-522.975	378.169	-0.092	0.192
-521.960	144.619	0.261	0.355
-520.945	-146.486	0.134	0.012
-519.931	646.958	-0.122	-0.316
-518.916	-79.338	0.150	0.052
-517.902	56.970	-0.090	-0.089
-516.887	800.000	-0.010	-0.035
-515.872	-75.943	0.026	-0.009
-514.858	-142.486	-0.120	-0.012
-513.843	-23.808	-0.190	0.116
-512.829	34.035	-0.275	0.244
-511.814	148.464	-0.366	0.502
-510.799	-74.642	-0.157	-0.057
-509.785	-200.000	-0.002	-0.039
-508.770	-200.000	0.000	-0.101
-507.756	-119.789	-0.146	0.026
-506.741	-98.748	0.065	0.017
-505.726	800.000	0.057	-0.245
-504.712	36.279	-0.215	-0.192
-503.697	196.908	0.181	0.280
-502.683	596.395	-0.134	-0.337
-501.668	51.873	-0.328	-0.317
-500.653	-138.782	-0.161	-0.018
-499.639	36.550	0.207	0.185
-498.624	-6.601	0.244	0.168
-497.610	118.455	0.035	-0.044
-496.595	136.391	0.132	0.175
-495.581	-50.976	-0.103	0.049
-494.566	-179.250	0.342	-0.008
-493.551	334.419	0.024	-0.048
-492.537	-25.254	0.390	-0.234
-491.522	800.000	0.069	-0.197
-490.508	-47.961	0.120	0.059
-489.493	-7.638	0.212	0.145
-488.478	1.715	0.154	0.113
-487.464	85.351	-0.228	-0.254
-486.449	-136.818	0.239	-0.028
-485.435	-126.577	0.192	-0.029
-484.420	800.000	-0.066	0.258
-483.405	318.397	-0.199	0.383
-482.391	-200.000	0.035	0.163
-481.376	272.142	0.219	0.391
-480.362	-200.000	-0.000	0.090
-479.347	800.000	-0.088	0.357
-478.332	-102.826	0.156	-0.038
-477.318	-200.000	-0.016	0.146
-476.303	-200.000	-0.055	-0.305
-475.289	-200.000	0.016	-0.237
-474.274	-66.616	0.184	-0.074
-473.259	512.562	0.152	-0.358
-472.245	63.280	-0.056	-0.057
-471.230	-55.228	-0.032	-0.015
-470.216	-200.000	-0.032	-0.205
-469.201	-152.100	0.055	0.004
-468.186	800.000	-0.143	0.466
-467.172	-156.957	-0.260	-0.016
-466.157	458.618	0.139	-0.313
-465.143	-170.600	-0.220	0.008
-464.128	-54.579	0.086	0.039
-463.113	800.000	-0.071	0.282
-462.099	-180.552	-0.128	-0.003
-461.084	240.635	-0.119	0.200
-460.070	40.640	0.235	0.215
-459.055	-200.000	-0.022	0.238
-458.040	52.123	0.116	0.112
-457.026	-74.229	0.216	0.079
-456.011	-145.260	-0.036	-0.003
-454.997	-11.653	-0.187	0.125
-453.982	-78.404	-0.207	-0.072
-452.968	133.617	0.013	-0.017
-451.953	-45.246	-0.299	-0.150
-450.938	277.187	0.083	-0.149
-449.924	-109.592	-0.110	0.023
-448.909	171.600	-0.162	-0.236
-447.895	-13.713	-0.260	-0.170
-446.880	-200.000	-0.014	-0.158
-445.865	-200.000	-0.048	0.216
-444.851	293.526	0.175	0.324
-443.836	346.186	0.086	-0.170
-442.822	800.000	-0.064	-0.231
-441.807	-104.052	0.305	0.072
-440.792	379.480	-0.104	-0.215
-439.778	254.745	-0.054	-0.094
-438.763	-47.019	0.302	0.149
-437.749	-78.081	0.434	-0.151
-436.734	-94.993	-0.122	-0.033
-435.719	-200.000	0.002	0.010
-434.705	-95.750	0.309	-0.084
-433.690	237.636	-0.159	-0.268
-432.676	-16.586	-0.215	-0.138
-431.661	-93.399	0.268	-0.075
-430.646	52.088	0.249	-0.240
-429.632	-93.474	-0.060	-0.017
-428.617	-22.530	0.157	-0.096
-427.603	-200.000	-0.026	0.166
-426.588	128.999	-0.171	-0.220
-425.573	-85.133	0.160	0.051
-424.559	-75.248	0.391	0.141
-423.544	236.137	0.263	-0.441
-422.530	-173.955	0.100	0.003
-421.515	-137.415	-0.182	-0.021
-420.500	437.603	0.097	-0.214
-419.486	-193.087	0.066	0.001
-418.471	800.000	-0.053	0.216
-417.457	-92.544	0.103	-0.029
-416.442	-140.502	-0.221	-0.023
-415.428	45.919	0.037	0.035
-414.413	-196.073	0.101	-0.001
-413.398	414.075	-0.086	0.185
-412.384	279.706	-0.142	-0.256
-411.369	622.180	0.006	-0.014
-410.355	-200.000	-0.009	0.160
-409.340	339.547	0.057	0.113
-408.325	-36.095	-0.158	-0.086
-407.311	54.510	0.162	0.158
-406.296	220.248	0.064	0.103
-405.282	-114.500	0.141	-0.027
-404.267	153.606	0.103	-0.142
-403.252	-200.000	0.001	0.190
-402.238	-5.297	-0.246	0.171
-401.223	800.000	0.059	-0.244
-400.209	173.716	0.059	-0.087
-399.194	800.000	-0.036	0.134
-398.179	254.104	0.113	0.195
-397.165	162.184	-0.129	-0.183
-396.150	-200.000	0.036	0.473
-395.136	-117.807	-0.261	-0.047
-394.121	27.637	-0.185	0.158
-393.106	800.000	-0.038	-0.154
-392.092	-47.825	0.374	-0.183
-391.077	-95.476	-0.245	-0.067
-390.063	137.161	-0.255	0.337
-389.048	-143.648	-0.116	0.011
-388.033	280.298	-0.187	-0.337
-387.019	-143.481	-0.081	0.008
-386.004	-200.000	0.025	-0.207
-384.990	2.982	-0.173	0.127
-383.975	-38.193	0.118	-0.063
-382.960	27.897	0.132	-0.112
-381.946	-33.150	0.210	0.118
-380.931	76.255	-0.309	-0.331
-379.917	-200.000	0.019	-0.282
-378.902	-134.001	-0.284	0.036
-377.888	-59.740	0.285	-0.123
-376.873	60.275	0.155	0.155
-375.858	-110.288	0.151	0.032
-374.844	605.791	0.115	0.290
-373.829	177.449	-0.228	-0.335
-372.815	-57.182	0.080	0.036
-371.800	800.000	0.075	-0.304
-370.785	145.845	0.083	0.112
-369.771	-9.052	0.146	0.099
-368.756	-81.153	-0.159	-0.053
-367.742	-174.691	0.082	-0.002
-366.727	-78.287	-0.605	0.210
-365.712	-39.191	-0.211	-0.112
-364.698	-200.000	-0.022	-0.370
-363.683	-80.759	-0.203	0.068
-362.669	106.976	0.289	0.346
-361.654	-200.000	-0.032	0.434
-360.639	163.060	0.064	-0.091
-359.625	575.099	0.087	0.215
-358.610	800.000	-0.095	-0.365
-357.596	161.112	0.117	0.166
-356.581	-18.844	0.341	-0.214
-355.566	-120.575	-0.464	0.079
-354.552	16.677	-0.078	0.062
-353.537	235.688	-0.096	0.160
-352.523	26.244	0.102	0.086
-351.508	-70.472	-0.115	0.044
-350.493	5.472	0.142	-0.106
-349.479	659.515	-0.132	-0.344
-348.464	-29.614	0.138	-0.080
-347.450	-49.857	0.064	-0.031
-346.435	-70.692	-0.081	-0.031
-345.420	-78.868	-0.122	-0.042
-344.406	-200.000	-0.221	0.001
-343.391	-14.289	0.121	-0.079
-342.377	-200.000	-0.104	0.000
-341.362	-117.992	0.025	-0.005
-340.348	-200.000	0.007	-0.138
-339.333	145.567	-0.074	-0.100
-338.318	-124.709	-0.138	0.021
-337.304	92.934	-0.333	-0.380
-336.289	-160.997	0.414	-0.022
-335.275	800.000	0.094	0.277
-334.260	-107.724	-0.332	0.073
-333.245	-49.655	0.129	0.062
-332.231	201.066	-0.041	-0.063
-331.216	72.473	-0.146	0.153
-330.202	14.312	0.229	-0.180
-329.187	337.371	0.134	-0.263
-328.172	-125.750	-0.140	0.021
-327.158	133.853	0.106	0.138
-326.143	800.000	-0.040	0.141
-325.129	-200.000	-0.015	-0.147
-324.114	-49.998	0.428	0.204
-323.099	-200.000	0.002	-0.068
-322.085	557.042	-0.126	-0.307
-321.070	-10.003	-0.066	-0.044
-320.056	-149.263	0.378	0.030
-319.041	193.748	-0.097	0.148
-318.026	800.000	0.018	-0.058
-317.012	253.550	0.055	0.095
-315.997	34.706	-0.284	-0.250
-314.983	152.259	0.143	0.196
-313.968	-73.253	-0.035	-0.013
-312.953	71.512	0.117	0.122
-311.939	-144.360	-0.188	0.018
-310.924	27.048	0.071	-0.060
-309.910	-131.987	0.287	-0.038
-308.895	-183.397	0.049	-0.001
-307.880	292.491	-0.049	-0.091
-306.866	116.245	0.141	0.175
-305.851	167.728	0.166	0.238
-304.837	-80.852	0.154	-0.051
-303.822	-33.909	-0.154	0.085
-302.807	117.014	-0.109	0.135
-301.793	-2.215	-0.254	-0.179
-300.778	-18.731	0.080	-0.050
-299.764	-192.973	-0.278	-0.003
-298.749	-200.000	0.004	-0.081
-297.735	-71.035	0.355	0.134
-296.720	-74.805	0.077	0.028
-295.705	61.953	0.133	0.134
-294.691	-91.218	-0.358	0.103
-293.676	-200.000	0.033	-0.236
-292.662	41.465	-0.123	0.112
-291.647	800.000	-0.014	0.058
-290.632	726.501	0.068	-0.184
-289.618	-90.661	-0.039	0.011
-288.603	-200.000	-0.063	-0.352
-287.589	-200.000	-0.010	0.093
-286.574	351.345	-0.129	0.258
-285.559	-24.340	-0.139	-0.084
-284.545	-52.730	0.596	0.276
-283.530	50.511	0.104	-0.099
-282.516	-102.140	-0.158	0.038
-281.501	-148.140	-0.105	0.009
-280.486	572.060	-0.042	-0.103
-279.472	59.694	0.221	0.220
-278.457	800.000	0.079	-0.317
-277.443	-115.431	0.069	-0.013
-276.428	-136.773	-0.271	0.031
-275.413	-124.641	0.150	0.023
-274.399	-200.000	-0.006	-0.088
-273.384	-95.748	0.306	-0.082
-272.370	336.267	-0.111	0.218
-271.355	-31.159	-0.177	0.100
-270.340	-19.251	0.242	0.151
-269.326	-109.146	0.092	0.020
-268.311	-200.000	-0.012	0.064
-267.297	453.912	-0.074	0.165
-266.282	137.553	0.220	0.290
-265.267	-156.392	-0.252	0.016
-264.253	-42.759	0.144	-0.074
-263.238	203.969	-0.075	-0.116
-262.224	-30.617	0.190	-0.108
-261.209	46.881	0.174	0.163
-260.195	61.360	0.198	-0.198
-259.180	800.000	-0.061	0.182
-258.165	69.971	-0.223	-0.231
-257.151	-162.328	-0.308	0.015
-256.136	69.715	0.100	0.104
-255.122	-200.000	0.007	0.208
-254.107	-127.212	0.239	-0.035
-253.092	-200.000	-0.080	0.412
-252.078	800.000	-0.060	0.178
-251.063	230.752	-0.080	0.131
-250.049	22.754	-0.143	-0.118
-249.034	322.954	0.082	-0.158
-248.019	-82.934	0.475	-0.154
-247.005	657.166	-0.097	-0.252
-245.990	-114.948	0.191	-0.036
-244.976	-159.543	0.231	0.013
-243.961	-130.716	-0.063	-0.009
-242.946	-99.731	0.085	0.021
-241.932	210.486	0.088	0.138
-240.917	800.000	0.059	-0.228
-239.903	-150.091	0.268	0.021
-238.888	-56.779	0.194	0.086
-237.873	237.536	0.116	-0.194
-236.859	-18.172	-0.155	-0.098
-235.844	800.000	0.049	-0.212
-234.830	-200.000	0.042	0.259
-233.815	237.310	0.177	0.294
-232.800	106.123	-0.154	0.183
-231.786	263.822	0.178	0.312
-230.771	1.478	-0.166	0.120
-229.757	279.911	0.161	-0.288
-228.742	98.610	0.152	-0.176
-227.727	800.000	-0.042	-0.126
-226.713	-40.904	-0.311	-0.162
-225.698	-55.006	-0.166	0.075
-224.684	-149.247	0.231	-0.019
-223.669	-116.367	-0.157	-0.029
-222.655	-200.000	-0.040	0.243
-221.640	49.093	0.223	0.210
-220.625	-22.618	-0.416	-0.252
-219.611	110.995	-0.030	-0.036
-218.596	-15.340	0.087	-0.056
-217.582	122.559	0.095	0.119
-216.567	-200.000	0.014	0.376
-215.552	-200.000	-0.105	0.638
-214.538	-200.000	-0.012	0.399
-213.523	264.810	0.049	-0.085
-212.509	-56.284	0.173	0.077
-211.494	800.000	0.020	0.064
-210.479	-164.386	0.136	-0.006
-209.465	1.334	-0.259	0.186
-208.450	56.378	0.114	-0.111
-207.436	-2.629	-0.097	-0.068
-206.421	-75.094	0.335	-0.120
-205.406	-152.913	-0.335	0.024
-204.392	-139.247	-0.314	0.034
-203.377	311.376	-0.085	-0.159
-202.363	13.351	-0.220	0.171
-201.348	-33.348	-0.232	0.129
-200.333	-12.040	0.113	-0.074
-199.319	-177.607	-0.042	-0.001
-198.304	-118.047	-0.175	0.031
-197.290	206.241	-0.042	0.065
-196.275	800.000	0.097	0.279
-195.260	222.164	-0.070	-0.112
-194.246	-54.899	0.416	0.188
-193.231	-104.171	-0.233	-0.054
-192.217	143.499	0.018	0.024
-191.202	-37.588	-0.087	-0.047
-190.187	-8.333	-0.231	0.156
-189.173	286.911	-0.098	-0.177
-188.158	-160.833	0.193	0.010
-187.144	273.254	0.105	-0.187
-186.129	170.971	-0.149	-0.214
-185.114	-88.755	-0.101	-0.030
-184.100	96.321	0.247	-0.283
-183.085	126.175	-0.121	-0.153
-182.071	74.830	0.148	-0.156
-181.056	-200.000	-0.000	-0.081
-180.042	-75.842	0.068	0.024
-179.027	272.249	-0.043	-0.076
-178.012	-31.530	0.261	-0.147
-176.998	44.106	-0.068	-0.063
-175.983	800.000	0.074	0.322
-174.969	-114.161	-0.136	0.026
-173.954	-11.996	-0.349	0.229
-172.939	426.900	0.055	-0.118
-171.925	-42.857	0.199	-0.101
-170.910	-67.587	0.133	0.052
-169.896	-200.000	0.052	0.375
-168.881	551.683	0.064	0.154
-167.866	-200.000	0.010	0.043
-166.852	-1.666	-0.178	-0.126
-165.837	-200.000	0.009	-0.051
-164.823	-65.041	0.281	0.114
-163.808	-58.552	0.212	0.092
-162.793	-179.226	-0.347	0.008
-161.779	-84.983	-0.051	-0.016
-160.764	-59.708	0.104	0.045
-159.750	-200.000	0.016	0.228
-158.735	231.836	0.070	-0.116
-157.720	60.985	-0.159	-0.158
-156.706	-14.601	0.193	-0.124
-155.691	800.000	-0.033	0.119
-154.677	-26.051	-0.316	0.186
-153.662	21.600	-0.165	0.135
-152.647	800.000	0.036	-0.106
-151.633	129.119	-0.079	0.101
-150.618	800.000	0.065	-0.199
-149.604	-200.000	0.015	0.468
-148.589	800.000	0.090	0.268
-147.574	379.916	0.110	0.225
-146.560	-200.000	0.036	0.236
-145.545	-135.716	0.141	-0.017
-144.531	-200.000	-0.001	0.145
-143.516	217.199	-0.168	-0.267
-142.502	-74.568	-0.339	0.122
-141.487	-159.853	-0.119	-0.007
-140.472	-55.978	-0.195	0.087
-139.458	125.545	-0.175	-0.222
-138.443	-84.977	0.417	0.131
-137.429	-30.903	-0.192	0.109
-136.414	292.387	-0.024	0.044
-135.399	514.270	0.102	0.238
-134.385	-200.000	-0.040	0.237
-133.370	-161.291	0.137	0.007
-132.356	800.000	-0.072	0.222
-131.341	-133.580	0.156	-0.020
-130.326	179.763	0.049	0.072
-129.312	800.000	-0.036	0.105
-128.297	-200.000	0.070	-0.324
-127.283	20.811	-0.130	-0.106
-126.268	42.554	0.087	-0.079
-125.253	121.041	-0.113	-0.140
-124.239	575.509	0.043	0.105
-123.224	-200.000	-0.011	-0.142
-122.210	8.094	0.334	-0.250
