DTS Sentinel unit serial number:	SN413079Multiplexer serial number:	ORYXHardware model number:	OX4-SRSoftware version number:	ORYX F/W v4.00 Oryx Data Collector v3.7.2.0data status	okinstallation	princeton_trtdifferential loss correction	single-endedforward channel	channel 4reverse channel	N/Adate	2019/09/19time	04:29:35forward acquisition time	60.00reverse acquisition time	0.00gamma	496.2192k internal	0.2340k external	0.2340temperature offset calibration	1.0030default loss term (dB/km)	0.3790temperature slope calibration	1.0000multiplexer offset coefficient	1.0000multiplexer slope coefficient	1.0000fibre end	0.00T internal ref (°C)	20.14T ext. ref 1 (°C)	0.62T ext. ref 2 (°C)	13.14length (m)	temperature (°C)	Stokes	anti-Stokes-747.200	-66.504	-0.073	0.029
-746.185	-200.000	0.075	0.359
-745.171	44.649	-0.194	-0.179
-744.156	393.462	0.096	0.201
-743.142	-55.281	0.160	-0.072
-742.127	-157.104	-0.061	-0.004
-741.112	32.241	0.124	-0.107
-740.098	-200.000	-0.023	0.248
-739.083	-135.181	-0.314	-0.038
-738.069	-200.000	-0.003	0.045
-737.054	-94.759	-0.157	-0.043
-736.039	346.405	-0.201	-0.397
-735.025	91.248	0.287	0.323
-734.010	-71.686	-0.186	0.069
-732.996	41.884	-0.163	-0.149
-731.981	235.778	0.178	0.295
-730.966	-144.039	-0.048	0.005
-729.952	-6.084	-0.198	0.136
-728.937	87.235	-0.145	0.161
-727.923	-172.030	0.204	0.007
-726.908	38.368	-0.130	0.116
-725.894	-200.000	-0.005	0.221
-724.879	800.000	0.047	0.167
-723.864	118.196	-0.274	-0.338
-722.850	-100.087	-0.152	0.038
-721.835	-188.874	0.126	-0.002
-720.821	767.406	0.116	-0.316
-719.806	46.353	0.126	-0.117
-718.791	-140.609	-0.291	0.030
-717.777	53.425	-0.197	-0.189
-716.762	130.800	-0.044	0.057
-715.748	-93.970	0.622	-0.171
-714.733	4.573	0.377	-0.277
-713.718	273.438	0.138	0.245
-712.704	-60.072	0.339	-0.145
-711.689	800.000	-0.043	0.137
-710.675	179.750	-0.191	-0.281
-709.660	-46.164	0.204	-0.100
-708.645	-22.485	-0.140	-0.085
-707.631	-74.855	-0.277	-0.099
-706.616	-41.549	-0.309	-0.159
-705.602	-83.300	-0.384	0.123
-704.587	-72.989	-0.314	0.116
-703.572	-200.000	0.007	0.130
-702.558	-25.577	0.029	-0.017
-701.543	-148.046	0.193	-0.016
-700.529	-19.445	-0.044	-0.027
-699.514	276.153	0.025	0.044
-698.499	-156.357	0.403	-0.025
-697.485	77.715	0.017	0.018
-696.470	85.901	-0.111	-0.122
-695.456	208.419	0.110	-0.173
-694.441	-18.203	-0.343	-0.215
-693.426	-117.236	0.174	-0.032
-692.412	9.045	0.301	0.227
-691.397	81.347	-0.174	0.188
-690.383	-53.012	0.309	0.142
-689.368	563.125	-0.143	0.346
-688.354	-123.972	-0.041	0.006
-687.339	800.000	-0.031	0.116
-686.324	800.000	-0.023	-0.068
-685.310	-66.954	-0.213	0.084
-684.295	-107.655	0.082	0.018
-683.281	-191.383	0.317	0.003
-682.266	-87.308	-0.152	-0.046
-681.251	52.077	0.184	0.176
-680.237	120.450	-0.186	-0.232
-679.222	24.018	0.094	-0.077
-678.208	-200.000	-0.029	0.399
-677.193	193.129	0.236	-0.357
-676.178	800.000	-0.065	-0.221
-675.164	122.828	-0.052	0.065
-674.149	-59.253	0.125	0.054
-673.135	683.527	0.105	-0.274
-672.120	12.011	-0.220	0.169
-671.105	-61.105	-0.214	0.090
-670.091	84.212	-0.204	-0.223
-669.076	46.526	-0.100	-0.092
-668.062	800.000	0.021	0.064
-667.047	-21.518	-0.085	0.052
-666.032	-61.418	0.125	-0.052
-665.018	-200.000	-0.037	0.329
-664.003	-104.826	-0.322	0.074
-662.989	-11.234	0.160	0.105
-661.974	-44.465	0.108	0.054
-660.959	800.000	-0.087	-0.249
-659.945	-200.000	-0.009	0.282
-658.930	-171.122	-0.194	-0.007
-657.916	-166.572	-0.156	0.006
-656.901	-42.558	-0.126	0.064
-655.886	-200.000	-0.004	0.238
-654.872	-200.000	0.006	0.260
-653.857	87.906	0.283	0.313
-652.843	-200.000	0.002	-0.161
-651.828	215.158	-0.078	-0.124
-650.814	-42.536	-0.285	-0.145
-649.799	-103.364	0.222	-0.052
-648.784	-78.680	0.169	-0.058
-647.770	253.207	0.172	0.293
-646.755	800.000	-0.037	-0.126
-645.741	-200.000	0.035	0.294
-644.726	-44.169	0.169	-0.085
-643.711	-165.416	0.153	-0.007
-642.697	70.426	-0.180	-0.186
-641.682	-75.737	0.116	-0.041
-640.668	-31.301	-0.130	0.073
-639.653	800.000	0.019	-0.067
-638.638	-200.000	0.065	-0.335
-637.624	-25.071	0.208	0.123
-636.609	199.118	-0.093	0.142
-635.595	-200.000	0.008	0.279
-634.580	-6.669	-0.077	-0.052
-633.565	-119.038	-0.029	0.005
-632.551	-135.663	0.241	-0.029
-631.536	-200.000	-0.029	0.215
-630.522	-93.423	0.172	0.048
-629.507	-137.146	0.285	0.032
-628.492	-93.875	-0.240	-0.066
-627.478	136.632	-0.059	0.077
-626.463	736.224	-0.100	-0.266
-625.449	-26.901	-0.305	-0.178
-624.434	-200.000	0.019	0.187
-623.419	-12.476	-0.212	-0.138
-622.405	455.100	-0.160	-0.353
-621.390	-200.000	0.005	-0.385
-620.376	800.000	-0.129	-0.364
-619.361	768.463	0.147	0.400
-618.346	-43.413	-0.165	0.083
-617.332	-126.402	0.208	0.031
-616.317	800.000	-0.024	0.072
-615.303	800.000	0.023	0.073
-614.288	800.000	0.113	-0.388
-613.273	-200.000	-0.007	0.115
-612.259	-196.229	-0.308	-0.002
-611.244	-89.195	0.320	0.094
-610.230	-84.050	-0.393	-0.125
-609.215	-200.000	-0.015	0.363
-608.201	124.007	-0.262	-0.329
-607.186	194.977	0.114	-0.173
-606.171	800.000	-0.123	0.362
-605.157	800.000	-0.041	-0.132
-604.142	800.000	-0.130	0.403
-603.128	86.145	0.078	0.085
-602.113	-200.000	0.035	0.179
-601.098	119.845	-0.114	-0.141
-600.084	-94.118	-0.108	0.029
-599.069	-150.353	-0.381	-0.029
-598.055	-200.000	-0.035	-0.163
-597.040	92.011	0.048	-0.054
-596.025	-83.507	0.240	0.076
-595.011	-9.388	-0.242	0.161
-593.996	407.647	0.009	0.019
-592.982	800.000	-0.069	0.226
-591.967	226.681	0.115	0.186
-590.952	218.855	-0.115	0.184
-589.938	85.789	0.077	0.084
-588.923	223.382	-0.041	0.066
-587.909	800.000	0.059	0.249
-586.894	-200.000	-0.031	0.377
-585.879	-93.599	0.204	-0.056
-584.865	166.877	-0.217	-0.306
-583.850	800.000	-0.041	0.172
-582.836	-200.000	0.039	-0.362
-581.821	-12.482	-0.083	-0.054
-580.806	-153.226	-0.255	0.018
-579.792	-200.000	-0.032	0.365
-578.777	-200.000	0.041	0.195
-577.763	263.752	0.106	-0.184
-576.748	39.789	-0.157	-0.140
-575.733	10.531	0.219	0.166
-574.719	-9.596	-0.164	-0.109
-573.704	-8.901	-0.219	-0.146
-572.690	431.283	-0.030	0.066
-571.675	-137.246	0.038	0.004
-570.661	96.034	-0.096	0.109
-569.646	306.242	0.119	0.221
-568.631	262.711	-0.144	0.249
-567.617	-157.008	0.053	0.003
-566.602	28.961	-0.064	0.054
-565.588	300.459	0.108	0.199
-564.573	-101.134	-0.176	0.043
-563.558	-135.278	-0.157	-0.019
-562.544	269.520	0.009	0.016
-561.529	315.764	0.025	0.047
-560.515	-56.969	-0.436	0.192
-559.500	-127.331	-0.162	-0.023
-558.485	262.929	-0.053	0.091
-557.471	-161.112	-0.084	-0.004
-556.456	100.350	0.058	0.067
-555.442	-117.888	0.314	0.056
-554.427	236.909	0.149	-0.245
-553.412	320.897	-0.059	0.112
-552.398	240.879	-0.076	0.126
-551.383	93.721	0.157	-0.177
-550.369	-200.000	0.047	-0.412
-549.354	179.274	-0.184	-0.268
-548.339	-117.016	-0.100	0.018
-547.325	-196.414	-0.233	0.002
-546.310	-189.930	-0.076	0.001
-545.296	-149.093	-0.166	0.013
-544.281	-200.000	-0.011	-0.070
-543.266	-200.000	-0.051	-0.261
-542.252	-200.000	0.029	-0.218
-541.237	29.140	0.286	0.241
-540.223	-147.458	-0.389	0.033
-539.208	-52.377	0.133	0.061
-538.193	-200.000	0.013	-0.127
-537.179	-27.470	-0.183	0.106
-536.164	-47.322	-0.216	0.105
-535.150	-14.587	-0.264	0.169
-534.135	-42.629	0.333	0.169
-533.121	-56.877	0.097	-0.043
-532.106	-68.232	0.348	-0.134
-531.091	100.487	0.174	-0.201
-530.077	800.000	-0.086	-0.335
-529.062	-16.845	0.267	0.168
-528.048	623.199	0.181	0.454
-527.033	-182.797	0.187	0.003
-526.018	-200.000	0.035	0.308
-525.004	-143.420	-0.241	-0.023
-523.989	-185.227	0.310	-0.005
-522.975	428.560	0.013	0.027
-521.960	-200.000	0.027	-0.394
-520.945	-51.198	0.198	0.092
-519.931	-5.285	-0.146	-0.100
-518.916	-12.733	-0.254	-0.164
-517.902	153.893	-0.155	-0.211
-516.887	-200.000	0.000	-0.134
-515.872	139.770	0.109	0.143
-514.858	-97.330	-0.366	-0.095
-513.843	-152.261	0.122	-0.009
-512.829	-80.708	0.521	-0.172
-511.814	800.000	-0.078	-0.219
-510.799	-64.690	-0.267	-0.107
-509.785	-176.678	-0.232	0.006
-508.770	-200.000	-0.003	-0.037
-507.756	55.336	-0.148	0.142
-506.741	-45.361	0.028	0.014
-505.726	-154.561	-0.395	0.026
-504.712	81.235	0.063	-0.068
-503.697	-56.056	0.315	0.139
-502.683	-44.381	0.180	-0.090
-501.668	800.000	-0.035	-0.099
-500.653	779.265	-0.055	0.149
-499.639	34.464	-0.187	-0.162
-498.624	8.683	-0.082	0.061
-497.610	-21.785	-0.133	-0.080
-496.595	-163.288	-0.326	0.016
-495.581	-84.174	-0.096	-0.030
-494.566	800.000	-0.094	0.340
-493.551	-200.000	-0.006	-0.376
-492.537	-200.000	-0.016	-0.182
-491.522	-200.000	-0.026	0.241
-490.508	-182.507	-0.019	-0.000
-489.493	81.447	0.175	0.187
-488.478	800.000	0.044	0.149
-487.464	-51.559	-0.091	0.042
-486.449	-5.392	0.026	-0.018
-485.435	-5.394	-0.069	0.047
-484.420	20.635	-0.225	0.181
-483.405	-71.982	-0.274	-0.101
-482.391	254.153	0.117	0.199
-481.376	598.086	-0.059	-0.146
-480.362	-63.773	-0.086	-0.035
-479.347	0.600	0.072	0.051
-478.332	800.000	0.058	0.219
-477.318	800.000	-0.030	0.085
-476.303	92.416	-0.077	-0.086
-475.289	69.348	0.116	0.118
-474.274	-166.058	-0.462	0.020
-473.259	263.676	-0.098	0.170
-472.245	800.000	0.067	-0.257
-471.230	2.833	-0.324	-0.233
-470.216	-44.714	0.083	-0.041
-469.201	-124.534	-0.204	0.032
-468.186	-148.917	0.117	-0.009
-467.172	94.788	0.070	-0.079
-466.157	66.447	-0.179	0.180
-465.143	-47.621	0.071	-0.034
-464.128	-151.674	0.234	0.017
-463.113	-8.847	0.125	-0.083
-462.099	-87.990	0.286	-0.085
-461.084	-78.766	0.137	0.046
-460.070	85.222	-0.119	-0.129
-459.055	7.545	0.226	-0.168
-458.040	-51.123	0.111	0.052
-457.026	-200.000	-0.015	-0.313
-456.011	215.156	-0.063	-0.099
-454.997	-8.089	0.108	-0.072
-453.982	-118.943	-0.306	0.053
-452.968	-200.000	-0.034	-0.276
-451.953	-200.000	0.058	0.362
-450.938	-16.674	0.093	0.058
-449.924	437.268	-0.023	0.050
-448.909	15.066	-0.198	0.154
-447.895	178.380	-0.174	0.252
-446.880	-200.000	-0.013	0.207
-445.865	225.580	-0.166	-0.267
-444.851	176.961	-0.175	-0.253
-443.836	800.000	-0.059	0.243
-442.822	444.043	-0.109	-0.237
-441.807	-117.280	0.237	-0.043
-440.792	-82.005	-0.131	0.042
-439.778	251.020	-0.075	0.127
-438.763	28.899	-0.191	-0.160
-437.749	-88.471	-0.433	0.128
-436.734	104.413	0.168	-0.196
-435.719	-52.176	0.142	-0.065
-434.705	268.275	-0.093	0.162
-433.690	-44.540	-0.114	-0.057
-432.676	-200.000	0.009	-0.267
-431.661	505.348	0.060	0.138
-430.646	-150.797	-0.303	0.023
-429.632	29.731	-0.023	-0.020
-428.617	-17.113	0.178	0.111
-427.603	800.000	-0.031	-0.095
-426.588	-128.231	-0.181	-0.026
-425.573	667.302	0.077	0.196
-424.559	107.509	0.028	0.033
-423.544	-23.509	-0.321	0.191
-422.530	-42.533	0.414	0.209
-421.515	-193.813	0.332	0.003
-420.500	-200.000	0.025	0.295
-419.486	517.833	-0.022	-0.051
-418.471	-21.570	-0.091	0.055
-417.457	-200.000	-0.013	-0.094
-416.442	-38.345	-0.208	0.109
-415.428	800.000	-0.117	0.377
-414.413	-38.339	0.062	0.032
-413.398	359.715	0.137	0.270
-412.384	90.246	-0.119	0.132
-411.369	800.000	-0.040	-0.169
-410.355	35.099	-0.149	-0.129
-409.340	-116.245	0.125	-0.023
-408.325	-200.000	0.079	-0.530
-407.311	-127.132	-0.238	-0.034
-406.296	674.744	0.116	-0.299
-405.282	800.000	-0.060	-0.198
-404.267	800.000	0.030	-0.093
-403.252	80.342	-0.175	0.186
-402.238	12.589	-0.261	0.199
-401.223	208.738	-0.089	-0.138
-400.209	800.000	-0.117	0.327
-399.194	212.575	0.144	-0.225
-398.179	-86.908	0.074	0.022
-397.165	416.838	-0.064	0.134
-396.150	78.821	-0.103	-0.109
-395.136	-135.344	0.190	-0.022
-394.121	-168.594	0.162	-0.006
-393.106	-9.809	-0.178	0.117
-392.092	-6.138	-0.208	0.141
-391.077	800.000	0.026	-0.081
-390.063	-200.000	-0.051	0.227
-389.048	401.446	0.213	0.441
-388.033	-42.155	0.453	-0.229
-387.019	-180.859	0.027	0.001
-386.004	243.469	-0.127	-0.211
-384.990	-200.000	0.007	-0.454
-383.975	-200.000	-0.001	0.110
-382.960	86.535	0.176	-0.192
-381.946	-21.028	0.151	-0.091
-380.931	36.677	0.166	0.145
-379.917	-134.976	0.229	0.027
-378.902	-93.080	-0.249	0.068
-377.888	-175.071	0.185	-0.005
-376.873	14.074	0.131	0.101
-375.858	-31.934	0.179	0.099
-374.844	-7.554	-0.136	0.091
-373.829	-200.000	-0.042	-0.247
-372.815	15.432	-0.142	0.110
-371.800	54.473	0.197	0.187
-370.785	-92.391	0.451	-0.125
-369.771	-200.000	-0.005	0.025
-368.756	81.114	0.110	0.117
-367.742	-39.238	-0.195	-0.101
-366.727	1.551	-0.242	-0.172
-365.712	18.586	0.221	-0.175
-364.698	19.885	0.168	-0.134
-363.683	-200.000	-0.052	0.306
-362.669	-200.000	0.008	0.119
-361.654	118.651	0.100	0.122
-360.639	800.000	-0.078	0.257
-359.625	-200.000	-0.009	-0.305
-358.610	-200.000	0.009	-0.403
-357.596	-200.000	-0.035	-0.302
-356.581	149.783	0.100	0.134
-355.566	-94.285	0.305	0.082
-354.552	-12.227	-0.131	-0.085
-353.537	-181.005	0.177	0.004
-352.523	-156.548	0.159	0.010
-351.508	611.962	0.059	0.147
-350.493	-200.000	-0.006	0.122
-349.479	14.466	-0.169	-0.131
-348.464	143.389	0.047	0.062
-347.450	-200.000	0.267	0.000
-346.435	173.081	0.258	-0.367
-345.420	-128.916	-0.124	-0.017
-344.406	197.889	-0.058	0.087
-343.391	33.134	-0.081	-0.069
-342.377	-200.000	0.032	0.182
-341.362	119.542	0.292	0.357
-340.348	2.607	-0.136	0.098
-339.333	-72.342	-0.143	0.052
-338.318	29.511	-0.115	-0.096
-337.304	-200.000	0.006	0.181
-336.289	800.000	0.058	-0.218
-335.275	91.840	-0.094	0.105
-334.260	47.270	-0.037	0.034
-333.245	-65.071	-0.128	0.051
-332.231	156.925	0.214	-0.292
-331.216	-139.602	0.262	-0.028
-330.202	205.778	-0.025	0.039
-329.187	-175.888	0.252	0.007
-328.172	82.627	-0.183	-0.196
-327.158	-200.000	-0.017	-0.183
-326.143	332.087	0.232	-0.442
-325.129	-200.000	-0.008	0.070
-324.114	-99.862	0.399	0.099
-323.099	800.000	0.057	0.175
-322.085	-93.465	-0.176	0.048
-321.070	-68.771	0.027	-0.010
-320.056	-200.000	-0.011	-0.059
-319.041	-69.989	0.158	0.060
-318.026	800.000	0.095	0.322
-317.012	101.029	0.276	0.317
-315.997	69.443	0.121	-0.123
-314.983	87.929	-0.219	-0.239
-313.968	233.838	-0.109	-0.177
-312.953	50.694	0.161	0.151
-311.939	558.425	-0.057	-0.136
-310.924	-62.969	0.126	-0.051
-309.910	13.099	-0.194	-0.148
-308.895	-83.913	0.162	0.051
-307.880	106.432	0.153	0.178
-306.866	-61.134	0.065	-0.027
-305.851	-200.000	-0.007	-0.187
-304.837	18.608	0.099	-0.078
-303.822	800.000	-0.038	0.148
-302.807	616.536	0.046	0.113
-301.793	363.381	0.131	0.259
-300.778	-67.908	0.157	-0.060
-299.764	40.904	-0.142	0.127
-298.749	210.228	0.091	0.141
-297.735	406.244	0.085	0.176
-296.720	800.000	-0.054	0.226
-295.705	-95.143	-0.243	-0.065
-294.691	171.600	-0.112	0.159
-293.676	190.777	0.160	-0.237
-292.662	17.933	-0.266	-0.209
-291.647	125.019	0.045	0.056
-290.632	-200.000	0.002	-0.303
-289.618	-69.303	0.134	0.051
-288.603	-155.960	0.280	-0.018
-287.589	-150.835	-0.452	0.034
-286.574	-116.025	0.370	-0.068
-285.559	-200.000	0.018	-0.219
-284.545	800.000	0.087	-0.355
-283.530	87.765	0.209	-0.228
-282.516	-15.266	0.197	-0.124
-281.501	125.725	0.153	0.190
-280.486	800.000	-0.041	-0.157
-279.472	43.107	-0.263	-0.237
-278.457	-131.765	0.276	-0.036
-277.443	800.000	0.122	0.340
-276.428	25.472	-0.213	0.174
-275.413	-94.212	0.631	-0.170
-274.399	-37.288	-0.399	-0.210
-273.384	481.320	0.069	0.153
-272.370	-127.088	0.095	-0.014
-271.355	-200.000	-0.025	-0.144
-270.340	-137.332	0.230	-0.026
-269.326	-143.586	-0.254	0.024
-268.311	-200.000	0.063	-0.357
-267.297	-102.546	0.292	0.069
-266.282	89.224	0.174	-0.190
-265.267	-200.000	0.004	0.065
-264.253	321.989	0.063	-0.119
-263.238	129.293	0.354	0.445
-262.224	-59.443	-0.063	0.026
-261.209	-200.000	-0.004	-0.236
-260.195	-151.199	0.077	-0.006
-259.180	-200.000	0.043	-0.295
-258.165	207.862	-0.196	-0.302
-257.151	628.476	-0.027	-0.066
-256.136	-21.480	-0.256	0.154
-255.122	-200.000	0.038	0.170
-254.107	-200.000	0.009	-0.205
-253.092	-200.000	0.014	-0.087
-252.078	-96.113	-0.381	0.100
-251.063	462.017	-0.180	0.395
-250.049	-154.609	-0.109	-0.007
-249.034	151.244	0.134	-0.179
-248.019	603.710	0.014	-0.035
-247.005	-13.115	0.287	-0.184
-245.990	-78.199	0.196	-0.066
-244.976	22.826	-0.230	0.185
-243.961	-141.616	0.231	-0.023
-242.946	68.754	0.171	0.173
-241.932	28.212	0.039	-0.033
-240.917	81.241	0.071	0.075
-239.903	98.879	-0.049	-0.056
-238.888	-13.440	0.208	-0.133
-237.873	-90.941	0.201	-0.057
-236.859	-200.000	-0.012	0.112
-235.844	800.000	-0.045	0.177
-234.830	800.000	-0.017	-0.063
-233.815	-38.968	0.230	0.119
-232.800	-9.202	0.254	-0.167
-231.786	-50.675	0.233	0.108
-230.771	-50.799	-0.066	0.030
-229.757	-158.960	0.116	0.006
-228.742	95.947	0.140	0.157
-227.727	4.462	-0.191	-0.137
-226.713	409.883	0.064	-0.132
-225.698	-7.116	0.351	-0.234
-224.684	-158.990	-0.089	-0.005
-223.669	-200.000	0.039	0.318
-222.655	469.216	-0.126	-0.278
-221.640	-198.236	-0.474	-0.003
-220.625	-82.658	0.085	0.027
-219.611	-30.073	-0.100	0.056
-218.596	-59.794	-0.177	0.074
-217.582	-106.465	0.262	0.057
-216.567	-112.147	0.141	-0.028
-215.552	800.000	0.125	0.455
-214.538	-78.309	-0.238	0.080
-213.523	-200.000	0.038	-0.216
-212.509	356.520	-0.052	0.102
-211.494	-91.684	0.132	0.037
-210.479	-200.000	-0.040	-0.328
-209.465	-92.880	-0.288	0.079
-208.450	422.217	0.089	0.187
-207.436	-89.139	0.269	0.078
-206.421	-200.000	-0.014	-0.157
-205.406	111.121	0.047	0.055
-204.392	291.346	0.111	-0.199
-203.377	-200.000	0.003	0.118
-202.363	-48.366	0.010	0.005
-201.348	82.442	0.204	-0.217
-200.333	130.318	-0.143	0.179
-199.319	81.486	-0.137	-0.145
-198.304	105.190	-0.102	-0.118
-197.290	75.803	-0.103	0.107
-196.275	-188.471	0.173	-0.002
-195.260	-85.053	-0.144	0.044
-194.246	274.779	0.067	-0.117
-193.231	-200.000	-0.003	-0.244
-192.217	-86.652	-0.277	0.083
-191.202	372.615	0.190	0.379
-190.187	170.437	-0.090	-0.127
-189.173	800.000	0.066	-0.254
-188.158	-53.195	-0.095	0.043
-187.144	84.036	0.310	0.332
-186.129	-82.055	-0.391	-0.125
-185.114	-143.378	0.134	0.013
-184.100	87.944	-0.277	0.301
-183.085	-38.129	-0.141	0.073
-182.071	406.162	-0.177	0.366
-181.056	129.643	-0.226	-0.284
-180.042	-200.000	-0.019	0.100
-179.027	92.285	-0.099	-0.110
-178.012	-145.787	0.198	0.017
-176.998	55.007	0.266	0.252
-175.983	116.737	-0.289	-0.348
-174.969	-123.968	-0.135	0.021
-173.954	-148.783	-0.180	-0.014
-172.939	-137.117	-0.059	0.007
-171.925	-111.986	0.308	-0.061
-170.910	277.279	0.046	0.080
-169.896	-144.761	0.338	-0.030
-168.881	-150.497	-0.325	0.024
-167.866	59.237	-0.075	-0.073
-166.852	-77.606	-0.335	-0.114
-165.837	-1.085	0.314	-0.218
-164.823	3.455	-0.112	0.080
-163.808	-99.391	0.366	-0.090
-162.793	-200.000	-0.064	0.437
-161.779	800.000	-0.014	-0.039
-160.764	-200.000	0.013	-0.197
-159.750	-200.000	-0.074	0.395
-158.735	-104.020	-0.126	0.029
-157.720	-63.479	0.147	-0.059
-156.706	-51.129	-0.334	0.153
-155.691	-45.934	-0.213	0.103
-154.677	800.000	0.033	-0.129
-153.662	-26.441	0.219	-0.126
-152.647	-70.170	-0.330	-0.123
-151.633	-56.562	0.094	-0.041
-150.618	-110.617	0.355	-0.072
-149.604	-200.000	0.023	-0.415
-148.589	-200.000	-0.044	-0.228
-147.574	800.000	0.045	-0.148
-146.560	-200.000	0.104	-0.458
-145.545	85.692	0.208	0.224
-144.531	279.771	0.162	-0.283
-143.516	800.000	-0.029	0.114
-142.502	-200.000	-0.030	-0.225
-141.487	-40.050	0.297	0.152
-140.472	800.000	-0.065	-0.200
-139.458	800.000	-0.124	0.457
-138.443	-18.041	0.238	0.146
-137.429	121.567	-0.160	-0.195
-136.414	16.583	0.256	-0.198
-135.399	-200.000	0.044	0.196
-134.385	153.626	0.142	-0.190
-133.370	155.413	0.096	-0.129
-132.356	-200.000	-0.009	-0.276
-131.341	-90.658	0.158	-0.045
-130.326	28.804	-0.173	0.144
-129.312	-100.230	0.211	0.051
-128.297	-38.189	-0.152	0.079
-127.283	217.925	-0.060	-0.094
-126.268	-11.565	-0.026	0.017
-125.253	114.916	-0.218	0.261
-124.239	-9.470	-0.187	-0.122
-123.224	-83.087	0.149	-0.047
-122.210	-161.396	0.185	-0.009
-121.195	-200.000	-0.074	-0.316
