DTS Sentinel unit serial number:	SN413079Multiplexer serial number:	ORYXHardware model number:	OX4-SRSoftware version number:	ORYX F/W v4.00 Oryx Data Collector v3.7.2.0data status	okinstallation	princeton_trtdifferential loss correction	single-endedforward channel	channel 4reverse channel	N/Adate	2019/09/18time	19:05:35forward acquisition time	60.00reverse acquisition time	0.00gamma	496.2192k internal	0.2305k external	0.2305temperature offset calibration	1.0023default loss term (dB/km)	0.3790temperature slope calibration	1.0000multiplexer offset coefficient	1.0000multiplexer slope coefficient	1.0000fibre end	0.00T internal ref (°C)	35.47T ext. ref 1 (°C)	0.94T ext. ref 2 (°C)	24.65length (m)	temperature (°C)	Stokes	anti-Stokes-747.200	-152.670	0.587	-0.043
-746.185	33.593	0.050	0.044
-745.171	-149.038	0.073	-0.006
-744.156	-141.711	-0.144	0.015
-743.142	21.388	0.213	-0.177
-742.127	-200.000	0.011	0.155
-741.112	-200.000	0.053	-0.244
-740.098	183.241	0.112	0.168
-739.083	-10.938	0.109	0.073
-738.069	529.958	0.066	0.158
-737.054	-86.785	0.101	-0.031
-736.039	63.914	-0.234	-0.239
-735.025	-116.908	0.015	-0.003
-734.010	-153.371	-0.293	-0.021
-732.996	-93.752	-0.134	-0.038
-731.981	-200.000	-0.005	0.100
-730.966	376.265	-0.093	-0.192
-729.952	-90.007	-0.317	0.094
-728.937	-1.712	-0.217	-0.156
-727.923	-85.601	0.322	0.102
-726.908	-72.541	0.080	0.030
-725.894	-29.870	-0.049	-0.028
-724.879	-200.000	0.020	-0.128
-723.864	800.000	0.062	-0.201
-722.850	134.877	0.213	-0.281
-721.835	-200.000	0.039	0.194
-720.821	135.398	0.107	0.141
-719.806	-69.785	-0.365	-0.142
-718.791	800.000	-0.084	0.279
-717.777	800.000	0.125	0.385
-716.762	-76.610	0.264	0.094
-715.748	234.824	-0.171	-0.287
-714.733	143.933	-0.202	-0.274
-713.718	-53.535	-0.081	0.038
-712.704	-19.724	-0.010	0.006
-711.689	-168.000	-0.080	0.003
-710.675	-67.961	0.193	0.077
-709.660	-113.376	-0.377	0.075
-708.645	-39.081	0.201	-0.107
-707.631	800.000	-0.041	-0.143
-706.616	-200.000	-0.010	0.171
-705.602	67.203	-0.113	0.117
-704.587	-0.726	-0.057	0.041
-703.572	708.173	0.083	0.222
-702.558	21.701	-0.351	0.291
-701.543	800.000	-0.066	0.225
-700.529	-66.378	0.161	0.065
-699.514	-200.000	0.005	-0.295
-698.499	295.146	-0.101	-0.187
-697.485	93.692	0.315	0.363
-696.470	800.000	-0.072	-0.216
-695.456	513.391	0.088	0.207
-694.441	368.729	-0.074	0.151
-693.426	-200.000	-0.029	0.229
-692.412	800.000	0.099	-0.330
-691.397	116.281	0.117	0.146
-690.383	114.273	0.211	0.261
-689.368	-79.381	0.176	-0.061
-688.354	-10.587	-0.041	0.027
-687.339	800.000	0.100	-0.412
-686.324	30.666	-0.198	-0.172
-685.310	362.126	-0.019	-0.039
-684.295	108.312	-0.171	-0.207
-683.281	-161.231	-0.182	-0.010
-682.266	-157.306	-0.228	-0.014
-681.251	-58.862	0.169	-0.074
-680.237	800.000	0.057	-0.246
-679.222	-200.000	0.018	0.210
-678.208	-119.935	-0.463	0.081
-677.193	309.294	0.105	0.199
-676.178	-200.000	-0.056	-0.343
-675.164	-200.000	0.021	0.459
-674.149	124.591	-0.341	-0.436
-673.135	-100.549	-0.281	-0.071
-672.120	194.158	0.087	-0.134
-671.105	-66.272	0.324	0.131
-670.091	156.159	0.289	-0.404
-669.076	-88.799	-0.379	-0.114
-668.062	-36.663	-0.273	0.149
-667.047	-200.000	0.001	-0.103
-666.032	146.645	-0.195	-0.266
-665.018	-200.000	0.015	-0.239
-664.003	-188.693	0.157	-0.002
-662.989	113.158	0.086	-0.106
-661.974	-23.804	-0.072	0.044
-660.959	-53.446	-0.265	0.123
-659.945	94.303	0.079	-0.091
-658.930	-65.076	-0.261	0.107
-657.916	-36.299	0.121	0.066
-656.901	350.281	-0.055	-0.110
-655.886	126.607	-0.137	0.176
-654.872	248.526	0.015	-0.026
-653.857	-85.155	-0.179	-0.057
-652.843	-13.745	-0.198	0.130
-651.828	57.892	-0.138	0.137
-650.814	266.893	-0.041	-0.073
-649.799	-160.374	-0.269	0.015
-648.784	81.420	0.069	-0.075
-647.770	180.882	0.081	-0.120
-646.755	-19.073	0.175	-0.110
-645.741	800.000	0.027	0.100
-644.726	170.557	0.123	0.179
-643.711	-162.832	-0.414	0.020
-642.697	-5.331	-0.125	0.087
-641.682	-200.000	-0.008	0.240
-640.668	-21.935	0.285	-0.175
-639.653	-103.049	0.141	-0.034
-638.638	-123.613	0.134	0.022
-637.624	63.170	0.084	0.086
-636.609	800.000	-0.040	0.129
-635.595	-77.326	-0.035	0.012
-634.580	800.000	0.072	-0.291
-633.565	-151.220	-0.196	-0.015
-632.551	161.067	0.089	0.125
-631.536	261.213	-0.057	-0.100
-630.522	-19.991	-0.202	0.127
-629.507	-200.000	0.012	0.078
-628.492	800.000	-0.043	0.127
-627.478	410.277	-0.101	0.216
-626.463	596.931	0.124	0.310
-625.449	-200.000	-0.022	0.230
-624.434	-132.736	0.041	0.005
-623.419	33.636	0.285	-0.251
-622.405	-10.254	-0.057	0.038
-621.390	668.386	-0.061	-0.160
-620.376	-152.486	-0.148	-0.011
-619.361	472.230	-0.060	0.136
-618.346	345.766	0.098	-0.196
-617.332	158.098	-0.087	0.122
-616.317	87.371	0.268	-0.301
-615.303	-29.984	-0.203	-0.117
-614.288	-200.000	0.009	0.159
-613.273	708.595	0.037	0.100
-612.259	-108.601	0.229	0.050
-611.244	29.745	-0.192	-0.166
-610.230	79.084	0.226	0.245
-609.215	-200.000	-0.002	0.009
-608.201	-101.588	0.241	-0.059
-607.186	-106.991	0.282	-0.063
-606.171	7.873	-0.218	-0.166
-605.157	800.000	-0.092	-0.347
-604.142	-52.523	-0.121	-0.057
-603.128	0.587	0.115	-0.083
-602.113	800.000	-0.118	-0.397
-601.098	-200.000	-0.015	0.219
-600.084	-200.000	0.024	-0.252
-599.069	-200.000	0.019	0.114
-598.055	55.431	-0.102	-0.100
-597.040	-200.000	-0.011	0.388
-596.025	245.311	0.210	-0.358
-595.011	800.000	0.050	-0.142
-593.996	-111.918	0.246	0.050
-592.982	-1.212	0.168	-0.120
-591.967	220.426	-0.143	0.232
-590.952	634.714	0.072	-0.185
-589.938	124.647	0.222	-0.283
-588.923	-200.000	0.001	-0.178
-587.909	-200.000	-0.050	0.332
-586.894	-65.921	0.035	0.014
-585.879	-109.171	0.058	-0.012
-584.865	-6.098	0.341	-0.236
-583.850	-137.966	-0.257	0.029
-582.836	43.869	0.289	-0.268
-581.821	-11.201	0.286	-0.191
-580.806	10.976	-0.070	-0.054
-579.792	296.677	-0.118	0.218
-578.777	-143.191	0.181	0.018
-577.763	52.479	-0.041	0.039
-576.748	800.000	0.079	0.324
-575.733	-65.330	-0.084	-0.034
-574.719	-200.000	-0.028	0.147
-573.704	-43.716	-0.149	0.076
-572.690	124.005	-0.054	0.068
-571.675	276.303	0.201	-0.361
-570.661	-130.051	-0.061	-0.008
-569.646	-135.052	0.421	-0.051
-568.631	-100.331	-0.483	-0.121
-567.617	-114.617	-0.151	-0.029
-566.602	-140.274	0.255	0.027
-565.588	-200.000	-0.050	0.254
-564.573	179.184	-0.082	0.122
-563.558	234.192	-0.180	0.300
-562.544	84.952	-0.192	0.212
-561.529	166.389	0.097	0.139
-560.515	42.073	-0.036	0.033
-559.500	11.788	-0.303	-0.235
-558.485	-200.000	-0.000	-0.112
-557.471	8.517	-0.256	-0.195
-556.456	800.000	0.052	-0.157
-555.442	80.315	-0.125	0.136
-554.427	800.000	-0.135	0.445
-553.412	49.881	0.235	-0.224
-552.398	26.778	-0.086	-0.072
-551.383	8.794	0.092	-0.070
-550.369	32.572	0.177	-0.155
-549.354	20.922	0.406	-0.332
-548.339	-38.358	-0.376	0.201
-547.325	-101.027	-0.149	0.037
-546.310	157.844	0.170	0.238
-545.296	116.704	-0.152	0.188
-544.281	26.843	0.049	0.042
-543.266	106.604	-0.096	0.115
-542.252	800.000	0.108	0.331
-541.237	115.249	0.086	-0.106
-540.223	-43.423	-0.164	-0.084
-539.208	800.000	0.097	-0.351
-538.193	-68.016	-0.192	0.076
-537.179	13.599	-0.255	0.200
-536.164	-62.616	0.239	0.100
-535.150	-149.827	-0.101	-0.008
-534.135	800.000	-0.030	-0.085
-533.121	-200.000	-0.016	-0.112
-532.106	-200.000	-0.024	-0.154
-531.091	744.106	-0.061	-0.165
-530.077	-200.000	-0.036	-0.184
-529.062	-42.213	0.228	-0.117
-528.048	1.145	0.055	-0.040
-527.033	-37.123	-0.088	-0.047
-526.018	-87.684	0.179	0.055
-525.004	-200.000	-0.018	-0.126
-523.989	17.619	0.217	-0.174
-522.975	293.276	0.109	-0.202
-521.960	-200.000	0.011	0.129
-520.945	-200.000	0.001	0.126
-519.931	-200.000	-0.078	0.379
-518.916	-85.352	0.079	0.025
-517.902	263.452	0.105	-0.184
-516.887	-89.458	0.316	0.094
-515.872	-115.290	0.216	-0.041
-514.858	284.538	0.199	0.361
-513.843	-200.000	0.049	0.262
-512.829	800.000	0.019	-0.072
-511.814	38.302	0.105	0.094
-510.799	446.534	-0.175	-0.389
-509.785	-200.000	-0.028	-0.498
-508.770	-200.000	0.001	0.269
-507.756	279.436	0.045	0.080
-506.741	-69.724	-0.189	-0.073
-505.726	-65.981	0.257	0.104
-504.712	-167.592	0.364	-0.015
-503.697	191.724	0.165	-0.250
-502.683	-94.055	-0.105	-0.029
-501.668	431.711	-0.075	0.165
-500.653	44.983	-0.230	-0.214
-499.639	-94.924	-0.148	0.040
-498.624	101.990	0.132	-0.155
-497.610	-200.000	0.000	-0.170
-496.595	-114.635	0.025	-0.005
-495.581	-200.000	0.031	0.280
-494.566	-200.000	-0.028	0.178
-493.551	31.223	-0.287	0.248
-492.537	-92.955	-0.310	0.087
-491.522	-200.000	0.010	0.232
-490.508	297.597	0.120	-0.222
-489.493	-11.498	-0.065	-0.043
-488.478	-153.325	-0.387	0.027
-487.464	69.491	0.174	0.180
-486.449	-200.000	-0.009	-0.461
-485.435	-140.431	0.098	-0.010
-484.420	423.164	0.028	0.061
-483.405	-28.197	-0.089	0.052
-482.391	-200.000	-0.027	-0.227
-481.376	800.000	0.135	-0.434
-480.362	-28.965	-0.159	0.092
-479.347	-200.000	-0.031	0.162
-478.332	203.013	-0.111	-0.173
-477.318	417.699	0.122	0.263
-476.303	-200.000	0.002	-0.119
-475.289	-189.105	-0.404	0.005
-474.274	100.785	0.008	-0.010
-473.259	-156.368	-0.455	-0.029
-472.245	335.444	0.045	-0.088
-471.230	-200.000	-0.042	0.227
-470.216	-79.667	-0.210	-0.071
-469.201	242.712	-0.209	0.353
-468.186	-63.568	-0.368	-0.152
-467.172	78.850	-0.275	-0.297
-466.157	800.000	-0.045	0.183
-465.143	46.356	0.191	-0.178
-464.128	233.573	-0.100	-0.166
-463.113	-130.462	-0.221	-0.030
-462.099	-70.199	0.154	-0.059
-461.084	-200.000	0.026	0.348
-460.070	75.620	-0.120	-0.127
-459.055	146.702	-0.116	0.157
-458.040	33.546	-0.102	-0.089
-457.026	-200.000	-0.004	0.301
-456.011	-115.241	-0.159	-0.030
-454.997	178.859	0.146	0.214
-453.982	23.260	-0.063	0.052
-452.968	16.811	0.278	0.222
-451.953	305.479	0.186	0.347
-450.938	155.004	-0.031	-0.043
-449.924	-72.000	-0.070	0.026
-448.909	8.001	-0.223	0.168
-447.895	800.000	-0.055	-0.168
-446.880	83.554	0.042	-0.046
-445.865	20.528	0.202	-0.165
-444.851	-160.553	-0.431	-0.023
-443.836	-151.756	-0.400	-0.030
-442.822	-103.304	0.223	-0.053
-441.807	181.605	0.077	-0.114
-440.792	-24.141	-0.141	-0.085
-439.778	-47.742	-0.182	-0.089
-438.763	430.136	-0.037	0.081
-437.749	-200.000	-0.024	0.230
-436.734	-104.962	0.104	0.024
-435.719	-200.000	0.113	0.519
-434.705	117.020	-0.085	0.104
-433.690	124.584	-0.113	-0.143
-432.676	-200.000	0.014	-0.322
-431.661	209.901	-0.190	-0.299
-430.646	45.755	-0.224	-0.208
-429.632	800.000	-0.030	-0.127
-428.617	224.798	0.042	0.069
-427.603	-23.976	0.149	0.089
-426.588	-200.000	-0.004	0.240
-425.573	-131.457	-0.364	0.048
-424.559	163.814	-0.093	0.132
-423.544	93.822	-0.092	0.105
-422.530	-200.000	0.048	-0.307
-421.515	410.327	0.189	0.403
-420.500	76.657	-0.203	0.216
-419.486	800.000	0.082	-0.320
-418.471	-78.548	-0.230	-0.079
-417.457	-34.093	-0.343	0.189
-416.442	-101.242	0.179	0.044
-415.428	371.086	0.131	0.267
-414.413	800.000	-0.024	0.069
-413.398	3.357	0.100	-0.073
-412.384	-137.088	-0.117	-0.013
-411.369	-52.550	-0.228	0.106
-410.355	800.000	-0.050	-0.210
-409.340	-59.285	-0.149	0.065
-408.325	-120.411	-0.035	0.006
-407.311	18.631	0.272	-0.218
-406.296	-200.000	-0.032	-0.273
-405.282	-100.134	-0.471	-0.118
-404.267	-200.000	-0.027	-0.216
-403.252	89.518	-0.068	-0.076
-402.238	-43.963	-0.192	-0.097
-401.223	100.999	-0.254	0.297
-400.209	-143.087	0.228	-0.022
-399.194	545.045	0.112	0.268
-398.179	-200.000	0.028	-0.129
-397.165	-5.758	0.125	0.086
-396.150	-200.000	0.076	-0.477
-395.136	61.171	0.071	-0.071
-394.121	52.112	0.247	0.236
-393.106	-200.000	0.038	0.319
-392.092	-137.129	-0.142	0.016
-391.077	20.906	-0.159	0.129
-390.063	-173.494	-0.173	-0.005
-389.048	-200.000	-0.036	-0.175
-388.033	-83.356	-0.110	0.035
-387.019	-31.263	0.311	-0.176
-386.004	412.627	0.024	-0.050
-384.990	90.973	0.318	0.357
-383.975	-200.000	0.040	-0.186
-382.960	-49.162	0.156	-0.075
-381.946	-200.000	0.078	0.643
-380.931	-83.117	0.085	0.027
-379.917	-130.545	0.098	0.013
-378.902	82.522	-0.073	-0.079
-377.888	-190.167	0.256	-0.003
-376.873	23.842	-0.194	-0.160
-375.858	-101.989	0.099	-0.024
-374.844	341.524	-0.028	0.055
-373.829	800.000	0.091	-0.337
-372.815	334.695	-0.057	-0.111
-371.800	109.390	0.023	0.028
-370.785	-78.676	-0.214	-0.073
-369.771	-200.000	-0.003	0.269
-368.756	-98.058	0.074	-0.019
-367.742	800.000	0.056	0.155
-366.727	92.149	-0.128	0.144
-365.712	685.192	0.019	0.050
-364.698	-200.000	-0.005	0.209
-363.683	-200.000	0.012	-0.163
-362.669	-87.594	-0.344	0.104
-361.654	-12.050	0.270	-0.177
-360.639	800.000	0.040	-0.150
-359.625	-117.512	-0.079	-0.014
-358.610	5.312	0.037	0.027
-357.596	27.145	0.073	-0.061
-356.581	86.101	0.143	-0.157
-355.566	50.027	-0.222	0.210
-354.552	800.000	0.063	0.239
-353.537	137.865	-0.156	0.205
-352.523	800.000	-0.030	-0.089
-351.508	-107.083	0.208	-0.046
-350.493	28.233	0.213	0.180
-349.479	-10.687	0.034	0.023
-348.464	-200.000	0.027	0.306
-347.450	-42.828	0.182	-0.092
-346.435	-200.000	0.071	0.341
-345.420	-12.545	-0.156	0.102
-344.406	-200.000	0.064	-0.452
-343.391	-200.000	0.041	0.275
-342.377	-200.000	-0.007	0.063
-341.362	-200.000	-0.449	-0.000
-340.348	-83.166	0.424	-0.137
-339.333	-200.000	0.019	0.232
-338.318	622.201	0.060	0.152
-337.304	-58.026	0.151	0.066
-336.289	36.700	-0.172	0.152
-335.275	800.000	-0.044	-0.174
-334.260	-160.522	0.295	0.016
-333.245	293.567	-0.195	-0.357
-332.231	-90.444	0.413	0.120
-331.216	-200.000	-0.041	0.343
-330.202	-97.714	0.261	0.068
-329.187	510.807	0.103	-0.240
-328.172	-127.787	0.289	-0.042
-327.158	-113.601	-0.258	-0.050
-326.143	303.108	0.151	0.281
-325.129	103.166	0.065	0.076
-324.114	-24.466	0.288	0.172
-323.099	785.905	0.010	0.028
-322.085	-44.541	0.352	-0.176
-321.070	42.078	0.362	-0.329
-320.056	26.130	-0.214	0.179
-319.041	390.439	-0.123	-0.256
-318.026	-200.000	-0.012	0.136
-317.012	38.738	-0.150	-0.134
-315.997	625.608	0.136	-0.344
-314.983	-200.000	-0.039	-0.278
-313.968	800.000	0.044	-0.163
-312.953	55.478	-0.142	0.138
-311.939	800.000	0.075	0.270
-310.924	-46.359	0.112	-0.055
-309.910	-139.033	-0.185	0.020
-308.895	-62.977	-0.205	0.085
-307.880	-128.513	-0.117	-0.017
-306.866	-71.481	-0.159	0.059
-305.851	90.335	-0.074	0.083
-304.837	83.049	0.178	-0.194
-303.822	-81.614	0.320	0.105
-302.807	-200.000	-0.024	0.149
-301.793	41.124	-0.170	0.154
-300.778	800.000	-0.015	0.047
-299.764	-43.956	-0.406	-0.204
-298.749	-200.000	0.027	-0.231
-297.735	508.976	0.100	0.233
-296.720	-107.394	0.371	0.081
-295.705	130.231	-0.079	0.101
-294.691	10.884	0.261	-0.199
-293.676	-200.000	0.004	-0.038
-292.662	-80.318	-0.442	0.148
-291.647	800.000	0.063	-0.198
-290.632	-146.959	-0.168	-0.014
-289.618	159.382	-0.236	-0.328
-288.603	-160.308	0.240	-0.013
-287.589	560.565	0.089	0.215
-286.574	-77.295	-0.254	0.088
-285.559	-132.859	-0.343	-0.044
-284.545	-49.702	0.116	-0.055
-283.530	-190.275	-0.086	0.001
-282.516	522.631	0.107	-0.251
-281.501	-34.350	-0.217	0.119
-280.486	800.000	-0.061	-0.196
-279.472	148.045	-0.085	-0.115
-278.457	800.000	-0.055	-0.230
-277.443	800.000	-0.034	-0.095
-276.428	-117.868	0.352	-0.063
-275.413	-200.000	0.008	0.041
-274.399	333.049	0.091	0.175
-273.384	-120.227	-0.382	-0.065
-272.370	-200.000	0.055	0.327
-271.355	193.836	-0.083	0.125
-270.340	396.883	-0.024	0.050
-269.326	-107.562	-0.240	0.053
-268.311	-200.000	-0.003	0.148
-267.297	502.237	-0.080	-0.186
-266.282	-94.134	0.220	-0.060
-265.267	280.412	0.236	-0.421
-264.253	-200.000	-0.007	0.458
-263.238	-79.148	0.146	-0.050
-262.224	7.492	0.094	-0.070
-261.209	208.762	0.061	-0.095
-260.195	-145.477	0.140	0.013
-259.180	-60.652	-0.121	0.051
-258.165	800.000	-0.026	-0.081
-257.151	-200.000	-0.011	0.115
-256.136	800.000	0.087	-0.253
-255.122	121.114	-0.140	-0.174
-254.107	-132.257	0.112	-0.014
-253.092	-59.282	0.114	0.049
-252.078	501.936	-0.067	-0.154
-251.063	61.545	-0.283	-0.281
-250.049	-49.995	-0.171	-0.081
-249.034	-57.394	0.283	0.124
-248.019	108.413	-0.226	-0.269
-247.005	-71.801	0.116	-0.043
-245.990	-1.812	0.048	-0.034
-244.976	17.502	0.158	-0.125
-243.961	606.669	0.191	-0.475
-242.946	-18.071	-0.257	0.161
-241.932	-200.000	0.065	0.384
-240.917	762.475	-0.050	0.137
-239.903	9.991	0.292	0.221
-238.888	800.000	-0.012	0.045
-237.873	547.237	0.051	-0.123
-236.859	-161.016	0.129	0.007
-235.844	236.482	0.097	0.159
-234.830	-200.000	0.019	0.110
-233.815	-155.882	-0.063	-0.004
-232.800	800.000	0.109	0.396
-231.786	-68.672	-0.230	0.089
-230.771	112.060	-0.152	-0.184
-229.757	800.000	0.037	-0.108
-228.742	248.510	-0.180	0.304
-227.727	34.266	-0.083	-0.072
-226.713	-70.359	-0.169	0.064
-225.698	-2.343	0.061	0.043
-224.684	-200.000	-0.042	0.276
-223.669	800.000	0.042	-0.142
-222.655	-3.083	-0.350	0.244
-221.640	-200.000	-0.007	-0.244
-220.625	800.000	0.092	0.285
-219.611	-134.213	-0.334	-0.041
-218.596	-119.507	0.113	0.019
-217.582	75.270	0.040	0.042
-216.567	800.000	0.047	-0.141
-215.552	800.000	0.004	-0.017
-214.538	-8.158	-0.150	0.100
-213.523	800.000	-0.019	-0.073
-212.509	-5.554	-0.163	-0.111
-211.494	365.603	0.050	0.100
-210.479	171.654	-0.071	0.102
-209.465	360.727	0.158	0.316
-208.450	-33.374	0.046	0.025
-207.436	7.745	-0.180	-0.134
-206.421	-159.767	0.490	0.027
-205.406	356.889	0.089	0.176
-204.392	-151.617	-0.283	-0.021
-203.377	71.331	0.229	-0.236
-202.363	-18.349	0.372	-0.232
-201.348	-39.735	0.108	-0.056
-200.333	-16.606	0.245	0.154
-199.319	-4.313	-0.232	-0.160
-198.304	-51.367	0.157	0.073
-197.290	-200.000	0.003	-0.078
-196.275	276.157	-0.078	0.139
-195.260	-200.000	0.020	-0.215
-194.246	36.308	-0.134	-0.118
-193.231	-200.000	-0.015	0.465
-192.217	800.000	0.087	0.367
-191.202	-174.093	-0.152	0.004
-190.187	-96.748	0.325	-0.085
-189.173	-46.643	0.101	0.049
-188.158	167.115	-0.136	-0.192
-187.144	-130.611	-0.328	-0.044
-186.129	-20.523	0.224	-0.137
-185.114	-96.183	0.127	-0.034
-184.100	-32.447	-0.038	-0.021
-183.085	-200.000	-0.011	-0.185
-182.071	-200.000	0.004	-0.353
-181.056	-65.014	-0.047	0.019
-180.042	-117.325	0.162	0.029
-179.027	-117.966	0.504	-0.090
-178.012	-35.598	-0.098	0.053
-176.998	800.000	0.034	0.122
-175.983	-109.964	-0.025	-0.005
-174.969	-23.380	-0.105	-0.063
-173.954	-50.015	0.206	0.097
-172.939	800.000	0.024	-0.072
-171.925	-75.512	0.408	0.144
-170.910	-20.628	-0.073	0.045
-169.896	234.441	-0.096	0.158
-168.881	-200.000	-0.016	-0.105
-167.866	-200.000	0.213	-0.001
-166.852	-44.054	0.190	-0.095
-165.837	-110.456	0.252	0.052
-164.823	32.111	-0.048	-0.041
-163.808	-23.023	-0.168	0.100
-162.793	-200.000	0.009	-0.451
-161.779	57.419	-0.162	-0.158
-160.764	-124.501	0.329	-0.051
-159.750	-45.104	0.122	-0.060
-158.735	-200.000	-0.011	-0.108
-157.720	29.421	-0.294	-0.248
-156.706	236.992	-0.193	0.318
-155.691	-58.879	0.214	0.092
-154.677	104.743	0.249	-0.292
-153.662	-142.751	-0.212	-0.021
-152.647	800.000	-0.105	0.345
-151.633	-128.896	-0.347	-0.048
-150.618	-125.372	-0.413	-0.063
-149.604	800.000	-0.049	0.213
-148.589	84.154	0.187	0.203
-147.574	-155.113	-0.232	-0.015
-146.560	182.283	-0.088	0.128
-145.545	206.537	-0.100	0.155
-144.531	-130.463	0.062	0.008
-143.516	317.062	0.214	-0.401
-142.502	-200.000	0.010	-0.045
-141.487	-171.742	-0.239	-0.008
-140.472	800.000	-0.098	0.295
-139.458	-9.331	0.071	0.047
-138.443	-38.772	-0.186	0.098
-137.429	-82.556	0.412	-0.133
-136.414	-200.000	0.005	-0.228
-135.399	-200.000	0.006	-0.162
-134.385	-160.934	0.238	0.012
-133.370	-200.000	0.037	0.165
-132.356	800.000	0.083	0.244
-131.341	274.896	-0.115	0.203
-130.326	550.729	0.010	0.024
-129.312	56.711	-0.177	-0.171
-128.297	174.053	0.083	0.119
-127.283	-56.100	0.082	0.036
-126.268	-152.239	-0.194	0.014
-125.253	-91.968	-0.108	0.030
-124.239	-22.912	-0.218	0.130
-123.224	580.301	-0.093	0.226
-122.210	-200.000	-0.009	0.314
