DTS Sentinel unit serial number:	SN413079Multiplexer serial number:	ORYXHardware model number:	OX4-SRSoftware version number:	ORYX F/W v4.00 Oryx Data Collector v3.7.2.0data status	okinstallation	princeton_trtdifferential loss correction	single-endedforward channel	channel 4reverse channel	N/Adate	2019/09/18time	13:01:35forward acquisition time	60.00reverse acquisition time	0.00gamma	496.2192k internal	0.2303k external	0.2303temperature offset calibration	0.9992default loss term (dB/km)	0.3790temperature slope calibration	1.0000multiplexer offset coefficient	1.0000multiplexer slope coefficient	1.0000fibre end	0.00T internal ref (°C)	33.44T ext. ref 1 (°C)	0.57T ext. ref 2 (°C)	31.51length (m)	temperature (°C)	Stokes	anti-Stokes-747.200	-102.025	0.145	0.036
-746.185	-90.320	-0.176	-0.052
-745.171	183.262	0.109	-0.164
-744.156	-47.584	0.172	-0.085
-743.142	39.105	0.138	0.125
-742.127	-87.086	-0.191	0.059
-741.112	35.405	-0.054	0.048
-740.098	121.622	0.304	0.386
-739.083	-24.291	-0.197	-0.120
-738.069	-60.734	-0.054	-0.023
-737.054	-80.923	-0.225	-0.076
-736.039	-30.332	0.221	-0.128
-735.025	-41.570	0.464	0.243
-734.010	-16.404	0.329	0.213
-732.996	29.893	-0.338	0.293
-731.981	404.807	-0.079	0.170
-730.966	-155.014	0.225	0.015
-729.952	-2.245	-0.287	0.205
-728.937	-182.488	-0.240	0.004
-727.923	-110.468	0.320	0.068
-726.908	800.000	-0.034	0.125
-725.894	47.388	0.194	-0.184
-724.879	-5.286	-0.338	0.236
-723.864	-200.000	0.023	-0.110
-722.850	22.407	-0.170	-0.141
-721.835	-58.543	-0.238	-0.105
-720.821	-100.560	-0.100	-0.025
-719.806	661.106	-0.028	0.072
-718.791	-26.434	0.180	-0.108
-717.777	-200.000	-0.012	-0.248
-716.762	800.000	-0.085	-0.282
-715.748	-47.565	0.221	-0.109
-714.733	800.000	-0.055	0.228
-713.718	-165.900	-0.115	-0.005
-712.704	-200.000	0.015	0.125
-711.689	-200.000	-0.011	-0.253
-710.675	800.000	0.077	0.221
-709.660	514.099	-0.116	0.275
-708.645	-57.313	0.115	0.051
-707.631	459.894	0.163	-0.369
-706.616	-25.070	-0.159	-0.096
-705.602	16.426	-0.224	0.180
-704.587	0.538	-0.131	-0.095
-703.572	24.166	0.317	0.266
-702.558	-200.000	-0.005	0.041
-701.543	1.133	-0.229	-0.167
-700.529	149.589	-0.128	0.177
-699.514	40.001	-0.265	0.242
-698.499	-200.000	0.103	0.496
-697.485	800.000	-0.079	0.342
-696.470	94.674	0.102	-0.118
-695.456	800.000	-0.044	-0.129
-694.441	-47.282	0.124	-0.062
-693.426	-144.870	-0.321	0.030
-692.412	85.466	-0.182	-0.203
-691.397	-200.000	-0.004	-0.367
-690.383	108.311	-0.177	-0.215
-689.368	-123.456	0.524	-0.085
-688.354	261.346	-0.238	-0.419
-687.339	-57.931	0.340	-0.151
-686.324	-68.931	0.119	0.046
-685.310	-200.000	-0.008	0.094
-684.295	-28.724	0.171	0.100
-683.281	-94.401	0.124	0.034
-682.266	-9.831	-0.356	-0.241
-681.251	-131.096	0.130	-0.018
-680.237	14.849	-0.120	0.095
-679.222	48.291	-0.085	-0.081
-678.208	388.788	0.066	-0.139
-677.193	800.000	-0.082	-0.326
-676.178	800.000	0.019	-0.074
-675.164	800.000	0.056	0.213
-674.149	-97.394	0.130	-0.034
-673.135	-200.000	-0.035	0.383
-672.120	800.000	-0.070	0.275
-671.105	78.128	-0.197	-0.213
-670.091	-200.000	-0.009	-0.269
-669.076	-200.000	-0.014	-0.141
-668.062	341.115	-0.140	-0.277
-667.047	707.750	-0.049	-0.132
-666.032	-34.087	0.127	-0.071
-665.018	123.968	-0.057	-0.072
-664.003	156.551	0.091	0.128
-662.989	-66.167	-0.237	-0.096
-661.974	94.434	0.103	-0.118
-660.959	800.000	0.003	0.012
-659.945	124.056	-0.249	0.317
-658.930	340.105	0.087	-0.171
-657.916	732.240	0.119	0.323
-656.901	250.901	-0.098	0.169
-655.886	-200.000	-0.010	-0.256
-654.872	305.881	-0.058	-0.110
-653.857	-73.792	0.099	0.037
-652.843	-77.041	0.169	-0.060
-651.828	38.863	-0.097	-0.088
-650.814	-200.000	0.016	-0.112
-649.799	-76.029	0.366	-0.131
-648.784	18.340	-0.216	-0.175
-647.770	155.071	0.267	-0.372
-646.755	319.361	0.216	-0.416
-645.741	-140.169	0.096	0.010
-644.726	-200.000	0.117	-0.564
-643.711	648.105	0.117	-0.303
-642.697	42.473	-0.232	0.214
-641.682	-200.000	0.017	-0.264
-640.668	561.224	-0.166	-0.407
-639.653	-103.748	0.166	0.040
-638.638	272.165	-0.015	-0.027
-637.624	800.000	0.012	-0.046
-636.609	-30.931	0.068	0.039
-635.595	-200.000	0.000	-0.014
-634.580	-200.000	0.034	-0.624
-633.565	-57.047	-0.300	-0.134
-632.551	-127.217	-0.107	-0.016
-631.536	39.088	0.112	-0.101
-630.522	20.401	-0.082	-0.067
-629.507	-110.315	0.152	-0.032
-628.492	-200.000	-0.102	-0.531
-627.478	121.534	-0.016	-0.020
-626.463	134.267	-0.112	-0.147
-625.449	210.958	0.063	-0.101
-624.434	800.000	0.069	-0.234
-623.419	56.660	-0.153	0.151
-622.405	454.492	0.179	0.403
-621.390	103.935	-0.067	-0.079
-620.376	27.571	-0.051	0.044
-619.361	121.831	0.040	-0.051
-618.346	77.430	0.164	-0.177
-617.332	-120.600	-0.193	0.033
-616.317	11.140	0.163	-0.127
-615.303	-200.000	-0.005	0.123
-614.288	-42.062	0.110	0.057
-613.273	645.315	0.122	-0.315
-612.259	-43.978	-0.165	0.084
-611.244	-93.660	0.057	0.016
-610.230	-195.539	-0.334	-0.002
-609.215	-200.000	0.017	0.133
-608.201	-110.433	0.355	-0.075
-607.186	195.122	0.087	-0.134
-606.171	-115.403	0.429	0.082
-605.157	95.800	0.297	-0.343
-604.142	4.304	-0.405	-0.301
-603.128	282.184	-0.096	-0.175
-602.113	94.335	-0.064	0.073
-601.098	278.152	-0.031	0.056
-600.084	-111.520	0.529	-0.109
-599.069	-108.506	-0.061	-0.013
-598.055	-165.531	0.095	0.004
-597.040	-76.295	0.094	-0.034
-596.025	-23.609	0.114	-0.069
-595.011	-91.133	-0.221	0.064
-593.996	-41.043	-0.259	0.136
-592.982	800.000	-0.111	0.320
-591.967	712.698	0.057	-0.153
-590.952	-132.562	0.564	-0.073
-589.938	-8.674	-0.303	0.206
-588.923	44.199	-0.075	0.069
-587.909	-120.711	-0.192	-0.033
-586.894	485.134	0.070	-0.162
-585.879	332.246	-0.200	-0.391
-584.865	-8.083	-0.087	-0.059
-583.850	-200.000	-0.014	-0.165
-582.836	-120.794	-0.225	0.038
-581.821	-200.000	0.111	-0.537
-580.806	121.538	-0.042	-0.053
-579.792	800.000	-0.054	0.228
-578.777	-200.000	-0.034	0.182
-577.763	35.272	-0.165	-0.146
-576.748	-109.258	0.420	0.090
-575.733	479.612	0.077	0.178
-574.719	-85.212	0.096	0.030
-573.704	-200.000	-0.035	-0.256
-572.690	-37.041	-0.192	0.104
-571.675	-64.350	-0.277	-0.114
-570.661	-95.294	-0.269	-0.073
-569.646	-85.716	0.089	-0.028
-568.631	3.349	-0.409	-0.301
-567.617	800.000	0.046	-0.133
-566.602	-200.000	-0.096	-0.479
-565.588	328.796	-0.113	-0.219
-564.573	-37.324	0.192	0.104
-563.558	800.000	0.027	-0.111
-562.544	-42.864	0.166	-0.085
-561.529	-118.337	0.071	-0.013
-560.515	-88.399	-0.244	0.074
-559.500	161.343	-0.093	0.132
-558.485	398.178	0.092	0.194
-557.471	23.530	0.118	-0.098
-556.456	9.715	0.133	0.102
-555.442	36.573	0.319	0.284
-554.427	-90.849	-0.151	-0.044
-553.412	12.540	-0.215	-0.168
-552.398	5.403	-0.091	-0.068
-551.383	125.137	0.210	0.267
-550.369	393.204	-0.029	0.061
-549.354	64.293	-0.049	-0.050
-548.339	-163.724	0.232	0.011
-547.325	-98.132	0.223	-0.058
-546.310	73.525	-0.175	-0.185
-545.296	-79.350	0.258	-0.088
-544.281	-171.965	-0.266	-0.009
-543.266	-20.928	0.308	0.191
-542.252	-73.712	0.240	-0.088
-541.237	253.184	-0.097	0.167
-540.223	347.742	-0.016	0.031
-539.208	31.277	0.225	0.195
-538.193	-30.586	-0.169	0.097
-537.179	363.096	-0.055	-0.112
-536.164	-133.045	-0.033	0.004
-535.150	132.930	0.191	-0.249
-534.135	-55.758	-0.206	-0.093
-533.121	406.499	-0.153	0.326
-532.106	-46.100	-0.348	-0.173
-531.091	498.425	0.144	-0.336
-530.077	74.693	0.203	-0.216
-529.062	-172.545	-0.213	-0.007
-528.048	578.689	0.072	-0.179
-527.033	466.539	0.054	-0.122
-526.018	4.812	-0.127	0.094
-525.004	-91.808	0.329	-0.094
-523.989	-150.463	-0.042	-0.003
-522.975	800.000	-0.141	0.472
-521.960	-101.817	0.215	-0.053
-520.945	-91.530	-0.168	0.048
-519.931	-17.673	0.275	-0.175
-518.916	-97.432	-0.306	-0.080
-517.902	46.387	-0.228	-0.214
-516.887	-40.249	-0.198	-0.104
-515.872	74.908	-0.104	0.110
-514.858	800.000	0.083	0.255
-513.843	-58.885	-0.120	0.052
-512.829	-121.499	-0.066	0.011
-511.814	-41.147	-0.268	-0.140
-510.799	800.000	0.052	0.157
-509.785	-115.543	0.174	0.033
-508.770	-200.000	0.088	-0.479
-507.756	-119.526	0.135	-0.024
-506.741	751.386	-0.124	0.338
-505.726	-56.031	0.163	-0.073
-504.712	-79.305	-0.293	-0.100
-503.697	-117.429	0.096	-0.017
-502.683	-131.113	-0.296	0.040
-501.668	-59.682	0.202	0.087
-500.653	800.000	-0.052	0.162
-499.639	257.570	0.147	-0.255
-498.624	23.416	0.080	0.066
-497.610	-10.268	-0.291	0.195
-496.595	175.525	-0.087	0.127
-495.581	-24.020	0.218	-0.131
-494.566	130.209	-0.133	0.172
-493.551	140.802	0.173	-0.231
-492.537	70.604	-0.094	0.098
-491.522	-200.000	0.073	0.351
-490.508	-200.000	-0.018	0.175
-489.493	-200.000	0.022	-0.274
-488.478	800.000	-0.060	-0.206
-487.464	-33.301	-0.126	0.070
-486.449	-200.000	-0.060	-0.536
-485.435	-83.116	-0.393	0.127
-484.420	-81.077	-0.204	0.068
-483.405	156.799	0.044	-0.061
-482.391	27.104	0.162	0.137
-481.376	800.000	0.054	-0.168
-480.362	735.681	0.060	0.161
-479.347	-200.000	0.068	-0.363
-478.332	-168.958	0.147	0.006
-477.318	800.000	0.068	0.245
-476.303	-200.000	0.034	-0.368
-475.289	-200.000	-0.027	0.130
-474.274	181.945	0.093	-0.138
-473.259	36.623	0.083	0.074
-472.245	800.000	-0.083	0.365
-471.230	565.841	-0.033	0.081
-470.216	70.215	0.249	0.259
-469.201	-32.396	0.014	-0.008
-468.186	-65.542	-0.104	0.042
-467.172	100.032	-0.163	-0.191
-466.157	253.553	-0.196	-0.337
-465.143	233.498	-0.153	0.253
-464.128	-200.000	-0.005	-0.077
-463.113	28.013	0.150	0.127
-462.099	0.720	-0.062	0.045
-461.084	-104.485	-0.124	0.029
-460.070	-77.481	-0.176	-0.061
-459.055	146.825	0.177	0.240
-458.040	-200.000	-0.049	0.341
-457.026	-143.935	0.227	-0.021
-456.011	800.000	-0.054	0.189
-454.997	-13.151	-0.148	-0.097
-453.982	800.000	-0.088	-0.253
-452.968	288.713	0.181	-0.330
-451.953	772.891	-0.097	-0.266
-450.938	-100.326	-0.208	-0.052
-449.924	-200.000	-0.150	-0.000
-448.909	322.041	0.028	-0.055
-447.895	90.948	-0.107	-0.121
-446.880	-152.775	-0.149	-0.011
-445.865	-149.062	0.113	-0.009
-444.851	114.180	-0.260	0.319
-443.836	-26.336	-0.226	0.134
-442.822	-48.695	-0.244	-0.118
-441.807	269.017	-0.223	-0.394
-440.792	245.070	0.202	0.341
-439.778	533.627	-0.061	-0.146
-438.763	-37.406	0.128	0.069
-437.749	-114.515	0.306	0.059
-436.734	-18.737	0.192	0.121
-435.719	210.402	0.135	0.213
-434.705	-200.000	-0.021	0.207
-433.690	-19.158	0.074	0.046
-432.676	-96.019	0.030	-0.008
-431.661	-98.027	0.252	-0.065
-430.646	-11.242	0.071	-0.047
-429.632	-51.261	-0.101	0.047
-428.617	-200.000	-0.008	-0.184
-427.603	210.892	0.078	-0.123
-426.588	516.658	-0.093	0.219
-425.573	-200.000	-0.020	-0.263
-424.559	-200.000	-0.016	0.197
-423.544	14.832	-0.065	0.051
-422.530	-127.899	0.215	0.031
-421.515	352.392	-0.102	0.203
-420.500	-39.682	0.213	-0.112
-419.486	-146.063	-0.183	0.016
-418.471	-132.141	0.259	-0.034
-417.457	328.780	0.286	0.552
-416.442	-146.543	-0.399	0.035
-415.428	-125.162	-0.261	-0.040
-414.413	-156.757	-0.086	-0.005
-413.398	-200.000	-0.016	-0.116
-412.384	-168.965	0.106	-0.004
-411.369	98.487	-0.144	-0.166
-410.355	-50.038	-0.241	-0.115
-409.340	741.184	-0.019	0.050
-408.325	-125.946	-0.217	-0.033
-407.311	-200.000	-0.005	-0.171
-406.296	-34.900	-0.130	-0.072
-405.282	-79.190	-0.077	0.026
-404.267	-163.363	-0.341	0.016
-403.252	176.308	0.133	0.194
-402.238	40.267	0.103	0.093
-401.223	800.000	-0.009	0.029
-400.209	4.742	-0.052	0.038
-399.194	104.940	0.169	0.201
-398.179	147.583	-0.098	0.133
-397.165	518.552	0.042	0.099
-396.150	800.000	-0.136	0.400
-395.136	88.710	-0.050	-0.056
-394.121	334.779	-0.025	0.048
-393.106	-137.768	-0.324	-0.036
-392.092	-70.847	0.156	-0.059
-391.077	-162.202	0.238	-0.012
-390.063	-26.496	-0.058	0.034
-389.048	-35.080	0.187	0.102
-388.033	-155.612	0.159	0.010
-387.019	-124.018	-0.165	0.026
-386.004	120.736	-0.232	0.289
-384.990	272.723	-0.255	0.453
-383.975	800.000	0.109	0.343
-382.960	800.000	-0.082	0.238
-381.946	-54.531	0.240	0.109
-380.931	-24.260	-0.184	-0.110
-379.917	72.524	-0.141	-0.148
-378.902	800.000	0.075	0.218
-377.888	-200.000	-0.027	0.250
-376.873	93.034	-0.052	-0.059
-375.858	-81.875	-0.102	-0.033
-374.844	-200.000	-0.017	-0.108
-373.829	-200.000	-0.010	-0.146
-372.815	46.467	0.023	0.022
-371.800	463.114	-0.065	-0.145
-370.785	250.324	-0.143	-0.243
-369.771	-24.652	-0.163	-0.097
-368.756	-200.000	0.045	0.281
-367.742	37.476	0.039	-0.035
-366.727	241.711	-0.087	-0.146
-365.712	677.141	0.039	-0.102
-364.698	-133.495	-0.525	0.066
-363.683	-69.053	0.282	0.109
-362.669	800.000	-0.111	0.329
-361.654	1.934	-0.044	-0.032
-360.639	186.369	0.159	0.237
-359.625	-65.234	-0.249	0.101
-358.610	-200.000	0.002	0.167
-357.596	755.288	-0.060	0.162
-356.581	220.254	-0.127	0.204
-355.566	13.762	-0.157	0.123
-354.552	-129.325	-0.334	0.047
-353.537	-72.793	0.521	0.193
-352.523	47.276	-0.145	0.136
-351.508	40.066	0.282	0.254
-350.493	-179.606	0.172	0.004
-349.479	2.382	-0.060	-0.043
-348.464	-200.000	-0.009	0.222
-347.450	10.921	0.175	-0.134
-346.435	-44.420	-0.135	-0.068
-345.420	-126.364	0.225	-0.034
-344.406	800.000	-0.046	0.179
-343.391	173.845	-0.107	0.156
-342.377	800.000	0.115	-0.429
-341.362	-174.796	-0.130	-0.004
-340.348	-128.042	-0.194	-0.028
-339.333	-200.000	0.061	0.318
-338.318	-94.954	-0.032	0.009
-337.304	7.746	0.285	-0.214
-336.289	31.195	0.159	0.137
-335.275	-128.616	0.184	0.026
-334.260	-200.000	0.033	-0.301
-333.245	-60.330	-0.114	0.049
-332.231	-200.000	0.029	0.351
-331.216	-2.131	0.111	0.078
-330.202	251.578	0.090	-0.153
-329.187	-66.674	-0.102	-0.040
-328.172	-200.000	0.008	0.100
-327.158	-200.000	-0.005	0.108
-326.143	7.745	0.385	0.289
-325.129	-46.047	0.042	0.021
-324.114	97.805	-0.212	0.244
-323.099	-200.000	-0.001	0.046
-322.085	-116.408	0.381	0.071
-321.070	-29.729	-0.156	-0.089
-320.056	16.025	-0.019	-0.015
-319.041	-118.168	-0.174	-0.031
-318.026	-92.674	0.094	-0.026
-317.012	676.631	0.154	0.402
-315.997	-36.967	0.067	-0.036
-314.983	-23.679	-0.204	0.123
-313.968	-30.188	0.148	0.084
-312.953	-108.330	-0.096	0.021
-311.939	-153.817	0.349	0.024
-310.924	-200.000	-0.011	0.185
-309.910	-105.484	0.313	-0.071
-308.895	-72.506	-0.136	-0.050
-307.880	-132.533	-0.382	0.049
-306.866	-161.300	-0.189	0.010
-305.851	-183.236	0.141	-0.002
-304.837	800.000	0.011	0.047
-303.822	-126.861	-0.194	0.029
-302.807	203.050	0.157	0.243
-301.793	109.967	-0.112	0.135
-300.778	429.976	-0.137	-0.296
-299.764	-108.331	-0.185	-0.040
-298.749	-74.365	0.211	-0.076
-297.735	52.623	-0.294	-0.282
-296.720	800.000	0.109	0.334
-295.705	-86.657	0.039	-0.012
-294.691	-129.587	0.118	0.016
-293.676	497.180	0.049	-0.112
-292.662	11.654	0.180	-0.138
-291.647	80.210	-0.226	0.243
-290.632	195.656	-0.015	0.022
-289.618	-41.141	-0.175	0.090
-288.603	-16.185	0.174	-0.111
-287.589	466.258	0.114	0.256
-286.574	143.844	0.239	0.318
-285.559	96.422	-0.104	0.119
-284.545	273.525	-0.094	0.165
-283.530	-200.000	0.032	-0.212
-282.516	-14.096	0.143	-0.092
-281.501	159.139	0.035	-0.049
-280.486	-58.783	-0.231	0.100
-279.472	29.306	0.099	-0.084
-278.457	800.000	-0.023	-0.064
-277.443	-200.000	0.039	0.350
-276.428	134.957	0.095	-0.124
-275.413	-105.360	-0.124	0.028
-274.399	-80.277	0.453	0.151
-273.384	-200.000	0.021	0.206
-272.370	79.675	0.081	0.087
-271.355	-76.664	0.115	-0.040
-270.340	-200.000	-0.076	0.000
-269.326	3.916	0.117	0.086
-268.311	3.738	-0.127	0.093
-267.297	121.582	0.034	-0.043
-266.282	-4.094	-0.432	0.299
-265.267	379.577	0.175	-0.359
-264.253	-200.000	-0.001	0.074
-263.238	800.000	-0.020	0.058
-262.224	-117.262	-0.325	0.059
-261.209	800.000	0.133	0.525
-260.195	800.000	0.094	-0.303
-259.180	26.924	-0.256	-0.214
-258.165	-116.397	0.128	0.024
-257.151	-68.925	0.332	0.128
-256.136	-86.059	-0.203	0.063
-255.122	266.651	-0.094	0.165
-254.107	-200.000	0.004	-0.204
-253.092	22.350	0.144	-0.118
-252.078	-21.194	-0.082	0.050
-251.063	-96.498	0.099	-0.026
-250.049	524.066	-0.048	0.112
-249.034	-200.000	-0.012	-0.175
-248.019	-200.000	0.001	-0.085
-247.005	-102.648	-0.333	0.079
-245.990	-137.420	-0.042	-0.005
-244.976	-13.775	0.192	-0.124
-243.961	-200.000	0.019	-0.187
-242.946	499.565	0.134	0.309
-241.932	-79.061	-0.127	0.043
-240.917	-130.657	0.213	-0.029
-239.903	-23.145	0.182	0.110
-238.888	378.706	-0.058	-0.118
-237.873	135.995	-0.134	-0.175
-236.859	-68.895	0.213	0.082
-235.844	-138.179	-0.050	0.006
-234.830	800.000	0.066	0.191
-233.815	800.000	-0.099	0.280
-232.800	38.372	0.078	-0.070
-231.786	-45.285	-0.160	-0.079
-230.771	-44.134	0.034	0.017
-229.757	100.497	0.078	0.090
-228.742	280.775	0.116	-0.207
-227.727	-200.000	0.032	0.253
-226.713	-200.000	0.061	-0.440
-225.698	238.281	0.047	0.078
-224.684	101.712	-0.017	-0.020
-223.669	-175.670	-0.181	-0.005
-222.655	-114.755	-0.115	0.022
-221.640	24.346	0.305	0.252
-220.625	-95.090	0.264	0.071
-219.611	70.060	-0.048	-0.050
-218.596	312.773	0.209	0.392
-217.582	800.000	0.024	0.074
-216.567	4.716	-0.073	-0.054
-215.552	214.988	-0.061	0.097
-214.538	-19.027	-0.116	-0.072
-213.523	-126.516	0.046	-0.007
-212.509	-126.789	0.278	-0.041
-211.494	-200.000	0.030	-0.248
-210.479	-158.612	-0.050	0.003
-209.465	143.971	0.183	-0.243
-208.450	800.000	0.022	-0.090
-207.436	241.868	-0.286	-0.477
-206.421	34.455	0.391	-0.340
-205.406	579.243	-0.072	0.176
-204.392	480.340	-0.093	0.211
-203.377	369.998	-0.165	0.333
-202.363	800.000	-0.061	0.169
-201.348	-200.000	0.057	-0.288
-200.333	-135.126	0.273	-0.033
-199.319	54.426	-0.168	0.162
-198.304	-200.000	0.022	0.165
-197.290	-48.797	0.080	0.038
-196.275	10.759	0.050	-0.038
-195.260	-47.331	0.289	0.140
-194.246	-153.105	-0.117	0.008
-193.231	-65.805	0.323	-0.129
-192.217	-127.874	0.303	0.044
-191.202	-142.967	0.465	0.045
-190.187	277.393	-0.204	0.361
-189.173	-200.000	0.008	-0.224
-188.158	164.962	0.233	0.328
-187.144	-129.693	0.245	-0.034
-186.129	527.257	0.043	-0.100
-185.114	16.693	0.203	0.160
-184.100	596.190	-0.135	0.333
-183.085	-200.000	-0.007	0.308
-182.071	17.316	0.224	-0.177
-181.056	-56.733	-0.169	0.074
-180.042	-96.280	-0.279	-0.074
-179.027	-200.000	0.026	-0.118
-178.012	-150.240	0.140	-0.011
-176.998	-55.115	-0.390	-0.175
-175.983	500.225	-0.090	-0.207
-174.969	-73.519	-0.222	-0.081
-173.954	-137.624	-0.187	0.021
-172.939	-153.662	-0.221	0.015
-171.925	800.000	-0.038	0.157
-170.910	200.910	-0.024	-0.037
-169.896	800.000	-0.043	-0.135
-168.881	-200.000	0.024	-0.169
-167.866	267.728	-0.035	-0.062
-166.852	-200.000	0.027	-0.339
-165.837	-147.790	0.220	-0.018
-164.823	-141.631	-0.339	0.034
-163.808	122.780	0.134	0.166
-162.793	511.293	0.056	-0.129
-161.779	211.275	0.056	-0.088
-160.764	399.409	-0.138	-0.288
-159.750	38.382	0.207	-0.183
-158.735	93.503	0.045	0.050
-157.720	55.792	-0.112	0.109
-156.706	-152.702	0.166	0.012
-155.691	-200.000	0.027	-0.225
-154.677	-200.000	0.006	-0.051
-153.662	89.337	-0.093	0.103
-152.647	108.066	-0.134	-0.159
-151.633	-98.826	0.069	-0.017
-150.618	800.000	-0.058	-0.207
-149.604	-5.923	0.290	-0.197
-148.589	29.110	0.282	0.238
-147.574	-140.323	-0.175	0.018
-146.560	12.379	0.104	0.080
-145.545	-115.324	0.230	0.043
-144.531	800.000	-0.065	-0.184
-143.516	-200.000	0.009	0.132
-142.502	221.087	-0.130	-0.208
-141.487	-200.000	0.052	-0.299
-140.472	-200.000	0.031	-0.224
-139.458	-200.000	-0.019	0.330
-138.443	775.647	0.110	0.299
-137.429	9.764	0.266	0.201
-136.414	800.000	0.122	0.354
-135.399	-170.371	0.252	0.009
-134.385	24.863	0.283	0.233
-133.370	-121.621	0.332	-0.055
-132.356	-200.000	-0.074	0.416
-131.341	-117.202	-0.391	0.071
-130.326	305.569	-0.131	0.242
-129.312	249.556	0.129	0.217
-128.297	9.720	-0.300	-0.226
-127.283	-178.105	0.244	-0.006
-126.268	-23.940	-0.290	-0.173
-125.253	249.999	-0.060	-0.101
-124.239	-200.000	-0.065	0.367
-123.224	800.000	-0.053	0.213
-122.210	-153.055	-0.071	0.005
-121.195	-80.464	0.091	0.030
