DTS Sentinel unit serial number:	SN413079Multiplexer serial number:	ORYXHardware model number:	OX4-SRSoftware version number:	ORYX F/W v4.00 Oryx Data Collector v3.7.2.0data status	okinstallation	princeton_trtdifferential loss correction	single-endedforward channel	channel 4reverse channel	N/Adate	2019/09/12time	01:55:11forward acquisition time	60.00reverse acquisition time	0.00gamma	496.2192k internal	0.2309k external	0.2309temperature offset calibration	1.0090default loss term (dB/km)	0.3790temperature slope calibration	1.0000multiplexer offset coefficient	1.0000multiplexer slope coefficient	1.0000fibre end	0.00T internal ref (°C)	32.80T ext. ref 1 (°C)	2.06T ext. ref 2 (°C)	27.44length (m)	temperature (°C)	Stokes	anti-Stokes-747.200	7.890	0.230	0.175
-746.185	10.796	0.086	-0.066
-745.171	24.302	-0.226	-0.190
-744.156	800.000	0.062	0.271
-743.142	-200.000	0.005	0.384
-742.127	-134.940	0.105	-0.013
-741.112	184.894	-0.122	0.184
-740.098	800.000	-0.049	0.215
-739.083	-200.000	0.007	0.237
-738.069	201.569	-0.047	0.073
-737.054	241.438	-0.153	0.259
-736.039	150.531	-0.129	-0.178
-735.025	-200.000	0.007	0.472
-734.010	-132.826	-0.205	-0.027
-732.996	-36.835	0.108	-0.059
-731.981	-23.605	0.196	-0.119
-730.966	-55.510	-0.083	-0.038
-729.952	218.383	0.069	0.112
-728.937	10.768	-0.371	0.287
-727.923	-53.005	-0.059	-0.027
-726.908	-200.000	0.051	-0.349
-725.894	57.287	-0.181	0.180
-724.879	-174.246	-0.071	-0.002
-723.864	-0.210	-0.178	0.128
-722.850	-49.913	0.139	0.067
-721.835	444.979	-0.041	-0.090
-720.821	364.113	-0.033	-0.067
-719.806	-200.000	-0.050	0.323
-718.791	106.769	-0.033	0.040
-717.777	-200.000	0.021	-0.162
-716.762	577.307	0.006	0.014
-715.748	800.000	-0.105	0.297
-714.733	800.000	-0.122	0.473
-713.718	800.000	-0.060	0.195
-712.704	-116.348	0.213	0.040
-711.689	-200.000	-0.022	-0.369
-710.675	800.000	0.059	-0.195
-709.660	-73.244	-0.370	0.137
-708.645	-200.000	-0.093	-0.477
-707.631	64.705	-0.234	0.239
-706.616	8.898	0.138	-0.106
-705.602	-90.397	-0.159	-0.047
-704.587	-101.636	-0.130	-0.032
-703.572	10.970	-0.131	-0.102
-702.558	800.000	0.060	-0.241
-701.543	800.000	-0.096	0.293
-700.529	-90.775	0.195	-0.057
-699.514	239.631	0.153	-0.259
-698.499	566.969	0.109	0.268
-697.485	-135.954	0.506	-0.060
-696.470	472.679	0.038	0.087
-695.456	-110.215	0.058	0.012
-694.441	683.645	-0.151	0.400
-693.426	-54.774	0.200	-0.092
-692.412	-122.697	-0.159	0.026
-691.397	156.645	0.065	0.091
-690.383	-39.975	-0.204	0.108
-689.368	2.520	-0.051	0.038
-688.354	-68.318	-0.269	-0.106
-687.339	-200.000	0.022	0.246
-686.324	-200.000	0.015	0.344
-685.310	-200.000	-0.036	-0.183
-684.295	261.469	0.172	0.301
-683.281	317.370	0.234	0.448
-682.266	246.660	0.109	-0.187
-681.251	65.794	0.140	0.143
-680.237	-110.189	0.238	-0.050
-679.222	25.422	0.127	0.107
-678.208	-200.000	0.026	0.567
-677.193	-49.754	0.155	-0.075
-676.178	97.298	0.112	0.130
-675.164	-54.489	-0.105	-0.048
-674.149	-70.893	0.496	0.189
-673.135	-200.000	0.031	-0.223
-672.120	-138.265	-0.232	-0.026
-671.105	-6.230	-0.137	0.095
-670.091	-147.905	0.207	0.017
-669.076	-130.960	-0.361	0.049
-668.062	-15.289	-0.119	-0.077
-667.047	-78.446	0.339	-0.118
-666.032	-200.000	0.023	0.207
-665.018	394.401	0.154	0.325
-664.003	457.138	-0.083	0.186
-662.989	-200.000	0.065	-0.359
-661.974	-72.603	0.236	0.088
-660.959	39.639	0.077	0.069
-659.945	-69.481	0.377	0.146
-658.930	-124.771	-0.249	0.039
-657.916	181.001	0.033	0.049
-656.901	41.363	-0.140	-0.128
-655.886	-131.799	-0.139	-0.018
-654.872	17.039	0.130	-0.104
-653.857	-200.000	-0.042	-0.357
-652.843	800.000	-0.042	0.184
-651.828	329.374	0.072	-0.139
-650.814	-18.673	-0.009	0.006
-649.799	59.239	0.098	0.098
-648.784	27.864	0.230	0.197
-647.770	287.243	0.199	-0.364
-646.755	-200.000	0.101	-0.576
-645.741	-200.000	0.016	0.197
-644.726	29.264	0.089	-0.077
-643.711	320.840	0.164	0.316
-642.697	279.142	-0.080	0.144
-641.682	35.056	0.039	-0.034
-640.668	-69.393	0.171	0.066
-639.653	-101.797	-0.115	0.028
-638.638	-129.706	-0.250	-0.035
-637.624	-50.306	-0.162	-0.077
-636.609	682.778	0.094	0.248
-635.595	-115.429	0.318	0.061
-634.580	452.201	0.072	0.160
-633.565	-30.143	-0.122	-0.070
-632.551	-200.000	-0.018	0.439
-631.536	-67.523	-0.441	0.175
-630.522	-117.575	-0.087	0.016
-629.507	35.179	0.077	0.068
-628.492	-6.617	0.175	0.120
-627.478	195.615	-0.247	-0.379
-626.463	-200.000	-0.031	-0.510
-625.449	10.901	-0.055	-0.042
-624.434	-197.240	0.123	-0.001
-623.419	426.102	0.034	-0.074
-622.405	528.283	-0.110	0.263
-621.390	800.000	-0.022	-0.081
-620.376	12.129	0.156	-0.121
-619.361	-108.029	-0.281	-0.062
-618.346	-20.326	0.007	-0.004
-617.332	-200.000	-0.014	-0.066
-616.317	800.000	-0.043	0.191
-615.303	-200.000	-0.008	-0.185
-614.288	800.000	0.054	-0.182
-613.273	-75.730	0.057	0.021
-612.259	2.772	0.038	-0.028
-611.244	259.731	-0.130	-0.226
-610.230	-113.975	-0.450	-0.088
-609.215	309.322	0.139	-0.262
-608.201	140.814	0.157	-0.210
-607.186	-36.552	0.089	-0.048
-606.171	-60.985	0.428	-0.183
-605.157	80.747	-0.148	-0.161
-604.142	298.983	-0.086	0.159
-603.128	-140.618	-0.176	-0.018
-602.113	-3.741	-0.031	0.022
-601.098	25.327	-0.116	-0.098
-600.084	270.470	-0.093	-0.166
-599.069	78.733	-0.171	0.185
-598.055	-94.953	-0.117	-0.032
-597.040	66.450	0.252	-0.258
-596.025	-88.581	-0.271	-0.081
-595.011	-138.510	-0.190	-0.021
-593.996	226.809	-0.077	-0.127
-592.982	-124.927	0.147	-0.023
-591.967	-118.039	0.258	-0.047
-590.952	-54.469	-0.081	0.037
-589.938	7.340	0.085	-0.064
-588.923	-200.000	-0.017	0.199
-587.909	44.827	-0.088	0.082
-586.894	15.998	-0.112	0.089
-585.879	-34.561	0.343	0.190
-584.865	-200.000	0.019	0.386
-583.850	800.000	0.040	-0.134
-582.836	-109.682	0.102	0.022
-581.821	282.472	0.081	-0.146
-580.806	-157.542	0.308	0.019
-579.792	-200.000	0.035	0.169
-578.777	-36.819	-0.223	0.121
-577.763	20.561	-0.119	-0.097
-576.748	800.000	0.060	-0.180
-575.733	156.665	-0.119	-0.167
-574.719	-4.926	-0.110	-0.076
-573.704	800.000	0.110	0.326
-572.690	-35.748	-0.043	-0.024
-571.675	-2.839	-0.452	0.318
-570.661	-200.000	0.030	0.413
-569.646	800.000	-0.057	-0.171
-568.631	61.400	0.247	-0.247
-567.617	5.943	0.262	-0.196
-566.602	-200.000	0.065	-0.344
-565.588	-105.915	-0.181	-0.041
-564.573	-17.190	-0.224	0.142
-563.558	159.795	0.224	0.314
-562.544	-200.000	-0.006	0.041
-561.529	18.549	0.220	-0.177
-560.515	-200.000	-0.024	-0.258
-559.500	-200.000	-0.006	-0.178
-558.485	411.203	-0.141	0.301
-557.471	106.098	-0.107	0.127
-556.456	-196.081	0.109	-0.001
-555.442	15.152	0.314	-0.248
-554.427	-200.000	0.013	-0.417
-553.412	-200.000	0.015	-0.151
-552.398	800.000	0.074	0.229
-551.383	-9.487	0.265	0.178
-550.369	-64.438	-0.306	0.126
-549.354	213.794	0.099	-0.158
-548.339	756.696	-0.051	0.139
-547.325	800.000	0.090	0.386
-546.310	800.000	-0.041	-0.114
-545.296	142.587	-0.155	-0.208
-544.281	322.327	0.113	0.217
-543.266	-200.000	-0.006	0.321
-542.252	800.000	-0.095	0.294
-541.237	-134.598	-0.305	-0.038
-540.223	470.829	-0.125	-0.284
-539.208	800.000	-0.060	-0.207
-538.193	-14.819	0.123	0.080
-537.179	298.554	-0.097	-0.179
-536.164	355.472	-0.122	-0.245
-535.150	0.610	0.153	0.110
-534.135	-105.304	0.318	-0.073
-533.121	341.170	0.012	0.024
-532.106	800.000	-0.008	0.026
-531.091	-153.460	0.270	-0.019
-530.077	23.639	-0.128	-0.106
-529.062	137.611	0.070	0.092
-528.048	404.013	0.096	0.204
-527.033	244.592	0.044	-0.075
-526.018	55.074	0.276	-0.268
-525.004	-82.113	0.085	0.028
-523.989	-114.553	0.200	-0.039
-522.975	-200.000	-0.041	-0.540
-521.960	-108.415	-0.169	-0.037
-520.945	-157.837	-0.158	0.009
-519.931	-0.712	-0.081	0.058
-518.916	157.852	-0.142	0.199
-517.902	-25.986	-0.092	-0.054
-516.887	47.348	-0.163	0.153
-515.872	-110.789	0.361	0.075
-514.858	-38.766	-0.304	0.162
-513.843	-129.919	0.059	0.008
-512.829	-77.061	-0.332	-0.117
-511.814	-60.412	0.376	0.161
-510.799	-34.561	-0.279	0.154
-509.785	123.484	0.275	-0.347
-508.770	193.399	-0.212	0.323
-507.756	-200.000	-0.000	-0.062
-506.741	32.307	0.137	0.119
-505.726	-24.955	0.130	-0.078
-504.712	23.558	0.203	-0.168
-503.697	-43.463	-0.164	-0.083
-502.683	-200.000	-0.013	-0.147
-501.668	-45.772	0.315	-0.157
-500.653	-95.885	0.207	-0.055
-499.639	390.766	-0.094	0.196
-498.624	376.568	-0.076	0.157
-497.610	256.790	0.093	-0.161
-496.595	627.550	-0.067	-0.171
-495.581	401.975	-0.166	-0.350
-494.566	-103.770	0.300	-0.071
-493.551	-155.267	0.075	-0.005
-492.537	56.331	-0.129	-0.126
-491.522	100.283	0.060	-0.071
-490.508	236.180	0.243	-0.405
-489.493	342.104	-0.104	-0.204
-488.478	111.711	-0.246	-0.298
-487.464	-82.870	0.285	-0.093
-486.449	-10.491	0.152	0.101
-485.435	-133.172	0.281	-0.036
-484.420	-28.843	0.328	-0.190
-483.405	273.824	-0.156	0.278
-482.391	99.263	-0.076	0.089
-481.376	-161.892	-0.008	0.000
-480.362	-200.000	-0.004	-0.081
-479.347	349.876	0.080	0.158
-478.332	28.486	0.077	0.065
-477.318	-200.000	0.053	0.236
-476.303	328.538	-0.092	0.179
-475.289	32.011	-0.264	0.229
-474.274	-34.653	0.122	0.067
-473.259	-18.422	0.312	0.196
-472.245	175.664	-0.118	-0.172
-471.230	44.346	0.170	-0.157
-470.216	-200.000	0.008	0.289
-469.201	-103.990	-0.397	0.093
-468.186	-185.328	0.169	0.003
-467.172	-30.118	-0.254	-0.145
-466.157	76.992	0.182	0.194
-465.143	-6.424	-0.308	0.211
-464.128	-200.000	0.004	0.226
-463.113	-130.615	0.084	0.011
-462.099	-200.000	-0.007	0.085
-461.084	211.401	0.031	-0.050
-460.070	5.565	0.094	-0.070
-459.055	657.440	-0.137	-0.353
-458.040	65.658	0.094	-0.096
-457.026	800.000	0.073	-0.232
-456.011	-61.720	-0.126	0.053
-454.997	197.694	-0.118	-0.181
-453.982	44.478	-0.107	-0.098
-452.968	-200.000	-0.053	0.319
-451.953	122.740	0.128	-0.161
-450.938	-44.503	-0.211	0.106
-449.924	-156.391	-0.370	0.023
-448.909	-70.122	0.214	0.082
-447.895	301.868	0.104	-0.193
-446.880	386.157	0.204	-0.422
-445.865	-200.000	-0.072	-0.418
-444.851	-135.280	-0.212	0.025
-443.836	-200.000	0.038	-0.323
-442.822	-62.724	-0.288	0.120
-441.807	76.336	0.244	0.260
-440.792	51.872	-0.110	-0.105
-439.778	255.496	-0.048	0.083
-438.763	32.148	-0.021	-0.018
-437.749	-86.042	-0.119	0.037
-436.734	800.000	0.051	0.160
-435.719	78.629	-0.180	0.193
-434.705	202.473	-0.144	0.223
-433.690	-200.000	0.052	0.350
-432.676	239.401	0.105	0.175
-431.661	-37.851	0.362	-0.193
-430.646	-31.199	0.143	-0.081
-429.632	606.480	-0.079	-0.198
-428.617	-85.416	-0.119	-0.037
-427.603	138.247	-0.210	-0.277
-426.588	-200.000	-0.043	0.295
-425.573	-7.215	0.064	0.044
-424.559	-125.074	0.188	-0.029
-423.544	-61.193	0.362	0.153
-422.530	1.670	0.160	0.116
-421.515	-105.061	-0.104	0.024
-420.500	800.000	-0.019	0.058
-419.486	54.260	0.279	-0.269
-418.471	-93.995	-0.336	-0.093
-417.457	-200.000	0.053	-0.508
-416.442	-200.000	-0.006	0.035
-415.428	-151.698	-0.184	0.014
-414.413	3.843	0.153	0.112
-413.398	800.000	-0.085	-0.304
-412.384	266.016	0.084	0.147
-411.369	-128.212	-0.233	0.033
-410.355	160.212	-0.154	0.215
-409.340	66.229	0.102	0.104
-408.325	33.142	-0.306	-0.266
-407.311	800.000	0.052	-0.179
-406.296	-28.663	0.360	-0.208
-405.282	-47.734	0.260	0.126
-404.267	103.791	0.131	-0.154
-403.252	-200.000	0.023	-0.202
-402.238	-17.874	0.106	-0.067
-401.223	69.708	-0.174	0.180
-400.209	-200.000	-0.043	-0.200
-399.194	441.847	-0.177	0.389
-398.179	189.713	0.054	-0.081
-397.165	-50.668	-0.279	-0.132
-396.150	-149.490	0.250	0.020
-395.136	112.391	0.057	0.069
-394.121	-136.506	-0.054	-0.006
-393.106	-66.913	-0.119	0.047
-392.092	101.238	0.159	-0.185
-391.077	-56.234	-0.185	0.082
-390.063	-200.000	0.045	-0.300
-389.048	-98.681	0.093	0.024
-388.033	800.000	0.048	-0.138
-387.019	22.997	0.210	-0.173
-386.004	-1.737	-0.103	-0.073
-384.990	691.781	-0.075	0.197
-383.975	500.854	0.031	-0.072
-382.960	246.449	-0.075	0.126
-381.946	-93.667	0.192	-0.053
-380.931	800.000	-0.083	-0.339
-379.917	-200.000	-0.025	-0.222
-378.902	-200.000	-0.029	0.239
-377.888	-200.000	-0.000	0.103
-376.873	-51.765	0.137	0.064
-375.858	-78.868	0.173	-0.059
-374.844	-15.310	0.046	0.029
-373.829	-66.906	0.204	0.081
-372.815	-64.979	-0.115	0.047
-371.800	-33.384	-0.223	0.123
-370.785	800.000	-0.055	-0.162
-369.771	31.960	0.203	-0.175
-368.756	-119.224	0.149	-0.026
-367.742	246.748	0.117	-0.198
-366.727	110.237	-0.101	-0.121
-365.712	-22.813	0.189	0.114
-364.698	-88.253	0.234	0.070
-363.683	800.000	0.050	0.156
-362.669	342.190	0.118	0.232
-361.654	800.000	0.085	0.315
-360.639	800.000	-0.045	-0.164
-359.625	120.985	0.039	-0.049
-358.610	50.712	-0.234	0.222
-357.596	-108.686	0.248	-0.053
-356.581	94.859	-0.080	-0.091
-355.566	-147.506	0.102	-0.009
-354.552	-99.273	0.050	0.013
-353.537	-81.624	0.265	-0.087
-352.523	-76.754	0.168	-0.059
-351.508	-200.000	0.034	-0.158
-350.493	161.066	-0.137	-0.192
-349.479	250.404	0.085	0.144
-348.464	-47.714	-0.356	0.172
-347.450	596.779	0.127	0.315
-346.435	245.235	-0.199	0.335
-345.420	-106.099	0.209	-0.047
-344.406	143.163	-0.190	0.252
-343.391	800.000	0.094	0.366
-342.377	-200.000	0.012	-0.176
-341.362	510.020	0.091	0.211
-340.348	800.000	0.064	0.237
-339.333	154.752	0.103	-0.141
-338.318	77.293	-0.142	0.151
-337.304	-127.140	-0.097	-0.014
-336.289	104.240	0.128	0.151
-335.275	-200.000	0.006	0.299
-334.260	2.991	-0.076	0.056
-333.245	-0.496	0.026	0.018
-332.231	131.060	-0.192	-0.247
-331.216	103.085	-0.118	-0.138
-330.202	-6.675	0.378	0.257
-329.187	94.633	-0.272	-0.309
-328.172	800.000	-0.099	-0.370
-327.158	-200.000	-0.020	0.186
-326.143	6.773	-0.081	-0.060
-325.129	-86.883	0.242	0.074
-324.114	504.041	0.035	0.082
-323.099	410.834	-0.091	-0.192
-322.085	293.819	-0.132	-0.242
-321.070	-200.000	-0.034	-0.164
-320.056	158.371	0.116	-0.161
-319.041	15.454	-0.314	-0.246
-318.026	-94.612	-0.336	-0.091
-317.012	-200.000	-0.011	0.147
-315.997	-54.847	-0.397	-0.179
-314.983	-177.915	-0.138	-0.003
-313.968	-146.409	-0.120	0.010
-312.953	277.125	-0.070	-0.125
-311.939	-55.602	0.115	0.051
-310.924	-29.009	0.114	-0.065
-309.910	-26.491	0.263	-0.154
-308.895	-106.751	0.130	-0.029
-307.880	-68.053	0.039	0.015
-306.866	-171.144	0.105	0.004
-305.851	-87.006	0.210	-0.064
-304.837	-200.000	0.027	0.284
-303.822	221.968	-0.219	0.351
-302.807	-200.000	0.041	-0.436
-301.793	-36.500	0.197	-0.106
-300.778	-51.596	0.088	-0.041
-299.764	-40.695	0.066	-0.034
-298.749	-119.606	0.239	0.041
-297.735	800.000	0.049	-0.162
-296.720	-200.000	0.009	-0.186
-295.705	-100.809	-0.260	0.064
-294.691	98.698	-0.251	-0.288
-293.676	-156.699	0.102	-0.006
-292.662	80.972	-0.161	0.174
-291.647	13.484	0.310	0.240
-290.632	-71.742	-0.383	0.143
-289.618	-153.926	0.321	-0.022
-288.603	-29.875	-0.097	0.055
-287.589	800.000	0.035	0.149
-286.574	800.000	-0.129	0.382
-285.559	-25.273	0.066	0.039
-284.545	-31.358	-0.050	0.028
-283.530	292.139	-0.060	-0.108
-282.516	-142.445	-0.343	-0.034
-281.501	-200.000	-0.008	0.155
-280.486	800.000	0.059	0.222
-279.472	-200.000	-0.055	0.283
-278.457	65.378	0.318	0.321
-277.443	470.121	0.071	0.160
-276.428	-80.480	-0.271	0.090
-275.413	172.077	-0.168	-0.241
-274.399	-200.000	0.009	0.147
-273.384	800.000	0.028	0.111
-272.370	-181.282	-0.284	0.006
-271.355	19.249	-0.194	-0.156
-270.340	53.204	-0.168	-0.161
-269.326	283.526	0.123	0.220
-268.311	-76.254	0.165	-0.058
-267.297	-151.738	-0.300	0.022
-266.282	76.624	-0.472	0.499
-265.267	-28.824	0.068	-0.039
-264.253	800.000	0.124	0.389
-263.238	-80.352	-0.164	0.055
-262.224	290.030	-0.036	-0.066
-261.209	-134.463	0.239	-0.029
-260.195	-114.948	0.147	0.028
-259.180	-48.299	-0.170	0.082
-258.165	-200.000	0.035	0.289
-257.151	-115.675	-0.315	0.059
-256.136	128.601	-0.296	0.376
-255.122	-147.253	0.032	-0.003
-254.107	126.603	0.095	-0.119
-253.092	471.849	0.165	-0.369
-252.078	-200.000	-0.038	0.242
-251.063	-178.884	-0.260	0.006
-250.049	201.177	-0.236	-0.362
-249.034	-46.345	0.240	-0.118
-248.019	86.982	-0.092	0.102
-247.005	58.999	0.040	0.040
-245.990	-200.000	0.043	0.301
-244.976	136.201	-0.084	0.109
-243.961	-92.260	0.242	0.068
-242.946	248.765	-0.075	0.127
-241.932	435.792	0.158	-0.343
-240.917	-200.000	-0.037	0.168
-239.903	130.179	-0.100	0.128
-238.888	-2.946	-0.274	-0.191
-237.873	91.689	-0.104	-0.117
-236.859	-118.273	-0.061	-0.011
-235.844	-200.000	0.009	-0.464
-234.830	-22.439	0.165	-0.099
-233.815	-200.000	-0.005	-0.405
-232.800	-81.885	0.067	0.022
-231.786	-200.000	0.009	0.424
-230.771	-32.771	-0.220	0.122
-229.757	-54.845	-0.191	-0.086
-228.742	-8.175	0.226	0.151
-227.727	800.000	-0.094	-0.266
-226.713	-74.937	-0.295	-0.105
-225.698	800.000	0.120	0.514
-224.684	108.285	-0.160	0.190
-223.669	800.000	0.053	-0.219
-222.655	153.374	-0.031	-0.043
-221.640	-200.000	-0.007	0.062
-220.625	-104.335	0.367	0.085
-219.611	70.981	-0.172	-0.177
-218.596	135.592	0.162	0.210
-217.582	-62.473	-0.337	0.139
-216.567	-1.180	0.078	-0.055
-215.552	243.805	0.087	0.145
-214.538	800.000	-0.082	-0.232
-213.523	-156.621	0.133	-0.008
-212.509	460.939	0.193	0.428
-211.494	61.446	0.045	0.044
-210.479	-127.894	-0.174	-0.025
-209.465	-84.686	-0.070	0.022
-208.450	-200.000	-0.005	0.333
-207.436	800.000	0.045	0.162
-206.421	213.548	-0.068	0.107
-205.406	176.918	0.318	0.459
-204.392	-200.000	-0.024	-0.254
-203.377	-116.692	-0.139	0.025
-202.363	-187.672	-0.354	-0.005
-201.348	-200.000	0.005	-0.148
-200.333	-88.110	-0.106	-0.031
-199.319	-36.523	-0.300	0.161
-198.304	214.226	0.111	0.175
-197.290	-100.389	0.166	0.041
-196.275	-30.487	-0.168	0.095
-195.260	-165.629	-0.159	-0.007
-194.246	-109.510	-0.185	0.039
-193.231	61.767	0.207	-0.205
-192.217	-170.801	-0.132	-0.004
-191.202	-94.607	0.196	0.053
-190.187	322.658	-0.062	-0.118
-189.173	-92.159	-0.349	0.098
-188.158	216.530	0.129	-0.204
-187.144	-200.000	0.000	-0.100
-186.129	137.929	-0.108	-0.141
-185.114	-38.313	-0.285	-0.150
-184.100	-87.737	-0.111	-0.033
-183.085	766.721	0.138	-0.374
-182.071	234.445	-0.015	-0.024
-181.056	-200.000	0.031	0.155
-180.042	-79.598	0.219	0.073
-179.027	331.705	0.066	0.127
-178.012	-8.064	0.300	-0.201
-176.998	-117.565	-0.231	0.041
-175.983	-14.182	-0.249	-0.160
-174.969	299.772	0.072	-0.131
-173.954	-3.959	0.189	0.131
-172.939	85.428	-0.120	0.131
-171.925	187.707	0.031	0.046
-170.910	800.000	0.027	0.077
-169.896	-46.996	0.032	-0.016
-168.881	-154.430	0.303	-0.020
-167.866	800.000	0.043	0.177
-166.852	31.565	0.104	0.089
-165.837	-94.510	0.019	0.005
-164.823	148.118	-0.102	-0.137
-163.808	-121.731	-0.039	-0.006
-162.793	178.472	0.151	0.219
-161.779	9.436	0.404	0.303
-160.764	-37.800	-0.339	0.179
-159.750	-140.982	0.216	-0.022
-158.735	-70.638	-0.332	0.125
-157.720	145.945	0.091	-0.122
-156.706	-200.000	0.046	-0.207
-155.691	475.581	0.031	0.069
-154.677	778.313	0.098	-0.265
-153.662	27.881	0.149	0.125
-152.647	-99.344	0.307	-0.077
-151.633	56.849	0.044	-0.042
-150.618	-110.175	-0.361	0.075
-149.604	-140.103	0.275	-0.029
-148.589	-176.911	0.220	-0.006
-147.574	-185.771	0.176	0.003
-146.560	800.000	0.084	0.276
-145.545	-9.702	-0.159	0.105
-144.531	-32.088	0.232	-0.129
-143.516	-200.000	0.002	-0.173
-142.502	217.857	0.048	-0.076
-141.487	515.587	-0.082	-0.189
-140.472	0.587	0.310	-0.220
-139.458	-200.000	0.008	0.193
-138.443	-77.400	0.160	0.055
-137.429	-108.798	0.213	0.045
-136.414	-38.994	-0.336	-0.175
-135.399	-200.000	-0.035	-0.307
-134.385	-200.000	-0.002	0.180
-133.370	104.050	-0.060	0.069
-132.356	-31.368	-0.371	0.207
-131.341	-200.000	0.004	-0.045
-130.326	-62.892	-0.337	0.138
-129.312	-200.000	-0.007	-0.235
-128.297	131.089	-0.240	-0.306
-127.283	141.738	0.190	0.250
-126.268	-137.867	-0.016	-0.002
-125.253	257.582	-0.151	0.258
-124.239	570.835	0.015	-0.036
-123.224	800.000	-0.093	0.311
-122.210	-60.388	-0.258	0.109
-121.195	-200.000	0.036	-0.228
-120.180	-104.475	-0.151	0.035
