DTS Sentinel unit serial number:	SN413079Multiplexer serial number:	ORYXHardware model number:	OX4-SRSoftware version number:	ORYX F/W v4.00 Oryx Data Collector v3.7.2.0data status	okinstallation	princeton_trtdifferential loss correction	single-endedforward channel	channel 4reverse channel	N/Adate	2019/09/16time	23:45:35forward acquisition time	60.00reverse acquisition time	0.00gamma	496.2192k internal	0.2314k external	0.2314temperature offset calibration	0.9977default loss term (dB/km)	0.3790temperature slope calibration	1.0000multiplexer offset coefficient	1.0000multiplexer slope coefficient	1.0000fibre end	0.00T internal ref (°C)	29.69T ext. ref 1 (°C)	0.08T ext. ref 2 (°C)	23.77length (m)	temperature (°C)	Stokes	anti-Stokes-747.200	800.000	0.059	-0.195
-746.185	-5.619	-0.170	-0.118
-745.171	258.540	0.040	0.070
-744.156	-75.796	-0.472	0.170
-743.142	-73.229	0.142	-0.053
-742.127	-200.000	0.020	0.204
-741.112	346.903	-0.040	-0.079
-740.098	-200.000	0.020	0.138
-739.083	285.873	0.229	-0.419
-738.069	-80.342	-0.232	-0.079
-737.054	-200.000	-0.004	0.132
-736.039	-42.093	-0.251	0.130
-735.025	214.131	0.096	0.153
-734.010	-159.493	-0.288	-0.016
-732.996	-200.000	-0.008	0.224
-731.981	-107.048	-0.294	-0.066
-730.966	-137.846	-0.150	0.017
-729.952	-75.577	-0.189	-0.068
-728.937	-111.285	-0.132	-0.027
-727.923	800.000	0.101	-0.306
-726.908	-93.234	-0.332	0.093
-725.894	-114.523	-0.248	-0.048
-724.879	-29.381	0.366	-0.212
-723.864	-135.461	-0.243	0.029
-722.850	-130.975	0.227	0.031
-721.835	74.219	0.241	0.256
-720.821	800.000	-0.101	-0.296
-719.806	316.284	-0.190	0.364
-718.791	-139.659	-0.292	0.032
-717.777	-134.264	-0.532	0.066
-716.762	176.381	0.152	0.224
-715.748	417.788	0.117	-0.253
-714.733	-138.457	-0.321	-0.036
-713.718	-164.078	0.459	0.022
-712.704	-37.019	0.269	0.146
-711.689	-200.000	0.001	-0.299
-710.675	90.508	0.093	-0.105
-709.660	128.119	0.202	0.260
-708.645	-13.415	0.269	0.177
-707.631	445.920	0.108	-0.241
-706.616	-121.647	-0.292	0.049
-705.602	-104.266	0.200	0.047
-704.587	-8.198	0.119	-0.081
-703.572	376.592	0.084	0.174
-702.558	10.728	0.199	0.154
-701.543	96.242	0.037	0.043
-700.529	100.576	-0.190	0.223
-699.514	-25.372	0.144	-0.086
-698.499	106.642	0.208	-0.250
-697.485	660.106	0.118	-0.306
-696.470	74.727	-0.203	0.216
-695.456	-9.285	0.227	0.154
-694.441	-79.186	0.179	-0.061
-693.426	299.503	0.097	0.181
-692.412	416.579	0.080	-0.173
-691.397	232.549	-0.157	-0.262
-690.383	-75.505	-0.244	-0.088
-689.368	-4.207	-0.126	0.088
-688.354	-125.024	-0.222	-0.035
-687.339	-200.000	-0.010	0.069
-686.324	-200.000	-0.017	0.365
-685.310	-200.000	0.001	0.046
-684.295	7.322	-0.296	0.223
-683.281	9.384	-0.054	0.041
-682.266	27.932	0.047	-0.040
-681.251	24.527	-0.081	0.067
-680.237	705.444	0.082	0.219
-679.222	-10.687	0.225	-0.151
-678.208	800.000	-0.071	-0.270
-677.193	204.592	-0.081	-0.127
-676.178	-80.084	0.252	0.085
-675.164	-19.242	0.101	-0.063
-674.149	-109.788	-0.134	0.029
-673.135	-15.453	-0.334	-0.215
-672.120	800.000	0.079	-0.257
-671.105	208.891	-0.146	0.231
-670.091	-135.781	0.126	-0.015
-669.076	-200.000	-0.029	-0.401
-668.062	55.114	-0.129	0.126
-667.047	348.953	-0.075	0.151
-666.032	-133.543	0.270	0.034
-665.018	-60.849	-0.277	0.118
-664.003	49.313	-0.118	-0.112
-662.989	66.100	-0.125	-0.129
-661.974	-200.000	-0.052	-0.364
-660.959	-52.348	0.407	-0.191
-659.945	-38.088	-0.076	-0.041
-658.930	800.000	-0.117	-0.471
-657.916	-169.462	0.091	0.003
-656.901	-200.000	0.024	0.376
-655.886	76.962	0.201	0.215
-654.872	-200.000	0.003	0.421
-653.857	247.611	0.175	-0.299
-652.843	67.523	0.037	-0.038
-651.828	154.323	-0.032	0.045
-650.814	-15.213	0.109	-0.071
-649.799	-200.000	0.017	-0.257
-648.784	800.000	0.077	-0.258
-647.770	665.893	-0.037	0.098
-646.755	156.058	-0.219	-0.304
-645.741	-200.000	0.011	0.201
-644.726	318.343	-0.099	-0.189
-643.711	-200.000	-0.007	0.183
-642.697	32.848	0.124	-0.108
-641.682	800.000	-0.017	0.069
-640.668	-125.787	-0.294	-0.045
-639.653	129.972	-0.093	0.121
-638.638	179.101	-0.151	-0.223
-637.624	-26.172	0.167	-0.099
-636.609	-36.842	0.212	-0.115
-635.595	-165.089	0.194	0.009
-634.580	-130.702	-0.211	0.029
-633.565	50.639	-0.200	-0.191
-632.551	-44.175	0.109	-0.055
-631.536	-15.025	0.090	-0.058
-630.522	-34.764	-0.184	-0.102
-629.507	-22.577	0.258	0.158
-628.492	261.567	-0.039	-0.068
-627.478	-200.000	0.026	-0.209
-626.463	-2.027	0.231	0.164
-625.449	198.927	0.171	0.265
-624.434	-46.747	-0.204	-0.101
-623.419	66.749	0.163	0.168
-622.405	505.258	0.066	-0.153
-621.390	164.529	-0.054	0.077
-620.376	-200.000	0.040	-0.238
-619.361	-200.000	-0.011	-0.254
-618.346	17.496	-0.206	-0.166
-617.332	586.383	-0.083	0.206
-616.317	-39.031	0.150	-0.080
-615.303	800.000	0.022	0.063
-614.288	31.829	-0.196	0.170
-613.273	-100.101	-0.461	-0.116
-612.259	-48.656	0.289	0.140
-611.244	-10.713	0.092	0.061
-610.230	-95.958	-0.127	-0.034
-609.215	-67.556	-0.038	-0.015
-608.201	-36.161	0.130	0.071
-607.186	1.520	0.373	-0.271
-606.171	-21.245	-0.141	-0.087
-605.157	-36.133	-0.290	-0.158
-604.142	-70.935	-0.250	0.095
-603.128	-22.015	0.095	0.058
-602.113	800.000	-0.069	-0.229
-601.098	29.943	-0.159	-0.137
-600.084	749.015	0.074	0.201
-599.069	52.303	-0.016	0.016
-598.055	-55.880	0.279	0.125
-597.040	-62.225	-0.070	-0.029
-596.025	-200.000	-0.082	-0.415
-595.011	800.000	-0.111	-0.336
-593.996	-48.236	-0.069	-0.033
-592.982	317.426	-0.082	0.156
-591.967	800.000	-0.076	0.328
-590.952	-114.482	0.247	0.048
-589.938	-200.000	-0.066	-0.292
-588.923	-9.376	-0.154	0.103
-587.909	67.060	-0.318	0.326
-586.894	235.558	0.096	-0.160
-585.879	-136.358	0.135	-0.016
-584.865	82.379	0.045	-0.049
-583.850	-33.372	-0.071	-0.040
-582.836	-185.642	0.152	0.002
-581.821	-38.178	0.107	-0.057
-580.806	-200.000	-0.018	-0.338
-579.792	-200.000	0.034	0.176
-578.777	365.683	-0.030	0.060
-577.763	40.865	-0.173	-0.157
-576.748	100.112	0.216	-0.252
-575.733	-200.000	-0.024	-0.339
-574.719	85.727	0.093	-0.103
-573.704	246.210	-0.214	0.363
-572.690	-6.353	-0.409	-0.281
-571.675	60.585	-0.214	0.214
-570.661	109.506	-0.066	-0.079
-569.646	436.348	-0.162	-0.355
-568.631	-66.706	0.097	0.038
-567.617	206.195	0.174	0.272
-566.602	-29.912	0.204	-0.117
-565.588	-200.000	-0.010	-0.076
-564.573	304.077	-0.151	0.281
-563.558	-200.000	0.006	0.145
-562.544	-200.000	0.001	0.032
-561.529	651.262	0.154	-0.398
-560.515	-41.138	-0.293	-0.152
-559.500	74.266	0.090	-0.095
-558.485	93.885	-0.027	0.031
-557.471	-87.896	0.074	-0.022
-556.456	-110.662	-0.138	0.029
-555.442	-200.000	0.017	-0.169
-554.427	-200.000	-0.003	-0.125
-553.412	382.329	-0.047	-0.097
-552.398	-200.000	0.018	-0.301
-551.383	201.844	0.104	-0.162
-550.369	-145.131	0.057	-0.005
-549.354	800.000	0.037	0.134
-548.339	-200.000	-0.074	-0.447
-547.325	-2.705	-0.244	-0.172
-546.310	800.000	0.067	-0.213
-545.296	-200.000	-0.009	0.365
-544.281	-200.000	-0.021	-0.182
-543.266	-200.000	0.007	0.041
-542.252	-92.091	0.213	-0.061
-541.237	272.745	0.063	-0.112
-540.223	-22.225	0.101	0.062
-539.208	-44.254	-0.146	-0.074
-538.193	165.435	-0.262	0.372
-537.179	600.245	-0.132	0.330
-536.164	-126.841	-0.362	0.054
-535.150	100.214	0.313	0.365
-534.135	-67.195	-0.309	0.123
-533.121	480.547	0.150	0.342
-532.106	74.983	0.124	-0.131
-531.091	-69.824	-0.088	0.034
-530.077	-106.547	-0.158	-0.035
-529.062	-157.797	0.168	-0.010
-528.048	140.834	-0.085	0.113
-527.033	84.842	-0.140	-0.154
-526.018	-146.508	-0.270	-0.024
-525.004	53.061	0.095	-0.091
-523.989	-125.732	0.467	-0.071
-522.975	-73.135	0.083	-0.031
-521.960	648.555	-0.183	0.470
-520.945	-131.893	0.048	-0.006
-519.931	31.729	0.242	0.209
-518.916	-78.407	-0.240	0.083
-517.902	-178.503	0.163	0.004
-516.887	-200.000	-0.047	-0.378
-515.872	-69.593	-0.305	-0.117
-514.858	262.708	0.099	-0.173
-513.843	336.321	0.079	0.154
-512.829	800.000	-0.097	-0.340
-511.814	-34.995	-0.230	0.126
-510.799	-143.064	-0.123	-0.012
-509.785	800.000	0.162	-0.459
-508.770	-4.587	-0.148	0.103
-507.756	36.357	0.178	0.158
-506.741	800.000	0.116	-0.446
-505.726	-37.550	0.327	-0.175
-504.712	-200.000	0.014	-0.622
-503.697	-139.948	0.034	0.004
-502.683	235.314	0.118	-0.196
-501.668	-168.749	-0.354	0.013
-500.653	-200.000	-0.029	-0.280
-499.639	-37.524	-0.094	-0.050
-498.624	-200.000	-0.235	0.000
-497.610	-11.405	0.209	-0.138
-496.595	24.457	0.131	0.109
-495.581	67.897	0.068	-0.070
-494.566	-117.607	-0.180	0.033
-493.551	121.410	0.128	-0.160
-492.537	-75.982	0.128	-0.045
-491.522	-13.400	0.123	-0.080
-490.508	-114.192	0.477	-0.092
-489.493	-73.354	0.256	-0.094
-488.478	-65.686	-0.257	-0.103
-487.464	-25.293	0.114	-0.068
-486.449	19.893	0.160	-0.129
-485.435	800.000	-0.112	-0.361
-484.420	-64.079	0.102	0.042
-483.405	43.432	0.097	0.089
-482.391	101.867	0.165	0.193
-481.376	128.430	0.049	-0.063
-480.362	-103.690	0.216	0.051
-479.347	366.006	-0.092	0.186
-478.332	31.708	-0.146	0.126
-477.318	-200.000	-0.024	0.206
-476.303	249.250	-0.246	-0.419
-475.289	-83.406	0.127	0.041
-474.274	209.362	0.106	-0.167
-473.259	-200.000	0.005	0.136
-472.245	208.370	-0.105	0.165
-471.230	-89.192	-0.054	0.016
-470.216	-200.000	-0.015	-0.351
-469.201	59.072	-0.229	-0.226
-468.186	-200.000	-0.032	0.208
-467.172	-116.710	0.077	0.014
-466.157	-160.337	-0.229	0.012
-465.143	800.000	-0.109	0.347
-464.128	-77.401	-0.099	-0.034
-463.113	74.111	-0.103	-0.109
-462.099	410.189	0.079	0.168
-461.084	-133.052	-0.271	-0.034
-460.070	-200.000	-0.001	0.313
-459.055	-179.221	-0.335	-0.007
-458.040	-145.099	-0.349	-0.032
-457.026	-38.400	0.186	-0.099
-456.011	800.000	0.014	0.039
-454.997	-99.034	0.140	0.036
-453.982	166.707	-0.131	0.187
-452.968	-74.467	-0.232	-0.084
-451.953	-124.722	0.312	0.048
-450.938	800.000	0.027	0.087
-449.924	130.919	0.155	0.199
-448.909	602.039	0.054	-0.135
-447.895	179.178	-0.061	-0.089
-446.880	157.294	0.067	-0.093
-445.865	-104.369	-0.297	-0.069
-444.851	-200.000	-0.037	0.383
-443.836	-45.467	-0.208	-0.103
-442.822	-200.000	-0.046	-0.307
-441.807	200.334	0.043	-0.066
-440.792	29.877	-0.122	0.104
-439.778	-200.000	0.015	-0.272
-438.763	672.598	0.009	-0.024
-437.749	-160.527	0.298	-0.016
-436.734	55.708	0.153	0.149
-435.719	-71.642	0.263	-0.098
-434.705	-200.000	0.015	-0.081
-433.690	86.182	0.106	0.117
-432.676	27.643	-0.076	0.064
-431.661	-122.217	0.166	-0.027
-430.646	-200.000	-0.022	-0.117
-429.632	-200.000	0.023	0.108
-428.617	-76.527	-0.350	0.123
-427.603	-200.000	0.007	0.088
-426.588	-128.998	-0.320	-0.045
-425.573	-121.631	0.161	-0.027
-424.559	-114.868	0.094	-0.018
-423.544	-81.880	-0.365	-0.120
-422.530	-149.676	0.411	0.032
-421.515	-175.833	-0.046	0.001
-420.500	-95.153	-0.385	0.104
-419.486	8.374	-0.165	-0.124
-418.471	800.000	0.098	0.376
-417.457	800.000	0.020	0.065
-416.442	-200.000	0.016	0.134
-415.428	296.473	-0.119	-0.218
-414.413	-139.539	0.199	-0.021
-413.398	-200.000	0.056	0.499
-412.384	140.273	0.062	-0.081
-411.369	-195.938	-0.348	-0.002
-410.355	-182.073	0.217	0.004
-409.340	745.918	0.143	0.385
-408.325	172.533	0.121	0.174
-407.311	79.519	0.084	-0.091
-406.296	-74.116	-0.155	0.056
-405.282	422.616	0.069	-0.148
-404.267	-46.753	-0.333	0.163
-403.252	13.591	-0.170	0.132
-402.238	-8.044	-0.118	0.080
-401.223	-132.928	-0.089	-0.011
-400.209	-73.377	0.185	0.068
-399.194	106.436	-0.198	-0.235
-398.179	78.086	0.119	0.127
-397.165	274.523	-0.155	0.275
-396.150	134.756	-0.148	0.192
-395.136	29.711	-0.050	-0.043
-394.121	-61.740	-0.317	0.133
-393.106	-200.000	-0.001	-0.291
-392.092	-112.723	-0.208	-0.041
-391.077	204.019	0.064	0.099
-390.063	-200.000	-0.009	-0.237
-389.048	16.938	-0.179	0.142
-388.033	-200.000	0.037	-0.273
-387.019	-200.000	-0.031	-0.166
-386.004	-200.000	0.001	-0.052
-384.990	-43.555	-0.077	0.039
-383.975	-62.347	-0.206	-0.086
-382.960	-27.832	0.377	0.219
-381.946	403.589	0.074	0.155
-380.931	-40.269	0.142	-0.074
-379.917	439.919	0.056	0.122
-378.902	-68.523	0.061	0.024
-377.888	192.233	-0.141	-0.212
-376.873	800.000	0.041	-0.161
-375.858	-122.413	0.111	0.018
-374.844	-134.497	-0.144	-0.018
-373.829	-200.000	0.031	-0.153
-372.815	56.091	0.193	-0.187
-371.800	20.169	0.209	0.169
-370.785	-103.042	0.085	-0.020
-369.771	-200.000	0.036	0.179
-368.756	3.991	0.068	-0.050
-367.742	-2.419	-0.049	0.034
-366.727	2.579	-0.097	0.070
-365.712	335.656	0.155	-0.300
-364.698	-83.177	0.409	0.131
-363.683	27.379	-0.315	-0.265
-362.669	-70.979	0.142	0.053
-361.654	-200.000	-0.014	-0.133
-360.639	152.821	-0.089	0.121
-359.625	-191.757	0.416	0.004
-358.610	-152.511	-0.073	0.005
-357.596	-94.196	0.289	0.079
-356.581	555.229	-0.151	0.362
-355.566	800.000	-0.086	0.266
-354.552	11.808	0.228	-0.175
-353.537	-200.000	0.010	0.096
-352.523	69.272	0.080	0.082
-351.508	234.118	0.042	0.069
-350.493	538.272	-0.152	0.361
-349.479	-66.592	0.108	0.043
-348.464	189.761	-0.094	0.141
-347.450	336.465	-0.138	0.268
-346.435	800.000	-0.118	0.339
-345.420	52.105	-0.058	0.055
-344.406	-200.000	0.009	0.280
-343.391	800.000	0.116	-0.430
-342.377	-137.058	-0.279	0.032
-341.362	-25.207	-0.182	-0.107
-340.348	-43.957	0.395	0.198
-339.333	134.078	-0.049	-0.063
-338.318	487.358	-0.095	-0.215
-337.304	-200.000	-0.047	-0.226
-336.289	130.243	-0.141	0.180
-335.275	-65.081	-0.335	-0.135
-334.260	422.945	0.063	0.135
-333.245	-200.000	0.017	0.280
-332.231	-143.291	0.390	-0.037
-331.216	-30.661	-0.565	0.319
-330.202	-68.659	-0.206	-0.080
-329.187	-200.000	0.026	-0.292
-328.172	392.593	0.146	-0.303
-327.158	32.300	-0.077	-0.066
-326.143	98.046	0.313	0.360
-325.129	800.000	-0.071	0.260
-324.114	-115.469	0.240	-0.045
-323.099	-200.000	0.065	-0.333
-322.085	226.558	-0.020	-0.032
-321.070	325.226	0.126	-0.241
-320.056	322.913	0.123	-0.235
-319.041	-25.013	0.308	0.182
-318.026	5.134	-0.233	-0.171
-317.012	314.229	0.098	0.184
-315.997	119.036	0.135	-0.166
-314.983	800.000	0.038	0.161
-313.968	-200.000	-0.032	0.157
-312.953	-72.264	-0.386	-0.143
-311.939	-200.000	-0.006	-0.031
-310.924	-171.784	-0.248	0.008
-309.910	-9.122	0.233	0.156
-308.895	800.000	0.050	-0.151
-307.880	-200.000	-0.032	0.142
-306.866	432.597	-0.071	-0.154
-305.851	296.745	0.022	0.040
-304.837	800.000	-0.139	0.435
-303.822	-200.000	-0.035	-0.307
-302.807	-124.321	0.251	0.039
-301.793	-200.000	-0.001	0.179
-300.778	800.000	0.018	0.064
-299.764	24.251	-0.222	0.182
-298.749	-145.865	-0.339	0.030
-297.735	75.602	-0.261	-0.274
-296.720	-200.000	-0.020	-0.178
-295.705	-95.478	0.334	-0.089
-294.691	-142.010	0.376	0.037
-293.676	-77.585	0.165	0.057
-292.662	768.716	0.055	0.150
-291.647	-174.072	0.170	0.005
-290.632	-200.000	0.021	-0.256
-289.618	800.000	0.052	0.177
-288.603	-126.554	-0.331	0.049
-287.589	-200.000	-0.021	0.370
-286.574	-102.459	0.117	-0.028
-285.559	-200.000	0.001	-0.358
-284.545	-125.928	-0.256	-0.038
-283.530	-76.229	0.134	-0.047
-282.516	-7.595	0.080	0.054
-281.501	800.000	-0.027	-0.103
-280.486	-35.045	-0.222	-0.120
-279.472	-84.104	0.048	0.015
-278.457	154.622	-0.166	-0.227
-277.443	32.200	0.271	0.233
-276.428	102.561	0.090	0.105
-275.413	-10.727	-0.276	-0.182
-274.399	23.021	-0.167	-0.136
-273.384	-95.148	0.393	0.105
-272.370	199.823	-0.039	-0.059
-271.355	-17.705	0.252	-0.158
-270.340	-5.473	-0.244	-0.167
-269.326	114.550	0.250	-0.303
-268.311	4.422	-0.100	0.073
-267.297	-200.000	0.033	0.181
-266.282	380.658	-0.112	0.229
-265.267	-90.742	0.075	-0.021
-264.253	-200.000	-0.072	0.459
-263.238	-200.000	-0.043	0.208
-262.224	-143.603	0.186	0.018
-261.209	-24.155	0.257	-0.153
-260.195	480.396	-0.054	0.123
-259.180	800.000	-0.073	-0.294
-258.165	-200.000	-0.008	0.104
-257.151	-173.694	-0.293	-0.009
-256.136	-200.000	0.034	0.156
-255.122	800.000	-0.086	0.319
-254.107	26.748	0.157	-0.131
-253.092	14.969	0.295	0.230
-252.078	-172.345	0.404	-0.013
-251.063	-200.000	-0.008	-0.395
-250.049	800.000	-0.086	0.255
-249.034	-99.715	-0.359	0.089
-248.019	19.979	0.277	-0.222
-247.005	41.759	0.118	0.106
-245.990	152.587	0.180	-0.244
-244.976	-129.268	-0.200	0.028
-243.961	-40.373	-0.454	0.235
-242.946	-19.013	0.248	0.153
-241.932	-200.000	-0.072	0.330
-240.917	129.701	-0.015	-0.018
-239.903	682.623	0.090	-0.234
-238.888	78.178	0.116	0.123
-237.873	64.102	-0.237	0.237
-236.859	800.000	0.155	0.517
-235.844	-35.067	0.185	0.100
-234.830	-200.000	0.005	0.182
-233.815	-30.200	0.195	-0.110
-232.800	8.602	-0.172	-0.129
-231.786	-64.090	0.256	-0.104
-230.771	-200.000	-0.007	-0.167
-229.757	-200.000	0.005	-0.092
-228.742	800.000	0.054	0.185
-227.727	64.465	0.212	0.213
-226.713	-200.000	0.060	0.327
-225.698	16.101	0.226	0.177
-224.684	-113.333	0.143	-0.028
-223.669	-34.279	0.306	0.167
-222.655	397.858	0.101	-0.210
-221.640	-41.440	0.097	-0.049
-220.625	-200.000	0.006	-0.088
-219.611	177.027	0.083	-0.120
-218.596	-102.218	0.283	-0.068
-217.582	-200.000	0.017	0.076
-216.567	-87.568	0.082	0.025
-215.552	60.983	-0.076	-0.075
-214.538	-144.106	-0.307	0.029
-213.523	278.252	0.064	0.113
-212.509	177.608	-0.032	-0.046
-211.494	-49.287	0.162	0.077
-210.479	800.000	-0.044	0.188
-209.465	-200.000	0.046	-0.246
-208.450	26.765	-0.156	0.130
-207.436	113.606	-0.068	0.082
-206.421	129.963	-0.193	-0.245
-205.406	-200.000	0.068	0.324
-204.392	-20.656	0.054	0.033
-203.377	302.332	0.104	0.190
-202.363	800.000	-0.125	0.368
-201.348	-102.394	-0.165	-0.039
-200.333	-138.363	-0.403	-0.044
-199.319	-28.289	0.223	0.128
-198.304	440.451	0.084	-0.182
-197.290	-43.801	-0.019	-0.009
-196.275	95.614	-0.179	-0.203
-195.260	-200.000	0.011	0.259
-194.246	618.105	0.015	0.038
-193.231	-69.070	-0.079	-0.030
-192.217	-96.018	-0.421	-0.111
-191.202	800.000	-0.116	-0.450
-190.187	-120.533	0.182	-0.031
-189.173	65.921	0.158	-0.159
-188.158	232.298	-0.100	0.162
-187.144	-156.309	0.089	-0.006
-186.129	800.000	-0.078	0.316
-185.114	800.000	-0.045	0.179
-184.100	-200.000	0.062	0.346
-183.085	800.000	-0.052	0.146
-182.071	800.000	0.160	-0.598
-181.056	236.285	0.092	0.151
-180.042	800.000	-0.062	0.239
-179.027	-200.000	0.031	-0.195
-178.012	16.121	-0.063	-0.049
-176.998	790.531	0.035	-0.095
-175.983	-200.000	0.002	0.076
-174.969	-45.829	0.124	-0.061
-173.954	248.653	0.118	0.197
-172.939	-78.640	0.216	0.073
-171.925	43.399	0.363	0.329
-170.910	-104.439	0.277	0.064
-169.896	-115.691	-0.277	0.051
-168.881	25.044	0.137	0.113
-167.866	253.854	0.091	0.154
-166.852	800.000	-0.022	0.071
-165.837	-72.479	-0.188	0.069
-164.823	-144.901	-0.052	0.005
-163.808	800.000	0.074	-0.205
-162.793	-145.493	-0.112	-0.010
-161.779	-96.315	-0.115	-0.030
-160.764	800.000	-0.015	-0.063
-159.750	91.375	0.076	-0.084
-158.735	-19.144	-0.070	0.043
-157.720	189.872	-0.200	0.297
-156.706	-129.969	0.048	-0.007
-155.691	-200.000	0.149	-0.001
-154.677	556.807	0.096	-0.229
-153.662	135.120	-0.079	0.101
-152.647	-118.966	0.169	-0.029
-151.633	-7.800	0.051	0.034
-150.618	23.005	0.297	-0.241
-149.604	11.138	-0.169	0.128
-148.589	-132.217	0.301	-0.039
-147.574	-135.456	-0.221	0.026
-146.560	13.834	-0.169	0.130
-145.545	162.550	0.030	-0.042
-144.531	-32.166	-0.240	0.133
-143.516	-200.000	0.015	-0.147
-142.502	95.808	0.113	-0.128
-141.487	-200.000	0.013	0.239
-140.472	-41.904	0.141	0.072
-139.458	-200.000	-0.024	0.195
-138.443	-51.047	-0.124	0.058
-137.429	501.203	0.041	-0.095
-136.414	-58.006	0.304	0.131
-135.399	17.801	0.283	0.223
-134.385	-104.117	0.127	-0.029
-133.370	800.000	-0.047	-0.158
-132.356	-29.637	-0.172	0.097
-131.341	-168.995	0.258	0.010
-130.326	48.990	0.039	-0.037
-129.312	25.332	0.044	-0.037
-128.297	-60.007	0.160	-0.068
-127.283	-200.000	-0.033	0.206
-126.268	800.000	-0.128	-0.372
-125.253	800.000	-0.035	-0.143
-124.239	81.277	-0.119	-0.128
-123.224	-66.031	0.222	0.088
-122.210	-109.478	0.137	0.029
-121.195	272.858	0.082	0.144
