DTS Sentinel unit serial number:	SN413079Multiplexer serial number:	ORYXHardware model number:	OX4-SRSoftware version number:	ORYX F/W v4.00 Oryx Data Collector v3.7.2.0data status	okinstallation	princeton_trtdifferential loss correction	single-endedforward channel	channel 4reverse channel	N/Adate	2019/09/16time	20:33:35forward acquisition time	60.00reverse acquisition time	0.00gamma	496.2192k internal	0.2311k external	0.2311temperature offset calibration	0.9969default loss term (dB/km)	0.3790temperature slope calibration	1.0000multiplexer offset coefficient	1.0000multiplexer slope coefficient	1.0000fibre end	0.00T internal ref (°C)	32.56T ext. ref 1 (°C)	0.05T ext. ref 2 (°C)	26.51length (m)	temperature (°C)	Stokes	anti-Stokes-747.200	-52.953	-0.203	0.095
-746.185	-178.232	-0.042	-0.001
-745.171	-107.824	0.048	-0.011
-744.156	-79.628	-0.257	0.088
-743.142	191.639	0.149	0.227
-742.127	-200.000	-0.031	0.280
-741.112	703.944	-0.099	-0.265
-740.098	-200.000	-0.002	0.263
-739.083	674.316	-0.101	0.265
-738.069	240.767	-0.134	-0.226
-737.054	800.000	0.123	-0.429
-736.039	34.321	-0.170	0.150
-735.025	85.341	-0.059	0.066
-734.010	50.213	-0.146	-0.140
-732.996	23.787	0.104	-0.087
-731.981	195.822	-0.080	0.123
-730.966	-200.000	-0.082	0.000
-729.952	-121.978	-0.342	-0.057
-728.937	-200.000	-0.006	0.112
-727.923	114.008	-0.176	0.217
-726.908	-30.928	0.174	-0.099
-725.894	1.741	-0.243	-0.178
-724.879	-47.106	-0.127	0.063
-723.864	800.000	-0.031	0.112
-722.850	-200.000	-0.061	-0.298
-721.835	-94.408	-0.128	0.035
-720.821	-42.191	-0.144	-0.075
-719.806	382.668	-0.068	-0.143
-718.791	262.404	-0.056	-0.098
-717.777	-28.571	-0.239	-0.140
-716.762	800.000	-0.091	0.264
-715.748	45.069	-0.212	-0.198
-714.733	165.854	0.092	-0.132
-713.718	-45.054	-0.098	0.050
-712.704	-200.000	-0.023	-0.104
-711.689	-200.000	-0.065	-0.303
-710.675	531.068	-0.152	-0.365
-709.660	-169.987	-0.243	0.009
-708.645	-133.682	-0.095	0.012
-707.631	-200.000	0.021	-0.318
-706.616	218.274	-0.052	-0.084
-705.602	39.977	-0.302	0.275
-704.587	91.774	-0.281	-0.321
-703.572	156.998	-0.042	-0.059
-702.558	-63.165	-0.125	0.052
-701.543	-52.105	0.010	-0.005
-700.529	44.864	0.096	0.090
-699.514	-92.858	0.205	-0.058
-698.499	-200.000	-0.021	-0.171
-697.485	-1.722	0.180	0.128
-696.470	-25.984	-0.200	0.119
-695.456	-88.540	0.078	0.023
-694.441	0.844	0.289	0.210
-693.426	420.717	0.095	-0.205
-692.412	-200.000	0.069	0.469
-691.397	-200.000	-0.019	-0.234
-690.383	17.032	0.244	-0.196
-689.368	650.805	-0.068	-0.176
-688.354	11.700	-0.314	-0.244
-687.339	800.000	0.067	-0.253
-686.324	-110.914	-0.357	0.074
-685.310	800.000	0.079	-0.317
-684.295	-61.192	0.389	-0.166
-683.281	800.000	0.013	0.051
-682.266	-200.000	-0.009	-0.076
-681.251	-200.000	-0.002	-0.279
-680.237	-25.502	-0.058	0.035
-679.222	4.484	-0.361	-0.268
-678.208	-57.802	0.097	0.043
-677.193	-109.946	-0.551	-0.117
-676.178	19.075	0.250	0.203
-675.164	-21.894	0.187	-0.115
-674.149	-115.259	-0.396	0.076
-673.135	416.060	0.072	0.155
-672.120	273.514	0.038	0.068
-671.105	-200.000	-0.004	0.040
-670.091	206.507	-0.069	-0.109
-669.076	76.330	-0.292	-0.313
-668.062	18.835	-0.279	0.226
-667.047	-200.000	-0.025	0.236
-666.032	-87.914	-0.113	-0.034
-665.018	-70.721	-0.262	0.100
-664.003	29.335	-0.088	0.076
-662.989	-200.000	0.017	0.200
-661.974	0.715	0.169	0.122
-660.959	-19.596	-0.202	-0.127
-659.945	-25.380	-0.135	-0.081
-658.930	-6.799	-0.115	0.079
-657.916	-25.442	0.192	-0.115
-656.901	-164.143	-0.315	0.015
-655.886	193.628	-0.074	0.114
-654.872	704.962	0.048	0.127
-653.857	-100.956	-0.298	0.074
-652.843	-200.000	0.010	0.078
-651.828	-65.231	0.248	0.101
-650.814	-115.632	-0.126	-0.024
-649.799	-5.131	0.321	-0.223
-648.784	800.000	0.053	0.156
-647.770	188.948	-0.221	-0.335
-646.755	73.555	0.086	0.091
-645.741	-156.000	-0.516	-0.033
-644.726	283.647	0.234	-0.425
-643.711	-200.000	-0.043	-0.217
-642.697	-200.000	-0.000	0.319
-641.682	-81.671	-0.066	-0.022
-640.668	377.395	-0.060	0.125
-639.653	-5.701	0.314	-0.218
-638.638	-112.228	-0.207	0.042
-637.624	-200.000	-0.025	-0.177
-636.609	-162.954	0.119	0.006
-635.595	294.220	0.146	0.270
-634.580	184.851	-0.104	-0.156
-633.565	-42.856	-0.327	0.168
-632.551	-32.834	-0.221	-0.124
-631.536	-157.452	-0.179	-0.011
-630.522	21.768	0.033	0.027
-629.507	-200.000	-0.020	-0.107
-628.492	-44.443	-0.129	0.065
-627.478	-100.733	0.231	0.057
-626.463	371.341	0.154	0.315
-625.449	545.268	0.054	0.130
-624.434	-123.479	0.118	-0.019
-623.419	-200.000	-0.003	0.015
-622.405	800.000	0.041	0.172
-621.390	-13.876	-0.182	0.119
-620.376	-34.651	-0.450	-0.249
-619.361	-104.230	-0.141	-0.033
-618.346	327.985	0.070	-0.135
-617.332	-54.007	-0.229	-0.105
-616.317	-114.745	-0.262	0.051
-615.303	-200.000	0.004	-0.407
-614.288	-26.116	-0.186	-0.110
-613.273	-200.000	0.037	0.402
-612.259	292.583	-0.119	0.219
-611.244	34.669	-0.209	0.185
-610.230	-78.669	-0.307	0.106
-609.215	-200.000	-0.011	-0.090
-608.201	-200.000	-0.053	-0.314
-607.186	-200.000	-0.032	0.183
-606.171	3.232	0.237	0.174
-605.157	800.000	-0.063	0.236
-604.142	-171.523	-0.231	0.008
-603.128	105.532	0.175	0.208
-602.113	-143.272	-0.201	0.019
-601.098	255.099	0.139	0.240
-600.084	475.430	0.056	0.127
-599.069	-87.062	-0.194	0.060
-598.055	800.000	-0.051	0.187
-597.040	204.912	0.182	-0.284
-596.025	-200.000	-0.025	-0.305
-595.011	-126.568	0.325	-0.049
-593.996	-80.904	0.138	0.046
-592.982	111.293	-0.148	-0.180
-591.967	83.129	-0.143	0.157
-590.952	52.810	-0.225	0.217
-589.938	-200.000	-0.004	-0.137
-588.923	-175.200	0.244	0.007
-587.909	561.690	0.055	0.134
-586.894	435.232	0.027	0.060
-585.879	8.226	-0.218	-0.165
-584.865	363.824	-0.185	-0.375
-583.850	-200.000	0.007	-0.168
-582.836	29.321	0.255	0.219
-581.821	387.776	-0.069	0.143
-580.806	800.000	-0.034	0.127
-579.792	-119.054	-0.269	-0.048
-578.777	-145.376	-0.305	-0.028
-577.763	-142.848	0.199	0.019
-576.748	107.228	0.154	-0.185
-575.733	112.070	0.115	0.141
-574.719	-0.978	0.190	0.136
-573.704	-200.000	-0.019	-0.146
-572.690	119.746	-0.155	0.193
-571.675	-176.430	0.200	0.005
-570.661	30.299	-0.107	0.092
-569.646	-200.000	0.015	0.444
-568.631	489.275	-0.154	0.355
-567.617	140.978	-0.143	-0.191
-566.602	-179.226	0.160	-0.004
-565.588	398.655	0.121	-0.256
-564.573	253.126	0.202	-0.347
-563.558	12.945	-0.125	0.097
-562.544	-138.797	-0.302	0.033
-561.529	-167.164	-0.448	-0.018
-560.515	625.346	0.085	-0.217
-559.500	-36.294	-0.191	0.104
-558.485	-56.093	0.230	0.103
-557.471	-200.000	0.006	-0.235
-556.456	-127.084	0.049	0.007
-555.442	-200.000	-0.006	0.157
-554.427	128.920	-0.129	0.165
-553.412	113.582	-0.106	0.129
-552.398	-84.955	-0.226	0.071
-551.383	-152.126	-0.062	-0.005
-550.369	-70.857	0.425	-0.161
-549.354	215.980	0.116	-0.185
-548.339	82.028	0.062	0.068
-547.325	260.815	-0.165	-0.288
-546.310	-142.891	0.381	-0.037
-545.296	-200.000	-0.071	-0.355
-544.281	82.313	-0.155	-0.169
-543.266	2.829	-0.062	0.045
-542.252	157.663	-0.045	-0.062
-541.237	220.677	-0.217	0.351
-540.223	-128.549	0.450	-0.064
-539.208	-200.000	0.008	-0.124
-538.193	-200.000	0.022	0.141
-537.179	-101.225	0.210	0.052
-536.164	-33.166	0.085	0.047
-535.150	299.028	0.035	-0.065
-534.135	-121.776	-0.109	0.018
-533.121	800.000	-0.062	-0.230
-532.106	-119.587	0.165	-0.029
-531.091	407.007	0.080	-0.170
-530.077	-46.641	-0.175	0.086
-529.062	41.191	0.062	0.057
-528.048	-148.869	0.229	0.019
-527.033	-140.055	0.413	0.044
-526.018	-109.878	0.185	-0.039
-525.004	177.268	-0.175	-0.256
-523.989	237.189	0.333	-0.555
-522.975	128.633	-0.122	-0.156
-521.960	-200.000	-0.008	0.038
-520.945	450.770	0.102	-0.226
-519.931	800.000	-0.037	-0.160
-518.916	-200.000	0.048	0.262
-517.902	279.099	-0.035	0.063
-516.887	-15.480	-0.377	-0.242
-515.872	-20.210	-0.260	0.161
-514.858	-200.000	-0.003	-0.421
-513.843	72.973	0.139	-0.146
-512.829	144.734	0.132	-0.177
-511.814	187.841	0.230	0.345
-510.799	173.607	-0.069	0.101
-509.785	-90.754	0.035	-0.010
-508.770	-200.000	-0.013	-0.111
-507.756	-125.129	-0.162	0.025
-506.741	-113.493	-0.108	0.021
-505.726	-140.910	-0.243	-0.025
-504.712	-91.558	0.298	0.085
-503.697	16.932	0.146	-0.116
-502.683	-8.563	0.180	-0.122
-501.668	-65.559	-0.191	-0.077
-500.653	-79.036	0.116	-0.040
-499.639	-49.619	-0.048	0.023
-498.624	551.953	-0.159	-0.384
-497.610	-77.274	-0.217	-0.076
-496.595	-12.112	-0.114	0.075
-495.581	-7.985	-0.054	0.037
-494.566	-80.482	-0.213	0.071
-493.551	-115.914	-0.269	0.051
-492.537	-103.777	0.129	-0.030
-491.522	2.950	-0.038	0.028
-490.508	-200.000	0.002	-0.391
-489.493	122.863	-0.090	-0.113
-488.478	-91.163	0.170	-0.049
-487.464	-200.000	0.017	-0.104
-486.449	800.000	0.109	0.319
-485.435	-200.000	0.078	-0.410
-484.420	-32.779	0.103	0.057
-483.405	691.080	-0.034	0.089
-482.391	-98.637	0.152	0.039
-481.376	-158.803	0.077	0.004
-480.362	-87.797	0.252	-0.076
-479.347	800.000	0.097	0.396
-478.332	251.853	0.157	-0.268
-477.318	800.000	-0.073	-0.283
-476.303	-108.139	0.234	-0.051
-475.289	43.698	0.081	-0.075
-474.274	-57.422	0.103	-0.045
-473.259	23.711	0.088	-0.073
-472.245	146.736	0.385	0.520
-471.230	-200.000	-0.018	-0.130
-470.216	-200.000	0.007	-0.168
-469.201	-200.000	0.001	-0.069
-468.186	-200.000	-0.010	-0.121
-467.172	800.000	0.065	0.284
-466.157	-28.047	0.324	0.188
-465.143	-200.000	0.002	0.291
-464.128	380.789	0.156	0.321
-463.113	-50.383	-0.052	-0.025
-462.099	-138.867	-0.253	-0.028
-461.084	-200.000	0.000	0.116
-460.070	236.572	-0.139	-0.231
-459.055	-200.000	-0.060	0.328
-458.040	90.638	0.171	0.192
-457.026	40.672	-0.175	0.159
-456.011	-114.740	0.205	-0.039
-454.997	37.606	0.113	-0.101
-453.982	-122.618	0.222	-0.036
-452.968	14.308	0.141	0.111
-451.953	-113.528	0.145	-0.028
-450.938	71.267	-0.247	0.257
-449.924	800.000	-0.065	0.236
-448.909	-85.035	0.295	-0.093
-447.895	800.000	0.066	-0.265
-446.880	278.137	-0.155	-0.276
-445.865	-98.312	0.216	-0.056
-444.851	454.558	-0.164	0.365
-443.836	800.000	-0.025	0.070
-442.822	6.810	0.147	-0.110
-441.807	-106.287	0.104	0.023
-440.792	312.654	-0.078	0.148
-439.778	425.465	0.109	-0.236
-438.763	-200.000	0.067	-0.520
-437.749	-11.463	-0.532	-0.351
-436.734	800.000	-0.077	-0.220
-435.719	800.000	0.044	-0.136
-434.705	110.668	0.138	-0.166
-433.690	800.000	-0.071	-0.280
-432.676	-200.000	0.046	-0.210
-431.661	800.000	-0.032	0.128
-430.646	-200.000	0.007	0.121
-429.632	-43.392	-0.139	-0.070
-428.617	800.000	-0.032	0.102
-427.603	-200.000	0.013	-0.084
-426.588	34.507	0.177	0.155
-425.573	-141.763	0.176	0.018
-424.559	-54.333	-0.218	-0.099
-423.544	-49.562	0.104	0.049
-422.530	279.851	-0.062	0.111
-421.515	133.588	0.261	-0.338
-420.500	-61.177	0.319	0.135
-419.486	-200.000	0.037	0.216
-418.471	71.175	-0.017	-0.018
-417.457	304.313	0.061	-0.113
-416.442	-43.692	-0.099	-0.050
-415.428	-155.926	0.159	0.010
-414.413	-1.440	-0.178	0.126
-413.398	-47.400	0.069	0.033
-412.384	-189.864	0.246	0.003
-411.369	87.949	0.059	0.065
-410.355	224.237	-0.135	-0.219
-409.340	-60.019	0.055	-0.024
-408.325	76.901	-0.073	0.077
-407.311	413.075	0.161	0.342
-406.296	-200.000	-0.045	0.240
-405.282	-79.003	0.300	0.102
-404.267	111.521	0.169	-0.205
-403.252	-67.089	-0.250	-0.099
-402.238	-200.000	0.017	0.251
-401.223	25.221	0.296	0.246
-400.209	-200.000	0.021	0.146
-399.194	-200.000	0.017	0.228
-398.179	-54.491	0.171	-0.078
-397.165	137.240	0.118	0.155
-396.150	-171.157	0.150	-0.005
-395.136	-103.441	0.135	0.032
-394.121	-12.786	-0.116	-0.075
-393.106	561.426	-0.057	0.138
-392.092	-200.000	0.001	0.049
-391.077	-200.000	-0.053	-0.524
-390.063	800.000	0.090	-0.252
-389.048	800.000	-0.095	-0.406
-388.033	-200.000	0.057	-0.332
-387.019	782.178	0.101	0.276
-386.004	-79.485	-0.160	-0.054
-384.990	122.857	0.126	0.158
-383.975	157.161	0.226	-0.313
-382.960	-66.926	-0.203	-0.080
-381.946	-200.000	-0.071	-0.452
-380.931	408.616	-0.065	0.138
-379.917	617.012	-0.078	-0.197
-378.902	-200.000	-0.011	-0.250
-377.888	139.172	0.114	0.150
-376.873	43.123	-0.131	-0.120
-375.858	537.480	0.033	0.079
-374.844	-6.450	0.150	-0.102
-373.829	800.000	-0.024	-0.099
-372.815	552.673	0.087	0.210
-371.800	232.481	-0.069	-0.113
-370.785	25.310	-0.302	0.251
-369.771	800.000	-0.106	0.428
-368.756	213.878	0.182	-0.288
-367.742	-144.313	-0.113	0.010
-366.727	800.000	0.082	-0.243
-365.712	215.436	-0.210	0.333
-364.698	-111.276	-0.169	0.035
-363.683	-4.417	0.101	0.070
-362.669	-200.000	-0.005	0.070
-361.654	-60.000	0.096	0.041
-360.639	-94.893	-0.310	-0.084
-359.625	-24.906	0.258	0.153
-358.610	-15.217	-0.072	-0.046
-357.596	-200.000	-0.046	0.231
-356.581	-86.501	-0.203	0.062
-355.566	68.496	0.151	0.154
-354.552	65.635	0.238	0.241
-353.537	-120.111	0.452	0.077
-352.523	61.145	-0.041	-0.041
-351.508	-200.000	0.028	0.177
-350.493	779.843	0.102	0.279
-349.479	-151.436	0.250	-0.019
-348.464	800.000	-0.018	-0.075
-347.450	354.111	0.107	-0.213
-346.435	-28.287	0.104	-0.060
-345.420	-200.000	0.050	-0.295
-344.406	-12.128	-0.112	-0.073
-343.391	297.716	-0.114	-0.209
-342.377	-79.383	0.081	-0.027
-341.362	574.653	0.063	-0.154
-340.348	-120.846	0.172	-0.029
-339.333	237.551	-0.071	-0.118
-338.318	-0.399	-0.265	-0.188
-337.304	-101.739	-0.345	-0.084
-336.289	-200.000	-0.051	-0.237
-335.275	59.895	-0.257	-0.253
-334.260	-200.000	-0.033	0.428
-333.245	399.248	-0.162	0.338
-332.231	-117.745	-0.198	0.036
-331.216	-64.145	0.326	-0.133
-330.202	800.000	0.061	0.240
-329.187	5.944	0.058	-0.043
-328.172	-59.918	0.169	-0.072
-327.158	-21.671	0.027	-0.017
-326.143	261.871	-0.124	0.215
-325.129	-99.402	0.374	0.094
-324.114	656.691	-0.108	0.278
-323.099	58.191	0.163	0.159
-322.085	-67.910	-0.152	0.059
-321.070	-200.000	-0.002	0.037
-320.056	271.715	-0.195	0.344
-319.041	3.013	-0.053	-0.038
-318.026	-146.595	0.412	-0.036
-317.012	-200.000	-0.317	-0.001
-315.997	35.035	-0.264	0.231
-314.983	-78.880	0.303	0.103
-313.968	150.735	-0.092	-0.125
-312.953	-95.148	-0.475	-0.128
-311.939	367.694	0.100	0.201
-310.924	-19.165	-0.101	0.063
-309.910	603.180	-0.005	-0.013
-308.895	-141.197	-0.498	0.051
-307.880	-181.261	-0.148	-0.003
-306.866	-119.650	-0.384	0.066
-305.851	800.000	-0.066	0.223
-304.837	-21.980	-0.173	0.105
-303.822	-79.091	-0.107	0.036
-302.807	-81.008	-0.086	0.028
-301.793	-200.000	-0.055	-0.252
-300.778	-81.320	0.317	0.104
-299.764	71.509	-0.135	0.140
-298.749	-100.539	0.283	-0.070
-297.735	-60.912	0.319	0.135
-296.720	-71.967	-0.404	-0.150
-295.705	185.905	-0.110	-0.163
-294.691	-66.141	0.196	-0.078
-293.676	-200.000	0.033	0.241
-292.662	283.158	-0.046	-0.082
-291.647	-142.797	-0.187	-0.018
-290.632	175.056	0.054	0.078
-289.618	-98.818	-0.398	-0.101
-288.603	-121.336	0.277	-0.046
-287.589	-79.489	-0.166	0.056
-286.574	-11.445	0.144	-0.095
-285.559	-126.795	0.107	0.016
-284.545	-20.342	0.375	-0.230
-283.530	-95.802	0.260	-0.069
-282.516	519.114	0.181	-0.423
-281.501	-200.000	0.018	0.118
-280.486	-200.000	-0.110	0.557
-279.472	-138.450	-0.160	-0.018
-278.457	291.935	-0.106	-0.192
-277.443	-196.656	0.074	0.000
-276.428	-154.908	0.192	-0.013
-275.413	123.689	-0.178	0.222
-274.399	800.000	0.062	0.247
-273.384	-70.188	0.014	-0.005
-272.370	-200.000	-0.011	-0.096
-271.355	345.235	0.059	0.116
-270.340	-200.000	-0.025	-0.278
-269.326	-200.000	0.001	-0.108
-268.311	-200.000	0.006	-0.052
-267.297	-103.054	-0.214	0.051
-266.282	-200.000	0.019	-0.085
-265.267	511.066	-0.096	-0.222
-264.253	-158.922	-0.212	-0.012
-263.238	-53.905	0.289	0.131
-262.224	-44.039	-0.149	-0.075
-261.209	-200.000	0.016	-0.204
-260.195	800.000	-0.047	-0.164
-259.180	-167.165	-0.140	0.006
-258.165	-115.061	-0.224	0.042
-257.151	276.161	0.137	-0.242
-256.136	-90.711	0.181	0.052
-255.122	-200.000	0.064	-0.294
-254.107	-169.770	-0.067	-0.002
-253.092	-77.023	-0.140	0.049
-252.078	-39.556	0.066	0.035
-251.063	-200.000	0.016	-0.098
-250.049	68.618	-0.127	0.130
-249.034	-121.810	0.047	0.008
-248.019	-28.128	0.186	0.107
-247.005	49.206	-0.114	0.107
-245.990	-39.102	0.108	0.057
-244.976	-144.550	-0.378	-0.035
-243.961	80.975	-0.133	-0.143
-242.946	-128.682	0.085	0.012
-241.932	112.721	-0.133	0.160
-240.917	-32.974	-0.079	0.044
-239.903	-171.415	0.081	-0.003
-238.888	800.000	-0.030	0.119
-237.873	362.561	0.127	0.253
-236.859	-54.813	0.233	0.105
-235.844	-176.427	0.120	0.003
-234.830	-89.398	0.280	-0.082
-233.815	-156.684	-0.140	-0.009
-232.800	800.000	0.018	-0.049
-231.786	-104.184	-0.341	-0.079
-230.771	200.209	0.103	0.157
-229.757	58.157	0.274	0.267
-228.742	-96.957	-0.195	0.051
-227.727	21.902	-0.171	-0.139
-226.713	231.963	0.081	0.133
-225.698	-77.555	-0.471	0.162
-224.684	-104.520	-0.118	0.027
-223.669	66.588	0.109	0.110
-222.655	-200.000	-0.088	-0.439
-221.640	-55.262	0.088	-0.039
-220.625	4.862	-0.073	0.053
-219.611	-139.894	0.152	-0.016
-218.596	-200.000	0.043	-0.265
-217.582	492.389	-0.053	-0.120
-216.567	-14.827	0.160	-0.102
-215.552	252.111	-0.184	0.311
-214.538	-19.357	-0.146	0.090
-213.523	-91.056	-0.141	0.040
-212.509	92.866	0.331	-0.372
-211.494	-137.232	0.240	-0.027
-210.479	121.981	-0.110	-0.137
-209.465	800.000	0.060	0.173
-208.450	-200.000	-0.005	0.105
-207.436	-15.346	0.072	0.046
-206.421	-200.000	0.037	0.284
-205.406	-150.608	-0.248	0.019
-204.392	109.959	-0.195	-0.232
-203.377	-119.912	-0.198	0.034
-202.363	-48.337	0.291	0.140
-201.348	167.663	0.149	0.210
-200.333	-146.705	0.126	0.011
-199.319	314.742	-0.131	0.245
-198.304	-92.797	-0.371	0.103
-197.290	513.939	-0.039	0.091
-196.275	5.197	0.043	-0.032
-195.260	-26.595	-0.032	0.019
-194.246	211.859	0.085	0.132
-193.231	0.498	0.090	0.064
-192.217	-200.000	0.003	0.065
-191.202	60.988	0.106	-0.105
-190.187	-200.000	-0.008	0.362
-189.173	-60.186	0.336	-0.142
-188.158	170.036	0.347	0.493
-187.144	-200.000	-0.011	-0.170
-186.129	125.712	0.041	-0.051
-185.114	18.208	-0.037	-0.029
-184.100	98.024	0.122	0.140
-183.085	-200.000	0.064	0.417
-182.071	-126.334	0.263	0.039
-181.056	800.000	-0.091	-0.289
-180.042	-200.000	-0.003	0.068
-179.027	-82.765	0.136	-0.044
-178.012	-127.188	-0.253	0.037
-176.998	-19.132	-0.198	0.122
-175.983	-105.370	0.198	-0.045
-174.969	-24.543	0.327	0.193
-173.954	800.000	0.061	0.178
-172.939	-50.533	-0.442	-0.207
-171.925	-120.507	-0.088	-0.015
-170.910	-200.000	0.032	-0.376
-169.896	-36.629	0.091	-0.048
-168.881	199.512	-0.134	-0.204
-167.866	185.447	-0.252	0.372
-166.852	54.708	-0.174	-0.167
-165.837	702.181	0.019	0.050
-164.823	-84.581	-0.233	0.073
-163.808	34.000	-0.101	0.087
-162.793	-200.000	-0.034	0.155
-161.779	800.000	0.067	-0.199
-160.764	655.511	-0.086	-0.220
-159.750	-1.464	-0.221	0.155
-158.735	-43.703	0.110	-0.055
-157.720	-200.000	0.002	-0.321
-156.706	-200.000	-0.030	0.318
-155.691	141.729	0.052	-0.068
-154.677	-122.042	0.286	0.047
-153.662	800.000	-0.053	0.181
-152.647	481.670	-0.080	0.180
-151.633	0.036	0.139	-0.098
-150.618	-27.600	-0.147	0.085
-149.604	96.561	0.207	0.235
-148.589	-200.000	-0.051	0.354
-147.574	204.180	-0.194	0.299
-146.560	-79.122	0.425	-0.143
-145.545	-10.141	-0.226	-0.149
-144.531	31.125	0.173	-0.147
-143.516	19.803	0.110	-0.088
-142.502	452.977	-0.024	-0.052
-141.487	-99.192	0.207	-0.052
-140.472	578.169	-0.056	-0.135
-139.458	72.576	-0.083	-0.086
-138.443	583.157	-0.033	0.081
-137.429	620.659	-0.218	0.543
-136.414	-5.714	0.256	0.174
-135.399	-125.006	-0.198	0.030
-134.385	140.713	0.136	-0.178
-133.370	-39.018	0.366	0.191
-132.356	4.259	0.372	0.270
-131.341	800.000	-0.039	-0.134
-130.326	800.000	0.043	-0.147
-129.312	537.984	-0.121	0.284
-128.297	11.282	-0.358	0.272
-127.283	800.000	0.062	-0.268
-126.268	800.000	-0.048	0.174
-125.253	-97.925	0.166	-0.042
-124.239	148.083	-0.143	0.191
-123.224	800.000	-0.044	0.131
-122.210	101.230	-0.167	-0.193
