DTS Sentinel unit serial number:	SN413079Multiplexer serial number:	ORYXHardware model number:	OX4-SRSoftware version number:	ORYX F/W v4.00 Oryx Data Collector v3.7.2.0data status	okinstallation	princeton_trtdifferential loss correction	single-endedforward channel	channel 4reverse channel	N/Adate	2019/09/13time	04:37:34forward acquisition time	60.00reverse acquisition time	0.00gamma	496.2192k internal	0.2322k external	0.2322temperature offset calibration	1.0194default loss term (dB/km)	0.3790temperature slope calibration	1.0000multiplexer offset coefficient	1.0000multiplexer slope coefficient	1.0000fibre end	0.00T internal ref (°C)	26.64T ext. ref 1 (°C)	4.03T ext. ref 2 (°C)	21.18length (m)	temperature (°C)	Stokes	anti-Stokes-747.200	-11.381	-0.375	0.249
-746.185	800.000	-0.039	-0.163
-745.171	552.130	-0.055	-0.133
-744.156	-198.632	-0.276	-0.002
-743.142	-47.106	0.130	-0.064
-742.127	-160.280	-0.099	-0.005
-741.112	-46.918	0.184	-0.091
-740.098	-136.669	0.136	0.016
-739.083	-6.118	0.168	0.116
-738.069	-200.000	0.037	0.394
-737.054	-132.582	0.208	0.027
-736.039	-18.832	-0.299	0.188
-735.025	800.000	0.057	-0.240
-734.010	-124.829	-0.411	-0.064
-732.996	-57.658	-0.181	0.080
-731.981	459.724	0.059	0.132
-730.966	2.917	-0.269	-0.197
-729.952	-200.000	0.002	-0.237
-728.937	-77.223	0.044	0.015
-727.923	67.183	-0.295	-0.304
-726.908	75.326	0.235	-0.250
-725.894	19.417	-0.211	-0.172
-724.879	262.181	0.132	0.231
-723.864	81.404	-0.212	-0.232
-722.850	194.212	0.208	-0.319
-721.835	285.012	-0.074	0.135
-720.821	-53.498	-0.209	-0.097
-719.806	-65.455	0.210	-0.085
-718.791	745.613	-0.172	0.467
-717.777	-68.568	0.060	-0.024
-716.762	248.171	-0.153	-0.262
-715.748	-52.972	0.182	-0.084
-714.733	-200.000	-0.006	0.216
-713.718	-34.090	0.105	0.058
-712.704	-55.366	0.086	0.039
-711.689	9.003	0.274	-0.208
-710.675	-138.983	-0.234	0.026
-709.660	800.000	-0.045	-0.143
-708.645	17.180	-0.224	-0.180
-707.631	-37.810	-0.164	0.088
-706.616	-42.675	-0.236	-0.121
-705.602	-142.290	0.305	0.030
-704.587	-102.471	0.252	0.061
-703.572	33.601	0.240	0.210
-702.558	800.000	-0.017	-0.052
-701.543	-200.000	0.000	-0.094
-700.529	161.985	-0.203	-0.287
-699.514	-74.603	-0.353	0.128
-698.499	-66.522	-0.242	0.097
-697.485	800.000	0.133	-0.391
-696.470	-13.053	0.256	-0.168
-695.456	30.286	0.193	-0.166
-694.441	-163.932	-0.186	0.009
-693.426	-200.000	-0.000	0.008
-692.412	-200.000	-0.036	-0.381
-691.397	-54.787	-0.127	0.058
-690.383	-200.000	-0.017	-0.243
-689.368	62.164	0.025	0.025
-688.354	449.256	0.072	-0.161
-687.339	510.452	0.115	-0.270
-686.324	451.809	0.073	-0.162
-685.310	62.013	0.151	-0.152
-684.295	-121.947	0.167	0.028
-683.281	-157.077	-0.351	0.022
-682.266	83.622	-0.189	0.208
-681.251	-118.792	-0.170	-0.030
-680.237	11.590	-0.109	-0.085
-679.222	112.133	0.134	-0.163
-678.208	800.000	-0.121	0.442
-677.193	19.129	0.091	0.074
-676.178	-200.000	0.016	-0.381
-675.164	-126.025	0.181	0.027
-674.149	-53.328	-0.093	0.043
-673.135	800.000	-0.111	0.336
-672.120	115.521	-0.180	0.222
-671.105	146.163	0.161	-0.218
-670.091	95.391	-0.357	-0.410
-669.076	-200.000	-0.004	-0.198
-668.062	644.683	0.053	0.137
-667.047	-151.464	-0.215	0.016
-666.032	30.567	0.336	-0.289
-665.018	479.373	-0.014	-0.032
-664.003	43.426	-0.215	-0.198
-662.989	-200.000	0.045	-0.321
-661.974	-2.276	0.195	0.138
-660.959	297.464	-0.046	-0.085
-659.945	800.000	-0.023	0.077
-658.930	-3.468	-0.193	-0.135
-657.916	187.912	-0.065	0.098
-656.901	-200.000	-0.052	0.237
-655.886	-130.986	-0.234	0.031
-654.872	-90.147	-0.085	0.025
-653.857	800.000	-0.079	0.273
-652.843	-43.963	-0.270	-0.137
-651.828	-180.062	-0.334	-0.007
-650.814	159.508	-0.208	0.291
-649.799	244.766	0.043	-0.073
-648.784	90.870	0.121	0.137
-647.770	-52.777	0.245	0.114
-646.755	-200.000	-0.008	0.168
-645.741	-41.487	0.262	0.136
-644.726	-51.750	-0.056	-0.026
-643.711	-62.960	-0.021	-0.009
-642.697	-73.241	0.316	0.116
-641.682	-200.000	-0.029	0.539
-640.668	-20.974	-0.024	-0.015
-639.653	-58.179	-0.207	0.091
-638.638	800.000	-0.040	-0.127
-637.624	129.435	-0.176	0.227
-636.609	-90.843	-0.258	-0.075
-635.595	-70.758	0.401	0.152
-634.580	164.576	0.200	0.284
-633.565	-14.707	0.048	-0.031
-632.551	-200.000	0.016	-0.180
-631.536	56.917	-0.220	-0.216
-630.522	-136.582	0.281	0.033
-629.507	-137.771	0.190	0.021
-628.492	-200.000	-0.008	-0.116
-627.478	-200.000	0.035	0.265
-626.463	-200.000	-0.034	-0.158
-625.449	213.807	0.151	0.240
-624.434	800.000	0.055	-0.170
-623.419	418.659	-0.107	0.231
-622.405	268.909	-0.075	0.133
-621.390	-53.311	-0.166	-0.077
-620.376	245.003	0.200	-0.338
-619.361	276.803	0.067	0.120
-618.346	15.948	0.053	0.042
-617.332	64.323	-0.267	-0.271
-616.317	-12.741	-0.191	0.125
-615.303	175.422	-0.129	-0.187
-614.288	-200.000	-0.018	0.148
-613.273	141.748	-0.211	-0.280
-612.259	-156.674	-0.235	0.015
-611.244	-200.000	-0.001	-0.204
-610.230	96.904	-0.307	-0.353
-609.215	74.610	-0.255	-0.270
-608.201	-200.000	0.032	-0.480
-607.186	-200.000	0.009	-0.123
-606.171	-79.212	-0.011	0.004
-605.157	-33.097	0.084	-0.047
-604.142	536.271	-0.048	0.114
-603.128	-97.824	0.442	-0.115
-602.113	195.228	0.227	0.346
-601.098	-125.621	0.198	-0.030
-600.084	-152.663	0.508	-0.036
-599.069	-39.454	0.354	-0.187
-598.055	-200.000	0.042	-0.427
-597.040	464.637	-0.027	-0.060
-596.025	-30.817	-0.318	-0.180
-595.011	-200.000	-0.080	-0.376
-593.996	-61.193	0.039	0.017
-592.982	-2.035	0.200	0.141
-591.967	355.283	0.126	0.252
-590.952	-200.000	0.049	0.260
-589.938	-78.785	0.306	-0.105
-588.923	-200.000	-0.048	-0.290
-587.909	-102.681	0.025	-0.006
-586.894	-83.557	-0.382	0.123
-585.879	-71.790	-0.190	-0.071
-584.865	-164.021	0.381	0.018
-583.850	-14.365	0.089	-0.058
-582.836	-158.035	-0.035	-0.002
-581.821	-30.779	0.375	0.213
-580.806	-47.423	-0.293	-0.143
-579.792	-200.000	0.028	0.127
-578.777	-200.000	0.042	0.364
-577.763	260.504	-0.077	0.133
-576.748	191.868	-0.028	-0.042
-575.733	-200.000	0.024	0.187
-574.719	95.025	0.317	0.362
-573.704	-200.000	0.039	-0.193
-572.690	-158.493	0.033	0.002
-571.675	82.868	0.099	0.108
-570.661	-93.327	-0.311	0.087
-569.646	800.000	0.086	0.261
-568.631	96.520	0.344	0.395
-567.617	-200.000	-0.065	0.289
-566.602	-200.000	-0.005	-0.231
-565.588	-122.209	-0.141	0.023
-564.573	-35.581	0.066	-0.036
-563.558	-200.000	-0.018	0.100
-562.544	800.000	-0.070	-0.203
-561.529	-200.000	0.008	-0.352
-560.515	-73.721	-0.041	0.015
-559.500	36.264	0.156	0.138
-558.485	-59.190	-0.109	0.047
-557.471	800.000	0.059	0.165
-556.456	-26.057	0.089	0.053
-555.442	-129.349	-0.132	-0.018
-554.427	153.550	-0.173	0.237
-553.412	-200.000	0.009	-0.108
-552.398	-124.845	0.117	-0.018
-551.383	-16.072	-0.178	-0.113
-550.369	-25.499	-0.081	0.048
-549.354	-200.000	-0.012	-0.197
-548.339	-70.372	0.214	-0.082
-547.325	-200.000	0.086	-0.386
-546.310	800.000	0.037	-0.110
-545.296	-102.709	0.149	-0.036
-544.281	-71.184	0.321	0.121
-543.266	-117.288	-0.448	-0.081
-542.252	-143.553	0.385	-0.037
-541.237	800.000	0.070	0.271
-540.223	33.907	0.125	-0.109
-539.208	-140.384	-0.117	-0.012
-538.193	369.105	-0.175	-0.354
-537.179	-129.050	-0.230	-0.032
-536.164	621.419	-0.070	0.178
-535.150	-117.878	0.310	0.056
-534.135	-103.215	-0.283	0.067
-533.121	-42.251	0.033	0.017
-532.106	-60.735	-0.160	-0.068
-531.091	739.873	0.069	-0.186
-530.077	-200.000	-0.029	-0.153
-529.062	-105.533	0.244	0.056
-528.048	-129.761	0.162	-0.022
-527.033	800.000	0.089	0.298
-526.018	-93.080	0.275	-0.077
-525.004	-142.408	0.073	-0.007
-523.989	800.000	-0.054	0.179
-522.975	23.737	0.216	0.178
-521.960	800.000	0.008	-0.021
-520.945	-200.000	-0.002	-0.358
-519.931	-166.260	-0.155	-0.007
-518.916	-104.706	0.071	-0.016
-517.902	-36.026	0.207	-0.112
-516.887	-37.519	0.192	-0.103
-515.872	76.157	-0.174	-0.185
-514.858	-131.605	0.085	0.011
-513.843	-200.000	-0.001	-0.255
-512.829	307.001	0.098	-0.183
-511.814	-97.468	-0.215	-0.056
-510.799	800.000	-0.117	0.360
-509.785	-112.884	0.166	0.033
-508.770	72.201	-0.145	0.152
-507.756	-4.053	-0.202	-0.140
-506.741	85.119	0.148	0.163
-505.726	-9.367	-0.534	-0.357
-504.712	31.987	0.181	0.156
-503.697	270.029	-0.087	0.154
-502.683	800.000	0.053	-0.156
-501.668	800.000	-0.051	0.158
-500.653	-200.000	0.036	-0.253
-499.639	3.959	0.065	0.048
-498.624	-85.766	-0.329	-0.102
-497.610	131.106	-0.145	0.186
-496.595	-77.970	-0.149	-0.051
-495.581	-200.000	-0.004	0.098
-494.566	2.630	-0.308	-0.223
-493.551	-22.171	0.154	0.093
-492.537	463.437	-0.046	0.103
-491.522	800.000	-0.027	-0.101
-490.508	800.000	0.039	-0.168
-489.493	411.542	-0.102	-0.217
-488.478	-200.000	-0.018	-0.167
-487.464	107.958	-0.101	0.121
-486.449	93.442	0.142	0.161
-485.435	-105.614	-0.256	0.058
-484.420	-15.915	0.213	-0.136
-483.405	573.853	-0.106	0.258
-482.391	-200.000	-0.048	-0.313
-481.376	196.429	-0.102	-0.155
-480.362	261.775	-0.130	0.225
-479.347	800.000	-0.088	0.293
-478.332	-74.998	-0.076	-0.027
-477.318	-200.000	0.048	-0.226
-476.303	-26.554	0.329	-0.193
-475.289	58.208	-0.130	0.127
-474.274	184.417	0.226	0.335
-473.259	-117.374	-0.213	-0.039
-472.245	-61.274	0.047	0.020
-471.230	30.772	-0.068	-0.058
-470.216	131.457	0.023	-0.030
-469.201	6.772	-0.310	0.231
-468.186	-109.136	-0.105	0.022
-467.172	-129.289	-0.130	-0.018
-466.157	-180.894	0.179	0.004
-465.143	-126.000	0.148	0.022
-464.128	-116.870	0.235	-0.043
-463.113	13.328	-0.392	-0.303
-462.099	-172.677	0.126	-0.004
-461.084	403.738	-0.022	-0.046
-460.070	92.313	0.094	-0.106
-459.055	800.000	-0.041	-0.178
-458.040	-132.667	-0.299	0.038
-457.026	-106.420	0.280	0.062
-456.011	-80.061	0.092	-0.031
-454.997	-200.000	-0.005	-0.395
-453.982	-79.640	0.086	-0.029
-452.968	-200.000	-0.069	0.342
-451.953	5.946	0.219	-0.162
-450.938	-155.283	-0.365	-0.024
-449.924	-103.175	0.260	0.061
-448.909	33.901	0.118	-0.102
-447.895	48.637	-0.033	-0.030
-446.880	-6.043	0.187	-0.127
-445.865	362.354	-0.182	-0.365
-444.851	-200.000	0.000	-0.070
-443.836	-166.821	0.006	-0.000
-442.822	316.261	-0.055	0.105
-441.807	-23.569	0.270	-0.162
-440.792	-71.313	0.355	-0.133
-439.778	-73.802	-0.288	-0.105
-438.763	-200.000	0.020	0.303
-437.749	-65.343	0.160	0.064
-436.734	113.122	-0.202	-0.245
-435.719	800.000	0.042	0.163
-434.705	-5.712	0.399	0.273
-433.690	-26.042	-0.265	0.156
-432.676	3.967	-0.270	-0.197
-431.661	-101.753	-0.217	0.053
-430.646	-95.944	0.170	-0.045
-429.632	-200.000	0.040	0.276
-428.617	232.308	0.171	0.280
-427.603	-90.237	0.311	0.090
-426.588	-40.897	0.347	0.179
-425.573	166.147	0.156	0.220
-424.559	759.093	0.042	-0.113
-423.544	18.848	0.105	0.084
-422.530	-124.269	0.281	-0.044
-421.515	285.510	-0.190	0.341
-420.500	129.645	-0.279	-0.356
-419.486	436.738	0.057	-0.124
-418.471	-7.946	0.261	0.175
-417.457	302.727	0.210	-0.388
-416.442	-200.000	-0.013	-0.314
-415.428	800.000	-0.076	0.214
-414.413	633.112	-0.083	-0.209
-413.398	-124.512	-0.270	0.042
-412.384	-51.103	0.205	-0.096
-411.369	-153.947	0.243	-0.017
-410.355	234.975	0.266	0.438
-409.340	272.643	-0.242	-0.426
-408.325	-102.070	0.231	-0.055
-407.311	393.394	-0.185	-0.385
-406.296	-111.490	-0.457	0.093
-405.282	-58.605	0.365	-0.158
-404.267	-125.635	-0.209	0.032
-403.252	-62.615	-0.213	0.088
-402.238	57.508	-0.180	0.176
-401.223	800.000	-0.068	0.229
-400.209	-200.000	-0.013	-0.149
-399.194	800.000	-0.026	0.097
-398.179	148.543	-0.012	0.016
-397.165	7.603	0.069	0.051
-396.150	-200.000	0.025	-0.284
-395.136	800.000	-0.051	0.199
-394.121	107.621	-0.078	0.093
-393.106	-126.990	-0.465	0.068
-392.092	-165.918	-0.104	-0.004
-391.077	-200.000	-0.029	0.135
-390.063	43.375	0.167	0.152
-389.048	101.198	0.080	0.092
-388.033	-2.251	0.044	-0.031
-387.019	187.275	-0.095	0.141
-386.004	74.701	0.169	0.177
-384.990	-172.212	0.062	0.002
-383.975	6.563	-0.053	0.040
-382.960	-77.833	0.121	-0.042
-381.946	-34.711	-0.082	0.045
-380.931	-166.268	-0.154	-0.006
-379.917	-54.316	0.195	-0.088
-378.902	-163.442	0.215	-0.010
-377.888	-124.234	0.195	0.030
-376.873	340.330	-0.162	-0.315
-375.858	800.000	0.059	0.166
-374.844	-131.182	0.187	0.025
-373.829	358.498	0.099	-0.196
-372.815	-200.000	-0.044	0.412
-371.800	23.313	0.049	-0.040
-370.785	-200.000	0.073	-0.408
-369.771	116.862	-0.297	0.363
-368.756	-200.000	0.020	-0.335
-367.742	38.428	-0.148	-0.131
-366.727	-200.000	-0.337	-0.000
-365.712	-200.000	-0.043	0.394
-364.698	33.694	0.161	-0.139
-363.683	107.149	-0.133	0.158
-362.669	-200.000	0.054	0.273
-361.654	800.000	0.023	0.088
-360.639	-200.000	-0.000	-0.075
-359.625	-67.924	0.224	-0.087
-358.610	253.372	-0.070	0.119
-357.596	-89.125	0.343	-0.101
-356.581	18.046	-0.241	-0.191
-355.566	-19.058	0.318	-0.197
-354.552	-200.000	-0.010	-0.111
-353.537	-200.000	0.002	0.116
-352.523	205.830	-0.121	0.187
-351.508	487.709	0.062	0.140
-350.493	-148.383	-0.193	-0.016
-349.479	-200.000	0.014	-0.179
-348.464	-200.000	-0.015	-0.151
-347.450	-200.000	-0.012	0.097
-346.435	247.209	0.060	0.101
-345.420	-63.311	-0.128	-0.052
-344.406	-200.000	0.041	-0.305
-343.391	70.824	-0.013	-0.014
-342.377	-82.789	-0.050	-0.016
-341.362	42.488	-0.082	0.074
-340.348	800.000	-0.093	0.319
-339.333	-40.199	-0.303	-0.157
-338.318	204.459	0.049	-0.076
-337.304	539.626	0.068	0.161
-336.289	92.914	0.141	-0.158
-335.275	-57.168	0.132	0.058
-334.260	231.305	-0.101	-0.164
-333.245	-200.000	0.012	-0.182
-332.231	631.962	-0.066	0.165
-331.216	800.000	-0.105	-0.355
-330.202	800.000	-0.027	-0.100
-329.187	24.412	0.139	-0.114
-328.172	-200.000	0.005	0.072
-327.158	-200.000	-0.005	-0.081
-326.143	-200.000	0.001	0.059
-325.129	-82.491	-0.105	0.034
-324.114	776.587	-0.056	-0.151
-323.099	23.693	-0.054	-0.044
-322.085	-81.687	0.318	0.104
-321.070	285.408	-0.106	-0.189
-320.056	-49.493	0.367	0.174
-319.041	-65.204	-0.097	-0.039
-318.026	57.104	0.134	-0.130
-317.012	800.000	-0.049	-0.164
-315.997	800.000	0.111	0.322
-314.983	-158.158	-0.163	-0.009
-313.968	86.941	0.122	-0.134
-312.953	65.354	-0.224	-0.225
-311.939	361.834	0.107	-0.213
-310.924	63.626	0.265	-0.264
-309.910	-62.907	0.144	0.059
-308.895	-200.000	0.035	0.175
-307.880	247.760	0.133	0.223
-306.866	-200.000	0.001	0.101
-305.851	-11.755	-0.055	-0.036
-304.837	-37.930	-0.175	-0.092
-303.822	-3.741	-0.204	-0.140
-302.807	143.428	-0.121	0.160
-301.793	-47.700	0.353	-0.170
-300.778	399.795	-0.140	0.292
-299.764	519.075	-0.048	-0.112
-298.749	-200.000	-0.096	-0.443
-297.735	-200.000	-0.012	-0.267
-296.720	-2.480	0.318	0.221
-295.705	800.000	0.083	-0.274
-294.691	74.351	-0.116	-0.121
-293.676	73.441	0.121	0.125
-292.662	-200.000	0.036	0.285
-291.647	711.144	0.047	0.123
-290.632	-74.387	0.057	-0.020
-289.618	566.972	-0.166	0.401
-288.603	-54.159	-0.100	0.045
-287.589	700.076	-0.118	0.308
-286.574	266.964	-0.067	-0.116
-285.559	578.300	0.111	-0.270
-284.545	317.510	0.105	0.198
-283.530	402.384	-0.063	-0.131
-282.516	-200.000	0.027	-0.395
-281.501	230.695	-0.111	0.180
-280.486	-69.351	0.198	0.076
-279.472	47.108	-0.116	0.107
-278.457	-200.000	-0.011	-0.220
-277.443	-48.375	0.139	-0.067
-276.428	104.952	-0.209	0.244
-275.413	800.000	-0.070	-0.195
-274.399	453.636	0.079	-0.174
-273.384	-4.305	0.302	0.207
-272.370	-17.823	0.105	-0.065
-271.355	-78.308	-0.154	-0.052
-270.340	-41.233	0.111	0.057
-269.326	707.456	-0.110	0.288
-268.311	-112.116	-0.372	-0.074
-267.297	800.000	0.087	-0.294
-266.282	-117.029	-0.061	0.011
-265.267	491.126	0.039	-0.089
-264.253	-176.564	0.314	-0.008
-263.238	341.161	-0.202	-0.392
-262.224	204.595	-0.066	0.102
-261.209	800.000	0.025	0.100
-260.195	-200.000	0.071	-0.314
-259.180	-115.598	-0.299	-0.056
-258.165	571.996	-0.041	0.099
-257.151	-12.833	-0.015	-0.010
-256.136	-68.527	-0.080	0.031
-255.122	38.345	0.122	0.108
-254.107	512.268	0.061	-0.142
-253.092	-26.604	-0.177	-0.103
-252.078	800.000	-0.100	0.338
-251.063	-74.779	0.271	-0.097
-250.049	-80.735	-0.332	-0.109
-249.034	384.622	0.156	0.319
-248.019	800.000	-0.218	0.609
-247.005	-77.016	-0.187	0.065
-245.990	-57.443	-0.055	0.024
-244.976	-200.000	0.007	0.180
-243.961	138.130	-0.189	0.246
-242.946	222.270	0.156	0.249
-241.932	-125.838	-0.369	-0.055
-240.917	-53.937	-0.234	0.106
-239.903	66.589	0.202	0.204
-238.888	-11.655	-0.185	-0.120
-237.873	800.000	-0.084	-0.278
-236.859	182.690	0.101	0.147
-235.844	-129.156	0.220	-0.030
-234.830	-81.818	0.291	0.094
-233.815	-200.000	0.029	-0.295
-232.800	-30.818	-0.232	-0.130
-231.786	-4.672	0.110	0.075
-230.771	-200.000	-0.014	0.175
-229.757	-26.227	0.325	0.189
-228.742	240.199	-0.154	0.255
-227.727	64.458	0.104	-0.104
-226.713	298.643	0.064	0.117
-225.698	128.308	-0.101	0.127
-224.684	800.000	0.041	-0.119
-223.669	800.000	0.091	-0.269
-222.655	107.442	-0.043	-0.051
-221.640	520.182	-0.063	0.147
-220.625	522.535	-0.129	0.300
-219.611	800.000	-0.012	0.045
-218.596	-153.908	0.183	-0.012
-217.582	800.000	0.050	-0.196
-216.567	-99.344	-0.285	0.071
-215.552	-91.866	0.167	-0.047
-214.538	-111.327	-0.179	-0.036
-213.523	-57.101	-0.296	0.129
-212.509	-72.398	-0.137	0.050
-211.494	-200.000	0.001	-0.113
-210.479	140.973	0.187	0.244
-209.465	-87.160	0.108	0.032
-208.450	30.554	0.385	0.325
-207.436	-93.871	0.026	-0.007
-206.421	-106.252	-0.206	0.046
-205.406	518.320	0.149	0.345
-204.392	-30.381	-0.412	0.231
-203.377	199.794	0.012	0.019
-202.363	17.057	-0.066	-0.052
-201.348	555.562	0.011	0.026
-200.333	-116.518	0.215	-0.039
-199.319	717.453	-0.106	0.279
-198.304	72.323	-0.058	-0.060
-197.290	-127.711	0.247	0.035
-196.275	28.838	0.055	0.046
-195.260	138.065	-0.161	0.208
-194.246	107.806	0.185	0.218
-193.231	24.778	0.301	0.246
-192.217	-97.743	-0.435	0.111
-191.202	323.045	0.071	0.134
-190.187	-170.583	-0.308	0.011
-189.173	177.008	-0.117	0.168
-188.158	-87.372	-0.487	0.146
-187.144	-41.339	0.191	0.098
-186.129	-200.000	-0.006	-0.189
-185.114	800.000	0.050	0.161
-184.100	-115.893	-0.205	0.038
-183.085	-200.000	-0.006	-0.442
-182.071	141.070	-0.097	-0.127
-181.056	-66.862	-0.209	0.082
-180.042	800.000	-0.049	0.202
-179.027	800.000	-0.061	-0.174
-178.012	-0.553	-0.299	-0.210
-176.998	16.522	0.124	0.096
-175.983	-37.088	-0.252	0.133
-174.969	-104.324	0.175	0.040
-173.954	-200.000	0.025	-0.323
-172.939	-47.355	0.060	-0.029
-171.925	-78.081	0.086	0.029
-170.910	800.000	0.009	-0.037
-169.896	-83.408	-0.188	0.060
-168.881	-43.064	-0.143	-0.072
-167.866	-113.456	0.044	-0.009
-166.852	594.643	0.083	-0.202
-165.837	-173.273	0.037	0.001
-164.823	282.548	-0.030	0.053
-163.808	47.756	-0.158	-0.146
-162.793	-142.906	-0.551	-0.053
-161.779	-7.593	-0.234	0.156
-160.764	-22.967	-0.069	0.041
-159.750	-200.000	-0.080	-0.398
-158.735	361.918	-0.060	-0.119
-157.720	-141.591	0.214	0.021
-156.706	-152.658	0.309	0.022
-155.691	-111.164	-0.129	0.026
-154.677	2.058	0.355	0.253
-153.662	488.605	-0.077	-0.173
-152.647	-200.000	-0.039	-0.410
-151.633	-90.293	0.182	-0.052
-150.618	551.750	-0.086	0.205
-149.604	800.000	0.106	-0.311
-148.589	-138.735	-0.157	0.017
-147.574	0.793	-0.272	0.192
-146.560	-24.591	-0.135	-0.079
-145.545	230.793	0.016	-0.026
-144.531	-48.963	0.365	0.173
-143.516	-88.145	-0.100	-0.030
-142.502	800.000	-0.082	0.248
-141.487	-58.646	0.347	0.148
-140.472	-98.932	0.332	0.083
-139.458	384.823	-0.014	0.029
-138.443	-200.000	0.010	-0.087
-137.429	-200.000	-0.004	0.112
-136.414	200.114	0.219	0.332
-135.399	-4.287	-0.160	0.109
-134.385	-139.606	-0.192	-0.020
-133.370	20.214	-0.147	-0.117
-132.356	-134.156	0.491	0.060
-131.341	332.130	-0.048	0.090
-130.326	-43.026	-0.096	0.048
-129.312	-57.479	-0.250	-0.108
-128.297	-62.216	-0.468	-0.193
-127.283	-122.711	-0.116	0.019
-126.268	-160.308	0.178	0.009
-125.253	800.000	0.020	-0.082
-124.239	-109.664	0.119	-0.025
-123.224	800.000	0.043	-0.180
-122.210	-80.830	-0.088	0.029
