DTS Sentinel unit serial number:	SN413079Multiplexer serial number:	ORYXHardware model number:	OX4-SRSoftware version number:	ORYX F/W v4.00 Oryx Data Collector v3.7.2.0data status	okinstallation	princeton_trtdifferential loss correction	single-endedforward channel	channel 4reverse channel	N/Adate	2019/09/18time	14:29:34forward acquisition time	60.00reverse acquisition time	0.00gamma	496.2192k internal	0.2301k external	0.2301temperature offset calibration	0.9998default loss term (dB/km)	0.3790temperature slope calibration	1.0000multiplexer offset coefficient	1.0000multiplexer slope coefficient	1.0000fibre end	0.00T internal ref (°C)	34.37T ext. ref 1 (°C)	0.69T ext. ref 2 (°C)	31.39length (m)	temperature (°C)	Stokes	anti-Stokes-747.200	-31.520	-0.243	0.140
-746.185	-200.000	0.049	0.253
-745.171	-200.000	-0.016	-0.088
-744.156	800.000	0.219	0.687
-743.142	302.594	-0.032	-0.060
-742.127	-200.000	0.027	0.195
-741.112	-200.000	0.030	-0.138
-740.098	36.079	0.117	-0.105
-739.083	223.502	0.104	-0.172
-738.069	425.991	-0.056	0.124
-737.054	-200.000	0.023	0.113
-736.039	800.000	-0.128	-0.448
-735.025	117.011	0.119	0.149
-734.010	222.695	0.073	0.120
-732.996	-54.281	-0.118	-0.055
-731.981	-200.000	0.057	0.267
-730.966	140.536	-0.162	-0.218
-729.952	32.026	-0.260	-0.228
-728.937	-200.000	0.046	-0.264
-727.923	-200.000	-0.008	0.131
-726.908	19.025	0.064	0.053
-725.894	-102.046	-0.200	0.049
-724.879	329.077	0.107	0.210
-723.864	236.820	-0.044	-0.075
-722.850	-200.000	-0.045	0.295
-721.835	800.000	0.056	0.163
-720.821	482.542	-0.100	-0.231
-719.806	-200.000	0.023	-0.107
-718.791	5.806	-0.398	0.300
-717.777	30.913	-0.303	-0.265
-716.762	-87.994	-0.184	0.056
-715.748	-89.649	0.031	-0.009
-714.733	105.966	-0.172	0.207
-713.718	339.824	-0.080	0.159
-712.704	-62.906	0.290	0.122
-711.689	-146.604	-0.126	0.011
-710.675	7.761	0.242	0.185
-709.660	155.523	-0.111	-0.156
-708.645	11.992	0.077	-0.061
-707.631	800.000	-0.094	0.269
-706.616	-96.109	-0.415	-0.112
-705.602	-120.317	-0.202	0.035
-704.587	52.832	-0.250	-0.243
-703.572	440.977	0.061	-0.136
-702.558	-7.404	-0.149	0.103
-701.543	-200.000	0.011	-0.131
-700.529	392.068	0.035	0.074
-699.514	-1.801	0.112	-0.080
-698.499	239.513	-0.055	0.094
-697.485	-40.700	-0.207	0.109
-696.470	-115.277	-0.303	-0.058
-695.456	392.452	0.140	0.295
-694.441	800.000	-0.078	-0.222
-693.426	-15.836	-0.280	-0.181
-692.412	-200.000	-0.021	-0.106
-691.397	159.868	0.099	0.140
-690.383	-7.443	-0.257	0.177
-689.368	-94.156	0.296	0.083
-688.354	-2.160	-0.097	-0.070
-687.339	800.000	0.110	-0.319
-686.324	-74.585	0.151	0.055
-685.310	-37.241	-0.123	-0.067
-684.295	-155.307	-0.272	-0.018
-683.281	36.972	-0.076	-0.068
-682.266	3.311	-0.126	0.093
-681.251	92.149	0.068	0.078
-680.237	-121.400	-0.182	0.031
-679.222	-200.000	0.028	0.144
-678.208	-200.000	-0.019	0.125
-677.193	800.000	-0.101	-0.302
-676.178	-20.445	-0.157	0.098
-675.164	-200.000	0.025	-0.134
-674.149	-76.504	-0.181	-0.065
-673.135	543.692	-0.105	-0.256
-672.120	-200.000	0.010	-0.229
-671.105	41.326	-0.072	0.067
-670.091	134.499	0.185	0.244
-669.076	-200.000	-0.029	-0.243
-668.062	24.410	-0.216	0.182
-667.047	41.429	0.217	0.199
-666.032	-18.054	0.258	0.164
-665.018	-200.000	0.016	-0.107
-664.003	164.838	-0.233	-0.335
-662.989	528.053	-0.104	-0.249
-661.974	-86.669	-0.030	-0.009
-660.959	151.054	0.189	-0.261
-659.945	800.000	-0.054	-0.173
-658.930	-119.507	0.139	0.024
-657.916	800.000	0.036	-0.129
-656.901	127.375	-0.089	0.115
-655.886	172.597	0.072	-0.105
-654.872	-81.178	0.201	0.068
-653.857	-200.000	-0.006	0.030
-652.843	-200.000	0.010	-0.225
-651.828	-133.671	-0.173	-0.022
-650.814	194.143	-0.021	0.033
-649.799	-133.487	-0.118	-0.015
-648.784	-44.113	0.172	-0.088
-647.770	127.829	0.103	-0.133
-646.755	166.375	-0.141	0.203
-645.741	71.816	0.115	0.121
-644.726	-200.000	0.012	0.414
-643.711	-64.022	-0.260	0.108
-642.697	28.124	0.074	0.063
-641.682	-33.970	-0.260	-0.145
-640.668	-200.000	-0.046	-0.292
-639.653	-141.246	0.113	-0.012
-638.638	-200.000	0.045	0.264
-637.624	-46.070	-0.065	0.032
-636.609	-163.725	0.174	-0.008
-635.595	-26.839	0.270	-0.160
-634.580	800.000	-0.081	-0.298
-633.565	-200.000	0.014	-0.281
-632.551	56.511	0.236	0.233
-631.536	146.225	-0.125	0.170
-630.522	112.536	0.180	0.222
-629.507	800.000	0.037	-0.108
-628.492	134.795	-0.014	-0.018
-627.478	-200.000	0.076	0.358
-626.463	-129.446	-0.271	0.038
-625.449	745.291	0.037	0.102
-624.434	-200.000	-0.013	-0.343
-623.419	-46.724	0.105	-0.052
-622.405	-63.861	0.038	-0.016
-621.390	-43.156	0.187	0.096
-620.376	95.322	-0.070	0.081
-619.361	-17.298	-0.396	0.253
-618.346	-112.350	0.242	-0.049
-617.332	-16.037	0.092	-0.059
-616.317	19.567	-0.370	-0.302
-615.303	99.286	0.141	-0.166
-614.288	111.000	0.139	0.170
-613.273	-134.726	-0.268	-0.033
-612.259	-200.000	-0.024	-0.134
-611.244	-137.917	-0.313	-0.035
-610.230	8.499	-0.159	0.122
-609.215	84.418	0.261	-0.289
-608.201	-200.000	0.050	0.289
-607.186	-130.989	-0.219	-0.030
-606.171	-200.000	-0.001	0.037
-605.157	-200.000	0.001	-0.015
-604.142	800.000	-0.110	-0.317
-603.128	-200.000	0.036	0.180
-602.113	-123.490	-0.235	0.038
-601.098	110.565	-0.042	0.051
-600.084	312.538	-0.087	0.166
-599.069	512.450	-0.080	0.188
-598.055	-59.986	-0.300	-0.130
-597.040	-200.000	-0.031	-0.235
-596.025	631.811	0.046	0.118
-595.011	-200.000	0.007	-0.287
-593.996	98.918	0.261	0.306
-592.982	53.494	0.163	-0.158
-591.967	-200.000	-0.016	-0.082
-590.952	-69.494	-0.367	-0.143
-589.938	-68.901	0.045	-0.018
-588.923	151.010	-0.157	-0.217
-587.909	436.401	0.124	0.273
-586.894	420.281	0.146	0.316
-585.879	-21.937	0.298	-0.184
-584.865	446.836	0.161	0.358
-583.850	-91.547	0.173	-0.050
-582.836	-200.000	0.003	0.105
-581.821	-139.833	0.117	0.013
-580.806	6.877	-0.288	-0.217
-579.792	45.977	-0.064	-0.060
-578.777	-122.067	0.286	-0.048
-577.763	800.000	0.066	0.194
-576.748	269.301	-0.070	-0.124
-575.733	-180.699	0.307	0.006
-574.719	-85.067	-0.060	-0.019
-573.704	-200.000	0.032	0.448
-572.690	800.000	-0.018	-0.058
-571.675	-200.000	0.004	-0.125
-570.661	238.304	0.112	0.188
-569.646	378.335	0.176	-0.365
-568.631	-200.000	-0.021	0.276
-567.617	15.096	0.156	0.124
-566.602	134.676	-0.200	-0.263
-565.588	-69.405	0.134	0.052
-564.573	686.638	0.102	-0.271
-563.558	-150.690	-0.254	0.020
-562.544	-124.480	-0.016	0.003
-561.529	-200.000	0.025	-0.193
-560.515	-200.000	-0.038	-0.274
-559.500	-122.159	0.132	-0.022
-558.485	-116.947	-0.491	-0.091
-557.471	-37.131	-0.037	-0.020
-556.456	274.157	-0.149	0.268
-555.442	62.697	0.149	-0.151
-554.427	142.188	0.135	0.182
-553.412	325.239	0.063	-0.123
-552.398	-200.000	-0.123	-0.001
-551.383	43.263	-0.192	0.178
-550.369	514.963	0.076	0.179
-549.354	800.000	-0.071	0.239
-548.339	440.034	-0.022	0.049
-547.325	-25.046	-0.084	0.051
-546.310	-60.287	-0.161	-0.070
-545.296	-200.000	0.030	-0.264
-544.281	-161.459	-0.336	-0.018
-543.266	63.119	-0.229	-0.232
-542.252	-166.862	0.160	0.007
-541.237	-83.056	0.298	0.097
-540.223	759.595	0.109	0.299
-539.208	32.377	-0.147	-0.128
-538.193	-85.740	-0.405	-0.127
-537.179	-100.145	0.287	-0.072
-536.164	-85.448	0.147	-0.046
-535.150	104.670	-0.041	0.049
-534.135	-94.076	0.090	0.025
-533.121	-101.034	-0.232	0.058
-532.106	556.025	0.057	-0.138
-531.091	210.594	0.035	-0.055
-530.077	-60.157	0.152	-0.066
-529.062	-19.997	-0.121	0.076
-528.048	212.721	-0.069	-0.111
-527.033	-67.800	-0.369	0.146
-526.018	-47.087	0.326	-0.161
-525.004	-62.363	0.366	-0.154
-523.989	-8.136	0.257	0.175
-522.975	-122.752	-0.137	-0.022
-521.960	-200.000	-0.038	0.387
-520.945	-136.623	0.240	0.028
-519.931	29.091	-0.140	0.120
-518.916	-200.000	-0.022	0.316
-517.902	214.453	-0.107	-0.171
-516.887	-67.443	0.069	-0.027
-515.872	165.616	-0.224	-0.320
-514.858	104.409	0.163	0.194
-513.843	800.000	0.084	-0.302
-512.829	-12.868	0.265	-0.175
-511.814	-25.905	-0.201	-0.120
-510.799	-41.224	-0.097	0.051
-509.785	-9.165	-0.152	-0.103
-508.770	-83.109	0.064	-0.021
-507.756	13.248	-0.198	-0.155
-506.741	547.416	0.091	0.220
-505.726	-200.000	0.006	-0.043
-504.712	-23.077	-0.403	0.245
-503.697	-58.002	0.147	-0.065
-502.683	-200.000	0.050	-0.397
-501.668	-200.000	-0.031	-0.158
-500.653	-8.263	0.231	-0.157
-499.639	800.000	-0.059	-0.182
-498.624	67.631	0.062	-0.064
-497.610	-80.135	-0.061	0.021
-496.595	103.249	-0.107	-0.127
-495.581	154.533	-0.053	-0.074
-494.566	-200.000	0.060	-0.323
-493.551	-200.000	-0.019	0.139
-492.537	-40.000	-0.490	-0.258
-491.522	-127.761	-0.236	0.034
-490.508	364.150	-0.248	0.505
-489.493	12.132	0.051	-0.039
-488.478	-81.086	-0.269	0.090
-487.464	-200.000	-0.010	0.262
-486.449	92.507	-0.211	0.240
-485.435	-200.000	0.032	0.174
-484.420	-200.000	-0.042	-0.212
-483.405	44.908	0.089	0.083
-482.391	800.000	-0.077	-0.256
-481.376	-36.938	-0.082	0.044
-480.362	-60.638	0.101	0.043
-479.347	-200.000	0.020	0.134
-478.332	-41.426	-0.224	-0.116
-477.318	-200.000	0.001	-0.260
-476.303	366.121	0.087	-0.178
-475.289	-51.451	0.097	-0.046
-474.274	103.389	-0.171	-0.203
-473.259	800.000	-0.066	-0.220
-472.245	-200.000	-0.008	-0.198
-471.230	800.000	-0.033	-0.140
-470.216	-200.000	0.009	0.310
-469.201	800.000	0.091	-0.263
-468.186	361.799	-0.024	-0.049
-467.172	16.943	-0.193	0.154
-466.157	-200.000	0.011	-0.064
-465.143	201.267	0.107	0.167
-464.128	-200.000	-0.004	-0.195
-463.113	232.808	-0.132	-0.218
-462.099	-126.706	0.233	0.035
-461.084	235.618	0.117	-0.195
-460.070	-200.000	-0.010	-0.271
-459.055	-41.249	0.125	-0.065
-458.040	566.686	-0.081	-0.198
-457.026	81.516	0.348	-0.380
-456.011	-2.478	-0.299	-0.211
-454.997	-168.205	0.228	-0.009
-453.982	-91.373	-0.156	0.045
-452.968	94.873	-0.070	0.080
-451.953	-58.107	0.561	0.247
-450.938	-200.000	0.058	0.561
-449.924	240.982	0.070	0.118
-448.909	541.837	-0.156	0.375
-447.895	153.111	0.054	-0.075
-446.880	163.752	-0.086	0.122
-445.865	-30.560	-0.207	0.118
-444.851	375.931	-0.050	0.102
-443.836	-17.351	-0.080	0.051
-442.822	-200.000	0.026	0.234
-441.807	-200.000	-0.015	0.070
-440.792	-65.419	0.136	-0.055
-439.778	-21.170	0.271	0.167
-438.763	371.165	0.082	-0.167
-437.749	-200.000	0.021	-0.288
-436.734	-200.000	0.026	-0.144
-435.719	-99.307	-0.361	-0.092
-434.705	204.983	0.121	0.189
-433.690	425.582	-0.151	-0.327
-432.676	-200.000	0.055	0.258
-431.661	-109.315	-0.065	0.014
-430.646	46.553	0.092	-0.086
-429.632	-19.216	0.182	-0.114
-428.617	-145.402	0.324	0.029
-427.603	-162.365	-0.260	0.013
-426.588	-200.000	0.016	0.258
-425.573	-1.047	0.323	0.230
-424.559	-23.378	0.171	-0.104
-423.544	-200.000	-0.005	0.289
-422.530	800.000	0.054	-0.150
-421.515	-36.968	0.284	-0.153
-420.500	283.928	-0.071	-0.129
-419.486	-108.703	0.063	0.014
-418.471	44.382	0.284	-0.262
-417.457	57.650	-0.199	-0.196
-416.442	800.000	-0.078	0.245
-415.428	42.453	-0.113	-0.103
-414.413	155.799	0.085	-0.118
-413.398	800.000	-0.037	0.110
-412.384	-60.067	0.059	-0.026
-411.369	-120.973	0.154	0.026
-410.355	672.067	-0.064	0.167
-409.340	-200.000	0.001	-0.074
-408.325	-141.891	0.052	0.005
-407.311	-200.000	-0.016	-0.070
-406.296	-18.775	-0.115	0.072
-405.282	-62.598	-0.039	0.016
-404.267	204.765	-0.040	0.063
-403.252	58.086	-0.106	0.104
-402.238	175.074	-0.173	0.252
-401.223	121.542	-0.200	-0.251
-400.209	227.111	-0.102	-0.167
-399.194	-53.799	0.476	0.218
-398.179	135.474	-0.049	0.064
-397.165	-144.182	0.113	0.011
-396.150	154.598	0.202	-0.279
-395.136	-52.554	-0.415	-0.193
-394.121	451.214	0.143	0.317
-393.106	245.236	-0.181	-0.307
-392.092	-82.419	0.344	0.112
-391.077	-83.626	-0.182	-0.058
-390.063	-51.011	0.161	0.076
-389.048	-154.985	0.191	-0.013
-388.033	541.214	0.045	0.108
-387.019	-200.000	0.072	0.348
-386.004	-192.117	0.337	0.003
-384.990	112.772	0.002	-0.003
-383.975	77.996	0.038	0.041
-382.960	800.000	0.085	-0.342
-381.946	147.855	0.152	0.206
-380.931	633.434	0.139	0.354
-379.917	416.688	0.111	0.239
-378.902	154.207	-0.082	-0.114
-377.888	-102.686	-0.106	-0.025
-376.873	-125.069	-0.315	0.049
-375.858	-34.114	-0.233	-0.128
-374.844	228.066	-0.068	-0.111
-373.829	89.167	-0.121	0.135
-372.815	-200.000	-0.038	0.244
-371.800	-91.333	-0.400	-0.115
-370.785	-66.723	0.234	-0.093
-369.771	-7.213	0.141	0.096
-368.756	-200.000	-0.029	0.168
-367.742	463.845	-0.061	0.138
-366.727	-151.839	0.427	0.031
-365.712	-96.963	0.315	0.083
-364.698	-88.044	-0.510	0.154
-363.683	-143.356	0.393	0.038
-362.669	800.000	0.020	-0.081
-361.654	426.438	-0.173	-0.374
-360.639	-200.000	0.002	0.264
-359.625	134.704	-0.133	0.173
-358.610	-68.720	0.249	-0.097
-357.596	-177.795	-0.203	-0.005
-356.581	-81.075	0.299	0.099
-355.566	-200.000	-0.008	0.321
-354.552	800.000	-0.012	-0.037
-353.537	493.365	0.184	0.425
-352.523	-200.000	-0.071	0.390
-351.508	-70.360	-0.256	-0.097
-350.493	-200.000	-0.000	0.080
-349.479	-153.189	0.167	-0.012
-348.464	800.000	-0.100	0.288
-347.450	123.675	-0.110	-0.139
-346.435	505.307	0.040	0.092
-345.420	22.798	-0.029	-0.024
-344.406	-131.663	-0.140	0.019
-343.391	-144.886	0.481	-0.044
-342.377	-200.000	-0.012	0.121
-341.362	-200.000	-0.047	-0.292
-340.348	800.000	-0.086	-0.321
-339.333	0.853	0.345	-0.248
-338.318	192.684	0.093	-0.140
-337.304	800.000	0.069	-0.259
-336.289	-200.000	-0.006	-0.221
-335.275	-200.000	-0.015	-0.204
-334.260	-110.369	-0.282	0.059
-333.245	800.000	0.037	-0.120
-332.231	131.101	0.191	0.246
-331.216	-105.504	0.199	0.045
-330.202	800.000	-0.055	0.229
-329.187	-200.000	0.036	0.197
-328.172	-200.000	0.013	0.158
-327.158	341.042	-0.082	0.160
-326.143	15.092	-0.240	-0.189
-325.129	-200.000	-0.008	-0.205
-324.114	504.982	-0.085	-0.197
-323.099	104.434	0.123	-0.146
-322.085	129.457	0.148	-0.189
-321.070	-200.000	-0.002	0.082
-320.056	-55.405	-0.293	0.132
-319.041	-200.000	-0.034	0.266
-318.026	98.896	0.043	0.050
-317.012	-153.355	0.221	-0.015
-315.997	800.000	0.075	-0.271
-314.983	-29.480	-0.323	0.185
-313.968	-200.000	-0.272	0.001
-312.953	-16.643	-0.460	0.292
-311.939	105.079	0.031	-0.037
-310.924	38.897	0.121	-0.109
-309.910	800.000	-0.021	-0.073
-308.895	23.272	0.161	0.133
-307.880	-69.491	0.199	0.077
-306.866	179.566	0.033	0.049
-305.851	-66.095	0.193	0.077
-304.837	-200.000	0.081	0.484
-303.822	-111.358	0.474	0.097
-302.807	-39.074	-0.064	-0.034
-301.793	-200.000	0.004	0.108
-300.778	-59.132	-0.322	-0.139
-299.764	100.361	0.106	0.124
-298.749	800.000	-0.021	0.091
-297.735	35.971	-0.099	-0.088
-296.720	26.390	-0.210	0.176
-295.705	-123.166	-0.181	0.029
-294.691	227.885	-0.052	-0.085
-293.676	-171.157	-0.166	0.006
-292.662	800.000	-0.047	-0.169
-291.647	800.000	-0.086	-0.252
-290.632	186.992	-0.052	0.077
-289.618	95.270	-0.180	0.206
-288.603	-119.291	-0.414	-0.072
-287.589	800.000	0.025	0.078
-286.574	210.241	-0.081	0.128
-285.559	-167.537	-0.341	0.014
-284.545	-200.000	0.040	-0.234
-283.530	-33.554	0.110	0.061
-282.516	-105.234	0.170	0.039
-281.501	-200.000	-0.011	0.338
-280.486	800.000	-0.128	0.380
-279.472	7.076	0.252	0.189
-278.457	-33.481	-0.285	0.158
-277.443	37.194	0.268	-0.238
-276.428	41.958	0.383	0.348
-275.413	-31.083	-0.201	-0.114
-274.399	-188.910	0.183	0.002
-273.384	800.000	-0.049	-0.177
-272.370	-111.587	-0.223	0.045
-271.355	-56.276	-0.426	0.189
-270.340	-200.000	0.031	0.179
-269.326	211.551	0.133	-0.210
-268.311	470.452	0.050	-0.112
-267.297	163.128	0.244	-0.343
-266.282	84.269	-0.083	-0.090
-265.267	223.719	-0.101	0.163
-264.253	-60.253	0.146	0.062
-263.238	800.000	0.034	-0.101
-262.224	-70.362	-0.003	-0.001
-261.209	0.345	0.320	0.229
-260.195	526.772	0.192	0.453
-259.180	-200.000	-0.017	-0.131
-258.165	574.602	-0.114	0.279
-257.151	-200.000	-0.001	-0.147
-256.136	325.291	0.158	-0.303
-255.122	-200.000	0.004	-0.192
-254.107	800.000	-0.075	-0.262
-253.092	-39.246	-0.122	0.064
-252.078	-88.322	0.174	0.052
-251.063	-57.507	0.213	0.093
-250.049	-115.826	0.121	0.023
-249.034	-200.000	0.013	0.170
-248.019	-123.428	-0.347	0.055
-247.005	309.324	0.060	-0.112
-245.990	-200.000	0.036	-0.328
-244.976	-6.390	-0.022	-0.015
-243.961	-200.000	-0.016	-0.091
-242.946	800.000	0.088	0.249
-241.932	-200.000	-0.040	-0.222
-240.917	-38.862	-0.091	-0.048
-239.903	277.552	-0.072	0.128
-238.888	95.692	-0.031	0.036
-237.873	800.000	0.026	-0.106
-236.859	440.496	0.197	-0.431
-235.844	800.000	0.037	0.135
-234.830	-104.618	-0.171	-0.039
-233.815	-117.606	-0.076	0.014
-232.800	-49.614	0.198	-0.094
-231.786	-64.550	-0.243	0.099
-230.771	14.516	0.232	0.181
-229.757	608.092	0.059	-0.148
-228.742	309.155	0.031	0.058
-227.727	499.164	-0.049	-0.113
-226.713	-18.677	-0.233	0.145
-225.698	800.000	-0.077	-0.243
-224.684	99.655	-0.066	-0.077
-223.669	-200.000	0.033	0.224
-222.655	23.171	0.020	-0.017
-221.640	178.852	-0.005	0.008
-220.625	150.124	0.051	-0.069
-219.611	247.820	-0.391	-0.660
-218.596	27.179	-0.359	-0.301
-217.582	296.119	0.179	0.327
-216.567	172.916	-0.057	-0.083
-215.552	45.487	-0.146	0.135
-214.538	150.589	0.246	0.334
-213.523	-112.342	0.218	-0.044
-212.509	-125.663	0.034	-0.005
-211.494	34.166	-0.138	-0.120
-210.479	-200.000	-0.008	-0.042
-209.465	-174.601	0.198	0.006
-208.450	-147.970	-0.148	-0.012
-207.436	-27.396	-0.215	-0.125
-206.421	-94.354	-0.219	-0.060
-205.406	-200.000	-0.038	0.264
-204.392	-177.728	-0.092	0.002
-203.377	-75.449	0.184	0.065
-202.363	800.000	-0.029	-0.086
-201.348	279.994	0.204	-0.364
-200.333	-200.000	0.001	-0.078
-199.319	-21.760	-0.242	0.147
-198.304	472.651	-0.051	-0.114
-197.290	555.237	-0.010	0.024
-196.275	-40.473	0.474	-0.246
-195.260	-63.526	0.210	-0.086
-194.246	-72.025	-0.313	-0.116
-193.231	-1.365	-0.115	-0.081
-192.217	444.720	-0.032	0.069
-191.202	-200.000	-0.024	-0.155
-190.187	-171.566	0.113	-0.004
-189.173	257.138	0.101	-0.173
-188.158	507.612	0.126	0.292
-187.144	800.000	-0.145	0.412
-186.129	-79.812	0.121	0.041
-185.114	-60.097	0.304	-0.129
-184.100	17.491	0.212	0.168
-183.085	259.108	0.182	-0.313
-182.071	165.854	0.167	0.235
-181.056	-47.637	0.184	0.089
-180.042	-93.086	0.135	0.037
-179.027	89.680	0.152	-0.169
-178.012	-200.000	0.001	-0.436
-176.998	-200.000	-0.006	-0.226
-175.983	-200.000	-0.052	0.299
-174.969	443.776	-0.028	-0.061
-173.954	-40.994	-0.087	-0.045
-172.939	88.382	0.226	0.250
-171.925	-200.000	-0.008	0.261
-170.910	59.734	-0.181	-0.178
-169.896	14.437	-0.068	0.053
-168.881	-15.219	0.053	-0.034
-167.866	-30.340	-0.206	-0.116
-166.852	264.420	-0.101	0.174
-165.837	21.450	0.203	0.164
-164.823	27.099	0.394	0.330
-163.808	-200.000	0.026	-0.206
-162.793	-176.139	-0.215	-0.006
-161.779	-115.526	-0.196	0.037
-160.764	437.723	-0.054	-0.117
-159.750	-200.000	-0.036	0.350
-158.735	-158.521	-0.252	0.015
-157.720	800.000	0.156	-0.500
-156.706	225.539	-0.084	-0.135
-155.691	800.000	0.100	0.357
-154.677	257.677	-0.154	-0.265
-153.662	800.000	0.021	-0.069
-152.647	-110.510	0.167	-0.034
-151.633	-64.786	-0.192	0.077
-150.618	-95.741	0.254	0.068
-149.604	-92.282	-0.183	-0.051
-148.589	-75.411	-0.319	-0.113
-147.574	-189.256	-0.062	0.001
-146.560	-20.443	0.193	-0.118
-145.545	-119.088	-0.429	0.075
-144.531	-5.282	0.200	-0.137
-143.516	-135.465	-0.134	0.016
-142.502	-69.245	0.365	0.140
-141.487	800.000	-0.068	0.261
-140.472	763.281	0.099	-0.267
-139.458	-200.000	-0.023	-0.171
-138.443	496.145	-0.048	-0.110
-137.429	-62.706	-0.102	0.042
-136.414	-200.000	0.004	0.112
-135.399	384.689	-0.062	0.126
-134.385	-200.000	-0.006	0.038
-133.370	-83.053	-0.230	-0.074
-132.356	51.585	-0.218	-0.206
-131.341	495.497	0.035	0.079
-130.326	336.599	0.150	-0.291
-129.312	-85.057	-0.201	0.063
-128.297	300.731	-0.126	0.231
-127.283	-200.000	0.029	-0.233
-126.268	183.264	0.129	0.190
-125.253	12.965	0.325	0.251
-124.239	-31.547	-0.074	0.042
-123.224	-200.000	0.008	-0.201
-122.210	-185.849	0.271	-0.004
