DTS Sentinel unit serial number:	SN413079Multiplexer serial number:	ORYXHardware model number:	OX4-SRSoftware version number:	ORYX F/W v4.00 Oryx Data Collector v3.7.2.0data status	okinstallation	princeton_trtdifferential loss correction	single-endedforward channel	channel 4reverse channel	N/Adate	2019/09/14time	16:53:35forward acquisition time	60.00reverse acquisition time	0.00gamma	496.2192k internal	0.2292k external	0.2292temperature offset calibration	1.0120default loss term (dB/km)	0.3790temperature slope calibration	1.0000multiplexer offset coefficient	1.0000multiplexer slope coefficient	1.0000fibre end	0.00T internal ref (°C)	38.02T ext. ref 1 (°C)	4.99T ext. ref 2 (°C)	33.57length (m)	temperature (°C)	Stokes	anti-Stokes-747.200	-162.050	0.142	0.007
-746.185	133.939	0.172	-0.227
-745.171	14.493	0.203	-0.162
-744.156	-54.372	0.177	0.082
-743.142	-55.274	0.057	0.026
-742.127	-114.614	0.141	0.028
-741.112	-85.090	0.256	-0.082
-740.098	-126.883	-0.358	-0.054
-739.083	3.598	-0.090	-0.067
-738.069	402.949	0.181	0.390
-737.054	-87.015	-0.110	0.034
-736.039	-200.000	0.210	-0.000
-735.025	2.005	0.422	-0.312
-734.010	-91.469	0.069	0.020
-732.996	-27.259	-0.207	-0.123
-731.981	229.606	0.102	0.171
-730.966	-73.210	0.217	-0.081
-729.952	-160.140	-0.290	-0.016
-728.937	-200.000	-0.014	-0.162
-727.923	-113.918	0.169	0.034
-726.908	800.000	-0.069	-0.275
-725.894	-77.703	-0.119	0.042
-724.879	97.535	0.180	0.211
-723.864	-200.000	-0.059	0.413
-722.850	800.000	-0.111	-0.351
-721.835	-120.436	-0.195	-0.034
-720.821	-200.000	0.004	-0.026
-719.806	-15.237	0.252	-0.165
-718.791	44.438	-0.195	0.183
-717.777	-96.806	-0.232	0.062
-716.762	0.445	0.146	-0.107
-715.748	-101.660	-0.045	0.011
-714.733	-156.460	0.266	0.017
-713.718	11.598	0.056	-0.044
-712.704	54.342	-0.385	-0.379
-711.689	-83.892	-0.228	-0.074
-710.675	-200.000	-0.019	-0.211
-709.660	-200.000	0.024	0.198
-708.645	-189.071	0.344	0.004
-707.631	-127.175	-0.059	0.009
-706.616	-6.576	0.364	0.253
-705.602	-94.812	-0.246	0.068
-704.587	-5.191	0.064	-0.045
-703.572	-200.000	0.038	0.203
-702.558	127.541	0.130	-0.168
-701.543	181.629	0.152	-0.229
-700.529	-200.000	0.012	-0.246
-699.514	-45.879	-0.306	-0.154
-698.499	-83.996	-0.230	-0.075
-697.485	-127.475	-0.207	0.031
-696.470	-200.000	-0.009	-0.092
-695.456	333.068	-0.062	0.123
-694.441	20.794	-0.136	-0.112
-693.426	800.000	0.038	0.143
-692.412	-17.018	-0.256	-0.165
-691.397	-200.000	0.014	0.304
-690.383	621.943	0.117	-0.301
-689.368	36.696	0.046	0.041
-688.354	-48.469	0.320	-0.157
-687.339	3.912	-0.468	-0.349
-686.324	800.000	-0.055	-0.212
-685.310	-24.141	-0.158	-0.097
-684.295	-111.818	-0.159	0.033
-683.281	-86.507	-0.113	-0.035
-682.266	-200.000	-0.047	-0.211
-681.251	800.000	0.107	-0.311
-680.237	-43.293	-0.093	-0.048
-679.222	-52.432	-0.209	0.099
-678.208	223.769	-0.098	-0.161
-677.193	367.716	-0.241	-0.496
-676.178	-97.608	-0.326	-0.086
-675.164	4.972	0.179	0.134
-674.149	-200.000	0.025	0.195
-673.135	118.553	0.140	0.177
-672.120	506.244	0.055	-0.129
-671.105	-94.154	-0.196	0.055
-670.091	-95.446	0.401	0.110
-669.076	-143.235	0.352	-0.035
-668.062	-89.504	0.325	-0.097
-667.047	-95.879	-0.210	-0.057
-666.032	-62.768	0.251	-0.106
-665.018	-200.000	-0.004	-0.135
-664.003	102.217	0.095	0.113
-662.989	800.000	-0.048	-0.211
-661.974	-200.000	0.017	0.084
-660.959	740.323	-0.099	-0.271
-659.945	152.594	0.144	-0.201
-658.930	173.255	0.060	0.088
-657.916	-200.000	-0.047	0.230
-656.901	-30.104	0.237	-0.137
-655.886	-200.000	-0.073	-0.336
-654.872	30.686	-0.088	0.077
-653.857	20.117	-0.258	0.212
-652.843	-148.683	0.309	-0.026
-651.828	-21.889	0.323	0.200
-650.814	-28.936	0.240	-0.140
-649.799	800.000	-0.059	0.223
-648.784	164.313	0.075	-0.108
-647.770	-30.245	-0.291	0.169
-646.755	-200.000	-0.037	-0.278
-645.741	-200.000	0.030	0.168
-644.726	200.961	0.295	0.463
-643.711	57.322	0.398	0.396
-642.697	-3.911	-0.562	-0.398
-641.682	28.115	-0.112	-0.097
-640.668	800.000	0.060	-0.185
-639.653	-200.000	-0.007	-0.328
-638.638	-32.758	0.126	0.071
-637.624	638.151	0.139	0.361
-636.609	-50.049	0.208	0.100
-635.595	-128.859	0.023	0.003
-634.580	-200.000	-0.038	0.192
-633.565	287.223	0.036	0.067
-632.551	-200.000	0.028	-0.333
-631.536	154.448	-0.049	0.068
-630.522	128.734	0.063	0.081
-629.507	16.749	-0.040	-0.032
-628.492	-83.554	-0.157	0.051
-627.478	-12.117	0.237	-0.158
-626.463	7.333	-0.064	-0.049
-625.449	182.957	-0.036	-0.054
-624.434	321.668	-0.135	-0.262
-623.419	800.000	-0.054	-0.207
-622.405	-88.572	-0.170	0.052
-621.390	-200.000	0.027	0.386
-620.376	14.771	-0.161	-0.128
-619.361	161.053	-0.164	0.234
-618.346	150.227	0.228	-0.315
-617.332	26.671	0.180	-0.154
-616.317	-20.041	0.160	-0.101
-615.303	-76.655	-0.441	0.158
-614.288	-52.227	0.270	0.128
-613.273	-9.332	0.153	-0.104
-612.259	-104.686	-0.398	-0.093
-611.244	-102.176	0.133	-0.033
-610.230	800.000	-0.061	0.176
-609.215	-165.263	0.048	-0.002
-608.201	410.710	0.023	-0.050
-607.186	-90.347	-0.286	0.084
-606.171	800.000	-0.119	-0.382
-605.157	-133.326	-0.633	0.081
-604.142	145.345	0.170	-0.231
-603.128	800.000	0.009	0.039
-602.113	-91.998	-0.101	-0.029
-601.098	800.000	0.017	0.059
-600.084	112.815	0.138	-0.171
-599.069	321.621	-0.167	-0.324
-598.055	-97.750	-0.110	0.029
-597.040	60.080	0.104	-0.104
-596.025	-94.009	-0.091	-0.025
-595.011	47.189	0.267	0.253
-593.996	-75.118	-0.343	0.125
-592.982	56.883	0.168	-0.166
-591.967	-200.000	-0.088	0.481
-590.952	-136.118	-0.135	0.016
-589.938	158.208	-0.149	-0.210
-588.923	-65.218	0.381	-0.156
-587.909	7.521	-0.158	0.120
-586.894	800.000	-0.087	0.311
-585.879	305.129	-0.024	0.045
-584.865	-200.000	0.001	-0.029
-583.850	25.188	-0.129	-0.109
-582.836	299.579	0.143	-0.267
-581.821	307.622	-0.027	0.051
-580.806	-9.742	0.047	0.032
-579.792	-52.586	-0.164	0.077
-578.777	296.149	-0.237	-0.442
-577.763	134.804	0.118	-0.156
-576.748	77.582	-0.094	-0.102
-575.733	-73.724	-0.104	-0.039
-574.719	215.686	0.231	0.373
-573.704	-170.689	-0.231	-0.008
-572.690	68.272	0.197	-0.206
-571.675	-103.351	-0.134	0.032
-570.661	-5.609	0.409	0.285
-569.646	34.119	-0.190	0.168
-568.631	-96.622	-0.314	0.084
-567.617	-19.477	0.072	0.045
-566.602	422.011	-0.037	-0.082
-565.588	102.729	0.100	-0.119
-564.573	1.024	0.177	0.129
-563.558	800.000	-0.058	-0.189
-562.544	34.079	-0.250	0.221
-561.529	-200.000	-0.021	-0.190
-560.515	800.000	0.049	-0.164
-559.500	21.541	0.472	-0.390
-558.485	-200.000	0.017	0.289
-557.471	732.199	-0.095	0.257
-556.456	226.501	-0.171	-0.282
-555.442	800.000	0.068	0.198
-554.427	-156.333	0.398	-0.025
-553.412	-109.478	-0.139	-0.030
-552.398	800.000	0.067	-0.191
-551.383	140.286	0.081	0.109
-550.369	800.000	0.051	-0.225
-549.354	40.991	0.069	-0.063
-548.339	-55.309	-0.031	0.014
-547.325	-126.561	-0.367	0.055
-546.310	-174.709	0.121	-0.003
-545.296	-126.321	0.198	-0.030
-544.281	-46.724	-0.325	-0.162
-543.266	-185.900	0.105	-0.002
-542.252	298.620	-0.109	-0.204
-541.237	-121.828	-0.179	0.030
-540.223	39.013	-0.070	-0.064
-539.208	610.377	-0.009	0.024
-538.193	461.698	0.045	-0.101
-537.179	800.000	-0.008	-0.026
-536.164	13.368	-0.226	0.178
-535.150	800.000	-0.054	0.176
-534.135	800.000	0.092	0.291
-533.121	172.712	-0.137	0.200
-532.106	30.026	0.075	-0.065
-531.091	221.031	0.088	-0.144
-530.077	-143.685	0.386	0.037
-529.062	85.843	0.204	0.228
-528.048	-143.762	-0.303	0.029
-527.033	-200.000	0.026	-0.282
-526.018	-75.943	-0.246	0.088
-525.004	-102.715	0.055	0.013
-523.989	800.000	0.081	0.263
-522.975	-137.213	0.277	-0.032
-521.960	222.355	0.090	0.148
-520.945	-136.284	0.180	0.021
-519.931	-74.672	-0.171	0.062
-518.916	-43.453	-0.297	-0.152
-517.902	67.447	0.067	-0.069
-516.887	-19.991	-0.125	-0.078
-515.872	-102.316	-0.074	-0.018
-514.858	-49.967	0.269	0.130
-513.843	-57.397	-0.194	-0.086
-512.829	-141.266	0.262	0.027
-511.814	23.037	0.061	0.051
-510.799	-118.541	-0.206	0.037
-509.785	-148.945	0.383	0.031
-508.770	-35.114	-0.088	0.048
-507.756	248.276	-0.089	-0.152
-506.741	-80.832	0.114	0.038
-505.726	66.617	-0.199	0.206
-504.712	756.662	-0.064	-0.175
-503.697	-200.000	-0.087	-0.445
-502.683	74.221	0.180	-0.191
-501.668	153.280	0.099	-0.138
-500.653	-56.796	-0.232	-0.104
-499.639	160.629	0.181	-0.256
-498.624	-82.859	-0.080	0.026
-497.610	93.399	-0.258	0.296
-496.595	15.645	0.160	-0.128
-495.581	-127.086	-0.160	-0.024
-494.566	-36.312	-0.125	0.068
-493.551	-54.904	-0.212	0.097
-492.537	399.438	0.068	-0.145
-491.522	341.034	0.061	-0.122
-490.508	-107.485	0.136	0.030
-489.493	-200.000	0.073	-0.367
-488.478	-54.987	-0.275	-0.126
-487.464	-136.382	0.349	0.041
-486.449	51.390	-0.296	0.284
-485.435	-161.956	0.126	0.006
-484.420	-86.529	0.308	0.096
-483.405	-157.914	-0.135	0.008
-482.391	-200.000	-0.026	0.151
-481.376	158.742	0.043	-0.060
-480.362	-20.301	-0.373	0.233
-479.347	800.000	-0.050	0.181
-478.332	-173.228	0.361	0.011
-477.318	-75.852	0.091	0.033
-476.303	-76.310	-0.272	-0.097
-475.289	-172.024	-0.120	-0.004
-474.274	186.344	0.119	-0.180
-473.259	-143.511	-0.394	-0.038
-472.245	-200.000	-0.036	0.202
-471.230	292.356	0.039	-0.072
-470.216	-200.000	-0.009	0.314
-469.201	800.000	0.079	0.335
-468.186	-67.053	0.243	-0.097
-467.172	668.319	-0.016	-0.043
-466.157	-55.799	0.179	-0.081
-465.143	-106.680	0.119	0.027
-464.128	800.000	0.029	0.123
-463.113	-22.922	0.173	-0.106
-462.099	-89.488	0.013	0.004
-461.084	358.229	-0.097	-0.196
-460.070	800.000	0.084	-0.335
-459.055	-8.072	0.111	-0.075
-458.040	15.599	-0.154	0.122
-457.026	-200.000	-0.004	0.194
-456.011	37.020	-0.151	0.135
-454.997	-200.000	-0.002	0.213
-453.982	-70.655	0.149	-0.057
-452.968	800.000	0.055	-0.215
-451.953	-70.566	0.180	-0.069
-450.938	-30.783	-0.348	0.199
-449.924	-200.000	0.032	0.180
-448.909	81.957	0.212	-0.232
-447.895	111.116	0.192	-0.234
-446.880	466.000	0.055	-0.123
-445.865	-4.520	-0.169	-0.118
-444.851	-200.000	-0.042	0.282
-443.836	-115.697	-0.140	0.027
-442.822	127.444	0.174	-0.224
-441.807	6.143	-0.171	-0.128
-440.792	262.790	0.187	-0.329
-439.778	416.324	0.054	-0.118
-438.763	800.000	-0.072	0.288
-437.749	481.511	-0.101	0.233
-436.734	800.000	-0.043	-0.179
-435.719	380.883	0.096	0.200
-434.705	543.236	-0.050	0.121
-433.690	800.000	0.035	0.145
-432.676	-50.533	-0.366	0.175
-431.661	-2.690	-0.114	-0.081
-430.646	-140.829	-0.046	0.005
-429.632	-200.000	0.092	-0.416
-428.617	-56.219	0.188	0.085
-427.603	-24.681	0.216	0.130
-426.588	-84.421	0.235	-0.075
-425.573	-78.655	0.167	0.058
-424.559	-16.328	0.168	0.108
-423.544	800.000	-0.086	0.304
-422.530	-17.735	-0.111	-0.071
-421.515	-89.835	0.097	-0.029
-420.500	800.000	-0.048	-0.154
-419.486	800.000	-0.076	0.252
-418.471	800.000	0.063	-0.195
-417.457	-200.000	-0.256	-0.001
-416.442	-101.337	0.088	-0.022
-415.428	-2.996	0.034	-0.024
-414.413	113.985	0.015	-0.018
-413.398	-82.663	0.082	-0.027
-412.384	800.000	-0.036	0.156
-411.369	-200.000	-0.004	-0.078
-410.355	-24.135	-0.277	-0.167
-409.340	-200.000	-0.039	-0.328
-408.325	-63.545	0.076	0.032
-407.311	800.000	-0.048	0.154
-406.296	-43.814	0.152	0.077
-405.282	33.752	0.147	-0.129
-404.267	-130.076	-0.212	0.029
-403.252	72.009	-0.288	0.303
-402.238	-178.177	-0.034	0.001
-401.223	-200.000	0.037	-0.196
-400.209	264.489	0.067	-0.117
-399.194	388.692	0.139	0.290
-398.179	-21.118	-0.077	0.048
-397.165	56.575	-0.236	0.231
-396.150	-149.534	-0.189	-0.015
-395.136	-169.508	-0.289	-0.011
-394.121	-168.600	0.133	0.005
-393.106	-38.282	-0.152	0.081
-392.092	71.597	-0.025	-0.026
-391.077	-90.612	0.207	0.060
-390.063	-134.767	-0.182	0.022
-389.048	224.535	-0.047	0.076
-388.033	-66.402	-0.289	-0.116
-387.019	-163.860	-0.212	0.010
-386.004	92.376	0.117	-0.134
-384.990	120.856	-0.145	0.182
-383.975	69.403	0.088	-0.092
-382.960	18.229	-0.383	-0.308
-381.946	800.000	-0.053	-0.193
-380.931	474.437	-0.015	-0.034
-379.917	25.547	-0.162	-0.136
-378.902	8.441	0.159	0.120
-377.888	7.612	-0.143	-0.108
-376.873	-200.000	0.023	-0.121
-375.858	88.009	0.111	-0.124
-374.844	120.824	-0.346	0.434
-373.829	-138.648	-0.208	-0.023
-372.815	624.066	-0.098	-0.249
-371.800	-85.660	-0.140	-0.044
-370.785	-89.412	-0.179	-0.053
-369.771	347.723	-0.212	0.422
-368.756	132.961	-0.149	-0.194
-367.742	415.162	-0.126	-0.271
-366.727	20.874	-0.012	0.010
-365.712	-200.000	-0.027	-0.340
-364.698	-200.000	0.033	0.457
-363.683	800.000	0.040	0.170
-362.669	108.841	0.127	-0.153
-361.654	-69.278	-0.218	0.084
-360.639	33.783	-0.127	0.111
-359.625	800.000	-0.103	0.322
-358.610	-103.979	0.522	-0.123
-357.596	-141.734	0.232	-0.024
-356.581	-150.369	-0.141	-0.011
-355.566	-200.000	0.033	0.235
-354.552	800.000	0.074	0.247
-353.537	-128.360	-0.165	-0.024
-352.523	-151.218	-0.374	0.028
-351.508	60.085	0.115	-0.114
-350.493	-133.454	0.154	0.019
-349.479	800.000	-0.025	0.104
-348.464	800.000	-0.102	0.333
-347.450	-38.674	-0.183	-0.097
-346.435	-28.640	-0.111	0.064
-345.420	-82.464	-0.081	0.026
-344.406	800.000	-0.045	0.175
-343.391	49.927	-0.152	-0.144
-342.377	349.465	-0.068	0.136
-341.362	411.057	-0.059	0.126
-340.348	-135.230	0.111	-0.013
-339.333	-41.540	0.294	0.152
-338.318	-158.964	0.160	-0.009
-337.304	349.795	0.127	0.254
-336.289	-120.901	0.445	-0.075
-335.275	800.000	-0.081	-0.283
-334.260	-200.000	-0.008	-0.206
-333.245	-104.956	-0.090	-0.021
-332.231	800.000	0.003	0.010
-331.216	94.614	0.179	-0.205
-330.202	-34.234	-0.292	0.161
-329.187	292.696	0.066	-0.122
-328.172	-44.590	0.190	0.096
-327.158	-17.722	-0.131	-0.083
-326.143	-98.399	-0.140	0.036
-325.129	-74.257	0.166	-0.061
-324.114	108.417	0.037	-0.044
-323.099	-200.000	-0.028	0.186
-322.085	-200.000	-0.042	-0.189
-321.070	149.457	0.189	-0.258
-320.056	-97.570	0.218	-0.057
-319.041	-95.512	-0.185	-0.050
-318.026	-63.533	0.285	-0.118
-317.012	800.000	0.091	0.357
-315.997	61.571	0.100	0.100
-314.983	-49.567	-0.241	0.115
-313.968	31.263	0.298	-0.258
-312.953	-63.283	0.301	0.125
-311.939	-200.000	0.062	-0.417
-310.924	461.970	-0.181	-0.406
-309.910	-19.721	0.058	0.036
-308.895	-54.620	-0.326	-0.148
-307.880	16.719	0.065	-0.052
-306.866	-0.561	-0.077	-0.055
-305.851	-200.000	-0.022	0.325
-304.837	498.895	0.149	0.345
-303.822	15.164	0.110	0.087
-302.807	-200.000	0.058	0.415
-301.793	419.699	0.094	-0.202
-300.778	721.441	0.070	-0.188
-299.764	-59.428	-0.065	0.028
-298.749	-200.000	-0.046	0.000
-297.735	-55.326	-0.377	0.170
-296.720	35.808	0.168	0.149
-295.705	117.847	0.183	0.227
-294.691	-73.201	-0.448	0.165
-293.676	-35.969	0.258	0.140
-292.662	21.794	0.130	-0.106
-291.647	800.000	-0.082	-0.287
-290.632	-154.677	-0.183	-0.012
-289.618	800.000	0.013	-0.041
-288.603	16.795	0.077	-0.061
-287.589	-18.293	-0.165	0.104
-286.574	608.743	0.074	-0.187
-285.559	-174.779	0.119	-0.003
-284.545	-89.082	-0.138	0.041
-283.530	57.558	-0.161	0.158
-282.516	91.139	0.273	-0.307
-281.501	114.077	0.198	-0.242
-280.486	-61.128	-0.205	0.087
-279.472	-62.628	-0.184	0.077
-278.457	-200.000	-0.014	-0.062
-277.443	510.183	-0.094	0.220
-276.428	-73.898	0.160	-0.058
-275.413	219.200	0.179	-0.288
-274.399	-88.855	-0.023	0.007
-273.384	-107.639	-0.097	0.021
-272.370	-29.397	-0.182	0.104
-271.355	800.000	-0.057	0.206
-270.340	-58.316	-0.217	-0.095
-269.326	-110.367	0.253	0.053
-268.311	-74.801	-0.189	-0.068
-267.297	777.325	-0.024	-0.065
-266.282	-200.000	-0.009	-0.286
-265.267	6.643	0.259	0.194
-264.253	173.616	0.073	0.106
-263.238	800.000	0.087	-0.252
-262.224	800.000	0.058	0.172
-261.209	-200.000	0.061	-0.319
-260.195	647.843	0.036	0.094
-259.180	-9.684	0.206	0.138
-258.165	800.000	0.082	0.356
-257.151	-49.190	0.174	-0.083
-256.136	234.751	-0.088	0.146
-255.122	56.843	-0.096	0.094
-254.107	24.836	0.216	0.180
-253.092	-148.959	-0.252	-0.020
-252.078	-200.000	-0.011	0.132
-251.063	-66.762	0.092	0.036
-250.049	-52.884	0.267	0.123
-249.034	-14.108	0.166	-0.107
-248.019	-116.480	0.273	-0.051
-247.005	-35.004	-0.395	-0.216
-245.990	470.562	-0.208	0.469
-244.976	363.093	0.116	0.233
-243.961	-200.000	0.018	0.149
-242.946	85.334	-0.118	-0.130
-241.932	-103.060	0.149	-0.036
-240.917	86.042	0.150	0.166
-239.903	173.945	0.129	-0.187
-238.888	-154.204	0.233	-0.016
-237.873	-200.000	0.181	0.000
-236.859	-10.243	0.231	0.154
-235.844	191.810	-0.054	-0.082
-234.830	-200.000	-0.022	-0.244
-233.815	186.779	-0.068	-0.101
-232.800	800.000	0.172	-0.488
-231.786	-53.089	0.157	0.072
-230.771	-153.054	-0.422	-0.030
-229.757	380.773	0.122	-0.251
-228.742	-157.901	-0.227	-0.013
-227.727	-110.187	0.101	-0.021
-226.713	-39.525	0.243	-0.128
-225.698	63.491	-0.098	-0.098
-224.684	-200.000	-0.011	-0.096
-223.669	60.703	0.173	0.172
-222.655	399.663	0.126	0.266
-221.640	190.737	-0.155	0.234
-220.625	62.811	-0.150	-0.151
-219.611	-200.000	-0.007	0.324
-218.596	-79.627	0.281	-0.095
-217.582	-200.000	-0.021	-0.104
-216.567	194.175	-0.023	0.035
-215.552	-200.000	0.001	0.378
-214.538	800.000	0.093	0.398
-213.523	-200.000	-0.045	0.239
-212.509	193.615	0.172	-0.261
-211.494	-200.000	-0.015	0.073
-210.479	-55.616	-0.340	0.152
-209.465	134.100	0.084	-0.110
-208.450	-200.000	-0.016	0.170
-207.436	-76.307	0.023	-0.008
-206.421	693.667	0.064	-0.169
-205.406	-200.000	0.051	-0.349
-204.392	56.266	0.239	-0.232
-203.377	266.724	-0.073	-0.128
-202.363	254.982	0.081	0.138
-201.348	800.000	0.059	-0.224
-200.333	666.728	0.103	-0.268
-199.319	294.486	-0.117	-0.215
-198.304	334.031	-0.084	0.163
-197.290	-200.000	-0.027	0.131
-196.275	-200.000	0.066	-0.464
-195.260	306.869	-0.185	-0.344
-194.246	-150.595	0.280	-0.021
-193.231	64.245	-0.110	-0.110
-192.217	-113.389	-0.119	0.023
-191.202	-184.197	0.255	-0.004
-190.187	-200.000	-0.008	-0.121
-189.173	93.101	0.067	0.076
-188.158	321.975	0.166	0.317
-187.144	-200.000	-0.035	0.209
-186.129	427.498	0.141	-0.305
-185.114	503.681	0.096	-0.222
-184.100	-51.628	0.191	0.089
-183.085	-200.000	-0.043	-0.404
-182.071	13.139	-0.108	0.084
-181.056	-147.467	0.185	-0.016
-180.042	-54.673	0.196	-0.088
-179.027	-118.191	0.245	0.044
-178.012	89.083	0.204	0.228
-176.998	366.889	-0.034	0.069
-175.983	-182.612	0.132	0.002
-174.969	800.000	-0.120	0.399
-173.954	-118.416	-0.491	-0.087
-172.939	34.768	0.155	0.135
-171.925	-99.148	-0.124	0.031
-170.910	-11.840	-0.207	0.136
-169.896	109.080	0.131	0.157
-168.881	24.211	0.343	-0.284
-167.866	49.883	0.096	-0.091
-166.852	-200.000	-0.031	-0.176
-165.837	-200.000	0.048	0.217
-164.823	-200.000	-0.028	-0.233
-163.808	97.188	0.247	0.283
-162.793	-154.895	0.363	-0.024
-161.779	-200.000	-0.018	0.114
-160.764	712.403	0.087	-0.231
-159.750	-168.202	0.072	-0.003
-158.735	800.000	0.033	-0.117
-157.720	-47.136	-0.242	0.118
-156.706	169.408	0.194	0.277
-155.691	-177.975	-0.371	-0.009
-154.677	346.948	-0.110	0.217
-153.662	275.230	-0.062	0.110
-152.647	238.712	0.089	0.148
-151.633	-51.624	-0.239	0.111
-150.618	800.000	0.059	-0.201
-149.604	119.126	-0.080	-0.099
-148.589	180.899	0.175	0.257
-147.574	-74.744	-0.152	-0.055
-146.560	-200.000	0.008	-0.206
-145.545	800.000	0.042	-0.139
-144.531	-121.075	-0.251	-0.042
-143.516	-78.290	0.138	0.047
-142.502	-59.681	-0.076	-0.033
-141.487	-103.878	0.244	-0.057
-140.472	-200.000	-0.012	-0.157
-139.458	-200.000	-0.017	0.283
-138.443	50.781	0.224	-0.212
-137.429	-200.000	0.021	0.100
-136.414	-200.000	-0.003	-0.091
-135.399	-21.289	0.204	-0.125
-134.385	-152.378	-0.246	0.018
-133.370	-200.000	0.024	0.151
-132.356	103.869	0.083	0.097
-131.341	-128.337	0.334	0.048
-130.326	-121.077	0.107	-0.018
-129.312	40.618	0.053	-0.048
-128.297	549.214	0.041	-0.099
-127.283	-200.000	-0.009	-0.381
-126.268	598.666	-0.070	0.173
-125.253	181.427	-0.061	0.089
-124.239	800.000	0.019	-0.075
-123.224	800.000	-0.074	0.270
-122.210	-77.980	0.316	-0.109
-121.195	-55.405	0.108	0.049
