DTS Sentinel unit serial number:	SN413079Multiplexer serial number:	ORYXHardware model number:	OX4-SRSoftware version number:	ORYX F/W v4.00 Oryx Data Collector v3.7.2.0data status	okinstallation	princeton_trtdifferential loss correction	single-endedforward channel	channel 4reverse channel	N/Adate	2019/09/17time	00:29:35forward acquisition time	60.00reverse acquisition time	0.00gamma	496.2192k internal	0.2314k external	0.2314temperature offset calibration	0.9973default loss term (dB/km)	0.3790temperature slope calibration	1.0000multiplexer offset coefficient	1.0000multiplexer slope coefficient	1.0000fibre end	0.00T internal ref (°C)	29.50T ext. ref 1 (°C)	0.10T ext. ref 2 (°C)	23.79length (m)	temperature (°C)	Stokes	anti-Stokes-747.200	-74.080	0.141	-0.052
-746.185	800.000	0.031	-0.095
-745.171	103.322	0.037	-0.044
-744.156	669.222	-0.100	0.264
-743.142	66.844	0.127	0.131
-742.127	-118.327	0.287	-0.052
-741.112	762.530	-0.118	0.324
-740.098	-11.226	0.207	0.138
-739.083	800.000	-0.141	-0.444
-738.069	23.449	0.057	0.048
-737.054	800.000	-0.019	-0.061
-736.039	-16.985	-0.178	0.114
-735.025	652.118	-0.094	0.245
-734.010	-200.000	0.009	0.270
-732.996	-200.000	0.017	0.135
-731.981	461.970	0.045	0.102
-730.966	-200.000	-0.019	0.156
-729.952	16.549	-0.299	0.239
-728.937	51.021	0.122	-0.117
-727.923	247.431	-0.070	-0.119
-726.908	12.250	-0.231	-0.180
-725.894	-25.590	0.277	0.166
-724.879	8.543	0.031	0.023
-723.864	-200.000	-0.031	0.178
-722.850	-85.238	-0.386	0.122
-721.835	-64.703	0.309	-0.127
-720.821	136.605	-0.105	-0.139
-719.806	-19.821	0.171	0.107
-718.791	-133.848	-0.368	0.046
-717.777	190.696	-0.127	-0.193
-716.762	-200.000	0.168	-0.000
-715.748	-200.000	-0.010	-0.393
-714.733	-92.914	-0.223	-0.063
-713.718	142.955	-0.071	0.095
-712.704	162.060	-0.161	-0.228
-711.689	-26.566	-0.354	0.210
-710.675	-9.223	-0.161	0.109
-709.660	-183.182	-0.314	0.006
-708.645	-200.000	0.038	-0.285
-707.631	800.000	0.067	0.264
-706.616	-10.911	0.186	0.124
-705.602	-54.568	0.198	-0.091
-704.587	27.275	-0.187	-0.159
-703.572	-6.634	0.082	-0.056
-702.558	-141.009	-0.097	-0.010
-701.543	27.021	-0.063	-0.053
-700.529	-81.502	0.228	0.076
-699.514	-9.033	0.250	-0.169
-698.499	-75.952	-0.102	-0.037
-697.485	-33.880	0.182	0.102
-696.470	-101.283	-0.087	0.021
-695.456	-200.000	-0.006	-0.156
-694.441	289.759	-0.234	-0.430
-693.426	152.806	0.272	-0.377
-692.412	165.143	-0.128	-0.182
-691.397	54.762	0.165	0.161
-690.383	689.964	-0.097	-0.257
-689.368	-200.000	-0.001	-0.366
-688.354	-81.753	-0.063	0.021
-687.339	-78.718	0.198	-0.069
-686.324	-200.000	0.008	-0.225
-685.310	800.000	-0.149	0.499
-684.295	777.536	-0.009	0.025
-683.281	-32.948	-0.164	0.092
-682.266	-145.636	0.166	-0.015
-681.251	176.816	0.047	-0.069
-680.237	-200.000	-0.026	-0.152
-679.222	-200.000	0.009	-0.310
-678.208	173.206	-0.164	-0.238
-677.193	164.381	0.073	-0.104
-676.178	189.686	-0.192	-0.291
-675.164	164.594	-0.119	0.169
-674.149	-36.786	0.335	0.182
-673.135	-4.961	-0.369	0.257
-672.120	-10.342	0.338	0.227
-671.105	-124.175	-0.391	0.062
-670.091	655.282	0.114	0.295
-669.076	-200.000	0.006	0.206
-668.062	53.530	0.021	0.021
-667.047	71.691	-0.300	-0.315
-666.032	-43.164	0.156	-0.080
-665.018	-200.000	0.016	0.249
-664.003	88.736	-0.200	0.224
-662.989	-80.317	-0.315	-0.106
-661.974	7.609	-0.297	0.225
-660.959	-155.930	-0.062	0.004
-659.945	-74.094	-0.035	0.013
-658.930	-85.077	0.193	0.061
-657.916	35.646	0.218	0.194
-656.901	28.960	0.087	-0.074
-655.886	-123.233	0.269	-0.044
-654.872	-200.000	-0.159	0.000
-653.857	668.719	-0.082	-0.213
-652.843	8.785	-0.265	-0.202
-651.828	-200.000	0.004	-0.068
-650.814	-200.000	-0.011	-0.164
-649.799	-131.893	-0.020	-0.003
-648.784	-18.204	0.097	-0.061
-647.770	-87.838	-0.239	0.073
-646.755	-200.000	-0.005	-0.066
-645.741	373.687	-0.069	0.143
-644.726	-200.000	-0.007	-0.132
-643.711	-48.998	0.157	-0.076
-642.697	-109.339	0.085	-0.018
-641.682	165.448	-0.100	-0.143
-640.668	-59.265	0.192	-0.083
-639.653	800.000	0.032	0.128
-638.638	567.680	-0.049	-0.121
-637.624	-23.488	0.136	0.082
-636.609	-135.129	-0.194	-0.024
-635.595	377.042	0.112	-0.231
-634.580	13.526	0.138	-0.108
-633.565	114.810	-0.138	-0.170
-632.551	-65.471	0.073	-0.030
-631.536	-109.113	0.129	-0.028
-630.522	-14.367	0.394	0.256
-629.507	-50.840	0.264	-0.125
-628.492	186.652	-0.205	-0.308
-627.478	18.867	-0.217	-0.176
-626.463	-200.000	-0.019	-0.325
-625.449	-122.520	0.040	0.007
-624.434	1.295	-0.182	0.132
-623.419	-200.000	0.011	0.133
-622.405	-200.000	-0.007	0.213
-621.390	44.709	-0.133	-0.124
-620.376	118.276	0.089	-0.110
-619.361	800.000	0.088	-0.331
-618.346	475.385	-0.131	-0.298
-617.332	-81.515	-0.355	-0.118
-616.317	-36.583	-0.387	-0.210
-615.303	-165.788	0.186	-0.008
-614.288	2.350	0.327	-0.239
-613.273	-33.266	-0.301	0.168
-612.259	800.000	-0.051	-0.225
-611.244	-69.611	-0.233	-0.090
-610.230	800.000	0.095	-0.417
-609.215	-200.000	0.005	-0.038
-608.201	28.195	0.105	-0.089
-607.186	-154.763	-0.032	-0.002
-606.171	12.380	-0.128	-0.100
-605.157	-200.000	0.013	0.126
-604.142	442.606	0.042	0.093
-603.128	-24.436	-0.396	0.238
-602.113	541.515	-0.033	-0.078
-601.098	-77.486	0.199	0.070
-600.084	81.883	-0.102	-0.112
-599.069	746.808	-0.127	0.345
-598.055	-100.382	0.168	-0.042
-597.040	7.166	-0.157	0.118
-596.025	-43.738	-0.212	-0.108
-595.011	383.135	-0.217	-0.450
-593.996	-200.000	-0.053	0.273
-592.982	-200.000	-0.007	0.199
-591.967	295.242	0.086	0.158
-590.952	736.155	0.129	0.349
-589.938	-79.504	0.394	-0.134
-588.923	-25.011	-0.310	-0.185
-587.909	-200.000	0.002	-0.252
-586.894	-25.766	-0.095	0.056
-585.879	800.000	-0.130	0.383
-584.865	-200.000	-0.047	0.276
-583.850	-200.000	-0.006	-0.030
-582.836	-127.953	-0.369	0.053
-581.821	-141.477	-0.200	0.020
-580.806	15.886	-0.219	-0.174
-579.792	-200.000	0.031	0.203
-578.777	-101.831	-0.051	0.013
-577.763	-57.143	0.068	-0.030
-576.748	183.459	0.180	-0.269
-575.733	-77.327	-0.406	0.142
-574.719	25.535	-0.223	0.187
-573.704	-200.000	0.016	-0.227
-572.690	-141.999	0.501	0.050
-571.675	-119.036	0.266	0.047
-570.661	800.000	0.037	-0.119
-569.646	-144.731	0.483	0.045
-568.631	800.000	-0.043	-0.168
-567.617	294.977	-0.035	0.064
-566.602	19.796	-0.223	0.181
-565.588	422.748	-0.184	-0.397
-564.573	-51.652	-0.197	-0.093
-563.558	-38.241	-0.368	0.196
-562.544	-127.088	0.157	-0.023
-561.529	-44.347	0.213	0.107
-560.515	111.633	-0.073	-0.088
-559.500	137.979	-0.198	0.261
-558.485	-71.357	0.447	0.168
-557.471	484.107	-0.014	0.033
-556.456	226.257	-0.050	0.082
-555.442	36.086	-0.061	0.054
-554.427	-117.176	-0.243	-0.045
-553.412	150.029	0.086	0.118
-552.398	-200.000	0.051	0.249
-551.383	-65.809	0.146	0.059
-550.369	-64.634	-0.193	0.079
-549.354	-38.226	-0.172	-0.092
-548.339	333.486	-0.096	-0.186
-547.325	-118.847	0.325	0.057
-546.310	-200.000	-0.017	-0.106
-545.296	14.794	-0.226	0.178
-544.281	-129.227	0.431	0.060
-543.266	-200.000	0.011	0.162
-542.252	19.924	0.209	0.169
-541.237	94.810	0.227	0.259
-540.223	-200.000	-0.032	0.178
-539.208	165.426	0.246	-0.350
-538.193	800.000	-0.022	-0.083
-537.179	-43.334	-0.177	0.090
-536.164	364.648	0.093	-0.188
-535.150	213.103	-0.091	0.144
-534.135	-200.000	-0.011	-0.132
-533.121	-132.258	0.409	0.053
-532.106	-200.000	0.005	-0.173
-531.091	-72.098	-0.020	-0.007
-530.077	-1.128	-0.355	0.252
-529.062	145.678	-0.053	0.071
-528.048	41.145	-0.175	0.159
-527.033	-20.998	-0.363	-0.224
-526.018	8.634	-0.258	0.195
-525.004	-200.000	0.015	0.305
-523.989	-89.567	0.255	-0.075
-522.975	78.264	0.032	0.034
-521.960	-14.532	-0.270	-0.175
-520.945	91.924	-0.200	-0.227
-519.931	-77.239	-0.344	0.120
-518.916	-123.627	-0.103	0.016
-517.902	7.948	0.217	0.163
-516.887	-75.488	-0.068	0.024
-515.872	800.000	0.046	-0.134
-514.858	379.900	0.076	0.156
-513.843	800.000	0.120	0.502
-512.829	-72.113	-0.118	0.044
-511.814	556.895	0.088	-0.214
-510.799	140.255	0.090	-0.120
-509.785	-8.485	-0.229	0.155
-508.770	-108.416	0.330	0.071
-507.756	-200.000	-0.010	-0.228
-506.741	124.636	-0.136	0.172
-505.726	62.895	0.074	0.075
-504.712	21.405	0.092	0.075
-503.697	800.000	0.053	-0.163
-502.683	-30.263	-0.342	-0.195
-501.668	547.708	0.082	0.197
-500.653	-200.000	-0.037	0.207
-499.639	132.301	0.026	0.034
-498.624	-93.215	0.103	0.029
-497.610	44.807	0.110	0.102
-496.595	-120.059	-0.272	0.047
-495.581	-31.752	-0.071	0.040
-494.566	440.481	0.043	0.094
-493.551	-160.014	-0.123	-0.007
-492.537	323.170	0.182	-0.348
-491.522	-89.329	-0.233	0.069
-490.508	725.689	-0.093	-0.248
-489.493	-200.000	-0.034	0.358
-488.478	234.391	-0.149	0.246
-487.464	775.728	-0.034	0.093
-486.449	-125.305	0.299	0.046
-485.435	-2.320	-0.256	-0.180
-484.420	-149.818	0.257	-0.020
-483.405	-47.869	0.174	0.085
-482.391	-63.073	-0.127	-0.053
-481.376	43.634	0.149	-0.137
-480.362	-95.353	0.459	-0.124
-479.347	800.000	-0.061	-0.210
-478.332	3.629	-0.146	-0.107
-477.318	4.612	-0.099	-0.073
-476.303	-39.037	-0.089	-0.047
-475.289	800.000	0.030	-0.127
-474.274	-124.927	0.351	0.054
-473.259	-128.882	0.238	-0.034
-472.245	265.894	-0.044	-0.077
-471.230	26.893	0.364	-0.306
-470.216	-131.206	-0.490	-0.065
-469.201	-121.525	-0.339	-0.057
-468.186	355.768	0.145	-0.290
-467.172	-200.000	0.010	-0.199
-466.157	220.474	0.180	-0.289
-465.143	51.621	0.186	-0.177
-464.128	-12.588	0.165	0.108
-463.113	-61.864	-0.295	-0.124
-462.099	-67.482	-0.203	0.080
-461.084	-200.000	0.011	-0.227
-460.070	-200.000	-0.024	-0.162
-459.055	159.914	-0.071	-0.099
-458.040	800.000	-0.058	-0.171
-457.026	-107.877	0.473	-0.103
-456.011	-88.743	-0.309	0.092
-454.997	-130.650	0.265	0.036
-453.982	-200.000	-0.021	-0.235
-452.968	11.660	0.206	-0.159
-451.953	-109.785	0.322	0.068
-450.938	-65.640	0.162	0.065
-449.924	471.400	0.090	-0.203
-448.909	267.232	0.052	0.091
-447.895	84.930	0.347	0.381
-446.880	-200.000	-0.019	0.153
-445.865	481.492	-0.067	-0.151
-444.851	-41.097	-0.290	0.150
-443.836	-7.807	0.046	-0.031
-442.822	-92.634	-0.155	-0.044
-441.807	-155.832	0.219	-0.014
-440.792	166.629	-0.150	0.214
-439.778	117.996	0.249	0.307
-438.763	104.869	0.160	0.189
-437.749	-84.185	-0.166	0.053
-436.734	37.207	0.067	-0.060
-435.719	-132.623	-0.172	0.022
-434.705	246.533	0.063	-0.107
-433.690	-200.000	-0.021	-0.414
-432.676	-6.042	0.032	0.022
-431.661	19.686	-0.275	0.221
-430.646	-2.845	0.115	-0.080
-429.632	22.263	0.015	0.012
-428.617	17.507	0.284	0.226
-427.603	-200.000	-0.025	0.160
-426.588	-177.960	0.263	0.006
-425.573	-40.906	-0.106	0.055
-424.559	128.437	-0.091	-0.116
-423.544	-152.082	-0.194	-0.014
-422.530	-78.949	0.132	-0.045
-421.515	-147.807	-0.327	0.027
-420.500	-7.951	-0.320	0.216
-419.486	-172.544	0.207	-0.007
-418.471	171.851	0.205	0.295
-417.457	-200.000	-0.112	0.508
-416.442	100.187	0.091	-0.106
-415.428	212.501	0.078	0.123
-414.413	362.899	0.100	0.202
-413.398	9.145	-0.057	0.043
-412.384	-200.000	-0.285	0.000
-411.369	-44.804	0.158	-0.079
-410.355	-200.000	0.042	-0.343
-409.340	-121.690	-0.202	-0.034
-408.325	-147.574	0.056	-0.005
-407.311	-10.205	0.183	-0.121
-406.296	800.000	0.096	0.305
-405.282	-35.089	-0.192	-0.105
-404.267	-145.281	-0.088	-0.008
-403.252	800.000	0.063	0.185
-402.238	800.000	-0.029	-0.086
-401.223	-200.000	0.038	0.629
-400.209	800.000	0.065	0.236
-399.194	308.362	0.125	0.233
-398.179	316.685	-0.136	-0.257
-397.165	-115.275	-0.313	0.059
-396.150	35.058	-0.242	0.212
-395.136	-119.803	-0.289	-0.050
-394.121	-156.483	0.208	-0.013
-393.106	800.000	-0.123	-0.347
-392.092	100.226	-0.242	0.280
-391.077	38.799	-0.042	0.037
-390.063	800.000	0.036	0.114
-389.048	365.444	0.060	-0.120
-388.033	-200.000	0.006	0.065
-387.019	43.094	0.111	0.101
-386.004	175.400	-0.118	-0.171
-384.990	82.145	-0.104	0.113
-383.975	-160.973	0.123	-0.006
-382.960	-23.807	-0.134	0.080
-381.946	11.869	0.248	-0.191
-380.931	800.000	0.071	-0.226
-379.917	105.132	-0.048	-0.057
-378.902	373.284	0.034	0.068
-377.888	-200.000	0.007	-0.060
-376.873	-200.000	-0.012	0.139
-375.858	106.471	-0.182	0.216
-374.844	128.079	-0.032	-0.041
-373.829	-200.000	0.003	0.065
-372.815	177.179	0.069	-0.101
-371.800	535.047	0.099	-0.234
-370.785	-88.308	0.203	0.061
-369.771	-49.468	0.034	0.016
-368.756	-126.948	0.140	-0.021
-367.742	-120.616	-0.098	0.017
-366.727	-152.988	-0.128	0.009
-365.712	-156.326	0.271	0.017
-364.698	0.461	-0.218	-0.156
-363.683	736.409	-0.087	-0.234
-362.669	42.457	0.311	-0.283
-361.654	51.559	0.177	-0.168
-360.639	181.748	0.197	0.290
-359.625	-84.795	-0.328	0.103
-358.610	-5.875	-0.116	-0.080
-357.596	-12.696	0.289	-0.188
-356.581	-43.150	-0.481	0.244
-355.566	800.000	0.051	0.152
-354.552	-200.000	0.072	-0.350
-353.537	-179.485	0.260	0.006
-352.523	194.095	-0.195	-0.296
-351.508	-57.196	-0.224	0.098
-350.493	-200.000	0.040	-0.387
-349.479	-200.000	0.016	0.176
-348.464	-34.930	0.133	0.072
-347.450	36.757	-0.115	-0.102
-346.435	42.473	-0.308	0.280
-345.420	678.798	-0.031	-0.081
-344.406	-41.393	0.175	-0.090
-343.391	11.088	0.272	0.208
-342.377	-200.000	-0.028	0.138
-341.362	695.359	-0.181	-0.475
-340.348	160.063	0.165	0.229
-339.333	215.427	0.036	-0.057
-338.318	-200.000	0.009	0.266
-337.304	-56.950	0.115	0.050
-336.289	326.600	-0.042	0.080
-335.275	-24.825	-0.040	0.024
-334.260	-64.381	-0.447	-0.181
-333.245	-57.887	-0.101	0.044
-332.231	277.728	0.069	0.123
-331.216	131.633	0.150	-0.192
-330.202	-200.000	-0.004	-0.037
-329.187	-200.000	-0.010	-0.215
-328.172	243.332	0.089	0.149
-327.158	-200.000	0.020	-0.170
-326.143	-33.644	-0.142	-0.078
-325.129	55.655	-0.312	-0.301
-324.114	158.798	-0.074	0.102
-323.099	-30.505	0.159	0.090
-322.085	-51.158	-0.137	0.064
-321.070	338.277	-0.030	-0.058
-320.056	437.284	-0.157	-0.341
-319.041	28.867	0.239	-0.202
-318.026	-83.008	-0.147	0.047
-317.012	800.000	0.181	0.599
-315.997	52.116	0.104	-0.099
-314.983	252.677	-0.148	-0.252
-313.968	791.414	-0.097	0.265
-312.953	137.374	-0.140	0.182
-311.939	-21.048	-0.325	0.198
-310.924	-123.946	0.044	-0.007
-309.910	800.000	-0.038	0.120
-308.895	-79.693	0.150	-0.050
-307.880	212.909	-0.013	0.021
-306.866	800.000	-0.072	-0.228
-305.851	-49.318	0.290	0.138
-304.837	-54.893	0.134	0.060
-303.822	800.000	0.040	-0.110
-302.807	-2.832	-0.328	-0.228
-301.793	14.792	-0.096	-0.075
-300.778	622.393	-0.126	0.316
-299.764	33.295	0.221	-0.191
-298.749	-62.075	0.166	-0.069
-297.735	498.436	0.031	0.071
-296.720	-200.000	-0.004	0.113
-295.705	-200.000	0.003	-0.158
-294.691	306.259	-0.179	-0.331
-293.676	-34.701	0.202	-0.110
-292.662	26.344	0.105	-0.087
-291.647	647.834	-0.043	0.111
-290.632	25.786	0.104	0.086
-289.618	271.288	-0.104	0.182
-288.603	800.000	-0.136	-0.451
-287.589	16.472	0.238	-0.188
-286.574	-23.779	-0.254	0.152
-285.559	26.725	0.207	0.173
-284.545	-74.692	-0.309	0.111
-283.530	-95.665	0.357	-0.095
-282.516	57.129	0.362	-0.352
-281.501	755.620	-0.027	0.073
-280.486	115.516	-0.035	-0.043
-279.472	296.227	0.091	0.166
-278.457	292.215	0.092	0.166
-277.443	800.000	0.081	-0.303
-276.428	-35.333	-0.250	0.135
-275.413	-17.698	0.175	-0.110
-274.399	800.000	-0.069	-0.276
-273.384	-162.481	0.184	-0.009
-272.370	124.327	0.114	0.143
-271.355	-141.954	-0.524	0.052
-270.340	305.278	-0.141	-0.261
-269.326	-200.000	0.016	0.104
-268.311	-55.205	-0.044	-0.020
-267.297	614.806	-0.141	0.352
-266.282	12.744	0.078	-0.060
-265.267	60.774	0.177	-0.175
-264.253	335.514	0.078	0.150
-263.238	-63.794	-0.211	-0.086
-262.224	89.878	-0.233	0.259
-261.209	-66.302	0.149	0.059
-260.195	25.096	0.122	0.101
-259.180	-65.168	-0.351	0.141
-258.165	-140.754	0.328	0.034
-257.151	800.000	0.084	0.320
-256.136	800.000	-0.130	0.446
-255.122	800.000	-0.012	-0.035
-254.107	800.000	0.037	-0.103
-253.092	257.136	-0.092	0.157
-252.078	-46.695	0.147	-0.072
-251.063	-145.883	-0.266	-0.023
-250.049	-117.088	-0.313	0.057
-249.034	800.000	-0.006	-0.020
-248.019	-25.383	0.083	0.049
-247.005	-200.000	-0.007	0.371
-245.990	91.803	-0.201	0.225
-244.976	-200.000	-0.046	-0.430
-243.961	366.226	-0.059	-0.118
-242.946	-65.240	0.534	0.214
-241.932	-165.298	0.442	0.019
-240.917	120.850	-0.112	-0.139
-239.903	-146.718	0.577	-0.050
-238.888	-200.000	-0.242	-0.001
-237.873	-120.912	0.266	-0.045
-236.859	315.859	0.153	0.288
-235.844	-200.000	0.085	-0.388
-234.830	-200.000	0.023	-0.181
-233.815	353.119	0.079	0.157
-232.800	113.560	-0.064	-0.077
-231.786	800.000	0.042	0.151
-230.771	-47.553	0.114	0.055
-229.757	800.000	0.017	-0.053
-228.742	-93.098	0.091	0.025
-227.727	-49.108	-0.457	-0.217
-226.713	345.171	0.060	0.117
-225.698	800.000	-0.082	-0.275
-224.684	13.438	0.187	-0.144
-223.669	186.721	0.200	0.296
-222.655	-200.000	-0.006	0.144
-221.640	-160.887	0.262	-0.014
-220.625	800.000	0.071	-0.269
-219.611	-125.523	0.279	-0.042
-218.596	-84.225	-0.030	-0.009
-217.582	-200.000	0.018	0.088
-216.567	800.000	0.093	-0.258
-215.552	-200.000	-0.003	-0.134
-214.538	-28.147	0.120	-0.069
-213.523	-200.000	-0.054	-0.336
-212.509	-22.720	0.312	0.187
-211.494	79.491	0.088	0.093
-210.479	69.123	-0.078	0.079
-209.465	775.190	0.096	0.259
-208.450	800.000	0.070	0.300
-207.436	800.000	-0.012	0.037
-206.421	-200.000	0.048	-0.213
-205.406	-22.032	-0.050	-0.030
-204.392	800.000	-0.030	-0.094
-203.377	-147.253	-0.333	-0.028
-202.363	-200.000	0.084	-0.378
-201.348	800.000	0.014	-0.040
-200.333	-200.000	-0.038	0.348
-199.319	-23.293	0.279	0.167
-198.304	-52.000	-0.079	-0.036
-197.290	-200.000	-0.040	-0.243
-196.275	-20.853	0.199	0.121
-195.260	-200.000	-0.007	-0.104
-194.246	15.525	0.153	-0.119
-193.231	-200.000	0.017	0.178
-192.217	-112.802	-0.212	0.042
-191.202	-18.324	-0.140	-0.087
-190.187	80.443	-0.252	-0.269
-189.173	-11.552	-0.061	-0.040
-188.158	-116.591	-0.183	0.033
-187.144	41.297	0.097	-0.087
-186.129	-130.032	-0.438	-0.059
-185.114	121.114	0.097	0.120
-184.100	114.989	0.145	-0.176
-183.085	-177.479	0.271	0.007
-182.071	95.313	0.077	0.087
-181.056	-200.000	-0.042	0.219
-180.042	17.758	0.187	0.147
-179.027	-200.000	-0.008	-0.145
-178.012	203.212	-0.038	-0.058
-176.998	37.297	0.307	0.270
-175.983	-21.021	0.168	0.102
-174.969	423.094	0.052	-0.112
-173.954	-144.701	-0.182	-0.017
-172.939	514.958	-0.077	0.179
-171.925	25.188	0.204	0.168
-170.910	800.000	0.035	-0.117
-169.896	-200.000	0.038	-0.192
-168.881	-128.174	0.312	0.044
-167.866	653.415	-0.158	-0.402
-166.852	-74.747	-0.173	0.062
-165.837	-24.409	0.313	0.185
-164.823	162.453	-0.043	-0.060
-163.808	227.460	0.041	0.066
-162.793	800.000	-0.069	0.242
-161.779	-200.000	0.026	0.170
-160.764	-33.516	-0.200	0.110
-159.750	37.769	0.254	-0.223
-158.735	93.914	-0.291	0.328
-157.720	-200.000	-0.114	0.687
-156.706	800.000	-0.043	0.167
-155.691	-81.881	-0.423	-0.137
-154.677	-116.385	0.242	-0.044
-153.662	319.072	-0.073	0.137
-152.647	-131.823	-0.265	-0.034
-151.633	800.000	0.105	-0.406
-150.618	176.447	-0.050	-0.072
-149.604	157.869	0.091	-0.126
-148.589	-4.681	-0.265	-0.181
-147.574	109.622	0.160	-0.190
-146.560	-32.540	-0.229	0.127
-145.545	-200.000	-0.032	0.138
-144.531	-200.000	-0.490	-0.000
-143.516	19.436	0.034	-0.027
-142.502	406.296	-0.059	0.123
-141.487	-76.788	-0.254	-0.088
-140.472	-200.000	-0.029	-0.159
-139.458	88.306	-0.039	0.043
-138.443	800.000	0.008	0.026
-137.429	10.158	0.230	0.173
-136.414	-79.288	0.318	-0.107
-135.399	138.131	-0.071	-0.093
-134.385	213.681	-0.047	0.074
-133.370	-200.000	0.007	-0.043
-132.356	-123.193	-0.106	0.017
-131.341	-17.945	0.206	0.128
-130.326	-65.793	0.231	0.092
-129.312	800.000	0.017	0.053
-128.297	-42.444	0.209	-0.105
-127.283	-200.000	0.011	-0.213
-126.268	-92.954	-0.397	-0.110
-125.253	-96.017	0.096	-0.025
-124.239	7.732	-0.072	0.053
-123.224	178.938	0.225	0.325
-122.210	48.314	-0.032	0.030
-121.195	-200.000	0.025	0.426
