DTS Sentinel unit serial number:	SN413079Multiplexer serial number:	ORYXHardware model number:	OX4-SRSoftware version number:	ORYX F/W v4.00 Oryx Data Collector v3.7.2.0data status	okinstallation	princeton_trtdifferential loss correction	single-endedforward channel	channel 4reverse channel	N/Adate	2019/09/12time	20:06:19forward acquisition time	15.00reverse acquisition time	0.00gamma	496.2192k internal	0.2311k external	0.2311temperature offset calibration	1.0159default loss term (dB/km)	0.3790temperature slope calibration	1.0000multiplexer offset coefficient	1.0000multiplexer slope coefficient	1.0000fibre end	0.00T internal ref (°C)	31.69T ext. ref 1 (°C)	3.53T ext. ref 2 (°C)	26.27length (m)	temperature (°C)	Stokes	anti-Stokes-747.200	-48.630	0.885	0.432
-746.185	-60.181	-0.634	0.274
-745.171	-122.224	0.810	0.134
-744.156	306.635	0.401	-0.758
-743.142	215.707	-0.398	-0.642
-742.127	582.991	-0.089	0.222
-741.112	-200.000	-0.047	0.478
-740.098	61.447	-0.580	0.586
-739.083	116.947	0.279	-0.348
-738.069	-200.000	0.063	1.199
-737.054	-51.014	0.250	-0.119
-736.039	-200.000	-0.179	1.281
-735.025	154.133	-0.305	-0.425
-734.010	142.334	-0.256	-0.345
-732.996	-200.000	0.048	0.339
-731.981	12.257	0.571	-0.446
-730.966	21.134	-0.320	-0.263
-729.952	-144.807	0.318	0.030
-728.937	72.627	-0.150	0.159
-727.923	-79.519	-0.360	0.123
-726.908	21.173	0.133	-0.110
-725.894	68.126	-0.244	0.253
-724.879	46.332	0.560	-0.527
-723.864	162.885	-0.397	-0.565
-722.850	-200.000	0.142	-0.912
-721.835	-90.384	-0.519	0.153
-720.821	-78.266	0.135	0.047
-719.806	-50.981	-0.628	-0.299
-718.791	-93.284	-0.107	0.030
-717.777	-200.000	0.011	0.055
-716.762	-200.000	-0.043	0.470
-715.748	186.006	-0.210	-0.316
-714.733	-10.049	0.504	-0.339
-713.718	-162.531	-1.221	0.061
-712.704	-75.420	-0.200	0.072
-711.689	-118.083	-0.520	0.094
-710.675	-16.823	0.456	0.293
-709.660	800.000	-0.157	-0.691
-708.645	242.099	0.115	0.196
-707.631	-33.558	0.383	0.214
-706.616	-116.831	-0.580	0.108
-705.602	-2.873	-0.544	-0.385
-704.587	-49.898	-0.312	0.150
-703.572	78.228	0.378	0.409
-702.558	-133.850	-1.058	0.133
-701.543	-100.163	-0.498	0.126
-700.529	-136.403	0.379	-0.045
-699.514	-51.068	-0.434	0.206
-698.499	173.343	-0.455	0.664
-697.485	-111.560	0.744	0.153
-696.470	-80.108	0.319	-0.108
-695.456	157.999	-0.192	0.269
-694.441	800.000	-0.055	-0.179
-693.426	357.487	0.222	0.449
-692.412	-79.924	0.479	-0.163
-691.397	640.864	0.183	-0.473
-690.383	163.580	0.245	-0.349
-689.368	-200.000	-0.025	-0.144
-688.354	-10.478	0.469	0.315
-687.339	72.808	0.168	-0.178
-686.324	366.946	-0.079	-0.161
-685.310	401.285	-0.097	-0.207
-684.295	345.260	0.062	0.124
-683.281	24.162	0.291	-0.243
-682.266	-200.000	0.048	-0.930
-681.251	67.735	-0.301	0.311
-680.237	-144.671	-0.999	0.093
-679.222	71.292	-0.186	0.195
-678.208	133.413	0.094	0.123
-677.193	295.631	0.618	-1.145
-676.178	800.000	-0.143	-0.421
-675.164	-200.000	-0.017	-0.154
-674.149	800.000	0.241	-0.733
-673.135	-80.544	-0.370	0.125
-672.120	481.917	0.333	-0.766
-671.105	174.750	0.422	-0.618
-670.091	121.651	-0.358	-0.452
-669.076	-113.353	0.786	0.156
-668.062	40.107	-0.249	-0.226
-667.047	499.910	-0.142	0.332
-666.032	-2.612	-0.367	0.260
-665.018	-200.000	-0.171	-1.160
-664.003	-104.339	0.777	-0.182
-662.989	-13.458	-0.262	-0.172
-661.974	73.240	-0.196	0.208
-660.959	-131.380	0.029	0.004
-659.945	-200.000	0.137	-1.335
-658.930	643.151	0.250	-0.644
-657.916	800.000	0.053	0.175
-656.901	-62.395	-0.282	0.119
-655.886	258.176	0.226	0.394
-654.872	174.721	-0.363	-0.531
-653.857	-149.635	0.236	-0.019
-652.843	72.285	-0.295	-0.311
-651.828	-200.000	0.045	0.762
-650.814	-200.000	-0.032	-0.363
-649.799	67.676	0.332	-0.343
-648.784	-85.023	-0.193	-0.061
-647.770	-78.608	-0.427	-0.148
-646.755	-200.000	-0.011	0.292
-645.741	-117.397	-0.476	0.087
-644.726	-27.363	0.202	-0.119
-643.711	-200.000	-0.002	0.587
-642.697	-115.900	-0.477	0.090
-641.682	54.957	-0.653	0.638
-640.668	410.375	-0.214	0.459
-639.653	-183.372	0.292	-0.005
-638.638	-58.465	-0.779	0.342
-637.624	-80.371	0.275	-0.093
-636.609	-131.551	1.174	-0.156
-635.595	-102.043	-0.431	0.105
-634.580	-17.386	0.420	-0.267
-633.565	800.000	0.270	1.078
-632.551	-1.850	-0.307	0.218
-631.536	283.101	0.319	0.580
-630.522	-200.000	-0.018	-0.921
-629.507	-200.000	-0.028	-1.082
-628.492	315.579	0.297	-0.566
-627.478	-199.537	-0.877	-0.005
-626.463	12.760	0.313	0.245
-625.449	-200.000	0.053	0.317
-624.434	229.935	0.144	0.237
-623.419	178.039	0.173	0.255
-622.405	800.000	0.072	-0.301
-621.390	-63.752	0.352	-0.146
-620.376	23.637	-0.555	-0.462
-619.361	-29.469	0.872	-0.504
-618.346	-124.050	-0.539	-0.086
-617.332	195.014	-0.367	0.563
-616.317	157.662	-0.101	0.141
-615.303	-65.433	-0.429	-0.174
-614.288	-41.541	0.563	0.293
-613.273	99.298	0.422	0.493
-612.259	-17.095	-0.277	0.177
-611.244	-200.000	0.049	-0.303
-610.230	412.480	0.148	-0.317
-609.215	14.812	-0.470	-0.371
-608.201	-82.252	-0.768	-0.253
-607.186	362.234	-0.078	-0.158
-606.171	75.913	0.315	0.337
-605.157	202.310	-0.380	0.593
-604.142	6.197	0.275	0.206
-603.128	32.851	0.573	0.501
-602.113	-200.000	-0.040	0.250
-601.098	-119.835	0.531	0.092
-600.084	442.382	-0.243	-0.538
-599.069	800.000	-0.151	0.480
-598.055	-38.650	0.527	0.281
-597.040	-200.000	0.020	-0.601
-596.025	-94.555	0.261	-0.072
-595.011	8.518	1.076	-0.817
-593.996	-78.502	0.282	-0.097
-592.982	800.000	0.093	-0.372
-591.967	-55.807	-0.481	0.217
-590.952	-19.790	0.480	0.299
-589.938	196.507	-0.289	-0.444
-588.923	-129.357	-0.577	-0.081
-587.909	68.974	-0.108	-0.112
-586.894	191.235	-0.391	-0.593
-585.879	800.000	-0.147	-0.514
-584.865	-200.000	0.120	-0.623
-583.850	-200.000	0.027	0.417
-582.836	-130.438	-0.524	0.072
-581.821	269.508	-0.577	-1.021
-580.806	203.512	-0.440	-0.686
-579.792	13.017	0.258	-0.202
-578.777	-200.000	0.008	0.585
-577.763	362.256	-0.192	0.389
-576.748	-82.930	0.278	0.090
-575.733	800.000	-0.144	0.427
-574.719	-19.176	0.640	-0.401
-573.704	-200.000	-0.019	-0.507
-572.690	-50.918	0.521	0.247
-571.675	800.000	-0.131	0.429
-570.661	-88.908	-0.671	0.201
-569.646	156.495	-0.284	0.396
-568.631	-69.668	0.299	0.115
-567.617	-114.579	0.517	0.100
-566.602	-113.620	-0.439	0.087
-565.588	343.698	0.082	-0.162
-564.573	-200.000	0.084	0.671
-563.558	-200.000	0.076	0.426
-562.544	332.865	0.261	-0.508
-561.529	-106.909	0.429	-0.096
-560.515	11.825	0.410	0.318
-559.500	17.623	0.118	0.094
-558.485	-147.080	-0.338	0.029
-557.471	800.000	0.060	0.234
-556.456	-200.000	-0.044	-0.695
-555.442	154.221	-0.487	0.673
-554.427	800.000	0.013	-0.052
-553.412	-17.277	-0.629	-0.399
-552.398	-200.000	-0.002	-0.048
-551.383	46.116	0.177	0.165
-550.369	-98.360	-0.729	0.188
-549.354	-200.000	0.049	-0.393
-548.339	-113.674	-0.421	0.083
-547.325	-200.000	0.213	-1.249
-546.310	557.161	0.322	0.783
-545.296	800.000	0.147	0.585
-544.281	-63.046	0.273	-0.114
-543.266	162.461	-0.427	0.603
-542.252	194.866	0.464	0.709
-541.237	591.547	0.114	0.284
-540.223	141.845	0.225	-0.300
-539.208	29.055	-0.298	0.255
-538.193	800.000	0.189	0.805
-537.179	796.223	-0.143	0.398
-536.164	-77.608	-0.861	-0.300
-535.150	29.511	0.609	0.521
-534.135	-4.296	0.535	0.373
-533.121	800.000	0.178	0.559
-532.106	442.369	0.303	0.669
-531.091	-49.149	0.950	0.457
-530.077	-117.765	-0.073	-0.013
-529.062	132.177	0.124	-0.161
-528.048	-200.000	0.065	-0.769
-527.033	-112.851	-0.325	0.065
-526.018	-151.352	0.780	0.058
-525.004	427.831	-0.726	-1.578
-523.989	-52.436	-0.700	-0.326
-522.975	21.613	-0.206	0.169
-521.960	376.770	0.166	0.342
-520.945	-62.761	-0.308	-0.129
-519.931	551.456	0.239	0.576
-518.916	-59.266	-1.379	0.598
-517.902	-48.140	0.876	0.426
-516.887	-200.000	0.045	-0.546
-515.872	-129.307	0.148	0.021
-514.858	282.886	-0.281	-0.507
-513.843	556.541	0.343	0.832
-512.829	-48.702	-0.069	-0.033
-511.814	800.000	-0.243	0.737
-510.799	-200.000	-0.166	-0.895
-509.785	-200.000	0.046	-0.672
-508.770	160.276	-0.194	0.272
-507.756	-127.767	-0.816	0.118
-506.741	-199.908	-0.435	-0.002
-505.726	334.264	0.209	0.406
-504.712	-145.093	-0.421	-0.038
-503.697	-18.263	-0.100	0.063
-502.683	-200.000	0.002	-0.588
-501.668	695.108	0.102	0.270
-500.653	-200.000	0.124	0.875
-499.639	-97.849	-0.366	0.095
-498.624	-98.858	-0.615	0.157
-497.610	-54.868	0.305	-0.138
-496.595	235.057	0.407	0.675
-495.581	-111.717	-0.316	-0.064
-494.566	800.000	-0.073	0.292
-493.551	-20.919	0.258	0.159
-492.537	-90.986	0.342	0.099
-491.522	-200.000	-0.005	0.117
-490.508	153.223	-0.531	-0.730
-489.493	-200.000	-0.106	-0.818
-488.478	-200.000	0.050	0.830
-487.464	-39.642	-0.397	0.209
-486.449	-200.000	-0.018	-0.492
-485.435	-135.514	0.271	-0.032
-484.420	-19.905	-0.150	-0.093
-483.405	-139.172	-0.229	0.025
-482.391	800.000	0.094	0.344
-481.376	-44.246	-0.528	0.266
-480.362	-101.112	1.033	0.254
-479.347	66.097	0.596	-0.607
-478.332	-200.000	0.092	-0.651
-477.318	-17.543	0.554	-0.350
-476.303	-111.224	-0.402	0.083
-475.289	-46.746	-0.111	-0.054
-474.274	-68.473	0.440	-0.171
-473.259	-200.000	0.077	-0.421
-472.245	-24.887	-0.217	-0.129
-471.230	-26.427	0.277	-0.163
-470.216	-200.000	-0.110	-0.531
-469.201	800.000	0.305	-0.845
-468.186	-21.712	-0.237	-0.145
-467.172	-200.000	-0.007	0.118
-466.157	-200.000	0.043	-0.746
-465.143	-23.448	0.234	0.141
-464.128	800.000	-0.025	0.076
-463.113	701.886	-0.158	-0.417
-462.099	207.055	-0.246	0.385
-461.084	271.515	-0.297	-0.526
-460.070	-44.370	-0.535	-0.269
-459.055	-47.578	-0.476	-0.232
-458.040	-189.177	-0.152	0.002
-457.026	-72.983	0.085	0.031
-456.011	-11.894	-0.351	-0.231
-454.997	800.000	0.171	-0.704
-453.982	28.328	-0.434	0.368
-452.968	200.312	-0.456	0.703
-451.953	-0.923	0.598	0.425
-450.938	69.358	1.020	-1.054
-449.924	-200.000	0.021	-0.144
-448.909	-52.380	0.376	0.175
-447.895	-47.332	-0.521	-0.255
-446.880	339.044	0.104	-0.204
-445.865	60.606	-0.212	-0.210
-444.851	-200.000	0.084	0.446
-443.836	25.704	-0.668	-0.558
-442.822	-64.587	0.508	-0.207
-441.807	-109.905	-0.158	0.033
-440.792	94.118	-0.284	-0.324
-439.778	5.905	0.178	0.132
-438.763	-107.194	-0.258	-0.057
-437.749	93.738	-0.440	0.500
-436.734	-40.396	-0.814	0.424
-435.719	135.559	0.301	0.393
-434.705	-104.073	0.520	-0.122
-433.690	25.396	-0.847	-0.706
-432.676	14.367	-0.719	-0.563
-431.661	-30.317	-0.186	0.106
-430.646	710.450	-0.167	-0.444
-429.632	800.000	-0.176	-0.736
-428.617	193.080	0.359	0.544
-427.603	106.211	0.370	0.440
-426.588	29.851	0.137	0.117
-425.573	-156.640	-0.244	0.015
-424.559	123.206	-0.223	-0.280
-423.544	137.017	-0.284	0.372
-422.530	50.041	-0.341	-0.323
-421.515	-47.808	-0.243	-0.118
-420.500	800.000	0.051	0.151
-419.486	800.000	-0.209	0.793
-418.471	-3.390	0.387	0.270
-417.457	59.193	0.341	-0.336
-416.442	-65.084	0.460	0.186
-415.428	-200.000	0.070	0.419
-414.413	552.223	-0.042	-0.101
-413.398	65.419	-0.281	0.285
-412.384	800.000	-0.090	-0.300
-411.369	306.783	-0.264	-0.493
-410.355	742.689	0.174	0.468
-409.340	-200.000	0.094	0.448
-408.325	-35.607	0.396	-0.215
-407.311	13.994	-0.292	-0.228
-406.296	60.143	0.199	0.197
-405.282	-200.000	0.001	-0.410
-404.267	-200.000	-0.086	-0.682
-403.252	11.100	0.694	-0.532
-402.238	-1.251	-1.158	-0.819
-401.223	-68.295	-0.440	-0.171
-400.209	-200.000	0.012	0.177
-399.194	95.888	0.604	0.690
-398.179	368.473	0.361	-0.731
-397.165	-200.000	0.040	-0.933
-396.150	-163.427	0.361	0.017
-395.136	8.433	-0.666	0.502
-394.121	19.796	-0.299	0.241
-393.106	-35.196	0.231	0.126
-392.092	-109.453	-0.646	0.137
-391.077	18.330	0.378	-0.302
-390.063	340.189	-0.347	-0.677
-389.048	800.000	-0.163	0.457
-388.033	-200.000	-0.020	-0.489
-387.019	133.855	0.296	-0.384
-386.004	800.000	-0.202	-0.581
-384.990	2.466	-0.684	0.495
-383.975	800.000	0.281	1.021
-382.960	443.477	0.469	1.029
-381.946	57.883	-0.231	-0.226
-380.931	251.056	0.197	0.334
-379.917	-36.086	-0.316	-0.171
-378.902	-200.000	-0.044	0.387
-377.888	159.298	0.038	0.052
-376.873	-200.000	0.018	0.551
-375.858	130.059	-0.057	-0.073
-374.844	-21.502	0.678	-0.414
-373.829	-138.560	-0.814	-0.089
-372.815	29.099	-0.109	0.092
-371.800	-200.000	0.004	-0.043
-370.785	-76.414	-0.280	0.098
-369.771	465.682	-0.234	0.525
-368.756	266.273	-0.157	0.274
-367.742	306.810	0.471	0.877
-366.727	-59.098	0.724	0.312
-365.712	-75.325	-0.198	-0.071
-364.698	-37.144	0.977	0.523
-363.683	-46.440	0.900	0.442
-362.669	-200.000	0.116	-1.062
-361.654	-200.000	0.053	0.265
-360.639	-54.206	-1.273	0.578
-359.625	-100.547	0.099	0.024
-358.610	-85.662	0.250	-0.078
-357.596	-200.000	-0.072	0.444
-356.581	216.626	0.241	-0.383
-355.566	800.000	-0.175	-0.516
-354.552	230.466	-0.197	0.323
-353.537	168.635	0.327	0.466
-352.523	-200.000	0.114	-0.921
-351.508	153.196	0.100	0.136
-350.493	-200.000	-0.017	-0.541
-349.479	16.754	-0.501	-0.396
-348.464	-200.000	-0.134	0.781
-347.450	-72.238	0.653	0.242
-346.435	-80.320	0.437	0.146
-345.420	138.241	-0.765	1.003
-344.406	321.502	0.101	0.192
-343.391	-115.818	-1.060	-0.198
-342.377	301.941	-0.479	-0.885
-341.362	264.359	0.290	0.505
-340.348	-200.000	0.042	-0.285
-339.333	63.439	0.234	0.235
-338.318	20.698	0.241	0.195
-337.304	-99.965	0.398	0.099
-336.289	-55.076	0.225	0.101
-335.275	-81.602	0.612	-0.201
-334.260	393.323	-0.131	0.273
-333.245	-73.349	-0.641	0.234
-332.231	46.314	0.509	0.472
-331.216	-70.810	-0.613	0.231
-330.202	558.347	-0.281	0.677
-329.187	-12.434	0.582	0.380
-328.172	32.628	0.298	-0.258
-327.158	-80.784	-0.497	0.165
-326.143	-200.000	0.118	-0.941
-325.129	105.490	-0.413	-0.488
-324.114	166.558	-0.250	-0.354
-323.099	-61.978	-0.199	0.083
-322.085	37.791	-0.234	-0.207
-321.070	109.306	0.183	0.218
-320.056	193.472	0.167	-0.251
-319.041	800.000	-0.189	0.704
-318.026	-143.289	0.365	0.035
-317.012	-140.657	-0.718	0.074
-315.997	-200.000	-0.418	-0.002
-314.983	-177.099	0.467	0.012
-313.968	-105.998	0.678	0.152
-312.953	691.793	-0.325	-0.851
-311.939	-200.000	-0.028	-1.211
-310.924	50.990	-0.181	-0.171
-309.910	-128.481	1.150	-0.163
-308.895	-200.000	-0.069	-0.492
-307.880	-72.468	0.499	-0.184
-306.866	800.000	0.166	-0.460
-305.851	51.234	-0.464	-0.440
-304.837	-200.000	0.069	0.580
-303.822	205.188	0.413	0.639
-302.807	-1.239	0.351	0.248
-301.793	-147.688	-0.196	0.016
-300.778	-43.788	0.416	-0.209
-299.764	-200.000	0.003	-0.032
-298.749	-200.000	0.058	0.615
-297.735	325.821	0.303	0.578
-296.720	-19.287	-0.183	0.113
-295.705	800.000	0.278	-0.848
-294.691	-93.122	-0.985	0.274
-293.676	800.000	0.091	0.264
-292.662	-70.463	1.115	-0.421
-291.647	-51.718	0.684	-0.318
-290.632	356.762	0.272	-0.541
-289.618	84.553	-0.285	-0.311
-288.603	-26.775	-0.825	-0.481
-287.589	800.000	0.132	0.540
-286.574	53.953	0.553	0.530
-285.559	-193.370	0.316	-0.003
-284.545	194.590	0.127	0.192
-283.530	-200.000	-0.118	0.600
-282.516	-101.105	-0.581	0.142
-281.501	800.000	-0.024	0.097
-280.486	-63.542	-0.496	0.203
-279.472	-36.551	0.245	-0.131
-278.457	338.940	-0.281	-0.546
-277.443	74.676	-0.228	-0.239
-276.428	152.631	-0.310	0.422
-275.413	-19.290	0.257	0.159
-274.399	-178.157	-0.455	-0.011
-273.384	-169.652	0.226	0.008
-272.370	81.086	0.546	-0.588
-271.355	-78.623	-0.596	-0.203
-270.340	-135.869	0.570	-0.067
-269.326	800.000	-0.013	0.040
-268.311	800.000	-0.169	0.643
-267.297	47.398	0.497	-0.462
-266.282	37.445	-0.286	0.252
-265.267	-190.723	0.479	-0.005
-264.253	3.059	0.290	0.210
-263.238	177.147	-0.432	0.626
-262.224	-23.422	-0.171	0.102
-261.209	625.770	0.217	-0.545
-260.195	-138.693	0.312	0.034
-259.180	-84.410	-0.179	0.056
-258.165	7.328	0.529	0.393
-257.151	97.955	0.409	0.469
-256.136	59.629	-0.495	-0.486
-255.122	-200.000	-0.076	-0.422
-254.107	-92.223	-0.322	0.091
-253.092	619.116	0.142	0.355
-252.078	-118.983	-0.708	-0.124
-251.063	-200.000	-0.091	0.499
-250.049	-8.748	0.412	-0.275
-249.034	40.163	-0.454	0.406
-248.019	-200.000	-0.003	-0.626
-247.005	-200.000	0.011	-0.261
-245.990	-200.000	0.019	-0.311
-244.976	800.000	-0.109	-0.405
-243.961	-200.000	-0.098	-0.675
-242.946	800.000	0.175	-0.721
-241.932	800.000	-0.222	-0.702
-240.917	800.000	0.204	-0.570
-239.903	-27.673	-0.096	-0.056
-238.888	407.753	-0.374	0.788
-237.873	-115.276	0.773	0.145
-236.859	-171.159	0.237	-0.008
-235.844	691.847	-0.375	-0.979
-234.830	291.915	0.257	-0.466
-233.815	4.000	0.583	0.424
-232.800	-38.183	0.175	0.092
-231.786	-93.010	0.726	-0.201
-230.771	573.883	-0.216	0.524
-229.757	272.142	0.178	0.312
-228.742	-72.478	0.422	0.155
-227.727	23.976	-0.716	-0.588
-226.713	308.043	-0.066	0.122
-225.698	-73.869	-0.657	0.237
-224.684	-14.014	0.431	0.277
-223.669	-0.652	-0.081	0.057
-222.655	-200.000	-0.012	0.186
-221.640	24.762	-0.299	-0.247
-220.625	-12.640	0.560	-0.363
-219.611	-200.000	0.058	0.435
-218.596	79.038	0.287	0.306
-217.582	-75.993	0.432	0.152
-216.567	-121.793	0.491	-0.081
-215.552	-200.000	0.020	-0.966
-214.538	-136.937	0.489	-0.056
-213.523	-3.344	0.534	-0.370
-212.509	323.400	-0.211	0.400
-211.494	-33.289	0.959	0.528
-210.479	146.309	-0.212	0.282
-209.465	-9.626	-0.593	0.393
-208.450	21.382	0.366	0.296
-207.436	-143.637	0.581	0.055
-206.421	123.132	0.224	-0.279
-205.406	-85.289	0.675	0.209
-204.392	-52.411	-0.247	-0.113
-203.377	6.498	0.309	-0.229
-202.363	-63.171	0.172	-0.070
-201.348	60.580	0.215	0.212
-200.333	343.542	-0.415	-0.809
-199.319	-15.286	0.272	0.173
-198.304	-114.730	-0.521	-0.099
-197.290	17.805	0.652	0.516
-196.275	151.169	-0.395	0.533
-195.260	84.877	-0.782	-0.852
-194.246	154.257	0.300	-0.409
-193.231	-113.146	-0.362	-0.071
-192.217	-17.897	0.462	-0.288
-191.202	-106.088	-0.052	-0.012
-190.187	-100.675	-0.420	0.103
-189.173	-68.364	-1.067	0.412
-188.158	36.383	0.716	0.627
-187.144	11.748	-0.419	-0.319
-186.129	-143.120	-0.359	0.034
-185.114	234.928	0.105	0.172
-184.100	205.902	0.048	0.074
-183.085	189.413	-0.051	-0.075
-182.071	-50.974	-0.660	-0.308
-181.056	549.134	0.137	0.326
-180.042	587.229	0.211	-0.516
-179.027	800.000	0.119	-0.510
-178.012	-200.000	-0.096	0.424
-176.998	134.097	0.403	0.519
-175.983	-115.291	1.081	-0.203
-174.969	-132.149	0.334	-0.043
-173.954	93.893	0.494	0.556
-172.939	-51.961	0.537	-0.248
-171.925	-146.057	-0.974	0.085
-170.910	-43.175	-0.526	-0.264
-169.896	800.000	-0.155	-0.514
-168.881	136.265	-0.407	-0.527
-167.866	800.000	-0.071	-0.219
-166.852	123.461	0.350	0.435
-165.837	623.400	0.261	0.654
-164.823	28.470	-0.312	0.262
-163.808	-200.000	0.029	0.552
-162.793	-3.695	-0.211	0.145
-161.779	338.967	0.262	0.506
-160.764	-150.972	-0.641	0.048
-159.750	266.502	-0.059	-0.102
-158.735	-69.801	-0.470	-0.178
-157.720	800.000	-0.266	-0.951
-156.706	800.000	0.086	-0.360
-155.691	16.080	0.518	0.405
-154.677	-77.655	0.648	0.223
-153.662	-165.019	-0.609	-0.027
-152.647	311.739	0.335	0.623
-151.633	306.792	-0.107	0.198
-150.618	-200.000	0.105	0.650
-149.604	800.000	0.071	0.292
-148.589	-153.540	0.281	-0.019
-147.574	800.000	0.051	0.156
-146.560	93.549	-0.410	0.461
-145.545	271.314	-0.344	-0.601
-144.531	800.000	-0.137	-0.470
-143.516	-200.000	0.017	0.382
-142.502	800.000	-0.212	0.901
-141.487	-60.606	0.699	0.294
-140.472	-131.759	-0.362	-0.047
-139.458	-44.270	0.946	-0.470
-138.443	51.270	0.819	-0.770
-137.429	-97.675	0.765	0.196
-136.414	-45.330	-0.394	-0.194
-135.399	-96.339	1.081	0.284
-134.385	-200.000	-0.018	-0.513
-133.370	-50.021	-0.544	0.256
-132.356	-77.494	0.486	-0.167
-131.341	-200.000	-0.062	0.584
-130.326	69.882	0.196	0.200
-129.312	-35.067	0.252	-0.136
-128.297	-171.618	0.502	0.016
-127.283	-200.000	-0.028	-0.186
-126.268	-96.210	-0.481	-0.127
-125.253	-200.000	-0.122	0.929
-124.239	-54.490	0.339	-0.152
-123.224	-144.146	0.758	0.070
-122.210	-200.000	0.102	-0.578
-121.195	-88.162	-0.667	-0.198
-120.180	-97.486	-0.212	0.055
