DTS Sentinel unit serial number:	SN413079Multiplexer serial number:	ORYXHardware model number:	OX4-SRSoftware version number:	ORYX F/W v4.00 Oryx Data Collector v3.7.2.0data status	okinstallation	princeton_trtdifferential loss correction	single-endedforward channel	channel 4reverse channel	N/Adate	2019/09/16time	19:25:35forward acquisition time	60.00reverse acquisition time	0.00gamma	496.2192k internal	0.2306k external	0.2306temperature offset calibration	0.9966default loss term (dB/km)	0.3790temperature slope calibration	1.0000multiplexer offset coefficient	1.0000multiplexer slope coefficient	1.0000fibre end	0.00T internal ref (°C)	34.67T ext. ref 1 (°C)	0.06T ext. ref 2 (°C)	27.65length (m)	temperature (°C)	Stokes	anti-Stokes-747.200	-200.000	-0.024	-0.532
-746.185	-50.816	0.003	0.002
-745.171	-33.852	0.281	0.157
-744.156	-60.699	0.258	0.111
-743.142	-200.000	0.025	-0.466
-742.127	-68.317	0.303	0.120
-741.112	567.977	0.092	-0.228
-740.098	800.000	-0.047	0.193
-739.083	307.718	0.120	-0.228
-738.069	-149.500	0.844	-0.068
-737.054	67.160	-0.183	0.190
-736.039	-200.000	-0.394	-0.000
-735.025	-76.205	0.416	0.149
-734.010	109.701	0.036	0.044
-732.996	-0.600	-0.045	0.032
-731.981	800.000	0.085	0.286
-730.966	-134.410	-0.060	-0.008
-729.952	755.281	-0.121	0.332
-728.937	-128.329	0.074	-0.011
-727.923	16.815	-0.301	-0.242
-726.908	-3.186	-0.190	-0.134
-725.894	-34.323	0.264	-0.147
-724.879	800.000	0.059	0.169
-723.864	-200.000	-0.031	-0.152
-722.850	231.500	0.142	0.237
-721.835	-200.000	-0.053	-0.319
-720.821	-17.073	-0.271	-0.174
-719.806	419.759	0.188	0.408
-718.791	-200.000	-0.025	-0.207
-717.777	-64.960	-0.108	-0.044
-716.762	-200.000	0.008	0.213
-715.748	-200.000	-0.004	0.046
-714.733	161.437	-0.229	-0.326
-713.718	75.735	0.099	-0.107
-712.704	-114.953	-0.073	-0.014
-711.689	-134.658	0.062	-0.008
-710.675	-82.724	0.249	0.082
-709.660	800.000	0.133	-0.395
-708.645	800.000	-0.099	-0.409
-707.631	120.192	-0.219	-0.276
-706.616	-47.812	0.081	0.040
-705.602	800.000	0.036	-0.153
-704.587	-18.799	-0.101	-0.064
-703.572	9.617	-0.219	-0.168
-702.558	94.114	0.172	0.198
-701.543	592.181	-0.083	0.208
-700.529	-172.426	0.139	0.004
-699.514	505.205	0.035	-0.081
-698.499	-71.014	-0.154	0.059
-697.485	-46.023	-0.123	0.062
-696.470	-99.757	-0.098	0.025
-695.456	22.001	0.166	0.138
-694.441	608.364	0.184	0.467
-693.426	27.243	-0.157	-0.134
-692.412	-156.345	-0.151	-0.010
-691.397	253.716	-0.071	0.123
-690.383	-200.000	-0.004	0.085
-689.368	-200.000	0.032	-0.142
-688.354	191.671	0.104	0.159
-687.339	780.364	0.048	-0.134
-686.324	-85.376	0.236	-0.075
-685.310	306.779	-0.101	0.191
-684.295	-200.000	-0.028	0.165
-683.281	-1.803	-0.452	-0.323
-682.266	800.000	-0.040	0.142
-681.251	-200.000	-0.028	-0.353
-680.237	-132.179	-0.064	0.008
-679.222	-137.874	0.234	0.027
-678.208	-64.474	0.160	0.066
-677.193	178.836	-0.267	-0.395
-676.178	-200.000	-0.025	-0.117
-675.164	165.334	0.214	-0.307
-674.149	-61.990	-0.190	0.080
-673.135	-200.000	-0.024	-0.235
-672.120	-200.000	-0.023	0.168
-671.105	28.714	0.183	0.157
-670.091	41.095	-0.059	-0.054
-669.076	-49.738	0.171	0.082
-668.062	-60.132	-0.234	0.101
-667.047	-200.000	-0.068	-0.527
-666.032	800.000	-0.027	0.107
-665.018	800.000	0.066	0.244
-664.003	-41.403	0.079	0.041
-662.989	-112.928	0.333	-0.067
-661.974	631.293	-0.159	-0.408
-660.959	-36.255	-0.084	0.046
-659.945	55.304	-0.039	-0.039
-658.930	450.529	-0.104	0.232
-657.916	-108.326	0.264	-0.058
-656.901	59.927	0.085	0.085
-655.886	-81.145	-0.394	0.132
-654.872	133.815	-0.030	-0.039
-653.857	39.928	-0.277	-0.252
-652.843	551.485	0.142	-0.346
-651.828	-200.000	-0.018	-0.274
-650.814	-109.245	0.048	0.010
-649.799	-29.868	0.045	-0.026
-648.784	-11.579	-0.224	0.149
-647.770	-24.009	0.154	-0.093
-646.755	-105.662	0.392	0.090
-645.741	-41.820	-0.445	-0.231
-644.726	-66.992	0.141	-0.056
-643.711	482.596	-0.062	-0.144
-642.697	238.587	-0.063	-0.107
-641.682	-200.000	-0.012	0.106
-640.668	800.000	0.086	-0.316
-639.653	800.000	-0.058	-0.227
-638.638	105.573	-0.116	0.139
-637.624	38.741	-0.137	0.124
-636.609	726.432	-0.065	0.177
-635.595	108.244	0.119	-0.144
-634.580	85.580	-0.115	0.128
-633.565	270.577	0.256	-0.455
-632.551	800.000	0.071	0.277
-631.536	294.536	0.051	-0.094
-630.522	-200.000	-0.008	0.106
-629.507	-95.723	0.169	0.046
-628.492	-78.473	0.370	-0.128
-627.478	50.951	0.112	-0.108
-626.463	-113.905	-0.255	0.050
-625.449	-16.566	0.301	0.193
-624.434	48.927	-0.236	-0.224
-623.419	-200.000	-0.012	0.244
-622.405	-114.079	-0.094	-0.018
-621.390	-143.642	-0.292	0.028
-620.376	107.606	0.173	-0.209
-619.361	-113.878	0.215	0.042
-618.346	6.354	0.195	-0.146
-617.332	-136.673	-0.338	0.040
-616.317	23.759	0.103	0.086
-615.303	-69.466	0.148	0.057
-614.288	420.946	0.086	0.187
-613.273	-158.133	0.224	-0.013
-612.259	481.842	0.037	0.086
-611.244	27.299	0.196	0.167
-610.230	-19.882	-0.101	0.063
-609.215	12.663	-0.167	0.131
-608.201	127.458	-0.115	0.147
-607.186	-109.077	-0.167	0.036
-606.171	777.333	-0.099	-0.275
-605.157	64.190	0.212	0.216
-604.142	-119.059	0.274	-0.049
-603.128	511.065	0.028	0.065
-602.113	-200.000	0.018	0.318
-601.098	126.244	-0.223	-0.285
-600.084	239.012	0.017	0.029
-599.069	-200.000	-0.026	0.292
-598.055	-96.923	0.118	0.031
-597.040	48.243	0.178	-0.169
-596.025	153.047	-0.133	-0.184
-595.011	-200.000	0.041	-0.346
-593.996	800.000	-0.031	-0.110
-592.982	674.122	-0.147	-0.384
-591.967	-200.000	-0.009	0.341
-590.952	498.252	0.034	0.080
-589.938	17.723	-0.278	-0.224
-588.923	7.948	-0.162	0.123
-587.909	-200.000	-0.013	0.177
-586.894	106.707	0.143	0.171
-585.879	-57.161	0.203	0.091
-584.865	-48.878	0.101	-0.049
-583.850	62.635	0.067	0.068
-582.836	-155.566	-0.173	-0.011
-581.821	434.538	-0.035	0.076
-580.806	-126.460	0.106	-0.016
-579.792	-200.000	0.005	0.344
-578.777	-200.000	-0.001	0.100
-577.763	382.700	0.165	-0.343
-576.748	-200.000	-0.037	-0.213
-575.733	-170.212	0.034	0.001
-574.719	-197.606	-0.246	0.002
-573.704	-6.709	0.169	-0.116
-572.690	-125.925	0.202	0.031
-571.675	-200.000	0.020	-0.155
-570.661	-128.751	0.230	-0.033
-569.646	-102.516	0.175	0.042
-568.631	-53.699	0.076	-0.035
-567.617	142.202	0.066	-0.089
-566.602	800.000	0.069	-0.259
-565.588	-136.544	0.062	0.007
-564.573	-0.682	-0.042	0.030
-563.558	13.326	-0.246	0.192
-562.544	88.662	-0.164	0.184
-561.529	-138.597	0.114	-0.013
-560.515	-74.538	-0.232	-0.085
-559.500	-200.000	-0.028	0.290
-558.485	274.113	-0.144	-0.258
-557.471	167.645	0.094	-0.135
-556.456	800.000	-0.047	0.177
-555.442	-17.164	0.253	-0.161
-554.427	352.857	0.169	0.338
-553.412	800.000	0.037	0.121
-552.398	-192.850	0.303	-0.003
-551.383	122.065	0.167	-0.210
-550.369	103.416	0.045	-0.053
-549.354	-20.446	-0.155	0.096
-548.339	13.698	-0.258	-0.202
-547.325	-200.000	-0.003	0.264
-546.310	-57.793	0.092	0.041
-545.296	314.907	-0.076	-0.145
-544.281	68.753	-0.233	0.241
-543.266	-200.000	0.042	0.301
-542.252	-200.000	0.017	-0.100
-541.237	293.945	0.193	0.356
-540.223	-200.000	0.034	0.252
-539.208	-90.326	0.256	0.075
-538.193	120.620	0.041	0.051
-537.179	-9.757	0.254	-0.171
-536.164	-99.300	0.316	-0.081
-535.150	-11.067	0.158	0.105
-534.135	582.500	-0.060	-0.148
-533.121	-3.590	0.064	-0.045
-532.106	353.714	0.116	-0.232
-531.091	-162.377	-0.248	-0.012
-530.077	-200.000	-0.015	-0.085
-529.062	-200.000	0.001	-0.244
-528.048	-200.000	0.009	0.271
-527.033	-66.597	0.163	-0.065
-526.018	10.335	-0.250	0.192
-525.004	300.783	-0.012	-0.023
-523.989	-200.000	-0.025	-0.163
-522.975	-40.461	0.240	0.126
-521.960	96.291	-0.158	0.182
-520.945	598.235	0.055	0.138
-519.931	-75.677	-0.164	0.059
-518.916	-92.671	-0.154	-0.044
-517.902	341.131	0.023	-0.045
-516.887	318.818	0.061	0.116
-515.872	-11.860	-0.322	0.213
-514.858	73.746	0.083	0.088
-513.843	-103.619	-0.176	0.042
-512.829	111.245	-0.015	-0.019
-511.814	-130.804	0.124	-0.017
-510.799	410.053	-0.089	0.191
-509.785	-200.000	-0.009	0.051
-508.770	800.000	0.127	0.472
-507.756	5.730	0.135	0.101
-506.741	800.000	-0.017	-0.070
-505.726	208.897	0.096	0.151
-504.712	-198.943	-0.060	0.000
-503.697	-51.680	-0.374	0.176
-502.683	285.554	-0.224	-0.408
-501.668	-200.000	-0.050	-0.340
-500.653	170.555	-0.074	0.107
-499.639	800.000	0.081	-0.305
-498.624	59.664	0.017	-0.017
-497.610	-58.473	-0.055	-0.024
-496.595	800.000	-0.039	-0.132
-495.581	587.914	-0.084	-0.208
-494.566	163.975	0.053	0.075
-493.551	413.713	0.039	0.084
-492.537	136.998	0.159	-0.209
-491.522	-196.553	-0.212	-0.001
-490.508	20.082	-0.246	-0.200
-489.493	-200.000	-0.125	-0.596
-488.478	-50.705	-0.532	0.252
-487.464	-74.637	-0.360	-0.131
-486.449	-200.000	-0.031	-0.252
-485.435	-149.317	0.230	0.018
-484.420	-54.622	-0.139	0.063
-483.405	-77.264	0.305	0.107
-482.391	-106.535	-0.014	-0.003
-481.376	213.328	0.142	0.225
-480.362	75.838	0.169	-0.180
-479.347	-51.436	0.065	-0.031
-478.332	-200.000	0.013	0.429
-477.318	800.000	-0.084	-0.255
-476.303	108.046	0.311	-0.373
-475.289	-68.758	-0.050	0.019
-474.274	136.850	0.083	0.110
-473.259	800.000	0.079	0.324
-472.245	-7.142	-0.283	-0.193
-471.230	800.000	0.027	0.080
-470.216	-25.131	-0.169	-0.101
-469.201	-49.647	-0.156	-0.075
-468.186	48.412	0.124	0.117
-467.172	-200.000	-0.015	-0.082
-466.157	-200.000	0.008	-0.119
-465.143	289.122	0.188	0.343
-464.128	103.321	0.086	0.101
-463.113	100.633	0.196	-0.229
-462.099	294.298	0.067	-0.124
-461.084	800.000	-0.039	0.172
-460.070	-143.032	0.528	-0.051
-459.055	800.000	-0.116	-0.334
-458.040	-40.412	-0.307	0.161
-457.026	395.482	-0.069	0.144
-456.011	-67.571	-0.210	0.083
-454.997	209.315	0.169	0.266
-453.982	-109.127	-0.263	-0.056
-452.968	-178.684	0.249	-0.006
-451.953	163.404	-0.039	0.055
-450.938	800.000	0.028	0.095
-449.924	114.362	-0.177	-0.216
-448.909	91.046	0.177	-0.199
-447.895	-113.285	-0.237	0.047
-446.880	-184.075	0.277	0.005
-445.865	-28.268	-0.144	-0.084
-444.851	-200.000	-0.011	0.200
-443.836	-200.000	0.002	0.097
-442.822	-76.665	0.101	-0.035
-441.807	-200.000	-0.010	0.193
-440.792	-200.000	-0.028	0.343
-439.778	800.000	0.057	0.223
-438.763	49.969	0.198	0.187
-437.749	800.000	0.083	0.319
-436.734	-73.236	0.178	0.066
-435.719	-30.537	0.225	-0.128
-434.705	-99.922	-0.139	-0.035
-433.690	-200.000	-0.011	0.074
-432.676	-10.343	-0.133	-0.088
-431.661	687.834	0.116	-0.305
-430.646	-16.039	-0.216	-0.138
-429.632	-160.074	0.136	0.007
-428.617	57.807	-0.066	0.065
-427.603	259.627	-0.137	0.238
-426.588	343.984	0.070	0.137
-425.573	27.500	0.032	0.027
-424.559	-200.000	-0.021	-0.365
-423.544	67.340	0.145	-0.148
-422.530	-42.706	0.291	-0.149
-421.515	176.994	-0.095	-0.139
-420.500	-200.000	-0.020	-0.180
-419.486	-141.022	-0.186	0.019
-418.471	96.295	-0.117	0.135
-417.457	22.301	-0.146	0.120
-416.442	-148.520	-0.353	0.029
-415.428	191.518	0.137	-0.207
-414.413	-56.075	-0.270	0.121
-413.398	-69.545	0.168	-0.065
-412.384	-89.736	-0.084	-0.025
-411.369	-151.781	-0.258	0.019
-410.355	-76.970	0.131	-0.046
-409.340	-138.375	-0.122	-0.013
-408.325	113.388	-0.228	-0.278
-407.311	-141.645	-0.206	0.021
-406.296	-73.817	0.217	0.079
-405.282	-46.768	0.264	-0.130
-404.267	758.450	-0.083	-0.225
-403.252	567.313	0.099	0.241
-402.238	216.576	0.105	-0.168
-401.223	-24.461	0.125	-0.075
-400.209	800.000	0.061	-0.205
-399.194	-200.000	-0.033	-0.257
-398.179	-105.329	-0.438	0.100
-397.165	800.000	-0.136	0.454
-396.150	-40.153	-0.296	-0.155
-395.136	89.189	0.089	0.100
-394.121	495.331	0.133	-0.308
-393.106	-93.202	-0.271	-0.076
-392.092	-82.434	0.295	0.096
-391.077	-65.053	-0.131	0.053
-390.063	-200.000	-0.001	0.235
-389.048	-152.563	-0.484	-0.035
-388.033	-100.885	-0.182	0.045
-387.019	-167.932	-0.244	-0.010
-386.004	-128.001	0.152	0.022
-384.990	-127.159	-0.160	-0.023
-383.975	800.000	0.096	-0.317
-382.960	-200.000	-0.024	0.219
-381.946	800.000	-0.068	0.229
-380.931	107.339	0.160	0.191
-379.917	-81.370	-0.258	-0.085
-378.902	81.743	-0.099	-0.108
-377.888	148.810	0.159	-0.215
-376.873	296.674	-0.171	-0.315
-375.858	-80.411	-0.109	0.037
-374.844	-69.865	-0.324	-0.124
-373.829	-14.247	0.119	-0.077
-372.815	-78.479	-0.332	0.114
-371.800	800.000	0.053	0.187
-370.785	307.356	-0.139	-0.260
-369.771	-200.000	0.044	0.200
-368.756	107.482	0.152	0.182
-367.742	-85.512	0.186	0.058
-366.727	158.326	0.137	-0.190
-365.712	-200.000	0.011	0.130
-364.698	800.000	0.084	-0.250
-363.683	401.010	0.095	-0.200
-362.669	-42.619	0.015	-0.008
-361.654	-158.454	-0.209	-0.012
-360.639	468.717	0.079	0.178
-359.625	-110.936	0.168	0.035
-358.610	193.873	0.121	-0.183
-357.596	125.425	0.227	-0.287
-356.581	-200.000	0.062	-0.423
-355.566	255.179	0.197	-0.338
-354.552	156.231	-0.114	0.158
-353.537	12.031	-0.061	0.047
-352.523	-200.000	-0.028	0.156
-351.508	-200.000	0.004	0.195
-350.493	-101.435	-0.257	0.063
-349.479	-15.880	-0.137	-0.087
-348.464	-200.000	-0.002	0.081
-347.450	-133.181	-0.253	-0.032
-346.435	-195.572	-0.300	-0.002
-345.420	195.244	-0.164	-0.249
-344.406	13.779	-0.112	-0.087
-343.391	800.000	0.030	-0.106
-342.377	370.016	0.080	0.162
-341.362	-200.000	0.061	0.384
-340.348	-200.000	-0.007	0.500
-339.333	-185.189	0.264	-0.004
-338.318	100.449	0.193	-0.225
-337.304	-172.118	-0.351	0.011
-336.289	755.728	0.110	-0.299
-335.275	304.827	0.106	0.198
-334.260	-200.000	-0.011	0.097
-333.245	-53.121	0.055	-0.025
-332.231	-96.272	0.251	0.067
-331.216	800.000	0.109	0.458
-330.202	121.708	0.088	0.110
-329.187	-38.321	-0.148	0.078
-328.172	-130.109	0.260	0.036
-327.158	106.790	-0.166	0.197
-326.143	-84.025	0.394	0.125
-325.129	-200.000	0.013	-0.504
-324.114	737.383	0.020	-0.052
-323.099	211.850	0.032	-0.051
-322.085	474.169	-0.166	-0.375
-321.070	123.696	-0.067	0.084
-320.056	800.000	0.092	-0.339
-319.041	-82.140	0.394	-0.129
-318.026	7.608	0.119	0.089
-317.012	130.631	0.085	0.109
-315.997	-32.829	0.106	0.059
-314.983	511.854	-0.111	-0.259
-313.968	-37.811	0.104	0.055
-312.953	37.318	-0.055	-0.049
-311.939	-189.340	0.250	-0.003
-310.924	-200.000	0.020	0.160
-309.910	800.000	0.031	0.099
-308.895	440.673	0.147	0.322
-307.880	-200.000	0.031	-0.212
-306.866	442.771	-0.136	-0.298
-305.851	-156.145	-0.511	0.032
-304.837	-130.408	0.302	0.041
-303.822	-200.000	0.051	0.257
-302.807	115.138	0.045	-0.055
-301.793	-136.123	-0.189	0.022
-300.778	223.444	0.138	0.222
-299.764	-105.910	0.151	-0.034
-298.749	-200.000	0.023	-0.325
-297.735	97.952	-0.243	-0.280
-296.720	24.878	-0.074	-0.061
-295.705	-200.000	0.017	-0.198
-294.691	-168.209	0.248	-0.010
-293.676	36.054	0.357	-0.314
-292.662	-200.000	0.003	0.049
-291.647	487.526	0.086	-0.195
-290.632	-200.000	0.014	-0.267
-289.618	197.318	0.196	-0.299
-288.603	-4.842	-0.273	-0.188
-287.589	0.388	-0.136	-0.097
-286.574	-46.878	-0.371	-0.181
-285.559	-170.067	-0.446	-0.016
-284.545	-50.652	0.312	0.147
-283.530	-200.000	0.034	0.234
-282.516	45.664	-0.171	0.158
-281.501	-78.091	-0.154	-0.053
-280.486	12.577	-0.147	0.114
-279.472	-41.957	-0.019	-0.010
-278.457	800.000	-0.050	-0.163
-277.443	-200.000	-0.010	-0.254
-276.428	43.515	0.124	-0.113
-275.413	-163.219	0.137	0.007
-274.399	729.865	-0.043	-0.116
-273.384	-200.000	-0.053	0.345
-272.370	-65.624	-0.168	0.067
-271.355	22.108	0.180	-0.147
-270.340	-11.135	-0.143	0.094
-269.326	20.364	-0.073	-0.059
-268.311	56.388	-0.230	0.223
-267.297	506.569	0.127	0.294
-266.282	-160.110	-0.098	-0.005
-265.267	-90.566	0.039	0.011
-264.253	-102.837	-0.052	0.012
-263.238	-200.000	-0.097	-0.451
-262.224	-66.288	-0.155	-0.062
-261.209	388.740	0.042	-0.087
-260.195	-100.168	-0.125	0.031
-259.180	509.036	-0.074	-0.172
-258.165	800.000	0.105	0.339
-257.151	30.916	0.228	0.195
-256.136	178.793	-0.147	-0.215
-255.122	-79.391	0.361	-0.122
-254.107	-152.272	0.152	-0.011
-253.092	-200.000	-0.036	-0.453
-252.078	26.569	-0.060	-0.050
-251.063	34.979	0.298	-0.260
-250.049	-92.905	-0.221	-0.062
-249.034	-112.831	0.051	-0.010
-248.019	-139.844	-0.120	-0.013
-247.005	800.000	-0.024	0.102
-245.990	171.174	0.171	-0.244
-244.976	137.011	-0.251	0.327
-243.961	-108.805	-0.066	0.014
-242.946	-200.000	0.023	0.235
-241.932	-50.285	-0.150	-0.071
-240.917	-200.000	0.024	0.106
-239.903	-5.028	-0.048	0.033
-238.888	95.098	0.173	0.196
-237.873	306.511	0.202	-0.376
-236.859	39.164	-0.050	0.045
-235.844	342.072	-0.157	0.306
-234.830	232.451	-0.070	-0.115
-233.815	147.770	-0.133	-0.179
-232.800	102.602	-0.132	0.154
-231.786	640.741	0.057	-0.145
-230.771	226.939	-0.099	-0.161
-229.757	-0.276	-0.059	0.042
-228.742	70.937	-0.065	-0.067
-227.727	-19.825	-0.133	-0.082
-226.713	800.000	0.098	-0.313
-225.698	-39.673	0.149	-0.078
-224.684	-118.076	0.335	-0.060
-223.669	112.947	0.184	-0.222
-222.655	-200.000	0.002	0.290
-221.640	250.045	-0.099	0.167
-220.625	-31.471	-0.255	-0.143
-219.611	286.120	0.161	-0.289
-218.596	8.337	0.096	-0.072
-217.582	151.316	0.176	0.238
-216.567	-30.183	-0.193	-0.110
-215.552	-24.560	-0.152	0.090
-214.538	-200.000	-0.011	-0.302
-213.523	-200.000	-0.016	0.245
-212.509	746.244	-0.051	-0.138
-211.494	88.832	0.095	0.105
-210.479	-200.000	0.018	0.110
-209.465	584.251	-0.079	0.194
-208.450	-200.000	-0.002	-0.051
-207.436	-200.000	-0.026	0.726
-206.421	800.000	-0.075	-0.230
-205.406	146.312	0.098	-0.132
-204.392	-101.632	0.378	0.091
-203.377	449.464	-0.150	0.329
-202.363	800.000	0.155	-0.453
-201.348	-75.476	0.322	0.114
-200.333	-74.914	-0.253	0.090
-199.319	800.000	0.029	0.113
-198.304	-40.321	0.375	-0.194
-197.290	-200.000	-0.004	-0.082
-196.275	-69.305	0.264	-0.101
-195.260	-45.985	0.130	-0.064
-194.246	549.564	0.065	0.156
-193.231	165.374	-0.183	0.257
-192.217	-118.017	-0.356	0.063
-191.202	64.295	-0.216	0.216
-190.187	-200.000	-0.033	-0.313
-189.173	-87.654	0.303	-0.091
-188.158	207.361	0.070	0.109
-187.144	800.000	-0.038	-0.124
-186.129	800.000	0.058	0.238
-185.114	-200.000	0.023	0.323
-184.100	234.848	-0.032	0.052
-183.085	-45.487	-0.059	-0.029
-182.071	185.330	-0.200	0.296
-181.056	116.709	-0.164	-0.201
-180.042	640.256	0.076	0.192
-179.027	-200.000	-0.005	-0.286
-178.012	-95.418	-0.089	0.024
-176.998	609.653	0.016	0.040
-175.983	800.000	0.094	0.289
-174.969	298.019	-0.150	0.274
-173.954	1.588	-0.255	0.182
-172.939	446.564	0.088	-0.193
-171.925	216.117	-0.216	-0.341
-170.910	-61.073	0.368	0.155
-169.896	9.332	-0.148	0.111
-168.881	-200.000	-0.060	0.263
-167.866	572.205	0.092	0.224
-166.852	-200.000	-0.035	-0.207
-165.837	-32.533	0.108	-0.060
-164.823	-20.618	0.246	0.150
-163.808	57.389	0.186	0.180
-162.793	-112.417	0.289	0.057
-161.779	-132.853	-0.292	0.037
-160.764	-123.253	0.250	0.040
-159.750	-200.000	-0.015	0.136
-158.735	-15.458	0.548	0.348
-157.720	-143.372	-0.266	0.025
-156.706	-200.000	0.023	0.189
-155.691	-36.029	-0.048	0.026
-154.677	-93.977	-0.280	-0.076
-153.662	75.494	-0.107	0.113
-152.647	-152.202	-0.305	-0.022
-151.633	800.000	-0.124	0.343
-150.618	98.448	0.027	-0.031
-149.604	311.368	-0.151	0.281
-148.589	169.934	0.158	-0.224
-147.574	-27.733	-0.114	0.066
-146.560	28.784	0.131	-0.110
-145.545	248.579	0.049	0.083
-144.531	-200.000	-0.054	-0.260
-143.516	-88.488	-0.253	-0.075
-142.502	-200.000	-0.005	-0.144
-141.487	-21.951	0.322	0.195
-140.472	-200.000	0.069	0.325
-139.458	181.030	0.066	0.097
-138.443	111.094	-0.184	-0.220
-137.429	-125.264	0.099	0.015
-136.414	-62.210	-0.166	0.069
-135.399	800.000	-0.094	0.316
-134.385	800.000	0.125	-0.348
-133.370	-69.975	-0.114	0.043
-132.356	-200.000	-0.000	0.078
-131.341	-100.640	-0.341	0.084
-130.326	-90.980	-0.441	-0.126
-129.312	-162.907	-0.385	0.019
-128.297	-107.535	-0.090	0.019
-127.283	179.223	0.061	-0.089
-126.268	-60.395	0.036	-0.015
-125.253	-127.891	0.130	0.019
-124.239	161.616	-0.077	0.107
-123.224	24.269	0.094	0.077
-122.210	-57.987	0.112	0.049
