DTS Sentinel unit serial number:	SN413079Multiplexer serial number:	ORYXHardware model number:	OX4-SRSoftware version number:	ORYX F/W v4.00 Oryx Data Collector v3.7.2.0data status	okinstallation	princeton_trtdifferential loss correction	single-endedforward channel	channel 4reverse channel	N/Adate	2019/09/13time	05:01:34forward acquisition time	60.00reverse acquisition time	0.00gamma	496.2192k internal	0.2323k external	0.2323temperature offset calibration	1.0187default loss term (dB/km)	0.3790temperature slope calibration	1.0000multiplexer offset coefficient	1.0000multiplexer slope coefficient	1.0000fibre end	0.00T internal ref (°C)	26.50T ext. ref 1 (°C)	4.05T ext. ref 2 (°C)	20.95length (m)	temperature (°C)	Stokes	anti-Stokes-747.200	-96.954	-0.080	0.021
-746.185	116.513	-0.046	-0.057
-745.171	-200.000	0.001	0.162
-744.156	252.310	-0.126	0.216
-743.142	-19.915	0.326	-0.204
-742.127	-200.000	-0.040	-0.264
-741.112	-200.000	-0.058	0.274
-740.098	51.524	-0.148	-0.142
-739.083	285.472	0.060	-0.110
-738.069	-121.754	-0.177	0.029
-737.054	46.498	0.115	-0.107
-736.039	-6.848	-0.357	0.245
-735.025	800.000	-0.094	-0.293
-734.010	623.681	-0.069	-0.176
-732.996	750.635	-0.096	0.262
-731.981	407.605	0.055	-0.117
-730.966	63.022	-0.144	-0.146
-729.952	-49.448	-0.116	0.056
-728.937	40.122	-0.053	0.048
-727.923	-41.043	-0.480	0.250
-726.908	-107.228	0.158	0.035
-725.894	-108.778	-0.078	-0.017
-724.879	-42.727	0.186	-0.096
-723.864	-145.097	-0.082	0.008
-722.850	800.000	0.097	-0.302
-721.835	-171.406	0.137	-0.005
-720.821	-200.000	-0.030	0.286
-719.806	-13.751	-0.260	-0.170
-718.791	800.000	0.063	-0.263
-717.777	-53.865	0.207	-0.095
-716.762	800.000	0.082	0.246
-715.748	307.446	-0.035	0.067
-714.733	-200.000	0.026	-0.188
-713.718	597.851	0.076	0.191
-712.704	124.607	0.092	-0.117
-711.689	89.630	0.352	0.397
-710.675	-26.478	-0.227	0.134
-709.660	-19.433	0.143	-0.089
-708.645	-4.451	-0.160	0.112
-707.631	-200.000	-0.044	-0.313
-706.616	-3.689	-0.263	-0.184
-705.602	-59.908	0.126	0.054
-704.587	-197.878	0.116	0.001
-703.572	-200.000	-0.022	-0.172
-702.558	172.553	0.049	0.071
-701.543	106.155	0.167	-0.199
-700.529	228.471	0.168	-0.275
-699.514	-77.215	0.127	-0.045
-698.499	2.426	0.109	-0.079
-697.485	-200.000	0.000	0.287
-696.470	-40.989	0.262	-0.137
-695.456	-19.002	-0.203	-0.127
-694.441	2.146	0.214	0.156
-693.426	178.628	0.086	-0.127
-692.412	221.206	0.066	0.106
-691.397	374.119	-0.131	-0.268
-690.383	80.859	0.187	-0.204
-689.368	-200.000	-0.002	0.139
-688.354	-200.000	0.027	-0.303
-687.339	-23.372	-0.140	-0.085
-686.324	-200.000	0.010	-0.350
-685.310	-200.000	-0.045	0.290
-684.295	-200.000	0.017	-0.097
-683.281	81.972	0.227	-0.248
-682.266	795.501	0.190	-0.528
-681.251	29.360	0.385	-0.329
-680.237	-200.000	0.026	0.345
-679.222	800.000	-0.091	-0.278
-678.208	230.820	0.050	0.082
-677.193	14.053	-0.150	-0.118
-676.178	599.583	0.078	0.194
-675.164	35.378	-0.264	0.233
-674.149	-200.000	-0.004	-0.036
-673.135	-189.447	0.113	0.001
-672.120	-109.418	0.074	0.016
-671.105	23.612	0.169	-0.140
-670.091	-22.221	-0.180	-0.110
-669.076	-29.601	0.285	-0.164
-668.062	-100.164	0.262	0.066
-667.047	-47.750	-0.233	0.114
-666.032	-164.743	-0.355	0.016
-665.018	-51.791	-0.122	-0.057
-664.003	-127.888	0.229	0.033
-662.989	-96.206	-0.336	-0.090
-661.974	180.040	-0.128	-0.188
-660.959	-121.293	0.119	-0.020
-659.945	-37.825	0.264	-0.141
-658.930	-120.421	-0.268	-0.046
-657.916	125.026	0.198	-0.252
-656.901	12.134	-0.084	-0.065
-655.886	31.516	0.304	-0.263
-654.872	498.803	-0.107	-0.249
-653.857	724.792	0.047	0.126
-652.843	-93.921	0.110	-0.031
-651.828	791.313	-0.035	-0.097
-650.814	-12.805	-0.052	0.034
-649.799	800.000	-0.010	-0.030
-648.784	3.902	-0.145	-0.107
-647.770	-106.318	-0.122	-0.027
-646.755	75.173	-0.146	-0.155
-645.741	-200.000	0.006	0.072
-644.726	-65.483	0.147	0.059
-643.711	800.000	-0.072	0.225
-642.697	137.082	-0.067	-0.088
-641.682	800.000	0.020	0.075
-640.668	-119.214	0.087	0.015
-639.653	-200.000	-0.015	0.135
-638.638	800.000	-0.061	-0.199
-637.624	435.711	0.015	-0.033
-636.609	54.930	-0.262	-0.255
-635.595	-145.816	-0.139	0.012
-634.580	238.398	-0.130	0.217
-633.565	-200.000	-0.083	0.390
-632.551	-171.399	0.075	-0.003
-631.536	-28.718	-0.091	-0.053
-630.522	-121.880	0.207	0.034
-629.507	-84.587	-0.144	0.046
-628.492	800.000	0.004	0.015
-627.478	-17.264	0.299	-0.189
-626.463	312.884	-0.037	0.070
-625.449	-140.560	-0.365	0.038
-624.434	275.274	0.155	-0.276
-623.419	800.000	-0.060	0.214
-622.405	-167.562	-0.156	-0.006
-621.390	21.539	0.089	-0.072
-620.376	67.953	-0.162	-0.167
-619.361	45.620	-0.030	-0.028
-618.346	-97.616	-0.304	0.079
-617.332	-105.795	0.059	0.013
-616.317	-200.000	-0.028	-0.431
-615.303	109.716	0.142	0.171
-614.288	-47.448	0.101	-0.049
-613.273	429.973	-0.039	0.084
-612.259	-93.431	-0.160	0.045
-611.244	-124.676	0.383	-0.060
-610.230	-200.000	0.030	-0.515
-609.215	-40.863	-0.171	-0.089
-608.201	-134.388	-0.119	0.015
-607.186	-26.775	0.101	-0.059
-606.171	49.367	-0.227	0.214
-605.157	276.089	-0.057	0.102
-604.142	-200.000	0.050	-0.496
-603.128	13.593	0.198	0.155
-602.113	19.569	0.224	0.181
-601.098	-59.120	0.141	-0.061
-600.084	-101.934	-0.181	0.044
-599.069	-38.753	0.307	0.163
-598.055	800.000	0.041	0.133
-597.040	222.001	0.218	-0.351
-596.025	126.105	-0.157	-0.200
-595.011	-132.953	-0.201	-0.026
-593.996	252.719	-0.052	-0.089
-592.982	-200.000	-0.050	-0.284
-591.967	-118.638	-0.204	0.036
-590.952	241.021	-0.136	-0.228
-589.938	-200.000	0.006	0.282
-588.923	26.581	-0.291	-0.244
-587.909	-30.903	-0.121	-0.069
-586.894	-123.716	-0.189	0.030
-585.879	-89.923	0.146	0.043
-584.865	800.000	-0.150	-0.474
-583.850	22.693	-0.108	0.089
-582.836	643.932	-0.084	-0.215
-581.821	-65.621	0.178	-0.071
-580.806	51.433	-0.108	0.103
-579.792	17.302	0.056	-0.044
-578.777	-123.675	0.292	0.047
-577.763	82.693	0.300	0.327
-576.748	-200.000	-0.021	0.123
-575.733	244.268	0.154	-0.259
-574.719	-57.247	0.084	-0.037
-573.704	213.721	0.163	0.258
-572.690	-200.000	0.021	-0.157
-571.675	-68.111	-0.043	-0.017
-570.661	-34.897	-0.173	-0.094
-569.646	57.304	0.041	0.040
-568.631	42.733	0.195	-0.178
-567.617	481.794	0.102	-0.232
-566.602	458.919	0.076	-0.170
-565.588	375.056	0.097	-0.198
-564.573	526.374	0.033	-0.078
-563.558	-200.000	0.030	0.141
-562.544	-106.548	-0.242	-0.054
-561.529	-200.000	0.040	0.181
-560.515	249.584	0.151	0.257
-559.500	64.292	-0.213	-0.215
-558.485	6.367	0.130	0.096
-557.471	354.868	0.122	-0.243
-556.456	800.000	0.084	-0.243
-555.442	-69.913	-0.540	-0.206
-554.427	-177.928	0.268	-0.006
-553.412	-115.109	-0.152	0.029
-552.398	194.687	-0.055	-0.083
-551.383	58.697	0.209	0.206
-550.369	57.342	0.245	0.239
-549.354	-200.000	0.039	0.229
-548.339	-200.000	0.087	-0.000
-547.325	504.406	-0.032	-0.074
-546.310	800.000	-0.054	0.195
-545.296	-66.304	-0.148	-0.059
-544.281	800.000	-0.027	-0.112
-543.266	174.261	0.118	0.171
-542.252	-200.000	0.011	-0.189
-541.237	-116.503	-0.085	0.016
-540.223	-200.000	-0.005	0.073
-539.208	49.071	-0.230	0.216
-538.193	28.170	-0.087	0.073
-537.179	-165.213	-0.157	0.007
-536.164	-112.686	-0.164	0.033
-535.150	494.271	0.052	-0.119
-534.135	375.235	0.207	0.423
-533.121	4.256	0.139	0.102
-532.106	-200.000	0.011	-0.105
-531.091	-158.956	0.240	-0.014
-530.077	89.339	0.240	0.268
-529.062	-95.377	-0.285	0.077
-528.048	-139.724	-0.286	0.030
-527.033	53.947	0.121	-0.117
-526.018	-200.000	0.040	-0.226
-525.004	347.396	-0.119	-0.235
-523.989	-96.664	0.165	-0.043
-522.975	-11.165	-0.125	0.082
-521.960	-105.323	0.431	0.098
-520.945	309.153	-0.025	0.046
-519.931	243.786	0.236	0.396
-518.916	95.761	0.287	0.328
-517.902	-34.470	-0.094	-0.052
-516.887	-200.000	-0.007	-0.242
-515.872	-51.686	-0.058	-0.027
-514.858	21.053	-0.246	-0.200
-513.843	-29.321	-0.315	-0.181
-512.829	-58.293	-0.231	-0.101
-511.814	6.398	0.246	-0.183
-510.799	-158.929	-0.302	0.017
-509.785	-200.000	-0.004	0.092
-508.770	-156.098	-0.155	0.010
-507.756	-200.000	-0.002	-0.063
-506.741	-109.339	0.261	-0.055
-505.726	503.890	0.119	0.275
-504.712	647.825	0.126	0.323
-503.697	-181.834	-0.191	0.004
-502.683	98.630	-0.319	0.369
-501.668	-79.565	0.254	-0.086
-500.653	246.948	0.021	0.036
-499.639	800.000	-0.043	0.155
-498.624	800.000	0.118	0.367
-497.610	-40.204	0.076	-0.040
-496.595	113.620	-0.140	0.170
-495.581	12.517	0.284	0.219
-494.566	-88.997	-0.108	-0.032
-493.551	100.569	-0.321	0.373
-492.537	385.307	-0.082	-0.169
-491.522	-200.000	-0.004	-0.040
-490.508	-70.142	-0.299	-0.114
-489.493	800.000	-0.100	0.386
-488.478	-60.110	0.169	-0.072
-487.464	424.114	-0.043	-0.093
-486.449	-167.540	-0.242	-0.010
-485.435	-136.761	-0.269	0.031
-484.420	-67.704	0.339	-0.133
-483.405	101.531	-0.205	-0.239
-482.391	-97.415	0.158	0.041
-481.376	800.000	-0.116	-0.324
-480.362	120.967	-0.128	0.159
-479.347	183.086	-0.197	-0.290
-478.332	794.153	-0.078	-0.216
-477.318	-91.277	0.157	0.045
-476.303	-97.836	0.056	-0.014
-475.289	261.092	-0.193	0.334
-474.274	10.943	0.090	0.069
-473.259	-78.771	-0.224	0.076
-472.245	-67.188	-0.164	0.064
-471.230	800.000	0.042	0.139
-470.216	-149.986	-0.282	0.022
-469.201	75.064	-0.171	0.180
-468.186	74.616	0.083	-0.087
-467.172	91.974	0.278	0.312
-466.157	-53.301	0.056	0.026
-465.143	-200.000	-0.067	0.302
-464.128	800.000	-0.008	-0.027
-463.113	-86.198	0.082	0.025
-462.099	-125.698	-0.318	0.048
-461.084	-200.000	0.023	-0.168
-460.070	-200.000	0.027	0.176
-459.055	790.907	-0.094	-0.259
-458.040	403.306	0.096	-0.202
-457.026	800.000	-0.100	-0.295
-456.011	-200.000	0.079	0.438
-454.997	-200.000	0.016	-0.255
-453.982	800.000	-0.045	0.178
-452.968	73.863	-0.317	-0.332
-451.953	-90.035	-0.251	0.073
-450.938	-138.294	0.219	-0.024
-449.924	-200.000	-0.004	0.192
-448.909	320.033	0.132	0.251
-447.895	25.687	0.035	0.029
-446.880	-200.000	0.006	0.175
-445.865	195.526	0.025	0.037
-444.851	-200.000	0.012	-0.425
-443.836	131.303	0.100	-0.129
-442.822	-63.862	-0.211	0.086
-441.807	800.000	0.213	-0.636
-440.792	-157.764	-0.436	-0.026
-439.778	800.000	-0.049	0.177
-438.763	-117.116	0.398	0.072
-437.749	-48.337	0.062	0.030
-436.734	-200.000	0.035	-0.163
-435.719	403.683	0.063	-0.132
-434.705	68.732	-0.132	-0.136
-433.690	738.547	-0.053	-0.141
-432.676	65.172	0.089	-0.090
-431.661	64.660	-0.137	0.137
-430.646	-144.533	0.108	-0.010
-429.632	-44.695	-0.272	-0.135
-428.617	35.717	0.175	-0.154
-427.603	-60.295	-0.447	-0.190
-426.588	800.000	0.051	0.209
-425.573	22.209	0.051	0.041
-424.559	800.000	-0.014	0.051
-423.544	0.513	0.209	-0.149
-422.530	276.724	0.165	-0.293
-421.515	-70.007	-0.240	-0.091
-420.500	-200.000	-0.015	-0.086
-419.486	-92.193	-0.724	0.204
-418.471	-16.944	0.275	-0.173
-417.457	800.000	-0.034	0.131
-416.442	-89.648	0.170	0.050
-415.428	-5.535	-0.095	0.065
-414.413	-2.728	-0.226	-0.158
-413.398	256.983	-0.092	-0.158
-412.384	309.436	0.033	0.062
-411.369	-8.176	0.088	0.059
-410.355	-200.000	0.020	-0.175
-409.340	-40.325	-0.269	0.139
-408.325	-10.943	-0.333	0.219
-407.311	-2.756	-0.278	-0.194
-406.296	-52.306	0.359	0.166
-405.282	133.615	0.017	-0.021
-404.267	-48.759	0.283	-0.135
-403.252	-33.774	0.011	0.006
-402.238	13.719	0.140	-0.108
-401.223	-200.000	0.051	-0.250
-400.209	-97.488	0.197	0.051
-399.194	91.875	0.068	0.076
-398.179	-173.131	-0.440	0.013
-397.165	-16.088	0.217	-0.138
-396.150	625.332	-0.095	0.240
-395.136	-51.934	0.248	0.115
-394.121	-200.000	-0.098	-0.494
-393.106	262.729	-0.138	0.239
-392.092	-200.000	0.012	-0.124
-391.077	155.767	0.045	0.062
-390.063	113.015	0.102	0.123
-389.048	-107.163	-0.167	0.037
-388.033	-200.000	0.020	-0.148
-387.019	5.469	-0.050	0.037
-386.004	-200.000	-0.005	0.340
-384.990	51.564	0.135	-0.128
-383.975	-93.836	0.310	-0.085
-382.960	3.615	-0.322	-0.234
-381.946	85.286	0.140	0.153
-380.931	-174.132	0.316	0.009
-379.917	-200.000	0.059	-0.268
-378.902	-44.098	-0.225	0.113
-377.888	278.031	-0.052	-0.093
-376.873	293.489	0.035	0.064
-375.858	-64.226	0.163	0.066
-374.844	800.000	-0.059	0.166
-373.829	-147.035	0.319	-0.027
-372.815	129.181	0.179	0.228
-371.800	13.680	0.185	-0.143
-370.785	-19.044	0.428	-0.265
-369.771	91.117	0.221	-0.247
-368.756	-200.000	-0.034	-0.393
-367.742	-80.654	0.337	0.112
-366.727	-122.956	0.203	0.032
-365.712	78.768	0.033	0.036
-364.698	24.966	-0.202	-0.167
-363.683	283.848	0.093	0.167
-362.669	-65.224	0.373	-0.149
-361.654	-172.742	-0.406	-0.013
-360.639	-109.834	-0.150	-0.031
-359.625	95.591	-0.150	-0.170
-358.610	-104.293	-0.155	0.036
-357.596	38.336	-0.178	-0.157
-356.581	800.000	0.089	-0.258
-355.566	-82.932	0.113	-0.036
-354.552	-43.269	-0.215	0.108
-353.537	-41.438	-0.227	0.116
-352.523	800.000	0.015	0.058
-351.508	800.000	-0.045	0.127
-350.493	-200.000	-0.015	-0.086
-349.479	-200.000	0.008	-0.093
-348.464	-75.281	-0.066	0.023
-347.450	-173.362	0.082	0.002
-346.435	-107.364	0.250	-0.055
-345.420	-200.000	-0.040	0.374
-344.406	-120.377	0.255	-0.043
-343.391	-59.365	-0.053	0.022
-342.377	129.634	0.167	-0.212
-341.362	-92.638	0.083	0.023
-340.348	-162.148	0.226	-0.011
-339.333	98.803	-0.220	-0.252
-338.318	-87.140	0.092	-0.028
-337.304	-82.558	0.253	-0.082
-336.289	800.000	-0.089	0.254
-335.275	221.195	-0.104	-0.165
-334.260	70.238	-0.060	0.061
-333.245	-200.000	-0.023	-0.117
-332.231	41.986	0.162	-0.146
-331.216	-100.657	-0.106	-0.026
-330.202	-86.916	0.201	0.061
-329.187	34.287	-0.258	0.224
-328.172	87.262	-0.031	0.034
-327.158	-111.723	-0.361	0.073
-326.143	-124.336	0.017	0.003
-325.129	800.000	0.049	0.207
-324.114	1.887	0.095	0.068
-323.099	800.000	0.093	0.304
-322.085	-22.058	0.235	0.142
-321.070	132.830	-0.123	-0.157
-320.056	103.490	0.099	0.115
-319.041	-63.795	0.031	-0.012
-318.026	-200.000	-0.022	0.156
-317.012	186.964	0.243	0.359
-315.997	108.186	-0.076	0.090
-314.983	-200.000	-0.092	-0.482
-313.968	570.159	-0.143	0.346
-312.953	595.367	0.088	0.216
-311.939	-0.550	0.067	-0.047
-310.924	-94.763	-0.145	-0.039
-309.910	659.075	-0.070	0.178
-308.895	-20.261	-0.229	0.140
-307.880	-119.441	-0.273	-0.047
-306.866	1.192	0.409	0.292
-305.851	-113.767	-0.103	-0.020
-304.837	-29.819	0.338	-0.192
-303.822	-128.170	0.202	0.029
-302.807	-200.000	0.013	-0.174
-301.793	-172.019	0.286	-0.009
-300.778	200.943	-0.190	0.290
-299.764	31.586	0.081	-0.069
-298.749	55.729	-0.099	-0.095
-297.735	47.395	-0.142	0.132
-296.720	800.000	0.021	0.058
-295.705	19.774	-0.143	0.115
-294.691	-200.000	-0.006	-0.243
-293.676	87.913	-0.186	-0.205
-292.662	-89.546	-0.221	0.064
-291.647	75.711	0.231	-0.242
-290.632	15.170	-0.109	0.085
-289.618	-153.985	-0.186	0.013
-288.603	-138.853	-0.555	0.060
-287.589	-15.639	0.121	0.076
-286.574	-183.073	0.073	0.001
-285.559	-200.000	-0.011	0.069
-284.545	800.000	0.073	0.233
-283.530	-147.202	-0.217	0.018
-282.516	130.568	-0.101	-0.128
-281.501	559.673	-0.030	-0.071
-280.486	-45.012	-0.261	0.129
-279.472	-134.050	0.408	-0.050
-278.457	800.000	0.089	0.294
-277.443	-35.660	0.413	-0.222
-276.428	-70.907	-0.226	-0.084
-275.413	11.851	-0.101	0.077
-274.399	335.904	0.122	0.234
-273.384	10.111	-0.187	0.141
-272.370	-86.940	-0.073	0.022
-271.355	423.449	-0.032	0.069
-270.340	-3.149	-0.431	-0.298
-269.326	264.713	0.179	-0.308
-268.311	-200.000	0.051	-0.231
-267.297	-40.419	0.184	-0.095
-266.282	718.622	0.032	0.084
-265.267	-177.178	0.408	0.010
-264.253	-99.205	-0.292	0.073
-263.238	84.630	0.274	0.298
-262.224	-27.612	-0.238	0.137
-261.209	-40.774	-0.195	-0.100
-260.195	44.013	0.086	0.079
-259.180	-200.000	0.009	0.213
-258.165	-168.961	0.335	0.012
-257.151	-121.800	-0.112	-0.018
-256.136	119.308	-0.076	0.093
-255.122	-200.000	0.015	-0.186
-254.107	572.286	-0.045	-0.109
-253.092	-51.532	0.284	-0.131
-252.078	-200.000	-0.002	-0.122
-251.063	-43.065	-0.027	-0.014
-250.049	-47.571	0.202	-0.097
-249.034	-200.000	0.007	-0.309
-248.019	-17.881	0.122	-0.076
-247.005	-65.188	0.290	0.116
-245.990	-147.935	-0.268	-0.022
-244.976	39.111	0.179	-0.158
-243.961	128.185	0.036	0.045
-242.946	-108.591	-0.153	0.032
-241.932	7.070	0.079	-0.058
-240.917	335.680	0.064	0.123
-239.903	76.633	0.114	0.120
-238.888	53.406	-0.162	0.154
-237.873	-139.723	0.319	-0.034
-236.859	282.223	-0.019	0.033
-235.844	-52.130	0.354	0.163
-234.830	163.655	0.327	-0.455
-233.815	800.000	0.127	-0.388
-232.800	200.866	-0.066	0.100
-231.786	20.683	-0.212	-0.170
-230.771	800.000	0.023	0.099
-229.757	800.000	0.082	0.247
-228.742	328.944	-0.065	0.123
-227.727	17.946	0.104	0.082
-226.713	-139.565	0.149	-0.016
-225.698	493.073	0.079	0.180
-224.684	28.205	0.052	-0.043
-223.669	-108.559	0.050	0.011
-222.655	-42.911	-0.204	0.102
-221.640	-101.413	0.226	0.055
-220.625	-200.000	0.001	-0.223
-219.611	800.000	0.043	-0.174
-218.596	-108.790	0.116	0.025
-217.582	758.455	-0.017	-0.046
-216.567	90.299	-0.230	0.255
-215.552	-36.931	-0.325	0.173
-214.538	87.871	0.152	0.167
-213.523	-200.000	0.035	-0.246
-212.509	152.098	-0.114	0.153
-211.494	506.101	0.079	-0.182
-210.479	-48.996	0.500	0.237
-209.465	-200.000	-0.000	-0.034
-208.450	-200.000	0.006	0.161
-207.436	149.635	-0.105	0.141
-206.421	-83.646	-0.257	0.081
-205.406	800.000	0.049	0.200
-204.392	-99.947	0.317	-0.078
-203.377	-88.556	-0.082	-0.024
-202.363	-34.993	-0.064	-0.034
-201.348	-200.000	0.045	0.316
-200.333	-87.396	0.417	0.125
-199.319	-49.527	-0.169	0.080
-198.304	393.727	-0.080	0.165
-197.290	125.116	0.113	0.141
-196.275	41.829	-0.209	-0.187
-195.260	-200.000	0.019	-0.142
-194.246	-24.912	0.147	-0.086
-193.231	550.824	-0.128	0.303
-192.217	122.324	0.100	0.123
-191.202	-200.000	-0.022	0.342
-190.187	-37.426	0.221	-0.117
-189.173	63.799	-0.283	-0.281
-188.158	90.400	-0.042	-0.046
-187.144	-162.233	-0.133	-0.007
-186.129	-25.831	-0.333	-0.194
-185.114	686.332	-0.127	-0.329
-184.100	800.000	-0.059	0.215
-183.085	800.000	-0.018	-0.070
-182.071	-110.429	-0.069	-0.014
-181.056	-14.812	-0.165	0.104
-180.042	-25.558	0.182	0.106
-179.027	18.487	-0.101	0.080
-178.012	-200.000	0.023	0.146
-176.998	391.083	-0.050	0.103
-175.983	78.743	0.250	0.264
-174.969	-73.586	0.218	0.079
-173.954	519.309	0.071	0.163
-172.939	55.175	0.202	-0.193
-171.925	7.512	0.074	-0.055
-170.910	800.000	0.060	-0.231
-169.896	431.155	0.151	-0.323
-168.881	108.508	0.233	0.275
-167.866	60.850	0.148	-0.145
-166.852	-179.674	0.210	-0.004
-165.837	4.129	-0.389	0.281
-164.823	136.806	-0.124	-0.160
-163.808	13.669	0.118	0.091
-162.793	70.939	-0.196	0.200
-161.779	-200.000	-0.005	0.283
-160.764	71.478	-0.086	-0.088
-159.750	-34.102	0.287	0.156
-158.735	239.834	-0.182	0.299
-157.720	477.833	-0.093	-0.208
-156.706	-1.134	0.227	-0.158
-155.691	-65.359	0.220	-0.087
-154.677	277.817	-0.231	-0.406
-153.662	-66.103	0.112	-0.044
-152.647	-86.489	0.082	-0.025
-151.633	-200.000	-0.457	-0.000
-150.618	365.736	0.053	-0.106
-149.604	800.000	0.088	-0.254
-148.589	28.533	0.367	0.306
-147.574	800.000	-0.022	-0.083
-146.560	46.966	-0.133	0.122
-145.545	-200.000	0.280	0.000
-144.531	158.217	0.162	0.222
-143.516	2.584	-0.152	0.109
-142.502	70.126	-0.149	-0.152
-141.487	782.089	-0.051	-0.137
-140.472	-200.000	0.001	-0.326
-139.458	-200.000	0.015	-0.078
-138.443	80.087	0.285	0.302
-137.429	800.000	-0.097	-0.303
-136.414	800.000	0.025	0.072
-135.399	159.450	0.248	-0.341
-134.385	-118.548	-0.276	-0.048
-133.370	-73.465	-0.151	0.054
-132.356	-95.389	-0.188	0.050
-131.341	262.022	-0.098	-0.168
-130.326	-200.000	0.058	-0.314
-129.312	216.902	-0.186	0.292
-128.297	32.701	0.079	-0.068
-127.283	-200.000	-0.011	-0.073
-126.268	-158.026	0.107	0.006
-125.253	-200.000	0.036	-0.404
-124.239	19.891	0.173	0.137
-123.224	414.757	0.066	0.139
-122.210	800.000	-0.043	-0.139
-121.195	-200.000	0.005	-0.103
-120.180	-194.250	0.430	-0.003
