DTS Sentinel unit serial number:	SN413079Multiplexer serial number:	ORYXHardware model number:	OX4-SRSoftware version number:	ORYX F/W v4.00 Oryx Data Collector v3.7.2.0data status	okinstallation	princeton_trtdifferential loss correction	single-endedforward channel	channel 4reverse channel	N/Adate	2019/09/17time	18:13:34forward acquisition time	60.00reverse acquisition time	0.00gamma	496.2192k internal	0.2278k external	0.2278temperature offset calibration	0.9980default loss term (dB/km)	0.3790temperature slope calibration	1.0000multiplexer offset coefficient	1.0000multiplexer slope coefficient	1.0000fibre end	0.00T internal ref (°C)	43.42T ext. ref 1 (°C)	0.32T ext. ref 2 (°C)	37.58length (m)	temperature (°C)	Stokes	anti-Stokes-747.200	158.802	0.059	-0.084
-746.185	-200.000	0.067	0.757
-745.171	-37.610	-0.047	-0.026
-744.156	-178.314	-0.079	0.002
-743.142	213.600	0.035	0.057
-742.127	-29.291	-0.210	0.124
-741.112	-200.000	0.048	0.290
-740.098	-200.000	-0.038	0.304
-739.083	210.136	-0.143	0.230
-738.069	-200.000	0.015	0.302
-737.054	-200.000	0.026	0.465
-736.039	368.409	-0.165	-0.344
-735.025	55.685	-0.017	0.017
-734.010	81.835	-0.059	-0.066
-732.996	150.270	-0.173	-0.241
-731.981	-78.738	-0.257	0.090
-730.966	165.642	-0.171	0.248
-729.952	59.747	-0.170	0.173
-728.937	-200.000	0.014	-0.069
-727.923	-200.000	-0.038	-0.508
-726.908	-200.000	-0.012	-0.245
-725.894	69.112	0.085	0.090
-724.879	-112.569	0.215	-0.044
-723.864	-200.000	-0.025	-0.197
-722.850	-113.244	-0.223	-0.045
-721.835	-31.721	0.265	-0.153
-720.821	40.496	0.126	0.117
-719.806	-200.000	-0.005	0.117
-718.791	-200.000	-0.003	0.202
-717.777	-21.989	-0.147	-0.092
-716.762	229.052	0.091	0.152
-715.748	90.423	0.192	-0.221
-714.733	-50.993	-0.177	0.085
-713.718	121.071	-0.039	0.050
-712.704	-200.000	-0.025	0.173
-711.689	-200.000	0.015	-0.128
-710.675	19.633	-0.086	0.071
-709.660	5.897	0.234	-0.178
-708.645	-200.000	0.002	0.287
-707.631	-200.000	-0.047	0.249
-706.616	778.298	-0.023	-0.065
-705.602	-136.472	0.140	0.017
-704.587	-200.000	0.001	0.030
-703.572	-160.077	0.100	0.006
-702.558	-177.993	-0.312	0.008
-701.543	-32.241	0.144	0.083
-700.529	-32.579	-0.093	-0.054
-699.514	381.254	0.092	-0.195
-698.499	286.755	0.079	0.147
-697.485	98.854	-0.193	-0.229
-696.470	58.830	0.121	0.122
-695.456	414.697	-0.078	-0.172
-694.441	-128.563	-0.252	0.037
-693.426	-131.672	0.240	0.032
-692.412	-110.513	-0.228	-0.049
-691.397	-200.000	0.011	0.125
-690.383	112.741	0.229	0.284
-689.368	800.000	-0.060	-0.204
-688.354	-3.724	-0.544	-0.389
-687.339	17.898	-0.166	-0.136
-686.324	-200.000	0.029	0.158
-685.310	568.872	-0.056	-0.140
-684.295	-97.935	0.430	-0.114
-683.281	800.000	0.102	-0.398
-682.266	-149.704	-0.150	0.012
-681.251	-200.000	-0.041	-0.278
-680.237	72.267	-0.111	0.119
-679.222	-200.000	0.048	0.467
-678.208	157.927	0.050	0.070
-677.193	-116.073	0.360	0.069
-676.178	126.396	0.125	-0.163
-675.164	18.847	-0.133	-0.110
-674.149	-82.733	-0.095	0.032
-673.135	7.546	0.300	0.231
-672.120	-97.192	-0.089	0.024
-671.105	-200.000	0.018	-0.520
-670.091	-72.370	-0.063	0.024
-669.076	-200.000	-0.001	0.009
-668.062	-165.701	0.082	0.004
-667.047	-66.059	-0.122	-0.050
-666.032	-200.000	0.034	-0.242
-665.018	-200.000	-0.025	0.184
-664.003	-200.000	-0.003	0.266
-662.989	-31.949	0.163	0.094
-661.974	-104.538	-0.200	-0.047
-660.959	-128.725	-0.052	-0.008
-659.945	601.506	-0.140	0.356
-658.930	329.572	-0.012	0.023
-657.916	61.938	0.092	-0.094
-656.901	299.855	-0.170	-0.321
-655.886	-200.000	-0.055	-0.490
-654.872	413.429	-0.098	0.214
-653.857	-173.842	-0.076	0.002
-652.843	135.460	-0.215	-0.287
-651.828	7.679	0.102	-0.078
-650.814	-97.509	0.294	-0.078
-649.799	-138.840	-0.202	-0.023
-648.784	-200.000	-0.071	0.433
-647.770	78.446	-0.095	-0.104
-646.755	213.514	0.072	0.117
-645.741	83.591	-0.068	0.076
-644.726	-1.071	-0.094	-0.068
-643.711	111.714	0.148	0.184
-642.697	120.684	-0.035	-0.044
-641.682	-109.028	0.383	-0.084
-640.668	-66.104	-0.134	0.055
-639.653	-200.000	-0.040	-0.249
-638.638	-200.000	0.320	0.001
-637.624	251.823	-0.105	0.184
-636.609	79.490	-0.091	-0.100
-635.595	-200.000	0.007	-0.106
-634.580	-137.035	0.601	0.071
-633.565	-200.000	0.070	0.462
-632.551	-200.000	0.017	-0.158
-631.536	-84.468	0.283	0.092
-630.522	-200.000	-0.006	0.065
-629.507	-21.893	-0.110	-0.068
-628.492	11.697	-0.174	0.137
-627.478	26.645	0.226	-0.194
-626.463	439.421	0.063	-0.140
-625.449	12.178	-0.127	0.101
-624.434	313.731	0.093	-0.180
-623.419	9.173	-0.219	-0.169
-622.405	-11.061	0.170	-0.115
-621.390	15.665	0.099	-0.080
-620.376	28.360	-0.125	-0.109
-619.361	-74.195	0.325	0.121
-618.346	-200.000	-0.032	0.219
-617.332	19.438	-0.120	-0.099
-616.317	244.729	-0.017	0.029
-615.303	-63.132	-0.245	-0.104
-614.288	-200.000	0.008	-0.040
-613.273	-200.000	-0.023	0.239
-612.259	-200.000	0.176	0.001
-611.244	800.000	0.068	-0.254
-610.230	28.151	0.117	-0.101
-609.215	-48.366	-0.149	0.073
-608.201	-79.543	-0.137	0.047
-607.186	292.541	0.068	-0.127
-606.171	-171.548	-0.088	-0.003
-605.157	-68.747	0.304	0.120
-604.142	72.147	0.075	-0.080
-603.128	14.201	0.126	-0.101
-602.113	49.674	-0.142	0.137
-601.098	800.000	0.137	0.422
-600.084	-41.553	-0.098	0.052
-599.069	99.904	0.296	-0.352
-598.055	295.104	0.080	-0.150
-597.040	248.313	0.079	0.137
-596.025	256.022	0.109	0.192
-595.011	-200.000	0.024	0.181
-593.996	-108.314	0.085	0.019
-592.982	742.538	-0.031	-0.085
-591.967	-200.000	0.018	-0.185
-590.952	-82.788	0.191	0.063
-589.938	153.984	-0.123	0.173
-588.923	-86.817	0.063	-0.020
-587.909	-123.116	-0.388	-0.064
-586.894	34.806	-0.236	0.211
-585.879	-27.833	0.294	-0.175
-584.865	-200.000	0.052	-0.267
-583.850	800.000	-0.053	-0.185
-582.836	-19.849	-0.204	-0.129
-581.821	-200.000	0.026	-0.245
-580.806	-200.000	-0.029	-0.145
-579.792	192.151	-0.126	-0.194
-578.777	-86.300	0.259	-0.082
-577.763	-79.827	-0.244	0.084
-576.748	-176.838	0.316	-0.008
-575.733	-200.000	-0.004	-0.224
-574.719	-77.933	0.259	0.092
-573.704	-28.647	-0.436	0.257
-572.690	800.000	-0.067	0.268
-571.675	-83.223	0.227	-0.075
-570.661	-133.887	0.188	0.024
-569.646	800.000	0.090	0.284
-568.631	-74.036	0.158	-0.059
-567.617	-90.385	0.116	0.034
-566.602	43.813	-0.261	-0.244
-565.588	332.069	0.163	0.321
-564.573	-89.801	-0.187	0.056
-563.558	800.000	0.091	0.322
-562.544	4.903	0.317	-0.238
-561.529	-142.280	-0.185	-0.019
-560.515	-113.723	-0.512	-0.102
-559.500	69.659	-0.120	0.126
-558.485	60.257	-0.160	-0.162
-557.471	361.189	0.117	-0.241
-556.456	-39.180	-0.089	-0.048
-555.442	-15.262	0.097	-0.063
-554.427	800.000	-0.018	-0.080
-553.412	233.644	-0.084	0.141
-552.398	558.752	0.155	-0.381
-551.383	-109.397	-0.184	0.040
-550.369	37.573	-0.256	-0.232
-549.354	325.175	-0.083	-0.163
-548.339	-38.977	-0.135	0.073
-547.325	146.301	0.119	-0.163
-546.310	-200.000	-0.028	-0.222
-545.296	-200.000	-0.039	-0.253
-544.281	-56.393	-0.507	-0.230
-543.266	-200.000	0.022	0.123
-542.252	202.365	0.100	0.158
-541.237	397.348	-0.084	0.179
-540.223	21.906	0.165	-0.137
-539.208	800.000	-0.071	0.223
-538.193	-1.336	0.192	0.139
-537.179	278.191	-0.026	0.046
-536.164	17.556	0.175	0.142
-535.150	-54.231	-0.198	-0.092
-534.135	-147.281	0.375	0.033
-533.121	-200.000	-0.438	-0.001
-532.106	-13.998	-0.322	-0.213
-531.091	-60.884	0.243	0.105
-530.077	-29.699	0.217	-0.126
-529.062	96.921	0.165	-0.194
-528.048	-42.109	-0.253	-0.132
-527.033	32.992	-0.141	-0.124
-526.018	800.000	-0.053	-0.229
-525.004	10.336	-0.084	0.065
-523.989	-200.000	-0.027	-0.266
-522.975	-72.730	0.250	-0.094
-521.960	89.013	-0.076	-0.087
-520.945	800.000	-0.042	0.165
-519.931	34.596	-0.110	0.098
-518.916	-57.064	0.196	0.088
-517.902	141.035	-0.048	0.065
-516.887	-37.329	-0.329	-0.179
-515.872	-200.000	-0.033	-0.401
-514.858	-200.000	-0.011	-0.111
-513.843	-159.543	0.137	-0.008
-512.829	241.638	-0.229	-0.391
-511.814	-83.843	-0.327	-0.106
-510.799	-200.000	-0.022	-0.108
-509.785	-200.000	0.004	0.321
-508.770	213.429	0.035	0.057
-507.756	-74.475	-0.361	-0.133
-506.741	-68.916	-0.310	-0.122
-505.726	-56.764	-0.120	0.054
-504.712	-80.850	-0.102	0.035
-503.697	122.552	-0.182	-0.232
-502.683	-200.000	0.014	-0.102
-501.668	391.233	-0.042	-0.089
-500.653	23.365	-0.188	-0.157
-499.639	-39.782	0.298	-0.159
-498.624	-44.868	-0.226	-0.115
-497.610	-105.532	-0.085	-0.020
-496.595	-21.970	0.204	-0.127
-495.581	-19.157	0.100	-0.063
-494.566	-184.207	0.151	-0.003
-493.551	-18.251	-0.151	0.096
-492.537	-106.826	-0.212	0.048
-491.522	66.058	-0.152	0.157
-490.508	16.839	0.063	-0.051
-489.493	-140.937	-0.298	0.031
-488.478	-84.960	0.137	0.044
-487.464	32.343	-0.113	-0.100
-486.449	-152.776	-0.164	-0.012
-485.435	-117.943	0.175	-0.032
-484.420	-32.230	-0.235	-0.134
-483.405	-31.705	0.099	0.057
-482.391	231.167	0.081	0.135
-481.376	41.401	-0.350	0.323
-480.362	289.689	0.089	0.165
-479.347	-90.868	0.090	-0.026
-478.332	-103.864	-0.194	-0.046
-477.318	22.371	-0.201	-0.168
-476.303	-158.074	0.351	0.021
-475.289	-86.581	-0.061	-0.019
-474.274	27.607	0.269	-0.231
-473.259	250.731	-0.211	0.365
-472.245	-39.639	0.289	0.154
-471.230	193.717	0.220	-0.339
-470.216	-200.000	-0.014	-0.289
-469.201	306.972	0.179	-0.339
-468.186	-126.582	-0.069	0.010
-467.172	-78.905	0.318	-0.110
-466.157	-121.658	0.194	0.033
-465.143	-111.417	0.271	-0.056
-464.128	-200.000	-0.040	-0.462
-463.113	429.470	-0.076	-0.168
-462.099	-110.600	-0.150	0.032
-461.084	21.722	-0.239	0.199
-460.070	800.000	-0.015	-0.051
-459.055	86.636	0.087	-0.097
-458.040	-53.805	0.179	-0.083
-457.026	777.032	0.081	-0.225
-456.011	-61.809	-0.076	0.033
-454.997	800.000	-0.073	0.238
-453.982	-105.469	0.214	0.049
-452.968	800.000	-0.051	0.165
-451.953	-200.000	0.343	0.002
-450.938	-88.249	-0.271	-0.083
-449.924	2.358	0.031	-0.023
-448.909	290.082	0.091	0.167
-447.895	166.406	0.070	0.101
-446.880	115.389	-0.080	-0.100
-445.865	-200.000	0.025	0.116
-444.851	102.330	-0.098	-0.117
-443.836	383.578	0.274	-0.574
-442.822	-17.018	0.332	-0.213
-441.807	-200.000	-0.021	-0.221
-440.792	-200.000	0.045	-0.219
-439.778	-200.000	0.012	-0.169
-438.763	-134.451	-0.197	-0.025
-437.749	800.000	-0.034	-0.138
-436.734	-200.000	0.000	-0.273
-435.719	377.957	0.013	-0.027
-434.705	73.138	0.205	0.219
-433.690	156.391	-0.260	-0.366
-432.676	-200.000	0.043	0.193
-431.661	-94.025	-0.223	-0.062
-430.646	-200.000	0.013	-0.166
-429.632	-200.000	-0.014	-0.169
-428.617	81.157	0.178	-0.195
-427.603	-200.000	-0.011	0.062
-426.588	418.093	0.122	0.265
-425.573	-145.743	0.031	-0.003
-424.559	49.595	-0.139	-0.134
-423.544	588.681	-0.127	-0.317
-422.530	-104.396	0.121	0.029
-421.515	69.588	0.201	-0.210
-420.500	-103.694	-0.237	0.056
-419.486	-200.000	-0.033	0.148
-418.471	-130.820	-0.424	0.058
-417.457	597.717	-0.082	0.206
-416.442	-200.000	0.003	-0.121
-415.428	117.534	-0.057	-0.071
-414.413	-200.000	-0.005	-0.396
-413.398	33.324	-0.173	-0.153
-412.384	138.686	0.169	0.225
-411.369	-55.183	0.246	0.112
-410.355	-200.000	0.040	0.186
-409.340	418.630	0.032	-0.068
-408.325	-200.000	0.107	0.517
-407.311	-39.288	0.158	-0.084
-406.296	-117.768	0.281	0.051
-405.282	-105.010	0.309	0.072
-404.267	-200.000	-0.021	-0.134
-403.252	312.279	0.168	-0.320
-402.238	800.000	-0.056	0.188
-401.223	-34.043	0.215	0.120
-400.209	-68.899	-0.191	-0.075
-399.194	-192.458	-0.097	-0.001
-398.179	-200.000	0.013	-0.103
-397.165	-200.000	-0.026	-0.465
-396.150	383.823	0.066	-0.139
-395.136	-200.000	0.006	-0.393
-394.121	335.352	0.090	0.178
-393.106	-200.000	0.011	-0.148
-392.092	-51.309	0.131	-0.062
-391.077	-114.633	-0.257	0.050
-390.063	-48.340	0.084	0.041
-389.048	775.798	-0.060	0.166
-388.033	-200.000	0.018	0.128
-387.019	800.000	0.058	0.208
-386.004	-113.553	-0.313	-0.062
-384.990	209.259	0.065	-0.103
-383.975	261.167	-0.042	0.073
-382.960	0.735	-0.092	-0.067
-381.946	800.000	-0.129	-0.434
-380.931	800.000	0.113	-0.384
-379.917	-177.142	0.020	-0.000
-378.902	29.770	-0.252	-0.218
-377.888	485.161	0.079	0.184
-376.873	800.000	-0.094	0.263
-375.858	-112.979	-0.104	-0.021
-374.844	-6.281	0.227	-0.157
-373.829	-200.000	-0.007	0.476
-372.815	-53.061	0.347	0.162
-371.800	800.000	-0.043	-0.122
-370.785	-9.912	-0.101	0.068
-369.771	144.364	0.197	0.267
-368.756	175.957	-0.145	0.214
-367.742	-200.000	0.009	-0.169
-366.727	800.000	0.046	-0.161
-365.712	-22.293	-0.095	0.058
-364.698	-53.874	0.218	0.101
-363.683	800.000	-0.068	-0.294
-362.669	-83.099	0.052	-0.017
-361.654	-200.000	0.068	0.421
-360.639	177.738	0.068	0.101
-359.625	-136.091	-0.223	-0.027
-358.610	-45.072	0.251	0.127
-357.596	-200.000	0.044	-0.224
-356.581	46.358	-0.115	-0.108
-355.566	-200.000	-0.001	0.170
-354.552	-91.874	0.334	0.096
-353.537	800.000	-0.058	-0.256
-352.523	43.197	-0.312	0.288
-351.508	145.111	0.087	0.118
-350.493	81.536	0.022	0.024
-349.479	-186.758	0.233	-0.003
-348.464	-77.524	-0.544	0.191
-347.450	-176.718	0.118	0.003
-346.435	800.000	-0.049	0.208
-345.420	95.741	0.198	0.229
-344.406	550.554	-0.028	-0.069
-343.391	229.258	-0.057	0.094
-342.377	-164.592	0.294	-0.014
-341.362	-189.597	0.283	-0.003
-340.348	-200.000	0.042	0.238
-339.333	346.710	-0.104	-0.208
-338.318	-48.625	0.315	-0.154
-337.304	800.000	-0.028	0.094
-336.289	-78.970	0.536	0.185
-335.275	69.807	-0.221	-0.231
-334.260	-53.405	0.094	-0.044
-333.245	-84.030	0.273	0.088
-332.231	337.790	-0.057	0.112
-331.216	-130.878	-0.177	-0.024
-330.202	-106.519	0.219	-0.050
-329.187	53.283	0.192	0.186
-328.172	800.000	0.053	0.170
-327.158	11.074	-0.130	0.101
-326.143	-45.925	-0.440	-0.220
-325.129	-130.880	-0.043	-0.006
-324.114	-200.000	0.011	-0.208
-323.099	-65.898	0.147	0.060
-322.085	-160.014	-0.057	-0.003
-321.070	184.860	0.234	-0.351
-320.056	742.001	-0.115	-0.313
-319.041	-150.806	0.382	-0.029
-318.026	-81.687	0.108	-0.036
-317.012	317.277	-0.067	0.128
-315.997	-53.692	-0.347	-0.161
-314.983	432.175	-0.103	-0.226
-313.968	-12.463	-0.192	-0.127
-312.953	112.769	-0.116	0.142
-311.939	104.626	0.205	-0.245
-310.924	-97.265	0.211	0.056
-309.910	575.164	-0.070	0.174
-308.895	-200.000	-0.019	0.102
-307.880	72.943	0.260	0.275
-306.866	-113.454	-0.173	-0.034
-305.851	-117.731	-0.326	0.059
-304.837	127.953	0.214	0.275
-303.822	800.000	0.045	0.174
-302.807	-16.188	0.210	-0.135
-301.793	6.034	-0.138	0.104
-300.778	-165.461	0.262	-0.012
-299.764	269.581	0.044	0.079
-298.749	-200.000	-0.019	0.140
-297.735	136.234	-0.103	0.135
-296.720	-16.707	0.134	-0.086
-295.705	800.000	0.085	0.296
-294.691	-88.183	-0.271	0.082
-293.676	216.361	-0.201	0.323
-292.662	-97.663	0.484	0.127
-291.647	115.330	0.041	-0.050
-290.632	-83.378	-0.044	-0.014
-289.618	800.000	-0.101	-0.406
-288.603	-200.000	-0.034	-0.220
-287.589	33.616	0.088	0.078
-286.574	-31.531	0.297	-0.169
-285.559	0.540	0.254	0.184
-284.545	60.736	-0.194	0.194
-283.530	800.000	0.077	0.311
-282.516	423.313	-0.124	0.270
-281.501	-119.725	-0.392	-0.068
-280.486	800.000	-0.009	-0.029
-279.472	-200.000	-0.029	0.212
-278.457	-200.000	0.002	0.186
-277.443	800.000	0.057	0.200
-276.428	12.755	0.156	-0.122
-275.413	-102.384	-0.198	-0.048
-274.399	23.505	0.312	0.260
-273.384	259.103	-0.138	0.242
-272.370	113.626	0.180	0.221
-271.355	-163.964	-0.286	0.013
-270.340	559.440	-0.079	0.192
-269.326	-200.000	-0.029	0.276
-268.311	800.000	-0.072	0.273
-267.297	4.165	-0.412	-0.305
-266.282	800.000	-0.033	0.125
-265.267	316.508	-0.088	-0.167
-264.253	-32.529	-0.232	-0.130
-263.238	-56.469	0.069	0.031
-262.224	511.097	-0.172	0.405
-261.209	800.000	0.051	0.171
-260.195	-139.569	0.209	-0.023
-259.180	93.192	0.104	0.119
-258.165	-37.235	-0.029	-0.016
-257.151	800.000	-0.039	0.160
-256.136	-143.925	0.272	0.026
-255.122	126.391	0.277	0.354
-254.107	387.132	0.083	0.174
-253.092	-200.000	-0.008	0.063
-252.078	4.033	-0.236	0.175
-251.063	-106.406	0.035	-0.008
-250.049	-85.248	0.204	-0.064
-249.034	49.826	-0.135	-0.128
-248.019	800.000	0.049	-0.193
-247.005	320.490	0.143	0.274
-245.990	-200.000	-0.026	-0.211
-244.976	800.000	0.110	-0.350
-243.961	32.097	0.213	-0.186
-242.946	113.196	-0.213	-0.261
-241.932	276.901	0.051	-0.092
-240.917	-124.412	-0.290	0.046
-239.903	-155.081	0.344	0.023
-238.888	-109.018	-0.281	0.061
-237.873	138.595	0.259	0.344
-236.859	-57.589	-0.032	0.014
-235.844	748.509	-0.037	-0.101
-234.830	-116.253	0.323	-0.060
-233.815	98.042	0.143	-0.166
-232.800	-11.983	0.055	-0.037
-231.786	-138.798	0.161	-0.018
-230.771	34.180	0.099	0.087
-229.757	309.575	-0.171	-0.322
-228.742	800.000	0.095	-0.308
-227.727	-200.000	-0.015	0.091
-226.713	-114.548	0.290	-0.056
-225.698	-69.649	-0.223	0.086
-224.684	-112.748	0.143	0.029
-223.669	-71.791	-0.251	-0.095
-222.655	-79.868	-0.410	0.139
-221.640	800.000	-0.067	-0.246
-220.625	-41.801	-0.272	-0.141
-219.611	29.019	-0.016	0.013
-218.596	-200.000	0.051	0.298
-217.582	-81.349	-0.201	-0.067
-216.567	8.208	0.134	0.102
-215.552	-2.661	-0.209	0.147
-214.538	800.000	0.084	0.314
-213.523	205.852	0.123	0.193
-212.509	-101.078	0.216	0.053
-211.494	780.856	0.074	0.204
-210.479	-129.693	0.146	-0.020
-209.465	178.740	-0.056	0.082
-208.450	213.422	0.082	-0.131
-207.436	-200.000	-0.012	0.199
-206.421	132.451	0.197	0.256
-205.406	9.563	-0.036	-0.028
-204.392	-69.132	-0.288	-0.112
-203.377	53.812	-0.233	0.226
-202.363	-200.000	-0.224	-0.000
-201.348	29.628	-0.189	0.162
-200.333	282.166	0.093	-0.167
-199.319	-120.863	0.053	0.009
-198.304	-151.332	0.171	0.013
-197.290	-200.000	-0.018	-0.391
-196.275	-12.190	-0.259	0.171
-195.260	-55.878	-0.243	0.109
-194.246	777.187	0.085	-0.235
-193.231	-200.000	-0.041	0.365
-192.217	-111.727	0.017	0.004
-191.202	800.000	0.106	0.385
-190.187	800.000	0.064	0.246
-189.173	800.000	0.051	0.203
-188.158	-200.000	0.015	0.079
-187.144	-52.191	-0.438	0.205
-186.129	55.480	-0.101	0.098
-185.114	-38.948	-0.269	0.143
-184.100	-51.085	0.255	-0.120
-183.085	800.000	-0.063	-0.214
-182.071	800.000	-0.071	-0.232
-181.056	-128.060	0.143	0.021
-180.042	-93.171	-0.179	-0.050
-179.027	-87.356	-0.037	-0.011
-178.012	194.949	-0.059	0.091
-176.998	-200.000	-0.014	0.185
-175.983	-200.000	0.023	-0.178
-174.969	800.000	-0.129	-0.395
-173.954	755.435	0.072	0.195
-172.939	-47.151	-0.186	-0.091
-171.925	315.159	0.182	0.345
-170.910	-200.000	-0.099	-0.473
-169.896	10.320	-0.237	-0.182
-168.881	-200.000	-0.011	0.460
-167.866	-200.000	0.012	0.322
-166.852	-144.979	-0.354	-0.033
-165.837	-110.633	-0.146	0.030
-164.823	-66.698	0.112	-0.045
-163.808	669.536	0.021	0.054
-162.793	-66.358	-0.264	0.106
-161.779	800.000	-0.047	0.167
-160.764	-2.787	0.085	0.060
-159.750	457.691	0.084	0.187
-158.735	-117.957	0.029	-0.005
-157.720	-18.596	-0.085	-0.053
-156.706	-200.000	-0.008	0.102
-155.691	194.021	0.185	0.283
-154.677	181.743	-0.151	0.223
-153.662	800.000	0.148	0.582
-152.647	800.000	0.072	-0.235
-151.633	78.479	-0.110	-0.118
-150.618	-200.000	-0.031	-0.192
-149.604	34.681	-0.150	0.132
-148.589	-56.582	0.229	-0.102
-147.574	-200.000	-0.007	-0.182
-146.560	-3.010	-0.322	0.226
-145.545	440.001	-0.110	0.241
-144.531	91.102	0.182	0.206
-143.516	656.879	0.024	0.062
-142.502	103.392	0.115	-0.135
-141.487	-162.884	0.344	0.017
-140.472	-181.150	0.017	-0.000
-139.458	-200.000	0.015	-0.143
-138.443	27.412	0.029	0.025
-137.429	-72.848	-0.288	-0.107
-136.414	-200.000	-0.004	-0.042
-135.399	-145.496	-0.202	-0.018
-134.385	128.273	-0.061	-0.078
-133.370	-94.517	-0.358	-0.098
-132.356	-200.000	-0.062	-0.289
-131.341	45.498	-0.067	-0.062
-130.326	-70.301	-0.089	-0.034
-129.312	143.884	0.118	-0.158
-128.297	-157.890	0.109	0.006
-127.283	-47.076	-0.182	-0.089
-126.268	-21.511	0.201	-0.123
-125.253	-99.528	0.335	-0.085
-124.239	-101.388	0.349	0.085
-123.224	38.346	-0.126	0.113
-122.210	-99.694	0.150	-0.038
