DTS Sentinel unit serial number:	SN413079Multiplexer serial number:	ORYXHardware model number:	OX4-SRSoftware version number:	ORYX F/W v4.00 Oryx Data Collector v3.7.2.0data status	okinstallation	princeton_trtdifferential loss correction	single-endedforward channel	channel 4reverse channel	N/Adate	2019/09/14time	07:37:34forward acquisition time	60.00reverse acquisition time	0.00gamma	496.2192k internal	0.2323k external	0.2323temperature offset calibration	1.0133default loss term (dB/km)	0.3790temperature slope calibration	1.0000multiplexer offset coefficient	1.0000multiplexer slope coefficient	1.0000fibre end	0.00T internal ref (°C)	26.25T ext. ref 1 (°C)	3.47T ext. ref 2 (°C)	21.63length (m)	temperature (°C)	Stokes	anti-Stokes-747.200	-136.149	0.194	0.023
-746.185	-112.496	0.276	0.056
-745.171	-37.533	0.306	-0.165
-744.156	30.062	0.103	-0.088
-743.142	462.600	-0.093	0.211
-742.127	-58.717	-0.064	0.028
-741.112	-46.548	0.058	0.029
-740.098	158.701	-0.125	0.175
-739.083	800.000	-0.056	0.183
-738.069	-58.163	-0.198	0.087
-737.054	-200.000	0.006	0.040
-736.039	75.319	-0.123	-0.131
-735.025	-200.000	0.001	0.062
-734.010	184.933	-0.256	-0.384
-732.996	-200.000	-0.062	-0.482
-731.981	-200.000	0.003	-0.072
-730.966	-200.000	-0.005	0.139
-729.952	-66.336	-0.421	-0.169
-728.937	58.161	0.239	-0.236
-727.923	-147.840	-0.334	-0.028
-726.908	647.469	-0.126	0.325
-725.894	137.710	-0.117	0.155
-724.879	-72.182	0.264	0.099
-723.864	136.873	-0.227	-0.299
-722.850	-64.687	0.183	-0.075
-721.835	-200.000	-0.063	-0.530
-720.821	-59.521	-0.194	-0.084
-719.806	-200.000	0.008	-0.061
-718.791	443.447	0.030	0.066
-717.777	800.000	0.029	-0.128
-716.762	16.091	-0.063	0.050
-715.748	130.891	-0.026	-0.034
-714.733	109.806	0.146	-0.176
-713.718	-158.029	-0.060	0.004
-712.704	-50.230	0.090	0.043
-711.689	169.508	0.155	-0.223
-710.675	730.677	-0.064	-0.173
-709.660	-200.000	0.015	0.081
-708.645	22.828	0.116	0.096
-707.631	737.778	0.118	0.318
-706.616	-105.588	-0.149	-0.034
-705.602	-22.178	0.106	0.065
-704.587	-36.393	-0.223	0.121
-703.572	81.513	-0.226	-0.247
-702.558	222.581	-0.091	0.148
-701.543	800.000	0.035	-0.123
-700.529	-86.627	0.382	-0.118
-699.514	800.000	-0.088	0.254
-698.499	-67.013	0.082	-0.033
-697.485	-182.980	0.108	-0.002
-696.470	-47.805	-0.291	-0.142
-695.456	37.435	-0.188	-0.168
-694.441	-62.088	-0.229	0.096
-693.426	198.721	-0.169	-0.260
-692.412	-200.000	0.035	0.165
-691.397	-54.450	-0.088	0.040
-690.383	37.166	0.006	-0.006
-689.368	-24.157	-0.072	-0.043
-688.354	167.248	-0.156	0.224
-687.339	353.810	-0.143	-0.286
-686.324	-121.456	-0.083	-0.014
-685.310	800.000	0.032	0.091
-684.295	-141.546	0.111	-0.011
-683.281	234.097	0.063	-0.105
-682.266	133.164	-0.112	-0.145
-681.251	-200.000	-0.014	0.125
-680.237	-32.738	0.255	-0.143
-679.222	275.915	-0.059	0.105
-678.208	359.598	0.117	0.236
-677.193	71.449	-0.036	-0.038
-676.178	-200.000	0.023	-0.131
-675.164	-136.165	-0.199	-0.023
-674.149	800.000	0.048	-0.198
-673.135	-200.000	0.002	0.333
-672.120	-2.140	-0.181	0.128
-671.105	136.657	0.068	-0.090
-670.091	800.000	-0.092	-0.306
-669.076	-119.376	0.225	-0.039
-668.062	-200.000	0.168	0.000
-667.047	-46.357	-0.168	-0.083
-666.032	-200.000	-0.067	-0.373
-665.018	-148.643	0.141	-0.012
-664.003	48.755	-0.138	-0.130
-662.989	-113.030	-0.325	0.065
-661.974	-29.685	-0.325	0.187
-660.959	-200.000	0.055	0.315
-659.945	-92.773	0.275	-0.078
-658.930	111.228	-0.272	-0.330
-657.916	47.634	-0.181	0.170
-656.901	-200.000	0.007	-0.341
-655.886	181.072	0.139	-0.205
-654.872	-200.000	-0.012	-0.135
-653.857	-200.000	-0.013	0.215
-652.843	302.398	0.026	0.048
-651.828	29.445	0.305	-0.261
-650.814	-59.379	0.155	-0.067
-649.799	-200.000	0.008	-0.160
-648.784	22.472	-0.219	-0.180
-647.770	-18.067	-0.125	0.079
-646.755	-124.499	-0.026	0.004
-645.741	588.276	0.069	0.170
-644.726	-177.975	-0.174	-0.004
-643.711	-57.593	-0.195	-0.086
-642.697	-107.889	0.211	-0.046
-641.682	-137.271	-0.200	0.023
-640.668	55.028	-0.137	0.133
-639.653	53.044	0.201	-0.194
-638.638	-200.000	0.015	0.086
-637.624	132.365	0.134	-0.174
-636.609	-29.761	-0.128	0.074
-635.595	800.000	-0.002	0.009
-634.580	-200.000	0.038	-0.271
-633.565	266.988	0.054	-0.095
-632.551	-131.374	0.177	-0.024
-631.536	-200.000	-0.043	-0.225
-630.522	-38.343	0.066	0.035
-629.507	249.248	-0.123	0.210
-628.492	-56.277	0.309	-0.138
-627.478	49.883	-0.188	-0.178
-626.463	-45.841	-0.205	-0.102
-625.449	199.153	0.126	-0.195
-624.434	-200.000	-0.033	-0.146
-623.419	19.668	0.225	-0.182
-622.405	2.781	0.137	-0.100
-621.390	-200.000	0.025	-0.118
-620.376	-127.178	0.397	0.058
-619.361	-200.000	-0.011	0.302
-618.346	159.367	-0.175	-0.244
-617.332	788.297	0.051	0.139
-616.317	-117.433	0.078	-0.014
-615.303	-154.923	0.090	-0.006
-614.288	-200.000	-0.026	-0.136
-613.273	-200.000	-0.002	-0.035
-612.259	-200.000	-0.079	-0.438
-611.244	120.770	-0.388	-0.485
-610.230	-176.680	-0.105	-0.003
-609.215	-99.749	-0.117	0.029
-608.201	383.747	-0.087	-0.180
-607.186	-22.633	0.127	0.077
-606.171	80.603	-0.271	0.293
-605.157	-133.914	-0.317	0.040
-604.142	-50.387	-0.610	0.289
-603.128	-200.000	0.003	0.217
-602.113	-47.879	0.169	0.082
-601.098	-120.695	-0.208	0.035
-600.084	-200.000	-0.038	0.210
-599.069	143.338	0.145	0.193
-598.055	-115.484	0.335	-0.063
-597.040	112.433	-0.143	-0.174
-596.025	-84.402	0.547	-0.174
-595.011	-53.776	0.063	0.029
-593.996	35.565	-0.252	-0.222
-592.982	-34.091	-0.357	-0.197
-591.967	-70.848	0.298	-0.113
-590.952	134.519	-0.047	0.062
-589.938	-26.574	-0.307	-0.180
-588.923	-200.000	-0.031	-0.304
-587.909	-88.143	0.010	0.003
-586.894	5.709	0.096	0.071
-585.879	797.185	0.162	-0.448
-584.865	86.758	0.033	0.036
-583.850	-200.000	-0.004	-0.175
-582.836	-200.000	-0.003	0.117
-581.821	-36.539	-0.252	-0.136
-580.806	-110.405	-0.189	-0.039
-579.792	6.779	-0.279	-0.208
-578.777	-200.000	0.016	0.149
-577.763	15.003	-0.124	0.097
-576.748	-200.000	-0.043	-0.226
-575.733	-111.496	0.026	-0.005
-574.719	-109.521	-0.240	0.051
-573.704	-86.836	-0.266	-0.082
-572.690	-85.691	0.274	0.085
-571.675	-102.719	-0.063	-0.015
-570.661	439.274	0.074	0.162
-569.646	2.694	0.063	0.046
-568.631	203.247	0.073	0.114
-567.617	-200.000	0.029	-0.264
-566.602	-140.702	0.159	-0.017
-565.588	-68.256	0.038	0.015
-564.573	-73.365	0.310	0.114
-563.558	-62.296	-0.177	-0.074
-562.544	37.849	0.280	-0.249
-561.529	-28.562	-0.146	-0.084
-560.515	800.000	-0.068	0.277
-559.500	678.599	0.081	-0.212
-558.485	-128.265	-0.330	-0.047
-557.471	177.907	0.126	0.185
-556.456	543.771	0.126	0.301
-555.442	-56.905	-0.346	-0.153
-554.427	-200.000	-0.056	-0.272
-553.412	110.779	0.022	-0.027
-552.398	-200.000	-0.015	-0.311
-551.383	-59.030	0.304	0.132
-550.369	83.568	-0.083	-0.091
-549.354	383.684	0.182	0.376
-548.339	-38.700	-0.182	0.096
-547.325	250.156	-0.210	0.357
-546.310	212.677	0.022	0.035
-545.296	800.000	-0.069	0.228
-544.281	-135.595	-0.417	-0.050
-543.266	184.501	0.084	0.125
-542.252	-200.000	0.049	-0.261
-541.237	-138.360	0.402	-0.044
-540.223	-110.439	-0.430	0.089
-539.208	636.162	0.056	-0.143
-538.193	800.000	-0.078	-0.274
-537.179	-116.286	-0.300	-0.056
-536.164	475.330	0.023	-0.052
-535.150	-102.617	0.269	0.064
-534.135	-6.514	-0.313	-0.214
-533.121	-98.566	0.155	0.040
-532.106	70.017	0.223	0.231
-531.091	800.000	-0.047	-0.154
-530.077	-78.835	0.142	-0.049
-529.062	69.518	0.292	0.301
-528.048	-101.094	0.265	-0.065
-527.033	-200.000	-0.078	-0.439
-526.018	-162.947	-0.389	0.019
-525.004	87.394	0.062	-0.069
-523.989	-154.287	-0.050	0.003
-522.975	-41.448	-0.524	0.270
-521.960	263.018	0.166	0.288
-520.945	60.933	-0.115	0.115
-519.931	23.507	-0.091	0.075
-518.916	-35.568	0.303	-0.165
-517.902	-30.898	0.095	-0.054
-516.887	-142.601	-0.281	0.028
-515.872	-87.732	0.293	-0.089
-514.858	-133.000	0.324	-0.041
-513.843	-97.835	0.198	0.051
-512.829	800.000	-0.119	-0.340
-511.814	28.052	-0.138	-0.116
-510.799	-121.134	0.234	0.039
-509.785	258.222	0.068	-0.118
-508.770	-80.984	-0.153	-0.051
-507.756	-71.360	-0.153	-0.057
-506.741	-37.559	0.082	-0.044
-505.726	620.272	-0.029	-0.072
-504.712	254.157	-0.143	-0.245
-503.697	-69.102	0.064	-0.025
-502.683	-89.545	-0.153	-0.045
-501.668	789.588	0.074	-0.204
-500.653	3.674	-0.153	-0.112
-499.639	95.735	0.138	-0.158
-498.624	320.842	0.198	-0.376
-497.610	-200.000	0.084	-0.488
-496.595	203.130	-0.086	0.133
-495.581	-107.992	0.410	0.089
-494.566	-80.037	-0.230	-0.077
-493.551	800.000	0.070	0.240
-492.537	-141.466	-0.029	-0.003
-491.522	800.000	-0.081	-0.251
-490.508	680.254	0.137	0.358
-489.493	-169.913	-0.052	0.002
-488.478	800.000	-0.101	-0.412
-487.464	377.578	0.118	0.241
-486.449	-179.858	-0.096	0.002
-485.435	94.427	-0.062	0.070
-484.420	30.625	-0.082	0.070
-483.405	65.509	-0.225	-0.228
-482.391	-200.000	-0.006	-0.115
-481.376	-200.000	0.031	-0.160
-480.362	203.770	-0.023	0.036
-479.347	-59.088	-0.079	0.034
-478.332	26.812	0.153	0.128
-477.318	-164.897	-0.317	0.014
-476.303	34.332	-0.179	0.156
-475.289	-53.488	0.160	0.073
-474.274	-22.724	0.305	0.184
-473.259	-52.450	-0.354	0.163
-472.245	-130.075	-0.250	0.034
-471.230	165.728	0.124	-0.176
-470.216	-63.207	-0.220	-0.091
-469.201	318.989	-0.061	0.115
-468.186	277.237	0.036	0.064
-467.172	-157.087	0.155	0.009
-466.157	-200.000	0.010	-0.196
-465.143	-200.000	-0.039	-0.228
-464.128	-70.179	-0.087	-0.033
-463.113	-42.695	0.228	0.116
-462.099	282.534	-0.099	-0.177
-461.084	-41.044	0.258	-0.133
-460.070	71.485	-0.067	0.070
-459.055	-200.000	-0.061	0.300
-458.040	73.057	-0.216	0.225
-457.026	206.012	-0.248	-0.385
-456.011	-154.259	-0.394	0.027
-454.997	-104.303	-0.189	0.044
-453.982	-157.387	-0.101	0.006
-452.968	-127.803	-0.376	0.054
-451.953	-111.825	0.314	0.063
-450.938	-67.062	-0.164	0.065
-449.924	800.000	0.093	0.269
-448.909	-200.000	-0.032	-0.207
-447.895	-200.000	0.002	-0.041
-446.880	438.755	-0.013	0.028
-445.865	-154.001	0.338	-0.023
-444.851	-110.950	-0.385	0.079
-443.836	412.990	-0.068	0.144
-442.822	312.891	0.086	0.161
-441.807	563.426	-0.067	-0.161
-440.792	-23.782	0.219	0.131
-439.778	-96.214	-0.087	-0.023
-438.763	800.000	0.039	-0.122
-437.749	33.109	-0.153	0.132
-436.734	99.432	-0.181	0.209
-435.719	-102.655	-0.101	-0.024
-434.705	-34.529	-0.348	0.190
-433.690	100.106	-0.039	-0.045
-432.676	185.069	0.087	-0.128
-431.661	102.222	0.075	-0.088
-430.646	255.170	0.233	-0.398
-429.632	-200.000	0.036	0.260
-428.617	-59.038	0.119	0.051
-427.603	449.483	0.092	0.202
-426.588	-200.000	-0.081	-0.479
-425.573	88.861	-0.174	0.193
-424.559	800.000	-0.089	0.336
-423.544	155.782	-0.179	-0.245
-422.530	-12.771	-0.184	0.120
-421.515	-146.337	0.111	-0.010
-420.500	-49.361	0.294	0.140
-419.486	-60.603	-0.075	-0.032
-418.471	330.836	0.110	-0.212
-417.457	17.432	0.251	0.199
-416.442	27.564	0.317	-0.266
-415.428	52.399	0.354	-0.337
-414.413	800.000	-0.032	0.121
-413.398	-200.000	0.007	0.133
-412.384	800.000	-0.061	-0.235
-411.369	-200.000	-0.031	0.252
-410.355	231.718	0.187	0.305
-409.340	800.000	0.096	0.360
-408.325	-200.000	-0.005	0.349
-407.311	-96.244	0.289	-0.077
-406.296	-200.000	-0.023	0.108
-405.282	-116.117	0.261	0.048
-404.267	195.895	-0.091	0.138
-403.252	548.624	0.092	0.219
-402.238	123.325	-0.092	0.115
-401.223	-99.782	-0.195	0.049
-400.209	-200.000	-0.012	0.295
-399.194	-200.000	0.035	-0.242
-398.179	800.000	0.052	-0.146
-397.165	348.305	0.134	-0.263
-396.150	-56.434	-0.141	0.062
-395.136	-200.000	0.018	-0.137
-394.121	24.771	0.111	0.092
-393.106	-200.000	-0.043	0.376
-392.092	-200.000	-0.063	0.283
-391.077	385.625	-0.121	0.248
-390.063	-150.865	-0.109	-0.008
-389.048	103.798	0.213	-0.249
-388.033	-200.000	-0.003	-0.039
-387.019	-183.807	0.185	-0.003
-386.004	-200.000	-0.021	0.147
-384.990	771.648	-0.075	0.203
-383.975	-200.000	-0.019	0.408
-382.960	336.094	0.081	-0.156
-381.946	53.755	-0.185	0.177
-380.931	-17.354	-0.330	0.207
-379.917	264.505	-0.087	-0.150
-378.902	59.415	0.056	0.055
-377.888	800.000	0.044	0.177
-376.873	180.110	0.200	-0.292
-375.858	252.705	0.030	-0.050
-374.844	212.697	0.113	-0.178
-373.829	-6.359	-0.074	0.050
-372.815	-79.216	0.189	-0.064
-371.800	74.812	-0.063	0.066
-370.785	-115.488	0.105	0.020
-369.771	-72.284	-0.185	0.068
-368.756	-101.586	0.364	-0.088
-367.742	94.394	0.139	0.158
-366.727	800.000	-0.030	-0.112
-365.712	48.910	-0.046	0.043
-364.698	-200.000	-0.041	-0.273
-363.683	-44.036	-0.375	-0.187
-362.669	800.000	-0.023	0.086
-361.654	-200.000	0.071	-0.398
-360.639	-111.300	-0.160	0.032
-359.625	-200.000	0.041	-0.185
-358.610	-134.622	0.203	-0.025
-357.596	-15.278	-0.098	0.063
-356.581	665.238	0.090	0.232
-355.566	688.053	-0.041	0.106
-354.552	146.896	-0.169	-0.226
-353.537	-115.375	0.221	-0.042
-352.523	54.613	0.141	-0.135
-351.508	800.000	-0.070	0.242
-350.493	169.578	0.204	-0.289
-349.479	152.740	0.189	-0.257
-348.464	90.967	0.118	-0.132
-347.450	370.020	-0.032	-0.065
-346.435	428.132	0.125	-0.268
-345.420	-17.326	0.106	-0.066
-344.406	559.935	0.042	0.102
-343.391	-163.644	-0.346	0.016
-342.377	-97.109	-0.217	0.056
-341.362	-67.620	0.139	-0.054
-340.348	-137.403	0.245	-0.028
-339.333	22.885	0.084	0.069
-338.318	-23.897	0.342	-0.204
-337.304	6.186	-0.072	0.053
-336.289	800.000	0.048	-0.159
-335.275	-53.320	-0.207	0.095
-334.260	719.691	-0.060	-0.157
-333.245	-117.320	-0.207	-0.037
-332.231	559.539	0.185	-0.445
-331.216	143.958	-0.069	-0.091
-330.202	731.949	-0.104	-0.277
-329.187	-84.314	0.105	0.033
-328.172	-161.126	-0.188	0.010
-327.158	297.327	-0.096	0.175
-326.143	192.667	0.107	0.160
-325.129	64.657	0.035	-0.035
-324.114	32.983	-0.152	0.131
-323.099	368.065	0.219	-0.439
-322.085	-159.180	-0.231	-0.013
-321.070	486.303	-0.139	0.315
-320.056	-200.000	0.027	-0.193
-319.041	-200.000	-0.023	0.318
-318.026	-57.599	-0.160	0.070
-317.012	800.000	-0.044	0.128
-315.997	684.151	0.042	0.108
-314.983	28.255	-0.211	0.177
-313.968	307.909	0.131	0.242
-312.953	138.449	-0.269	-0.351
-311.939	673.158	-0.118	-0.303
-310.924	-141.727	-0.384	0.038
-309.910	-107.856	0.406	-0.088
-308.895	-169.821	-0.040	0.001
-307.880	-200.000	0.268	0.000
-306.866	-123.705	-0.104	-0.016
-305.851	398.780	0.069	0.144
-304.837	-37.686	0.050	0.026
-303.822	-2.064	-0.139	-0.097
-302.807	-149.065	0.097	-0.008
-301.793	800.000	0.076	0.244
-300.778	-133.832	0.290	-0.036
-299.764	407.892	-0.158	-0.331
-298.749	168.569	-0.094	-0.133
-297.735	-108.781	0.163	-0.035
-296.720	-200.000	-0.074	0.468
-295.705	-52.537	-0.259	0.119
-294.691	92.568	0.214	-0.239
-293.676	-37.899	-0.106	-0.056
-292.662	131.762	0.071	-0.091
-291.647	20.839	0.039	0.032
-290.632	800.000	-0.048	0.202
-289.618	624.336	-0.151	-0.377
-288.603	-112.302	-0.175	0.035
-287.589	259.025	-0.020	0.033
-286.574	-46.041	0.129	-0.063
-285.559	-96.821	0.176	-0.046
-284.545	-153.504	0.215	0.015
-283.530	3.645	0.063	-0.045
-282.516	781.975	-0.163	0.443
-281.501	14.830	0.122	0.095
-280.486	-200.000	-0.016	-0.139
-279.472	-148.495	-0.235	0.019
-278.457	88.040	0.319	-0.351
-277.443	275.067	0.084	0.147
-276.428	-43.532	-0.082	-0.041
-275.413	800.000	0.089	-0.382
-274.399	-92.080	0.297	-0.083
-273.384	225.218	-0.121	-0.195
-272.370	127.557	-0.103	0.129
-271.355	6.975	0.072	-0.053
-270.340	800.000	0.133	-0.395
-269.326	-115.501	0.379	-0.071
-268.311	800.000	0.060	-0.169
-267.297	565.508	0.087	0.208
-266.282	-200.000	-0.001	-0.015
-265.267	-51.752	0.077	-0.036
-264.253	-25.735	-0.165	-0.097
-263.238	-57.927	-0.134	-0.058
-262.224	-93.501	0.178	-0.049
-261.209	-70.881	0.100	-0.037
-260.195	-33.808	0.153	0.084
-259.180	-159.536	-0.348	-0.019
-258.165	78.305	-0.057	0.061
-257.151	-17.315	0.170	0.106
-256.136	249.796	0.068	-0.114
-255.122	-195.061	-0.311	0.002
-254.107	-33.268	-0.107	0.059
-253.092	17.329	0.236	0.185
-252.078	-146.192	-0.033	0.003
-251.063	-200.000	0.035	0.201
-250.049	-106.093	-0.257	-0.057
-249.034	71.086	-0.214	0.220
-248.019	-56.795	0.417	0.183
-247.005	-12.552	-0.192	0.124
-245.990	450.413	-0.058	-0.127
-244.976	-27.280	0.127	0.073
-243.961	155.152	0.119	0.163
-242.946	740.507	-0.177	0.472
-241.932	641.723	0.145	0.367
-240.917	-60.596	-0.199	0.084
-239.903	-200.000	-0.012	-0.144
-238.888	286.971	-0.062	0.111
-237.873	-111.435	0.259	-0.052
-236.859	269.091	-0.040	0.070
-235.844	-200.000	0.019	0.161
-234.830	399.427	0.018	0.037
-233.815	373.270	-0.124	-0.249
-232.800	-200.000	0.013	0.070
-231.786	-21.476	0.108	-0.065
-230.771	20.771	-0.240	0.193
-229.757	297.949	-0.020	0.037
-228.742	-6.987	0.419	0.282
-227.727	-57.073	0.424	-0.185
-226.713	17.714	-0.151	-0.119
-225.698	87.570	0.201	0.220
-224.684	-45.476	-0.091	-0.045
-223.669	-5.196	-0.255	0.173
-222.655	800.000	0.109	0.461
-221.640	-200.000	0.054	0.424
-220.625	-120.676	-0.250	0.042
-219.611	-106.799	-0.110	-0.024
-218.596	33.592	-0.232	-0.199
-217.582	-190.221	-0.130	0.001
-216.567	-200.000	0.043	0.255
-215.552	-191.260	-0.137	-0.001
-214.538	800.000	0.094	0.334
-213.523	648.940	-0.078	-0.197
-212.509	-73.659	-0.302	0.109
-211.494	-167.124	0.049	-0.002
-210.479	-134.128	-0.217	-0.027
-209.465	16.222	0.235	0.183
-208.450	-200.000	0.009	-0.217
-207.436	-119.084	0.482	0.083
-206.421	214.297	-0.124	0.194
-205.406	-51.041	-0.120	-0.056
-204.392	-169.795	-0.121	-0.004
-203.377	-48.565	0.261	-0.124
-202.363	-73.255	0.410	-0.148
-201.348	14.281	-0.192	0.148
-200.333	-123.923	-0.141	0.022
-199.319	-96.472	0.191	-0.050
-198.304	365.252	0.172	0.343
-197.290	42.390	0.282	0.253
-196.275	-200.000	0.006	0.202
-195.260	-200.000	-0.001	0.046
-194.246	-100.491	0.134	0.033
-193.231	-200.000	-0.018	-0.214
-192.217	51.916	0.046	0.043
-191.202	8.209	-0.087	-0.064
-190.187	-136.804	0.241	0.027
-189.173	-6.182	0.113	0.076
-188.158	-200.000	0.018	0.093
-187.144	800.000	0.046	0.178
-186.129	7.830	-0.181	-0.134
-185.114	18.534	0.171	0.135
-184.100	-71.594	0.178	-0.066
-183.085	576.141	0.035	-0.084
-182.071	250.364	0.099	0.166
-181.056	-77.295	-0.207	-0.071
-180.042	525.138	0.098	0.228
-179.027	-16.974	0.235	0.146
-178.012	29.195	-0.204	-0.171
-176.998	445.937	0.149	-0.323
-175.983	336.571	0.165	0.316
-174.969	158.304	0.153	-0.210
-173.954	-32.412	0.104	0.057
-172.939	-39.524	0.178	-0.092
-171.925	603.908	0.069	0.169
-170.910	-180.827	0.189	0.004
-169.896	39.886	0.059	-0.052
-168.881	253.695	-0.047	-0.080
-167.866	25.959	0.099	-0.082
-166.852	800.000	0.079	0.223
-165.837	67.848	-0.125	-0.126
-164.823	-83.314	0.303	-0.096
-163.808	-149.226	0.203	0.016
-162.793	103.424	0.117	0.135
-161.779	-21.236	-0.185	0.112
-160.764	-85.214	-0.314	0.097
-159.750	-56.911	-0.319	0.139
-158.735	487.406	-0.095	-0.213
-157.720	-200.000	0.026	0.241
-156.706	-200.000	0.027	0.130
-155.691	-200.000	-0.001	0.232
-154.677	-159.893	0.185	0.010
-153.662	-51.539	-0.163	0.075
-152.647	-200.000	-0.063	0.295
-151.633	-12.374	-0.312	0.201
-150.618	-20.548	0.205	-0.125
-149.604	138.950	-0.051	0.066
-148.589	434.486	0.199	0.427
-147.574	-91.733	-0.228	-0.064
-146.560	165.525	-0.210	0.292
-145.545	-84.686	-0.193	-0.060
-144.531	-48.336	-0.231	-0.110
-143.516	101.033	-0.279	0.320
-142.502	-0.580	-0.226	0.158
-141.487	-154.074	0.416	-0.028
-140.472	-137.002	-0.148	-0.017
-139.458	-118.545	0.240	0.042
-138.443	-200.000	0.010	-0.244
-137.429	531.025	0.045	0.104
-136.414	145.729	0.053	-0.070
-135.399	151.732	-0.081	0.109
-134.385	-137.274	-0.241	-0.027
-133.370	-200.000	-0.040	0.179
-132.356	800.000	0.062	-0.259
-131.341	308.251	-0.059	-0.109
-130.326	-200.000	0.009	-0.049
-129.312	800.000	-0.083	-0.234
-128.297	-200.000	0.254	-0.001
-127.283	800.000	0.007	0.021
-126.268	390.094	0.070	0.142
-125.253	-200.000	-0.060	-0.275
-124.239	-103.732	-0.063	-0.015
-123.224	151.392	-0.160	0.214
-122.210	-36.355	-0.161	0.086
