DTS Sentinel unit serial number:	SN413079Multiplexer serial number:	ORYXHardware model number:	OX4-SRSoftware version number:	ORYX F/W v4.00 Oryx Data Collector v3.7.2.0data status	okinstallation	princeton_trtdifferential loss correction	single-endedforward channel	channel 4reverse channel	N/Adate	2019/09/17time	06:01:35forward acquisition time	60.00reverse acquisition time	0.00gamma	496.2192k internal	0.2315k external	0.2315temperature offset calibration	0.9983default loss term (dB/km)	0.3790temperature slope calibration	1.0000multiplexer offset coefficient	1.0000multiplexer slope coefficient	1.0000fibre end	0.00T internal ref (°C)	28.75T ext. ref 1 (°C)	0.14T ext. ref 2 (°C)	22.37length (m)	temperature (°C)	Stokes	anti-Stokes-747.200	18.390	-0.264	0.213
-746.185	-200.000	0.011	-0.050
-745.171	-41.767	0.278	0.144
-744.156	800.000	-0.024	-0.101
-743.142	605.228	-0.052	-0.131
-742.127	-50.899	-0.492	0.234
-741.112	800.000	0.032	0.142
-740.098	-200.000	0.003	0.390
-739.083	-200.000	0.002	-0.126
-738.069	-164.929	-0.225	0.010
-737.054	-200.000	-0.000	-0.093
-736.039	800.000	-0.004	-0.016
-735.025	81.668	0.049	-0.054
-734.010	16.183	0.137	0.110
-732.996	800.000	-0.049	-0.138
-731.981	125.238	-0.113	0.145
-730.966	300.534	0.065	0.121
-729.952	-118.012	-0.242	-0.044
-728.937	-200.000	0.001	0.276
-727.923	11.758	-0.220	-0.171
-726.908	326.740	-0.160	-0.311
-725.894	47.670	0.203	-0.192
-724.879	-5.987	-0.085	-0.059
-723.864	-200.000	-0.009	-0.167
-722.850	-200.000	-0.002	0.278
-721.835	800.000	-0.008	0.031
-720.821	-178.066	0.479	-0.011
-719.806	-80.284	0.160	-0.054
-718.791	3.885	0.098	-0.073
-717.777	-30.790	0.062	-0.035
-716.762	-200.000	-0.014	0.062
-715.748	-70.198	-0.314	-0.121
-714.733	470.786	-0.042	0.096
-713.718	-200.000	0.014	0.203
-712.704	70.549	-0.030	-0.031
-711.689	-92.305	-0.136	-0.039
-710.675	800.000	-0.111	-0.367
-709.660	-200.000	0.029	-0.268
-708.645	800.000	-0.082	-0.249
-707.631	-2.584	-0.155	-0.110
-706.616	-185.471	-0.436	0.007
-705.602	-69.010	0.193	0.075
-704.587	-25.254	-0.369	-0.221
-703.572	264.054	-0.169	-0.298
-702.558	18.151	-0.028	0.023
-701.543	13.567	-0.088	-0.069
-700.529	38.817	-0.056	-0.051
-699.514	800.000	0.036	0.135
-698.499	589.169	0.064	-0.159
-697.485	800.000	0.042	0.160
-696.470	800.000	0.032	0.092
-695.456	-154.312	0.284	-0.019
-694.441	800.000	-0.046	0.193
-693.426	508.910	-0.085	-0.200
-692.412	66.327	0.194	-0.199
-691.397	-200.000	0.018	0.371
-690.383	-91.760	0.082	0.024
-689.368	-200.000	-0.283	0.001
-688.354	170.556	-0.089	-0.128
-687.339	-200.000	-0.034	-0.344
-686.324	-7.262	0.111	-0.076
-685.310	-125.399	-0.239	-0.037
-684.295	800.000	-0.076	-0.266
-683.281	-200.000	0.033	-0.266
-682.266	-127.648	-0.271	0.040
-681.251	-200.000	-0.016	0.173
-680.237	220.457	-0.138	0.223
-679.222	128.837	-0.052	-0.068
-678.208	124.081	0.294	-0.373
-677.193	148.500	0.190	-0.260
-676.178	22.241	-0.318	-0.262
-675.164	-121.814	-0.273	0.045
-674.149	-9.082	-0.199	-0.135
-673.135	166.381	-0.124	-0.178
-672.120	66.338	-0.052	0.053
-671.105	-35.362	-0.218	0.120
-670.091	-10.766	-0.371	0.248
-669.076	562.483	0.050	0.122
-668.062	-200.000	0.009	-0.054
-667.047	-28.966	0.218	0.126
-666.032	285.876	-0.139	0.253
-665.018	39.732	0.132	-0.120
-664.003	217.937	0.259	-0.418
-662.989	-200.000	-0.020	-0.092
-661.974	-104.337	0.045	0.010
-660.959	-22.009	-0.143	-0.087
-659.945	-58.400	0.133	-0.058
-658.930	-7.984	-0.146	-0.100
-657.916	129.445	-0.149	-0.193
-656.901	800.000	-0.042	-0.180
-655.886	-137.097	-0.187	0.022
-654.872	-0.052	0.139	-0.100
-653.857	-46.279	0.250	-0.124
-652.843	-153.546	0.266	-0.019
-651.828	-200.000	0.001	0.102
-650.814	-71.644	-0.355	0.134
-649.799	-182.592	-0.302	-0.006
-648.784	-200.000	0.013	-0.263
-647.770	-148.561	0.202	-0.017
-646.755	-200.000	0.085	-0.388
-645.741	-22.426	0.023	0.014
-644.726	-133.701	-0.325	-0.041
-643.711	-91.513	0.571	0.164
-642.697	-84.015	-0.099	-0.032
-641.682	-130.598	0.391	0.053
-640.668	40.267	0.085	-0.077
-639.653	-129.624	-0.369	-0.051
-638.638	264.813	0.039	-0.069
-637.624	800.000	-0.119	0.453
-636.609	-120.340	-0.036	-0.006
-635.595	87.253	0.015	0.017
-634.580	-87.833	0.131	-0.040
-633.565	-9.561	-0.108	-0.072
-632.551	-78.875	-0.127	-0.044
-631.536	-95.677	0.099	0.027
-630.522	26.503	-0.151	0.128
-629.507	800.000	0.056	0.194
-628.492	179.649	0.285	0.422
-627.478	-138.089	-0.139	0.016
-626.463	-73.592	0.311	-0.114
-625.449	-138.088	-0.461	0.052
-624.434	480.527	-0.039	0.089
-623.419	86.350	0.087	-0.097
-622.405	-49.436	-0.385	-0.185
-621.390	-130.501	0.304	-0.041
-620.376	-42.417	0.209	-0.108
-619.361	255.549	-0.083	-0.144
-618.346	-200.000	0.011	0.112
-617.332	187.875	-0.073	-0.111
-616.317	-103.456	-0.210	0.050
-615.303	179.622	-0.114	-0.168
-614.288	68.405	0.086	-0.089
-613.273	-59.771	-0.072	0.031
-612.259	-200.000	-0.024	-0.243
-611.244	669.172	0.019	-0.049
-610.230	-15.258	0.186	-0.120
-609.215	-200.000	-0.003	-0.209
-608.201	-130.485	-0.243	-0.033
-607.186	93.536	0.036	-0.042
-606.171	-200.000	-0.063	0.000
-605.157	3.396	0.094	-0.069
-604.142	800.000	0.085	-0.317
-603.128	-145.768	0.133	0.012
-602.113	496.478	0.157	0.364
-601.098	-54.216	-0.363	-0.166
-600.084	-200.000	-0.028	-0.204
-599.069	261.677	0.084	-0.147
-598.055	-84.228	0.201	-0.064
-597.040	-200.000	0.007	-0.400
-596.025	800.000	-0.067	0.245
-595.011	730.311	-0.036	0.096
-593.996	504.981	0.047	0.109
-592.982	-200.000	0.037	-0.231
-591.967	18.407	0.085	-0.068
-590.952	79.089	0.103	-0.111
-589.938	26.776	0.049	-0.041
-588.923	183.393	0.081	0.120
-587.909	-51.723	0.173	-0.081
-586.894	-200.000	0.007	-0.149
-585.879	-200.000	-0.059	-0.305
-584.865	304.188	-0.148	-0.276
-583.850	33.868	0.302	-0.265
-582.836	-200.000	0.004	0.038
-581.821	491.691	0.153	0.352
-580.806	-111.860	-0.126	-0.026
-579.792	-200.000	-0.005	-0.076
-578.777	-138.643	-0.081	0.009
-577.763	234.124	0.097	-0.161
-576.748	131.161	-0.177	-0.229
-575.733	102.924	0.040	-0.047
-574.719	800.000	0.040	0.128
-573.704	-40.564	0.284	0.148
-572.690	529.071	-0.130	-0.309
-571.675	-102.316	-0.228	0.055
-570.661	-200.000	-0.086	-0.447
-569.646	-174.206	0.361	-0.011
-568.631	-9.715	-0.213	0.143
-567.617	288.366	0.097	-0.177
-566.602	59.779	-0.188	-0.186
-565.588	350.983	0.060	-0.119
-564.573	-114.376	0.210	-0.041
-563.558	54.711	0.210	-0.203
-562.544	-200.000	0.022	0.192
-561.529	158.226	-0.100	0.139
-560.515	-43.165	0.327	-0.167
-559.500	84.217	0.210	-0.231
-558.485	-200.000	-0.010	-0.152
-557.471	161.664	0.047	-0.066
-556.456	-37.867	0.088	-0.047
-555.442	-140.279	-0.162	-0.017
-554.427	5.541	0.341	-0.254
-553.412	663.669	0.086	-0.223
-552.398	-200.000	-0.054	-0.261
-551.383	800.000	-0.023	-0.078
-550.369	-14.364	-0.137	0.089
-549.354	329.554	0.103	-0.199
-548.339	616.539	0.118	-0.298
-547.325	-161.184	0.129	0.007
-546.310	-200.000	0.041	0.304
-545.296	-97.173	0.226	0.059
-544.281	-200.000	0.059	-0.325
-543.266	-153.117	0.114	-0.008
-542.252	420.785	-0.172	-0.370
-541.237	443.141	-0.058	0.128
-540.223	11.629	-0.099	-0.077
-539.208	-200.000	0.047	0.340
-538.193	441.694	-0.071	0.155
-537.179	502.965	0.064	0.150
-536.164	-61.191	-0.182	-0.077
-535.150	-77.651	-0.243	-0.085
-534.135	-200.000	0.015	0.147
-533.121	-44.799	-0.029	-0.015
-532.106	-200.000	0.010	-0.301
-531.091	800.000	-0.004	-0.013
-530.077	397.541	-0.140	-0.294
-529.062	98.615	0.166	0.192
-528.048	115.558	0.069	0.085
-527.033	-132.492	-0.074	-0.010
-526.018	-111.678	0.175	-0.036
-525.004	800.000	0.097	0.315
-523.989	800.000	-0.057	0.230
-522.975	114.898	-0.053	-0.065
-521.960	-22.152	-0.329	0.200
-520.945	113.228	0.123	0.150
-519.931	40.286	-0.130	0.118
-518.916	-14.624	0.214	-0.138
-517.902	25.509	-0.193	0.161
-516.887	-116.377	0.114	-0.021
-515.872	800.000	0.018	0.075
-514.858	-26.997	0.050	-0.030
-513.843	468.482	0.102	0.230
-512.829	800.000	-0.081	-0.316
-511.814	14.454	-0.378	-0.296
-510.799	-166.293	-0.454	0.019
-509.785	64.450	-0.145	-0.147
-508.770	800.000	-0.032	0.109
-507.756	-200.000	0.021	-0.343
-506.741	-128.912	-0.311	-0.044
-505.726	79.111	-0.052	0.056
-504.712	-200.000	0.060	0.339
-503.697	-143.283	0.059	0.006
-502.683	-23.631	-0.248	0.149
-501.668	-200.000	-0.004	0.401
-500.653	-76.521	0.258	0.091
-499.639	800.000	0.117	-0.419
-498.624	7.362	0.156	-0.117
-497.610	-54.191	-0.192	-0.088
-496.595	800.000	-0.077	0.247
-495.581	-148.405	-0.338	-0.028
-494.566	-107.107	-0.202	-0.045
-493.551	-200.000	0.018	0.206
-492.537	129.663	-0.085	-0.109
-491.522	-72.944	-0.055	-0.020
-490.508	-33.940	-0.203	0.112
-489.493	-145.150	-0.333	-0.030
-488.478	-78.880	-0.186	-0.064
-487.464	52.650	-0.266	-0.255
-486.449	800.000	-0.054	-0.221
-485.435	265.176	-0.039	-0.068
-484.420	426.289	0.110	-0.238
-483.405	123.260	0.088	0.111
-482.391	-57.853	-0.391	0.171
-481.376	197.203	0.171	-0.262
-480.362	511.836	-0.121	0.284
-479.347	74.426	0.216	-0.228
-478.332	800.000	0.049	-0.152
-477.318	-112.487	0.278	-0.056
-476.303	-200.000	0.020	0.106
-475.289	-125.806	0.181	-0.027
-474.274	-98.427	0.283	0.073
-473.259	-136.852	-0.298	0.034
-472.245	800.000	-0.126	-0.494
-471.230	-21.589	0.179	0.109
-470.216	-200.000	-0.019	0.148
-469.201	-66.675	-0.085	0.034
-468.186	-104.582	0.274	-0.063
-467.172	-18.508	-0.051	-0.032
-466.157	800.000	-0.130	-0.471
-465.143	142.696	0.303	0.403
-464.128	-200.000	0.002	0.111
-463.113	-151.633	0.129	0.010
-462.099	-68.882	0.520	0.201
-461.084	173.917	0.203	0.294
-460.070	84.734	-0.108	-0.119
-459.055	-108.139	0.564	0.123
-458.040	-96.918	-0.257	0.068
-457.026	-150.154	-0.260	0.020
-456.011	-69.989	0.122	0.047
-454.997	-36.120	0.106	0.058
-453.982	-165.083	0.274	-0.012
-452.968	800.000	0.101	0.297
-451.953	-58.658	0.355	0.154
-450.938	-47.640	-0.331	-0.161
-449.924	232.027	0.080	0.132
-448.909	28.434	-0.147	0.124
-447.895	180.394	-0.150	0.220
-446.880	14.698	0.009	0.007
-445.865	-200.000	0.047	0.260
-444.851	-139.035	-0.170	-0.018
-443.836	-193.106	0.137	-0.001
-442.822	-151.503	-0.442	-0.033
-441.807	-200.000	-0.065	-0.457
-440.792	-107.227	0.170	0.037
-439.778	33.593	-0.137	0.120
-438.763	-200.000	0.014	0.178
-437.749	150.807	-0.107	0.146
-436.734	59.296	0.269	-0.265
-435.719	-65.029	0.072	-0.029
-434.705	9.932	0.154	-0.117
-433.690	132.051	0.042	0.054
-432.676	-8.136	0.109	-0.073
-431.661	-78.266	-0.266	0.092
-430.646	-30.845	-0.062	-0.035
-429.632	-178.437	0.104	-0.002
-428.617	-123.635	0.231	0.037
-427.603	82.473	-0.190	0.206
-426.588	-49.550	-0.076	-0.036
-425.573	-107.647	-0.241	-0.053
-424.559	156.904	-0.141	0.195
-423.544	-16.258	-0.069	0.044
-422.530	291.520	0.043	0.079
-421.515	-200.000	-0.004	-0.207
-420.500	126.605	0.148	-0.188
-419.486	800.000	-0.082	-0.281
-418.471	0.649	0.260	0.186
-417.457	-84.814	0.204	0.064
-416.442	600.138	-0.069	-0.171
-415.428	27.242	-0.095	-0.080
-414.413	134.453	-0.158	0.205
-413.398	800.000	-0.012	0.054
-412.384	130.938	0.176	0.226
-411.369	-140.067	-0.298	0.031
-410.355	-65.526	-0.209	0.084
-409.340	133.926	0.240	0.310
-408.325	133.091	-0.126	-0.162
-407.311	66.648	0.329	-0.335
-406.296	307.427	0.161	0.299
-405.282	-149.032	-0.208	0.017
-404.267	-47.114	0.506	-0.247
-403.252	-51.586	-0.261	-0.122
-402.238	-45.945	-0.186	-0.092
-401.223	800.000	-0.066	-0.242
-400.209	-200.000	-0.016	0.152
-399.194	43.094	-0.237	-0.217
-398.179	800.000	0.047	-0.140
-397.165	165.493	-0.206	-0.291
-396.150	800.000	-0.074	0.254
-395.136	-161.425	-0.374	-0.019
-394.121	-19.847	-0.255	0.158
-393.106	162.029	0.128	0.179
-392.092	-39.571	-0.292	0.153
-391.077	-130.836	0.120	-0.016
-390.063	35.583	0.205	0.180
-389.048	-200.000	-0.007	-0.046
-388.033	-101.797	0.071	-0.017
-387.019	67.388	-0.367	0.374
-386.004	-200.000	0.041	0.437
-384.990	39.390	-0.205	-0.184
-383.975	-105.963	0.171	0.038
-382.960	568.285	-0.135	0.328
-381.946	800.000	-0.026	-0.074
-380.931	53.680	-0.191	-0.183
-379.917	160.610	0.141	-0.197
-378.902	151.533	0.050	0.068
-377.888	193.836	0.171	-0.258
-376.873	106.493	0.071	-0.084
-375.858	508.684	-0.183	0.424
-374.844	-134.028	-0.093	-0.011
-373.829	-68.927	-0.063	0.024
-372.815	-141.442	-0.137	0.014
-371.800	-200.000	-0.018	-0.233
-370.785	306.204	0.135	0.251
-369.771	395.964	-0.176	0.368
-368.756	-200.000	-0.014	0.244
-367.742	59.054	0.028	-0.027
-366.727	800.000	-0.039	-0.132
-365.712	800.000	-0.089	-0.303
-364.698	41.956	0.286	-0.259
-363.683	127.773	-0.080	-0.102
-362.669	-188.688	-0.335	0.004
-361.654	549.057	0.046	0.109
-360.639	-200.000	0.028	0.525
-359.625	110.935	0.112	0.135
-358.610	-75.586	0.147	-0.052
-357.596	800.000	0.036	-0.132
-356.581	-79.814	0.302	0.101
-355.566	183.552	-0.151	-0.223
-354.552	-200.000	0.025	0.152
-353.537	-200.000	0.026	-0.137
-352.523	-94.669	0.208	0.056
-351.508	95.078	-0.140	0.159
-350.493	674.232	-0.065	-0.168
-349.479	-19.870	-0.175	-0.108
-348.464	-200.000	-0.035	0.512
-347.450	-22.753	0.312	0.188
-346.435	-200.000	-0.002	0.219
-345.420	3.361	-0.039	0.028
-344.406	-90.365	-0.324	0.094
-343.391	-105.788	-0.334	-0.075
-342.377	-200.000	0.041	0.271
-341.362	172.596	0.126	-0.181
-340.348	36.811	0.032	0.028
-339.333	800.000	-0.060	0.256
-338.318	41.698	0.203	-0.183
-337.304	131.631	0.104	0.134
-336.289	-134.670	0.277	-0.034
-335.275	-67.205	-0.264	-0.104
-334.260	3.133	-0.237	-0.172
-333.245	-70.686	0.097	0.037
-332.231	70.117	-0.092	-0.095
-331.216	394.966	0.088	-0.183
-330.202	47.410	0.185	-0.172
-329.187	-137.371	0.182	0.021
-328.172	-80.317	-0.108	-0.036
-327.158	-22.340	-0.242	0.146
-326.143	253.495	-0.036	0.061
-325.129	725.407	0.117	-0.310
-324.114	-200.000	0.057	-0.279
-323.099	800.000	0.079	0.333
-322.085	800.000	0.069	-0.198
-321.070	87.087	-0.114	0.126
-320.056	-157.163	-0.390	-0.024
-319.041	800.000	-0.074	0.313
-318.026	-37.685	-0.093	0.049
-317.012	-74.728	-0.399	0.143
-315.997	34.039	-0.102	-0.089
-314.983	800.000	0.033	-0.128
-313.968	201.333	0.166	0.255
-312.953	-40.566	0.109	0.056
-311.939	-200.000	-0.008	0.261
-310.924	-78.536	-0.219	-0.074
-309.910	-16.148	-0.112	-0.071
-308.895	-47.256	-0.192	0.093
-307.880	63.865	0.165	-0.165
-306.866	93.874	0.056	0.063
-305.851	-86.168	-0.315	0.097
-304.837	-36.538	0.173	0.093
-303.822	800.000	-0.063	0.258
-302.807	-200.000	-0.008	0.277
-301.793	-200.000	0.014	0.178
-300.778	19.469	-0.194	-0.156
-299.764	-200.000	-0.020	-0.156
-298.749	367.555	-0.095	0.192
-297.735	435.212	0.104	-0.226
-296.720	-93.957	0.302	-0.083
-295.705	-41.158	-0.533	0.274
-294.691	-39.341	-0.336	0.176
-293.676	-87.307	-0.102	0.031
-292.662	-104.653	0.185	-0.042
-291.647	-200.000	0.029	-0.136
-290.632	18.875	-0.062	0.049
-289.618	92.171	0.192	0.215
-288.603	800.000	0.078	-0.215
-287.589	113.233	-0.148	-0.179
-286.574	-105.681	-0.287	0.065
-285.559	-163.696	-0.059	0.003
-284.545	-57.920	0.270	-0.117
-283.530	-41.586	-0.317	0.162
-282.516	-145.636	0.211	-0.019
-281.501	-170.110	-0.179	0.006
-280.486	295.727	0.053	-0.096
-279.472	-97.753	0.207	0.053
-278.457	800.000	-0.061	-0.212
-277.443	-136.815	0.329	-0.038
-276.428	-200.000	0.000	0.042
-275.413	-7.210	0.186	-0.125
-274.399	-9.217	0.232	0.154
-273.384	-96.640	-0.263	0.069
-272.370	652.033	0.084	-0.214
-271.355	320.050	0.141	-0.267
-270.340	-98.553	0.202	-0.051
-269.326	-84.171	0.252	-0.079
-268.311	102.291	-0.184	0.214
-267.297	-12.781	-0.149	-0.097
-266.282	-21.190	0.207	-0.126
-265.267	-200.000	-0.004	0.102
-264.253	800.000	-0.018	0.056
-263.238	21.054	-0.047	0.038
-262.224	800.000	-0.080	0.312
-261.209	-200.000	-0.012	0.113
-260.195	-37.628	0.306	0.162
-259.180	-116.688	-0.118	-0.022
-258.165	40.196	-0.268	0.240
-257.151	583.334	-0.018	-0.045
-256.136	-145.028	-0.472	0.043
-255.122	-130.166	0.324	0.044
-254.107	5.693	-0.027	-0.020
-253.092	-114.358	-0.169	0.032
-252.078	73.217	-0.223	-0.232
-251.063	-198.705	-0.247	-0.001
-250.049	-28.374	0.146	-0.084
-249.034	-163.683	0.169	-0.008
-248.019	-200.000	-0.027	0.197
-247.005	676.065	-0.022	0.057
-245.990	1.219	-0.050	0.035
-244.976	-35.553	0.114	0.061
-243.961	-114.267	0.287	-0.055
-242.946	-82.856	-0.265	0.085
-241.932	-50.681	0.353	0.165
-240.917	800.000	0.067	0.185
-239.903	293.640	-0.120	-0.218
-238.888	-95.196	0.405	0.108
-237.873	415.179	0.270	0.571
-236.859	-134.063	-0.059	-0.007
-235.844	5.806	0.190	0.140
-234.830	73.055	0.244	0.254
-233.815	102.570	0.114	-0.133
-232.800	-27.033	-0.247	0.143
-231.786	-110.221	-0.085	0.018
-230.771	-67.958	0.052	-0.020
-229.757	-13.701	-0.205	-0.132
-228.742	-113.725	-0.174	-0.034
-227.727	447.863	-0.085	-0.187
-226.713	-81.470	-0.256	0.084
-225.698	-125.365	0.409	0.062
-224.684	342.496	0.126	0.244
-223.669	-104.620	0.281	-0.064
-222.655	713.957	0.153	-0.402
-221.640	142.212	0.212	0.279
-220.625	208.911	-0.157	0.244
-219.611	7.263	0.220	-0.163
-218.596	-200.000	-0.040	-0.237
-217.582	157.462	-0.066	-0.091
-216.567	263.803	0.205	-0.355
-215.552	-61.106	0.150	-0.063
-214.538	89.225	-0.065	-0.072
-213.523	291.285	-0.105	-0.189
-212.509	-140.250	0.099	0.010
-211.494	25.261	-0.128	-0.105
-210.479	-200.000	-0.015	0.134
-209.465	4.348	-0.391	-0.284
-208.450	-200.000	0.081	-0.412
-207.436	800.000	-0.031	0.115
-206.421	5.374	0.135	-0.099
-205.406	204.086	-0.118	-0.181
-204.392	146.895	-0.163	0.218
-203.377	800.000	0.104	0.326
-202.363	58.488	0.242	0.236
-201.348	408.909	0.080	0.167
-200.333	275.765	0.104	0.183
-199.319	428.334	0.136	0.291
-198.304	736.034	0.077	0.204
-197.290	682.718	-0.107	-0.278
-196.275	369.757	0.129	-0.259
-195.260	-144.997	0.240	0.022
-194.246	800.000	-0.066	0.249
-193.231	331.753	0.132	0.252
-192.217	800.000	0.073	0.206
-191.202	-129.926	0.201	0.027
-190.187	84.023	-0.067	-0.072
-189.173	683.469	-0.073	-0.188
-188.158	257.095	-0.159	-0.271
-187.144	12.948	0.143	-0.110
-186.129	118.574	-0.277	-0.339
-185.114	-149.226	-0.229	-0.018
-184.100	-182.442	-0.071	0.001
-183.085	119.927	-0.052	-0.064
-182.071	-38.988	-0.216	-0.113
-181.056	-200.000	0.030	-0.157
-180.042	-9.821	-0.106	0.070
-179.027	-159.192	0.376	-0.021
-178.012	-200.000	-0.030	-0.341
-176.998	-200.000	0.020	-0.135
-175.983	58.771	-0.115	0.112
-174.969	-34.924	-0.045	-0.025
-173.954	-72.400	0.306	-0.112
-172.939	-200.000	0.005	0.114
-171.925	-114.770	0.271	-0.051
-170.910	-200.000	-0.107	0.541
-169.896	-192.437	0.315	0.003
-168.881	-200.000	0.001	0.253
-167.866	304.824	0.067	0.123
-166.852	99.353	-0.140	0.160
-165.837	2.483	0.191	-0.137
-164.823	-20.485	-0.214	0.130
-163.808	-72.846	0.101	-0.037
-162.793	101.300	0.198	0.228
-161.779	800.000	0.092	0.381
-160.764	-200.000	-0.021	0.171
-159.750	-75.228	-0.124	0.044
-158.735	-95.033	0.157	-0.042
-157.720	-200.000	0.074	0.327
-156.706	83.322	0.194	0.209
-155.691	61.924	-0.210	-0.207
-154.677	302.471	-0.233	-0.427
-153.662	-200.000	-0.033	-0.194
-152.647	8.986	-0.124	-0.093
-151.633	800.000	0.092	0.369
-150.618	-200.000	-0.011	0.321
-149.604	8.306	0.359	0.267
-148.589	-34.404	0.236	0.128
-147.574	-200.000	0.033	-0.413
-146.560	800.000	0.107	-0.311
-145.545	173.848	-0.031	0.044
-144.531	800.000	-0.041	0.172
-143.516	800.000	-0.015	0.051
-142.502	800.000	0.138	-0.417
-141.487	-95.340	0.402	-0.107
-140.472	55.562	-0.308	-0.295
-139.458	250.090	-0.090	-0.151
-138.443	296.486	-0.085	-0.155
-137.429	-32.522	0.216	-0.119
-136.414	-200.000	-0.037	-0.204
-135.399	-200.000	0.029	-0.384
-134.385	800.000	0.046	-0.133
-133.370	319.300	0.010	-0.019
-132.356	58.001	-0.102	-0.099
-131.341	-8.367	-0.070	0.047
-130.326	-88.597	0.334	-0.099
-129.312	-200.000	0.023	-0.199
-128.297	-200.000	0.002	-0.152
-127.283	-90.898	0.303	-0.086
-126.268	-120.867	-0.249	0.041
-125.253	-68.615	0.232	-0.089
-124.239	-2.794	0.104	-0.072
-123.224	170.037	0.055	-0.078
-122.210	-21.503	0.420	0.254
