DTS Sentinel unit serial number:	SN413079Multiplexer serial number:	ORYXHardware model number:	OX4-SRSoftware version number:	ORYX F/W v4.00 Oryx Data Collector v3.7.2.0data status	okinstallation	princeton_trtdifferential loss correction	single-endedforward channel	channel 4reverse channel	N/Adate	2019/09/12time	14:43:10forward acquisition time	60.00reverse acquisition time	0.00gamma	496.2192k internal	0.2291k external	0.2291temperature offset calibration	1.0082default loss term (dB/km)	0.3790temperature slope calibration	1.0000multiplexer offset coefficient	1.0000multiplexer slope coefficient	1.0000fibre end	0.00T internal ref (°C)	40.17T ext. ref 1 (°C)	2.28T ext. ref 2 (°C)	37.01length (m)	temperature (°C)	Stokes	anti-Stokes-747.200	-141.867	-0.088	-0.009
-746.185	-119.776	0.109	-0.019
-745.171	-118.688	0.381	-0.069
-744.156	76.572	-0.190	0.206
-743.142	723.594	-0.073	-0.200
-742.127	345.460	0.166	0.335
-741.112	-12.740	-0.052	-0.034
-740.098	85.691	-0.062	0.069
-739.083	800.000	-0.027	0.090
-738.069	191.241	-0.249	0.383
-737.054	-15.038	-0.104	0.068
-736.039	-30.365	-0.427	-0.248
-735.025	121.370	0.151	-0.193
-734.010	-69.582	0.141	-0.055
-732.996	-79.402	0.202	-0.070
-731.981	-200.000	0.022	-0.223
-730.966	4.041	0.143	0.107
-729.952	-30.345	0.263	-0.153
-728.937	-200.000	-0.000	0.101
-727.923	64.287	-0.071	-0.073
-726.908	-125.206	-0.368	0.058
-725.894	157.396	-0.293	0.415
-724.879	-28.245	-0.075	-0.045
-723.864	17.942	-0.158	-0.129
-722.850	-84.655	0.062	0.020
-721.835	800.000	0.035	-0.102
-720.821	-200.000	-0.015	-0.292
-719.806	-200.000	0.012	-0.401
-718.791	-106.672	0.087	0.020
-717.777	-76.382	-0.295	-0.106
-716.762	-109.613	0.225	-0.049
-715.748	676.980	-0.042	0.112
-714.733	-73.711	-0.199	0.074
-713.718	800.000	-0.052	0.227
-712.704	-101.209	-0.262	0.065
-711.689	140.025	0.149	0.201
-710.675	-41.815	0.153	0.081
-709.660	800.000	-0.068	-0.193
-708.645	380.415	-0.113	-0.236
-707.631	-200.000	0.054	-0.310
-706.616	-200.000	-0.007	-0.188
-705.602	800.000	-0.047	-0.194
-704.587	-200.000	0.020	-0.127
-703.572	36.589	-0.124	-0.112
-702.558	-69.243	-0.266	-0.104
-701.543	-200.000	-0.027	0.130
-700.529	27.157	-0.138	0.118
-699.514	-200.000	0.019	-0.096
-698.499	-200.000	-0.043	-0.215
-697.485	219.728	-0.111	0.182
-696.470	-91.394	0.195	0.057
-695.456	38.572	-0.052	0.047
-694.441	83.884	-0.042	-0.047
-693.426	-3.586	-0.249	0.177
-692.412	800.000	-0.034	-0.147
-691.397	215.872	0.191	-0.311
-690.383	307.827	-0.150	-0.285
-689.368	68.559	0.018	-0.018
-688.354	-200.000	0.038	0.312
-687.339	-66.146	-0.270	-0.110
-686.324	-165.011	-0.163	0.007
-685.310	-126.271	-0.259	-0.040
-684.295	800.000	-0.068	-0.215
-683.281	-200.000	0.008	-0.223
-682.266	-76.220	0.116	0.042
-681.251	-106.001	-0.195	0.045
-680.237	66.892	0.293	0.305
-679.222	-200.000	0.002	0.022
-678.208	-129.772	-0.257	-0.036
-677.193	15.913	0.223	-0.179
-676.178	-33.060	-0.212	-0.120
-675.164	-93.086	-0.334	0.095
-674.149	-62.405	0.014	-0.006
-673.135	-158.977	0.271	0.016
-672.120	800.000	0.066	0.251
-671.105	99.644	-0.189	0.224
-670.091	-108.284	0.182	0.040
-669.076	-126.730	0.090	0.014
-668.062	48.683	-0.170	-0.163
-667.047	800.000	-0.084	-0.344
-666.032	-30.121	0.149	-0.087
-665.018	800.000	0.052	0.162
-664.003	87.036	0.146	-0.165
-662.989	-154.500	0.177	-0.012
-661.974	-12.065	-0.020	-0.013
-660.959	277.601	-0.100	-0.181
-659.945	685.976	0.082	0.219
-658.930	533.987	-0.093	0.226
-657.916	-200.000	0.019	-0.330
-656.901	-10.434	0.333	0.225
-655.886	-83.193	-0.079	0.026
-654.872	-110.211	-0.318	-0.068
-653.857	-200.000	0.013	0.194
-652.843	-200.000	-0.032	-0.289
-651.828	209.411	0.093	-0.148
-650.814	-200.000	0.004	-0.074
-649.799	-92.224	0.082	-0.024
-648.784	-47.096	-0.115	0.057
-647.770	31.650	0.070	0.062
-646.755	-141.658	-0.170	-0.017
-645.741	-72.690	-0.289	-0.109
-644.726	182.819	-0.135	-0.203
-643.711	143.751	-0.113	0.153
-642.697	-21.940	-0.127	-0.079
-641.682	-93.018	-0.074	0.021
-640.668	8.228	-0.089	0.068
-639.653	-45.799	-0.273	0.138
-638.638	-169.998	0.161	-0.006
-637.624	-200.000	0.032	0.239
-636.609	405.352	-0.139	0.298
-635.595	-92.927	-0.014	0.004
-634.580	256.339	0.084	-0.147
-633.565	-85.753	0.216	-0.068
-632.551	169.167	-0.169	0.246
-631.536	65.326	-0.269	-0.277
-630.522	499.472	-0.217	0.509
-629.507	-200.000	0.044	0.203
-628.492	50.755	-0.067	0.065
-627.478	-115.504	-0.175	0.034
-626.463	-86.434	0.073	0.023
-625.449	800.000	0.044	0.189
-624.434	50.605	-0.145	0.140
-623.419	256.162	0.149	0.261
-622.405	-37.785	0.170	-0.092
-621.390	800.000	-0.024	-0.104
-620.376	-7.280	0.243	0.168
-619.361	-151.620	-0.234	-0.018
-618.346	53.948	0.178	0.175
-617.332	-98.080	0.076	0.020
-616.317	-89.487	-0.317	-0.095
-615.303	305.420	-0.140	0.266
-614.288	-200.000	-0.033	-0.172
-613.273	-145.811	-0.172	0.016
-612.259	-112.241	0.379	-0.077
-611.244	192.346	-0.200	-0.307
-610.230	115.384	0.066	0.082
-609.215	101.686	0.180	0.213
-608.201	800.000	0.074	-0.226
-607.186	67.534	0.139	-0.144
-606.171	-200.000	-0.049	-0.399
-605.157	202.092	-0.157	-0.247
-604.142	-37.081	-0.070	-0.038
-603.128	663.458	-0.095	-0.249
-602.113	-200.000	-0.034	0.265
-601.098	-30.968	0.094	-0.054
-600.084	-52.521	-0.059	0.028
-599.069	115.744	-0.221	0.275
-598.055	361.108	-0.066	0.135
-597.040	-200.000	-0.002	-0.056
-596.025	-101.179	0.187	0.047
-595.011	-124.550	-0.496	-0.078
-593.996	-21.196	-0.145	0.090
-592.982	-200.000	0.048	-0.214
-591.967	-200.000	-0.020	-0.166
-590.952	-200.000	0.091	0.441
-589.938	-200.000	-0.004	0.093
-588.923	-21.957	-0.336	0.208
-587.909	-200.000	0.020	-0.266
-586.894	800.000	0.112	-0.422
-585.879	294.054	-0.071	-0.132
-584.865	-175.149	0.284	0.008
-583.850	269.743	-0.073	0.131
-582.836	-128.698	0.148	-0.021
-581.821	21.106	0.259	0.214
-580.806	-200.000	0.010	-0.328
-579.792	704.652	-0.015	0.041
-578.777	357.470	-0.104	-0.212
-577.763	232.014	-0.133	-0.222
-576.748	-200.000	-0.026	0.255
-575.733	800.000	0.085	0.328
-574.719	-114.809	-0.473	-0.092
-573.704	-109.035	-0.202	0.044
-572.690	281.600	0.120	-0.219
-571.675	-200.000	-0.010	-0.050
-570.661	699.281	-0.100	0.267
-569.646	-16.990	-0.148	-0.095
-568.631	-110.390	0.244	0.052
-567.617	-200.000	-0.014	0.075
-566.602	-116.675	-0.260	-0.049
-565.588	-200.000	-0.001	-0.006
-564.573	-200.000	-0.037	0.189
-563.558	17.196	-0.075	-0.061
-562.544	797.459	0.102	0.285
-561.529	-200.000	-0.038	0.299
-560.515	-200.000	-0.042	-0.537
-559.500	437.521	0.008	0.017
-558.485	28.333	0.140	-0.120
-557.471	315.522	0.094	0.181
-556.456	-200.000	-0.098	0.556
-555.442	-54.769	-0.424	-0.195
-554.427	-111.279	-0.046	0.009
-553.412	288.716	-0.238	0.439
-552.398	800.000	-0.042	-0.142
-551.383	-200.000	-0.044	0.287
-550.369	-200.000	-0.010	0.170
-549.354	-12.142	0.070	-0.047
-548.339	114.884	-0.215	-0.267
-547.325	153.181	0.257	0.357
-546.310	101.532	0.057	0.067
-545.296	800.000	-0.068	-0.293
-544.281	-200.000	-0.030	0.185
-543.266	156.256	0.041	-0.058
-542.252	-1.619	0.112	-0.080
-541.237	-200.000	0.051	-0.329
-540.223	163.245	0.017	-0.025
-539.208	-77.876	0.202	0.071
-538.193	-200.000	-0.024	-0.221
-537.179	122.771	0.177	-0.225
-536.164	-119.041	0.176	0.031
-535.150	204.665	0.123	-0.193
-534.135	-200.000	-0.036	0.194
-533.121	-73.304	0.242	-0.090
-532.106	-200.000	-0.004	-0.305
-531.091	-54.066	-0.321	0.148
-530.077	-200.000	-0.008	0.047
-529.062	-117.996	0.072	-0.013
-528.048	5.382	-0.412	-0.309
-527.033	800.000	0.055	-0.221
-526.018	-200.000	0.086	0.498
-525.004	-57.909	-0.070	0.031
-523.989	-0.808	0.047	0.034
-522.975	-200.000	-0.012	0.261
-521.960	-139.676	-0.143	0.015
-520.945	-89.542	-0.114	0.034
-519.931	-107.741	0.037	-0.008
-518.916	-200.000	-0.017	-0.155
-517.902	800.000	-0.032	0.091
-516.887	-10.597	-0.157	-0.105
-515.872	591.581	-0.091	0.228
-514.858	-200.000	-0.067	-0.374
-513.843	-200.000	0.010	0.124
-512.829	800.000	0.083	-0.233
-511.814	65.649	0.180	0.185
-510.799	-200.000	0.049	0.512
-509.785	230.557	-0.006	-0.010
-508.770	1.161	-0.238	-0.173
-507.756	331.153	-0.050	-0.098
-506.741	-82.680	0.204	-0.067
-505.726	800.000	0.047	-0.148
-504.712	1.429	-0.222	-0.162
-503.697	-175.909	-0.198	0.005
-502.683	-200.000	-0.013	-0.230
-501.668	-200.000	-0.030	-0.141
-500.653	594.715	-0.071	-0.178
-499.639	74.715	0.151	-0.161
-498.624	-92.045	0.007	0.002
-497.610	-200.000	-0.032	-0.177
-496.595	313.056	0.135	0.258
-495.581	234.465	-0.102	-0.171
-494.566	-200.000	-0.026	-0.297
-493.551	86.850	0.089	0.100
-492.537	-101.155	0.175	0.044
-491.522	-200.000	0.009	0.050
-490.508	-73.046	-0.071	-0.026
-489.493	-130.361	0.370	0.051
-488.478	131.967	-0.129	0.168
-487.464	429.414	0.118	-0.259
-486.449	-200.000	-0.033	-0.351
-485.435	188.253	-0.105	-0.160
-484.420	-54.927	0.091	-0.042
-483.405	93.795	0.163	-0.187
-482.391	4.384	0.071	-0.053
-481.376	-200.000	-0.003	0.367
-480.362	2.341	-0.221	0.162
-479.347	196.102	0.131	-0.201
-478.332	-84.780	-0.227	-0.072
-477.318	-58.276	-0.152	-0.067
-476.303	-66.773	-0.069	0.028
-475.289	-31.174	-0.194	0.111
-474.274	341.051	-0.129	0.255
-473.259	-200.000	-0.021	-0.393
-472.245	543.295	-0.069	0.167
-471.230	-117.696	0.266	-0.049
-470.216	-200.000	-0.013	0.255
-469.201	288.438	-0.041	-0.075
-468.186	-20.303	-0.384	0.240
-467.172	419.184	0.081	0.176
-466.157	-137.015	-0.112	-0.013
-465.143	-64.986	0.368	0.151
-464.128	130.992	-0.175	-0.227
-463.113	800.000	-0.028	-0.092
-462.099	27.304	0.046	0.039
-461.084	-80.999	-0.222	-0.074
-460.070	523.969	0.071	0.169
-459.055	26.315	-0.153	-0.130
-458.040	-0.705	-0.045	0.032
-457.026	-200.000	-0.005	-0.033
-456.011	800.000	-0.111	0.343
-454.997	-84.965	0.404	0.128
-453.982	-163.245	-0.202	0.010
-452.968	-167.357	-0.130	-0.005
-451.953	-128.047	0.336	-0.049
-450.938	800.000	-0.071	0.257
-449.924	424.595	-0.061	0.132
-448.909	-158.836	-0.169	0.010
-447.895	-166.795	0.144	-0.006
-446.880	-32.127	0.210	0.119
-445.865	436.433	0.007	-0.016
-444.851	179.162	-0.250	-0.370
-443.836	-60.660	0.117	-0.050
-442.822	-200.000	0.057	-0.317
-441.807	368.296	-0.166	-0.339
-440.792	-200.000	-0.020	-0.096
-439.778	165.000	0.194	0.277
-438.763	-200.000	-0.059	0.303
-437.749	-200.000	-0.045	0.292
-436.734	-200.000	-0.094	-0.462
-435.719	676.749	-0.090	-0.237
-434.705	-182.223	0.046	-0.001
-433.690	59.053	-0.144	-0.143
-432.676	33.305	0.072	-0.063
-431.661	800.000	-0.063	-0.221
-430.646	-136.483	0.071	0.008
-429.632	-58.938	0.216	-0.095
-428.617	343.725	0.053	0.105
-427.603	60.069	0.189	-0.189
-426.588	120.596	0.107	0.134
-425.573	72.938	0.315	-0.333
-424.559	800.000	-0.032	0.117
-423.544	169.143	0.123	-0.178
-422.530	-200.000	0.010	-0.345
-421.515	93.067	0.076	0.087
-420.500	-200.000	0.017	0.321
-419.486	-35.690	0.170	0.093
-418.471	-68.257	0.154	-0.061
-417.457	-76.372	-0.122	0.044
-416.442	-57.387	-0.275	-0.122
-415.428	-64.683	0.274	0.113
-414.413	208.011	0.037	-0.059
-413.398	-77.219	-0.339	-0.119
-412.384	-99.857	-0.181	0.046
-411.369	-150.520	0.211	-0.016
-410.355	-134.029	-0.062	0.008
-409.340	-8.644	0.088	-0.059
-408.325	-104.807	-0.361	0.084
-407.311	-91.593	-0.059	0.017
-406.296	92.961	-0.324	0.371
-405.282	800.000	0.067	0.194
-404.267	-120.261	0.506	-0.087
-403.252	-2.180	-0.077	-0.055
-402.238	40.536	-0.061	-0.056
-401.223	322.173	-0.040	-0.077
-400.209	128.830	0.130	0.167
-399.194	-38.258	0.494	-0.264
-398.179	-200.000	0.012	-0.161
-397.165	29.182	0.123	-0.105
-396.150	117.044	0.304	0.377
-395.136	-115.435	0.263	0.050
-394.121	-3.182	0.200	-0.141
-393.106	14.782	-0.176	-0.139
-392.092	593.230	-0.141	0.351
-391.077	273.947	0.066	-0.118
-390.063	-116.687	0.222	-0.041
-389.048	14.573	-0.203	0.160
-388.033	-200.000	0.011	-0.103
-387.019	746.366	0.072	0.195
-386.004	-131.159	0.288	-0.039
-384.990	25.566	0.144	0.121
-383.975	202.483	-0.171	-0.267
-382.960	-88.637	-0.093	-0.028
-381.946	-6.722	-0.106	-0.073
-380.931	-200.000	-0.031	-0.184
-379.917	504.531	0.178	0.417
-378.902	23.624	-0.070	0.058
-377.888	199.827	0.252	-0.390
-376.873	164.091	0.018	-0.026
-375.858	-28.504	-0.196	0.114
-374.844	-83.134	0.242	-0.079
-373.829	318.063	-0.088	-0.168
-372.815	312.861	-0.062	-0.118
-371.800	-200.000	0.036	0.260
-370.785	617.728	-0.173	-0.438
-369.771	59.855	-0.117	0.116
-368.756	-1.596	-0.152	-0.108
-367.742	-200.000	0.001	-0.014
-366.727	207.268	0.135	0.212
-365.712	142.657	0.196	-0.262
-364.698	-73.046	-0.413	-0.153
-363.683	-200.000	-0.005	0.222
-362.669	-79.773	0.109	-0.037
-361.654	-42.773	-0.050	-0.026
-360.639	-200.000	0.032	-0.161
-359.625	-3.151	-0.167	-0.117
-358.610	-53.858	0.351	-0.161
-357.596	-200.000	-0.051	-0.270
-356.581	800.000	0.066	0.262
-355.566	84.407	-0.214	0.236
-354.552	91.678	0.067	0.076
-353.537	-7.977	0.327	0.222
-352.523	415.128	0.200	0.430
-351.508	93.497	-0.077	-0.088
-350.493	-149.288	-0.030	0.002
-349.479	193.315	-0.047	-0.072
-348.464	-200.000	-0.004	-0.145
-347.450	383.247	-0.117	-0.243
-346.435	800.000	0.062	-0.246
-345.420	-27.018	0.197	-0.116
-344.406	-95.526	-0.079	-0.021
-343.391	-144.993	-0.209	-0.019
-342.377	146.979	-0.141	-0.191
-341.362	-55.853	0.393	-0.177
-340.348	10.858	0.322	-0.247
-339.333	18.363	0.219	0.177
-338.318	234.065	0.126	0.210
-337.304	-104.440	0.213	-0.050
-336.289	-200.000	0.009	0.070
-335.275	207.442	-0.058	0.091
-334.260	-200.000	0.046	-0.312
-333.245	223.571	0.044	-0.072
-332.231	-200.000	-0.005	0.044
-331.216	-72.764	0.160	0.059
-330.202	81.063	-0.112	0.121
-329.187	-57.251	-0.266	-0.118
-328.172	76.095	-0.119	0.127
-327.158	-81.174	0.460	-0.153
-326.143	-200.000	0.000	-0.172
-325.129	-82.072	0.308	0.101
-324.114	-87.198	-0.198	-0.061
-323.099	-200.000	-0.027	0.132
-322.085	-200.000	0.055	-0.344
-321.070	-155.446	0.162	0.011
-320.056	16.923	0.121	0.097
-319.041	99.154	0.055	-0.064
-318.026	-56.243	-0.316	0.142
-317.012	800.000	-0.065	-0.184
-315.997	59.574	0.071	-0.071
-314.983	117.945	0.101	0.125
-313.968	-7.225	0.077	-0.052
-312.953	-200.000	-0.030	0.416
-311.939	-200.000	0.052	0.524
-310.924	800.000	0.041	-0.172
-309.910	-194.668	-0.218	-0.002
-308.895	-200.000	0.075	-0.338
-307.880	-52.549	-0.378	0.176
-306.866	-16.006	0.243	0.156
-305.851	-24.318	0.390	-0.234
-304.837	-30.641	0.223	-0.127
-303.822	-135.194	0.546	0.066
-302.807	800.000	0.017	-0.062
-301.793	-91.207	-0.370	-0.107
-300.778	800.000	-0.010	-0.042
-299.764	-28.868	-0.133	0.077
-298.749	-200.000	-0.013	0.194
-297.735	181.252	0.150	0.222
-296.720	491.916	-0.126	-0.291
-295.705	-200.000	-0.005	-0.155
-294.691	178.396	0.259	0.380
-293.676	-9.329	-0.390	0.262
-292.662	-200.000	-0.026	-0.438
-291.647	-181.639	-0.339	-0.007
-290.632	-17.646	-0.105	0.066
-289.618	211.261	-0.158	0.250
-288.603	786.689	-0.018	-0.049
-287.589	-134.737	-0.268	-0.033
-286.574	113.146	-0.067	-0.081
-285.559	-131.624	-0.217	0.029
-284.545	-114.441	-0.107	0.021
-283.530	-76.665	0.033	0.012
-282.516	435.594	-0.049	-0.107
-281.501	405.297	0.091	0.193
-280.486	328.264	-0.111	0.214
-279.472	-132.539	-0.102	0.013
-278.457	800.000	-0.034	-0.118
-277.443	-112.724	0.065	0.013
-276.428	-30.505	-0.238	0.136
-275.413	22.308	0.111	0.091
-274.399	-76.814	-0.153	0.054
-273.384	-81.755	0.454	0.150
-272.370	-67.371	0.189	-0.075
-271.355	56.559	0.146	0.143
-270.340	-14.231	-0.168	0.109
-269.326	-73.680	-0.212	0.078
-268.311	800.000	0.012	0.042
-267.297	-89.761	0.186	0.055
-266.282	-200.000	0.016	-0.088
-265.267	316.537	-0.151	-0.287
-264.253	-112.947	-0.345	-0.069
-263.238	-86.465	0.094	-0.029
-262.224	-1.256	0.145	-0.103
-261.209	-134.901	0.069	-0.008
-260.195	341.458	0.087	0.171
-259.180	336.995	0.057	-0.111
-258.165	-43.322	-0.112	0.057
-257.151	-143.696	-0.133	-0.013
-256.136	-110.898	-0.349	0.072
-255.122	800.000	0.023	0.091
-254.107	-81.258	0.163	0.054
-253.092	-23.985	-0.260	0.156
-252.078	-97.826	0.299	0.078
-251.063	-129.535	0.139	-0.019
-250.049	-200.000	-0.022	0.356
-249.034	-200.000	0.004	-0.083
-248.019	28.278	-0.144	0.122
-247.005	4.650	-0.318	-0.234
-245.990	358.649	0.192	-0.386
-244.976	-43.388	0.238	0.121
-243.961	-117.666	0.135	-0.024
-242.946	800.000	-0.122	0.351
-241.932	154.614	0.099	0.137
-240.917	174.925	0.050	-0.073
-239.903	0.664	0.133	0.096
-238.888	270.780	-0.070	-0.124
-237.873	-136.435	0.247	0.029
-236.859	-62.564	0.169	-0.070
-235.844	21.636	-0.069	0.057
-234.830	-76.713	-0.061	-0.022
-233.815	-48.575	-0.306	-0.147
-232.800	-16.097	0.125	0.080
-231.786	-200.000	0.047	0.314
-230.771	800.000	-0.100	-0.405
-229.757	-97.133	0.088	0.023
-228.742	-89.701	0.333	0.098
-227.727	119.966	0.111	0.139
-226.713	261.515	-0.103	0.179
-225.698	169.402	-0.058	-0.084
-224.684	476.997	-0.057	-0.130
-223.669	-200.000	-0.018	-0.366
-222.655	-76.859	0.333	-0.117
-221.640	602.287	0.098	0.245
-220.625	800.000	0.091	-0.353
-219.611	-200.000	-0.043	0.206
-218.596	385.305	0.050	0.104
-217.582	-156.792	0.352	-0.022
-216.567	-15.310	-0.189	0.121
-215.552	538.599	-0.138	-0.329
-214.538	-142.954	0.231	-0.022
-213.523	29.145	0.200	-0.171
-212.509	-1.581	0.117	0.083
-211.494	-116.967	-0.374	0.069
-210.479	246.524	-0.067	0.113
-209.465	179.663	0.031	0.046
-208.450	-200.000	-0.019	0.130
-207.436	23.712	0.207	0.171
-206.421	-19.209	-0.133	-0.083
-205.406	-187.038	-0.366	0.005
-204.392	-109.145	-0.088	-0.019
-203.377	162.785	0.108	0.152
-202.363	-75.540	0.273	-0.097
-201.348	-117.545	-0.288	0.052
-200.333	-48.130	0.321	0.155
-199.319	-99.141	0.336	0.085
-198.304	0.211	0.090	0.064
-197.290	41.679	-0.146	0.133
-196.275	49.288	-0.055	-0.052
-195.260	691.008	-0.103	-0.270
-194.246	-200.000	-0.001	0.009
-193.231	-200.000	0.009	0.099
-192.217	144.833	0.055	-0.073
-191.202	683.192	0.043	0.111
-190.187	800.000	0.064	-0.261
-189.173	5.101	0.186	-0.137
-188.158	-200.000	-0.004	-0.140
-187.144	137.443	-0.261	-0.343
-186.129	-1.975	-0.060	0.042
-185.114	-65.623	0.151	0.061
-184.100	0.504	0.350	0.251
-183.085	93.202	-0.097	-0.110
-182.071	138.001	-0.089	-0.116
-181.056	-88.548	0.363	-0.108
-180.042	800.000	0.067	0.230
-179.027	-200.000	-0.047	-0.000
-178.012	-29.739	0.297	0.169
-176.998	411.367	0.189	0.402
-175.983	52.346	0.185	0.177
-174.969	-200.000	0.001	0.074
-173.954	354.838	-0.198	-0.394
-172.939	-151.196	-0.221	0.017
-171.925	-200.000	-0.049	0.254
-170.910	34.050	-0.106	-0.092
-169.896	-200.000	-0.087	-0.494
-168.881	773.913	-0.018	0.049
-167.866	12.697	-0.128	-0.099
-166.852	-200.000	0.032	0.332
-165.837	-200.000	-0.025	0.184
-164.823	-200.000	0.049	0.367
-163.808	113.883	-0.093	-0.113
-162.793	-1.965	-0.253	-0.178
-161.779	-98.401	-0.102	-0.026
-160.764	137.869	-0.095	0.125
-159.750	-39.630	-0.123	0.064
-158.735	-10.337	0.259	-0.172
-157.720	20.722	0.160	-0.130
-156.706	156.731	0.157	-0.217
-155.691	-200.000	0.027	0.312
-154.677	120.726	-0.075	-0.093
-153.662	-66.454	0.162	-0.064
-152.647	-93.474	-0.324	0.090
-151.633	183.312	-0.198	0.293
-150.618	-59.053	0.265	-0.115
-149.604	800.000	-0.110	0.322
-148.589	94.101	0.220	0.250
-147.574	-60.961	-0.179	0.076
-146.560	685.329	-0.049	0.129
-145.545	71.516	0.083	-0.086
-144.531	-144.009	0.203	0.019
-143.516	-35.790	-0.038	-0.020
-142.502	-66.596	-0.071	0.028
-141.487	-152.454	-0.115	-0.008
-140.472	-77.065	0.355	0.124
-139.458	800.000	0.061	0.198
-138.443	-200.000	0.003	0.041
-137.429	800.000	-0.028	0.078
-136.414	-40.177	0.180	-0.094
-135.399	800.000	-0.100	0.311
-134.385	40.516	0.082	-0.074
-133.370	5.679	0.091	0.067
-132.356	121.183	-0.314	0.391
-131.341	-93.023	0.284	0.079
-130.326	735.501	0.063	-0.169
-129.312	-61.660	0.331	-0.139
-128.297	-200.000	-0.004	0.104
-127.283	-97.729	-0.189	0.049
-126.268	-132.331	-0.153	0.020
-125.253	-200.000	-0.035	-0.192
-124.239	157.667	0.136	-0.188
-123.224	35.028	-0.100	-0.088
-122.210	353.657	-0.177	0.351
