DTS Sentinel unit serial number:	SN413079Multiplexer serial number:	ORYXHardware model number:	OX4-SRSoftware version number:	ORYX F/W v4.00 Oryx Data Collector v3.7.2.0data status	okinstallation	princeton_trtdifferential loss correction	single-endedforward channel	channel 4reverse channel	N/Adate	2019/09/16time	10:29:34forward acquisition time	60.00reverse acquisition time	0.00gamma	496.2192k internal	0.2299k external	0.2299temperature offset calibration	0.9961default loss term (dB/km)	0.3790temperature slope calibration	1.0000multiplexer offset coefficient	1.0000multiplexer slope coefficient	1.0000fibre end	0.00T internal ref (°C)	35.23T ext. ref 1 (°C)	12.57T ext. ref 2 (°C)	33.65length (m)	temperature (°C)	Stokes	anti-Stokes-747.200	-30.099	0.362	0.210
-746.185	729.401	0.119	-0.323
-745.171	-200.000	0.053	-0.275
-744.156	265.551	-0.173	0.309
-743.142	-63.565	-0.012	0.005
-742.127	305.394	-0.211	0.400
-741.112	576.768	0.031	0.076
-740.098	-200.000	0.015	0.392
-739.083	572.670	0.095	-0.237
-738.069	-28.460	-0.119	-0.070
-737.054	-158.100	0.213	0.013
-736.039	133.086	-0.081	-0.107
-735.025	160.505	-0.087	-0.123
-734.010	-200.000	0.019	-0.141
-732.996	-97.715	0.346	-0.091
-731.981	-103.855	-0.277	0.066
-730.966	-200.000	-0.056	-0.255
-729.952	800.000	-0.167	0.489
-728.937	74.244	0.144	-0.154
-727.923	167.972	0.267	0.388
-726.908	86.091	-0.178	0.200
-725.894	90.412	-0.242	0.276
-724.879	72.390	0.045	0.047
-723.864	-200.000	-0.060	0.269
-722.850	-68.591	0.153	0.060
-721.835	-83.546	0.089	-0.029
-720.821	70.376	0.069	0.072
-719.806	-117.973	-0.209	-0.038
-718.791	-67.484	-0.230	0.092
-717.777	800.000	-0.031	-0.122
-716.762	-200.000	0.020	-0.259
-715.748	-97.630	0.208	-0.055
-714.733	93.208	-0.143	0.165
-713.718	145.854	0.095	-0.130
-712.704	-76.225	0.283	-0.102
-711.689	-137.604	-0.218	-0.025
-710.675	222.646	-0.218	0.357
-709.660	-54.306	-0.139	-0.064
-708.645	524.602	-0.096	0.229
-707.631	-200.000	-0.006	-0.146
-706.616	800.000	0.041	-0.179
-705.602	-200.000	0.019	-0.154
-704.587	51.279	-0.162	-0.156
-703.572	46.280	-0.215	0.203
-702.558	27.805	-0.052	-0.045
-701.543	-200.000	0.039	0.350
-700.529	-123.440	-0.143	0.023
-699.514	-72.627	-0.125	-0.047
-698.499	-147.528	0.254	0.022
-697.485	10.255	-0.112	0.087
-696.470	703.427	0.032	0.086
-695.456	-167.686	0.154	0.006
-694.441	-86.642	-0.212	0.066
-693.426	-49.521	-0.058	-0.028
-692.412	-98.800	-0.209	0.054
-691.397	4.565	-0.126	-0.094
-690.383	-115.503	0.224	-0.043
-689.368	-32.790	0.183	-0.103
-688.354	-72.522	0.063	0.024
-687.339	173.764	-0.033	0.049
-686.324	-200.000	-0.029	-0.197
-685.310	169.628	-0.100	-0.145
-684.295	658.509	-0.029	-0.075
-683.281	-130.140	-0.185	-0.026
-682.266	2.005	0.133	-0.097
-681.251	193.861	0.074	0.114
-680.237	-200.000	0.008	-0.260
-679.222	-124.804	0.277	-0.044
-678.208	252.046	0.260	-0.451
-677.193	-2.236	0.210	-0.150
-676.178	800.000	0.024	0.085
-675.164	431.142	-0.092	0.202
-674.149	-8.445	0.275	0.188
-673.135	-200.000	-0.009	0.285
-672.120	-127.498	0.375	0.055
-671.105	92.904	0.345	0.397
-670.091	-200.000	-0.020	-0.315
-669.076	267.714	-0.191	-0.339
-668.062	-18.889	-0.070	0.044
-667.047	-160.746	-0.310	0.017
-666.032	197.180	0.079	-0.123
-665.018	-49.618	-0.190	-0.092
-664.003	-142.694	-0.301	0.030
-662.989	95.035	-0.072	-0.083
-661.974	243.045	-0.065	-0.112
-660.959	-146.639	0.240	0.021
-659.945	-200.000	-0.015	0.089
-658.930	-122.733	0.319	0.052
-657.916	532.705	0.059	0.142
-656.901	-200.000	-0.037	0.260
-655.886	-186.758	0.145	-0.002
-654.872	800.000	0.026	0.101
-653.857	80.709	0.213	-0.233
-652.843	800.000	-0.063	-0.188
-651.828	-41.534	-0.185	-0.097
-650.814	-200.000	-0.049	-0.407
-649.799	-162.538	0.180	-0.009
-648.784	591.565	0.137	-0.343
-647.770	800.000	0.035	-0.133
-646.755	-200.000	0.019	0.142
-645.741	-200.000	-0.016	-0.243
-644.726	434.210	-0.052	-0.115
-643.711	61.737	0.220	-0.223
-642.697	286.677	0.235	0.432
-641.682	-134.459	-0.080	0.010
-640.668	210.095	0.141	-0.225
-639.653	-54.315	-0.309	0.142
-638.638	24.726	-0.177	0.149
-637.624	-25.664	0.210	0.126
-636.609	-147.139	0.326	-0.028
-635.595	-200.000	0.080	0.414
-634.580	-50.142	-0.202	-0.097
-633.565	408.762	-0.136	0.293
-632.551	-88.743	0.185	0.056
-631.536	-200.000	0.004	-0.065
-630.522	419.841	-0.160	-0.349
-629.507	-152.750	-0.214	0.015
-628.492	410.266	0.087	0.186
-627.478	-165.348	0.030	-0.001
-626.463	800.000	0.109	-0.390
-625.449	-4.212	0.368	-0.259
-624.434	-200.000	0.033	-0.180
-623.419	152.703	-0.147	-0.204
-622.405	207.721	0.035	-0.056
-621.390	218.383	-0.239	-0.388
-620.376	-124.516	-0.060	-0.009
-619.361	-102.563	0.354	-0.086
-618.346	-61.750	-0.358	-0.152
-617.332	56.404	-0.294	0.290
-616.317	-200.000	-0.038	0.267
-615.303	224.995	0.082	0.135
-614.288	122.476	-0.099	0.125
-613.273	800.000	0.062	-0.249
-612.259	-200.000	0.018	-0.383
-611.244	78.095	0.069	-0.075
-610.230	-16.323	-0.142	-0.091
-609.215	800.000	0.071	-0.283
-608.201	-200.000	-0.015	0.289
-607.186	-21.993	-0.024	0.015
-606.171	35.258	-0.336	-0.299
-605.157	-61.292	0.137	-0.059
-604.142	800.000	0.060	0.173
-603.128	78.742	-0.125	-0.136
-602.113	69.698	-0.192	-0.201
-601.098	243.749	-0.120	0.205
-600.084	-184.933	0.101	0.002
-599.069	33.559	0.318	0.281
-598.055	-24.516	0.198	-0.119
-597.040	16.990	-0.098	-0.079
-596.025	-34.928	-0.024	0.013
-595.011	-82.815	-0.062	-0.020
-593.996	-44.948	-0.157	0.079
-592.982	-200.000	0.004	0.072
-591.967	-22.250	-0.196	0.120
-590.952	-200.000	-0.008	-0.204
-589.938	-61.697	-0.075	-0.032
-588.923	-120.416	0.151	-0.026
-587.909	-200.000	-0.037	-0.297
-586.894	-98.469	-0.043	-0.011
-585.879	-49.502	0.137	-0.066
-584.865	-113.081	0.135	-0.027
-583.850	195.767	0.067	0.104
-582.836	-124.149	-0.102	0.016
-581.821	188.092	-0.160	0.243
-580.806	-200.000	0.036	-0.165
-579.792	-39.398	0.137	0.073
-578.777	189.166	-0.018	0.027
-577.763	-200.000	0.023	-0.169
-576.748	-200.000	-0.034	0.177
-575.733	-105.933	-0.515	-0.118
-574.719	-179.793	0.190	-0.004
-573.704	-36.700	0.254	0.138
-572.690	462.397	-0.039	0.087
-571.675	167.611	0.132	0.190
-570.661	-16.422	0.133	-0.085
-569.646	-95.525	0.397	-0.108
-568.631	-96.953	0.177	-0.047
-567.617	-200.000	0.038	0.335
-566.602	346.801	-0.042	0.084
-565.588	227.799	-0.179	-0.295
-564.573	-2.559	0.033	0.024
-563.558	-132.666	-0.192	-0.025
-562.544	399.182	0.019	-0.040
-561.529	506.836	-0.067	0.158
-560.515	97.843	-0.357	0.416
-559.500	800.000	-0.097	-0.336
-558.485	-9.143	-0.200	-0.136
-557.471	140.350	-0.196	0.262
-556.456	-26.671	0.272	-0.161
-555.442	-200.000	0.007	-0.300
-554.427	36.937	-0.186	0.167
-553.412	198.236	0.211	-0.326
-552.398	11.465	0.086	-0.066
-551.383	-20.902	0.449	0.278
-550.369	115.158	0.072	0.089
-549.354	-131.832	-0.533	-0.071
-548.339	-55.195	0.168	0.076
-547.325	-200.000	0.001	-0.278
-546.310	-105.430	0.023	0.005
-545.296	-30.442	-0.175	0.100
-544.281	23.471	-0.050	-0.042
-543.266	800.000	-0.081	-0.345
-542.252	143.895	0.210	-0.283
-541.237	45.837	-0.169	0.158
-540.223	-154.470	0.359	0.024
-539.208	315.353	-0.147	-0.280
-538.193	-112.495	0.039	-0.008
-537.179	-200.000	0.009	-0.286
-536.164	-200.000	-0.020	0.291
-535.150	8.472	0.204	-0.155
-534.135	643.594	-0.057	0.146
-533.121	-200.000	0.052	-0.357
-532.106	111.231	0.133	-0.162
-531.091	32.630	-0.036	-0.032
-530.077	-200.000	-0.018	-0.159
-529.062	-200.000	-0.024	0.138
-528.048	-173.179	0.086	-0.003
-527.033	-150.336	0.160	-0.012
-526.018	-200.000	0.005	-0.079
-525.004	-102.515	0.094	0.023
-523.989	-133.933	-0.253	-0.032
-522.975	800.000	0.066	0.277
-521.960	160.694	-0.093	0.132
-520.945	171.421	-0.079	-0.114
-519.931	191.797	0.138	-0.211
-518.916	-80.488	-0.149	0.050
-517.902	-200.000	-0.052	-0.305
-516.887	126.121	-0.094	0.120
-515.872	362.328	0.043	-0.088
-514.858	-120.727	0.226	-0.039
-513.843	800.000	0.044	-0.154
-512.829	-132.737	0.460	0.059
-511.814	131.804	0.108	0.140
-510.799	-36.435	-0.235	-0.128
-509.785	9.267	-0.143	0.109
-508.770	-3.947	0.142	0.100
-507.756	-108.810	-0.226	0.049
-506.741	-200.000	0.053	-0.285
-505.726	574.385	-0.025	-0.061
-504.712	800.000	-0.043	0.130
-503.697	365.942	-0.128	0.260
-502.683	-93.462	0.163	-0.046
-501.668	-4.320	0.186	-0.130
-500.653	-71.089	0.105	-0.040
-499.639	-51.834	-0.070	0.033
-498.624	42.775	-0.157	0.144
-497.610	800.000	0.076	0.248
-496.595	102.196	0.191	-0.225
-495.581	-105.734	0.112	0.026
-494.566	-200.000	-0.229	0.001
-493.551	800.000	-0.050	0.159
-492.537	146.192	-0.076	0.103
-491.522	499.119	-0.087	0.203
-490.508	202.942	-0.019	-0.030
-489.493	-161.436	0.330	-0.017
-488.478	27.088	0.134	-0.114
-487.464	54.569	0.091	0.089
-486.449	327.026	0.164	0.317
-485.435	-200.000	-0.060	0.279
-484.420	-200.000	-0.060	0.464
-483.405	-190.589	0.069	0.001
-482.391	-98.616	0.125	-0.032
-481.376	191.597	0.256	0.389
-480.362	-200.000	-0.008	0.147
-479.347	-200.000	0.053	0.288
-478.332	800.000	0.044	-0.193
-477.318	99.698	0.191	0.223
-476.303	-56.510	-0.104	0.046
-475.289	108.196	-0.057	0.068
-474.274	105.755	-0.031	0.037
-473.259	408.943	0.040	-0.085
-472.245	-5.230	-0.390	-0.271
-471.230	-125.707	-0.198	-0.030
-470.216	108.873	-0.037	-0.045
-469.201	-74.060	-0.100	-0.037
-468.186	-170.895	-0.271	-0.009
-467.172	147.029	-0.300	0.407
-466.157	488.178	-0.106	-0.244
-465.143	-105.094	-0.172	-0.040
-464.128	-30.495	0.134	0.077
-463.113	29.208	0.067	-0.058
-462.099	-37.880	0.128	-0.068
-461.084	-86.736	-0.352	0.109
-460.070	-200.000	0.031	0.213
-459.055	267.288	0.159	0.280
-458.040	164.380	-0.063	0.089
-457.026	-88.941	0.455	-0.136
-456.011	-19.857	-0.295	-0.184
-454.997	-200.000	-0.037	-0.192
-453.982	800.000	-0.007	0.029
-452.968	-162.315	0.100	-0.005
-451.953	-15.468	-0.136	-0.087
-450.938	-172.584	-0.102	-0.003
-449.924	-50.899	0.325	-0.154
-448.909	-200.000	-0.005	-0.185
-447.895	-72.161	0.071	-0.027
-446.880	-0.815	-0.086	0.062
-445.865	563.898	0.062	-0.151
-444.851	570.847	-0.102	-0.249
-443.836	-148.618	0.366	0.030
-442.822	189.191	-0.122	0.185
-441.807	303.610	0.082	0.153
-440.792	55.898	-0.154	-0.150
-439.778	-200.000	-0.079	-0.381
-438.763	-25.075	0.121	0.072
-437.749	-72.925	-0.050	0.019
-436.734	94.955	-0.025	0.029
-435.719	-110.528	-0.023	0.005
-434.705	-75.080	0.206	0.074
-433.690	-14.881	-0.229	-0.148
-432.676	-54.409	-0.114	-0.052
-431.661	-7.702	0.261	0.178
-430.646	-81.148	0.359	-0.119
-429.632	-200.000	0.010	0.254
-428.617	-53.848	-0.101	-0.046
-427.603	169.199	0.165	0.238
-426.588	-120.505	0.263	0.045
-425.573	-26.453	-0.231	-0.137
-424.559	-200.000	-0.005	0.369
-423.544	301.388	-0.069	-0.129
-422.530	-200.000	0.001	0.037
-421.515	295.229	0.082	-0.151
-420.500	170.037	-0.082	0.118
-419.486	-139.582	-0.128	-0.014
-418.471	-157.441	0.066	-0.004
-417.457	150.056	0.052	0.071
-416.442	35.271	0.107	-0.094
-415.428	-78.889	0.381	0.131
-414.413	-0.282	0.050	0.036
-413.398	-200.000	0.002	0.064
-412.384	800.000	0.203	0.576
-411.369	-122.771	0.324	-0.053
-410.355	-200.000	0.041	0.208
-409.340	-200.000	-0.011	0.162
-408.325	-150.991	0.254	-0.019
-407.311	-169.828	0.221	-0.008
-406.296	-101.547	-0.142	-0.035
-405.282	-168.504	0.215	0.008
-404.267	800.000	0.028	0.121
-403.252	800.000	-0.061	0.204
-402.238	49.333	-0.100	-0.095
-401.223	-21.366	0.254	0.156
-400.209	800.000	0.132	0.418
-399.194	800.000	0.083	0.264
-398.179	800.000	-0.074	0.205
-397.165	54.538	-0.327	-0.317
-396.150	-111.340	0.048	-0.010
-395.136	79.483	0.113	-0.122
-394.121	-47.224	0.265	-0.130
-393.106	222.584	0.079	0.128
-392.092	-158.757	-0.355	0.020
-391.077	73.481	-0.202	0.213
-390.063	233.922	-0.132	-0.219
-389.048	-102.289	-0.177	0.043
-388.033	252.860	-0.154	0.264
-387.019	-200.000	0.051	0.242
-386.004	800.000	0.115	-0.350
-384.990	166.651	0.182	-0.260
-383.975	81.666	-0.057	-0.062
-382.960	177.695	0.233	-0.341
-381.946	475.097	-0.099	-0.225
-380.931	172.786	-0.086	0.125
-379.917	-51.682	-0.332	-0.155
-378.902	20.416	0.013	-0.010
-377.888	211.310	-0.105	-0.166
-376.873	-200.000	-0.010	0.254
-375.858	-200.000	-0.001	-0.430
-374.844	-200.000	-0.081	0.535
-373.829	47.779	-0.293	0.275
-372.815	-42.682	0.215	-0.110
-371.800	-133.704	0.210	-0.026
-370.785	-200.000	-0.015	-0.216
-369.771	-6.658	-0.284	0.194
-368.756	-180.398	0.305	-0.006
-367.742	133.364	-0.148	-0.192
-366.727	-200.000	-0.055	-0.267
-365.712	-21.644	-0.405	0.248
-364.698	800.000	0.015	0.043
-363.683	601.918	-0.057	-0.144
-362.669	-32.862	0.439	0.245
-361.654	138.096	0.085	-0.112
-360.639	-200.000	0.048	0.338
-359.625	800.000	0.102	0.398
-358.610	100.867	-0.103	0.120
-357.596	511.293	-0.057	-0.134
-356.581	112.633	-0.219	-0.267
-355.566	552.799	-0.175	0.422
-354.552	-200.000	-0.025	0.401
-353.537	-107.484	0.209	0.046
-352.523	-19.123	-0.198	0.124
-351.508	438.399	0.115	-0.253
-350.493	-143.548	-0.093	-0.009
-349.479	-165.310	0.168	0.007
-348.464	800.000	-0.066	0.188
-347.450	-136.262	0.022	0.003
-346.435	47.066	-0.249	0.233
-345.420	161.485	-0.068	0.095
-344.406	-74.610	-0.362	-0.131
-343.391	22.624	-0.157	0.129
-342.377	800.000	0.028	-0.079
-341.362	-20.788	-0.208	0.128
-340.348	-200.000	0.037	0.230
-339.333	-114.718	-0.062	0.012
-338.318	-200.000	-0.060	-0.352
-337.304	62.912	0.197	-0.198
-336.289	57.215	-0.080	0.078
-335.275	-36.285	0.173	-0.094
-334.260	800.000	-0.034	-0.096
-333.245	-197.878	-0.319	-0.002
-332.231	-200.000	0.008	-0.236
-331.216	317.300	0.012	-0.023
-330.202	-29.445	0.257	-0.147
-329.187	-129.261	-0.229	0.032
-328.172	336.555	0.051	0.099
-327.158	-44.115	0.240	-0.121
-326.143	-200.000	0.031	-0.285
-325.129	37.442	0.301	-0.268
-324.114	3.574	0.079	-0.058
-323.099	-152.272	-0.309	0.022
-322.085	-77.932	0.292	-0.101
-321.070	800.000	-0.074	0.225
-320.056	-200.000	0.015	0.203
-319.041	88.930	-0.037	0.041
-318.026	-46.202	-0.203	0.100
-317.012	800.000	0.014	0.056
-315.997	408.135	-0.069	0.147
-314.983	94.602	-0.122	0.139
-313.968	265.533	0.040	-0.071
-312.953	461.979	-0.110	-0.245
-311.939	-135.556	-0.404	-0.048
-310.924	-69.888	-0.103	0.040
-309.910	134.268	0.136	-0.176
-308.895	-10.259	0.214	-0.143
-307.880	468.318	-0.115	0.260
-306.866	384.451	-0.065	0.135
-305.851	-185.721	0.088	0.001
-304.837	591.119	-0.087	-0.215
-303.822	46.989	-0.167	0.156
-302.807	-33.445	0.155	0.086
-301.793	-40.153	0.205	0.107
-300.778	304.086	-0.017	0.031
-299.764	-200.000	0.016	0.211
-298.749	-200.000	-0.027	0.356
-297.735	-155.608	0.329	-0.021
-296.720	-91.041	0.087	-0.025
-295.705	33.997	0.103	-0.090
-294.691	800.000	0.124	0.523
-293.676	-122.368	0.371	-0.061
-292.662	800.000	-0.031	-0.101
-291.647	-200.000	0.004	0.242
-290.632	137.141	-0.126	0.165
-289.618	18.233	0.198	0.158
-288.603	-52.435	0.186	-0.086
-287.589	431.225	-0.039	0.085
-286.574	629.088	0.086	-0.218
-285.559	-116.939	-0.232	0.043
-284.545	-171.147	-0.201	0.007
-283.530	-95.739	-0.265	-0.071
-282.516	43.421	0.148	0.136
-281.501	-200.000	-0.025	0.125
-280.486	10.439	-0.151	0.115
-279.472	-111.933	-0.482	-0.097
-278.457	196.526	0.131	-0.200
-277.443	-200.000	-0.035	-0.242
-276.428	-200.000	0.001	0.031
-275.413	-200.000	0.021	0.255
-274.399	-52.019	-0.147	0.069
-273.384	-200.000	0.047	0.245
-272.370	-41.064	0.221	0.114
-271.355	-68.521	-0.254	0.099
-270.340	-26.417	0.051	-0.030
-269.326	-45.191	-0.213	-0.106
-268.311	9.809	0.107	-0.082
-267.297	-200.000	-0.029	0.387
-266.282	800.000	0.051	-0.195
-265.267	272.330	-0.119	-0.209
-264.253	66.414	-0.161	0.164
-263.238	-111.919	-0.180	0.036
-262.224	8.829	0.322	-0.243
-261.209	800.000	-0.043	-0.119
-260.195	324.638	0.140	-0.268
-259.180	-200.000	-0.026	-0.121
-258.165	634.976	-0.203	-0.517
-257.151	-200.000	0.001	0.169
-256.136	-121.133	0.393	0.066
-255.122	330.671	-0.167	0.322
-254.107	800.000	-0.139	-0.423
-253.092	-123.889	0.333	-0.052
-252.078	1.848	-0.321	-0.231
-251.063	-62.943	-0.204	0.084
-250.049	97.234	-0.015	-0.017
-249.034	-13.936	0.144	0.093
-248.019	499.465	0.021	0.048
-247.005	-114.185	0.327	-0.063
-245.990	-102.960	0.181	0.043
-244.976	153.106	-0.100	0.137
-243.961	-200.000	0.042	-0.222
-242.946	-74.383	0.122	0.044
-241.932	52.661	0.276	-0.264
-240.917	-110.585	0.165	0.034
-239.903	-200.000	-0.027	0.246
-238.888	-120.812	0.161	0.027
-237.873	-200.000	0.011	-0.247
-236.859	-200.000	0.003	0.271
-235.844	-200.000	0.000	-0.185
-234.830	-200.000	0.016	-0.148
-233.815	-200.000	-0.001	-0.105
-232.800	-98.224	0.358	0.092
-231.786	800.000	-0.046	0.140
-230.771	-200.000	-0.008	0.099
-229.757	-200.000	-0.001	-0.185
-228.742	-140.213	-0.407	-0.043
-227.727	800.000	-0.043	-0.180
-226.713	-65.043	0.283	0.114
-225.698	21.571	-0.160	0.130
-224.684	-71.910	-0.384	-0.143
-223.669	-63.552	0.226	-0.093
-222.655	256.077	0.160	-0.274
-221.640	800.000	-0.022	0.065
-220.625	-48.792	0.121	-0.058
-219.611	-5.666	0.277	0.190
-218.596	-98.757	-0.308	-0.078
-217.582	51.482	-0.153	-0.145
-216.567	-170.050	0.208	0.007
-215.552	-6.580	-0.236	-0.161
-214.538	-109.093	-0.319	-0.068
-213.523	364.286	0.152	0.305
-212.509	800.000	0.020	0.069
-211.494	3.761	-0.098	-0.071
-210.479	-200.000	0.019	-0.085
-209.465	800.000	0.094	0.289
-208.450	-103.829	-0.249	0.058
-207.436	-90.525	-0.329	0.095
-206.421	23.225	0.107	-0.088
-205.406	800.000	0.055	0.160
-204.392	800.000	0.048	0.149
-203.377	-139.232	-0.157	-0.017
-202.363	-200.000	0.024	-0.277
-201.348	231.150	-0.065	0.106
-200.333	-30.423	-0.295	0.167
-199.319	-31.468	-0.277	0.155
-198.304	424.191	-0.029	-0.063
-197.290	56.117	0.113	-0.110
-196.275	-154.606	0.116	0.008
-195.260	-9.573	0.239	-0.159
-194.246	-63.396	-0.126	0.052
-193.231	-101.331	-0.267	0.065
-192.217	77.250	0.045	-0.048
-191.202	-200.000	0.014	-0.137
-190.187	-44.888	-0.051	-0.025
-189.173	312.482	-0.141	-0.264
-188.158	-200.000	0.008	-0.165
-187.144	-37.569	0.234	-0.124
-186.129	800.000	0.053	0.210
-185.114	-25.059	0.045	0.027
-184.100	112.300	0.215	-0.260
-183.085	-64.398	-0.433	0.176
-182.071	800.000	-0.044	0.170
-181.056	61.508	0.106	0.105
-180.042	800.000	0.059	0.170
-179.027	34.588	-0.224	0.196
-178.012	-200.000	-0.017	-0.091
-176.998	147.145	-0.035	0.047
-175.983	47.589	-0.147	0.137
-174.969	-200.000	-0.033	0.199
-173.954	-88.626	-0.041	0.012
-172.939	-95.763	-0.186	0.050
-171.925	7.380	0.085	-0.063
-170.910	445.959	0.079	0.173
-169.896	21.226	0.231	0.187
-168.881	35.804	0.227	-0.199
-167.866	512.111	0.067	-0.155
-166.852	-200.000	-0.036	-0.372
-165.837	-200.000	-0.063	-0.472
-164.823	-200.000	-0.037	-0.363
-163.808	-200.000	-0.022	-0.131
-162.793	-124.466	-0.181	0.028
-161.779	-200.000	0.050	0.269
-160.764	-124.858	0.242	0.037
-159.750	74.416	0.098	-0.103
-158.735	35.818	-0.420	-0.368
-157.720	-77.593	-0.103	-0.036
-156.706	-121.685	0.264	-0.044
-155.691	116.091	0.092	-0.112
-154.677	800.000	0.051	-0.216
-153.662	112.677	-0.158	0.191
-152.647	-12.977	-0.136	0.088
-151.633	329.297	-0.019	-0.036
-150.618	388.331	-0.156	0.322
-149.604	175.198	0.081	0.116
-148.589	-83.272	0.176	0.056
-147.574	102.975	0.190	0.222
-146.560	639.054	0.087	0.221
-145.545	-114.101	0.062	-0.012
-144.531	-54.899	-0.204	-0.092
-143.516	36.523	0.005	-0.004
-142.502	10.581	0.178	-0.135
-141.487	-200.000	0.011	0.130
-140.472	-200.000	0.027	-0.213
-139.458	427.683	0.075	0.162
-138.443	-74.286	-0.324	0.117
-137.429	465.248	0.104	-0.233
-136.414	-200.000	0.049	0.243
-135.399	800.000	0.042	0.181
-134.385	800.000	-0.052	0.210
-133.370	800.000	-0.053	0.189
-132.356	210.717	0.086	0.134
-131.341	-150.492	-0.336	0.026
-130.326	140.142	-0.092	0.121
-129.312	24.115	-0.103	0.085
-128.297	-39.364	0.174	0.091
-127.283	-200.000	0.020	0.248
-126.268	498.625	0.048	0.111
-125.253	-60.702	-0.281	0.119
-124.239	-200.000	-0.010	-0.079
-123.224	-200.000	-0.012	0.087
-122.210	-36.464	-0.328	0.176
