DTS Sentinel unit serial number:	SN413079Multiplexer serial number:	ORYXHardware model number:	OX4-SRSoftware version number:	ORYX F/W v4.00 Oryx Data Collector v3.7.2.0data status	okinstallation	princeton_trtdifferential loss correction	single-endedforward channel	channel 4reverse channel	N/Adate	2019/09/19time	12:33:35forward acquisition time	60.00reverse acquisition time	0.00gamma	496.2192k internal	0.2320k external	0.2320temperature offset calibration	1.0018default loss term (dB/km)	0.3790temperature slope calibration	1.0000multiplexer offset coefficient	1.0000multiplexer slope coefficient	1.0000fibre end	0.00T internal ref (°C)	27.20T ext. ref 1 (°C)	0.87T ext. ref 2 (°C)	24.83length (m)	temperature (°C)	Stokes	anti-Stokes-747.200	321.368	-0.171	0.329
-746.185	169.171	-0.204	0.294
-745.171	-94.463	0.059	-0.016
-744.156	800.000	-0.025	-0.079
-743.142	800.000	0.020	-0.062
-742.127	800.000	0.052	0.189
-741.112	-126.093	-0.206	0.031
-740.098	56.696	-0.174	0.171
-739.083	-200.000	0.004	0.470
-738.069	97.926	-0.360	0.419
-737.054	-68.476	0.052	-0.020
-736.039	-102.563	-0.305	-0.074
-735.025	800.000	-0.055	0.208
-734.010	-200.000	-0.009	-0.142
-732.996	79.384	0.150	-0.163
-731.981	23.192	0.203	-0.168
-730.966	257.213	0.070	-0.122
-729.952	220.184	-0.035	0.057
-728.937	119.418	0.174	-0.217
-727.923	-95.898	-0.150	0.040
-726.908	800.000	0.020	0.059
-725.894	165.729	-0.084	0.120
-724.879	-200.000	0.026	-0.375
-723.864	-200.000	-0.114	0.595
-722.850	-132.598	0.367	0.048
-721.835	-166.551	-0.256	-0.011
-720.821	395.466	-0.017	0.037
-719.806	-118.528	-0.155	0.028
-718.791	-52.507	0.638	-0.298
-717.777	0.835	0.335	0.242
-716.762	-137.463	-0.160	0.018
-715.748	239.641	0.100	-0.169
-714.733	34.412	0.198	-0.174
-713.718	-9.436	0.065	0.044
-712.704	-31.159	-0.172	0.098
-711.689	800.000	0.068	-0.240
-710.675	-4.776	0.195	0.136
-709.660	-200.000	-0.008	0.240
-708.645	-74.015	-0.237	-0.087
-707.631	-108.252	0.324	0.071
-706.616	401.364	0.094	0.200
-705.602	800.000	-0.099	0.289
-704.587	25.921	0.234	-0.197
-703.572	796.503	0.041	0.115
-702.558	-200.000	-0.013	-0.140
-701.543	800.000	0.051	-0.209
-700.529	800.000	-0.113	-0.398
-699.514	-23.324	0.323	-0.196
-698.499	479.767	0.024	0.056
-697.485	-77.160	-0.167	-0.059
-696.470	-148.824	0.611	0.050
-695.456	41.058	0.087	0.079
-694.441	376.816	-0.171	-0.353
-693.426	-108.305	0.357	0.078
-692.412	800.000	-0.018	0.055
-691.397	45.520	0.156	0.145
-690.383	62.152	-0.129	-0.129
-689.368	-55.061	0.251	-0.114
-688.354	123.081	-0.062	0.079
-687.339	-41.283	0.094	0.049
-686.324	312.609	-0.102	-0.194
-685.310	-200.000	0.050	-0.279
-684.295	177.963	-0.132	-0.194
-683.281	-130.914	-0.109	0.015
-682.266	222.005	0.052	0.085
-681.251	254.698	-0.126	0.218
-680.237	366.619	-0.172	-0.349
-679.222	-200.000	0.015	-0.312
-678.208	-119.610	-0.011	-0.002
-677.193	-120.250	0.198	0.034
-676.178	-3.757	0.169	-0.118
-675.164	-13.270	0.067	-0.044
-674.149	71.532	-0.294	0.308
-673.135	782.715	-0.054	0.150
-672.120	272.758	0.052	-0.092
-671.105	110.856	0.129	-0.156
-670.091	-6.218	0.044	-0.030
-669.076	800.000	-0.058	-0.180
-668.062	472.496	-0.071	-0.161
-667.047	-200.000	0.002	-0.174
-666.032	47.852	-0.130	-0.122
-665.018	-26.170	-0.198	0.117
-664.003	-110.686	-0.462	0.096
-662.989	-90.930	-0.273	0.079
-661.974	90.831	0.224	-0.253
-660.959	-79.900	0.162	-0.055
-659.945	-200.000	-0.002	-0.173
-658.930	-200.000	0.017	0.205
-657.916	121.715	0.316	-0.398
-656.901	-109.895	0.198	0.042
-655.886	-106.138	-0.061	0.014
-654.872	81.301	0.151	-0.164
-653.857	800.000	-0.176	-0.496
-652.843	-23.300	-0.143	-0.087
-651.828	800.000	0.056	-0.232
-650.814	-117.747	-0.255	-0.046
-649.799	54.021	-0.210	-0.203
-648.784	51.183	0.134	0.128
-647.770	-126.009	-0.203	0.031
-646.755	-41.865	-0.066	0.034
-645.741	251.705	-0.066	0.113
-644.726	-106.975	0.222	0.049
-643.711	800.000	0.037	0.104
-642.697	-91.021	-0.175	0.051
-641.682	-200.000	0.033	0.180
-640.668	-78.152	0.147	-0.051
-639.653	-200.000	-0.040	0.337
-638.638	163.240	-0.328	-0.464
-637.624	-92.765	-0.299	-0.084
-636.609	800.000	0.022	-0.084
-635.595	12.653	0.150	-0.116
-634.580	-167.561	0.169	-0.007
-633.565	332.752	0.072	0.139
-632.551	334.081	-0.064	-0.124
-631.536	-63.515	-0.079	-0.033
-630.522	-46.878	0.194	0.095
-629.507	-200.000	-0.028	-0.275
-628.492	-95.961	0.384	-0.103
-627.478	800.000	-0.028	-0.112
-626.463	-101.793	-0.338	0.082
-625.449	-200.000	-0.027	0.403
-624.434	-119.676	-0.185	0.032
-623.419	-200.000	-0.066	-0.423
-622.405	170.497	-0.212	-0.305
-621.390	58.442	0.116	-0.114
-620.376	481.049	-0.166	0.379
-619.361	27.649	-0.206	-0.174
-618.346	-17.140	-0.108	-0.069
-617.332	-97.314	0.172	-0.045
-616.317	-49.865	-0.224	0.107
-615.303	-72.498	0.222	-0.083
-614.288	112.910	-0.083	-0.101
-613.273	-200.000	0.006	0.218
-612.259	-82.665	-0.117	0.038
-611.244	-70.360	-0.331	0.126
-610.230	-200.000	-0.041	-0.321
-609.215	-119.612	-0.249	0.043
-608.201	-85.944	-0.169	0.053
-607.186	800.000	0.010	0.033
-606.171	-61.454	0.043	-0.018
-605.157	-128.206	-0.243	0.035
-604.142	-91.565	0.405	-0.116
-603.128	-113.408	0.275	0.054
-602.113	-200.000	-0.006	0.080
-601.098	100.057	-0.063	0.074
-600.084	-200.000	0.007	0.187
-599.069	-200.000	0.014	0.220
-598.055	-155.953	0.317	-0.020
-597.040	-58.006	-0.183	-0.080
-596.025	-200.000	-0.046	-0.283
-595.011	-62.028	-0.133	0.056
-593.996	561.506	0.107	0.259
-592.982	174.733	-0.241	0.351
-591.967	271.684	0.177	-0.313
-590.952	-200.000	0.045	0.210
-589.938	-107.690	0.146	-0.032
-588.923	-200.000	0.056	0.421
-587.909	-57.397	-0.187	-0.083
-586.894	-156.873	-0.339	0.021
-585.879	-28.772	-0.211	-0.122
-584.865	141.125	0.051	-0.068
-583.850	-200.000	-0.020	-0.250
-582.836	-200.000	0.012	0.260
-581.821	70.997	0.110	-0.115
-580.806	800.000	0.029	-0.127
-579.792	800.000	-0.038	0.133
-578.777	540.384	-0.022	-0.053
-577.763	-200.000	0.016	0.173
-576.748	-22.455	0.252	-0.153
-575.733	451.039	-0.151	-0.335
-574.719	800.000	0.036	0.117
-573.704	-200.000	-0.011	0.222
-572.690	14.074	-0.091	0.071
-571.675	-107.612	0.219	-0.048
-570.661	-200.000	-0.040	0.198
-569.646	-39.878	-0.206	0.108
-568.631	61.766	0.215	-0.215
-567.617	-55.404	-0.371	0.167
-566.602	77.351	0.042	0.045
-565.588	-38.456	0.147	0.078
-564.573	141.056	-0.118	-0.157
-563.558	-54.995	-0.247	-0.112
-562.544	-75.278	0.172	-0.062
-561.529	129.267	0.068	0.088
-560.515	800.000	0.089	-0.255
-559.500	-14.276	0.186	0.120
-558.485	-70.892	-0.101	-0.038
-557.471	139.381	-0.144	-0.190
-556.456	267.237	-0.185	0.326
-555.442	39.681	0.082	-0.074
-554.427	-200.000	0.006	-0.174
-553.412	195.299	-0.134	0.205
-552.398	157.099	0.111	0.153
-551.383	-103.524	0.165	0.039
-550.369	-200.000	0.001	0.144
-549.354	800.000	0.103	0.345
-548.339	-110.348	-0.284	0.059
-547.325	-149.028	-0.255	-0.021
-546.310	332.171	0.055	0.107
-545.296	-95.805	-0.205	-0.055
-544.281	385.015	-0.150	-0.311
-543.266	800.000	-0.096	-0.280
-542.252	-98.474	-0.128	0.033
-541.237	645.413	0.162	-0.416
-540.223	-137.804	0.265	-0.030
-539.208	2.689	0.101	-0.073
-538.193	78.207	0.108	0.115
-537.179	-11.382	-0.345	0.228
-536.164	-162.684	0.262	0.013
-535.150	800.000	0.042	0.141
-534.135	310.529	0.077	0.145
-533.121	-4.194	-0.310	-0.215
-532.106	37.548	0.119	-0.106
-531.091	-24.789	-0.195	0.116
-530.077	-200.000	0.025	-0.163
-529.062	-113.658	-0.036	0.007
-528.048	184.205	0.128	-0.189
-527.033	798.737	-0.076	-0.210
-526.018	-161.774	-0.601	-0.031
-525.004	47.842	-0.204	0.191
-523.989	-38.961	-0.308	0.163
-522.975	-200.000	0.025	0.162
-521.960	-64.367	0.308	0.126
-520.945	-128.949	0.355	-0.050
-519.931	-114.026	0.237	-0.046
-518.916	-42.861	-0.100	-0.051
-517.902	415.769	-0.084	-0.179
-516.887	274.807	0.016	0.028
-515.872	-91.033	-0.260	-0.075
-514.858	-200.000	0.033	-0.497
-513.843	-200.000	-0.008	-0.170
-512.829	-54.609	-0.100	0.046
-511.814	-200.000	-0.018	0.294
-510.799	730.115	-0.127	0.339
-509.785	243.170	0.087	0.146
-508.770	-200.000	-0.067	-0.000
-507.756	222.529	0.135	-0.218
-506.741	231.301	0.070	-0.114
-505.726	134.666	-0.054	-0.070
-504.712	47.948	0.270	-0.252
-503.697	525.090	-0.104	0.245
-502.683	-200.000	0.044	0.234
-501.668	-78.903	-0.057	0.019
-500.653	351.458	0.068	0.135
-499.639	36.466	-0.045	-0.040
-498.624	-8.149	-0.136	-0.092
-497.610	366.128	0.088	-0.177
-496.595	-83.509	-0.185	0.059
-495.581	-163.545	-0.047	-0.002
-494.566	-200.000	-0.014	-0.223
-493.551	-200.000	-0.035	-0.403
-492.537	173.961	0.200	0.290
-491.522	-126.580	0.308	-0.046
-490.508	31.681	0.173	0.149
-489.493	57.500	0.052	0.051
-488.478	185.218	-0.006	0.008
-487.464	-11.826	-0.233	0.153
-486.449	-113.769	-0.435	-0.085
-485.435	-200.000	-0.038	0.190
-484.420	16.589	0.187	0.148
-483.405	12.957	0.423	0.328
-482.391	-69.226	0.234	-0.090
-481.376	180.593	0.208	-0.305
-480.362	-200.000	0.031	-0.206
-479.347	686.448	0.124	0.323
-478.332	-200.000	0.035	0.245
-477.318	-31.720	-0.184	0.103
-476.303	633.773	-0.140	-0.354
-475.289	-200.000	-0.062	-0.286
-474.274	86.834	0.222	-0.245
-473.259	123.176	-0.060	-0.075
-472.245	223.837	0.019	-0.030
-471.230	-115.988	0.246	-0.046
-470.216	200.229	-0.194	0.298
-469.201	800.000	0.040	0.148
-468.186	74.849	-0.165	0.174
-467.172	-104.914	-0.203	-0.047
-466.157	800.000	0.082	0.332
-465.143	169.752	0.044	-0.062
-464.128	18.830	0.198	-0.159
-463.113	-180.407	-0.079	0.002
-462.099	-46.977	0.331	0.162
-461.084	-121.183	-0.353	-0.059
-460.070	24.177	0.089	0.074
-459.055	19.854	0.119	-0.096
-458.040	125.972	0.113	-0.143
-457.026	-200.000	0.035	0.193
-456.011	124.502	-0.069	0.087
-454.997	-98.756	-0.263	-0.067
-453.982	-120.852	-0.234	0.039
-452.968	200.471	-0.102	0.157
-451.953	42.426	0.267	0.243
-450.938	59.528	-0.199	-0.196
-449.924	-200.000	-0.018	0.101
-448.909	-128.940	0.250	-0.035
-447.895	528.818	-0.130	0.306
-446.880	-29.270	-0.230	-0.131
-445.865	327.653	0.062	-0.119
-444.851	503.017	0.064	0.148
-443.836	14.070	0.150	0.117
-442.822	7.299	-0.395	-0.295
-441.807	-86.610	0.188	0.058
-440.792	313.576	-0.091	0.172
-439.778	-146.606	0.104	-0.009
-438.763	-200.000	-0.007	0.196
-437.749	-161.542	-0.201	-0.010
-436.734	76.952	-0.109	-0.115
-435.719	791.902	0.062	0.169
-434.705	294.840	0.059	0.107
-433.690	-200.000	-0.041	-0.196
-432.676	354.435	0.207	-0.411
-431.661	-132.781	-0.594	0.076
-430.646	-60.945	0.326	-0.138
-429.632	-200.000	-0.002	-0.338
-428.617	-101.254	0.239	0.058
-427.603	-70.736	-0.315	-0.119
-426.588	-170.764	-0.427	0.015
-425.573	250.412	-0.155	0.263
-424.559	-52.793	0.153	0.070
-423.544	73.360	0.196	-0.205
-422.530	800.000	-0.019	0.073
-421.515	-200.000	0.000	-0.012
-420.500	41.220	-0.200	-0.180
-419.486	-17.724	0.217	0.136
-418.471	432.685	0.157	0.340
-417.457	22.736	-0.148	-0.121
-416.442	800.000	0.108	-0.453
-415.428	24.936	0.227	-0.188
-414.413	800.000	-0.108	-0.362
-413.398	-46.996	-0.312	-0.152
-412.384	800.000	-0.086	-0.318
-411.369	-126.881	0.532	-0.078
-410.355	-82.265	0.366	-0.119
-409.340	144.117	0.196	-0.261
-408.325	-101.865	0.327	0.079
-407.311	180.831	-0.161	-0.236
-406.296	-172.916	0.364	0.011
-405.282	800.000	0.042	-0.117
-404.267	-48.974	0.228	0.109
-403.252	123.645	-0.152	-0.191
-402.238	6.146	-0.065	-0.048
-401.223	268.457	-0.171	0.299
-400.209	-200.000	0.016	-0.346
-399.194	-35.692	-0.071	-0.039
-398.179	4.533	0.341	0.249
-397.165	-166.726	0.132	-0.005
-396.150	19.345	-0.043	-0.034
-395.136	263.631	0.162	0.280
-394.121	116.599	0.214	0.261
-393.106	459.044	-0.113	-0.250
-392.092	372.132	0.124	-0.252
-391.077	-121.104	0.153	0.026
-390.063	-200.000	0.014	0.147
-389.048	800.000	0.070	0.279
-388.033	-162.767	0.119	0.006
-387.019	-85.745	-0.359	-0.111
-386.004	800.000	-0.067	0.194
-384.990	172.311	0.138	0.198
-383.975	800.000	-0.077	0.253
-382.960	-29.824	0.148	-0.084
-381.946	63.756	-0.164	-0.165
-380.931	-200.000	0.015	-0.265
-379.917	195.166	-0.086	-0.130
-378.902	-137.964	0.178	0.020
-377.888	-119.019	0.120	0.021
-376.873	-59.781	0.044	-0.019
-375.858	-82.449	0.416	-0.135
-374.844	-200.000	-0.044	-0.307
-373.829	-33.814	-0.004	0.002
-372.815	800.000	0.083	-0.267
-371.800	-168.718	0.366	0.014
-370.785	246.764	0.059	-0.100
-369.771	-48.630	-0.092	0.044
-368.756	71.764	-0.152	-0.157
-367.742	-200.000	-0.014	0.134
-366.727	-93.326	0.247	0.068
-365.712	263.465	-0.161	-0.279
-364.698	800.000	-0.049	0.170
-363.683	-200.000	-0.047	0.232
-362.669	-61.405	0.197	0.083
-361.654	800.000	-0.033	-0.130
-360.639	-200.000	0.014	-0.104
-359.625	83.960	-0.087	-0.095
-358.610	-27.632	-0.110	0.063
-357.596	-183.417	-0.283	0.005
-356.581	224.023	0.049	0.078
-355.566	-4.596	-0.053	0.037
-354.552	156.808	-0.086	-0.118
-353.537	-9.550	-0.133	-0.088
-352.523	-81.688	-0.264	-0.086
-351.508	-30.481	0.174	0.098
-350.493	103.010	0.287	-0.335
-349.479	-200.000	-0.060	-0.336
-348.464	800.000	0.006	0.017
-347.450	131.557	0.172	-0.220
-346.435	-71.103	0.214	-0.080
-345.420	800.000	-0.097	-0.286
-344.406	453.146	-0.043	-0.095
-343.391	-200.000	-0.012	-0.195
-342.377	-17.981	-0.173	-0.108
-341.362	616.758	-0.056	0.140
-340.348	-58.047	-0.066	-0.029
-339.333	800.000	-0.006	-0.025
-338.318	-200.000	-0.017	-0.271
-337.304	-55.941	-0.297	-0.132
-336.289	168.573	0.125	0.178
-335.275	86.832	-0.231	0.254
-334.260	800.000	0.027	-0.108
-333.245	-140.395	0.136	-0.014
-332.231	-200.000	-0.056	-0.436
-331.216	-57.670	-0.087	-0.038
-330.202	199.052	-0.039	0.060
-329.187	-51.565	0.183	-0.085
-328.172	-175.583	-0.438	-0.012
-327.158	-10.171	-0.346	-0.229
-326.143	331.117	-0.138	0.264
-325.129	-18.797	-0.262	-0.162
-324.114	21.178	0.230	0.186
-323.099	800.000	0.027	-0.108
-322.085	-36.258	0.220	-0.118
-321.070	-200.000	0.060	-0.398
-320.056	800.000	-0.056	0.192
-319.041	-35.156	0.119	-0.065
-318.026	51.838	-0.018	0.017
-317.012	-133.290	-0.061	-0.008
-315.997	-200.000	-0.014	-0.099
-314.983	-200.000	0.014	-0.065
-313.968	79.002	-0.324	0.345
-312.953	-91.250	-0.230	-0.066
-311.939	-102.632	-0.165	0.039
-310.924	-99.284	0.190	-0.048
-309.910	-43.334	0.086	-0.043
-308.895	7.770	-0.156	0.116
-307.880	-200.000	0.001	-0.353
-306.866	-200.000	-0.064	-0.326
-305.851	236.991	0.260	0.428
-304.837	63.895	-0.030	0.030
-303.822	-200.000	0.059	0.300
-302.807	-93.734	0.255	0.070
-301.793	800.000	0.048	0.158
-300.778	676.830	-0.066	-0.170
-299.764	-54.595	0.151	0.068
-298.749	312.446	0.211	0.393
-297.735	-106.244	-0.147	0.033
-296.720	-200.000	-0.013	-0.088
-295.705	-28.144	0.063	0.036
-294.691	-166.775	0.271	0.011
-293.676	20.913	-0.161	0.130
-292.662	-106.381	0.328	0.073
-291.647	-200.000	0.013	-0.154
-290.632	-200.000	0.027	0.226
-289.618	239.833	-0.064	-0.105
-288.603	-36.228	-0.202	0.108
-287.589	-135.991	-0.230	-0.027
-286.574	-200.000	0.049	-0.225
-285.559	443.813	0.030	-0.064
-284.545	-150.416	0.221	0.017
-283.530	425.352	-0.128	0.273
-282.516	-200.000	0.024	-0.128
-281.501	-99.389	0.074	-0.019
-280.486	-104.557	0.051	0.012
-279.472	65.909	-0.123	-0.123
-278.457	73.307	0.142	-0.147
-277.443	-94.980	-0.161	0.043
-276.428	-147.964	-0.097	0.008
-275.413	-82.201	0.177	-0.057
-274.399	-17.372	-0.080	-0.050
-273.384	-200.000	-0.032	0.163
-272.370	-155.864	-0.335	-0.021
-271.355	364.909	0.150	-0.299
-270.340	-38.305	0.236	-0.124
-269.326	-133.556	0.391	-0.049
-268.311	-200.000	0.031	-0.162
-267.297	800.000	0.056	0.240
-266.282	-200.000	0.010	-0.204
-265.267	-37.205	0.230	0.122
-264.253	194.206	0.033	0.050
-263.238	4.863	0.073	0.053
-262.224	800.000	-0.070	0.261
-261.209	-106.303	-0.160	0.036
-260.195	-121.504	0.070	-0.012
-259.180	-83.572	0.216	0.069
-258.165	800.000	0.093	0.334
-257.151	-96.253	-0.116	-0.030
-256.136	-200.000	0.019	0.196
-255.122	203.456	0.033	0.051
-254.107	-200.000	-0.020	0.405
-253.092	-59.158	-0.163	-0.070
-252.078	29.654	-0.259	-0.219
-251.063	-200.000	0.076	0.428
-250.049	32.512	0.149	-0.128
-249.034	-66.254	-0.093	0.037
-248.019	78.600	-0.300	0.318
-247.005	29.502	0.093	0.079
-245.990	-173.801	0.171	0.005
-244.976	340.608	0.104	0.201
-243.961	787.230	-0.047	0.127
-242.946	539.187	-0.023	0.053
-241.932	230.170	0.044	-0.072
-240.917	-94.381	-0.188	-0.051
-239.903	307.137	0.086	0.159
-238.888	152.300	0.066	0.090
-237.873	-200.000	0.008	0.120
-236.859	-86.306	-0.187	-0.057
-235.844	-6.227	-0.157	-0.107
-234.830	65.122	0.108	0.108
-233.815	-143.971	-0.054	0.005
-232.800	94.727	-0.101	-0.114
-231.786	91.661	0.152	0.169
-230.771	-62.977	-0.215	0.088
-229.757	-200.000	-0.040	-0.439
-228.742	-200.000	-0.068	0.000
-227.727	-50.311	0.494	0.232
-226.713	50.483	-0.088	-0.082
-225.698	-200.000	-0.004	0.288
-224.684	-200.000	-0.034	0.160
-223.669	-84.028	-0.174	0.055
-222.655	160.683	0.127	-0.176
-221.640	233.851	-0.104	-0.170
-220.625	40.076	0.182	0.162
-219.611	-31.345	-0.283	-0.158
-218.596	-133.252	0.350	-0.044
-217.582	171.599	-0.234	-0.333
-216.567	86.406	0.075	-0.082
-215.552	-66.262	0.130	-0.051
-214.538	31.585	0.101	-0.086
-213.523	-142.271	-0.162	-0.016
-212.509	136.673	-0.050	-0.065
-211.494	800.000	0.104	0.336
-210.479	501.360	0.137	0.313
-209.465	-200.000	-0.021	-0.184
-208.450	-200.000	0.011	-0.199
-207.436	-200.000	0.012	0.235
-206.421	-108.405	-0.121	0.026
-205.406	403.377	0.090	0.187
-204.392	-119.175	-0.300	0.052
-203.377	43.064	0.076	-0.069
-202.363	-62.753	0.401	-0.164
-201.348	-41.693	0.118	0.060
-200.333	642.508	-0.072	0.181
-199.319	-85.645	0.132	-0.041
-198.304	37.684	-0.089	0.078
-197.290	-43.591	-0.481	0.240
-196.275	800.000	0.007	0.024
-195.260	-130.135	0.085	0.011
-194.246	-22.855	-0.107	0.064
-193.231	-200.000	0.003	-0.262
-192.217	116.581	0.099	0.121
-191.202	-151.624	0.126	-0.009
-190.187	21.501	0.188	0.151
-189.173	41.506	0.317	0.284
-188.158	236.376	-0.173	0.284
-187.144	-10.892	-0.297	-0.194
-186.129	-102.088	-0.344	-0.082
-185.114	197.875	0.062	0.093
-184.100	-200.000	0.024	-0.170
-183.085	800.000	-0.016	0.054
-182.071	800.000	0.022	0.089
-181.056	-200.000	0.023	0.261
-180.042	-69.786	0.166	0.063
-179.027	-57.820	0.316	0.137
-178.012	314.558	-0.142	0.265
-176.998	-200.000	-0.083	0.379
-175.983	-82.202	-0.299	-0.096
-174.969	-200.000	-0.006	0.060
-173.954	-78.044	0.381	0.130
-172.939	-200.000	0.037	0.410
-171.925	271.231	-0.035	0.060
-170.910	-128.925	0.486	-0.067
-169.896	99.224	-0.067	0.076
-168.881	800.000	0.102	-0.334
-167.866	-163.125	0.173	-0.008
-166.852	267.993	-0.145	0.252
-165.837	800.000	0.063	0.254
-164.823	800.000	-0.013	-0.054
-163.808	384.775	0.065	-0.133
-162.793	-200.000	-0.013	0.165
-161.779	51.905	0.225	-0.212
-160.764	-200.000	0.015	0.205
-159.750	-120.901	-0.169	-0.028
-158.735	-200.000	-0.024	-0.121
-157.720	719.357	-0.056	-0.147
-156.706	-200.000	0.013	0.100
-155.691	-64.103	0.073	-0.030
-154.677	-179.806	-0.377	0.008
-153.662	-117.623	0.221	-0.039
-152.647	-200.000	0.015	-0.369
-151.633	79.325	0.086	-0.092
-150.618	-123.414	-0.228	0.036
-149.604	241.059	-0.044	0.073
-148.589	33.912	0.209	-0.179
-147.574	800.000	0.033	0.111
-146.560	-164.301	-0.301	0.014
-145.545	-70.234	-0.126	-0.047
-144.531	-200.000	-0.022	0.307
-143.516	115.722	0.184	0.222
-142.502	186.229	-0.183	0.269
-141.487	73.872	0.242	0.251
-140.472	800.000	0.101	0.373
-139.458	-95.627	-0.187	-0.049
-138.443	-4.704	-0.203	0.139
-137.429	43.676	-0.050	0.045
-136.414	800.000	-0.051	0.149
-135.399	151.718	-0.190	-0.256
-134.385	-20.738	0.175	-0.106
-133.370	-144.309	0.339	0.031
-132.356	800.000	0.038	-0.148
-131.341	62.376	0.112	0.110
-130.326	17.586	0.148	-0.116
-129.312	-200.000	-0.005	-0.101
-128.297	52.270	-0.150	0.141
-127.283	-149.568	0.360	0.028
-126.268	414.868	0.045	0.096
-125.253	-70.880	-0.210	0.078
-124.239	-72.631	-0.254	0.092
-123.224	699.934	0.196	-0.508
-122.210	352.908	0.054	0.106
